DTS Sentinel unit serial number:	SN410029Multiplexer serial number:	ORYXHardware model number:	OX2-SRSoftware version number:	ORYX F/W v4,00 Oryx Data Collector v3.7.2.0data status	okinstallation	B3 Nyhavnadifferential loss correction	single-endedforward channel	channel 1reverse channel	N/Adate	2023/11/29time	04:32:30forward acquisition time	300,00reverse acquisition time	0,00gamma	499,1914k internal	0,3211k external	0,3211temperature offset calibration	1,0000default loss term (dB/km)	0,3820temperature slope calibration	1,0000multiplexer offset coefficient	1,0000multiplexer slope coefficient	1,0000fibre end	0,00T internal ref (°C)	9,29T ext. ref 1 (°C)	-6,13T ext. ref 2 (°C)	-6,25length (m)	temperature (°C)	Stokes	anti-Stokes-744,400	235,670	-0,204	-0,245
-743,385	800,000	-0,110	0,307
-742,371	-200,000	-0,071	-0,253
-741,356	800,000	0,167	0,397
-740,342	728,541	-0,116	-0,226
-739,327	-200,000	-0,020	0,157
-738,312	204,936	-0,143	-0,161
-737,298	800,000	-0,072	0,205
-736,283	264,917	-0,144	-0,183
-735,269	-200,000	-0,031	0,402
-734,254	211,309	-0,216	-0,247
-733,239	66,731	-0,156	0,115
-732,225	58,548	-0,191	-0,136
-731,210	739,906	0,125	0,245
-730,196	-58,440	0,072	0,023
-729,181	-200,000	-0,007	-0,032
-728,167	-125,487	-0,098	-0,011
-727,152	-200,000	-0,032	0,129
-726,137	-200,000	0,028	-0,095
-725,123	-83,522	0,042	-0,010
-724,108	800,000	-0,029	-0,070
-723,094	800,000	-0,061	-0,192
-722,079	-104,443	-0,179	0,030
-721,064	587,206	-0,030	-0,054
-720,050	-200,000	-0,025	-0,090
-719,035	-200,000	0,002	-0,106
-718,021	55,270	-0,111	0,078
-717,006	65,951	0,131	-0,096
-715,991	800,000	0,087	-0,198
-714,977	93,404	0,044	-0,036
-713,962	700,062	0,031	-0,059
-712,948	-200,000	0,003	0,046
-711,933	-86,382	0,150	-0,033
-710,918	-200,000	0,029	-0,109
-709,904	647,364	0,083	-0,154
-708,889	419,820	-0,107	-0,166
-707,875	-92,555	0,046	0,009
-706,860	144,330	0,018	0,017
-705,845	800,000	0,036	0,078
-704,831	800,000	0,063	0,145
-703,816	78,725	0,012	-0,009
-702,802	-0,637	-0,063	-0,032
-701,787	-106,357	-0,027	-0,004
-700,772	-200,000	0,002	0,077
-699,758	-74,351	0,007	-0,002
-698,743	-90,449	0,159	-0,033
-697,729	69,431	0,078	-0,058
-696,714	-200,000	0,005	-0,068
-695,699	-91,135	-0,059	-0,012
-694,685	-99,591	-0,106	-0,019
-693,670	800,000	0,050	-0,158
-692,656	260,516	-0,006	0,007
-691,641	121,195	0,012	0,011
-690,627	-48,499	0,116	0,040
-689,612	-200,000	-0,048	0,201
-688,597	-104,657	-0,044	0,007
-687,583	-46,550	0,107	0,038
-686,568	224,754	-0,162	-0,189
-685,554	451,784	0,013	-0,020
-684,539	-52,639	0,125	-0,042
-683,524	203,651	-0,015	0,017
-682,510	57,406	0,084	-0,059
-681,495	-200,000	-0,038	-0,241
-680,481	235,388	-0,058	-0,069
-679,466	800,000	-0,033	-0,096
-678,451	-105,627	-0,036	0,006
-677,437	246,291	-0,068	0,083
-676,422	-78,598	0,092	0,023
-675,408	-200,000	0,004	-0,036
-674,393	800,000	-0,053	0,169
-673,378	-200,000	0,011	0,051
-672,364	-200,000	-0,003	-0,015
-671,349	800,000	-0,032	0,082
-670,335	240,434	-0,072	-0,088
-669,320	-87,355	-0,119	0,026
-668,305	-123,161	-0,068	0,008
-667,291	66,066	0,059	-0,043
-666,276	-200,000	-0,001	-0,027
-665,262	12,579	-0,011	-0,006
-664,247	503,766	-0,037	0,062
-663,232	-200,000	0,005	0,042
-662,218	-200,000	-0,011	-0,065
-661,203	-135,731	0,228	0,019
-660,189	297,281	0,058	-0,077
-659,174	34,002	-0,118	0,074
-658,159	15,843	-0,137	-0,078
-657,145	-200,000	-0,028	-0,100
-656,130	28,338	0,119	-0,072
-655,116	800,000	-0,011	0,031
-654,101	540,953	-0,094	0,163
-653,086	-120,528	0,071	0,009
-652,072	-37,895	-0,055	0,021
-651,057	-95,737	0,074	0,014
-650,043	-200,000	-0,002	0,093
-649,028	735,418	0,059	-0,115
-648,014	800,000	-0,019	-0,047
-646,999	527,542	-0,064	-0,110
-645,984	-200,000	-0,005	-0,021
-644,970	-17,021	0,084	-0,038
-643,955	191,637	-0,059	0,064
-642,941	-189,513	-0,072	-0,001
-641,926	137,983	0,139	0,132
-640,911	800,000	-0,014	-0,029
-639,897	-200,000	0,036	-0,147
-638,882	-85,220	0,120	-0,027
-637,868	-44,570	-0,138	-0,050
-636,853	-200,000	-0,019	-0,064
-635,838	57,686	-0,103	-0,073
-634,824	-101,891	0,095	-0,016
-633,809	-200,000	-0,052	0,169
-632,795	-133,169	0,160	-0,014
-631,780	-77,253	-0,075	0,019
-630,765	-106,048	0,107	0,017
-629,751	47,390	-0,076	-0,051
-628,736	299,173	0,081	-0,108
-627,722	105,587	-0,099	0,084
-626,707	146,318	-0,081	-0,079
-625,692	-200,000	-0,041	0,163
-624,678	-1,269	-0,097	-0,049
-623,663	-110,984	-0,129	-0,019
-622,649	-83,669	-0,079	-0,018
-621,634	26,409	0,062	-0,037
-620,619	-60,453	0,099	0,030
-619,605	-51,280	-0,121	-0,041
-618,590	800,000	0,007	0,017
-617,576	419,758	0,055	0,086
-616,561	-133,382	-0,233	-0,021
-615,546	11,550	0,128	-0,070
-614,532	800,000	0,035	-0,087
-613,517	800,000	0,023	-0,068
-612,503	-200,000	0,018	0,084
-611,488	105,847	0,019	0,016
-610,474	392,311	-0,097	-0,145
-609,459	-200,000	-0,008	0,054
-608,444	-124,089	-0,110	-0,012
-607,430	132,528	-0,174	-0,162
-606,415	-72,675	0,032	0,008
-605,401	-200,000	-0,023	0,095
-604,386	4,736	-0,098	-0,052
-603,371	-169,892	-0,036	-0,001
-602,357	61,398	-0,101	0,072
-601,342	-24,057	-0,131	0,056
-600,328	-200,000	-0,003	-0,138
-599,313	35,418	0,023	0,014
-598,298	-200,000	-0,001	-0,073
-597,284	296,232	-0,024	-0,032
-596,269	-174,415	-0,130	-0,003
-595,255	220,455	-0,099	0,115
-594,240	-29,305	-0,084	-0,034
-593,225	29,086	-0,130	0,080
-592,211	-51,092	-0,077	-0,026
-591,196	-200,000	-0,003	-0,083
-590,182	-5,456	0,088	0,043
-589,167	351,672	0,116	0,166
-588,152	67,098	-0,046	-0,034
-587,138	-200,000	-0,008	-0,141
-586,123	-31,166	-0,058	0,023
-585,109	469,928	-0,052	0,084
-584,094	-200,000	0,017	-0,069
-583,079	-85,902	0,141	0,031
-582,065	-103,853	-0,082	-0,014
-581,050	-152,847	-0,148	0,007
-580,036	-44,749	0,058	-0,021
-579,021	-40,528	-0,084	-0,031
-578,006	8,409	-0,108	0,058
-576,992	-31,271	-0,037	0,015
-575,977	-14,497	0,019	-0,009
-574,963	800,000	-0,116	0,253
-573,948	-200,000	0,024	0,113
-572,934	800,000	-0,032	-0,076
-571,919	145,630	-0,050	-0,048
-570,904	800,000	0,037	-0,111
-569,890	-106,366	-0,021	0,003
-568,875	-200,000	0,009	-0,032
-567,861	-69,668	0,115	-0,032
-566,846	-200,000	0,031	0,125
-565,831	-200,000	0,002	0,053
-564,817	-40,061	-0,177	0,066
-563,802	358,584	-0,135	-0,194
-562,788	144,843	0,098	-0,094
-561,773	38,217	0,026	-0,017
-560,758	14,775	-0,042	0,024
-559,744	-154,549	0,045	0,002
-558,729	-200,000	-0,025	0,081
-557,715	264,953	-0,065	0,082
-556,700	182,414	0,063	-0,067
-555,685	155,623	-0,067	0,067
-554,671	150,683	0,002	0,002
-553,656	-200,000	0,020	0,081
-552,642	204,374	0,098	-0,110
-551,627	800,000	-0,037	-0,108
-550,612	800,000	-0,037	-0,111
-549,598	331,930	-0,039	0,055
-548,583	73,923	0,084	0,063
-547,569	-200,000	-0,011	0,073
-546,554	185,622	0,083	0,088
-545,539	-200,000	0,023	0,116
-544,525	-84,768	-0,021	-0,005
-543,510	-113,780	-0,208	-0,029
-542,496	56,406	0,085	0,059
-541,481	-126,688	-0,038	0,004
-540,466	800,000	0,062	-0,133
-539,452	-29,052	0,166	0,068
-538,437	-200,000	-0,038	0,182
-537,423	107,415	-0,082	0,070
-536,408	168,276	0,085	0,087
-535,393	-200,000	-0,022	0,079
-534,379	-57,052	-0,148	0,046
-533,364	99,840	0,037	0,031
-532,350	57,732	-0,038	-0,026
-531,335	103,339	0,036	0,031
-530,321	-58,593	0,064	-0,020
-529,306	-200,000	-0,003	-0,098
-528,291	-200,000	-0,025	-0,080
-527,277	102,976	0,020	-0,017
-526,262	800,000	-0,036	-0,078
-525,248	-106,924	0,057	-0,009
-524,233	-7,025	0,111	-0,054
-523,218	592,735	-0,036	0,064
-522,204	-200,000	0,040	0,138
-521,189	-200,000	0,002	-0,121
-520,175	5,767	0,050	-0,027
-519,160	-200,000	-0,008	0,135
-518,145	-200,000	-0,031	-0,186
-517,131	-200,000	-0,030	-0,104
-516,116	23,630	0,059	0,035
-515,102	800,000	-0,014	0,032
-514,087	800,000	0,044	-0,093
-513,072	-200,000	-0,019	-0,120
-512,058	753,277	-0,017	0,032
-511,043	798,045	-0,075	0,149
-510,029	-200,000	0,022	0,122
-509,014	37,485	-0,117	0,074
-507,999	-171,647	0,100	-0,002
-506,985	428,642	0,070	-0,109
-505,970	-44,291	0,079	-0,028
-504,956	800,000	-0,013	-0,041
-503,941	519,961	-0,121	-0,205
-502,926	526,088	-0,033	0,056
-501,912	-200,000	-0,016	-0,081
-500,897	-59,825	-0,129	-0,039
-499,883	214,668	0,082	-0,094
-498,868	-200,000	0,005	-0,163
-497,853	-103,215	-0,180	-0,030
-496,839	-63,108	0,095	0,028
-495,824	-48,575	0,121	0,042
-494,810	-91,202	0,055	0,011
-493,795	218,741	-0,066	-0,076
-492,781	8,226	-0,158	-0,085
-491,766	-86,498	0,048	-0,011
-490,751	800,000	-0,007	-0,016
-489,737	-148,800	0,158	0,009
-488,722	65,666	0,059	-0,043
-487,708	-39,246	-0,022	0,008
-486,693	-48,584	-0,142	0,049
-485,678	510,861	-0,070	0,117
-484,664	-29,253	-0,061	-0,025
-483,649	-200,000	0,017	-0,145
-482,635	-70,028	0,184	-0,050
-481,620	-99,718	-0,073	-0,013
-480,605	388,734	0,042	0,062
-479,591	-45,265	0,163	0,058
-478,576	800,000	-0,050	-0,104
-477,562	-66,681	0,037	0,010
-476,547	800,000	-0,075	0,151
-475,532	122,233	-0,091	0,082
-474,518	800,000	0,004	0,009
-473,503	281,933	0,043	0,055
-472,489	-54,286	0,063	0,020
-471,474	9,702	0,114	-0,062
-470,459	42,545	-0,047	-0,031
-469,445	-35,507	0,059	0,023
-468,430	-132,194	-0,085	0,008
-467,416	6,676	0,017	0,009
-466,401	800,000	0,040	-0,099
-465,386	141,476	0,139	0,132
-464,372	107,248	0,018	-0,016
-463,357	265,109	-0,040	0,051
-462,343	165,651	0,058	0,059
-461,328	-200,000	0,006	0,102
-460,313	92,237	0,076	0,062
-459,299	-200,000	0,006	0,024
-458,284	-200,000	-0,027	-0,094
-457,270	540,702	-0,071	0,122
-456,255	-200,000	-0,001	0,125
-455,241	-116,818	-0,079	-0,010
-454,226	41,652	0,036	-0,023
-453,211	11,154	0,090	-0,049
-452,197	-200,000	-0,011	0,067
-451,182	-200,000	-0,016	-0,094
-450,168	-200,000	0,028	0,190
-449,153	-148,099	-0,200	-0,012
-448,138	800,000	0,056	-0,142
-447,124	800,000	0,026	-0,058
-446,109	-200,000	-0,003	-0,058
-445,095	-28,643	0,134	0,055
-444,080	-200,000	-0,017	0,119
-443,065	-9,300	-0,071	0,034
-442,051	-200,000	0,033	0,109
-441,036	-200,000	0,016	0,081
-440,022	-174,303	0,024	0,000
-439,007	649,448	0,052	-0,096
-437,992	-95,522	0,042	0,008
-436,978	-7,438	0,065	-0,031
-435,963	800,000	0,038	0,090
-434,949	-200,000	0,003	0,018
-433,934	-44,985	-0,128	-0,045
-432,919	-200,000	-0,022	-0,136
-431,905	-200,000	0,008	0,098
-430,890	64,096	0,066	0,047
-429,876	-119,752	0,106	-0,013
-428,861	800,000	0,056	0,124
-427,846	-110,097	-0,014	-0,002
-426,832	125,073	0,005	-0,004
-425,817	-200,000	0,004	-0,057
-424,803	-200,000	-0,003	-0,082
-423,788	-33,084	0,034	-0,014
-422,773	-91,897	0,057	-0,011
-421,759	-200,000	-0,012	-0,047
-420,744	800,000	-0,053	-0,114
-419,730	-200,000	-0,008	0,033
-418,715	18,251	-0,042	-0,024
-417,701	800,000	0,006	0,014
-416,686	22,534	0,010	-0,006
-415,671	-20,979	0,120	-0,052
-414,657	-9,363	0,066	-0,031
-413,642	800,000	-0,019	-0,050
-412,628	222,158	-0,111	-0,129
-411,613	-13,848	0,075	-0,035
-410,598	-38,485	-0,229	0,086
-409,584	-200,000	0,005	-0,041
-408,569	800,000	-0,053	0,152
-407,555	-200,000	-0,023	0,091
-406,540	-92,066	0,082	-0,016
-405,525	-200,000	-0,010	-0,105
-404,511	800,000	-0,056	0,128
-403,496	374,489	0,038	0,056
-402,482	-150,409	-0,214	-0,012
-401,467	421,038	-0,084	0,129
-400,452	288,863	0,048	0,062
-399,438	800,000	-0,017	0,047
-398,423	-200,000	0,017	-0,243
-397,409	-72,788	-0,133	0,035
-396,394	800,000	-0,037	-0,099
-395,379	-57,759	-0,154	0,048
-394,365	800,000	0,030	0,077
-393,350	-200,000	0,003	0,040
-392,336	344,143	-0,047	0,066
-391,321	-36,944	0,012	0,005
-390,306	567,164	0,017	0,030
-389,292	66,103	-0,099	-0,071
-388,277	299,453	0,084	-0,111
-387,263	-200,000	0,000	-0,014
-386,248	-22,122	0,056	0,024
-385,233	10,227	0,063	-0,034
-384,219	-200,000	-0,002	0,041
-383,204	651,626	0,071	-0,131
-382,190	-185,546	0,057	0,001
-381,175	800,000	0,023	0,062
-380,160	-200,000	-0,006	0,092
-379,146	214,770	0,085	0,097
-378,131	135,357	-0,004	0,004
-377,117	-71,843	-0,075	0,020
-376,102	800,000	0,022	-0,053
-375,088	244,815	0,056	-0,067
-374,073	84,753	-0,119	-0,093
-373,058	-1,757	0,131	-0,066
-372,044	9,148	0,086	0,046
-371,029	66,713	0,079	0,057
-370,015	165,107	-0,015	-0,015
-369,000	-200,000	0,004	0,099
-367,985	492,509	-0,039	-0,064
-366,971	-200,000	-0,018	-0,068
-365,956	178,742	0,033	0,034
-364,942	-200,000	0,020	-0,091
-363,927	465,350	0,105	0,168
-362,912	800,000	-0,039	0,078
-361,898	-30,052	0,077	-0,031
-360,883	-200,000	-0,042	-0,133
-359,869	-49,768	0,064	-0,022
-358,854	-200,000	-0,028	0,150
-357,839	800,000	0,035	0,083
-356,825	65,958	-0,074	0,053
-355,810	-146,551	0,149	0,009
-354,796	-98,778	-0,094	-0,017
-353,781	-134,588	-0,102	-0,009
-352,766	301,287	0,024	-0,032
-351,752	-52,452	0,038	0,013
-350,737	184,005	0,114	0,121
-349,723	-65,757	-0,053	-0,015
-348,708	-43,419	0,189	0,068
-347,693	707,776	-0,036	-0,068
-346,679	800,000	-0,008	-0,023
-345,664	800,000	-0,065	-0,163
-344,650	-200,000	-0,013	0,045
-343,635	34,113	-0,092	-0,057
-342,620	-158,362	0,190	0,008
-341,606	146,908	0,074	0,071
-340,591	409,388	-0,008	0,012
-339,577	-63,107	-0,096	-0,028
-338,562	-69,544	-0,089	0,024
-337,548	24,625	0,085	0,050
-336,533	198,614	0,095	0,104
-335,518	-200,000	0,007	0,176
-334,504	-125,304	0,110	0,012
-333,489	-144,711	-0,093	-0,006
-332,475	3,488	-0,148	-0,077
-331,460	70,629	0,049	-0,036
-330,445	528,561	0,053	0,089
-329,431	-25,497	-0,058	0,024
-328,416	-53,640	0,128	-0,042
-327,402	-102,765	-0,130	0,022
-326,387	321,477	0,033	-0,044
-325,372	214,299	0,070	0,079
-324,358	73,005	-0,148	-0,110
-323,343	-83,999	-0,013	-0,003
-322,329	800,000	0,050	0,133
-321,314	18,304	-0,104	0,059
-320,299	-33,702	0,060	-0,023
-319,285	-200,000	-0,006	0,064
-318,270	292,126	0,040	0,053
-317,256	-200,000	-0,007	-0,130
-316,241	-111,057	0,109	0,016
-315,226	-46,665	-0,045	0,016
-314,212	-200,000	-0,008	0,104
-313,197	800,000	-0,018	-0,041
-312,183	714,605	-0,037	0,070
-311,168	478,875	-0,038	-0,062
-310,153	468,400	-0,052	-0,083
-309,139	-200,000	-0,010	-0,091
-308,124	8,859	0,167	0,090
-307,110	295,431	0,033	0,043
-306,095	-200,000	0,031	0,099
-305,080	-200,000	-0,009	0,069
-304,066	91,172	-0,107	-0,086
-303,051	-200,000	-0,018	-0,066
-302,037	57,787	-0,127	-0,089
-301,022	-200,000	0,005	0,069
-300,008	-200,000	0,026	0,135
-298,993	-13,734	0,057	-0,026
-297,978	-200,000	0,015	0,114
-296,964	-27,580	-0,033	-0,013
-295,949	31,851	0,044	-0,027
-294,935	11,914	-0,029	-0,016
-293,920	-75,697	0,063	-0,016
-292,905	-60,289	-0,071	-0,021
-291,891	-200,000	0,030	0,238
-290,876	800,000	0,029	0,063
-289,862	483,603	-0,090	-0,146
-288,847	2,316	-0,043	-0,022
-287,832	85,746	0,036	0,028
-286,818	-200,000	0,007	-0,088
-285,803	585,055	-0,058	0,102
-284,789	800,000	0,046	-0,112
-283,774	-44,758	0,056	0,020
-282,759	76,513	0,103	-0,078
-281,745	-6,523	-0,090	-0,044
-280,730	800,000	-0,024	-0,066
-279,716	800,000	0,035	-0,082
-278,701	-195,708	0,161	-0,001
-277,686	4,376	0,095	0,049
-276,672	-21,343	0,127	0,055
-275,657	601,451	-0,043	0,076
-274,643	-57,566	-0,115	-0,036
-273,628	-126,504	-0,029	-0,003
-272,613	439,167	0,028	0,043
-271,599	800,000	-0,023	0,057
-270,584	64,468	-0,072	-0,051
-269,570	44,627	-0,087	-0,057
-268,555	-200,000	0,019	-0,115
-267,540	139,825	0,127	-0,120
-266,526	-85,854	0,003	0,001
-265,511	-181,173	-0,051	-0,001
-264,497	35,151	0,064	-0,040
-263,482	107,737	0,085	0,072
-262,467	-95,665	0,079	-0,015
-261,453	800,000	0,050	-0,113
-260,438	-127,097	0,227	-0,023
-259,424	283,238	-0,058	0,075
-258,409	-80,155	0,057	0,014
-257,395	-200,000	-0,004	0,092
-256,380	-79,896	0,063	0,015
-255,365	-54,472	-0,031	-0,010
-254,351	119,759	0,060	0,053
-253,336	726,876	0,028	-0,054
-252,322	800,000	0,068	-0,154
-251,307	197,883	0,045	-0,049
-250,292	152,953	-0,079	-0,077
-249,278	-200,000	0,005	-0,153
-248,263	497,533	0,123	0,201
-247,249	390,746	0,042	0,062
-246,234	118,532	-0,035	-0,031
-245,219	-200,000	-0,006	-0,047
-244,205	697,453	0,084	-0,157
-243,190	144,265	0,066	0,063
-242,176	800,000	0,034	0,074
-241,161	13,990	-0,078	-0,043
-240,146	800,000	0,013	0,038
-239,132	99,388	-0,044	-0,036
-238,117	773,750	-0,056	-0,109
-237,103	800,000	0,036	-0,101
-236,088	-39,545	0,098	0,036
-235,073	800,000	0,025	-0,059
-234,059	123,059	-0,030	0,027
-233,044	-200,000	0,006	0,044
-232,030	-130,596	0,059	0,006
-231,015	-9,877	-0,055	-0,026
-230,000	-9,295	-0,135	-0,064
-228,986	-200,000	0,003	0,078
-227,971	471,620	0,040	0,065
-226,957	-200,000	0,004	0,054
-225,942	-148,900	0,089	-0,005
-224,927	800,000	-0,039	-0,077
-223,913	-155,345	-0,073	0,003
-222,898	8,786	-0,031	0,017
-221,884	800,000	-0,004	0,009
-220,869	25,615	-0,063	-0,037
-219,855	800,000	0,042	-0,088
-218,840	-100,065	0,165	-0,029
-217,825	-200,000	-0,001	0,095
-216,811	232,025	0,060	-0,070
-215,796	-59,268	-0,147	0,045
-214,782	-200,000	0,007	-0,060
-213,767	465,285	0,060	-0,095
-212,752	51,663	0,125	-0,084
-211,738	-156,205	0,085	-0,004
-210,723	-113,105	0,033	-0,005
-209,709	-21,961	-0,176	-0,076
-208,694	546,107	-0,058	0,099
-207,679	659,497	-0,032	-0,059
-206,665	-165,544	-0,134	-0,004
-205,650	-200,000	0,044	0,140
-204,636	-200,000	-0,026	0,101
-203,621	-200,000	0,034	0,123
-202,606	782,206	-0,006	0,011
-201,592	-107,501	-0,082	0,013
-200,577	662,718	0,044	-0,082
-199,563	-90,026	0,157	0,032
-198,548	403,660	-0,068	0,101
-197,533	-200,000	0,005	-0,034
-196,519	-86,764	0,051	-0,011
-195,504	-129,266	-0,136	0,013
-194,490	-200,000	0,005	0,021
-193,475	800,000	-0,031	0,079
-192,460	-200,000	-0,009	-0,167
-191,446	-108,621	-0,105	0,016
-190,431	-200,000	0,016	0,060
-189,417	24,966	-0,043	-0,025
-188,402	406,672	0,044	-0,065
-187,387	800,000	0,041	-0,120
-186,373	2,269	-0,117	0,060
-185,358	46,879	0,024	-0,015
-184,344	-73,065	0,120	-0,031
-183,329	-200,000	0,023	0,138
-182,315	-183,653	-0,060	0,001
-181,300	115,335	0,031	-0,027
-180,285	-141,971	0,044	0,003
-179,271	129,212	0,018	0,016
-178,256	-200,000	-0,028	-0,146
-177,242	-22,641	-0,108	-0,046
-176,227	-200,000	0,007	0,107
-175,212	-200,000	-0,000	0,136
-174,198	-186,738	0,016	-0,000
-173,183	800,000	-0,010	-0,023
-172,169	51,610	0,059	-0,040
-171,154	800,000	0,027	-0,072
-170,139	232,535	-0,038	0,044
-169,125	246,508	0,057	0,068
-168,110	-200,000	-0,003	0,053
-167,096	-39,241	-0,170	0,063
-166,081	-50,248	0,199	0,066
-165,066	279,446	-0,067	0,085
-164,052	-50,307	-0,164	0,055
-163,037	162,339	0,087	0,087
-162,023	-161,802	0,167	0,006
-161,008	449,775	0,073	-0,115
-159,993	49,174	-0,056	-0,037
-158,979	303,445	-0,084	0,111
-157,964	111,978	-0,050	-0,043
-156,950	-200,000	0,009	-0,171
-155,935	-68,164	-0,106	-0,029
-154,920	-24,689	0,178	-0,075
-153,906	-110,643	0,105	0,015
-152,891	50,358	0,053	0,035
-151,877	-200,000	0,010	-0,202
-150,862	-200,000	0,055	-0,225
-149,847	-52,418	0,125	0,041
-148,833	-200,000	-0,007	0,039
-147,818	531,792	0,037	-0,063
-146,804	-138,128	0,094	-0,007
-145,789	113,392	-0,085	0,073
-144,775	-200,000	-0,018	-0,067
-143,760	116,392	-0,133	0,115
-142,745	-102,914	-0,159	0,027
-141,731	800,000	0,054	0,130
-140,716	105,117	0,042	-0,035
-139,702	-97,105	0,070	0,013
-138,687	2,646	-0,097	0,050
-137,672	-200,000	0,006	0,104
-136,658	-200,000	0,003	-0,136
-135,643	-161,788	-0,157	-0,006
-134,629	800,000	0,042	-0,119
-133,614	-145,522	-0,106	0,007
-132,599	800,000	-0,006	0,017
-131,585	714,322	0,058	0,109
-130,570	-76,269	0,069	-0,017
-129,556	-37,595	-0,038	-0,014
-128,541	800,000	-0,051	-0,148
-127,526	19,588	0,005	0,003
-126,512	-123,681	0,174	0,019
-125,497	-200,000	-0,008	-0,067
-124,483	-111,132	-0,185	-0,027
-123,468	-82,060	0,088	-0,020
-122,453	-200,000	-0,030	-0,210
-121,439	181,129	-0,052	-0,054
-120,424	53,014	0,131	-0,088
-119,410	-200,000	0,003	-0,037
-118,395	-183,120	0,057	-0,001
-117,380	-33,187	0,091	-0,036
-116,366	-59,769	0,049	-0,015
-115,351	161,342	-0,186	-0,184
-114,337	-48,187	0,060	-0,020
-113,322	-20,211	0,184	-0,080
-112,307	-200,000	-0,005	-0,163
-111,293	8,719	0,075	0,040
-110,278	373,137	0,036	-0,053
-109,264	-197,061	-0,036	-0,000
-108,249	725,628	0,042	-0,080
-107,234	77,563	0,066	-0,050
-106,220	-152,779	-0,104	0,005
-105,205	-37,069	-0,038	-0,014
-104,191	-97,807	-0,136	0,025
-103,176	208,120	-0,088	0,098
-102,162	-200,000	0,028	-0,127
-101,147	-200,000	0,027	0,150
-100,132	120,421	-0,053	-0,046
-99,118	314,401	0,065	-0,087
-98,103	-200,000	0,039	-0,237
-97,089	-116,879	0,168	0,022
-96,074	98,254	-0,076	-0,062
-95,059	-19,375	0,097	-0,042
-94,045	13,578	0,024	0,013
-93,030	242,629	-0,037	-0,044
-92,016	-200,000	-0,011	0,052
-91,001	45,008	-0,048	0,031
-89,986	786,625	0,095	0,184
-88,972	131,529	0,058	-0,053
-87,957	86,441	0,068	0,053
-86,943	-200,000	-0,024	0,199
-85,928	690,171	0,031	-0,057
-84,913	-135,961	-0,128	-0,011
-83,899	334,913	0,011	0,015
-82,884	123,363	-0,008	-0,007
-81,870	800,000	-0,027	0,062
-80,855	344,222	-0,011	-0,015
-79,840	-24,638	0,064	0,027
-78,826	562,957	0,027	-0,047
-77,811	800,000	0,020	-0,040
-76,797	340,468	0,083	-0,115
-75,782	491,819	0,035	0,056
-74,767	66,428	0,211	0,151
-73,753	800,000	-0,023	-0,052
-72,738	424,054	-0,073	-0,111
-71,724	92,127	-0,059	0,047
-70,709	800,000	-0,043	0,103
-69,694	-24,656	-0,075	-0,031
-68,680	194,624	-0,049	-0,053
-67,665	-200,000	0,003	0,055
-66,651	-163,881	0,045	-0,001
-65,636	21,598	-0,097	-0,056
-64,622	-200,000	-0,028	-0,116
-63,607	800,000	-0,021	-0,053
-62,592	11,817	-0,067	0,036
-61,578	-38,481	0,161	0,060
-60,563	357,999	0,058	0,081
-59,549	64,468	0,079	-0,056
-58,534	63,971	-2,091	-1,483
-57,519	643,814	-1,168	-2,113
-56,505	-200,000	-0,289	-4,317
-55,490	751,776	0,854	1,635
-54,476	800,000	5,028	11,179
-53,461	-200,000	21,846	339,720
-52,446	800,000	761,358	2321,655
-51,432	541,484	1657,558	2798,362
-50,417	70,508	1654,213	1205,834
-49,403	16,987	1528,187	852,086
-48,388	11,133	1452,210	781,508
-47,373	19,162	1443,927	815,416
-46,359	14,516	1433,004	787,199
-45,344	9,411	1429,005	760,745
-44,330	9,338	1427,184	759,397
-43,315	9,331	1425,336	758,353
-42,300	9,391	1423,291	757,517
-41,286	9,380	1422,211	756,861
-40,271	9,332	1421,085	756,004
-39,257	9,334	1419,878	755,339
-38,242	9,403	1418,633	754,974
-37,227	9,291	1417,814	753,979
-36,213	9,352	1416,589	753,589
-35,198	9,380	1415,151	752,924
-34,184	9,389	1414,172	752,415
-33,169	9,317	1412,887	751,365
-32,154	9,362	1411,979	751,061
-31,140	9,341	1410,561	750,179
-30,125	9,481	1409,255	750,111
-29,111	9,385	1408,230	749,088
-28,096	9,342	1407,179	748,297
-27,082	9,317	1405,955	747,500
-26,067	9,304	1404,904	746,849
-25,052	9,369	1403,842	746,559
-24,038	9,353	1402,853	745,926
-23,023	9,370	1401,930	745,489
-22,009	9,336	1400,956	744,783
-20,994	9,301	1399,837	743,994
-19,979	9,324	1398,939	743,592
-18,965	9,311	1397,890	742,945
-17,950	9,280	1397,007	742,304
-16,936	9,255	1396,310	741,787
-15,921	9,230	1395,309	741,111
-14,906	9,287	1394,239	740,779
-13,892	9,273	1393,357	740,216
-12,877	9,248	1392,692	739,718
-11,863	9,198	1392,077	739,128
-10,848	9,186	1390,776	738,353
-9,833	9,177	1389,813	737,772
-8,819	9,149	1388,971	737,165
-7,804	9,110	1388,159	736,525
-6,790	9,130	1387,146	736,049
-5,775	9,131	1386,007	735,421
-4,760	9,142	1385,214	735,020
-3,746	9,084	1384,224	734,201
-2,731	9,172	1383,350	734,112
-1,717	9,132	1382,510	733,453
-0,702	9,142	1380,651	732,485
0,313	13,185	1292,922	704,346
1,327	29,299	684,906	409,398
2,342	45,576	118,202	76,861
3,356	-0,546	16,593	8,277
4,371	10,760	3,569	1,915
5,386	-16,631	1,243	0,553
6,400	-200,000	0,156	0,550
7,415	-8,387	-0,227	-0,107
8,429	-15,837	-0,304	-0,136
9,444	211,653	-0,177	-0,197
10,459	-59,688	-0,226	-0,068
11,473	27,020	-0,286	-0,169
12,488	-46,412	-0,270	-0,093
13,502	-86,543	-0,244	-0,052
14,517	-45,041	-0,462	-0,161
15,531	197,217	-0,176	-0,189
16,546	17,871	-0,431	-0,241
17,561	84,539	-0,421	-0,324
18,575	-171,114	-0,220	-0,005
19,590	115,897	-0,253	-0,218
20,604	-50,442	-0,287	-0,095
21,619	45,454	-0,410	-0,266
22,634	10,842	-0,385	-0,206
23,648	80,035	-0,446	-0,338
24,663	48,331	-0,391	-0,257
25,677	80,803	-0,394	-0,299
26,692	238,351	-0,300	-0,352
27,707	43,533	-0,318	-0,204
28,721	-50,346	-0,395	-0,131
29,736	79,081	-0,342	-0,258
30,750	50,155	-0,408	-0,270
31,765	34,751	-0,439	-0,269
32,780	-47,571	-0,324	-0,110
33,794	46,462	-0,371	-0,242
34,809	297,486	-0,258	-0,334
35,823	-12,635	-0,400	-0,183
36,838	266,960	-0,220	-0,271
37,853	112,231	-0,400	-0,340
38,867	171,284	-0,290	-0,292
39,882	506,119	-0,227	-0,371
40,896	48,589	-0,296	-0,195
41,911	19,831	-0,389	-0,219
42,926	162,320	-0,314	-0,310
43,940	137,762	-0,377	-0,347
44,955	249,149	-0,268	-0,320
45,969	29,360	-0,391	-0,233
46,984	-5,841	-0,338	-0,162
47,999	-83,954	-0,366	-0,081
49,013	46,288	-0,243	-0,158
50,028	59,109	-0,426	-0,294
51,042	212,213	-0,350	-0,388
52,057	148,791	-0,232	-0,221
53,071	105,825	-0,316	-0,263
54,086	398,592	-0,224	-0,330
55,101	-58,761	-0,311	-0,094
56,115	236,183	-0,211	-0,246
57,130	87,953	-0,348	-0,271
58,144	337,231	-0,250	-0,342
59,159	83,401	-0,335	-0,256
60,174	10,945	-0,335	-0,179
61,188	70,930	-0,408	-0,296
62,203	-117,174	-0,257	-0,032
63,217	21,092	-0,280	-0,159
64,232	36,427	-0,345	-0,213
65,247	132,844	-0,326	-0,295
66,261	370,842	-0,303	-0,432
67,276	198,572	-0,293	-0,315
68,290	175,134	-0,219	-0,222
69,305	-58,752	-0,341	-0,103
70,320	137,500	-0,285	-0,261
71,334	96,229	-0,307	-0,246
72,349	64,052	-0,285	-0,201
73,363	29,923	-0,398	-0,237
74,378	-34,741	-0,421	-0,160
75,393	-18,630	-0,193	-0,084
76,407	55,030	-0,277	-0,187
77,422	51,317	-0,292	-0,194
78,436	-133,324	-0,313	-0,027
79,451	41,209	-0,255	-0,161
80,466	188,088	-0,279	-0,292
81,480	-30,965	-0,402	-0,158
82,495	561,294	-0,228	-0,388
83,509	210,637	-0,279	-0,308
84,524	77,773	-0,244	-0,182
85,539	144,315	-0,219	-0,205
86,553	26,731	-0,276	-0,161
87,568	76,512	-0,256	-0,190
88,582	800,000	-0,098	-0,266
89,597	572,117	-0,168	-0,287
90,611	-10,560	-0,351	-0,162
91,626	74,758	-0,192	-0,141
92,641	160,151	-0,166	-0,162
93,655	93,695	-0,198	-0,157
94,670	372,529	-0,180	-0,257
95,684	96,547	-0,325	-0,260
96,699	402,159	-0,239	-0,353
97,714	-127,839	-0,275	-0,027
98,728	0,202	-0,185	-0,092
99,743	32,827	-0,254	-0,153
100,757	199,803	-0,300	-0,322
101,772	-5,708	-0,293	-0,140
102,787	472,646	-0,150	-0,237
103,801	13,656	-0,186	-0,101
104,816	159,664	-0,197	-0,192
105,830	188,633	-0,135	-0,141
106,845	142,006	-0,122	-0,113
107,860	46,449	-0,297	-0,192
108,874	42,767	-0,296	-0,188
109,889	124,713	-0,243	-0,214
110,903	213,231	-0,248	-0,274
111,918	-48,761	-0,309	-0,103
112,933	403,314	-0,129	-0,190
113,947	534,403	-0,133	-0,221
114,962	800,000	-0,047	-0,126
115,976	47,649	-0,309	-0,201
116,991	-38,709	-0,322	-0,118
118,006	156,368	-0,261	-0,252
119,020	107,051	-0,178	-0,147
120,035	-20,092	-0,166	-0,071
121,049	213,893	-0,153	-0,169
122,064	-60,760	-0,258	-0,076
123,079	14,286	-0,204	-0,111
124,093	-14,274	-0,413	-0,185
125,108	34,906	-0,229	-0,140
126,122	280,241	-0,170	-0,212
127,137	732,977	-0,181	-0,340
128,151	165,689	-0,151	-0,149
129,166	759,939	-0,101	-0,192
130,181	175,218	-0,205	-0,207
131,195	46,121	-0,280	-0,181
132,210	31,875	-0,302	-0,181
133,224	96,698	-0,203	-0,162
134,239	53,082	-0,196	-0,131
135,254	411,252	-0,146	-0,217
136,268	148,166	-0,171	-0,161
137,283	-31,196	-0,372	-0,146
138,297	13,238	-0,342	-0,184
139,312	144,230	-0,224	-0,208
140,327	-42,272	-0,371	-0,131
141,341	119,009	-0,222	-0,191
142,356	29,153	-0,263	-0,155
143,370	-153,250	-0,143	0,007
144,385	-50,503	-0,288	-0,094
145,400	63,658	-0,235	-0,164
146,414	446,709	-0,189	-0,291
147,429	86,484	-0,232	-0,178
148,443	-38,607	-0,274	-0,100
149,458	-73,534	-0,187	-0,047
150,473	55,539	-0,169	-0,114
151,487	241,059	-0,103	-0,120
152,502	-29,681	-0,281	-0,111
153,516	124,248	-0,282	-0,247
154,531	363,240	-0,167	-0,234
155,546	82,850	-0,213	-0,161
156,560	72,797	-0,188	-0,136
157,575	61,927	-0,232	-0,161
158,589	-64,928	-0,160	-0,045
159,604	24,871	-0,165	-0,095
160,619	39,110	-0,238	-0,148
161,633	-36,282	-0,306	-0,114
162,648	-58,644	-0,258	-0,077
163,662	99,963	-0,154	-0,124
164,677	-84,847	-0,181	-0,039
165,692	-13,476	-0,109	-0,049
166,706	-81,244	-0,237	-0,054
167,721	421,478	-0,163	-0,244
168,735	131,243	-0,168	-0,150
169,750	211,240	-0,143	-0,157
170,764	1,206	-0,343	-0,170
171,779	50,222	-0,245	-0,160
172,794	139,671	-0,167	-0,153
173,808	211,684	-0,183	-0,200
174,823	82,041	-0,227	-0,171
175,837	191,130	-0,208	-0,217
176,852	69,719	-0,283	-0,203
177,867	118,071	-0,140	-0,120
178,881	800,000	-0,096	-0,264
179,896	-200,000	-0,059	-0,207
180,910	92,400	-0,139	-0,109
181,925	-45,560	-0,286	-0,098
182,940	-200,000	-0,067	-0,250
183,954	93,999	-0,242	-0,191
184,969	-90,258	-0,250	-0,050
185,983	-10,390	-0,241	-0,111
186,998	-200,000	0,026	-0,171
188,013	-52,580	-0,177	-0,056
189,027	168,973	-0,244	-0,242
190,042	124,729	-0,244	-0,213
191,056	67,893	-0,100	-0,071
192,071	-34,811	-0,144	-0,054
193,086	-151,697	-0,154	-0,008
194,100	-1,262	-0,153	-0,075
195,115	59,347	-0,289	-0,197
196,129	17,267	-0,302	-0,166
197,144	280,414	-0,153	-0,190
198,159	25,950	-0,193	-0,111
199,173	59,463	-0,213	-0,145
200,188	31,598	-0,107	-0,063
201,202	189,015	-0,153	-0,159
202,217	622,266	-0,105	-0,184
203,232	49,833	-0,263	-0,171
204,246	-73,869	-0,355	-0,089
205,261	183,695	-0,150	-0,154
206,275	76,487	-0,068	-0,050
207,290	540,406	-0,088	-0,145
208,304	231,548	-0,161	-0,184
209,319	23,346	-0,179	-0,102
210,334	158,858	-0,199	-0,192
211,348	-165,915	-0,277	0,008
212,363	800,000	-0,140	-0,287
213,377	110,720	-0,120	-0,100
214,392	-115,108	-0,191	-0,025
215,407	-68,382	-0,179	0,048
216,421	-92,002	-0,140	-0,027
217,436	60,573	-0,145	-0,099
218,450	80,313	-0,234	-0,174
219,465	-8,390	-0,201	-0,093
220,480	12,917	-0,167	-0,089
221,494	373,539	-0,101	-0,142
222,509	69,692	-0,153	-0,109
223,523	-15,124	-0,223	-0,098
224,538	142,965	-0,219	-0,202
225,553	74,858	-0,207	-0,150
226,567	114,174	-0,149	-0,125
227,582	-87,986	-0,204	-0,042
228,596	-152,829	-0,100	0,005
229,611	12,880	-0,126	-0,067
230,626	-24,881	-0,120	-0,049
231,640	692,166	-0,052	-0,095
232,655	146,099	-0,164	-0,152
233,669	171,686	-0,219	-0,218
234,684	68,797	-0,129	-0,092
235,699	42,545	-0,114	-0,071
236,713	42,094	-0,245	-0,153
237,728	-97,891	-0,072	-0,013
238,742	337,544	-0,181	-0,244
239,757	138,899	-0,200	-0,182
240,772	179,651	-0,239	-0,242
241,786	295,121	-0,130	-0,164
242,801	153,851	-0,135	-0,127
243,815	73,350	-0,077	-0,056
244,830	-143,425	-0,195	0,013
245,844	800,000	-0,106	-0,278
246,859	800,000	0,057	-0,110
247,874	223,469	-0,156	-0,174
248,888	-59,642	-0,176	0,052
249,903	-138,152	-0,055	-0,004
250,917	510,085	-0,080	-0,130
251,932	146,218	-0,124	-0,115
252,947	-108,009	-0,237	-0,035
253,961	-162,866	-0,169	-0,006
254,976	203,552	-0,169	-0,181
255,990	-51,030	-0,176	-0,057
257,005	-14,324	-0,154	-0,068
258,020	328,783	-0,082	-0,109
259,034	284,843	-0,119	-0,148
260,049	166,119	-0,210	-0,205
261,063	14,935	-0,193	-0,104
262,078	105,885	-0,199	-0,162
263,093	179,523	-0,125	-0,126
264,107	-30,554	-0,253	-0,098
265,122	74,144	-0,130	-0,094
266,136	78,165	-0,094	-0,069
267,151	-106,640	-0,229	-0,035
268,166	20,246	-0,181	-0,101
269,180	-179,015	-0,182	0,003
270,195	579,078	-0,095	-0,161
271,209	331,507	-0,100	-0,134
272,224	-24,559	-0,123	-0,050
273,239	19,261	-0,191	-0,106
274,253	-44,629	-0,078	-0,027
275,268	-84,211	-0,201	-0,043
276,282	152,331	-0,139	-0,131
277,297	94,208	-0,195	-0,152
278,312	108,307	-0,134	-0,110
279,326	-2,963	-0,233	-0,112
280,341	156,516	-0,045	-0,043
281,355	-10,549	-0,146	-0,066
282,370	-62,618	-0,264	-0,075
283,384	215,584	-0,119	-0,131
284,399	54,118	-0,217	-0,144
285,414	243,608	-0,068	-0,079
286,428	-77,378	-0,139	-0,033
287,443	97,521	-0,151	-0,120
288,457	243,075	-0,130	-0,150
289,472	8,356	-0,206	-0,106
290,487	256,548	-0,122	-0,144
291,501	71,453	-0,218	-0,155
292,516	-200,000	-0,003	-0,178
293,530	800,000	-0,111	-0,227
294,545	-200,000	0,017	0,085
295,560	326,175	-0,076	0,101
296,574	-49,953	-0,285	-0,092
297,589	176,446	-0,164	-0,164
298,603	-0,730	-0,093	-0,045
299,618	406,055	-0,102	-0,148
300,633	-200,000	-0,026	-0,206
301,647	-105,464	-0,137	-0,021
302,662	198,547	-0,129	-0,136
303,676	-200,000	-0,022	-0,113
304,691	-200,000	-0,046	-0,146
305,706	-96,353	-0,187	-0,034
306,720	-135,786	-0,071	0,006
307,735	-184,036	-0,159	-0,002
308,749	-68,141	-0,060	0,016
309,764	387,919	-0,028	-0,040
310,779	115,205	-0,192	-0,161
311,793	800,000	-0,039	-0,082
312,808	106,076	-0,191	-0,155
313,822	276,031	-0,108	-0,132
314,837	-200,000	-0,028	-0,196
315,852	48,286	-0,075	-0,048
316,866	362,462	-0,035	-0,048
317,881	63,170	-0,133	-0,091
318,895	124,592	-0,064	-0,055
319,910	154,923	-0,160	-0,151
320,925	800,000	-0,063	-0,148
321,939	138,537	-0,084	-0,075
322,954	-22,413	-0,106	0,044
323,968	130,863	-0,080	-0,070
324,983	-13,145	-0,084	-0,037
325,997	800,000	-0,061	-0,136
327,012	-124,044	-0,207	-0,022
328,027	53,163	-0,162	-0,106
329,041	55,681	-0,120	-0,080
330,056	-103,600	-0,104	-0,017
331,070	800,000	-0,031	-0,067
332,085	46,700	-0,080	0,051
333,100	16,643	-0,123	-0,066
334,114	484,955	-0,098	-0,153
335,129	132,564	-0,177	-0,157
336,143	-45,878	-0,089	-0,030
337,158	77,168	-0,034	-0,025
338,173	-184,686	-0,258	0,003
339,187	42,322	-0,102	-0,063
340,202	-154,968	-0,189	0,008
341,216	-14,790	-0,156	-0,068
342,231	80,788	-0,136	-0,100
343,246	75,754	-0,159	-0,115
344,260	-56,717	-0,139	-0,042
345,275	103,973	-0,134	-0,108
346,289	-73,654	-0,203	-0,050
347,304	-56,180	-0,159	0,048
348,319	800,000	-0,048	-0,126
349,333	208,848	-0,115	-0,124
350,348	-200,000	-0,025	-0,192
351,362	28,417	-0,173	-0,100
352,377	335,083	-0,112	0,149
353,392	63,975	-0,133	-0,092
354,406	38,200	-0,194	-0,118
355,421	208,571	1306,483	1399,103
356,435	160,493	1466,170	1399,572
