DTS Sentinel unit serial number:	SN410029Multiplexer serial number:	ORYXHardware model number:	OX2-SRSoftware version number:	ORYX F/W v4,00 Oryx Data Collector v3.7.2.0data status	okinstallation	B3 Nyhavnadifferential loss correction	single-endedforward channel	channel 1reverse channel	N/Adate	2023/12/02time	20:17:30forward acquisition time	300,00reverse acquisition time	0,00gamma	499,1914k internal	0,3201k external	0,3201temperature offset calibration	1,0000default loss term (dB/km)	0,3820temperature slope calibration	1,0000multiplexer offset coefficient	1,0000multiplexer slope coefficient	1,0000fibre end	0,00T internal ref (°C)	13,29T ext. ref 1 (°C)	-1,81T ext. ref 2 (°C)	-1,84length (m)	temperature (°C)	Stokes	anti-Stokes-744,400	187,714	-0,246	-0,267
-743,385	-200,000	0,030	0,432
-742,371	-200,000	-0,025	-0,169
-741,356	-200,000	0,011	0,246
-740,342	508,466	-0,129	-0,219
-739,327	-200,000	0,041	0,270
-738,312	174,961	-0,211	-0,222
-737,298	800,000	0,077	0,227
-736,283	118,499	-0,225	-0,202
-735,269	800,000	0,116	0,355
-734,254	642,988	-0,061	-0,114
-733,239	281,962	-0,121	0,158
-732,225	-47,729	-0,235	-0,082
-731,210	43,644	0,276	0,183
-730,196	118,244	-0,131	0,118
-729,181	126,492	-0,124	0,114
-728,167	-140,194	0,040	-0,003
-727,152	-200,000	0,003	0,100
-726,137	-200,000	-0,030	-0,105
-725,123	82,477	-0,054	-0,042
-724,108	-39,249	-0,070	-0,027
-723,094	190,583	-0,112	-0,122
-722,079	381,481	-0,096	-0,143
-721,064	-58,798	-0,146	0,046
-720,050	310,056	0,067	0,092
-719,035	70,240	0,070	0,053
-718,021	-118,479	-0,138	0,018
-717,006	800,000	-0,050	-0,136
-715,991	219,836	-0,048	0,056
-714,977	158,279	-0,075	-0,075
-713,962	-200,000	-0,039	-0,140
-712,948	800,000	-0,035	-0,106
-711,933	-200,000	-0,025	-0,110
-710,918	-200,000	0,023	0,096
-709,904	18,178	-0,091	-0,053
-708,889	800,000	0,024	-0,058
-707,875	330,398	-0,046	-0,065
-706,860	-200,000	0,009	0,072
-705,845	413,876	-0,060	0,093
-704,831	210,503	-0,017	0,019
-703,816	-200,000	-0,003	0,027
-702,802	800,000	-0,012	0,037
-701,787	46,306	-0,068	-0,046
-700,772	-113,559	0,068	-0,010
-699,758	33,063	0,050	-0,031
-698,743	442,781	-0,084	-0,134
-697,729	800,000	-0,011	0,028
-696,714	123,519	0,132	0,120
-695,699	800,000	-0,015	-0,033
-694,685	-117,508	-0,085	-0,011
-693,670	-165,658	0,028	-0,001
-692,656	506,009	-0,014	-0,024
-691,641	87,059	0,131	0,105
-690,627	-63,052	-0,110	0,033
-689,612	-66,672	0,074	0,021
-688,597	51,090	0,031	-0,021
-687,583	306,383	-0,062	-0,084
-686,568	800,000	0,029	-0,070
-685,554	-55,147	0,125	0,041
-684,539	-91,151	0,042	-0,009
-683,524	51,620	-0,057	-0,039
-682,510	-43,007	-0,142	0,052
-681,495	410,241	0,032	0,049
-680,481	-54,373	-0,069	-0,023
-679,466	533,073	-0,054	-0,093
-678,451	-28,496	-0,015	0,006
-677,437	-55,854	0,034	0,011
-676,422	721,028	0,013	0,025
-675,408	-72,587	-0,097	0,026
-674,393	193,489	0,098	-0,108
-673,378	193,411	0,042	-0,046
-672,364	-200,000	0,013	-0,129
-671,349	268,424	0,040	-0,052
-670,335	-200,000	0,054	-0,190
-669,320	198,362	-0,059	0,065
-668,305	800,000	0,029	0,076
-667,291	800,000	0,024	-0,063
-666,276	128,311	0,075	0,069
-665,262	282,546	-0,037	-0,048
-664,247	800,000	-0,031	-0,081
-663,232	71,730	-0,029	0,022
-662,218	268,797	-0,016	0,021
-661,203	-142,724	0,085	0,006
-660,189	23,489	-0,079	0,047
-659,174	-136,907	-0,208	-0,017
-658,159	-71,772	0,036	-0,010
-657,145	148,306	-0,054	-0,053
-656,130	23,721	0,059	0,035
-655,116	-145,417	0,247	-0,016
-654,101	326,247	0,021	-0,029
-653,086	119,693	0,042	-0,037
-652,072	83,966	-0,115	-0,091
-651,057	145,429	-0,061	-0,060
-650,043	-200,000	-0,011	-0,082
-649,028	-62,917	0,184	-0,055
-648,014	-124,903	-0,085	0,009
-646,999	-90,159	0,102	-0,021
-645,984	-200,000	-0,024	0,122
-644,970	-186,018	-0,082	0,001
-643,955	462,511	-0,104	0,168
-642,941	800,000	-0,073	-0,167
-641,926	800,000	0,017	-0,039
-640,911	-3,851	-0,112	0,056
-639,897	-21,275	0,015	0,007
-638,882	68,020	-0,051	0,037
-637,868	800,000	0,033	-0,088
-636,853	243,503	0,061	-0,074
-635,838	-126,916	-0,063	-0,007
-634,824	800,000	-0,014	-0,030
-633,809	762,679	-0,016	-0,031
-632,795	-167,008	-0,019	-0,001
-631,780	-38,160	0,133	0,051
-630,765	-27,966	-0,053	0,022
-629,751	199,333	-0,057	0,063
-628,736	-200,000	0,003	0,009
-627,722	290,270	0,007	-0,009
-626,707	-200,000	-0,002	0,021
-625,692	-200,000	-0,016	-0,053
-624,678	-85,394	0,062	0,014
-623,663	-200,000	0,012	0,056
-622,649	800,000	0,054	-0,144
-621,634	289,425	-0,054	-0,071
-620,619	308,335	-0,056	-0,076
-619,605	-126,240	0,038	0,004
-618,590	-200,000	-0,013	-0,115
-617,576	595,416	0,018	-0,032
-616,561	-100,504	0,106	-0,019
-615,546	-60,727	-0,072	0,022
-614,532	-200,000	-0,025	-0,147
-613,517	285,669	-0,065	-0,084
-612,503	-21,886	-0,050	0,022
-611,488	800,000	-0,012	0,030
-610,474	800,000	0,041	0,110
-609,459	147,443	0,008	0,008
-608,444	15,866	0,015	-0,008
-607,430	-200,000	-0,012	-0,208
-606,415	52,390	0,107	-0,074
-605,401	-20,174	-0,089	0,040
-604,386	16,144	-0,075	-0,043
-603,371	-122,022	0,096	0,011
-602,357	446,961	-0,060	0,095
-601,342	244,812	-0,059	-0,072
-600,328	-154,861	-0,120	0,006
-599,313	-111,365	0,083	0,012
-598,298	-33,268	-0,111	0,044
-597,284	153,227	-0,034	-0,034
-596,269	56,680	-0,064	0,045
-595,255	-100,656	0,046	-0,008
-594,240	23,613	-0,081	-0,048
-593,225	-76,776	-0,215	0,054
-592,211	77,982	-0,009	-0,007
-591,196	-200,000	0,015	-0,085
-590,182	-68,404	0,023	-0,006
-589,167	-142,754	0,100	0,007
-588,152	800,000	0,026	-0,060
-587,138	-200,000	0,029	0,124
-586,123	114,039	-0,034	-0,029
-585,109	-64,011	-0,171	0,050
-584,094	331,740	0,044	0,061
-583,079	583,443	0,041	-0,073
-582,065	-200,000	-0,010	0,050
-581,050	800,000	0,025	-0,053
-580,036	-84,280	-0,103	0,023
-579,021	800,000	0,018	0,037
-578,006	-200,000	-0,020	-0,115
-576,992	477,985	-0,031	0,051
-575,977	8,385	-0,053	0,029
-574,963	-128,493	0,146	0,015
-573,948	-120,874	-0,111	0,013
-572,934	-76,523	-0,046	0,011
-571,919	29,985	-0,097	-0,060
-570,904	800,000	-0,034	-0,081
-569,890	-28,605	-0,090	0,037
-568,875	317,356	-0,048	0,065
-567,861	476,521	0,010	-0,017
-566,846	33,088	0,142	0,088
-565,831	800,000	-0,036	0,110
-564,817	150,631	0,041	-0,040
-563,802	129,410	-0,096	-0,088
-562,788	14,199	-0,052	-0,029
-561,773	164,890	0,088	0,090
-560,758	614,634	-0,039	0,071
-559,744	800,000	0,041	-0,104
-558,729	-200,000	0,015	0,108
-557,715	-46,951	-0,065	-0,023
-556,700	173,137	-0,124	-0,129
-555,685	800,000	0,042	-0,126
-554,671	-88,365	0,042	0,009
-553,656	-200,000	-0,016	0,094
-552,642	-200,000	-0,005	0,067
-551,627	-5,048	0,109	0,054
-550,612	-200,000	-0,036	-0,165
-549,598	54,155	-0,109	-0,075
-548,583	800,000	0,039	-0,080
-547,569	-39,125	0,100	0,038
-546,554	80,215	-0,060	0,047
-545,539	-121,953	0,085	0,010
-544,525	-53,136	-0,098	0,032
-543,510	472,525	0,056	0,091
-542,496	-92,930	-0,127	-0,025
-541,481	65,045	0,055	-0,040
-540,466	-118,957	-0,139	0,017
-539,452	800,000	0,083	-0,239
-538,437	800,000	-0,015	0,043
-537,423	-11,509	-0,073	0,034
-536,408	-200,000	-0,004	0,283
-535,393	23,351	-0,146	0,086
-534,379	800,000	-0,049	-0,120
-533,364	-200,000	-0,036	-0,116
-532,350	-200,000	-0,033	-0,114
-531,335	387,699	-0,057	0,086
-530,321	-200,000	-0,002	0,153
-529,306	-84,303	-0,116	0,026
-528,291	-122,492	-0,101	-0,012
-527,277	800,000	-0,056	-0,179
-526,262	42,388	0,143	-0,094
-525,248	74,875	-0,041	0,031
-524,233	539,057	-0,075	0,129
-523,218	9,891	-0,099	-0,054
-522,204	-102,274	-0,019	0,003
-521,189	-20,649	-0,097	-0,043
-520,175	37,467	-0,111	-0,071
-519,160	138,763	0,042	-0,040
-518,145	-188,374	0,152	0,001
-517,131	-200,000	0,144	-0,000
-516,116	-11,141	-0,062	-0,030
-515,102	-200,000	-0,016	-0,139
-514,087	318,232	0,126	-0,173
-513,072	-49,934	-0,180	-0,061
-512,058	-17,119	0,043	0,019
-511,043	800,000	0,011	0,033
-510,029	-38,871	0,104	0,039
-509,014	-156,832	0,084	0,004
-507,999	-79,032	-0,069	-0,017
-506,985	127,531	-0,072	0,066
-505,970	16,058	-0,162	-0,092
-504,956	35,119	-0,028	-0,018
-503,941	163,318	0,134	-0,136
-502,926	-45,396	0,078	-0,028
-501,912	-135,326	0,032	-0,003
-500,897	-109,115	0,033	0,005
-499,883	-101,774	-0,067	-0,012
-498,868	-103,966	-0,079	-0,013
-497,853	327,120	-0,020	0,027
-496,839	-106,301	0,177	0,028
-495,824	-22,784	0,111	-0,048
-494,810	800,000	0,065	0,131
-493,795	202,532	0,053	0,059
-492,781	23,912	-0,096	-0,057
-491,766	-144,119	-0,136	0,009
-490,751	800,000	0,049	0,119
-489,737	-28,604	0,165	-0,068
-488,722	62,563	0,172	0,124
-487,708	-200,000	0,001	0,082
-486,693	41,980	-0,102	-0,067
-485,678	-200,000	0,021	-0,067
-484,664	-142,951	-0,088	-0,006
-483,649	50,971	0,068	-0,046
-482,635	187,713	-0,032	-0,034
-481,620	260,451	0,049	-0,062
-480,605	-3,524	-0,086	-0,043
-479,591	800,000	0,047	-0,099
-478,576	-144,884	0,030	-0,002
-477,562	185,071	0,041	-0,044
-476,547	-52,112	0,008	-0,003
-475,532	-200,000	-0,001	0,077
-474,518	63,548	-0,089	-0,064
-473,503	3,072	0,220	-0,115
-472,489	-200,000	-0,022	-0,077
-471,474	-200,000	-0,012	0,065
-470,459	125,748	0,034	0,031
-469,445	-106,432	0,024	-0,004
-468,430	24,955	-0,030	-0,018
-467,416	207,770	0,106	-0,120
-466,401	800,000	0,032	-0,092
-465,386	16,859	0,105	0,060
-464,372	488,848	0,068	0,111
-463,357	-6,600	-0,112	-0,055
-462,343	-200,000	0,000	0,035
-461,328	-59,320	-0,082	0,025
-460,313	406,406	-0,030	0,046
-459,299	-63,283	-0,090	-0,027
-458,284	-200,000	-0,005	-0,081
-457,270	-148,524	0,137	-0,008
-456,255	135,331	-0,077	0,072
-455,241	-200,000	0,007	0,037
-454,226	329,909	-0,119	-0,165
-453,211	378,972	0,035	-0,052
-452,197	-200,000	0,002	0,085
-451,182	235,037	0,045	0,054
-450,168	-82,660	0,084	-0,019
-449,153	156,245	0,043	-0,042
-448,138	163,366	-0,060	-0,061
-447,124	580,889	-0,070	-0,123
-446,109	-66,724	-0,113	-0,032
-445,095	-97,100	0,112	0,021
-444,080	427,511	0,033	0,051
-443,065	-74,954	0,110	0,028
-442,051	-200,000	-0,003	-0,041
-441,036	-128,718	0,089	-0,009
-440,022	800,000	-0,066	-0,155
-439,007	219,721	0,088	-0,101
-437,992	-200,000	0,009	-0,074
-436,978	-26,163	-0,060	0,025
-435,963	-200,000	0,020	-0,134
-434,949	-124,109	-0,098	-0,011
-433,934	-200,000	-0,018	-0,137
-432,919	16,986	-0,039	0,022
-431,905	87,637	0,019	0,015
-430,890	-200,000	0,013	0,082
-429,876	114,082	-0,033	0,029
-428,861	-200,000	-0,008	0,043
-427,846	61,495	0,100	-0,071
-426,832	800,000	0,018	-0,040
-425,817	349,543	0,016	-0,023
-424,803	-163,292	-0,091	-0,003
-423,788	-200,000	0,006	0,088
-422,773	-200,000	-0,045	-0,157
-421,759	-113,119	0,096	0,013
-420,744	-200,000	-0,033	0,190
-419,730	800,000	0,037	-0,088
-418,715	-51,243	-0,106	-0,035
-417,701	532,174	0,059	0,101
-416,686	-87,057	0,013	-0,003
-415,671	-200,000	0,007	0,076
-414,657	-18,772	-0,051	-0,023
-413,642	-21,272	0,093	0,041
-412,628	108,115	0,036	-0,031
-411,613	-200,000	-0,021	-0,142
-410,598	71,721	-0,123	-0,091
-409,584	98,045	0,068	0,056
-408,569	-37,895	0,106	-0,040
-407,555	-102,184	0,121	-0,021
-406,540	226,739	-0,068	0,080
-405,525	293,947	-0,116	0,152
-404,511	-200,000	-0,009	0,047
-403,496	93,764	-0,054	0,044
-402,482	-20,113	-0,075	-0,033
-401,467	23,312	0,031	0,018
-400,452	800,000	-0,038	-0,111
-399,438	-200,000	0,016	0,167
-398,423	119,208	0,046	0,041
-397,409	-200,000	-0,004	-0,066
-396,394	-200,000	-0,012	-0,113
-395,379	-1,742	0,037	0,019
-394,365	800,000	0,032	-0,082
-393,350	-200,000	-0,013	-0,078
-392,336	-200,000	0,021	0,082
-391,321	-98,910	-0,026	-0,005
-390,306	669,215	0,027	-0,050
-389,292	24,007	0,088	-0,052
-388,277	-200,000	-0,016	0,090
-387,263	233,334	-0,023	-0,027
-386,248	-200,000	-0,002	0,085
-385,233	-110,631	0,060	0,009
-384,219	800,000	0,011	0,025
-383,204	552,274	0,051	-0,089
-382,190	148,752	0,096	-0,093
-381,175	-12,009	0,059	0,027
-380,160	-15,046	0,161	-0,074
-379,146	-130,195	0,164	-0,016
-378,131	224,120	0,067	0,078
-377,117	268,541	-0,051	-0,065
-376,102	330,401	-0,029	0,040
-375,088	170,387	-0,161	-0,165
-374,073	-200,000	0,004	0,049
-373,058	123,704	-0,078	0,070
-372,044	40,327	-0,060	0,038
-371,029	800,000	-0,046	0,117
-370,015	-200,000	0,018	0,095
-369,000	-89,185	0,058	0,012
-367,985	33,154	-0,060	0,037
-366,971	31,094	0,150	-0,092
-365,956	800,000	0,014	-0,033
-364,942	-136,959	0,164	-0,013
-363,927	485,246	0,057	0,093
-362,912	-4,245	-0,064	0,032
-361,898	158,666	0,051	0,050
-360,883	800,000	0,007	-0,021
-359,869	800,000	0,035	0,082
-358,854	480,358	0,060	-0,097
-357,839	126,369	0,044	0,040
-356,825	139,104	-0,065	-0,061
-355,810	13,389	-0,061	0,034
-354,796	-104,591	0,030	-0,005
-353,781	166,012	0,015	0,015
-352,766	-200,000	-0,011	0,095
-351,752	-25,564	0,087	0,037
-350,737	-200,000	-0,019	0,104
-349,723	-200,000	0,000	-0,007
-348,708	-161,713	0,132	0,005
-347,693	800,000	-0,047	-0,132
-346,679	800,000	0,004	-0,008
-345,664	112,717	-0,044	0,038
-344,650	800,000	0,049	0,134
-343,635	193,436	-0,069	0,075
-342,620	-152,202	0,125	-0,006
-341,606	34,299	0,136	0,085
-340,591	39,587	-0,085	0,054
-339,577	167,237	0,037	0,038
-338,562	-135,504	0,056	0,005
-337,548	800,000	0,053	0,116
-336,533	6,730	-0,011	0,006
-335,518	-200,000	0,027	0,138
-334,504	187,957	-0,045	0,048
-333,489	-200,000	-0,019	0,125
-332,475	22,678	0,077	0,045
-331,460	446,783	-0,066	0,105
-330,445	-82,500	0,053	0,012
-329,431	-33,212	0,018	0,007
-328,416	0,869	0,042	-0,022
-327,402	-200,000	0,049	-0,153
-326,387	-200,000	0,034	-0,187
-325,372	-116,231	-0,063	0,008
-324,358	-84,718	0,058	-0,013
-323,343	-108,448	0,023	-0,004
-322,329	-200,000	0,032	0,139
-321,314	89,611	0,054	0,043
-320,299	48,983	-0,051	0,034
-319,285	258,113	-0,043	0,053
-318,270	-154,398	-0,124	-0,006
-317,256	-76,607	-0,106	-0,026
-316,241	384,260	0,011	0,016
-315,226	-10,722	0,106	0,050
-314,212	2,826	0,085	0,044
-313,197	197,824	0,015	0,016
-312,183	-109,671	-0,080	-0,012
-311,168	-58,269	0,037	-0,012
-310,153	800,000	-0,057	0,117
-309,139	-4,132	-0,066	0,032
-308,124	624,633	-0,082	-0,148
-307,110	455,900	0,030	0,047
-306,095	-97,424	0,041	0,008
-305,080	-200,000	0,006	-0,034
-304,066	-200,000	0,025	-0,088
-303,051	-200,000	0,009	-0,126
-302,037	46,931	-0,167	0,111
-301,022	-200,000	0,022	0,183
-300,008	151,492	0,069	0,067
-298,993	-200,000	0,004	-0,054
-297,978	-200,000	-0,009	0,078
-296,964	-60,202	-0,031	-0,009
-295,949	800,000	-0,048	-0,128
-294,935	42,745	0,015	-0,010
-293,920	71,660	0,024	-0,018
-292,905	-59,566	0,171	-0,052
-291,891	800,000	0,037	0,108
-290,876	-200,000	-0,011	-0,077
-289,862	-175,097	0,067	-0,001
-288,847	48,763	-0,176	0,118
-287,832	-145,978	-0,130	-0,008
-286,818	-111,941	-0,047	-0,007
-285,803	-200,000	-0,027	0,148
-284,789	74,973	0,107	0,081
-283,774	201,774	-0,055	0,061
-282,759	-62,515	0,027	-0,008
-281,745	356,174	-0,109	-0,155
-280,730	-200,000	-0,039	-0,196
-279,716	111,256	0,042	-0,036
-278,701	-2,176	0,112	0,056
-277,686	54,330	0,043	0,029
-276,672	33,481	-0,101	0,063
-275,657	-34,892	0,082	-0,032
-274,643	50,448	-0,064	-0,043
-273,628	657,827	-0,065	-0,120
-272,613	-200,000	-0,009	-0,121
-271,599	562,942	0,019	0,033
-270,584	800,000	-0,048	0,104
-269,570	57,095	0,066	0,046
-268,555	-13,138	0,089	0,041
-267,540	-200,000	-0,013	0,058
-266,526	800,000	-0,057	0,123
-265,511	445,158	0,059	0,092
-264,497	-200,000	0,006	-0,038
-263,482	408,205	0,038	0,058
-262,467	-200,000	-0,016	-0,092
-261,453	64,406	0,055	-0,040
-260,438	2,250	-0,087	0,045
-259,424	-86,666	-0,104	-0,023
-258,409	-158,999	-0,083	-0,003
-257,395	-84,130	0,097	0,022
-256,380	-20,028	-0,111	0,049
-255,365	196,349	0,052	0,057
-254,351	-70,461	0,108	0,029
-253,336	-34,261	-0,096	0,038
-252,322	-84,426	-0,131	0,029
-251,307	-200,000	-0,005	-0,038
-250,292	-200,000	0,020	-0,074
-249,278	733,131	0,025	0,048
-248,263	102,454	-0,077	-0,064
-247,249	800,000	0,045	0,121
-246,234	800,000	0,056	0,113
-245,219	22,353	-0,125	0,073
-244,205	265,198	-0,073	-0,091
-243,190	664,663	-0,017	0,032
-242,176	-200,000	-0,017	0,055
-241,161	-23,136	0,060	0,026
-240,146	-99,381	-0,086	-0,015
-239,132	233,754	0,094	-0,110
-238,117	800,000	-0,028	-0,078
-237,103	52,983	-0,058	0,040
-236,088	800,000	0,006	-0,012
-235,073	800,000	-0,031	0,079
-234,059	800,000	-0,034	-0,068
-233,044	800,000	0,075	0,210
-232,030	800,000	-0,028	0,086
-231,015	-126,898	0,074	-0,008
-230,000	-10,870	-0,126	-0,059
-228,986	-200,000	-0,023	-0,146
-227,971	800,000	0,061	0,177
-226,957	-200,000	-0,005	0,106
-225,942	83,074	-0,119	0,092
-224,927	800,000	0,078	0,164
-223,913	-200,000	-0,034	-0,144
-222,898	52,286	0,092	0,063
-221,884	800,000	-0,039	-0,095
-220,869	-162,304	0,167	0,006
-219,855	-42,139	0,149	0,054
-218,840	137,011	-0,104	0,097
-217,825	-86,851	0,041	0,009
-216,811	76,157	-0,095	-0,072
-215,796	-71,245	0,122	-0,032
-214,782	-76,705	-0,128	-0,032
-213,767	395,179	0,052	-0,077
-212,752	135,345	-0,035	0,032
-211,738	272,634	0,028	0,036
-210,723	-105,659	0,103	0,016
-209,709	132,104	-0,173	-0,159
-208,694	-200,000	-0,006	0,023
-207,679	-200,000	0,015	-0,055
-206,665	-200,000	-0,016	0,059
-205,650	100,515	-0,050	0,041
-204,636	-200,000	-0,034	0,167
-203,621	5,922	0,100	-0,053
-202,606	-200,000	0,010	-0,063
-201,592	-149,671	-0,171	-0,009
-200,577	800,000	0,014	-0,041
-199,563	-105,809	0,118	-0,019
-198,548	800,000	0,053	0,165
-197,533	47,841	0,094	0,062
-196,519	654,722	0,044	-0,081
-195,504	-200,000	0,039	-0,144
-194,490	39,778	-0,049	0,031
-193,475	42,611	-0,020	0,013
-192,460	153,052	0,078	0,076
-191,446	219,666	0,084	0,096
-190,431	64,129	0,075	0,054
-189,417	403,591	-0,094	0,141
-188,402	-159,219	-0,074	-0,003
-187,387	-20,606	0,080	0,035
-186,373	-27,350	-0,091	-0,038
-185,358	363,328	0,044	0,063
-184,344	-200,000	0,021	0,079
-183,329	327,377	0,069	0,094
-182,315	-23,943	0,144	-0,061
-181,300	-200,000	0,008	0,061
-180,285	-145,930	0,091	-0,006
-179,271	-200,000	0,040	-0,148
-178,256	-108,552	-0,116	0,018
-177,242	-35,732	0,150	0,058
-176,227	83,249	0,044	0,034
-175,212	-200,000	-0,007	-0,055
-174,198	417,017	-0,007	0,011
-173,183	-19,979	0,053	-0,023
-172,169	334,863	0,033	-0,046
-171,154	54,871	-0,102	-0,070
-170,139	71,374	-0,041	0,030
-169,125	-200,000	0,011	-0,153
-168,110	104,859	-0,003	0,003
-167,096	-200,000	0,022	0,208
-166,081	207,698	-0,099	-0,110
-165,066	403,673	0,092	-0,139
-164,052	-200,000	-0,024	0,106
-163,037	8,485	-0,116	-0,062
-162,023	185,650	-0,070	-0,074
-161,008	657,089	-0,060	0,109
-159,993	-3,333	0,205	0,101
-158,979	-108,127	-0,076	-0,012
-157,964	55,274	-0,063	0,043
-156,950	-200,000	0,014	-0,107
-155,935	800,000	0,036	-0,082
-154,920	188,004	0,022	0,024
-153,906	-200,000	0,002	-0,136
-152,891	-80,606	0,026	0,006
-151,877	-48,503	0,094	-0,032
-150,862	60,959	-0,011	-0,008
-149,847	14,717	-0,165	0,092
-148,833	800,000	-0,049	-0,141
-147,818	-200,000	0,012	0,109
-146,804	211,878	0,048	-0,054
-145,789	800,000	0,020	-0,056
-144,775	-200,000	0,007	0,055
-143,760	800,000	-0,065	-0,153
-142,745	345,869	-0,115	-0,162
-141,731	-200,000	0,045	0,171
-140,716	-90,808	0,096	-0,019
-139,702	399,952	-0,071	0,106
-138,687	-200,000	-0,012	0,060
-137,672	-200,000	-0,006	-0,039
-136,658	-200,000	0,027	-0,173
-135,643	-149,451	0,027	0,002
-134,629	-24,230	-0,052	-0,022
-133,614	-7,312	0,075	0,036
-132,599	-200,000	0,020	0,123
-131,585	800,000	0,051	0,145
-130,570	25,031	-0,053	-0,031
-129,556	-128,199	-0,152	-0,015
-128,541	386,384	0,026	-0,039
-127,526	765,576	0,047	-0,092
-126,512	98,407	-0,012	-0,010
-125,497	-200,000	-0,022	0,077
-124,483	-42,300	-0,162	0,058
-123,468	-200,000	0,023	0,103
-122,453	800,000	0,054	-0,112
-121,439	13,897	-0,140	-0,077
-120,424	-79,077	-0,088	0,021
-119,410	17,447	0,105	0,059
-118,395	518,134	0,045	0,076
-117,380	259,773	0,033	-0,041
-116,366	357,804	-0,050	-0,071
-115,351	-25,997	-0,021	-0,009
-114,337	-89,384	-0,079	-0,016
-113,322	133,463	-0,073	-0,067
-112,307	157,388	0,100	0,098
-111,293	-200,000	0,014	0,135
-110,278	29,450	0,097	-0,059
-109,264	-40,785	0,095	0,035
-108,249	633,689	-0,043	0,077
-107,234	778,985	-0,051	0,100
-106,220	-200,000	0,031	-0,100
-105,205	-115,981	-0,070	0,009
-104,191	-28,540	0,062	-0,025
-103,176	169,893	0,204	0,207
-102,162	800,000	0,042	0,099
-101,147	-200,000	-0,000	-0,048
-100,132	-200,000	0,002	0,039
-99,118	139,426	0,050	0,047
-98,103	410,012	0,019	-0,029
-97,089	176,904	0,055	-0,056
-96,074	-143,880	0,145	-0,010
-95,059	-74,558	-0,059	-0,015
-94,045	-200,000	-0,016	-0,125
-93,030	800,000	-0,058	-0,180
-92,016	703,574	-0,062	-0,117
-91,001	-200,000	-0,001	-0,031
-89,986	-23,914	0,094	-0,040
-88,972	505,713	0,070	0,116
-87,957	153,226	0,066	0,064
-86,943	542,081	0,034	0,058
-85,928	800,000	0,042	-0,110
-84,913	192,757	0,041	-0,044
-83,899	293,968	0,035	0,045
-82,884	-200,000	0,012	0,074
-81,870	-200,000	0,009	0,100
-80,855	82,249	0,028	-0,022
-79,840	611,259	0,044	0,078
-78,826	98,714	0,057	0,047
-77,811	-200,000	-0,005	-0,028
-76,797	-200,000	0,021	0,129
-75,782	-44,816	-0,105	-0,037
-74,767	-39,620	0,152	-0,056
-73,753	359,369	-0,024	-0,035
-72,738	140,822	-0,074	-0,070
-71,724	220,037	0,025	-0,028
-70,709	41,832	-0,056	0,036
-69,694	198,539	0,073	0,080
-68,680	800,000	0,070	0,145
-67,665	128,299	-0,121	-0,109
-66,651	98,920	0,028	0,023
-65,636	-120,852	0,052	-0,006
-64,622	36,188	-0,124	-0,077
-63,607	-82,008	-0,138	-0,032
-62,592	80,907	-0,071	-0,054
-61,578	-84,082	0,099	-0,022
-60,563	95,073	0,147	0,118
-59,549	-165,841	0,067	0,002
-58,534	11,443	-1,617	-0,875
-57,519	375,452	-1,457	-2,110
-56,505	-200,000	-0,442	-4,511
-55,490	105,021	0,994	0,830
-54,476	800,000	4,954	11,344
-53,461	-200,000	19,188	320,733
-52,446	-200,000	741,396	2334,952
-51,432	572,236	1655,917	2867,789
-50,417	78,192	1671,320	1261,670
-49,403	21,297	1543,981	885,687
-48,388	15,138	1466,513	811,290
-47,373	18,004	1456,674	819,667
-46,359	16,702	1446,447	807,636
-45,344	13,417	1441,865	789,311
-44,330	13,324	1440,129	787,881
-43,315	13,336	1438,296	786,906
-42,300	13,357	1436,597	786,043
-41,286	13,407	1435,042	785,402
-40,271	13,329	1433,910	784,378
-39,257	13,353	1432,721	783,814
-38,242	13,396	1431,284	783,202
-37,227	13,362	1430,236	782,433
-36,213	13,326	1429,186	781,659
-35,198	13,376	1427,709	781,056
-34,184	13,412	1426,882	780,744
-33,169	13,362	1425,400	779,663
-32,154	13,448	1424,323	779,450
-31,140	13,414	1423,017	778,545
-30,125	13,389	1422,207	777,953
-29,111	13,408	1421,011	777,356
-28,096	13,446	1419,632	776,753
-27,082	13,293	1418,677	775,479
-26,067	13,303	1417,757	774,990
-25,052	13,329	1416,429	774,353
-24,038	13,281	1415,614	773,652
-23,023	13,323	1414,537	773,234
-22,009	13,322	1413,428	772,592
-20,994	13,270	1412,622	771,873
-19,979	13,262	1411,806	771,363
-18,965	13,234	1410,896	770,703
-17,950	13,276	1409,937	770,343
-16,936	13,318	1408,864	769,921
-15,921	13,240	1407,874	768,987
-14,906	13,237	1406,896	768,409
-13,892	13,251	1406,021	767,967
-12,877	13,239	1405,041	767,342
-11,863	13,236	1404,296	766,891
-10,848	13,207	1403,438	766,260
-9,833	13,217	1402,341	765,677
-8,819	13,184	1401,556	765,063
-7,804	13,142	1400,706	764,373
-6,790	13,135	1399,689	763,756
-5,775	13,135	1398,634	763,147
-4,760	13,140	1397,667	762,613
-3,746	13,143	1396,762	762,103
-2,731	13,109	1395,948	761,473
-1,717	13,101	1395,030	760,905
-0,702	13,097	1393,274	759,899
0,313	16,980	1309,796	732,342
1,327	33,124	703,700	430,773
2,342	51,009	123,174	82,489
3,356	3,574	16,660	8,568
4,371	7,034	3,249	1,708
5,386	-37,554	0,615	0,231
6,400	800,000	0,110	0,240
7,415	63,522	-0,270	-0,192
8,429	91,049	-0,251	-0,199
9,444	43,762	-0,218	-0,141
10,459	3,418	-0,289	-0,148
11,473	11,603	-0,359	-0,194
12,488	8,402	-0,270	-0,143
13,502	56,798	-0,290	-0,200
14,517	800,000	-0,142	-0,328
15,531	26,820	-0,312	-0,185
16,546	29,490	-0,363	-0,218
17,561	135,371	-0,457	-0,420
18,575	121,686	-0,284	-0,250
19,590	-88,665	-0,282	-0,059
20,604	800,000	-0,038	-0,085
21,619	22,574	-0,571	-0,329
22,634	183,586	-0,397	-0,415
23,648	152,683	-0,417	-0,403
24,663	267,157	-0,385	-0,476
25,677	85,567	-0,340	-0,264
26,692	96,939	-0,259	-0,210
27,707	102,770	-0,253	-0,209
28,721	121,019	-0,388	-0,341
29,736	118,635	-0,382	-0,333
30,750	-22,999	-0,375	-0,159
31,765	114,136	-0,325	-0,279
32,780	95,287	-0,343	-0,276
33,794	19,314	-0,381	-0,215
34,809	150,308	-0,297	-0,285
35,823	-7,044	-0,352	-0,168
36,838	49,755	-0,396	-0,263
37,853	57,742	-0,364	-0,251
38,867	185,976	-0,364	-0,382
39,882	42,609	-0,303	-0,194
40,896	-4,084	-0,541	-0,263
41,911	263,118	-0,131	-0,161
42,926	57,880	-0,395	-0,272
43,940	10,735	-0,444	-0,238
44,955	-80,734	-0,344	-0,080
45,969	65,265	-0,282	-0,201
46,984	-14,053	-0,364	-0,165
47,999	-24,506	-0,293	-0,122
49,013	90,043	-0,335	-0,263
50,028	184,476	-0,202	-0,211
51,042	454,205	-0,228	-0,357
52,057	168,543	-0,339	-0,340
53,071	23,252	-0,420	-0,243
54,086	16,585	-0,272	-0,151
55,101	381,850	-0,185	-0,269
56,115	37,731	-0,340	-0,212
57,130	140,751	-0,295	-0,274
58,144	222,664	-0,249	-0,283
59,159	39,734	-0,376	-0,237
60,174	102,624	-0,281	-0,231
61,188	9,033	-0,247	-0,131
62,203	-88,133	-0,386	-0,081
63,217	4,064	-0,351	-0,180
64,232	30,688	-0,409	-0,246
65,247	-3,172	-0,390	-0,191
66,261	-16,307	-0,469	-0,208
67,276	-63,687	-0,426	-0,122
68,290	102,948	-0,174	-0,143
69,305	-115,329	-0,411	-0,054
70,320	67,370	-0,405	-0,290
71,334	212,257	-0,329	-0,365
72,349	95,267	-0,338	-0,271
73,363	158,257	-0,267	-0,261
74,378	123,690	-0,307	-0,271
75,393	457,797	-0,175	-0,275
76,407	-52,204	-0,434	-0,141
77,422	13,903	-0,357	-0,195
78,436	-11,567	-0,342	-0,158
79,451	21,721	-0,370	-0,211
80,466	-60,341	-0,325	-0,097
81,480	40,734	-0,395	-0,250
82,495	177,425	-0,263	-0,269
83,509	30,271	-0,202	-0,121
84,524	155,471	-0,139	-0,135
85,539	102,563	-0,345	-0,284
86,553	113,731	-0,321	-0,274
87,568	112,658	-0,275	-0,234
88,582	31,460	-0,271	-0,163
89,597	-33,570	-0,381	-0,147
90,611	15,980	-0,294	-0,162
91,626	74,969	-0,245	-0,181
92,641	-20,099	-0,309	-0,133
93,655	-52,941	-0,184	-0,059
94,670	-10,742	-0,371	-0,172
95,684	318,531	-0,248	-0,331
96,699	-36,231	-0,320	-0,121
97,714	109,429	-0,365	-0,307
98,728	128,021	-0,281	-0,251
99,743	169,293	-0,259	-0,260
100,757	39,151	-0,297	-0,186
101,772	16,501	-0,211	-0,117
102,787	584,317	-0,189	-0,326
103,801	205,138	-0,196	-0,214
104,816	800,000	-0,126	-0,286
105,830	135,603	-0,195	-0,178
106,845	15,355	-0,226	-0,124
107,860	-46,944	-0,228	-0,078
108,874	-2,397	-0,236	-0,115
109,889	-30,050	-0,310	-0,123
110,903	-34,968	-0,348	-0,132
111,918	94,070	-0,225	-0,179
112,933	-35,107	-0,312	-0,119
113,947	442,225	-0,160	-0,246
114,962	-59,462	-0,189	-0,056
115,976	121,086	-0,316	-0,275
116,991	84,183	-0,153	-0,117
118,006	15,782	-0,335	-0,184
119,020	112,028	-0,248	-0,210
120,035	117,208	-0,284	-0,244
121,049	-55,630	-0,102	-0,032
122,064	-29,420	-0,207	-0,082
123,079	50,311	-0,245	-0,162
124,093	44,612	-0,339	-0,218
125,108	33,226	-0,263	-0,159
126,122	-12,699	-0,304	-0,138
127,137	35,278	-0,089	-0,055
128,151	50,807	-0,191	-0,126
129,166	-53,547	-0,241	-0,077
130,181	173,440	-0,197	-0,199
131,195	-20,270	-0,274	-0,118
132,210	9,830	-0,284	-0,150
133,224	111,496	-0,177	-0,149
134,239	101,182	-0,211	-0,172
135,254	-3,581	-0,263	-0,127
136,268	-12,281	-0,268	-0,122
137,283	-23,364	-0,284	-0,119
138,297	-15,760	-0,424	-0,188
139,312	44,651	-0,307	-0,197
140,327	71,960	-0,359	-0,260
141,341	-5,344	-0,201	-0,096
142,356	94,588	-0,260	-0,206
143,370	72,663	-0,292	-0,213
144,385	-62,294	-0,231	-0,067
145,400	-61,743	-0,237	-0,069
146,414	3,385	-0,360	-0,182
147,429	627,634	-0,126	-0,223
148,443	82,484	-0,237	-0,180
149,458	122,114	-0,181	-0,158
150,473	4,685	-0,177	-0,090
151,487	-18,743	-0,271	-0,118
152,502	123,189	-0,188	-0,164
153,516	401,016	-0,177	-0,261
154,531	781,376	-0,142	-0,272
155,546	16,851	-0,274	-0,151
156,560	-22,996	-0,195	-0,082
157,575	-9,755	-0,285	-0,132
158,589	174,692	-0,126	-0,127
159,604	37,342	-0,219	-0,135
160,619	-9,049	-0,285	-0,133
161,633	291,213	-0,215	-0,273
162,648	-79,010	-0,387	-0,091
163,662	-33,673	-0,199	-0,076
164,677	-61,364	-0,217	-0,063
165,692	88,096	-0,133	-0,103
166,706	-109,826	-0,386	-0,056
167,721	2,792	-0,183	-0,092
168,735	-42,292	-0,267	-0,095
169,750	-40,985	-0,177	-0,063
170,764	-16,987	-0,268	-0,118
171,779	-77,842	-0,180	-0,043
172,794	-15,039	-0,247	-0,110
173,808	-157,892	-0,212	0,009
174,823	13,515	-0,126	-0,068
175,837	-45,523	-0,236	-0,081
176,852	232,092	-0,179	-0,205
177,867	218,393	-0,180	-0,200
178,881	-34,920	-0,277	-0,105
179,896	49,574	-0,097	0,064
180,910	17,065	-0,237	-0,130
181,925	3,514	-0,212	-0,107
182,940	304,399	-0,196	-0,254
183,954	18,499	-0,231	-0,128
184,969	59,805	-0,176	-0,121
185,983	-35,829	-0,087	0,033
186,998	85,845	-0,200	-0,153
188,013	260,786	-0,153	-0,185
189,027	359,370	-0,103	-0,144
190,042	58,257	-0,252	-0,171
191,056	126,288	-0,245	-0,216
192,071	127,831	-0,160	-0,142
193,086	-8,181	-0,292	-0,136
194,100	82,072	-0,115	-0,087
195,115	-0,851	-0,233	0,115
196,129	55,830	-0,268	-0,181
197,144	287,791	-0,130	-0,164
198,159	440,611	-0,146	-0,223
199,173	665,718	-0,172	-0,310
200,188	441,451	-0,159	-0,243
201,202	-18,753	-0,187	0,081
202,217	85,126	-0,217	-0,165
203,232	289,241	-0,178	-0,225
204,246	194,549	-0,233	-0,246
205,261	67,957	-0,245	-0,174
206,275	58,635	-0,174	-0,119
207,290	124,999	-0,179	-0,156
208,304	235,762	-0,151	-0,174
209,319	-180,584	-0,256	-0,004
210,334	16,938	-0,187	-0,103
211,348	-118,053	-0,362	-0,044
212,363	41,340	-0,093	-0,058
213,377	171,103	-0,194	-0,194
214,392	93,768	-0,187	-0,147
215,407	205,452	-0,109	-0,118
216,421	-11,517	-0,286	-0,130
217,436	98,219	-0,202	-0,161
218,450	174,869	-0,264	-0,265
219,465	470,056	-0,147	-0,230
220,480	274,650	-0,157	-0,194
221,494	-31,976	-0,191	-0,074
222,509	289,620	-0,136	-0,172
223,523	-91,693	-0,280	-0,055
224,538	-40,581	-0,097	-0,035
225,553	203,448	-0,131	-0,140
226,567	41,370	-0,199	-0,125
227,582	431,371	-0,159	-0,240
228,596	-95,828	-0,096	0,018
229,611	55,272	-0,299	-0,200
230,626	23,214	-0,195	-0,111
231,640	0,193	-0,225	-0,111
232,655	67,883	-0,143	-0,101
233,669	64,525	-0,205	-0,143
234,684	157,067	-0,167	-0,161
235,699	156,290	-0,145	-0,139
236,713	43,167	-0,156	-0,098
237,728	-200,000	-0,053	-0,208
238,742	180,830	-0,191	-0,194
239,757	-29,794	-0,156	-0,061
240,772	109,979	-0,147	-0,123
241,786	-59,288	-0,254	-0,075
242,801	219,294	-0,083	-0,092
243,815	134,254	-0,267	-0,240
244,830	-200,000	-0,094	-0,289
245,844	-97,928	-0,147	-0,026
246,859	27,518	-0,224	-0,130
247,874	212,094	-0,192	-0,210
248,888	594,733	-0,160	-0,275
249,903	40,491	-0,136	-0,084
250,917	-2,796	-0,157	-0,076
251,932	-1,283	-0,308	-0,150
252,947	27,123	-0,257	-0,149
253,961	92,026	-0,097	-0,075
254,976	79,455	-0,153	-0,114
255,990	800,000	-0,123	-0,287
257,005	16,388	-0,087	-0,047
258,020	108,448	-0,111	-0,092
259,034	-87,891	-0,200	0,041
260,049	67,771	-0,103	-0,073
261,063	800,000	-0,061	-0,129
262,078	67,150	-0,275	-0,194
263,093	295,768	-0,156	-0,198
264,107	-15,466	-0,341	-0,150
265,122	117,332	-0,168	-0,143
266,136	237,999	-0,150	-0,172
267,151	235,410	-0,229	-0,261
268,166	-40,624	-0,244	-0,087
269,180	49,168	-0,147	-0,096
270,195	166,303	-0,218	-0,214
271,209	558,796	-0,131	-0,220
272,224	-200,000	-0,034	-0,116
273,239	-200,000	-0,040	-0,189
274,253	-8,329	-0,091	-0,042
275,268	-170,747	-0,201	0,005
276,282	14,320	-0,167	-0,089
277,297	800,000	-0,094	-0,224
278,312	27,012	-0,216	-0,125
279,326	-84,826	-0,244	-0,052
280,341	-40,783	-0,123	-0,044
281,355	263,161	-0,101	-0,121
282,370	-27,196	-0,200	-0,080
283,384	800,000	-0,090	-0,205
284,399	310,069	-0,215	-0,279
285,414	-200,000	-0,031	-0,153
286,428	-200,000	-0,014	-0,271
287,443	19,739	-0,179	-0,099
288,457	146,272	-0,138	-0,128
289,472	-7,082	-0,143	-0,067
290,487	-0,060	-0,252	-0,123
291,501	-90,117	-0,219	0,044
292,516	173,813	-0,187	-0,187
293,530	47,160	-0,191	0,123
294,545	76,967	-0,076	-0,056
295,560	216,888	-0,108	-0,119
296,574	318,236	-0,115	-0,151
297,589	63,692	-0,132	-0,092
298,603	800,000	-0,089	-0,223
299,618	-43,138	-0,271	-0,094
300,633	165,914	-0,176	-0,172
301,647	-200,000	0,009	-0,037
302,662	409,844	-0,078	-0,114
303,676	60,882	-0,081	-0,055
304,691	-17,652	-0,139	-0,060
305,706	-200,000	-0,049	-0,204
306,720	90,736	-0,234	-0,180
307,735	-200,000	-0,037	-0,128
308,749	14,884	-0,139	-0,075
309,764	102,884	-0,183	-0,148
310,779	406,112	-0,132	-0,192
311,793	-200,000	0,003	-0,098
312,808	-127,778	-0,185	0,018
313,822	150,175	-0,103	-0,097
314,837	139,651	-0,151	-0,137
315,852	800,000	-0,064	-0,179
316,866	-200,000	0,023	0,101
317,881	185,297	-0,101	-0,104
318,895	111,921	-0,164	-0,136
319,910	-110,369	-0,140	-0,020
320,925	-200,000	-0,052	-0,162
321,939	10,914	-0,193	-0,101
322,954	-200,000	0,012	-0,137
323,968	262,444	-0,086	-0,103
324,983	-86,823	-0,184	-0,038
325,997	800,000	-0,026	-0,059
327,012	333,880	-0,046	-0,061
328,027	14,726	-0,275	-0,148
329,041	-83,784	-0,264	-0,057
330,056	53,594	-0,109	-0,072
331,070	800,000	-0,040	-0,088
332,085	617,680	-0,127	-0,220
333,100	-121,166	-0,099	0,011
334,114	-19,930	-0,210	-0,089
335,129	118,555	-0,155	-0,132
336,143	800,000	-0,116	-0,222
337,158	-200,000	-0,018	-0,091
338,173	-1,113	-0,105	-0,051
339,187	800,000	-0,096	-0,193
340,202	-42,858	-0,165	0,057
341,216	-61,538	-0,250	-0,072
342,231	344,623	-0,188	-0,254
343,246	-126,726	-0,155	-0,016
344,260	-162,421	-0,189	-0,006
345,275	497,477	-0,148	-0,234
346,289	800,000	-0,104	-0,213
347,304	51,666	-0,118	-0,077
348,319	-19,077	-0,150	-0,064
349,333	-200,000	-0,029	-0,101
350,348	-200,000	0,038	-0,116
351,362	-172,848	-0,175	0,004
352,377	-142,358	0,062	0,004
353,392	-200,000	-0,011	-0,099
354,406	137,721	-0,135	-0,121
355,421	208,674	1313,746	1411,712
356,435	160,569	1474,364	1412,197
