DTS Sentinel unit serial number:	SN410029Multiplexer serial number:	ORYXHardware model number:	OX2-SRSoftware version number:	ORYX F/W v4,00 Oryx Data Collector v3.7.2.0data status	okinstallation	B3 Nyhavnadifferential loss correction	single-endedforward channel	channel 1reverse channel	N/Adate	2023/11/30time	19:02:30forward acquisition time	300,00reverse acquisition time	0,00gamma	499,1914k internal	0,3205k external	0,3205temperature offset calibration	1,0000default loss term (dB/km)	0,3820temperature slope calibration	1,0000multiplexer offset coefficient	1,0000multiplexer slope coefficient	1,0000fibre end	0,00T internal ref (°C)	12,29T ext. ref 1 (°C)	-2,98T ext. ref 2 (°C)	-3,09length (m)	temperature (°C)	Stokes	anti-Stokes-744,400	800,000	-0,115	-0,339
-743,385	442,294	-0,192	0,307
-742,371	267,396	-0,102	-0,130
-741,356	-200,000	-0,010	0,400
-740,342	464,164	-0,130	-0,212
-739,327	-200,000	0,060	0,266
-738,312	104,907	-0,247	-0,212
-737,298	800,000	0,108	0,333
-736,283	369,472	-0,130	-0,192
-735,269	-200,000	-0,042	0,474
-734,254	308,852	-0,086	-0,117
-733,239	-15,853	-0,195	0,090
-732,225	-200,000	-0,039	-0,235
-731,210	-200,000	0,011	0,110
-730,196	-45,652	-0,037	0,013
-729,181	53,318	-0,120	-0,083
-728,167	800,000	-0,040	-0,125
-727,152	-72,726	-0,217	-0,058
-726,137	21,560	-0,107	0,063
-725,123	-39,567	-0,120	-0,046
-724,108	800,000	-0,007	-0,017
-723,094	800,000	-0,049	0,105
-722,079	800,000	-0,062	-0,164
-721,064	-91,044	-0,070	-0,014
-720,050	-109,129	-0,041	0,006
-719,035	-0,928	-0,073	-0,037
-718,021	38,854	-0,053	0,035
-717,006	12,314	0,071	0,040
-715,991	-200,000	-0,018	-0,071
-714,977	88,780	-0,020	-0,017
-713,962	-148,359	0,073	0,004
-712,948	-200,000	-0,011	-0,044
-711,933	-200,000	0,002	-0,027
-710,918	-26,366	0,124	0,053
-709,904	800,000	-0,027	-0,072
-708,889	-47,439	-0,087	0,031
-707,875	800,000	-0,029	-0,074
-706,860	-178,774	0,175	0,003
-705,845	89,990	-0,113	0,091
-704,831	1,787	-0,080	-0,042
-703,816	-64,224	0,069	-0,020
-702,802	-153,869	0,175	-0,009
-701,787	-200,000	0,052	-0,190
-700,772	-197,327	-0,103	0,000
-699,758	306,844	0,116	0,157
-698,743	-200,000	0,033	0,125
-697,729	800,000	0,039	0,115
-696,714	11,144	-0,076	0,042
-695,699	800,000	-0,051	-0,108
-694,685	144,651	-0,104	-0,100
-693,670	145,758	-0,214	-0,208
-692,656	94,717	-0,018	-0,015
-691,641	-200,000	-0,001	-0,048
-690,627	-75,648	0,050	0,013
-689,612	-200,000	0,039	0,125
-688,597	115,340	-0,036	0,032
-687,583	-149,571	-0,087	-0,005
-686,568	-200,000	-0,034	-0,132
-685,554	66,530	-0,125	-0,092
-684,539	12,728	0,066	0,037
-683,524	174,533	0,073	0,077
-682,510	-96,821	0,120	0,023
-681,495	-200,000	-0,023	0,075
-680,481	227,161	-0,068	-0,080
-679,466	-200,000	-0,015	-0,166
-678,451	-200,000	-0,004	0,023
-677,437	-167,297	0,051	-0,001
-676,422	800,000	-0,058	0,123
-675,408	-200,000	-0,001	0,062
-674,393	-81,467	-0,085	-0,020
-673,378	23,014	0,053	0,032
-672,364	440,985	-0,122	-0,195
-671,349	-200,000	-0,005	0,042
-670,335	-200,000	0,011	0,161
-669,320	36,881	0,159	-0,101
-668,305	55,090	-0,105	0,073
-667,291	-200,000	0,021	0,098
-666,276	-200,000	-0,015	0,063
-665,262	559,228	-0,020	-0,035
-664,247	314,888	-0,066	-0,090
-663,232	110,778	-0,031	-0,027
-662,218	-200,000	-0,022	0,070
-661,203	-200,000	-0,020	-0,108
-660,189	538,924	0,072	-0,124
-659,174	800,000	-0,053	-0,121
-658,159	-200,000	0,022	-0,100
-657,145	93,192	0,089	-0,073
-656,130	581,846	-0,010	-0,018
-655,116	-200,000	0,021	-0,099
-654,101	543,299	-0,019	0,033
-653,086	-200,000	-0,027	-0,110
-652,072	82,557	-0,079	-0,062
-651,057	-146,798	-0,087	0,005
-650,043	-200,000	-0,023	0,091
-649,028	-66,388	0,169	0,048
-648,014	-106,705	-0,133	0,021
-646,999	-80,721	0,136	0,033
-645,984	-200,000	-0,002	0,021
-644,970	344,781	0,072	-0,103
-643,955	-200,000	0,005	-0,087
-642,941	427,413	0,043	0,067
-641,926	800,000	-0,014	-0,040
-640,911	800,000	-0,007	0,015
-639,897	5,575	-0,077	0,041
-638,882	-200,000	-0,022	-0,102
-637,868	132,479	-0,033	0,030
-636,853	800,000	0,051	-0,116
-635,838	94,363	0,026	-0,022
-634,824	380,595	0,056	0,083
-633,809	-200,000	0,048	0,180
-632,795	-200,000	-0,001	0,071
-631,780	800,000	-0,037	-0,079
-630,765	-135,854	0,066	-0,006
-629,751	131,157	-0,091	0,085
-628,736	296,487	-0,017	-0,023
-627,722	800,000	-0,036	-0,103
-626,707	17,290	0,120	-0,069
-625,692	-200,000	0,009	-0,038
-624,678	-200,000	-0,031	-0,133
-623,663	-200,000	-0,006	-0,020
-622,649	293,765	-0,064	-0,085
-621,634	-200,000	0,003	0,019
-620,619	800,000	-0,046	-0,100
-619,605	-200,000	0,061	0,000
-618,590	110,662	-0,077	-0,067
-617,576	108,126	0,086	-0,074
-616,561	126,212	-0,160	-0,147
-615,546	-200,000	-0,038	0,148
-614,532	325,969	0,087	-0,121
-613,517	-155,067	0,068	0,003
-612,503	12,443	0,053	-0,030
-611,488	69,418	0,146	0,108
-610,474	693,805	0,070	0,134
-609,459	-126,816	-0,075	-0,008
-608,444	-176,354	-0,132	-0,002
-607,430	-200,000	-0,007	-0,114
-606,415	-54,401	0,096	-0,031
-605,401	303,314	-0,058	-0,078
-604,386	-151,789	0,096	0,005
-603,371	-200,000	0,010	0,108
-602,357	53,614	0,087	-0,060
-601,342	751,035	-0,045	-0,088
-600,328	-113,764	-0,155	-0,022
-599,313	-200,000	0,025	-0,134
-598,298	185,068	0,081	-0,087
-597,284	800,000	0,038	0,079
-596,269	-142,482	0,019	-0,001
-595,255	800,000	-0,055	-0,112
-594,240	-200,000	-0,010	-0,058
-593,225	-200,000	-0,002	-0,077
-592,211	-161,294	0,002	0,000
-591,196	-34,389	0,151	0,060
-590,182	-200,000	0,017	0,069
-589,167	251,650	-0,017	-0,021
-588,152	-37,857	-0,083	0,032
-587,138	150,362	0,086	0,084
-586,123	-76,901	-0,122	0,031
-585,109	-88,369	-0,116	0,025
-584,094	95,300	0,016	0,013
-583,079	382,025	0,040	0,060
-582,065	124,223	0,032	0,029
-581,050	-200,000	0,006	0,148
-580,036	800,000	-0,034	0,076
-579,021	488,996	-0,064	0,107
-578,006	350,452	0,060	0,087
-576,992	-200,000	0,050	-0,176
-575,977	800,000	0,035	0,079
-574,963	594,482	-0,011	0,019
-573,948	-200,000	-0,004	0,018
-572,934	94,656	-0,061	-0,050
-571,919	-200,000	0,001	-0,043
-570,904	800,000	0,034	-0,097
-569,890	-71,567	-0,194	-0,052
-568,875	-55,989	0,080	-0,026
-567,861	-200,000	0,006	0,135
-566,846	-80,417	0,036	0,009
-565,831	-79,889	-0,134	-0,032
-564,817	-34,769	0,034	-0,013
-563,802	-4,300	-0,058	-0,029
-562,788	-42,146	-0,096	-0,035
-561,773	800,000	-0,042	0,103
-560,758	195,412	0,141	0,154
-559,744	-200,000	0,022	-0,143
-558,729	158,956	-0,051	-0,051
-557,715	800,000	-0,008	0,019
-556,700	-61,031	-0,049	0,015
-555,685	800,000	-0,041	-0,118
-554,671	144,404	-0,046	-0,044
-553,656	-200,000	-0,011	0,086
-552,642	-46,208	-0,056	0,020
-551,627	265,768	0,027	-0,034
-550,612	-200,000	0,030	-0,141
-549,598	-200,000	-0,020	-0,082
-548,583	800,000	0,010	-0,033
-547,569	-162,246	-0,023	-0,001
-546,554	-200,000	0,000	0,094
-545,539	4,979	-0,094	0,050
-544,525	800,000	-0,042	-0,119
-543,510	-110,779	-0,127	-0,019
-542,496	-200,000	-0,000	-0,051
-541,481	-17,640	-0,099	-0,045
-540,466	-32,438	0,060	-0,024
-539,452	-11,387	0,081	0,038
-538,437	-200,000	-0,027	0,000
-537,423	-200,000	0,000	-0,078
-536,408	673,267	-0,035	-0,066
-535,393	15,465	0,120	-0,068
-534,379	330,828	-0,069	-0,096
-533,364	800,000	-0,039	0,087
-532,350	232,811	0,101	0,120
-531,335	333,191	-0,061	0,085
-530,321	-108,357	-0,081	-0,012
-529,306	-53,683	-0,105	-0,034
-528,291	-131,873	-0,044	0,004
-527,277	135,817	-0,039	0,037
-526,262	-92,852	-0,017	0,003
-525,248	800,000	0,032	0,066
-524,233	376,138	0,066	-0,098
-523,218	-43,733	-0,039	-0,014
-522,204	-200,000	-0,035	0,171
-521,189	-200,000	0,004	0,086
-520,175	250,658	0,071	-0,087
-519,160	17,730	-0,091	-0,052
-518,145	83,723	-0,112	0,088
-517,131	-128,451	0,071	-0,007
-516,116	70,245	0,158	0,117
-515,102	-148,750	-0,140	0,008
-514,087	-86,813	-0,029	0,006
-513,072	-200,000	-0,011	0,111
-512,058	800,000	-0,038	-0,079
-511,043	-27,030	0,123	-0,052
-510,029	207,277	0,096	0,108
-509,014	-74,277	0,072	0,019
-507,999	-84,189	-0,297	-0,067
-506,985	732,569	-0,038	-0,074
-505,970	323,855	-0,114	-0,158
-504,956	187,200	-0,049	-0,053
-503,941	78,445	0,060	-0,046
-502,926	-200,000	0,025	-0,085
-501,912	-95,433	-0,196	-0,038
-500,897	-100,261	0,057	0,010
-499,883	-20,610	-0,103	-0,045
-498,868	113,675	0,037	0,032
-497,853	-99,141	-0,099	-0,018
-496,839	-3,289	-0,093	-0,047
-495,824	115,352	0,101	0,089
-494,810	-200,000	-0,007	0,122
-493,795	660,881	0,038	-0,070
-492,781	200,390	-0,049	-0,054
-491,766	27,393	-0,140	0,084
-490,751	-88,726	-0,108	-0,023
-489,737	-57,536	0,077	-0,024
-488,722	261,777	0,056	0,070
-487,708	179,843	-0,040	-0,042
-486,693	657,797	0,051	0,095
-485,678	-2,497	-0,108	0,054
-484,664	162,532	-0,076	-0,076
-483,649	584,659	-0,072	-0,128
-482,635	-62,556	-0,046	-0,014
-481,620	-200,000	0,017	0,069
-480,605	404,029	-0,024	-0,037
-479,591	-56,427	0,082	0,026
-478,576	239,021	0,045	-0,053
-477,562	-200,000	0,012	-0,061
-476,547	39,824	-0,057	-0,037
-475,532	-88,449	-0,084	-0,018
-474,518	26,329	-0,066	0,039
-473,503	-34,988	0,197	0,077
-472,489	-153,207	0,045	-0,002
-471,474	331,945	-0,057	0,080
-470,459	10,867	-0,104	-0,057
-469,445	-140,096	0,095	0,007
-468,430	233,622	-0,024	-0,028
-467,416	800,000	0,056	-0,172
-466,401	-200,000	0,003	-0,048
-465,386	21,157	-0,065	0,038
-464,372	-200,000	-0,011	-0,088
-463,357	-126,939	-0,101	0,010
-462,343	-200,000	0,013	-0,080
-461,328	-31,975	0,061	-0,024
-460,313	-89,556	-0,073	-0,015
-459,299	-166,629	0,184	-0,005
-458,284	-93,952	-0,021	-0,004
-457,270	-200,000	0,045	0,208
-456,255	-200,000	-0,040	-0,177
-455,241	-6,058	0,076	0,037
-454,226	-109,627	-0,113	0,017
-453,211	-86,788	-0,148	0,032
-452,197	3,450	0,125	-0,065
-451,182	800,000	0,080	0,175
-450,168	100,901	0,113	0,094
-449,153	-145,025	0,134	-0,009
-448,138	-38,106	-0,131	-0,050
-447,124	-82,538	0,034	0,008
-446,109	-200,000	0,002	0,035
-445,095	-102,822	0,060	-0,010
-444,080	-46,066	0,044	-0,015
-443,065	351,691	0,059	0,084
-442,051	-200,000	0,009	0,057
-441,036	135,292	-0,106	0,099
-440,022	-200,000	-0,002	-0,069
-439,007	-127,501	-0,154	-0,016
-437,992	26,129	0,083	-0,050
-436,978	-200,000	0,002	0,072
-435,963	4,810	-0,165	0,087
-434,949	-89,943	0,171	-0,036
-433,934	282,610	0,028	-0,037
-432,919	-200,000	0,002	0,042
-431,905	800,000	-0,012	-0,030
-430,890	-164,016	0,149	0,005
-429,876	-200,000	0,013	0,122
-428,861	608,698	-0,085	-0,152
-427,846	-200,000	-0,003	-0,117
-426,832	800,000	0,058	-0,166
-425,817	500,455	-0,047	0,079
-424,803	162,302	0,061	0,061
-423,788	-124,804	-0,033	0,004
-422,773	-122,879	0,139	-0,016
-421,759	-161,930	0,083	0,003
-420,744	-149,832	-0,036	0,002
-419,730	366,321	0,020	-0,029
-418,715	132,366	0,047	-0,043
-417,701	-200,000	-0,008	-0,149
-416,686	-200,000	0,015	-0,088
-415,671	162,710	0,081	0,081
-414,657	800,000	-0,019	-0,040
-413,642	38,986	0,065	0,042
-412,628	-129,638	-0,127	0,012
-411,613	-66,021	0,094	-0,027
-410,598	-200,000	-0,027	-0,086
-409,584	-200,000	0,023	0,094
-408,569	-200,000	-0,018	0,079
-407,555	800,000	0,073	0,180
-406,540	-114,694	0,199	0,027
-405,525	66,104	-0,113	-0,082
-404,511	243,798	-0,125	-0,150
-403,496	-189,954	0,035	-0,000
-402,482	-37,590	-0,211	0,080
-401,467	156,626	0,064	0,063
-400,452	-46,284	0,051	0,018
-399,438	-63,541	-0,013	-0,004
-398,423	16,348	-0,066	-0,037
-397,409	-188,510	0,168	0,001
-396,394	800,000	0,037	-0,096
-395,379	-200,000	-0,009	0,128
-394,365	307,216	0,064	-0,086
-393,350	263,889	-0,052	0,065
-392,336	588,451	0,043	0,076
-391,321	10,288	-0,106	-0,057
-390,306	46,901	-0,088	-0,059
-389,292	-200,000	0,005	-0,112
-388,277	800,000	-0,016	-0,035
-387,263	-127,275	-0,084	-0,009
-386,248	-14,214	-0,143	-0,066
-385,233	285,346	0,057	0,074
-384,219	-200,000	0,008	0,035
-383,204	232,996	0,036	0,042
-382,190	-102,618	-0,104	-0,018
-381,175	682,280	0,048	0,090
-380,160	239,256	0,061	0,072
-379,146	5,279	0,067	0,035
-378,131	-104,087	0,145	0,024
-377,117	-148,151	0,045	0,003
-376,102	-160,869	-0,104	-0,004
-375,088	-91,597	0,055	-0,011
-374,073	800,000	-0,052	-0,162
-373,058	800,000	0,062	-0,125
-372,044	-54,390	0,121	0,039
-371,029	800,000	0,016	0,049
-370,015	-150,308	0,076	0,004
-369,000	-91,468	-0,090	0,018
-367,985	-76,887	-0,153	-0,038
-366,971	800,000	-0,030	0,079
-365,956	-200,000	-0,028	0,100
-364,942	60,697	0,062	-0,044
-363,927	-42,668	0,056	0,020
-362,912	129,782	0,076	0,070
-361,898	800,000	-0,055	-0,126
-360,883	307,511	0,073	0,098
-359,869	568,134	0,068	-0,118
-358,854	49,746	-0,098	-0,066
-357,839	-200,000	-0,004	0,174
-356,825	-200,000	-0,012	0,111
-355,810	424,156	-0,053	-0,082
-354,796	-200,000	-0,005	-0,057
-353,781	505,396	-0,087	-0,145
-352,766	462,342	-0,046	-0,073
-351,752	111,316	-0,050	0,043
-350,737	-8,817	0,134	0,064
-349,723	157,876	0,083	0,083
-348,708	800,000	0,031	0,064
-347,693	110,675	-0,105	-0,090
-346,679	281,594	0,106	-0,136
-345,664	-197,585	0,121	-0,001
-344,650	-157,079	-0,062	0,003
-343,635	800,000	0,036	0,096
-342,620	-200,000	0,009	-0,035
-341,606	52,718	0,086	0,059
-340,591	238,911	-0,035	0,042
-339,577	-3,168	-0,035	0,017
-338,562	-40,734	0,013	-0,005
-337,548	-200,000	0,011	-0,051
-336,533	-187,854	0,089	0,001
-335,518	126,145	0,061	-0,055
-334,504	-200,000	0,052	0,185
-333,489	130,805	-0,105	-0,096
-332,475	-200,000	-0,037	-0,199
-331,460	-94,883	-0,052	-0,010
-330,445	800,000	-0,057	0,133
-329,431	-200,000	-0,002	0,037
-328,416	60,779	0,065	0,046
-327,402	66,456	-0,088	-0,064
-326,387	113,998	-0,075	-0,065
-325,372	35,405	-0,086	0,054
-324,358	-108,451	0,053	0,008
-323,343	-9,532	-0,111	-0,053
-322,329	-200,000	-0,011	-0,114
-321,314	413,266	0,037	0,057
-320,299	403,808	0,016	0,024
-319,285	329,595	0,046	0,063
-318,270	-39,255	-0,186	-0,070
-317,256	122,668	-0,032	-0,029
-316,241	192,236	0,039	-0,042
-315,226	800,000	0,101	0,256
-314,212	-200,000	0,001	-0,076
-313,197	-42,874	0,161	0,058
-312,183	429,144	0,065	0,100
-311,168	-200,000	0,000	0,036
-310,153	-33,280	-0,104	0,041
-309,139	-31,737	-0,067	-0,027
-308,124	-15,979	0,031	0,014
-307,110	62,961	0,056	-0,040
-306,095	17,798	0,010	0,006
-305,080	223,264	0,061	0,070
-304,066	-200,000	0,003	0,026
-303,051	-36,844	-0,057	0,022
-302,037	243,578	0,062	0,075
-301,022	202,646	0,036	-0,039
-300,008	103,103	-0,045	0,038
-298,993	-200,000	-0,008	0,059
-297,978	24,777	-0,085	0,050
-296,964	-145,885	0,104	-0,006
-295,949	600,940	-0,086	0,152
-294,935	22,823	0,061	-0,036
-293,920	15,373	0,069	-0,039
-292,905	-200,000	0,022	0,117
-291,891	800,000	-0,032	0,096
-290,876	108,993	0,011	0,010
-289,862	-173,146	0,028	0,001
-288,847	-200,000	-0,006	-0,095
-287,832	800,000	0,035	0,075
-286,818	-4,039	0,054	0,027
-285,803	190,240	-0,043	-0,046
-284,789	-200,000	-0,007	0,056
-283,774	-11,746	-0,084	0,039
-282,759	-142,204	0,074	-0,005
-281,745	-57,015	-0,079	-0,025
-280,730	-96,397	-0,032	-0,006
-279,716	-200,000	-0,098	-0,000
-278,701	12,229	0,019	-0,011
-277,686	4,454	0,052	0,027
-276,672	-200,000	-0,001	-0,030
-275,657	558,168	-0,096	-0,166
-274,643	-110,131	-0,069	-0,010
-273,628	32,651	-0,036	0,022
-272,613	298,477	-0,001	-0,001
-271,599	86,176	0,067	0,052
-270,584	-200,000	-0,014	0,142
-269,570	-5,036	0,060	0,030
-268,555	230,141	0,094	0,110
-267,540	5,235	0,117	-0,062
-266,526	243,680	-0,124	0,148
-265,511	106,594	0,049	-0,041
-264,497	-200,000	0,052	0,215
-263,482	-32,964	0,069	-0,027
-262,467	-82,313	0,066	-0,015
-261,453	7,325	-0,037	0,020
-260,438	-200,000	0,033	-0,143
-259,424	-29,618	-0,111	0,045
-258,409	-40,478	-0,155	-0,057
-257,395	-89,307	0,056	-0,012
-256,380	-85,889	0,237	0,052
-255,365	-200,000	-0,017	0,085
-254,351	-40,187	-0,039	-0,014
-253,336	800,000	-0,042	-0,125
-252,322	-37,275	0,050	-0,019
-251,307	-37,116	-0,148	-0,056
-250,292	-200,000	0,001	0,082
-249,278	-48,680	0,085	-0,029
-248,263	120,227	0,086	-0,076
-247,249	184,172	0,057	0,060
-246,234	426,673	-0,069	-0,106
-245,219	15,871	-0,088	-0,049
-244,205	308,415	0,087	-0,116
-243,190	286,320	-0,052	0,066
-242,176	13,394	0,015	0,008
-241,161	478,554	-0,065	0,106
-240,146	-140,835	-0,113	-0,008
-239,132	167,360	0,081	0,082
-238,117	800,000	-0,023	0,063
-237,103	586,590	0,068	-0,120
-236,088	697,209	0,034	0,064
-235,073	34,287	0,182	0,113
-234,059	65,205	0,035	0,026
-233,044	-101,729	0,026	-0,004
-232,030	800,000	0,009	0,029
-231,015	-21,884	-0,098	-0,042
-230,000	-131,700	0,037	0,003
-228,986	15,160	-0,040	0,022
-227,971	230,216	0,025	-0,029
-226,957	-134,104	0,067	-0,006
-225,942	-200,000	-0,035	0,224
-224,927	616,384	-0,069	0,124
-223,913	45,148	0,103	-0,067
-222,898	-20,982	-0,062	-0,027
-221,884	-101,362	0,118	-0,020
-220,869	12,901	0,063	0,035
-219,855	438,220	-0,023	0,035
-218,840	189,473	0,037	0,040
-217,825	-200,000	-0,009	-0,074
-216,811	227,719	-0,051	-0,059
-215,796	-200,000	0,019	-0,136
-214,782	778,864	0,054	-0,105
-213,767	-28,098	-0,130	-0,053
-212,752	-76,387	-0,140	0,035
-211,738	498,566	0,051	0,084
-210,723	-74,701	-0,210	0,053
-209,709	86,804	0,088	-0,069
-208,694	-38,886	-0,073	-0,027
-207,679	-48,937	-0,110	-0,037
-206,665	-69,210	0,270	0,073
-205,650	55,924	-0,062	-0,043
-204,636	432,237	0,036	-0,056
-203,621	-200,000	0,025	-0,078
-202,606	707,974	-0,029	0,055
-201,592	-56,948	-0,155	0,048
-200,577	-200,000	-0,010	-0,037
-199,563	67,175	-0,116	0,084
-198,548	82,726	0,072	0,055
-197,533	146,589	-0,092	-0,088
-196,519	-166,780	0,103	-0,003
-195,504	122,918	0,068	0,061
-194,490	-57,324	-0,148	0,046
-193,475	93,294	-0,110	-0,089
-192,460	170,285	0,056	0,057
-191,446	213,586	0,047	-0,053
-190,431	-151,125	0,087	-0,005
-189,417	800,000	-0,059	0,161
-188,402	73,043	0,025	-0,018
-187,387	-200,000	-0,063	-0,255
-186,373	800,000	0,031	-0,071
-185,358	-103,387	0,058	-0,010
-184,344	-106,033	0,146	0,023
-183,329	338,580	-0,077	0,106
-182,315	-200,000	0,026	-0,086
-181,300	-159,905	0,278	0,011
-180,285	470,631	-0,073	-0,117
-179,271	49,947	-0,139	-0,093
-178,256	97,852	-0,126	-0,103
-177,242	-200,000	0,021	0,068
-176,227	-122,440	0,070	-0,008
-175,212	-200,000	-0,002	-0,039
-174,198	-5,288	0,116	-0,056
-173,183	-43,401	-0,178	0,063
-172,169	-61,505	0,152	-0,045
-171,154	48,209	0,116	-0,077
-170,139	-95,813	0,138	0,026
-169,125	-200,000	0,012	0,074
-168,110	16,961	-0,206	0,116
-167,096	42,846	0,121	0,078
-166,081	-200,000	-0,040	0,148
-165,066	144,846	-0,065	0,062
-164,052	800,000	0,028	0,083
-163,037	253,898	0,091	0,111
-162,023	-84,097	0,083	-0,019
-161,008	-200,000	-0,013	0,055
-159,993	17,219	0,065	0,037
-158,979	156,597	0,078	-0,077
-157,964	800,000	-0,029	-0,071
-156,950	16,948	0,049	-0,027
-155,935	-115,385	-0,044	0,006
-154,920	-200,000	-0,005	-0,038
-153,906	800,000	-0,025	0,065
-152,891	310,227	-0,072	0,096
-151,877	800,000	0,061	0,141
-150,862	800,000	-0,028	-0,058
-149,847	-200,000	-0,028	0,092
-148,833	22,894	0,070	0,041
-147,818	-200,000	-0,011	0,049
-146,804	-200,000	0,004	0,058
-145,789	-200,000	0,032	0,163
-144,775	800,000	-0,020	0,051
-143,760	20,118	0,068	-0,039
-142,745	800,000	-0,059	-0,119
-141,731	-22,867	-0,141	0,060
-140,716	116,332	0,054	-0,047
-139,702	-81,961	0,122	0,028
-138,687	-95,473	0,159	-0,030
-137,672	-52,147	-0,084	-0,028
-136,658	-130,656	-0,155	0,015
-135,643	800,000	0,030	0,063
-134,629	-200,000	-0,013	-0,043
-133,614	-39,917	0,164	0,060
-132,599	-200,000	0,015	0,063
-131,585	-200,000	-0,037	0,244
-130,570	-59,043	-0,266	0,081
-129,556	-120,103	0,073	0,009
-128,541	-200,000	-0,007	-0,096
-127,526	-140,506	0,115	-0,008
-126,512	717,527	-0,007	0,013
-125,497	-44,547	0,113	-0,040
-124,483	161,281	-0,023	-0,022
-123,468	800,000	0,016	-0,045
-122,453	-93,451	0,062	0,012
-121,439	90,701	-0,072	-0,058
-120,424	-107,436	-0,052	-0,008
-119,410	102,025	0,058	0,048
-118,395	32,069	0,140	0,085
-117,380	-200,000	-0,012	-0,062
-116,366	83,758	-0,026	-0,020
-115,351	-200,000	-0,022	0,081
-114,337	800,000	0,053	-0,128
-113,322	-100,676	-0,094	0,016
-112,307	-200,000	0,028	-0,090
-111,293	636,108	-0,017	-0,032
-110,278	-108,459	-0,076	0,011
-109,264	443,940	-0,076	0,118
-108,249	102,412	-0,057	0,047
-107,234	345,522	0,037	-0,052
-106,220	431,460	-0,069	-0,106
-105,205	31,014	0,072	0,044
-104,191	-200,000	0,042	0,191
-103,176	-200,000	0,004	-0,026
-102,162	-150,259	0,106	-0,006
-101,147	-200,000	-0,035	0,152
-100,132	-200,000	0,020	0,139
-99,118	-158,413	-0,028	0,001
-98,103	800,000	-0,032	0,076
-97,089	-11,041	0,088	0,041
-96,074	800,000	-0,018	-0,044
-95,059	-200,000	0,005	-0,149
-94,045	-200,000	0,010	0,046
-93,030	800,000	-0,034	-0,069
-92,016	206,013	-0,083	-0,092
-91,001	482,223	0,039	0,062
-89,986	231,649	-0,088	0,102
-88,972	-7,287	0,151	0,072
-87,957	-135,425	-0,058	-0,005
-86,943	-188,612	0,095	0,001
-85,928	96,424	-0,114	-0,093
-84,913	-5,919	-0,049	-0,024
-83,899	36,115	-0,117	-0,073
-82,884	-200,000	0,007	-0,095
-81,870	-200,000	-0,001	0,076
-80,855	-135,759	0,052	0,004
-79,840	248,931	-0,047	-0,057
-78,826	-125,337	-0,136	-0,015
-77,811	42,650	0,097	-0,063
-76,797	-127,618	0,120	-0,012
-75,782	262,120	0,033	0,040
-74,767	47,802	0,064	-0,042
-73,753	-37,141	0,113	0,042
-72,738	-132,954	-0,093	-0,008
-71,724	658,299	0,030	-0,055
-70,709	-200,000	-0,002	0,054
-69,694	46,536	-0,033	0,021
-68,680	-86,291	-0,078	0,017
-67,665	-200,000	0,034	0,111
-66,651	176,805	-0,024	-0,025
-65,636	-84,605	-0,146	-0,032
-64,622	-56,071	0,073	-0,023
-63,607	321,644	0,076	0,103
-62,592	126,135	-0,107	-0,096
-61,578	387,663	0,092	0,135
-60,563	-85,267	-0,065	-0,014
-59,549	49,845	0,125	0,084
-58,534	-18,637	-1,861	-0,817
-57,519	396,290	-1,416	-2,097
-56,505	-200,000	-0,403	-4,328
-55,490	418,987	0,844	1,281
-54,476	800,000	4,934	11,221
-53,461	-200,000	20,060	330,997
-52,446	800,000	750,001	2326,854
-51,432	555,279	1659,556	2835,454
-50,417	75,604	1668,806	1244,759
-49,403	20,159	1541,739	877,330
-48,388	14,112	1464,083	803,787
-47,373	18,945	1454,690	821,895
-46,359	16,814	1443,761	805,508
-45,344	12,376	1439,409	781,843
-44,330	12,307	1437,653	780,528
-43,315	12,335	1435,849	779,650
-42,300	12,359	1433,931	778,695
-41,286	12,327	1432,797	777,898
-40,271	12,347	1431,559	777,287
-39,257	12,378	1430,125	776,624
-38,242	12,422	1428,970	776,178
-37,227	12,382	1427,848	775,346
-36,213	12,394	1426,529	774,658
-35,198	12,393	1425,442	774,032
-34,184	12,405	1424,354	773,468
-33,169	12,324	1422,995	772,315
-32,154	12,363	1422,136	772,000
-31,140	12,391	1420,524	771,226
-30,125	12,451	1419,419	770,881
-29,111	12,398	1418,602	770,156
-28,096	12,410	1417,405	769,534
-27,082	12,350	1416,313	768,625
-26,067	12,330	1415,121	767,856
-25,052	12,343	1414,272	767,427
-24,038	12,284	1413,382	766,633
-23,023	12,322	1412,141	766,110
-22,009	12,302	1411,296	765,526
-20,994	12,264	1410,306	764,783
-19,979	12,300	1409,445	764,451
-18,965	12,255	1408,531	763,718
-17,950	12,232	1407,635	763,091
-16,936	12,225	1406,677	762,507
-15,921	12,236	1405,438	761,860
-14,906	12,244	1404,710	761,473
-13,892	12,226	1403,722	760,822
-12,877	12,232	1402,914	760,384
-11,863	12,247	1401,927	759,885
-10,848	12,252	1400,999	759,379
-9,833	12,191	1400,152	758,603
-8,819	12,142	1399,375	757,925
-7,804	12,135	1398,517	757,399
-6,790	12,145	1397,436	756,828
-5,775	12,156	1396,509	756,349
-4,760	12,156	1395,437	755,737
-3,746	12,114	1394,618	755,069
-2,731	12,145	1393,642	754,653
-1,717	12,108	1393,071	754,144
-0,702	12,083	1391,130	752,950
0,313	15,900	1306,562	724,805
1,327	32,058	699,105	424,915
2,342	49,735	122,050	81,124
3,356	0,842	16,493	8,318
4,371	9,302	3,260	1,736
5,386	-11,899	0,688	0,318
6,400	-200,000	-0,029	0,438
7,415	-38,378	-0,355	-0,132
8,429	72,994	-0,360	-0,265
9,444	98,223	-0,314	-0,255
10,459	47,438	-0,329	-0,216
11,473	102,361	-0,280	-0,231
12,488	-134,340	-0,291	-0,025
13,502	-47,761	-0,382	-0,130
14,517	26,755	-0,293	-0,173
15,531	41,808	-0,391	-0,250
16,546	56,614	-0,315	-0,216
17,561	0,502	-0,430	-0,216
18,575	-92,136	-0,229	-0,045
19,590	145,780	-0,211	-0,199
20,604	-150,247	-0,198	-0,011
21,619	133,010	-0,479	-0,436
22,634	295,787	-0,314	-0,407
23,648	8,799	-0,451	-0,239
24,663	113,527	-0,403	-0,345
25,677	-20,326	-0,436	-0,189
26,692	104,092	-0,250	-0,207
27,707	35,186	-0,508	-0,313
28,721	53,118	-0,352	-0,237
29,736	73,842	-0,444	-0,327
30,750	68,103	-0,379	-0,273
31,765	85,844	-0,346	-0,268
32,780	27,543	-0,482	-0,285
33,794	10,718	-0,282	-0,151
34,809	-10,480	-0,451	-0,210
35,823	356,778	-0,261	-0,367
36,838	155,559	-0,287	-0,279
37,853	174,001	-0,293	-0,298
38,867	7,468	-0,449	-0,236
39,882	207,638	-0,285	-0,314
40,896	-3,860	-0,285	-0,139
41,911	273,374	-0,291	-0,362
42,926	132,063	-0,491	-0,445
43,940	118,353	-0,355	-0,309
44,955	363,225	-0,273	-0,387
45,969	71,945	-0,378	-0,276
46,984	45,741	-0,384	-0,249
47,999	185,129	-0,222	-0,232
49,013	194,888	-0,258	-0,275
50,028	132,396	-0,236	-0,214
51,042	70,159	-0,285	-0,207
52,057	-47,719	-0,478	-0,162
53,071	19,226	-0,346	-0,195
54,086	5,113	-0,389	-0,201
55,101	119,483	-0,331	-0,288
56,115	98,966	-0,318	-0,258
57,130	58,086	-0,380	-0,261
58,144	95,180	-0,427	-0,342
59,159	157,696	-0,391	-0,381
60,174	91,636	-0,282	-0,223
61,188	142,303	-0,330	-0,308
62,203	279,340	-0,194	-0,243
63,217	-46,494	-0,362	-0,124
64,232	183,847	-0,330	-0,344
65,247	-59,573	-0,440	-0,132
66,261	113,647	-0,322	-0,275
67,276	94,030	-0,233	-0,186
68,290	-28,819	-0,316	-0,127
69,305	-78,167	-0,312	-0,075
70,320	-64,057	-0,305	-0,087
71,334	-24,110	-0,362	-0,151
72,349	137,605	-0,270	-0,248
73,363	117,579	-0,245	-0,211
74,378	56,850	-0,281	-0,192
75,393	444,950	-0,143	-0,221
76,407	277,989	-0,207	-0,259
77,422	-76,275	-0,247	-0,061
78,436	-2,561	-0,369	-0,181
79,451	232,963	-0,276	-0,318
80,466	169,370	-0,257	-0,258
81,480	74,471	-0,424	-0,313
82,495	33,924	-0,187	-0,114
83,509	-171,205	-0,278	-0,006
84,524	97,970	-0,273	-0,220
85,539	80,446	-0,227	-0,172
86,553	5,183	-0,253	-0,130
87,568	229,677	-0,231	-0,265
88,582	-34,486	-0,405	-0,155
89,597	84,244	-0,316	-0,242
90,611	-9,009	-0,364	-0,170
91,626	99,670	-0,230	-0,187
92,641	87,265	-0,278	-0,215
93,655	30,326	-0,164	-0,098
94,670	-115,690	-0,325	-0,042
95,684	105,138	-0,250	-0,207
96,699	-18,574	-0,378	-0,165
97,714	-4,892	-0,341	-0,164
98,728	111,109	-0,298	-0,251
99,743	42,332	-0,260	-0,165
100,757	-83,297	-0,313	-0,070
101,772	31,684	-0,328	-0,197
102,787	21,653	-0,234	-0,133
103,801	62,416	-0,271	-0,189
104,816	10,160	-0,210	-0,112
105,830	63,356	-0,235	-0,165
106,845	96,976	-0,205	-0,164
107,860	400,870	-0,121	-0,178
108,874	0,227	-0,376	-0,187
109,889	72,160	-0,139	-0,101
110,903	37,790	-0,226	-0,140
111,918	205,761	-0,270	-0,294
112,933	8,585	-0,286	-0,150
113,947	337,294	-0,106	-0,145
114,962	61,727	-0,213	-0,148
115,976	-12,222	-0,263	-0,120
116,991	24,315	-0,364	-0,210
118,006	109,529	-0,319	-0,267
119,020	-11,677	-0,178	-0,082
120,035	139,246	-0,161	-0,148
121,049	153,918	-0,199	-0,191
122,064	129,917	-0,149	-0,133
123,079	-64,991	-0,405	-0,114
124,093	206,112	-0,353	-0,385
125,108	487,620	-0,184	-0,295
126,122	486,898	-0,151	-0,241
127,137	195,364	-0,177	-0,188
128,151	-60,657	-0,264	-0,078
129,166	4,076	-0,259	-0,132
130,181	168,134	-0,154	-0,153
131,195	16,626	-0,396	-0,218
132,210	327,628	-0,215	-0,289
133,224	64,618	-0,260	-0,183
134,239	-71,890	-0,223	-0,058
135,254	461,630	-0,049	-0,076
136,268	101,335	-0,179	-0,145
137,283	206,114	-0,261	-0,284
138,297	-121,186	-0,209	-0,024
139,312	119,962	-0,265	-0,229
140,327	123,889	-0,324	-0,284
141,341	413,715	-0,290	-0,432
142,356	216,036	-0,224	-0,249
143,370	800,000	-0,091	-0,197
144,385	157,124	-0,297	-0,287
145,400	-9,738	-0,368	-0,170
146,414	106,181	-0,254	-0,210
147,429	66,907	-0,239	-0,170
148,443	68,021	-0,283	-0,202
149,458	-1,427	-0,255	-0,125
150,473	252,816	-0,160	-0,191
151,487	245,191	-0,172	-0,202
152,502	107,708	-0,212	-0,176
153,516	-9,490	-0,335	-0,155
154,531	492,452	-0,116	-0,186
155,546	35,666	-0,185	-0,113
156,560	101,131	-0,181	-0,147
157,575	-36,318	-0,258	-0,096
158,589	7,791	-0,165	-0,086
159,604	283,135	-0,188	-0,236
160,619	36,550	-0,339	-0,208
161,633	-95,135	-0,155	-0,029
162,648	-52,667	-0,387	-0,124
163,662	321,513	-0,108	-0,144
164,677	22,904	-0,136	-0,077
165,692	77,193	-0,285	-0,210
166,706	253,012	-0,208	-0,248
167,721	-200,000	-0,072	-0,294
168,735	-68,951	-0,328	-0,087
169,750	306,065	-0,184	-0,239
170,764	61,010	-0,373	-0,257
171,779	-40,249	-0,209	-0,075
172,794	321,608	-0,177	-0,235
173,808	12,221	-0,310	-0,166
174,823	490,684	-0,133	-0,213
175,837	-18,047	-0,253	-0,110
176,852	91,136	-0,161	-0,126
177,867	-71,136	-0,213	-0,055
178,881	791,888	-0,116	-0,223
179,896	18,888	-0,164	-0,091
180,910	45,471	-0,270	-0,173
181,925	0,529	-0,347	-0,172
182,940	359,243	-0,198	-0,277
183,954	5,906	-0,261	-0,134
184,969	114,469	-0,261	-0,221
185,983	169,108	-0,202	-0,201
186,998	409,510	-0,105	-0,156
188,013	12,496	-0,246	-0,132
189,027	198,967	-0,139	-0,148
190,042	781,191	-0,088	-0,168
191,056	384,436	-0,133	-0,190
192,071	-17,885	-0,186	-0,081
193,086	230,702	-0,089	-0,101
194,100	251,094	-0,137	-0,162
195,115	34,579	-0,222	-0,134
196,129	511,013	-0,152	-0,246
197,144	303,033	-0,231	-0,298
198,159	410,569	-0,135	-0,200
199,173	-200,000	-0,059	-0,220
200,188	74,589	-0,235	-0,172
201,202	195,195	-0,130	-0,138
202,217	-107,706	-0,263	-0,039
203,232	50,854	-0,320	-0,210
204,246	70,085	-0,266	-0,190
205,261	223,384	-0,130	-0,146
206,275	62,758	-0,161	-0,112
207,290	800,000	-0,064	-0,132
208,304	-4,037	-0,131	-0,063
209,319	94,829	-0,135	-0,106
210,334	-77,273	-0,223	-0,053
211,348	116,172	-0,083	-0,070
212,363	-13,347	-0,270	-0,121
213,377	-34,118	-0,255	-0,097
214,392	120,334	-0,137	-0,118
215,407	133,486	-0,180	-0,161
216,421	341,278	-0,161	-0,218
217,436	-67,774	-0,227	-0,061
218,450	61,922	-0,216	-0,149
219,465	714,377	-0,125	-0,231
220,480	760,539	-0,058	-0,110
221,494	150,274	-0,262	-0,247
222,509	315,254	-0,085	-0,111
223,523	360,483	-0,142	-0,198
224,538	22,469	-0,155	-0,088
225,553	52,519	-0,233	-0,154
226,567	-81,475	-0,274	-0,062
227,582	-200,000	-0,000	-0,097
228,596	352,494	-0,137	-0,189
229,611	9,728	-0,227	-0,119
230,626	71,407	-0,177	-0,127
231,640	79,503	-0,221	-0,164
232,655	-24,304	-0,232	-0,095
233,669	107,579	-0,156	-0,128
234,684	483,343	-0,136	-0,216
235,699	10,475	-0,184	-0,097
236,713	117,097	-0,121	-0,103
237,728	-156,486	-0,185	-0,008
238,742	-49,334	-0,163	-0,054
239,757	326,634	-0,189	-0,251
240,772	265,618	-0,149	-0,181
241,786	47,365	-0,177	-0,114
242,801	35,618	-0,352	-0,213
243,815	-109,311	-0,248	0,036
244,830	0,076	-0,202	-0,099
245,844	-200,000	-0,282	0,000
246,859	800,000	-0,106	-0,213
247,874	10,003	-0,235	-0,123
248,888	105,705	-0,101	-0,082
249,903	113,835	-0,193	-0,162
250,917	-41,290	-0,262	-0,093
251,932	225,387	-0,189	-0,212
252,947	776,846	-0,090	-0,171
253,961	29,591	-0,243	-0,143
254,976	70,157	-0,227	-0,162
255,990	280,675	-0,202	-0,250
257,005	-17,488	-0,219	-0,095
258,020	-200,000	0,018	-0,121
259,034	222,289	-0,063	-0,070
260,049	94,898	-0,144	-0,113
261,063	115,491	-0,169	-0,143
262,078	800,000	-0,174	-0,344
263,093	355,721	-0,139	-0,192
264,107	65,058	-0,154	-0,107
265,122	-86,003	-0,256	0,054
266,136	-76,104	-0,203	0,049
267,151	110,415	-0,171	-0,142
268,166	95,925	-0,146	-0,115
269,180	-76,596	-0,289	-0,070
270,195	1,533	-0,250	-0,123
271,209	190,044	-0,248	-0,258
272,224	-128,892	-0,259	0,025
273,239	-88,428	-0,195	-0,040
274,253	495,173	-0,134	-0,213
275,268	58,141	-0,238	-0,160
276,282	153,322	-0,171	-0,161
277,297	18,511	-0,288	-0,158
278,312	528,514	-0,118	-0,193
279,326	20,972	-0,217	-0,121
280,341	505,073	-0,139	-0,223
281,355	94,088	-0,129	-0,101
282,370	99,299	-0,179	-0,143
283,384	-21,419	-0,225	-0,094
284,399	238,875	-0,205	-0,235
285,414	-72,949	-0,140	-0,035
286,428	75,122	-0,111	-0,081
287,443	39,895	-0,154	-0,095
288,457	-131,369	-0,056	0,005
289,472	62,464	-0,178	-0,122
290,487	-110,486	-0,136	-0,019
291,501	800,000	-0,073	-0,220
292,516	83,354	-0,153	-0,115
293,530	-44,833	-0,269	-0,092
294,545	180,190	-0,103	-0,104
295,560	146,308	-0,056	-0,052
296,574	-200,000	-0,027	-0,199
297,589	119,736	-0,229	-0,195
298,603	704,876	-0,072	-0,131
299,618	189,632	-0,193	-0,199
300,633	2,391	-0,103	-0,051
301,647	38,941	-0,159	-0,097
302,662	800,000	-0,140	-0,283
303,676	144,268	-0,164	-0,151
304,691	441,267	-0,090	-0,136
305,706	12,323	-0,183	-0,097
306,720	0,552	-0,039	-0,019
307,735	-26,980	-0,149	-0,059
308,749	-28,739	-0,135	0,053
309,764	158,164	-0,112	-0,107
310,779	176,284	-0,118	-0,118
311,793	108,826	-0,115	-0,095
312,808	125,782	-0,236	-0,205
313,822	240,164	-0,102	-0,117
314,837	105,397	-0,106	-0,086
315,852	127,164	-0,092	-0,080
316,866	267,372	-0,135	-0,163
317,881	-103,704	-0,121	0,019
318,895	490,852	-0,184	-0,291
319,910	282,375	-0,156	-0,192
320,925	800,000	-0,102	-0,202
321,939	167,239	-0,118	-0,115
322,954	800,000	-0,042	-0,102
323,968	-200,000	-0,020	-0,093
324,983	743,269	-0,072	-0,134
325,997	30,444	-0,189	-0,111
327,012	25,614	-0,155	-0,089
328,027	800,000	-0,059	-0,156
329,041	1,710	-0,188	-0,093
330,056	-113,394	-0,175	-0,023
331,070	14,072	-0,144	-0,077
332,085	164,774	-0,091	-0,088
333,100	800,000	-0,090	-0,172
334,114	-200,000	-0,046	-0,199
335,129	13,377	-0,155	-0,082
336,143	90,658	-0,161	-0,124
337,158	-82,241	-0,137	-0,030
338,173	-117,372	-0,205	-0,025
339,187	760,507	0,019	-0,035
340,202	536,500	0,016	0,027
341,216	48,078	-0,183	-0,117
342,231	280,557	-0,215	-0,264
343,246	71,602	-0,196	-0,139
344,260	543,768	-0,111	-0,182
345,275	12,465	-0,113	0,060
346,289	-116,878	-0,092	0,011
347,304	-200,000	0,014	0,117
348,319	-107,488	-0,213	0,032
349,333	44,391	-0,126	-0,079
350,348	-32,040	-0,339	-0,129
351,362	42,980	-0,247	-0,154
352,377	42,830	-0,153	-0,096
353,392	211,770	-0,111	-0,119
354,406	-107,497	-0,043	-0,006
355,421	208,705	1312,147	1408,047
356,435	160,609	1472,531	1408,552
