DTS Sentinel unit serial number:	SN410029Multiplexer serial number:	ORYXHardware model number:	OX2-SRSoftware version number:	ORYX F/W v4,00 Oryx Data Collector v3.7.2.0data status	okinstallation	B3 Nyhavnadifferential loss correction	single-endedforward channel	channel 1reverse channel	N/Adate	2023/12/04time	16:22:30forward acquisition time	300,00reverse acquisition time	0,00gamma	499,1914k internal	0,3200k external	0,3200temperature offset calibration	1,0000default loss term (dB/km)	0,3820temperature slope calibration	1,0000multiplexer offset coefficient	1,0000multiplexer slope coefficient	1,0000fibre end	0,00T internal ref (°C)	15,21T ext. ref 1 (°C)	0,29T ext. ref 2 (°C)	0,29length (m)	temperature (°C)	Stokes	anti-Stokes-744,400	2,698	-0,171	-0,090
-743,385	-200,000	-0,054	0,311
-742,371	520,770	-0,096	-0,164
-741,356	-200,000	0,073	0,433
-740,342	84,707	-0,169	-0,135
-739,327	-200,000	-0,023	0,322
-738,312	84,040	-0,247	-0,196
-737,298	800,000	-0,087	0,275
-736,283	104,225	-0,261	-0,223
-735,269	-200,000	-0,013	0,231
-734,254	-7,570	-0,284	-0,139
-733,239	-28,827	-0,263	0,110
-732,225	800,000	-0,109	-0,222
-731,210	-4,319	0,200	0,100
-730,196	800,000	-0,019	-0,060
-729,181	547,968	-0,052	-0,090
-728,167	-94,907	-0,089	-0,017
-727,152	-200,000	0,009	0,030
-726,137	-22,836	-0,072	0,031
-725,123	800,000	-0,077	-0,184
-724,108	128,788	-0,057	-0,053
-723,094	-200,000	-0,037	-0,123
-722,079	80,665	-0,101	-0,079
-721,064	-200,000	-0,001	0,011
-720,050	78,296	0,048	-0,037
-719,035	78,548	-0,018	-0,014
-718,021	657,609	-0,043	-0,081
-717,006	116,513	-0,176	-0,157
-715,991	-200,000	0,016	-0,058
-714,977	-5,452	0,092	-0,046
-713,962	800,000	0,032	-0,071
-712,948	225,490	0,053	0,062
-711,933	-100,094	0,122	-0,022
-710,918	-142,619	-0,113	0,008
-709,904	38,626	0,093	-0,060
-708,889	345,791	0,002	0,003
-707,875	98,643	-0,088	-0,074
-706,860	103,055	0,023	-0,019
-705,845	-40,760	0,047	-0,018
-704,831	746,428	0,049	0,096
-703,816	800,000	0,006	0,014
-702,802	71,465	-0,089	-0,067
-701,787	-123,834	0,062	-0,007
-700,772	-200,000	-0,062	-0,199
-699,758	800,000	0,017	-0,036
-698,743	378,231	-0,071	0,106
-697,729	-200,000	-0,011	0,038
-696,714	135,208	0,038	-0,036
-695,699	64,329	0,148	-0,108
-694,685	140,348	-0,061	-0,059
-693,670	-144,024	-0,067	-0,004
-692,656	-200,000	-0,009	0,066
-691,641	328,217	0,063	-0,088
-690,627	111,576	0,035	0,031
-689,612	-58,308	0,133	0,042
-688,597	276,894	-0,052	-0,067
-687,583	-111,266	-0,142	-0,021
-686,568	374,610	-0,063	-0,094
-685,554	-200,000	0,007	-0,099
-684,539	-67,783	0,007	0,002
-683,524	-200,000	-0,016	-0,081
-682,510	-70,165	0,136	0,037
-681,495	544,164	0,038	-0,066
-680,481	377,741	-0,019	0,028
-679,466	93,443	-0,120	-0,099
-678,451	-31,799	-0,045	0,018
-677,437	800,000	0,052	0,166
-676,422	-200,000	-0,004	0,080
-675,408	-45,577	-0,062	0,022
-674,393	330,601	0,080	-0,113
-673,378	-43,195	-0,060	-0,022
-672,364	-103,679	-0,050	0,008
-671,349	-84,866	-0,022	0,005
-670,335	-200,000	0,001	-0,092
-669,320	251,112	-0,035	0,044
-668,305	265,067	0,084	-0,106
-667,291	262,695	0,050	-0,063
-666,276	-136,609	-0,186	0,015
-665,262	39,949	-0,098	0,064
-664,247	-46,128	-0,062	0,022
-663,232	181,613	0,023	0,024
-662,218	45,326	0,080	-0,054
-661,203	-182,562	0,154	0,002
-660,189	800,000	-0,066	-0,175
-659,174	183,669	-0,055	-0,059
-658,159	-106,289	-0,127	-0,020
-657,145	800,000	-0,033	-0,082
-656,130	5,768	-0,016	-0,008
-655,116	168,310	0,050	0,052
-654,101	19,555	0,072	0,042
-653,086	-141,510	-0,071	-0,005
-652,072	-200,000	-0,053	-0,195
-651,057	-57,088	0,063	0,020
-650,043	671,238	-0,046	-0,087
-649,028	800,000	0,018	-0,041
-648,014	207,877	0,063	0,071
-646,999	168,970	-0,036	0,037
-645,984	800,000	0,019	-0,058
-644,970	-200,000	0,000	-0,003
-643,955	278,042	-0,088	-0,114
-642,941	-200,000	0,008	-0,063
-641,926	75,007	0,053	-0,041
-640,911	-58,198	-0,045	0,014
-639,897	362,834	0,119	0,174
-638,882	270,637	0,066	0,084
-637,868	502,528	0,097	-0,162
-636,853	14,902	-0,072	0,041
-635,838	-200,000	0,012	-0,151
-634,824	800,000	0,046	-0,128
-633,809	800,000	-0,051	-0,105
-632,795	65,425	0,066	-0,048
-631,780	151,385	0,069	0,069
-630,765	-137,645	-0,111	0,009
-629,751	141,458	0,089	-0,085
-628,736	-134,138	-0,140	0,012
-627,722	317,729	-0,059	0,081
-626,707	-115,902	0,210	-0,028
-625,692	-29,834	-0,070	-0,029
-624,678	-32,095	-0,089	-0,036
-623,663	-45,561	0,018	0,006
-622,649	-200,000	0,021	-0,128
-621,634	110,123	0,007	0,006
-620,619	-172,345	0,041	-0,001
-619,605	646,493	0,037	-0,070
-618,590	16,388	0,042	0,024
-617,576	-200,000	0,016	0,083
-616,561	285,935	-0,039	0,051
-615,546	19,862	-0,100	-0,058
-614,532	-101,691	0,057	0,010
-613,517	-28,311	-0,130	0,054
-612,503	800,000	0,025	-0,069
-611,488	143,597	0,090	-0,087
-610,474	19,695	-0,102	0,060
-609,459	351,750	0,059	0,084
-608,444	127,877	-0,063	0,058
-607,430	165,727	-0,033	-0,034
-606,415	-86,952	-0,106	-0,023
-605,401	-200,000	0,026	-0,131
-604,386	-200,000	-0,001	0,061
-603,371	800,000	0,022	-0,067
-602,357	-107,238	0,082	0,013
-601,342	-200,000	0,027	0,095
-600,328	585,783	0,026	-0,047
-599,313	-200,000	0,011	-0,137
-598,298	-143,963	-0,133	-0,009
-597,284	-200,000	0,008	0,043
-596,269	-105,213	0,064	-0,011
-595,255	219,088	-0,046	0,053
-594,240	56,850	0,049	-0,034
-593,225	-82,836	-0,121	-0,028
-592,211	470,699	0,040	-0,065
-591,196	-85,055	-0,037	-0,008
-590,182	6,914	0,038	0,020
-589,167	65,213	0,038	0,028
-588,152	800,000	0,029	-0,083
-587,138	67,161	-0,136	-0,100
-586,123	430,912	0,024	-0,037
-585,109	29,032	-0,178	-0,109
-584,094	-87,267	-0,192	0,042
-583,079	28,566	-0,026	0,016
-582,065	76,075	0,129	-0,099
-581,050	-100,554	0,138	0,024
-580,036	800,000	0,036	-0,110
-579,021	34,690	-0,103	0,065
-578,006	-200,000	-0,031	-0,118
-576,992	-200,000	0,000	-0,004
-575,977	800,000	0,037	0,114
-574,963	-81,074	-0,081	0,019
-573,948	272,018	0,066	0,084
-572,934	-83,861	0,031	-0,007
-571,919	-200,000	0,014	-0,050
-570,904	392,203	0,016	0,025
-569,890	479,028	0,016	0,026
-568,875	-200,000	-0,023	-0,102
-567,861	-200,000	-0,000	-0,114
-566,846	643,575	0,078	0,144
-565,831	-2,684	0,089	-0,045
-564,817	88,471	-0,088	-0,070
-563,802	800,000	-0,024	-0,048
-562,788	82,130	0,041	0,032
-561,773	-200,000	-0,004	-0,082
-560,758	-22,302	0,057	0,025
-559,744	-76,852	-0,062	0,015
-558,729	462,190	0,038	-0,062
-557,715	38,573	-0,079	-0,051
-556,700	-200,000	0,036	-0,117
-555,685	800,000	-0,055	-0,167
-554,671	35,179	0,072	-0,046
-553,656	497,760	0,010	0,017
-552,642	-200,000	0,001	-0,047
-551,627	-200,000	-0,009	0,151
-550,612	173,090	0,030	-0,031
-549,598	2,170	-0,174	0,091
-548,583	-200,000	-0,022	-0,093
-547,569	-200,000	-0,024	0,097
-546,554	-200,000	0,002	-0,122
-545,539	539,281	0,079	0,137
-544,525	15,937	0,110	0,062
-543,510	30,463	-0,128	-0,079
-542,496	-200,000	0,026	-0,096
-541,481	-9,034	-0,017	-0,008
-540,466	-200,000	-0,140	0,000
-539,452	-159,694	0,123	-0,005
-538,437	-188,497	0,056	-0,000
-537,423	593,064	0,029	0,051
-536,408	-90,214	-0,039	-0,008
-535,393	-15,970	-0,108	-0,049
-534,379	490,906	-0,054	-0,089
-533,364	232,777	-0,087	-0,103
-532,350	4,038	0,099	-0,052
-531,335	516,776	-0,050	0,085
-530,321	-59,973	-0,038	-0,012
-529,306	-200,000	-0,023	-0,081
-528,291	-62,276	-0,164	-0,049
-527,277	52,813	-0,044	-0,030
-526,262	800,000	0,048	0,101
-525,248	161,340	-0,061	0,062
-524,233	162,337	0,058	0,059
-523,218	-12,622	-0,043	0,020
-522,204	30,849	0,040	-0,025
-521,189	-200,000	0,010	-0,045
-520,175	-112,190	0,052	0,008
-519,160	294,478	-0,045	0,059
-518,145	-28,275	0,075	0,031
-517,131	114,929	0,093	0,082
-516,116	413,921	-0,030	0,046
-515,102	751,109	0,018	-0,035
-514,087	-113,282	-0,113	-0,016
-513,072	139,049	-0,026	-0,025
-512,058	-200,000	-0,009	0,153
-511,043	193,379	0,095	0,103
-510,029	800,000	0,057	0,142
-509,014	-95,830	-0,129	-0,025
-507,999	310,043	-0,012	0,016
-506,985	-128,869	-0,094	0,009
-505,970	-200,000	-0,057	0,199
-504,956	-200,000	-0,016	0,051
-503,941	-12,323	0,083	0,039
-502,926	99,821	0,013	0,011
-501,912	-109,967	0,044	0,007
-500,897	215,284	0,060	-0,069
-499,883	-74,882	0,049	0,013
-498,868	171,871	0,046	0,048
-497,853	-200,000	-0,009	0,062
-496,839	373,656	-0,037	0,054
-495,824	-99,225	0,025	0,004
-494,810	100,451	0,096	0,080
-493,795	18,065	0,144	-0,082
-492,781	240,899	-0,078	0,094
-491,766	-133,940	0,068	-0,006
-490,751	246,706	-0,122	-0,148
-489,737	-86,138	-0,084	0,019
-488,722	382,007	-0,053	0,078
-487,708	-64,374	0,182	0,053
-486,693	59,349	-0,065	0,046
-485,678	294,780	0,112	0,148
-484,664	800,000	0,030	-0,082
-483,649	-90,608	-0,018	0,004
-482,635	434,128	-0,041	-0,064
-481,620	215,187	0,022	0,025
-480,605	-131,230	0,137	0,013
-479,591	-26,311	0,121	0,051
-478,576	-200,000	0,030	0,106
-477,562	800,000	-0,030	0,072
-476,547	-200,000	-0,007	-0,062
-475,532	-200,000	0,011	0,047
-474,518	67,782	-0,050	-0,037
-473,503	-200,000	0,022	0,179
-472,489	153,399	-0,044	0,043
-471,474	-200,000	0,011	0,043
-470,459	800,000	-0,042	-0,083
-469,445	76,939	-0,041	0,032
-468,430	169,832	0,038	0,039
-467,416	-134,882	0,050	-0,004
-466,401	85,184	0,091	0,072
-465,386	-11,691	0,028	-0,013
-464,372	-128,704	-0,064	-0,006
-463,357	-92,692	-0,206	0,041
-462,343	-48,189	0,059	-0,020
-461,328	-68,074	-0,102	0,028
-460,313	800,000	0,043	0,089
-459,299	-200,000	0,002	-0,011
-458,284	116,798	-0,017	0,015
-457,270	359,560	-0,038	-0,055
-456,255	800,000	-0,011	-0,034
-455,241	9,941	-0,071	-0,039
-454,226	-200,000	0,007	-0,080
-453,211	-88,166	-0,076	0,016
-452,197	313,745	0,053	0,073
-451,182	-170,885	0,074	-0,002
-450,168	800,000	-0,030	0,068
-449,153	174,836	-0,035	-0,036
-448,138	480,380	-0,141	-0,232
-447,124	-200,000	0,001	-0,013
-446,109	160,189	-0,050	-0,050
-445,095	75,247	0,100	-0,076
-444,080	-141,508	0,203	0,015
-443,065	-85,568	0,089	-0,020
-442,051	-154,688	-0,123	-0,006
-441,036	143,380	0,039	-0,038
-440,022	-95,655	-0,097	0,018
-439,007	-167,142	0,115	-0,003
-437,992	270,810	-0,130	0,165
-436,978	800,000	-0,024	0,050
-435,963	800,000	0,044	0,114
-434,949	-82,498	0,041	0,009
-433,934	428,393	-0,052	-0,082
-432,919	-94,376	-0,196	-0,038
-431,905	97,655	0,088	-0,073
-430,890	-200,000	0,015	0,079
-429,876	64,714	0,048	-0,034
-428,861	800,000	0,059	0,164
-427,846	32,712	-0,011	0,007
-426,832	61,034	0,033	-0,023
-425,817	-9,292	-0,027	-0,013
-424,803	-119,633	-0,017	-0,002
-423,788	-200,000	-0,019	0,082
-422,773	-20,333	0,072	0,032
-421,759	74,544	-0,146	0,111
-420,744	-137,268	0,093	0,008
-419,730	548,932	-0,030	-0,051
-418,715	-200,000	0,017	-0,064
-417,701	-48,317	0,048	-0,017
-416,686	-200,000	0,001	0,090
-415,671	-117,954	-0,034	0,004
-414,657	-200,000	-0,034	0,118
-413,642	-200,000	-0,012	0,115
-412,628	18,215	-0,115	0,066
-411,613	-2,334	-0,174	-0,087
-410,598	-66,043	0,034	-0,010
-409,584	463,398	-0,028	0,046
-408,569	10,803	0,068	0,037
-407,555	106,962	0,049	0,042
-406,540	-38,827	0,140	-0,053
-405,525	800,000	-0,024	-0,074
-404,511	275,648	-0,103	-0,132
-403,496	-200,000	0,006	0,047
-402,482	744,721	0,047	0,090
-401,467	-200,000	-0,011	0,110
-400,452	34,596	0,137	0,086
-399,438	800,000	0,021	-0,059
-398,423	133,348	-0,110	-0,102
-397,409	121,621	0,031	-0,028
-396,394	79,793	-0,008	0,006
-395,379	289,356	-0,074	0,096
-394,365	-200,000	-0,003	0,094
-393,350	800,000	0,034	0,070
-392,336	276,597	-0,076	0,097
-391,321	-100,141	0,071	-0,013
-390,306	-200,000	-0,033	-0,152
-389,292	-78,730	0,133	0,032
-388,277	-200,000	-0,010	-0,044
-387,263	-200,000	-0,017	0,102
-386,248	800,000	0,065	0,165
-385,233	133,508	-0,025	-0,023
-384,219	-200,000	0,000	-0,070
-383,204	228,217	0,014	-0,016
-382,190	-81,658	0,094	0,022
-381,175	-38,005	0,049	0,019
-380,160	213,296	-0,061	0,069
-379,146	90,469	0,009	-0,007
-378,131	-200,000	0,015	0,162
-377,117	-133,894	-0,131	-0,012
-376,102	397,967	-0,066	-0,100
-375,088	800,000	-0,020	-0,054
-374,073	800,000	0,055	-0,113
-373,058	579,874	0,066	-0,116
-372,044	-200,000	-0,000	-0,100
-371,029	-200,000	-0,015	-0,059
-370,015	800,000	-0,060	0,138
-369,000	79,766	0,085	0,065
-367,985	488,841	-0,056	-0,092
-366,971	-200,000	-0,017	-0,064
-365,956	12,952	0,032	-0,018
-364,942	800,000	-0,067	0,184
-363,927	-200,000	0,038	0,195
-362,912	91,796	-0,015	0,012
-361,898	-83,116	-0,043	-0,010
-360,883	-53,566	-0,152	0,050
-359,869	-45,420	-0,175	-0,062
-358,854	-65,918	0,075	0,021
-357,839	-200,000	-0,010	0,060
-356,825	-200,000	0,010	0,067
-355,810	12,390	0,079	0,043
-354,796	214,858	0,048	-0,054
-353,781	-200,000	0,023	-0,121
-352,766	103,702	0,096	-0,081
-351,752	800,000	-0,064	-0,180
-350,737	-63,212	0,089	-0,026
-349,723	125,607	0,090	-0,081
-348,708	-200,000	-0,004	0,115
-347,693	-200,000	-0,012	-0,054
-346,679	800,000	-0,046	-0,121
-345,664	76,378	0,077	-0,058
-344,650	800,000	0,062	-0,142
-343,635	12,234	-0,075	0,041
-342,620	-3,644	0,139	0,069
-341,606	-200,000	-0,002	0,035
-340,591	-77,792	-0,093	0,023
-339,577	-128,519	-0,035	0,004
-338,562	31,106	-0,151	-0,092
-337,548	-86,223	-0,140	0,031
-336,533	-200,000	0,001	0,167
-335,518	800,000	-0,040	-0,124
-334,504	506,921	0,077	0,129
-333,489	-101,257	0,027	0,005
-332,475	214,953	-0,006	-0,007
-331,460	400,505	-0,033	-0,050
-330,445	269,105	0,038	-0,048
-329,431	-15,014	-0,108	-0,049
-328,416	-9,206	0,054	0,026
-327,402	-86,724	0,081	-0,018
-326,387	800,000	0,045	-0,103
-325,372	-62,288	0,094	0,028
-324,358	-110,286	-0,061	0,009
-323,343	-5,846	-0,115	0,056
-322,329	262,776	0,039	-0,049
-321,314	254,696	0,097	0,119
-320,299	-24,331	0,134	0,057
-319,285	-117,823	-0,119	0,015
-318,270	-155,194	-0,053	0,002
-317,256	376,277	-0,053	-0,078
-316,241	46,147	-0,010	-0,006
-315,226	-135,915	-0,103	0,009
-314,212	22,907	0,213	-0,124
-313,197	-200,000	0,014	0,044
-312,183	-200,000	-0,002	0,035
-311,168	-200,000	-0,019	-0,081
-310,153	59,188	0,087	-0,062
-309,139	33,210	0,052	-0,032
-308,124	-200,000	0,013	0,045
-307,110	800,000	0,026	0,053
-306,095	-25,394	-0,006	0,003
-305,080	-46,098	-0,005	0,002
-304,066	23,560	-0,035	-0,021
-303,051	354,217	-0,030	-0,043
-302,037	468,656	0,015	0,024
-301,022	195,388	0,047	-0,052
-300,008	-200,000	0,025	0,130
-298,993	392,242	-0,036	0,053
-297,978	-78,771	-0,057	-0,014
-296,964	-200,000	0,026	0,101
-295,949	800,000	-0,056	-0,125
-294,935	332,640	-0,012	0,017
-293,920	133,874	0,081	0,075
-292,905	61,036	0,083	0,059
-291,891	474,254	0,028	0,045
-290,876	229,970	-0,020	0,023
-289,862	453,492	0,013	0,021
-288,847	162,606	-0,076	-0,077
-287,832	-107,916	0,055	0,008
-286,818	-200,000	0,014	-0,090
-285,803	-200,000	0,002	-0,052
-284,789	-200,000	0,011	0,126
-283,774	533,419	0,048	-0,081
-282,759	109,836	0,055	-0,047
-281,745	99,602	-0,134	-0,111
-280,730	-200,000	-0,008	-0,134
-279,716	32,083	-0,099	0,061
-278,701	800,000	0,045	-0,107
-277,686	-172,431	0,153	0,003
-276,672	-200,000	-0,008	0,078
-275,657	258,115	0,068	0,083
-274,643	-85,906	-0,142	0,031
-273,628	-200,000	-0,036	-0,136
-272,613	48,950	-0,098	-0,066
-271,599	361,343	0,031	-0,044
-270,584	-200,000	-0,014	0,109
-269,570	800,000	0,067	0,146
-268,555	214,190	-0,112	-0,126
-267,540	135,131	-0,072	0,067
-266,526	-200,000	-0,018	-0,059
-265,511	800,000	-0,053	0,138
-264,497	222,413	0,022	-0,025
-263,482	260,564	0,060	-0,074
-262,467	357,190	-0,051	-0,073
-261,453	-17,009	-0,095	0,043
-260,438	-200,000	0,006	0,080
-259,424	-200,000	-0,008	-0,128
-258,409	579,544	-0,058	0,101
-257,395	-111,432	0,092	-0,013
-256,380	672,981	0,069	-0,129
-255,365	-200,000	-0,013	-0,102
-254,351	-84,978	0,038	0,008
-253,336	800,000	0,032	-0,091
-252,322	-69,563	-0,100	0,027
-251,307	583,562	-0,026	-0,045
-250,292	-113,607	-0,175	-0,024
-249,278	-131,831	0,117	-0,011
-248,263	409,221	0,065	0,098
-247,249	-200,000	0,013	-0,053
-246,234	-200,000	0,009	-0,050
-245,219	702,531	-0,106	-0,200
-244,205	-200,000	0,025	-0,093
-243,190	150,231	0,071	-0,068
-242,176	357,486	0,039	0,056
-241,161	100,075	-0,023	0,019
-240,146	-155,179	0,105	-0,005
-239,132	344,046	0,085	0,120
-238,117	-200,000	0,016	-0,054
-237,103	-200,000	-0,021	-0,080
-236,088	-96,675	-0,021	0,004
-235,073	12,477	0,178	0,098
-234,059	-51,404	0,066	-0,022
-233,044	-200,000	-0,001	-0,005
-232,030	-76,561	-0,034	-0,008
-231,015	-55,331	-0,008	-0,003
-230,000	61,570	-0,119	-0,084
-228,986	768,627	-0,040	-0,077
-227,971	279,269	0,046	0,059
-226,957	217,444	0,070	0,080
-225,942	76,840	-0,115	0,087
-224,927	-200,000	0,000	-0,067
-223,913	210,374	-0,053	-0,060
-222,898	800,000	0,032	-0,080
-221,884	-11,641	-0,076	-0,035
-220,869	-200,000	0,012	-0,099
-219,855	-200,000	0,019	0,081
-218,840	800,000	0,024	-0,056
-217,825	-200,000	-0,002	0,008
-216,811	217,574	-0,013	0,015
-215,796	-200,000	0,018	0,067
-214,782	79,603	-0,063	-0,048
-213,767	-200,000	0,024	-0,128
-212,752	59,151	0,051	-0,036
-211,738	800,000	-0,036	0,081
-210,723	800,000	0,037	0,075
-209,709	-31,786	-0,107	0,043
-208,694	183,274	-0,124	0,130
-207,679	-120,453	-0,108	-0,013
-206,665	-200,000	-0,032	0,125
-205,650	219,680	0,128	0,146
-204,636	-111,307	0,250	-0,036
-203,621	-200,000	-0,018	0,145
-202,606	-129,425	-0,133	-0,013
-201,592	-200,000	-0,025	0,136
-200,577	-141,389	-0,081	0,006
-199,563	70,769	0,156	0,115
-198,548	-73,270	0,166	0,043
-197,533	22,544	-0,015	0,008
-196,519	450,478	0,078	-0,124
-195,504	244,866	-0,060	0,072
-194,490	25,221	-0,033	-0,019
-193,475	-200,000	0,002	-0,216
-192,460	-200,000	-0,018	0,102
-191,446	32,016	-0,125	-0,077
-190,431	175,712	0,024	0,025
-189,417	-200,000	-0,007	0,028
-188,402	-129,224	-0,092	-0,009
-187,387	539,320	-0,057	-0,098
-186,373	-200,000	0,039	0,130
-185,358	-200,000	0,011	-0,070
-184,344	697,311	-0,010	-0,019
-183,329	-121,625	0,051	0,006
-182,315	-69,887	-0,075	0,020
-181,300	105,390	0,142	-0,120
-180,285	278,957	-0,040	-0,051
-179,271	-116,968	0,068	0,009
-178,256	-22,361	0,117	0,050
-177,242	-89,264	0,120	-0,025
-176,227	244,335	0,068	0,082
-175,212	522,233	0,047	-0,079
-174,198	-180,058	-0,040	0,001
-173,183	50,363	-0,096	-0,065
-172,169	-200,000	0,013	-0,063
-171,154	-77,628	-0,006	0,001
-170,139	368,953	0,031	0,044
-169,125	-200,000	0,027	0,135
-168,110	800,000	-0,063	0,132
-167,096	-200,000	0,017	-0,061
-166,081	-67,426	-0,052	-0,015
-165,066	289,793	0,009	-0,012
-164,052	78,517	0,096	-0,073
-163,037	-140,661	0,190	-0,014
-162,023	-200,000	-0,021	0,078
-161,008	665,072	-0,074	0,136
-159,993	-200,000	-0,002	0,066
-158,979	-200,000	0,015	-0,055
-157,964	-112,567	-0,082	-0,012
-156,950	-42,180	-0,058	-0,021
-155,935	-200,000	-0,006	-0,035
-154,920	93,513	0,147	0,118
-153,906	-200,000	0,005	0,105
-152,891	-43,208	-0,072	-0,026
-151,877	134,209	-0,160	-0,148
-150,862	-75,277	0,088	0,022
-149,847	-200,000	0,019	-0,110
-148,833	-200,000	-0,002	0,016
-147,818	18,680	0,084	-0,048
-146,804	-200,000	0,019	0,168
-145,789	-200,000	0,027	-0,131
-144,775	-200,000	0,019	0,131
-143,760	71,364	0,055	0,041
-142,745	30,429	-0,089	-0,054
-141,731	-118,367	0,069	0,009
-140,716	705,718	-0,054	-0,103
-139,702	800,000	-0,008	-0,020
-138,687	-131,250	0,052	0,005
-137,672	150,488	-0,055	-0,053
-136,658	-6,647	-0,125	-0,060
-135,643	-7,747	-0,085	0,040
-134,629	-134,988	-0,070	0,006
-133,614	-184,478	0,100	0,001
-132,599	800,000	0,030	0,084
-131,585	693,840	0,068	0,128
-130,570	-48,903	0,086	0,029
-129,556	800,000	0,014	0,030
-128,541	800,000	0,013	-0,032
-127,526	-200,000	-0,052	-0,192
-126,512	229,838	0,140	-0,162
-125,497	63,345	-0,056	0,040
-124,483	-200,000	-0,038	-0,127
-123,468	143,996	0,103	-0,098
-122,453	-200,000	-0,015	0,082
-121,439	-200,000	-0,020	-0,069
-120,424	-67,930	0,107	-0,029
-119,410	99,328	-0,050	0,041
-118,395	-110,806	0,082	0,012
-117,380	-4,296	-0,068	0,033
-116,366	349,530	-0,020	-0,028
-115,351	147,520	0,083	0,080
-114,337	676,783	0,052	-0,096
-113,322	174,208	-0,026	-0,027
-112,307	-200,000	-0,001	0,014
-111,293	128,221	0,094	-0,085
-110,278	-200,000	-0,025	0,140
-109,264	61,351	-0,087	-0,061
-108,249	615,270	0,053	0,094
-107,234	-15,829	-0,159	0,071
-106,220	-10,130	0,073	0,034
-105,205	338,801	0,063	-0,088
-104,191	800,000	-0,028	0,084
-103,176	-200,000	-0,025	0,153
-102,162	145,377	-0,049	-0,046
-101,147	533,776	-0,039	0,065
-100,132	-102,382	-0,148	-0,025
-99,118	28,449	0,078	0,047
-98,103	-164,274	0,066	-0,002
-97,089	-200,000	0,021	-0,076
-96,074	-86,771	0,194	0,042
-95,059	-14,160	-0,125	0,057
-94,045	706,287	-0,046	0,086
-93,030	13,539	-0,203	-0,111
-92,016	-200,000	0,025	-0,085
-91,001	-20,795	-0,071	0,031
-89,986	-200,000	-0,014	0,105
-88,972	198,570	-0,065	0,071
-87,957	8,257	-0,054	0,028
-86,943	-131,172	0,080	-0,007
-85,928	-145,716	-0,049	-0,003
-84,913	-173,404	-0,110	0,002
-83,899	800,000	0,058	0,161
-82,884	800,000	-0,026	-0,059
-81,870	646,110	0,024	0,044
-80,855	-22,646	0,056	-0,024
-79,840	384,113	0,065	-0,095
-78,826	800,000	0,042	0,121
-77,811	448,600	-0,081	0,127
-76,797	-200,000	0,025	-0,132
-75,782	-200,000	-0,010	0,087
-74,767	-200,000	-0,010	0,079
-73,753	-200,000	0,011	0,072
-72,738	800,000	-0,006	-0,014
-71,724	800,000	-0,120	-0,263
-70,709	116,254	-0,043	0,037
-69,694	120,745	0,114	0,100
-68,680	800,000	0,054	0,127
-67,665	76,843	-0,059	-0,045
-66,651	635,388	0,104	0,187
-65,636	-200,000	0,020	0,107
-64,622	-9,267	-0,130	0,061
-63,607	25,984	0,067	0,039
-62,592	-200,000	0,015	-0,053
-61,578	-200,000	0,001	-0,086
-60,563	-200,000	0,019	0,148
-59,549	800,000	0,032	-0,081
-58,534	-60,480	-1,553	-0,464
-57,519	356,590	-1,564	-2,214
-56,505	-200,000	-0,523	-4,561
-55,490	141,081	0,936	0,877
-54,476	800,000	4,801	11,319
-53,461	-200,000	18,132	286,033
-52,446	800,000	726,602	2222,541
-51,432	553,605	1642,025	2806,543
-50,417	79,515	1664,496	1263,416
-49,403	23,064	1538,102	891,410
-48,388	17,059	1461,472	817,939
-47,373	17,912	1451,296	816,316
-46,359	17,347	1441,901	808,299
-45,344	15,339	1437,193	796,051
-44,330	15,232	1435,407	794,519
-43,315	15,256	1433,691	793,655
-42,300	15,292	1431,983	792,845
-41,286	15,322	1430,909	792,365
-40,271	15,239	1429,539	791,180
-39,257	15,257	1428,309	790,553
-38,242	15,314	1427,143	790,145
-37,227	15,297	1425,866	789,330
-36,213	15,338	1424,530	788,753
-35,198	15,333	1423,441	788,090
-34,184	15,356	1422,566	787,687
-33,169	15,268	1421,372	786,577
-32,154	15,320	1420,202	786,142
-31,140	15,317	1418,916	785,386
-30,125	15,380	1417,631	784,939
-29,111	15,358	1416,448	784,150
-28,096	15,333	1415,464	783,458
-27,082	15,206	1414,534	782,318
-26,067	15,255	1413,217	781,786
-25,052	15,236	1412,247	781,128
-24,038	15,182	1411,264	780,301
-23,023	15,212	1410,212	779,831
-22,009	15,245	1409,193	779,389
-20,994	15,192	1408,237	778,584
-19,979	15,187	1407,359	778,041
-18,965	15,168	1406,447	777,418
-17,950	15,194	1405,222	776,831
-16,936	15,170	1404,576	776,332
-15,921	15,148	1403,412	775,554
-14,906	15,145	1402,412	774,958
-13,892	15,159	1401,410	774,437
-12,877	15,125	1400,686	773,851
-11,863	15,107	1399,799	773,244
-10,848	15,125	1398,882	772,792
-9,833	15,097	1397,982	772,132
-8,819	15,044	1397,042	771,340
-7,804	15,001	1396,173	770,630
-6,790	15,076	1395,051	770,325
-5,775	15,008	1394,024	769,415
-4,760	15,054	1393,216	769,150
-3,746	15,037	1392,461	768,625
-2,731	15,056	1391,571	768,192
-1,717	15,058	1390,550	767,603
-0,702	15,042	1388,902	766,590
0,313	18,898	1308,215	739,877
1,327	35,266	707,313	437,975
2,342	54,604	125,013	85,158
3,356	3,512	16,603	8,536
4,371	10,394	3,092	1,661
5,386	50,108	0,439	0,292
6,400	-200,000	0,041	0,143
7,415	85,912	-0,189	-0,147
8,429	31,251	-0,325	-0,197
9,444	6,418	-0,380	-0,199
10,459	96,658	-0,289	-0,234
11,473	29,436	-0,322	-0,193
12,488	-94,514	-0,351	-0,067
13,502	239,489	-0,200	-0,235
14,517	12,032	-0,296	-0,161
15,531	104,727	-0,406	-0,338
16,546	155,434	-0,283	-0,275
17,561	105,269	-0,359	-0,300
18,575	-62,740	-0,195	0,057
19,590	38,200	-0,235	-0,147
20,604	-121,667	-0,253	0,029
21,619	41,727	-0,469	-0,300
22,634	333,557	-0,261	-0,357
23,648	202,132	-0,313	-0,341
24,663	156,799	-0,314	-0,307
25,677	199,423	-0,269	-0,292
26,692	-17,080	-0,440	-0,195
27,707	147,254	-0,269	-0,256
28,721	-6,245	-0,370	-0,178
29,736	51,033	-0,423	-0,283
30,750	137,658	-0,356	-0,329
31,765	137,175	-0,390	-0,360
32,780	118,594	-0,298	-0,259
33,794	157,983	-0,292	-0,285
34,809	-92,749	-0,275	-0,054
35,823	430,072	-0,228	-0,349
36,838	86,097	-0,470	-0,365
37,853	226,338	-0,319	-0,366
38,867	-52,924	-0,439	-0,142
39,882	91,683	-0,221	-0,175
40,896	-12,909	-0,392	-0,179
41,911	73,335	-0,309	-0,228
42,926	-23,767	-0,444	-0,187
43,940	173,928	-0,354	-0,361
44,955	161,857	-0,271	-0,268
45,969	179,836	-0,332	-0,343
46,984	222,888	-0,214	-0,243
47,999	150,595	-0,205	-0,197
49,013	239,508	-0,248	-0,292
50,028	37,261	-0,396	-0,247
51,042	49,009	-0,311	-0,205
52,057	221,504	-0,311	-0,352
53,071	169,593	-0,307	-0,310
54,086	139,231	-0,328	-0,304
55,101	-17,921	-0,409	-0,180
56,115	-11,983	-0,422	-0,194
57,130	253,429	-0,223	-0,269
58,144	141,239	-0,389	-0,363
59,159	207,504	-0,322	-0,354
60,174	144,632	-0,448	-0,421
61,188	-30,093	-0,455	-0,181
62,203	33,223	-0,325	-0,198
63,217	92,020	-0,273	-0,216
64,232	99,512	-0,277	-0,226
65,247	149,289	-0,420	-0,401
66,261	26,465	-0,430	-0,252
67,276	177,839	-0,301	-0,309
68,290	-77,532	-0,501	-0,121
69,305	133,625	-0,236	-0,215
70,320	90,718	-0,286	-0,225
71,334	-139,312	-0,236	-0,018
72,349	268,987	-0,295	-0,364
73,363	72,098	-0,322	-0,235
74,378	27,938	-0,294	-0,174
75,393	-17,557	-0,281	-0,124
76,407	79,432	-0,243	-0,183
77,422	244,284	-0,145	-0,172
78,436	-95,048	-0,324	-0,061
79,451	-37,247	-0,398	-0,149
80,466	-55,591	-0,310	-0,097
81,480	-79,194	-0,319	-0,075
82,495	-53,683	-0,394	-0,126
83,509	18,968	-0,357	-0,201
84,524	-10,657	-0,255	-0,118
85,539	52,010	-0,323	-0,216
86,553	-52,679	-0,263	-0,085
87,568	89,382	-0,363	-0,284
88,582	-2,119	-0,337	-0,165
89,597	127,727	-0,259	-0,231
90,611	142,035	-0,226	-0,211
91,626	273,289	-0,179	-0,222
92,641	-122,972	-0,284	-0,032
93,655	11,228	-0,259	-0,139
94,670	-42,502	-0,279	-0,099
95,684	79,421	-0,308	-0,232
96,699	1,388	-0,380	-0,191
97,714	-4,819	-0,377	-0,182
98,728	42,447	-0,173	-0,110
99,743	-0,729	-0,304	-0,151
100,757	147,393	-0,310	-0,293
101,772	95,358	-0,324	-0,259
102,787	432,262	-0,201	-0,307
103,801	99,670	-0,374	-0,304
104,816	159,623	-0,130	-0,127
105,830	537,520	-0,176	-0,294
106,845	101,562	-0,151	-0,123
107,860	-17,381	-0,118	-0,052
108,874	37,276	-0,245	-0,152
109,889	-7,332	-0,283	-0,134
110,903	153,105	-0,296	-0,284
111,918	75,452	-0,162	-0,120
112,933	99,859	-0,317	-0,257
113,947	-127,910	-0,086	0,009
114,962	76,143	-0,294	-0,218
115,976	41,868	-0,322	-0,204
116,991	17,345	-0,289	-0,161
118,006	138,552	-0,285	-0,262
119,020	71,432	-0,356	-0,258
120,035	99,396	-0,121	-0,098
121,049	69,239	-0,203	-0,146
122,064	77,762	-0,232	-0,173
123,079	55,071	-0,237	-0,160
124,093	128,777	-0,211	-0,188
125,108	168,405	-0,235	-0,234
126,122	12,360	-0,238	-0,128
127,137	-37,539	-0,192	-0,071
128,151	-19,719	-0,306	-0,132
129,166	71,457	-0,351	-0,255
130,181	-108,997	-0,349	-0,051
131,195	77,309	-0,427	-0,317
132,210	184,630	-0,251	-0,261
133,224	205,123	-0,158	-0,171
134,239	-1,927	-0,212	-0,104
135,254	107,304	-0,279	-0,232
136,268	72,849	-0,158	-0,115
137,283	520,088	-0,183	-0,302
138,297	14,414	-0,279	-0,152
139,312	354,136	-0,205	-0,285
140,327	10,261	-0,280	-0,148
141,341	32,641	-0,254	-0,153
142,356	22,651	-0,287	-0,164
143,370	126,708	-0,148	-0,131
144,385	189,172	-0,227	-0,238
145,400	145,904	-0,280	-0,263
146,414	800,000	-0,135	-0,323
147,429	246,611	-0,184	-0,217
148,443	115,633	-0,259	-0,221
149,458	-65,813	-0,202	-0,056
150,473	-147,354	-0,196	-0,011
151,487	-169,868	-0,297	0,007
152,502	180,993	-0,252	-0,259
153,516	196,312	-0,330	-0,351
154,531	69,038	-0,373	-0,268
155,546	148,234	-0,222	-0,210
156,560	115,131	-0,133	-0,113
157,575	234,712	-0,134	-0,154
158,589	-51,247	-0,191	-0,062
159,604	-34,602	-0,381	-0,145
160,619	272,342	-0,145	-0,179
161,633	220,191	-0,213	-0,239
162,648	456,954	-0,169	-0,262
163,662	211,953	-0,152	-0,167
164,677	119,395	-0,177	-0,153
165,692	204,706	-0,126	-0,137
166,706	695,478	-0,112	-0,206
167,721	54,583	-0,261	-0,175
168,735	45,590	-0,243	-0,156
169,750	327,474	-0,176	-0,235
170,764	283,236	-0,189	-0,238
171,779	85,077	-0,134	-0,102
172,794	85,853	-0,198	-0,151
173,808	215,442	-0,179	-0,199
174,823	-10,748	-0,247	-0,113
175,837	800,000	-0,090	-0,201
176,852	128,872	-0,213	-0,189
177,867	17,369	-0,172	-0,095
178,881	207,446	-0,155	-0,168
179,896	-34,105	-0,264	-0,100
180,910	41,439	-0,207	-0,130
181,925	41,962	-0,385	-0,243
182,940	67,180	-0,311	-0,220
183,954	84,211	-0,208	-0,158
184,969	430,954	-0,154	-0,232
185,983	9,238	-0,156	-0,082
186,998	278,962	-0,043	-0,053
188,013	-54,782	-0,385	-0,120
189,027	372,864	-0,168	-0,238
190,042	-27,263	-0,198	-0,080
191,056	-37,800	-0,232	-0,085
192,071	140,628	-0,196	-0,180
193,086	126,358	-0,137	-0,121
194,100	59,222	-0,109	-0,075
195,115	144,688	-0,106	-0,098
196,129	-107,842	-0,245	-0,037
197,144	107,314	-0,271	-0,224
198,159	293,207	-0,090	-0,115
199,173	-200,000	-0,042	-0,240
200,188	92,173	-0,149	-0,116
201,202	242,944	-0,159	-0,186
202,217	50,780	-0,214	-0,141
203,232	172,553	-0,225	-0,225
204,246	763,906	-0,117	-0,222
205,261	320,256	-0,181	-0,240
206,275	49,924	-0,242	-0,159
207,290	81,992	-0,107	-0,081
208,304	-83,952	-0,285	0,063
209,319	-11,489	-0,211	-0,096
210,334	218,712	-0,153	-0,170
211,348	36,061	-0,139	-0,085
212,363	81,469	-0,120	-0,090
213,377	89,615	-0,156	-0,121
214,392	289,629	-0,145	-0,183
215,407	55,586	-0,226	-0,152
216,421	-141,463	-0,222	0,015
217,436	77,708	-0,242	-0,179
218,450	169,920	-0,182	-0,181
219,465	150,822	-0,190	-0,180
220,480	106,915	-0,188	-0,155
221,494	-7,021	-0,181	-0,085
222,509	47,892	-0,145	-0,094
223,523	159,463	-0,148	-0,143
224,538	8,691	-0,124	-0,065
225,553	2,431	-0,294	-0,147
226,567	800,000	-0,165	-0,338
227,582	-84,004	-0,284	-0,062
228,596	122,655	-0,189	-0,164
229,611	-21,574	-0,177	-0,075
230,626	-66,946	-0,071	-0,019
231,640	141,530	-0,141	-0,129
232,655	439,608	-0,162	-0,245
233,669	800,000	-0,098	-0,246
234,684	661,940	-0,155	-0,278
235,699	-200,000	-0,021	-0,121
236,713	533,755	-0,147	-0,243
237,728	191,267	-0,225	-0,235
238,742	80,711	-0,131	-0,098
239,757	495,293	-0,139	-0,222
240,772	78,976	-0,179	-0,133
241,786	66,574	-0,289	-0,203
242,801	179,590	-0,107	-0,109
243,815	-158,732	-0,132	-0,005
244,830	-120,696	-0,290	0,034
245,844	3,591	-0,297	-0,150
246,859	-39,590	-0,303	-0,109
247,874	153,848	-0,231	-0,219
248,888	769,725	-0,123	-0,233
249,903	485,780	-0,177	-0,280
250,917	137,005	-0,247	-0,223
251,932	800,000	-0,073	-0,190
252,947	124,720	-0,138	-0,120
253,961	144,679	-0,209	-0,193
254,976	59,999	-0,196	-0,134
255,990	-105,344	-0,154	-0,024
257,005	155,074	-0,190	-0,181
258,020	-7,737	-0,188	-0,088
259,034	136,263	-0,121	-0,109
260,049	-43,219	-0,262	-0,091
261,063	-58,175	-0,152	-0,046
262,078	-5,161	-0,187	-0,089
263,093	-19,242	-0,143	-0,061
264,107	-2,690	-0,177	0,085
265,122	-200,000	-0,029	-0,239
266,136	274,724	-0,099	-0,122
267,151	363,171	-0,139	-0,194
268,166	-28,559	-0,196	-0,078
269,180	51,953	-0,192	-0,126
270,195	-32,987	-0,273	-0,104
271,209	54,139	-0,128	-0,085
272,224	62,866	-0,128	-0,088
273,239	-125,203	-0,189	0,020
274,253	431,843	-0,067	-0,101
275,268	-24,366	-0,206	-0,084
276,282	144,942	-0,149	-0,138
277,297	-17,259	-0,238	-0,103
278,312	355,353	-0,134	-0,184
279,326	-1,178	-0,179	-0,087
280,341	-115,516	-0,125	-0,016
281,355	190,306	-0,099	-0,102
282,370	96,790	-0,203	-0,160
283,384	197,264	-0,163	-0,171
284,399	135,836	-0,227	-0,204
285,414	103,964	-0,202	-0,164
286,428	62,968	-0,214	-0,147
287,443	-56,963	-0,185	0,056
288,457	541,190	-0,038	-0,062
289,472	-200,000	-0,027	-0,084
290,487	-39,864	-0,212	-0,076
291,501	-44,398	-0,254	-0,087
292,516	263,330	-0,159	-0,191
293,530	28,845	-0,285	-0,166
294,545	716,516	-0,053	-0,098
295,560	164,017	-0,113	-0,110
296,574	31,496	-0,180	-0,107
297,589	-29,907	-0,265	-0,104
298,603	-22,860	-0,153	-0,064
299,618	13,866	-0,214	-0,115
300,633	100,883	-0,164	-0,131
301,647	-5,979	-0,090	0,042
302,662	233,761	-0,092	0,104
303,676	9,483	-0,189	-0,098
304,691	-200,000	-0,027	-0,175
305,706	123,753	-0,219	-0,190
306,720	118,657	-0,180	-0,153
307,735	-122,514	-0,123	-0,014
308,749	-200,000	0,009	-0,085
309,764	276,759	-0,028	-0,035
310,779	-68,736	-0,138	-0,037
311,793	621,994	-0,091	-0,159
312,808	5,222	-0,127	-0,064
313,822	18,960	-0,254	-0,140
314,837	384,910	-0,139	-0,198
315,852	-200,000	-0,018	-0,099
316,866	-56,630	-0,164	-0,050
317,881	98,305	-0,234	-0,185
318,895	22,252	-0,283	-0,159
319,910	-42,848	-0,259	-0,090
320,925	544,648	-0,093	-0,154
321,939	800,000	-0,038	-0,075
322,954	2,424	-0,050	-0,025
323,968	-200,000	-0,031	-0,203
324,983	123,088	-0,077	-0,066
325,997	-200,000	-0,013	-0,175
327,012	-27,536	-0,099	-0,039
328,027	-66,394	-0,164	-0,045
329,041	-135,440	-0,175	0,014
330,056	-100,420	-0,064	0,011
331,070	-144,902	-0,209	-0,013
332,085	-200,000	-0,034	-0,182
333,100	389,026	-0,088	-0,126
334,114	-185,839	-0,211	-0,002
335,129	104,781	-0,222	-0,180
336,143	425,649	-0,101	-0,150
337,158	-20,860	-0,163	-0,069
338,173	-76,220	-0,080	0,019
339,187	160,108	0,034	-0,032
340,202	-200,000	-0,030	-0,126
341,216	-7,331	-0,204	-0,095
342,231	-13,785	-0,338	-0,149
343,246	800,000	-0,072	-0,185
344,260	9,855	-0,092	-0,048
345,275	197,432	-0,034	-0,036
346,289	140,712	-0,112	-0,101
347,304	63,531	-0,036	-0,025
348,319	60,928	-0,096	-0,065
349,333	-186,478	-0,073	0,001
350,348	-51,230	-0,114	-0,036
351,362	486,126	-0,133	-0,208
352,377	9,736	-0,052	0,027
353,392	208,679	-0,082	-0,088
354,406	-171,217	-0,098	0,002
355,421	206,722	1320,846	1413,577
356,435	158,993	1482,331	1414,085
