DTS Sentinel unit serial number:	SN410029Multiplexer serial number:	ORYXHardware model number:	OX2-SRSoftware version number:	ORYX F/W v4,00 Oryx Data Collector v3.7.2.0data status	okinstallation	B3 Nyhavnadifferential loss correction	single-endedforward channel	channel 1reverse channel	N/Adate	2023/12/03time	06:52:30forward acquisition time	300,00reverse acquisition time	0,00gamma	499,1914k internal	0,3201k external	0,3201temperature offset calibration	1,0000default loss term (dB/km)	0,3820temperature slope calibration	1,0000multiplexer offset coefficient	1,0000multiplexer slope coefficient	1,0000fibre end	0,00T internal ref (°C)	13,30T ext. ref 1 (°C)	-1,75T ext. ref 2 (°C)	-1,77length (m)	temperature (°C)	Stokes	anti-Stokes-744,400	105,963	-0,220	-0,189
-743,385	457,351	0,152	0,247
-742,371	160,125	-0,164	-0,167
-741,356	-200,000	-0,035	0,379
-740,342	-94,313	-0,157	-0,031
-739,327	-200,000	0,054	0,349
-738,312	146,183	-0,181	-0,177
-737,298	-200,000	-0,024	0,329
-736,283	242,253	-0,193	-0,235
-735,269	-200,000	0,079	0,320
-734,254	4,647	-0,319	-0,170
-733,239	-76,827	-0,265	0,067
-732,225	781,142	-0,099	-0,197
-731,210	68,352	0,256	0,190
-730,196	276,221	-0,085	-0,110
-729,181	225,670	-0,020	0,024
-728,167	800,000	0,014	-0,035
-727,152	44,552	0,126	0,084
-726,137	231,342	-0,029	0,034
-725,123	-141,780	-0,203	-0,015
-724,108	53,001	-0,108	-0,075
-723,094	800,000	-0,033	-0,076
-722,079	-200,000	0,007	-0,114
-721,064	-161,376	-0,076	-0,003
-720,050	800,000	-0,036	-0,087
-719,035	800,000	0,033	0,070
-718,021	216,491	0,026	-0,030
-717,006	85,275	-0,154	-0,122
-715,991	54,792	-0,093	-0,065
-714,977	800,000	-0,016	0,033
-713,962	800,000	0,071	-0,167
-712,948	397,012	0,145	0,221
-711,933	202,647	0,071	0,080
-710,918	7,544	-0,059	-0,032
-709,904	-37,716	0,101	-0,039
-708,889	383,993	-0,076	-0,114
-707,875	620,890	-0,027	0,050
-706,860	-200,000	0,041	-0,132
-705,845	-144,427	0,111	-0,007
-704,831	130,896	-0,023	0,022
-703,816	-200,000	0,009	-0,043
-702,802	102,003	-0,048	0,041
-701,787	189,096	-0,121	-0,131
-700,772	-200,000	0,020	-0,103
-699,758	-200,000	0,004	0,049
-698,743	89,661	0,070	0,057
-697,729	-138,643	-0,222	-0,017
-696,714	-42,670	0,055	0,020
-695,699	-200,000	-0,026	-0,083
-694,685	307,410	0,050	-0,067
-693,670	-25,634	-0,113	0,048
-692,656	237,455	0,019	-0,023
-691,641	95,324	0,098	0,081
-690,627	772,318	-0,021	0,042
-689,612	800,000	-0,025	-0,056
-688,597	-200,000	-0,029	-0,156
-687,583	28,287	-0,091	-0,056
-686,568	117,210	-0,052	-0,046
-685,554	395,361	-0,071	-0,108
-684,539	134,070	-0,043	-0,041
-683,524	-43,278	-0,016	-0,006
-682,510	-98,948	-0,124	0,023
-681,495	-61,382	0,021	-0,006
-680,481	800,000	0,048	-0,143
-679,466	-200,000	-0,022	-0,091
-678,451	-102,962	-0,161	-0,027
-677,437	-111,734	-0,059	-0,009
-676,422	800,000	-0,011	0,026
-675,408	-200,000	0,012	0,050
-674,393	-99,206	-0,019	0,003
-673,378	-200,000	-0,005	-0,129
-672,364	313,574	-0,054	0,074
-671,349	91,404	0,084	0,069
-670,335	101,534	0,090	0,076
-669,320	-200,000	-0,007	0,047
-668,305	-200,000	-0,006	0,083
-667,291	503,901	0,019	0,032
-666,276	-200,000	0,002	0,038
-665,262	153,979	-0,104	-0,103
-664,247	-200,000	0,008	-0,065
-663,232	-200,000	0,014	-0,059
-662,218	-14,582	0,052	-0,024
-661,203	-200,000	0,013	0,094
-660,189	-79,273	-0,061	0,015
-659,174	-148,055	-0,130	0,008
-658,159	683,246	0,115	0,219
-657,145	-200,000	0,013	0,082
-656,130	532,637	0,077	-0,132
-655,116	-200,000	0,037	0,188
-654,101	1,747	0,061	0,032
-653,086	400,475	-0,068	0,103
-652,072	-200,000	-0,027	-0,122
-651,057	-200,000	-0,036	-0,164
-650,043	185,935	0,061	0,065
-649,028	555,597	-0,053	-0,093
-648,014	429,522	0,065	-0,103
-646,999	-174,477	-0,101	-0,002
-645,984	800,000	0,028	0,081
-644,970	85,417	-0,086	-0,068
-643,955	350,761	-0,038	-0,054
-642,941	-200,000	0,029	-0,212
-641,926	-96,498	0,128	-0,024
-640,911	27,141	-0,086	0,052
-639,897	-138,605	0,182	-0,014
-638,882	-53,720	-0,147	0,048
-637,868	-200,000	0,002	-0,069
-636,853	375,050	-0,071	-0,106
-635,838	800,000	0,036	-0,085
-634,824	800,000	-0,034	-0,078
-633,809	-200,000	-0,003	0,088
-632,795	-200,000	-0,002	0,119
-631,780	47,946	-0,058	0,039
-630,765	295,331	-0,034	0,045
-629,751	-103,141	-0,043	-0,007
-628,736	-200,000	-0,013	-0,103
-627,722	5,394	-0,057	0,031
-626,707	-41,539	-0,108	0,040
-625,692	86,274	0,112	-0,089
-624,678	-41,770	-0,060	0,022
-623,663	344,452	-0,055	0,078
-622,649	-200,000	0,032	-0,125
-621,634	383,778	0,040	-0,059
-620,619	-170,302	-0,083	0,002
-619,605	86,433	0,116	-0,093
-618,590	-200,000	-0,034	-0,110
-617,576	-141,850	-0,140	-0,010
-616,561	90,842	-0,054	-0,044
-615,546	38,787	0,067	0,043
-614,532	800,000	-0,064	-0,164
-613,517	164,212	0,099	-0,101
-612,503	-200,000	-0,024	0,085
-611,488	89,484	0,035	-0,028
-610,474	436,253	-0,085	-0,134
-609,459	-7,757	0,028	0,014
-608,444	-200,000	-0,003	0,060
-607,430	-127,645	-0,136	-0,014
-606,415	-23,290	-0,131	-0,057
-605,401	35,236	-0,146	-0,092
-604,386	-200,000	0,019	0,066
-603,371	-200,000	-0,018	0,082
-602,357	52,554	0,102	-0,070
-601,342	-52,199	-0,216	-0,072
-600,328	-52,310	0,150	-0,050
-599,313	226,288	-0,013	-0,015
-598,298	147,305	-0,103	0,100
-597,284	42,019	0,120	0,079
-596,269	800,000	-0,046	0,109
-595,255	587,314	-0,061	-0,109
-594,240	-79,018	-0,079	0,019
-593,225	112,444	0,025	0,022
-592,211	-200,000	-0,038	-0,146
-591,196	-55,359	-0,041	-0,013
-590,182	800,000	-0,040	-0,106
-589,167	-200,000	0,002	-0,159
-588,152	-200,000	0,033	0,152
-587,138	-200,000	0,023	0,119
-586,123	-200,000	0,001	-0,177
-585,109	800,000	0,047	-0,147
-584,094	800,000	0,008	-0,024
-583,079	77,592	0,124	0,095
-582,065	-200,000	0,017	-0,070
-581,050	-85,873	-0,078	0,017
-580,036	24,541	0,029	0,017
-579,021	-120,969	0,142	0,017
-578,006	-200,000	-0,014	0,082
-576,992	201,952	-0,038	-0,043
-575,977	-200,000	0,001	-0,036
-574,963	579,120	0,048	0,085
-573,948	250,360	-0,060	0,074
-572,934	49,696	0,028	-0,019
-571,919	-200,000	0,001	-0,012
-570,904	800,000	-0,026	-0,062
-569,890	40,028	-0,038	-0,025
-568,875	161,725	0,100	0,101
-567,861	-69,889	0,157	-0,043
-566,846	-1,353	-0,118	-0,060
-565,831	800,000	-0,018	0,049
-564,817	-200,000	-0,021	-0,174
-563,802	84,312	-0,128	-0,101
-562,788	18,487	-0,074	-0,043
-561,773	31,460	0,161	0,100
-560,758	800,000	0,033	-0,070
-559,744	-69,534	-0,112	0,031
-558,729	783,941	0,046	0,091
-557,715	174,536	-0,072	0,075
-556,700	-98,423	0,045	0,008
-555,685	-139,996	-0,133	0,010
-554,671	48,645	0,097	-0,065
-553,656	25,689	-0,040	0,024
-552,642	-79,779	-0,027	0,007
-551,627	-83,825	0,062	0,014
-550,612	450,945	0,047	-0,075
-549,598	-200,000	-0,004	-0,098
-548,583	324,220	-0,087	-0,120
-547,569	662,242	0,030	0,055
-546,554	180,009	-0,068	-0,072
-545,539	312,079	0,060	-0,082
-544,525	63,693	-0,083	0,060
-543,510	69,111	-0,072	-0,053
-542,496	297,066	-0,022	0,030
-541,481	362,846	0,051	-0,074
-540,466	-200,000	-0,028	0,122
-539,452	800,000	0,035	0,092
-538,437	800,000	0,024	-0,067
-537,423	72,476	0,023	0,017
-536,408	-29,960	-0,163	0,067
-535,393	478,919	-0,081	-0,132
-534,379	-200,000	0,001	-0,086
-533,364	-200,000	-0,025	-0,160
-532,350	-200,000	0,011	0,069
-531,335	-46,469	0,037	0,013
-530,321	169,412	0,069	-0,071
-529,306	-93,384	-0,120	-0,024
-528,291	800,000	0,058	-0,152
-527,277	-45,414	-0,145	-0,052
-526,262	800,000	-0,014	0,028
-525,248	244,962	-0,101	0,122
-524,233	223,041	0,035	0,041
-523,218	4,880	-0,090	-0,048
-522,204	-72,446	0,114	0,030
-521,189	-200,000	0,010	0,067
-520,175	172,248	-0,034	-0,036
-519,160	306,066	0,041	-0,056
-518,145	-74,295	0,068	0,018
-517,131	89,802	-0,037	0,030
-516,116	-200,000	0,026	0,100
-515,102	8,334	-0,049	0,026
-514,087	220,860	-0,035	-0,040
-513,072	-154,261	-0,122	-0,006
-512,058	423,566	-0,011	-0,017
-511,043	-4,847	0,045	-0,022
-510,029	131,549	0,124	0,115
-509,014	800,000	-0,023	-0,054
-507,999	474,939	0,026	-0,042
-506,985	800,000	-0,006	0,019
-505,970	181,519	0,087	0,092
-504,956	-101,442	0,021	0,004
-503,941	-122,631	-0,159	0,018
-502,926	-102,665	0,012	0,002
-501,912	-200,000	-0,003	0,067
-500,897	-145,268	-0,086	-0,006
-499,883	118,092	-0,040	-0,035
-498,868	-51,258	-0,034	-0,011
-497,853	10,429	-0,065	-0,036
-496,839	-200,000	0,003	-0,029
-495,824	167,707	0,037	-0,038
-494,810	800,000	0,029	0,061
-493,795	-57,006	0,057	0,018
-492,781	800,000	-0,020	0,057
-491,766	11,459	-0,018	-0,010
-490,751	-200,000	0,024	0,147
-489,737	-9,716	-0,177	0,085
-488,722	547,904	0,037	0,063
-487,708	154,060	-0,078	0,077
-486,693	568,780	0,070	0,123
-485,678	124,740	-0,049	0,045
-484,664	-37,739	0,061	-0,023
-483,649	-200,000	0,004	-0,155
-482,635	791,980	-0,029	-0,059
-481,620	-4,438	-0,071	0,035
-480,605	800,000	-0,004	0,009
-479,591	-118,568	0,038	-0,005
-478,576	-200,000	-0,020	0,113
-477,562	-200,000	-0,015	-0,048
-476,547	-122,528	-0,063	-0,007
-475,532	700,430	0,037	-0,071
-474,518	375,443	0,108	0,159
-473,503	-200,000	0,032	0,140
-472,489	800,000	0,056	0,143
-471,474	-93,647	-0,096	0,019
-470,459	192,011	0,021	-0,023
-469,445	253,040	-0,060	-0,073
-468,430	-8,816	0,028	-0,014
-467,416	107,212	0,062	0,053
-466,401	-42,927	0,156	-0,057
-465,386	-40,555	0,082	0,030
-464,372	800,000	-0,061	-0,140
-463,357	82,264	-0,043	-0,033
-462,343	800,000	-0,057	0,139
-461,328	-200,000	0,004	0,023
-460,313	-119,665	0,078	-0,010
-459,299	162,412	0,035	0,035
-458,284	800,000	0,023	0,055
-457,270	-200,000	-0,019	0,081
-456,255	390,502	-0,042	0,063
-455,241	-200,000	0,005	0,079
-454,226	365,071	0,067	-0,097
-453,211	-200,000	0,008	-0,038
-452,197	800,000	0,038	-0,110
-451,182	-78,573	-0,159	0,039
-450,168	-108,883	0,058	-0,009
-449,153	-200,000	-0,007	-0,129
-448,138	63,041	-0,087	-0,063
-447,124	132,222	-0,096	0,089
-446,109	268,748	-0,034	-0,044
-445,095	677,723	0,078	-0,146
-444,080	137,187	-0,070	-0,066
-443,065	106,321	0,084	0,072
-442,051	-200,000	-0,008	-0,038
-441,036	-112,179	-0,044	-0,006
-440,022	46,577	-0,051	-0,034
-439,007	-16,781	-0,116	0,052
-437,992	-200,000	0,002	0,109
-436,978	-200,000	-0,006	-0,028
-435,963	132,011	0,049	0,045
-434,949	-200,000	0,004	-0,112
-433,934	800,000	0,052	0,114
-432,919	327,750	0,012	0,017
-431,905	418,325	-0,059	-0,091
-430,890	-200,000	-0,012	-0,097
-429,876	-200,000	0,025	0,139
-428,861	-63,945	0,062	-0,018
-427,846	-94,980	0,206	-0,040
-426,832	66,477	0,055	-0,040
-425,817	-200,000	0,002	-0,009
-424,803	259,643	-0,051	0,064
-423,788	-172,539	0,112	-0,002
-422,773	-200,000	-0,004	0,168
-421,759	-178,135	0,136	-0,002
-420,744	137,754	-0,009	-0,009
-419,730	-158,475	0,085	0,003
-418,715	800,000	0,017	-0,052
-417,701	-172,688	-0,064	0,001
-416,686	-21,444	0,072	0,031
-415,671	-200,000	0,015	0,089
-414,657	396,851	-0,036	-0,054
-413,642	-200,000	0,011	0,197
-412,628	284,246	-0,070	0,090
-411,613	-200,000	-0,005	-0,020
-410,598	-184,452	0,121	-0,001
-409,584	-200,000	0,017	-0,091
-408,569	-87,928	0,138	0,030
-407,555	-93,853	0,068	-0,013
-406,540	228,690	-0,064	0,075
-405,525	651,530	-0,092	-0,171
-404,511	800,000	0,051	-0,157
-403,496	141,717	-0,133	-0,126
-402,482	-52,248	-0,114	-0,038
-401,467	-55,606	0,069	0,022
-400,452	-200,000	0,002	0,016
-399,438	-48,352	0,131	0,045
-398,423	-200,000	0,012	-0,102
-397,409	375,239	-0,040	0,059
-396,394	-127,164	0,235	0,024
-395,379	223,510	0,077	-0,090
-394,365	-97,544	0,059	-0,011
-393,350	109,817	0,135	0,116
-392,336	7,276	0,016	0,009
-391,321	332,391	-0,029	0,041
-390,306	800,000	0,018	-0,051
-389,292	-116,857	-0,101	-0,013
-388,277	50,003	0,061	0,041
-387,263	-200,000	-0,006	0,106
-386,248	-175,038	0,211	0,004
-385,233	800,000	0,059	0,124
-384,219	-115,582	-0,047	0,006
-383,204	-59,276	-0,061	-0,019
-382,190	-15,217	-0,034	-0,016
-381,175	-79,759	0,089	-0,021
-380,160	29,126	0,023	0,014
-379,146	30,351	0,069	0,042
-378,131	-45,301	-0,146	-0,052
-377,117	98,541	0,101	-0,083
-376,102	-5,453	0,054	-0,026
-375,088	-29,467	0,106	0,043
-374,073	791,120	-0,042	-0,083
-373,058	-170,584	-0,048	-0,001
-372,044	119,349	-0,077	0,068
-371,029	-200,000	-0,009	0,144
-370,015	-200,000	-0,009	0,069
-369,000	-200,000	0,004	-0,052
-367,985	-200,000	0,012	-0,074
-366,971	-160,508	0,072	0,003
-365,956	523,946	0,036	0,061
-364,942	-48,970	-0,121	-0,041
-363,927	800,000	0,025	0,053
-362,912	13,709	0,021	-0,012
-361,898	800,000	-0,026	-0,071
-360,883	-200,000	-0,021	-0,095
-359,869	-106,424	-0,147	0,023
-358,854	171,718	-0,062	0,064
-357,839	-80,757	0,115	-0,027
-356,825	-200,000	-0,008	-0,039
-355,810	73,774	-0,097	0,073
-354,796	-200,000	-0,005	-0,109
-353,781	459,494	0,075	-0,119
-352,766	-51,286	-0,118	-0,039
-351,752	3,411	-0,026	0,013
-350,737	27,916	0,131	0,079
-349,723	800,000	0,066	0,194
-348,708	146,712	0,171	0,165
-347,693	278,924	-0,112	0,144
-346,679	800,000	0,031	0,071
-345,664	-200,000	-0,004	-0,075
-344,650	-4,161	0,131	-0,065
-343,635	492,501	0,030	0,049
-342,620	401,776	-0,033	0,049
-341,606	29,821	-0,071	0,043
-340,591	148,083	-0,135	-0,130
-339,577	316,650	-0,042	0,057
-338,562	-58,805	-0,083	-0,026
-337,548	800,000	-0,021	0,046
-336,533	457,740	-0,047	0,075
-335,518	-93,616	-0,047	0,009
-334,504	121,338	0,038	-0,034
-333,489	-44,350	-0,107	0,038
-332,475	112,899	-0,045	-0,039
-331,460	-200,000	0,008	0,044
-330,445	150,521	-0,043	-0,042
-329,431	27,819	0,120	0,072
-328,416	-168,136	0,175	0,005
-327,402	-10,116	-0,084	0,040
-326,387	800,000	-0,015	0,041
-325,372	-200,000	0,000	-0,087
-324,358	42,407	-0,010	0,006
-323,343	75,008	0,048	0,036
-322,329	178,882	0,039	0,041
-321,314	219,464	-0,056	0,064
-320,299	21,366	0,081	0,047
-319,285	336,428	0,046	-0,064
-318,270	424,776	-0,047	-0,073
-317,256	91,302	0,076	0,061
-316,241	-200,000	0,006	0,108
-315,226	-200,000	-0,012	-0,053
-314,212	156,443	0,062	0,061
-313,197	224,502	-0,079	0,091
-312,183	137,746	-0,056	-0,053
-311,168	308,951	-0,050	-0,067
-310,153	22,132	0,024	-0,014
-309,139	539,092	-0,052	-0,088
-308,124	0,616	-0,034	0,018
-307,110	-186,251	0,019	-0,000
-306,095	-167,784	0,129	0,004
-305,080	-200,000	0,010	0,033
-304,066	-179,107	0,159	0,002
-303,051	-35,227	-0,015	0,006
-302,037	-200,000	0,012	-0,041
-301,022	-200,000	0,018	0,142
-300,008	-200,000	-0,041	0,144
-298,993	-14,633	-0,163	0,075
-297,978	42,060	0,087	-0,056
-296,964	800,000	-0,021	-0,044
-295,949	800,000	-0,069	-0,180
-294,935	-30,726	-0,109	0,044
-293,920	-200,000	0,003	0,098
-292,905	800,000	0,006	-0,014
-291,891	49,004	0,137	0,092
-290,876	-83,383	0,087	0,020
-289,862	800,000	-0,015	0,031
-288,847	-16,721	-0,217	-0,098
-287,832	-200,000	0,032	-0,128
-286,818	31,920	-0,076	-0,047
-285,803	-138,740	0,053	0,004
-284,789	800,000	0,048	0,125
-283,774	800,000	0,039	0,094
-282,759	-200,000	0,002	-0,058
-281,745	-200,000	-0,011	-0,202
-280,730	-200,000	0,006	-0,059
-279,716	-200,000	0,001	-0,040
-278,701	151,739	0,059	-0,058
-277,686	-200,000	0,040	0,155
-276,672	800,000	0,045	0,109
-275,657	-87,906	0,072	0,015
-274,643	-200,000	-0,022	-0,124
-273,628	-19,692	-0,102	-0,045
-272,613	-67,251	-0,058	-0,016
-271,599	88,774	0,080	0,064
-270,584	800,000	-0,015	0,038
-269,570	224,293	0,070	0,081
-268,555	-200,000	-0,017	-0,072
-267,540	-66,895	-0,093	-0,026
-266,526	-200,000	-0,007	-0,182
-265,511	-45,414	-0,105	0,037
-264,497	-200,000	0,038	-0,152
-263,482	-200,000	-0,005	-0,026
-262,467	-121,245	0,071	0,008
-261,453	800,000	0,037	-0,117
-260,438	192,784	-0,050	-0,054
-259,424	-200,000	-0,036	-0,155
-258,409	-200,000	-0,009	-0,137
-257,395	-159,505	-0,019	-0,001
-256,380	-200,000	-0,008	0,062
-255,365	-200,000	-0,001	0,129
-254,351	-200,000	-0,006	0,158
-253,336	-200,000	-0,015	0,052
-252,322	-200,000	0,004	-0,111
-251,307	-83,257	0,077	0,018
-250,292	215,347	-0,118	0,133
-249,278	225,569	0,195	0,226
-248,263	346,190	0,035	0,050
-247,249	290,395	-0,038	0,049
-246,234	-158,625	0,027	0,001
-245,219	107,268	0,060	0,051
-244,205	800,000	-0,012	0,028
-243,190	800,000	-0,060	-0,119
-242,176	387,838	0,039	-0,058
-241,161	-99,600	-0,142	0,025
-240,146	171,683	0,022	0,022
-239,132	-200,000	0,021	-0,217
-238,117	-121,896	-0,182	0,021
-237,103	66,398	0,035	-0,025
-236,088	41,309	0,048	0,031
-235,073	-92,323	0,080	-0,016
-234,059	-81,691	0,032	0,007
-233,044	-200,000	0,012	0,069
-232,030	-200,000	-0,010	0,033
-231,015	4,676	0,034	-0,018
-230,000	79,961	0,100	0,076
-228,986	-185,901	-0,083	-0,001
-227,971	46,026	0,085	-0,056
-226,957	-199,895	0,123	-0,000
-225,942	219,643	0,048	-0,055
-224,927	18,863	-0,069	-0,039
-223,913	-200,000	-0,023	-0,129
-222,898	9,349	-0,074	0,040
-221,884	800,000	0,031	0,094
-220,869	-18,389	0,106	0,047
-219,855	800,000	0,058	-0,133
-218,840	800,000	0,026	-0,065
-217,825	800,000	-0,024	-0,058
-216,811	800,000	0,020	0,046
-215,796	7,364	-0,116	-0,062
-214,782	280,676	-0,076	-0,097
-213,767	-66,950	-0,113	0,032
-212,752	47,067	0,070	0,046
-211,738	35,634	-0,035	0,022
-210,723	-31,923	-0,063	0,025
-209,709	-5,158	0,145	0,071
-208,694	4,368	-0,045	0,024
-207,679	800,000	0,041	-0,113
-206,665	-15,293	-0,050	-0,023
-205,650	160,811	-0,045	-0,045
-204,636	-78,011	-0,069	0,017
-203,621	-200,000	0,006	0,118
-202,606	800,000	-0,005	0,011
-201,592	403,554	-0,036	-0,054
-200,577	12,802	-0,012	0,007
-199,563	172,701	0,071	0,073
-198,548	-135,144	0,197	0,017
-197,533	218,806	-0,031	0,036
-196,519	-119,383	-0,072	-0,009
-195,504	113,850	0,079	0,069
-194,490	-24,973	-0,077	-0,032
-193,475	220,901	-0,026	-0,030
-192,460	800,000	0,056	0,142
-191,446	800,000	-0,034	0,085
-190,431	-101,267	0,047	0,008
-189,417	212,474	-0,065	0,073
-188,402	275,739	0,031	-0,039
-187,387	104,592	0,116	-0,097
-186,373	-200,000	-0,002	0,059
-185,358	800,000	-0,045	-0,090
-184,344	-200,000	-0,025	-0,090
-183,329	-76,576	0,144	0,036
-182,315	-75,293	0,140	0,035
-181,300	-125,935	0,071	0,007
-180,285	799,049	-0,034	-0,068
-179,271	-127,909	-0,184	-0,019
-178,256	-75,175	-0,085	0,021
-177,242	-43,888	0,128	0,046
-176,227	-117,999	-0,162	-0,020
-175,212	25,132	0,084	0,049
-174,198	-88,359	0,044	-0,009
-173,183	-200,000	0,006	-0,070
-172,169	16,405	0,101	-0,056
-171,154	-15,244	-0,060	-0,027
-170,139	-127,618	0,080	-0,008
-169,125	80,591	0,090	-0,069
-168,110	63,836	-0,082	-0,058
-167,096	370,894	0,089	0,129
-166,081	71,337	-0,079	-0,058
-165,066	212,266	-0,078	0,088
-164,052	74,008	-0,057	-0,043
-163,037	-200,000	0,043	0,136
-162,023	220,134	0,146	0,167
-161,008	-200,000	0,005	0,185
-159,993	469,367	-0,103	0,165
-158,979	184,453	-0,040	-0,042
-157,964	800,000	0,036	-0,111
-156,950	-113,381	-0,136	0,019
-155,935	418,404	0,079	0,121
-154,920	195,141	0,088	0,096
-153,906	312,390	-0,044	0,060
-152,891	-29,445	0,131	0,053
-151,877	100,426	-0,046	0,038
-150,862	-200,000	-0,005	0,039
-149,847	455,988	-0,056	0,088
-148,833	-66,013	0,078	0,022
-147,818	-68,749	0,077	0,021
-146,804	12,878	0,107	0,058
-145,789	-200,000	0,046	0,211
-144,775	292,683	-0,143	0,185
-143,760	173,459	0,037	-0,038
-142,745	800,000	-0,020	0,050
-141,731	-22,850	0,102	0,044
-140,716	-5,514	0,007	0,003
-139,702	77,666	0,111	-0,084
-138,687	-144,708	-0,104	0,007
-137,672	-38,035	0,106	-0,040
-136,658	265,698	0,012	-0,015
-135,643	274,773	-0,101	-0,127
-134,629	-103,565	-0,090	0,015
-133,614	-104,962	-0,070	0,011
-132,599	-74,727	-0,150	-0,038
-131,585	-22,802	0,067	0,029
-130,570	-136,165	0,096	0,008
-129,556	140,105	-0,051	-0,048
-128,541	-200,000	0,007	-0,143
-127,526	130,430	-0,087	-0,080
-126,512	178,725	0,042	0,044
-125,497	133,425	0,116	0,106
-124,483	-200,000	0,009	0,066
-123,468	-200,000	-0,011	0,073
-122,453	-200,000	-0,001	0,053
-121,439	-200,000	0,018	-0,244
-120,424	704,060	-0,041	0,077
-119,410	102,739	0,083	0,069
-118,395	-200,000	0,007	0,054
-117,380	-200,000	0,018	0,114
-116,366	225,229	-0,034	-0,039
-115,351	535,579	0,042	0,071
-114,337	229,617	-0,096	-0,112
-113,322	91,253	0,021	0,017
-112,307	4,192	-0,087	-0,045
-111,293	-76,984	0,028	-0,007
-110,278	-62,275	0,145	0,042
-109,264	77,037	0,048	0,036
-108,249	-200,000	-0,017	0,102
-107,234	-43,550	-0,140	0,050
-106,220	-140,816	-0,043	-0,003
-105,205	84,473	0,112	0,087
-104,191	800,000	0,055	0,152
-103,176	423,919	-0,074	0,113
-102,162	17,678	0,076	-0,043
-101,147	-164,796	0,094	0,003
-100,132	-140,594	-0,133	0,010
-99,118	-200,000	0,021	0,108
-98,103	635,596	0,010	0,017
-97,089	-71,449	0,066	0,018
-96,074	9,060	0,095	0,050
-95,059	-129,957	-0,124	-0,012
-94,045	-78,535	-0,079	0,019
-93,030	110,096	-0,062	-0,053
-92,016	-200,000	0,000	-0,023
-91,001	110,282	-0,171	-0,146
-89,986	200,814	0,088	0,096
-88,972	70,171	0,102	0,074
-87,957	117,625	-0,052	-0,046
-86,943	-74,311	-0,044	-0,011
-85,928	-200,000	-0,005	-0,026
-84,913	117,674	-0,032	0,028
-83,899	137,281	0,018	-0,017
-82,884	800,000	-0,051	0,156
-81,870	-50,644	0,142	0,047
-80,855	-200,000	-0,020	0,169
-79,840	-200,000	-0,028	0,113
-78,826	168,070	-0,106	-0,107
-77,811	601,812	-0,019	-0,033
-76,797	-200,000	-0,001	0,060
-75,782	346,145	0,110	0,154
-74,767	800,000	-0,023	-0,058
-73,753	535,206	0,032	0,054
-72,738	137,043	-0,092	0,085
-71,724	-19,392	-0,082	0,036
-70,709	-40,686	-0,171	0,062
-69,694	763,487	-0,039	0,075
-68,680	225,405	-0,086	0,098
-67,665	644,784	0,036	0,065
-66,651	-87,014	0,005	0,001
-65,636	119,126	0,033	-0,029
-64,622	57,454	-0,088	-0,061
-63,607	-80,141	-0,132	-0,031
-62,592	210,844	0,056	-0,062
-61,578	-52,980	-0,077	0,025
-60,563	6,857	-0,061	0,032
-59,549	71,139	0,035	-0,025
-58,534	-1,194	-1,651	-0,823
-57,519	541,339	-1,258	-2,131
-56,505	-200,000	-0,631	-4,496
-55,490	191,212	0,999	1,065
-54,476	800,000	4,885	11,482
-53,461	-200,000	19,330	320,977
-52,446	-200,000	741,378	2335,855
-51,432	572,701	1656,256	2868,630
-50,417	78,197	1671,537	1261,562
-49,403	21,308	1544,277	885,703
-48,388	15,143	1467,077	811,435
-47,373	18,001	1457,300	819,814
-46,359	16,704	1446,996	807,763
-45,344	13,412	1442,238	789,302
-44,330	13,291	1440,557	787,773
-43,315	13,371	1438,586	787,048
-42,300	13,356	1436,923	786,033
-41,286	13,302	1435,733	785,096
-40,271	13,365	1434,378	784,624
-39,257	13,293	1433,137	783,567
-38,242	13,363	1431,871	783,179
-37,227	13,365	1430,650	782,490
-36,213	13,401	1429,210	781,842
-35,198	13,384	1428,137	781,141
-34,184	13,402	1427,153	780,661
-33,169	13,378	1425,870	779,814
-32,154	13,392	1424,788	779,256
-31,140	13,403	1423,585	778,619
-30,125	13,452	1422,283	778,109
-29,111	13,405	1421,338	777,340
-28,096	13,396	1420,247	776,671
-27,082	13,353	1419,129	775,822
-26,067	13,347	1417,782	775,027
-25,052	13,334	1416,908	774,458
-24,038	13,335	1415,720	773,784
-23,023	13,338	1414,906	773,324
-22,009	13,335	1413,800	772,674
-20,994	13,312	1412,832	772,004
-19,979	13,280	1412,148	771,448
-18,965	13,279	1411,085	770,833
-17,950	13,286	1410,051	770,270
-16,936	13,287	1409,169	769,763
-15,921	13,243	1408,203	769,002
-14,906	13,285	1407,235	768,636
-13,892	13,215	1406,503	767,881
-12,877	13,259	1405,526	767,521
-11,863	13,213	1404,489	766,711
-10,848	13,225	1403,690	766,297
-9,833	13,184	1402,968	765,682
-8,819	13,170	1401,965	765,042
-7,804	13,136	1400,935	764,290
-6,790	13,129	1400,046	763,740
-5,775	13,160	1398,739	763,141
-4,760	13,161	1397,888	762,652
-3,746	13,134	1397,195	762,120
-2,731	13,128	1396,430	761,643
-1,717	13,140	1395,477	761,148
-0,702	13,111	1393,589	759,955
0,313	16,978	1310,219	732,399
1,327	33,161	703,720	430,767
2,342	51,537	123,220	82,707
3,356	1,184	16,643	8,424
4,371	3,802	3,170	1,632
5,386	-32,554	0,575	0,226
6,400	-200,000	0,022	0,325
7,415	99,128	-0,231	-0,189
8,429	118,905	-0,188	-0,164
9,444	718,711	-0,224	-0,423
10,459	163,142	-0,231	-0,230
11,473	-22,079	-0,327	-0,140
12,488	129,380	-0,241	-0,218
13,502	189,657	-0,251	-0,267
14,517	-77,616	-0,327	-0,079
15,531	173,114	-0,261	-0,266
16,546	186,642	-0,291	-0,307
17,561	216,764	-0,348	-0,392
18,575	11,287	-0,242	-0,130
19,590	337,313	-0,102	-0,140
20,604	-176,112	-0,279	-0,005
21,619	27,521	-0,440	-0,261
22,634	380,702	-0,369	-0,536
23,648	145,931	-0,408	-0,386
24,663	132,264	-0,427	-0,388
25,677	21,962	-0,321	-0,184
26,692	-20,925	-0,391	-0,168
27,707	58,698	-0,341	-0,236
28,721	80,105	-0,401	-0,304
29,736	400,152	-0,252	-0,374
30,750	407,291	-0,240	-0,359
31,765	24,492	-0,369	-0,215
32,780	159,016	-0,242	-0,237
33,794	6,595	-0,393	-0,206
34,809	180,588	-0,381	-0,395
35,823	4,445	-0,423	-0,218
36,838	25,067	-0,381	-0,222
37,853	320,162	-0,243	-0,326
38,867	124,373	-0,421	-0,373
39,882	10,421	-0,344	-0,184
40,896	21,497	-0,374	-0,214
41,911	26,737	-0,349	-0,205
42,926	18,048	-0,334	-0,187
43,940	162,533	-0,247	-0,244
44,955	-17,462	-0,406	-0,179
45,969	16,774	-0,317	-0,176
46,984	92,967	-0,278	-0,221
47,999	241,643	-0,173	-0,204
49,013	-66,086	-0,451	-0,126
50,028	333,334	-0,191	-0,260
51,042	75,019	-0,324	-0,241
52,057	172,289	-0,300	-0,304
53,071	-30,378	-0,373	-0,148
54,086	40,839	-0,366	-0,232
55,101	-133,263	-0,297	-0,026
56,115	163,191	-0,254	-0,251
57,130	18,454	-0,411	-0,231
58,144	105,763	-0,328	-0,273
59,159	216,764	-0,270	-0,303
60,174	35,230	-0,291	-0,179
61,188	105,497	-0,418	-0,348
62,203	-73,315	-0,363	-0,093
63,217	64,665	-0,451	-0,319
64,232	41,043	-0,329	-0,209
65,247	69,877	-0,384	-0,278
66,261	-38,446	-0,534	-0,198
67,276	35,071	-0,385	-0,237
68,290	39,539	-0,545	-0,343
69,305	19,901	-0,418	-0,236
70,320	28,872	-0,293	-0,174
71,334	118,857	-0,253	-0,220
72,349	-14,257	-0,305	-0,138
73,363	196,702	-0,229	-0,245
74,378	50,690	-0,392	-0,260
75,393	142,248	-0,367	-0,343
76,407	-36,927	-0,352	-0,132
77,422	87,673	-0,231	-0,180
78,436	-136,998	-0,392	-0,031
79,451	63,583	-0,302	-0,212
80,466	296,175	-0,253	-0,326
81,480	146,694	-0,310	-0,293
82,495	153,340	-0,311	-0,299
83,509	81,294	-0,233	-0,177
84,524	42,530	-0,319	-0,203
85,539	164,007	-0,231	-0,229
86,553	-3,060	-0,222	-0,109
87,568	42,866	-0,339	-0,216
88,582	69,527	-0,249	-0,180
89,597	37,866	-0,309	-0,192
90,611	63,479	-0,239	-0,168
91,626	48,010	-0,247	-0,161
92,641	-83,560	-0,277	-0,062
93,655	-39,461	-0,341	-0,125
94,670	72,274	-0,331	-0,241
95,684	65,798	-0,334	-0,237
96,699	-11,748	-0,495	-0,227
97,714	135,598	-0,228	-0,208
98,728	154,260	-0,244	-0,235
99,743	-16,489	-0,333	-0,147
100,757	-2,103	-0,287	-0,141
101,772	7,212	-0,253	-0,132
102,787	-95,610	-0,250	-0,047
103,801	-55,522	-0,131	-0,041
104,816	454,011	-0,174	-0,271
105,830	-13,705	-0,245	-0,111
106,845	-7,799	-0,263	-0,124
107,860	-114,666	-0,203	0,027
108,874	149,566	-0,211	-0,201
109,889	79,715	-0,242	-0,182
110,903	50,633	-0,227	-0,150
111,918	34,317	-0,327	-0,199
112,933	132,353	-0,257	-0,232
113,947	275,539	-0,278	-0,346
114,962	280,808	-0,221	-0,277
115,976	-14,236	-0,258	-0,116
116,991	239,283	-0,264	-0,308
118,006	-26,396	-0,310	-0,127
119,020	127,168	-0,196	-0,174
120,035	48,111	-0,231	-0,151
121,049	-28,941	-0,215	-0,086
122,064	195,351	-0,279	-0,297
123,079	73,213	-0,235	-0,171
124,093	-7,147	-0,354	-0,167
125,108	173,551	-0,244	-0,247
126,122	129,706	-0,224	-0,201
127,137	53,579	-0,149	-0,100
128,151	-13,318	-0,262	-0,118
129,166	-182,556	-0,059	-0,001
130,181	46,489	-0,299	-0,194
131,195	24,272	-0,346	-0,200
132,210	36,153	-0,184	-0,113
133,224	43,452	-0,246	-0,157
134,239	6,864	-0,138	-0,072
135,254	-39,929	-0,256	-0,093
136,268	271,075	-0,173	-0,213
137,283	20,127	-0,308	-0,173
138,297	359,939	-0,183	-0,256
139,312	98,743	-0,177	-0,143
140,327	238,727	-0,231	-0,269
141,341	-127,531	-0,204	0,020
142,356	-78,727	-0,238	-0,056
143,370	-87,171	-0,321	0,068
144,385	235,989	-0,197	-0,228
145,400	191,377	-0,229	-0,241
146,414	165,718	-0,268	-0,265
147,429	93,692	-0,286	-0,226
148,443	140,462	-0,158	-0,146
149,458	26,966	-0,246	-0,144
150,473	-10,854	-0,191	-0,088
151,487	144,930	-0,214	-0,200
152,502	-23,883	-0,384	-0,160
153,516	71,977	-0,297	-0,216
154,531	112,859	-0,315	-0,266
155,546	52,386	-0,205	-0,136
156,560	494,020	-0,131	-0,210
157,575	233,507	-0,137	-0,158
158,589	168,244	-0,187	-0,185
159,604	-69,974	-0,254	-0,067
160,619	314,828	-0,239	-0,315
161,633	427,306	-0,208	-0,315
162,648	164,071	-0,258	-0,253
163,662	-57,464	-0,120	0,037
164,677	-22,182	-0,252	-0,106
165,692	19,838	-0,279	-0,156
166,706	176,484	-0,199	-0,202
167,721	91,428	-0,160	-0,125
168,735	243,752	-0,147	-0,172
169,750	-100,625	-0,300	-0,051
170,764	68,605	-0,188	-0,134
171,779	32,716	-0,170	-0,102
172,794	94,805	-0,277	-0,220
173,808	85,469	-0,166	-0,127
174,823	183,983	-0,186	-0,192
175,837	129,700	-0,258	-0,230
176,852	412,473	-0,068	-0,101
177,867	300,599	-0,180	-0,231
178,881	800,000	-0,196	-0,454
179,896	-54,191	-0,185	-0,058
180,910	117,102	-0,152	-0,130
181,925	800,000	-0,067	-0,189
182,940	271,281	-0,179	-0,220
183,954	106,879	-0,173	-0,143
184,969	123,719	-0,168	-0,146
185,983	-200,000	-0,046	-0,148
186,998	131,456	-0,202	-0,180
188,013	-90,824	-0,222	-0,044
189,027	-57,817	-0,140	-0,042
190,042	-6,584	-0,232	-0,109
191,056	139,348	-0,244	-0,223
192,071	-35,940	-0,083	-0,031
193,086	99,760	-0,211	-0,170
194,100	97,724	-0,184	-0,147
195,115	166,365	-0,189	-0,186
196,129	242,079	-0,214	-0,249
197,144	688,577	-0,186	-0,340
198,159	339,556	-0,171	-0,233
199,173	209,729	-0,189	-0,206
200,188	-200,000	-0,037	-0,119
201,202	465,424	-0,126	-0,197
202,217	-85,176	-0,218	-0,047
203,232	51,984	-0,218	-0,144
204,246	83,344	-0,228	-0,173
205,261	-5,698	-0,219	-0,104
206,275	-69,935	-0,257	-0,068
207,290	1,891	-0,195	-0,097
208,304	404,225	-0,109	-0,160
209,319	192,191	-0,156	-0,163
210,334	-66,003	-0,344	-0,095
211,348	5,591	-0,247	-0,126
212,363	52,049	-0,225	-0,148
213,377	403,421	-0,042	-0,062
214,392	-130,445	-0,157	-0,015
215,407	133,370	-0,260	-0,233
216,421	-29,282	-0,170	-0,067
217,436	407,638	-0,170	-0,250
218,450	-64,836	-0,229	-0,064
219,465	434,342	-0,137	-0,207
220,480	95,386	-0,208	-0,165
221,494	305,994	-0,143	-0,186
222,509	-178,845	-0,051	0,001
223,523	206,597	-0,167	-0,181
224,538	-20,078	-0,285	-0,122
225,553	145,061	-0,243	-0,225
226,567	148,248	-0,184	-0,173
227,582	294,130	-0,167	-0,213
228,596	800,000	-0,084	-0,167
229,611	-38,769	-0,167	-0,061
230,626	201,263	-0,173	-0,184
231,640	-102,570	-0,104	-0,017
232,655	46,941	-0,156	-0,101
233,669	6,439	-0,252	-0,130
234,684	101,753	-0,177	-0,143
235,699	81,105	-0,165	-0,123
236,713	-24,199	-0,257	-0,106
237,728	-121,702	-0,147	0,017
238,742	402,778	-0,147	-0,214
239,757	-200,000	-0,010	-0,079
240,772	800,000	-0,126	-0,248
241,786	300,306	-0,174	-0,223
242,801	-2,849	-0,120	-0,058
243,815	29,663	-0,138	-0,081
244,830	-171,358	-0,109	-0,002
245,844	443,569	-0,099	-0,151
246,859	-129,976	-0,307	-0,029
247,874	35,168	-0,293	-0,178
248,888	-52,035	-0,194	-0,062
249,903	69,826	-0,136	-0,097
250,917	221,572	-0,141	-0,157
251,932	-85,889	-0,271	-0,058
252,947	173,710	-0,190	-0,190
253,961	-50,669	-0,323	-0,105
254,976	4,077	-0,215	-0,109
255,990	-54,338	-0,205	0,064
257,005	-24,541	-0,258	-0,106
258,020	18,611	-0,203	-0,112
259,034	-76,540	-0,146	0,035
260,049	-107,721	-0,101	0,015
261,063	37,032	-0,129	-0,079
262,078	342,901	-0,072	-0,098
263,093	-23,179	-0,247	-0,102
264,107	428,153	-0,177	-0,266
265,122	22,972	-0,227	-0,128
266,136	284,964	-0,137	-0,171
267,151	-95,050	-0,190	0,035
268,166	416,248	-0,101	-0,149
269,180	67,172	-0,162	-0,114
270,195	800,000	-0,147	-0,295
271,209	38,686	-0,214	-0,131
272,224	114,702	-0,119	-0,100
273,239	800,000	-0,057	-0,120
274,253	72,253	-0,187	-0,135
275,268	-39,798	-0,248	-0,089
276,282	35,953	-0,144	-0,087
277,297	735,835	-0,124	-0,230
278,312	80,254	-0,175	-0,130
279,326	-23,388	-0,142	0,059
280,341	155,221	-0,104	-0,099
281,355	211,690	-0,128	-0,140
282,370	304,370	-0,114	-0,146
283,384	327,975	-0,157	-0,209
284,399	206,610	-0,152	-0,163
285,414	800,000	-0,048	-0,123
286,428	152,954	-0,142	-0,134
287,443	526,144	-0,139	-0,227
288,457	-23,362	-0,195	-0,081
289,472	800,000	-0,083	-0,239
290,487	-89,922	-0,172	-0,034
291,501	89,766	-0,133	-0,102
292,516	-200,000	-0,018	-0,127
293,530	-121,371	-0,072	-0,008
294,545	-25,378	-0,190	-0,077
295,560	-75,321	-0,172	-0,042
296,574	66,539	-0,147	-0,103
297,589	259,750	-0,115	-0,137
298,603	470,664	-0,108	-0,168
299,618	-57,842	-0,260	-0,078
300,633	640,143	-0,094	-0,166
301,647	12,060	-0,154	-0,082
302,662	43,635	-0,096	-0,060
303,676	9,206	-0,152	0,079
304,691	-116,071	-0,207	0,026
305,706	561,651	-0,122	-0,204
306,720	338,977	-0,146	-0,196
307,735	-120,020	-0,153	-0,018
308,749	327,775	-0,083	-0,110
309,764	93,593	-0,178	-0,139
310,779	-179,787	-0,223	-0,003
311,793	-200,000	-0,016	-0,228
312,808	268,425	-0,073	-0,089
313,822	187,412	-0,109	-0,112
314,837	800,000	-0,068	-0,138
315,852	18,762	-0,141	-0,077
316,866	264,987	-0,087	-0,104
317,881	628,803	-0,077	-0,135
318,895	-92,660	-0,244	-0,047
319,910	529,329	-0,065	-0,105
320,925	325,455	-0,159	-0,210
321,939	-84,781	-0,098	-0,021
322,954	-127,445	-0,190	-0,019
323,968	-41,098	-0,124	0,044
324,983	534,434	-0,104	-0,170
325,997	396,319	-0,173	-0,249
327,012	228,372	-0,101	-0,114
328,027	92,260	-0,159	-0,123
329,041	307,174	-0,057	-0,073
330,056	52,629	-0,124	-0,081
331,070	190,911	-0,072	-0,074
332,085	-124,267	-0,147	-0,016
333,100	140,084	-0,120	-0,108
334,114	106,944	-0,133	-0,109
335,129	198,087	-0,092	-0,097
336,143	34,786	-0,054	0,032
337,158	462,037	-0,079	-0,121
338,173	359,605	-0,036	0,050
339,187	-18,254	-0,092	0,039
340,202	42,649	-0,074	-0,046
341,216	-6,235	-0,198	-0,092
342,231	360,550	-0,091	-0,125
343,246	-200,000	-0,107	-0,347
344,260	328,215	-0,150	-0,198
345,275	0,819	-0,038	-0,018
346,289	-99,394	-0,156	0,027
347,304	-200,000	0,007	-0,088
348,319	-44,207	-0,199	-0,068
349,333	32,936	-0,129	-0,077
350,348	93,675	-0,228	-0,177
351,362	-116,901	-0,173	0,021
352,377	325,655	0,023	-0,030
353,392	117,188	-0,039	-0,033
354,406	428,712	-0,140	-0,209
355,421	209,606	1312,784	1413,168
356,435	161,326	1473,281	1413,661
