DTS Sentinel unit serial number:	SN410029Multiplexer serial number:	ORYXHardware model number:	OX2-SRSoftware version number:	ORYX F/W v4,00 Oryx Data Collector v3.7.2.0data status	okinstallation	B3 Nyhavnadifferential loss correction	single-endedforward channel	channel 1reverse channel	N/Adate	2023/12/01time	07:22:30forward acquisition time	300,00reverse acquisition time	0,00gamma	499,1914k internal	0,3213k external	0,3213temperature offset calibration	1,0000default loss term (dB/km)	0,3820temperature slope calibration	1,0000multiplexer offset coefficient	1,0000multiplexer slope coefficient	1,0000fibre end	0,00T internal ref (°C)	8,06T ext. ref 1 (°C)	-6,20T ext. ref 2 (°C)	-6,38length (m)	temperature (°C)	Stokes	anti-Stokes-744,400	800,000	-0,129	-0,272
-743,385	800,000	0,063	0,193
-742,371	800,000	-0,052	-0,125
-741,356	-200,000	-0,036	0,245
-740,342	189,691	-0,200	-0,217
-739,327	800,000	-0,080	0,187
-738,312	92,482	-0,124	-0,101
-737,298	188,626	-0,216	0,235
-736,283	513,702	-0,139	-0,235
-735,269	-200,000	-0,008	0,297
-734,254	307,541	-0,143	-0,194
-733,239	24,805	-0,243	0,146
-732,225	800,000	-0,060	-0,184
-731,210	-1,328	0,138	0,070
-730,196	-12,901	-0,122	-0,057
-729,181	-200,000	0,016	0,077
-728,167	-15,817	0,042	-0,019
-727,152	90,814	0,076	0,062
-726,137	161,262	0,070	-0,071
-725,123	-65,164	-0,176	-0,051
-724,108	81,964	-0,067	0,053
-723,094	-200,000	-0,017	-0,170
-722,079	-200,000	0,015	-0,083
-721,064	800,000	-0,059	0,135
-720,050	34,537	0,078	0,049
-719,035	-200,000	-0,027	0,116
-718,021	120,719	-0,065	-0,059
-717,006	-57,681	-0,118	0,037
-715,991	800,000	-0,105	-0,213
-714,977	-116,649	0,065	-0,009
-713,962	-162,389	-0,055	0,002
-712,948	473,479	0,072	-0,118
-711,933	166,633	0,026	-0,027
-710,918	-200,000	0,043	-0,264
-709,904	131,476	-0,161	-0,149
-708,889	-136,635	0,015	-0,001
-707,875	211,489	0,083	-0,095
-706,860	-83,467	-0,086	-0,020
-705,845	-122,760	0,212	0,025
-704,831	800,000	-0,027	-0,077
-703,816	-200,000	-0,014	0,057
-702,802	109,364	-0,042	0,036
-701,787	339,077	0,044	0,062
-700,772	376,016	0,083	-0,122
-699,758	235,102	-0,014	-0,017
-698,743	689,314	0,018	-0,035
-697,729	-50,143	0,011	0,004
-696,714	217,879	-0,048	-0,056
-695,699	-200,000	-0,020	-0,098
-694,685	800,000	-0,086	-0,221
-693,670	115,081	-0,043	-0,038
-692,656	-200,000	-0,041	-0,133
-691,641	-48,204	-0,040	0,014
-690,627	-200,000	0,002	-0,070
-689,612	800,000	-0,018	-0,046
-688,597	800,000	-0,030	-0,075
-687,583	159,440	-0,216	-0,218
-686,568	800,000	0,016	-0,033
-685,554	-200,000	-0,006	0,086
-684,539	-63,966	-0,049	-0,014
-683,524	800,000	-0,042	0,130
-682,510	305,476	0,033	0,045
-681,495	469,727	0,096	-0,157
-680,481	800,000	0,064	0,163
-679,466	-169,571	-0,134	0,003
-678,451	298,467	0,025	-0,034
-677,437	800,000	0,028	-0,076
-676,422	-8,753	0,092	-0,044
-675,408	-67,139	-0,062	-0,017
-674,393	50,077	-0,031	-0,021
-673,378	7,973	-0,086	0,047
-672,364	295,623	-0,007	0,010
-671,349	-60,962	0,010	-0,003
-670,335	-30,663	0,041	0,017
-669,320	-149,791	0,023	-0,001
-668,305	-154,141	0,188	-0,009
-667,291	87,544	0,050	-0,040
-666,276	-200,000	-0,003	0,038
-665,262	5,680	-0,101	-0,054
-664,247	-125,520	0,020	-0,002
-663,232	-200,000	0,022	-0,104
-662,218	-158,876	0,156	0,006
-661,203	-42,139	-0,069	-0,025
-660,189	225,877	0,042	-0,049
-659,174	216,252	-0,057	-0,065
-658,159	-75,223	-0,111	-0,028
-657,145	-105,085	0,052	-0,009
-656,130	70,403	-0,105	-0,079
-655,116	-96,254	-0,054	0,010
-654,101	-200,000	0,005	0,056
-653,086	530,644	0,008	-0,014
-652,072	-42,741	-0,156	0,057
-651,057	-128,098	-0,111	-0,011
-650,043	-200,000	0,000	0,079
-649,028	12,331	0,093	-0,052
-648,014	800,000	-0,030	0,088
-646,999	-43,888	0,146	0,053
-645,984	-200,000	-0,012	-0,053
-644,970	-120,248	0,062	-0,008
-643,955	61,155	-0,124	-0,089
-642,941	-41,314	-0,154	-0,057
-641,926	0,073	0,107	-0,055
-640,911	99,008	0,020	-0,016
-639,897	26,623	-0,034	0,020
-638,882	-14,021	0,090	0,042
-637,868	-200,000	0,003	-0,037
-636,853	800,000	-0,059	-0,177
-635,838	67,479	-0,090	0,066
-634,824	-70,631	-0,110	0,030
-633,809	-200,000	0,007	-0,072
-632,795	-200,000	-0,012	-0,051
-631,780	22,847	0,076	0,045
-630,765	2,857	0,099	0,052
-629,751	-130,048	0,018	0,002
-628,736	-37,503	-0,041	0,016
-627,722	-200,000	0,006	-0,096
-626,707	305,010	-0,027	-0,036
-625,692	-150,073	0,083	-0,005
-624,678	202,164	0,037	0,042
-623,663	190,655	-0,035	0,038
-622,649	-41,362	0,049	-0,018
-621,634	-200,000	0,007	-0,084
-620,619	800,000	0,052	-0,115
-619,605	79,207	0,048	0,037
-618,590	-65,595	0,127	0,037
-617,576	-200,000	0,013	0,087
-616,561	53,174	-0,045	0,031
-615,546	207,757	-0,178	-0,201
-614,532	-101,302	-0,125	0,022
-613,517	297,848	0,024	-0,031
-612,503	-87,608	-0,076	0,016
-611,488	-38,369	0,054	-0,021
-610,474	179,413	0,089	-0,095
-609,459	143,807	-0,106	-0,102
-608,444	98,687	-0,033	0,027
-607,430	124,721	-0,054	0,049
-606,415	-66,614	-0,142	0,040
-605,401	-84,034	0,119	0,027
-604,386	-200,000	0,018	-0,106
-603,371	-51,207	0,201	-0,067
-602,357	-105,858	0,111	-0,018
-601,342	-200,000	-0,010	0,036
-600,328	24,713	-0,219	-0,130
-599,313	800,000	-0,040	-0,090
-598,298	800,000	0,027	0,061
-597,284	113,106	0,083	0,073
-596,269	639,356	0,104	0,191
-595,255	-200,000	0,005	0,106
-594,240	-117,258	-0,065	-0,008
-593,225	235,360	-0,049	-0,059
-592,211	800,000	-0,050	0,152
-591,196	418,579	0,040	0,061
-590,182	-21,427	0,133	0,058
-589,167	-62,095	0,147	0,044
-588,152	-200,000	-0,026	0,085
-587,138	-200,000	0,009	0,060
-586,123	-200,000	0,022	0,077
-585,109	800,000	0,058	0,124
-584,094	105,087	-0,106	0,090
-583,079	-200,000	0,014	0,058
-582,065	-200,000	0,039	0,130
-581,050	177,365	0,051	-0,054
-580,036	800,000	0,012	0,026
-579,021	800,000	-0,089	0,179
-578,006	-200,000	0,035	-0,111
-576,992	506,463	0,054	-0,091
-575,977	149,535	-0,073	0,072
-574,963	447,304	-0,081	0,129
-573,948	125,155	0,101	0,092
-572,934	-200,000	-0,008	-0,041
-571,919	-200,000	-0,023	-0,132
-570,904	800,000	-0,069	-0,208
-569,890	-200,000	-0,034	-0,113
-568,875	49,736	0,220	-0,149
-567,861	800,000	0,036	0,107
-566,846	-12,162	-0,083	0,039
-565,831	800,000	0,040	-0,082
-564,817	313,286	-0,097	-0,131
-563,802	48,743	-0,103	-0,069
-562,788	-173,189	-0,062	0,001
-561,773	22,887	0,096	0,057
-560,758	-112,944	0,096	0,014
-559,744	800,000	-0,057	-0,136
-558,729	-200,000	-0,033	0,139
-557,715	-63,168	-0,074	0,022
-556,700	800,000	0,067	-0,147
-555,685	445,837	0,069	-0,110
-554,671	286,884	-0,055	-0,072
-553,656	527,188	0,026	0,044
-552,642	800,000	-0,012	0,037
-551,627	72,738	-0,049	-0,036
-550,612	252,705	-0,076	-0,094
-549,598	27,640	0,033	0,020
-548,583	-4,350	0,023	-0,011
-547,569	-66,048	0,035	-0,010
-546,554	-64,368	0,105	-0,030
-545,539	-200,000	0,003	0,088
-544,525	-53,206	-0,089	-0,029
-543,510	78,023	0,112	0,086
-542,496	296,346	0,034	0,045
-541,481	208,017	-0,103	0,115
-540,466	692,342	0,048	-0,091
-539,452	-200,000	-0,034	-0,133
-538,437	123,193	-0,087	-0,079
-537,423	-200,000	-0,017	0,279
-536,408	-200,000	-0,005	0,077
-535,393	-26,593	-0,090	-0,038
-534,379	-191,757	-0,053	0,000
-533,364	-200,000	0,007	-0,119
-532,350	-30,256	-0,036	-0,014
-531,335	268,709	0,136	-0,172
-530,321	505,777	0,033	0,056
-529,306	-200,000	0,022	-0,074
-528,291	-200,000	0,033	-0,136
-527,277	13,558	-0,138	-0,077
-526,262	-200,000	0,005	-0,024
-525,248	-67,978	0,026	-0,007
-524,233	-31,436	0,119	-0,048
-523,218	98,714	-0,041	-0,034
-522,204	414,376	-0,039	0,060
-521,189	70,651	-0,148	-0,110
-520,175	-200,000	-0,010	0,114
-519,160	95,748	-0,010	-0,009
-518,145	-75,034	0,059	-0,015
-517,131	188,323	0,066	-0,071
-516,116	800,000	-0,031	0,067
-515,102	-76,244	-0,153	0,038
-514,087	-200,000	0,017	-0,079
-513,072	-104,903	-0,133	-0,022
-512,058	80,616	-0,031	0,024
-511,043	-200,000	-0,003	0,065
-510,029	47,556	0,076	0,051
-509,014	241,214	0,090	0,108
-507,999	-10,995	0,074	0,035
-506,985	16,172	0,080	0,045
-505,970	-200,000	0,053	-0,214
-504,956	120,316	-0,073	0,065
-503,941	-80,783	-0,115	-0,027
-502,926	800,000	-0,040	0,107
-501,912	-200,000	0,001	0,021
-500,897	0,328	0,164	-0,084
-499,883	271,936	-0,109	0,138
-498,868	-37,636	-0,017	0,006
-497,853	160,134	0,138	-0,138
-496,839	98,872	-0,083	-0,069
-495,824	144,946	0,059	0,057
-494,810	-83,597	-0,071	-0,016
-493,795	-200,000	0,003	0,057
-492,781	800,000	-0,037	0,094
-491,766	-200,000	0,024	-0,168
-490,751	57,298	-0,035	0,025
-489,737	63,192	-0,058	0,041
-488,722	-200,000	-0,006	-0,049
-487,708	339,281	-0,070	-0,098
-486,693	168,563	-0,101	-0,104
-485,678	-127,314	-0,055	0,006
-484,664	-67,878	-0,049	0,014
-483,649	800,000	-0,009	-0,025
-482,635	525,875	0,039	0,066
-481,620	107,470	-0,049	0,042
-480,605	-27,327	0,062	0,026
-479,591	800,000	-0,051	0,144
-478,576	-200,000	-0,006	0,065
-477,562	-4,964	-0,073	-0,036
-476,547	800,000	-0,020	-0,057
-475,532	144,311	0,114	0,109
-474,518	462,094	-0,050	0,080
-473,503	-16,331	0,107	-0,049
-472,489	-200,000	-0,005	0,101
-471,474	782,073	0,046	0,091
-470,459	279,569	0,065	-0,083
-469,445	800,000	0,055	-0,114
-468,430	-118,064	-0,102	-0,013
-467,416	800,000	-0,047	-0,110
-466,401	71,517	0,060	-0,045
-465,386	644,829	0,027	0,050
-464,372	441,851	-0,027	-0,043
-463,357	-200,000	0,019	0,098
-462,343	353,955	-0,074	0,106
-461,328	-122,378	-0,056	0,007
-460,313	133,225	-0,130	0,120
-459,299	-150,737	-0,204	0,011
-458,284	-119,811	-0,131	0,016
-457,270	-101,006	0,019	0,003
-456,255	102,359	0,032	-0,027
-455,241	-134,667	-0,058	0,005
-454,226	-131,223	-0,070	-0,007
-453,211	-6,835	0,097	0,047
-452,197	256,288	0,033	0,040
-451,182	-126,989	-0,073	0,008
-450,168	-200,000	0,025	0,081
-449,153	-200,000	0,007	-0,120
-448,138	-150,117	-0,154	-0,008
-447,124	800,000	-0,028	0,078
-446,109	-200,000	0,016	-0,062
-445,095	-142,412	-0,050	0,003
-444,080	-83,755	0,185	-0,042
-443,065	152,079	-0,084	0,082
-442,051	228,907	0,052	0,061
-441,036	-85,881	-0,103	-0,023
-440,022	53,744	0,101	0,069
-439,007	-24,802	0,043	0,018
-437,992	100,092	0,073	-0,061
-436,978	749,912	0,103	0,201
-435,963	118,520	-0,047	-0,041
-434,949	351,875	-0,070	-0,100
-433,934	-60,327	-0,196	-0,059
-432,919	49,096	0,050	-0,034
-431,905	41,242	-0,034	-0,022
-430,890	-114,166	-0,106	-0,014
-429,876	130,645	-0,108	-0,100
-428,861	800,000	-0,033	-0,091
-427,846	-145,062	-0,141	0,009
-426,832	-187,672	-0,133	0,001
-425,817	-76,951	-0,175	-0,044
-424,803	85,642	0,088	-0,069
-423,788	-90,664	-0,080	0,016
-422,773	-5,446	0,064	0,031
-421,759	-200,000	0,020	0,202
-420,744	-200,000	-0,002	-0,159
-419,730	213,499	0,071	0,081
-418,715	-200,000	0,011	0,042
-417,701	42,615	-0,026	0,017
-416,686	-200,000	0,002	0,113
-415,671	66,966	0,018	0,013
-414,657	-200,000	-0,021	0,072
-413,642	800,000	0,020	0,040
-412,628	294,574	-0,015	0,020
-411,613	1,375	-0,102	-0,052
-410,598	11,362	-0,180	0,098
-409,584	-170,324	0,093	-0,002
-408,569	234,887	-0,079	0,093
-407,555	751,636	0,023	-0,045
-406,540	-77,197	0,130	0,032
-405,525	66,232	-0,065	-0,047
-404,511	50,101	-0,050	-0,034
-403,496	-58,430	0,055	-0,017
-402,482	800,000	-0,044	0,115
-401,467	417,766	0,065	0,100
-400,452	-200,000	-0,004	-0,020
-399,438	-7,015	0,031	-0,015
-398,423	77,439	0,103	0,078
-397,409	29,356	-0,050	-0,030
-396,394	-150,484	-0,123	0,007
-395,379	-40,503	0,028	-0,010
-394,365	97,251	0,048	0,039
-393,350	-200,000	0,046	0,182
-392,336	-62,551	0,135	-0,040
-391,321	800,000	-0,017	0,045
-390,306	800,000	-0,002	-0,005
-389,292	800,000	-0,039	-0,111
-388,277	107,035	-0,047	-0,040
-387,263	800,000	0,045	0,089
-386,248	60,481	-0,068	0,048
-385,233	472,756	-0,050	0,080
-384,219	-26,712	-0,134	0,056
-383,204	661,130	0,066	-0,123
-382,190	800,000	0,033	-0,101
-381,175	-96,540	-0,079	-0,015
-380,160	15,454	0,078	0,044
-379,146	194,805	0,127	0,138
-378,131	75,888	0,048	-0,036
-377,117	328,681	0,041	0,057
-376,102	-200,000	-0,023	-0,117
-375,088	800,000	-0,037	0,094
-374,073	800,000	0,017	-0,041
-373,058	370,122	-0,032	-0,047
-372,044	118,982	0,128	0,113
-371,029	9,326	0,128	0,069
-370,015	800,000	-0,058	0,178
-369,000	126,714	0,014	-0,013
-367,985	571,584	0,028	-0,049
-366,971	-200,000	0,009	-0,159
-365,956	30,846	-0,060	-0,037
-364,942	83,461	0,085	0,066
-363,927	-200,000	0,026	0,114
-362,912	-200,000	-0,039	-0,163
-361,898	69,421	0,076	-0,056
-360,883	166,900	-0,044	-0,045
-359,869	163,773	0,025	0,025
-358,854	-200,000	0,003	0,135
-357,839	-200,000	0,016	0,137
-356,825	-200,000	0,013	0,112
-355,810	-39,179	0,069	0,026
-354,796	-200,000	0,036	-0,145
-353,781	526,805	-0,088	-0,149
-352,766	443,846	-0,032	0,050
-351,752	702,813	0,041	-0,077
-350,737	58,037	0,143	0,100
-349,723	319,914	0,094	0,128
-348,708	-200,000	0,015	0,064
-347,693	-58,343	-0,089	0,027
-346,679	-200,000	-0,012	-0,131
-345,664	60,980	-0,089	-0,063
-344,650	-97,352	0,164	0,030
-343,635	-193,441	0,119	-0,001
-342,620	180,563	-0,059	0,062
-341,606	22,855	0,157	0,092
-340,591	-200,000	0,019	0,077
-339,577	293,388	0,021	0,027
-338,562	-200,000	0,022	0,000
-337,548	-200,000	0,056	0,000
-336,533	-17,715	-0,101	-0,045
-335,518	-200,000	-0,010	0,110
-334,504	-101,653	-0,023	-0,004
-333,489	717,895	0,035	-0,067
-332,475	-200,000	0,022	-0,101
-331,460	800,000	-0,009	0,026
-330,445	9,455	-0,038	-0,020
-329,431	-200,000	0,007	0,115
-328,416	-200,000	0,023	0,096
-327,402	-27,559	-0,058	0,024
-326,387	-200,000	0,009	0,056
-325,372	-200,000	-0,007	-0,129
-324,358	-95,045	-0,118	0,022
-323,343	208,403	0,076	-0,085
-322,329	346,041	0,049	0,069
-321,314	-200,000	-0,015	0,086
-320,299	-200,000	-0,008	0,108
-319,285	-66,853	0,089	-0,025
-318,270	85,243	0,137	-0,107
-317,256	220,810	0,080	-0,092
-316,241	1,156	-0,047	-0,024
-315,226	102,506	0,101	-0,084
-314,212	-200,000	0,016	0,060
-313,197	105,500	0,082	0,069
-312,183	800,000	0,039	-0,104
-311,168	656,489	0,037	0,068
-310,153	800,000	0,031	-0,094
-309,139	-115,198	-0,084	0,011
-308,124	109,276	-0,093	-0,080
-307,110	-89,508	-0,117	0,024
-306,095	-78,311	0,074	-0,018
-305,080	96,001	-0,076	0,062
-304,066	636,219	-0,034	0,061
-303,051	313,573	0,024	-0,032
-302,037	524,948	0,038	-0,065
-301,022	800,000	-0,077	-0,156
-300,008	800,000	-0,060	-0,140
-298,993	11,633	-0,107	0,058
-297,978	-50,729	0,118	-0,039
-296,964	-122,950	0,012	0,001
-295,949	340,452	0,051	-0,071
-294,935	-125,576	-0,035	0,004
-293,920	635,567	0,030	-0,055
-292,905	-28,670	-0,091	-0,037
-291,891	-106,036	-0,029	0,005
-290,876	800,000	-0,020	0,045
-289,862	-0,281	-0,081	-0,041
-288,847	-130,335	-0,131	-0,012
-287,832	184,097	0,058	-0,061
-286,818	-98,842	0,051	0,009
-285,803	65,277	0,110	0,079
-284,789	-92,036	0,078	0,016
-283,774	-58,456	0,036	-0,011
-282,759	118,051	0,041	-0,036
-281,745	800,000	0,019	0,048
-280,730	-64,949	-0,181	0,052
-279,716	800,000	0,019	-0,050
-278,701	20,594	-0,038	-0,022
-277,686	-200,000	0,013	-0,060
-276,672	121,335	-0,098	0,087
-275,657	-107,470	0,015	-0,002
-274,643	583,484	0,040	-0,070
-273,628	182,404	-0,166	-0,174
-272,613	-135,078	0,101	0,009
-271,599	800,000	0,028	0,071
-270,584	-200,000	-0,017	0,092
-269,570	-171,377	0,060	0,001
-268,555	343,688	-0,054	-0,075
-267,540	-200,000	-0,004	0,082
-266,526	-93,492	-0,093	0,018
-265,511	-49,241	0,030	-0,010
-264,497	30,821	-0,090	0,055
-263,482	-127,340	0,123	0,013
-262,467	85,098	-0,086	0,067
-261,453	71,518	-0,054	0,040
-260,438	800,000	-0,006	-0,015
-259,424	-170,000	-0,139	-0,003
-258,409	-44,519	0,083	-0,029
-257,395	-8,306	0,137	-0,065
-256,380	8,240	0,055	-0,029
-255,365	-200,000	0,038	0,175
-254,351	-109,025	0,176	0,026
-253,336	-58,199	-0,071	0,022
-252,322	-200,000	-0,002	-0,155
-251,307	-122,370	0,089	-0,010
-250,292	-76,816	-0,106	-0,026
-249,278	800,000	0,030	-0,083
-248,263	340,350	-0,059	0,082
-247,249	0,080	0,093	0,047
-246,234	603,321	0,068	0,121
-245,219	-29,505	-0,171	0,069
-244,205	800,000	0,005	0,013
-243,190	-200,000	0,007	-0,123
-242,176	3,145	0,142	0,073
-241,161	-200,000	-0,025	0,100
-240,146	-200,000	-0,017	-0,198
-239,132	-200,000	0,003	-0,118
-238,117	-74,105	-0,028	0,007
-237,103	460,448	-0,071	-0,112
-236,088	134,214	0,065	0,060
-235,073	-200,000	0,000	-0,021
-234,059	-65,766	0,142	-0,040
-233,044	-200,000	-0,001	0,159
-232,030	-200,000	0,010	0,098
-231,015	-16,123	-0,042	0,019
-230,000	-25,124	0,069	-0,029
-228,986	9,264	0,138	-0,074
-227,971	-70,313	0,157	-0,042
-226,957	340,321	-0,049	0,068
-225,942	-200,000	0,014	0,051
-224,927	-200,000	-0,004	-0,058
-223,913	169,922	-0,064	0,065
-222,898	241,930	-0,025	-0,030
-221,884	201,351	0,077	0,084
-220,869	-200,000	0,013	-0,100
-219,855	-10,884	-0,032	-0,015
-218,840	755,259	0,125	0,241
-217,825	-200,000	-0,004	-0,183
-216,811	131,422	-0,150	-0,137
-215,796	-133,345	-0,050	-0,004
-214,782	320,124	0,056	-0,075
-213,767	155,525	0,134	-0,132
-212,752	800,000	0,024	0,066
-211,738	800,000	0,038	0,094
-210,723	22,308	0,052	0,030
-209,709	480,381	-0,024	-0,039
-208,694	374,140	-0,023	-0,033
-207,679	623,556	-0,071	0,128
-206,665	92,745	0,130	0,104
-205,650	800,000	0,021	0,067
-204,636	-98,142	0,048	-0,009
-203,621	99,013	-0,065	-0,053
-202,606	-200,000	-0,007	-0,111
-201,592	218,433	-0,094	-0,106
-200,577	-126,040	0,096	-0,010
-199,563	63,072	0,030	-0,021
-198,548	-102,330	-0,039	-0,006
-197,533	107,988	0,078	-0,066
-196,519	-140,242	0,097	0,007
-195,504	800,000	-0,114	-0,231
-194,490	-157,736	-0,099	0,004
-193,475	-178,741	-0,018	-0,000
-192,460	658,314	-0,110	-0,201
-191,446	-5,594	0,063	-0,030
-190,431	5,197	0,066	-0,034
-189,417	-200,000	0,015	-0,083
-188,402	412,145	-0,046	0,070
-187,387	-80,339	-0,046	-0,011
-186,373	-191,432	-0,045	0,000
-185,358	-71,900	-0,087	0,023
-184,344	-83,434	0,071	0,016
-183,329	-200,000	0,016	0,171
-182,315	800,000	-0,013	0,036
-181,300	144,363	-0,116	-0,110
-180,285	-66,868	0,095	0,026
-179,271	207,015	-0,061	0,068
-178,256	800,000	-0,021	0,048
-177,242	-200,000	-0,009	0,121
-176,227	-200,000	0,009	0,079
-175,212	-96,858	-0,075	0,014
-174,198	-200,000	-0,002	-0,021
-173,183	800,000	0,064	-0,169
-172,169	62,626	-0,096	-0,068
-171,154	190,114	-0,096	-0,102
-170,139	6,071	0,156	-0,082
-169,125	800,000	0,054	0,137
-168,110	-60,283	0,141	-0,042
-167,096	696,816	0,027	0,051
-166,081	800,000	-0,000	0,001
-165,066	-64,485	0,092	-0,026
-164,052	150,174	-0,106	0,102
-163,037	389,946	0,056	0,082
-162,023	403,747	0,035	0,052
-161,008	-200,000	0,036	0,118
-159,993	551,312	0,061	-0,104
-158,979	800,000	0,032	-0,082
-157,964	351,269	-0,087	-0,122
-156,950	800,000	-0,047	-0,123
-155,935	-70,718	-0,051	0,013
-154,920	412,573	-0,040	0,060
-153,906	19,755	0,059	0,034
-152,891	225,464	-0,046	0,053
-151,877	-39,462	0,042	-0,015
-150,862	-200,000	0,025	-0,118
-149,847	479,356	-0,078	-0,125
-148,833	518,188	0,051	-0,084
-147,818	-200,000	0,019	0,085
-146,804	800,000	-0,066	0,146
-145,789	289,649	0,107	0,137
-144,775	-200,000	0,018	0,082
-143,760	199,426	-0,148	0,160
-142,745	8,853	-0,017	0,009
-141,731	-97,756	-0,085	-0,015
-140,716	208,484	-0,102	0,113
-139,702	52,458	0,096	0,065
-138,687	-200,000	0,022	0,107
-137,672	35,418	-0,043	-0,026
-136,658	-139,649	-0,114	-0,008
-135,643	-84,703	-0,034	0,008
-134,629	-200,000	0,026	-0,114
-133,614	800,000	0,016	0,040
-132,599	-73,123	0,051	0,013
-131,585	-84,352	0,144	0,032
-130,570	-20,059	-0,080	-0,035
-129,556	-200,000	0,003	0,062
-128,541	75,559	-0,080	-0,059
-127,526	800,000	0,049	-0,120
-126,512	36,174	0,093	0,058
-125,497	-200,000	0,015	0,128
-124,483	-23,210	-0,036	-0,015
-123,468	131,016	0,130	0,118
-122,453	41,223	-0,153	0,098
-121,439	-200,000	-0,006	-0,161
-120,424	800,000	-0,024	-0,054
-119,410	800,000	0,040	0,094
-118,395	175,446	0,048	-0,049
-117,380	207,351	-0,105	0,116
-116,366	240,053	0,021	-0,025
-115,351	207,649	0,063	0,070
-114,337	144,134	-0,049	0,046
-113,322	-36,849	0,088	-0,033
-112,307	-46,346	-0,071	-0,025
-111,293	-101,133	0,050	0,009
-110,278	126,077	0,106	0,094
-109,264	-65,258	-0,118	0,033
-108,249	192,520	-0,020	-0,022
-107,234	33,596	-0,168	0,103
-106,220	-200,000	-0,007	0,042
-105,205	-200,000	-0,009	0,070
-104,191	36,212	0,101	0,063
-103,176	381,988	0,038	-0,055
-102,162	106,146	-0,040	-0,033
-101,147	800,000	-0,017	-0,037
-100,132	236,181	-0,030	-0,035
-99,118	-200,000	-0,002	-0,021
-98,103	-129,077	0,073	0,007
-97,089	-128,460	0,042	-0,004
-96,074	-200,000	0,059	0,193
-95,059	74,061	-0,054	0,040
-94,045	-152,862	0,048	-0,002
-93,030	-200,000	0,015	0,136
-92,016	129,938	0,098	0,088
-91,001	-65,116	-0,072	-0,020
-89,986	548,135	0,037	0,063
-88,972	-200,000	0,003	0,016
-87,957	280,138	0,087	-0,110
-86,943	767,461	0,034	0,066
-85,928	190,521	-0,020	0,021
-84,913	504,812	0,047	-0,078
-83,899	-30,031	-0,021	0,008
-82,884	-200,000	-0,003	0,010
-81,870	-157,985	-0,031	-0,001
-80,855	-62,686	0,055	-0,016
-79,840	194,066	0,042	-0,045
-78,826	195,106	0,040	0,043
-77,811	-200,000	0,011	-0,051
-76,797	247,028	0,085	0,102
-75,782	-142,359	0,184	-0,013
-74,767	-200,000	-0,022	-0,085
-73,753	800,000	0,030	-0,064
-72,738	-99,278	-0,119	-0,021
-71,724	-200,000	0,023	-0,081
-70,709	288,541	-0,045	-0,057
-69,694	800,000	-0,035	0,075
-68,680	-91,541	0,112	0,022
-67,665	369,860	-0,030	-0,043
-66,651	800,000	0,028	-0,058
-65,636	486,638	0,056	-0,091
-64,622	-75,830	-0,102	0,025
-63,607	53,458	0,087	-0,059
-62,592	85,119	-0,051	0,040
-61,578	175,551	0,070	-0,072
-60,563	22,078	0,057	-0,033
-59,549	-76,566	0,159	0,039
-58,534	74,287	-2,102	-1,556
-57,519	510,735	-1,055	-1,739
-56,505	-200,000	-0,475	-4,608
-55,490	657,095	0,982	1,788
-54,476	800,000	5,230	11,585
-53,461	-200,000	22,445	348,702
-52,446	800,000	758,597	2299,663
-51,432	534,342	1645,642	2761,454
-50,417	68,104	1644,340	1185,674
-49,403	15,706	1521,359	841,292
-48,388	9,940	1447,200	772,572
-47,373	19,378	1439,753	813,562
-46,359	13,405	1428,531	778,983
-45,344	8,256	1424,278	752,268
-44,330	8,179	1422,364	750,860
-43,315	8,146	1420,626	749,759
-42,300	8,141	1418,849	748,764
-41,286	8,143	1417,711	748,146
-40,271	8,164	1416,298	747,468
-39,257	8,130	1415,346	746,778
-38,242	8,114	1414,093	746,011
-37,227	8,143	1413,054	745,570
-36,213	8,160	1411,652	744,878
-35,198	8,174	1410,261	744,181
-34,184	8,189	1409,547	743,848
-33,169	8,126	1408,238	742,831
-32,154	8,120	1407,219	742,234
-31,140	8,119	1406,055	741,586
-30,125	8,187	1404,717	741,170
-29,111	8,164	1403,591	740,440
-28,096	8,177	1402,371	739,829
-27,082	8,110	1401,256	738,897
-26,067	8,048	1400,442	738,147
-25,052	8,099	1399,230	737,717
-24,038	8,108	1398,079	737,124
-23,023	8,089	1397,254	736,570
-22,009	8,059	1396,425	735,968
-20,994	8,053	1395,365	735,351
-19,979	8,068	1394,086	734,717
-18,965	8,055	1393,391	734,259
-17,950	8,019	1392,285	733,482
-16,936	8,021	1391,503	733,049
-15,921	7,992	1390,526	732,372
-14,906	7,968	1389,750	731,825
-13,892	8,046	1388,621	731,558
-12,877	8,017	1387,989	731,066
-11,863	7,975	1387,199	730,424
-10,848	8,022	1386,182	730,078
-9,833	7,942	1385,153	729,141
-8,819	7,913	1384,390	728,576
-7,804	7,914	1383,434	728,047
-6,790	7,894	1382,526	727,450
-5,775	7,933	1381,489	727,051
-4,760	7,907	1380,381	726,321
-3,746	7,956	1379,222	725,909
-2,731	7,944	1378,678	725,537
-1,717	7,949	1377,760	725,050
-0,702	7,907	1376,135	723,972
0,313	11,932	1286,208	694,893
1,327	27,635	677,760	401,186
2,342	43,109	116,634	74,873
3,356	1,637	16,568	8,380
4,371	-3,341	3,771	1,845
5,386	13,669	1,381	0,754
6,400	-200,000	0,192	0,733
7,415	363,182	-0,180	-0,255
8,429	202,069	-0,214	-0,233
9,444	153,903	-0,292	-0,282
10,459	9,736	-0,323	-0,172
11,473	259,647	-0,239	-0,291
12,488	200,029	-0,228	-0,247
13,502	139,002	-0,221	-0,204
14,517	90,828	-0,281	-0,221
15,531	9,518	-0,349	-0,186
16,546	13,512	-0,307	-0,167
17,561	16,846	-0,393	-0,219
18,575	-134,523	-0,224	0,019
19,590	92,526	-0,284	-0,225
20,604	44,455	-0,221	-0,142
21,619	156,363	-0,355	-0,344
22,634	140,991	-0,490	-0,456
23,648	135,713	-0,338	-0,310
24,663	379,474	-0,269	-0,388
25,677	21,053	-0,370	-0,211
26,692	11,585	-0,238	-0,128
27,707	79,296	-0,266	-0,200
28,721	172,213	-0,364	-0,369
29,736	82,216	-0,396	-0,302
30,750	79,648	-0,389	-0,293
31,765	126,428	-0,379	-0,337
32,780	3,256	-0,374	-0,191
33,794	-3,921	-0,395	-0,192
34,809	18,268	-0,399	-0,223
35,823	66,014	-0,474	-0,338
36,838	169,287	-0,389	-0,391
37,853	24,869	-0,348	-0,202
38,867	353,455	-0,182	-0,255
39,882	476,832	-0,150	-0,239
40,896	173,751	-0,290	-0,295
41,911	22,983	-0,269	-0,154
42,926	242,541	-0,261	-0,307
43,940	31,011	-0,518	-0,311
44,955	95,249	-0,230	-0,184
45,969	85,352	-0,358	-0,276
46,984	151,641	-0,262	-0,251
47,999	40,757	-0,221	-0,140
49,013	-36,073	-0,294	-0,111
50,028	221,951	-0,168	-0,190
51,042	-31,190	-0,348	-0,137
52,057	212,780	-0,215	-0,238
53,071	97,700	-0,233	-0,188
54,086	37,394	-0,350	-0,217
55,101	-106,118	-0,358	-0,056
56,115	-13,210	-0,289	-0,131
57,130	37,368	-0,287	-0,178
58,144	92,925	-0,280	-0,222
59,159	43,568	-0,413	-0,265
60,174	-28,267	-0,401	-0,162
61,188	355,955	-0,211	-0,296
62,203	213,717	-0,237	-0,263
63,217	-77,759	-0,188	-0,045
64,232	196,284	-0,262	-0,280
65,247	15,848	-0,302	-0,166
66,261	20,050	-0,357	-0,201
67,276	187,523	-0,326	-0,341
68,290	-44,152	-0,337	-0,118
69,305	-67,234	-0,299	-0,082
70,320	-119,871	-0,312	-0,037
71,334	252,683	-0,263	-0,314
72,349	21,990	-0,397	-0,226
73,363	-98,563	-0,384	-0,068
74,378	12,145	-0,433	-0,233
75,393	108,815	-0,263	-0,220
76,407	202,087	-0,193	-0,209
77,422	276,330	-0,244	-0,305
78,436	-99,159	-0,254	-0,045
79,451	38,674	-0,265	-0,165
80,466	2,599	-0,376	-0,190
81,480	-44,135	-0,303	-0,106
82,495	35,052	-0,349	-0,214
83,509	196,980	-0,246	-0,263
84,524	12,770	-0,297	-0,160
85,539	-32,095	-0,386	-0,150
86,553	162,590	-0,290	-0,285
87,568	96,193	-0,268	-0,214
88,582	-39,603	-0,397	-0,145
89,597	-19,039	-0,427	-0,185
90,611	44,246	-0,189	-0,121
91,626	-88,757	-0,277	-0,057
92,641	33,198	-0,182	-0,110
93,655	69,132	-0,244	-0,175
94,670	-14,418	-0,421	-0,189
95,684	172,330	-0,175	-0,176
96,699	-59,210	-0,129	-0,039
97,714	116,571	-0,174	-0,149
98,728	170,088	-0,210	-0,210
99,743	-36,425	-0,331	-0,124
100,757	207,030	-0,195	-0,213
101,772	12,238	-0,228	-0,122
102,787	2,596	-0,259	-0,131
103,801	-7,739	-0,411	-0,193
104,816	81,443	-0,198	-0,150
105,830	38,536	-0,223	-0,138
106,845	165,249	-0,150	-0,149
107,860	-34,049	-0,302	-0,115
108,874	-62,637	-0,394	-0,113
109,889	56,309	-0,250	-0,169
110,903	180,017	-0,188	-0,192
111,918	157,563	-0,174	-0,168
112,933	13,963	-0,231	-0,125
113,947	-163,923	-0,308	0,010
114,962	-106,058	-0,192	-0,030
115,976	99,419	-0,220	-0,178
116,991	-62,901	-0,281	-0,081
118,006	168,102	-0,274	-0,272
119,020	0,885	-0,220	-0,110
120,035	-54,723	-0,260	-0,081
121,049	72,176	-0,132	-0,096
122,064	47,490	-0,143	-0,093
123,079	-61,194	-0,263	-0,077
124,093	331,752	-0,209	-0,283
125,108	121,069	-0,255	-0,221
126,122	13,306	-0,362	-0,195
127,137	-60,689	-0,219	-0,064
128,151	20,274	-0,205	-0,115
129,166	-86,630	-0,283	-0,060
130,181	-10,463	-0,300	-0,138
131,195	-121,921	-0,313	-0,035
132,210	34,530	-0,217	-0,132
133,224	16,034	-0,233	-0,128
134,239	108,996	-0,276	-0,230
135,254	11,272	-0,189	-0,101
136,268	161,105	-0,237	-0,231
137,283	97,248	-0,189	-0,151
138,297	108,326	-0,270	-0,224
139,312	24,728	-0,426	-0,245
140,327	-15,129	-0,262	-0,116
141,341	26,280	-0,330	-0,191
142,356	12,136	-0,183	-0,098
143,370	3,476	-0,178	-0,090
144,385	192,106	-0,213	-0,224
145,400	-86,231	-0,287	-0,061
146,414	-44,539	-0,268	-0,093
147,429	148,181	-0,230	-0,216
148,443	105,542	-0,202	-0,166
149,458	-39,182	-0,112	-0,041
150,473	-48,907	-0,236	-0,078
151,487	98,642	-0,184	-0,148
152,502	312,985	-0,223	-0,292
153,516	25,972	-0,313	-0,181
154,531	100,123	-0,326	-0,263
155,546	317,773	-0,233	-0,307
156,560	-81,148	-0,170	-0,039
157,575	-74,173	-0,179	-0,045
158,589	116,309	-0,207	-0,176
159,604	-155,129	-0,363	0,016
160,619	-4,276	-0,343	-0,164
161,633	-23,655	-0,365	-0,151
162,648	-121,089	-0,192	-0,022
163,662	258,785	-0,234	-0,280
164,677	196,068	-0,123	-0,130
165,692	143,686	-0,146	-0,135
166,706	40,376	-0,315	-0,197
167,721	34,364	-0,247	-0,150
168,735	70,047	-0,237	-0,169
169,750	99,779	-0,306	-0,246
170,764	-138,345	-0,066	-0,005
171,779	-14,121	-0,200	-0,089
172,794	-59,446	-0,188	-0,056
173,808	40,967	-0,259	-0,162
174,823	50,155	-0,249	-0,163
175,837	14,592	-0,180	-0,097
176,852	715,983	-0,100	-0,185
177,867	144,123	-0,129	-0,120
178,881	-180,932	-0,182	-0,002
179,896	-194,367	-0,192	-0,001
180,910	-63,923	-0,173	-0,049
181,925	201,842	-0,204	-0,219
182,940	374,125	-0,225	-0,319
183,954	-200,000	-0,084	-0,310
184,969	-142,849	-0,216	0,014
185,983	513,750	-0,141	-0,229
186,998	406,361	-0,202	-0,296
188,013	239,142	-0,123	-0,142
189,027	198,118	-0,175	-0,186
190,042	40,848	-0,265	-0,165
191,056	91,721	-0,253	-0,197
192,071	129,822	-0,129	-0,114
193,086	-77,631	-0,224	-0,053
194,100	168,596	-0,118	-0,117
195,115	18,153	-0,239	-0,132
196,129	595,845	-0,102	-0,175
197,144	162,714	-0,187	-0,182
198,159	-59,412	-0,191	-0,057
199,173	-20,467	-0,209	-0,089
200,188	50,320	-0,138	-0,090
201,202	-86,519	-0,152	-0,032
202,217	-47,315	-0,249	-0,083
203,232	-200,000	0,008	-0,144
204,246	143,107	-0,270	-0,248
205,261	291,199	-0,171	-0,215
206,275	181,327	-0,161	-0,164
207,290	287,215	-0,164	-0,206
208,304	4,696	-0,160	-0,081
209,319	-200,000	-0,031	-0,126
210,334	-85,420	-0,067	-0,014
211,348	82,432	-0,217	-0,163
212,363	-15,864	-0,155	-0,068
213,377	579,016	-0,103	-0,175
214,392	277,037	-0,094	-0,115
215,407	311,987	-0,107	-0,139
216,421	-74,608	-0,173	-0,043
217,436	-200,000	0,029	-0,107
218,450	-69,186	-0,299	-0,079
219,465	-48,941	-0,264	-0,087
220,480	341,157	-0,150	-0,203
221,494	72,947	-0,125	-0,090
222,509	6,332	-0,205	-0,105
223,523	-135,091	-0,192	0,016
224,538	-12,226	-0,168	-0,076
225,553	145,861	-0,235	-0,218
226,567	79,541	-0,195	-0,144
227,582	0,536	-0,144	-0,071
228,596	91,599	-0,086	-0,067
229,611	800,000	-0,066	-0,182
230,626	-75,912	-0,096	-0,023
231,640	3,038	-0,282	-0,141
232,655	125,367	-0,192	-0,168
233,669	162,067	-0,217	-0,210
234,684	219,971	-0,124	-0,138
235,699	-33,834	-0,286	-0,108
236,713	115,702	-0,142	-0,120
237,728	207,892	-0,115	-0,124
238,742	800,000	-0,068	-0,137
239,757	217,624	-0,138	-0,153
240,772	196,189	-0,222	-0,234
241,786	-13,390	-0,232	-0,103
242,801	446,447	-0,079	-0,121
243,815	-80,256	-0,214	-0,049
244,830	27,663	-0,187	0,109
245,844	-31,916	-0,187	-0,072
246,859	333,946	-0,114	-0,153
247,874	-38,947	-0,111	-0,040
248,888	-55,646	-0,236	-0,072
249,903	246,311	-0,168	-0,196
250,917	-52,454	-0,125	0,040
251,932	125,818	-0,124	-0,108
252,947	-136,490	-0,248	0,020
253,961	-48,314	-0,215	-0,071
254,976	713,025	-0,152	-0,278
255,990	-50,491	-0,223	-0,072
257,005	800,000	-0,095	-0,202
258,020	242,521	-0,181	-0,209
259,034	-185,898	-0,104	-0,001
260,049	228,593	-0,112	-0,126
261,063	74,099	-0,146	-0,105
262,078	-57,295	-0,314	-0,095
263,093	86,088	-0,198	-0,150
264,107	452,473	-0,092	-0,141
265,122	199,230	-0,117	-0,124
266,136	-73,705	-0,084	-0,021
267,151	639,908	-0,165	-0,291
268,166	-16,082	-0,309	-0,135
269,180	-39,111	-0,160	-0,058
270,195	123,917	-0,253	-0,219
271,209	100,794	-0,116	-0,093
272,224	-71,061	-0,212	-0,054
273,239	-0,736	-0,111	-0,054
274,253	-38,399	-0,136	0,049
275,268	-46,486	-0,198	-0,067
276,282	229,467	-0,235	-0,264
277,297	401,887	-0,056	-0,081
278,312	103,543	-0,167	-0,135
279,326	-23,962	-0,186	-0,076
280,341	-19,509	-0,157	-0,067
281,355	784,028	-0,043	-0,081
282,370	16,921	-0,248	-0,135
283,384	6,295	-0,331	-0,168
284,399	-62,968	-0,292	-0,083
285,414	62,386	-0,221	-0,151
286,428	-134,365	-0,130	-0,011
287,443	-200,000	-0,010	-0,031
288,457	-134,935	-0,150	0,012
289,472	-85,630	-0,233	-0,049
290,487	198,263	-0,225	-0,236
291,501	223,405	-0,107	-0,119
292,516	79,342	-0,293	-0,216
293,530	319,491	-0,124	-0,162
294,545	800,000	-0,085	-0,166
295,560	138,562	-0,127	-0,115
296,574	87,955	-0,124	-0,095
297,589	-84,786	-0,174	-0,037
298,603	98,528	-0,244	-0,193
299,618	247,930	-0,203	-0,236
300,633	-15,584	-0,078	-0,034
301,647	216,856	-0,132	0,145
302,662	89,266	-0,152	0,116
303,676	-143,638	-0,068	-0,004
304,691	-5,226	-0,176	-0,083
305,706	800,000	-0,135	-0,260
306,720	-200,000	-0,022	-0,117
307,735	221,454	-0,186	-0,205
308,749	174,274	-0,130	-0,129
309,764	-22,788	-0,124	-0,051
310,779	75,396	-0,163	-0,118
311,793	119,232	-0,104	-0,089
312,808	177,768	-0,178	-0,179
313,822	757,204	-0,112	-0,209
314,837	442,720	-0,122	-0,184
315,852	150,129	-0,021	-0,019
316,866	-137,763	-0,187	-0,014
317,881	288,628	-0,058	-0,072
318,895	151,715	-0,196	-0,184
319,910	12,288	-0,193	-0,102
320,925	13,761	-0,109	-0,058
321,939	77,425	-0,147	-0,107
322,954	-107,788	-0,081	-0,012
323,968	-200,000	-0,030	-0,099
324,983	-112,163	-0,133	-0,018
325,997	3,398	-0,170	-0,085
327,012	800,000	-0,013	0,025
328,027	32,660	-0,119	-0,070
329,041	574,765	-0,094	-0,157
330,056	-6,362	-0,217	0,101
331,070	-101,545	-0,192	-0,032
332,085	70,683	-0,086	-0,061
333,100	-50,294	-0,268	-0,086
334,114	-86,128	-0,060	0,013
335,129	29,209	-0,156	-0,090
336,143	550,785	-0,096	-0,158
337,158	-200,000	-0,032	-0,259
338,173	50,737	0,028	0,018
339,187	-200,000	-0,042	-0,171
340,202	800,000	-0,107	-0,227
341,216	-134,365	-0,258	-0,021
342,231	-2,355	-0,233	-0,111
343,246	25,430	-0,184	-0,105
344,260	-41,277	-0,138	-0,048
345,275	-200,000	-0,031	-0,191
346,289	-103,753	-0,079	-0,012
347,304	214,260	-0,160	-0,173
348,319	-160,132	-0,034	0,001
349,333	660,034	-0,099	-0,176
350,348	526,007	-0,108	-0,175
351,362	547,933	-0,047	-0,077
352,377	18,152	0,016	0,009
353,392	-200,000	-0,009	0,042
354,406	26,418	-0,082	-0,047
355,421	206,590	1310,420	1396,431
356,435	158,891	1470,549	1396,874
