DTS Sentinel unit serial number:	SN410029Multiplexer serial number:	ORYXHardware model number:	OX2-SRSoftware version number:	ORYX F/W v4,00 Oryx Data Collector v3.7.2.0data status	okinstallation	B3 Nyhavnadifferential loss correction	single-endedforward channel	channel 1reverse channel	N/Adate	2023/12/02time	13:17:30forward acquisition time	300,00reverse acquisition time	0,00gamma	499,1914k internal	0,3199k external	0,3199temperature offset calibration	1,0000default loss term (dB/km)	0,3820temperature slope calibration	1,0000multiplexer offset coefficient	1,0000multiplexer slope coefficient	1,0000fibre end	0,00T internal ref (°C)	14,42T ext. ref 1 (°C)	0,11T ext. ref 2 (°C)	0,12length (m)	temperature (°C)	Stokes	anti-Stokes-744,400	2,616	-0,349	-0,183
-743,385	-200,000	-0,025	0,322
-742,371	15,029	-0,275	-0,156
-741,356	800,000	0,122	0,310
-740,342	235,820	-0,229	-0,276
-739,327	-200,000	-0,073	0,243
-738,312	312,428	-0,176	-0,241
-737,298	-200,000	0,018	0,294
-736,283	800,000	-0,120	-0,248
-735,269	-200,000	0,075	0,253
-734,254	99,579	-0,220	-0,185
-733,239	34,628	-0,110	0,070
-732,225	-200,000	-0,015	-0,124
-731,210	800,000	0,048	0,139
-730,196	-76,953	0,114	-0,029
-729,181	-88,666	0,013	0,003
-728,167	-89,253	0,028	0,006
-727,152	-200,000	0,009	0,044
-726,137	-200,000	-0,038	-0,172
-725,123	-36,203	-0,128	-0,050
-724,108	2,254	-0,080	-0,042
-723,094	26,105	-0,103	-0,062
-722,079	104,450	-0,040	-0,035
-721,064	93,007	-0,120	-0,099
-720,050	344,941	0,038	0,054
-719,035	168,920	0,041	0,042
-718,021	193,621	-0,067	-0,074
-717,006	-200,000	-0,012	-0,064
-715,991	-75,809	-0,112	-0,029
-714,977	-42,330	-0,047	-0,018
-713,962	-200,000	-0,005	-0,016
-712,948	640,834	-0,049	-0,091
-711,933	54,750	0,094	0,066
-710,918	82,696	0,044	-0,034
-709,904	-200,000	-0,040	-0,147
-708,889	400,470	-0,074	-0,114
-707,875	35,008	-0,086	-0,054
-706,860	-25,111	-0,066	-0,028
-705,845	-144,667	-0,091	-0,006
-704,831	488,203	0,091	0,152
-703,816	327,969	-0,038	0,053
-702,802	800,000	-0,085	-0,217
-701,787	178,468	0,064	0,068
-700,772	46,284	-0,125	-0,084
-699,758	800,000	0,045	0,124
-698,743	-200,000	-0,012	0,054
-697,729	-200,000	0,018	-0,142
-696,714	272,025	0,045	0,057
-695,699	524,972	0,006	0,010
-694,685	-200,000	-0,000	-0,096
-693,670	-200,000	-0,061	-0,218
-692,656	733,337	-0,018	0,034
-691,641	-200,000	0,009	-0,050
-690,627	800,000	-0,052	0,107
-689,612	-140,246	0,155	-0,012
-688,597	800,000	-0,023	-0,061
-687,583	682,471	0,026	-0,050
-686,568	-105,426	-0,134	-0,022
-685,554	-200,000	0,005	-0,203
-684,539	-105,112	0,033	0,005
-683,524	744,566	-0,016	-0,032
-682,510	169,392	-0,065	-0,067
-681,495	800,000	-0,053	-0,153
-680,481	-134,115	-0,254	-0,022
-679,466	408,516	-0,071	-0,110
-678,451	174,869	-0,024	-0,026
-677,437	39,160	0,105	0,068
-676,422	139,555	-0,091	0,087
-675,408	23,792	-0,040	0,024
-674,393	-53,744	0,030	0,010
-673,378	92,064	-0,009	-0,007
-672,364	70,032	-0,081	0,061
-671,349	42,546	-0,127	-0,084
-670,335	-200,000	-0,055	-0,205
-669,320	275,101	0,056	-0,072
-668,305	-152,122	0,140	-0,007
-667,291	479,155	-0,063	0,104
-666,276	-164,232	-0,131	0,004
-665,262	-80,008	-0,100	-0,024
-664,247	-47,688	-0,055	0,019
-663,232	408,922	0,019	0,030
-662,218	53,169	0,056	-0,039
-661,203	-61,159	0,062	0,019
-660,189	-115,376	-0,039	0,005
-659,174	-170,207	0,135	0,003
-658,159	131,991	0,039	0,036
-657,145	87,682	-0,089	0,071
-656,130	311,335	0,043	0,058
-655,116	-110,780	-0,047	0,007
-654,101	2,003	-0,110	0,058
-653,086	-44,835	0,136	-0,049
-652,072	800,000	-0,069	-0,166
-651,057	-13,323	-0,085	-0,040
-650,043	-200,000	-0,012	-0,045
-649,028	-200,000	-0,012	0,105
-648,014	-42,596	0,105	0,038
-646,999	-200,000	0,004	0,015
-645,984	800,000	-0,027	-0,068
-644,970	800,000	0,040	-0,098
-643,955	443,992	-0,050	-0,080
-642,941	370,184	-0,090	-0,132
-641,926	-200,000	-0,020	-0,114
-640,911	800,000	0,038	0,113
-639,897	41,793	-0,031	0,020
-638,882	508,588	0,068	0,115
-637,868	-200,000	0,022	-0,077
-636,853	145,921	-0,072	0,070
-635,838	111,237	-0,047	-0,041
-634,824	72,239	0,023	-0,017
-633,809	740,838	-0,024	0,046
-632,795	-61,490	-0,060	0,018
-631,780	-200,000	0,018	0,081
-630,765	115,324	-0,079	0,070
-629,751	-32,559	-0,100	0,040
-628,736	106,315	-0,036	-0,031
-627,722	800,000	-0,023	-0,065
-626,707	-13,694	0,056	-0,026
-625,692	-200,000	0,007	0,189
-624,678	800,000	-0,016	0,052
-623,663	53,690	0,042	0,029
-622,649	-151,978	-0,211	0,011
-621,634	64,246	-0,091	0,067
-620,619	139,320	-0,052	0,049
-619,605	-132,551	-0,128	0,012
-618,590	800,000	0,088	-0,206
-617,576	8,650	-0,097	-0,053
-616,561	-58,897	0,113	0,035
-615,546	-200,000	-0,001	0,034
-614,532	2,858	-0,157	-0,082
-613,517	-29,486	0,069	-0,029
-612,503	-189,448	0,127	-0,001
-611,488	-200,000	-0,015	-0,052
-610,474	-5,275	0,076	0,038
-609,459	120,879	-0,046	-0,041
-608,444	-200,000	0,025	-0,156
-607,430	-116,430	-0,056	-0,007
-606,415	-129,111	-0,088	-0,009
-605,401	800,000	-0,046	-0,130
-604,386	-200,000	-0,006	0,085
-603,371	-200,000	0,029	-0,102
-602,357	800,000	-0,012	-0,035
-601,342	571,084	-0,034	0,060
-600,328	-45,729	-0,159	-0,057
-599,313	-200,000	0,012	-0,123
-598,298	27,323	-0,053	-0,032
-597,284	-187,469	0,061	-0,001
-596,269	136,603	0,108	0,102
-595,255	14,963	-0,117	-0,066
-594,240	800,000	-0,037	-0,077
-593,225	223,955	0,116	0,136
-592,211	-175,616	-0,072	-0,001
-591,196	446,052	0,042	0,067
-590,182	-15,284	0,112	0,051
-589,167	-200,000	-0,036	0,213
-588,152	-77,028	0,139	0,035
-587,138	162,208	-0,059	0,060
-586,123	-67,197	-0,030	-0,009
-585,109	531,451	-0,053	-0,091
-584,094	-200,000	0,002	0,020
-583,079	-200,000	0,008	-0,150
-582,065	102,133	-0,045	0,038
-581,050	-117,422	-0,115	0,015
-580,036	-27,998	0,115	0,048
-579,021	800,000	-0,026	0,076
-578,006	-200,000	-0,041	-0,177
-576,992	800,000	0,028	0,060
-575,977	-121,925	0,174	-0,020
-574,963	431,920	-0,025	-0,039
-573,948	-183,561	-0,163	0,002
-572,934	-200,000	-0,004	-0,018
-571,919	-200,000	0,000	-0,019
-570,904	-101,943	-0,082	0,014
-569,890	-200,000	0,031	-0,147
-568,875	-200,000	0,030	-0,137
-567,861	404,728	-0,045	-0,069
-566,846	30,195	-0,114	-0,070
-565,831	-30,972	-0,085	0,034
-564,817	704,078	-0,110	-0,211
-563,802	-200,000	-0,194	0,000
-562,788	800,000	0,037	0,081
-561,773	-200,000	0,014	-0,224
-560,758	666,212	-0,063	-0,119
-559,744	398,645	0,042	0,063
-558,729	33,811	-0,095	0,059
-557,715	75,017	-0,046	-0,035
-556,700	-200,000	0,001	-0,042
-555,685	-20,074	0,168	0,074
-554,671	2,617	0,062	0,032
-553,656	35,261	-0,111	0,070
-552,642	-200,000	-0,006	-0,068
-551,627	26,899	-0,102	0,061
-550,612	185,090	0,046	0,050
-549,598	234,719	-0,087	-0,104
-548,583	800,000	-0,085	0,176
-547,569	-200,000	-0,028	-0,108
-546,554	193,695	0,044	0,048
-545,539	148,419	0,048	-0,047
-544,525	-93,187	0,039	-0,008
-543,510	-64,241	-0,110	0,032
-542,496	384,547	0,046	-0,069
-541,481	-15,737	-0,138	0,063
-540,466	155,635	-0,113	0,112
-539,452	80,100	0,086	-0,067
-538,437	-98,207	0,130	0,024
-537,423	759,308	0,025	-0,050
-536,408	-115,947	0,061	0,008
-535,393	272,766	-0,031	-0,040
-534,379	345,853	-0,037	-0,052
-533,364	800,000	-0,019	-0,058
-532,350	-200,000	-0,005	0,093
-531,335	-23,112	0,064	-0,028
-530,321	-200,000	-0,010	0,107
-529,306	-108,048	0,067	-0,010
-528,291	-200,000	0,013	-0,092
-527,277	103,961	-0,085	0,072
-526,262	-90,960	-0,059	0,012
-525,248	-20,824	0,033	0,015
-524,233	284,022	0,058	0,075
-523,218	-168,015	0,077	-0,002
-522,204	800,000	0,045	-0,096
-521,189	-100,637	-0,028	0,005
-520,175	61,167	0,079	0,056
-519,160	231,686	-0,075	0,089
-518,145	-200,000	0,005	0,200
-517,131	529,843	-0,013	0,022
-516,116	-53,865	0,086	0,028
-515,102	371,968	-0,058	-0,086
-514,087	-200,000	-0,008	-0,067
-513,072	-107,582	0,021	-0,003
-512,058	56,671	0,072	-0,050
-511,043	15,673	-0,064	-0,036
-510,029	470,348	0,032	0,051
-509,014	309,973	0,042	-0,056
-507,999	81,311	-0,110	-0,086
-506,985	283,144	-0,092	0,119
-505,970	-64,529	0,058	-0,017
-504,956	800,000	-0,031	-0,081
-503,941	-28,879	0,154	-0,064
-502,926	276,703	0,060	0,078
-501,912	36,353	-0,032	0,020
-500,897	800,000	0,041	-0,087
-499,883	567,233	-0,028	-0,049
-498,868	136,365	0,091	0,086
-497,853	-141,044	0,054	-0,004
-496,839	-101,818	0,061	-0,011
-495,824	12,217	0,156	0,086
-494,810	-167,313	-0,066	0,002
-493,795	-200,000	0,005	-0,106
-492,781	77,986	0,094	-0,072
-491,766	3,175	-0,089	-0,046
-490,751	800,000	0,046	-0,140
-489,737	157,531	0,134	-0,133
-488,722	800,000	0,051	0,125
-487,708	800,000	-0,031	0,095
-486,693	25,617	-0,047	-0,028
-485,678	-200,000	-0,000	-0,044
-484,664	-108,586	-0,037	0,006
-483,649	67,538	0,072	0,053
-482,635	-73,136	0,120	-0,031
-481,620	-53,940	0,078	0,025
-480,605	800,000	-0,023	0,064
-479,591	-200,000	0,000	0,092
-478,576	-200,000	-0,006	-0,077
-477,562	571,710	-0,056	-0,099
-476,547	277,669	-0,033	-0,042
-475,532	800,000	0,032	-0,088
-474,518	-146,614	0,064	0,004
-473,503	-42,385	0,115	-0,042
-472,489	104,316	0,026	-0,022
-471,474	-2,554	-0,127	-0,064
-470,459	-200,000	0,016	-0,136
-469,445	-124,489	-0,121	0,013
-468,430	-53,319	-0,067	-0,022
-467,416	-200,000	0,011	0,073
-466,401	486,673	0,019	-0,031
-465,386	57,248	-0,089	0,063
-464,372	-200,000	-0,002	-0,126
-463,357	-92,175	-0,128	-0,026
-462,343	-200,000	0,004	-0,137
-461,328	392,380	0,028	-0,041
-460,313	258,301	0,050	-0,062
-459,299	-39,002	0,123	-0,046
-458,284	-31,784	-0,068	0,027
-457,270	-200,000	-0,008	0,044
-456,255	-11,193	0,080	0,038
-455,241	-40,802	0,111	0,041
-454,226	293,262	0,024	0,032
-453,211	41,920	-0,117	0,077
-452,197	5,170	-0,125	0,066
-451,182	-91,904	0,116	0,024
-450,168	-38,815	-0,026	0,010
-449,153	275,250	0,066	0,084
-448,138	-200,000	-0,004	-0,039
-447,124	212,437	-0,075	-0,085
-446,109	68,225	0,114	-0,084
-445,095	800,000	0,007	0,015
-444,080	443,127	0,080	0,126
-443,065	-25,478	-0,143	-0,060
-442,051	800,000	0,024	0,057
-441,036	-200,000	-0,025	-0,117
-440,022	-2,738	-0,155	-0,078
-439,007	-77,047	0,059	-0,015
-437,992	800,000	-0,013	0,031
-436,978	-138,048	-0,068	0,005
-435,963	141,137	0,051	0,049
-434,949	800,000	-0,009	0,020
-433,934	244,094	-0,057	0,069
-432,919	-34,737	-0,095	-0,037
-431,905	-200,000	0,003	-0,020
-430,890	414,538	-0,028	-0,043
-429,876	-200,000	0,028	0,095
-428,861	-200,000	0,034	0,107
-427,846	800,000	0,034	-0,074
-426,832	800,000	0,013	-0,032
-425,817	-200,000	0,015	-0,122
-424,803	-122,622	-0,089	-0,010
-423,788	184,462	0,090	0,096
-422,773	374,869	-0,098	0,144
-421,759	231,840	-0,038	-0,044
-420,744	800,000	0,035	0,081
-419,730	800,000	-0,002	0,003
-418,715	-166,975	-0,057	-0,002
-417,701	-79,320	0,101	-0,024
-416,686	95,441	-0,047	0,038
-415,671	106,042	0,107	0,091
-414,657	494,185	-0,039	-0,064
-413,642	-49,207	0,061	0,021
-412,628	-41,021	-0,077	0,029
-411,613	585,714	-0,021	-0,037
-410,598	69,389	-0,076	0,056
-409,584	667,289	-0,054	0,102
-408,569	-79,532	0,216	-0,052
-407,555	-200,000	0,029	-0,121
-406,540	521,375	-0,129	-0,218
-405,525	9,056	-0,045	-0,024
-404,511	12,419	-0,016	-0,009
-403,496	68,266	-0,161	-0,118
-402,482	12,295	0,054	0,030
-401,467	39,665	-0,037	0,024
-400,452	800,000	-0,011	0,022
-399,438	82,312	0,093	0,072
-398,423	-178,219	-0,133	-0,002
-397,409	-200,000	-0,001	-0,183
-396,394	-200,000	-0,007	-0,110
-395,379	623,565	0,035	0,064
-394,365	-53,273	0,111	0,036
-393,350	338,153	0,018	-0,025
-392,336	151,406	0,035	-0,034
-391,321	-200,000	0,041	-0,203
-390,306	-10,179	-0,034	-0,016
-389,292	-1,879	-0,079	-0,040
-388,277	-55,732	0,069	-0,022
-387,263	-191,876	0,100	0,001
-386,248	-200,000	0,015	0,131
-385,233	399,477	0,007	-0,011
-384,219	-200,000	-0,012	-0,043
-383,204	-16,516	-0,137	-0,062
-382,190	86,562	0,057	0,045
-381,175	-158,545	-0,128	0,005
-380,160	-200,000	0,008	-0,091
-379,146	63,105	0,098	-0,070
-378,131	-140,381	0,083	0,006
-377,117	371,026	-0,051	0,074
-376,102	452,909	-0,094	-0,150
-375,088	-200,000	-0,011	0,089
-374,073	-28,831	-0,058	-0,024
-373,058	-59,894	0,110	-0,034
-372,044	-157,553	0,131	-0,006
-371,029	47,634	-0,045	0,030
-370,015	257,003	0,020	0,025
-369,000	800,000	0,026	-0,075
-367,985	13,062	-0,042	0,023
-366,971	-16,030	0,028	-0,013
-365,956	-200,000	0,001	-0,092
-364,942	800,000	0,041	0,082
-363,927	356,655	0,128	0,184
-362,912	181,519	-0,061	0,065
-361,898	83,877	0,052	0,041
-360,883	-100,525	0,088	0,015
-359,869	800,000	0,028	-0,077
-358,854	-105,695	0,093	-0,015
-357,839	800,000	-0,056	0,128
-356,825	-200,000	-0,017	0,098
-355,810	81,926	0,074	0,057
-354,796	-200,000	-0,028	-0,102
-353,781	60,481	-0,048	-0,034
-352,766	-1,012	0,088	-0,045
-351,752	-200,000	0,000	-0,005
-350,737	-200,000	-0,024	0,078
-349,723	-200,000	-0,003	0,035
-348,708	142,277	-0,032	0,030
-347,693	268,662	-0,013	0,016
-346,679	264,686	0,070	-0,088
-345,664	301,912	-0,087	-0,115
-344,650	30,519	-0,144	-0,088
-343,635	195,039	0,057	0,062
-342,620	270,843	0,107	0,136
-341,606	-200,000	0,012	0,130
-340,591	-9,878	-0,063	-0,030
-339,577	-200,000	-0,023	-0,147
-338,562	-200,000	0,003	0,076
-337,548	-11,454	0,061	-0,029
-336,533	57,675	0,084	0,059
-335,518	-125,966	0,099	-0,011
-334,504	-200,000	-0,021	0,078
-333,489	-14,330	-0,033	-0,015
-332,475	800,000	0,022	-0,045
-331,460	-200,000	0,005	-0,019
-330,445	-200,000	-0,008	0,135
-329,431	800,000	0,040	0,095
-328,416	-200,000	-0,022	0,136
-327,402	-62,450	-0,093	0,027
-326,387	41,710	-0,114	-0,074
-325,372	127,390	0,049	0,045
-324,358	556,213	-0,013	0,023
-323,343	214,394	-0,024	0,027
-322,329	89,104	0,069	-0,055
-321,314	-48,726	0,113	0,039
-320,299	-57,393	0,067	-0,021
-319,285	-200,000	-0,013	0,121
-318,270	31,773	-0,072	0,045
-317,256	87,876	0,046	0,036
-316,241	-165,301	-0,107	-0,003
-315,226	-200,000	-0,003	-0,078
-314,212	197,045	0,134	0,146
-313,197	-200,000	0,012	0,099
-312,183	-200,000	-0,014	0,082
-311,168	175,389	-0,081	-0,084
-310,153	-51,401	-0,133	0,044
-309,139	588,326	0,013	0,022
-308,124	18,881	-0,087	0,050
-307,110	-162,156	0,127	-0,004
-306,095	-200,000	-0,027	0,090
-305,080	800,000	0,050	-0,103
-304,066	74,317	-0,086	-0,064
-303,051	-7,666	-0,048	-0,023
-302,037	-117,719	-0,144	0,018
-301,022	-98,704	0,113	0,020
-300,008	800,000	-0,049	0,112
-298,993	-200,000	0,017	0,142
-297,978	119,162	0,032	0,028
-296,964	-200,000	0,020	0,071
-295,949	28,124	-0,104	0,062
-294,935	557,931	0,052	-0,090
-293,920	-161,615	0,008	-0,000
-292,905	467,105	0,025	-0,040
-291,891	70,474	-0,084	0,062
-290,876	-108,551	-0,078	-0,012
-289,862	-114,895	-0,093	0,013
-288,847	9,952	-0,070	0,038
-287,832	62,693	0,012	-0,008
-286,818	-24,476	0,137	0,058
-285,803	1,329	-0,130	0,066
-284,789	-200,000	0,010	0,058
-283,774	-200,000	-0,032	0,141
-282,759	139,366	0,090	-0,084
-281,745	-200,000	0,010	0,038
-280,730	-5,153	-0,098	0,048
-279,716	371,157	0,015	0,021
-278,701	-200,000	0,006	0,079
-277,686	-200,000	0,014	0,139
-276,672	-132,746	0,088	0,008
-275,657	-101,083	-0,084	-0,015
-274,643	35,930	-0,034	-0,022
-273,628	-111,797	0,230	-0,033
-272,613	800,000	-0,012	-0,025
-271,599	1,247	0,098	-0,050
-270,584	54,751	-0,048	0,033
-269,570	-200,000	-0,003	0,064
-268,555	-15,987	-0,065	-0,030
-267,540	-200,000	0,008	0,162
-266,526	71,606	-0,124	-0,092
-265,511	-183,866	-0,058	0,001
-264,497	376,993	-0,032	0,047
-263,482	800,000	-0,012	0,037
-262,467	-75,298	0,095	0,024
-261,453	39,071	0,026	-0,016
-260,438	-200,000	0,002	0,051
-259,424	-41,451	-0,132	0,048
-258,409	-200,000	0,000	0,051
-257,395	-200,000	0,013	-0,124
-256,380	315,586	0,073	0,099
-255,365	-92,091	0,212	0,042
-254,351	-55,847	0,078	-0,025
-253,336	3,324	-0,074	0,038
-252,322	299,605	-0,067	0,089
-251,307	-49,809	0,071	-0,024
-250,292	-93,136	-0,014	-0,003
-249,278	163,126	0,083	0,084
-248,263	-200,000	-0,023	-0,096
-247,249	-200,000	0,033	0,141
-246,234	-200,000	-0,001	-0,005
-245,219	-200,000	0,000	0,037
-244,205	256,967	0,058	0,071
-243,190	-200,000	-0,001	-0,162
-242,176	20,017	-0,050	-0,029
-241,161	-110,521	0,137	0,020
-240,146	547,877	-0,026	0,044
-239,132	-200,000	0,010	0,094
-238,117	-53,553	-0,092	-0,030
-237,103	-200,000	0,002	0,047
-236,088	47,296	0,098	-0,065
-235,073	227,524	0,045	0,052
-234,059	64,288	0,069	-0,049
-233,044	320,093	0,043	-0,059
-232,030	146,706	-0,130	0,124
-231,015	-200,000	0,025	0,087
-230,000	97,255	0,020	0,016
-228,986	-200,000	0,019	-0,080
-227,971	-200,000	0,018	-0,068
-226,957	-174,106	0,134	0,003
-225,942	-56,701	0,078	-0,024
-224,927	800,000	-0,008	-0,016
-223,913	17,056	-0,058	0,033
-222,898	-118,631	0,026	-0,003
-221,884	39,590	0,068	-0,043
-220,869	-96,481	0,030	0,006
-219,855	64,545	0,034	0,024
-218,840	214,480	0,020	-0,023
-217,825	800,000	0,049	-0,103
-216,811	800,000	-0,035	-0,091
-215,796	162,081	-0,150	-0,150
-214,782	800,000	0,044	-0,122
-213,767	383,557	-0,068	-0,100
-212,752	-141,006	0,161	-0,012
-211,738	515,246	0,027	-0,046
-210,723	458,282	0,051	-0,082
-209,709	-108,200	0,118	-0,018
-208,694	-200,000	0,001	-0,085
-207,679	-200,000	-0,016	-0,094
-206,665	-200,000	0,022	-0,081
-205,650	-200,000	-0,016	0,064
-204,636	800,000	0,002	0,004
-203,621	-200,000	0,007	0,024
-202,606	86,625	-0,087	-0,068
-201,592	15,564	-0,125	-0,070
-200,577	-178,531	-0,078	-0,001
-199,563	-4,664	0,081	0,040
-198,548	-200,000	-0,017	0,069
-197,533	2,498	0,084	-0,043
-196,519	800,000	0,091	0,195
-195,504	-96,738	0,104	0,019
-194,490	-200,000	0,038	-0,131
-193,475	800,000	0,059	0,117
-192,460	-200,000	0,003	0,186
-191,446	-200,000	-0,001	-0,087
-190,431	89,418	0,078	0,062
-189,417	-7,708	0,020	-0,010
-188,402	-200,000	-0,024	-0,086
-187,387	-14,885	-0,058	0,026
-186,373	242,895	-0,066	0,079
-185,358	0,547	-0,109	-0,055
-184,344	394,636	-0,060	-0,089
-183,329	-200,000	-0,011	0,039
-182,315	27,265	-0,088	0,052
-181,300	-20,730	0,087	0,038
-180,285	-200,000	-0,011	-0,177
-179,271	-200,000	0,029	-0,145
-178,256	-13,303	-0,071	0,033
-177,242	122,380	0,051	0,045
-176,227	223,110	-0,053	0,060
-175,212	-200,000	-0,006	0,208
-174,198	-28,514	0,046	0,019
-173,183	-200,000	-0,000	0,051
-172,169	-200,000	-0,018	-0,108
-171,154	-136,356	-0,106	-0,009
-170,139	-84,435	0,116	0,026
-169,125	-200,000	0,004	-0,027
-168,110	-136,121	0,078	0,006
-167,096	652,965	-0,009	-0,017
-166,081	71,911	-0,035	0,026
-165,066	-200,000	-0,006	0,107
-164,052	-126,102	-0,112	-0,012
-163,037	198,412	-0,070	0,076
-162,023	-48,250	0,012	-0,004
-161,008	142,104	0,079	-0,075
-159,993	-200,000	0,011	-0,096
-158,979	262,341	0,034	0,042
-157,964	-200,000	0,022	-0,070
-156,950	-200,000	-0,011	-0,115
-155,935	-80,808	0,161	0,038
-154,920	-200,000	-0,010	0,070
-153,906	-200,000	-0,021	0,106
-152,891	87,819	0,023	0,018
-151,877	26,153	-0,047	-0,028
-150,862	166,911	-0,018	-0,018
-149,847	355,297	-0,045	-0,064
-148,833	100,568	-0,084	0,070
-147,818	124,911	-0,085	-0,076
-146,804	-4,936	0,127	0,062
-145,789	49,719	-0,061	0,041
-144,775	-200,000	-0,017	-0,122
-143,760	-126,451	-0,124	-0,013
-142,745	-31,448	-0,093	0,037
-141,731	-22,349	-0,093	-0,040
-140,716	-200,000	-0,008	0,042
-139,702	310,687	0,038	0,050
-138,687	800,000	0,016	0,042
-137,672	800,000	0,022	0,066
-136,658	23,612	-0,070	-0,041
-135,643	-81,084	0,070	0,016
-134,629	385,061	-0,065	-0,095
-133,614	779,419	0,048	-0,094
-132,599	355,776	0,022	-0,031
-131,585	536,261	0,011	-0,019
-130,570	-200,000	-0,020	0,090
-129,556	800,000	0,051	-0,106
-128,541	191,626	-0,100	-0,108
-127,526	-112,257	-0,148	0,021
-126,512	626,948	0,007	-0,013
-125,497	502,867	-0,052	0,086
-124,483	541,421	-0,027	0,046
-123,468	209,222	0,079	0,088
-122,453	-200,000	0,011	-0,080
-121,439	138,394	-0,101	-0,094
-120,424	152,125	-0,032	0,031
-119,410	-200,000	0,023	-0,114
-118,395	16,173	0,095	0,053
-117,380	700,652	-0,036	-0,067
-116,366	-200,000	-0,027	0,103
-115,351	-78,830	-0,045	0,011
-114,337	-200,000	-0,017	0,060
-113,322	800,000	0,020	-0,044
-112,307	-200,000	-0,005	-0,133
-111,293	193,936	0,022	-0,023
-110,278	-126,619	0,113	-0,012
-109,264	-142,431	0,083	-0,006
-108,249	-200,000	0,001	0,034
-107,234	790,080	0,006	-0,011
-106,220	-34,751	-0,132	0,051
-105,205	-177,563	-0,126	-0,002
-104,191	-4,496	-0,117	0,057
-103,176	284,645	0,086	0,110
-102,162	-200,000	0,007	-0,139
-101,147	-47,807	-0,056	0,019
-100,132	300,512	-0,098	-0,129
-99,118	-200,000	0,010	-0,132
-98,103	800,000	0,044	-0,092
-97,089	650,052	-0,057	0,104
-96,074	91,790	-0,050	-0,040
-95,059	-92,059	-0,084	0,017
-94,045	125,039	-0,054	-0,049
-93,030	89,264	0,025	-0,019
-92,016	-189,471	-0,036	0,000
-91,001	-200,000	0,023	0,118
-89,986	-200,000	0,001	0,025
-88,972	800,000	-0,040	0,085
-87,957	-101,315	-0,091	-0,016
-86,943	-94,044	-0,070	0,014
-85,928	-24,251	-0,061	0,026
-84,913	-98,902	-0,055	-0,010
-83,899	800,000	0,041	0,099
-82,884	122,993	-0,032	0,029
-81,870	-200,000	0,022	0,099
-80,855	800,000	-0,030	0,091
-79,840	-89,737	0,041	-0,008
-78,826	74,690	-0,108	-0,080
-77,811	-200,000	-0,004	-0,145
-76,797	783,673	-0,049	0,096
-75,782	-2,303	-0,100	-0,050
-74,767	168,063	-0,030	0,030
-73,753	358,540	0,059	-0,083
-72,738	800,000	0,020	-0,055
-71,724	59,603	0,058	-0,041
-70,709	-124,350	0,036	0,004
-69,694	560,572	-0,009	-0,016
-68,680	144,059	0,092	0,087
-67,665	5,384	-0,181	0,094
-66,651	-121,280	-0,133	-0,016
-65,636	-164,756	-0,046	-0,001
-64,622	5,403	0,066	-0,034
-63,607	-41,607	-0,122	-0,044
-62,592	508,561	0,072	-0,119
-61,578	-200,000	-0,058	0,000
-60,563	10,483	-0,102	0,055
-59,549	-200,000	-0,044	0,147
-58,534	-42,872	-1,531	-0,548
-57,519	368,474	-1,491	-2,143
-56,505	-200,000	-0,465	-4,648
-55,490	182,110	0,917	0,958
-54,476	800,000	4,828	11,252
-53,461	-200,000	18,428	297,153
-52,446	800,000	731,699	2259,023
-51,432	560,453	1648,140	2832,303
-50,417	78,797	1667,440	1262,579
-49,403	22,315	1540,788	889,567
-48,388	16,332	1463,077	815,685
-47,373	17,822	1453,446	817,471
-46,359	17,046	1443,452	808,101
-45,344	14,545	1438,989	793,614
-44,330	14,467	1436,960	792,090
-43,315	14,438	1435,426	791,076
-42,300	14,481	1433,472	790,171
-41,286	14,544	1432,473	789,890
-40,271	14,471	1431,225	788,821
-39,257	14,489	1429,948	788,173
-38,242	14,559	1428,520	787,687
-37,227	14,556	1427,230	786,931
-36,213	14,528	1426,105	786,143
-35,198	14,532	1424,968	785,505
-34,184	14,528	1424,123	784,991
-33,169	14,491	1422,711	784,006
-32,154	14,532	1421,623	783,569
-31,140	14,520	1420,363	782,787
-30,125	14,612	1419,007	782,443
-29,111	14,528	1418,225	781,586
-28,096	14,487	1417,097	780,739
-27,082	14,499	1415,791	780,044
-26,067	14,437	1414,877	779,217
-25,052	14,410	1413,943	778,544
-24,038	14,431	1412,904	778,043
-23,023	14,383	1411,941	777,256
-22,009	14,456	1410,680	776,873
-20,994	14,424	1410,045	776,342
-19,979	14,428	1408,994	775,750
-18,965	14,380	1408,169	775,043
-17,950	14,336	1407,207	774,275
-16,936	14,354	1406,203	773,776
-15,921	14,369	1405,264	773,298
-14,906	14,382	1404,177	772,732
-13,892	14,306	1403,405	771,924
-12,877	14,360	1402,188	771,472
-11,863	14,367	1401,400	771,039
-10,848	14,348	1400,674	770,524
-9,833	14,287	1399,848	769,756
-8,819	14,287	1398,805	769,151
-7,804	14,194	1398,020	768,255
-6,790	14,253	1396,804	767,831
-5,775	14,218	1395,914	767,148
-4,760	14,256	1394,898	766,736
-3,746	14,222	1394,020	766,065
-2,731	14,249	1393,363	765,801
-1,717	14,221	1392,427	765,127
-0,702	14,243	1390,547	764,165
0,313	18,128	1309,122	737,390
1,327	34,580	706,049	435,818
2,342	53,288	124,213	84,135
3,356	2,599	16,528	8,451
4,371	2,924	3,151	1,615
5,386	-1,114	0,551	0,275
6,400	-200,000	-0,089	0,286
7,415	-33,242	-0,209	-0,081
8,429	-14,255	-0,463	-0,210
9,444	-47,841	-0,369	-0,126
10,459	20,438	-0,318	-0,181
11,473	-154,568	-0,366	-0,017
12,488	3,556	-0,202	-0,104
13,502	-54,034	-0,351	-0,112
14,517	-30,802	-0,331	-0,132
15,531	79,761	-0,435	-0,330
16,546	108,525	-0,266	-0,225
17,561	84,067	-0,404	-0,312
18,575	-50,223	-0,270	-0,090
19,590	61,858	-0,258	-0,181
20,604	33,427	-0,171	-0,105
21,619	36,040	-0,554	-0,344
22,634	-109,412	-0,552	-0,082
23,648	95,535	-0,363	-0,292
24,663	226,724	-0,394	-0,452
25,677	133,660	-0,270	-0,247
26,692	-42,357	-0,292	-0,105
27,707	96,625	-0,259	-0,210
28,721	59,671	-0,452	-0,315
29,736	207,083	-0,348	-0,384
30,750	129,857	-0,345	-0,311
31,765	41,785	-0,299	-0,191
32,780	620,322	-0,204	-0,364
33,794	45,889	-0,334	-0,218
34,809	68,629	-0,408	-0,295
35,823	-21,448	-0,345	-0,148
36,838	192,092	-0,362	-0,386
37,853	134,226	-0,359	-0,329
38,867	126,078	-0,439	-0,391
39,882	56,083	-0,382	-0,261
40,896	154,011	-0,241	-0,233
41,911	65,643	-0,366	-0,261
42,926	52,828	-0,315	-0,212
43,940	47,648	-0,317	-0,209
44,955	79,275	-0,403	-0,304
45,969	55,742	-0,443	-0,302
46,984	158,613	-0,250	-0,245
47,999	73,688	-0,304	-0,224
49,013	-30,938	-0,404	-0,160
50,028	117,344	-0,343	-0,297
51,042	-64,260	-0,324	-0,092
52,057	-6,986	-0,230	-0,110
53,071	34,010	-0,499	-0,306
54,086	92,515	-0,415	-0,330
55,101	739,320	-0,131	-0,248
56,115	378,190	-0,248	-0,359
57,130	200,134	-0,245	-0,266
58,144	134,807	-0,385	-0,352
59,159	55,596	-0,423	-0,288
60,174	82,518	-0,377	-0,288
61,188	110,945	-0,300	-0,254
62,203	138,789	-0,236	-0,219
63,217	72,420	-0,269	-0,198
64,232	99,844	-0,327	-0,267
65,247	-6,264	-0,385	-0,184
66,261	84,787	-0,401	-0,309
67,276	83,193	-0,316	-0,242
68,290	229,425	-0,242	-0,278
69,305	70,594	-0,345	-0,251
70,320	-8,979	-0,421	-0,198
71,334	-3,739	-0,428	-0,209
72,349	98,888	-0,262	-0,212
73,363	244,535	-0,268	-0,317
74,378	38,124	-0,363	-0,227
75,393	99,342	-0,301	-0,244
76,407	128,488	-0,196	-0,175
77,422	-57,108	-0,351	-0,108
78,436	-64,802	-0,346	-0,098
79,451	87,072	-0,353	-0,274
80,466	-22,446	-0,375	-0,159
81,480	77,637	-0,317	-0,237
82,495	194,123	-0,327	-0,349
83,509	62,515	-0,365	-0,256
84,524	30,216	-0,345	-0,206
85,539	56,243	-0,277	-0,189
86,553	-10,748	-0,335	-0,155
87,568	32,013	-0,326	-0,197
88,582	-22,426	-0,441	-0,187
89,597	164,070	-0,278	-0,275
90,611	12,593	-0,282	-0,153
91,626	36,469	-0,253	-0,156
92,641	-48,398	-0,239	-0,080
93,655	38,036	-0,272	-0,170
94,670	30,403	-0,330	-0,198
95,684	-28,078	-0,325	-0,131
96,699	15,661	-0,312	-0,172
97,714	220,898	-0,158	-0,178
98,728	604,036	-0,137	-0,241
99,743	166,347	-0,249	-0,248
100,757	118,641	-0,317	-0,275
101,772	27,406	-0,314	-0,185
102,787	65,702	-0,289	-0,206
103,801	57,271	-0,278	-0,190
104,816	103,020	-0,280	-0,230
105,830	148,715	-0,210	-0,199
106,845	0,184	-0,261	-0,130
107,860	-41,660	-0,295	-0,106
108,874	-41,639	-0,249	-0,089
109,889	187,852	-0,329	-0,345
110,903	22,360	-0,260	-0,149
111,918	-28,652	-0,215	-0,086
112,933	-47,745	-0,197	-0,066
113,947	90,591	-0,219	-0,172
114,962	59,886	-0,242	-0,167
115,976	0,304	-0,246	-0,122
116,991	18,325	-0,362	-0,202
118,006	108,311	-0,308	-0,257
119,020	124,103	-0,271	-0,239
120,035	-52,547	-0,288	-0,093
121,049	41,912	-0,244	-0,155
122,064	-65,242	-0,313	-0,088
123,079	69,917	-0,222	-0,160
124,093	13,958	-0,272	-0,148
125,108	55,922	-0,298	-0,202
126,122	243,464	-0,219	-0,258
127,137	-53,406	-0,116	-0,037
128,151	27,217	-0,315	-0,185
129,166	-25,515	-0,251	-0,103
130,181	90,216	-0,279	-0,219
131,195	-25,787	-0,311	-0,128
132,210	415,084	-0,201	-0,301
133,224	-30,910	-0,311	-0,122
134,239	-68,797	-0,200	-0,054
135,254	139,128	-0,215	-0,198
136,268	71,766	-0,176	-0,128
137,283	49,072	-0,295	-0,194
138,297	120,376	-0,244	-0,212
139,312	142,162	-0,219	-0,203
140,327	383,753	-0,182	-0,263
141,341	200,164	-0,221	-0,238
142,356	736,346	-0,148	-0,279
143,370	-16,487	-0,256	-0,113
144,385	72,545	-0,168	-0,122
145,400	169,208	-0,242	-0,242
146,414	173,295	-0,283	-0,286
147,429	256,789	-0,146	-0,176
148,443	205,314	-0,179	-0,195
149,458	-52,017	-0,263	-0,085
150,473	-68,617	-0,130	-0,035
151,487	125,925	-0,233	-0,205
152,502	63,962	-0,260	-0,182
153,516	68,575	-0,261	-0,187
154,531	338,900	-0,236	-0,322
155,546	120,372	-0,276	-0,239
156,560	550,856	-0,117	-0,198
157,575	130,878	-0,248	-0,222
158,589	377,408	-0,167	-0,239
159,604	-118,971	-0,307	-0,037
160,619	75,916	-0,207	-0,153
161,633	271,952	-0,195	-0,240
162,648	11,328	-0,233	-0,124
163,662	192,116	-0,205	-0,216
164,677	-29,334	-0,256	-0,102
165,692	30,406	-0,273	-0,162
166,706	17,653	-0,251	-0,139
167,721	151,685	-0,108	-0,103
168,735	-37,175	-0,274	-0,102
169,750	-31,800	-0,391	-0,152
170,764	97,591	-0,170	-0,136
171,779	132,036	-0,191	-0,172
172,794	44,882	-0,120	-0,077
173,808	75,455	-0,234	-0,172
174,823	181,364	-0,240	-0,246
175,837	17,785	-0,267	-0,148
176,852	112,604	-0,251	-0,212
177,867	66,356	-0,174	-0,123
178,881	-26,108	-0,217	-0,089
179,896	182,647	-0,196	-0,202
180,910	240,337	-0,258	-0,301
181,925	-107,217	-0,222	0,034
182,940	-87,635	-0,228	0,048
183,954	28,760	-0,304	-0,179
184,969	316,091	-0,113	-0,149
185,983	239,180	-0,127	-0,147
186,998	14,569	-0,210	-0,114
188,013	13,286	-0,149	-0,080
189,027	28,161	-0,353	-0,207
190,042	-54,912	-0,393	-0,123
191,056	144,632	-0,104	-0,097
192,071	-93,035	-0,209	-0,040
193,086	190,227	-0,231	-0,242
194,100	153,079	-0,116	-0,111
195,115	112,574	-0,196	-0,165
196,129	146,339	-0,262	-0,245
197,144	149,660	-0,123	-0,116
198,159	239,745	-0,188	-0,218
199,173	182,419	-0,225	-0,231
200,188	228,152	-0,183	-0,207
201,202	156,375	-0,155	-0,149
202,217	61,780	-0,222	-0,153
203,232	-145,535	-0,270	-0,017
204,246	296,893	-0,186	-0,238
205,261	-67,307	-0,188	-0,051
206,275	75,725	-0,249	-0,183
207,290	-169,030	-0,262	-0,007
208,304	-149,487	-0,143	0,008
209,319	-160,856	-0,190	0,007
210,334	124,083	-0,226	-0,197
211,348	217,229	-0,210	-0,233
212,363	-200,000	0,014	-0,218
213,377	122,220	-0,179	-0,155
214,392	155,843	-0,125	-0,119
215,407	-28,858	-0,115	-0,046
216,421	200,999	-0,213	-0,228
217,436	-14,832	-0,142	-0,063
218,450	579,519	-0,131	-0,224
219,465	217,650	-0,153	-0,169
220,480	229,041	-0,145	-0,165
221,494	-200,000	0,020	-0,156
222,509	238,055	-0,198	-0,228
223,523	272,177	-0,148	-0,181
224,538	-37,764	-0,304	-0,112
225,553	-13,619	-0,199	-0,089
226,567	-59,472	-0,272	-0,081
227,582	-49,392	-0,178	-0,059
228,596	190,402	-0,209	-0,218
229,611	132,709	-0,138	-0,124
230,626	-145,012	-0,132	-0,008
231,640	513,909	-0,106	-0,173
232,655	131,231	-0,206	-0,184
233,669	800,000	-0,151	-0,323
234,684	25,872	-0,232	-0,134
235,699	76,091	-0,218	-0,160
236,713	-200,000	-0,092	0,000
237,728	800,000	-0,056	-0,139
238,742	35,293	-0,136	-0,083
239,757	201,195	-0,155	-0,166
240,772	14,816	-0,143	-0,077
241,786	170,045	-0,272	-0,270
242,801	404,847	-0,077	-0,113
243,815	800,000	-0,105	-0,207
244,830	13,537	-0,262	-0,141
245,844	-119,662	-0,147	0,017
246,859	60,770	-0,171	-0,118
247,874	119,139	-0,264	-0,226
248,888	59,076	-0,198	-0,135
249,903	336,924	-0,115	-0,155
250,917	395,225	-0,122	-0,176
251,932	70,673	-0,205	-0,147
252,947	11,541	-0,186	-0,098
253,961	232,449	-0,133	-0,152
254,976	-48,809	-0,155	-0,051
255,990	151,255	-0,233	-0,220
257,005	-23,642	-0,301	-0,125
258,020	566,440	-0,043	-0,073
259,034	-5,590	-0,109	0,052
260,049	-103,818	-0,196	0,031
261,063	-12,376	-0,183	-0,082
262,078	213,909	-0,149	-0,163
263,093	203,234	-0,270	-0,289
264,107	-13,870	-0,190	-0,085
265,122	-125,245	-0,122	-0,013
266,136	35,115	-0,161	-0,098
267,151	-4,032	-0,199	-0,095
268,166	103,648	-0,189	-0,153
269,180	253,873	-0,184	-0,218
270,195	-119,363	-0,340	-0,040
271,209	800,000	-0,088	-0,208
272,224	42,372	-0,242	-0,152
273,239	-68,569	-0,149	-0,040
274,253	191,234	-0,104	-0,109
275,268	114,861	-0,142	-0,120
276,282	29,518	-0,109	-0,064
277,297	-9,233	-0,198	-0,091
278,312	205,378	-0,169	-0,181
279,326	95,043	-0,082	-0,065
280,341	-200,000	-0,028	-0,146
281,355	-77,975	-0,179	-0,042
282,370	-200,000	-0,021	0,067
283,384	213,573	-0,186	-0,203
284,399	3,358	-0,221	-0,111
285,414	-24,352	-0,287	-0,118
286,428	-62,220	-0,084	-0,024
287,443	217,521	-0,197	-0,217
288,457	494,865	-0,119	-0,189
289,472	96,993	-0,137	-0,108
290,487	-26,484	-0,194	-0,078
291,501	24,302	-0,147	-0,084
292,516	15,975	-0,280	-0,152
293,530	82,715	-0,258	-0,194
294,545	172,856	-0,149	-0,148
295,560	249,282	-0,100	-0,117
296,574	-26,020	-0,240	-0,097
297,589	-68,065	-0,167	-0,045
298,603	235,369	-0,183	-0,208
299,618	-118,386	-0,173	-0,021
300,633	102,606	-0,111	-0,090
301,647	-200,000	-0,017	-0,140
302,662	21,459	-0,233	-0,130
303,676	437,115	-0,116	-0,175
304,691	413,364	-0,163	-0,240
305,706	-56,202	-0,101	-0,031
306,720	28,257	-0,166	-0,097
307,735	711,489	-0,058	-0,107
308,749	2,115	-0,151	-0,075
309,764	800,000	-0,104	-0,199
310,779	800,000	-0,030	-0,063
311,793	-147,679	-0,149	-0,008
312,808	8,385	-0,108	-0,056
313,822	-102,780	-0,115	0,019
314,837	68,137	-0,089	0,063
315,852	268,770	-0,088	-0,107
316,866	-45,799	-0,164	-0,055
317,881	-200,000	-0,013	-0,104
318,895	155,597	-0,106	-0,101
319,910	516,547	-0,166	-0,268
320,925	-119,066	-0,190	-0,023
321,939	232,497	-0,137	-0,155
322,954	266,931	-0,157	-0,189
323,968	-139,333	-0,217	-0,016
324,983	78,720	-0,157	-0,115
325,997	-200,000	-0,006	-0,174
327,012	248,212	-0,100	-0,117
328,027	1,593	-0,170	-0,084
329,041	-18,855	-0,182	-0,078
330,056	8,154	-0,129	-0,067
331,070	4,688	-0,117	-0,059
332,085	124,889	-0,148	-0,128
333,100	185,553	-0,186	-0,191
334,114	443,804	-0,132	-0,200
335,129	-152,865	-0,299	0,014
336,143	-94,774	-0,147	-0,027
337,158	180,841	-0,173	-0,175
338,173	213,773	-0,131	-0,143
339,187	-3,825	-0,063	-0,030
340,202	-160,190	-0,197	0,007
341,216	317,821	-0,201	-0,262
342,231	235,653	-0,169	-0,193
343,246	-66,675	-0,065	-0,018
344,260	267,830	-0,056	-0,067
345,275	200,841	-0,138	-0,146
346,289	-22,750	-0,191	-0,079
347,304	114,791	-0,057	-0,047
348,319	-154,505	-0,179	0,008
349,333	-78,023	-0,198	-0,047
350,348	291,963	-0,196	-0,245
351,362	-200,000	-0,014	-0,159
352,377	-149,772	-0,150	0,008
353,392	20,563	-0,083	-0,046
354,406	13,216	-0,186	-0,098
355,421	208,188	1311,910	1409,115
356,435	160,176	1472,319	1409,619
