DTS Sentinel unit serial number:	SN410029Multiplexer serial number:	ORYXHardware model number:	OX2-SRSoftware version number:	ORYX F/W v4,00 Oryx Data Collector v3.7.2.0data status	okinstallation	B3 Nyhavnadifferential loss correction	single-endedforward channel	channel 1reverse channel	N/Adate	2023/12/02time	18:32:30forward acquisition time	300,00reverse acquisition time	0,00gamma	499,1914k internal	0,3199k external	0,3199temperature offset calibration	1,0000default loss term (dB/km)	0,3820temperature slope calibration	1,0000multiplexer offset coefficient	1,0000multiplexer slope coefficient	1,0000fibre end	0,00T internal ref (°C)	13,57T ext. ref 1 (°C)	-1,75T ext. ref 2 (°C)	-1,78length (m)	temperature (°C)	Stokes	anti-Stokes-744,400	144,047	-0,278	-0,270
-743,385	-200,000	0,031	0,251
-742,371	157,595	-0,268	-0,270
-741,356	-200,000	-0,046	0,407
-740,342	271,076	-0,190	-0,244
-739,327	800,000	0,119	0,340
-738,312	188,252	-0,277	-0,301
-737,298	-200,000	-0,059	0,355
-736,283	85,851	-0,152	-0,122
-735,269	657,346	-0,053	0,099
-734,254	635,415	-0,134	-0,248
-733,239	3,974	-0,150	0,079
-732,225	-200,000	0,002	-0,271
-731,210	270,456	0,076	0,097
-730,196	231,997	-0,042	-0,050
-729,181	113,065	-0,090	-0,079
-728,167	73,082	-0,024	0,018
-727,152	-108,207	-0,096	-0,015
-726,137	-108,619	-0,169	0,026
-725,123	581,476	-0,088	-0,158
-724,108	800,000	-0,102	-0,230
-723,094	227,725	-0,121	-0,143
-722,079	65,548	-0,116	-0,085
-721,064	-32,453	0,110	0,044
-720,050	-200,000	0,009	-0,053
-719,035	-18,619	0,033	-0,015
-718,021	800,000	-0,027	0,086
-717,006	294,422	-0,063	0,084
-715,991	301,179	-0,026	-0,035
-714,977	800,000	-0,070	-0,143
-713,962	800,000	-0,033	0,084
-712,948	47,841	0,021	-0,014
-711,933	-200,000	-0,018	0,158
-710,918	164,201	-0,016	-0,017
-709,904	22,585	-0,120	-0,071
-708,889	-15,574	-0,033	0,015
-707,875	673,775	0,066	-0,125
-706,860	249,877	-0,084	-0,104
-705,845	644,022	-0,010	0,019
-704,831	330,863	-0,039	0,055
-703,816	-200,000	-0,029	0,243
-702,802	249,393	-0,084	-0,104
-701,787	701,406	-0,099	-0,191
-700,772	-200,000	-0,002	-0,099
-699,758	-60,766	0,084	0,026
-698,743	231,618	0,018	0,022
-697,729	-145,268	-0,083	0,005
-696,714	-1,691	-0,104	-0,053
-695,699	28,664	0,051	0,031
-694,685	-50,210	-0,140	0,048
-693,670	-50,187	-0,013	0,005
-692,656	800,000	0,042	-0,108
-691,641	-110,557	-0,046	-0,007
-690,627	-77,610	0,052	0,013
-689,612	488,168	0,042	0,069
-688,597	-200,000	0,018	-0,148
-687,583	354,355	-0,029	-0,042
-686,568	554,784	0,058	-0,101
-685,554	235,211	-0,036	0,043
-684,539	-200,000	0,001	-0,026
-683,524	-180,173	0,040	-0,001
-682,510	33,039	-0,088	0,055
-681,495	-50,643	0,042	-0,014
-680,481	-192,690	-0,144	0,001
-679,466	-128,612	-0,107	-0,011
-678,451	-200,000	0,005	-0,048
-677,437	-117,434	0,063	0,008
-676,422	165,086	0,075	-0,077
-675,408	475,333	0,076	-0,125
-674,393	-72,606	-0,112	-0,030
-673,378	-200,000	-0,032	-0,124
-672,364	-200,000	0,058	-0,187
-671,349	132,656	-0,071	-0,066
-670,335	442,357	-0,023	0,037
-669,320	16,794	-0,053	-0,031
-668,305	-116,460	0,117	-0,015
-667,291	6,297	-0,091	0,049
-666,276	800,000	0,042	-0,132
-665,262	781,499	-0,062	-0,125
-664,247	662,568	0,005	-0,009
-663,232	800,000	0,009	-0,022
-662,218	-15,314	-0,046	0,021
-661,203	-101,763	0,095	0,017
-660,189	237,139	0,052	-0,062
-659,174	-200,000	-0,035	0,139
-658,159	-200,000	-0,005	-0,080
-657,145	-200,000	0,031	-0,231
-656,130	-200,000	0,012	-0,161
-655,116	-92,267	-0,064	0,013
-654,101	-0,419	0,165	0,085
-653,086	-82,884	-0,085	-0,020
-652,072	800,000	-0,041	-0,113
-651,057	2,464	-0,139	-0,073
-650,043	800,000	-0,014	0,042
-649,028	46,193	0,057	-0,038
-648,014	-67,449	-0,187	0,053
-646,999	204,334	0,109	-0,122
-645,984	88,022	-0,045	-0,036
-644,970	800,000	0,037	-0,105
-643,955	208,990	-0,164	-0,187
-642,941	693,127	-0,037	-0,070
-641,926	78,172	-0,112	-0,086
-640,911	111,767	0,093	0,081
-639,897	90,312	0,123	0,100
-638,882	258,443	-0,062	-0,077
-637,868	694,474	-0,009	0,017
-636,853	-200,000	0,033	-0,126
-635,838	614,453	-0,026	-0,048
-634,824	800,000	0,026	0,063
-633,809	-98,704	0,036	-0,007
-632,795	71,794	-0,084	-0,063
-631,780	38,687	0,054	0,035
-630,765	800,000	0,031	-0,099
-629,751	-200,000	-0,007	-0,109
-628,736	36,427	-0,029	-0,019
-627,722	-96,308	-0,100	-0,019
-626,707	-200,000	-0,011	0,044
-625,692	-200,000	0,003	-0,084
-624,678	-36,498	-0,059	0,023
-623,663	800,000	0,038	-0,110
-622,649	800,000	-0,062	-0,127
-621,634	-105,195	-0,095	0,016
-620,619	325,019	0,046	-0,064
-619,605	-46,182	-0,140	-0,050
-618,590	-200,000	0,011	0,096
-617,576	-200,000	0,018	-0,068
-616,561	-28,755	0,079	0,033
-615,546	168,655	0,060	0,062
-614,532	-56,038	-0,091	0,029
-613,517	800,000	-0,011	-0,035
-612,503	23,224	-0,080	0,047
-611,488	-200,000	0,022	-0,080
-610,474	-200,000	-0,000	0,126
-609,459	-200,000	-0,017	-0,063
-608,444	-144,482	0,104	0,007
-607,430	800,000	-0,069	-0,201
-606,415	-76,137	-0,057	0,014
-605,401	-121,999	0,061	-0,007
-604,386	-131,792	-0,248	0,023
-603,371	800,000	0,026	-0,082
-602,357	394,480	-0,020	-0,030
-601,342	-63,861	-0,121	0,036
-600,328	-79,725	-0,053	-0,013
-599,313	45,340	-0,032	-0,021
-598,298	191,854	0,090	-0,098
-597,284	-93,221	0,278	0,055
-596,269	-79,257	-0,061	-0,015
-595,255	-138,197	-0,113	-0,009
-594,240	-200,000	0,008	-0,039
-593,225	36,761	0,085	0,054
-592,211	180,743	0,023	-0,025
-591,196	-25,159	0,117	0,050
-590,182	-191,779	0,100	0,001
-589,167	800,000	0,040	0,123
-588,152	336,466	0,039	0,054
-587,138	47,435	-0,079	-0,053
-586,123	185,606	-0,059	0,063
-585,109	-200,000	0,022	-0,146
-584,094	-18,512	-0,050	-0,023
-583,079	-200,000	-0,007	-0,092
-582,065	-200,000	0,025	0,092
-581,050	-200,000	0,012	-0,077
-580,036	318,666	-0,028	0,038
-579,021	800,000	-0,026	-0,055
-578,006	800,000	0,006	-0,014
-576,992	-200,000	-0,047	-0,170
-575,977	800,000	-0,038	-0,093
-574,963	-200,000	-0,005	-0,045
-573,948	-33,755	0,080	0,032
-572,934	-18,720	-0,018	0,008
-571,919	-59,014	-0,207	-0,064
-570,904	-200,000	0,006	-0,128
-569,890	800,000	-0,050	-0,150
-568,875	223,083	0,113	0,132
-567,861	800,000	0,051	0,110
-566,846	190,013	-0,040	0,044
-565,831	144,390	0,026	-0,025
-564,817	-200,000	0,033	-0,109
-563,802	355,343	-0,036	-0,051
-562,788	60,099	0,067	-0,048
-561,773	800,000	0,015	0,033
-560,758	-20,675	-0,118	-0,052
-559,744	-23,974	-0,014	0,006
-558,729	36,272	0,063	-0,040
-557,715	192,206	-0,076	-0,083
-556,700	-12,555	-0,084	-0,039
-555,685	800,000	-0,037	-0,085
-554,671	-200,000	-0,001	-0,026
-553,656	-200,000	0,015	0,095
-552,642	15,926	-0,115	-0,065
-551,627	800,000	-0,055	0,148
-550,612	404,998	-0,072	0,110
-549,598	-200,000	-0,006	-0,079
-548,583	16,434	-0,121	0,069
-547,569	414,032	0,014	-0,021
-546,554	800,000	-0,054	0,120
-545,539	37,590	0,091	0,058
-544,525	-200,000	-0,013	0,119
-543,510	-12,204	-0,053	-0,025
-542,496	-108,357	-0,094	0,015
-541,481	-13,696	0,125	0,058
-540,466	445,695	0,053	0,085
-539,452	183,925	0,063	0,068
-538,437	800,000	0,062	0,164
-537,423	800,000	-0,028	0,081
-536,408	800,000	-0,037	-0,077
-535,393	-200,000	0,004	0,105
-534,379	-160,150	-0,133	-0,005
-533,364	-179,046	0,023	0,000
-532,350	-81,630	0,104	-0,024
-531,335	-200,000	0,039	0,166
-530,321	97,092	-0,058	0,048
-529,306	-200,000	0,009	-0,111
-528,291	-200,000	-0,016	-0,090
-527,277	-200,000	0,037	-0,122
-526,262	-65,894	0,070	-0,020
-525,248	-64,046	-0,095	0,028
-524,233	-143,740	-0,029	-0,002
-523,218	23,199	-0,141	-0,083
-522,204	-70,392	-0,074	0,020
-521,189	49,866	-0,107	0,073
-520,175	224,223	0,066	-0,077
-519,160	-100,418	-0,070	0,012
-518,145	-200,000	-0,024	-0,079
-517,131	342,698	-0,021	-0,030
-516,116	-98,432	0,074	-0,014
-515,102	-54,330	-0,160	0,052
-514,087	-200,000	0,007	-0,064
-513,072	53,651	0,116	-0,080
-512,058	-70,236	-0,107	-0,029
-511,043	-64,911	-0,145	-0,042
-510,029	293,822	0,100	0,132
-509,014	-122,870	0,111	0,013
-507,999	35,785	0,113	0,071
-506,985	182,860	0,034	0,036
-505,970	124,962	-0,154	-0,140
-504,956	-200,000	-0,022	-0,081
-503,941	-200,000	0,009	0,120
-502,926	800,000	0,044	-0,115
-501,912	-200,000	-0,012	-0,109
-500,897	172,914	-0,034	0,035
-499,883	400,210	0,054	0,082
-498,868	-106,430	-0,017	-0,003
-497,853	107,974	0,014	0,012
-496,839	-36,170	-0,039	0,015
-495,824	-56,466	0,117	0,037
-494,810	-178,824	0,057	0,001
-493,795	125,678	0,054	-0,049
-492,781	583,345	0,042	0,075
-491,766	800,000	0,019	0,046
-490,751	800,000	-0,074	-0,151
-489,737	-120,591	0,185	-0,022
-488,722	-200,000	-0,004	0,095
-487,708	800,000	0,031	0,063
-486,693	231,607	0,035	-0,041
-485,678	103,357	0,070	0,059
-484,664	-0,088	-0,057	0,029
-483,649	-102,253	0,087	-0,015
-482,635	-200,000	-0,027	-0,108
-481,620	85,569	0,167	0,132
-480,605	-87,956	0,132	0,028
-479,591	-132,073	0,045	0,004
-478,576	146,967	-0,125	0,121
-477,562	-200,000	0,012	0,068
-476,547	17,461	-0,051	-0,029
-475,532	-200,000	0,004	-0,061
-474,518	340,538	-0,034	0,048
-473,503	800,000	0,087	0,192
-472,489	800,000	0,047	0,120
-471,474	562,858	0,059	0,103
-470,459	-200,000	-0,123	0,000
-469,445	-177,704	0,068	0,001
-468,430	669,667	0,025	0,048
-467,416	397,598	-0,064	-0,096
-466,401	0,956	0,124	0,064
-465,386	631,595	0,061	0,111
-464,372	51,151	0,087	0,060
-463,357	-140,347	-0,041	-0,003
-462,343	141,368	0,076	-0,073
-461,328	430,365	0,026	0,041
-460,313	-164,232	-0,148	-0,005
-459,299	-200,000	0,023	0,153
-458,284	263,816	0,072	0,090
-457,270	-74,517	-0,121	0,031
-456,255	-28,040	0,035	-0,014
-455,241	-69,912	-0,142	-0,039
-454,226	-47,732	-0,043	0,015
-453,211	402,234	-0,031	-0,047
-452,197	800,000	0,074	0,169
-451,182	554,024	-0,035	0,061
-450,168	800,000	0,028	0,084
-449,153	530,346	-0,039	0,066
-448,138	800,000	0,059	-0,175
-447,124	800,000	-0,013	0,039
-446,109	-110,794	0,152	-0,022
-445,095	-200,000	-0,016	-0,064
-444,080	20,514	0,139	-0,081
-443,065	800,000	0,048	0,142
-442,051	161,289	0,132	-0,133
-441,036	-121,697	-0,120	-0,014
-440,022	800,000	-0,016	-0,039
-439,007	-124,145	-0,108	0,012
-437,992	-200,000	-0,003	0,042
-436,978	31,454	-0,114	-0,070
-435,963	-63,459	0,006	-0,002
-434,949	-50,888	0,065	-0,022
-433,934	-200,000	0,029	0,123
-432,919	503,778	-0,037	0,061
-431,905	-185,626	0,147	0,002
-430,890	-113,769	-0,081	0,011
-429,876	-200,000	-0,015	-0,102
-428,861	-160,447	0,062	0,002
-427,846	-33,316	-0,123	-0,049
-426,832	145,276	-0,060	0,058
-425,817	-56,718	0,132	-0,042
-424,803	-180,327	0,020	0,000
-423,788	800,000	0,061	0,146
-422,773	800,000	0,042	0,086
-421,759	-144,286	0,168	-0,011
-420,744	-200,000	-0,011	-0,113
-419,730	-200,000	0,013	-0,045
-418,715	406,898	-0,081	-0,123
-417,701	-56,994	0,052	0,016
-416,686	-200,000	-0,021	0,130
-415,671	800,000	-0,036	0,073
-414,657	800,000	-0,047	0,100
-413,642	84,004	0,044	-0,034
-412,628	-200,000	0,023	-0,074
-411,613	800,000	0,013	0,035
-410,598	18,924	0,118	0,068
-409,584	92,793	0,075	-0,061
-408,569	-200,000	-0,032	0,113
-407,555	472,451	0,043	0,070
-406,540	60,725	-0,049	-0,035
-405,525	201,308	-0,066	0,073
-404,511	202,750	0,018	0,020
-403,496	800,000	-0,024	-0,058
-402,482	22,471	0,060	0,035
-401,467	-200,000	0,005	-0,026
-400,452	-200,000	0,052	0,201
-399,438	-83,176	0,061	0,014
-398,423	172,406	-0,022	0,023
-397,409	-78,945	-0,143	-0,035
-396,394	-200,000	0,009	0,032
-395,379	800,000	-0,021	0,045
-394,365	788,807	-0,031	0,062
-393,350	-71,986	0,162	0,043
-392,336	41,251	0,166	0,108
-391,321	698,001	-0,033	-0,062
-390,306	61,514	0,076	-0,054
-389,292	244,056	-0,096	-0,116
-388,277	-132,065	-0,047	0,004
-387,263	103,326	0,082	0,069
-386,248	-92,111	0,122	0,025
-385,233	-200,000	-0,011	-0,120
-384,219	31,604	-0,056	-0,034
-383,204	10,356	-0,160	0,087
-382,190	478,318	-0,047	0,076
-381,175	645,528	-0,019	-0,034
-380,160	800,000	0,029	0,060
-379,146	65,180	0,134	0,097
-378,131	35,830	0,038	-0,024
-377,117	800,000	-0,044	-0,111
-376,102	140,829	-0,006	0,006
-375,088	-99,019	-0,144	0,026
-374,073	-200,000	-0,006	-0,089
-373,058	374,154	-0,039	0,057
-372,044	-25,781	-0,019	-0,008
-371,029	35,572	0,009	0,006
-370,015	14,676	-0,079	0,044
-369,000	33,993	0,075	-0,047
-367,985	-200,000	0,002	-0,143
-366,971	-42,559	-0,079	-0,029
-365,956	-26,896	-0,060	-0,025
-364,942	36,338	-0,080	0,050
-363,927	-21,579	0,151	0,066
-362,912	-1,581	-0,074	-0,037
-361,898	160,824	-0,057	0,057
-360,883	-98,513	0,173	0,031
-359,869	616,446	-0,045	-0,081
-358,854	12,933	-0,021	0,012
-357,839	-83,914	-0,079	-0,018
-356,825	-48,565	-0,036	-0,012
-355,810	21,614	-0,082	0,047
-354,796	800,000	0,025	0,071
-353,781	-50,392	-0,061	-0,020
-352,766	131,502	0,023	0,021
-351,752	61,856	0,088	-0,063
-350,737	24,352	0,032	-0,019
-349,723	-12,139	0,096	0,045
-348,708	112,840	0,103	0,089
-347,693	538,975	-0,045	0,076
-346,679	15,937	-0,094	0,053
-345,664	800,000	-0,010	0,029
-344,650	56,543	0,100	-0,070
-343,635	800,000	-0,022	-0,057
-342,620	276,171	0,068	-0,087
-341,606	-17,685	0,161	-0,072
-340,591	-200,000	0,002	-0,110
-339,577	19,893	-0,029	0,017
-338,562	-114,412	-0,105	0,014
-337,548	390,636	0,037	-0,055
-336,533	436,199	0,055	0,086
-335,518	20,151	0,033	-0,019
-334,504	-200,000	0,008	-0,038
-333,489	-19,457	-0,140	-0,062
-332,475	-174,585	-0,111	0,002
-331,460	57,442	-0,027	-0,019
-330,445	-13,861	-0,061	-0,028
-329,431	-200,000	-0,010	0,065
-328,416	-44,773	0,038	-0,013
-327,402	800,000	-0,003	-0,007
-326,387	278,018	-0,030	0,038
-325,372	-200,000	0,005	0,029
-324,358	734,943	-0,014	0,028
-323,343	6,339	-0,110	0,058
-322,329	-200,000	0,035	0,128
-321,314	-200,000	-0,024	0,139
-320,299	-16,353	0,033	0,015
-319,285	145,659	-0,069	0,066
-318,270	-164,949	0,054	-0,002
-317,256	271,966	0,090	-0,114
-316,241	191,048	-0,042	-0,045
-315,226	494,254	0,043	0,071
-314,212	-200,000	0,009	-0,043
-313,197	46,022	0,051	0,034
-312,183	-109,908	-0,024	-0,004
-311,168	-200,000	0,032	-0,118
-310,153	260,382	-0,063	0,078
-309,139	-97,930	-0,023	-0,004
-308,124	-70,244	0,063	0,017
-307,110	800,000	0,030	-0,080
-306,095	800,000	-0,010	0,031
-305,080	-131,730	-0,108	-0,010
-304,066	-58,812	-0,087	-0,027
-303,051	-200,000	-0,001	-0,038
-302,037	102,392	-0,013	0,011
-301,022	300,131	-0,058	0,077
-300,008	95,984	0,069	0,056
-298,993	58,193	0,011	-0,008
-297,978	-200,000	-0,015	-0,084
-296,964	-200,000	-0,001	-0,195
-295,949	5,241	-0,110	-0,058
-294,935	265,322	-0,055	0,068
-293,920	800,000	0,044	0,108
-292,905	736,329	0,046	0,089
-291,891	800,000	0,068	0,148
-290,876	-22,713	0,047	0,020
-289,862	148,993	-0,069	0,066
-288,847	-200,000	0,005	-0,175
-287,832	-200,000	-0,001	0,016
-286,818	19,718	-0,122	-0,070
-285,803	42,305	0,099	0,064
-284,789	800,000	-0,048	0,103
-283,774	173,004	0,108	0,111
-282,759	151,341	0,077	-0,075
-281,745	206,057	-0,099	-0,111
-280,730	-200,000	-0,009	-0,071
-279,716	78,016	-0,075	-0,057
-278,701	-89,063	0,099	0,021
-277,686	800,000	-0,064	0,128
-276,672	-174,266	0,151	-0,003
-275,657	-200,000	0,000	-0,006
-274,643	397,858	0,045	0,067
-273,628	-6,868	-0,080	-0,039
-272,613	9,613	0,052	-0,028
-271,599	-200,000	-0,021	0,094
-270,584	62,585	-0,093	0,066
-269,570	-200,000	-0,019	0,082
-268,555	800,000	-0,046	-0,122
-267,540	-8,663	-0,220	-0,105
-266,526	101,059	-0,102	-0,085
-265,511	800,000	-0,038	0,080
-264,497	105,842	0,026	0,022
-263,482	800,000	-0,011	0,026
-262,467	15,834	0,196	0,110
-261,453	-200,000	0,023	0,150
-260,438	82,371	-0,100	0,077
-259,424	13,719	0,027	0,015
-258,409	457,317	-0,076	-0,121
-257,395	-65,878	0,170	0,048
-256,380	-200,000	-0,003	0,047
-255,365	-200,000	0,018	-0,123
-254,351	800,000	0,044	0,109
-253,336	-200,000	0,006	-0,071
-252,322	-45,066	-0,171	-0,060
-251,307	-0,970	0,078	0,039
-250,292	-200,000	0,015	-0,111
-249,278	800,000	0,062	0,144
-248,263	18,090	0,069	0,039
-247,249	-200,000	-0,000	0,017
-246,234	800,000	0,066	-0,141
-245,219	13,531	-0,106	-0,059
-244,205	56,987	0,060	-0,042
-243,190	800,000	0,042	-0,104
-242,176	177,304	0,005	-0,006
-241,161	306,831	-0,058	-0,078
-240,146	-200,000	-0,001	0,019
-239,132	21,842	-0,171	-0,099
-238,117	135,181	-0,095	0,089
-237,103	800,000	0,008	-0,024
-236,088	-200,000	-0,040	-0,179
-235,073	187,546	0,054	0,057
-234,059	-200,000	-0,015	0,138
-233,044	214,597	0,020	0,023
-232,030	800,000	-0,028	0,064
-231,015	107,874	0,077	0,065
-230,000	48,000	0,020	-0,013
-228,986	-200,000	-0,047	0,168
-227,971	-200,000	-0,008	0,029
-226,957	-38,818	0,100	0,038
-225,942	-114,682	0,076	-0,010
-224,927	-200,000	-0,002	-0,028
-223,913	164,595	-0,196	-0,197
-222,898	-67,587	0,119	-0,033
-221,884	84,966	0,073	0,057
-220,869	114,231	0,041	-0,036
-219,855	-200,000	0,016	0,058
-218,840	-136,475	-0,047	0,004
-217,825	-200,000	0,020	0,068
-216,811	-41,071	-0,111	-0,041
-215,796	-140,357	-0,128	0,009
-214,782	800,000	0,026	-0,069
-213,767	210,066	0,121	-0,135
-212,752	-200,000	-0,007	-0,071
-211,738	70,382	-0,046	0,034
-210,723	223,265	0,153	-0,176
-209,709	-6,126	-0,069	-0,034
-208,694	-89,016	-0,016	-0,003
-207,679	217,699	-0,005	-0,006
-206,665	63,678	0,072	0,051
-205,650	800,000	0,030	-0,076
-204,636	207,336	0,059	0,065
-203,621	175,904	-0,016	0,016
-202,606	-127,891	-0,073	0,007
-201,592	113,265	-0,071	-0,061
-200,577	22,662	-0,160	-0,093
-199,563	165,584	0,067	-0,067
-198,548	-52,418	-0,035	-0,011
-197,533	-200,000	-0,003	-0,113
-196,519	-98,730	-0,033	-0,006
-195,504	-200,000	0,002	0,066
-194,490	-200,000	-0,023	-0,118
-193,475	800,000	0,061	0,124
-192,460	99,927	0,128	-0,105
-191,446	-42,039	-0,074	-0,027
-190,431	-200,000	-0,000	-0,005
-189,417	461,739	0,087	0,139
-188,402	-157,563	-0,102	-0,004
-187,387	-200,000	-0,011	-0,091
-186,373	-111,016	0,045	0,007
-185,358	51,070	0,108	-0,073
-184,344	-200,000	0,014	0,054
-183,329	63,417	0,176	0,125
-182,315	800,000	0,024	-0,049
-181,300	296,221	-0,036	0,047
-180,285	44,844	-0,133	0,087
-179,271	-200,000	-0,006	-0,094
-178,256	-200,000	0,009	-0,058
-177,242	284,646	0,016	0,020
-176,227	192,132	-0,074	0,080
-175,212	-39,575	0,074	-0,027
-174,198	64,472	0,131	-0,094
-173,183	800,000	0,016	-0,041
-172,169	-200,000	0,029	-0,117
-171,154	-200,000	0,000	-0,007
-170,139	800,000	0,031	-0,090
-169,125	120,213	0,080	0,071
-168,110	-200,000	-0,004	-0,025
-167,096	-81,564	0,111	0,026
-166,081	-189,265	-0,111	0,001
-165,066	-200,000	-0,035	0,121
-164,052	273,805	0,039	0,049
-163,037	-200,000	0,049	-0,000
-162,023	800,000	0,012	0,036
-161,008	800,000	0,079	0,191
-159,993	643,419	0,019	-0,035
-158,979	-200,000	-0,007	-0,037
-157,964	-200,000	-0,006	-0,063
-156,950	-61,565	-0,086	-0,026
-155,935	203,158	0,052	0,057
-154,920	593,529	-0,020	-0,035
-153,906	-200,000	-0,031	0,100
-152,891	17,219	0,068	0,038
-151,877	550,483	-0,074	-0,127
-150,862	27,061	-0,021	0,012
-149,847	-200,000	-0,023	-0,120
-148,833	-200,000	0,009	-0,047
-147,818	171,632	0,038	0,039
-146,804	648,864	-0,018	0,034
-145,789	596,756	-0,074	0,131
-144,775	-160,478	-0,102	-0,004
-143,760	800,000	0,022	-0,055
-142,745	-84,224	0,023	-0,005
-141,731	-22,988	0,051	-0,022
-140,716	307,660	-0,072	0,095
-139,702	114,740	0,107	0,093
-138,687	3,488	-0,192	-0,099
-137,672	691,082	0,042	0,079
-136,658	729,594	-0,068	0,130
-135,643	-200,000	-0,021	0,144
-134,629	-68,268	-0,064	-0,018
-133,614	58,499	-0,029	0,020
-132,599	-0,341	0,137	-0,069
-131,585	14,569	0,098	0,054
-130,570	-76,357	-0,125	-0,031
-129,556	-34,025	0,063	0,025
-128,541	-82,950	-0,056	0,013
-127,526	-32,724	-0,056	-0,022
-126,512	-200,000	0,047	-0,195
-125,497	127,268	0,036	0,032
-124,483	800,000	-0,030	0,087
-123,468	78,906	0,154	0,117
-122,453	-96,885	-0,141	0,026
-121,439	108,334	-0,095	-0,081
-120,424	-149,900	-0,175	-0,010
-119,410	212,049	0,046	0,052
-118,395	-82,056	0,028	0,006
-117,380	-200,000	0,015	0,091
-116,366	800,000	0,014	-0,035
-115,351	-200,000	-0,029	-0,093
-114,337	800,000	-0,026	-0,072
-113,322	116,238	-0,105	-0,091
-112,307	-200,000	0,015	0,070
-111,293	-200,000	-0,032	0,155
-110,278	-12,565	-0,057	-0,026
-109,264	800,000	0,027	0,085
-108,249	-132,724	-0,010	0,001
-107,234	-200,000	-0,008	-0,071
-106,220	-200,000	0,022	-0,139
-105,205	436,774	0,089	0,138
-104,191	16,282	0,084	-0,047
-103,176	800,000	-0,049	0,110
-102,162	175,205	-0,082	0,084
-101,147	-200,000	-0,029	-0,109
-100,132	-121,363	-0,068	-0,008
-99,118	-26,760	-0,044	0,018
-98,103	-200,000	-0,027	0,088
-97,089	55,523	-0,030	0,020
-96,074	800,000	0,050	0,121
-95,059	47,550	0,043	0,028
-94,045	269,615	0,046	-0,057
-93,030	-56,512	0,152	-0,047
-92,016	-93,392	-0,077	0,015
-91,001	800,000	-0,096	0,200
-89,986	-200,000	-0,028	0,112
-88,972	-200,000	0,023	0,076
-87,957	641,932	0,006	0,011
-86,943	65,018	-0,138	0,099
-85,928	-200,000	0,021	-0,109
-84,913	98,208	0,037	0,030
-83,899	189,092	0,036	0,039
-82,884	730,605	0,056	-0,107
-81,870	-200,000	0,007	0,080
-80,855	-64,551	-0,038	-0,011
-79,840	63,496	-0,044	0,031
-78,826	-200,000	0,017	-0,149
-77,811	196,232	-0,068	-0,073
-76,797	-126,975	0,130	-0,013
-75,782	-200,000	-0,008	-0,038
-74,767	418,645	0,104	0,158
-73,753	-39,153	0,090	0,033
-72,738	-75,979	0,107	-0,027
-71,724	-135,374	-0,095	0,008
-70,709	333,672	0,056	-0,077
-69,694	99,712	0,080	-0,066
-68,680	800,000	0,032	-0,070
-67,665	-145,286	-0,034	0,002
-66,651	-81,560	0,095	-0,022
-65,636	-17,367	-0,144	-0,064
-64,622	-22,971	-0,056	-0,024
-63,607	-200,000	-0,005	0,061
-62,592	-24,569	-0,033	-0,014
-61,578	174,507	-0,059	0,061
-60,563	-200,000	-0,000	0,092
-59,549	188,921	0,028	0,030
-58,534	-43,983	-1,542	-0,546
-57,519	334,237	-1,470	-2,021
-56,505	-200,000	-0,475	-4,536
-55,490	262,697	0,906	1,116
-54,476	800,000	4,991	11,310
-53,461	-200,000	19,175	316,998
-52,446	-200,000	739,297	2333,673
-51,432	575,687	1655,255	2874,603
-50,417	78,768	1671,219	1265,004
-49,403	21,570	1543,906	887,368
-48,388	15,466	1466,080	812,951
-47,373	17,899	1456,442	819,336
-46,359	16,806	1446,384	808,402
-45,344	13,720	1441,649	790,939
-44,330	13,576	1439,797	789,204
-43,315	13,613	1438,214	788,482
-42,300	13,616	1436,540	787,547
-41,286	13,651	1435,074	786,879
-40,271	13,626	1433,884	786,077
-39,257	13,573	1432,669	785,127
-38,242	13,649	1431,329	784,719
-37,227	13,670	1430,104	784,118
-36,213	13,647	1428,911	783,323
-35,198	13,672	1427,653	782,724
-34,184	13,686	1426,859	782,320
-33,169	13,627	1425,275	781,140
-32,154	13,744	1424,224	781,090
-31,140	13,662	1423,080	780,042
-30,125	13,692	1421,913	779,515
-29,111	13,638	1421,074	778,770
-28,096	13,610	1419,802	777,908
-27,082	13,621	1418,566	777,253
-26,067	13,579	1417,582	776,485
-25,052	13,629	1416,158	775,909
-24,038	13,618	1415,297	775,353
-23,023	13,558	1414,520	774,613
-22,009	13,561	1413,629	774,110
-20,994	13,563	1412,318	773,374
-19,979	13,577	1411,624	773,025
-18,965	13,534	1410,857	772,374
-17,950	13,553	1409,772	771,841
-16,936	13,521	1408,930	771,198
-15,921	13,504	1407,594	770,356
-14,906	13,531	1406,649	769,935
-13,892	13,536	1405,859	769,493
-12,877	13,527	1404,977	768,940
-11,863	13,497	1404,165	768,324
-10,848	13,530	1403,058	767,844
-9,833	13,503	1402,238	767,238
-8,819	13,451	1401,599	766,614
-7,804	13,419	1400,545	765,861
-6,790	13,472	1399,282	765,386
-5,775	13,428	1398,422	764,679
-4,760	13,401	1397,497	764,016
-3,746	13,379	1396,756	763,482
-2,731	13,375	1395,932	762,982
-1,717	13,392	1394,929	762,483
-0,702	13,377	1393,247	761,463
0,313	17,150	1310,430	733,707
1,327	33,333	704,622	431,978
2,342	51,699	123,471	82,989
3,356	0,369	16,735	8,429
4,371	-9,888	3,387	1,589
5,386	-39,963	0,667	0,245
6,400	497,585	0,115	0,188
7,415	-86,226	-0,215	-0,047
8,429	189,241	-0,135	-0,143
9,444	150,942	-0,240	-0,231
10,459	210,269	-0,267	-0,297
11,473	92,050	-0,259	-0,206
12,488	52,748	-0,375	-0,253
13,502	294,670	-0,161	-0,208
14,517	18,374	-0,319	-0,179
15,531	63,051	-0,329	-0,232
16,546	55,496	-0,366	-0,250
17,561	175,242	-0,377	-0,387
18,575	147,393	-0,116	-0,110
19,590	69,255	-0,405	-0,294
20,604	88,906	-0,245	-0,193
21,619	155,158	-0,403	-0,392
22,634	63,078	-0,514	-0,363
23,648	58,901	-0,397	-0,275
24,663	168,019	-0,339	-0,341
25,677	64,995	-0,336	-0,239
26,692	16,905	-0,474	-0,265
27,707	57,506	-0,356	-0,245
28,721	26,470	-0,376	-0,222
29,736	-40,198	-0,473	-0,173
30,750	138,776	-0,354	-0,329
31,765	45,162	-0,516	-0,335
32,780	-1,325	-0,323	-0,160
33,794	151,909	-0,288	-0,277
34,809	46,183	-0,306	-0,200
35,823	26,019	-0,439	-0,258
36,838	102,841	-0,337	-0,278
37,853	27,167	-0,506	-0,299
38,867	82,147	-0,285	-0,218
39,882	67,704	-0,362	-0,260
40,896	138,691	-0,275	-0,255
41,911	109,336	-0,301	-0,254
42,926	108,582	-0,365	-0,307
43,940	48,342	-0,451	-0,297
44,955	437,510	-0,212	-0,326
45,969	78,020	-0,364	-0,274
46,984	-4,692	-0,167	-0,081
47,999	-59,609	-0,325	-0,098
49,013	104,183	-0,232	-0,192
50,028	76,610	-0,240	-0,179
51,042	230,921	-0,344	-0,398
52,057	151,137	-0,347	-0,332
53,071	67,852	-0,410	-0,295
54,086	226,743	-0,229	-0,262
55,101	66,325	-0,306	-0,219
56,115	149,983	-0,265	-0,254
57,130	83,333	-0,218	-0,167
58,144	67,168	-0,339	-0,243
59,159	71,916	-0,306	-0,224
60,174	167,156	-0,315	-0,315
61,188	310,615	-0,232	-0,307
62,203	85,356	-0,323	-0,250
63,217	351,834	-0,275	-0,385
64,232	15,549	-0,404	-0,223
65,247	-51,967	-0,351	-0,114
66,261	14,643	-0,464	-0,254
67,276	154,709	-0,380	-0,368
68,290	114,224	-0,430	-0,368
69,305	57,078	-0,313	-0,215
70,320	37,555	-0,346	-0,216
71,334	41,937	-0,409	-0,260
72,349	-67,492	-0,355	-0,097
73,363	39,860	-0,292	-0,184
74,378	161,311	-0,245	-0,241
75,393	-20,021	-0,260	-0,112
76,407	-103,986	-0,329	-0,053
77,422	54,792	-0,202	-0,137
78,436	-14,229	-0,313	-0,141
79,451	127,198	-0,271	-0,242
80,466	160,763	-0,240	-0,235
81,480	113,602	-0,312	-0,266
82,495	175,710	-0,262	-0,267
83,509	32,067	-0,266	-0,161
84,524	-0,083	-0,325	-0,162
85,539	-23,177	-0,316	-0,133
86,553	46,521	-0,258	-0,168
87,568	45,506	-0,265	-0,172
88,582	36,982	-0,310	-0,192
89,597	15,235	-0,279	-0,153
90,611	-106,001	-0,303	-0,047
91,626	84,399	-0,260	-0,200
92,641	-32,203	-0,290	-0,113
93,655	38,221	-0,287	-0,179
94,670	135,020	-0,250	-0,228
95,684	-11,771	-0,419	-0,192
96,699	44,198	-0,377	-0,242
97,714	-4,638	-0,233	-0,112
98,728	-200,000	-0,033	-0,202
99,743	22,444	-0,239	-0,137
100,757	-66,820	-0,216	-0,059
101,772	9,827	-0,330	-0,175
102,787	314,114	-0,229	-0,303
103,801	65,622	-0,322	-0,229
104,816	102,601	-0,338	-0,277
105,830	-200,000	-0,055	-0,188
106,845	-94,037	-0,186	-0,036
107,860	-17,549	-0,239	-0,105
108,874	40,033	-0,330	-0,208
109,889	15,315	-0,298	-0,164
110,903	5,612	-0,457	-0,236
111,918	14,572	-0,227	-0,124
112,933	399,801	-0,160	-0,236
113,947	116,356	-0,276	-0,237
114,962	107,590	-0,177	-0,147
115,976	0,105	-0,292	-0,145
116,991	186,685	-0,237	-0,248
118,006	26,508	-0,322	-0,189
119,020	187,034	-0,221	-0,231
120,035	71,278	-0,246	-0,179
121,049	-50,131	-0,204	-0,067
122,064	-98,352	-0,185	-0,033
123,079	44,619	-0,184	-0,119
124,093	20,968	-0,325	-0,184
125,108	97,964	-0,313	-0,252
126,122	-41,521	-0,312	-0,112
127,137	19,942	-0,245	-0,138
128,151	424,084	-0,167	-0,253
129,166	-35,279	-0,215	-0,082
130,181	116,600	-0,245	-0,210
131,195	507,004	-0,225	-0,367
132,210	385,465	-0,234	-0,338
133,224	121,264	-0,313	-0,273
134,239	-14,241	-0,257	-0,116
135,254	99,496	-0,161	-0,130
136,268	-106,653	-0,092	-0,014
137,283	70,895	-0,182	-0,132
138,297	40,140	-0,321	-0,201
139,312	249,626	-0,127	-0,151
140,327	6,147	-0,280	-0,145
141,341	168,919	-0,162	-0,162
142,356	182,845	-0,189	-0,196
143,370	147,042	-0,203	-0,191
144,385	-27,367	-0,248	-0,101
145,400	119,195	-0,269	-0,232
146,414	253,583	-0,183	-0,219
147,429	83,805	-0,240	-0,183
148,443	224,336	-0,115	-0,131
149,458	53,589	-0,157	-0,105
150,473	75,108	-0,212	-0,156
151,487	182,399	-0,275	-0,284
152,502	10,338	-0,260	-0,138
153,516	-18,176	-0,265	-0,115
154,531	87,526	-0,172	-0,133
155,546	135,851	-0,209	-0,190
156,560	14,404	-0,178	-0,097
157,575	-18,996	-0,258	-0,111
158,589	-33,976	-0,326	-0,125
159,604	71,315	-0,200	-0,145
160,619	208,979	-0,220	-0,241
161,633	139,528	-0,258	-0,237
162,648	100,065	-0,272	-0,220
163,662	426,258	-0,118	-0,178
164,677	125,609	-0,155	-0,137
165,692	99,273	-0,191	-0,154
166,706	16,689	-0,202	-0,111
167,721	222,603	-0,218	-0,245
168,735	164,990	-0,314	-0,309
169,750	755,793	-0,108	-0,206
170,764	-110,120	-0,280	-0,040
171,779	191,275	-0,154	-0,162
172,794	-43,437	-0,088	-0,031
173,808	433,850	-0,243	-0,370
174,823	218,755	-0,237	-0,264
175,837	183,521	-0,248	-0,256
176,852	64,380	-0,241	-0,169
177,867	-3,561	-0,183	-0,088
178,881	101,181	-0,206	-0,167
179,896	19,686	-0,303	-0,169
180,910	-200,000	0,031	-0,139
181,925	128,598	-0,192	-0,171
182,940	234,729	-0,258	-0,298
183,954	800,000	-0,134	-0,308
184,969	25,466	-0,345	-0,199
185,983	60,891	-0,185	-0,128
186,998	86,164	-0,216	-0,166
188,013	-160,872	-0,157	-0,006
189,027	277,044	-0,176	-0,218
190,042	9,847	-0,253	-0,133
191,056	107,590	-0,161	-0,133
192,071	30,924	-0,283	-0,168
193,086	508,532	-0,109	-0,176
194,100	800,000	-0,090	-0,185
195,115	180,150	-0,150	-0,153
196,129	319,798	-0,122	-0,161
197,144	108,798	-0,221	-0,183
198,159	215,040	-0,142	-0,157
199,173	701,169	-0,154	-0,283
200,188	114,804	-0,086	-0,073
201,202	97,572	-0,149	-0,119
202,217	216,143	-0,196	-0,217
203,232	82,747	-0,107	-0,081
204,246	-72,207	-0,269	-0,069
205,261	654,546	-0,070	-0,125
206,275	97,975	-0,120	-0,096
207,290	-35,628	-0,126	-0,047
208,304	102,465	-0,160	-0,130
209,319	-15,149	-0,133	-0,059
210,334	-177,466	-0,218	0,004
211,348	382,682	-0,155	-0,222
212,363	473,545	-0,170	-0,268
213,377	196,975	-0,209	-0,222
214,392	245,002	-0,129	-0,151
215,407	269,978	-0,110	-0,135
216,421	49,677	-0,212	-0,138
217,436	-200,000	0,011	-0,178
218,450	60,007	-0,189	-0,129
219,465	36,720	-0,160	-0,098
220,480	23,186	-0,154	-0,088
221,494	-36,762	-0,194	-0,072
222,509	32,848	-0,151	-0,091
223,523	200,414	-0,220	-0,235
224,538	-8,470	-0,224	-0,104
225,553	-200,000	-0,077	-0,277
226,567	235,260	-0,132	-0,151
227,582	144,338	-0,193	-0,179
228,596	338,205	-0,119	-0,162
229,611	177,037	-0,157	-0,159
230,626	-57,266	-0,187	-0,057
231,640	217,180	-0,172	-0,191
232,655	114,497	-0,219	-0,185
233,669	63,817	-0,175	-0,122
234,684	605,153	-0,123	-0,214
235,699	335,818	-0,170	-0,230
236,713	254,625	-0,119	-0,141
237,728	12,279	-0,214	-0,114
238,742	348,885	-0,162	-0,222
239,757	49,379	-0,301	-0,196
240,772	-112,211	-0,325	-0,045
241,786	-133,722	-0,245	-0,021
242,801	-200,000	0,007	-0,213
243,815	14,309	-0,140	-0,076
244,830	-33,259	0,078	-0,030
245,844	281,809	-0,123	-0,153
246,859	800,000	-0,083	-0,221
247,874	106,192	-0,237	-0,195
248,888	39,171	-0,208	-0,129
249,903	301,104	-0,197	-0,252
250,917	100,756	-0,280	-0,225
251,932	-80,552	-0,164	-0,038
252,947	386,512	-0,186	-0,267
253,961	322,519	-0,164	-0,217
254,976	283,651	-0,249	-0,311
255,990	684,920	-0,090	-0,164
257,005	171,302	-0,117	-0,116
258,020	-151,823	-0,272	-0,014
259,034	-200,000	-0,028	-0,131
260,049	-25,495	-0,115	-0,047
261,063	248,844	-0,194	-0,228
262,078	-60,369	-0,207	-0,061
263,093	77,386	-0,111	-0,082
264,107	595,845	-0,119	-0,205
265,122	241,049	-0,166	-0,192
266,136	-7,895	-0,145	-0,067
267,151	-88,113	-0,127	-0,026
268,166	-34,679	-0,285	-0,107
269,180	54,582	-0,267	-0,178
270,195	322,654	-0,182	-0,240
271,209	-121,832	-0,226	-0,025
272,224	-104,391	-0,185	-0,029
273,239	-77,631	-0,265	-0,063
274,253	9,913	-0,124	-0,065
275,268	-21,757	-0,253	-0,106
276,282	5,287	-0,199	-0,101
277,297	97,778	-0,246	-0,196
278,312	-16,609	-0,080	-0,035
279,326	409,590	-0,159	-0,233
280,341	800,000	-0,069	-0,180
281,355	66,619	-0,139	-0,097
282,370	-28,595	-0,129	-0,051
283,384	149,566	-0,227	-0,212
284,399	260,566	-0,188	-0,225
285,414	20,385	-0,124	-0,069
286,428	-1,709	-0,146	-0,071
287,443	-200,000	-0,049	-0,151
288,457	-45,273	-0,062	-0,021
289,472	73,556	-0,132	-0,095
290,487	-200,000	-0,006	-0,171
291,501	63,665	-0,257	-0,178
292,516	181,146	-0,154	-0,157
293,530	15,537	-0,228	-0,123
294,545	800,000	-0,113	-0,244
295,560	69,178	-0,135	-0,096
296,574	-13,492	-0,201	-0,090
297,589	281,677	-0,205	-0,254
298,603	28,488	-0,077	-0,045
299,618	-146,150	-0,189	-0,011
300,633	-39,645	-0,188	-0,068
301,647	-58,745	-0,124	0,037
302,662	335,784	-0,128	-0,172
303,676	42,062	-0,218	-0,136
304,691	-3,870	-0,193	-0,092
305,706	800,000	-0,137	-0,276
306,720	209,002	-0,214	-0,231
307,735	240,296	-0,114	-0,131
308,749	-13,247	-0,178	-0,079
309,764	800,000	-0,038	-0,078
310,779	88,314	-0,211	-0,161
311,793	-26,417	-0,178	-0,072
312,808	591,891	-0,112	-0,191
313,822	385,786	-0,124	-0,176
314,837	-35,120	-0,107	-0,040
315,852	110,800	-0,144	-0,119
316,866	-200,000	-0,026	-0,107
317,881	139,407	-0,130	-0,117
318,895	-72,379	-0,036	-0,009
319,910	-131,937	-0,153	0,014
320,925	-27,835	-0,268	-0,106
321,939	30,311	-0,102	-0,060
322,954	64,415	-0,113	-0,078
323,968	-140,637	-0,091	-0,006
324,983	-27,490	-0,101	-0,040
325,997	430,423	-0,064	-0,096
327,012	46,652	-0,214	-0,137
328,027	52,710	-0,036	-0,023
329,041	800,000	-0,071	-0,171
330,056	-200,000	-0,011	-0,121
331,070	140,894	-0,166	-0,151
332,085	800,000	-0,130	-0,252
333,100	108,568	-0,097	-0,079
334,114	-56,980	-0,207	-0,062
335,129	800,000	-0,177	-0,346
336,143	262,421	-0,070	-0,083
337,158	-18,841	-0,024	0,010
338,173	232,196	-0,130	-0,147
339,187	-98,192	-0,130	-0,023
340,202	-28,134	-0,221	-0,088
341,216	-78,361	-0,207	-0,048
342,231	800,000	-0,084	-0,187
343,246	158,099	-0,099	-0,094
344,260	-200,000	-0,155	0,000
345,275	455,185	-0,082	0,125
346,289	-53,683	-0,049	0,015
347,304	13,230	-0,176	0,093
348,319	17,746	-0,049	-0,027
349,333	201,379	-0,059	-0,063
350,348	443,888	-0,044	-0,066
351,362	84,021	-0,137	-0,103
352,377	444,991	-0,077	-0,116
353,392	-113,810	-0,071	0,009
354,406	800,000	-0,004	-0,013
355,421	209,360	1311,980	1412,419
356,435	161,130	1472,365	1412,909
