DTS Sentinel unit serial number:	SN410029Multiplexer serial number:	ORYXHardware model number:	OX2-SRSoftware version number:	ORYX F/W v4,00 Oryx Data Collector v3.7.2.0data status	okinstallation	B3 Nyhavnadifferential loss correction	single-endedforward channel	channel 1reverse channel	N/Adate	2023/12/02time	08:47:30forward acquisition time	300,00reverse acquisition time	0,00gamma	499,1914k internal	0,3195k external	0,3195temperature offset calibration	1,0000default loss term (dB/km)	0,3820temperature slope calibration	1,0000multiplexer offset coefficient	1,0000multiplexer slope coefficient	1,0000fibre end	0,00T internal ref (°C)	15,31T ext. ref 1 (°C)	0,03T ext. ref 2 (°C)	0,01length (m)	temperature (°C)	Stokes	anti-Stokes-744,400	229,898	-0,212	-0,253
-743,385	-200,000	-0,049	0,275
-742,371	151,267	-0,172	-0,171
-741,356	455,790	0,171	0,277
-740,342	-200,000	-0,041	-0,179
-739,327	-200,000	0,016	0,317
-738,312	-105,551	-0,322	-0,053
-737,298	-200,000	-0,054	0,332
-736,283	-46,819	-0,289	-0,102
-735,269	-200,000	0,038	0,344
-734,254	56,631	-0,236	-0,167
-733,239	800,000	-0,039	0,084
-732,225	370,123	-0,168	-0,249
-731,210	250,069	0,098	0,122
-730,196	-63,421	-0,070	0,021
-729,181	45,253	-0,082	0,055
-728,167	220,052	-0,040	-0,047
-727,152	-200,000	0,003	0,094
-726,137	-54,122	-0,115	0,038
-725,123	-200,000	0,026	-0,129
-724,108	-158,339	-0,035	0,001
-723,094	800,000	-0,073	-0,186
-722,079	237,086	-0,105	-0,126
-721,064	800,000	-0,035	0,077
-720,050	156,082	0,057	-0,058
-719,035	79,274	0,052	0,040
-718,021	-118,466	-0,113	0,014
-717,006	228,202	-0,112	-0,134
-715,991	800,000	-0,079	-0,221
-714,977	-200,000	-0,033	-0,130
-713,962	-200,000	-0,022	0,080
-712,948	563,325	-0,055	0,096
-711,933	-200,000	-0,002	0,133
-710,918	-38,258	-0,151	0,058
-709,904	-200,000	-0,017	-0,113
-708,889	617,393	-0,083	0,152
-707,875	222,506	-0,117	-0,138
-706,860	29,012	-0,031	0,019
-705,845	800,000	0,036	0,082
-704,831	5,376	-0,079	-0,042
-703,816	800,000	-0,069	0,150
-702,802	136,310	-0,044	-0,042
-701,787	-175,368	-0,019	0,000
-700,772	27,428	-0,046	0,028
-699,758	-157,437	-0,112	0,005
-698,743	30,322	0,113	0,070
-697,729	18,950	0,030	-0,017
-696,714	395,100	-0,032	-0,048
-695,699	800,000	-0,109	-0,225
-694,685	154,645	0,052	0,052
-693,670	-158,332	-0,025	0,001
-692,656	-103,549	0,029	0,005
-691,641	-200,000	-0,017	-0,098
-690,627	800,000	-0,047	0,097
-689,612	-200,000	-0,032	0,137
-688,597	63,879	0,066	0,048
-687,583	399,191	-0,094	-0,144
-686,568	145,063	0,029	0,028
-685,554	133,430	-0,050	0,047
-684,539	-64,869	0,116	-0,034
-683,524	493,782	-0,026	-0,043
-682,510	124,746	0,063	-0,057
-681,495	-49,848	-0,035	0,012
-680,481	-188,636	-0,086	-0,001
-679,466	-200,000	-0,035	-0,119
-678,451	-200,000	-0,017	-0,131
-677,437	-200,000	0,024	-0,094
-676,422	-200,000	0,017	0,147
-675,408	-77,705	-0,054	0,013
-674,393	89,004	-0,171	-0,138
-673,378	375,934	-0,076	-0,113
-672,364	458,799	0,036	-0,058
-671,349	-200,000	0,003	0,086
-670,335	157,381	0,050	0,050
-669,320	101,426	0,140	0,118
-668,305	128,091	0,094	0,087
-667,291	-200,000	0,011	0,063
-666,276	-98,743	-0,161	0,029
-665,262	699,717	0,052	-0,100
-664,247	18,507	-0,081	-0,047
-663,232	-120,373	0,060	0,007
-662,218	-115,642	-0,074	0,010
-661,203	1,148	-0,077	0,040
-660,189	-200,000	-0,026	-0,103
-659,174	800,000	-0,104	-0,241
-658,159	89,272	-0,100	-0,081
-657,145	36,808	0,118	0,076
-656,130	435,316	0,069	-0,109
-655,116	213,210	0,030	0,034
-654,101	317,322	-0,132	0,181
-653,086	132,040	0,038	0,035
-652,072	-25,058	0,126	-0,054
-651,057	2,725	-0,192	-0,101
-650,043	-92,756	0,071	-0,014
-649,028	-91,550	-0,090	0,019
-648,014	116,300	-0,045	-0,040
-646,999	800,000	-0,055	-0,115
-645,984	78,067	0,083	-0,064
-644,970	800,000	-0,048	-0,122
-643,955	259,990	0,084	-0,106
-642,941	104,460	-0,090	-0,077
-641,926	-200,000	-0,023	0,156
-640,911	-200,000	0,011	0,039
-639,897	-29,757	0,130	0,054
-638,882	103,787	0,051	0,043
-637,868	-147,690	-0,124	-0,007
-636,853	-200,000	-0,019	-0,082
-635,838	-200,000	0,024	0,091
-634,824	-200,000	0,017	0,058
-633,809	542,739	-0,058	0,101
-632,795	59,964	0,087	-0,062
-631,780	187,478	-0,061	-0,066
-630,765	101,516	-0,074	0,063
-629,751	96,664	-0,032	-0,026
-628,736	-139,950	-0,087	-0,007
-627,722	2,186	-0,053	-0,028
-626,707	800,000	-0,026	-0,074
-625,692	152,170	0,047	-0,046
-624,678	-15,816	-0,152	0,070
-623,663	800,000	-0,011	-0,026
-622,649	-54,182	-0,177	-0,058
-621,634	800,000	-0,025	0,066
-620,619	221,194	0,078	-0,090
-619,605	-200,000	0,015	-0,112
-618,590	-200,000	-0,007	-0,094
-617,576	-200,000	-0,007	0,029
-616,561	800,000	0,029	-0,058
-615,546	-200,000	-0,020	0,089
-614,532	40,223	0,144	-0,094
-613,517	800,000	0,049	-0,114
-612,503	-200,000	-0,043	-0,159
-611,488	-200,000	0,028	-0,103
-610,474	678,066	0,073	0,138
-609,459	110,497	-0,034	-0,030
-608,444	-45,357	-0,050	0,018
-607,430	100,347	-0,061	0,051
-606,415	800,000	-0,036	0,081
-605,401	451,193	-0,020	0,032
-604,386	197,156	0,080	0,089
-603,371	-200,000	-0,004	0,017
-602,357	-200,000	0,022	0,127
-601,342	444,917	0,038	0,060
-600,328	-108,762	-0,099	0,015
-599,313	48,658	-0,055	0,037
-598,298	184,505	-0,089	0,096
-597,284	-83,925	0,013	0,003
-596,269	-200,000	0,013	-0,094
-595,255	71,083	-0,102	-0,076
-594,240	553,977	-0,038	0,066
-593,225	-200,000	-0,004	-0,028
-592,211	93,019	-0,111	0,091
-591,196	749,967	-0,016	-0,032
-590,182	432,374	0,081	0,127
-589,167	-200,000	0,012	-0,076
-588,152	-16,765	0,066	0,030
-587,138	-200,000	-0,015	0,073
-586,123	40,172	0,013	0,008
-585,109	597,669	0,049	-0,089
-584,094	213,399	-0,049	-0,056
-583,079	800,000	0,071	-0,149
-582,065	62,858	-0,048	0,035
-581,050	-186,661	0,120	0,001
-580,036	-200,000	0,013	-0,073
-579,021	-101,903	-0,148	-0,026
-578,006	-90,661	-0,125	0,026
-576,992	665,385	-0,034	-0,064
-575,977	-46,519	-0,095	0,034
-574,963	163,419	-0,088	-0,090
-573,948	160,363	0,035	0,035
-572,934	325,784	-0,032	-0,044
-571,919	800,000	-0,050	-0,115
-570,904	-200,000	-0,000	0,008
-569,890	168,001	0,009	-0,009
-568,875	140,257	0,037	0,035
-567,861	800,000	-0,110	0,319
-566,846	202,816	0,097	0,108
-565,831	65,574	-0,102	-0,074
-564,817	60,413	0,074	-0,053
-563,802	800,000	-0,072	-0,162
-562,788	800,000	0,030	0,067
-561,773	800,000	0,073	-0,157
-560,758	-156,587	-0,056	-0,002
-559,744	34,677	0,136	-0,086
-558,729	-84,046	0,101	-0,023
-557,715	55,619	-0,104	0,073
-556,700	-62,378	-0,019	-0,006
-555,685	-130,439	0,144	-0,014
-554,671	-122,655	-0,086	0,010
-553,656	56,427	-0,011	-0,008
-552,642	92,030	0,141	0,115
-551,627	-200,000	-0,013	0,151
-550,612	-125,493	0,181	-0,020
-549,598	800,000	-0,044	-0,126
-548,583	-177,693	-0,088	-0,002
-547,569	-121,688	0,147	0,017
-546,554	-28,102	-0,108	0,045
-545,539	495,665	0,030	0,051
-544,525	490,095	0,015	0,025
-543,510	-150,670	-0,081	-0,004
-542,496	-200,000	-0,001	0,070
-541,481	800,000	-0,044	-0,114
-540,466	7,931	-0,051	0,028
-539,452	-200,000	-0,023	-0,096
-538,437	226,251	-0,030	-0,036
-537,423	571,157	0,036	0,063
-536,408	73,373	-0,109	0,083
-535,393	800,000	-0,065	-0,162
-534,379	-89,368	-0,089	-0,019
-533,364	800,000	-0,021	-0,042
-532,350	285,267	0,038	0,049
-531,335	-40,835	-0,048	-0,018
-530,321	230,421	0,008	0,010
-529,306	-120,079	-0,127	0,015
-528,291	-78,485	-0,185	0,045
-527,277	800,000	0,021	-0,048
-526,262	84,566	-0,064	-0,051
-525,248	292,526	0,037	0,049
-524,233	-7,100	-0,107	-0,052
-523,218	-200,000	-0,010	0,090
-522,204	214,722	0,032	-0,036
-521,189	32,112	0,019	0,012
-520,175	363,135	-0,085	-0,124
-519,160	-200,000	-0,033	-0,171
-518,145	680,602	0,060	-0,113
-517,131	-29,285	0,125	0,052
-516,116	-200,000	-0,010	-0,134
-515,102	86,798	-0,051	-0,040
-514,087	-200,000	0,033	-0,126
-513,072	71,200	-0,053	0,040
-512,058	45,302	-0,050	0,033
-511,043	215,677	0,048	0,055
-510,029	-46,645	-0,134	-0,047
-509,014	63,914	-0,049	0,036
-507,999	800,000	0,062	0,161
-506,985	800,000	0,021	0,046
-505,970	41,737	0,043	0,028
-504,956	-89,772	-0,042	0,009
-503,941	344,034	0,056	-0,080
-502,926	-200,000	-0,009	0,052
-501,912	-79,760	0,129	0,031
-500,897	424,155	0,007	-0,011
-499,883	-200,000	0,006	-0,065
-498,868	-128,816	0,095	0,010
-497,853	-77,066	-0,147	-0,037
-496,839	-200,000	-0,032	0,190
-495,824	-154,643	0,082	-0,004
-494,810	-112,208	0,023	-0,003
-493,795	-103,786	0,145	0,024
-492,781	120,571	-0,118	0,106
-491,766	-200,000	-0,011	0,080
-490,751	68,853	-0,074	-0,055
-489,737	-200,000	-0,034	-0,184
-488,722	95,306	-0,100	-0,082
-487,708	-200,000	0,014	0,123
-486,693	355,032	0,016	-0,023
-485,678	169,477	-0,067	-0,069
-484,664	800,000	-0,025	-0,061
-483,649	-183,497	-0,124	-0,002
-482,635	467,696	0,056	-0,090
-481,620	-62,854	0,182	0,054
-480,605	-200,000	0,000	-0,007
-479,591	-39,951	0,083	-0,031
-478,576	562,163	0,055	0,096
-477,562	-136,400	0,201	0,017
-476,547	268,177	-0,069	-0,087
-475,532	-200,000	-0,043	-0,148
-474,518	-200,000	0,030	-0,122
-473,503	730,925	0,034	0,067
-472,489	28,991	-0,011	-0,007
-471,474	-119,863	-0,110	0,014
-470,459	-99,957	-0,190	-0,034
-469,445	-200,000	0,005	-0,044
-468,430	-117,138	-0,157	-0,020
-467,416	-129,435	0,037	-0,004
-466,401	-43,392	0,034	0,012
-465,386	586,969	0,037	0,066
-464,372	-200,000	-0,011	-0,057
-463,357	-88,682	-0,167	-0,036
-462,343	-200,000	-0,012	-0,073
-461,328	-1,695	-0,012	0,006
-460,313	800,000	0,044	0,135
-459,299	375,400	0,054	0,080
-458,284	-155,889	0,085	0,004
-457,270	-200,000	-0,029	-0,093
-456,255	109,645	0,043	0,037
-455,241	-136,702	-0,175	0,014
-454,226	556,640	0,015	0,026
-453,211	-188,207	0,049	0,000
-452,197	768,273	-0,019	0,037
-451,182	59,239	-0,114	0,080
-450,168	-17,800	0,138	0,062
-449,153	-200,000	-0,016	-0,054
-448,138	-84,271	0,043	-0,010
-447,124	561,434	0,061	-0,106
-446,109	-31,505	-0,081	-0,032
-445,095	146,756	-0,064	0,062
-444,080	200,066	0,025	0,027
-443,065	218,409	0,084	0,097
-442,051	-66,070	0,088	0,025
-441,036	-64,345	-0,058	-0,017
-440,022	142,295	-0,001	-0,001
-439,007	303,912	-0,099	0,132
-437,992	-200,000	0,046	-0,200
-436,978	-200,000	-0,001	-0,015
-435,963	184,595	0,072	-0,077
-434,949	573,725	-0,022	-0,038
-433,934	-200,000	-0,032	-0,110
-432,919	-83,655	-0,098	-0,022
-431,905	90,522	-0,072	-0,058
-430,890	-200,000	-0,003	-0,049
-429,876	48,912	0,153	0,103
-428,861	800,000	0,037	0,111
-427,846	-200,000	-0,043	0,215
-426,832	256,510	-0,038	0,047
-425,817	24,960	-0,053	0,032
-424,803	-200,000	-0,049	-0,166
-423,788	-200,000	0,019	0,185
-422,773	355,634	-0,045	0,065
-421,759	-200,000	-0,026	0,088
-420,744	-200,000	-0,000	-0,117
-419,730	190,945	0,069	-0,075
-418,715	-200,000	-0,024	0,099
-417,701	-200,000	0,005	0,056
-416,686	-200,000	-0,029	0,130
-415,671	-200,000	0,047	0,184
-414,657	-200,000	0,011	-0,092
-413,642	292,207	0,025	-0,033
-412,628	139,457	-0,057	0,054
-411,613	196,417	-0,155	-0,170
-410,598	540,322	0,071	0,122
-409,584	173,904	-0,076	-0,079
-408,569	114,595	0,110	-0,097
-407,555	-109,132	0,060	0,009
-406,540	-61,928	-0,070	0,021
-405,525	89,380	0,055	0,044
-404,511	-129,242	-0,152	0,015
-403,496	25,025	0,084	0,050
-402,482	363,842	0,043	-0,062
-401,467	800,000	0,074	0,157
-400,452	146,158	0,103	0,099
-399,438	-88,492	0,086	0,018
-398,423	-33,874	0,120	0,047
-397,409	-200,000	0,013	-0,189
-396,394	-200,000	-0,013	0,059
-395,379	-98,738	0,107	0,019
-394,365	-200,000	-0,002	0,033
-393,350	-200,000	0,010	0,131
-392,336	-200,000	0,005	0,060
-391,321	-200,000	0,025	-0,106
-390,306	-112,866	-0,172	-0,024
-389,292	71,305	0,034	0,025
-388,277	-83,332	-0,085	0,019
-387,263	-200,000	-0,005	-0,085
-386,248	130,499	0,119	0,110
-385,233	-146,802	-0,180	-0,011
-384,219	-200,000	0,000	0,113
-383,204	-200,000	0,020	-0,095
-382,190	-176,396	-0,048	0,001
-381,175	800,000	-0,058	-0,156
-380,160	-71,151	0,021	0,006
-379,146	-77,555	0,142	0,035
-378,131	800,000	-0,035	-0,076
-377,117	594,544	0,040	0,071
-376,102	-7,862	-0,140	-0,067
-375,088	100,069	-0,066	0,055
-374,073	3,628	0,012	0,006
-373,058	-120,757	0,066	0,008
-372,044	-200,000	-0,008	0,048
-371,029	-106,103	0,184	0,029
-370,015	-200,000	-0,004	-0,049
-369,000	-200,000	-0,018	-0,194
-367,985	800,000	-0,070	-0,142
-366,971	-120,177	0,118	0,014
-365,956	800,000	-0,073	-0,157
-364,942	-41,300	-0,067	-0,025
-363,927	501,270	0,023	0,038
-362,912	76,023	0,057	0,043
-361,898	-200,000	0,006	-0,037
-360,883	414,058	0,021	-0,032
-359,869	290,796	-0,058	0,075
-358,854	419,434	-0,021	-0,033
-357,839	-87,951	0,091	0,020
-356,825	-172,031	-0,083	-0,002
-355,810	-200,000	-0,038	0,151
-354,796	55,863	0,209	0,145
-353,781	-82,216	-0,030	-0,007
-352,766	46,281	-0,094	-0,062
-351,752	-200,000	0,002	-0,011
-350,737	800,000	0,025	0,056
-349,723	800,000	0,020	0,050
-348,708	676,734	-0,028	0,053
-347,693	-200,000	0,003	0,105
-346,679	-200,000	-0,006	-0,096
-345,664	-200,000	0,001	0,084
-344,650	800,000	0,039	0,093
-343,635	800,000	0,019	-0,049
-342,620	-143,705	0,193	-0,013
-341,606	-200,000	0,002	-0,018
-340,591	-200,000	-0,020	0,084
-339,577	-70,741	0,157	0,042
-338,562	25,841	-0,172	0,102
-337,548	-111,071	-0,037	0,005
-336,533	-69,574	0,054	-0,015
-335,518	-200,000	-0,004	0,044
-334,504	-96,234	-0,074	0,014
-333,489	-200,000	-0,002	0,103
-332,475	58,380	-0,108	-0,076
-331,460	106,808	0,020	0,017
-330,445	511,729	0,052	-0,086
-329,431	69,788	0,052	-0,039
-328,416	-76,714	0,078	-0,019
-327,402	-119,741	-0,034	-0,004
-326,387	3,588	-0,026	-0,014
-325,372	78,095	-0,028	-0,021
-324,358	-200,000	0,005	-0,033
-323,343	781,384	-0,092	-0,182
-322,329	-200,000	-0,006	0,087
-321,314	185,455	0,005	-0,005
-320,299	129,965	0,129	0,118
-319,285	120,565	0,021	0,019
-318,270	-39,517	-0,129	-0,048
-317,256	-200,000	0,002	0,034
-316,241	191,588	0,193	-0,209
-315,226	455,877	0,021	-0,034
-314,212	380,885	-0,044	0,065
-313,197	800,000	0,042	-0,106
-312,183	-59,321	0,085	-0,026
-311,168	800,000	0,026	0,072
-310,153	113,085	-0,131	-0,114
-309,139	-200,000	0,013	0,110
-308,124	-91,657	0,078	-0,016
-307,110	26,768	0,045	-0,027
-306,095	10,859	0,053	0,029
-305,080	-66,294	0,104	-0,029
-304,066	-6,472	0,120	0,058
-303,051	-2,730	-0,123	-0,062
-302,037	-200,000	0,037	0,127
-301,022	117,073	0,079	0,070
-300,008	434,417	0,003	0,005
-298,993	-200,000	-0,018	-0,068
-297,978	61,576	0,047	0,033
-296,964	800,000	-0,036	0,091
-295,949	-200,000	0,010	-0,131
-294,935	-96,521	-0,023	0,004
-293,920	83,301	0,063	-0,049
-292,905	1,037	0,100	0,051
-291,891	38,661	0,096	0,061
-290,876	-200,000	-0,014	-0,173
-289,862	-63,557	-0,055	0,016
-288,847	-29,374	0,158	0,064
-287,832	-22,315	-0,042	-0,018
-286,818	129,460	0,042	0,038
-285,803	313,952	-0,013	0,017
-284,789	40,993	0,087	0,056
-283,774	214,732	0,136	0,154
-282,759	487,855	0,055	-0,090
-281,745	-111,972	-0,078	0,011
-280,730	800,000	0,026	-0,080
-279,716	-49,026	0,160	0,054
-278,701	535,937	0,043	0,073
-277,686	-200,000	0,017	-0,112
-276,672	-112,284	-0,085	0,012
-275,657	-42,174	-0,086	0,031
-274,643	-200,000	0,009	-0,071
-273,628	544,718	0,043	-0,073
-272,613	-200,000	0,006	-0,038
-271,599	-200,000	-0,028	-0,118
-270,584	800,000	0,026	0,059
-269,570	118,805	0,016	-0,014
-268,555	-200,000	-0,001	0,026
-267,540	191,894	0,032	0,034
-266,526	-200,000	-0,016	0,082
-265,511	800,000	0,033	0,103
-264,497	184,848	0,051	0,054
-263,482	-200,000	0,008	-0,077
-262,467	103,038	0,075	0,062
-261,453	92,130	-0,067	-0,054
-260,438	-41,557	-0,092	-0,034
-259,424	800,000	0,012	0,030
-258,409	-200,000	0,000	-0,037
-257,395	30,852	0,053	0,032
-256,380	-200,000	0,063	0,202
-255,365	-200,000	0,017	0,199
-254,351	58,526	0,072	-0,050
-253,336	-200,000	0,010	0,080
-252,322	-200,000	0,023	-0,095
-251,307	697,153	0,016	-0,030
-250,292	-120,065	0,087	-0,010
-249,278	-200,000	0,002	-0,023
-248,263	4,658	0,081	-0,042
-247,249	-200,000	0,017	0,065
-246,234	-73,484	-0,018	-0,005
-245,219	-5,751	-0,061	-0,030
-244,205	800,000	-0,027	-0,071
-243,190	-200,000	0,009	0,032
-242,176	220,530	0,074	0,085
-241,161	800,000	-0,060	-0,120
-240,146	34,818	0,082	-0,051
-239,132	92,175	-0,016	-0,013
-238,117	-114,460	-0,048	-0,006
-237,103	635,071	-0,020	-0,036
-236,088	-70,875	0,051	0,014
-235,073	457,053	0,064	-0,103
-234,059	-112,816	0,065	-0,009
-233,044	386,365	-0,054	0,080
-232,030	-200,000	0,029	0,251
-231,015	117,701	0,112	-0,099
-230,000	-54,914	-0,086	0,028
-228,986	-103,062	0,044	-0,007
-227,971	-200,000	-0,020	0,074
-226,957	-200,000	0,008	0,105
-225,942	800,000	0,037	0,085
-224,927	17,999	0,101	0,057
-223,913	-51,997	-0,007	0,002
-222,898	-150,556	-0,166	0,009
-221,884	-200,000	0,005	-0,030
-220,869	-70,464	-0,053	-0,014
-219,855	728,785	0,045	0,086
-218,840	-200,000	-0,003	-0,042
-217,825	-71,652	0,022	0,006
-216,811	446,316	-0,032	0,050
-215,796	-200,000	0,026	-0,097
-214,782	-66,249	-0,183	-0,052
-213,767	349,236	0,064	-0,091
-212,752	-15,390	0,060	0,027
-211,738	215,539	0,039	0,044
-210,723	-200,000	0,015	0,116
-209,709	800,000	0,002	0,004
-208,694	22,354	-0,071	-0,041
-207,679	-200,000	-0,039	-0,186
-206,665	-7,541	0,083	0,040
-205,650	800,000	-0,036	0,102
-204,636	800,000	0,041	0,125
-203,621	-80,928	-0,086	0,020
-202,606	-200,000	-0,018	-0,092
-201,592	-200,000	0,021	-0,155
-200,577	-85,929	-0,038	0,008
-199,563	-24,657	-0,141	0,060
-198,548	-200,000	0,017	0,112
-197,533	-20,122	0,141	-0,062
-196,519	800,000	0,012	0,035
-195,504	-68,330	0,032	-0,009
-194,490	-200,000	-0,005	-0,042
-193,475	-200,000	-0,013	-0,147
-192,460	345,083	0,039	0,055
-191,446	-200,000	-0,005	-0,075
-190,431	-200,000	-0,001	0,025
-189,417	-200,000	0,022	0,144
-188,402	561,162	-0,035	0,061
-187,387	108,880	0,020	-0,017
-186,373	800,000	0,040	-0,109
-185,358	68,274	-0,124	-0,090
-184,344	-200,000	0,005	-0,092
-183,329	587,591	0,072	0,128
-182,315	-200,000	-0,031	0,136
-181,300	126,315	0,005	-0,004
-180,285	-200,000	-0,016	-0,069
-179,271	-200,000	0,001	0,063
-178,256	310,717	0,021	0,029
-177,242	-200,000	0,008	-0,044
-176,227	-41,822	-0,118	0,043
-175,212	800,000	0,068	0,151
-174,198	-115,097	0,055	0,007
-173,183	40,015	0,056	0,036
-172,169	-200,000	0,010	-0,038
-171,154	-128,883	-0,189	-0,019
-170,139	-6,117	-0,072	-0,035
-169,125	116,590	0,031	-0,027
-168,110	180,557	-0,038	0,040
-167,096	559,392	-0,032	-0,056
-166,081	-1,257	0,070	-0,035
-165,066	-200,000	0,015	-0,047
-164,052	704,326	-0,063	-0,120
-163,037	-200,000	0,003	-0,050
-162,023	-127,705	-0,070	-0,007
-161,008	49,757	0,174	0,116
-159,993	361,732	0,094	0,134
-158,979	191,859	0,039	-0,042
-157,964	-155,105	-0,096	-0,004
-156,950	-85,294	-0,083	-0,018
-155,935	800,000	0,025	-0,054
-154,920	800,000	-0,032	-0,069
-153,906	-200,000	-0,004	-0,017
-152,891	304,075	-0,058	-0,076
-151,877	-103,395	-0,063	0,010
-150,862	800,000	-0,024	0,064
-149,847	-114,050	-0,119	-0,016
-148,833	731,275	-0,015	0,029
-147,818	151,849	0,106	-0,103
-146,804	303,876	-0,130	0,173
-145,789	96,636	-0,046	-0,037
-144,775	800,000	-0,017	0,052
-143,760	380,462	0,091	-0,133
-142,745	165,164	-0,074	-0,075
-141,731	-19,678	-0,081	0,035
-140,716	306,992	0,055	0,073
-139,702	-131,362	0,068	0,006
-138,687	-84,439	-0,062	-0,014
-137,672	31,056	-0,129	0,079
-136,658	-65,278	0,098	0,028
-135,643	-160,251	0,099	0,004
-134,629	767,582	-0,071	-0,138
-133,614	141,897	0,091	-0,086
-132,599	-22,013	0,168	-0,072
-131,585	672,544	-0,046	0,085
-130,570	271,096	-0,042	-0,052
-129,556	-98,299	-0,064	-0,012
-128,541	-200,000	0,000	-0,044
-127,526	-200,000	0,003	0,023
-126,512	256,597	-0,060	-0,073
-125,497	-7,740	0,061	0,029
-124,483	-130,750	0,102	0,010
-123,468	800,000	-0,036	-0,081
-122,453	-200,000	-0,016	0,067
-121,439	800,000	0,037	0,076
-120,424	-200,000	0,027	-0,111
-119,410	800,000	0,031	-0,061
-118,395	48,951	0,077	-0,051
-117,380	-113,643	0,052	0,007
-116,366	94,487	-0,082	0,066
-115,351	225,302	0,057	0,065
-114,337	-200,000	-0,017	0,127
-113,322	167,235	0,035	0,035
-112,307	410,925	0,014	0,022
-111,293	373,090	-0,084	0,122
-110,278	-200,000	-0,007	0,056
-109,264	359,172	0,058	-0,082
-108,249	-92,252	-0,077	0,015
-107,234	-200,000	0,006	-0,055
-106,220	2,638	0,048	0,024
-105,205	-30,326	-0,134	-0,054
-104,191	147,102	0,038	0,036
-103,176	688,623	-0,007	-0,012
-102,162	-200,000	-0,008	-0,032
-101,147	-200,000	-0,003	-0,038
-100,132	-200,000	-0,002	0,052
-99,118	-20,397	-0,102	-0,044
-98,103	-200,000	0,016	0,084
-97,089	-45,642	0,045	0,016
-96,074	550,911	-0,083	0,142
-95,059	66,197	0,150	-0,108
-94,045	83,671	-0,126	-0,097
-93,030	-100,456	0,090	0,016
-92,016	-6,773	-0,022	0,011
-91,001	655,840	0,018	-0,034
-89,986	104,794	0,080	0,067
-88,972	-16,403	0,161	0,072
-87,957	595,758	0,030	0,052
-86,943	-200,000	0,008	0,038
-85,928	-117,260	-0,118	-0,015
-84,913	17,865	-0,047	-0,027
-83,899	28,230	-0,081	-0,049
-82,884	800,000	0,030	0,091
-81,870	-80,536	0,138	0,033
-80,855	305,463	0,068	-0,090
-79,840	800,000	-0,082	-0,204
-78,826	-42,809	0,146	-0,052
-77,811	-200,000	-0,035	-0,143
-76,797	-200,000	-0,021	0,087
-75,782	-200,000	0,028	0,159
-74,767	-200,000	-0,002	0,014
-73,753	377,239	0,087	0,127
-72,738	-200,000	-0,014	0,048
-71,724	-74,996	-0,222	-0,056
-70,709	-4,499	0,044	0,021
-69,694	92,836	-0,043	0,034
-68,680	-23,517	-0,059	-0,025
-67,665	-90,133	0,031	0,006
-66,651	-200,000	0,001	-0,010
-65,636	800,000	-0,022	0,052
-64,622	34,742	0,016	0,010
-63,607	157,707	0,092	0,090
-62,592	48,830	-0,158	-0,105
-61,578	210,831	0,046	0,052
-60,563	800,000	0,021	-0,058
-59,549	260,594	0,086	-0,106
-58,534	-41,702	-1,409	-0,511
-57,519	309,542	-1,525	-2,027
-56,505	-200,000	-0,402	-4,521
-55,490	134,353	0,876	0,806
-54,476	800,000	4,822	11,340
-53,461	-200,000	18,106	284,981
-52,446	800,000	725,899	2223,076
-51,432	556,914	1641,096	2816,034
-50,417	79,593	1663,011	1264,623
-49,403	23,158	1536,817	892,513
-48,388	17,123	1460,246	818,821
-47,373	18,042	1449,960	817,442
-46,359	17,473	1440,428	809,319
-45,344	15,462	1435,681	797,024
-44,330	15,349	1433,766	795,386
-43,315	15,381	1431,982	794,518
-42,300	15,367	1430,471	793,582
-41,286	15,404	1429,184	793,012
-40,271	15,367	1428,073	792,189
-39,257	15,385	1426,899	791,593
-38,242	15,429	1425,402	790,939
-37,227	15,454	1424,182	790,348
-36,213	15,432	1422,980	789,549
-35,198	15,419	1421,820	788,810
-34,184	15,447	1420,908	788,404
-33,169	15,366	1419,784	787,367
-32,154	15,439	1418,802	787,139
-31,140	15,424	1417,417	786,266
-30,125	15,426	1416,271	785,607
-29,111	15,459	1415,062	785,063
-28,096	15,413	1414,052	784,256
-27,082	15,339	1412,938	783,257
-26,067	15,374	1411,697	782,705
-25,052	15,355	1410,678	782,016
-24,038	15,345	1409,666	781,377
-23,023	15,290	1408,834	780,627
-22,009	15,320	1407,679	780,099
-20,994	15,266	1406,923	779,398
-19,979	15,279	1405,905	778,861
-18,965	15,287	1404,813	778,263
-17,950	15,253	1404,005	777,627
-16,936	15,280	1402,808	777,057
-15,921	15,207	1401,864	776,163
-14,906	15,261	1400,728	775,756
-13,892	15,276	1399,854	775,311
-12,877	15,235	1399,078	774,659
-11,863	15,231	1398,186	774,117
-10,848	15,201	1397,385	773,502
-9,833	15,184	1396,508	772,910
-8,819	15,157	1395,598	772,246
-7,804	15,141	1394,682	771,636
-6,790	15,125	1393,589	770,927
-5,775	15,158	1392,425	770,408
-4,760	15,176	1391,459	769,925
-3,746	15,141	1390,752	769,338
-2,731	15,151	1390,068	768,978
-1,717	15,077	1389,007	768,017
-0,702	15,075	1387,494	767,144
0,313	18,962	1307,043	740,629
1,327	35,464	706,693	438,720
2,342	54,028	124,902	84,986
3,356	3,796	16,576	8,551
4,371	6,080	3,187	1,668
5,386	9,053	0,578	0,308
6,400	-200,000	0,001	0,284
7,415	56,656	-0,283	-0,195
8,429	18,689	-0,132	-0,074
9,444	-10,641	-0,311	-0,145
10,459	2,749	-0,377	-0,193
11,473	54,663	-0,335	-0,228
12,488	-58,133	-0,393	-0,121
13,502	-99,182	-0,271	-0,048
14,517	-21,373	-0,330	-0,142
15,531	225,505	-0,310	-0,356
16,546	140,399	-0,303	-0,283
17,561	393,310	-0,290	-0,429
18,575	-111,216	-0,238	-0,034
19,590	732,328	-0,150	-0,285
20,604	29,010	-0,213	-0,128
21,619	99,625	-0,373	-0,305
22,634	64,154	-0,529	-0,376
23,648	133,512	-0,375	-0,343
24,663	191,975	-0,336	-0,359
25,677	23,688	-0,411	-0,239
26,692	272,802	-0,220	-0,275
27,707	200,678	-0,284	-0,309
28,721	96,622	-0,394	-0,318
29,736	248,912	-0,244	-0,293
30,750	147,477	-0,431	-0,411
31,765	170,341	-0,348	-0,353
32,780	63,463	-0,344	-0,244
33,794	173,960	-0,286	-0,292
34,809	170,162	-0,336	-0,340
35,823	50,762	-0,326	-0,218
36,838	-48,295	-0,375	-0,127
37,853	103,942	-0,392	-0,325
38,867	41,857	-0,445	-0,284
39,882	-24,125	-0,333	-0,140
40,896	130,774	-0,302	-0,273
41,911	233,149	-0,299	-0,348
42,926	-0,364	-0,423	-0,212
43,940	250,083	-0,350	-0,421
44,955	53,727	-0,384	-0,260
45,969	-3,536	-0,459	-0,224
46,984	130,983	-0,268	-0,243
47,999	96,811	-0,264	-0,213
49,013	-13,836	-0,374	-0,170
50,028	173,922	-0,296	-0,302
51,042	106,258	-0,314	-0,263
52,057	55,366	-0,262	-0,179
53,071	14,590	-0,368	-0,202
54,086	297,856	-0,218	-0,284
55,101	-12,200	-0,449	-0,207
56,115	97,470	-0,358	-0,290
57,130	1,920	-0,402	-0,204
58,144	6,849	-0,395	-0,207
59,159	173,019	-0,265	-0,269
60,174	220,355	-0,324	-0,367
61,188	39,546	-0,383	-0,241
62,203	-52,264	-0,382	-0,124
63,217	182,549	-0,182	-0,189
64,232	-32,951	-0,395	-0,154
65,247	210,405	-0,230	-0,255
66,261	61,798	-0,378	-0,265
67,276	44,202	-0,481	-0,310
68,290	114,551	-0,239	-0,205
69,305	42,253	-0,366	-0,234
70,320	87,963	-0,305	-0,238
71,334	-81,244	-0,352	-0,081
72,349	-37,933	-0,377	-0,140
73,363	-6,497	-0,376	-0,180
74,378	25,404	-0,402	-0,235
75,393	72,389	-0,364	-0,267
76,407	32,892	-0,288	-0,175
77,422	56,391	-0,234	-0,160
78,436	395,429	-0,171	-0,252
79,451	93,444	-0,296	-0,235
80,466	19,686	-0,409	-0,231
81,480	126,830	-0,275	-0,245
82,495	-63,786	-0,287	-0,082
83,509	-26,829	-0,328	-0,134
84,524	-69,989	-0,341	-0,091
85,539	-43,596	-0,258	-0,091
86,553	90,107	-0,314	-0,247
87,568	7,813	-0,441	-0,232
88,582	27,322	-0,355	-0,209
89,597	98,247	-0,289	-0,234
90,611	122,490	-0,233	-0,205
91,626	11,929	-0,270	-0,145
92,641	2,073	-0,227	-0,115
93,655	-54,062	-0,264	-0,084
94,670	39,099	-0,362	-0,227
95,684	122,139	-0,297	-0,260
96,699	-22,852	-0,337	-0,142
97,714	39,572	-0,282	-0,177
98,728	135,753	-0,272	-0,249
99,743	9,566	-0,360	-0,191
100,757	-23,461	-0,330	-0,139
101,772	10,143	-0,241	-0,128
102,787	-10,818	-0,350	-0,162
103,801	184,279	-0,260	-0,271
104,816	-88,185	-0,328	-0,068
105,830	224,384	-0,173	-0,196
106,845	54,882	-0,291	-0,197
107,860	-70,198	-0,246	-0,065
108,874	351,957	-0,200	-0,279
109,889	8,177	-0,290	-0,152
110,903	197,238	-0,314	-0,337
111,918	157,014	-0,221	-0,214
112,933	-69,606	-0,169	-0,045
113,947	207,314	-0,208	-0,228
114,962	-7,609	-0,199	-0,094
115,976	70,616	-0,244	-0,177
116,991	60,447	-0,289	-0,200
118,006	114,259	-0,265	-0,226
119,020	621,125	-0,132	-0,235
120,035	168,595	-0,166	-0,166
121,049	85,002	-0,342	-0,263
122,064	-48,818	-0,224	-0,075
123,079	127,994	-0,349	-0,312
124,093	16,205	-0,229	-0,126
125,108	4,339	-0,248	-0,127
126,122	176,904	-0,214	-0,219
127,137	-39,292	-0,133	-0,049
128,151	14,289	-0,263	-0,143
129,166	240,625	-0,216	-0,254
130,181	-16,788	-0,171	-0,076
131,195	-25,008	-0,299	-0,124
132,210	-95,320	-0,432	-0,081
133,224	54,532	-0,260	-0,175
134,239	-90,384	-0,274	-0,055
135,254	38,532	-0,136	-0,085
136,268	75,405	-0,253	-0,187
137,283	-63,698	-0,202	-0,058
138,297	-174,783	-0,237	0,005
139,312	109,928	-0,250	-0,210
140,327	228,329	-0,246	-0,281
141,341	-71,127	-0,299	-0,078
142,356	-15,144	-0,237	-0,106
143,370	605,044	-0,185	-0,324
144,385	54,114	-0,197	-0,132
145,400	149,494	-0,230	-0,218
146,414	40,642	-0,305	-0,192
147,429	300,627	-0,142	-0,184
148,443	30,470	-0,258	-0,154
149,458	99,093	-0,204	-0,164
150,473	395,215	-0,132	-0,193
151,487	-26,367	-0,225	-0,092
152,502	65,639	-0,216	-0,153
153,516	218,252	-0,235	-0,262
154,531	14,445	-0,388	-0,211
155,546	116,946	-0,226	-0,194
156,560	106,698	-0,281	-0,233
157,575	125,283	-0,312	-0,275
158,589	100,837	-0,338	-0,275
159,604	109,810	-0,205	-0,171
160,619	29,333	-0,298	-0,176
161,633	-15,253	-0,277	-0,123
162,648	69,963	-0,144	-0,104
163,662	-38,885	-0,315	-0,115
164,677	-9,435	-0,245	-0,114
165,692	127,196	-0,241	-0,213
166,706	363,431	-0,234	-0,329
167,721	340,189	-0,186	-0,255
168,735	44,926	-0,280	-0,180
169,750	89,567	-0,148	-0,116
170,764	-3,379	-0,176	-0,085
171,779	324,010	-0,153	-0,205
172,794	288,892	-0,184	-0,234
173,808	113,413	-0,216	-0,183
174,823	402,156	-0,147	-0,216
175,837	10,859	-0,233	-0,124
176,852	220,691	-0,191	-0,214
177,867	719,392	-0,082	-0,152
178,881	230,385	-0,158	-0,180
179,896	310,564	-0,137	-0,179
180,910	-65,656	-0,272	-0,076
181,925	62,442	-0,265	-0,184
182,940	203,346	-0,179	-0,194
183,954	240,804	-0,196	-0,229
184,969	89,648	-0,173	-0,134
185,983	139,537	-0,278	-0,256
186,998	79,311	-0,210	-0,157
188,013	4,587	-0,179	-0,091
189,027	119,666	-0,223	-0,192
190,042	55,376	-0,290	-0,196
191,056	-69,194	-0,247	-0,066
192,071	245,799	-0,163	-0,192
193,086	190,638	-0,175	-0,184
194,100	-104,609	-0,191	-0,030
195,115	184,338	-0,169	-0,175
196,129	-18,581	-0,366	-0,159
197,144	68,919	-0,212	-0,152
198,159	11,799	-0,152	-0,081
199,173	44,484	-0,254	-0,162
200,188	161,192	-0,131	-0,128
201,202	115,006	-0,190	-0,161
202,217	203,846	-0,288	-0,311
203,232	169,572	-0,238	-0,237
204,246	-1,230	-0,248	-0,121
205,261	166,737	-0,149	-0,147
206,275	39,370	-0,148	-0,092
207,290	84,697	-0,187	-0,142
208,304	-36,819	-0,037	0,014
209,319	-2,466	-0,157	-0,077
210,334	108,235	-0,179	-0,149
211,348	202,340	-0,137	-0,147
212,363	179,221	-0,196	-0,200
213,377	67,149	-0,275	-0,195
214,392	-12,034	-0,171	-0,078
215,407	224,370	-0,082	-0,093
216,421	34,084	-0,205	-0,124
217,436	114,933	-0,219	-0,186
218,450	9,402	-0,230	-0,121
219,465	137,064	-0,257	-0,234
220,480	162,384	-0,202	-0,197
221,494	-41,705	-0,153	-0,054
222,509	-200,000	-0,068	-0,277
223,523	289,718	-0,147	-0,186
224,538	-73,849	-0,183	-0,046
225,553	-35,559	-0,250	-0,094
226,567	-0,603	-0,266	-0,131
227,582	799,696	-0,073	-0,141
228,596	-135,914	-0,170	0,014
229,611	-137,346	-0,256	-0,020
230,626	-11,838	-0,227	-0,103
231,640	392,108	-0,221	-0,320
232,655	177,336	-0,241	-0,244
233,669	699,725	-0,147	-0,270
234,684	-18,173	-0,227	-0,098
235,699	253,391	-0,128	-0,152
236,713	85,939	-0,103	-0,079
237,728	122,677	-0,117	-0,102
238,742	275,426	-0,129	-0,160
239,757	83,588	-0,132	-0,100
240,772	-39,721	-0,305	-0,110
241,786	64,254	-0,142	-0,099
242,801	171,104	-0,123	-0,122
243,815	381,398	-0,136	-0,194
244,830	210,084	-0,152	-0,166
245,844	-5,608	-0,177	-0,084
246,859	422,786	-0,171	-0,255
247,874	13,058	-0,343	-0,184
248,888	-4,455	-0,209	-0,100
249,903	156,789	-0,186	-0,178
250,917	18,158	-0,123	-0,068
251,932	152,510	-0,180	-0,170
252,947	-76,596	-0,088	-0,021
253,961	65,026	-0,358	-0,251
254,976	147,754	-0,172	-0,160
255,990	236,282	-0,132	-0,151
257,005	54,698	-0,127	-0,085
258,020	57,162	-0,103	-0,069
259,034	6,906	-0,113	-0,058
260,049	-59,962	-0,048	0,014
261,063	155,484	-0,177	-0,169
262,078	450,963	-0,141	-0,216
263,093	59,336	-0,154	-0,105
264,107	-125,923	-0,165	0,017
265,122	-86,848	-0,162	0,034
266,136	800,000	-0,084	-0,166
267,151	17,796	-0,105	-0,058
268,166	-156,722	-0,274	-0,012
269,180	344,744	-0,210	-0,286
270,195	195,393	-0,246	-0,259
271,209	201,855	-0,160	-0,171
272,224	267,753	-0,163	-0,198
273,239	39,705	-0,127	-0,079
274,253	103,482	-0,096	-0,078
275,268	84,278	-0,124	-0,094
276,282	800,000	-0,130	-0,279
277,297	82,187	-0,237	-0,177
278,312	580,866	-0,112	-0,191
279,326	800,000	-0,072	-0,143
280,341	53,596	-0,256	-0,170
281,355	-2,193	-0,170	0,082
282,370	175,014	-0,128	-0,128
283,384	119,915	-0,145	-0,124
284,399	-200,000	-0,046	-0,220
285,414	224,396	-0,166	-0,186
286,428	271,582	-0,083	-0,102
287,443	27,232	-0,201	-0,116
288,457	-200,000	-0,021	-0,088
289,472	-154,140	-0,174	-0,008
290,487	130,092	-0,128	-0,113
291,501	227,769	-0,128	-0,144
292,516	164,929	-0,195	-0,190
293,530	1,718	-0,130	-0,064
294,545	-45,115	-0,197	-0,067
295,560	130,614	-0,122	-0,108
296,574	297,385	-0,148	-0,187
297,589	119,038	-0,068	-0,058
298,603	143,913	-0,209	-0,192
299,618	-146,842	-0,217	-0,013
300,633	82,575	-0,091	-0,068
301,647	-65,857	-0,193	-0,053
302,662	800,000	0,022	-0,065
303,676	-132,277	-0,083	0,007
304,691	475,067	-0,080	-0,125
305,706	27,139	-0,165	-0,095
306,720	-80,308	-0,145	-0,033
307,735	57,505	-0,121	-0,082
308,749	-8,167	-0,242	-0,112
309,764	-52,094	-0,201	-0,064
310,779	662,078	-0,041	-0,073
311,793	604,657	-0,125	-0,216
312,808	138,520	-0,124	-0,112
313,822	753,388	-0,139	-0,260
314,837	366,119	-0,202	-0,281
315,852	146,471	-0,071	-0,066
316,866	225,665	-0,100	-0,112
317,881	499,053	-0,106	-0,169
318,895	-137,097	-0,152	0,012
319,910	-20,449	-0,245	-0,103
320,925	273,843	-0,086	-0,105
321,939	-1,762	-0,095	-0,046
322,954	54,028	-0,143	-0,095
323,968	18,726	-0,160	-0,088
324,983	-167,697	-0,143	0,004
325,997	-96,050	-0,212	-0,039
327,012	133,381	-0,220	-0,196
328,027	80,447	-0,188	-0,140
329,041	-119,016	-0,177	-0,021
330,056	800,000	-0,056	-0,140
331,070	71,897	-0,136	-0,098
332,085	-36,654	-0,140	-0,052
333,100	-8,277	-0,098	-0,045
334,114	437,381	-0,117	-0,175
335,129	197,298	-0,125	-0,131
336,143	-35,623	-0,131	-0,049
337,158	401,270	-0,087	-0,126
338,173	300,487	-0,092	-0,117
339,187	13,634	-0,156	-0,083
340,202	-105,467	-0,213	0,033
341,216	31,892	-0,127	-0,075
342,231	24,260	-0,151	-0,086
343,246	-70,418	-0,188	-0,049
344,260	-36,645	-0,071	-0,026
345,275	-153,079	-0,081	-0,004
346,289	-101,656	-0,161	0,027
347,304	-151,356	-0,153	-0,008
348,319	-58,578	-0,144	-0,043
349,333	59,259	-0,141	0,095
350,348	96,104	-0,159	-0,124
351,362	-42,556	-0,226	-0,079
352,377	85,981	-0,095	-0,072
353,392	-200,000	-0,018	-0,224
354,406	127,970	-0,119	-0,104
355,421	208,348	1313,058	1412,351
356,435	160,308	1473,612	1412,868
