DTS Sentinel unit serial number:	SN410029Multiplexer serial number:	ORYXHardware model number:	OX2-SRSoftware version number:	ORYX F/W v4,00 Oryx Data Collector v3.7.2.0data status	okinstallation	B3 Nyhavnadifferential loss correction	single-endedforward channel	channel 1reverse channel	N/Adate	2023/12/04time	17:17:30forward acquisition time	300,00reverse acquisition time	0,00gamma	499,1914k internal	0,3200k external	0,3200temperature offset calibration	1,0000default loss term (dB/km)	0,3820temperature slope calibration	1,0000multiplexer offset coefficient	1,0000multiplexer slope coefficient	1,0000fibre end	0,00T internal ref (°C)	15,12T ext. ref 1 (°C)	0,05T ext. ref 2 (°C)	0,03length (m)	temperature (°C)	Stokes	anti-Stokes-744,400	203,470	-0,261	-0,294
-743,385	-200,000	0,038	0,281
-742,371	-15,532	-0,256	-0,119
-741,356	-200,000	0,082	0,449
-740,342	73,407	-0,154	-0,117
-739,327	-200,000	0,038	0,294
-738,312	800,000	-0,153	-0,316
-737,298	216,337	-0,213	0,247
-736,283	-200,000	-0,060	-0,218
-735,269	-200,000	0,006	0,362
-734,254	174,381	-0,205	-0,215
-733,239	-13,747	-0,198	0,093
-732,225	-200,000	-0,061	-0,257
-731,210	296,478	0,043	0,057
-730,196	272,271	0,094	0,121
-729,181	296,760	-0,049	-0,065
-728,167	800,000	0,037	-0,118
-727,152	800,000	-0,012	0,026
-726,137	144,131	-0,053	-0,051
-725,123	-101,150	0,066	0,012
-724,108	27,412	-0,046	-0,028
-723,094	186,365	-0,048	0,052
-722,079	-200,000	0,007	-0,166
-721,064	800,000	-0,101	-0,213
-720,050	471,171	0,050	0,082
-719,035	-117,512	0,137	-0,018
-718,021	215,985	0,028	0,032
-717,006	31,324	-0,183	0,114
-715,991	-138,464	-0,099	-0,008
-714,977	-200,000	-0,009	0,044
-713,962	-200,000	0,033	0,111
-712,948	-200,000	-0,001	0,017
-711,933	-136,380	-0,093	-0,008
-710,918	-38,641	0,032	-0,012
-709,904	172,914	-0,031	0,032
-708,889	-180,740	-0,137	0,002
-707,875	150,883	0,061	0,060
-706,860	-200,000	-0,004	-0,103
-705,845	125,049	0,070	0,064
-704,831	-200,000	0,021	0,125
-703,816	148,416	0,032	0,032
-702,802	-193,244	-0,117	-0,001
-701,787	186,078	-0,093	0,101
-700,772	-5,285	-0,107	-0,053
-699,758	218,296	0,045	-0,052
-698,743	-15,499	0,149	0,069
-697,729	-200,000	-0,017	0,056
-696,714	244,638	-0,121	-0,148
-695,699	81,516	0,095	0,075
-694,685	-83,301	-0,039	0,009
-693,670	187,706	-0,041	-0,045
-692,656	800,000	0,045	0,093
-691,641	800,000	-0,035	0,081
-690,627	800,000	-0,058	0,140
-689,612	-200,000	0,013	-0,042
-688,597	269,121	-0,069	0,089
-687,583	-6,159	-0,069	-0,034
-686,568	800,000	-0,034	0,083
-685,554	-200,000	0,010	-0,152
-684,539	-130,592	-0,075	-0,007
-683,524	800,000	0,045	-0,140
-682,510	63,614	0,116	0,084
-681,495	-113,023	-0,040	0,006
-680,481	-69,859	-0,171	-0,047
-679,466	-25,896	-0,097	-0,041
-678,451	61,216	-0,131	-0,094
-677,437	48,455	0,100	-0,068
-676,422	-200,000	0,009	0,097
-675,408	800,000	-0,009	-0,024
-674,393	-30,225	-0,105	0,043
-673,378	129,086	-0,040	-0,037
-672,364	-40,404	-0,116	0,043
-671,349	-200,000	0,025	-0,116
-670,335	12,735	-0,145	-0,081
-669,320	800,000	0,046	0,102
-668,305	162,934	0,143	0,146
-667,291	-45,802	-0,074	-0,026
-666,276	-80,327	-0,153	-0,037
-665,262	-200,000	-0,038	-0,183
-664,247	455,428	0,072	-0,116
-663,232	127,120	-0,079	-0,073
-662,218	-107,295	0,172	-0,027
-661,203	-144,788	-0,053	-0,003
-660,189	-91,168	-0,116	0,024
-659,174	87,682	-0,097	-0,078
-658,159	-200,000	-0,040	-0,157
-657,145	144,126	-0,142	-0,138
-656,130	-17,753	-0,251	-0,114
-655,116	-146,074	-0,147	-0,009
-654,101	223,122	0,118	0,138
-653,086	-114,545	-0,149	0,021
-652,072	-200,000	-0,029	0,148
-651,057	-122,842	-0,039	-0,005
-650,043	-200,000	0,040	-0,149
-649,028	-200,000	0,007	-0,139
-648,014	800,000	0,058	0,149
-646,999	73,144	-0,052	0,039
-645,984	-200,000	0,033	0,129
-644,970	800,000	0,023	0,062
-643,955	-10,925	0,081	0,039
-642,941	152,419	-0,081	-0,081
-641,926	-83,367	0,116	-0,027
-640,911	-200,000	0,011	-0,140
-639,897	-124,244	0,043	0,005
-638,882	48,537	-0,078	-0,053
-637,868	-68,746	0,060	-0,017
-636,853	-200,000	-0,007	-0,037
-635,838	-17,325	-0,184	-0,084
-634,824	800,000	0,008	0,025
-633,809	486,529	0,068	0,113
-632,795	9,315	0,083	-0,046
-631,780	-125,087	-0,215	-0,024
-630,765	40,597	-0,040	-0,026
-629,751	-200,000	0,010	-0,171
-628,736	299,776	-0,039	-0,053
-627,722	-200,000	0,011	-0,042
-626,707	-200,000	0,023	0,107
-625,692	800,000	0,034	0,081
-624,678	-200,000	0,003	0,030
-623,663	800,000	-0,019	0,051
-622,649	-200,000	-0,023	-0,080
-621,634	-200,000	0,021	-0,066
-620,619	-200,000	0,003	0,077
-619,605	-78,391	0,150	0,037
-618,590	139,412	0,029	-0,028
-617,576	-3,029	-0,106	0,053
-616,561	88,862	0,104	-0,084
-615,546	-200,000	0,009	-0,131
-614,532	517,165	0,052	-0,089
-613,517	36,510	-0,073	0,047
-612,503	800,000	0,033	-0,085
-611,488	-200,000	-0,016	-0,059
-610,474	800,000	0,035	0,108
-609,459	8,320	-0,127	0,069
-608,444	-84,309	-0,091	0,021
-607,430	-1,052	0,127	0,065
-606,415	738,297	-0,030	-0,059
-605,401	8,146	0,062	0,034
-604,386	-119,822	0,160	0,020
-603,371	206,229	-0,066	-0,075
-602,357	-65,037	-0,159	-0,046
-601,342	213,866	0,066	-0,076
-600,328	56,888	-0,100	-0,070
-599,313	67,672	0,029	0,021
-598,298	615,890	0,012	0,022
-597,284	-192,775	-0,022	0,000
-596,269	13,512	0,077	0,043
-595,255	800,000	0,015	0,045
-594,240	-200,000	0,003	0,022
-593,225	406,940	-0,092	-0,141
-592,211	800,000	-0,042	-0,096
-591,196	23,016	-0,029	0,017
-590,182	-200,000	0,000	-0,002
-589,167	800,000	0,025	0,058
-588,152	-200,000	0,018	-0,078
-587,138	786,607	-0,054	-0,107
-586,123	109,603	-0,029	-0,025
-585,109	800,000	-0,024	0,059
-584,094	-138,794	-0,067	0,005
-583,079	-35,561	-0,017	0,007
-582,065	487,448	-0,045	0,074
-581,050	-200,000	-0,036	0,139
-580,036	45,834	0,045	0,030
-579,021	647,512	-0,054	-0,100
-578,006	281,077	-0,081	-0,105
-576,992	800,000	0,027	-0,069
-575,977	279,996	0,087	0,112
-574,963	-102,807	0,038	-0,007
-573,948	-200,000	-0,002	-0,105
-572,934	1,581	0,058	-0,030
-571,919	233,033	-0,072	-0,086
-570,904	-200,000	-0,038	-0,141
-569,890	314,339	-0,156	-0,213
-568,875	526,558	0,052	-0,090
-567,861	175,905	0,079	0,083
-566,846	532,291	-0,069	0,118
-565,831	800,000	-0,016	-0,037
-564,817	25,317	-0,083	-0,050
-563,802	-13,859	-0,055	-0,026
-562,788	-200,000	-0,002	-0,153
-561,773	-200,000	-0,001	0,004
-560,758	-25,016	0,120	0,051
-559,744	-200,000	-0,005	-0,123
-558,729	800,000	-0,007	-0,015
-557,715	66,545	0,062	0,045
-556,700	-200,000	0,000	0,112
-555,685	162,494	-0,027	0,028
-554,671	-200,000	0,030	-0,219
-553,656	-200,000	0,004	-0,037
-552,642	-116,718	-0,040	-0,005
-551,627	-200,000	0,008	-0,071
-550,612	-36,300	0,064	-0,025
-549,598	-61,531	-0,119	-0,036
-548,583	522,736	0,029	-0,049
-547,569	788,230	-0,051	-0,102
-546,554	-200,000	0,019	0,118
-545,539	-76,343	0,076	0,019
-544,525	277,948	0,021	0,027
-543,510	800,000	-0,017	0,038
-542,496	-136,113	-0,090	-0,008
-541,481	-200,000	0,027	-0,128
-540,466	-200,000	0,020	-0,077
-539,452	247,326	0,023	0,028
-538,437	-100,456	0,094	-0,017
-537,423	-200,000	-0,008	0,231
-536,408	-73,675	0,122	-0,032
-535,393	-14,689	-0,037	-0,017
-534,379	-186,428	-0,083	-0,001
-533,364	229,152	-0,025	0,029
-532,350	-100,987	-0,120	0,021
-531,335	-161,635	0,066	-0,002
-530,321	-21,627	0,122	-0,053
-529,306	34,895	-0,047	-0,030
-528,291	8,138	-0,080	0,043
-527,277	428,879	-0,005	-0,007
-526,262	-110,844	-0,124	-0,018
-525,248	-200,000	0,001	-0,086
-524,233	-131,421	0,101	-0,009
-523,218	-79,815	-0,046	0,011
-522,204	-64,188	-0,142	0,041
-521,189	-20,974	-0,136	-0,060
-520,175	105,894	-0,075	-0,064
-519,160	-200,000	-0,026	-0,174
-518,145	24,601	0,134	0,080
-517,131	800,000	0,025	0,066
-516,116	800,000	-0,032	0,099
-515,102	800,000	-0,006	0,012
-514,087	-200,000	-0,009	-0,087
-513,072	-200,000	0,016	0,055
-512,058	-200,000	-0,046	-0,218
-511,043	-43,368	0,093	0,034
-510,029	-200,000	-0,031	0,130
-509,014	69,324	0,052	-0,039
-507,999	-200,000	-0,008	0,050
-506,985	800,000	-0,046	0,110
-505,970	-200,000	-0,010	-0,048
-504,956	-200,000	-0,028	-0,097
-503,941	-142,845	0,021	0,001
-502,926	-118,538	0,057	0,007
-501,912	-200,000	-0,027	0,128
-500,897	84,104	-0,094	-0,074
-499,883	-200,000	0,019	0,070
-498,868	-71,575	-0,113	-0,030
-497,853	-200,000	0,001	-0,005
-496,839	53,970	-0,088	-0,061
-495,824	74,133	-0,054	-0,041
-494,810	505,522	0,058	0,097
-493,795	77,985	0,034	-0,026
-492,781	-200,000	0,026	0,142
-491,766	-200,000	-0,006	0,130
-490,751	-200,000	0,006	-0,044
-489,737	-200,000	-0,014	0,061
-488,722	-200,000	0,023	-0,096
-487,708	-200,000	-0,001	0,082
-486,693	-200,000	-0,028	0,133
-485,678	141,058	-0,073	-0,069
-484,664	-200,000	-0,052	-0,182
-483,649	-7,776	-0,085	-0,041
-482,635	-54,588	0,163	0,053
-481,620	-200,000	-0,008	-0,070
-480,605	-97,474	-0,027	-0,005
-479,591	800,000	0,044	0,122
-478,576	-59,691	-0,025	0,008
-477,562	800,000	0,031	-0,069
-476,547	800,000	-0,015	0,038
-475,532	-200,000	0,010	0,073
-474,518	77,423	0,212	0,163
-473,503	-25,489	0,050	0,021
-472,489	744,744	0,028	-0,055
-471,474	447,187	0,090	-0,143
-470,459	-145,728	-0,022	0,001
-469,445	156,728	-0,061	-0,060
-468,430	130,006	0,028	-0,026
-467,416	162,388	-0,045	-0,046
-466,401	-200,000	0,009	0,049
-465,386	37,161	-0,087	0,055
-464,372	163,080	0,114	0,116
-463,357	625,794	0,016	0,029
-462,343	-130,228	-0,078	-0,008
-461,328	694,899	-0,028	0,053
-460,313	-200,000	0,020	0,066
-459,299	-200,000	-0,007	-0,127
-458,284	534,161	0,073	0,125
-457,270	529,922	-0,088	0,150
-456,255	583,059	-0,024	-0,043
-455,241	-120,486	0,085	-0,010
-454,226	91,260	0,027	0,021
-453,211	-88,267	0,068	-0,014
-452,197	4,306	0,105	-0,055
-451,182	-200,000	-0,022	0,085
-450,168	-200,000	-0,012	0,038
-449,153	-200,000	0,014	-0,114
-448,138	-200,000	0,035	-0,177
-447,124	-200,000	-0,002	-0,043
-446,109	-200,000	0,010	-0,075
-445,095	130,814	-0,055	0,051
-444,080	-200,000	0,016	-0,063
-443,065	-200,000	0,009	0,033
-442,051	736,386	0,012	0,023
-441,036	-200,000	0,043	-0,202
-440,022	800,000	0,047	-0,147
-439,007	86,586	0,076	0,060
-437,992	-35,017	0,121	0,047
-436,978	-144,535	0,132	0,009
-435,963	-80,782	-0,044	-0,010
-434,949	-21,033	-0,038	-0,016
-433,934	179,672	-0,077	-0,081
-432,919	28,625	-0,097	-0,059
-431,905	-200,000	0,006	0,070
-430,890	274,606	-0,068	-0,087
-429,876	-200,000	-0,036	0,178
-428,861	-200,000	-0,033	0,126
-427,846	-200,000	0,000	0,025
-426,832	65,917	-0,070	0,051
-425,817	-30,041	0,134	0,055
-424,803	-200,000	-0,013	0,052
-423,788	13,025	0,069	0,038
-422,773	487,551	-0,054	-0,089
-421,759	800,000	-0,063	0,186
-420,744	800,000	-0,002	-0,006
-419,730	153,719	-0,090	-0,088
-418,715	83,487	-0,068	-0,053
-417,701	800,000	-0,080	-0,178
-416,686	170,942	-0,040	-0,041
-415,671	35,710	0,142	0,090
-414,657	-51,388	0,042	-0,014
-413,642	800,000	-0,023	-0,066
-412,628	49,022	-0,106	0,072
-411,613	280,593	-0,099	-0,128
-410,598	244,501	0,058	0,070
-409,584	800,000	-0,020	-0,044
-408,569	800,000	-0,025	0,056
-407,555	-5,166	-0,100	-0,049
-406,540	-200,000	-0,024	0,148
-405,525	-50,815	-0,113	0,038
-404,511	60,751	0,109	0,078
-403,496	-200,000	-0,002	0,026
-402,482	347,819	0,081	-0,115
-401,467	800,000	0,087	0,266
-400,452	53,813	0,073	-0,050
-399,438	-34,217	-0,059	0,023
-398,423	-56,857	-0,087	0,027
-397,409	-200,000	0,001	-0,011
-396,394	112,320	-0,046	-0,040
-395,379	26,100	0,050	-0,030
-394,365	-51,390	0,045	0,015
-393,350	-200,000	-0,041	0,223
-392,336	-151,589	0,159	-0,008
-391,321	800,000	-0,032	0,093
-390,306	-115,154	-0,036	-0,005
-389,292	230,925	-0,071	-0,083
-388,277	272,959	0,042	0,053
-387,263	-139,970	0,124	-0,009
-386,248	-137,243	0,094	-0,008
-385,233	800,000	0,020	0,060
-384,219	80,721	0,108	-0,084
-383,204	-200,000	-0,046	-0,166
-382,190	-200,000	-0,008	-0,171
-381,175	-118,402	0,023	0,003
-380,160	189,141	-0,023	0,024
-379,146	-200,000	0,002	0,012
-378,131	719,725	0,067	0,129
-377,117	-112,459	-0,087	-0,012
-376,102	45,022	0,109	-0,072
-375,088	-200,000	0,022	-0,094
-374,073	-19,586	0,034	-0,015
-373,058	-46,538	-0,073	0,026
-372,044	-63,846	0,082	-0,024
-371,029	-200,000	-0,006	0,097
-370,015	800,000	-0,023	0,067
-369,000	-184,458	0,048	-0,001
-367,985	268,544	-0,043	-0,055
-366,971	-200,000	-0,003	-0,076
-365,956	-74,725	0,025	-0,006
-364,942	-200,000	-0,003	0,031
-363,927	22,639	0,099	-0,058
-362,912	502,076	-0,035	-0,058
-361,898	-200,000	0,031	0,120
-360,883	203,595	-0,065	-0,072
-359,869	64,793	-0,113	-0,082
-358,854	-79,949	0,081	0,019
-357,839	-162,914	0,103	-0,004
-356,825	-68,838	-0,081	-0,022
-355,810	-200,000	0,004	0,065
-354,796	539,213	0,037	-0,064
-353,781	190,125	-0,103	-0,111
-352,766	-200,000	-0,010	0,140
-351,752	-200,000	-0,065	-0,211
-350,737	182,753	0,090	0,095
-349,723	149,036	-0,047	0,046
-348,708	-200,000	-0,006	0,201
-347,693	518,320	0,084	-0,141
-346,679	500,663	0,075	-0,125
-345,664	2,220	-0,093	-0,048
-344,650	429,682	0,066	-0,102
-343,635	800,000	0,029	-0,058
-342,620	-38,511	0,073	0,027
-341,606	218,847	0,035	0,040
-340,591	-97,942	-0,086	0,016
-339,577	-108,962	-0,123	0,019
-338,562	-200,000	0,008	-0,084
-337,548	-200,000	-0,004	-0,037
-336,533	-35,396	0,041	0,016
-335,518	282,836	0,075	-0,097
-334,504	-200,000	-0,012	0,060
-333,489	800,000	0,036	0,092
-332,475	23,633	-0,056	-0,033
-331,460	371,016	0,018	0,027
-330,445	309,869	-0,031	0,042
-329,431	-200,000	0,010	0,103
-328,416	-19,710	0,096	0,042
-327,402	-200,000	0,013	0,050
-326,387	-200,000	-0,033	0,138
-325,372	26,985	0,058	-0,035
-324,358	241,877	-0,032	-0,039
-323,343	310,296	0,033	0,044
-322,329	201,321	-0,060	-0,066
-321,314	-12,589	0,091	0,042
-320,299	-200,000	-0,039	0,153
-319,285	142,154	-0,052	0,049
-318,270	248,501	-0,041	-0,049
-317,256	-200,000	0,002	-0,017
-316,241	800,000	-0,038	0,109
-315,226	-200,000	0,000	-0,021
-314,212	164,852	-0,005	0,005
-313,197	467,282	0,031	0,049
-312,183	646,959	-0,068	-0,124
-311,168	178,728	-0,005	-0,005
-310,153	800,000	0,034	-0,101
-309,139	306,985	0,043	0,057
-308,124	84,329	-0,065	0,051
-307,110	120,959	0,047	0,042
-306,095	143,908	-0,053	-0,050
-305,080	-121,829	0,079	0,009
-304,066	-179,873	0,051	-0,001
-303,051	234,489	-0,043	0,051
-302,037	-95,056	0,109	-0,021
-301,022	-200,000	-0,013	-0,081
-300,008	800,000	-0,027	0,065
-298,993	-71,211	0,092	-0,025
-297,978	308,489	-0,060	0,081
-296,964	122,889	0,054	-0,049
-295,949	398,856	-0,050	-0,075
-294,935	-200,000	0,017	-0,149
-293,920	-99,348	-0,024	-0,004
-292,905	800,000	-0,054	-0,111
-291,891	-14,738	0,070	-0,032
-290,876	-80,547	0,143	-0,034
-289,862	-116,977	0,028	0,004
-288,847	222,715	-0,045	0,052
-287,832	322,746	-0,034	-0,046
-286,818	384,065	0,080	0,117
-285,803	442,821	-0,022	0,035
-284,789	291,179	0,078	0,101
-283,774	266,526	0,036	-0,045
-282,759	-44,731	-0,163	-0,058
-281,745	-200,000	-0,029	0,095
-280,730	313,283	-0,021	0,028
-279,716	25,160	0,126	0,074
-278,701	-200,000	0,006	0,048
-277,686	-200,000	0,002	-0,049
-276,672	173,499	0,052	-0,054
-275,657	711,233	-0,023	0,043
-274,643	-58,437	-0,209	-0,064
-273,628	155,739	0,053	-0,052
-272,613	208,258	0,103	-0,115
-271,599	-138,155	0,119	0,009
-270,584	-200,000	0,010	0,087
-269,570	-113,817	-0,072	-0,010
-268,555	-200,000	-0,019	0,105
-267,540	239,499	0,021	-0,025
-266,526	52,363	-0,068	0,046
-265,511	-63,453	-0,131	-0,038
-264,497	-200,000	-0,018	0,067
-263,482	415,923	-0,021	0,031
-262,467	734,206	-0,060	-0,116
-261,453	-59,659	0,027	0,008
-260,438	541,137	-0,068	-0,117
-259,424	-143,720	0,099	0,007
-258,409	-200,000	-0,012	0,156
-257,395	-71,422	-0,149	-0,039
-256,380	142,388	0,043	-0,041
-255,365	316,554	-0,031	0,043
-254,351	29,279	0,058	0,035
-253,336	75,916	-0,051	-0,038
-252,322	114,833	-0,020	-0,017
-251,307	159,459	0,009	0,009
-250,292	-144,488	0,005	0,000
-249,278	-2,937	0,173	0,086
-248,263	-20,533	-0,026	0,011
-247,249	-200,000	-0,041	0,148
-246,234	800,000	-0,035	0,094
-245,219	61,127	0,069	0,048
-244,205	800,000	-0,040	-0,091
-243,190	203,345	-0,052	0,057
-242,176	-200,000	0,002	0,060
-241,161	-190,905	0,089	-0,001
-240,146	-157,903	-0,130	-0,005
-239,132	-8,913	-0,028	0,013
-238,117	-200,000	0,003	0,013
-237,103	-200,000	-0,007	0,041
-236,088	-190,965	0,026	-0,000
-235,073	-29,463	0,108	0,044
-234,059	-115,643	-0,032	-0,004
-233,044	332,872	0,004	0,006
-232,030	92,420	-0,038	-0,031
-231,015	56,222	-0,078	-0,054
-230,000	-200,000	0,019	0,058
-228,986	723,715	-0,027	-0,051
-227,971	-39,083	0,122	0,046
-226,957	-200,000	0,000	-0,114
-225,942	65,130	0,062	0,044
-224,927	-200,000	0,005	0,153
-223,913	-36,145	-0,086	-0,033
-222,898	-56,292	-0,089	0,028
-221,884	540,784	0,009	-0,016
-220,869	-26,086	-0,094	0,039
-219,855	-200,000	0,005	-0,044
-218,840	115,113	0,128	-0,112
-217,825	230,312	-0,099	-0,116
-216,811	800,000	-0,019	0,042
-215,796	-200,000	-0,015	-0,050
-214,782	800,000	-0,021	-0,043
-213,767	-200,000	-0,031	0,149
-212,752	-200,000	-0,010	-0,066
-211,738	684,425	-0,072	0,134
-210,723	266,972	-0,042	0,053
-209,709	-102,261	-0,117	0,020
-208,694	171,769	-0,104	0,107
-207,679	136,552	-0,056	0,052
-206,665	51,435	-0,040	0,027
-205,650	37,244	0,095	0,060
-204,636	-11,912	-0,044	-0,021
-203,621	-200,000	-0,007	0,083
-202,606	-152,626	0,095	-0,005
-201,592	149,508	-0,115	-0,111
-200,577	800,000	0,008	0,017
-199,563	-200,000	-0,017	0,059
-198,548	-163,307	0,197	0,007
-197,533	286,980	0,092	0,118
-196,519	38,771	0,037	0,024
-195,504	708,216	-0,086	-0,163
-194,490	19,604	0,084	0,048
-193,475	544,269	-0,013	-0,022
-192,460	307,589	-0,043	0,057
-191,446	-200,000	0,003	0,024
-190,431	-200,000	0,161	0,000
-189,417	351,227	0,045	-0,063
-188,402	-171,892	0,014	0,000
-187,387	-183,858	-0,049	0,001
-186,373	-143,397	-0,103	-0,007
-185,358	61,382	0,197	0,140
-184,344	89,711	0,069	-0,055
-183,329	-200,000	-0,030	0,111
-182,315	-200,000	-0,056	0,000
-181,300	124,765	-0,019	-0,017
-180,285	110,505	-0,024	-0,021
-179,271	50,405	0,023	-0,015
-178,256	-200,000	-0,033	0,148
-177,242	227,461	-0,109	0,126
-176,227	-74,079	0,080	-0,020
-175,212	-97,287	0,024	-0,004
-174,198	-200,000	0,007	-0,042
-173,183	800,000	-0,041	0,119
-172,169	222,539	-0,024	0,027
-171,154	104,051	0,086	-0,072
-170,139	-36,209	0,165	-0,063
-169,125	59,097	0,075	-0,052
-168,110	198,399	-0,030	0,032
-167,096	-65,161	-0,112	0,032
-166,081	79,738	0,119	0,091
-165,066	-89,883	0,146	-0,030
-164,052	-89,176	-0,077	0,016
-163,037	98,789	-0,075	0,062
-162,023	-200,000	0,070	0,241
-161,008	85,955	-0,057	0,045
-159,993	173,793	-0,037	0,038
-158,979	-98,027	0,036	-0,007
-157,964	800,000	-0,015	-0,036
-156,950	-200,000	-0,008	0,069
-155,935	-200,000	-0,035	-0,155
-154,920	-200,000	-0,032	-0,160
-153,906	-30,501	0,055	-0,022
-152,891	-113,955	0,078	-0,011
-151,877	-18,759	-0,114	-0,050
-150,862	-118,555	0,078	0,010
-149,847	700,935	-0,054	-0,101
-148,833	-31,478	0,217	-0,086
-147,818	-200,000	0,004	0,143
-146,804	800,000	-0,038	0,117
-145,789	-62,542	-0,080	0,023
-144,775	-184,004	0,062	-0,001
-143,760	-93,495	-0,100	0,020
-142,745	10,807	-0,026	-0,014
-141,731	-200,000	0,024	-0,093
-140,716	-200,000	0,061	-0,224
-139,702	-78,288	-0,132	0,032
-138,687	-200,000	0,021	0,106
-137,672	-200,000	0,031	-0,146
-136,658	137,379	-0,051	0,048
-135,643	-66,676	-0,176	0,049
-134,629	39,125	0,043	-0,027
-133,614	-102,405	0,024	-0,004
-132,599	800,000	-0,046	-0,121
-131,585	-66,357	0,114	0,032
-130,570	-200,000	0,012	0,167
-129,556	-144,259	-0,013	0,001
-128,541	-200,000	-0,019	0,077
-127,526	77,712	0,075	0,057
-126,512	486,310	-0,036	-0,058
-125,497	398,400	0,057	0,086
-124,483	224,496	0,038	-0,043
-123,468	-200,000	-0,006	-0,043
-122,453	-67,169	0,131	0,036
-121,439	800,000	-0,037	-0,084
-120,424	635,408	-0,082	-0,149
-119,410	173,116	0,114	-0,116
-118,395	130,989	-0,078	0,071
-117,380	-200,000	-0,022	0,074
-116,366	357,584	0,093	-0,132
-115,351	159,905	-0,037	0,036
-114,337	800,000	-0,077	-0,180
-113,322	8,631	0,084	-0,045
-112,307	185,188	0,064	-0,067
-111,293	-160,687	0,140	0,005
-110,278	-192,438	-0,029	-0,000
-109,264	-93,437	-0,145	0,028
-108,249	-32,551	-0,075	-0,029
-107,234	-150,650	0,077	0,004
-106,220	-14,413	0,083	-0,038
-105,205	-5,312	0,105	0,051
-104,191	-58,366	0,109	0,033
-103,176	-2,446	0,054	-0,027
-102,162	681,208	-0,094	0,175
-101,147	67,095	0,036	-0,026
-100,132	553,154	-0,069	0,117
-99,118	31,043	0,134	0,082
-98,103	-148,395	-0,106	0,006
-97,089	-95,203	-0,079	-0,015
-96,074	146,224	-0,044	0,042
-95,059	800,000	0,035	0,102
-94,045	313,532	0,011	-0,014
-93,030	-200,000	-0,018	-0,116
-92,016	-129,622	-0,144	0,014
-91,001	32,693	-0,051	-0,031
-89,986	-37,483	0,127	-0,048
-88,972	-33,726	-0,026	0,010
-87,957	215,575	0,087	-0,098
-86,943	-200,000	0,014	-0,045
-85,928	-112,850	0,112	-0,016
-84,913	34,650	-0,144	-0,089
-83,899	800,000	0,046	0,124
-82,884	-33,525	0,144	0,056
-81,870	116,778	0,057	-0,050
-80,855	359,664	0,056	-0,079
-79,840	-200,000	0,045	-0,174
-78,826	800,000	-0,026	-0,074
-77,811	24,169	-0,181	-0,106
-76,797	170,643	-0,024	-0,024
-75,782	-153,076	0,093	0,005
-74,767	-200,000	0,022	0,096
-73,753	426,664	-0,019	-0,030
-72,738	63,134	-0,082	0,058
-71,724	225,794	-0,044	0,051
-70,709	-200,000	-0,040	-0,127
-69,694	-12,823	0,044	0,020
-68,680	-200,000	-0,025	0,124
-67,665	594,517	0,112	0,198
-66,651	-154,297	0,035	0,002
-65,636	672,297	0,069	0,127
-64,622	-131,381	-0,109	0,010
-63,607	679,924	0,015	-0,028
-62,592	-200,000	0,006	-0,038
-61,578	-200,000	0,038	0,166
-60,563	1,246	-0,072	0,036
-59,549	222,269	-0,030	-0,034
-58,534	-89,393	-1,405	-0,290
-57,519	454,352	-1,343	-2,115
-56,505	-200,000	-0,599	-4,568
-55,490	133,053	1,017	0,931
-54,476	800,000	4,901	11,334
-53,461	-200,000	18,107	286,071
-52,446	800,000	727,072	2223,303
-51,432	553,529	1642,800	2807,897
-50,417	79,311	1664,911	1262,782
-49,403	23,005	1538,706	891,523
-48,388	16,996	1461,994	817,983
-47,373	17,878	1451,783	816,485
-46,359	17,301	1442,328	808,371
-45,344	15,271	1437,684	796,053
-44,330	15,187	1435,820	794,588
-43,315	15,195	1434,182	793,685
-42,300	15,206	1432,414	792,728
-41,286	15,221	1431,512	792,267
-40,271	15,223	1430,050	791,438
-39,257	15,188	1429,003	790,664
-38,242	15,219	1427,481	789,936
-37,227	15,244	1426,432	789,440
-36,213	15,227	1425,078	788,579
-35,198	15,214	1423,908	787,842
-34,184	15,277	1423,088	787,653
-33,169	15,172	1421,672	786,343
-32,154	15,251	1420,447	786,007
-31,140	15,258	1419,242	785,342
-30,125	15,273	1418,153	784,779
-29,111	15,247	1417,058	784,020
-28,096	15,211	1416,010	783,236
-27,082	15,169	1414,910	782,402
-26,067	15,160	1413,744	781,682
-25,052	15,153	1412,749	781,070
-24,038	15,168	1411,687	780,522
-23,023	15,106	1410,878	779,754
-22,009	15,111	1409,687	779,088
-20,994	15,084	1408,951	778,521
-19,979	15,124	1407,879	778,086
-18,965	15,109	1406,788	777,381
-17,950	15,054	1405,959	776,636
-16,936	15,078	1404,980	776,178
-15,921	15,052	1403,884	775,421
-14,906	15,058	1403,072	774,969
-13,892	15,101	1402,147	774,626
-12,877	15,070	1401,202	773,929
-11,863	15,096	1400,180	773,457
-10,848	15,046	1399,478	772,807
-9,833	15,019	1398,531	772,124
-8,819	14,971	1397,728	771,432
-7,804	14,947	1396,545	770,637
-6,790	14,984	1395,539	770,220
-5,775	14,961	1394,675	769,604
-4,760	14,974	1393,607	769,049
-3,746	14,915	1392,983	768,400
-2,731	14,939	1392,091	767,989
-1,717	14,967	1391,061	767,519
-0,702	14,913	1389,516	766,386
0,313	18,689	1308,665	739,277
1,327	35,082	707,187	437,503
2,342	53,191	125,014	84,605
3,356	5,239	16,475	8,566
4,371	-10,306	3,212	1,502
5,386	-12,117	0,524	0,242
6,400	-200,000	0,053	0,234
7,415	115,881	-0,259	-0,224
8,429	116,670	-0,305	-0,265
9,444	138,512	-0,303	-0,281
10,459	-48,242	-0,260	-0,088
11,473	192,369	-0,268	-0,286
12,488	-71,103	-0,336	-0,089
13,502	-8,400	-0,257	-0,122
14,517	-48,536	-0,331	-0,112
15,531	176,049	-0,378	-0,388
16,546	-29,261	-0,333	-0,134
17,561	-10,089	-0,322	-0,150
18,575	-88,007	-0,318	-0,067
19,590	13,628	-0,338	-0,185
20,604	67,204	-0,262	-0,189
21,619	139,860	-0,399	-0,372
22,634	69,459	-0,557	-0,405
23,648	-6,970	-0,482	-0,231
24,663	-23,825	-0,499	-0,210
25,677	-20,333	-0,312	-0,135
26,692	-13,566	-0,363	-0,166
27,707	21,937	-0,460	-0,264
28,721	64,862	-0,334	-0,238
29,736	115,657	-0,418	-0,361
30,750	122,676	-0,500	-0,442
31,765	29,970	-0,466	-0,280
32,780	131,379	-0,467	-0,424
33,794	66,294	-0,344	-0,246
34,809	260,519	-0,262	-0,321
35,823	146,596	-0,385	-0,365
36,838	130,625	-0,386	-0,350
37,853	40,655	-0,530	-0,336
38,867	86,723	-0,327	-0,254
39,882	47,071	-0,407	-0,267
40,896	219,749	-0,292	-0,330
41,911	186,995	-0,254	-0,268
42,926	134,603	-0,333	-0,305
43,940	75,837	-0,375	-0,279
44,955	323,987	-0,198	-0,268
45,969	145,829	-0,309	-0,292
46,984	-28,140	-0,210	-0,085
47,999	53,176	-0,344	-0,232
49,013	77,740	-0,167	-0,125
50,028	127,033	-0,325	-0,290
51,042	29,172	-0,330	-0,197
52,057	-34,463	-0,394	-0,152
53,071	418,739	-0,255	-0,385
54,086	12,928	-0,331	-0,180
55,101	-47,472	-0,475	-0,162
56,115	-27,526	-0,325	-0,132
57,130	11,600	-0,435	-0,234
58,144	15,188	-0,378	-0,208
59,159	55,142	-0,261	-0,178
60,174	28,040	-0,358	-0,212
61,188	194,528	-0,244	-0,260
62,203	-100,905	-0,312	-0,053
63,217	33,088	-0,272	-0,166
64,232	107,452	-0,361	-0,302
65,247	24,578	-0,374	-0,217
66,261	-3,042	-0,352	-0,172
67,276	278,455	-0,209	-0,262
68,290	-27,642	-0,336	-0,137
69,305	39,657	-0,264	-0,166
70,320	-91,884	-0,309	-0,061
71,334	157,612	-0,210	-0,205
72,349	-102,982	-0,241	-0,040
73,363	-27,479	-0,287	-0,117
74,378	-68,688	-0,370	-0,100
75,393	64,472	-0,334	-0,236
76,407	51,001	-0,181	-0,120
77,422	-36,481	-0,276	-0,104
78,436	-135,057	-0,352	-0,029
79,451	13,491	-0,343	-0,186
80,466	-38,061	-0,387	-0,144
81,480	-12,292	-0,325	-0,149
82,495	97,841	-0,229	-0,185
83,509	118,378	-0,226	-0,196
84,524	48,969	-0,190	-0,125
85,539	78,988	-0,258	-0,194
86,553	-39,894	-0,402	-0,147
87,568	138,922	-0,242	-0,224
88,582	77,787	-0,233	-0,174
89,597	7,656	-0,355	-0,186
90,611	-64,773	-0,344	-0,097
91,626	180,441	-0,155	-0,160
92,641	127,273	-0,222	-0,198
93,655	-75,842	-0,204	0,050
94,670	93,022	-0,164	-0,130
95,684	77,447	-0,288	-0,215
96,699	81,617	-0,286	-0,217
97,714	90,411	-0,238	-0,187
98,728	46,187	-0,153	-0,099
99,743	49,598	-0,278	-0,184
100,757	-94,925	-0,392	-0,074
101,772	85,428	-0,252	-0,194
102,787	-3,303	-0,310	-0,151
103,801	-91,882	-0,269	-0,053
104,816	-132,464	-0,259	-0,023
105,830	14,020	-0,288	-0,157
106,845	-93,179	-0,314	-0,061
107,860	-26,596	-0,199	-0,082
108,874	-41,922	-0,341	-0,122
109,889	117,980	-0,470	-0,406
110,903	-6,222	-0,280	-0,133
111,918	-59,983	-0,205	-0,061
112,933	14,521	-0,269	-0,147
113,947	34,280	-0,180	-0,110
114,962	69,082	-0,190	-0,136
115,976	20,971	-0,265	-0,150
116,991	138,163	-0,300	-0,276
118,006	296,551	-0,212	-0,273
119,020	394,066	-0,219	-0,321
120,035	84,513	-0,266	-0,204
121,049	-31,387	-0,180	-0,070
122,064	2,982	-0,227	-0,115
123,079	-65,458	-0,330	-0,092
124,093	-21,061	-0,369	-0,157
125,108	-43,898	-0,391	-0,137
126,122	6,199	-0,292	-0,151
127,137	-59,644	-0,354	-0,106
128,151	-80,706	-0,246	-0,057
129,166	-75,471	-0,196	0,048
130,181	-6,317	-0,254	-0,121
131,195	-19,298	-0,266	-0,115
132,210	33,148	-0,205	-0,124
133,224	283,140	-0,265	-0,334
134,239	272,425	-0,256	-0,317
135,254	9,922	-0,210	-0,111
136,268	346,573	-0,118	-0,163
137,283	34,187	-0,206	-0,125
138,297	58,787	-0,227	-0,156
139,312	61,397	-0,278	-0,193
140,327	8,262	-0,179	-0,094
141,341	36,125	-0,197	-0,121
142,356	-195,072	-0,272	0,001
143,370	101,832	-0,196	-0,160
144,385	360,183	-0,250	-0,351
145,400	164,116	-0,261	-0,257
146,414	85,298	-0,396	-0,304
147,429	-26,926	-0,370	-0,150
148,443	60,362	-0,248	-0,171
149,458	20,286	-0,214	-0,120
150,473	-39,823	-0,203	-0,074
151,487	3,992	-0,239	-0,121
152,502	-50,887	-0,303	-0,099
153,516	337,109	-0,162	-0,220
154,531	79,985	-0,272	-0,204
155,546	140,622	-0,206	-0,190
156,560	24,232	-0,178	-0,102
157,575	45,967	-0,181	-0,117
158,589	29,253	-0,156	-0,092
159,604	128,193	-0,215	-0,191
160,619	129,111	-0,262	-0,233
161,633	116,582	-0,220	-0,188
162,648	103,948	-0,212	-0,174
163,662	136,150	-0,237	-0,216
164,677	435,414	-0,190	-0,289
165,692	29,073	-0,343	-0,202
166,706	45,820	-0,230	-0,148
167,721	98,705	-0,267	-0,215
168,735	800,000	-0,098	-0,296
169,750	252,885	-0,122	-0,145
170,764	-18,419	-0,182	-0,079
171,779	9,483	-0,240	-0,126
172,794	-63,771	-0,248	-0,070
173,808	-15,805	-0,304	-0,135
174,823	-36,252	-0,264	-0,099
175,837	14,331	-0,310	-0,168
176,852	16,202	-0,292	-0,160
177,867	-31,758	-0,221	-0,086
178,881	376,642	-0,111	-0,159
179,896	-104,689	-0,246	0,039
180,910	-59,104	-0,308	-0,092
181,925	18,690	-0,233	-0,130
182,940	17,544	-0,286	-0,158
183,954	61,808	-0,242	-0,167
184,969	54,846	-0,260	-0,174
185,983	69,784	-0,127	-0,091
186,998	2,946	-0,088	0,044
188,013	231,069	-0,205	-0,234
189,027	245,619	-0,241	-0,283
190,042	-33,369	-0,113	-0,043
191,056	331,438	-0,216	-0,291
192,071	-45,104	-0,175	-0,060
193,086	104,405	-0,177	-0,145
194,100	67,599	-0,064	-0,046
195,115	79,827	-0,181	-0,135
196,129	155,921	-0,153	-0,147
197,144	0,235	-0,358	-0,177
198,159	-13,052	-0,248	-0,112
199,173	154,200	-0,132	-0,126
200,188	-34,524	-0,227	-0,086
201,202	800,000	-0,104	-0,207
202,217	-67,465	-0,130	-0,035
203,232	308,764	-0,158	-0,206
204,246	308,308	-0,151	-0,196
205,261	143,717	-0,318	-0,295
206,275	90,367	-0,205	-0,159
207,290	-19,079	-0,065	-0,028
208,304	800,000	-0,086	-0,167
209,319	685,566	-0,100	-0,183
210,334	86,548	-0,280	-0,214
211,348	90,059	-0,264	-0,205
212,363	190,791	-0,178	-0,187
213,377	26,353	-0,250	-0,145
214,392	226,681	-0,175	-0,198
215,407	-200,000	-0,045	-0,210
216,421	265,207	-0,139	-0,168
217,436	129,387	-0,178	-0,158
218,450	-0,332	-0,193	-0,095
219,465	25,139	-0,175	-0,100
220,480	344,851	-0,164	-0,224
221,494	381,393	-0,134	-0,192
222,509	-12,723	-0,221	-0,100
223,523	140,075	-0,110	-0,100
224,538	-7,690	-0,148	-0,069
225,553	73,308	-0,200	-0,145
226,567	-115,241	-0,313	-0,041
227,582	300,769	-0,130	-0,167
228,596	237,233	-0,098	-0,113
229,611	800,000	-0,104	-0,245
230,626	83,776	-0,206	-0,155
231,640	-9,831	-0,258	-0,119
232,655	512,543	-0,145	-0,235
233,669	156,455	-0,197	-0,189
234,684	-111,034	-0,161	-0,023
235,699	114,191	-0,148	-0,125
236,713	127,291	-0,166	-0,146
237,728	87,100	-0,117	-0,090
238,742	-20,090	-0,207	-0,088
239,757	245,132	-0,203	-0,237
240,772	673,940	-0,170	-0,308
241,786	225,101	-0,165	-0,185
242,801	-58,455	-0,243	-0,073
243,815	361,238	-0,177	-0,246
244,830	32,919	-0,084	-0,051
245,844	-135,994	-0,242	-0,019
246,859	-152,999	-0,091	0,004
247,874	103,416	-0,233	-0,189
248,888	0,568	-0,216	-0,107
249,903	181,362	-0,142	-0,144
250,917	-200,000	-0,035	-0,113
251,932	-200,000	-0,246	-0,001
252,947	203,247	-0,078	-0,083
253,961	169,012	-0,188	-0,186
254,976	-7,959	-0,206	-0,096
255,990	72,787	-0,090	-0,065
257,005	-140,692	-0,169	0,012
258,020	90,975	-0,195	-0,151
259,034	23,161	-0,128	-0,073
260,049	144,063	-0,230	-0,213
261,063	800,000	-0,087	-0,176
262,078	-93,589	-0,231	-0,044
263,093	128,864	-0,194	-0,171
264,107	101,481	-0,220	-0,178
265,122	-41,215	-0,187	-0,066
266,136	296,269	-0,112	-0,143
267,151	-69,701	-0,176	-0,046
268,166	3,721	-0,135	-0,068
269,180	-31,253	-0,221	-0,086
270,195	-9,320	-0,223	-0,102
271,209	117,082	-0,233	-0,198
272,224	266,619	-0,165	-0,200
273,239	38,248	-0,140	-0,086
274,253	-85,111	-0,237	-0,051
275,268	-200,000	-0,018	-0,137
276,282	137,631	-0,175	-0,159
277,297	25,445	-0,130	-0,074
278,312	82,808	-0,250	-0,188
279,326	209,124	-0,174	-0,188
280,341	191,036	-0,150	-0,156
281,355	61,637	-0,161	-0,110
282,370	-81,302	-0,196	-0,044
283,384	-6,465	-0,222	-0,104
284,399	180,308	-0,189	-0,192
285,414	156,177	-0,193	-0,184
286,428	-200,000	-0,006	-0,077
287,443	-67,002	-0,109	0,030
288,457	-200,000	-0,026	0,127
289,472	25,065	-0,245	-0,140
290,487	82,140	-0,048	-0,036
291,501	54,891	-0,199	-0,132
292,516	717,334	-0,072	-0,133
293,530	-200,000	-0,019	-0,119
294,545	48,622	-0,119	-0,077
295,560	451,158	-0,130	-0,198
296,574	-74,349	-0,192	0,048
297,589	14,904	-0,264	-0,142
298,603	574,130	-0,088	-0,149
299,618	145,577	-0,211	-0,195
300,633	235,543	-0,144	-0,164
301,647	-152,287	-0,158	-0,008
302,662	381,773	-0,104	-0,147
303,676	134,129	-0,097	-0,086
304,691	164,123	-0,228	-0,222
305,706	-110,084	-0,227	-0,032
306,720	156,032	-0,168	-0,160
307,735	673,057	-0,102	-0,184
308,749	800,000	-0,056	-0,108
309,764	156,910	-0,088	-0,084
310,779	-200,000	-0,023	-0,176
311,793	-105,475	-0,172	0,027
312,808	131,996	-0,136	-0,120
313,822	243,697	-0,148	-0,171
314,837	-6,381	-0,141	-0,066
315,852	-200,000	-0,005	-0,162
316,866	-29,073	-0,037	-0,015
317,881	-8,659	-0,029	-0,013
318,895	115,731	-0,101	-0,085
319,910	132,138	-0,140	-0,124
320,925	800,000	-0,144	-0,277
321,939	97,712	-0,173	-0,136
322,954	82,081	-0,228	-0,170
323,968	332,440	-0,031	0,041
324,983	644,213	-0,118	-0,208
325,997	168,046	-0,157	-0,154
327,012	-75,119	-0,128	0,031
328,027	800,000	-0,083	-0,173
329,041	55,856	-0,138	-0,092
330,056	14,970	-0,048	0,026
331,070	-200,000	-0,016	-0,182
332,085	70,884	-0,176	-0,125
333,100	-89,050	-0,169	-0,034
334,114	-200,000	-0,036	-0,133
335,129	149,379	-0,163	-0,152
336,143	-200,000	-0,003	-0,034
337,158	1,832	-0,094	-0,047
338,173	15,110	-0,070	-0,038
339,187	22,188	-0,233	-0,131
340,202	-146,330	-0,123	-0,007
341,216	-82,472	-0,204	-0,045
342,231	45,975	-0,209	-0,132
343,246	-200,000	-0,009	-0,069
344,260	252,988	-0,038	-0,045
345,275	334,839	-0,123	-0,164
346,289	140,229	-0,108	-0,098
347,304	-136,452	-0,110	-0,009
348,319	703,743	-0,088	-0,160
349,333	-31,714	-0,183	-0,070
350,348	-17,216	-0,271	-0,117
351,362	-11,637	-0,191	-0,086
352,377	52,216	-0,142	-0,093
353,392	-111,051	-0,171	0,024
354,406	-132,820	-0,087	-0,008
355,421	208,469	1315,949	1413,753
356,435	160,409	1476,836	1414,260
