DTS Sentinel unit serial number:	SN410029Multiplexer serial number:	ORYXHardware model number:	OX2-SRSoftware version number:	ORYX F/W v4,00 Oryx Data Collector v3.7.2.0data status	okinstallation	B3 Nyhavnadifferential loss correction	single-endedforward channel	channel 1reverse channel	N/Adate	2023/12/02time	13:12:30forward acquisition time	300,00reverse acquisition time	0,00gamma	499,1914k internal	0,3199k external	0,3199temperature offset calibration	1,0000default loss term (dB/km)	0,3820temperature slope calibration	1,0000multiplexer offset coefficient	1,0000multiplexer slope coefficient	1,0000fibre end	0,00T internal ref (°C)	14,37T ext. ref 1 (°C)	0,07T ext. ref 2 (°C)	0,06length (m)	temperature (°C)	Stokes	anti-Stokes-744,400	-200,000	-0,062	-0,200
-743,385	-200,000	0,011	0,357
-742,371	208,547	-0,152	-0,173
-741,356	549,779	0,207	0,363
-740,342	-22,281	-0,201	-0,088
-739,327	800,000	0,087	0,233
-738,312	-9,655	-0,213	-0,103
-737,298	-200,000	-0,058	0,217
-736,283	161,365	-0,277	-0,282
-735,269	-200,000	0,034	0,260
-734,254	157,836	-0,211	-0,213
-733,239	-0,309	-0,123	0,063
-732,225	188,468	-0,127	-0,139
-731,210	-200,000	0,015	0,071
-730,196	770,256	0,076	0,151
-729,181	800,000	-0,109	-0,231
-728,167	-62,504	0,125	-0,038
-727,152	800,000	0,055	-0,153
-726,137	290,769	-0,048	-0,064
-725,123	-100,449	-0,140	-0,025
-724,108	36,443	-0,220	-0,141
-723,094	149,689	-0,068	-0,067
-722,079	443,281	0,063	0,101
-721,064	-80,526	0,050	0,012
-720,050	-200,000	-0,022	-0,071
-719,035	-80,630	-0,143	0,034
-718,021	-200,000	-0,010	-0,060
-717,006	-200,000	-0,034	-0,134
-715,991	-200,000	-0,052	-0,173
-714,977	664,790	-0,038	-0,071
-713,962	-200,000	0,026	-0,122
-712,948	-200,000	-0,016	-0,152
-711,933	-29,457	-0,111	0,046
-710,918	-178,058	-0,047	0,001
-709,904	-200,000	0,001	-0,060
-708,889	-200,000	-0,035	-0,136
-707,875	-61,407	-0,043	0,013
-706,860	168,487	-0,035	0,037
-705,845	-70,634	-0,042	0,011
-704,831	-159,950	0,038	-0,001
-703,816	614,676	-0,070	-0,128
-702,802	-200,000	-0,006	-0,126
-701,787	227,224	0,011	-0,013
-700,772	296,032	0,079	-0,106
-699,758	67,259	0,155	-0,115
-698,743	568,122	-0,020	0,035
-697,729	-35,131	0,103	-0,041
-696,714	-51,460	-0,134	0,045
-695,699	-200,000	0,027	0,095
-694,685	-52,957	-0,118	-0,039
-693,670	16,034	0,071	-0,040
-692,656	-89,768	-0,074	0,016
-691,641	-160,708	-0,070	-0,003
-690,627	-3,437	0,127	0,064
-689,612	800,000	-0,039	0,079
-688,597	160,691	-0,076	-0,077
-687,583	93,686	0,056	-0,046
-686,568	568,354	0,015	0,027
-685,554	114,500	0,049	0,043
-684,539	-200,000	-0,019	-0,124
-683,524	-200,000	0,029	0,094
-682,510	-110,836	0,073	0,011
-681,495	-64,225	0,064	-0,019
-680,481	-200,000	-0,004	-0,173
-679,466	-200,000	-0,021	-0,155
-678,451	-27,442	-0,108	-0,046
-677,437	800,000	0,040	-0,119
-676,422	225,519	0,048	0,056
-675,408	215,452	-0,115	0,133
-674,393	104,797	0,022	-0,019
-673,378	-90,487	-0,037	-0,008
-672,364	69,627	-0,099	0,074
-671,349	325,797	-0,096	-0,133
-670,335	800,000	-0,012	-0,024
-669,320	-0,887	-0,078	-0,040
-668,305	800,000	0,017	0,039
-667,291	729,709	-0,098	0,191
-666,276	733,141	-0,057	-0,112
-665,262	777,095	-0,017	-0,035
-664,247	800,000	-0,010	0,024
-663,232	59,930	-0,073	0,052
-662,218	-153,457	0,090	0,004
-661,203	255,154	-0,083	-0,103
-660,189	326,149	-0,042	-0,058
-659,174	58,826	0,046	0,033
-658,159	-139,288	-0,080	-0,006
-657,145	-60,670	-0,078	-0,024
-656,130	-200,000	0,007	-0,074
-655,116	54,969	0,050	0,035
-654,101	139,507	0,096	-0,092
-653,086	178,980	0,084	-0,089
-652,072	127,896	-0,097	-0,089
-651,057	-121,755	-0,043	0,005
-650,043	800,000	-0,031	-0,070
-649,028	-123,400	0,153	0,017
-648,014	-49,945	-0,023	0,008
-646,999	-2,303	0,112	0,057
-645,984	668,335	-0,082	0,155
-644,970	800,000	-0,040	0,082
-643,955	-133,277	-0,104	0,009
-642,941	149,448	-0,098	0,096
-641,926	146,107	0,122	0,118
-640,911	-200,000	0,019	0,083
-639,897	-200,000	-0,001	0,029
-638,882	-106,368	-0,075	0,012
-637,868	23,956	-0,105	0,063
-636,853	140,289	0,077	-0,074
-635,838	-200,000	-0,007	-0,118
-634,824	413,370	-0,058	0,089
-633,809	-140,535	-0,016	-0,001
-632,795	-75,826	-0,142	-0,036
-631,780	26,722	-0,087	0,053
-630,765	355,986	-0,009	0,013
-629,751	27,064	0,049	-0,029
-628,736	-200,000	0,001	0,105
-627,722	-200,000	-0,016	0,065
-626,707	185,078	0,033	-0,035
-625,692	800,000	0,018	0,043
-624,678	-36,400	0,073	-0,028
-623,663	339,029	-0,015	-0,021
-622,649	-200,000	-0,050	0,192
-621,634	267,033	-0,094	0,119
-620,619	-200,000	-0,004	-0,142
-619,605	-36,814	0,073	0,028
-618,590	-200,000	0,012	0,136
-617,576	352,576	0,035	-0,051
-616,561	-43,861	-0,176	-0,064
-615,546	-116,797	0,114	-0,015
-614,532	-122,702	-0,160	-0,019
-613,517	-200,000	-0,001	0,010
-612,503	-200,000	-0,018	-0,110
-611,488	-38,768	-0,028	-0,011
-610,474	800,000	0,083	0,227
-609,459	-200,000	0,005	0,023
-608,444	-101,783	-0,117	-0,020
-607,430	800,000	-0,012	-0,031
-606,415	655,983	0,035	0,065
-605,401	-200,000	-0,007	0,164
-604,386	-179,349	0,156	-0,002
-603,371	150,874	0,126	-0,124
-602,357	-200,000	0,023	-0,079
-601,342	-40,656	0,076	0,028
-600,328	83,646	-0,044	-0,035
-599,313	-23,542	-0,034	-0,015
-598,298	-200,000	0,018	-0,186
-597,284	214,170	-0,013	0,015
-596,269	-185,072	-0,151	0,002
-595,255	278,245	-0,049	-0,064
-594,240	-148,883	-0,052	-0,003
-593,225	800,000	-0,042	-0,109
-592,211	157,408	-0,007	-0,007
-591,196	-100,746	0,100	-0,018
-590,182	131,841	0,078	-0,073
-589,167	357,298	0,065	0,095
-588,152	226,524	-0,096	0,112
-587,138	48,091	0,070	0,047
-586,123	273,433	-0,120	0,154
-585,109	-122,737	-0,046	-0,005
-584,094	-36,698	-0,124	-0,048
-583,079	800,000	-0,037	-0,075
-582,065	-86,405	0,029	0,006
-581,050	-4,966	-0,028	0,014
-580,036	-76,983	-0,138	0,034
-579,021	-30,955	0,051	0,021
-578,006	-179,096	-0,153	0,002
-576,992	800,000	0,012	-0,037
-575,977	-200,000	0,035	0,126
-574,963	-200,000	-0,017	0,060
-573,948	-200,000	-0,000	0,162
-572,934	347,544	0,035	0,050
-571,919	-200,000	0,004	-0,034
-570,904	418,257	0,028	0,043
-569,890	-32,586	-0,006	0,002
-568,875	269,070	0,079	-0,101
-567,861	-118,265	0,070	-0,009
-566,846	-200,000	0,009	0,127
-565,831	800,000	-0,034	0,104
-564,817	76,177	-0,093	-0,071
-563,802	254,327	0,046	-0,057
-562,788	130,963	0,042	0,039
-561,773	-200,000	-0,018	-0,066
-560,758	-200,000	0,002	-0,070
-559,744	392,662	0,062	-0,093
-558,729	336,504	-0,075	-0,106
-557,715	-200,000	0,006	-0,027
-556,700	97,082	0,079	-0,065
-555,685	800,000	-0,019	-0,050
-554,671	-66,593	0,124	0,035
-553,656	781,109	-0,051	-0,101
-552,642	-200,000	-0,000	0,014
-551,627	18,939	0,093	-0,053
-550,612	-200,000	-0,001	-0,041
-549,598	-158,751	0,100	0,004
-548,583	-200,000	0,007	-0,118
-547,569	-171,177	0,165	0,004
-546,554	-200,000	0,079	0,000
-545,539	-200,000	-0,007	0,183
-544,525	712,706	-0,071	0,137
-543,510	-145,907	-0,105	-0,007
-542,496	173,016	-0,032	-0,033
-541,481	-200,000	0,002	-0,028
-540,466	-200,000	0,028	0,105
-539,452	-200,000	0,016	0,063
-538,437	-165,893	0,054	0,002
-537,423	-200,000	-0,000	-0,072
-536,408	48,647	0,015	0,010
-535,393	-200,000	0,003	-0,147
-534,379	-200,000	-0,016	0,084
-533,364	-200,000	0,002	-0,157
-532,350	800,000	0,033	0,080
-531,335	183,805	-0,063	-0,067
-530,321	-5,239	0,070	-0,035
-529,306	-200,000	-0,032	-0,124
-528,291	656,368	-0,051	-0,095
-527,277	-200,000	-0,027	-0,157
-526,262	71,107	0,040	-0,030
-525,248	-39,873	-0,096	-0,036
-524,233	207,764	0,121	0,136
-523,218	800,000	0,010	0,027
-522,204	23,554	-0,078	0,046
-521,189	364,568	0,015	-0,022
-520,175	695,374	0,012	0,023
-519,160	128,549	-0,044	-0,040
-518,145	-144,644	-0,170	0,011
-517,131	74,130	0,062	0,047
-516,116	70,935	-0,050	-0,037
-515,102	-200,000	-0,033	-0,174
-514,087	304,128	-0,029	-0,039
-513,072	390,399	-0,115	-0,172
-512,058	-88,672	0,134	0,028
-511,043	-200,000	0,004	0,065
-510,029	500,474	0,050	0,084
-509,014	-40,685	0,074	0,028
-507,999	-54,837	-0,087	0,028
-506,985	411,757	-0,065	-0,101
-505,970	-169,284	-0,086	-0,002
-504,956	-130,125	0,153	0,015
-503,941	-48,178	-0,069	0,024
-502,926	-102,932	0,037	-0,006
-501,912	47,790	-0,061	0,041
-500,897	-12,709	0,046	-0,022
-499,883	-111,387	-0,154	0,022
-498,868	709,169	0,069	-0,132
-497,853	800,000	-0,021	0,068
-496,839	800,000	0,012	-0,037
-495,824	49,052	0,057	0,039
-494,810	-200,000	0,052	0,191
-493,795	263,785	-0,059	0,075
-492,781	-200,000	0,020	-0,121
-491,766	-200,000	-0,005	0,059
-490,751	-34,044	-0,066	-0,026
-489,737	299,390	-0,057	-0,076
-488,722	0,276	0,083	0,042
-487,708	213,970	-0,088	0,101
-486,693	-85,786	0,053	-0,012
-485,678	406,099	-0,034	0,053
-484,664	-200,000	-0,044	-0,194
-483,649	-30,265	0,048	0,019
-482,635	133,577	-0,017	-0,016
-481,620	-107,077	0,041	0,006
-480,605	800,000	-0,015	0,036
-479,591	-200,000	-0,010	-0,050
-478,576	-132,074	0,203	0,019
-477,562	426,549	-0,072	-0,112
-476,547	-200,000	0,003	0,105
-475,532	-200,000	0,003	0,060
-474,518	-200,000	-0,011	-0,086
-473,503	264,790	-0,046	0,057
-472,489	81,063	-0,074	-0,058
-471,474	94,693	0,077	0,063
-470,459	-19,246	-0,148	-0,066
-469,445	205,193	-0,026	-0,029
-468,430	-73,789	0,144	-0,037
-467,416	117,317	0,135	0,119
-466,401	0,062	0,107	-0,055
-465,386	800,000	0,045	-0,119
-464,372	-105,903	0,078	0,013
-463,357	19,713	-0,031	-0,018
-462,343	441,022	-0,073	0,115
-461,328	120,317	-0,058	-0,051
-460,313	800,000	0,033	0,067
-459,299	-69,745	0,092	0,025
-458,284	-60,830	0,133	0,040
-457,270	800,000	-0,041	0,099
-456,255	533,933	0,035	-0,060
-455,241	74,491	0,129	-0,098
-454,226	13,003	0,030	0,016
-453,211	-75,025	-0,149	0,038
-452,197	-200,000	0,025	0,134
-451,182	-200,000	-0,008	-0,041
-450,168	-200,000	-0,008	-0,114
-449,153	-46,857	-0,064	0,022
-448,138	800,000	0,054	-0,116
-447,124	-200,000	-0,029	0,133
-446,109	-28,330	0,101	0,042
-445,095	-41,582	-0,150	0,055
-444,080	800,000	-0,025	-0,071
-443,065	239,740	0,041	0,049
-442,051	-83,319	0,145	0,033
-441,036	318,412	-0,084	-0,115
-440,022	-81,470	0,132	-0,031
-439,007	-48,374	-0,226	-0,078
-437,992	168,121	-0,137	0,140
-436,978	154,852	0,112	0,111
-435,963	546,396	0,045	0,078
-434,949	78,392	-0,100	-0,077
-433,934	313,625	-0,044	0,059
-432,919	-200,000	0,014	-0,046
-431,905	83,633	-0,048	-0,038
-430,890	-45,211	0,114	-0,041
-429,876	217,970	0,046	0,053
-428,861	-3,793	-0,039	0,020
-427,846	-200,000	-0,018	-0,147
-426,832	52,490	-0,134	-0,092
-425,817	800,000	-0,057	-0,145
-424,803	485,553	-0,109	-0,180
-423,788	-30,919	0,067	-0,027
-422,773	-163,522	0,080	-0,003
-421,759	-60,531	0,109	-0,033
-420,744	-68,272	0,068	0,019
-419,730	-112,501	0,138	0,020
-418,715	-20,683	-0,089	-0,039
-417,701	131,835	-0,089	-0,082
-416,686	-64,593	0,081	-0,024
-415,671	-200,000	0,003	0,118
-414,657	10,438	0,088	0,048
-413,642	164,929	0,092	0,094
-412,628	-39,382	-0,104	-0,039
-411,613	168,050	-0,042	-0,043
-410,598	-200,000	0,008	-0,078
-409,584	-32,394	-0,038	-0,015
-408,569	-147,065	0,163	0,010
-407,555	-72,523	0,150	-0,040
-406,540	800,000	-0,048	0,140
-405,525	-200,000	0,021	0,000
-404,511	118,230	-0,169	-0,150
-403,496	89,940	0,089	-0,071
-402,482	207,537	-0,040	0,044
-401,467	-94,313	-0,041	-0,008
-400,452	-33,148	0,143	0,057
-399,438	-142,246	0,050	-0,004
-398,423	-200,000	-0,051	-0,206
-397,409	180,337	0,054	-0,057
-396,394	160,526	0,125	-0,126
-395,379	-83,926	0,113	0,026
-394,365	178,114	0,037	0,039
-393,350	272,040	0,066	0,084
-392,336	-4,289	0,034	-0,017
-391,321	634,809	-0,010	0,019
-390,306	-200,000	0,018	-0,069
-389,292	-49,129	-0,075	0,026
-388,277	-200,000	0,028	0,153
-387,263	-200,000	-0,011	0,095
-386,248	-200,000	0,013	-0,044
-385,233	44,600	-0,083	0,055
-384,219	-24,371	-0,104	0,044
-383,204	-89,530	-0,071	-0,015
-382,190	-200,000	-0,016	-0,170
-381,175	79,789	0,048	-0,037
-380,160	18,873	0,119	-0,068
-379,146	800,000	-0,001	0,003
-378,131	800,000	-0,012	-0,037
-377,117	262,169	-0,062	0,077
-376,102	800,000	0,035	-0,076
-375,088	-200,000	0,006	0,024
-374,073	-137,697	-0,137	-0,011
-373,058	800,000	-0,031	-0,067
-372,044	-23,097	0,060	-0,026
-371,029	-89,431	0,148	-0,031
-370,015	-200,000	0,039	-0,141
-369,000	-200,000	0,001	0,033
-367,985	-14,354	0,099	0,045
-366,971	-200,000	0,018	0,139
-365,956	-101,083	0,098	0,017
-364,942	-191,897	0,118	0,001
-363,927	117,145	0,143	0,126
-362,912	-158,204	0,075	0,003
-361,898	37,997	0,032	0,021
-360,883	-17,154	-0,139	0,063
-359,869	-77,525	-0,077	0,019
-358,854	-49,327	0,037	-0,013
-357,839	78,643	0,067	0,051
-356,825	232,193	0,033	0,038
-355,810	-200,000	0,029	0,153
-354,796	7,337	-0,088	0,047
-353,781	207,975	0,024	-0,027
-352,766	800,000	0,009	0,026
-351,752	144,231	0,050	-0,048
-350,737	214,343	0,079	0,090
-349,723	-70,217	0,107	0,029
-348,708	-200,000	0,005	0,107
-347,693	-67,217	-0,143	0,040
-346,679	-200,000	-0,007	0,181
-345,664	-23,366	-0,046	-0,020
-344,650	441,204	0,073	-0,115
-343,635	800,000	0,071	0,156
-342,620	-200,000	0,019	0,125
-341,606	800,000	-0,055	0,111
-340,591	-200,000	-0,004	-0,137
-339,577	-200,000	0,024	-0,094
-338,562	465,287	-0,106	-0,171
-337,548	-200,000	0,010	0,088
-336,533	95,048	-0,146	0,119
-335,518	77,845	0,047	0,036
-334,504	-31,717	0,051	0,020
-333,489	-200,000	0,011	0,081
-332,475	-200,000	-0,012	-0,061
-331,460	510,339	-0,031	0,053
-330,445	-71,509	-0,101	-0,027
-329,431	46,160	0,073	-0,048
-328,416	-186,508	0,113	0,001
-327,402	107,803	0,068	-0,058
-326,387	666,897	-0,053	-0,099
-325,372	660,288	-0,057	-0,105
-324,358	-200,000	0,030	-0,133
-323,343	138,081	-0,107	-0,101
-322,329	-58,285	-0,046	0,014
-321,314	555,123	0,092	-0,159
-320,299	-200,000	-0,036	0,117
-319,285	371,548	0,034	0,050
-318,270	141,436	0,019	0,018
-317,256	-200,000	-0,003	0,024
-316,241	131,514	-0,034	-0,031
-315,226	-58,320	0,106	-0,033
-314,212	185,977	0,043	-0,046
-313,197	-200,000	-0,027	-0,100
-312,183	-130,313	-0,094	-0,009
-311,168	27,085	0,132	-0,079
-310,153	25,315	0,079	-0,047
-309,139	800,000	-0,031	0,081
-308,124	-107,922	0,084	0,013
-307,110	42,684	0,095	-0,062
-306,095	-94,964	-0,159	0,030
-305,080	-72,813	0,100	0,026
-304,066	800,000	-0,064	0,134
-303,051	-68,225	-0,013	0,004
-302,037	149,311	0,031	-0,030
-301,022	-200,000	0,001	-0,053
-300,008	111,589	-0,022	0,019
-298,993	-125,448	0,078	0,008
-297,978	79,686	0,034	-0,026
-296,964	39,912	-0,118	-0,075
-295,949	346,832	-0,071	0,100
-294,935	-86,982	0,021	-0,005
-293,920	-90,635	0,121	-0,025
-292,905	94,063	0,024	0,020
-291,891	-200,000	-0,010	-0,162
-290,876	372,819	0,036	-0,053
-289,862	-200,000	0,042	0,137
-288,847	-25,628	-0,042	0,018
-287,832	-68,708	-0,098	0,027
-286,818	146,530	0,096	-0,092
-285,803	340,626	-0,049	0,068
-284,789	-6,084	-0,053	-0,026
-283,774	-200,000	0,020	0,145
-282,759	-102,596	-0,029	-0,005
-281,745	465,506	-0,090	-0,145
-280,730	-13,787	0,049	-0,023
-279,716	-200,000	0,003	0,096
-278,701	-87,542	0,086	-0,018
-277,686	-44,304	-0,086	0,031
-276,672	-200,000	0,044	-0,140
-275,657	41,849	-0,048	0,031
-274,643	800,000	-0,030	0,074
-273,628	-200,000	0,000	0,089
-272,613	-72,013	-0,109	-0,029
-271,599	101,708	0,101	-0,084
-270,584	-80,846	0,051	-0,012
-269,570	-57,078	-0,026	-0,008
-268,555	-200,000	0,002	0,021
-267,540	-200,000	0,017	-0,111
-266,526	-98,331	-0,177	0,032
-265,511	-200,000	0,003	0,012
-264,497	-134,572	-0,078	0,007
-263,482	-200,000	-0,034	0,243
-262,467	535,566	0,030	0,052
-261,453	-21,639	-0,077	0,033
-260,438	96,808	-0,096	0,078
-259,424	48,934	-0,038	-0,026
-258,409	107,560	-0,055	-0,047
-257,395	-57,527	0,125	0,039
-256,380	189,831	0,095	-0,102
-255,365	79,900	-0,056	0,043
-254,351	800,000	-0,036	-0,104
-253,336	89,300	0,088	-0,070
-252,322	120,577	-0,159	-0,141
-251,307	-200,000	0,010	-0,061
-250,292	72,927	0,068	0,051
-249,278	128,945	-0,047	0,043
-248,263	-11,381	-0,071	0,033
-247,249	-53,315	-0,082	0,027
-246,234	-200,000	-0,045	0,194
-245,219	63,654	-0,146	-0,105
-244,205	-200,000	0,008	-0,074
-243,190	349,806	0,025	-0,035
-242,176	-79,542	0,063	0,015
-241,161	27,472	0,138	-0,083
-240,146	-200,000	0,013	0,068
-239,132	-98,924	0,137	0,025
-238,117	-21,375	-0,067	0,029
-237,103	-21,230	-0,207	-0,090
-236,088	18,863	0,038	0,022
-235,073	161,924	0,051	-0,051
-234,059	-159,242	-0,200	-0,008
-233,044	422,421	-0,068	0,105
-232,030	78,183	0,061	-0,046
-231,015	800,000	-0,049	0,119
-230,000	23,030	-0,182	-0,106
-228,986	328,264	0,026	-0,035
-227,971	-28,334	-0,074	-0,030
-226,957	-111,807	-0,046	-0,007
-225,942	-71,577	0,137	-0,036
-224,927	-200,000	-0,031	-0,101
-223,913	-200,000	0,009	0,071
-222,898	-67,608	-0,078	0,022
-221,884	352,272	-0,073	0,103
-220,869	800,000	-0,032	-0,087
-219,855	148,906	0,064	-0,062
-218,840	-68,367	0,136	0,037
-217,825	61,625	0,091	0,064
-216,811	685,550	-0,038	0,071
-215,796	-200,000	0,002	-0,077
-214,782	696,453	-0,047	-0,088
-213,767	174,337	0,098	0,101
-212,752	47,983	-0,037	0,024
-211,738	-26,778	-0,066	0,027
-210,723	34,698	-0,064	0,040
-209,709	-113,294	0,074	0,010
-208,694	22,715	-0,138	-0,081
-207,679	45,649	-0,053	-0,035
-206,665	-200,000	0,098	-0,000
-205,650	-85,563	-0,098	-0,022
-204,636	51,880	0,017	0,012
-203,621	-109,584	0,143	0,021
-202,606	-200,000	0,006	0,074
-201,592	-140,800	-0,100	0,007
-200,577	149,465	0,007	0,006
-199,563	202,074	0,024	-0,026
-198,548	249,865	-0,032	0,038
-197,533	29,813	0,258	0,157
-196,519	97,156	-0,079	0,065
-195,504	118,008	-0,082	0,072
-194,490	759,486	-0,038	0,074
-193,475	1,095	-0,081	0,041
-192,460	800,000	-0,029	-0,073
-191,446	-58,887	0,138	0,042
-190,431	-200,000	0,037	0,116
-189,417	626,498	0,029	0,052
-188,402	218,484	-0,032	0,036
-187,387	-103,191	-0,152	0,025
-186,373	297,479	0,078	-0,102
-185,358	800,000	0,036	-0,089
-184,344	-200,000	-0,008	-0,052
-183,329	213,953	0,078	-0,089
-182,315	134,492	-0,054	-0,050
-181,300	-172,447	-0,119	0,003
-180,285	-72,749	0,052	0,014
-179,271	51,787	-0,079	-0,053
-178,256	800,000	0,021	0,044
-177,242	-151,546	0,049	-0,003
-176,227	550,858	0,038	0,065
-175,212	19,696	-0,084	0,048
-174,198	-52,372	0,027	0,009
-173,183	250,516	-0,099	-0,120
-172,169	800,000	-0,045	-0,114
-171,154	184,506	0,086	-0,090
-170,139	-42,225	0,024	0,009
-169,125	48,832	0,023	-0,016
-168,110	800,000	0,039	0,099
-167,096	-200,000	-0,001	-0,013
-166,081	800,000	0,013	-0,030
-165,066	-200,000	0,019	-0,171
-164,052	800,000	-0,054	-0,157
-163,037	-49,378	0,046	0,015
-162,023	-108,529	-0,066	-0,010
-161,008	800,000	0,049	0,130
-159,993	800,000	0,012	0,032
-158,979	-139,442	-0,119	-0,009
-157,964	-5,844	-0,028	0,014
-156,950	-61,628	0,080	-0,024
-155,935	800,000	0,043	0,097
-154,920	100,478	0,028	0,023
-153,906	-59,197	0,081	-0,025
-152,891	-11,747	-0,125	0,058
-151,877	-170,530	-0,141	-0,003
-150,862	142,704	-0,047	-0,044
-149,847	303,734	0,044	-0,058
-148,833	111,700	-0,072	-0,062
-147,818	-104,301	-0,026	0,004
-146,804	-34,007	0,046	0,018
-145,789	188,629	0,063	-0,067
-144,775	40,381	-0,030	0,019
-143,760	-28,356	0,056	-0,023
-142,745	10,637	0,057	-0,031
-141,731	470,997	0,062	0,100
-140,716	308,397	0,061	-0,081
-139,702	115,863	-0,054	0,047
-138,687	-43,878	-0,104	0,037
-137,672	696,463	0,046	0,086
-136,658	800,000	0,033	0,093
-135,643	-181,563	-0,051	0,001
-134,629	451,608	0,052	0,082
-133,614	800,000	-0,006	-0,015
-132,599	-128,602	0,079	-0,008
-131,585	-33,130	0,041	-0,016
-130,570	113,196	-0,068	-0,058
-129,556	-66,256	-0,107	-0,030
-128,541	277,721	-0,051	0,064
-127,526	35,073	0,062	-0,038
-126,512	-200,000	-0,012	-0,056
-125,497	579,941	0,068	0,119
-124,483	69,297	-0,052	0,038
-123,468	-200,000	0,003	0,015
-122,453	221,114	-0,040	0,046
-121,439	-200,000	-0,002	-0,104
-120,424	-200,000	-0,005	-0,071
-119,410	-200,000	0,018	0,081
-118,395	-200,000	0,037	0,156
-117,380	-200,000	0,006	0,053
-116,366	-85,942	0,096	-0,021
-115,351	-50,516	0,105	-0,035
-114,337	-33,987	0,054	-0,021
-113,322	800,000	0,043	0,121
-112,307	323,413	0,070	-0,096
-111,293	72,949	-0,036	-0,027
-110,278	10,138	0,022	-0,012
-109,264	-200,000	0,008	-0,028
-108,249	462,360	-0,050	0,079
-107,234	-15,539	-0,028	-0,013
-106,220	-200,000	0,003	-0,059
-105,205	-200,000	-0,005	-0,152
-104,191	-54,696	-0,094	0,030
-103,176	0,001	-0,032	0,016
-102,162	-200,000	0,055	-0,192
-101,147	800,000	0,063	0,129
-100,132	105,056	-0,029	-0,024
-99,118	-93,419	0,121	-0,024
-98,103	62,646	0,062	-0,044
-97,089	446,792	-0,057	0,089
-96,074	-200,000	-0,007	-0,034
-95,059	-200,000	-0,004	0,127
-94,045	98,143	-0,068	0,056
-93,030	575,717	-0,015	0,026
-92,016	-20,314	-0,038	0,017
-91,001	394,677	-0,079	-0,117
-89,986	-200,000	0,008	0,048
-88,972	326,204	0,075	0,102
-87,957	31,848	0,051	0,031
-86,943	-80,769	-0,030	-0,007
-85,928	-200,000	0,006	-0,123
-84,913	-200,000	0,010	-0,034
-83,899	158,154	0,119	0,117
-82,884	33,895	0,080	0,049
-81,870	394,162	0,027	0,041
-80,855	-134,384	-0,109	0,009
-79,840	103,407	0,046	0,038
-78,826	800,000	0,018	0,037
-77,811	-81,470	0,081	-0,019
-76,797	50,075	0,085	-0,057
-75,782	-200,000	-0,007	-0,100
-74,767	-126,633	0,161	0,017
-73,753	332,598	-0,079	0,108
-72,738	-17,094	0,191	0,085
-71,724	165,538	-0,079	-0,079
-70,709	-200,000	-0,012	-0,170
-69,694	20,066	-0,053	-0,030
-68,680	-200,000	-0,038	0,169
-67,665	38,839	0,145	0,092
-66,651	-200,000	0,004	0,088
-65,636	-200,000	0,084	0,000
-64,622	58,735	0,048	0,033
-63,607	108,599	-0,043	-0,037
-62,592	-147,877	-0,162	0,009
-61,578	-153,291	-0,066	-0,003
-60,563	200,186	0,088	0,096
-59,549	800,000	-0,050	0,141
-58,534	-4,285	-1,528	-0,747
-57,519	498,684	-1,354	-2,218
-56,505	-200,000	-0,551	-4,456
-55,490	121,606	1,012	0,894
-54,476	800,000	4,910	11,504
-53,461	-200,000	18,577	297,665
-52,446	800,000	732,295	2261,956
-51,432	561,231	1648,503	2834,459
-50,417	78,816	1667,496	1262,695
-49,403	22,252	1540,706	889,185
-48,388	16,241	1463,147	815,264
-47,373	17,859	1453,078	817,424
-46,359	17,023	1443,589	808,052
-45,344	14,486	1438,935	793,288
-44,330	14,396	1437,161	791,847
-43,315	14,450	1435,012	790,889
-42,300	14,443	1433,815	790,165
-41,286	14,474	1432,448	789,529
-40,271	14,459	1431,166	788,718
-39,257	14,374	1430,202	787,754
-38,242	14,486	1428,566	787,352
-37,227	14,451	1427,310	786,462
-36,213	14,491	1426,134	785,974
-35,198	14,508	1424,760	785,265
-34,184	14,502	1424,129	784,857
-33,169	14,433	1422,592	783,654
-32,154	14,521	1421,544	783,460
-31,140	14,491	1420,300	782,604
-30,125	14,533	1419,119	782,118
-29,111	14,496	1417,947	781,266
-28,096	14,454	1417,063	780,553
-27,082	14,348	1415,982	779,425
-26,067	14,398	1414,842	779,002
-25,052	14,449	1413,687	778,572
-24,038	14,354	1412,935	777,682
-23,023	14,356	1411,924	777,107
-22,009	14,385	1410,594	776,477
-20,994	14,333	1409,882	775,814
-19,979	14,394	1408,886	775,521
-18,965	14,337	1408,065	774,768
-17,950	14,345	1407,026	774,206
-16,936	14,280	1406,313	773,479
-15,921	14,313	1405,041	772,901
-14,906	14,254	1404,349	772,214
-13,892	14,285	1403,344	771,778
-12,877	14,294	1402,367	771,249
-11,863	14,310	1401,322	770,720
-10,848	14,299	1400,547	770,210
-9,833	14,249	1399,793	769,531
-8,819	14,242	1398,891	768,976
-7,804	14,187	1397,901	768,145
-6,790	14,229	1396,695	767,647
-5,775	14,197	1395,777	766,963
-4,760	14,228	1394,692	766,478
-3,746	14,192	1394,016	765,912
-2,731	14,235	1393,208	765,637
-1,717	14,194	1392,201	764,861
-0,702	14,188	1390,489	763,864
0,313	18,031	1309,268	737,039
1,327	34,432	705,922	435,393
2,342	53,060	124,171	84,015
3,356	3,029	16,657	8,541
4,371	1,196	3,179	1,611
5,386	-87,697	0,734	0,155
6,400	-21,903	-0,053	0,023
7,415	-8,460	-0,222	-0,105
8,429	436,389	-0,207	-0,321
9,444	94,701	-0,258	-0,208
10,459	244,205	-0,240	-0,286
11,473	186,505	-0,184	-0,194
12,488	-39,216	-0,346	-0,128
13,502	106,473	-0,330	-0,277
14,517	-5,029	-0,225	-0,109
15,531	114,442	-0,335	-0,288
16,546	111,215	-0,338	-0,288
17,561	193,663	-0,326	-0,349
18,575	26,013	-0,290	-0,171
19,590	277,370	-0,132	-0,167
20,604	-15,583	-0,281	-0,126
21,619	127,772	-0,438	-0,393
22,634	101,254	-0,487	-0,400
23,648	384,449	-0,302	-0,442
24,663	84,193	-0,471	-0,363
25,677	-5,926	-0,325	-0,157
26,692	-32,568	-0,426	-0,167
27,707	51,948	-0,317	-0,213
28,721	9,069	-0,418	-0,222
29,736	26,927	-0,496	-0,293
30,750	68,466	-0,447	-0,323
31,765	62,197	-0,484	-0,341
32,780	66,451	-0,276	-0,198
33,794	84,950	-0,389	-0,301
34,809	58,165	-0,376	-0,260
35,823	86,292	-0,309	-0,240
36,838	-22,071	-0,424	-0,181
37,853	103,145	-0,285	-0,235
38,867	200,939	-0,320	-0,348
39,882	142,151	-0,267	-0,250
40,896	278,774	-0,371	-0,468
41,911	558,640	-0,270	-0,461
42,926	58,418	-0,318	-0,220
43,940	40,432	-0,406	-0,257
44,955	207,372	-0,347	-0,382
45,969	74,828	-0,453	-0,336
46,984	51,412	-0,366	-0,245
47,999	-30,040	-0,271	-0,108
49,013	3,675	-0,327	-0,168
50,028	200,459	-0,268	-0,291
51,042	81,831	-0,345	-0,263
52,057	177,068	-0,233	-0,240
53,071	163,343	-0,313	-0,311
54,086	129,661	-0,275	-0,248
55,101	302,826	-0,228	-0,299
56,115	16,791	-0,378	-0,210
57,130	3,988	-0,423	-0,217
58,144	42,542	-0,299	-0,191
59,159	153,408	-0,328	-0,317
60,174	104,440	-0,337	-0,280
61,188	28,149	-0,424	-0,252
62,203	-27,603	-0,369	-0,150
63,217	-27,813	-0,253	-0,103
64,232	67,169	-0,351	-0,252
65,247	-10,755	-0,370	-0,172
66,261	29,148	-0,441	-0,263
67,276	190,871	-0,321	-0,341
68,290	-7,980	-0,351	-0,166
69,305	-72,684	-0,382	-0,098
70,320	57,754	-0,320	-0,220
71,334	16,094	-0,321	-0,178
72,349	124,402	-0,232	-0,205
73,363	215,591	-0,286	-0,319
74,378	50,248	-0,500	-0,332
75,393	50,889	-0,369	-0,246
76,407	103,600	-0,183	-0,151
77,422	52,857	-0,333	-0,224
78,436	-11,481	-0,247	-0,114
79,451	-74,987	-0,328	-0,082
80,466	156,478	-0,221	-0,215
81,480	13,385	-0,351	-0,191
82,495	35,262	-0,271	-0,167
83,509	-32,278	-0,293	-0,115
84,524	153,258	-0,285	-0,274
85,539	60,464	-0,284	-0,197
86,553	48,524	-0,321	-0,211
87,568	170,630	-0,262	-0,264
88,582	-29,316	-0,360	-0,144
89,597	96,691	-0,348	-0,280
90,611	3,462	-0,297	-0,151
91,626	-10,647	-0,210	-0,097
92,641	16,463	-0,282	-0,156
93,655	59,632	-0,252	-0,174
94,670	215,968	-0,220	-0,245
95,684	69,567	-0,282	-0,203
96,699	-19,435	-0,288	-0,125
97,714	-7,108	-0,216	-0,102
98,728	71,364	-0,257	-0,187
99,743	186,464	-0,081	-0,085
100,757	-148,606	-0,345	-0,019
101,772	16,868	-0,341	-0,189
102,787	116,389	-0,300	-0,258
103,801	55,253	-0,268	-0,182
104,816	245,593	-0,247	-0,292
105,830	2,876	-0,262	-0,133
106,845	52,041	-0,300	-0,200
107,860	-23,571	-0,245	-0,103
108,874	50,275	-0,328	-0,217
109,889	271,242	-0,130	-0,161
110,903	48,820	-0,267	-0,176
111,918	-46,910	-0,244	-0,083
112,933	768,686	-0,125	-0,240
113,947	127,934	-0,175	-0,156
114,962	-110,214	-0,187	-0,027
115,976	42,078	-0,142	-0,090
116,991	63,322	-0,348	-0,245
118,006	-40,004	-0,156	-0,057
119,020	-49,824	-0,368	-0,122
120,035	-127,657	-0,191	-0,019
121,049	48,585	-0,268	-0,175
122,064	-34,529	-0,326	-0,124
123,079	504,033	-0,142	-0,230
124,093	73,576	-0,176	-0,129
125,108	-9,583	-0,314	-0,146
126,122	118,614	-0,305	-0,263
127,137	9,193	-0,251	-0,132
128,151	287,430	-0,195	-0,247
129,166	383,412	-0,153	-0,221
130,181	85,671	-0,238	-0,183
131,195	233,209	-0,226	-0,260
132,210	82,114	-0,340	-0,258
133,224	-17,059	-0,345	-0,152
134,239	-28,401	-0,288	-0,116
135,254	251,758	-0,265	-0,316
136,268	-22,504	-0,318	-0,134
137,283	800,000	-0,075	-0,195
138,297	106,903	-0,282	-0,234
139,312	-26,929	-0,339	-0,138
140,327	-37,519	-0,382	-0,142
141,341	259,074	-0,164	-0,199
142,356	-134,156	-0,292	0,025
143,370	800,000	-0,051	-0,119
144,385	-17,390	-0,335	-0,147
145,400	66,893	-0,301	-0,214
146,414	39,339	-0,330	-0,206
147,429	164,372	-0,250	-0,247
148,443	35,533	-0,286	-0,175
149,458	-125,219	-0,256	-0,027
150,473	-158,632	-0,198	0,008
151,487	161,794	-0,182	-0,178
152,502	-13,668	-0,195	-0,088
153,516	61,085	-0,262	-0,182
154,531	-74,435	-0,320	-0,080
155,546	403,249	-0,166	-0,245
156,560	800,000	-0,069	-0,190
157,575	123,141	-0,232	-0,203
158,589	129,036	-0,227	-0,202
159,604	203,428	-0,266	-0,288
160,619	165,672	-0,184	-0,182
161,633	291,448	-0,185	-0,236
162,648	37,390	-0,228	-0,141
163,662	377,708	-0,242	-0,346
164,677	-33,110	-0,229	-0,088
165,692	-1,280	-0,163	-0,080
166,706	79,030	-0,330	-0,247
167,721	-41,888	-0,391	-0,139
168,735	-66,577	-0,199	-0,055
169,750	-50,011	-0,358	-0,118
170,764	-15,844	-0,104	-0,046
171,779	-122,424	-0,219	0,025
172,794	89,236	-0,192	-0,149
173,808	194,045	-0,240	-0,254
174,823	404,092	-0,113	-0,167
175,837	-149,242	-0,184	0,010
176,852	587,194	-0,114	-0,197
177,867	156,913	-0,218	-0,210
178,881	147,144	-0,309	-0,290
179,896	-28,331	-0,296	-0,119
180,910	162,339	-0,244	-0,239
181,925	28,811	-0,238	-0,140
182,940	60,379	-0,245	-0,169
183,954	-34,068	-0,223	-0,085
184,969	179,399	-0,144	-0,147
185,983	-200,000	-0,056	-0,199
186,998	320,993	-0,081	-0,107
188,013	45,476	-0,243	-0,156
189,027	58,404	-0,264	-0,180
190,042	235,498	-0,199	-0,229
191,056	405,060	-0,106	-0,157
192,071	11,305	-0,222	-0,118
193,086	-71,741	-0,112	-0,029
194,100	-200,000	-0,052	-0,246
195,115	198,147	-0,174	-0,185
196,129	223,827	-0,314	-0,353
197,144	69,711	-0,337	-0,242
198,159	58,083	-0,267	-0,182
199,173	-178,273	-0,133	-0,002
200,188	45,589	-0,132	-0,085
201,202	511,325	-0,099	-0,161
202,217	-98,066	-0,254	-0,045
203,232	224,182	-0,187	-0,210
204,246	107,964	-0,332	-0,275
205,261	153,878	-0,238	-0,227
206,275	287,561	-0,117	-0,147
207,290	-40,995	-0,291	-0,104
208,304	-86,304	-0,276	-0,059
209,319	444,334	-0,079	-0,122
210,334	-79,838	-0,069	-0,016
211,348	681,799	-0,135	-0,246
212,363	-41,496	-0,213	-0,076
213,377	-20,651	-0,277	-0,118
214,392	727,169	-0,101	-0,189
215,407	73,338	-0,144	-0,105
216,421	800,000	-0,065	-0,162
217,436	-69,999	-0,220	-0,058
218,450	537,451	-0,156	-0,258
219,465	163,643	-0,178	-0,174
220,480	131,675	-0,178	-0,159
221,494	110,766	-0,102	-0,085
222,509	13,347	-0,251	-0,135
223,523	500,704	-0,079	-0,127
224,538	-12,130	-0,213	-0,096
225,553	278,054	-0,219	-0,272
226,567	-1,675	-0,302	-0,147
227,582	-41,171	-0,193	-0,069
228,596	-200,000	-0,015	-0,153
229,611	29,435	-0,230	-0,135
230,626	-200,000	-0,019	-0,088
231,640	-57,032	-0,266	-0,081
232,655	19,845	-0,197	-0,110
233,669	612,807	-0,089	-0,154
234,684	143,504	-0,172	-0,159
235,699	-56,318	-0,224	0,069
236,713	82,716	-0,205	-0,155
237,728	527,598	-0,148	-0,243
238,742	73,387	-0,247	-0,179
239,757	342,001	-0,119	-0,161
240,772	482,135	-0,107	-0,170
241,786	188,008	-0,064	-0,066
242,801	514,238	-0,107	-0,174
243,815	800,000	-0,112	-0,257
244,830	286,910	-0,142	-0,178
245,844	-169,809	-0,258	0,006
246,859	21,918	-0,376	-0,212
247,874	72,083	-0,209	-0,150
248,888	324,254	-0,171	-0,227
249,903	-21,775	-0,267	-0,112
250,917	565,080	-0,075	-0,127
251,932	237,314	-0,163	-0,187
252,947	83,257	-0,153	-0,115
253,961	64,025	-0,076	-0,053
254,976	-200,000	0,024	-0,246
255,990	70,646	-0,208	-0,149
257,005	320,229	-0,045	-0,059
258,020	-101,748	-0,091	-0,015
259,034	-36,056	-0,221	-0,082
260,049	-200,000	-0,033	-0,102
261,063	-60,829	-0,283	-0,082
262,078	179,241	-0,222	-0,225
263,093	392,541	-0,173	-0,249
264,107	-83,974	-0,297	-0,065
265,122	432,592	-0,141	-0,213
266,136	-161,175	-0,145	-0,005
267,151	172,308	-0,171	-0,170
268,166	416,523	-0,115	-0,170
269,180	185,063	-0,190	-0,196
270,195	98,267	-0,304	-0,242
271,209	-98,376	-0,157	-0,028
272,224	-37,044	-0,098	-0,036
273,239	-200,000	-0,017	-0,120
274,253	119,472	-0,148	-0,126
275,268	118,936	-0,208	-0,177
276,282	293,083	-0,119	-0,150
277,297	18,460	-0,143	-0,079
278,312	190,958	-0,112	-0,117
279,326	47,493	-0,174	-0,112
280,341	88,762	-0,094	-0,072
281,355	-1,542	-0,041	0,020
282,370	66,900	-0,211	-0,148
283,384	-66,871	-0,330	-0,089
284,399	-59,513	-0,170	-0,050
285,414	800,000	-0,040	-0,112
286,428	-105,470	-0,087	-0,014
287,443	-110,743	-0,161	0,023
288,457	-71,947	-0,123	-0,031
289,472	-45,588	-0,099	-0,034
290,487	441,495	-0,151	-0,229
291,501	-200,000	-0,030	-0,094
292,516	72,939	-0,171	-0,123
293,530	-184,658	-0,153	0,002
294,545	382,932	-0,170	-0,242
295,560	800,000	-0,083	-0,233
296,574	-200,000	-0,003	-0,091
297,589	285,550	-0,201	-0,250
298,603	-10,999	-0,108	-0,049
299,618	-175,640	-0,206	-0,004
300,633	-32,834	-0,027	-0,010
301,647	29,871	-0,101	0,059
302,662	-34,995	-0,103	-0,039
303,676	145,659	-0,153	-0,142
304,691	-111,969	-0,098	0,013
305,706	-6,670	-0,175	-0,082
306,720	-34,596	0,065	-0,024
307,735	-107,963	-0,197	-0,029
308,749	398,849	-0,113	-0,164
309,764	800,000	-0,044	-0,117
310,779	71,411	-0,228	-0,163
311,793	-28,666	-0,206	-0,082
312,808	-11,499	-0,242	-0,109
313,822	296,897	-0,097	-0,122
314,837	228,945	-0,172	-0,193
315,852	2,435	-0,095	-0,047
316,866	600,003	-0,098	-0,169
317,881	163,681	-0,136	-0,132
318,895	800,000	-0,047	-0,101
319,910	209,881	-0,224	-0,242
320,925	164,441	-0,120	-0,117
321,939	12,835	-0,181	-0,096
322,954	159,811	-0,129	-0,124
323,968	48,979	-0,088	-0,056
324,983	-97,655	-0,148	-0,026
325,997	30,928	-0,099	0,058
327,012	121,280	-0,113	-0,097
328,027	42,340	-0,129	0,080
329,041	18,458	-0,174	-0,095
330,056	154,107	-0,009	-0,009
331,070	127,522	-0,095	-0,083
332,085	-130,576	-0,133	-0,012
333,100	110,348	-0,132	-0,109
334,114	-152,948	-0,242	-0,012
335,129	130,370	-0,089	-0,078
336,143	383,532	-0,167	-0,236
337,158	44,467	-0,189	-0,119
338,173	-81,680	-0,111	-0,025
339,187	99,204	-0,157	-0,125
340,202	-155,674	-0,068	0,003
341,216	-59,425	-0,107	-0,031
342,231	17,094	-0,280	-0,152
343,246	-70,594	-0,264	-0,068
344,260	-200,000	-0,030	-0,150
345,275	158,281	-0,157	-0,150
346,289	313,285	-0,043	0,056
347,304	114,971	-0,173	-0,145
348,319	623,188	-0,092	-0,159
349,333	299,526	-0,145	-0,184
350,348	414,870	-0,197	-0,289
351,362	77,222	-0,104	-0,076
352,377	-200,000	-0,029	-0,182
353,392	-68,748	-0,063	0,017
354,406	719,048	-0,024	-0,043
355,421	208,494	1311,029	1409,072
356,435	160,431	1471,302	1409,573
