DTS Sentinel unit serial number:	SN410029Multiplexer serial number:	ORYXHardware model number:	OX2-SRSoftware version number:	ORYX F/W v4,00 Oryx Data Collector v3.7.2.0data status	okinstallation	B3 Nyhavnadifferential loss correction	single-endedforward channel	channel 1reverse channel	N/Adate	2023/11/29time	20:32:30forward acquisition time	300,00reverse acquisition time	0,00gamma	499,1914k internal	0,3210k external	0,3210temperature offset calibration	1,0000default loss term (dB/km)	0,3820temperature slope calibration	1,0000multiplexer offset coefficient	1,0000multiplexer slope coefficient	1,0000fibre end	0,00T internal ref (°C)	10,86T ext. ref 1 (°C)	-4,30T ext. ref 2 (°C)	-4,39length (m)	temperature (°C)	Stokes	anti-Stokes-744,400	85,110	-0,225	-0,179
-743,385	800,000	0,127	0,285
-742,371	111,548	-0,178	-0,156
-741,356	-200,000	0,075	0,362
-740,342	688,024	-0,120	-0,228
-739,327	-200,000	0,092	0,301
-738,312	268,261	-0,172	-0,219
-737,298	800,000	-0,098	0,215
-736,283	106,397	-0,254	-0,218
-735,269	-200,000	0,044	0,240
-734,254	3,622	-0,234	-0,123
-733,239	800,000	-0,103	0,207
-732,225	557,909	-0,041	-0,072
-731,210	684,639	0,103	0,195
-730,196	-200,000	0,004	0,019
-729,181	68,746	-0,108	-0,080
-728,167	-200,000	-0,011	-0,226
-727,152	800,000	-0,028	-0,087
-726,137	-200,000	-0,006	-0,142
-725,123	0,448	0,099	-0,051
-724,108	-200,000	-0,028	-0,137
-723,094	-149,948	-0,058	0,003
-722,079	630,267	0,048	-0,089
-721,064	-200,000	0,003	0,028
-720,050	472,357	-0,126	0,206
-719,035	-200,000	-0,017	0,165
-718,021	-200,000	-0,022	0,120
-717,006	-56,866	0,066	0,021
-715,991	592,514	-0,074	-0,132
-714,977	503,538	0,031	-0,052
-713,962	-200,000	0,003	0,204
-712,948	611,205	-0,025	0,045
-711,933	-124,040	-0,043	0,005
-710,918	-69,798	0,120	-0,033
-709,904	-200,000	0,013	-0,102
-708,889	213,657	-0,077	-0,089
-707,875	270,380	-0,010	-0,013
-706,860	225,601	0,034	0,040
-705,845	-32,655	0,050	0,020
-704,831	-76,431	0,190	0,048
-703,816	-200,000	0,023	0,128
-702,802	-200,000	-0,003	-0,069
-701,787	-53,358	-0,148	-0,049
-700,772	-44,552	0,102	-0,037
-699,758	58,044	0,046	0,033
-698,743	-200,000	-0,009	-0,086
-697,729	-200,000	0,009	0,086
-696,714	402,160	0,079	0,120
-695,699	-75,329	0,081	-0,021
-694,685	86,323	-0,090	-0,072
-693,670	-139,951	-0,150	-0,011
-692,656	415,173	0,069	0,106
-691,641	800,000	0,060	0,145
-690,627	162,452	-0,076	-0,077
-689,612	116,823	-0,021	-0,019
-688,597	800,000	-0,072	-0,146
-687,583	-200,000	-0,038	-0,243
-686,568	-121,662	-0,185	-0,022
-685,554	-200,000	0,021	0,069
-684,539	-200,000	0,014	-0,142
-683,524	800,000	0,059	0,139
-682,510	800,000	-0,027	0,057
-681,495	-200,000	0,019	-0,135
-680,481	47,779	-0,023	-0,015
-679,466	154,620	0,071	-0,071
-678,451	83,763	-0,071	0,056
-677,437	41,544	0,038	-0,025
-676,422	-76,634	0,083	0,021
-675,408	-200,000	0,012	0,146
-674,393	707,374	-0,020	-0,038
-673,378	-110,386	0,141	-0,021
-672,364	136,087	0,060	-0,057
-671,349	363,543	0,067	-0,097
-670,335	800,000	-0,041	-0,113
-669,320	291,483	-0,080	0,106
-668,305	-48,104	0,107	-0,037
-667,291	-89,645	-0,137	0,029
-666,276	56,644	-0,066	-0,046
-665,262	-200,000	-0,015	0,110
-664,247	-200,000	-0,006	0,049
-663,232	80,762	-0,083	-0,065
-662,218	228,724	0,049	-0,058
-661,203	659,328	0,053	0,100
-660,189	-24,381	-0,093	0,040
-659,174	21,468	-0,109	-0,064
-658,159	800,000	0,045	-0,098
-657,145	186,694	-0,073	-0,078
-656,130	-39,643	-0,062	0,023
-655,116	-24,589	-0,048	-0,021
-654,101	55,415	0,142	0,099
-653,086	26,966	-0,173	0,105
-652,072	-146,209	0,155	0,010
-651,057	-15,321	-0,196	-0,090
-650,043	-7,412	-0,124	-0,060
-649,028	22,965	-0,144	-0,085
-648,014	800,000	0,031	-0,064
-646,999	800,000	0,011	-0,032
-645,984	64,203	-0,057	-0,041
-644,970	499,082	-0,067	-0,112
-643,955	-68,253	-0,113	-0,032
-642,941	95,695	0,115	-0,094
-641,926	-200,000	-0,052	-0,176
-640,911	-25,974	0,098	-0,042
-639,897	-200,000	0,003	-0,091
-638,882	-4,485	0,046	0,023
-637,868	-67,273	0,144	0,041
-636,853	125,012	-0,035	0,032
-635,838	23,637	-0,120	0,071
-634,824	-200,000	0,002	0,068
-633,809	-142,754	-0,035	-0,002
-632,795	357,720	0,057	0,083
-631,780	578,960	-0,067	-0,119
-630,765	-200,000	0,013	0,054
-629,751	36,750	0,071	-0,045
-628,736	-200,000	-0,005	-0,171
-627,722	800,000	0,024	0,072
-626,707	800,000	0,023	-0,069
-625,692	162,276	0,023	0,023
-624,678	11,561	-0,178	0,098
-623,663	185,801	0,051	-0,055
-622,649	578,808	-0,042	-0,075
-621,634	36,874	-0,050	-0,032
-620,619	-114,647	-0,048	0,007
-619,605	-200,000	-0,009	-0,147
-618,590	-190,629	-0,213	-0,002
-617,576	682,584	0,061	0,116
-616,561	22,141	-0,080	0,047
-615,546	-200,000	0,003	-0,014
-614,532	-97,136	-0,261	-0,049
-613,517	60,679	0,087	0,062
-612,503	569,145	0,066	0,117
-611,488	65,789	-0,094	0,068
-610,474	-200,000	-0,003	0,013
-609,459	545,023	0,066	-0,115
-608,444	-113,187	-0,199	0,028
-607,430	-200,000	0,007	-0,075
-606,415	144,421	-0,086	-0,082
-605,401	-200,000	-0,016	-0,184
-604,386	133,387	0,079	0,074
-603,371	329,361	-0,055	0,076
-602,357	-137,569	-0,164	-0,013
-601,342	-105,172	-0,106	0,017
-600,328	115,465	-0,096	-0,085
-599,313	-200,000	-0,013	-0,059
-598,298	-66,437	-0,072	-0,021
-597,284	2,299	0,059	-0,031
-596,269	181,871	-0,058	0,061
-595,255	635,081	-0,014	0,025
-594,240	220,500	-0,040	0,046
-593,225	800,000	-0,046	0,110
-592,211	-200,000	-0,038	0,259
-591,196	15,705	-0,087	-0,049
-590,182	133,596	0,075	0,070
-589,167	800,000	0,032	0,085
-588,152	800,000	0,009	-0,024
-587,138	-35,534	-0,112	-0,043
-586,123	-6,586	0,064	-0,031
-585,109	-200,000	0,009	0,196
-584,094	-200,000	-0,009	-0,073
-583,079	800,000	0,006	-0,016
-582,065	313,444	0,060	0,082
-581,050	146,821	0,040	0,039
-580,036	800,000	-0,040	0,107
-579,021	800,000	0,047	-0,139
-578,006	-35,702	-0,035	0,014
-576,992	325,179	-0,075	-0,104
-575,977	-98,787	-0,021	0,004
-574,963	800,000	-0,020	-0,040
-573,948	800,000	-0,060	0,123
-572,934	-134,803	-0,137	0,012
-571,919	-200,000	0,008	0,099
-570,904	800,000	0,006	-0,016
-569,890	215,339	0,032	-0,037
-568,875	-138,236	-0,163	0,013
-567,861	-164,212	0,117	0,004
-566,846	307,715	-0,040	0,054
-565,831	-88,651	-0,087	-0,019
-564,817	-45,731	-0,095	0,034
-563,802	-140,872	-0,170	-0,012
-562,788	27,140	0,010	0,006
-561,773	175,641	-0,015	-0,016
-560,758	-200,000	-0,012	0,054
-559,744	749,349	-0,040	0,078
-558,729	-117,639	-0,096	-0,012
-557,715	-200,000	0,006	0,059
-556,700	-83,234	-0,109	0,025
-555,685	66,877	-0,039	-0,028
-554,671	33,942	0,055	0,035
-553,656	52,481	0,142	-0,098
-552,642	-200,000	0,005	0,071
-551,627	-51,129	-0,178	-0,060
-550,612	236,286	0,109	-0,130
-549,598	292,456	-0,076	-0,099
-548,583	-200,000	0,021	-0,089
-547,569	-28,913	0,108	-0,044
-546,554	-59,960	0,108	-0,033
-545,539	103,400	0,150	0,126
-544,525	174,401	-0,058	-0,060
-543,510	79,810	0,140	0,108
-542,496	-35,640	0,109	0,042
-541,481	-200,000	0,005	0,036
-540,466	274,029	0,032	-0,041
-539,452	-200,000	0,002	-0,160
-538,437	800,000	-0,039	0,086
-537,423	284,894	0,070	0,091
-536,408	-80,735	-0,097	-0,023
-535,393	660,066	-0,089	-0,166
-534,379	800,000	-0,043	-0,125
-533,364	144,983	0,060	-0,057
-532,350	-83,350	0,101	-0,023
-531,335	-104,632	0,106	-0,017
-530,321	-200,000	0,003	0,060
-529,306	-12,715	-0,015	-0,007
-528,291	255,654	0,068	-0,084
-527,277	800,000	-0,057	-0,163
-526,262	21,675	0,041	0,024
-525,248	255,389	0,050	-0,062
-524,233	-200,000	-0,010	0,092
-523,218	-200,000	-0,002	0,026
-522,204	312,655	0,044	-0,059
-521,189	454,066	-0,057	-0,092
-520,175	43,060	-0,103	0,068
-519,160	447,328	0,031	-0,049
-518,145	-121,211	0,080	0,009
-517,131	374,740	0,070	0,103
-516,116	-200,000	-0,002	-0,105
-515,102	-200,000	0,010	0,034
-514,087	-200,000	-0,038	-0,170
-513,072	800,000	0,033	-0,102
-512,058	667,221	-0,065	-0,122
-511,043	-135,803	0,095	-0,008
-510,029	-200,000	0,015	0,134
-509,014	-60,947	0,113	-0,034
-507,999	-200,000	-0,021	0,090
-506,985	-130,901	-0,147	0,014
-505,970	800,000	-0,020	0,050
-504,956	-101,372	-0,096	-0,017
-503,941	-87,086	0,090	0,020
-502,926	623,712	0,018	0,033
-501,912	-100,398	0,100	0,018
-500,897	-200,000	0,026	0,107
-499,883	-35,498	-0,089	-0,035
-498,868	30,859	0,137	0,084
-497,853	-24,134	-0,106	-0,045
-496,839	289,940	0,025	0,033
-495,824	-87,504	0,043	-0,009
-494,810	800,000	-0,018	-0,040
-493,795	-200,000	-0,014	0,075
-492,781	46,468	-0,087	0,058
-491,766	800,000	0,020	0,054
-490,751	8,177	-0,031	0,017
-489,737	-200,000	-0,013	0,087
-488,722	-200,000	-0,003	-0,124
-487,708	-107,278	-0,040	-0,006
-486,693	-196,760	0,114	-0,001
-485,678	93,231	-0,052	0,042
-484,664	109,594	-0,032	-0,028
-483,649	681,726	-0,056	-0,106
-482,635	800,000	0,034	-0,080
-481,620	-200,000	-0,015	0,133
-480,605	-200,000	0,017	0,071
-479,591	-200,000	-0,004	0,098
-478,576	466,431	-0,049	0,079
-477,562	-200,000	-0,017	0,063
-476,547	-89,116	-0,132	0,028
-475,532	-200,000	0,034	-0,117
-474,518	-200,000	0,018	-0,094
-473,503	42,032	0,096	0,062
-472,489	595,587	0,038	0,067
-471,474	-200,000	-0,018	-0,076
-470,459	800,000	-0,040	-0,102
-469,445	-36,381	0,036	-0,014
-468,430	-119,035	-0,071	0,009
-467,416	7,759	0,044	0,024
-466,401	-200,000	-0,013	0,073
-465,386	37,192	0,044	-0,028
-464,372	-139,593	-0,113	0,009
-463,357	-52,393	0,089	0,029
-462,343	35,069	-0,116	-0,073
-461,328	-200,000	0,001	-0,080
-460,313	563,934	0,060	-0,104
-459,299	-8,350	-0,126	0,060
-458,284	-200,000	0,006	0,029
-457,270	-1,763	0,040	0,020
-456,255	107,754	-0,054	0,046
-455,241	-200,000	-0,036	-0,119
-454,226	-200,000	0,003	-0,053
-453,211	49,466	0,071	0,048
-452,197	303,279	-0,038	-0,051
-451,182	800,000	0,032	0,066
-450,168	-72,310	0,150	0,040
-449,153	-64,584	-0,097	-0,028
-448,138	-200,000	-0,007	-0,039
-447,124	-72,854	-0,119	-0,031
-446,109	-200,000	0,014	-0,078
-445,095	-8,700	0,177	0,085
-444,080	-73,796	0,070	-0,018
-443,065	-200,000	0,003	-0,061
-442,051	261,594	-0,024	0,030
-441,036	385,259	-0,140	-0,207
-440,022	800,000	-0,057	-0,147
-439,007	-200,000	0,001	-0,028
-437,992	-168,767	0,126	-0,003
-436,978	271,073	0,070	0,089
-435,963	-200,000	0,018	0,081
-434,949	-200,000	0,023	-0,103
-433,934	253,067	0,048	-0,059
-432,919	-200,000	0,004	-0,044
-431,905	-96,378	-0,077	-0,014
-430,890	-75,603	0,065	0,016
-429,876	800,000	-0,021	-0,047
-428,861	83,054	-0,056	-0,044
-427,846	13,785	0,057	0,032
-426,832	118,125	-0,108	-0,095
-425,817	-70,802	-0,083	0,022
-424,803	150,579	0,026	0,025
-423,788	-200,000	0,023	0,086
-422,773	-108,377	0,121	0,019
-421,759	-61,626	0,124	-0,037
-420,744	-200,000	-0,002	0,029
-419,730	456,856	-0,054	-0,085
-418,715	-107,386	-0,103	-0,016
-417,701	88,009	-0,043	0,034
-416,686	-200,000	0,029	0,136
-415,671	800,000	-0,049	-0,097
-414,657	-0,560	0,103	0,052
-413,642	3,840	0,158	0,083
-412,628	27,299	0,088	-0,053
-411,613	800,000	0,053	-0,125
-410,598	-149,847	-0,151	-0,008
-409,584	786,702	0,025	-0,049
-408,569	-200,000	-0,014	0,149
-407,555	446,084	0,043	-0,067
-406,540	310,548	0,028	0,038
-405,525	301,906	-0,063	0,083
-404,511	-200,000	-0,025	-0,103
-403,496	405,718	0,019	-0,029
-402,482	-200,000	0,006	-0,075
-401,467	279,902	-0,025	-0,032
-400,452	-32,483	-0,077	-0,030
-399,438	-50,967	0,092	0,031
-398,423	456,395	0,065	0,103
-397,409	54,240	0,037	-0,025
-396,394	-107,403	-0,104	-0,016
-395,379	-145,351	0,077	0,005
-394,365	280,429	-0,083	-0,107
-393,350	195,591	0,036	0,039
-392,336	-64,994	0,154	0,044
-391,321	318,605	0,086	0,116
-390,306	800,000	0,060	-0,162
-389,292	253,619	0,101	0,124
-388,277	800,000	0,085	0,185
-387,263	-200,000	-0,041	0,143
-386,248	-200,000	-0,003	0,052
-385,233	-200,000	-0,003	0,084
-384,219	-134,108	0,038	0,003
-383,204	315,820	-0,052	-0,070
-382,190	18,015	-0,089	0,051
-381,175	800,000	-0,025	-0,055
-380,160	-200,000	-0,019	-0,069
-379,146	149,844	0,084	0,081
-378,131	-200,000	0,010	0,088
-377,117	571,885	0,104	-0,181
-376,102	38,492	-0,046	-0,029
-375,088	326,533	0,011	-0,014
-374,073	58,260	-0,014	-0,010
-373,058	90,111	-0,033	-0,026
-372,044	273,184	-0,043	0,055
-371,029	-200,000	-0,008	0,064
-370,015	-200,000	0,005	0,075
-369,000	139,119	0,068	-0,064
-367,985	800,000	-0,050	-0,152
-366,971	-33,565	-0,084	-0,033
-365,956	-200,000	0,011	0,182
-364,942	-200,000	0,004	0,064
-363,927	141,034	-0,025	0,023
-362,912	-200,000	-0,007	-0,052
-361,898	-128,396	0,014	-0,001
-360,883	-200,000	0,016	-0,102
-359,869	800,000	0,068	-0,146
-358,854	-200,000	-0,009	-0,051
-357,839	-96,021	0,233	0,044
-356,825	106,898	0,077	-0,066
-355,810	-200,000	-0,018	0,061
-354,796	-200,000	0,017	0,129
-353,781	-74,211	0,173	0,044
-352,766	112,515	-0,097	-0,084
-351,752	-200,000	0,027	0,125
-350,737	464,540	-0,007	-0,011
-349,723	-200,000	0,001	-0,053
-348,708	-19,459	0,021	0,009
-347,693	77,093	0,065	0,050
-346,679	800,000	-0,031	-0,099
-345,664	800,000	-0,056	-0,132
-344,650	74,189	0,126	-0,094
-343,635	362,889	0,057	-0,082
-342,620	-118,498	0,163	0,020
-341,606	-70,964	-0,073	0,019
-340,591	214,866	0,072	0,081
-339,577	119,410	-0,089	-0,079
-338,562	-200,000	-0,014	-0,154
-337,548	800,000	-0,029	0,074
-336,533	726,385	0,054	0,104
-335,518	800,000	-0,034	0,074
-334,504	800,000	0,053	0,147
-333,489	30,523	-0,053	0,032
-332,475	-113,730	-0,075	-0,010
-331,460	22,588	0,104	-0,060
-330,445	268,551	0,057	0,072
-329,431	126,034	-0,047	0,042
-328,416	289,960	-0,111	0,144
-327,402	152,733	0,091	0,088
-326,387	291,775	0,002	-0,002
-325,372	-82,852	-0,037	0,008
-324,358	-200,000	0,006	-0,123
-323,343	17,010	0,101	-0,057
-322,329	-200,000	0,106	0,000
-321,314	110,489	0,142	0,122
-320,299	259,204	-0,074	0,092
-319,285	-95,171	-0,093	-0,018
-318,270	117,111	-0,063	-0,055
-317,256	-200,000	0,003	-0,156
-316,241	-99,268	-0,077	-0,014
-315,226	36,689	0,067	-0,042
-314,212	-200,000	0,000	0,081
-313,197	-200,000	-0,026	0,103
-312,183	-96,423	-0,121	0,023
-311,168	-185,870	0,118	-0,001
-310,153	419,298	-0,058	0,089
-309,139	173,178	0,069	-0,071
-308,124	113,470	-0,083	0,072
-307,110	-26,516	0,048	0,020
-306,095	800,000	-0,028	-0,075
-305,080	-200,000	-0,000	-0,036
-304,066	153,281	-0,080	0,078
-303,051	-127,312	0,055	0,006
-302,037	121,026	-0,094	-0,084
-301,022	112,197	0,117	0,101
-300,008	-136,476	0,148	-0,012
-298,993	-10,321	0,063	0,030
-297,978	176,247	-0,031	-0,032
-296,964	-54,644	-0,248	-0,080
-295,949	-16,945	-0,097	-0,044
-294,935	-200,000	-0,033	-0,121
-293,920	-30,878	0,119	0,048
-292,905	99,175	0,053	0,044
-291,891	-200,000	0,015	0,113
-290,876	-17,546	-0,076	-0,034
-289,862	0,113	0,087	-0,044
-288,847	144,744	-0,102	-0,097
-287,832	800,000	-0,039	-0,113
-286,818	-200,000	0,031	-0,168
-285,803	-143,208	0,070	-0,005
-284,789	-200,000	-0,028	-0,096
-283,774	-49,104	0,123	0,042
-282,759	-200,000	0,019	0,060
-281,745	99,755	0,017	0,014
-280,730	60,173	-0,301	-0,212
-279,716	800,000	-0,022	-0,061
-278,701	192,110	0,070	0,075
-277,686	-75,643	0,051	0,013
-276,672	-68,637	0,048	0,013
-275,657	367,447	0,041	0,060
-274,643	-200,000	0,002	0,065
-273,628	-200,000	-0,012	0,111
-272,613	-93,542	-0,160	0,031
-271,599	98,434	0,125	0,102
-270,584	-200,000	0,008	0,084
-269,570	800,000	-0,019	-0,050
-268,555	92,061	-0,067	0,053
-267,540	-135,255	0,068	0,006
-266,526	-82,282	-0,056	-0,013
-265,511	-158,780	-0,106	0,004
-264,497	-200,000	0,029	-0,110
-263,482	4,359	0,060	-0,031
-262,467	-200,000	-0,002	-0,068
-261,453	-54,786	-0,073	-0,023
-260,438	800,000	-0,021	-0,043
-259,424	800,000	-0,021	0,043
-258,409	-13,420	0,095	0,044
-257,395	20,884	0,021	0,012
-256,380	-200,000	0,005	0,158
-255,365	356,927	-0,067	0,095
-254,351	800,000	-0,025	0,070
-253,336	-96,526	0,134	-0,025
-252,322	-71,949	-0,129	-0,034
-251,307	301,563	0,076	-0,100
-250,292	40,176	0,041	-0,026
-249,278	160,674	0,095	0,094
-248,263	628,541	-0,056	0,101
-247,249	-200,000	0,005	0,063
-246,234	-200,000	-0,008	0,064
-245,219	56,595	-0,070	-0,048
-244,205	-200,000	-0,008	-0,073
-243,190	-34,378	0,046	0,018
-242,176	295,633	0,075	-0,098
-241,161	-200,000	0,011	-0,049
-240,146	-89,774	0,069	0,014
-239,132	-133,416	-0,162	0,014
-238,117	42,480	-0,114	-0,073
-237,103	-200,000	-0,050	-0,164
-236,088	134,568	-0,045	0,042
-235,073	-134,822	0,109	-0,009
-234,059	31,286	0,108	0,066
-233,044	320,826	-0,045	-0,060
-232,030	-174,055	0,083	0,002
-231,015	800,000	0,013	-0,037
-230,000	-12,341	0,040	-0,018
-228,986	128,804	0,068	-0,061
-227,971	-56,100	-0,074	-0,023
-226,957	338,217	-0,028	0,039
-225,942	168,534	-0,068	0,069
-224,927	-84,379	-0,057	-0,013
-223,913	-73,446	-0,064	-0,017
-222,898	12,446	-0,104	0,057
-221,884	800,000	0,033	0,104
-220,869	-200,000	-0,009	0,062
-219,855	334,871	-0,056	0,077
-218,840	-53,446	0,164	0,053
-217,825	-193,301	0,077	-0,000
-216,811	714,558	-0,050	0,095
-215,796	114,326	0,031	0,027
-214,782	45,047	-0,037	0,024
-213,767	-60,803	-0,045	0,013
-212,752	16,920	0,024	-0,013
-211,738	800,000	-0,031	0,084
-210,723	-8,309	0,107	0,051
-209,709	-200,000	-0,015	0,155
-208,694	-200,000	-0,000	-0,115
-207,679	38,572	0,051	0,032
-206,665	-121,158	0,027	-0,003
-205,650	-41,599	0,149	0,054
-204,636	-57,268	-0,096	0,030
-203,621	133,170	0,044	0,040
-202,606	264,143	-0,028	-0,035
-201,592	213,257	0,010	0,012
-200,577	-142,267	0,089	0,006
-199,563	800,000	-0,019	-0,055
-198,548	-146,687	0,188	0,011
-197,533	673,617	0,060	-0,111
-196,519	-200,000	-0,011	-0,043
-195,504	800,000	-0,018	0,046
-194,490	377,930	-0,043	-0,062
-193,475	676,333	0,014	-0,025
-192,460	-70,337	0,122	-0,033
-191,446	74,418	-0,022	-0,017
-190,431	-80,773	0,183	0,043
-189,417	-112,957	-0,101	-0,014
-188,402	447,831	0,034	-0,053
-187,387	-200,000	0,018	-0,077
-186,373	657,303	-0,058	0,106
-185,358	-54,561	0,051	-0,016
-184,344	-78,845	0,043	0,010
-183,329	36,346	0,049	-0,031
-182,315	9,925	0,033	0,018
-181,300	11,890	-0,071	-0,039
-180,285	102,529	-0,094	-0,078
-179,271	258,171	0,027	0,033
-178,256	119,707	0,046	0,040
-177,242	111,405	0,067	0,057
-176,227	-200,000	-0,017	0,172
-175,212	270,183	0,120	0,150
-174,198	5,109	-0,093	0,048
-173,183	-7,024	0,088	0,042
-172,169	-105,463	-0,090	0,014
-171,154	-200,000	0,005	-0,044
-170,139	-200,000	0,011	0,089
-169,125	327,793	0,048	0,065
-168,110	174,306	-0,030	-0,031
-167,096	701,436	0,040	0,076
-166,081	-112,974	-0,047	-0,007
-165,066	-143,744	-0,133	-0,009
-164,052	-200,000	0,008	-0,067
-163,037	24,121	0,100	0,058
-162,023	26,845	-0,117	0,070
-161,008	60,461	0,083	0,058
-159,993	-200,000	0,012	0,107
-158,979	-200,000	-0,014	0,051
-157,964	-83,962	-0,153	-0,034
-156,950	114,990	-0,164	-0,142
-155,935	-200,000	-0,048	-0,160
-154,920	82,107	0,062	0,048
-153,906	-57,220	0,105	0,033
-152,891	72,894	0,073	0,054
-151,877	800,000	-0,020	0,052
-150,862	23,972	-0,066	-0,038
-149,847	-200,000	0,024	-0,099
-148,833	440,377	0,082	-0,128
-147,818	-200,000	0,004	0,054
-146,804	-0,096	0,143	0,072
-145,789	-134,264	-0,128	-0,011
-144,775	-137,237	0,151	-0,012
-143,760	800,000	-0,016	0,046
-142,745	75,281	0,028	-0,021
-141,731	-70,420	-0,076	-0,020
-140,716	26,037	0,040	-0,024
-139,702	80,152	-0,018	-0,014
-138,687	-200,000	-0,099	-0,000
-137,672	-200,000	0,003	-0,056
-136,658	-2,041	-0,115	-0,057
-135,643	4,977	0,057	0,030
-134,629	225,879	0,013	-0,014
-133,614	35,297	-0,142	0,088
-132,599	-117,904	0,172	0,022
-131,585	-62,031	0,092	-0,027
-130,570	800,000	0,025	0,062
-129,556	-200,000	0,011	-0,039
-128,541	-86,489	-0,150	0,032
-127,526	175,979	0,050	-0,052
-126,512	100,863	0,051	0,042
-125,497	800,000	-0,028	0,083
-124,483	159,202	0,148	0,146
-123,468	-200,000	0,006	-0,046
-122,453	-200,000	-0,003	-0,079
-121,439	219,600	-0,053	0,060
-120,424	-39,450	-0,059	-0,022
-119,410	103,070	-0,068	0,056
-118,395	800,000	-0,049	0,127
-117,380	207,357	-0,020	0,022
-116,366	399,249	-0,021	0,031
-115,351	33,775	-0,045	0,028
-114,337	64,139	-0,098	-0,069
-113,322	-200,000	0,004	-0,118
-112,307	-146,593	0,086	-0,005
-111,293	800,000	0,049	0,148
-110,278	800,000	0,042	0,108
-109,264	-200,000	0,001	0,070
-108,249	-93,380	-0,053	0,010
-107,234	-200,000	0,019	-0,073
-106,220	250,546	0,083	-0,100
-105,205	-113,605	-0,097	-0,013
-104,191	52,703	0,048	0,032
-103,176	-200,000	-0,002	0,175
-102,162	-153,193	0,141	0,007
-101,147	-200,000	-0,028	0,105
-100,132	80,162	-0,127	-0,096
-99,118	800,000	0,018	0,056
-98,103	179,093	-0,025	-0,026
-97,089	-200,000	-0,028	0,118
-96,074	800,000	0,056	-0,110
-95,059	101,793	-0,068	-0,056
-94,045	177,460	0,048	0,049
-93,030	778,590	-0,068	-0,132
-92,016	75,332	0,094	-0,070
-91,001	-70,180	-0,054	-0,014
-89,986	-200,000	0,025	-0,088
-88,972	800,000	0,067	0,140
-87,957	144,966	0,119	-0,113
-86,943	562,065	-0,016	0,027
-85,928	-200,000	-0,047	0,270
-84,913	-140,707	-0,089	0,006
-83,899	-200,000	0,047	0,180
-82,884	197,401	-0,053	0,058
-81,870	-7,160	0,065	0,031
-80,855	216,294	-0,093	0,104
-79,840	133,985	-0,059	-0,054
-78,826	87,027	-0,027	0,021
-77,811	800,000	-0,033	-0,075
-76,797	800,000	-0,032	0,086
-75,782	-200,000	0,000	-0,041
-74,767	491,277	-0,073	0,119
-73,753	626,785	-0,067	0,119
-72,738	-91,503	0,029	-0,006
-71,724	-200,000	0,039	0,123
-70,709	-200,000	0,027	-0,094
-69,694	4,394	0,042	-0,022
-68,680	800,000	0,053	0,133
-67,665	17,016	0,111	0,062
-66,651	-64,741	0,084	0,024
-65,636	-72,972	0,055	-0,014
-64,622	-28,472	-0,118	0,048
-63,607	2,477	0,153	-0,078
-62,592	410,332	0,031	-0,047
-61,578	203,129	0,038	0,041
-60,563	-200,000	-0,002	0,088
-59,549	-83,368	-0,127	0,029
-58,534	26,596	-1,913	-1,128
-57,519	517,241	-1,265	-2,097
-56,505	-200,000	-0,314	-4,349
-55,490	326,905	1,049	1,423
-54,476	800,000	4,955	11,003
-53,461	-200,000	20,912	329,771
-52,446	800,000	757,396	2323,712
-51,432	550,076	1662,192	2825,322
-50,417	73,471	1663,909	1228,547
-49,403	18,745	1537,030	866,292
-48,388	12,675	1460,150	793,575
-47,373	19,003	1450,889	818,914
-46,359	15,863	1440,019	797,797
-45,344	10,900	1436,165	771,978
-44,330	10,889	1434,086	770,777
-43,315	10,849	1432,204	769,542
-42,300	10,881	1430,472	768,734
-41,286	10,920	1428,712	767,946
-40,271	10,870	1427,787	767,177
-39,257	10,865	1426,664	766,522
-38,242	10,933	1425,551	766,217
-37,227	10,896	1424,377	765,379
-36,213	10,943	1423,184	764,928
-35,198	10,907	1422,131	764,161
-34,184	10,974	1421,167	763,930
-33,169	10,913	1419,772	762,866
-32,154	10,978	1418,735	762,581
-31,140	11,035	1417,249	762,020
-30,125	11,006	1416,456	761,430
-29,111	10,963	1415,403	760,632
-28,096	10,960	1414,170	759,923
-27,082	10,889	1412,963	758,910
-26,067	10,907	1411,975	758,435
-25,052	10,895	1410,913	757,779
-24,038	10,915	1409,895	757,294
-23,023	10,904	1408,855	756,654
-22,009	10,898	1407,758	756,007
-20,994	10,865	1406,713	755,262
-19,979	10,876	1405,940	754,868
-18,965	10,879	1405,066	754,383
-17,950	10,857	1403,889	753,617
-16,936	10,824	1403,355	753,147
-15,921	10,822	1402,417	752,605
-14,906	10,819	1401,357	751,993
-13,892	10,799	1400,512	751,416
-12,877	10,784	1399,579	750,815
-11,863	10,799	1398,904	750,497
-10,848	10,776	1397,786	749,757
-9,833	10,778	1397,025	749,328
-8,819	10,739	1395,888	748,510
-7,804	10,657	1395,475	747,878
-6,790	10,704	1394,322	747,450
-5,775	10,714	1393,329	746,933
-4,760	10,675	1392,369	746,210
-3,746	10,727	1391,309	745,851
-2,731	10,716	1390,400	745,280
-1,717	10,701	1389,721	744,820
-0,702	10,723	1387,742	743,832
0,313	14,735	1301,358	715,914
1,327	31,037	692,816	418,217
2,342	48,013	120,279	79,178
3,356	2,092	16,468	8,364
4,371	4,629	3,413	1,762
5,386	19,169	0,877	0,495
6,400	800,000	0,217	0,481
7,415	-142,038	-0,269	-0,019
8,429	39,994	-0,263	-0,166
9,444	319,219	-0,179	-0,240
10,459	-95,025	-0,267	-0,050
11,473	-49,517	-0,308	-0,103
12,488	-131,439	-0,266	0,024
13,502	308,310	-0,216	-0,286
14,517	24,651	-0,304	-0,177
15,531	-1,745	-0,350	-0,173
16,546	-69,696	-0,400	-0,107
17,561	107,682	-0,362	-0,304
18,575	-1,201	-0,215	-0,106
19,590	246,464	-0,192	-0,229
20,604	-5,616	-0,232	-0,112
21,619	-3,023	-0,482	-0,236
22,634	183,385	-0,384	-0,400
23,648	97,737	-0,434	-0,351
24,663	189,782	-0,327	-0,346
25,677	61,030	-0,398	-0,278
26,692	374,746	-0,178	-0,256
27,707	-57,444	-0,401	-0,123
28,721	57,723	-0,379	-0,261
29,736	141,740	-0,349	-0,326
30,750	43,636	-0,395	-0,254
31,765	128,205	-0,387	-0,347
32,780	76,934	-0,349	-0,261
33,794	141,355	-0,192	-0,179
34,809	-10,261	-0,331	-0,154
35,823	179,920	-0,364	-0,375
36,838	113,638	-0,387	-0,331
37,853	182,357	-0,291	-0,302
38,867	105,735	-0,289	-0,240
39,882	162,243	-0,296	-0,292
40,896	20,728	-0,333	-0,189
41,911	-4,585	-0,370	-0,179
42,926	57,295	-0,284	-0,195
43,940	63,971	-0,456	-0,322
44,955	158,965	-0,208	-0,203
45,969	112,366	-0,327	-0,278
46,984	49,671	-0,371	-0,246
47,999	99,792	-0,152	-0,124
49,013	-103,897	-0,391	-0,064
50,028	48,705	-0,284	-0,187
51,042	171,148	-0,381	-0,384
52,057	32,440	-0,378	-0,229
53,071	-32,092	-0,372	-0,146
54,086	227,332	-0,338	-0,387
55,101	-67,924	-0,413	-0,113
56,115	2,127	-0,217	-0,110
57,130	184,523	-0,222	-0,232
58,144	-61,156	-0,445	-0,131
59,159	-10,067	-0,468	-0,217
60,174	46,323	-0,271	-0,176
61,188	62,120	-0,322	-0,225
62,203	-134,538	-0,349	-0,030
63,217	50,870	-0,278	-0,184
64,232	111,554	-0,300	-0,254
65,247	-75,468	-0,405	-0,100
66,261	538,185	-0,238	-0,398
67,276	179,767	-0,347	-0,357
68,290	56,409	-0,375	-0,255
69,305	125,934	-0,258	-0,229
70,320	-38,166	-0,296	-0,110
71,334	27,935	-0,275	-0,162
72,349	-22,192	-0,377	-0,160
73,363	6,917	-0,376	-0,196
74,378	68,110	-0,420	-0,301
75,393	67,807	-0,270	-0,193
76,407	574,322	-0,178	-0,306
77,422	-16,967	-0,369	-0,162
78,436	65,787	-0,304	-0,215
79,451	-111,158	-0,357	-0,051
80,466	12,476	-0,299	-0,161
81,480	29,349	-0,360	-0,214
82,495	134,653	-0,217	-0,197
83,509	800,000	-0,114	-0,245
84,524	82,753	-0,207	-0,157
85,539	-135,378	-0,294	-0,024
86,553	56,048	-0,230	-0,156
87,568	-156,560	-0,223	0,010
88,582	75,687	-0,346	-0,256
89,597	4,946	-0,331	-0,170
90,611	58,292	-0,347	-0,238
91,626	39,438	-0,322	-0,201
92,641	206,437	-0,139	-0,151
93,655	50,995	-0,270	-0,179
94,670	38,165	-0,209	-0,130
95,684	289,576	-0,181	-0,231
96,699	92,932	-0,300	-0,237
97,714	6,837	-0,286	-0,149
98,728	121,514	-0,137	-0,119
99,743	91,251	-0,121	-0,095
100,757	-27,525	-0,435	-0,176
101,772	165,321	-0,318	-0,315
102,787	225,542	-0,300	-0,340
103,801	85,460	-0,362	-0,278
104,816	107,239	-0,219	-0,182
105,830	34,499	-0,283	-0,173
106,845	12,091	-0,199	-0,106
107,860	-50,759	-0,288	-0,094
108,874	149,571	-0,258	-0,245
109,889	70,658	-0,331	-0,239
110,903	800,000	-0,064	-0,173
111,918	128,358	-0,225	-0,200
112,933	-46,136	-0,157	-0,054
113,947	60,977	-0,180	-0,125
114,962	800,000	-0,141	-0,328
115,976	-197,629	-0,126	-0,001
116,991	185,954	-0,217	-0,226
118,006	222,667	-0,284	-0,320
119,020	5,525	-0,261	-0,134
120,035	178,000	-0,164	-0,167
121,049	124,652	-0,105	-0,093
122,064	13,983	-0,294	-0,159
123,079	-79,363	-0,365	-0,086
124,093	125,792	-0,154	-0,136
125,108	91,602	-0,232	-0,182
126,122	37,526	-0,129	-0,080
127,137	-200,000	-0,061	-0,193
128,151	-101,452	-0,343	-0,058
129,166	-2,495	-0,293	-0,143
130,181	-65,129	-0,268	-0,075
131,195	52,781	-0,223	-0,148
132,210	58,846	-0,255	-0,174
133,224	160,761	-0,237	-0,231
134,239	71,216	-0,234	-0,169
135,254	14,125	-0,200	-0,108
136,268	-12,289	-0,248	-0,113
137,283	-27,591	-0,346	-0,140
138,297	105,972	-0,283	-0,234
139,312	-20,724	-0,261	-0,111
140,327	-23,550	-0,293	-0,122
141,341	19,194	-0,204	-0,114
142,356	41,376	-0,190	-0,119
143,370	-82,936	-0,193	-0,043
144,385	18,155	-0,288	-0,159
145,400	-112,878	-0,172	-0,023
146,414	12,371	-0,297	-0,159
147,429	95,265	-0,274	-0,217
148,443	-25,632	-0,299	-0,122
149,458	47,550	-0,140	-0,091
150,473	-108,781	-0,319	-0,047
151,487	7,765	-0,216	-0,113
152,502	10,666	-0,259	-0,137
153,516	24,554	-0,152	-0,088
154,531	-3,323	-0,290	-0,140
155,546	14,829	-0,283	-0,154
156,560	-6,875	-0,183	-0,086
157,575	-1,979	-0,246	-0,120
158,589	-43,328	-0,253	-0,089
159,604	482,121	-0,220	-0,349
160,619	249,313	-0,190	-0,225
161,633	-40,283	-0,304	-0,110
162,648	150,526	-0,197	-0,186
163,662	-59,612	-0,241	-0,072
164,677	486,537	-0,155	-0,247
165,692	-11,317	-0,231	-0,105
166,706	-61,024	-0,286	-0,084
167,721	129,465	-0,206	-0,183
168,735	122,313	-0,215	-0,187
169,750	25,655	-0,158	-0,091
170,764	-128,205	-0,316	0,031
171,779	-112,131	-0,112	0,016
172,794	83,308	-0,271	-0,205
173,808	141,057	-0,165	-0,152
174,823	-43,300	-0,217	-0,076
175,837	7,489	-0,355	-0,184
176,852	38,778	-0,343	-0,212
177,867	-100,604	-0,184	0,031
178,881	16,584	-0,325	-0,178
179,896	52,874	-0,189	-0,125
180,910	-30,456	-0,156	-0,061
181,925	707,616	-0,123	-0,227
182,940	71,967	-0,226	-0,163
183,954	254,920	-0,241	-0,287
184,969	398,310	-0,115	-0,167
185,983	35,033	-0,231	-0,140
186,998	478,051	-0,107	-0,168
188,013	383,883	-0,150	-0,215
189,027	-30,806	-0,122	-0,048
190,042	-71,648	-0,324	-0,083
191,056	-54,657	-0,284	-0,089
192,071	312,502	-0,158	-0,206
193,086	264,603	-0,179	-0,216
194,100	116,825	-0,175	-0,149
195,115	152,625	-0,203	-0,192
196,129	116,565	-0,203	-0,173
197,144	184,431	-0,169	-0,173
198,159	118,178	-0,173	-0,148
199,173	-44,525	-0,210	-0,072
200,188	-54,592	-0,156	-0,049
201,202	-200,000	-0,064	-0,234
202,217	-77,001	-0,220	-0,053
203,232	63,344	-0,262	-0,182
204,246	800,000	-0,187	-0,376
205,261	69,264	-0,363	-0,259
206,275	202,512	-0,200	-0,214
207,290	-32,890	-0,296	-0,113
208,304	800,000	-0,070	-0,208
209,319	800,000	-0,107	-0,241
210,334	742,147	-0,192	-0,360
211,348	328,006	-0,250	-0,334
212,363	800,000	-0,116	-0,318
213,377	44,904	-0,208	-0,132
214,392	-43,340	-0,063	-0,022
215,407	-13,248	-0,182	-0,082
216,421	-13,145	-0,271	-0,122
217,436	200,993	-0,107	-0,114
218,450	-64,017	-0,125	-0,035
219,465	-127,742	-0,055	-0,005
220,480	519,766	-0,171	-0,278
221,494	-7,250	-0,168	-0,078
222,509	3,391	-0,055	-0,028
223,523	47,648	-0,137	0,088
224,538	334,685	-0,090	-0,121
225,553	240,287	-0,232	-0,268
226,567	46,702	-0,159	-0,102
227,582	80,469	-0,184	-0,137
228,596	171,794	-0,202	-0,201
229,611	-168,017	-0,236	-0,006
230,626	62,545	-0,179	-0,124
231,640	65,676	-0,189	-0,132
232,655	-200,000	-0,077	-0,294
233,669	122,390	-0,247	-0,213
234,684	63,229	-0,189	-0,131
235,699	-200,000	-0,033	-0,215
236,713	-121,986	-0,152	-0,017
237,728	74,518	-0,258	-0,187
238,742	165,798	-0,151	-0,148
239,757	161,609	-0,285	-0,276
240,772	42,377	-0,233	-0,146
241,786	278,476	-0,181	-0,223
242,801	280,474	-0,176	-0,218
243,815	-172,743	-0,158	-0,003
244,830	547,233	-0,033	-0,054
245,844	-3,248	-0,280	-0,135
246,859	213,374	-0,161	-0,176
247,874	13,972	-0,154	-0,083
248,888	84,060	-0,238	-0,179
249,903	4,517	-0,247	-0,125
250,917	800,000	-0,046	-0,103
251,932	160,995	-0,073	-0,071
252,947	8,261	-0,197	-0,102
253,961	800,000	-0,108	-0,209
254,976	8,475	-0,191	-0,099
255,990	88,324	-0,097	-0,074
257,005	120,908	-0,101	-0,087
258,020	-200,000	0,010	-0,100
259,034	-29,805	-0,187	-0,073
260,049	185,979	-0,171	-0,175
261,063	-64,148	-0,187	-0,052
262,078	71,756	-0,242	-0,173
263,093	397,074	-0,143	-0,206
264,107	29,152	-0,306	-0,178
265,122	-153,135	-0,139	-0,007
266,136	-144,010	-0,215	-0,014
267,151	-186,206	-0,203	-0,002
268,166	-94,474	-0,089	0,017
269,180	447,548	-0,149	-0,227
270,195	352,162	-0,168	-0,231
271,209	-109,209	-0,235	-0,034
272,224	127,394	-0,132	-0,116
273,239	-8,509	-0,061	-0,028
274,253	132,489	-0,274	-0,243
275,268	-169,452	-0,216	-0,005
276,282	-200,000	-0,047	-0,181
277,297	800,000	-0,127	-0,274
278,312	34,775	-0,128	-0,077
279,326	265,809	-0,133	-0,161
280,341	-102,440	-0,287	0,047
281,355	119,760	-0,108	0,092
282,370	-105,043	-0,127	-0,020
283,384	-164,509	-0,149	-0,005
284,399	508,113	-0,097	-0,155
285,414	171,636	-0,103	-0,102
286,428	-101,162	-0,129	0,022
287,443	-9,409	-0,040	0,019
288,457	224,496	-0,188	-0,209
289,472	43,732	-0,127	0,080
290,487	-50,488	-0,239	-0,077
291,501	-23,970	-0,061	-0,025
292,516	800,000	-0,100	-0,266
293,530	14,505	-0,193	-0,103
294,545	124,748	-0,070	-0,061
295,560	48,203	-0,070	0,045
296,574	551,393	-0,134	-0,221
297,589	-88,553	-0,253	-0,051
298,603	-50,359	-0,159	-0,051
299,618	800,000	-0,125	-0,290
300,633	800,000	-0,084	-0,161
301,647	-200,000	-0,017	-0,085
302,662	-87,735	-0,216	-0,044
303,676	1,530	-0,077	0,038
304,691	125,940	-0,120	-0,104
305,706	275,152	-0,173	-0,211
306,720	-47,610	-0,213	-0,071
307,735	25,252	-0,145	-0,082
308,749	526,318	-0,089	-0,145
309,764	52,522	-0,112	0,073
310,779	-85,311	-0,129	0,027
311,793	-92,542	-0,078	0,015
312,808	77,556	-0,246	-0,180
313,822	-200,000	-0,033	-0,109
314,837	120,212	-0,112	-0,095
315,852	-136,875	-0,254	0,020
316,866	-101,078	-0,048	-0,008
317,881	56,676	-0,048	0,032
318,895	44,353	-0,214	-0,135
319,910	-113,425	-0,141	-0,019
320,925	-22,083	-0,288	-0,119
321,939	-133,681	-0,079	0,007
322,954	-200,000	-0,023	-0,085
323,968	-47,337	-0,071	0,024
324,983	-121,470	-0,099	-0,011
325,997	-25,597	-0,317	-0,128
327,012	800,000	-0,083	-0,170
328,027	800,000	-0,037	-0,084
329,041	25,979	-0,198	-0,113
330,056	-103,046	-0,170	-0,027
331,070	14,304	-0,131	0,070
332,085	-200,000	0,031	-0,111
333,100	123,799	-0,111	-0,095
334,114	-101,147	-0,201	0,033
335,129	-185,751	-0,203	-0,002
336,143	201,533	-0,157	-0,166
337,158	118,700	-0,136	-0,115
338,173	-62,011	-0,125	-0,035
339,187	64,682	-0,043	-0,030
340,202	-200,000	-0,006	0,021
341,216	18,886	-0,093	-0,051
342,231	99,298	-0,247	-0,195
343,246	113,260	-0,191	-0,159
344,260	-38,565	-0,107	-0,039
345,275	-69,275	-0,179	-0,047
346,289	596,583	-0,055	0,093
347,304	-146,793	-0,123	0,007
348,319	391,088	-0,150	-0,214
349,333	513,954	-0,076	-0,121
350,348	800,000	-0,054	-0,157
351,362	233,961	-0,080	0,090
352,377	179,523	-0,067	-0,067
353,392	81,980	-0,183	-0,135
354,406	-200,000	0,000	-0,119
355,421	206,251	1311,162	1397,649
356,435	158,611	1471,429	1398,119
