DTS Sentinel unit serial number:	SN410029Multiplexer serial number:	ORYXHardware model number:	OX2-SRSoftware version number:	ORYX F/W v4,00 Oryx Data Collector v3.7.2.0data status	okinstallation	B3 Nyhavnadifferential loss correction	single-endedforward channel	channel 1reverse channel	N/Adate	2023/12/02time	16:12:30forward acquisition time	300,00reverse acquisition time	0,00gamma	499,1914k internal	0,3197k external	0,3197temperature offset calibration	1,0000default loss term (dB/km)	0,3820temperature slope calibration	1,0000multiplexer offset coefficient	1,0000multiplexer slope coefficient	1,0000fibre end	0,00T internal ref (°C)	14,36T ext. ref 1 (°C)	-1,23T ext. ref 2 (°C)	-1,25length (m)	temperature (°C)	Stokes	anti-Stokes-744,400	472,899	-0,178	-0,294
-743,385	-200,000	-0,060	0,286
-742,371	-87,371	-0,306	-0,067
-741,356	-200,000	0,036	0,319
-740,342	800,000	-0,103	-0,216
-739,327	800,000	0,103	0,284
-738,312	97,691	-0,341	-0,285
-737,298	338,340	0,174	0,247
-736,283	418,582	-0,197	-0,307
-735,269	-200,000	-0,037	0,283
-734,254	-12,960	-0,221	-0,104
-733,239	-200,000	0,032	0,138
-732,225	285,850	-0,113	-0,149
-731,210	120,371	0,101	0,091
-730,196	800,000	-0,056	0,133
-729,181	-118,348	-0,131	0,017
-728,167	-0,489	-0,128	-0,066
-727,152	-200,000	-0,000	0,014
-726,137	-78,167	-0,132	-0,033
-725,123	800,000	0,057	0,118
-724,108	32,625	-0,179	-0,112
-723,094	252,476	0,082	-0,102
-722,079	-146,541	-0,023	-0,001
-721,064	87,334	-0,046	-0,037
-720,050	800,000	-0,033	0,074
-719,035	-148,226	0,105	0,006
-718,021	-200,000	0,000	-0,059
-717,006	48,362	-0,082	0,055
-715,991	-74,330	-0,255	-0,066
-714,977	-200,000	0,023	-0,087
-713,962	-200,000	0,007	-0,134
-712,948	-200,000	-0,017	0,057
-711,933	409,408	0,066	0,102
-710,918	332,219	-0,036	0,050
-709,904	-200,000	0,002	-0,153
-708,889	-33,044	-0,152	0,061
-707,875	800,000	-0,043	0,089
-706,860	800,000	0,021	-0,046
-705,845	-200,000	0,002	0,035
-704,831	289,837	0,020	-0,026
-703,816	-200,000	-0,043	0,167
-702,802	79,218	-0,081	-0,063
-701,787	-159,263	-0,149	-0,006
-700,772	-174,441	-0,067	-0,001
-699,758	-81,785	-0,111	-0,026
-698,743	149,521	0,035	0,034
-697,729	-200,000	-0,005	-0,056
-696,714	-58,706	0,084	-0,026
-695,699	-160,903	-0,176	-0,007
-694,685	-200,000	-0,011	-0,076
-693,670	-200,000	0,020	-0,162
-692,656	103,239	-0,066	-0,057
-691,641	-200,000	-0,007	-0,069
-690,627	-180,866	0,073	-0,001
-689,612	-200,000	-0,020	0,117
-688,597	50,106	-0,100	-0,069
-687,583	-200,000	0,043	-0,204
-686,568	2,878	-0,079	-0,041
-685,554	-200,000	-0,037	-0,159
-684,539	-68,741	-0,036	-0,010
-683,524	-200,000	-0,012	0,086
-682,510	-200,000	0,006	-0,107
-681,495	594,688	-0,044	-0,080
-680,481	255,290	0,047	0,058
-679,466	316,120	-0,045	-0,062
-678,451	108,125	-0,095	-0,082
-677,437	-200,000	-0,005	-0,102
-676,422	88,171	-0,068	-0,055
-675,408	728,397	-0,068	0,132
-674,393	-125,003	-0,012	0,001
-673,378	-68,703	0,063	0,017
-672,364	-120,941	-0,162	-0,020
-671,349	-31,650	-0,033	0,013
-670,335	800,000	0,026	0,072
-669,320	-22,178	0,137	-0,060
-668,305	-6,842	-0,194	0,096
-667,291	-98,878	0,180	0,033
-666,276	791,342	-0,059	-0,118
-665,262	90,195	-0,077	0,063
-664,247	-199,816	-0,038	0,000
-663,232	800,000	0,017	0,043
-662,218	-200,000	-0,012	0,112
-661,203	-133,125	-0,093	0,008
-660,189	50,546	0,106	0,073
-659,174	-109,954	0,088	0,013
-658,159	-200,000	-0,009	0,035
-657,145	342,287	0,033	0,046
-656,130	-56,249	-0,072	0,023
-655,116	60,595	-0,129	0,092
-654,101	800,000	0,037	0,087
-653,086	-142,805	-0,045	-0,003
-652,072	-109,147	0,057	-0,009
-651,057	-200,000	0,011	-0,082
-650,043	-143,207	0,085	0,006
-649,028	711,281	0,049	-0,095
-648,014	-151,284	-0,189	0,010
-646,999	-200,000	-0,007	-0,082
-645,984	-200,000	-0,011	0,085
-644,970	-200,000	0,011	0,052
-643,955	77,592	-0,028	0,021
-642,941	462,706	-0,013	0,021
-641,926	-10,280	-0,103	-0,050
-640,911	-167,990	0,023	0,001
-639,897	-200,000	0,077	0,000
-638,882	605,588	-0,031	0,057
-637,868	-200,000	-0,029	-0,121
-636,853	-29,045	-0,152	0,063
-635,838	-200,000	-0,010	-0,103
-634,824	-89,093	0,092	-0,020
-633,809	238,380	0,022	-0,026
-632,795	-4,072	0,079	-0,040
-631,780	-10,494	-0,134	0,064
-630,765	-66,731	0,086	-0,025
-629,751	-100,552	0,056	0,010
-628,736	-40,366	-0,139	-0,052
-627,722	-200,000	-0,016	0,108
-626,707	800,000	0,050	0,150
-625,692	535,186	0,004	0,007
-624,678	-200,000	0,011	-0,105
-623,663	-181,982	0,046	-0,001
-622,649	728,455	-0,045	-0,087
-621,634	773,796	0,023	0,045
-620,619	-200,000	0,014	-0,135
-619,605	128,232	-0,055	-0,050
-618,590	-200,000	-0,021	0,184
-617,576	280,304	-0,033	0,042
-616,561	-200,000	0,001	-0,014
-615,546	-200,000	-0,015	-0,106
-614,532	-41,875	0,043	-0,016
-613,517	-48,042	-0,047	-0,016
-612,503	-200,000	0,009	0,072
-611,488	-47,953	0,048	-0,017
-610,474	73,639	0,029	0,022
-609,459	365,004	0,034	0,050
-608,444	419,220	-0,015	-0,023
-607,430	-45,472	-0,093	-0,033
-606,415	156,389	-0,041	0,041
-605,401	-200,000	0,010	0,110
-604,386	35,312	-0,092	0,058
-603,371	311,043	-0,054	-0,073
-602,357	800,000	0,061	0,144
-601,342	14,978	-0,087	-0,049
-600,328	800,000	-0,061	-0,183
-599,313	112,890	-0,070	-0,061
-598,298	800,000	0,039	-0,117
-597,284	270,214	0,006	0,008
-596,269	-200,000	-0,007	-0,074
-595,255	800,000	0,009	-0,026
-594,240	-8,023	0,055	-0,027
-593,225	800,000	-0,036	-0,091
-592,211	-200,000	-0,004	-0,079
-591,196	-36,413	0,093	0,036
-590,182	162,819	0,082	-0,084
-589,167	800,000	0,028	0,061
-588,152	-200,000	-0,004	-0,083
-587,138	354,310	-0,022	-0,031
-586,123	-200,000	-0,015	-0,203
-585,109	-200,000	-0,021	-0,137
-584,094	-157,004	-0,092	0,004
-583,079	194,418	0,070	0,077
-582,065	126,969	0,033	0,030
-581,050	619,860	0,019	-0,035
-580,036	-200,000	-0,008	0,049
-579,021	10,624	-0,158	-0,087
-578,006	312,731	-0,139	-0,189
-576,992	-37,467	0,054	0,021
-575,977	111,058	0,118	-0,103
-574,963	-1,286	0,091	-0,046
-573,948	-200,000	0,032	0,133
-572,934	-41,585	0,103	-0,038
-571,919	-79,011	-0,024	-0,006
-570,904	37,228	-0,145	0,093
-569,890	253,904	0,057	-0,071
-568,875	-82,899	0,060	-0,014
-567,861	-200,000	0,001	-0,015
-566,846	800,000	-0,017	-0,050
-565,831	65,279	0,062	-0,045
-564,817	23,551	0,128	-0,076
-563,802	800,000	-0,017	-0,048
-562,788	79,201	-0,074	-0,057
-561,773	-200,000	0,013	-0,073
-560,758	63,453	-0,076	-0,055
-559,744	-200,000	0,028	-0,115
-558,729	102,812	-0,069	0,059
-557,715	238,180	-0,035	0,042
-556,700	48,986	-0,114	0,078
-555,685	355,850	-0,026	-0,037
-554,671	-54,057	0,111	-0,036
-553,656	-20,077	0,060	-0,026
-552,642	187,671	0,056	0,060
-551,627	399,993	0,050	-0,076
-550,612	476,510	-0,053	-0,087
-549,598	13,094	-0,082	-0,046
-548,583	-200,000	0,003	-0,117
-547,569	-200,000	-0,011	-0,038
-546,554	340,649	-0,066	-0,093
-545,539	-40,286	-0,081	0,030
-544,525	-200,000	-0,027	-0,092
-543,510	-33,440	-0,089	0,035
-542,496	-78,429	-0,093	-0,023
-541,481	-200,000	-0,045	-0,167
-540,466	-3,246	-0,081	-0,040
-539,452	-113,400	0,098	0,014
-538,437	423,654	-0,097	0,151
-537,423	-34,312	0,012	0,005
-536,408	800,000	-0,055	-0,168
-535,393	14,730	0,048	0,027
-534,379	86,832	-0,085	0,068
-533,364	800,000	-0,009	-0,026
-532,350	800,000	0,032	-0,099
-531,335	-200,000	0,009	0,029
-530,321	800,000	-0,044	0,122
-529,306	107,458	0,087	-0,074
-528,291	211,165	0,025	0,028
-527,277	237,544	-0,074	-0,089
-526,262	-94,327	0,078	-0,015
-525,248	-170,372	0,030	0,001
-524,233	-200,000	0,007	-0,085
-523,218	-81,727	-0,115	0,027
-522,204	84,820	0,025	-0,020
-521,189	-143,797	-0,098	0,007
-520,175	177,725	0,048	-0,051
-519,160	-13,040	-0,074	-0,035
-518,145	-9,859	-0,021	-0,010
-517,131	199,482	0,145	0,161
-516,116	-200,000	0,025	0,152
-515,102	800,000	0,061	-0,161
-514,087	-200,000	-0,004	0,053
-513,072	-148,968	-0,090	0,005
-512,058	800,000	0,047	0,107
-511,043	-0,384	0,025	-0,013
-510,029	-33,250	0,095	-0,038
-509,014	-57,329	-0,023	-0,007
-507,999	-143,856	-0,217	-0,015
-506,985	-128,842	-0,109	0,011
-505,970	711,057	0,056	0,108
-504,956	300,856	-0,037	0,050
-503,941	626,043	0,038	-0,069
-502,926	-200,000	0,024	0,085
-501,912	-200,000	0,001	0,095
-500,897	414,416	-0,060	-0,092
-499,883	321,517	-0,081	-0,111
-498,868	425,244	0,019	-0,030
-497,853	-200,000	-0,026	0,100
-496,839	-200,000	-0,001	0,058
-495,824	41,032	-0,101	-0,065
-494,810	246,560	0,112	0,136
-493,795	76,369	0,059	0,045
-492,781	-154,511	0,125	0,006
-491,766	-6,006	-0,059	0,029
-490,751	-53,714	0,051	0,017
-489,737	129,106	0,008	0,007
-488,722	-200,000	0,012	0,057
-487,708	145,884	0,111	0,107
-486,693	147,841	-0,100	-0,097
-485,678	-65,119	0,171	0,049
-484,664	-11,258	-0,053	-0,025
-483,649	-68,189	0,104	-0,029
-482,635	-169,737	-0,105	0,003
-481,620	154,581	0,049	-0,048
-480,605	16,951	-0,098	-0,056
-479,591	541,253	0,038	-0,066
-478,576	43,070	0,031	0,020
-477,562	800,000	-0,049	-0,145
-476,547	800,000	-0,055	-0,135
-475,532	126,653	0,137	-0,125
-474,518	211,947	-0,046	0,052
-473,503	-200,000	0,006	0,035
-472,489	-120,342	-0,072	0,009
-471,474	102,442	0,037	0,032
-470,459	-200,000	0,001	0,006
-469,445	-74,475	-0,149	0,038
-468,430	800,000	-0,027	-0,061
-467,416	-69,211	0,132	0,036
-466,401	24,203	0,067	0,040
-465,386	556,603	0,062	0,109
-464,372	-200,000	0,021	-0,086
-463,357	-200,000	-0,007	-0,096
-462,343	-200,000	-0,010	-0,043
-461,328	130,169	-0,059	0,055
-460,313	-180,670	0,204	-0,003
-459,299	-200,000	0,004	0,022
-458,284	191,212	0,055	0,060
-457,270	-200,000	-0,015	0,089
-456,255	31,388	-0,062	0,038
-455,241	-200,000	0,006	-0,189
-454,226	142,205	-0,031	0,030
-453,211	-140,220	0,117	0,009
-452,197	418,857	0,068	0,106
-451,182	-70,433	0,072	-0,020
-450,168	800,000	-0,040	0,102
-449,153	-200,000	0,009	0,051
-448,138	-200,000	0,018	0,228
-447,124	-200,000	0,008	-0,072
-446,109	34,484	-0,144	0,090
-445,095	-161,607	0,152	-0,005
-444,080	800,000	0,014	-0,040
-443,065	59,554	0,120	0,085
-442,051	-93,878	0,113	0,022
-441,036	-15,463	-0,080	-0,037
-440,022	-200,000	0,027	-0,096
-439,007	800,000	0,058	-0,152
-437,992	36,798	-0,089	0,056
-436,978	15,184	0,109	-0,062
-435,963	-75,025	0,058	0,015
-434,949	-31,090	0,042	-0,017
-433,934	-200,000	0,010	-0,061
-432,919	-119,568	-0,063	-0,008
-431,905	42,025	-0,057	0,037
-430,890	128,622	0,054	-0,049
-429,876	97,871	0,106	-0,088
-428,861	-200,000	-0,012	-0,040
-427,846	-200,000	-0,018	0,083
-426,832	240,724	-0,072	0,087
-425,817	-92,709	-0,070	-0,014
-424,803	-16,500	0,114	0,052
-423,788	800,000	0,025	-0,072
-422,773	428,293	-0,075	-0,117
-421,759	228,268	0,057	-0,067
-420,744	-200,000	-0,016	0,184
-419,730	-200,000	-0,009	-0,035
-418,715	19,446	-0,024	-0,014
-417,701	-132,861	0,036	-0,003
-416,686	467,265	0,007	-0,011
-415,671	149,722	0,009	-0,009
-414,657	-200,000	-0,006	0,084
-413,642	257,446	0,080	0,100
-412,628	440,220	-0,039	0,062
-411,613	311,497	-0,078	0,105
-410,598	-200,000	-0,019	0,109
-409,584	25,806	0,145	-0,086
-408,569	-82,275	0,106	0,025
-407,555	-131,850	0,127	0,012
-406,540	266,770	-0,007	-0,009
-405,525	-18,094	0,062	-0,028
-404,511	-200,000	-0,008	-0,076
-403,496	-200,000	-0,044	0,147
-402,482	-51,964	-0,091	0,030
-401,467	800,000	0,015	0,032
-400,452	61,540	-0,064	0,046
-399,438	-200,000	0,014	0,139
-398,423	178,628	0,032	0,034
-397,409	236,570	0,041	-0,048
-396,394	130,494	-0,139	-0,128
-395,379	23,763	-0,091	-0,053
-394,365	-22,567	-0,100	0,043
-393,350	497,422	0,040	0,067
-392,336	-120,567	0,237	0,029
-391,321	162,018	0,073	0,073
-390,306	-103,512	-0,059	-0,010
-389,292	-200,000	0,002	-0,107
-388,277	-47,191	-0,020	-0,007
-387,263	278,586	-0,026	0,033
-386,248	500,835	0,055	-0,091
-385,233	-15,064	-0,079	-0,036
-384,219	781,234	0,059	0,116
-383,204	37,275	0,084	-0,053
-382,190	-56,343	-0,074	-0,024
-381,175	-26,643	0,120	0,050
-380,160	505,746	-0,019	-0,032
-379,146	647,317	-0,038	0,070
-378,131	26,035	-0,108	0,065
-377,117	-9,806	0,105	0,050
-376,102	10,458	0,023	0,013
-375,088	800,000	-0,029	-0,087
-374,073	-200,000	0,000	0,025
-373,058	-55,432	0,064	-0,021
-372,044	-200,000	-0,030	0,109
-371,029	-200,000	0,005	0,128
-370,015	759,439	0,032	0,063
-369,000	-200,000	0,014	0,154
-367,985	-47,638	0,076	-0,026
-366,971	-101,863	0,056	0,010
-365,956	800,000	0,060	0,130
-364,942	-200,000	0,046	0,000
-363,927	-200,000	0,021	0,078
-362,912	13,242	0,073	-0,040
-361,898	-78,485	0,040	0,010
-360,883	800,000	-0,056	-0,138
-359,869	800,000	-0,024	-0,060
-358,854	259,472	0,039	-0,048
-357,839	-69,045	-0,051	0,014
-356,825	57,078	0,046	0,032
-355,810	420,969	-0,129	0,199
-354,796	207,876	-0,121	0,136
-353,781	508,199	0,026	0,043
-352,766	752,454	-0,057	-0,111
-351,752	-200,000	-0,029	-0,204
-350,737	440,509	0,088	-0,138
-349,723	104,716	-0,085	-0,072
-348,708	159,405	-0,103	-0,103
-347,693	-160,063	-0,087	-0,003
-346,679	-49,205	-0,175	-0,060
-345,664	-10,697	0,070	0,033
-344,650	-136,563	0,041	-0,003
-343,635	-84,927	0,036	-0,008
-342,620	-200,000	0,065	0,230
-341,606	22,953	-0,079	-0,046
-340,591	-120,966	0,139	-0,017
-339,577	59,301	0,048	-0,034
-338,562	-150,425	-0,058	-0,003
-337,548	92,277	0,090	0,072
-336,533	72,149	-0,070	0,052
-335,518	-200,000	0,013	0,194
-334,504	-154,240	-0,032	0,001
-333,489	800,000	0,024	0,073
-332,475	800,000	-0,035	0,088
-331,460	-200,000	0,018	0,075
-330,445	800,000	0,040	0,115
-329,431	-200,000	-0,003	0,136
-328,416	95,994	-0,050	0,041
-327,402	800,000	-0,038	0,086
-326,387	-200,000	0,004	0,144
-325,372	370,596	-0,051	0,075
-324,358	545,555	-0,064	0,110
-323,343	-200,000	0,002	-0,030
-322,329	-150,925	0,170	0,009
-321,314	-131,645	0,053	0,005
-320,299	45,704	-0,134	0,088
-319,285	-54,421	-0,107	-0,035
-318,270	112,136	-0,066	-0,057
-317,256	199,580	-0,033	-0,037
-316,241	183,680	0,088	-0,093
-315,226	-200,000	-0,025	-0,080
-314,212	41,623	0,100	0,065
-313,197	705,859	-0,052	0,098
-312,183	-141,585	0,035	-0,002
-311,168	-91,591	0,140	0,028
-310,153	-20,234	-0,097	-0,043
-309,139	-200,000	-0,010	-0,039
-308,124	-11,789	0,113	-0,053
-307,110	44,756	0,096	-0,063
-306,095	800,000	-0,047	0,114
-305,080	-200,000	0,009	-0,075
-304,066	154,406	0,015	0,015
-303,051	-200,000	-0,028	-0,181
-302,037	603,779	0,082	-0,146
-301,022	-200,000	0,008	-0,076
-300,008	-82,641	0,095	0,022
-298,993	69,254	0,066	0,049
-297,978	151,805	-0,012	-0,012
-296,964	32,252	-0,132	-0,082
-295,949	65,082	-0,098	0,070
-294,935	800,000	-0,042	0,091
-293,920	-200,000	-0,000	0,008
-292,905	148,674	0,072	0,070
-291,891	30,701	-0,091	0,056
-290,876	800,000	-0,059	-0,167
-289,862	-1,477	-0,047	-0,024
-288,847	-7,795	-0,042	0,020
-287,832	59,288	0,039	-0,027
-286,818	-106,048	0,112	-0,018
-285,803	198,627	0,030	0,033
-284,789	21,677	0,070	0,041
-283,774	-34,894	0,069	-0,027
-282,759	323,829	-0,069	-0,094
-281,745	-200,000	-0,024	-0,130
-280,730	3,309	0,044	0,023
-279,716	-73,194	-0,061	0,016
-278,701	-24,958	-0,033	0,014
-277,686	-200,000	-0,020	0,087
-276,672	7,294	0,143	0,076
-275,657	189,467	-0,042	-0,045
-274,643	320,323	-0,072	-0,098
-273,628	367,564	-0,040	-0,057
-272,613	207,727	-0,042	0,046
-271,599	189,822	-0,067	-0,071
-270,584	-200,000	-0,004	0,030
-269,570	-200,000	0,008	0,128
-268,555	800,000	-0,031	0,063
-267,540	-200,000	-0,043	-0,166
-266,526	398,814	-0,034	-0,051
-265,511	95,015	-0,062	-0,050
-264,497	-200,000	0,016	0,067
-263,482	119,611	0,026	0,023
-262,467	-200,000	0,002	-0,048
-261,453	-8,178	0,021	-0,010
-260,438	11,282	-0,089	-0,048
-259,424	2,486	0,038	-0,020
-258,409	128,835	-0,080	-0,073
-257,395	800,000	0,026	0,075
-256,380	20,228	-0,083	0,048
-255,365	-200,000	-0,004	-0,142
-254,351	-39,862	0,098	-0,036
-253,336	56,530	-0,077	-0,053
-252,322	142,593	-0,198	-0,188
-251,307	292,496	-0,084	0,109
-250,292	779,944	0,029	0,057
-249,278	352,748	0,051	0,072
-248,263	289,690	-0,073	0,095
-247,249	-200,000	0,000	0,038
-246,234	-200,000	0,008	0,128
-245,219	-54,370	-0,067	-0,022
-244,205	-200,000	0,020	-0,176
-243,190	-200,000	0,032	-0,164
-242,176	19,902	0,180	-0,103
-241,161	152,120	0,087	0,084
-240,146	15,392	0,021	0,012
-239,132	16,100	-0,185	0,104
-238,117	308,159	0,035	-0,046
-237,103	-78,846	0,084	-0,020
-236,088	13,527	0,070	0,039
-235,073	800,000	0,028	0,061
-234,059	118,045	-0,031	-0,027
-233,044	-47,558	0,112	0,039
-232,030	-147,158	0,079	-0,005
-231,015	39,850	0,066	-0,042
-230,000	106,252	-0,100	0,085
-228,986	-41,011	-0,080	-0,029
-227,971	100,937	0,120	0,099
-226,957	-32,931	0,085	0,033
-225,942	-49,322	0,031	0,011
-224,927	-200,000	-0,011	0,116
-223,913	800,000	0,021	0,044
-222,898	77,901	-0,071	0,054
-221,884	43,153	-0,118	-0,076
-220,869	-110,471	0,224	-0,033
-219,855	-169,382	0,102	0,003
-218,840	800,000	0,045	-0,090
-217,825	-159,680	0,110	0,004
-216,811	-200,000	-0,008	0,133
-215,796	-200,000	0,036	0,126
-214,782	-108,038	0,094	-0,014
-213,767	643,531	-0,018	0,034
-212,752	-113,530	0,122	-0,017
-211,738	-6,198	0,065	0,031
-210,723	125,208	-0,061	0,055
-209,709	-144,154	-0,061	0,004
-208,694	-22,098	-0,049	0,021
-207,679	212,821	-0,095	0,108
-206,665	-41,224	-0,181	-0,066
-205,650	68,359	0,116	-0,085
-204,636	-200,000	0,012	0,074
-203,621	-200,000	0,000	0,035
-202,606	7,867	-0,013	0,007
-201,592	-54,712	-0,142	-0,045
-200,577	-200,000	-0,007	-0,140
-199,563	36,840	0,086	0,054
-198,548	253,481	0,068	0,083
-197,533	800,000	0,037	-0,088
-196,519	34,861	0,021	0,013
-195,504	800,000	0,004	0,012
-194,490	-146,233	-0,172	-0,011
-193,475	-78,855	0,051	-0,012
-192,460	57,001	0,020	0,014
-191,446	-167,673	0,093	-0,003
-190,431	-66,110	0,144	0,041
-189,417	-142,733	-0,131	0,009
-188,402	133,178	-0,061	-0,056
-187,387	355,743	-0,048	0,068
-186,373	800,000	-0,059	-0,130
-185,358	800,000	-0,040	-0,116
-184,344	12,021	0,048	-0,026
-183,329	248,955	0,111	0,134
-182,315	800,000	-0,038	0,107
-181,300	-20,733	-0,053	0,023
-180,285	-80,486	-0,044	0,010
-179,271	800,000	0,047	-0,129
-178,256	-200,000	0,001	0,032
-177,242	9,842	-0,058	0,031
-176,227	-120,976	0,137	0,016
-175,212	68,164	0,076	0,056
-174,198	-51,657	-0,103	0,034
-173,183	191,821	-0,079	-0,085
-172,169	766,012	-0,069	-0,134
-171,154	800,000	-0,015	0,047
-170,139	-200,000	-0,013	0,094
-169,125	-200,000	0,036	0,138
-168,110	-200,000	0,004	0,042
-167,096	-200,000	-0,001	-0,012
-166,081	800,000	-0,023	0,051
-165,066	17,560	-0,117	-0,066
-164,052	52,476	-0,156	0,106
-163,037	800,000	0,066	0,148
-162,023	-200,000	0,010	0,143
-161,008	-84,116	-0,026	-0,006
-159,993	22,245	-0,075	0,044
-158,979	-200,000	-0,011	-0,172
-157,964	-200,000	-0,012	-0,057
-156,950	-154,424	0,136	0,006
-155,935	121,489	-0,059	0,052
-154,920	100,225	0,076	0,063
-153,906	800,000	-0,040	-0,116
-152,891	-200,000	0,004	-0,103
-151,877	-200,000	0,030	0,108
-150,862	-23,833	-0,161	0,068
-149,847	280,243	0,048	-0,061
-148,833	800,000	0,042	0,090
-147,818	-200,000	0,001	-0,024
-146,804	287,147	0,015	-0,020
-145,789	-108,436	0,042	0,006
-144,775	800,000	-0,024	-0,072
-143,760	352,772	-0,040	0,057
-142,745	-29,516	0,005	0,002
-141,731	96,676	0,097	-0,079
-140,716	-200,000	-0,015	-0,074
-139,702	-200,000	0,009	0,135
-138,687	-200,000	0,023	0,090
-137,672	-61,005	-0,148	0,044
-136,658	-200,000	-0,002	-0,007
-135,643	70,072	-0,052	-0,038
-134,629	49,338	0,079	-0,053
-133,614	54,183	0,125	-0,085
-132,599	800,000	-0,026	-0,056
-131,585	487,736	-0,048	0,078
-130,570	800,000	-0,041	-0,082
-129,556	545,411	0,072	-0,123
-128,541	-55,869	0,083	0,026
-127,526	-200,000	0,020	0,074
-126,512	-41,573	0,060	-0,022
-125,497	219,256	0,040	-0,045
-124,483	-200,000	-0,053	0,207
-123,468	-117,571	-0,144	-0,018
-122,453	-34,722	-0,172	-0,066
-121,439	-200,000	0,036	-0,148
-120,424	95,697	0,062	-0,051
-119,410	-200,000	-0,047	-0,000
-118,395	-74,885	0,118	-0,030
-117,380	55,163	-0,052	-0,036
-116,366	15,123	0,074	0,041
-115,351	-50,685	-0,060	0,020
-114,337	485,316	-0,036	0,059
-113,322	-16,750	0,069	-0,031
-112,307	800,000	-0,031	0,081
-111,293	-200,000	-0,001	0,044
-110,278	-200,000	0,050	0,218
-109,264	-101,642	0,128	0,022
-108,249	127,974	-0,045	-0,041
-107,234	-200,000	-0,024	0,089
-106,220	251,165	-0,015	-0,019
-105,205	16,497	-0,116	-0,065
-104,191	-21,787	0,118	0,051
-103,176	-200,000	-0,022	0,223
-102,162	-200,000	0,000	0,053
-101,147	-3,141	-0,075	0,037
-100,132	-200,000	-0,032	-0,143
-99,118	800,000	-0,003	-0,007
-98,103	-200,000	0,022	0,106
-97,089	192,182	-0,066	0,071
-96,074	353,482	-0,035	-0,049
-95,059	800,000	-0,014	0,029
-94,045	-138,303	-0,060	-0,005
-93,030	-100,487	0,006	-0,001
-92,016	-156,547	-0,048	0,002
-91,001	157,353	0,084	0,083
-89,986	230,108	0,032	0,037
-88,972	-200,000	-0,003	0,138
-87,957	-72,543	0,169	0,044
-86,943	97,811	-0,051	0,042
-85,928	-200,000	0,003	-0,195
-84,913	-146,895	0,133	0,008
-83,899	-59,672	-0,122	-0,037
-82,884	800,000	0,044	0,127
-81,870	55,542	0,096	0,066
-80,855	-107,697	0,090	-0,014
-79,840	-24,819	-0,172	-0,072
-78,826	12,583	-0,020	0,011
-77,811	384,259	-0,034	-0,049
-76,797	-128,991	-0,042	0,004
-75,782	-81,499	-0,025	0,006
-74,767	363,442	0,096	0,137
-73,753	-200,000	0,022	-0,092
-72,738	543,350	0,068	0,116
-71,724	580,600	0,106	0,185
-70,709	96,316	-0,127	-0,103
-69,694	-58,355	-0,135	-0,041
-68,680	-179,102	0,098	-0,002
-67,665	800,000	0,041	0,116
-66,651	-200,000	0,000	0,117
-65,636	695,328	-0,059	-0,110
-64,622	517,597	-0,106	-0,176
-63,607	81,436	-0,107	-0,082
-62,592	499,066	0,028	-0,046
-61,578	-29,900	0,111	-0,044
-60,563	-40,408	-0,094	-0,034
-59,549	800,000	0,010	-0,025
-58,534	-39,870	-1,457	-0,537
-57,519	385,591	-1,409	-2,066
-56,505	-200,000	-0,473	-4,489
-55,490	219,135	0,880	0,999
-54,476	800,000	4,760	11,258
-53,461	-200,000	18,535	299,004
-52,446	800,000	733,691	2267,710
-51,432	561,794	1649,782	2839,019
-50,417	78,778	1667,833	1263,301
-49,403	22,317	1540,849	889,982
-48,388	16,258	1463,756	816,039
-47,373	17,781	1453,914	817,869
-46,359	17,022	1444,025	808,640
-45,344	14,530	1439,504	794,151
-44,330	14,436	1437,620	792,628
-43,315	14,399	1435,930	791,488
-42,300	14,443	1434,028	790,620
-41,286	14,530	1432,811	790,333
-40,271	14,444	1431,793	789,330
-39,257	14,417	1430,453	788,433
-38,242	14,455	1429,186	787,882
-37,227	14,487	1427,824	787,254
-36,213	14,464	1426,795	786,543
-35,198	14,474	1425,377	785,777
-34,184	14,520	1424,500	785,483
-33,169	14,448	1423,085	784,331
-32,154	14,479	1422,256	783,988
-31,140	14,474	1420,833	783,152
-30,125	14,494	1419,576	782,519
-29,111	14,479	1418,625	781,892
-28,096	14,461	1417,495	781,157
-27,082	14,397	1416,675	780,371
-26,067	14,409	1415,404	779,695
-25,052	14,372	1414,364	778,919
-24,038	14,405	1413,397	778,512
-23,023	14,390	1412,244	777,774
-22,009	14,371	1411,629	777,315
-20,994	14,344	1410,528	776,551
-19,979	14,316	1409,679	775,924
-18,965	14,335	1408,636	775,406
-17,950	14,324	1407,635	774,775
-16,936	14,339	1406,770	774,337
-15,921	14,277	1405,524	773,332
-14,906	14,273	1404,886	772,928
-13,892	14,307	1403,665	772,384
-12,877	14,265	1403,036	771,813
-11,863	14,272	1402,148	771,326
-10,848	14,223	1401,150	770,521
-9,833	14,259	1400,138	770,098
-8,819	14,205	1399,465	769,447
-7,804	14,226	1398,358	768,906
-6,790	14,202	1397,223	768,139
-5,775	14,203	1396,207	767,555
-4,760	14,219	1395,412	767,163
-3,746	14,225	1394,562	766,690
-2,731	14,201	1393,676	766,062
-1,717	14,188	1392,770	765,473
-0,702	14,195	1391,103	764,562
0,313	17,934	1309,437	737,028
1,327	34,252	705,603	434,967
2,342	52,833	124,064	83,888
3,356	0,234	16,679	8,399
4,371	27,136	3,078	1,825
5,386	-7,510	0,575	0,274
6,400	-200,000	0,035	0,179
7,415	-115,184	-0,156	-0,021
8,429	-9,423	-0,366	-0,172
9,444	79,993	-0,250	-0,190
10,459	80,823	-0,267	-0,204
11,473	221,013	-0,225	-0,256
12,488	35,648	-0,371	-0,230
13,502	66,086	-0,241	-0,173
14,517	1,589	-0,286	-0,145
15,531	100,807	-0,304	-0,250
16,546	119,743	-0,311	-0,273
17,561	299,629	-0,274	-0,358
18,575	-144,283	-0,180	-0,012
19,590	124,815	-0,263	-0,234
20,604	14,707	-0,321	-0,177
21,619	159,744	-0,357	-0,352
22,634	136,061	-0,413	-0,381
23,648	55,548	-0,231	-0,158
24,663	20,487	-0,485	-0,277
25,677	93,690	-0,389	-0,311
26,692	243,339	-0,348	-0,412
27,707	91,585	-0,419	-0,333
28,721	-32,339	-0,424	-0,167
29,736	-15,202	-0,471	-0,212
30,750	172,850	-0,378	-0,385
31,765	-19,507	-0,385	-0,168
32,780	101,769	-0,328	-0,270
33,794	-25,608	-0,350	-0,145
34,809	79,186	-0,304	-0,230
35,823	28,814	-0,394	-0,235
36,838	39,573	-0,454	-0,287
37,853	13,524	-0,564	-0,308
38,867	-5,117	-0,455	-0,220
39,882	287,606	-0,254	-0,325
40,896	21,724	-0,292	-0,167
41,911	116,362	-0,313	-0,271
42,926	169,949	-0,397	-0,401
43,940	-34,412	-0,332	-0,128
44,955	66,811	-0,481	-0,345
45,969	68,408	-0,334	-0,241
46,984	0,711	-0,326	-0,164
47,999	-29,349	-0,480	-0,193
49,013	-31,957	-0,294	-0,115
50,028	-50,108	-0,227	-0,075
51,042	47,019	-0,425	-0,278
52,057	36,509	-0,402	-0,249
53,071	-28,262	-0,401	-0,163
54,086	-2,404	-0,322	-0,159
55,101	129,613	-0,279	-0,251
56,115	105,831	-0,333	-0,278
57,130	-38,811	-0,394	-0,146
58,144	-8,154	-0,450	-0,213
59,159	-4,078	-0,284	-0,138
60,174	151,460	-0,362	-0,347
61,188	-14,008	-0,431	-0,195
62,203	201,015	-0,259	-0,281
63,217	17,454	-0,309	-0,172
64,232	77,688	-0,327	-0,245
65,247	405,733	-0,258	-0,384
66,261	58,616	-0,302	-0,208
67,276	8,554	-0,368	-0,195
68,290	-10,756	-0,423	-0,196
69,305	96,355	-0,361	-0,291
70,320	60,854	-0,263	-0,184
71,334	47,380	-0,306	-0,201
72,349	-5,043	-0,281	-0,136
73,363	143,963	-0,309	-0,290
74,378	83,764	-0,275	-0,211
75,393	253,275	-0,217	-0,261
76,407	416,057	-0,228	-0,343
77,422	-4,456	-0,249	-0,120
78,436	-113,657	-0,268	-0,036
79,451	17,100	-0,340	-0,189
80,466	134,097	-0,256	-0,233
81,480	3,259	-0,255	-0,130
82,495	5,452	-0,297	-0,154
83,509	198,501	-0,281	-0,303
84,524	81,660	-0,167	-0,127
85,539	-6,944	-0,323	-0,154
86,553	-34,366	-0,346	-0,133
87,568	-33,160	-0,456	-0,177
88,582	69,479	-0,382	-0,276
89,597	-39,381	-0,306	-0,112
90,611	-108,524	-0,362	0,054
91,626	77,082	-0,320	-0,238
92,641	44,994	-0,353	-0,228
93,655	15,110	-0,351	-0,193
94,670	108,921	-0,225	-0,189
95,684	42,900	-0,310	-0,198
96,699	30,765	-0,267	-0,160
97,714	157,726	-0,343	-0,334
98,728	210,079	-0,237	-0,262
99,743	-73,298	-0,367	-0,094
100,757	-43,010	-0,236	-0,084
101,772	-29,889	-0,332	-0,132
102,787	-16,969	-0,375	-0,166
103,801	126,600	-0,277	-0,246
104,816	64,505	-0,213	-0,151
105,830	26,762	-0,286	-0,168
106,845	153,831	-0,198	-0,190
107,860	126,691	-0,218	-0,193
108,874	129,290	-0,266	-0,239
109,889	81,189	-0,253	-0,192
110,903	-0,691	-0,327	-0,162
111,918	72,936	-0,227	-0,166
112,933	12,336	-0,262	-0,141
113,947	35,479	-0,267	-0,164
114,962	253,233	-0,210	-0,252
115,976	261,416	-0,147	-0,179
116,991	314,517	-0,281	-0,372
118,006	134,323	-0,254	-0,231
119,020	-9,937	-0,299	-0,139
120,035	800,000	-0,101	-0,199
121,049	164,244	-0,194	-0,192
122,064	247,095	-0,113	-0,134
123,079	83,890	-0,320	-0,245
124,093	234,023	-0,211	-0,243
125,108	46,334	-0,244	-0,158
126,122	103,393	-0,332	-0,273
127,137	-52,327	-0,282	-0,091
128,151	-111,957	-0,301	0,042
129,166	-36,204	-0,179	-0,067
130,181	10,212	-0,284	-0,151
131,195	-31,239	-0,317	-0,125
132,210	23,670	-0,288	-0,166
133,224	19,739	-0,283	-0,159
134,239	292,655	-0,140	-0,179
135,254	-120,508	-0,229	0,027
136,268	-59,701	-0,274	-0,082
137,283	2,098	-0,263	-0,132
138,297	73,271	-0,230	-0,168
139,312	-44,435	-0,311	-0,108
140,327	170,075	-0,221	-0,222
141,341	157,706	-0,213	-0,207
142,356	78,744	-0,220	-0,165
143,370	13,698	-0,229	-0,124
144,385	444,104	-0,106	-0,164
145,400	86,672	-0,321	-0,248
146,414	155,760	-0,209	-0,201
147,429	64,714	-0,319	-0,225
148,443	164,185	-0,260	-0,257
149,458	269,772	-0,162	-0,199
150,473	135,991	-0,159	-0,145
151,487	171,716	-0,146	-0,146
152,502	78,864	-0,261	-0,195
153,516	229,364	-0,276	-0,315
154,531	107,071	-0,268	-0,222
155,546	-3,761	-0,345	-0,167
156,560	-69,716	-0,153	-0,041
157,575	-200,000	-0,045	-0,284
158,589	-74,074	-0,322	-0,081
159,604	44,556	-0,326	-0,209
160,619	33,766	-0,337	-0,205
161,633	-106,121	-0,167	-0,026
162,648	-40,353	-0,315	-0,114
163,662	-133,911	-0,299	-0,026
164,677	-44,511	-0,230	-0,080
165,692	154,084	-0,259	-0,248
166,706	23,318	-0,309	-0,177
167,721	176,590	-0,158	-0,160
168,735	-200,000	-0,226	-0,000
169,750	142,779	-0,225	-0,208
170,764	-101,229	-0,207	-0,035
171,779	72,382	-0,131	-0,095
172,794	174,729	-0,110	-0,111
173,808	217,104	-0,183	-0,204
174,823	293,511	-0,163	-0,208
175,837	64,278	-0,239	-0,168
176,852	17,675	-0,329	-0,182
177,867	108,602	-0,166	-0,138
178,881	-117,612	-0,362	-0,045
179,896	134,139	-0,193	-0,175
180,910	32,900	-0,378	-0,227
181,925	76,552	-0,231	-0,170
182,940	-21,699	-0,284	-0,120
183,954	579,157	-0,133	-0,229
184,969	371,606	-0,163	-0,231
185,983	355,549	-0,153	-0,213
186,998	-95,832	-0,214	-0,039
188,013	-127,828	-0,257	-0,025
189,027	-31,162	-0,208	-0,081
190,042	267,850	-0,191	-0,233
191,056	11,966	-0,264	-0,141
192,071	-9,030	-0,256	-0,119
193,086	129,137	-0,158	-0,141
194,100	237,293	-0,141	-0,163
195,115	1,464	-0,143	-0,071
196,129	127,855	-0,185	-0,164
197,144	55,151	-0,288	-0,193
198,159	278,453	-0,176	-0,218
199,173	89,493	-0,356	-0,276
200,188	-11,605	-0,209	-0,095
201,202	-68,611	-0,220	-0,059
202,217	21,853	-0,170	-0,096
203,232	16,310	-0,233	-0,128
204,246	584,387	-0,107	-0,183
205,261	180,681	-0,290	-0,296
206,275	-151,648	-0,323	-0,016
207,290	66,471	-0,135	-0,095
208,304	97,505	-0,244	-0,195
209,319	51,467	-0,142	-0,093
210,334	11,444	-0,183	-0,097
211,348	-200,000	-0,076	-0,271
212,363	119,622	-0,211	-0,182
213,377	65,493	-0,252	-0,177
214,392	-200,000	-0,012	-0,168
215,407	-43,457	-0,186	-0,065
216,421	-70,000	-0,125	-0,033
217,436	-41,847	-0,282	-0,100
218,450	118,176	-0,200	-0,171
219,465	284,102	-0,233	-0,292
220,480	15,313	-0,265	-0,144
221,494	76,440	-0,286	-0,210
222,509	-172,540	-0,147	0,003
223,523	50,802	-0,240	-0,157
224,538	364,260	-0,146	-0,204
225,553	116,304	-0,326	-0,277
226,567	-38,609	-0,284	-0,104
227,582	95,292	-0,197	-0,156
228,596	352,241	-0,122	-0,169
229,611	-131,102	-0,188	-0,017
230,626	276,297	-0,178	-0,220
231,640	269,857	-0,151	-0,184
232,655	698,351	-0,139	-0,255
233,669	452,700	-0,138	-0,212
234,684	145,876	-0,147	-0,137
235,699	251,478	-0,135	-0,160
236,713	126,954	-0,134	-0,118
237,728	163,773	-0,131	-0,128
238,742	169,945	-0,177	-0,176
239,757	86,046	-0,232	-0,177
240,772	-36,320	-0,185	-0,069
241,786	140,842	-0,241	-0,221
242,801	90,412	-0,326	-0,253
243,815	-30,182	-0,219	-0,086
244,830	306,676	-0,102	-0,132
245,844	157,133	-0,250	-0,240
246,859	187,481	-0,150	-0,155
247,874	-65,504	-0,240	-0,066
248,888	-1,280	-0,137	-0,067
249,903	120,454	-0,240	-0,207
250,917	-153,756	-0,274	-0,013
251,932	-117,825	-0,148	-0,018
252,947	-142,861	-0,255	-0,017
253,961	369,964	-0,212	-0,299
254,976	440,827	-0,110	-0,167
255,990	14,917	-0,274	-0,148
257,005	-83,503	-0,140	-0,031
258,020	-167,216	-0,153	0,004
259,034	234,444	-0,089	-0,102
260,049	-23,136	-0,141	-0,059
261,063	402,285	-0,123	-0,180
262,078	205,347	-0,164	-0,177
263,093	73,012	-0,185	-0,134
264,107	-97,488	-0,170	0,030
265,122	330,370	-0,051	-0,068
266,136	55,952	-0,157	-0,105
267,151	99,580	-0,048	0,038
268,166	287,569	-0,148	-0,185
269,180	181,945	-0,084	-0,086
270,195	441,177	-0,210	-0,319
271,209	-190,015	-0,169	-0,001
272,224	120,447	-0,164	-0,141
273,239	173,237	-0,087	-0,087
274,253	-160,325	-0,222	-0,008
275,268	800,000	-0,058	-0,156
276,282	-7,681	-0,130	-0,060
277,297	3,017	-0,231	-0,115
278,312	90,574	-0,129	-0,100
279,326	336,517	-0,084	-0,113
280,341	27,156	-0,022	-0,013
281,355	139,975	-0,066	-0,060
282,370	546,573	-0,169	-0,281
283,384	-31,807	-0,141	-0,054
284,399	-87,894	-0,300	-0,062
285,414	202,142	-0,241	-0,257
286,428	-19,255	-0,329	-0,140
287,443	21,407	-0,129	-0,072
288,457	-112,715	-0,215	-0,029
289,472	800,000	-0,083	-0,161
290,487	136,341	-0,171	-0,154
291,501	-200,000	-0,047	-0,151
292,516	248,789	-0,071	-0,083
293,530	133,122	-0,148	-0,132
294,545	727,961	-0,048	-0,089
295,560	800,000	-0,036	-0,072
296,574	-83,694	-0,222	-0,049
297,589	85,548	-0,155	-0,117
298,603	42,578	-0,281	-0,176
299,618	-47,024	-0,282	-0,094
300,633	93,734	-0,242	-0,189
301,647	800,000	-0,075	-0,183
302,662	300,553	-0,136	-0,174
303,676	800,000	-0,038	-0,074
304,691	119,143	-0,093	-0,079
305,706	292,194	-0,184	-0,232
306,720	-112,406	-0,168	-0,023
307,735	-146,613	-0,200	0,012
308,749	-48,987	-0,057	-0,019
309,764	167,842	-0,176	-0,172
310,779	-82,427	-0,125	-0,028
311,793	30,137	-0,169	-0,099
312,808	58,296	-0,119	-0,080
313,822	345,529	-0,173	-0,235
314,837	66,055	-0,129	-0,090
315,852	44,576	-0,130	0,082
316,866	-200,000	-0,050	-0,177
317,881	223,954	-0,085	-0,094
318,895	-143,046	-0,150	-0,010
319,910	279,002	-0,108	-0,133
320,925	13,426	-0,172	-0,092
321,939	-19,817	-0,094	-0,040
322,954	156,840	-0,070	0,066
323,968	-22,604	-0,195	0,081
324,983	800,000	-0,069	-0,178
325,997	-37,353	-0,195	-0,071
327,012	169,632	-0,132	-0,130
328,027	-39,716	-0,165	-0,059
329,041	-200,000	-0,072	-0,253
330,056	140,682	-0,057	-0,051
331,070	321,589	-0,035	-0,046
332,085	695,189	-0,034	-0,061
333,100	7,239	-0,314	-0,161
334,114	-200,000	0,026	-0,209
335,129	165,501	-0,113	-0,110
336,143	-28,458	-0,132	-0,052
337,158	800,000	-0,090	-0,201
338,173	800,000	-0,048	-0,136
339,187	166,841	-0,149	-0,146
340,202	188,206	-0,118	-0,121
341,216	152,469	-0,153	-0,144
342,231	57,368	-0,162	-0,108
343,246	642,369	-0,063	-0,111
344,260	1,343	-0,249	-0,122
345,275	-200,000	-0,005	-0,179
346,289	-64,544	-0,127	0,035
347,304	211,110	-0,149	-0,161
348,319	60,947	-0,205	-0,140
349,333	100,440	-0,205	-0,163
350,348	162,278	-0,111	-0,107
351,362	39,091	-0,289	-0,177
352,377	-92,704	-0,094	-0,018
353,392	-109,439	-0,133	-0,019
354,406	-18,371	-0,094	0,040
355,421	208,627	1313,011	1412,209
356,435	160,532	1473,545	1412,709
