DTS Sentinel unit serial number:	SN410029Multiplexer serial number:	ORYXHardware model number:	OX2-SRSoftware version number:	ORYX F/W v4,00 Oryx Data Collector v3.7.2.0data status	okinstallation	B3 Nyhavnadifferential loss correction	single-endedforward channel	channel 1reverse channel	N/Adate	2023/12/02time	11:02:30forward acquisition time	300,00reverse acquisition time	0,00gamma	499,1914k internal	0,3197k external	0,3197temperature offset calibration	1,0000default loss term (dB/km)	0,3820temperature slope calibration	1,0000multiplexer offset coefficient	1,0000multiplexer slope coefficient	1,0000fibre end	0,00T internal ref (°C)	14,25T ext. ref 1 (°C)	-1,32T ext. ref 2 (°C)	-1,37length (m)	temperature (°C)	Stokes	anti-Stokes-744,400	674,960	-0,118	-0,225
-743,385	-200,000	-0,065	0,424
-742,371	159,051	-0,183	-0,185
-741,356	-200,000	0,063	0,323
-740,342	207,913	-0,144	-0,164
-739,327	-200,000	0,003	0,197
-738,312	166,996	-0,240	-0,249
-737,298	-200,000	0,022	0,231
-736,283	374,379	-0,220	-0,327
-735,269	-200,000	0,036	0,254
-734,254	129,797	-0,232	-0,216
-733,239	-37,648	-0,120	-0,046
-732,225	345,672	-0,106	-0,152
-731,210	70,574	0,142	0,107
-730,196	43,249	-0,121	0,080
-729,181	-142,995	-0,117	-0,008
-728,167	24,839	0,089	0,054
-727,152	470,655	-0,071	-0,117
-726,137	14,833	-0,103	0,059
-725,123	199,040	-0,063	-0,070
-724,108	74,422	-0,099	-0,075
-723,094	149,930	-0,036	-0,035
-722,079	77,495	-0,035	-0,027
-721,064	617,383	0,043	-0,079
-720,050	-101,452	0,066	-0,012
-719,035	18,912	-0,092	0,054
-718,021	-19,759	-0,028	-0,013
-717,006	-94,815	-0,096	-0,019
-715,991	-86,020	-0,139	0,031
-714,977	-30,360	0,062	-0,025
-713,962	383,767	-0,052	-0,078
-712,948	487,991	0,053	0,088
-711,933	-85,408	0,110	0,025
-710,918	-36,670	0,109	0,043
-709,904	-200,000	0,008	-0,090
-708,889	269,710	-0,123	-0,157
-707,875	-200,000	-0,003	-0,196
-706,860	677,162	0,043	-0,082
-705,845	-84,291	-0,112	0,026
-704,831	0,114	-0,114	0,059
-703,816	-200,000	-0,031	-0,114
-702,802	254,449	-0,072	-0,090
-701,787	341,834	-0,105	-0,150
-700,772	-152,991	-0,078	-0,004
-699,758	-82,707	-0,081	0,019
-698,743	-65,312	0,037	-0,011
-697,729	-15,877	0,013	-0,006
-696,714	-200,000	0,002	0,107
-695,699	-97,760	-0,079	-0,015
-694,685	-92,191	0,146	-0,030
-693,670	677,730	-0,072	-0,136
-692,656	-42,501	0,036	-0,013
-691,641	597,146	0,016	0,029
-690,627	58,138	0,117	0,083
-689,612	-140,212	0,063	-0,005
-688,597	800,000	-0,016	0,037
-687,583	-33,958	-0,089	-0,035
-686,568	745,876	-0,018	-0,035
-685,554	327,398	0,043	-0,060
-684,539	-97,979	-0,113	0,021
-683,524	-92,398	-0,082	0,017
-682,510	477,536	-0,045	-0,075
-681,495	235,855	-0,076	0,091
-680,481	800,000	-0,007	0,019
-679,466	800,000	-0,069	-0,145
-678,451	6,974	-0,052	0,028
-677,437	126,423	0,053	-0,048
-676,422	-47,823	-0,055	-0,019
-675,408	223,624	-0,049	-0,057
-674,393	-200,000	0,001	-0,034
-673,378	-21,789	-0,059	0,026
-672,364	-14,242	-0,094	-0,044
-671,349	800,000	-0,015	-0,037
-670,335	-200,000	-0,013	0,070
-669,320	564,715	0,053	-0,094
-668,305	72,713	-0,061	-0,046
-667,291	-68,733	-0,050	-0,014
-666,276	483,605	0,033	-0,055
-665,262	20,217	-0,018	0,011
-664,247	-200,000	0,020	0,080
-663,232	-32,155	0,042	0,017
-662,218	800,000	-0,008	-0,025
-661,203	800,000	-0,037	0,078
-660,189	-200,000	-0,004	-0,091
-659,174	36,990	-0,069	-0,044
-658,159	-87,650	-0,181	-0,039
-657,145	220,265	0,063	-0,074
-656,130	-200,000	-0,005	-0,037
-655,116	800,000	0,025	-0,068
-654,101	126,785	0,024	0,022
-653,086	118,392	-0,176	0,157
-652,072	234,447	0,021	-0,025
-651,057	-200,000	-0,019	-0,064
-650,043	455,612	-0,024	-0,039
-649,028	-115,738	-0,025	-0,003
-648,014	-178,338	0,096	0,002
-646,999	-75,087	-0,078	-0,020
-645,984	-25,731	0,135	-0,058
-644,970	65,120	-0,110	-0,081
-643,955	26,774	-0,138	-0,084
-642,941	116,790	0,063	-0,056
-641,926	-104,936	0,091	-0,015
-640,911	29,982	-0,156	-0,096
-639,897	-24,750	0,021	0,009
-638,882	46,668	0,056	0,038
-637,868	112,508	-0,031	0,028
-636,853	-200,000	0,002	-0,090
-635,838	-120,033	-0,073	-0,009
-634,824	-200,000	-0,019	-0,176
-633,809	800,000	0,020	-0,055
-632,795	-87,678	-0,055	-0,012
-631,780	272,946	0,043	0,055
-630,765	-200,000	-0,008	-0,063
-629,751	13,170	-0,173	0,097
-628,736	-96,260	-0,134	-0,026
-627,722	800,000	-0,059	-0,145
-626,707	55,408	0,040	-0,028
-625,692	-46,882	0,058	0,020
-624,678	420,099	0,075	0,117
-623,663	537,645	-0,056	-0,098
-622,649	800,000	0,033	-0,073
-621,634	-43,289	0,081	-0,029
-620,619	-61,588	-0,042	-0,013
-619,605	-200,000	-0,003	-0,029
-618,590	-193,037	0,204	0,001
-617,576	170,541	0,085	0,088
-616,561	-200,000	-0,027	0,107
-615,546	800,000	-0,033	0,082
-614,532	-200,000	0,004	-0,058
-613,517	-80,834	0,171	0,041
-612,503	-33,151	-0,074	-0,029
-611,488	-6,052	0,165	-0,081
-610,474	-200,000	0,031	0,104
-609,459	41,367	0,031	0,020
-608,444	-63,063	0,111	-0,033
-607,430	-60,994	0,050	-0,015
-606,415	175,642	-0,052	-0,054
-605,401	-113,751	0,074	-0,010
-604,386	39,149	-0,091	-0,059
-603,371	1,775	-0,101	0,053
-602,357	-42,882	-0,077	0,028
-601,342	-140,792	0,053	-0,004
-600,328	800,000	-0,060	-0,155
-599,313	-52,715	-0,034	0,011
-598,298	73,787	-0,023	-0,017
-597,284	76,706	0,032	0,024
-596,269	-126,685	-0,064	-0,007
-595,255	-62,516	0,098	0,029
-594,240	-171,323	-0,109	0,003
-593,225	195,264	-0,071	0,078
-592,211	-134,357	-0,163	0,014
-591,196	-190,543	0,110	0,001
-590,182	-48,931	0,075	0,026
-589,167	-200,000	0,032	0,127
-588,152	454,722	0,042	0,068
-587,138	319,609	0,031	-0,043
-586,123	101,123	-0,163	-0,138
-585,109	-37,270	-0,012	0,005
-584,094	-102,348	-0,122	-0,021
-583,079	-200,000	0,036	-0,131
-582,065	164,797	0,041	0,042
-581,050	53,879	0,207	0,144
-580,036	79,562	0,009	0,007
-579,021	800,000	-0,047	-0,144
-578,006	-178,344	0,052	0,001
-576,992	-200,000	-0,002	-0,047
-575,977	37,501	0,097	-0,062
-574,963	171,889	0,044	0,045
-573,948	24,416	0,045	0,027
-572,934	-103,461	0,059	0,010
-571,919	-68,034	-0,113	-0,032
-570,904	-46,768	-0,095	-0,033
-569,890	287,505	-0,085	-0,112
-568,875	-156,669	0,030	-0,001
-567,861	-200,000	0,014	-0,061
-566,846	379,268	0,022	-0,033
-565,831	130,709	0,096	0,089
-564,817	270,754	-0,036	0,046
-563,802	-34,001	-0,102	0,040
-562,788	702,566	-0,066	-0,126
-561,773	167,512	0,098	-0,101
-560,758	36,983	0,045	0,029
-559,744	800,000	-0,028	0,085
-558,729	63,308	-0,018	-0,013
-557,715	-55,039	-0,092	0,030
-556,700	-200,000	0,029	-0,143
-555,685	-200,000	0,009	-0,091
-554,671	-35,725	-0,160	-0,062
-553,656	-200,000	-0,014	-0,111
-552,642	-200,000	-0,010	0,077
-551,627	29,233	0,092	0,056
-550,612	-200,000	0,002	-0,039
-549,598	800,000	-0,036	0,108
-548,583	106,423	-0,055	0,047
-547,569	210,764	-0,078	-0,089
-546,554	-200,000	0,086	0,000
-545,539	591,961	0,018	-0,032
-544,525	-33,412	0,111	0,044
-543,510	-200,000	-0,009	0,058
-542,496	-200,000	-0,019	-0,174
-541,481	166,127	0,012	-0,012
-540,466	800,000	-0,038	0,112
-539,452	544,376	-0,018	-0,031
-538,437	116,092	-0,100	-0,089
-537,423	-2,745	0,148	0,074
-536,408	0,047	0,071	0,036
-535,393	86,095	-0,109	-0,087
-534,379	-32,738	0,123	0,049
-533,364	-200,000	-0,023	-0,092
-532,350	130,029	-0,135	0,125
-531,335	-200,000	0,006	0,109
-530,321	33,107	-0,058	-0,037
-529,306	-200,000	0,014	-0,179
-528,291	-200,000	0,007	0,056
-527,277	800,000	0,051	-0,124
-526,262	800,000	0,039	-0,084
-525,248	108,128	0,088	0,076
-524,233	12,764	0,035	-0,019
-523,218	13,172	0,127	-0,071
-522,204	800,000	-0,059	0,126
-521,189	348,367	0,027	0,038
-520,175	800,000	-0,086	-0,194
-519,160	81,020	0,083	0,064
-518,145	-200,000	0,011	0,062
-517,131	800,000	-0,071	0,174
-516,116	114,599	0,165	0,145
-515,102	-6,301	-0,068	0,033
-514,087	52,333	-0,153	-0,105
-513,072	-200,000	0,011	0,050
-512,058	-200,000	0,013	-0,146
-511,043	275,222	-0,031	-0,039
-510,029	68,871	-0,075	0,056
-509,014	-200,000	-0,014	-0,054
-507,999	-200,000	-0,001	0,065
-506,985	264,061	-0,015	0,019
-505,970	-200,000	0,005	-0,151
-504,956	-200,000	-0,007	-0,103
-503,941	-200,000	-0,022	0,103
-502,926	-1,796	0,120	0,061
-501,912	67,941	0,065	-0,048
-500,897	459,027	-0,070	0,113
-499,883	-26,265	-0,027	0,011
-498,868	269,701	0,083	0,105
-497,853	-200,000	0,009	0,046
-496,839	800,000	0,034	-0,090
-495,824	55,003	0,100	0,070
-494,810	5,228	-0,097	-0,052
-493,795	-1,703	0,080	0,040
-492,781	800,000	0,022	0,045
-491,766	73,199	-0,055	0,041
-490,751	-200,000	-0,006	-0,058
-489,737	-200,000	0,003	-0,112
-488,722	423,154	0,028	-0,043
-487,708	800,000	-0,026	0,070
-486,693	174,219	0,039	0,040
-485,678	-51,502	-0,047	0,016
-484,664	800,000	0,019	-0,056
-483,649	-30,361	-0,088	-0,036
-482,635	0,744	0,122	0,063
-481,620	-200,000	0,019	0,124
-480,605	97,574	0,088	0,072
-479,591	-68,460	-0,095	0,026
-478,576	-200,000	0,087	0,287
-477,562	-93,768	0,050	-0,010
-476,547	-200,000	-0,019	-0,162
-475,532	-22,401	-0,111	0,048
-474,518	800,000	-0,017	0,050
-473,503	1,572	0,118	0,061
-472,489	-130,797	0,114	0,011
-471,474	-92,967	0,174	-0,035
-470,459	634,403	0,064	-0,118
-469,445	-20,284	-0,082	-0,036
-468,430	6,966	-0,091	0,049
-467,416	39,579	0,118	0,076
-466,401	183,976	0,097	0,104
-465,386	92,364	0,099	0,080
-464,372	2,037	-0,017	-0,009
-463,357	-53,908	-0,100	-0,033
-462,343	145,439	0,069	-0,066
-461,328	200,007	0,057	0,063
-460,313	-95,850	0,054	0,010
-459,299	-200,000	0,000	0,132
-458,284	-128,935	-0,022	-0,002
-457,270	800,000	0,024	-0,064
-456,255	-200,000	-0,001	-0,111
-455,241	325,307	-0,105	-0,145
-454,226	-200,000	0,035	-0,131
-453,211	143,320	0,122	0,117
-452,197	6,345	0,096	0,051
-451,182	-171,917	0,079	0,002
-450,168	279,574	-0,162	-0,208
-449,153	81,286	-0,064	0,050
-448,138	800,000	0,031	0,067
-447,124	-82,503	-0,085	-0,020
-446,109	92,488	-0,082	0,066
-445,095	99,294	0,135	0,112
-444,080	800,000	0,014	0,039
-443,065	-43,034	0,038	-0,014
-442,051	-200,000	-0,005	-0,074
-441,036	144,577	0,091	-0,087
-440,022	-74,578	-0,041	-0,011
-439,007	-108,919	-0,023	0,004
-437,992	308,863	0,026	-0,035
-436,978	-115,637	-0,090	0,012
-435,963	-113,306	0,037	0,005
-434,949	401,180	0,065	0,098
-433,934	-200,000	0,024	0,080
-432,919	800,000	-0,035	-0,070
-431,905	800,000	0,030	-0,096
-430,890	-200,000	0,003	0,127
-429,876	-97,948	0,132	-0,024
-428,861	-137,511	-0,062	0,005
-427,846	142,931	0,096	0,092
-426,832	-121,443	-0,023	-0,003
-425,817	800,000	0,055	0,112
-424,803	800,000	-0,037	-0,111
-423,788	800,000	0,030	-0,082
-422,773	-57,463	0,079	-0,025
-421,759	-19,832	0,072	0,032
-420,744	10,029	0,054	0,030
-419,730	243,164	-0,072	0,086
-418,715	-200,000	0,005	0,037
-417,701	-103,611	-0,098	-0,016
-416,686	-200,000	-0,001	-0,125
-415,671	-200,000	0,001	0,029
-414,657	46,230	0,047	-0,031
-413,642	103,064	-0,095	-0,080
-412,628	-32,800	-0,128	-0,051
-411,613	281,640	-0,100	-0,128
-410,598	-126,047	-0,134	0,014
-409,584	-84,021	0,085	-0,019
-408,569	751,529	-0,010	-0,020
-407,555	100,950	0,176	0,147
-406,540	105,475	-0,064	-0,054
-405,525	800,000	0,025	-0,062
-404,511	-130,061	0,059	-0,006
-403,496	-200,000	-0,029	-0,190
-402,482	-65,664	0,114	-0,033
-401,467	-57,256	0,057	-0,018
-400,452	-148,906	0,060	0,003
-399,438	800,000	-0,058	0,117
-398,423	-13,426	-0,060	-0,028
-397,409	-36,362	-0,112	-0,043
-396,394	-47,898	-0,142	-0,049
-395,379	-118,188	0,094	0,012
-394,365	-52,854	0,084	0,028
-393,350	342,083	0,081	0,115
-392,336	183,950	0,007	0,008
-391,321	213,252	0,107	-0,122
-390,306	-77,570	-0,014	-0,003
-389,292	70,400	-0,072	0,053
-388,277	248,065	-0,034	0,041
-387,263	198,220	0,147	0,162
-386,248	-200,000	-0,013	0,111
-385,233	-131,032	-0,147	0,014
-384,219	800,000	0,096	-0,203
-383,204	800,000	0,056	-0,136
-382,190	-200,000	0,000	0,034
-381,175	-200,000	-0,002	0,054
-380,160	-140,172	0,011	0,001
-379,146	305,707	0,107	0,143
-378,131	222,853	-0,033	-0,038
-377,117	536,184	0,040	-0,069
-376,102	-200,000	0,007	-0,099
-375,088	25,137	-0,065	0,039
-374,073	-8,112	0,068	-0,033
-373,058	68,436	-0,055	0,040
-372,044	-174,322	0,095	0,002
-371,029	800,000	-0,035	-0,094
-370,015	147,284	-0,065	-0,063
-369,000	201,332	-0,039	0,043
-367,985	284,869	0,043	0,056
-366,971	-97,315	-0,069	-0,013
-365,956	-134,917	0,145	-0,012
-364,942	59,833	-0,178	0,126
-363,927	800,000	-0,005	-0,016
-362,912	-81,735	-0,105	0,025
-361,898	800,000	-0,057	-0,120
-360,883	-200,000	0,023	-0,083
-359,869	-200,000	-0,001	-0,135
-358,854	-200,000	0,011	-0,059
-357,839	721,467	-0,048	0,093
-356,825	-200,000	0,010	-0,076
-355,810	800,000	-0,024	-0,052
-354,796	-122,919	-0,116	-0,013
-353,781	4,335	0,090	0,047
-352,766	257,537	-0,029	-0,035
-351,752	208,168	-0,006	0,007
-350,737	-31,450	0,104	0,042
-349,723	800,000	0,005	0,012
-348,708	-53,166	0,112	0,037
-347,693	-185,423	-0,018	0,000
-346,679	-43,214	-0,189	0,068
-345,664	-200,000	-0,000	0,134
-344,650	-200,000	0,001	-0,073
-343,635	-200,000	-0,003	-0,011
-342,620	103,809	0,125	0,105
-341,606	417,857	0,034	0,052
-340,591	-166,285	-0,121	-0,004
-339,577	-61,532	-0,121	-0,036
-338,562	800,000	-0,037	-0,085
-337,548	97,649	-0,058	-0,047
-336,533	62,544	-0,050	0,036
-335,518	-200,000	0,005	0,027
-334,504	-49,773	-0,070	0,024
-333,489	-33,399	0,039	0,016
-332,475	6,565	0,101	0,054
-331,460	192,009	0,062	-0,067
-330,445	9,420	-0,142	-0,077
-329,431	-105,344	0,083	0,013
-328,416	94,047	0,084	-0,068
-327,402	11,564	0,019	-0,011
-326,387	10,443	0,047	-0,026
-325,372	378,501	-0,060	0,088
-324,358	-4,275	0,093	-0,046
-323,343	-200,000	0,001	-0,030
-322,329	-200,000	-0,004	0,037
-321,314	-134,686	-0,105	0,009
-320,299	-52,786	0,090	0,030
-319,285	-200,000	0,021	0,110
-318,270	-200,000	-0,026	0,086
-317,256	346,071	0,054	-0,076
-316,241	-133,578	-0,017	-0,002
-315,226	160,901	-0,089	-0,089
-314,212	34,294	0,075	0,047
-313,197	-200,000	0,001	0,090
-312,183	145,838	-0,053	-0,051
-311,168	9,642	-0,055	-0,030
-310,153	429,648	-0,056	-0,087
-309,139	-200,000	0,017	0,060
-308,124	-34,695	0,028	-0,011
-307,110	-73,372	0,073	0,019
-306,095	-200,000	-0,006	0,036
-305,080	-200,000	-0,016	0,131
-304,066	226,809	-0,073	-0,085
-303,051	-200,000	-0,149	-0,000
-302,037	-3,253	0,177	0,088
-301,022	-106,814	0,075	0,012
-300,008	-19,967	0,077	-0,034
-298,993	800,000	0,024	0,055
-297,978	-9,867	-0,053	-0,025
-296,964	-9,068	0,017	-0,008
-295,949	-200,000	0,014	0,099
-294,935	120,186	0,121	0,108
-293,920	-20,839	-0,065	0,029
-292,905	625,447	0,055	0,099
-291,891	800,000	0,029	0,072
-290,876	-200,000	0,002	0,029
-289,862	-200,000	-0,027	-0,155
-288,847	-200,000	-0,016	-0,097
-287,832	509,975	-0,051	-0,086
-286,818	-200,000	0,004	-0,112
-285,803	80,929	0,064	-0,049
-284,789	-200,000	0,006	0,064
-283,774	800,000	-0,013	-0,033
-282,759	-177,270	0,157	-0,003
-281,745	265,651	-0,017	-0,021
-280,730	-29,204	-0,055	-0,022
-279,716	-29,357	-0,069	-0,028
-278,701	541,352	-0,014	0,024
-277,686	-200,000	-0,013	-0,043
-276,672	-200,000	-0,024	0,113
-275,657	170,860	0,141	0,145
-274,643	224,706	-0,075	-0,087
-273,628	-111,806	-0,184	-0,026
-272,613	270,836	-0,074	-0,094
-271,599	-27,707	0,076	0,031
-270,584	-7,172	0,045	0,022
-269,570	800,000	0,032	0,071
-268,555	430,912	-0,067	-0,105
-267,540	-38,068	-0,102	-0,038
-266,526	-51,675	-0,048	-0,016
-265,511	432,837	0,033	-0,051
-264,497	75,879	-0,081	0,061
-263,482	-124,139	0,102	-0,011
-262,467	800,000	-0,017	0,044
-261,453	57,222	-0,015	-0,010
-260,438	334,294	-0,041	0,056
-259,424	-200,000	-0,006	-0,122
-258,409	800,000	0,051	0,128
-257,395	-144,693	0,079	-0,005
-256,380	-49,774	-0,118	0,040
-255,365	300,107	0,106	0,140
-254,351	-18,844	0,023	-0,010
-253,336	-81,243	0,065	0,015
-252,322	499,292	-0,059	0,097
-251,307	-162,270	0,027	0,001
-250,292	800,000	0,007	0,022
-249,278	361,110	-0,016	-0,023
-248,263	2,437	0,028	-0,014
-247,249	-200,000	-0,006	0,144
-246,234	269,948	-0,099	-0,124
-245,219	-200,000	-0,014	-0,058
-244,205	-109,222	0,074	-0,011
-243,190	180,804	0,040	0,042
-242,176	15,374	-0,006	-0,004
-241,161	-200,000	0,039	0,149
-240,146	110,028	0,044	-0,038
-239,132	281,623	-0,038	0,049
-238,117	-200,000	-0,014	-0,109
-237,103	-95,550	0,135	-0,026
-236,088	-200,000	0,000	0,008
-235,073	18,005	0,111	0,063
-234,059	-200,000	-0,006	0,125
-233,044	-200,000	0,025	0,125
-232,030	567,743	-0,026	0,046
-231,015	800,000	-0,061	-0,147
-230,000	-200,000	0,016	-0,056
-228,986	800,000	-0,013	0,033
-227,971	-56,465	0,116	0,037
-226,957	146,229	0,056	0,053
-225,942	727,557	0,065	0,124
-224,927	-200,000	-0,006	0,105
-223,913	114,704	0,060	-0,052
-222,898	-200,000	0,020	0,094
-221,884	-26,060	-0,100	0,042
-220,869	158,618	0,017	-0,017
-219,855	417,925	-0,020	0,031
-218,840	-200,000	0,002	0,081
-217,825	-37,641	-0,050	0,019
-216,811	62,513	-0,176	0,125
-215,796	800,000	0,015	-0,045
-214,782	-136,696	-0,061	0,005
-213,767	-8,972	-0,116	0,055
-212,752	303,581	0,002	0,002
-211,738	556,602	-0,045	-0,078
-210,723	-27,680	0,067	0,028
-209,709	-122,970	-0,204	0,023
-208,694	-68,848	-0,102	-0,028
-207,679	800,000	-0,023	0,067
-206,665	-93,318	0,100	-0,020
-205,650	-200,000	0,023	0,072
-204,636	800,000	-0,033	0,077
-203,621	800,000	-0,014	-0,033
-202,606	-113,596	0,077	0,011
-201,592	-200,000	0,003	-0,149
-200,577	-86,629	0,111	-0,024
-199,563	491,625	0,074	-0,121
-198,548	416,103	0,078	-0,119
-197,533	122,342	-0,077	-0,069
-196,519	45,052	-0,097	0,064
-195,504	-9,948	0,019	-0,009
-194,490	-200,000	-0,004	-0,073
-193,475	-34,654	-0,136	-0,053
-192,460	800,000	0,052	0,151
-191,446	159,102	0,059	0,059
-190,431	-15,764	-0,055	0,025
-189,417	-200,000	0,005	0,067
-188,402	-135,977	-0,069	-0,006
-187,387	341,690	-0,023	0,033
-186,373	216,483	-0,033	-0,037
-185,358	759,811	-0,067	0,130
-184,344	-200,000	-0,064	-0,210
-183,329	206,084	-0,046	0,052
-182,315	-200,000	0,005	0,143
-181,300	26,425	0,016	-0,010
-180,285	-117,545	-0,127	-0,016
-179,271	-42,244	0,102	-0,037
-178,256	-22,675	-0,103	0,044
-177,242	-161,643	0,131	-0,005
-176,227	27,944	0,025	-0,015
-175,212	390,985	-0,078	-0,116
-174,198	483,053	0,083	0,135
-173,183	-104,121	-0,142	-0,023
-172,169	-40,058	-0,038	0,014
-171,154	-200,000	-0,012	-0,157
-170,139	-200,000	-0,013	-0,057
-169,125	34,839	-0,131	0,081
-168,110	425,979	-0,078	0,120
-167,096	-105,874	0,080	-0,013
-166,081	800,000	-0,017	0,037
-165,066	-115,913	-0,119	-0,016
-164,052	216,757	-0,089	0,101
-163,037	515,872	-0,046	-0,077
-162,023	-200,000	0,019	0,094
-161,008	-23,101	-0,024	-0,010
-159,993	-200,000	0,004	-0,042
-158,979	205,719	-0,048	0,054
-157,964	178,754	-0,065	-0,067
-156,950	675,627	-0,023	0,042
-155,935	170,104	0,042	0,043
-154,920	60,136	0,123	-0,087
-153,906	130,125	-0,098	-0,089
-152,891	18,475	-0,109	-0,062
-151,877	-200,000	-0,014	-0,152
-150,862	800,000	0,038	0,108
-149,847	162,035	0,111	0,111
-148,833	-133,174	0,092	0,008
-147,818	86,245	0,053	0,042
-146,804	-200,000	0,002	0,022
-145,789	68,910	-0,024	0,017
-144,775	112,526	0,016	-0,014
-143,760	70,508	-0,060	-0,044
-142,745	190,998	0,029	0,031
-141,731	-200,000	0,031	0,130
-140,716	-200,000	-0,030	0,174
-139,702	-115,909	0,040	0,005
-138,687	-200,000	-0,006	-0,066
-137,672	-60,716	0,011	-0,003
-136,658	47,383	0,071	-0,047
-135,643	106,822	0,041	-0,035
-134,629	225,616	-0,106	0,123
-133,614	44,243	0,111	-0,072
-132,599	233,613	0,083	0,097
-131,585	-7,827	0,090	-0,043
-130,570	-158,496	0,080	0,003
-129,556	-92,184	-0,020	0,004
-128,541	45,726	-0,036	0,023
-127,526	185,645	0,011	-0,011
-126,512	-200,000	0,027	0,098
-125,497	-45,391	0,060	-0,021
-124,483	-200,000	0,042	0,166
-123,468	575,279	-0,044	-0,077
-122,453	-78,497	-0,077	-0,019
-121,439	-13,273	-0,165	0,076
-120,424	-84,309	0,092	0,020
-119,410	-12,512	-0,041	0,019
-118,395	-0,698	0,050	-0,025
-117,380	8,234	0,103	0,055
-116,366	172,066	0,128	0,130
-115,351	-200,000	-0,002	0,135
-114,337	-119,710	-0,141	0,017
-113,322	595,061	0,090	0,159
-112,307	-200,000	-0,002	0,010
-111,293	-64,763	0,134	-0,038
-110,278	-200,000	-0,001	0,083
-109,264	270,822	0,008	-0,010
-108,249	152,936	-0,083	0,081
-107,234	-200,000	-0,008	-0,040
-106,220	107,148	0,027	0,023
-105,205	49,027	-0,029	-0,019
-104,191	105,299	0,007	0,006
-103,176	-200,000	-0,037	0,119
-102,162	347,411	0,028	0,040
-101,147	-175,894	-0,093	0,002
-100,132	-200,000	-0,024	-0,088
-99,118	506,428	-0,091	-0,150
-98,103	166,339	0,028	-0,028
-97,089	42,937	0,172	0,111
-96,074	-200,000	0,006	-0,074
-95,059	156,165	0,115	-0,112
-94,045	234,451	0,006	0,008
-93,030	-24,851	-0,282	-0,118
-92,016	-200,000	0,005	-0,096
-91,001	383,874	-0,114	-0,167
-89,986	155,041	-0,052	-0,051
-88,972	-104,705	-0,085	0,014
-87,957	-200,000	0,024	0,139
-86,943	-200,000	0,027	-0,147
-85,928	800,000	0,032	-0,085
-84,913	-189,790	0,122	0,001
-83,899	325,493	0,031	-0,042
-82,884	-200,000	-0,004	-0,073
-81,870	188,691	0,097	0,103
-80,855	544,849	0,069	-0,117
-79,840	81,542	0,027	-0,020
-78,826	59,025	0,048	0,034
-77,811	-14,735	-0,083	0,038
-76,797	-182,967	0,097	-0,001
-75,782	-200,000	-0,001	-0,007
-74,767	57,337	-0,078	0,054
-73,753	-135,470	0,057	-0,005
-72,738	188,403	0,116	-0,124
-71,724	-200,000	0,032	0,151
-70,709	-98,203	0,039	0,007
-69,694	384,472	0,082	-0,120
-68,680	114,615	-0,036	0,031
-67,665	354,432	0,046	0,065
-66,651	-108,737	-0,209	-0,031
-65,636	217,726	0,080	-0,090
-64,622	-167,952	-0,052	-0,001
-63,607	356,506	0,038	-0,054
-62,592	800,000	0,041	-0,129
-61,578	171,989	-0,037	-0,037
-60,563	361,666	0,073	-0,104
-59,549	-200,000	0,016	0,062
-58,534	-20,392	-1,602	-0,696
-57,519	490,738	-1,298	-2,113
-56,505	-200,000	-0,495	-4,523
-55,490	188,786	0,812	0,862
-54,476	800,000	4,934	11,351
-53,461	-200,000	18,671	302,327
-52,446	800,000	736,065	2282,685
-51,432	564,977	1651,976	2849,189
-50,417	78,787	1668,816	1264,063
-49,403	22,184	1541,671	889,758
-48,388	16,090	1464,565	815,652
-47,373	17,827	1454,630	818,474
-46,359	16,967	1444,838	808,811
-45,344	14,414	1440,195	793,955
-44,330	14,343	1438,076	792,418
-43,315	14,330	1436,552	791,483
-42,300	14,335	1434,874	790,551
-41,286	14,368	1433,805	790,088
-40,271	14,331	1432,399	789,109
-39,257	14,335	1431,052	788,352
-38,242	14,401	1429,740	787,912
-37,227	14,382	1428,793	787,271
-36,213	14,408	1427,167	786,464
-35,198	14,325	1426,316	785,572
-34,184	14,373	1425,285	785,198
-33,169	14,319	1423,937	784,172
-32,154	14,384	1422,726	783,782
-31,140	14,378	1421,460	783,024
-30,125	14,395	1420,300	782,432
-29,111	14,385	1419,325	781,816
-28,096	14,334	1418,244	780,953
-27,082	14,326	1417,063	780,231
-26,067	14,279	1416,024	779,407
-25,052	14,271	1415,026	778,789
-24,038	14,249	1414,019	778,103
-23,023	14,268	1413,193	777,708
-22,009	14,246	1412,192	777,018
-20,994	14,243	1411,217	776,438
-19,979	14,222	1410,375	775,845
-18,965	14,222	1409,457	775,310
-17,950	14,199	1408,303	774,538
-16,936	14,225	1407,386	774,124
-15,921	14,190	1406,293	773,329
-14,906	14,207	1405,464	772,922
-13,892	14,178	1404,625	772,292
-12,877	14,160	1403,643	771,639
-11,863	14,176	1402,725	771,178
-10,848	14,157	1401,759	770,529
-9,833	14,149	1400,916	769,995
-8,819	14,116	1400,156	769,393
-7,804	14,085	1399,194	768,694
-6,790	14,082	1397,889	767,930
-5,775	14,086	1396,876	767,361
-4,760	14,110	1395,991	766,958
-3,746	14,129	1395,066	766,505
-2,731	14,095	1394,528	766,022
-1,717	14,093	1393,533	765,437
-0,702	14,051	1391,954	764,342
0,313	17,908	1309,865	737,139
1,327	34,397	705,444	435,192
2,342	52,283	124,080	83,680
3,356	2,376	16,463	8,409
4,371	16,173	3,164	1,762
5,386	-37,384	0,598	0,225
6,400	800,000	-0,096	0,263
7,415	-20,159	-0,335	-0,146
8,429	-54,418	-0,242	-0,077
9,444	80,573	-0,334	-0,255
10,459	22,172	-0,161	-0,093
11,473	-102,845	-0,280	-0,047
12,488	390,255	-0,190	-0,280
13,502	2,985	-0,441	-0,226
14,517	34,185	-0,291	-0,179
15,531	63,853	-0,321	-0,228
16,546	4,858	-0,443	-0,230
17,561	4,190	-0,431	-0,223
18,575	-111,210	-0,145	0,021
19,590	122,960	-0,274	-0,243
20,604	51,072	-0,202	-0,135
21,619	312,425	-0,385	-0,512
22,634	-5,863	-0,489	-0,236
23,648	-9,948	-0,535	-0,251
24,663	84,926	-0,378	-0,293
25,677	174,777	-0,296	-0,303
26,692	188,850	-0,239	-0,253
27,707	22,867	-0,423	-0,244
28,721	27,955	-0,523	-0,311
29,736	311,026	-0,267	-0,354
30,750	-27,106	-0,524	-0,215
31,765	249,679	-0,363	-0,435
32,780	250,292	-0,325	-0,391
33,794	17,974	-0,325	-0,182
34,809	28,140	-0,449	-0,267
35,823	0,609	-0,435	-0,219
36,838	48,779	-0,383	-0,253
37,853	358,550	-0,301	-0,426
38,867	189,460	-0,343	-0,363
39,882	159,887	-0,261	-0,257
40,896	106,731	-0,299	-0,251
41,911	4,239	-0,485	-0,250
42,926	201,155	-0,323	-0,352
43,940	58,061	-0,309	-0,213
44,955	98,262	-0,250	-0,203
45,969	78,264	-0,293	-0,221
46,984	79,296	-0,367	-0,277
47,999	51,989	-0,284	-0,190
49,013	-71,490	-0,293	-0,077
50,028	115,510	-0,235	-0,202
51,042	36,979	-0,418	-0,260
52,057	85,632	-0,355	-0,275
53,071	33,667	-0,290	-0,178
54,086	85,852	-0,274	-0,213
55,101	90,252	-0,319	-0,252
56,115	-32,843	-0,306	-0,119
57,130	30,422	-0,309	-0,186
58,144	34,939	-0,352	-0,217
59,159	-16,405	-0,341	-0,152
60,174	72,343	-0,442	-0,324
61,188	-8,557	-0,427	-0,202
62,203	6,297	-0,351	-0,183
63,217	93,559	-0,295	-0,235
64,232	68,591	-0,283	-0,204
65,247	191,397	-0,282	-0,300
66,261	368,645	-0,270	-0,386
67,276	203,261	-0,292	-0,319
68,290	163,707	-0,278	-0,276
69,305	85,415	-0,258	-0,199
70,320	63,980	-0,296	-0,209
71,334	63,181	-0,331	-0,233
72,349	-101,463	-0,398	-0,068
73,363	73,854	-0,355	-0,262
74,378	47,496	-0,356	-0,233
75,393	50,974	-0,356	-0,237
76,407	106,887	-0,313	-0,262
77,422	-16,805	-0,361	-0,160
78,436	84,895	-0,293	-0,226
79,451	1,506	-0,405	-0,204
80,466	91,726	-0,363	-0,287
81,480	463,862	-0,204	-0,322
82,495	-69,317	-0,375	-0,100
83,509	34,773	-0,362	-0,222
84,524	95,705	-0,319	-0,256
85,539	71,143	-0,240	-0,175
86,553	-103,319	-0,299	-0,049
87,568	2,652	-0,218	-0,111
88,582	116,929	-0,391	-0,338
89,597	7,743	-0,239	-0,126
90,611	-72,900	-0,397	-0,102
91,626	-13,476	-0,242	-0,110
92,641	-74,726	-0,244	-0,061
93,655	42,169	-0,315	-0,201
94,670	196,762	-0,226	-0,243
95,684	69,097	-0,359	-0,259
96,699	-22,873	-0,423	-0,179
97,714	565,747	-0,191	-0,326
98,728	-108,974	-0,199	-0,030
99,743	62,201	-0,365	-0,255
100,757	-86,224	-0,279	-0,060
101,772	82,306	-0,342	-0,260
102,787	374,585	-0,241	-0,345
103,801	106,846	-0,350	-0,291
104,816	-81,751	-0,277	-0,063
105,830	180,711	-0,174	-0,179
106,845	148,654	-0,277	-0,263
107,860	17,615	-0,156	-0,087
108,874	459,564	-0,131	-0,206
109,889	344,575	-0,266	-0,367
110,903	800,000	-0,140	-0,341
111,918	115,604	-0,292	-0,250
112,933	235,395	-0,217	-0,252
113,947	-57,653	-0,213	-0,065
114,962	-75,053	-0,251	-0,062
115,976	152,223	-0,226	-0,216
116,991	-109,282	-0,337	-0,050
118,006	-37,642	-0,253	-0,094
119,020	-55,112	-0,287	-0,090
120,035	32,201	-0,269	-0,163
121,049	39,042	-0,266	-0,166
122,064	141,981	-0,312	-0,290
123,079	209,121	-0,204	-0,224
124,093	310,888	-0,249	-0,328
125,108	171,514	-0,268	-0,270
126,122	192,784	-0,206	-0,218
127,137	-57,879	-0,322	-0,098
128,151	231,891	-0,141	-0,162
129,166	646,533	-0,133	-0,238
130,181	31,328	-0,242	-0,145
131,195	177,540	-0,205	-0,209
132,210	109,550	-0,273	-0,229
133,224	-24,866	-0,319	-0,132
134,239	-34,642	-0,243	-0,093
135,254	-27,379	-0,215	-0,087
136,268	110,151	-0,177	-0,149
137,283	-14,381	-0,272	-0,122
138,297	745,348	-0,146	-0,277
139,312	167,028	-0,198	-0,196
140,327	14,168	-0,383	-0,208
141,341	9,079	-0,260	-0,137
142,356	209,796	-0,129	-0,142
143,370	-85,056	-0,231	-0,050
144,385	77,387	-0,294	-0,218
145,400	-156,444	-0,284	0,012
146,414	-5,998	-0,252	-0,120
147,429	134,591	-0,276	-0,250
148,443	197,680	-0,192	-0,205
149,458	45,696	-0,166	-0,107
150,473	130,951	-0,283	-0,254
151,487	157,804	-0,262	-0,254
152,502	-18,231	-0,253	-0,110
153,516	72,689	-0,215	-0,157
154,531	1,279	-0,371	-0,186
155,546	-57,012	-0,295	-0,090
156,560	178,174	-0,174	-0,178
157,575	-5,671	-0,094	-0,045
158,589	125,867	-0,246	-0,217
159,604	122,372	-0,239	-0,208
160,619	22,795	-0,259	-0,148
161,633	153,419	-0,210	-0,201
162,648	89,524	-0,217	-0,169
163,662	-7,291	-0,311	-0,147
164,677	-12,593	-0,346	-0,157
165,692	-99,748	-0,259	-0,045
166,706	66,577	-0,291	-0,206
167,721	123,363	-0,228	-0,199
168,735	-11,579	-0,287	-0,131
169,750	30,826	-0,149	-0,089
170,764	7,549	-0,161	-0,084
171,779	-5,007	-0,244	-0,117
172,794	-12,760	-0,185	-0,084
173,808	66,045	-0,289	-0,204
174,823	139,201	-0,158	-0,145
175,837	84,557	-0,286	-0,218
176,852	139,244	-0,277	-0,254
177,867	46,711	-0,130	-0,084
178,881	-91,206	-0,151	-0,030
179,896	489,799	-0,156	-0,250
180,910	222,770	-0,195	-0,219
181,925	129,390	-0,197	-0,176
182,940	231,802	-0,122	-0,139
183,954	36,914	-0,277	-0,170
184,969	185,192	-0,236	-0,244
185,983	-76,624	-0,094	0,023
186,998	34,085	-0,190	-0,115
188,013	-23,554	-0,128	-0,053
189,027	305,004	-0,227	-0,294
190,042	197,259	-0,241	-0,257
191,056	220,033	-0,186	-0,208
192,071	185,755	-0,215	-0,222
193,086	441,092	-0,194	-0,296
194,100	-26,576	-0,181	-0,074
195,115	25,144	-0,132	-0,076
196,129	-80,255	-0,405	-0,094
197,144	144,467	-0,189	-0,176
198,159	70,784	-0,272	-0,196
199,173	654,151	-0,085	-0,153
200,188	88,872	-0,136	-0,106
201,202	272,056	-0,105	-0,129
202,217	-114,096	-0,225	-0,030
203,232	128,190	-0,087	-0,077
204,246	117,877	-0,220	-0,188
205,261	282,992	-0,209	-0,261
206,275	142,914	-0,168	-0,155
207,290	-57,232	-0,149	-0,045
208,304	-149,279	-0,093	-0,005
209,319	148,012	-0,138	-0,129
210,334	169,892	-0,117	-0,116
211,348	-27,724	-0,244	-0,098
212,363	-110,634	-0,246	-0,035
213,377	57,245	-0,273	-0,185
214,392	-128,323	-0,121	0,012
215,407	-60,143	-0,160	-0,047
216,421	-31,715	-0,196	-0,076
217,436	800,000	-0,085	-0,181
218,450	158,702	-0,249	-0,241
219,465	-52,201	-0,151	-0,048
220,480	-41,488	-0,247	-0,088
221,494	391,125	-0,193	-0,280
222,509	147,304	-0,127	-0,119
223,523	784,299	-0,055	-0,106
224,538	146,314	-0,124	-0,115
225,553	-73,308	-0,183	-0,046
226,567	162,275	-0,218	-0,213
227,582	111,735	-0,147	-0,123
228,596	95,136	-0,247	-0,195
229,611	-77,369	-0,151	-0,036
230,626	-27,589	-0,184	-0,074
231,640	536,084	-0,147	-0,243
232,655	8,294	-0,185	-0,096
233,669	77,016	-0,228	-0,168
234,684	800,000	-0,096	-0,272
235,699	482,161	-0,054	-0,086
236,713	114,655	-0,135	-0,114
237,728	-103,071	-0,218	-0,035
238,742	204,566	-0,183	-0,197
239,757	545,792	-0,213	-0,355
240,772	285,354	-0,243	-0,304
241,786	312,761	-0,216	-0,283
242,801	-200,000	-0,082	-0,254
243,815	-50,654	-0,164	0,053
244,830	-200,000	-0,048	-0,201
245,844	-173,353	-0,210	-0,004
246,859	-78,591	-0,170	-0,040
247,874	339,280	-0,149	-0,202
248,888	-9,330	-0,074	-0,034
249,903	12,304	-0,182	-0,097
250,917	337,775	-0,085	-0,114
251,932	-50,536	-0,234	-0,076
252,947	109,213	-0,135	-0,112
253,961	49,904	-0,316	-0,206
254,976	201,036	-0,130	-0,138
255,990	800,000	-0,110	-0,256
257,005	758,468	-0,092	-0,173
258,020	18,848	-0,169	-0,094
259,034	-51,981	-0,158	0,051
260,049	-96,414	-0,138	-0,025
261,063	-104,777	-0,239	-0,038
262,078	508,442	-0,098	-0,157
263,093	800,000	-0,108	-0,232
264,107	107,206	-0,121	-0,100
265,122	63,918	-0,134	-0,093
266,136	-77,175	-0,095	0,023
267,151	-179,078	-0,212	0,003
268,166	109,653	-0,134	-0,111
269,180	173,051	-0,137	-0,137
270,195	293,307	-0,236	-0,298
271,209	-3,547	-0,158	-0,076
272,224	70,286	-0,099	-0,071
273,239	268,588	-0,108	-0,131
274,253	-3,427	-0,101	-0,048
275,268	-37,169	-0,129	-0,048
276,282	495,619	-0,109	-0,174
277,297	97,820	-0,119	-0,095
278,312	32,607	-0,165	-0,098
279,326	-33,728	-0,259	-0,098
280,341	72,062	-0,153	-0,110
281,355	556,891	-0,050	-0,084
282,370	800,000	-0,108	-0,224
283,384	40,236	-0,296	-0,183
284,399	800,000	-0,124	-0,264
285,414	-8,906	-0,076	-0,035
286,428	97,141	-0,145	-0,115
287,443	-158,443	-0,144	-0,006
288,457	-45,462	-0,111	0,038
289,472	324,608	-0,067	-0,089
290,487	4,640	-0,248	-0,125
291,501	637,225	-0,181	-0,318
292,516	800,000	-0,112	-0,258
293,530	219,637	-0,072	-0,079
294,545	-140,559	-0,102	0,007
295,560	-124,953	-0,092	0,010
296,574	101,024	-0,123	-0,099
297,589	-79,185	-0,173	-0,040
298,603	446,336	-0,155	-0,236
299,618	83,478	-0,236	-0,177
300,633	-101,291	-0,192	-0,032
301,647	800,000	-0,059	-0,142
302,662	677,805	-0,029	0,052
303,676	238,590	-0,037	0,043
304,691	408,369	0,007	-0,011
305,706	-145,460	-0,240	0,015
306,720	101,572	-0,186	-0,149
307,735	679,590	-0,041	-0,074
308,749	54,521	-0,147	-0,098
309,764	-40,050	-0,256	-0,091
310,779	265,283	-0,035	0,042
311,793	665,054	-0,143	-0,255
312,808	104,412	-0,167	-0,135
313,822	120,357	-0,187	-0,160
314,837	24,787	-0,011	0,006
315,852	277,655	-0,156	-0,191
316,866	433,502	-0,122	-0,184
317,881	42,753	-0,098	0,061
318,895	-48,717	-0,156	-0,051
319,910	800,000	-0,061	-0,184
320,925	180,612	-0,177	-0,179
321,939	180,285	-0,123	-0,125
322,954	-5,965	-0,171	-0,080
323,968	-41,625	-0,165	-0,058
324,983	-84,597	-0,120	-0,026
325,997	-129,872	-0,097	0,009
327,012	323,062	-0,175	-0,230
328,027	297,417	-0,136	-0,172
329,041	-200,000	-0,023	-0,200
330,056	-200,000	-0,019	-0,091
331,070	-126,056	-0,040	-0,004
332,085	18,996	-0,093	-0,051
333,100	60,380	-0,158	-0,107
334,114	461,880	-0,098	-0,151
335,129	461,707	-0,161	-0,248
336,143	203,325	-0,158	-0,169
337,158	800,000	-0,057	-0,155
338,173	232,781	-0,077	-0,088
339,187	350,004	-0,071	-0,096
340,202	641,368	-0,039	-0,069
341,216	-138,333	-0,071	0,005
342,231	60,208	-0,135	-0,092
343,246	-185,892	-0,240	-0,002
344,260	396,970	-0,050	-0,072
345,275	39,931	-0,120	0,074
346,289	-26,292	-0,035	-0,014
347,304	133,282	-0,111	-0,099
348,319	-200,000	-0,020	-0,109
349,333	213,689	-0,115	-0,125
350,348	172,251	-0,154	-0,152
351,362	76,684	-0,079	-0,057
352,377	542,872	-0,032	0,052
353,392	508,520	-0,050	-0,080
354,406	-200,000	0,039	-0,241
355,421	210,063	1312,657	1416,151
356,435	161,706	1473,124	1416,666
