DTS Sentinel unit serial number:	SN410029Multiplexer serial number:	ORYXHardware model number:	OX2-SRSoftware version number:	ORYX F/W v4,00 Oryx Data Collector v3.7.2.0data status	okinstallation	B3 Nyhavnadifferential loss correction	single-endedforward channel	channel 1reverse channel	N/Adate	2023/12/04time	22:17:30forward acquisition time	300,00reverse acquisition time	0,00gamma	499,1914k internal	0,3200k external	0,3200temperature offset calibration	1,0000default loss term (dB/km)	0,3820temperature slope calibration	1,0000multiplexer offset coefficient	1,0000multiplexer slope coefficient	1,0000fibre end	0,00T internal ref (°C)	14,52T ext. ref 1 (°C)	-0,62T ext. ref 2 (°C)	-0,62length (m)	temperature (°C)	Stokes	anti-Stokes-744,400	346,180	-0,143	-0,206
-743,385	-200,000	0,023	0,399
-742,371	7,950	-0,140	-0,076
-741,356	800,000	0,117	0,330
-740,342	31,939	-0,242	-0,152
-739,327	-200,000	0,076	0,389
-738,312	59,191	-0,274	-0,196
-737,298	-200,000	-0,050	0,299
-736,283	83,233	-0,204	-0,161
-735,269	-200,000	-0,091	0,422
-734,254	-200,000	-0,029	-0,239
-733,239	97,107	-0,269	0,224
-732,225	-200,000	0,027	-0,133
-731,210	-200,000	0,027	0,131
-730,196	94,813	0,008	-0,007
-729,181	78,079	-0,106	-0,082
-728,167	434,903	0,064	-0,102
-727,152	256,110	-0,017	-0,021
-726,137	356,108	0,037	-0,054
-725,123	-53,095	-0,126	-0,042
-724,108	52,016	-0,058	0,040
-723,094	187,173	-0,059	0,064
-722,079	-18,939	0,034	0,015
-721,064	-200,000	-0,047	-0,160
-720,050	800,000	0,027	0,081
-719,035	-43,305	-0,107	0,039
-718,021	36,187	0,067	-0,043
-717,006	-57,628	-0,063	-0,020
-715,991	-110,135	-0,196	0,029
-714,977	-200,000	0,012	-0,053
-713,962	513,234	0,072	-0,123
-712,948	800,000	-0,023	0,047
-711,933	-166,871	-0,118	0,003
-710,918	-200,000	0,005	-0,058
-709,904	-200,000	-0,001	-0,086
-708,889	-137,706	0,054	0,004
-707,875	-95,459	-0,075	-0,014
-706,860	-200,000	0,028	0,141
-705,845	-200,000	0,010	-0,052
-704,831	20,916	0,165	0,097
-703,816	29,370	0,050	-0,031
-702,802	-89,519	-0,028	-0,006
-701,787	-200,000	-0,005	-0,225
-700,772	-15,147	0,117	-0,054
-699,758	-165,522	-0,087	-0,003
-698,743	184,910	0,024	-0,026
-697,729	53,817	0,023	0,016
-696,714	153,130	-0,118	0,117
-695,699	-131,973	0,068	0,006
-694,685	-200,000	-0,006	0,056
-693,670	103,645	-0,089	-0,076
-692,656	-95,607	-0,057	-0,011
-691,641	-40,863	0,131	-0,049
-690,627	35,284	-0,053	-0,033
-689,612	272,411	0,041	0,052
-688,597	12,346	-0,102	-0,057
-687,583	-119,884	-0,062	-0,008
-686,568	-200,000	-0,003	-0,010
-685,554	-200,000	0,002	0,037
-684,539	-200,000	0,044	0,191
-683,524	173,743	-0,054	0,057
-682,510	22,113	-0,143	0,085
-681,495	-147,100	-0,161	-0,010
-680,481	-200,000	-0,000	0,014
-679,466	800,000	-0,067	-0,169
-678,451	-48,442	-0,095	0,033
-677,437	45,291	-0,020	0,013
-676,422	-19,099	-0,135	0,061
-675,408	182,820	-0,067	0,071
-674,393	286,788	0,059	0,077
-673,378	-76,599	-0,124	0,031
-672,364	459,784	-0,068	0,110
-671,349	121,831	0,037	-0,033
-670,335	-200,000	-0,041	-0,142
-669,320	99,312	0,038	0,032
-668,305	800,000	-0,041	-0,116
-667,291	593,215	-0,036	0,064
-666,276	3,465	0,045	0,024
-665,262	211,228	-0,116	-0,133
-664,247	32,402	-0,044	-0,027
-663,232	-125,029	0,062	-0,007
-662,218	104,309	-0,043	0,037
-661,203	28,005	-0,060	-0,037
-660,189	771,948	-0,044	-0,088
-659,174	44,163	-0,080	-0,053
-658,159	72,943	0,079	-0,060
-657,145	555,290	0,058	-0,101
-656,130	374,700	0,011	0,016
-655,116	800,000	-0,026	0,078
-654,101	40,585	0,010	0,007
-653,086	-160,712	-0,174	0,007
-652,072	-7,721	-0,115	0,056
-651,057	-113,988	-0,155	-0,021
-650,043	32,617	0,085	-0,053
-649,028	-200,000	0,008	0,088
-648,014	-200,000	0,016	0,111
-646,999	103,319	0,114	0,097
-645,984	748,053	-0,037	-0,073
-644,970	77,543	-0,146	-0,113
-643,955	243,025	-0,042	0,051
-642,941	203,846	-0,047	0,052
-641,926	-200,000	-0,009	0,084
-640,911	-20,322	0,113	-0,050
-639,897	-200,000	-0,003	-0,064
-638,882	800,000	-0,016	0,041
-637,868	-183,871	0,028	-0,000
-636,853	-91,100	-0,108	-0,022
-635,838	382,562	-0,091	-0,136
-634,824	-200,000	-0,014	0,055
-633,809	800,000	-0,008	-0,020
-632,795	-200,000	0,044	0,182
-631,780	41,385	-0,031	-0,020
-630,765	24,215	-0,104	-0,062
-629,751	83,383	0,103	-0,081
-628,736	-50,982	-0,186	-0,063
-627,722	302,001	0,062	0,084
-626,707	-200,000	-0,002	0,034
-625,692	360,104	-0,017	0,024
-624,678	69,271	-0,058	-0,043
-623,663	83,667	-0,085	-0,067
-622,649	-172,085	-0,099	-0,002
-621,634	192,024	-0,037	-0,040
-620,619	413,222	-0,060	0,092
-619,605	105,372	-0,114	-0,098
-618,590	-119,713	-0,098	0,012
-617,576	569,773	-0,054	0,095
-616,561	424,878	-0,014	0,022
-615,546	220,283	-0,053	0,062
-614,532	-46,386	0,074	0,026
-613,517	-200,000	-0,003	0,030
-612,503	62,972	-0,082	0,059
-611,488	-165,446	-0,101	-0,003
-610,474	-125,146	0,036	0,004
-609,459	800,000	0,005	0,012
-608,444	126,222	0,024	0,022
-607,430	-39,492	-0,066	-0,025
-606,415	-6,553	-0,059	0,029
-605,401	41,835	0,062	0,040
-604,386	-200,000	0,018	-0,058
-603,371	-8,049	0,106	0,052
-602,357	-105,969	-0,145	-0,023
-601,342	420,980	0,060	-0,094
-600,328	-162,194	-0,155	-0,006
-599,313	800,000	-0,067	-0,196
-598,298	41,118	-0,061	0,040
-597,284	-127,099	0,071	-0,007
-596,269	200,177	-0,030	0,034
-595,255	-200,000	-0,006	-0,088
-594,240	231,560	-0,038	0,045
-593,225	-124,387	0,078	-0,009
-592,211	4,264	-0,066	-0,035
-591,196	800,000	0,059	0,119
-590,182	23,552	0,098	-0,058
-589,167	159,268	0,057	0,057
-588,152	463,070	-0,032	0,052
-587,138	34,373	-0,163	-0,103
-586,123	166,198	-0,050	0,051
-585,109	800,000	-0,035	-0,070
-584,094	49,989	-0,055	-0,037
-583,079	-83,970	-0,126	0,029
-582,065	-200,000	0,007	0,029
-581,050	642,645	-0,036	-0,067
-580,036	-43,689	0,012	-0,004
-579,021	-200,000	0,035	-0,114
-578,006	-200,000	-0,004	-0,080
-576,992	800,000	0,013	0,036
-575,977	128,057	-0,024	0,022
-574,963	-136,064	0,058	-0,005
-573,948	800,000	-0,068	0,144
-572,934	-63,066	0,064	0,019
-571,919	-76,502	0,049	-0,012
-570,904	142,207	-0,123	-0,118
-569,890	55,905	-0,100	-0,070
-568,875	-31,842	-0,076	0,031
-567,861	-91,292	0,077	-0,016
-566,846	-72,443	0,070	0,018
-565,831	-200,000	0,038	0,171
-564,817	-200,000	0,005	-0,038
-563,802	-6,989	0,089	-0,044
-562,788	-200,000	-0,014	0,070
-561,773	592,295	0,022	-0,040
-560,758	-105,072	0,025	-0,004
-559,744	-200,000	-0,022	0,087
-558,729	84,111	0,067	0,053
-557,715	-58,288	-0,099	-0,031
-556,700	-65,447	-0,111	-0,032
-555,685	-200,000	-0,019	-0,065
-554,671	-104,737	0,109	0,018
-553,656	130,127	0,054	-0,050
-552,642	-200,000	0,001	0,035
-551,627	800,000	0,022	-0,045
-550,612	-81,619	0,023	0,006
-549,598	-107,446	-0,035	-0,006
-548,583	-87,766	-0,033	-0,007
-547,569	292,240	-0,070	-0,092
-546,554	-200,000	-0,017	0,067
-545,539	725,351	0,056	-0,109
-544,525	800,000	-0,043	-0,087
-543,510	800,000	0,029	0,064
-542,496	132,311	-0,016	-0,015
-541,481	-7,801	-0,066	0,032
-540,466	107,374	-0,052	-0,045
-539,452	-83,386	0,018	0,004
-538,437	463,180	0,052	0,084
-537,423	495,813	-0,054	0,089
-536,408	-200,000	-0,011	0,134
-535,393	176,838	-0,080	-0,084
-534,379	153,314	-0,086	-0,085
-533,364	132,659	0,123	-0,114
-532,350	71,971	-0,055	-0,041
-531,335	-156,340	0,183	-0,008
-530,321	423,067	0,036	-0,056
-529,306	167,657	-0,059	-0,061
-528,291	-110,402	-0,231	-0,034
-527,277	-0,429	-0,088	0,045
-526,262	81,996	0,018	0,014
-525,248	696,150	-0,027	0,051
-524,233	46,995	0,024	-0,016
-523,218	266,116	-0,057	0,072
-522,204	170,480	0,121	-0,125
-521,189	-90,575	-0,128	0,026
-520,175	-75,039	0,046	-0,012
-519,160	20,907	0,058	-0,034
-518,145	109,526	-0,037	0,032
-517,131	-0,469	-0,086	-0,044
-516,116	362,561	0,078	0,113
-515,102	92,604	0,084	0,068
-514,087	-5,264	0,048	-0,024
-513,072	-178,262	0,150	-0,002
-512,058	-40,572	-0,052	-0,019
-511,043	-200,000	0,029	-0,102
-510,029	228,610	0,041	-0,048
-509,014	-200,000	0,011	-0,106
-507,999	800,000	0,040	-0,115
-506,985	142,288	0,056	0,054
-505,970	158,490	0,048	-0,048
-504,956	-76,575	-0,184	-0,046
-503,941	-104,624	0,036	-0,006
-502,926	161,623	-0,098	-0,098
-501,912	-90,362	0,083	0,017
-500,897	-200,000	0,139	0,000
-499,883	-124,186	0,031	0,003
-498,868	-85,513	-0,114	-0,025
-497,853	-60,195	-0,067	-0,020
-496,839	-30,056	-0,107	-0,044
-495,824	-200,000	-0,007	0,065
-494,810	800,000	0,073	0,167
-493,795	-92,998	-0,067	0,013
-492,781	26,080	0,021	-0,013
-491,766	268,023	-0,023	0,030
-490,751	-200,000	-0,001	-0,013
-489,737	49,189	-0,011	0,008
-488,722	171,853	-0,056	0,058
-487,708	-144,029	-0,018	0,001
-486,693	-200,000	0,030	0,157
-485,678	147,708	-0,084	-0,081
-484,664	-200,000	0,001	-0,071
-483,649	800,000	-0,080	-0,192
-482,635	800,000	-0,048	-0,106
-481,620	-88,679	0,089	-0,019
-480,605	800,000	0,074	0,153
-479,591	142,099	-0,025	-0,024
-478,576	-164,070	0,086	-0,003
-477,562	-35,214	-0,092	-0,036
-476,547	-181,557	0,008	0,000
-475,532	-200,000	-0,037	-0,146
-474,518	464,767	0,017	-0,028
-473,503	-13,899	0,060	-0,028
-472,489	164,324	0,025	0,025
-471,474	-161,273	0,065	0,002
-470,459	800,000	-0,030	0,070
-469,445	59,738	-0,124	0,088
-468,430	83,597	-0,062	0,048
-467,416	314,935	-0,043	-0,058
-466,401	-17,501	-0,115	0,052
-465,386	60,313	0,063	0,045
-464,372	275,851	0,016	0,021
-463,357	99,467	0,052	-0,044
-462,343	284,299	-0,058	0,075
-461,328	520,107	0,044	0,074
-460,313	95,587	0,074	0,061
-459,299	-200,000	0,011	0,160
-458,284	-198,196	0,052	0,000
-457,270	-200,000	-0,033	0,154
-456,255	-200,000	0,009	-0,176
-455,241	77,339	0,072	-0,055
-454,226	715,986	-0,035	-0,068
-453,211	62,100	0,114	0,082
-452,197	167,446	-0,045	0,046
-451,182	-97,958	0,101	0,019
-450,168	-200,000	0,008	0,211
-449,153	782,640	-0,066	0,132
-448,138	505,037	0,020	-0,034
-447,124	-200,000	-0,004	-0,067
-446,109	53,178	-0,093	-0,064
-445,095	-112,853	0,102	-0,014
-444,080	-105,718	0,050	0,008
-443,065	-200,000	0,014	0,059
-442,051	86,197	0,064	0,051
-441,036	800,000	0,005	-0,012
-440,022	800,000	0,052	-0,161
-439,007	-28,384	0,056	0,023
-437,992	396,824	0,038	0,057
-436,978	38,089	0,131	0,084
-435,963	-200,000	-0,007	-0,035
-434,949	157,496	0,065	0,065
-433,934	411,574	0,124	-0,190
-432,919	-75,135	-0,137	-0,035
-431,905	800,000	-0,059	-0,161
-430,890	-200,000	0,010	0,038
-429,876	492,708	0,041	0,068
-428,861	-200,000	0,002	0,083
-427,846	-200,000	0,005	0,073
-426,832	685,575	0,006	-0,011
-425,817	727,355	0,023	0,045
-424,803	800,000	0,059	-0,136
-423,788	-200,000	0,054	0,181
-422,773	800,000	-0,039	-0,105
-421,759	-30,210	-0,135	0,055
-420,744	-76,534	-0,023	0,006
-419,730	-120,660	-0,117	-0,014
-418,715	-9,978	-0,055	0,026
-417,701	-141,574	0,118	0,008
-416,686	-127,903	-0,103	0,010
-415,671	-200,000	-0,017	-0,060
-414,657	184,315	0,057	0,061
-413,642	-88,306	-0,094	0,020
-412,628	207,097	-0,082	0,092
-411,613	-200,000	-0,025	-0,104
-410,598	-89,694	0,061	0,013
-409,584	423,871	0,054	-0,083
-408,569	-149,261	0,104	-0,006
-407,555	227,807	0,073	0,085
-406,540	-85,222	-0,091	-0,020
-405,525	-71,504	0,071	-0,019
-404,511	-3,916	0,039	0,019
-403,496	44,099	0,098	0,064
-402,482	-19,755	0,082	0,036
-401,467	-74,670	-0,066	0,017
-400,452	199,802	0,071	-0,078
-399,438	131,553	0,041	-0,038
-398,423	178,310	-0,094	0,099
-397,409	78,928	-0,088	-0,068
-396,394	411,977	-0,068	-0,104
-395,379	-79,463	-0,036	-0,009
-394,365	-8,983	0,058	0,028
-393,350	-28,287	0,119	-0,049
-392,336	-200,000	0,023	0,116
-391,321	483,459	-0,036	-0,059
-390,306	563,908	-0,085	-0,148
-389,292	42,084	0,024	-0,015
-388,277	89,248	-0,093	-0,074
-387,263	230,193	0,108	0,127
-386,248	25,596	-0,056	-0,033
-385,233	-200,000	0,018	0,193
-384,219	629,784	-0,031	-0,057
-383,204	147,743	-0,074	-0,072
-382,190	800,000	-0,047	-0,131
-381,175	-200,000	-0,034	-0,137
-380,160	-48,894	-0,100	-0,034
-379,146	540,293	0,038	-0,065
-378,131	-200,000	0,032	0,110
-377,117	-39,773	-0,160	0,060
-376,102	551,495	0,018	-0,032
-375,088	-200,000	0,007	-0,091
-374,073	98,064	-0,056	-0,047
-373,058	-133,978	0,092	0,008
-372,044	-200,000	0,010	0,107
-371,029	104,414	0,058	0,049
-370,015	183,697	0,094	0,100
-369,000	-22,955	0,123	-0,053
-367,985	299,834	-0,043	-0,057
-366,971	-61,486	0,025	0,007
-365,956	800,000	-0,043	0,094
-364,942	109,616	0,088	0,076
-363,927	-32,451	0,028	-0,011
-362,912	603,325	-0,020	-0,036
-361,898	-200,000	-0,002	-0,110
-360,883	483,903	0,030	-0,049
-359,869	-200,000	-0,009	-0,131
-358,854	39,493	0,063	-0,040
-357,839	-200,000	-0,018	0,067
-356,825	-200,000	-0,002	0,055
-355,810	60,508	0,081	-0,057
-354,796	-99,456	-0,040	-0,007
-353,781	-200,000	0,000	-0,048
-352,766	45,418	0,015	-0,010
-351,752	-17,379	-0,089	-0,040
-350,737	194,989	0,112	0,122
-349,723	67,662	0,101	-0,074
-348,708	-30,735	-0,051	-0,020
-347,693	-200,000	0,007	0,088
-346,679	-200,000	-0,033	0,141
-345,664	-25,021	-0,058	-0,024
-344,650	157,046	0,006	0,006
-343,635	-12,869	0,124	-0,058
-342,620	138,099	0,049	0,046
-341,606	197,504	-0,059	0,064
-340,591	-95,657	0,116	-0,022
-339,577	391,570	0,098	-0,147
-338,562	3,072	0,068	-0,035
-337,548	-200,000	0,000	0,043
-336,533	800,000	0,044	0,101
-335,518	-54,450	0,108	-0,035
-334,504	139,764	-0,057	0,053
-333,489	-200,000	-0,002	0,077
-332,475	800,000	-0,066	-0,179
-331,460	-133,704	-0,113	0,010
-330,445	-200,000	-0,033	-0,130
-329,431	188,736	0,062	0,066
-328,416	-200,000	0,026	-0,106
-327,402	468,292	-0,053	0,086
-326,387	71,872	0,111	-0,082
-325,372	310,237	-0,132	-0,178
-324,358	800,000	-0,047	0,102
-323,343	-101,429	0,046	0,008
-322,329	-200,000	-0,019	0,120
-321,314	3,335	-0,099	0,051
-320,299	141,525	0,015	-0,015
-319,285	-101,098	0,101	-0,018
-318,270	-200,000	-0,001	-0,005
-317,256	45,856	0,102	0,068
-316,241	773,972	-0,061	-0,120
-315,226	-38,694	0,074	-0,028
-314,212	-200,000	-0,036	0,188
-313,197	-200,000	0,008	0,055
-312,183	1,669	-0,041	0,021
-311,168	-200,000	0,004	-0,085
-310,153	-148,876	-0,046	0,003
-309,139	8,145	-0,078	0,042
-308,124	800,000	0,023	-0,058
-307,110	800,000	0,062	0,146
-306,095	213,276	-0,070	0,079
-305,080	800,000	-0,026	0,082
-304,066	-115,097	-0,126	0,017
-303,051	278,535	0,012	-0,016
-302,037	-79,680	0,059	0,014
-301,022	113,942	0,042	-0,036
-300,008	39,948	0,034	0,021
-298,993	-116,278	0,171	0,022
-297,978	-114,880	0,086	-0,012
-296,964	-102,046	0,035	-0,006
-295,949	598,390	-0,082	-0,146
-294,935	-135,944	-0,109	0,009
-293,920	-47,170	0,004	0,001
-292,905	-200,000	0,004	-0,187
-291,891	-200,000	-0,005	0,162
-290,876	37,280	0,059	-0,037
-289,862	-200,000	0,009	-0,067
-288,847	-200,000	0,011	-0,038
-287,832	149,853	0,104	-0,101
-286,818	-140,357	0,129	-0,010
-285,803	-16,999	-0,059	0,027
-284,789	73,363	0,071	0,053
-283,774	205,473	-0,030	-0,034
-282,759	562,731	-0,014	0,025
-281,745	-200,000	0,003	-0,041
-280,730	273,944	-0,120	-0,152
-279,716	-24,890	0,041	0,017
-278,701	-135,236	0,075	0,006
-277,686	47,553	0,130	-0,087
-276,672	234,283	-0,043	-0,051
-275,657	-200,000	0,009	0,130
-274,643	150,043	-0,076	-0,073
-273,628	-63,787	-0,111	-0,032
-272,613	416,745	-0,040	-0,061
-271,599	68,634	0,147	0,107
-270,584	800,000	-0,072	0,179
-269,570	-67,853	-0,069	0,019
-268,555	-40,836	0,022	0,008
-267,540	-68,942	0,052	0,014
-266,526	800,000	0,013	-0,036
-265,511	93,351	0,073	0,059
-264,497	800,000	0,034	-0,093
-263,482	-68,254	-0,070	-0,019
-262,467	-200,000	0,021	0,108
-261,453	357,134	0,026	0,038
-260,438	-200,000	0,000	-0,081
-259,424	-124,207	-0,142	-0,016
-258,409	-91,711	0,057	0,011
-257,395	32,576	-0,121	0,075
-256,380	92,861	0,044	0,035
-255,365	-52,987	0,096	-0,031
-254,351	-200,000	-0,001	0,028
-253,336	-80,206	-0,070	-0,017
-252,322	-134,287	-0,076	-0,007
-251,307	28,433	-0,105	-0,063
-250,292	-146,353	0,044	-0,003
-249,278	-94,836	-0,087	-0,017
-248,263	-7,988	0,154	0,074
-247,249	135,569	-0,084	0,078
-246,234	-0,582	0,122	0,061
-245,219	128,835	0,076	0,069
-244,205	338,263	-0,018	0,025
-243,190	-49,920	-0,083	-0,028
-242,176	800,000	-0,033	0,091
-241,161	-98,641	0,071	0,013
-240,146	-160,530	-0,043	0,002
-239,132	-200,000	0,025	-0,139
-238,117	14,219	-0,036	0,020
-237,103	800,000	-0,031	-0,096
-236,088	-106,483	0,041	0,006
-235,073	-200,000	0,019	-0,083
-234,059	-200,000	-0,082	0,266
-233,044	-105,302	0,237	-0,038
-232,030	-200,000	0,002	-0,034
-231,015	-188,013	-0,121	-0,001
-230,000	800,000	0,038	-0,111
-228,986	-200,000	0,007	-0,029
-227,971	559,537	0,074	0,128
-226,957	-200,000	-0,006	0,173
-225,942	-200,000	-0,019	-0,097
-224,927	800,000	0,023	-0,072
-223,913	-200,000	0,037	0,122
-222,898	-200,000	-0,050	0,174
-221,884	-32,949	0,082	0,032
-220,869	-160,784	0,041	0,002
-219,855	-200,000	0,025	0,092
-218,840	800,000	-0,022	0,047
-217,825	348,118	-0,089	0,125
-216,811	-103,635	0,089	0,015
-215,796	-200,000	0,021	-0,087
-214,782	-91,180	0,075	-0,015
-213,767	-150,263	-0,040	0,002
-212,752	43,796	-0,040	0,026
-211,738	-200,000	-0,015	0,158
-210,723	-112,398	0,059	-0,008
-209,709	114,370	-0,061	-0,053
-208,694	125,907	0,023	0,021
-207,679	140,683	0,069	-0,065
-206,665	92,196	0,124	-0,100
-205,650	248,486	0,060	-0,072
-204,636	-127,138	-0,012	0,001
-203,621	115,810	0,020	0,017
-202,606	-55,885	-0,093	-0,029
-201,592	141,237	0,054	0,051
-200,577	-200,000	-0,002	-0,016
-199,563	-200,000	0,029	0,104
-198,548	800,000	-0,051	-0,111
-197,533	537,192	0,033	0,057
-196,519	486,253	0,013	0,021
-195,504	49,436	-0,031	0,020
-194,490	66,465	-0,020	0,014
-193,475	-200,000	0,004	-0,059
-192,460	-4,832	0,157	0,077
-191,446	217,345	0,093	-0,106
-190,431	-119,842	0,023	0,003
-189,417	800,000	-0,019	0,049
-188,402	186,183	0,066	0,070
-187,387	-31,611	-0,104	0,041
-186,373	-200,000	-0,006	-0,179
-185,358	630,058	-0,008	-0,015
-184,344	-24,462	0,029	-0,012
-183,329	537,487	-0,053	0,090
-182,315	38,417	-0,113	-0,072
-181,300	17,383	-0,051	-0,029
-180,285	-61,625	0,103	0,030
-179,271	-200,000	0,011	0,148
-178,256	-200,000	-0,009	-0,060
-177,242	-125,400	0,003	0,000
-176,227	-200,000	0,018	-0,080
-175,212	-55,986	-0,035	0,011
-174,198	-200,000	-0,003	-0,060
-173,183	182,831	0,107	-0,112
-172,169	401,884	-0,053	-0,080
-171,154	-200,000	-0,009	0,060
-170,139	-200,000	-0,029	0,165
-169,125	-200,000	0,004	0,091
-168,110	260,953	0,042	-0,052
-167,096	-200,000	0,006	-0,132
-166,081	-106,455	0,054	0,009
-165,066	-100,131	-0,186	-0,033
-164,052	-200,000	-0,000	-0,089
-163,037	-154,255	0,050	0,002
-162,023	5,851	0,111	-0,058
-161,008	-200,000	-0,015	-0,064
-159,993	-200,000	0,004	0,107
-158,979	-200,000	-0,005	-0,057
-157,964	95,852	0,079	-0,064
-156,950	-88,204	-0,164	-0,035
-155,935	136,854	0,061	-0,057
-154,920	800,000	-0,051	0,134
-153,906	-81,544	0,187	0,043
-152,891	-200,000	-0,010	0,090
-151,877	-200,000	-0,005	0,064
-150,862	-7,127	-0,132	0,063
-149,847	716,278	-0,019	0,035
-148,833	682,066	0,031	0,058
-147,818	800,000	0,032	0,078
-146,804	-11,291	-0,129	-0,060
-145,789	-200,000	0,000	0,037
-144,775	-62,610	0,011	-0,003
-143,760	275,392	-0,061	-0,078
-142,745	-85,771	-0,031	0,007
-141,731	800,000	0,024	0,054
-140,716	-182,214	0,241	0,003
-139,702	323,116	0,076	0,103
-138,687	-119,192	-0,133	-0,016
-137,672	51,544	0,077	-0,052
-136,658	-200,000	-0,013	0,075
-135,643	-200,000	0,005	-0,039
-134,629	800,000	-0,024	-0,065
-133,614	-200,000	0,003	0,041
-132,599	-34,235	-0,024	0,009
-131,585	-173,557	-0,015	0,000
-130,570	188,481	-0,045	0,048
-129,556	-37,314	-0,146	-0,055
-128,541	23,775	-0,060	-0,035
-127,526	-76,227	0,047	0,012
-126,512	9,377	0,090	0,048
-125,497	-200,000	0,015	0,155
-124,483	166,007	0,061	0,062
-123,468	52,490	-0,102	-0,069
-122,453	-123,902	0,113	-0,013
-121,439	-200,000	-0,029	0,178
-120,424	-40,153	-0,022	0,008
-119,410	118,618	0,023	0,020
-118,395	-100,295	0,244	0,043
-117,380	-200,000	0,019	0,066
-116,366	800,000	0,037	0,100
-115,351	-30,948	-0,044	-0,018
-114,337	654,569	0,024	-0,044
-113,322	79,149	-0,128	0,097
-112,307	-200,000	0,021	0,068
-111,293	-146,088	0,100	0,006
-110,278	523,384	-0,037	-0,062
-109,264	-0,844	0,086	-0,043
-108,249	-200,000	0,016	-0,074
-107,234	800,000	0,016	0,045
-106,220	800,000	-0,023	-0,053
-105,205	-200,000	-0,012	0,158
-104,191	800,000	-0,036	0,089
-103,176	-200,000	0,001	0,199
-102,162	800,000	0,008	-0,019
-101,147	16,461	0,117	-0,065
-100,132	-146,083	-0,131	0,008
-99,118	800,000	-0,052	-0,114
-98,103	-200,000	0,002	-0,030
-97,089	484,133	-0,085	0,137
-96,074	176,517	0,096	-0,099
-95,059	-35,391	0,124	0,048
-94,045	213,225	-0,048	-0,054
-93,030	283,069	-0,030	0,038
-92,016	-200,000	0,017	-0,110
-91,001	-123,766	0,058	0,006
-89,986	-200,000	0,016	0,071
-88,972	99,842	-0,089	0,073
-87,957	-200,000	0,015	0,109
-86,943	-200,000	0,012	-0,092
-85,928	204,381	0,048	-0,053
-84,913	416,438	0,112	-0,170
-83,899	100,176	0,142	-0,116
-82,884	658,468	-0,089	0,162
-81,870	536,423	0,112	0,190
-80,855	800,000	-0,031	0,075
-79,840	-71,319	-0,040	0,010
-78,826	-31,889	0,105	0,041
-77,811	-105,742	-0,058	0,009
-76,797	274,620	-0,055	0,069
-75,782	-200,000	-0,023	0,082
-74,767	111,575	0,051	-0,044
-73,753	274,083	0,058	-0,073
-72,738	-81,533	0,085	0,020
-71,724	59,144	-0,111	0,077
-70,709	-94,987	0,038	0,007
-69,694	800,000	0,028	-0,058
-68,680	-200,000	0,033	0,126
-67,665	-118,412	0,109	-0,014
-66,651	461,802	0,041	-0,064
-65,636	-16,652	-0,104	0,046
-64,622	-172,010	0,091	-0,002
-63,607	336,248	0,107	-0,148
-62,592	-200,000	-0,005	0,055
-61,578	800,000	0,040	-0,084
-60,563	800,000	-0,014	0,032
-59,549	-200,000	0,009	0,125
-58,534	-32,682	-1,711	-0,671
-57,519	365,481	-1,415	-2,025
-56,505	-200,000	-0,548	-4,592
-55,490	170,000	0,932	0,945
-54,476	800,000	5,006	11,396
-53,461	-200,000	18,632	297,429
-52,446	800,000	731,375	2256,913
-51,432	558,254	1647,973	2826,232
-50,417	78,871	1668,269	1263,002
-49,403	22,411	1541,267	889,926
-48,388	16,439	1464,177	816,440
-47,373	17,795	1454,245	817,411
-46,359	17,021	1444,782	808,354
-45,344	14,702	1439,886	794,491
-44,330	14,573	1437,905	792,749
-43,315	14,549	1436,457	791,805
-42,300	14,600	1434,667	791,033
-41,286	14,632	1433,668	790,601
-40,271	14,601	1432,349	789,698
-39,257	14,589	1431,010	788,871
-38,242	14,637	1429,763	788,379
-37,227	14,618	1428,556	787,591
-36,213	14,653	1427,260	787,015
-35,198	14,667	1425,809	786,249
-34,184	14,652	1425,324	785,877
-33,169	14,562	1423,932	784,654
-32,154	14,668	1422,657	784,422
-31,140	14,621	1421,673	783,626
-30,125	14,639	1420,333	782,939
-29,111	14,659	1419,118	782,332
-28,096	14,575	1418,200	781,401
-27,082	14,605	1417,059	780,882
-26,067	14,613	1415,741	780,165
-25,052	14,550	1414,907	779,376
-24,038	14,504	1414,076	778,671
-23,023	14,559	1412,949	778,280
-22,009	14,489	1412,005	777,399
-20,994	14,476	1411,230	776,879
-19,979	14,498	1410,221	776,399
-18,965	14,472	1409,031	775,590
-17,950	14,478	1408,352	775,215
-16,936	14,498	1407,300	774,697
-15,921	14,482	1406,088	773,924
-14,906	14,445	1405,544	773,419
-13,892	14,461	1404,516	772,901
-12,877	14,451	1403,496	772,261
-11,863	14,462	1402,367	771,662
-10,848	14,449	1401,708	771,204
-9,833	14,421	1400,923	770,612
-8,819	14,373	1399,946	769,823
-7,804	14,418	1399,150	769,565
-6,790	14,394	1398,019	768,799
-5,775	14,354	1396,824	767,924
-4,760	14,392	1395,900	767,562
-3,746	14,360	1395,234	767,017
-2,731	14,333	1394,540	766,483
-1,717	14,343	1393,554	765,956
-0,702	14,317	1391,733	764,806
0,313	18,160	1309,789	737,567
1,327	34,493	705,904	435,329
2,342	52,905	124,235	83,959
3,356	5,770	16,602	8,661
4,371	13,531	3,154	1,727
5,386	-36,514	0,589	0,223
6,400	800,000	-0,025	0,058
7,415	379,816	-0,196	-0,285
8,429	149,541	-0,182	-0,175
9,444	65,239	-0,298	-0,213
10,459	62,257	-0,333	-0,234
11,473	285,358	-0,277	-0,354
12,488	-8,093	-0,245	-0,116
13,502	4,376	-0,270	-0,140
14,517	-86,476	-0,440	-0,095
15,531	307,206	-0,266	-0,351
16,546	-3,475	-0,362	-0,177
17,561	241,334	-0,326	-0,386
18,575	-54,443	-0,194	-0,062
19,590	279,750	-0,342	-0,432
20,604	95,150	-0,182	-0,146
21,619	219,293	-0,384	-0,435
22,634	151,794	-0,439	-0,423
23,648	7,465	-0,407	-0,214
24,663	-19,603	-0,350	-0,152
25,677	86,965	-0,455	-0,355
26,692	86,504	-0,303	-0,236
27,707	143,674	-0,294	-0,277
28,721	68,014	-0,314	-0,227
29,736	64,581	-0,344	-0,245
30,750	156,124	-0,414	-0,403
31,765	37,150	-0,448	-0,280
32,780	218,410	-0,314	-0,354
33,794	144,432	-0,263	-0,248
34,809	46,367	-0,391	-0,255
35,823	-22,551	-0,390	-0,166
36,838	81,005	-0,367	-0,279
37,853	167,953	-0,378	-0,379
38,867	155,943	-0,326	-0,317
39,882	243,355	-0,276	-0,327
40,896	43,065	-0,340	-0,218
41,911	126,833	-0,348	-0,311
42,926	40,495	-0,457	-0,290
43,940	48,726	-0,312	-0,206
44,955	132,816	-0,402	-0,366
45,969	69,968	-0,351	-0,255
46,984	-105,139	-0,431	-0,069
47,999	165,710	-0,242	-0,242
49,013	293,051	-0,283	-0,364
50,028	40,604	-0,254	-0,161
51,042	36,633	-0,342	-0,212
52,057	747,086	-0,204	-0,389
53,071	-38,223	-0,241	-0,090
54,086	87,189	-0,313	-0,244
55,101	175,075	-0,302	-0,308
56,115	67,467	-0,343	-0,246
57,130	2,947	-0,376	-0,192
58,144	60,782	-0,380	-0,265
59,159	151,291	-0,327	-0,314
60,174	52,637	-0,348	-0,234
61,188	35,694	-0,359	-0,222
62,203	53,381	-0,268	-0,181
63,217	129,345	-0,290	-0,261
64,232	186,715	-0,251	-0,263
65,247	64,739	-0,388	-0,275
66,261	-50,331	-0,370	-0,122
67,276	175,704	-0,277	-0,283
68,290	159,735	-0,383	-0,376
69,305	423,779	-0,194	-0,295
70,320	63,846	-0,293	-0,207
71,334	-5,103	-0,314	-0,151
72,349	71,852	-0,238	-0,174
73,363	100,077	-0,407	-0,331
74,378	-165,518	-0,363	-0,011
75,393	62,033	-0,309	-0,216
76,407	65,010	-0,275	-0,195
77,422	-117,285	-0,148	-0,019
78,436	53,823	-0,269	-0,181
79,451	21,020	-0,144	-0,082
80,466	177,966	-0,300	-0,308
81,480	101,728	-0,317	-0,259
82,495	139,159	-0,295	-0,273
83,509	51,892	-0,387	-0,258
84,524	67,396	-0,107	-0,077
85,539	10,805	-0,224	-0,120
86,553	-64,011	-0,319	-0,091
87,568	202,775	-0,213	-0,231
88,582	145,447	-0,257	-0,242
89,597	132,801	-0,253	-0,229
90,611	458,659	-0,215	-0,338
91,626	18,950	-0,349	-0,196
92,641	153,004	-0,304	-0,292
93,655	56,420	-0,294	-0,200
94,670	-42,419	-0,348	-0,124
95,684	151,780	-0,331	-0,317
96,699	-15,139	-0,326	-0,146
97,714	711,924	-0,161	-0,300
98,728	62,807	-0,218	-0,153
99,743	-162,036	-0,284	-0,010
100,757	49,894	-0,228	-0,150
101,772	21,180	-0,253	-0,144
102,787	-12,077	-0,332	-0,152
103,801	4,375	-0,201	-0,103
104,816	88,900	-0,200	-0,156
105,830	47,219	-0,230	-0,150
106,845	713,890	-0,079	-0,148
107,860	-66,180	-0,254	-0,071
108,874	-119,908	-0,279	-0,033
109,889	265,895	-0,202	-0,247
110,903	221,121	-0,205	-0,231
111,918	191,408	-0,255	-0,269
112,933	-5,034	-0,250	-0,120
113,947	-148,389	-0,275	-0,016
114,962	-57,696	-0,283	-0,086
115,976	144,748	-0,244	-0,228
116,991	46,291	-0,313	-0,203
118,006	365,254	-0,122	-0,173
119,020	385,750	-0,193	-0,280
120,035	230,110	-0,152	-0,174
121,049	10,747	-0,179	-0,096
122,064	158,937	-0,194	-0,189
123,079	-124,084	-0,278	-0,030
124,093	-35,867	-0,211	-0,079
125,108	89,724	-0,264	-0,206
126,122	570,186	-0,165	-0,282
127,137	-3,337	-0,260	-0,126
128,151	520,390	-0,070	-0,115
129,166	233,022	-0,181	-0,209
130,181	131,964	-0,294	-0,265
131,195	159,479	-0,206	-0,201
132,210	137,827	-0,226	-0,208
133,224	265,533	-0,118	-0,145
134,239	-37,034	-0,251	-0,094
135,254	367,623	-0,216	-0,306
136,268	-95,372	-0,250	-0,047
137,283	222,850	-0,144	-0,162
138,297	54,749	-0,308	-0,207
139,312	594,457	-0,236	-0,410
140,327	39,099	-0,186	-0,116
141,341	15,467	-0,277	-0,152
142,356	60,197	-0,238	-0,165
143,370	120,197	-0,209	-0,181
144,385	82,589	-0,198	-0,150
145,400	85,068	-0,345	-0,264
146,414	116,613	-0,208	-0,178
147,429	121,279	-0,221	-0,193
148,443	4,774	-0,288	-0,148
149,458	95,399	-0,260	-0,207
150,473	283,469	-0,104	-0,130
151,487	70,111	-0,117	-0,084
152,502	422,751	-0,143	-0,215
153,516	398,548	-0,156	-0,229
154,531	-77,680	-0,237	-0,057
155,546	91,571	-0,287	-0,225
156,560	84,307	-0,205	-0,156
157,575	99,466	-0,183	-0,147
158,589	195,470	-0,235	-0,249
159,604	200,374	-0,240	-0,257
160,619	121,311	-0,251	-0,218
161,633	330,868	-0,212	-0,285
162,648	434,103	-0,215	-0,327
163,662	-139,547	-0,147	0,011
164,677	247,897	-0,184	-0,217
165,692	25,834	-0,262	-0,152
166,706	800,000	-0,161	-0,393
167,721	118,983	-0,286	-0,247
168,735	477,818	-0,217	-0,343
169,750	194,293	-0,222	-0,235
170,764	356,229	-0,154	-0,214
171,779	-110,599	-0,216	-0,031
172,794	43,731	-0,140	-0,089
173,808	253,475	-0,096	-0,115
174,823	58,743	-0,256	-0,175
175,837	46,472	-0,210	-0,135
176,852	128,804	-0,220	-0,195
177,867	102,941	-0,212	-0,173
178,881	-158,537	-0,320	0,013
179,896	8,821	-0,217	-0,114
180,910	-4,988	-0,233	-0,112
181,925	128,074	-0,176	-0,156
182,940	478,928	-0,165	-0,260
183,954	61,151	-0,107	-0,074
184,969	-19,029	-0,227	-0,098
185,983	-9,735	-0,236	-0,109
186,998	261,286	-0,122	-0,147
188,013	177,052	-0,174	-0,176
189,027	330,886	-0,179	-0,241
190,042	136,881	-0,137	-0,124
191,056	37,004	-0,104	-0,064
192,071	61,848	-0,153	-0,106
193,086	0,880	-0,180	-0,089
194,100	-200,000	-0,036	-0,265
195,115	190,770	-0,217	-0,227
196,129	354,439	-0,139	-0,193
197,144	440,552	-0,162	-0,247
198,159	618,143	-0,169	-0,296
199,173	-39,213	-0,222	-0,081
200,188	157,793	-0,059	-0,057
201,202	71,872	-0,109	-0,079
202,217	-31,762	-0,158	-0,061
203,232	-200,000	-0,037	-0,131
204,246	122,297	-0,221	-0,192
205,261	88,242	-0,222	-0,171
206,275	382,374	-0,163	-0,233
207,290	400,386	-0,067	-0,098
208,304	341,782	-0,153	-0,209
209,319	1,227	-0,202	-0,100
210,334	-42,493	-0,252	-0,089
211,348	800,000	-0,096	-0,283
212,363	355,106	-0,150	-0,208
213,377	752,344	-0,127	-0,239
214,392	686,140	-0,125	-0,228
215,407	102,495	-0,189	-0,153
216,421	-107,408	-0,231	-0,035
217,436	-78,072	-0,245	-0,058
218,450	21,794	-0,249	-0,140
219,465	192,727	-0,102	-0,107
220,480	52,099	-0,128	-0,084
221,494	-45,034	-0,233	-0,080
222,509	165,532	-0,231	-0,227
223,523	800,000	-0,063	-0,184
224,538	104,475	-0,206	-0,168
225,553	-38,511	-0,290	-0,106
226,567	-110,329	-0,224	0,032
227,582	1,698	-0,214	-0,107
228,596	-9,593	-0,096	-0,044
229,611	800,000	-0,080	-0,194
230,626	97,506	-0,172	-0,137
231,640	59,841	-0,191	-0,131
232,655	325,066	-0,130	-0,173
233,669	-100,121	-0,318	-0,054
234,684	-118,088	-0,304	-0,037
235,699	-200,000	-0,066	-0,249
236,713	76,952	-0,192	-0,141
237,728	333,267	-0,197	-0,264
238,742	800,000	-0,067	-0,196
239,757	122,175	-0,166	-0,143
240,772	-102,491	-0,179	-0,029
241,786	40,957	-0,137	-0,085
242,801	13,193	-0,090	-0,048
243,815	105,257	-0,167	-0,137
244,830	87,895	-0,185	-0,142
245,844	10,760	-0,167	-0,088
246,859	416,278	-0,113	-0,168
247,874	117,057	-0,147	-0,125
248,888	616,263	-0,090	-0,157
249,903	60,686	-0,110	-0,075
250,917	-128,536	-0,069	-0,007
251,932	23,094	-0,086	0,049
252,947	-2,166	-0,225	-0,109
253,961	54,186	-0,271	-0,180
254,976	419,567	-0,123	-0,182
255,990	280,979	-0,226	-0,280
257,005	-70,483	-0,181	0,047
258,020	-7,115	-0,209	-0,098
259,034	-119,721	-0,127	-0,015
260,049	92,720	-0,153	-0,119
261,063	92,081	-0,147	-0,114
262,078	258,751	-0,185	-0,221
263,093	192,527	-0,158	-0,165
264,107	30,814	-0,256	-0,151
265,122	24,610	-0,136	-0,078
266,136	-200,000	-0,039	-0,213
267,151	424,743	-0,145	-0,216
268,166	376,073	-0,076	-0,107
269,180	6,262	-0,122	-0,062
270,195	-35,403	-0,234	-0,087
271,209	258,852	-0,266	-0,317
272,224	-82,224	-0,261	-0,058
273,239	456,309	-0,097	-0,149
274,253	46,109	-0,083	-0,053
275,268	43,371	-0,141	-0,089
276,282	211,378	-0,192	-0,209
277,297	63,796	-0,234	-0,162
278,312	73,097	-0,236	-0,170
279,326	98,266	-0,161	-0,128
280,341	62,146	-0,161	-0,111
281,355	-80,209	-0,134	-0,031
282,370	113,094	-0,148	-0,124
283,384	362,062	-0,097	-0,135
284,399	217,406	-0,118	-0,129
285,414	106,249	-0,129	-0,106
286,428	89,198	-0,115	-0,088
287,443	67,800	-0,059	-0,042
288,457	130,980	-0,128	-0,113
289,472	-66,419	-0,154	-0,042
290,487	68,351	-0,140	-0,099
291,501	-21,791	-0,194	-0,081
292,516	-29,961	-0,247	-0,097
293,530	26,762	-0,093	-0,054
294,545	-200,000	0,009	-0,146
295,560	-87,211	-0,161	-0,033
296,574	9,838	-0,178	-0,093
297,589	392,311	-0,139	-0,199
298,603	-57,133	-0,180	-0,054
299,618	-102,444	-0,142	-0,023
300,633	25,600	-0,159	-0,091
301,647	140,322	-0,095	-0,087
302,662	-9,721	-0,086	-0,040
303,676	800,000	-0,081	-0,209
304,691	144,764	-0,134	-0,123
305,706	32,998	-0,266	-0,159
306,720	-28,472	-0,178	-0,070
307,735	83,189	-0,208	-0,156
308,749	169,175	-0,123	-0,121
309,764	-73,861	-0,186	-0,046
310,779	-178,450	-0,104	0,002
311,793	52,293	-0,181	-0,119
312,808	-51,004	-0,227	-0,073
313,822	-25,178	-0,168	-0,068
314,837	45,964	-0,201	-0,128
315,852	-127,666	-0,109	-0,011
316,866	201,477	0,041	0,043
317,881	139,333	-0,129	-0,117
318,895	516,495	-0,115	-0,186
319,910	110,673	-0,140	-0,116
320,925	800,000	-0,123	-0,289
321,939	231,953	-0,092	-0,104
322,954	72,038	-0,101	-0,072
323,968	-110,244	-0,075	0,011
324,983	-17,143	-0,155	-0,067
325,997	800,000	-0,041	-0,100
327,012	452,116	-0,060	-0,091
328,027	492,801	-0,191	-0,303
329,041	631,231	-0,123	-0,215
330,056	7,125	-0,281	-0,144
331,070	-59,305	-0,128	-0,038
332,085	800,000	-0,012	-0,037
333,100	-35,724	-0,089	0,033
334,114	354,412	-0,083	-0,113
335,129	436,270	-0,113	-0,169
336,143	-187,921	-0,063	-0,001
337,158	-24,899	-0,089	-0,036
338,173	-26,801	-0,091	0,036
339,187	-170,448	-0,110	0,003
340,202	-2,402	-0,129	-0,062
341,216	-200,000	-0,051	-0,228
342,231	800,000	-0,078	-0,193
343,246	-162,460	-0,110	-0,004
344,260	-200,000	0,026	-0,121
345,275	118,487	-0,065	-0,055
346,289	-139,250	-0,080	0,006
347,304	-200,000	0,003	-0,078
348,319	143,928	-0,168	-0,154
349,333	-200,000	-0,027	-0,158
350,348	-115,274	-0,168	-0,022
351,362	36,714	-0,084	0,051
352,377	31,565	-0,172	-0,101
353,392	60,865	-0,093	-0,063
354,406	191,122	-0,090	0,093
355,421	207,579	1317,771	1412,900
356,435	159,684	1478,867	1413,384
