DTS Sentinel unit serial number:	SN410029Multiplexer serial number:	ORYXHardware model number:	OX2-SRSoftware version number:	ORYX F/W v4,00 Oryx Data Collector v3.7.2.0data status	okinstallation	B3 Nyhavnadifferential loss correction	single-endedforward channel	channel 1reverse channel	N/Adate	2023/12/01time	04:52:30forward acquisition time	300,00reverse acquisition time	0,00gamma	499,1914k internal	0,3213k external	0,3213temperature offset calibration	1,0000default loss term (dB/km)	0,3820temperature slope calibration	1,0000multiplexer offset coefficient	1,0000multiplexer slope coefficient	1,0000fibre end	0,00T internal ref (°C)	7,98T ext. ref 1 (°C)	-7,29T ext. ref 2 (°C)	-7,41length (m)	temperature (°C)	Stokes	anti-Stokes-744,400	800,000	-0,107	-0,273
-743,385	407,349	-0,129	0,198
-742,371	264,279	-0,105	-0,132
-741,356	-200,000	-0,030	0,348
-740,342	800,000	-0,117	-0,250
-739,327	-0,715	-0,107	0,055
-738,312	-200,000	-0,062	-0,220
-737,298	203,400	-0,182	0,205
-736,283	281,257	-0,206	-0,267
-735,269	-200,000	0,026	0,219
-734,254	800,000	-0,085	-0,229
-733,239	13,028	-0,169	0,095
-732,225	-200,000	-0,048	-0,262
-731,210	382,066	0,067	0,100
-730,196	-105,610	-0,125	0,020
-729,181	-72,916	-0,156	-0,041
-728,167	122,174	-0,043	0,039
-727,152	132,738	-0,047	-0,044
-726,137	-5,498	-0,118	-0,058
-725,123	800,000	-0,016	-0,046
-724,108	-14,734	-0,054	-0,025
-723,094	777,037	-0,052	-0,104
-722,079	800,000	-0,038	-0,107
-721,064	212,895	0,008	0,010
-720,050	-106,605	-0,119	0,019
-719,035	-16,151	0,052	0,024
-718,021	37,251	0,054	0,034
-717,006	-200,000	-0,042	-0,149
-715,991	-88,302	-0,042	-0,009
-714,977	58,629	-0,069	-0,049
-713,962	-134,289	-0,055	-0,005
-712,948	-200,000	-0,025	-0,167
-711,933	-200,000	0,003	0,067
-710,918	-200,000	0,018	0,094
-709,904	-200,000	-0,043	-0,140
-708,889	-200,000	-0,007	-0,074
-707,875	117,773	-0,044	-0,039
-706,860	136,533	0,077	-0,073
-705,845	-74,360	0,086	-0,022
-704,831	800,000	-0,008	0,023
-703,816	-175,180	0,174	0,003
-702,802	138,410	-0,089	-0,084
-701,787	800,000	0,054	-0,123
-700,772	-88,493	-0,103	-0,022
-699,758	-200,000	-0,041	-0,146
-698,743	-29,830	0,131	-0,054
-697,729	-51,768	0,083	0,028
-696,714	-200,000	-0,003	0,084
-695,699	495,536	-0,051	-0,084
-694,685	800,000	-0,065	-0,204
-693,670	-65,693	-0,048	-0,014
-692,656	-95,555	0,037	0,007
-691,641	800,000	0,018	0,037
-690,627	-97,849	-0,043	-0,008
-689,612	-200,000	0,014	0,090
-688,597	11,673	-0,133	-0,074
-687,583	548,438	0,061	0,105
-686,568	-200,000	-0,007	-0,113
-685,554	152,583	-0,064	-0,063
-684,539	-69,842	-0,156	0,043
-683,524	503,199	-0,023	-0,038
-682,510	35,192	-0,027	0,017
-681,495	-200,000	-0,013	-0,048
-680,481	745,869	-0,085	-0,167
-679,466	316,621	-0,102	-0,140
-678,451	-200,000	-0,012	-0,092
-677,437	-140,661	0,067	0,005
-676,422	201,562	0,081	0,090
-675,408	800,000	-0,016	-0,034
-674,393	-17,748	-0,049	-0,022
-673,378	-200,000	-0,001	-0,097
-672,364	-69,184	0,067	-0,018
-671,349	-79,434	-0,154	0,037
-670,335	-200,000	0,057	-0,190
-669,320	-132,870	0,109	0,010
-668,305	786,871	0,064	-0,128
-667,291	584,274	0,052	-0,093
-666,276	800,000	0,041	0,103
-665,262	338,228	-0,165	-0,233
-664,247	-57,311	-0,059	-0,019
-663,232	-200,000	-0,000	0,072
-662,218	-200,000	-0,022	-0,186
-661,203	-28,247	0,072	-0,030
-660,189	-74,935	-0,052	0,013
-659,174	-200,000	-0,002	0,010
-658,159	-133,308	-0,099	0,009
-657,145	615,834	0,027	0,049
-656,130	-200,000	0,033	-0,149
-655,116	-200,000	-0,010	-0,076
-654,101	148,668	0,126	-0,123
-653,086	191,782	0,048	-0,053
-652,072	7,061	-0,090	-0,048
-651,057	-200,000	-0,005	0,027
-650,043	800,000	-0,028	-0,058
-649,028	-200,000	0,004	0,098
-648,014	233,489	0,107	0,128
-646,999	490,390	-0,024	0,041
-645,984	800,000	-0,034	-0,094
-644,970	-200,000	0,002	0,007
-643,955	60,185	0,061	0,044
-642,941	-54,328	-0,070	0,023
-641,926	-34,276	0,068	-0,027
-640,911	800,000	0,017	-0,034
-639,897	-200,000	0,000	0,048
-638,882	-62,188	0,077	-0,023
-637,868	-87,196	-0,040	-0,009
-636,853	-110,181	-0,134	0,020
-635,838	-200,000	-0,008	-0,155
-634,824	-200,000	-0,009	-0,167
-633,809	33,938	0,019	0,012
-632,795	-119,646	0,159	-0,020
-631,780	265,450	-0,080	0,100
-630,765	-200,000	-0,034	-0,136
-629,751	135,604	0,086	-0,081
-628,736	800,000	-0,030	-0,068
-627,722	800,000	-0,027	0,079
-626,707	114,443	-0,049	-0,043
-625,692	31,622	-0,125	0,077
-624,678	-45,263	-0,085	-0,030
-623,663	71,248	0,118	0,088
-622,649	497,936	-0,044	-0,074
-621,634	800,000	-0,036	-0,110
-620,619	800,000	-0,033	0,071
-619,605	-57,792	0,239	0,075
-618,590	-200,000	-0,011	0,049
-617,576	-200,000	-0,020	-0,069
-616,561	484,698	0,053	-0,088
-615,546	-146,341	-0,060	0,004
-614,532	-200,000	-0,026	-0,117
-613,517	7,432	-0,038	-0,021
-612,503	76,605	0,098	-0,075
-611,488	99,426	0,067	0,056
-610,474	642,354	-0,056	-0,104
-609,459	800,000	0,033	-0,085
-608,444	93,783	0,046	-0,038
-607,430	800,000	-0,050	-0,129
-606,415	-150,009	-0,099	0,005
-605,401	-16,136	-0,055	0,025
-604,386	-200,000	-0,011	0,050
-603,371	174,730	0,086	0,090
-602,357	800,000	0,027	-0,084
-601,342	-200,000	-0,030	0,109
-600,328	-121,060	-0,095	-0,011
-599,313	-107,453	-0,058	-0,009
-598,298	800,000	-0,043	0,114
-597,284	-91,258	-0,055	-0,011
-596,269	-200,000	-0,008	-0,059
-595,255	415,449	0,070	-0,108
-594,240	-200,000	0,008	0,068
-593,225	151,899	-0,071	-0,069
-592,211	800,000	-0,047	-0,141
-591,196	11,982	0,152	-0,084
-590,182	105,994	-0,099	0,084
-589,167	196,366	-0,109	-0,119
-588,152	800,000	0,054	0,125
-587,138	-200,000	0,021	0,074
-586,123	-200,000	0,005	0,027
-585,109	49,972	-0,069	-0,047
-584,094	-42,457	-0,042	-0,015
-583,079	210,546	0,059	0,066
-582,065	-75,425	0,167	-0,043
-581,050	209,306	0,097	0,109
-580,036	208,787	0,034	-0,038
-579,021	-136,007	0,202	0,017
-578,006	117,858	-0,080	0,071
-576,992	187,448	-0,068	-0,074
-575,977	-200,000	-0,018	0,236
-574,963	-129,708	0,159	0,016
-573,948	658,923	0,027	-0,051
-572,934	-60,718	-0,164	-0,050
-571,919	21,344	-0,010	-0,006
-570,904	800,000	-0,027	0,070
-569,890	591,972	0,056	-0,101
-568,875	163,611	-0,055	-0,056
-567,861	800,000	0,048	0,099
-566,846	709,004	-0,037	-0,070
-565,831	133,609	-0,060	-0,056
-564,817	182,710	-0,041	-0,043
-563,802	-60,279	-0,220	0,067
-562,788	61,477	0,017	0,012
-561,773	-5,779	0,089	0,044
-560,758	7,546	-0,028	0,015
-559,744	-45,193	-0,065	0,023
-558,729	433,390	-0,020	-0,031
-557,715	-200,000	-0,015	0,052
-556,700	-23,911	-0,185	0,079
-555,685	131,333	-0,147	-0,136
-554,671	-114,126	0,087	-0,012
-553,656	520,541	0,030	-0,050
-552,642	-200,000	-0,027	-0,148
-551,627	495,842	0,054	-0,089
-550,612	-29,971	-0,052	-0,021
-549,598	-200,000	-0,004	-0,019
-548,583	-47,709	-0,152	-0,053
-547,569	-200,000	-0,020	0,144
-546,554	173,190	0,089	0,093
-545,539	150,778	-0,064	-0,062
-544,525	199,661	-0,083	-0,092
-543,510	452,709	-0,006	-0,010
-542,496	-200,000	0,000	0,007
-541,481	531,458	0,103	-0,175
-540,466	-40,403	0,063	-0,023
-539,452	91,844	0,106	-0,086
-538,437	-200,000	-0,007	0,088
-537,423	-98,906	0,074	0,013
-536,408	800,000	0,029	-0,065
-535,393	33,059	-0,090	-0,056
-534,379	-165,851	0,083	0,003
-533,364	342,541	-0,076	-0,107
-532,350	480,072	0,049	0,080
-531,335	197,491	0,058	0,064
-530,321	-200,000	0,003	0,084
-529,306	369,469	-0,050	0,072
-528,291	-200,000	0,022	-0,084
-527,277	110,790	-0,077	-0,067
-526,262	236,001	0,078	0,093
-525,248	388,891	0,019	0,029
-524,233	800,000	-0,030	0,073
-523,218	378,003	-0,110	0,162
-522,204	-143,594	-0,057	-0,004
-521,189	-132,531	-0,023	-0,002
-520,175	366,906	-0,045	-0,065
-519,160	12,290	-0,104	-0,057
-518,145	-30,458	0,118	-0,048
-517,131	390,371	-0,065	0,098
-516,116	278,800	0,100	-0,128
-515,102	-146,362	-0,153	-0,009
-514,087	-130,586	-0,050	0,005
-513,072	800,000	-0,048	-0,097
-512,058	51,828	-0,097	0,066
-511,043	-146,578	0,164	0,010
-510,029	-4,024	0,104	0,052
-509,014	800,000	0,010	-0,020
-507,999	-34,426	0,063	-0,025
-506,985	355,439	0,111	-0,158
-505,970	93,852	-0,149	-0,121
-504,956	128,200	-0,048	-0,043
-503,941	800,000	-0,004	-0,008
-502,926	-156,689	0,038	0,002
-501,912	-11,896	-0,114	-0,054
-500,897	348,027	-0,036	0,052
-499,883	141,412	-0,038	-0,036
-498,868	415,011	0,023	-0,035
-497,853	34,972	0,012	0,008
-496,839	-200,000	0,003	0,081
-495,824	-76,371	0,054	-0,014
-494,810	800,000	0,069	-0,137
-493,795	-73,001	-0,117	0,031
-492,781	315,051	-0,061	0,083
-491,766	-148,165	-0,056	0,003
-490,751	291,181	-0,056	-0,073
-489,737	-200,000	0,004	-0,034
-488,722	-200,000	0,007	0,072
-487,708	-200,000	-0,020	0,083
-486,693	-200,000	-0,018	0,088
-485,678	71,086	-0,079	-0,059
-484,664	218,576	0,091	-0,105
-483,649	-200,000	0,000	-0,072
-482,635	433,438	0,033	-0,052
-481,620	-200,000	-0,016	-0,137
-480,605	-200,000	-0,003	0,024
-479,591	467,021	0,159	0,257
-478,576	-3,124	-0,098	0,049
-477,562	-57,605	0,068	-0,021
-476,547	-200,000	-0,014	-0,164
-475,532	-200,000	-0,003	0,024
-474,518	-98,185	0,154	-0,028
-473,503	800,000	-0,042	0,098
-472,489	-163,916	0,186	0,006
-471,474	623,700	0,018	0,033
-470,459	-200,000	0,008	-0,046
-469,445	-46,126	0,018	-0,006
-468,430	273,442	-0,100	-0,127
-467,416	20,640	-0,097	0,056
-466,401	25,145	-0,115	0,068
-465,386	-128,271	0,226	-0,023
-464,372	-200,000	0,007	0,078
-463,357	9,675	-0,183	-0,099
-462,343	-200,000	0,001	-0,015
-461,328	800,000	0,061	-0,123
-460,313	59,067	0,109	-0,077
-459,299	-10,126	0,084	-0,040
-458,284	35,183	-0,022	-0,014
-457,270	-200,000	-0,010	-0,051
-456,255	37,078	-0,004	0,002
-455,241	155,668	-0,019	-0,019
-454,226	-87,489	-0,137	-0,029
-453,211	-107,095	0,130	-0,020
-452,197	16,720	0,072	0,041
-451,182	-200,000	-0,005	0,028
-450,168	-141,204	0,148	-0,011
-449,153	-116,661	0,107	0,014
-448,138	-200,000	-0,026	-0,153
-447,124	-179,985	0,077	-0,001
-446,109	-2,571	-0,127	-0,064
-445,095	299,583	-0,087	-0,115
-444,080	128,388	0,131	0,119
-443,065	101,854	0,053	-0,044
-442,051	-64,359	-0,162	-0,047
-441,036	-171,552	0,124	-0,003
-440,022	99,846	-0,149	-0,123
-439,007	327,984	0,085	0,118
-437,992	-200,000	0,019	0,070
-436,978	-112,462	0,099	0,014
-435,963	-189,416	-0,087	-0,001
-434,949	-200,000	0,021	-0,079
-433,934	-200,000	-0,002	-0,084
-432,919	48,813	-0,076	-0,051
-431,905	772,063	-0,015	-0,029
-430,890	-143,721	-0,106	-0,007
-429,876	-95,402	0,069	0,013
-428,861	434,166	-0,030	-0,047
-427,846	-39,481	-0,031	-0,012
-426,832	-200,000	0,015	-0,088
-425,817	-160,723	0,036	-0,001
-424,803	32,293	0,046	0,028
-423,788	-4,158	0,058	-0,029
-422,773	800,000	-0,023	0,058
-421,759	-200,000	0,029	0,151
-420,744	-200,000	0,015	0,167
-419,730	-92,095	0,030	0,006
-418,715	557,632	-0,019	-0,032
-417,701	-200,000	-0,006	-0,066
-416,686	166,712	0,092	0,093
-415,671	-196,751	0,175	0,001
-414,657	-200,000	0,011	0,078
-413,642	-200,000	0,002	-0,017
-412,628	563,102	-0,060	-0,105
-411,613	-8,070	0,076	-0,036
-410,598	202,152	0,072	-0,079
-409,584	161,938	0,038	0,038
-408,569	-38,238	-0,073	-0,028
-407,555	-125,586	-0,045	-0,005
-406,540	23,096	0,080	0,047
-405,525	-104,281	-0,092	-0,015
-404,511	800,000	0,023	0,045
-403,496	-200,000	-0,007	-0,094
-402,482	-131,452	0,117	-0,011
-401,467	327,166	0,033	0,045
-400,452	800,000	0,029	-0,078
-399,438	433,682	-0,031	-0,049
-398,423	-67,007	0,039	0,011
-397,409	288,658	-0,112	-0,145
-396,394	91,064	-0,040	-0,032
-395,379	800,000	-0,046	0,140
-394,365	211,159	0,138	0,156
-393,350	363,417	-0,036	0,052
-392,336	-116,922	0,094	0,012
-391,321	-48,441	0,032	0,011
-390,306	296,315	-0,096	-0,127
-389,292	-116,439	0,052	0,007
-388,277	39,074	-0,156	-0,099
-387,263	-200,000	-0,031	0,100
-386,248	-200,000	0,032	0,131
-385,233	-82,328	-0,086	0,020
-384,219	7,827	-0,100	-0,053
-383,204	287,574	-0,047	0,061
-382,190	-37,520	-0,137	-0,052
-381,175	328,624	-0,056	-0,077
-380,160	59,623	0,168	-0,118
-379,146	51,396	0,105	-0,071
-378,131	800,000	-0,031	0,082
-377,117	-41,539	-0,044	0,016
-376,102	-50,662	-0,126	0,042
-375,088	343,890	-0,119	-0,167
-374,073	-77,796	-0,140	-0,034
-373,058	42,768	0,133	0,087
-372,044	1,690	-0,012	0,006
-371,029	81,781	0,044	-0,034
-370,015	147,778	0,061	0,059
-369,000	58,052	-0,057	-0,040
-367,985	-64,888	-0,153	-0,044
-366,971	-91,021	-0,024	0,005
-365,956	120,058	0,041	-0,036
-364,942	40,087	0,071	-0,045
-363,927	-143,939	0,076	0,005
-362,912	-200,000	-0,012	0,059
-361,898	62,145	0,038	-0,027
-360,883	26,152	-0,199	0,118
-359,869	-47,578	-0,140	0,048
-358,854	-200,000	0,004	0,093
-357,839	290,294	0,041	-0,054
-356,825	-200,000	0,013	0,084
-355,810	-200,000	-0,024	0,079
-354,796	-125,050	0,118	-0,013
-353,781	-137,863	-0,050	0,004
-352,766	-200,000	-0,028	-0,107
-351,752	800,000	-0,047	-0,101
-350,737	-200,000	0,018	-0,062
-349,723	-78,012	0,076	0,019
-348,708	-101,222	0,067	-0,012
-347,693	-200,000	0,000	0,056
-346,679	31,374	-0,163	-0,100
-345,664	800,000	-0,048	0,095
-344,650	18,810	-0,100	-0,057
-343,635	-143,839	0,175	0,012
-342,620	-149,765	0,058	0,003
-341,606	-200,000	-0,011	0,070
-340,591	-8,615	-0,049	0,023
-339,577	531,978	0,007	-0,011
-338,562	-200,000	-0,013	0,056
-337,548	-67,975	-0,083	0,023
-336,533	131,800	0,123	0,112
-335,518	678,187	-0,064	0,120
-334,504	-200,000	-0,006	-0,065
-333,489	-200,000	-0,005	-0,035
-332,475	-111,571	-0,085	0,012
-331,460	-109,424	-0,115	0,017
-330,445	79,889	-0,011	0,008
-329,431	309,027	0,051	-0,068
-328,416	800,000	-0,014	0,035
-327,402	800,000	0,043	-0,092
-326,387	-200,000	0,012	-0,046
-325,372	356,712	-0,166	-0,236
-324,358	-200,000	0,037	-0,211
-323,343	52,673	-0,025	0,017
-322,329	-200,000	-0,024	0,098
-321,314	157,654	0,085	-0,084
-320,299	-48,487	0,045	0,015
-319,285	4,642	0,150	0,078
-318,270	154,182	0,015	0,015
-317,256	800,000	0,025	-0,051
-316,241	-200,000	-0,026	-0,135
-315,226	192,700	-0,062	-0,067
-314,212	359,835	0,079	0,113
-313,197	343,939	0,058	-0,081
-312,183	112,121	-0,131	-0,113
-311,168	-109,908	-0,090	-0,013
-310,153	415,907	-0,032	-0,049
-309,139	169,370	-0,076	-0,078
-308,124	-123,253	0,079	0,009
-307,110	59,707	-0,046	-0,032
-306,095	-200,000	0,008	0,057
-305,080	581,244	-0,081	0,142
-304,066	-15,833	-0,059	-0,027
-303,051	-150,192	-0,065	-0,004
-302,037	-200,000	0,015	-0,161
-301,022	-200,000	0,040	0,133
-300,008	98,825	-0,048	-0,040
-298,993	-200,000	0,026	0,109
-297,978	291,351	-0,124	0,161
-296,964	-30,256	0,132	0,053
-295,949	301,076	0,009	0,012
-294,935	800,000	0,028	-0,071
-293,920	-200,000	-0,007	0,137
-292,905	-3,100	-0,012	0,006
-291,891	-92,381	-0,045	-0,009
-290,876	505,621	0,120	0,199
-289,862	1,883	0,021	-0,011
-288,847	-200,000	-0,011	-0,055
-287,832	713,262	-0,044	-0,083
-286,818	229,139	0,012	0,014
-285,803	285,968	0,049	-0,062
-284,789	324,609	0,088	0,120
-283,774	-200,000	0,016	0,088
-282,759	267,809	-0,059	-0,074
-281,745	-76,172	-0,121	-0,030
-280,730	143,502	-0,096	-0,091
-279,716	33,603	0,038	0,024
-278,701	-200,000	-0,029	-0,123
-277,686	-120,617	0,176	-0,021
-276,672	162,481	-0,046	0,046
-275,657	301,092	0,097	0,128
-274,643	-200,000	0,005	-0,044
-273,628	-10,841	0,063	0,029
-272,613	-6,483	-0,039	0,019
-271,599	800,000	0,037	0,093
-270,584	-50,466	0,058	-0,019
-269,570	148,820	-0,048	-0,047
-268,555	-14,375	0,141	-0,064
-267,540	-200,000	0,010	0,058
-266,526	-16,831	0,025	-0,011
-265,511	104,688	0,030	-0,025
-264,497	-200,000	-0,017	-0,072
-263,482	38,394	0,175	-0,111
-262,467	28,415	-0,094	0,056
-261,453	-99,646	-0,200	0,035
-260,438	-18,049	0,090	-0,040
-259,424	-200,000	-0,004	0,044
-258,409	-75,198	-0,085	-0,021
-257,395	-78,302	-0,126	-0,031
-256,380	641,801	0,098	0,178
-255,365	244,590	-0,061	0,073
-254,351	168,671	-0,088	0,089
-253,336	-0,374	0,083	0,042
-252,322	229,586	-0,037	-0,043
-251,307	137,954	0,013	0,012
-250,292	800,000	-0,018	0,056
-249,278	800,000	0,028	-0,064
-248,263	509,080	0,069	-0,114
-247,249	15,138	-0,040	0,022
-246,234	800,000	0,014	0,031
-245,219	40,132	-0,121	0,077
-244,205	330,259	0,061	-0,083
-243,190	-2,845	-0,165	-0,081
-242,176	-200,000	-0,013	0,135
-241,161	36,464	0,178	0,111
-240,146	-13,993	0,123	0,056
-239,132	443,959	0,060	-0,093
-238,117	109,311	-0,066	-0,056
-237,103	800,000	0,081	0,210
-236,088	497,464	-0,018	0,030
-235,073	-200,000	-0,007	0,054
-234,059	-200,000	0,027	0,087
-233,044	-200,000	0,012	0,052
-232,030	-45,811	-0,067	0,023
-231,015	-105,121	0,042	0,007
-230,000	800,000	-0,086	0,171
-228,986	273,562	0,056	-0,071
-227,971	800,000	-0,057	0,139
-226,957	-200,000	-0,004	0,094
-225,942	-51,801	-0,148	0,049
-224,927	628,547	0,023	0,041
-223,913	256,635	0,042	0,051
-222,898	120,875	0,087	-0,077
-221,884	-112,554	-0,199	-0,028
-220,869	-200,000	-0,036	-0,127
-219,855	-17,021	-0,171	-0,076
-218,840	302,637	0,022	0,029
-217,825	-200,000	-0,001	-0,024
-216,811	-200,000	-0,020	0,091
-215,796	-200,000	0,028	-0,106
-214,782	-200,000	0,021	0,140
-213,767	37,941	-0,114	0,072
-212,752	-156,053	0,138	0,006
-211,738	-69,367	0,079	0,021
-210,723	-200,000	0,017	-0,100
-209,709	27,812	-0,020	-0,012
-208,694	128,382	0,081	0,073
-207,679	281,487	-0,049	-0,063
-206,665	-97,058	0,170	0,031
-205,650	360,069	0,080	0,115
-204,636	-200,000	-0,002	0,067
-203,621	-130,698	-0,094	-0,009
-202,606	-200,000	-0,026	0,147
-201,592	99,964	-0,063	0,052
-200,577	-200,000	-0,005	-0,068
-199,563	-88,689	0,095	0,020
-198,548	-200,000	0,004	-0,051
-197,533	-12,617	0,087	-0,040
-196,519	702,318	-0,047	0,089
-195,504	69,824	-0,017	-0,012
-194,490	35,591	0,108	-0,067
-193,475	-4,823	0,066	0,032
-192,460	-117,663	-0,074	0,009
-191,446	-200,000	0,013	0,043
-190,431	-200,000	0,015	0,112
-189,417	-49,637	-0,101	0,034
-188,402	-124,902	-0,020	0,002
-187,387	94,323	0,043	-0,035
-186,373	-200,000	-0,029	0,156
-185,358	-200,000	-0,002	-0,066
-184,344	-122,395	0,158	-0,018
-183,329	-3,270	0,119	-0,059
-182,315	536,883	-0,006	0,010
-181,300	-200,000	-0,007	-0,081
-180,285	-200,000	0,004	0,059
-179,271	246,711	-0,093	0,111
-178,256	-200,000	-0,000	0,090
-177,242	800,000	0,020	-0,055
-176,227	-145,471	0,092	-0,006
-175,212	-200,000	0,011	0,161
-174,198	-95,188	-0,119	-0,023
-173,183	-62,933	-0,079	-0,023
-172,169	-131,515	-0,095	0,009
-171,154	11,528	0,143	0,077
-170,139	301,346	0,080	0,104
-169,125	800,000	0,036	0,099
-168,110	-144,574	0,093	0,006
-167,096	-68,840	0,181	0,049
-166,081	7,464	0,116	0,061
-165,066	132,782	-0,033	0,031
-164,052	-200,000	0,011	0,146
-163,037	-200,000	-0,016	0,051
-162,023	683,890	0,064	0,118
-161,008	800,000	-0,017	-0,053
-159,993	146,502	0,031	-0,030
-158,979	-200,000	0,015	0,225
-157,964	-200,000	0,008	0,043
-156,950	-200,000	-0,036	-0,178
-155,935	-97,678	0,094	-0,017
-154,920	-200,000	0,021	-0,065
-153,906	-66,144	0,113	0,032
-152,891	-56,130	-0,077	-0,024
-151,877	-200,000	0,005	0,020
-150,862	60,027	-0,046	-0,032
-149,847	32,617	-0,085	-0,052
-148,833	800,000	-0,080	-0,237
-147,818	-21,346	0,028	0,012
-146,804	-191,577	0,100	0,001
-145,789	588,903	-0,029	-0,051
-144,775	-117,277	-0,129	0,016
-143,760	-47,199	-0,040	0,014
-142,745	100,012	0,123	-0,101
-141,731	800,000	0,052	0,113
-140,716	51,008	0,029	0,019
-139,702	136,533	0,088	0,081
-138,687	143,087	-0,037	-0,035
-137,672	-200,000	-0,011	0,040
-136,658	-200,000	-0,029	-0,143
-135,643	800,000	-0,009	0,019
-134,629	393,654	0,071	-0,105
-133,614	89,609	-0,081	-0,064
-132,599	3,200	0,088	0,045
-131,585	-61,292	0,099	-0,029
-130,570	20,608	0,006	-0,004
-129,556	-66,173	-0,008	0,002
-128,541	108,855	-0,062	-0,052
-127,526	23,483	0,067	0,039
-126,512	-131,451	-0,085	0,008
-125,497	-200,000	0,024	0,108
-124,483	800,000	-0,018	-0,040
-123,468	800,000	0,015	0,036
-122,453	689,932	0,049	0,090
-121,439	-13,527	0,065	-0,030
-120,424	184,116	-0,018	-0,018
-119,410	559,327	0,060	0,103
-118,395	-200,000	-0,004	-0,024
-117,380	39,530	-0,105	-0,066
-116,366	-200,000	-0,019	-0,081
-115,351	130,907	-0,050	0,046
-114,337	153,854	-0,027	0,026
-113,322	116,466	-0,021	0,018
-112,307	-200,000	0,032	-0,147
-111,293	190,068	-0,041	0,044
-110,278	-69,026	0,180	0,049
-109,264	800,000	0,012	-0,032
-108,249	97,377	-0,143	-0,116
-107,234	-2,795	0,068	-0,033
-106,220	-51,411	-0,104	-0,034
-105,205	-200,000	-0,015	0,076
-104,191	-22,584	-0,036	-0,015
-103,176	-2,514	0,111	0,055
-102,162	231,701	-0,039	0,046
-101,147	463,054	-0,025	0,039
-100,132	-140,446	-0,071	0,005
-99,118	208,669	0,037	-0,041
-98,103	465,704	0,042	-0,066
-97,089	181,760	-0,063	-0,066
-96,074	-17,172	0,033	-0,015
-95,059	-7,215	0,092	0,044
-94,045	81,850	0,044	0,034
-93,030	105,040	-0,100	-0,084
-92,016	37,975	-0,147	-0,092
-91,001	-96,734	-0,145	0,027
-89,986	-102,953	0,031	0,005
-88,972	18,838	-0,110	0,062
-87,957	565,953	0,024	-0,042
-86,943	-164,227	-0,015	-0,000
-85,928	-18,573	0,026	-0,011
-84,913	319,016	-0,043	0,057
-83,899	369,849	-0,085	0,122
-82,884	276,736	0,049	0,062
-81,870	268,404	-0,091	0,113
-80,855	-200,000	-0,015	-0,082
-79,840	-200,000	0,024	0,106
-78,826	150,646	-0,116	0,111
-77,811	-4,173	0,074	0,036
-76,797	53,828	-0,145	-0,098
-75,782	-200,000	0,010	-0,053
-74,767	800,000	0,035	0,092
-73,753	-111,244	-0,091	0,013
-72,738	9,206	-0,122	0,065
-71,724	-200,000	-0,034	-0,161
-70,709	-200,000	-0,026	0,089
-69,694	800,000	0,015	0,030
-68,680	190,314	0,081	0,086
-67,665	-200,000	0,002	0,153
-66,651	-200,000	0,004	0,015
-65,636	269,896	0,013	0,016
-64,622	800,000	-0,045	-0,091
-63,607	-200,000	-0,041	-0,180
-62,592	-9,326	0,076	-0,035
-61,578	-200,000	0,047	-0,165
-60,563	189,046	0,015	-0,016
-59,549	-16,013	-0,113	-0,050
-58,534	41,829	-2,252	-1,438
-57,519	517,900	-1,060	-1,756
-56,505	-200,000	-0,479	-4,391
-55,490	799,294	0,826	1,615
-54,476	800,000	5,260	11,578
-53,461	-200,000	22,382	346,868
-52,446	800,000	756,627	2290,142
-51,432	532,791	1642,433	2753,190
-50,417	67,814	1641,344	1182,212
-49,403	15,640	1518,948	839,748
-48,388	9,829	1445,138	771,049
-47,373	19,279	1437,862	812,141
-46,359	13,302	1426,388	777,439
-45,344	8,134	1422,528	750,872
-44,330	8,087	1420,493	749,547
-43,315	8,080	1418,462	748,414
-42,300	8,056	1416,777	747,380
-41,286	8,085	1415,550	746,839
-40,271	8,021	1414,304	745,853
-39,257	8,088	1413,219	745,563
-38,242	8,097	1411,969	744,917
-37,227	8,076	1410,967	744,262
-36,213	8,054	1409,690	743,456
-35,198	8,117	1408,310	742,994
-34,184	8,099	1407,528	742,465
-33,169	7,967	1406,565	741,311
-32,154	8,073	1405,598	741,266
-31,140	8,041	1404,097	740,299
-30,125	8,081	1402,940	739,845
-29,111	8,095	1401,548	739,145
-28,096	8,122	1400,310	738,590
-27,082	8,016	1399,258	737,513
-26,067	8,004	1398,254	736,899
-25,052	7,997	1397,130	736,243
-24,038	8,038	1396,184	735,906
-23,023	7,976	1395,503	735,231
-22,009	7,986	1394,366	734,651
-20,994	7,943	1393,388	733,903
-19,979	7,990	1392,226	733,483
-18,965	7,947	1391,351	732,792
-17,950	7,958	1390,359	732,293
-16,936	7,939	1389,593	731,769
-15,921	7,895	1388,583	731,008
-14,906	7,943	1387,567	730,664
-13,892	7,949	1386,804	730,261
-12,877	7,931	1385,782	729,612
-11,863	7,893	1385,152	729,074
-10,848	7,926	1384,066	728,627
-9,833	7,872	1383,165	727,875
-8,819	7,811	1382,364	727,145
-7,804	7,800	1381,588	726,658
-6,790	7,851	1380,448	726,265
-5,775	7,818	1379,514	725,593
-4,760	7,852	1378,530	725,198
-3,746	7,919	1377,399	724,883
-2,731	7,817	1376,745	724,045
-1,717	7,835	1375,837	723,618
-0,702	7,840	1374,234	722,771
0,313	11,706	1284,318	693,011
1,327	27,301	676,703	399,881
2,342	42,706	116,250	74,487
3,356	-2,406	16,598	8,172
4,371	13,207	3,747	2,040
5,386	24,217	1,491	0,866
6,400	-200,000	0,175	0,601
7,415	800,000	-0,096	-0,256
8,429	194,012	-0,164	-0,175
9,444	68,060	-0,275	-0,198
10,459	-140,441	-0,196	0,014
11,473	142,459	-0,201	-0,188
12,488	-8,994	-0,364	-0,171
13,502	-69,922	-0,412	-0,110
14,517	31,361	-0,273	-0,165
15,531	524,141	-0,240	-0,400
16,546	-31,370	-0,291	-0,115
17,561	319,714	-0,299	-0,401
18,575	-155,284	-0,249	-0,011
19,590	105,011	-0,233	-0,193
20,604	-96,930	-0,277	-0,051
21,619	17,057	-0,415	-0,231
22,634	177,232	-0,387	-0,397
23,648	-12,566	-0,507	-0,232
24,663	166,962	-0,306	-0,306
25,677	14,293	-0,168	-0,092
26,692	141,104	-0,258	-0,240
27,707	-28,064	-0,320	-0,130
28,721	65,968	-0,369	-0,263
29,736	31,700	-0,373	-0,225
30,750	8,069	-0,392	-0,206
31,765	57,964	-0,328	-0,226
32,780	368,028	-0,210	-0,299
33,794	3,528	-0,448	-0,229
34,809	10,922	-0,273	-0,146
35,823	124,675	-0,414	-0,366
36,838	57,379	-0,439	-0,301
37,853	142,517	-0,360	-0,336
38,867	143,286	-0,433	-0,405
39,882	-29,914	-0,401	-0,160
40,896	13,706	-0,355	-0,193
41,911	190,348	-0,305	-0,322
42,926	82,051	-0,348	-0,265
43,940	81,261	-0,383	-0,290
44,955	-23,285	-0,461	-0,194
45,969	186,324	-0,385	-0,403
46,984	172,556	-0,291	-0,294
47,999	49,755	-0,256	-0,169
49,013	104,131	-0,284	-0,234
50,028	163,671	-0,215	-0,213
51,042	24,214	-0,423	-0,244
52,057	-34,620	-0,396	-0,151
53,071	49,923	-0,309	-0,205
54,086	121,755	-0,308	-0,270
55,101	59,109	-0,365	-0,252
56,115	75,237	-0,283	-0,209
57,130	-69,280	-0,359	-0,096
58,144	152,839	-0,292	-0,280
59,159	-3,449	-0,544	-0,264
60,174	6,148	-0,325	-0,169
61,188	-83,130	-0,266	-0,059
62,203	137,060	-0,244	-0,224
63,217	-42,516	-0,350	-0,124
64,232	-44,023	-0,206	-0,072
65,247	-36,293	-0,432	-0,162
66,261	122,615	-0,368	-0,323
67,276	42,630	-0,376	-0,239
68,290	68,068	-0,339	-0,243
69,305	459,819	-0,158	-0,248
70,320	12,895	-0,436	-0,235
71,334	84,245	-0,287	-0,220
72,349	-52,574	-0,290	-0,093
73,363	106,231	-0,282	-0,234
74,378	136,924	-0,402	-0,368
75,393	129,831	-0,305	-0,274
76,407	24,878	-0,253	-0,146
77,422	76,512	-0,260	-0,193
78,436	-16,665	-0,306	-0,135
79,451	-12,611	-0,298	-0,135
80,466	590,162	-0,209	-0,363
81,480	130,459	-0,182	-0,163
82,495	95,917	-0,181	-0,145
83,509	120,495	-0,253	-0,220
84,524	-73,959	-0,394	-0,099
85,539	-44,414	-0,307	-0,107
86,553	67,461	-0,371	-0,264
87,568	1,405	-0,379	-0,190
88,582	48,878	-0,391	-0,256
89,597	70,908	-0,335	-0,243
90,611	125,931	-0,279	-0,247
91,626	96,611	-0,255	-0,204
92,641	23,731	-0,264	-0,151
93,655	-28,171	-0,278	-0,112
94,670	-67,374	-0,322	-0,088
95,684	174,552	-0,292	-0,296
96,699	35,266	-0,294	-0,180
97,714	52,171	-0,210	-0,140
98,728	-2,414	-0,342	-0,167
99,743	-65,458	-0,428	-0,120
100,757	551,382	-0,097	-0,163
101,772	33,922	-0,272	-0,165
102,787	127,666	-0,279	-0,248
103,801	49,554	-0,347	-0,228
104,816	3,388	-0,174	-0,088
105,830	83,758	-0,221	-0,168
106,845	54,923	-0,197	-0,133
107,860	12,396	-0,241	-0,129
108,874	47,392	-0,142	-0,092
109,889	388,340	-0,161	-0,234
110,903	127,512	-0,215	-0,191
111,918	74,349	-0,159	-0,116
112,933	125,655	-0,271	-0,239
113,947	125,458	-0,182	-0,160
114,962	-99,626	-0,283	0,049
115,976	-18,599	-0,317	-0,138
116,991	-24,524	-0,306	-0,127
118,006	59,768	-0,358	-0,246
119,020	-116,126	-0,328	-0,042
120,035	3,530	-0,225	-0,114
121,049	315,624	-0,197	-0,260
122,064	238,338	-0,272	-0,316
123,079	101,721	-0,233	-0,190
124,093	259,595	-0,203	-0,244
125,108	250,738	-0,193	-0,229
126,122	-16,538	-0,278	-0,122
127,137	101,420	-0,157	-0,128
128,151	-16,987	-0,215	0,094
129,166	-41,493	-0,276	-0,098
130,181	472,121	-0,185	-0,291
131,195	63,624	-0,243	-0,170
132,210	84,030	-0,331	-0,251
133,224	106,577	-0,261	-0,216
134,239	-200,000	0,000	-0,135
135,254	48,326	-0,188	-0,122
136,268	-109,630	-0,183	-0,027
137,283	56,769	-0,279	-0,189
138,297	204,262	-0,218	-0,235
139,312	19,921	-0,329	-0,184
140,327	12,129	-0,270	-0,144
141,341	12,599	-0,213	-0,114
142,356	202,585	-0,111	-0,119
143,370	-3,802	-0,202	-0,097
144,385	404,043	-0,112	-0,165
145,400	76,264	-0,190	-0,140
146,414	281,761	-0,287	-0,359
147,429	205,319	-0,196	-0,212
148,443	-200,000	-0,029	-0,302
149,458	144,973	-0,177	-0,165
150,473	214,241	-0,208	-0,230
151,487	55,311	-0,344	-0,231
152,502	423,149	-0,219	-0,329
153,516	-43,310	-0,341	-0,119
154,531	43,055	-0,296	-0,187
155,546	70,121	-0,328	-0,236
156,560	-88,817	-0,219	-0,045
157,575	5,264	-0,198	-0,101
158,589	-43,127	-0,256	-0,090
159,604	86,369	-0,206	-0,158
160,619	50,195	-0,278	-0,182
161,633	247,048	-0,252	-0,297
162,648	77,831	-0,266	-0,197
163,662	20,033	-0,196	-0,110
164,677	108,092	-0,267	-0,221
165,692	-22,363	-0,163	-0,068
166,706	370,224	-0,233	-0,329
167,721	332,034	-0,167	-0,224
168,735	800,000	-0,138	-0,267
169,750	5,712	-0,305	-0,156
170,764	135,214	-0,153	-0,139
171,779	241,657	-0,147	-0,170
172,794	22,127	-0,321	-0,182
173,808	160,566	-0,266	-0,258
174,823	547,077	-0,158	-0,264
175,837	-200,000	-0,291	0,000
176,852	-83,533	-0,173	-0,038
177,867	7,774	-0,284	-0,147
178,881	233,387	-0,070	-0,080
179,896	77,873	-0,143	-0,106
180,910	11,737	-0,244	-0,130
181,925	-16,064	-0,242	-0,106
182,940	-58,040	-0,341	-0,103
183,954	139,434	-0,264	-0,241
184,969	21,617	-0,221	0,124
185,983	-138,935	-0,213	-0,016
186,998	-41,491	-0,204	-0,072
188,013	-156,742	-0,156	-0,007
189,027	27,579	-0,310	-0,181
190,042	-91,890	-0,377	-0,074
191,056	196,942	-0,177	-0,187
192,071	-40,337	-0,304	-0,109
193,086	-127,264	-0,191	-0,019
194,100	250,259	-0,129	-0,152
195,115	227,620	-0,160	-0,181
196,129	64,095	-0,181	-0,126
197,144	-9,931	-0,231	-0,106
198,159	97,415	-0,147	-0,117
199,173	190,955	-0,160	-0,167
200,188	-101,767	-0,329	-0,055
201,202	-20,815	-0,225	-0,095
202,217	-18,379	-0,259	-0,111
203,232	190,083	-0,224	-0,233
204,246	-54,498	-0,309	-0,096
205,261	278,550	-0,144	-0,178
206,275	-104,528	-0,170	-0,027
207,290	42,776	-0,206	-0,130
208,304	-9,711	-0,246	-0,113
209,319	257,926	-0,156	-0,186
210,334	619,196	-0,125	-0,218
211,348	13,810	-0,267	-0,143
212,363	454,961	-0,161	-0,248
213,377	204,309	-0,101	-0,108
214,392	-16,319	-0,235	0,103
215,407	418,429	-0,027	-0,041
216,421	-115,014	-0,119	-0,016
217,436	58,666	-0,256	-0,174
218,450	588,003	-0,155	-0,265
219,465	134,049	-0,237	-0,213
220,480	68,205	-0,191	-0,135
221,494	-128,511	-0,137	-0,013
222,509	-80,724	-0,182	0,041
223,523	89,542	-0,236	-0,181
224,538	218,239	-0,175	-0,193
225,553	60,235	-0,252	-0,172
226,567	-41,859	-0,203	-0,072
227,582	65,585	-0,035	-0,024
228,596	-137,791	-0,150	0,011
229,611	-200,000	-0,027	-0,096
230,626	-200,000	-0,017	-0,184
231,640	387,308	-0,033	-0,047
232,655	-39,707	-0,256	-0,092
233,669	402,007	-0,133	-0,193
234,684	176,287	-0,162	-0,162
235,699	-41,662	-0,045	-0,016
236,713	-94,140	-0,280	-0,052
237,728	-196,298	-0,175	0,001
238,742	-53,635	-0,170	0,053
239,757	5,046	-0,143	-0,073
240,772	56,791	-0,314	-0,211
241,786	595,936	-0,164	-0,281
242,801	9,163	-0,156	-0,081
243,815	39,047	-0,173	-0,107
244,830	-200,000	-0,038	-0,190
245,844	45,065	-0,217	-0,138
246,859	-58,820	-0,300	-0,089
247,874	44,617	-0,174	-0,110
248,888	162,195	-0,178	-0,173
249,903	-36,947	-0,182	-0,067
250,917	19,635	-0,216	-0,120
251,932	13,734	-0,058	-0,031
252,947	120,574	-0,157	-0,135
253,961	384,064	-0,130	-0,185
254,976	-174,619	-0,127	-0,002
255,990	255,561	-0,101	-0,120
257,005	-12,125	-0,104	-0,047
258,020	542,346	-0,040	-0,066
259,034	-181,352	-0,095	-0,001
260,049	-3,817	-0,230	-0,110
261,063	87,827	-0,105	-0,080
262,078	108,661	-0,147	-0,121
263,093	-167,518	-0,195	-0,005
264,107	227,638	-0,076	-0,085
265,122	35,003	-0,044	-0,026
266,136	-200,000	0,047	-0,259
267,151	77,173	-0,152	-0,111
268,166	249,020	-0,165	-0,193
269,180	-93,637	-0,232	-0,044
270,195	320,694	-0,113	-0,148
271,209	-41,601	-0,158	-0,056
272,224	-162,821	-0,182	0,006
273,239	5,756	-0,187	-0,095
274,253	-77,469	-0,157	-0,037
275,268	51,674	-0,162	-0,106
276,282	-200,000	-0,020	-0,099
277,297	130,919	-0,238	-0,210
278,312	800,000	-0,072	-0,187
279,326	-64,018	-0,321	-0,090
280,341	-60,961	-0,233	-0,067
281,355	216,790	-0,108	-0,119
282,370	-20,139	-0,088	-0,037
283,384	262,659	-0,156	-0,186
284,399	346,503	-0,191	-0,259
285,414	373,825	-0,103	-0,144
286,428	15,595	-0,141	-0,076
287,443	-83,645	-0,144	-0,031
288,457	-26,458	-0,126	0,051
289,472	800,000	-0,055	-0,153
290,487	121,087	-0,173	-0,148
291,501	142,109	-0,140	-0,128
292,516	-200,000	-0,022	-0,082
293,530	-106,247	-0,149	-0,023
294,545	536,125	-0,091	-0,150
295,560	147,292	-0,108	-0,100
296,574	-139,684	-0,202	-0,015
297,589	-48,581	-0,163	-0,054
298,603	144,683	-0,252	-0,232
299,618	-200,000	-0,019	-0,160
300,633	-200,000	0,002	-0,122
301,647	37,615	-0,236	-0,143
302,662	315,424	-0,140	-0,182
303,676	114,806	-0,165	-0,138
304,691	95,534	-0,202	-0,158
305,706	232,957	-0,217	-0,245
306,720	3,577	-0,127	-0,063
307,735	253,299	-0,193	-0,227
308,749	-200,000	-0,020	-0,110
309,764	267,793	-0,078	-0,094
310,779	-95,301	-0,088	0,016
311,793	-34,918	-0,168	-0,062
312,808	130,565	-0,150	-0,132
313,822	25,731	-0,077	-0,044
314,837	-145,880	-0,143	-0,009
315,852	393,271	-0,079	-0,113
316,866	364,869	-0,067	-0,093
317,881	-200,000	0,003	-0,073
318,895	-14,926	-0,177	-0,077
319,910	-65,807	-0,249	-0,068
320,925	53,387	-0,241	-0,158
321,939	53,246	-0,096	-0,063
322,954	-200,000	-0,017	-0,157
323,968	230,861	-0,137	-0,154
324,983	800,000	-0,025	-0,049
325,997	343,795	-0,122	-0,164
327,012	93,024	-0,095	0,074
328,027	42,263	-0,165	-0,102
329,041	90,619	-0,171	-0,131
330,056	-115,258	-0,237	-0,030
331,070	-25,145	-0,077	0,031
332,085	-55,744	-0,141	0,043
333,100	-28,913	-0,180	-0,070
334,114	322,147	-0,061	-0,080
335,129	179,512	-0,146	-0,146
336,143	209,532	-0,096	-0,103
337,158	19,773	-0,057	-0,031
338,173	-200,000	0,002	-0,018
339,187	455,907	-0,069	-0,105
340,202	800,000	0,022	0,066
341,216	-13,945	-0,123	-0,054
342,231	-146,129	-0,108	0,006
343,246	311,033	-0,185	-0,238
344,260	-137,414	-0,256	-0,020
345,275	-164,242	-0,121	0,004
346,289	-29,143	-0,041	-0,016
347,304	95,585	-0,052	-0,040
348,319	-200,000	-0,037	-0,176
349,333	-9,405	-0,265	-0,120
350,348	536,802	-0,135	-0,220
351,362	-83,241	-0,158	0,035
352,377	-69,588	-0,107	0,028
353,392	-123,742	-0,217	-0,023
354,406	-58,727	-0,201	0,059
355,421	206,250	1310,460	1395,645
356,435	158,608	1470,607	1396,074
