DTS Sentinel unit serial number:	SN410029Multiplexer serial number:	ORYXHardware model number:	OX2-SRSoftware version number:	ORYX F/W v4,00 Oryx Data Collector v3.7.2.0data status	okinstallation	B3 Nyhavnadifferential loss correction	single-endedforward channel	channel 1reverse channel	N/Adate	2023/12/01time	00:27:30forward acquisition time	300,00reverse acquisition time	0,00gamma	499,1914k internal	0,3211k external	0,3211temperature offset calibration	1,0000default loss term (dB/km)	0,3820temperature slope calibration	1,0000multiplexer offset coefficient	1,0000multiplexer slope coefficient	1,0000fibre end	0,00T internal ref (°C)	9,21T ext. ref 1 (°C)	-5,79T ext. ref 2 (°C)	-5,92length (m)	temperature (°C)	Stokes	anti-Stokes-744,400	78,458	-0,268	-0,208
-743,385	-200,000	-0,029	0,259
-742,371	193,296	-0,171	-0,188
-741,356	-200,000	0,021	0,329
-740,342	428,027	-0,131	-0,206
-739,327	-200,000	-0,010	0,220
-738,312	85,800	-0,162	-0,129
-737,298	-200,000	-0,076	0,321
-736,283	800,000	-0,115	-0,313
-735,269	800,000	-0,079	0,192
-734,254	618,168	-0,127	-0,232
-733,239	-28,758	-0,223	0,093
-732,225	800,000	-0,112	-0,242
-731,210	574,784	0,072	0,129
-730,196	-200,000	-0,031	0,170
-729,181	-1,056	0,046	-0,023
-728,167	262,191	-0,121	-0,152
-727,152	315,788	0,023	-0,032
-726,137	253,392	0,104	0,130
-725,123	800,000	-0,014	-0,032
-724,108	-200,000	-0,011	-0,062
-723,094	800,000	-0,013	0,037
-722,079	80,251	-0,114	-0,089
-721,064	261,677	0,078	-0,098
-720,050	-200,000	-0,002	-0,122
-719,035	800,000	0,021	0,054
-718,021	5,368	-0,122	-0,065
-717,006	-200,000	0,006	0,076
-715,991	-200,000	-0,002	0,036
-714,977	9,082	-0,092	-0,050
-713,962	518,587	-0,042	0,071
-712,948	97,882	0,117	0,098
-711,933	-200,000	-0,008	0,030
-710,918	77,781	-0,039	0,030
-709,904	33,910	-0,130	-0,082
-708,889	-200,000	0,008	-0,134
-707,875	-200,000	0,005	-0,179
-706,860	117,579	-0,062	-0,055
-705,845	-200,000	0,045	0,180
-704,831	800,000	-0,011	0,033
-703,816	800,000	0,039	-0,126
-702,802	-5,392	0,057	-0,028
-701,787	-75,293	-0,185	-0,048
-700,772	-158,090	0,098	-0,004
-699,758	93,688	-0,061	0,050
-698,743	-34,582	0,086	-0,034
-697,729	10,715	0,142	-0,078
-696,714	-200,000	0,014	0,209
-695,699	-27,271	0,113	-0,047
-694,685	-200,000	0,026	-0,086
-693,670	121,265	-0,046	-0,041
-692,656	45,224	0,030	-0,020
-691,641	-18,463	-0,143	0,064
-690,627	268,973	0,048	0,061
-689,612	60,053	-0,146	0,104
-688,597	337,171	-0,064	-0,091
-687,583	-173,450	0,052	-0,001
-686,568	-133,678	-0,085	0,008
-685,554	508,782	-0,080	-0,135
-684,539	-54,813	-0,152	-0,049
-683,524	39,661	0,117	-0,076
-682,510	-4,252	0,041	-0,021
-681,495	800,000	-0,016	0,041
-680,481	81,297	-0,181	-0,141
-679,466	234,410	-0,009	-0,011
-678,451	-200,000	-0,003	-0,063
-677,437	38,528	-0,031	0,020
-676,422	-123,899	0,100	-0,011
-675,408	106,991	-0,079	0,068
-674,393	-127,821	-0,148	-0,015
-673,378	-178,424	-0,221	0,004
-672,364	231,677	0,032	0,038
-671,349	800,000	-0,031	-0,076
-670,335	-73,623	-0,065	0,017
-669,320	12,173	-0,034	-0,019
-668,305	800,000	0,037	-0,104
-667,291	-200,000	-0,001	0,190
-666,276	800,000	-0,049	-0,146
-665,262	-79,176	-0,007	0,002
-664,247	295,904	-0,049	-0,065
-663,232	-200,000	-0,022	-0,121
-662,218	142,367	0,063	0,061
-661,203	800,000	0,083	0,176
-660,189	29,198	-0,098	-0,060
-659,174	-75,448	-0,202	-0,052
-658,159	514,256	-0,042	-0,072
-657,145	-200,000	-0,016	-0,077
-656,130	-200,000	0,010	0,090
-655,116	119,625	0,137	0,123
-654,101	-32,995	-0,006	-0,002
-653,086	800,000	-0,081	-0,206
-652,072	369,062	0,075	-0,110
-651,057	-200,000	-0,005	-0,032
-650,043	312,508	0,122	-0,166
-649,028	174,809	-0,029	0,030
-648,014	795,254	0,033	-0,065
-646,999	800,000	-0,044	0,111
-645,984	-1,061	0,091	0,046
-644,970	60,189	-0,022	-0,016
-643,955	462,271	0,020	0,033
-642,941	360,977	-0,048	-0,070
-641,926	800,000	-0,100	0,256
-640,911	142,796	0,050	-0,048
-639,897	800,000	-0,052	0,118
-638,882	159,290	0,041	0,042
-637,868	-200,000	0,030	0,121
-636,853	-93,969	-0,023	-0,005
-635,838	-200,000	0,022	0,097
-634,824	-132,323	-0,080	-0,007
-633,809	-200,000	-0,023	0,073
-632,795	-200,000	0,000	0,003
-631,780	5,764	-0,078	0,042
-630,765	127,290	0,010	0,009
-629,751	-170,295	-0,017	-0,000
-628,736	-200,000	-0,011	-0,049
-627,722	195,560	-0,052	0,057
-626,707	-200,000	0,006	-0,091
-625,692	263,380	0,174	0,219
-624,678	173,852	-0,053	0,056
-623,663	2,862	-0,077	0,040
-622,649	800,000	-0,078	-0,157
-621,634	-200,000	-0,044	-0,212
-620,619	21,497	0,057	-0,033
-619,605	76,176	-0,058	-0,044
-618,590	-134,675	0,050	-0,004
-617,576	-139,988	0,094	0,007
-616,561	447,250	-0,092	-0,146
-615,546	314,022	0,035	0,047
-614,532	-151,483	-0,105	-0,006
-613,517	-30,569	-0,096	0,039
-612,503	-114,532	0,109	0,015
-611,488	20,749	0,062	0,036
-610,474	52,913	-0,081	0,056
-609,459	33,190	0,044	0,028
-608,444	-200,000	-0,037	0,142
-607,430	-200,000	0,018	-0,067
-606,415	800,000	0,042	0,112
-605,401	800,000	-0,031	-0,073
-604,386	613,440	-0,006	-0,011
-603,371	-177,836	0,108	-0,002
-602,357	120,146	-0,120	-0,107
-601,342	338,855	0,083	0,117
-600,328	-200,000	-0,018	-0,085
-599,313	12,922	-0,168	-0,093
-598,298	800,000	-0,034	-0,092
-597,284	-200,000	0,000	0,047
-596,269	455,652	0,098	-0,158
-595,255	92,945	0,029	-0,024
-594,240	-200,000	-0,029	-0,179
-593,225	-200,000	-0,037	-0,138
-592,211	-200,000	-0,028	-0,092
-591,196	-29,568	-0,075	0,031
-590,182	-83,252	-0,071	0,016
-589,167	-113,910	0,130	0,018
-588,152	-200,000	-0,011	-0,044
-587,138	-200,000	0,035	-0,132
-586,123	94,934	-0,102	-0,084
-585,109	54,578	0,047	0,032
-584,094	297,091	0,070	0,093
-583,079	-32,847	-0,135	-0,054
-582,065	8,582	0,068	0,037
-581,050	436,874	-0,040	0,063
-580,036	-200,000	0,032	-0,135
-579,021	65,128	-0,074	-0,054
-578,006	35,849	0,042	0,027
-576,992	-200,000	0,020	-0,142
-575,977	800,000	0,024	0,054
-574,963	-26,463	-0,128	0,054
-573,948	-59,303	0,015	-0,005
-572,934	526,633	0,046	-0,079
-571,919	464,348	0,037	-0,059
-570,904	72,777	0,044	-0,033
-569,890	-94,577	-0,195	0,038
-568,875	-84,125	0,104	-0,024
-567,861	15,362	0,122	-0,069
-566,846	20,568	0,122	0,071
-565,831	800,000	-0,018	0,046
-564,817	392,706	0,033	0,050
-563,802	451,204	-0,050	0,079
-562,788	-104,850	-0,073	-0,012
-561,773	-29,601	0,097	0,040
-560,758	30,662	0,160	-0,098
-559,744	-90,128	0,091	-0,019
-558,729	-200,000	0,017	-0,085
-557,715	-200,000	0,034	-0,120
-556,700	800,000	-0,033	0,076
-555,685	-200,000	-0,026	-0,112
-554,671	399,903	0,032	-0,048
-553,656	17,319	-0,096	0,055
-552,642	174,946	-0,039	0,041
-551,627	266,756	-0,079	0,100
-550,612	800,000	-0,011	0,034
-549,598	-200,000	-0,003	-0,069
-548,583	-0,978	-0,134	0,068
-547,569	-200,000	0,006	-0,106
-546,554	365,364	-0,018	0,025
-545,539	-101,551	-0,144	0,025
-544,525	1,924	0,051	0,027
-543,510	800,000	-0,012	0,034
-542,496	-165,810	-0,110	-0,003
-541,481	-200,000	0,031	-0,143
-540,466	193,280	-0,017	0,018
-539,452	-200,000	0,008	0,067
-538,437	-69,970	0,124	0,034
-537,423	800,000	0,044	0,093
-536,408	-45,353	-0,077	-0,027
-535,393	-72,657	-0,024	-0,006
-534,379	671,390	0,073	-0,136
-533,364	-137,789	0,104	-0,008
-532,350	15,512	0,112	-0,063
-531,335	268,302	-0,052	-0,065
-530,321	1,196	-0,117	0,060
-529,306	4,895	-0,020	0,010
-528,291	65,024	-0,050	-0,036
-527,277	-200,000	0,003	0,019
-526,262	800,000	-0,036	-0,090
-525,248	-95,470	-0,132	-0,025
-524,233	763,406	0,036	0,071
-523,218	74,610	0,048	0,036
-522,204	491,827	0,070	-0,116
-521,189	800,000	0,020	-0,045
-520,175	-200,000	-0,004	-0,181
-519,160	-200,000	0,012	-0,186
-518,145	-200,000	-0,012	-0,074
-517,131	-200,000	0,009	0,063
-516,116	121,298	-0,072	0,065
-515,102	-200,000	-0,031	-0,125
-514,087	-200,000	0,033	-0,128
-513,072	800,000	0,021	-0,055
-512,058	800,000	0,021	-0,064
-511,043	128,907	0,065	-0,060
-510,029	90,108	0,055	0,044
-509,014	-55,081	0,060	-0,019
-507,999	642,644	0,024	0,045
-506,985	800,000	-0,023	0,069
-505,970	-200,000	0,024	-0,125
-504,956	-50,524	-0,138	-0,047
-503,941	331,501	0,085	-0,118
-502,926	-200,000	0,008	0,047
-501,912	-200,000	-0,019	0,080
-500,897	85,126	-0,032	0,025
-499,883	-200,000	-0,023	-0,087
-498,868	-124,580	-0,066	-0,007
-497,853	-1,218	0,005	0,003
-496,839	-200,000	0,019	0,123
-495,824	-142,502	0,092	0,006
-494,810	-31,808	0,011	-0,004
-493,795	17,368	-0,056	0,032
-492,781	31,569	-0,151	-0,093
-491,766	-200,000	0,050	-0,184
-490,751	800,000	-0,043	-0,128
-489,737	-38,811	0,099	0,037
-488,722	60,268	0,094	0,067
-487,708	800,000	0,023	0,060
-486,693	-63,942	0,075	0,022
-485,678	-50,383	-0,041	-0,014
-484,664	-200,000	-0,004	-0,021
-483,649	800,000	-0,018	-0,049
-482,635	-89,857	0,053	0,011
-481,620	52,707	0,077	0,053
-480,605	-200,000	-0,046	-0,148
-479,591	-101,932	-0,047	0,008
-478,576	99,482	-0,110	-0,092
-477,562	800,000	-0,034	-0,092
-476,547	113,748	-0,099	-0,087
-475,532	104,193	0,086	-0,073
-474,518	235,585	-0,051	0,061
-473,503	388,328	-0,092	0,138
-472,489	130,863	0,131	0,120
-471,474	-55,737	-0,045	0,014
-470,459	-98,156	0,042	0,008
-469,445	106,858	0,069	0,059
-468,430	-89,090	-0,044	0,009
-467,416	-148,287	0,074	0,004
-466,401	-163,869	-0,097	0,003
-465,386	-31,396	-0,124	0,050
-464,372	702,026	0,051	-0,096
-463,357	800,000	0,007	0,017
-462,343	385,431	-0,075	-0,111
-461,328	296,370	0,051	-0,067
-460,313	8,455	-0,127	0,068
-459,299	-200,000	-0,021	0,082
-458,284	800,000	0,024	-0,055
-457,270	-128,179	-0,078	0,008
-456,255	-200,000	-0,015	-0,111
-455,241	-200,000	0,013	-0,107
-454,226	800,000	-0,062	0,137
-453,211	225,640	-0,065	0,076
-452,197	-200,000	0,012	0,088
-451,182	-132,057	0,056	0,005
-450,168	55,509	-0,102	0,070
-449,153	118,901	-0,114	0,101
-448,138	61,674	-0,076	-0,054
-447,124	-200,000	0,004	-0,175
-446,109	163,847	0,096	-0,097
-445,095	-26,595	-0,070	-0,029
-444,080	-200,000	-0,009	0,100
-443,065	800,000	-0,023	-0,046
-442,051	800,000	-0,057	-0,162
-441,036	-193,471	0,070	-0,000
-440,022	356,450	-0,039	-0,056
-439,007	-200,000	-0,011	0,068
-437,992	800,000	-0,028	-0,068
-436,978	100,175	0,058	-0,048
-435,963	-50,864	0,175	0,059
-434,949	-133,270	-0,138	-0,012
-433,934	-49,645	0,131	0,044
-432,919	-200,000	0,006	-0,144
-431,905	-126,796	-0,101	0,011
-430,890	-200,000	0,015	0,104
-429,876	-200,000	-0,011	0,085
-428,861	-200,000	-0,014	0,147
-427,846	115,587	-0,067	0,058
-426,832	800,000	-0,016	0,037
-425,817	-200,000	-0,016	-0,108
-424,803	-200,000	0,037	-0,156
-423,788	-32,891	-0,100	-0,040
-422,773	29,961	0,068	-0,042
-421,759	72,817	-0,064	0,048
-420,744	800,000	0,031	-0,074
-419,730	585,274	0,034	-0,060
-418,715	82,361	-0,073	0,057
-417,701	-52,406	0,024	0,008
-416,686	-39,798	-0,110	-0,041
-415,671	-67,732	-0,109	0,030
-414,657	66,753	-0,017	0,012
-413,642	-29,040	0,107	-0,044
-412,628	28,797	-0,092	0,056
-411,613	-55,253	0,108	-0,034
-410,598	-200,000	-0,005	-0,036
-409,584	-122,744	0,020	0,002
-408,569	-75,155	0,225	0,057
-407,555	-56,171	0,118	0,037
-406,540	-200,000	-0,004	0,038
-405,525	334,048	-0,086	-0,120
-404,511	483,022	-0,022	0,036
-403,496	-18,144	0,061	-0,027
-402,482	60,992	-0,210	-0,149
-401,467	-7,522	-0,132	0,064
-400,452	-200,000	-0,033	0,128
-399,438	-200,000	0,009	-0,053
-398,423	800,000	0,053	0,136
-397,409	697,567	0,012	-0,022
-396,394	-200,000	-0,003	-0,030
-395,379	-138,022	0,103	0,008
-394,365	168,478	0,062	-0,063
-393,350	69,982	0,064	0,047
-392,336	-200,000	-0,021	-0,080
-391,321	121,916	-0,044	0,039
-390,306	-136,709	0,108	0,009
-389,292	-59,636	0,017	0,005
-388,277	89,963	-0,046	0,037
-387,263	-200,000	-0,006	0,021
-386,248	-200,000	-0,003	0,049
-385,233	800,000	0,009	0,027
-384,219	237,866	0,060	-0,072
-383,204	363,877	-0,098	-0,141
-382,190	-37,230	-0,129	-0,049
-381,175	-32,281	0,137	0,055
-380,160	-198,089	0,183	-0,001
-379,146	-200,000	-0,002	0,088
-378,131	-42,859	-0,055	-0,020
-377,117	244,953	0,112	-0,135
-376,102	51,374	-0,071	-0,048
-375,088	23,360	-0,038	0,022
-374,073	658,973	0,031	0,058
-373,058	-200,000	-0,003	0,153
-372,044	59,356	0,164	0,115
-371,029	187,517	0,010	0,010
-370,015	800,000	-0,008	-0,020
-369,000	-110,883	-0,071	0,010
-367,985	605,019	0,033	0,059
-366,971	800,000	0,032	0,101
-365,956	-189,009	0,143	0,001
-364,942	259,924	0,106	0,131
-363,927	-84,040	0,098	-0,022
-362,912	80,365	-0,042	0,032
-361,898	740,623	-0,058	-0,112
-360,883	-200,000	-0,020	-0,086
-359,869	164,900	-0,020	0,020
-358,854	-200,000	0,031	0,117
-357,839	-16,172	0,102	0,046
-356,825	169,581	0,087	0,088
-355,810	495,286	0,063	0,104
-354,796	81,131	0,115	-0,088
-353,781	16,864	-0,111	-0,063
-352,766	-120,901	0,069	-0,008
-351,752	-200,000	0,015	0,157
-350,737	208,829	-0,015	-0,016
-349,723	-200,000	0,007	0,075
-348,708	-200,000	-0,008	0,037
-347,693	-93,823	-0,083	-0,016
-346,679	504,979	0,012	0,020
-345,664	800,000	-0,023	-0,063
-344,650	35,728	0,107	-0,067
-343,635	19,805	-0,045	0,026
-342,620	-171,100	0,116	-0,003
-341,606	-11,704	-0,054	0,025
-340,591	66,008	-0,056	-0,041
-339,577	-93,098	-0,170	-0,034
-338,562	416,421	0,019	-0,029
-337,548	-200,000	0,023	-0,161
-336,533	207,914	0,107	0,119
-335,518	-166,133	0,095	0,003
-334,504	227,744	0,053	0,062
-333,489	-200,000	0,010	-0,077
-332,475	69,305	-0,087	0,063
-331,460	447,805	0,050	-0,078
-330,445	122,753	0,054	0,049
-329,431	233,157	-0,071	-0,083
-328,416	-200,000	0,010	0,102
-327,402	-3,035	0,097	-0,048
-326,387	-97,374	0,124	0,023
-325,372	-44,098	-0,111	0,040
-324,358	36,387	0,054	-0,034
-323,343	-200,000	-0,017	-0,119
-322,329	132,663	0,142	-0,130
-321,314	-200,000	0,030	0,122
-320,299	118,405	-0,046	0,040
-319,285	-49,612	-0,063	-0,021
-318,270	-64,883	-0,018	0,005
-317,256	233,303	-0,060	-0,070
-316,241	37,207	0,101	0,064
-315,226	-200,000	0,004	0,058
-314,212	49,971	0,041	0,028
-313,197	163,903	-0,086	0,086
-312,183	-181,842	-0,103	0,001
-311,168	-200,000	0,011	-0,050
-310,153	-51,145	-0,077	-0,026
-309,139	-200,000	-0,030	0,095
-308,124	-200,000	0,016	-0,066
-307,110	324,268	0,061	0,083
-306,095	800,000	0,065	-0,132
-305,080	-200,000	-0,005	-0,073
-304,066	-77,143	0,157	-0,039
-303,051	-200,000	0,003	-0,028
-302,037	430,447	0,036	0,056
-301,022	711,917	0,019	0,036
-300,008	83,966	-0,082	-0,063
-298,993	120,217	-0,038	-0,033
-297,978	-200,000	0,036	-0,114
-296,964	240,714	-0,069	0,082
-295,949	168,172	-0,031	0,031
-294,935	-71,757	0,112	-0,029
-293,920	-200,000	0,008	0,111
-292,905	100,669	0,164	0,136
-291,891	-14,840	0,039	-0,018
-290,876	400,326	0,030	0,045
-289,862	-98,074	-0,033	0,006
-288,847	235,063	-0,022	0,026
-287,832	-200,000	0,002	0,020
-286,818	800,000	-0,047	-0,109
-285,803	185,928	0,097	0,103
-284,789	-200,000	-0,019	0,072
-283,774	-200,000	-0,000	0,081
-282,759	-83,908	-0,086	0,019
-281,745	-200,000	-0,119	-0,000
-280,730	277,645	0,006	0,007
-279,716	-12,142	0,081	0,038
-278,701	102,539	-0,078	0,065
-277,686	-200,000	0,003	-0,014
-276,672	-44,622	-0,030	-0,011
-275,657	-126,352	-0,099	0,010
-274,643	150,442	-0,061	-0,059
-273,628	-200,000	0,027	-0,129
-272,613	163,611	0,023	0,023
-271,599	-200,000	-0,002	0,245
-270,584	-194,414	0,119	0,001
-269,570	800,000	-0,068	0,136
-268,555	8,147	-0,093	-0,049
-267,540	96,730	-0,061	0,049
-266,526	243,789	-0,071	-0,085
-265,511	-184,516	0,176	-0,002
-264,497	7,075	-0,074	0,039
-263,482	171,938	0,041	0,042
-262,467	-28,170	0,019	0,008
-261,453	-21,370	-0,047	-0,020
-260,438	-200,000	-0,001	0,022
-259,424	-93,514	-0,131	-0,026
-258,409	-200,000	-0,017	-0,067
-257,395	32,035	-0,073	-0,045
-256,380	-200,000	0,006	0,172
-255,365	256,926	-0,093	0,114
-254,351	61,634	0,023	-0,016
-253,336	-75,277	-0,166	0,042
-252,322	204,805	0,051	0,056
-251,307	409,733	-0,033	0,050
-250,292	676,042	0,019	-0,035
-249,278	-119,817	0,094	0,011
-248,263	800,000	-0,029	0,079
-247,249	172,242	0,058	-0,059
-246,234	2,015	-0,050	0,025
-245,219	-200,000	-0,038	0,130
-244,205	-99,891	-0,025	0,004
-243,190	-200,000	0,037	0,131
-242,176	586,172	0,036	0,063
-241,161	23,730	0,043	0,025
-240,146	-52,759	0,145	-0,047
-239,132	-200,000	-0,003	-0,041
-238,117	126,232	-0,078	-0,070
-237,103	6,849	0,098	0,052
-236,088	160,511	-0,111	-0,110
-235,073	-36,300	0,108	0,041
-234,059	800,000	-0,058	0,123
-233,044	159,726	0,068	0,068
-232,030	225,958	0,145	0,167
-231,015	-200,000	-0,056	-0,204
-230,000	126,516	-0,047	-0,042
-228,986	49,059	0,055	-0,037
-227,971	-87,818	0,127	0,027
-226,957	-149,301	-0,054	0,003
-225,942	800,000	0,081	0,175
-224,927	-74,659	0,034	-0,009
-223,913	366,477	-0,063	-0,091
-222,898	-73,850	-0,159	-0,041
-221,884	-200,000	0,009	0,062
-220,869	800,000	0,048	0,112
-219,855	-200,000	0,004	0,090
-218,840	-200,000	0,021	0,102
-217,825	0,624	0,094	-0,047
-216,811	204,800	-0,026	-0,029
-215,796	139,947	-0,030	0,028
-214,782	-200,000	-0,005	0,026
-213,767	-200,000	-0,004	0,000
-212,752	267,396	0,021	0,026
-211,738	800,000	0,037	-0,112
-210,723	88,982	0,068	0,054
-209,709	33,277	-0,038	-0,024
-208,694	800,000	0,008	-0,025
-207,679	18,849	-0,109	-0,062
-206,665	800,000	-0,048	0,104
-205,650	-148,878	0,113	-0,006
-204,636	244,082	-0,036	0,043
-203,621	-200,000	-0,022	0,085
-202,606	309,879	0,051	0,068
-201,592	800,000	0,032	-0,073
-200,577	-200,000	0,014	-0,064
-199,563	526,446	-0,057	0,096
-198,548	800,000	0,069	-0,183
-197,533	89,089	0,090	-0,071
-196,519	-171,349	0,062	-0,001
-195,504	-200,000	-0,007	0,085
-194,490	368,940	-0,023	0,033
-193,475	-200,000	0,001	-0,093
-192,460	-70,439	0,009	-0,002
-191,446	56,971	-0,054	-0,037
-190,431	-200,000	-0,005	0,164
-189,417	-200,000	-0,006	0,099
-188,402	-200,000	-0,004	-0,042
-187,387	85,526	-0,086	0,067
-186,373	800,000	0,003	0,008
-185,358	-60,657	0,073	0,022
-184,344	-200,000	0,027	0,156
-183,329	-57,316	-0,013	0,004
-182,315	800,000	-0,054	-0,131
-181,300	800,000	-0,076	-0,171
-180,285	-200,000	0,002	0,036
-179,271	-200,000	-0,043	-0,208
-178,256	707,114	-0,020	0,038
-177,242	-200,000	0,020	-0,073
-176,227	-5,864	0,097	0,047
-175,212	-45,448	-0,044	0,015
-174,198	114,804	0,031	-0,027
-173,183	800,000	0,041	-0,097
-172,169	322,912	-0,099	-0,134
-171,154	-200,000	0,017	0,059
-170,139	-64,304	-0,101	0,029
-169,125	800,000	0,059	0,138
-168,110	100,206	-0,070	-0,057
-167,096	-79,585	-0,053	-0,013
-166,081	695,503	-0,044	0,082
-165,066	-17,425	0,130	0,058
-164,052	-45,568	-0,082	0,028
-163,037	365,819	0,034	-0,048
-162,023	-156,831	0,075	0,003
-161,008	-41,011	-0,046	-0,017
-159,993	-200,000	0,024	0,101
-158,979	-140,527	-0,287	-0,021
-157,964	477,155	-0,029	0,047
-156,950	92,016	0,059	0,047
-155,935	-200,000	0,030	-0,145
-154,920	-33,429	0,145	0,057
-153,906	196,148	0,104	0,112
-152,891	-45,174	0,047	-0,017
-151,877	-74,310	-0,186	0,047
-150,862	-200,000	0,022	0,072
-149,847	-14,457	-0,026	-0,012
-148,833	-79,977	0,096	-0,023
-147,818	-200,000	-0,027	0,114
-146,804	-151,560	0,147	0,008
-145,789	-189,813	0,188	0,001
-144,775	-127,107	-0,097	0,010
-143,760	-200,000	-0,004	0,024
-142,745	-123,773	0,093	0,010
-141,731	-200,000	-0,007	-0,037
-140,716	123,343	-0,079	-0,070
-139,702	-200,000	0,015	0,046
-138,687	256,572	0,027	-0,033
-137,672	-40,061	-0,034	-0,012
-136,658	800,000	-0,052	-0,114
-135,643	-200,000	-0,003	-0,029
-134,629	417,099	0,033	0,051
-133,614	-185,512	0,038	0,000
-132,599	-102,878	0,050	-0,008
-131,585	49,346	0,105	0,070
-130,570	-200,000	-0,012	-0,084
-129,556	713,422	-0,005	0,009
-128,541	-54,539	0,036	-0,012
-127,526	-156,983	-0,129	0,005
-126,512	-164,176	-0,148	-0,005
-125,497	63,557	0,117	-0,083
-124,483	-200,000	0,009	0,034
-123,468	800,000	-0,048	-0,137
-122,453	675,399	0,059	-0,109
-121,439	62,107	-0,132	-0,093
-120,424	678,471	-0,032	-0,059
-119,410	800,000	0,015	-0,045
-118,395	-85,826	0,115	0,025
-117,380	800,000	0,013	-0,028
-116,366	800,000	-0,019	-0,041
-115,351	-200,000	0,008	-0,077
-114,337	-200,000	0,012	-0,134
-113,322	2,458	-0,026	0,013
-112,307	-36,725	0,032	-0,012
-111,293	523,893	0,045	0,075
-110,278	224,897	-0,045	-0,052
-109,264	800,000	0,039	0,096
-108,249	-150,946	-0,049	0,003
-107,234	-200,000	0,009	0,050
-106,220	22,773	0,108	-0,063
-105,205	749,471	0,014	-0,027
-104,191	213,484	0,057	0,064
-103,176	-200,000	0,004	-0,074
-102,162	-14,867	0,083	-0,037
-101,147	800,000	-0,035	0,082
-100,132	-38,059	-0,145	0,054
-99,118	43,949	0,040	0,026
-98,103	-170,271	0,048	-0,001
-97,089	-18,590	0,087	-0,038
-96,074	-200,000	-0,041	-0,167
-95,059	800,000	0,062	-0,151
-94,045	-200,000	-0,033	0,107
-93,030	800,000	0,018	0,053
-92,016	346,820	0,073	-0,102
-91,001	-81,530	-0,032	-0,007
-89,986	171,997	0,060	-0,061
-88,972	-200,000	-0,015	0,057
-87,957	-170,838	-0,031	-0,001
-86,943	-200,000	-0,003	-0,058
-85,928	-20,239	-0,164	-0,071
-84,913	800,000	0,017	-0,050
-83,899	599,302	0,039	-0,069
-82,884	149,396	-0,179	0,171
-81,870	56,212	0,101	-0,070
-80,855	-200,000	-0,018	0,063
-79,840	800,000	0,033	-0,084
-78,826	212,395	-0,064	0,071
-77,811	466,724	-0,072	-0,114
-76,797	-166,591	-0,115	0,003
-75,782	292,537	-0,061	0,079
-74,767	131,728	0,025	0,023
-73,753	113,361	-0,080	0,068
-72,738	-200,000	-0,003	-0,047
-71,724	146,289	-0,081	-0,077
-70,709	-200,000	-0,016	0,051
-69,694	48,879	0,095	0,063
-68,680	-200,000	0,011	-0,100
-67,665	800,000	0,047	-0,101
-66,651	348,820	0,104	-0,146
-65,636	-200,000	0,028	-0,100
-64,622	-155,082	-0,110	-0,005
-63,607	800,000	-0,032	-0,073
-62,592	-161,907	-0,107	0,004
-61,578	-53,437	0,117	-0,038
-60,563	9,888	0,087	-0,046
-59,549	800,000	-0,069	0,161
-58,534	57,586	-1,982	-1,366
-57,519	395,802	-1,261	-1,864
-56,505	-200,000	-0,391	-4,567
-55,490	321,524	0,941	1,266
-54,476	800,000	5,348	12,054
-53,461	-200,000	21,862	340,587
-52,446	800,000	761,369	2309,188
-51,432	535,996	1657,513	2786,917
-50,417	69,926	1654,985	1203,532
-49,403	16,904	1529,419	852,426
-48,388	11,018	1453,676	781,806
-47,373	19,212	1445,400	816,556
-46,359	14,397	1434,523	787,535
-45,344	9,334	1430,396	761,182
-44,330	9,320	1428,278	759,960
-43,315	9,280	1426,729	758,916
-42,300	9,308	1424,961	758,078
-41,286	9,323	1423,563	757,374
-40,271	9,256	1422,437	756,426
-39,257	9,262	1421,507	755,931
-38,242	9,272	1420,238	755,272
-37,227	9,305	1418,954	754,715
-36,213	9,320	1417,794	754,141
-35,198	9,278	1416,618	753,286
-34,184	9,277	1415,531	752,676
-33,169	9,226	1414,247	751,722
-32,154	9,288	1413,278	751,468
-31,140	9,280	1412,043	750,746
-30,125	9,350	1410,653	750,303
-29,111	9,309	1409,720	749,588
-28,096	9,281	1408,436	748,742
-27,082	9,238	1407,382	747,948
-26,067	9,231	1406,485	747,413
-25,052	9,277	1405,204	746,918
-24,038	9,268	1404,451	746,443
-23,023	9,244	1403,441	745,765
-22,009	9,274	1402,348	745,297
-20,994	9,240	1401,175	744,484
-19,979	9,238	1400,387	744,025
-18,965	9,210	1399,386	743,336
-17,950	9,203	1398,441	742,770
-16,936	9,176	1397,688	742,218
-15,921	9,093	1396,827	741,344
-14,906	9,176	1395,560	741,025
-13,892	9,227	1394,763	740,809
-12,877	9,170	1394,159	740,196
-11,863	9,197	1393,222	739,797
-10,848	9,139	1392,162	738,934
-9,833	9,089	1391,401	738,268
-8,819	9,064	1390,600	737,701
-7,804	9,062	1389,527	737,089
-6,790	9,022	1388,640	736,406
-5,775	9,076	1387,526	736,038
-4,760	9,039	1386,575	735,332
-3,746	9,077	1385,499	734,905
-2,731	9,066	1384,677	734,391
-1,717	8,982	1384,113	733,677
-0,702	9,037	1382,198	732,883
0,313	12,969	1293,852	703,986
1,327	28,887	684,812	408,456
2,342	45,034	118,091	76,591
3,356	3,349	16,618	8,507
4,371	-2,897	3,688	1,811
5,386	29,766	1,260	0,755
6,400	518,335	0,367	0,607
7,415	9,186	-0,174	-0,093
8,429	-112,391	-0,271	-0,038
9,444	12,677	-0,340	-0,185
10,459	9,536	-0,259	-0,138
11,473	-49,962	-0,208	-0,069
12,488	-131,322	-0,258	-0,024
13,502	49,350	-0,266	-0,176
14,517	0,736	-0,349	-0,176
15,531	161,442	-0,350	-0,345
16,546	-29,747	-0,423	-0,169
17,561	383,021	-0,228	-0,332
18,575	742,597	-0,071	-0,135
19,590	154,888	-0,148	-0,143
20,604	-139,948	-0,295	-0,022
21,619	106,966	-0,289	-0,241
22,634	359,152	-0,256	-0,361
23,648	126,754	-0,367	-0,327
24,663	88,323	-0,357	-0,279
25,677	36,169	-0,260	-0,161
26,692	23,307	-0,335	-0,194
27,707	-113,642	-0,335	-0,046
28,721	104,336	-0,417	-0,346
29,736	212,057	-0,378	-0,419
30,750	-0,079	-0,530	-0,265
31,765	364,111	-0,304	-0,431
32,780	173,679	-0,325	-0,330
33,794	14,200	-0,337	-0,184
34,809	133,580	-0,223	-0,202
35,823	135,376	-0,305	-0,279
36,838	243,778	-0,302	-0,357
37,853	101,819	-0,316	-0,259
38,867	123,157	-0,370	-0,326
39,882	151,554	-0,266	-0,255
40,896	185,549	-0,322	-0,337
41,911	-36,707	-0,403	-0,152
42,926	27,202	-0,347	-0,204
43,940	104,617	-0,323	-0,267
44,955	84,358	-0,285	-0,219
45,969	175,669	-0,301	-0,307
46,984	-51,515	-0,322	-0,105
47,999	259,371	-0,214	-0,259
49,013	27,098	-0,402	-0,236
50,028	35,536	-0,306	-0,188
51,042	167,329	-0,265	-0,264
52,057	182,518	-0,372	-0,385
53,071	85,686	-0,323	-0,249
54,086	196,745	-0,275	-0,295
55,101	48,569	-0,362	-0,238
56,115	-43,644	-0,285	-0,100
57,130	59,340	-0,351	-0,242
58,144	78,949	-0,374	-0,281
59,159	27,841	-0,329	-0,194
60,174	33,255	-0,326	-0,198
61,188	168,609	-0,344	-0,344
62,203	36,860	-0,316	-0,196
63,217	-26,415	-0,300	-0,123
64,232	-73,706	-0,244	0,062
65,247	-32,516	-0,437	-0,170
66,261	-50,159	-0,425	-0,140
67,276	51,100	-0,371	-0,246
68,290	271,355	-0,243	-0,300
69,305	76,617	-0,293	-0,217
70,320	204,589	-0,193	-0,210
71,334	182,399	-0,237	-0,246
72,349	-6,462	-0,399	-0,190
73,363	62,597	-0,355	-0,248
74,378	94,648	-0,341	-0,271
75,393	151,042	-0,223	-0,213
76,407	36,440	-0,319	-0,197
77,422	167,691	-0,253	-0,252
78,436	26,693	-0,336	-0,197
79,451	-119,007	-0,326	-0,040
80,466	-79,647	-0,332	-0,078
81,480	211,003	-0,301	-0,332
82,495	125,150	-0,191	-0,169
83,509	37,265	-0,214	-0,132
84,524	-200,000	-0,058	-0,197
85,539	28,257	-0,331	-0,195
86,553	-18,032	-0,226	-0,099
87,568	-57,461	-0,374	-0,114
88,582	394,920	-0,192	-0,281
89,597	0,073	-0,295	-0,147
90,611	194,852	-0,226	-0,240
91,626	130,236	-0,226	-0,202
92,641	-63,718	-0,304	-0,087
93,655	-66,792	-0,267	-0,073
94,670	148,875	-0,382	-0,361
95,684	107,523	-0,311	-0,259
96,699	47,969	-0,251	-0,164
97,714	87,127	-0,256	-0,198
98,728	63,477	-0,247	-0,173
99,743	91,080	-0,313	-0,245
100,757	89,407	-0,151	-0,118
101,772	5,119	-0,340	-0,175
102,787	99,528	-0,249	-0,201
103,801	115,166	-0,238	-0,203
104,816	9,657	-0,264	-0,139
105,830	137,003	-0,288	-0,263
106,845	175,893	-0,123	-0,125
107,860	32,094	-0,307	-0,184
108,874	-27,104	-0,244	-0,099
109,889	333,959	-0,148	-0,200
110,903	192,853	-0,203	-0,215
111,918	563,978	-0,113	-0,191
112,933	-117,601	-0,216	-0,027
113,947	326,914	-0,102	-0,136
114,962	62,357	-0,275	-0,191
115,976	-85,870	-0,312	-0,067
116,991	31,946	-0,314	-0,188
118,006	344,055	-0,244	-0,334
119,020	800,000	-0,130	-0,270
120,035	-55,846	-0,359	-0,111
121,049	9,434	-0,280	-0,148
122,064	56,551	-0,187	-0,126
123,079	331,028	-0,265	-0,357
124,093	168,141	-0,167	-0,166
125,108	101,853	-0,283	-0,231
126,122	-15,317	-0,191	-0,085
127,137	-42,216	-0,299	-0,106
128,151	30,641	-0,237	-0,141
129,166	-49,188	-0,223	-0,074
130,181	19,549	-0,298	-0,167
131,195	92,703	-0,235	-0,185
132,210	49,173	-0,279	-0,183
133,224	31,180	-0,303	-0,181
134,239	-121,434	-0,193	-0,022
135,254	-27,334	-0,206	-0,083
136,268	-142,586	-0,246	-0,017
137,283	-200,000	-0,056	-0,177
138,297	93,657	-0,235	-0,185
139,312	31,104	-0,303	-0,180
140,327	55,651	-0,306	-0,206
141,341	41,792	-0,201	-0,127
142,356	56,905	-0,227	-0,154
143,370	45,403	-0,189	-0,121
144,385	60,375	-0,192	-0,132
145,400	180,974	-0,292	-0,300
146,414	268,094	-0,268	-0,328
147,429	117,396	-0,229	-0,196
148,443	-15,430	-0,244	-0,108
149,458	299,977	-0,164	-0,211
150,473	-19,343	-0,261	-0,112
151,487	488,345	-0,131	-0,209
152,502	4,849	-0,311	-0,158
153,516	126,758	-0,317	-0,280
154,531	65,134	-0,338	-0,238
155,546	800,000	-0,105	-0,253
156,560	240,940	-0,120	-0,140
157,575	36,524	-0,247	-0,151
158,589	86,485	-0,286	-0,219
159,604	63,068	-0,195	-0,135
160,619	68,486	-0,219	-0,156
161,633	-17,488	-0,282	-0,123
162,648	139,793	-0,186	-0,170
163,662	516,315	-0,179	-0,293
164,677	11,494	-0,234	-0,124
165,692	261,187	-0,155	-0,187
166,706	76,477	-0,344	-0,253
167,721	97,335	-0,286	-0,228
168,735	659,173	-0,155	-0,279
169,750	-157,181	-0,239	-0,010
170,764	66,338	-0,244	-0,172
171,779	-200,000	-0,086	-0,287
172,794	508,687	-0,147	-0,239
173,808	-56,385	-0,311	-0,095
174,823	42,680	-0,347	-0,219
175,837	197,728	-0,245	-0,260
176,852	186,329	-0,300	-0,310
177,867	162,742	-0,189	-0,185
178,881	192,296	-0,179	-0,188
179,896	536,009	-0,152	-0,252
180,910	34,273	-0,205	-0,124
181,925	2,572	-0,210	-0,105
182,940	284,668	-0,227	-0,284
183,954	-129,743	-0,260	-0,025
184,969	125,658	-0,182	-0,159
185,983	668,953	-0,054	-0,097
186,998	8,852	-0,215	-0,112
188,013	-119,338	-0,294	-0,035
189,027	128,121	-0,237	-0,209
190,042	3,490	-0,209	-0,105
191,056	624,216	-0,138	-0,243
192,071	757,219	-0,090	-0,169
193,086	-0,683	-0,265	-0,130
194,100	318,846	-0,176	-0,231
195,115	76,397	-0,185	-0,135
196,129	309,654	-0,171	-0,222
197,144	-84,787	-0,265	-0,057
198,159	-112,835	-0,243	-0,033
199,173	-59,047	-0,217	0,065
200,188	415,924	-0,151	-0,224
201,202	-145,674	-0,198	0,012
202,217	800,000	-0,069	-0,163
203,232	143,649	-0,250	-0,231
204,246	99,165	-0,229	-0,184
205,261	161,784	-0,213	-0,206
206,275	8,238	-0,222	-0,115
207,290	80,551	-0,187	-0,139
208,304	31,407	-0,220	-0,131
209,319	-200,000	-0,018	-0,139
210,334	101,058	-0,281	-0,226
211,348	385,799	-0,142	-0,204
212,363	56,230	-0,269	-0,180
213,377	800,000	-0,174	-0,358
214,392	-1,377	-0,188	-0,091
215,407	382,047	-0,107	-0,152
216,421	681,929	-0,125	-0,226
217,436	69,447	-0,180	-0,128
218,450	-18,262	-0,234	-0,101
219,465	8,732	-0,255	-0,133
220,480	208,603	-0,080	-0,087
221,494	162,775	-0,177	-0,172
222,509	-82,370	-0,130	-0,029
223,523	449,554	-0,176	-0,270
224,538	240,723	-0,208	-0,240
225,553	90,190	-0,232	-0,179
226,567	678,381	-0,117	-0,211
227,582	77,891	-0,264	-0,194
228,596	-86,699	-0,178	-0,037
229,611	611,222	-0,093	-0,162
230,626	724,177	-0,033	-0,062
231,640	-200,000	-0,015	-0,230
232,655	213,719	-0,165	-0,181
233,669	-9,945	-0,206	-0,095
234,684	-7,183	-0,209	-0,098
235,699	104,484	-0,157	-0,128
236,713	-49,579	-0,119	-0,039
237,728	338,846	-0,103	-0,139
238,742	-49,678	-0,068	0,022
239,757	5,793	-0,296	-0,151
240,772	434,482	-0,138	-0,208
241,786	86,749	-0,277	-0,211
242,801	800,000	-0,074	-0,166
243,815	96,896	-0,198	-0,156
244,830	208,756	-0,122	-0,132
245,844	-136,044	-0,149	0,012
246,859	493,989	-0,127	-0,203
247,874	260,373	-0,209	-0,250
248,888	-200,000	-0,034	-0,246
249,903	74,153	-0,152	-0,110
250,917	584,035	-0,046	-0,078
251,932	-200,000	-0,066	-0,217
252,947	-18,093	-0,162	-0,070
253,961	-25,456	-0,249	-0,101
254,976	283,789	-0,162	-0,202
255,990	-91,787	-0,264	-0,051
257,005	-200,000	0,000	-0,257
258,020	-66,901	-0,170	-0,046
259,034	83,889	-0,171	-0,128
260,049	-4,000	-0,087	-0,041
261,063	483,309	-0,160	-0,251
262,078	22,744	-0,191	-0,108
263,093	-82,307	-0,286	-0,064
264,107	150,528	-0,084	-0,078
265,122	176,707	-0,228	-0,228
266,136	248,521	-0,136	-0,159
267,151	10,081	-0,104	-0,054
268,166	-157,507	-0,129	0,005
269,180	-67,186	-0,227	-0,061
270,195	21,019	-0,215	-0,120
271,209	649,567	-0,092	-0,163
272,224	81,440	-0,218	-0,163
273,239	5,874	-0,183	-0,093
274,253	800,000	-0,090	-0,202
275,268	68,412	-0,010	0,007
276,282	800,000	-0,084	-0,186
277,297	-53,088	-0,190	-0,060
278,312	208,424	-0,118	-0,127
279,326	-138,438	-0,143	-0,011
280,341	-149,877	-0,113	0,006
281,355	322,065	-0,118	-0,155
282,370	205,575	-0,162	-0,174
283,384	-152,015	-0,157	-0,008
284,399	800,000	-0,066	-0,151
285,414	296,205	-0,026	-0,033
286,428	-9,617	-0,093	0,042
287,443	16,450	-0,110	-0,059
288,457	185,933	-0,062	-0,063
289,472	385,271	-0,131	-0,186
290,487	161,063	-0,194	-0,187
291,501	329,301	-0,116	-0,154
292,516	-116,398	-0,156	-0,020
293,530	-3,166	-0,122	-0,058
294,545	-163,655	-0,137	-0,004
295,560	800,000	-0,087	-0,176
296,574	76,803	-0,124	-0,091
297,589	9,842	-0,134	-0,070
298,603	68,028	-0,202	-0,142
299,618	197,996	-0,158	-0,167
300,633	315,178	-0,090	-0,116
301,647	132,911	-0,059	-0,052
302,662	800,000	-0,034	-0,086
303,676	-200,000	-0,081	-0,273
304,691	97,220	-0,190	-0,150
305,706	247,698	-0,143	-0,166
306,720	-51,007	-0,214	-0,069
307,735	156,731	-0,113	-0,107
308,749	58,820	-0,217	-0,146
309,764	324,012	-0,108	-0,142
310,779	-56,281	-0,078	-0,024
311,793	738,175	-0,055	-0,102
312,808	563,394	-0,122	-0,203
313,822	616,040	-0,084	-0,146
314,837	53,800	-0,163	-0,108
315,852	115,683	-0,070	-0,059
316,866	800,000	-0,056	-0,107
317,881	-200,000	-0,043	-0,153
318,895	-99,246	-0,240	-0,041
319,910	84,178	-0,156	-0,117
320,925	-200,000	-0,023	-0,128
321,939	-200,000	0,025	-0,083
322,954	67,101	-0,144	-0,101
323,968	201,346	-0,114	-0,120
324,983	338,214	-0,099	-0,132
325,997	410,832	-0,041	-0,059
327,012	104,145	-0,190	-0,153
328,027	-200,000	-0,029	-0,115
329,041	800,000	-0,077	-0,223
330,056	51,622	-0,167	-0,109
331,070	-200,000	-0,015	-0,072
332,085	274,165	-0,063	-0,076
333,100	-37,221	-0,135	-0,049
334,114	-94,981	-0,198	-0,036
335,129	339,702	-0,124	-0,166
336,143	195,534	-0,123	-0,128
337,158	-200,000	-0,067	-0,219
338,173	394,689	-0,095	-0,135
339,187	210,477	-0,069	-0,075
340,202	166,067	-0,110	-0,106
341,216	68,557	-0,228	-0,160
342,231	800,000	-0,085	-0,207
343,246	-200,000	-0,018	-0,153
344,260	800,000	-0,052	-0,100
345,275	-92,056	-0,135	-0,026
346,289	-63,871	-0,125	0,035
347,304	12,488	-0,138	-0,073
348,319	609,144	-0,072	-0,124
349,333	254,450	-0,172	-0,202
350,348	-67,475	-0,174	-0,046
351,362	-200,000	-0,013	0,045
352,377	-132,159	-0,178	0,016
353,392	65,948	-0,205	-0,142
354,406	134,527	-0,092	-0,082
355,421	207,786	1310,981	1401,664
356,435	159,855	1471,204	1402,114
