DTS Sentinel unit serial number:	SN410029Multiplexer serial number:	ORYXHardware model number:	OX2-SRSoftware version number:	ORYX F/W v4,00 Oryx Data Collector v3.7.2.0data status	okinstallation	B3 Nyhavnadifferential loss correction	single-endedforward channel	channel 1reverse channel	N/Adate	2023/12/04time	05:07:30forward acquisition time	300,00reverse acquisition time	0,00gamma	499,1914k internal	0,3206k external	0,3206temperature offset calibration	1,0000default loss term (dB/km)	0,3820temperature slope calibration	1,0000multiplexer offset coefficient	1,0000multiplexer slope coefficient	1,0000fibre end	0,00T internal ref (°C)	11,97T ext. ref 1 (°C)	-2,95T ext. ref 2 (°C)	-2,99length (m)	temperature (°C)	Stokes	anti-Stokes-744,400	46,290	-0,210	-0,141
-743,385	-200,000	0,039	0,294
-742,371	446,775	-0,148	-0,237
-741,356	-200,000	0,019	0,227
-740,342	219,274	-0,237	-0,275
-739,327	-200,000	-0,036	0,254
-738,312	238,298	-0,177	-0,213
-737,298	-200,000	-0,038	0,138
-736,283	13,598	-0,226	-0,127
-735,269	-200,000	0,082	0,284
-734,254	186,367	-0,114	-0,123
-733,239	-46,379	-0,259	0,092
-732,225	800,000	-0,093	-0,217
-731,210	376,807	0,169	0,251
-730,196	404,940	0,027	-0,041
-729,181	-39,770	-0,134	-0,050
-728,167	-200,000	0,009	0,041
-727,152	-73,529	-0,068	0,018
-726,137	-200,000	0,039	0,125
-725,123	-153,419	-0,125	0,006
-724,108	-1,484	-0,096	-0,049
-723,094	-107,319	-0,163	-0,026
-722,079	-91,569	-0,077	-0,016
-721,064	-200,000	0,006	0,106
-720,050	-200,000	0,018	0,062
-719,035	-80,828	-0,026	0,006
-718,021	-38,665	0,101	0,039
-717,006	-55,928	0,076	0,025
-715,991	800,000	-0,054	-0,141
-714,977	356,531	-0,056	0,080
-713,962	-124,716	-0,070	-0,008
-712,948	333,219	0,069	-0,098
-711,933	-200,000	0,009	-0,075
-710,918	99,097	-0,084	-0,070
-709,904	-82,267	-0,083	-0,019
-708,889	64,468	0,034	-0,025
-707,875	97,383	0,080	-0,067
-706,860	148,139	0,143	0,140
-705,845	-138,452	-0,051	-0,004
-704,831	800,000	0,044	0,129
-703,816	139,680	0,058	0,055
-702,802	-200,000	-0,038	-0,125
-701,787	-200,000	-0,029	-0,141
-700,772	-200,000	-0,038	-0,172
-699,758	-180,527	-0,081	-0,001
-698,743	324,956	-0,022	-0,031
-697,729	11,798	0,064	0,035
-696,714	140,572	0,076	0,073
-695,699	-200,000	-0,002	-0,035
-694,685	201,834	-0,038	-0,043
-693,670	800,000	0,029	-0,061
-692,656	306,380	0,065	-0,087
-691,641	-132,303	0,109	-0,010
-690,627	-76,948	0,162	-0,041
-689,612	-200,000	-0,019	0,091
-688,597	-13,117	-0,064	0,030
-687,583	26,361	-0,100	-0,060
-686,568	-110,166	-0,110	0,016
-685,554	-200,000	-0,006	-0,026
-684,539	133,403	0,067	-0,063
-683,524	9,677	0,097	0,053
-682,510	219,036	-0,021	0,024
-681,495	152,142	-0,079	-0,079
-680,481	-106,852	-0,105	-0,017
-679,466	104,122	-0,019	-0,016
-678,451	800,000	0,010	-0,032
-677,437	800,000	0,022	-0,064
-676,422	-14,800	-0,094	-0,044
-675,408	113,914	-0,015	0,014
-674,393	15,538	-0,009	0,005
-673,378	59,416	-0,036	-0,025
-672,364	519,509	-0,039	-0,066
-671,349	151,366	-0,017	0,017
-670,335	95,412	-0,016	-0,013
-669,320	151,740	0,050	0,050
-668,305	272,299	0,034	-0,043
-667,291	800,000	-0,056	-0,164
-666,276	-110,342	-0,045	0,007
-665,262	-148,136	-0,134	-0,008
-664,247	-200,000	-0,011	-0,085
-663,232	247,900	0,019	-0,023
-662,218	-200,000	0,015	0,138
-661,203	238,963	0,044	0,053
-660,189	437,577	-0,059	-0,094
-659,174	-200,000	-0,003	-0,080
-658,159	-200,000	0,006	0,051
-657,145	-72,894	-0,078	-0,021
-656,130	321,531	0,038	0,053
-655,116	348,448	0,019	0,027
-654,101	339,328	-0,009	0,013
-653,086	-200,000	-0,002	-0,159
-652,072	190,795	-0,099	-0,108
-651,057	800,000	-0,053	-0,157
-650,043	-63,494	0,068	-0,020
-649,028	145,296	-0,021	-0,021
-648,014	475,524	-0,012	0,020
-646,999	800,000	-0,006	-0,020
-645,984	-85,464	0,038	-0,009
-644,970	192,054	-0,029	0,032
-643,955	47,342	0,039	0,026
-642,941	452,873	-0,057	0,092
-641,926	176,993	-0,159	-0,167
-640,911	-200,000	0,008	-0,119
-639,897	-153,994	0,076	-0,004
-638,882	-30,690	0,128	-0,052
-637,868	266,460	0,028	-0,036
-636,853	6,050	-0,076	-0,040
-635,838	37,596	-0,117	-0,075
-634,824	800,000	-0,048	-0,099
-633,809	-68,093	0,041	-0,012
-632,795	-77,984	-0,072	-0,018
-631,780	-44,191	-0,139	-0,050
-630,765	800,000	0,043	-0,121
-629,751	-92,885	-0,071	0,014
-628,736	-200,000	-0,009	-0,077
-627,722	-113,364	-0,223	0,031
-626,707	48,168	0,114	0,077
-625,692	-126,450	-0,152	0,016
-624,678	-95,142	0,054	0,010
-623,663	-144,115	-0,088	0,006
-622,649	-24,326	0,081	-0,035
-621,634	800,000	0,034	-0,095
-620,619	30,857	0,123	0,076
-619,605	-114,411	0,086	0,012
-618,590	61,788	0,026	-0,018
-617,576	5,360	-0,119	0,063
-616,561	-123,843	0,071	0,008
-615,546	-100,625	-0,086	0,015
-614,532	-200,000	0,004	-0,029
-613,517	346,667	0,033	-0,047
-612,503	574,606	0,077	-0,136
-611,488	252,599	0,050	0,062
-610,474	-59,542	-0,092	-0,028
-609,459	-200,000	0,016	0,069
-608,444	-11,430	-0,029	0,014
-607,430	-120,323	0,068	-0,008
-606,415	717,878	0,046	0,088
-605,401	-200,000	0,017	-0,074
-604,386	481,190	0,021	-0,034
-603,371	-55,889	0,144	0,046
-602,357	689,121	0,069	0,130
-601,342	411,793	-0,054	0,082
-600,328	34,273	-0,078	0,049
-599,313	-200,000	0,010	-0,094
-598,298	-106,660	0,089	-0,014
-597,284	-123,538	0,151	0,017
-596,269	800,000	-0,037	0,093
-595,255	786,414	0,041	0,081
-594,240	729,597	0,051	-0,100
-593,225	-200,000	0,001	-0,095
-592,211	-15,053	-0,101	-0,046
-591,196	132,494	-0,012	0,012
-590,182	-20,258	0,129	-0,057
-589,167	-153,284	0,016	0,001
-588,152	-170,422	0,070	-0,002
-587,138	-36,035	-0,040	-0,015
-586,123	37,760	-0,058	-0,037
-585,109	-136,781	-0,004	-0,000
-584,094	800,000	-0,034	0,090
-583,079	-57,344	0,054	-0,017
-582,065	-46,865	0,058	-0,020
-581,050	87,376	0,090	0,071
-580,036	-200,000	-0,034	-0,116
-579,021	-73,846	0,122	-0,032
-578,006	-124,602	-0,047	0,005
-576,992	337,411	-0,099	-0,139
-575,977	-46,895	-0,064	0,022
-574,963	-96,396	0,135	-0,026
-573,948	398,236	0,066	0,100
-572,934	-1,520	-0,021	-0,011
-571,919	-200,000	-0,008	-0,101
-570,904	800,000	-0,038	-0,100
-569,890	219,373	0,030	0,035
-568,875	-200,000	0,001	-0,042
-567,861	-200,000	-0,003	-0,058
-566,846	-200,000	0,009	0,071
-565,831	-54,541	0,053	0,017
-564,817	207,597	0,047	0,053
-563,802	164,309	-0,170	-0,173
-562,788	562,873	-0,096	-0,167
-561,773	-200,000	0,005	0,018
-560,758	679,746	0,022	0,042
-559,744	-25,381	0,051	0,022
-558,729	-200,000	0,012	0,116
-557,715	158,702	-0,050	-0,050
-556,700	237,406	-0,087	-0,104
-555,685	33,163	-0,063	-0,039
-554,671	-200,000	-0,000	-0,048
-553,656	-126,795	-0,042	-0,004
-552,642	695,229	0,094	0,179
-551,627	661,440	-0,027	0,051
-550,612	-200,000	-0,068	0,000
-549,598	-105,157	-0,044	0,007
-548,583	-200,000	0,025	-0,177
-547,569	-200,000	-0,006	-0,075
-546,554	-200,000	0,027	0,142
-545,539	800,000	-0,058	0,158
-544,525	55,687	0,066	0,046
-543,510	-200,000	-0,018	-0,071
-542,496	-47,551	-0,035	0,012
-541,481	800,000	-0,049	-0,120
-540,466	642,090	0,049	-0,090
-539,452	-88,307	0,127	-0,027
-538,437	-200,000	-0,025	0,170
-537,423	-147,029	0,037	0,002
-536,408	-200,000	0,006	0,026
-535,393	-39,280	-0,052	0,020
-534,379	295,904	0,112	-0,148
-533,364	-84,722	0,107	0,024
-532,350	90,797	0,125	0,101
-531,335	-200,000	-0,055	0,185
-530,321	76,493	-0,011	0,009
-529,306	800,000	-0,025	0,053
-528,291	-200,000	0,007	0,031
-527,277	800,000	-0,077	-0,169
-526,262	-200,000	-0,003	-0,018
-525,248	512,731	-0,040	0,067
-524,233	-79,627	0,133	0,032
-523,218	-55,816	0,074	-0,024
-522,204	789,701	-0,051	0,101
-521,189	31,942	0,061	-0,038
-520,175	-200,000	-0,004	0,022
-519,160	-102,891	-0,185	-0,031
-518,145	800,000	-0,017	-0,038
-517,131	363,117	0,077	-0,111
-516,116	-200,000	-0,009	-0,077
-515,102	-47,388	0,046	-0,016
-514,087	344,524	-0,011	-0,015
-513,072	-67,295	-0,051	0,014
-512,058	153,387	-0,070	-0,069
-511,043	-130,799	-0,046	-0,004
-510,029	14,733	-0,065	-0,037
-509,014	-100,831	-0,091	0,016
-507,999	-200,000	0,032	0,114
-506,985	-7,826	-0,193	0,093
-505,970	-57,128	-0,044	-0,014
-504,956	153,057	-0,057	0,056
-503,941	-38,181	-0,047	0,018
-502,926	-200,000	0,015	0,120
-501,912	800,000	0,070	0,156
-500,897	89,662	-0,072	0,058
-499,883	-200,000	0,066	-0,240
-498,868	548,320	0,041	0,071
-497,853	749,145	0,046	0,089
-496,839	198,574	-0,118	0,130
-495,824	551,542	0,060	0,104
-494,810	407,141	-0,035	0,053
-493,795	78,004	0,028	-0,021
-492,781	-200,000	0,016	-0,073
-491,766	354,152	-0,044	-0,064
-490,751	-160,549	0,083	-0,003
-489,737	21,708	-0,027	-0,016
-488,722	689,192	0,080	0,151
-487,708	183,856	-0,023	0,025
-486,693	-200,000	0,007	0,048
-485,678	358,231	-0,098	0,141
-484,664	-113,254	0,113	0,016
-483,649	-47,092	-0,136	-0,048
-482,635	800,000	0,020	-0,057
-481,620	24,407	0,037	0,022
-480,605	140,344	0,089	-0,084
-479,591	87,909	0,105	0,083
-478,576	800,000	0,011	0,027
-477,562	46,844	-0,096	0,064
-476,547	-200,000	-0,118	0,000
-475,532	-200,000	-0,003	-0,036
-474,518	89,061	0,084	0,067
-473,503	-200,000	-0,070	0,000
-472,489	-25,472	0,115	0,049
-471,474	157,341	0,128	-0,127
-470,459	800,000	-0,060	0,175
-469,445	284,511	0,023	0,030
-468,430	619,470	0,021	-0,039
-467,416	-53,968	0,046	-0,015
-466,401	-200,000	0,030	0,113
-465,386	649,860	0,037	0,069
-464,372	-200,000	-0,033	0,193
-463,357	-90,941	0,043	0,009
-462,343	567,917	-0,084	-0,147
-461,328	-200,000	0,013	-0,049
-460,313	-156,604	-0,054	0,002
-459,299	-86,797	0,055	0,012
-458,284	-4,444	-0,012	-0,006
-457,270	339,155	-0,028	-0,039
-456,255	-55,778	-0,015	0,005
-455,241	792,579	0,028	-0,055
-454,226	-112,110	-0,164	-0,023
-453,211	800,000	0,066	0,189
-452,197	800,000	0,040	-0,116
-451,182	-11,836	0,113	0,053
-450,168	-200,000	0,031	-0,122
-449,153	-6,923	-0,162	0,079
-448,138	-57,790	0,107	0,033
-447,124	189,743	-0,068	-0,073
-446,109	102,991	0,086	-0,072
-445,095	221,219	-0,022	0,025
-444,080	-133,555	0,047	0,004
-443,065	-55,977	-0,155	-0,049
-442,051	111,428	-0,075	-0,065
-441,036	-200,000	0,095	0,000
-440,022	800,000	-0,041	0,092
-439,007	-103,977	0,096	0,016
-437,992	380,614	-0,042	-0,062
-436,978	52,957	-0,108	-0,074
-435,963	-111,933	0,085	-0,012
-434,949	-92,523	0,051	-0,010
-433,934	92,733	-0,019	-0,016
-432,919	688,069	0,045	0,084
-431,905	800,000	0,045	0,127
-430,890	176,169	-0,022	-0,023
-429,876	-200,000	0,013	0,122
-428,861	-18,765	-0,157	0,070
-427,846	-79,147	0,109	0,026
-426,832	526,920	-0,086	-0,146
-425,817	-28,737	-0,098	0,040
-424,803	-1,428	0,079	0,040
-423,788	149,980	-0,033	0,032
-422,773	800,000	0,052	0,150
-421,759	607,174	-0,071	0,128
-420,744	37,833	-0,062	0,039
-419,730	800,000	-0,033	-0,077
-418,715	106,506	0,093	0,079
-417,701	800,000	0,089	0,193
-416,686	16,333	0,095	-0,053
-415,671	-152,343	-0,062	0,003
-414,657	800,000	0,060	0,129
-413,642	-1,954	0,050	0,025
-412,628	-125,465	-0,161	-0,017
-411,613	800,000	0,018	-0,037
-410,598	22,044	0,089	-0,052
-409,584	800,000	-0,004	-0,011
-408,569	800,000	0,010	-0,020
-407,555	226,868	0,114	0,133
-406,540	88,979	-0,117	-0,093
-405,525	-160,305	-0,011	-0,000
-404,511	33,193	-0,097	0,060
-403,496	800,000	-0,009	-0,020
-402,482	235,764	-0,041	-0,049
-401,467	-200,000	-0,006	0,058
-400,452	301,568	0,037	0,050
-399,438	582,634	-0,020	0,035
-398,423	154,988	-0,085	-0,083
-397,409	-200,000	-0,049	-0,173
-396,394	-200,000	-0,009	-0,143
-395,379	285,989	0,031	-0,040
-394,365	588,104	0,101	0,178
-393,350	-200,000	0,010	0,056
-392,336	800,000	-0,015	0,039
-391,321	-41,282	-0,053	0,019
-390,306	-23,611	-0,139	0,059
-389,292	510,238	-0,010	0,017
-388,277	407,915	-0,016	-0,024
-387,263	109,424	0,029	0,025
-386,248	-100,201	0,093	0,016
-385,233	68,272	0,107	0,078
-384,219	232,386	-0,066	0,077
-383,204	-23,413	-0,016	0,007
-382,190	-136,798	-0,246	-0,020
-381,175	55,733	0,079	0,055
-380,160	-200,000	0,007	0,057
-379,146	62,407	0,143	0,102
-378,131	611,484	-0,011	-0,020
-377,117	-164,698	0,164	-0,005
-376,102	-200,000	0,031	-0,147
-375,088	800,000	-0,046	-0,091
-374,073	-8,354	-0,039	0,019
-373,058	-18,599	0,034	0,015
-372,044	557,128	-0,056	0,096
-371,029	132,109	0,101	-0,093
-370,015	96,782	0,078	-0,064
-369,000	104,991	-0,082	0,070
-367,985	800,000	0,016	-0,040
-366,971	800,000	0,023	-0,061
-365,956	198,935	0,063	-0,069
-364,942	277,245	0,056	-0,071
-363,927	800,000	0,029	0,067
-362,912	168,782	0,073	0,075
-361,898	-145,666	-0,091	-0,006
-360,883	-96,371	0,071	0,013
-359,869	193,423	-0,047	0,051
-358,854	635,213	-0,087	0,159
-357,839	589,824	0,053	0,093
-356,825	113,184	0,086	0,075
-355,810	-200,000	-0,007	0,087
-354,796	-115,170	-0,105	-0,014
-353,781	-94,765	-0,078	-0,015
-352,766	-150,258	-0,062	-0,003
-351,752	172,993	0,094	0,097
-350,737	-200,000	0,006	-0,146
-349,723	800,000	-0,042	0,121
-348,708	121,307	0,064	0,057
-347,693	51,141	0,070	0,047
-346,679	271,079	-0,036	0,046
-345,664	9,010	0,029	-0,016
-344,650	-200,000	-0,024	-0,179
-343,635	800,000	0,004	-0,013
-342,620	-200,000	0,022	0,089
-341,606	417,187	-0,053	0,082
-340,591	-138,704	-0,143	-0,011
-339,577	203,538	-0,078	-0,087
-338,562	-200,000	-0,001	-0,057
-337,548	193,851	-0,025	0,027
-336,533	79,052	0,072	0,055
-335,518	-200,000	0,014	-0,085
-334,504	13,395	0,126	-0,070
-333,489	-200,000	0,006	0,042
-332,475	327,667	0,021	0,028
-331,460	450,765	-0,069	-0,110
-330,445	-27,433	-0,034	0,014
-329,431	-83,023	-0,171	-0,039
-328,416	109,468	0,111	-0,095
-327,402	-200,000	0,002	-0,044
-326,387	479,128	0,068	-0,110
-325,372	425,340	-0,078	-0,120
-324,358	-200,000	-0,047	-0,191
-323,343	419,962	-0,094	-0,144
-322,329	404,821	0,049	-0,074
-321,314	-78,924	-0,083	-0,020
-320,299	-65,512	0,032	0,009
-319,285	-200,000	0,067	0,229
-318,270	-5,378	-0,030	-0,014
-317,256	-6,758	-0,181	-0,088
-316,241	340,166	-0,083	-0,115
-315,226	-121,626	0,134	-0,016
-314,212	34,681	0,157	0,098
-313,197	0,899	-0,047	-0,024
-312,183	644,584	0,046	0,083
-311,168	-200,000	-0,008	-0,032
-310,153	-200,000	-0,018	0,069
-309,139	20,361	-0,076	0,044
-308,124	-44,085	-0,051	-0,018
-307,110	-200,000	-0,003	-0,042
-306,095	123,424	0,090	0,081
-305,080	40,397	0,117	0,075
-304,066	71,867	-0,069	-0,051
-303,051	-119,732	0,161	0,020
-302,037	-61,707	0,043	-0,013
-301,022	26,411	0,150	-0,089
-300,008	52,585	0,016	0,011
-298,993	-200,000	0,032	0,117
-297,978	306,938	-0,113	0,151
-296,964	-200,000	0,020	-0,098
-295,949	-200,000	-0,015	0,060
-294,935	47,627	0,038	-0,025
-293,920	-47,246	-0,055	-0,019
-292,905	-200,000	0,060	-0,212
-291,891	88,291	0,071	-0,056
-290,876	-200,000	0,008	0,110
-289,862	97,470	-0,064	-0,052
-288,847	-200,000	-0,024	-0,217
-287,832	-88,630	-0,213	-0,045
-286,818	60,168	0,021	0,015
-285,803	3,675	-0,020	0,010
-284,789	89,306	-0,038	-0,031
-283,774	306,025	0,061	-0,081
-282,759	24,394	0,077	0,045
-281,745	26,249	-0,105	-0,062
-280,730	800,000	-0,047	0,111
-279,716	-34,363	-0,133	0,052
-278,701	800,000	0,043	0,132
-277,686	673,192	0,041	0,076
-276,672	-89,580	0,070	-0,015
-275,657	637,676	-0,055	0,099
-274,643	62,678	-0,063	0,045
-273,628	-200,000	-0,001	0,055
-272,613	493,840	0,070	-0,114
-271,599	-200,000	-0,034	0,176
-270,584	-80,823	0,127	0,030
-269,570	800,000	0,063	0,130
-268,555	-24,023	0,032	-0,013
-267,540	800,000	0,023	-0,059
-266,526	279,705	-0,058	0,074
-265,511	-14,267	-0,103	0,047
-264,497	-200,000	0,009	-0,056
-263,482	20,226	0,058	-0,033
-262,467	-200,000	-0,011	0,105
-261,453	87,212	-0,064	0,050
-260,438	800,000	0,042	0,109
-259,424	11,085	0,092	-0,050
-258,409	-12,477	0,079	-0,036
-257,395	-200,000	-0,022	-0,085
-256,380	-65,508	0,028	-0,008
-255,365	72,607	0,059	0,044
-254,351	72,995	0,107	0,080
-253,336	-200,000	0,020	-0,120
-252,322	104,043	-0,063	-0,053
-251,307	-79,541	-0,187	-0,045
-250,292	97,407	0,084	-0,069
-249,278	180,812	0,051	0,053
-248,263	-200,000	-0,002	-0,071
-247,249	800,000	0,013	0,030
-246,234	-69,269	-0,151	0,041
-245,219	-63,138	-0,119	-0,035
-244,205	-200,000	0,005	0,103
-243,190	-54,084	0,050	0,016
-242,176	151,953	-0,023	0,022
-241,161	26,572	-0,025	0,015
-240,146	-200,000	0,038	0,123
-239,132	16,056	-0,202	-0,113
-238,117	-108,314	0,155	0,024
-237,103	-53,287	-0,124	-0,040
-236,088	-161,047	0,085	-0,003
-235,073	800,000	0,035	-0,092
-234,059	800,000	0,026	0,078
-233,044	400,371	-0,032	-0,048
-232,030	468,421	0,020	-0,033
-231,015	245,113	-0,023	0,027
-230,000	-80,590	0,050	-0,012
-228,986	55,553	-0,040	0,027
-227,971	-200,000	-0,054	-0,193
-226,957	66,667	0,088	0,064
-225,942	800,000	0,021	0,048
-224,927	-173,042	-0,096	0,002
-223,913	800,000	-0,059	-0,140
-222,898	217,667	0,010	-0,011
-221,884	54,579	0,096	0,066
-220,869	328,494	-0,082	-0,112
-219,855	800,000	-0,053	0,118
-218,840	6,616	0,069	0,036
-217,825	-7,346	0,033	-0,016
-216,811	800,000	0,064	-0,135
-215,796	-200,000	-0,031	-0,114
-214,782	-200,000	0,006	-0,076
-213,767	-200,000	0,013	-0,192
-212,752	71,437	0,119	0,088
-211,738	800,000	0,034	-0,080
-210,723	157,804	-0,063	-0,062
-209,709	-47,216	-0,085	-0,029
-208,694	-200,000	-0,004	-0,064
-207,679	36,231	-0,095	-0,060
-206,665	51,477	0,028	0,019
-205,650	12,482	0,086	-0,047
-204,636	-200,000	0,003	0,052
-203,621	186,159	-0,058	-0,062
-202,606	-87,723	-0,126	0,027
-201,592	-200,000	0,016	-0,072
-200,577	-22,419	0,080	0,034
-199,563	-200,000	0,012	-0,095
-198,548	-146,920	0,095	-0,006
-197,533	-200,000	0,007	0,083
-196,519	-133,876	0,028	-0,002
-195,504	101,978	-0,091	-0,076
-194,490	503,805	0,126	-0,208
-193,475	-147,720	-0,138	0,008
-192,460	-180,116	-0,162	-0,002
-191,446	-43,339	0,120	0,043
-190,431	-11,662	-0,070	0,032
-189,417	-200,000	0,015	0,123
-188,402	635,202	-0,052	-0,093
-187,387	800,000	0,026	-0,052
-186,373	-59,539	0,028	-0,009
-185,358	-200,000	-0,011	-0,045
-184,344	-25,347	0,060	0,025
-183,329	-40,952	0,032	-0,012
-182,315	-176,908	0,031	0,001
-181,300	184,903	0,089	0,094
-180,285	656,744	0,023	-0,041
-179,271	13,422	-0,038	-0,021
-178,256	199,002	-0,065	-0,071
-177,242	-83,764	-0,014	0,003
-176,227	28,892	0,088	0,053
-175,212	-200,000	-0,024	0,077
-174,198	154,082	0,081	-0,079
-173,183	-200,000	-0,029	-0,144
-172,169	117,846	-0,057	0,050
-171,154	377,576	0,074	0,108
-170,139	-200,000	0,020	0,084
-169,125	-200,000	-0,006	0,038
-168,110	-83,165	0,146	-0,033
-167,096	-200,000	0,018	0,102
-166,081	-84,647	-0,111	-0,025
-165,066	560,005	-0,099	-0,170
-164,052	282,336	-0,078	-0,100
-163,037	-200,000	-0,019	0,117
-162,023	800,000	0,036	0,083
-161,008	-86,476	0,100	0,022
-159,993	-168,456	0,097	-0,003
-158,979	-15,955	-0,069	-0,031
-157,964	635,204	-0,067	-0,121
-156,950	-42,163	0,089	0,032
-155,935	-200,000	-0,023	-0,086
-154,920	145,121	-0,080	0,076
-153,906	-200,000	-0,006	0,237
-152,891	800,000	-0,042	-0,102
-151,877	73,643	-0,008	0,006
-150,862	-51,656	-0,038	0,013
-149,847	-71,904	-0,020	0,005
-148,833	-141,242	-0,026	-0,002
-147,818	-71,694	-0,044	0,012
-146,804	-200,000	0,013	0,048
-145,789	-2,892	0,087	0,043
-144,775	-192,546	-0,086	0,001
-143,760	-200,000	-0,028	0,140
-142,745	-37,226	0,117	0,044
-141,731	430,150	-0,050	0,076
-140,716	59,200	-0,059	-0,041
-139,702	-200,000	0,023	0,085
-138,687	800,000	0,042	-0,110
-137,672	112,274	0,142	0,122
-136,658	800,000	0,055	-0,135
-135,643	-200,000	0,002	-0,024
-134,629	-200,000	0,017	0,066
-133,614	-63,251	0,062	-0,018
-132,599	108,409	-0,056	-0,048
-131,585	-109,801	0,147	-0,022
-130,570	-200,000	0,018	0,057
-129,556	-44,898	-0,112	-0,039
-128,541	-17,575	0,034	0,015
-127,526	557,302	-0,069	0,119
-126,512	273,193	-0,048	0,061
-125,497	-105,421	-0,122	0,019
-124,483	95,683	0,078	-0,063
-123,468	-200,000	0,016	0,263
-122,453	128,092	-0,069	0,062
-121,439	153,733	-0,042	0,041
-120,424	-200,000	-0,018	-0,060
-119,410	-60,008	0,073	-0,022
-118,395	-200,000	0,039	0,218
-117,380	795,173	-0,036	-0,071
-116,366	-59,374	-0,057	0,017
-115,351	-200,000	0,015	-0,266
-114,337	-125,691	-0,102	0,011
-113,322	-107,043	-0,115	0,018
-112,307	-200,000	-0,002	0,031
-111,293	-48,697	-0,165	0,056
-110,278	-200,000	0,028	0,116
-109,264	-200,000	0,003	0,060
-108,249	263,747	-0,051	-0,063
-107,234	-200,000	-0,023	-0,087
-106,220	-200,000	0,004	-0,025
-105,205	53,403	0,067	0,046
-104,191	0,918	-0,088	-0,045
-103,176	44,689	-0,101	0,065
-102,162	309,835	0,105	0,139
-101,147	481,630	0,030	-0,048
-100,132	28,425	-0,141	-0,084
-99,118	-200,000	0,036	-0,179
-98,103	306,105	0,040	-0,052
-97,089	-200,000	0,010	0,177
-96,074	-65,814	0,049	-0,014
-95,059	-17,926	-0,064	0,028
-94,045	-16,675	-0,055	-0,024
-93,030	-172,654	-0,035	-0,001
-92,016	-100,939	-0,118	-0,020
-91,001	-41,563	0,202	-0,073
-89,986	-115,008	0,123	0,016
-88,972	-141,845	-0,023	0,002
-87,957	320,029	0,044	-0,060
-86,943	-200,000	-0,009	0,132
-85,928	410,182	-0,059	-0,089
-84,913	21,712	-0,124	-0,071
-83,899	-129,401	0,132	-0,013
-82,884	800,000	0,029	-0,058
-81,870	18,794	0,068	0,039
-80,855	342,157	0,040	0,055
-79,840	21,938	0,123	0,071
-78,826	286,589	0,053	0,068
-77,811	67,499	-0,031	0,022
-76,797	-200,000	-0,019	-0,070
-75,782	-200,000	-0,024	0,174
-74,767	103,567	0,086	0,071
-73,753	-200,000	0,003	0,181
-72,738	301,597	-0,035	0,046
-71,724	519,444	0,071	-0,117
-70,709	800,000	0,042	-0,111
-69,694	-88,441	-0,107	-0,022
-68,680	90,833	0,038	0,030
-67,665	-200,000	0,100	0,000
-66,651	619,172	-0,011	0,020
-65,636	62,216	-0,126	-0,089
-64,622	444,190	-0,061	-0,096
-63,607	10,691	0,015	-0,008
-62,592	-95,604	0,098	-0,018
-61,578	34,634	-0,086	-0,053
-60,563	144,487	0,031	0,029
-59,549	50,364	-0,090	0,060
-58,534	24,119	-1,624	-0,945
-57,519	497,535	-1,194	-1,950
-56,505	-200,000	-0,632	-4,653
-55,490	267,187	1,088	1,347
-54,476	800,000	4,886	11,131
-53,461	-200,000	20,395	323,625
-52,446	800,000	751,826	2310,201
-51,432	549,234	1662,556	2827,378
-50,417	74,794	1671,420	1242,273
-49,403	19,825	1544,586	877,047
-48,388	13,826	1467,129	803,884
-47,373	18,406	1457,447	820,670
-46,359	16,299	1446,838	804,571
-45,344	12,096	1442,563	782,032
-44,330	11,999	1440,567	780,456
-43,315	12,029	1438,768	779,595
-42,300	12,061	1437,047	778,785
-41,286	12,053	1435,749	778,011
-40,271	12,003	1434,290	776,953
-39,257	11,990	1433,276	776,311
-38,242	12,080	1431,988	776,007
-37,227	12,071	1430,769	775,277
-36,213	12,029	1429,579	774,398
-35,198	12,047	1428,419	773,826
-34,184	12,126	1427,275	773,549
-33,169	12,056	1425,885	772,433
-32,154	12,061	1424,727	771,798
-31,140	12,095	1423,655	771,349
-30,125	12,145	1422,569	770,969
-29,111	12,077	1421,418	769,992
-28,096	12,081	1420,344	769,400
-27,082	12,037	1419,200	768,542
-26,067	12,027	1418,198	767,919
-25,052	12,001	1416,990	767,112
-24,038	11,983	1416,222	766,584
-23,023	12,024	1414,876	766,019
-22,009	11,993	1414,066	765,403
-20,994	11,960	1413,112	764,699
-19,979	11,993	1412,192	764,326
-18,965	11,934	1411,237	763,504
-17,950	11,960	1410,373	763,126
-16,936	11,909	1409,550	762,412
-15,921	11,885	1408,501	761,704
-14,906	11,912	1407,725	761,380
-13,892	11,914	1406,645	760,773
-12,877	11,944	1405,636	760,339
-11,863	11,892	1405,005	759,724
-10,848	11,865	1403,970	759,008
-9,833	11,840	1403,017	758,346
-8,819	11,785	1402,295	757,667
-7,804	11,757	1401,437	757,048
-6,790	11,800	1400,341	756,623
-5,775	11,804	1399,222	756,008
-4,760	11,826	1398,170	755,511
-3,746	11,818	1397,375	755,014
-2,731	11,787	1396,516	754,376
-1,717	11,817	1395,765	754,080
-0,702	11,759	1394,071	752,868
0,313	15,733	1308,774	725,137
1,327	31,977	699,745	425,022
2,342	49,853	121,987	81,109
3,356	1,307	16,470	8,331
4,371	-2,174	3,285	1,623
5,386	47,116	0,567	0,372
6,400	-200,000	-0,028	0,387
7,415	-161,844	-0,187	-0,007
8,429	-171,156	-0,393	-0,009
9,444	37,936	-0,347	-0,217
10,459	294,546	-0,253	-0,327
11,473	68,739	-0,373	-0,270
12,488	42,734	-0,224	-0,144
13,502	-187,522	-0,317	-0,003
14,517	15,605	-0,343	-0,189
15,531	-44,249	-0,394	-0,139
16,546	33,310	-0,384	-0,234
17,561	94,902	-0,414	-0,332
18,575	9,498	-0,167	-0,089
19,590	-143,186	-0,229	-0,015
20,604	-13,607	-0,078	-0,036
21,619	41,445	-0,420	-0,267
22,634	111,566	-0,394	-0,335
23,648	12,486	-0,425	-0,230
24,663	116,142	-0,392	-0,338
25,677	71,608	-0,287	-0,210
26,692	-79,711	-0,334	-0,079
27,707	-18,377	-0,362	-0,159
28,721	78,623	-0,405	-0,305
29,736	101,721	-0,251	-0,206
30,750	-48,751	-0,416	-0,140
31,765	166,729	-0,373	-0,373
32,780	109,297	-0,473	-0,399
33,794	1,041	-0,376	-0,189
34,809	-67,942	-0,263	-0,072
35,823	73,460	-0,329	-0,243
36,838	92,715	-0,544	-0,432
37,853	89,285	-0,388	-0,304
38,867	82,134	-0,446	-0,340
39,882	30,761	-0,362	-0,218
40,896	114,875	-0,296	-0,254
41,911	596,856	-0,169	-0,295
42,926	23,019	-0,336	-0,194
43,940	117,057	-0,307	-0,266
44,955	110,072	-0,366	-0,309
45,969	229,888	-0,209	-0,241
46,984	117,846	-0,338	-0,293
47,999	183,705	-0,354	-0,369
49,013	81,764	-0,287	-0,219
50,028	-16,644	-0,306	-0,136
51,042	-73,342	-0,268	-0,068
52,057	60,670	-0,384	-0,267
53,071	108,083	-0,245	-0,205
54,086	158,826	-0,192	-0,188
55,101	214,796	-0,306	-0,341
56,115	20,723	-0,398	-0,226
57,130	64,618	-0,301	-0,213
58,144	136,824	-0,388	-0,356
59,159	163,533	-0,323	-0,320
60,174	-55,366	-0,398	-0,125
61,188	7,164	-0,226	-0,118
62,203	-155,924	-0,297	-0,013
63,217	100,597	-0,218	-0,178
64,232	46,076	-0,329	-0,214
65,247	15,159	-0,396	-0,218
66,261	83,302	-0,387	-0,296
67,276	32,411	-0,382	-0,231
68,290	-8,064	-0,350	-0,165
69,305	4,426	-0,288	-0,148
70,320	-9,533	-0,348	-0,162
71,334	-90,130	-0,294	-0,059
72,349	20,177	-0,202	-0,114
73,363	61,450	-0,225	-0,157
74,378	92,343	-0,236	-0,187
75,393	88,928	-0,296	-0,231
76,407	-60,007	-0,296	-0,088
77,422	82,220	-0,153	-0,116
78,436	108,717	-0,187	-0,157
79,451	34,938	-0,278	-0,170
80,466	165,980	-0,233	-0,232
81,480	24,229	-0,290	-0,168
82,495	94,993	-0,364	-0,290
83,509	399,357	-0,151	-0,222
84,524	329,895	-0,238	-0,322
85,539	78,171	-0,323	-0,242
86,553	-3,438	-0,232	-0,113
87,568	60,479	-0,284	-0,197
88,582	240,289	-0,214	-0,251
89,597	1,538	-0,234	-0,118
90,611	97,537	-0,265	-0,213
91,626	-30,576	-0,361	-0,143
92,641	59,606	-0,188	-0,130
93,655	-124,278	-0,338	-0,037
94,670	32,761	-0,232	-0,140
95,684	80,551	-0,349	-0,263
96,699	-88,620	-0,333	-0,069
97,714	89,492	-0,307	-0,240
98,728	618,776	-0,092	-0,162
99,743	59,498	-0,252	-0,174
100,757	23,701	-0,288	-0,166
101,772	800,000	-0,097	-0,218
102,787	91,032	-0,190	-0,149
103,801	63,269	-0,320	-0,224
104,816	-101,427	-0,229	-0,039
105,830	65,366	-0,189	-0,134
106,845	35,043	-0,201	-0,123
107,860	45,560	-0,372	-0,240
108,874	-50,166	-0,334	-0,110
109,889	-91,107	-0,283	-0,056
110,903	12,918	-0,295	-0,159
111,918	19,495	-0,371	-0,208
112,933	-143,791	-0,239	0,016
113,947	-4,523	-0,227	-0,109
114,962	311,071	-0,211	-0,277
115,976	95,564	-0,251	-0,201
116,991	66,861	-0,330	-0,235
118,006	235,565	-0,196	-0,227
119,020	54,858	-0,193	-0,130
120,035	115,614	-0,214	-0,183
121,049	684,770	-0,117	-0,215
122,064	203,056	-0,230	-0,248
123,079	541,369	-0,148	-0,247
124,093	198,318	-0,292	-0,313
125,108	-34,152	-0,219	-0,084
126,122	86,570	-0,188	-0,145
127,137	-82,011	-0,290	-0,066
128,151	77,067	-0,257	-0,191
129,166	164,442	-0,174	-0,172
130,181	13,529	-0,286	-0,155
131,195	192,204	-0,117	-0,123
132,210	-28,324	-0,272	-0,109
133,224	135,029	-0,193	-0,175
134,239	124,952	-0,209	-0,183
135,254	-47,704	-0,250	-0,084
136,268	-69,405	-0,292	-0,078
137,283	110,881	-0,309	-0,260
138,297	10,671	-0,232	-0,123
139,312	1,113	-0,311	-0,155
140,327	-43,530	-0,266	-0,093
141,341	502,599	-0,163	-0,263
142,356	6,950	-0,267	-0,138
143,370	177,847	-0,151	-0,154
144,385	-50,714	-0,266	-0,087
145,400	-71,740	-0,317	-0,082
146,414	-36,836	-0,326	-0,121
147,429	112,918	-0,378	-0,319
148,443	151,062	-0,306	-0,290
149,458	304,423	-0,172	-0,223
150,473	29,814	-0,290	-0,172
151,487	-71,261	-0,321	-0,083
152,502	67,454	-0,202	-0,144
153,516	90,624	-0,286	-0,223
154,531	45,573	-0,323	-0,207
155,546	11,879	-0,251	-0,134
156,560	100,716	-0,281	-0,227
157,575	26,327	-0,156	-0,091
158,589	84,226	-0,181	-0,138
159,604	0,180	-0,332	-0,164
160,619	-72,191	-0,295	-0,076
161,633	51,768	-0,289	-0,191
162,648	0,002	-0,332	-0,164
163,662	202,206	-0,135	-0,146
164,677	582,148	-0,148	-0,254
165,692	59,015	-0,223	-0,152
166,706	80,269	-0,196	-0,146
167,721	6,975	-0,299	-0,155
168,735	161,262	-0,234	-0,228
169,750	148,481	-0,184	-0,173
170,764	181,772	-0,107	-0,110
171,779	-75,171	-0,188	-0,047
172,794	204,024	-0,135	-0,145
173,808	800,000	-0,139	-0,314
174,823	800,000	-0,135	-0,358
175,837	9,373	-0,284	-0,149
176,852	181,872	-0,209	-0,214
177,867	-20,149	-0,292	-0,124
178,881	-130,421	-0,258	-0,024
179,896	-25,724	-0,289	-0,118
180,910	0,459	-0,259	-0,128
181,925	90,694	-0,156	-0,122
182,940	60,886	-0,263	-0,181
183,954	93,824	-0,275	-0,217
184,969	91,033	-0,151	-0,117
185,983	211,799	-0,246	-0,269
186,998	93,267	-0,262	-0,206
188,013	-104,196	-0,198	0,032
189,027	292,376	-0,153	-0,194
190,042	-35,443	-0,254	-0,095
191,056	11,830	-0,345	-0,183
192,071	117,624	-0,260	-0,222
193,086	-35,558	-0,174	-0,065
194,100	36,788	-0,141	-0,086
195,115	226,092	-0,231	-0,261
196,129	126,271	-0,106	-0,093
197,144	163,528	-0,241	-0,235
198,159	450,113	-0,156	-0,240
199,173	-78,317	-0,199	-0,047
200,188	6,312	-0,201	-0,103
201,202	353,448	-0,152	-0,210
202,217	108,331	-0,141	-0,117
203,232	-55,791	-0,213	-0,066
204,246	-46,776	-0,254	-0,086
205,261	-43,578	-0,123	-0,043
206,275	167,010	-0,201	-0,198
207,290	177,686	-0,135	-0,137
208,304	621,712	-0,071	-0,124
209,319	115,480	-0,264	-0,223
210,334	-10,745	-0,271	-0,124
211,348	-34,195	-0,287	-0,109
212,363	461,845	-0,136	-0,212
213,377	131,915	-0,139	-0,124
214,392	-200,000	-0,071	-0,262
215,407	259,995	-0,145	-0,174
216,421	142,796	-0,167	-0,154
217,436	172,095	-0,178	-0,177
218,450	-0,951	-0,137	-0,067
219,465	104,849	-0,258	-0,211
220,480	-39,910	-0,220	-0,079
221,494	-64,800	-0,169	-0,047
222,509	147,349	-0,098	-0,092
223,523	24,995	-0,106	-0,061
224,538	84,549	-0,169	-0,128
225,553	327,745	-0,197	-0,263
226,567	18,123	-0,295	-0,163
227,582	-61,826	-0,233	-0,067
228,596	78,423	-0,059	-0,043
229,611	397,173	-0,099	-0,144
230,626	-52,959	-0,149	-0,047
231,640	-63,186	-0,287	-0,081
232,655	8,179	-0,334	-0,173
233,669	47,682	-0,213	-0,137
234,684	800,000	-0,129	-0,259
235,699	-47,021	-0,212	-0,071
236,713	-124,379	-0,202	-0,022
237,728	-43,896	-0,182	0,063
238,742	-186,999	-0,269	0,002
239,757	-170,407	-0,119	0,003
240,772	177,228	-0,225	-0,226
241,786	800,000	-0,071	-0,186
242,801	-91,792	-0,163	-0,032
243,815	151,535	-0,128	-0,121
244,830	-112,634	-0,032	-0,004
245,844	-77,689	-0,203	-0,048
246,859	125,463	-0,189	-0,165
247,874	162,974	-0,249	-0,242
248,888	171,481	-0,214	-0,212
249,903	330,730	-0,181	-0,241
250,917	-49,924	-0,122	-0,040
251,932	227,841	-0,164	-0,184
252,947	125,433	-0,143	-0,125
253,961	203,929	-0,174	-0,186
254,976	2,171	-0,176	-0,088
255,990	800,000	-0,126	-0,271
257,005	800,000	-0,082	-0,218
258,020	-170,332	-0,245	-0,006
259,034	-116,845	-0,158	-0,020
260,049	387,230	-0,186	-0,266
261,063	759,044	-0,101	-0,190
262,078	-200,000	-0,047	-0,174
263,093	442,155	-0,079	-0,120
264,107	201,433	-0,177	-0,189
265,122	-127,000	-0,122	0,012
266,136	67,983	-0,150	-0,105
267,151	163,545	-0,160	-0,156
268,166	800,000	-0,086	-0,229
269,180	141,167	-0,307	-0,281
270,195	241,951	-0,283	-0,327
271,209	-55,450	-0,217	-0,067
272,224	800,000	-0,053	-0,131
273,239	-143,182	-0,131	0,009
274,253	781,216	-0,078	-0,147
275,268	156,213	-0,190	-0,181
276,282	-56,385	-0,255	-0,078
277,297	-29,863	-0,221	-0,086
278,312	60,572	-0,125	-0,085
279,326	-68,836	-0,092	-0,024
280,341	115,909	-0,162	-0,136
281,355	800,000	-0,089	-0,215
282,370	-95,122	-0,057	-0,011
283,384	51,552	-0,145	-0,095
284,399	392,267	-0,189	-0,272
285,414	-162,486	-0,201	0,007
286,428	-94,505	-0,359	-0,067
287,443	388,569	-0,079	-0,113
288,457	45,857	-0,191	-0,122
289,472	20,821	-0,210	-0,117
290,487	-70,756	-0,184	-0,048
291,501	2,626	-0,212	0,105
292,516	-140,862	-0,232	-0,016
293,530	33,660	-0,175	-0,105
294,545	-200,000	-0,010	-0,098
295,560	-200,000	0,001	-0,184
296,574	282,384	-0,068	-0,084
297,589	-71,961	-0,172	-0,044
298,603	-78,209	-0,169	0,040
299,618	44,617	-0,032	-0,020
300,633	-92,624	-0,230	-0,044
301,647	-17,296	0,025	-0,011
302,662	14,231	-0,185	-0,099
303,676	361,222	-0,147	-0,203
304,691	146,843	-0,095	-0,088
305,706	16,983	-0,188	-0,102
306,720	122,843	-0,216	-0,186
307,735	155,857	-0,133	-0,126
308,749	91,124	-0,072	-0,056
309,764	-112,809	-0,158	-0,021
310,779	46,425	-0,106	-0,067
311,793	22,801	-0,139	-0,078
312,808	19,719	-0,161	-0,089
313,822	303,138	-0,174	-0,222
314,837	-200,000	-0,053	-0,236
315,852	-86,721	-0,143	-0,030
316,866	78,272	-0,089	-0,065
317,881	800,000	-0,064	-0,126
318,895	-107,770	-0,256	0,038
319,910	115,611	-0,136	-0,114
320,925	-85,543	-0,095	-0,020
321,939	29,552	-0,168	-0,098
322,954	437,308	-0,086	-0,129
323,968	-77,584	-0,121	-0,029
324,983	15,352	-0,092	-0,050
325,997	-9,842	-0,085	0,039
327,012	800,000	-0,049	-0,144
328,027	-96,845	-0,164	-0,029
329,041	800,000	-0,032	-0,078
330,056	800,000	-0,040	0,092
331,070	163,009	-0,140	-0,135
332,085	24,994	-0,190	0,108
333,100	354,891	-0,078	-0,107
334,114	-34,828	-0,210	-0,078
335,129	217,820	-0,109	-0,119
336,143	-33,357	-0,150	-0,057
337,158	89,556	-0,159	-0,122
338,173	27,328	-0,195	-0,112
339,187	295,403	-0,119	-0,150
340,202	800,000	-0,129	-0,268
341,216	82,480	-0,169	-0,126
342,231	147,743	-0,272	-0,252
343,246	607,862	-0,134	-0,230
344,260	360,760	-0,076	-0,105
345,275	2,556	-0,228	-0,113
346,289	143,994	-0,118	-0,108
347,304	-83,654	-0,147	-0,032
348,319	100,272	-0,148	0,118
349,333	24,510	-0,158	-0,090
350,348	219,761	-0,080	-0,088
351,362	-200,000	0,000	-0,030
352,377	-47,539	-0,090	-0,030
353,392	-200,000	-0,021	0,149
354,406	-200,000	0,008	-0,050
355,421	208,170	1315,144	1409,315
356,435	160,169	1475,889	1409,789
