DTS Sentinel unit serial number:	SN410029Multiplexer serial number:	ORYXHardware model number:	OX2-SRSoftware version number:	ORYX F/W v4,00 Oryx Data Collector v3.7.2.0data status	okinstallation	B3 Nyhavnadifferential loss correction	single-endedforward channel	channel 1reverse channel	N/Adate	2023/12/01time	23:07:30forward acquisition time	300,00reverse acquisition time	0,00gamma	499,1914k internal	0,3196k external	0,3196temperature offset calibration	1,0000default loss term (dB/km)	0,3820temperature slope calibration	1,0000multiplexer offset coefficient	1,0000multiplexer slope coefficient	1,0000fibre end	0,00T internal ref (°C)	15,86T ext. ref 1 (°C)	1,16T ext. ref 2 (°C)	1,15length (m)	temperature (°C)	Stokes	anti-Stokes-744,400	235,064	-0,305	-0,367
-743,385	-200,000	0,089	0,296
-742,371	168,649	-0,217	-0,226
-741,356	-200,000	0,046	0,190
-740,342	-200,000	-0,036	-0,307
-739,327	-200,000	-0,038	0,364
-738,312	112,749	-0,242	-0,213
-737,298	800,000	0,089	0,247
-736,283	800,000	-0,172	-0,358
-735,269	-200,000	0,040	0,333
-734,254	800,000	-0,084	-0,181
-733,239	82,216	-0,187	0,148
-732,225	302,539	-0,145	-0,195
-731,210	13,803	0,133	0,075
-730,196	-103,602	0,174	0,029
-729,181	150,846	-0,038	-0,037
-728,167	324,134	-0,070	-0,098
-727,152	-159,067	0,058	0,002
-726,137	-160,622	-0,161	-0,006
-725,123	800,000	0,017	-0,046
-724,108	-200,000	0,005	-0,167
-723,094	692,615	-0,058	-0,112
-722,079	185,223	0,075	-0,081
-721,064	537,488	-0,015	-0,026
-720,050	-81,161	-0,147	-0,035
-719,035	684,360	0,041	0,078
-718,021	-200,000	-0,006	-0,036
-717,006	-82,282	-0,109	-0,026
-715,991	-200,000	0,005	-0,169
-714,977	133,481	0,119	0,112
-713,962	217,148	0,045	-0,052
-712,948	-112,170	-0,009	0,001
-711,933	-86,693	-0,048	0,011
-710,918	309,735	0,034	0,046
-709,904	272,365	0,023	0,030
-708,889	71,542	0,068	0,052
-707,875	489,229	-0,075	-0,125
-706,860	-50,166	-0,045	0,016
-705,845	-200,000	0,029	0,116
-704,831	-3,094	0,086	0,044
-703,816	-200,000	-0,000	0,109
-702,802	-189,512	-0,075	0,001
-701,787	-200,000	0,001	-0,083
-700,772	49,207	-0,058	0,040
-699,758	-200,000	0,028	-0,098
-698,743	118,379	0,143	0,129
-697,729	9,681	-0,212	0,117
-696,714	800,000	0,054	0,110
-695,699	145,136	-0,055	-0,054
-694,685	1,903	-0,097	-0,051
-693,670	-200,000	0,017	-0,061
-692,656	800,000	-0,027	-0,057
-691,641	-200,000	0,012	0,049
-690,627	-48,408	-0,008	-0,003
-689,612	-200,000	0,011	-0,095
-688,597	-200,000	-0,009	0,111
-687,583	-200,000	0,025	-0,159
-686,568	524,400	-0,041	-0,071
-685,554	-32,300	-0,187	-0,075
-684,539	-49,613	0,091	0,031
-683,524	132,493	-0,052	0,049
-682,510	-181,516	0,107	0,001
-681,495	54,245	0,024	0,017
-680,481	791,250	-0,044	-0,088
-679,466	37,709	-0,094	0,061
-678,451	-89,990	-0,110	0,023
-677,437	171,778	0,117	-0,122
-676,422	70,287	-0,048	0,036
-675,408	-131,765	0,064	-0,006
-674,393	800,000	-0,064	0,144
-673,378	169,396	-0,121	0,125
-672,364	800,000	-0,054	0,149
-671,349	409,030	-0,060	-0,092
-670,335	-76,977	-0,187	0,047
-669,320	800,000	0,021	0,049
-668,305	-160,873	-0,148	0,006
-667,291	-200,000	0,018	-0,062
-666,276	-200,000	0,005	-0,129
-665,262	43,491	-0,041	0,027
-664,247	127,389	-0,019	-0,017
-663,232	-200,000	-0,009	0,066
-662,218	-200,000	-0,022	0,174
-661,203	400,561	-0,034	0,052
-660,189	-27,577	0,089	-0,038
-659,174	-127,063	0,161	0,017
-658,159	-200,000	0,027	0,126
-657,145	-17,334	-0,089	-0,041
-656,130	800,000	-0,051	-0,133
-655,116	524,662	-0,025	0,043
-654,101	-172,258	0,074	0,002
-653,086	800,000	-0,021	0,064
-652,072	112,969	-0,031	0,027
-651,057	-17,430	-0,140	-0,064
-650,043	800,000	-0,041	0,084
-649,028	-200,000	0,036	-0,151
-648,014	323,967	-0,012	-0,017
-646,999	-7,866	0,031	-0,015
-645,984	212,472	-0,088	-0,100
-644,970	225,210	0,038	-0,044
-643,955	800,000	-0,024	-0,066
-642,941	83,353	-0,067	-0,053
-641,926	-30,615	0,118	-0,048
-640,911	49,953	0,038	-0,026
-639,897	255,388	0,041	0,051
-638,882	800,000	0,013	0,032
-637,868	-23,064	0,169	0,074
-636,853	800,000	-0,033	-0,072
-635,838	-122,703	-0,135	-0,016
-634,824	800,000	0,047	-0,100
-633,809	-18,855	0,032	0,014
-632,795	-182,464	0,076	0,001
-631,780	14,515	0,008	0,004
-630,765	412,626	0,067	-0,103
-629,751	-70,585	0,060	-0,016
-628,736	-107,441	-0,054	0,008
-627,722	-82,091	0,067	0,016
-626,707	102,829	0,107	-0,091
-625,692	-200,000	0,019	0,123
-624,678	148,610	0,088	0,087
-623,663	-200,000	0,043	0,234
-622,649	-75,539	0,064	0,016
-621,634	-200,000	-0,023	-0,079
-620,619	13,663	0,105	0,059
-619,605	-200,000	0,002	-0,073
-618,590	-200,000	0,011	-0,076
-617,576	-200,000	0,035	0,118
-616,561	-73,810	-0,152	0,040
-615,546	6,181	-0,010	0,005
-614,532	-15,339	0,181	-0,083
-613,517	-56,592	-0,070	0,022
-612,503	-200,000	0,018	0,072
-611,488	59,275	-0,144	0,102
-610,474	-60,214	0,057	0,018
-609,459	800,000	-0,060	-0,157
-608,444	-200,000	0,039	-0,137
-607,430	-200,000	-0,005	-0,087
-606,415	272,903	0,046	-0,059
-605,401	93,768	-0,021	-0,017
-604,386	207,018	-0,101	0,114
-603,371	-200,000	0,004	-0,137
-602,357	222,075	-0,047	0,055
-601,342	311,300	-0,065	0,088
-600,328	126,571	-0,132	0,121
-599,313	-34,009	-0,124	-0,049
-598,298	-200,000	-0,008	-0,086
-597,284	-34,836	0,082	0,032
-596,269	-82,388	0,089	-0,021
-595,255	800,000	-0,046	-0,096
-594,240	46,894	0,152	0,102
-593,225	800,000	-0,032	-0,069
-592,211	-101,758	-0,042	-0,007
-591,196	800,000	0,012	0,024
-590,182	-105,654	0,114	-0,018
-589,167	-178,410	0,064	0,001
-588,152	-100,925	-0,035	0,006
-587,138	-193,257	-0,134	0,001
-586,123	-67,208	-0,042	-0,012
-585,109	257,074	0,106	-0,132
-584,094	-36,606	-0,041	0,016
-583,079	-80,097	0,086	0,021
-582,065	147,685	0,100	0,098
-581,050	-200,000	0,002	-0,151
-580,036	800,000	-0,019	-0,056
-579,021	-200,000	-0,007	-0,134
-578,006	-200,000	-0,020	-0,113
-576,992	-200,000	-0,193	0,001
-575,977	612,333	-0,055	-0,101
-574,963	349,352	0,128	0,184
-573,948	800,000	-0,072	0,213
-572,934	39,131	0,108	0,070
-571,919	-154,687	-0,110	0,005
-570,904	-21,033	-0,038	0,017
-569,890	-105,919	-0,060	-0,010
-568,875	-144,718	0,219	0,014
-567,861	-2,073	-0,134	-0,068
-566,846	33,918	0,105	0,066
-565,831	-200,000	-0,035	0,212
-564,817	4,124	0,029	0,016
-563,802	-143,119	0,053	-0,004
-562,788	-63,108	0,069	0,020
-561,773	-152,029	-0,023	0,001
-560,758	351,245	0,078	0,112
-559,744	-200,000	0,014	0,079
-558,729	-200,000	0,011	-0,038
-557,715	-40,905	-0,093	-0,035
-556,700	335,111	-0,040	-0,056
-555,685	113,969	-0,057	0,050
-554,671	181,847	0,045	0,048
-553,656	196,809	0,053	-0,058
-552,642	3,811	-0,063	0,033
-551,627	800,000	0,038	0,107
-550,612	800,000	-0,042	-0,120
-549,598	800,000	0,063	-0,141
-548,583	31,881	-0,115	-0,072
-547,569	131,151	-0,063	-0,058
-546,554	-21,040	-0,044	-0,019
-545,539	800,000	0,020	-0,053
-544,525	-20,780	-0,071	0,031
-543,510	800,000	0,053	-0,116
-542,496	46,349	-0,090	-0,060
-541,481	114,261	-0,118	-0,104
-540,466	-200,000	0,014	0,094
-539,452	-200,000	-0,005	-0,028
-538,437	35,909	-0,013	0,008
-537,423	603,979	0,018	-0,033
-536,408	259,105	-0,029	-0,036
-535,393	-200,000	-0,001	0,156
-534,379	-200,000	-0,034	-0,115
-533,364	93,940	-0,043	-0,035
-532,350	576,653	-0,006	-0,011
-531,335	-200,000	-0,015	0,059
-530,321	-117,836	0,098	0,013
-529,306	363,652	0,044	-0,064
-528,291	-200,000	-0,034	-0,158
-527,277	-46,243	-0,097	-0,034
-526,262	112,115	-0,039	-0,034
-525,248	-200,000	-0,035	0,137
-524,233	487,117	0,067	0,111
-523,218	167,098	0,028	0,029
-522,204	-106,923	-0,047	-0,007
-521,189	-26,745	-0,030	-0,013
-520,175	-115,020	-0,116	0,016
-519,160	-32,138	0,052	-0,021
-518,145	50,331	0,026	-0,018
-517,131	800,000	0,022	0,068
-516,116	-84,760	0,030	0,007
-515,102	6,186	-0,026	-0,014
-514,087	98,098	-0,107	-0,089
-513,072	297,006	-0,037	0,049
-512,058	7,993	0,042	0,023
-511,043	435,228	-0,085	0,134
-510,029	140,160	0,124	0,118
-509,014	40,859	-0,029	-0,019
-507,999	103,857	0,067	0,057
-506,985	351,110	0,060	-0,085
-505,970	-200,000	0,007	-0,068
-504,956	160,223	-0,119	0,120
-503,941	492,231	-0,024	-0,039
-502,926	-107,969	0,063	-0,010
-501,912	-103,096	0,171	0,029
-500,897	-152,899	0,166	0,008
-499,883	156,304	-0,069	-0,068
-498,868	-200,000	-0,018	-0,066
-497,853	409,183	0,041	-0,063
-496,839	430,263	-0,085	0,133
-495,824	231,928	-0,009	-0,010
-494,810	253,652	0,065	0,080
-493,795	800,000	-0,038	0,093
-492,781	440,195	-0,028	0,044
-491,766	257,300	-0,074	-0,092
-490,751	237,091	-0,054	0,065
-489,737	66,563	0,034	0,025
-488,722	149,762	0,105	0,102
-487,708	32,729	0,111	0,069
-486,693	323,617	0,048	-0,067
-485,678	66,368	0,051	0,037
-484,664	-157,818	-0,006	0,000
-483,649	-200,000	0,023	-0,153
-482,635	75,430	-0,085	0,064
-481,620	-186,178	-0,070	0,001
-480,605	-200,000	0,007	0,161
-479,591	-133,521	0,094	0,008
-478,576	-66,716	0,119	0,034
-477,562	122,794	-0,185	-0,167
-476,547	317,889	-0,010	0,014
-475,532	-200,000	-0,004	0,066
-474,518	-200,000	-0,003	0,010
-473,503	167,492	0,062	0,064
-472,489	526,809	-0,110	0,188
-471,474	-100,103	-0,070	0,012
-470,459	-200,000	-0,008	-0,104
-469,445	-200,000	-0,005	-0,102
-468,430	22,158	-0,024	0,014
-467,416	459,669	-0,045	0,073
-466,401	-35,819	0,060	-0,023
-465,386	-36,964	-0,074	0,029
-464,372	372,590	0,004	0,005
-463,357	544,024	0,017	-0,030
-462,343	184,043	-0,068	-0,072
-461,328	-11,740	-0,039	-0,019
-460,313	800,000	0,093	-0,210
-459,299	-200,000	0,018	0,099
-458,284	-200,000	-0,009	0,123
-457,270	-200,000	0,003	-0,039
-456,255	186,453	-0,102	-0,110
-455,241	-200,000	-0,012	0,081
-454,226	-130,173	-0,110	-0,011
-453,211	492,871	0,036	-0,059
-452,197	-79,879	-0,125	-0,030
-451,182	92,134	0,072	-0,058
-450,168	-86,654	-0,131	-0,029
-449,153	217,338	0,004	0,005
-448,138	-200,000	-0,003	-0,092
-447,124	1,871	0,028	0,014
-446,109	453,162	0,034	0,054
-445,095	800,000	-0,028	0,085
-444,080	-5,927	-0,048	0,024
-443,065	1,050	0,031	-0,016
-442,051	-200,000	-0,048	0,169
-441,036	436,836	-0,043	-0,068
-440,022	190,897	-0,021	0,023
-439,007	-200,000	0,003	0,016
-437,992	-200,000	-0,005	0,057
-436,978	-131,184	0,113	0,011
-435,963	-200,000	0,011	-0,076
-434,949	-135,503	-0,158	-0,013
-433,934	-200,000	-0,025	0,089
-432,919	-200,000	0,001	0,098
-431,905	222,491	0,076	0,088
-430,890	115,272	0,129	0,113
-429,876	-108,955	0,120	0,018
-428,861	777,181	0,086	0,169
-427,846	-200,000	0,017	0,088
-426,832	-200,000	-0,019	-0,104
-425,817	191,730	0,089	-0,097
-424,803	800,000	-0,033	-0,084
-423,788	-200,000	-0,006	0,047
-422,773	-200,000	0,003	0,166
-421,759	344,065	-0,102	0,144
-420,744	800,000	0,024	0,067
-419,730	-64,773	-0,094	0,027
-418,715	484,222	-0,041	-0,068
-417,701	800,000	0,033	0,088
-416,686	-120,164	0,089	0,011
-415,671	38,798	0,157	-0,101
-414,657	69,426	0,051	0,038
-413,642	-129,200	-0,118	0,012
-412,628	800,000	-0,030	0,074
-411,613	-9,657	-0,005	0,003
-410,598	-104,055	-0,160	-0,027
-409,584	800,000	0,034	-0,077
-408,569	-200,000	-0,013	0,144
-407,555	-200,000	0,033	-0,212
-406,540	28,920	-0,031	-0,019
-405,525	-200,000	0,038	0,128
-404,511	8,153	-0,091	-0,049
-403,496	197,382	0,014	-0,015
-402,482	-28,765	-0,156	-0,064
-401,467	461,455	-0,072	0,115
-400,452	-130,157	0,102	0,010
-399,438	-156,013	-0,062	-0,003
-398,423	100,273	0,079	-0,066
-397,409	-18,331	-0,076	0,034
-396,394	611,831	-0,027	-0,049
-395,379	265,759	0,038	-0,048
-394,365	-17,014	0,151	-0,068
-393,350	-200,000	-0,005	0,102
-392,336	-116,209	0,070	-0,009
-391,321	286,927	-0,023	0,030
-390,306	96,491	0,075	-0,061
-389,292	800,000	-0,047	-0,104
-388,277	-94,499	0,203	-0,039
-387,263	-200,000	-0,005	0,028
-386,248	-9,134	0,117	0,056
-385,233	599,178	-0,024	0,043
-384,219	-200,000	-0,004	0,028
-383,204	800,000	0,052	-0,107
-382,190	76,389	-0,068	0,051
-381,175	141,000	0,081	-0,077
-380,160	800,000	0,057	0,124
-379,146	-110,460	0,089	-0,013
-378,131	-200,000	-0,007	0,100
-377,117	-38,553	-0,227	0,086
-376,102	-200,000	-0,003	-0,083
-375,088	-64,813	-0,128	-0,037
-374,073	205,174	-0,034	0,038
-373,058	-89,565	0,019	-0,004
-372,044	423,352	0,048	0,074
-371,029	-88,547	0,015	0,003
-370,015	800,000	-0,038	-0,090
-369,000	11,828	-0,025	-0,014
-367,985	244,452	-0,024	0,029
-366,971	-144,504	-0,034	-0,002
-365,956	-200,000	0,005	0,029
-364,942	-120,859	0,063	-0,008
-363,927	21,811	-0,102	0,059
-362,912	-164,649	-0,140	0,004
-361,898	136,904	0,057	0,053
-360,883	220,217	-0,127	-0,146
-359,869	-54,340	0,115	0,037
-358,854	-29,571	0,014	-0,006
-357,839	-200,000	0,003	0,208
-356,825	-200,000	0,000	0,028
-355,810	-200,000	-0,006	0,052
-354,796	599,774	0,016	-0,029
-353,781	414,834	-0,025	-0,039
-352,766	-200,000	0,034	-0,166
-351,752	-200,000	-0,016	-0,092
-350,737	18,794	-0,052	-0,030
-349,723	-124,403	0,146	0,016
-348,708	108,600	-0,072	-0,062
-347,693	241,453	0,064	-0,076
-346,679	34,455	-0,082	-0,051
-345,664	69,443	-0,073	-0,054
-344,650	-5,496	0,153	0,075
-343,635	-45,300	0,047	0,016
-342,620	95,594	0,138	0,113
-341,606	-200,000	0,001	-0,039
-340,591	56,025	-0,025	0,017
-339,577	57,395	-0,105	0,073
-338,562	356,368	-0,101	-0,145
-337,548	-135,877	-0,076	0,006
-336,533	-178,707	0,075	0,001
-335,518	359,721	-0,081	0,117
-334,504	-76,886	0,125	0,031
-333,489	-80,733	0,112	0,027
-332,475	25,817	-0,070	-0,042
-331,460	203,556	0,013	0,015
-330,445	30,815	-0,096	0,059
-329,431	-200,000	-0,001	0,013
-328,416	245,953	-0,022	0,027
-327,402	800,000	0,037	0,086
-326,387	497,489	-0,048	0,080
-325,372	60,265	0,035	0,025
-324,358	-200,000	0,003	-0,114
-323,343	-171,462	-0,073	0,002
-322,329	485,711	0,072	0,117
-321,314	-200,000	-0,007	0,040
-320,299	629,453	0,074	0,135
-319,285	-200,000	0,026	0,141
-318,270	-1,944	-0,076	0,038
-317,256	-54,429	-0,217	-0,070
-316,241	-21,069	-0,028	0,012
-315,226	-141,856	-0,169	0,012
-314,212	106,778	0,089	0,076
-313,197	-40,569	0,057	0,021
-312,183	-48,069	-0,063	-0,022
-311,168	445,550	-0,017	-0,028
-310,153	-75,525	0,039	0,010
-309,139	82,140	-0,061	-0,047
-308,124	-200,000	0,014	0,063
-307,110	-34,461	0,059	-0,023
-306,095	-114,123	-0,007	-0,001
-305,080	559,170	0,046	0,081
-304,066	-200,000	0,008	-0,072
-303,051	147,466	0,040	-0,038
-302,037	152,229	-0,076	-0,074
-301,022	-200,000	-0,016	0,053
-300,008	-166,961	0,101	-0,003
-298,993	-200,000	-0,005	0,093
-297,978	800,000	0,028	-0,080
-296,964	26,941	0,113	-0,068
-295,949	50,553	0,041	-0,027
-294,935	86,367	-0,111	-0,087
-293,920	-195,046	0,044	0,000
-292,905	299,759	-0,022	0,029
-291,891	-69,319	0,071	0,019
-290,876	-92,965	0,183	0,036
-289,862	-200,000	-0,005	0,073
-288,847	-31,872	-0,020	-0,008
-287,832	29,488	-0,078	0,047
-286,818	-116,392	0,115	-0,015
-285,803	-146,462	0,099	0,006
-284,789	-200,000	0,030	0,103
-283,774	-200,000	-0,002	0,038
-282,759	416,747	-0,022	0,034
-281,745	-140,421	-0,069	-0,005
-280,730	-200,000	0,004	-0,021
-279,716	81,044	0,096	0,074
-278,701	800,000	0,010	0,022
-277,686	-175,699	0,148	-0,003
-276,672	-200,000	-0,027	-0,095
-275,657	517,547	-0,039	0,066
-274,643	47,067	-0,081	-0,054
-273,628	-41,867	-0,092	-0,033
-272,613	26,008	-0,096	-0,057
-271,599	-138,469	0,141	0,011
-270,584	386,311	0,066	0,098
-269,570	-31,612	-0,054	-0,022
-268,555	-74,722	-0,053	0,014
-267,540	-200,000	-0,002	-0,138
-266,526	-108,871	-0,011	0,002
-265,511	629,028	-0,004	-0,007
-264,497	308,372	-0,067	0,090
-263,482	191,529	0,097	-0,105
-262,467	59,983	0,028	0,020
-261,453	99,878	0,034	0,028
-260,438	77,066	-0,125	-0,095
-259,424	754,630	0,006	-0,011
-258,409	-200,000	0,037	-0,184
-257,395	-200,000	0,025	0,080
-256,380	-100,417	0,047	0,008
-255,365	800,000	0,029	0,058
-254,351	-15,470	-0,104	0,047
-253,336	386,453	-0,054	-0,080
-252,322	96,878	-0,070	-0,058
-251,307	-200,000	0,031	-0,130
-250,292	800,000	0,021	0,062
-249,278	-92,596	-0,072	-0,014
-248,263	-13,775	0,039	0,018
-247,249	194,293	-0,014	0,015
-246,234	-189,231	0,048	0,000
-245,219	129,502	-0,083	-0,075
-244,205	-200,000	0,013	-0,102
-243,190	-12,653	0,063	-0,029
-242,176	-200,000	-0,002	-0,048
-241,161	-68,594	0,106	-0,029
-240,146	711,371	0,030	0,057
-239,132	-200,000	-0,003	0,117
-238,117	-200,000	0,002	-0,060
-237,103	-200,000	0,020	0,118
-236,088	153,752	-0,036	0,036
-235,073	43,568	-0,108	0,071
-234,059	-184,258	0,107	-0,001
-233,044	-200,000	0,013	0,045
-232,030	-82,694	-0,122	0,028
-231,015	-11,034	-0,061	-0,029
-230,000	-200,000	-0,021	-0,125
-228,986	-82,388	-0,010	-0,002
-227,971	-129,122	0,092	-0,009
-226,957	52,197	-0,049	-0,033
-225,942	800,000	-0,063	-0,186
-224,927	-18,482	0,065	-0,029
-223,913	800,000	0,069	-0,186
-222,898	-152,831	-0,076	-0,004
-221,884	-38,243	0,069	-0,026
-220,869	-64,200	-0,023	-0,007
-219,855	-200,000	0,049	0,158
-218,840	129,999	0,071	0,065
-217,825	289,060	0,064	0,082
-216,811	-200,000	0,004	-0,129
-215,796	13,643	0,063	-0,035
-214,782	69,144	0,023	0,017
-213,767	146,753	0,041	0,040
-212,752	367,441	0,074	0,106
-211,738	247,502	-0,003	0,004
-210,723	800,000	0,015	-0,041
-209,709	-200,000	0,004	-0,061
-208,694	800,000	-0,043	-0,087
-207,679	-40,957	-0,044	0,016
-206,665	-11,506	-0,091	-0,042
-205,650	800,000	-0,020	-0,050
-204,636	4,138	0,115	-0,060
-203,621	-113,415	-0,027	0,004
-202,606	-29,168	0,043	0,018
-201,592	98,771	0,044	-0,037
-200,577	606,490	-0,022	-0,040
-199,563	800,000	0,012	-0,037
-198,548	800,000	0,010	-0,025
-197,533	186,245	-0,079	-0,084
-196,519	800,000	0,030	0,065
-195,504	-137,463	-0,160	0,013
-194,490	82,486	0,127	-0,098
-193,475	-32,863	-0,111	-0,044
-192,460	360,571	-0,048	-0,069
-191,446	-200,000	-0,001	0,022
-190,431	-200,000	0,015	0,077
-189,417	-124,856	-0,144	-0,016
-188,402	-10,862	0,058	0,027
-187,387	-152,516	-0,051	0,003
-186,373	567,861	-0,047	0,082
-185,358	53,885	-0,043	-0,030
-184,344	656,239	0,015	-0,028
-183,329	437,275	-0,049	-0,076
-182,315	-200,000	0,011	0,148
-181,300	18,469	-0,061	-0,035
-180,285	-200,000	-0,032	-0,103
-179,271	-200,000	0,008	-0,144
-178,256	-59,006	-0,064	-0,020
-177,242	800,000	-0,125	0,270
-176,227	-36,292	-0,044	0,017
-175,212	-200,000	0,011	-0,056
-174,198	800,000	-0,024	-0,067
-173,183	-90,946	-0,158	-0,032
-172,169	447,411	-0,070	-0,111
-171,154	140,187	0,065	-0,061
-170,139	800,000	0,035	-0,098
-169,125	800,000	0,025	0,062
-168,110	800,000	0,062	0,125
-167,096	61,481	-0,054	-0,038
-166,081	555,719	-0,020	-0,035
-165,066	-154,237	0,068	0,003
-164,052	-200,000	-0,006	0,025
-163,037	535,840	0,067	0,113
-162,023	800,000	0,022	-0,065
-161,008	85,679	-0,089	-0,070
-159,993	124,384	0,062	-0,055
-158,979	718,179	0,038	-0,072
-157,964	212,891	-0,098	-0,111
-156,950	115,189	0,061	0,053
-155,935	-151,526	0,209	0,011
-154,920	397,775	0,045	0,067
-153,906	225,056	0,026	0,030
-152,891	151,689	0,108	0,105
-151,877	163,454	0,090	-0,090
-150,862	-31,125	-0,075	-0,030
-149,847	293,676	-0,093	-0,121
-148,833	264,494	0,045	-0,056
-147,818	-124,939	0,042	-0,005
-146,804	-31,202	-0,076	0,030
-145,789	469,842	0,085	0,136
-144,775	-200,000	0,007	0,087
-143,760	-200,000	-0,025	-0,189
-142,745	202,926	-0,042	-0,047
-141,731	-200,000	0,005	0,099
-140,716	800,000	-0,038	-0,086
-139,702	-167,781	0,027	-0,001
-138,687	505,954	-0,063	0,104
-137,672	-200,000	0,024	0,135
-136,658	-200,000	0,029	-0,173
-135,643	182,875	-0,005	-0,005
-134,629	493,836	-0,071	-0,116
-133,614	185,140	0,096	-0,102
-132,599	-200,000	-0,005	0,038
-131,585	63,557	0,070	0,050
-130,570	-123,051	-0,090	-0,010
-129,556	82,556	-0,076	-0,059
-128,541	800,000	0,046	-0,121
-127,526	-200,000	0,031	-0,110
-126,512	-200,000	-0,018	0,070
-125,497	281,141	0,058	-0,074
-124,483	-63,893	-0,110	-0,032
-123,468	-128,890	-0,163	0,016
-122,453	-91,963	-0,066	-0,013
-121,439	492,703	-0,049	-0,080
-120,424	-165,357	-0,172	0,005
-119,410	509,865	-0,000	-0,001
-118,395	301,268	0,071	0,093
-117,380	-107,678	0,043	-0,007
-116,366	19,349	-0,040	0,023
-115,351	-16,711	0,084	0,038
-114,337	236,514	-0,102	-0,120
-113,322	-139,830	-0,099	0,007
-112,307	50,284	-0,103	-0,069
-111,293	63,833	0,090	0,064
-110,278	-96,265	0,111	-0,021
-109,264	-200,000	-0,016	0,126
-108,249	-10,225	-0,070	0,033
-107,234	-127,137	0,103	0,011
-106,220	-200,000	0,029	-0,120
-105,205	-200,000	-0,006	0,086
-104,191	-200,000	-0,010	0,043
-103,176	641,706	-0,020	0,036
-102,162	17,575	-0,157	0,088
-101,147	468,671	0,083	-0,133
-100,132	-138,943	-0,164	-0,012
-99,118	348,145	-0,058	0,082
-98,103	488,814	-0,075	-0,123
-97,089	-200,000	0,005	-0,031
-96,074	-117,660	0,175	0,022
-95,059	744,319	-0,043	0,082
-94,045	-116,980	0,129	0,017
-93,030	-69,290	-0,093	-0,025
-92,016	242,866	0,102	-0,122
-91,001	502,768	-0,011	-0,019
-89,986	164,016	0,065	0,065
-88,972	800,000	0,065	0,160
-87,957	447,817	-0,011	0,018
-86,943	82,885	-0,074	-0,057
-85,928	800,000	0,027	0,074
-84,913	-81,140	0,058	-0,014
-83,899	90,835	-0,043	0,034
-82,884	164,634	0,091	0,091
-81,870	-27,654	0,138	-0,057
-80,855	392,502	-0,025	0,037
-79,840	-200,000	0,015	0,062
-78,826	800,000	0,044	-0,133
-77,811	737,796	0,033	0,063
-76,797	217,267	-0,095	0,108
-75,782	800,000	0,029	0,058
-74,767	-102,010	-0,111	0,019
-73,753	-200,000	0,013	0,098
-72,738	-100,252	0,110	0,019
-71,724	-113,078	-0,100	0,014
-70,709	158,530	-0,040	0,039
-69,694	22,086	-0,136	-0,078
-68,680	800,000	0,008	0,021
-67,665	184,919	0,093	-0,098
-66,651	-200,000	0,029	0,099
-65,636	411,504	-0,038	-0,058
-64,622	-5,801	-0,031	0,015
-63,607	-162,929	-0,092	0,003
-62,592	-200,000	0,032	-0,157
-61,578	-177,125	0,073	0,001
-60,563	-85,110	-0,073	-0,016
-59,549	-200,000	0,041	0,168
-58,534	-71,792	-1,504	-0,395
-57,519	454,712	-1,477	-2,328
-56,505	-200,000	-0,478	-4,452
-55,490	162,957	0,864	0,861
-54,476	800,000	4,868	11,158
-53,461	-200,000	17,678	283,908
-52,446	800,000	720,865	2229,644
-51,432	563,961	1635,377	2819,572
-50,417	80,953	1659,086	1268,115
-49,403	23,714	1533,440	893,084
-48,388	17,684	1456,782	819,332
-47,373	18,281	1446,281	816,262
-46,359	17,843	1437,005	808,906
-45,344	15,955	1432,560	797,386
-44,330	15,919	1430,252	795,901
-43,315	15,901	1428,551	794,836
-42,300	15,930	1426,913	794,032
-41,286	15,985	1425,728	793,599
-40,271	16,007	1424,245	792,846
-39,257	15,948	1423,053	791,871
-38,242	15,994	1421,827	791,378
-37,227	15,956	1420,724	790,554
-36,213	16,006	1419,221	789,922
-35,198	15,942	1418,084	788,956
-34,184	15,936	1417,290	788,454
-33,169	15,899	1415,917	787,485
-32,154	15,977	1414,823	787,212
-31,140	15,920	1413,760	786,321
-30,125	16,018	1412,370	785,977
-29,111	15,996	1411,227	785,204
-28,096	15,945	1410,264	784,398
-27,082	15,934	1409,073	783,657
-26,067	15,863	1408,044	782,719
-25,052	15,896	1407,107	782,323
-24,038	15,860	1406,026	781,523
-23,023	15,869	1404,873	780,892
-22,009	15,831	1404,016	780,206
-20,994	15,834	1403,038	779,646
-19,979	15,804	1402,210	779,016
-18,965	15,833	1400,924	778,406
-17,950	15,836	1400,340	778,062
-16,936	15,850	1399,087	777,402
-15,921	15,801	1397,902	776,483
-14,906	15,790	1396,985	775,895
-13,892	15,830	1396,138	775,577
-12,877	15,792	1395,343	774,928
-11,863	15,817	1394,310	774,441
-10,848	15,783	1393,302	773,693
-9,833	15,751	1392,457	773,045
-8,819	15,724	1391,578	772,402
-7,804	15,690	1390,747	771,750
-6,790	15,671	1389,624	771,011
-5,775	15,663	1388,642	770,398
-4,760	15,662	1387,733	769,861
-3,746	15,684	1386,921	769,478
-2,731	15,684	1386,282	769,097
-1,717	15,641	1385,401	768,377
-0,702	15,687	1383,279	767,383
0,313	19,438	1304,045	740,750
1,327	35,722	706,744	439,205
2,342	55,239	125,169	85,621
3,356	5,427	16,564	8,633
4,371	12,756	3,040	1,659
5,386	-16,357	0,516	0,231
6,400	-81,920	-0,015	0,003
7,415	-52,413	-0,156	-0,051
8,429	-25,637	-0,238	-0,099
9,444	44,577	-0,330	-0,214
10,459	150,640	-0,241	-0,232
11,473	-114,701	-0,315	-0,042
12,488	23,774	-0,146	-0,085
13,502	-66,571	-0,356	-0,099
14,517	112,625	-0,288	-0,247
15,531	53,789	-0,386	-0,262
16,546	83,836	-0,309	-0,238
17,561	133,532	-0,315	-0,288
18,575	265,453	-0,139	-0,172
19,590	112,523	-0,281	-0,240
20,604	-0,278	-0,336	-0,169
21,619	96,222	-0,361	-0,292
22,634	405,267	-0,279	-0,417
23,648	263,190	-0,348	-0,429
24,663	86,767	-0,332	-0,259
25,677	16,245	-0,348	-0,193
26,692	99,103	-0,388	-0,317
27,707	139,370	-0,406	-0,378
28,721	-36,063	-0,485	-0,184
29,736	86,002	-0,436	-0,339
30,750	28,965	-0,491	-0,293
31,765	73,318	-0,466	-0,344
32,780	224,405	-0,254	-0,291
33,794	7,668	-0,406	-0,214
34,809	70,655	-0,409	-0,299
35,823	165,547	-0,346	-0,346
36,838	99,315	-0,422	-0,345
37,853	160,591	-0,326	-0,322
38,867	-36,309	-0,508	-0,192
39,882	215,168	-0,299	-0,335
40,896	159,252	-0,204	-0,201
41,911	481,125	-0,224	-0,361
42,926	20,191	-0,347	-0,197
43,940	-13,068	-0,439	-0,201
44,955	17,468	-0,362	-0,202
45,969	-23,593	-0,359	-0,152
46,984	70,057	-0,301	-0,219
47,999	11,744	-0,312	-0,168
49,013	-9,254	-0,348	-0,164
50,028	275,083	-0,193	-0,242
51,042	145,514	-0,334	-0,316
52,057	78,048	-0,257	-0,194
53,071	130,641	-0,293	-0,265
54,086	174,395	-0,291	-0,297
55,101	66,334	-0,346	-0,247
56,115	79,022	-0,342	-0,258
57,130	153,647	-0,360	-0,348
58,144	56,313	-0,297	-0,203
59,159	-23,927	-0,426	-0,179
60,174	151,534	-0,273	-0,262
61,188	133,141	-0,375	-0,341
62,203	213,968	-0,242	-0,271
63,217	17,119	-0,390	-0,218
64,232	20,136	-0,337	-0,191
65,247	14,414	-0,343	-0,188
66,261	30,497	-0,355	-0,213
67,276	69,220	-0,340	-0,246
68,290	-54,926	-0,426	-0,134
69,305	143,350	-0,245	-0,230
70,320	58,848	-0,346	-0,239
71,334	-93,807	-0,293	-0,056
72,349	-69,462	-0,357	-0,096
73,363	112,255	-0,351	-0,299
74,378	45,411	-0,348	-0,226
75,393	44,129	-0,419	-0,270
76,407	-16,834	-0,330	-0,146
77,422	-8,729	-0,159	-0,075
78,436	-25,726	-0,387	-0,160
79,451	-166,864	-0,327	-0,009
80,466	162,325	-0,270	-0,267
81,480	5,703	-0,326	-0,169
82,495	95,989	-0,454	-0,364
83,509	109,327	-0,315	-0,265
84,524	8,211	-0,272	-0,143
85,539	82,963	-0,254	-0,194
86,553	-16,562	-0,371	-0,164
87,568	210,975	-0,241	-0,267
88,582	-23,025	-0,284	-0,120
89,597	8,486	-0,363	-0,191
90,611	403,748	-0,078	-0,116
91,626	108,921	-0,132	-0,111
92,641	50,751	-0,215	-0,143
93,655	-19,105	-0,305	-0,132
94,670	-85,847	-0,288	-0,062
95,684	103,893	-0,241	-0,199
96,699	-7,212	-0,264	-0,125
97,714	36,382	-0,349	-0,216
98,728	-79,176	-0,170	-0,040
99,743	118,373	-0,247	-0,214
100,757	91,238	-0,290	-0,228
101,772	97,494	-0,204	-0,165
102,787	174,151	-0,316	-0,321
103,801	10,522	-0,320	-0,171
104,816	55,240	-0,269	-0,183
105,830	154,150	-0,211	-0,203
106,845	96,350	-0,302	-0,242
107,860	17,290	-0,196	-0,109
108,874	-39,345	-0,302	-0,111
109,889	73,259	-0,228	-0,167
110,903	-7,426	-0,221	-0,105
111,918	410,590	-0,152	-0,227
112,933	45,346	-0,229	-0,148
113,947	79,199	-0,235	-0,176
114,962	321,328	-0,199	-0,267
115,976	58,897	-0,353	-0,243
116,991	9,911	-0,343	-0,182
118,006	276,452	-0,149	-0,186
119,020	332,892	-0,198	-0,269
120,035	-4,208	-0,318	-0,154
121,049	-59,213	-0,280	-0,084
122,064	57,034	-0,141	-0,096
123,079	210,985	-0,203	-0,224
124,093	75,746	-0,262	-0,194
125,108	800,000	-0,133	-0,275
126,122	66,762	-0,278	-0,198
127,137	190,985	-0,097	-0,102
128,151	71,601	-0,172	-0,125
129,166	-34,180	-0,183	-0,070
130,181	24,421	-0,237	-0,137
131,195	-34,837	-0,294	-0,112
132,210	52,655	-0,319	-0,213
133,224	800,000	-0,045	-0,091
134,239	-51,730	-0,247	-0,080
135,254	-21,213	-0,239	-0,102
136,268	123,054	-0,248	-0,217
137,283	0,704	-0,205	-0,103
138,297	105,788	-0,243	-0,201
139,312	81,622	-0,174	-0,131
140,327	318,833	-0,243	-0,323
141,341	358,634	-0,224	-0,314
142,356	281,693	-0,155	-0,195
143,370	289,391	-0,128	-0,163
144,385	141,432	-0,209	-0,194
145,400	72,590	-0,162	-0,118
146,414	239,927	-0,212	-0,247
147,429	402,932	-0,206	-0,304
148,443	205,322	-0,243	-0,265
149,458	113,125	-0,292	-0,248
150,473	352,310	-0,126	-0,175
151,487	-35,497	-0,154	-0,058
152,502	201,309	-0,198	-0,214
153,516	174,238	-0,202	-0,204
154,531	0,785	-0,202	-0,101
155,546	29,336	-0,231	-0,137
156,560	31,379	-0,187	-0,112
157,575	-198,115	-0,171	-0,001
158,589	447,148	-0,078	-0,121
159,604	411,744	-0,180	-0,267
160,619	329,991	-0,198	-0,267
161,633	-28,395	-0,303	-0,122
162,648	-52,428	-0,278	-0,089
163,662	800,000	-0,069	-0,208
164,677	-12,449	-0,226	-0,103
165,692	-112,022	-0,160	-0,022
166,706	8,766	-0,148	-0,078
167,721	381,308	-0,180	-0,259
168,735	262,031	-0,178	-0,216
169,750	141,933	-0,311	-0,288
170,764	-166,646	-0,171	-0,005
171,779	77,110	-0,243	-0,180
172,794	-38,673	-0,235	-0,086
173,808	-10,075	-0,180	-0,083
174,823	105,004	-0,314	-0,259
175,837	-107,960	-0,317	-0,048
176,852	148,860	-0,137	-0,129
177,867	233,383	-0,163	-0,187
178,881	112,711	-0,163	-0,138
179,896	33,918	-0,149	-0,090
180,910	-178,127	-0,220	-0,004
181,925	47,183	-0,200	-0,130
182,940	145,350	-0,221	-0,207
183,954	423,721	-0,167	-0,251
184,969	112,955	-0,163	-0,138
185,983	-105,476	-0,201	-0,031
186,998	-64,044	-0,190	-0,054
188,013	318,829	-0,086	-0,114
189,027	14,232	-0,385	-0,209
190,042	166,484	-0,245	-0,242
191,056	35,476	-0,261	-0,159
192,071	-10,053	-0,191	-0,088
193,086	9,549	-0,241	-0,127
194,100	-98,866	-0,104	0,018
195,115	93,481	-0,134	0,106
196,129	71,010	-0,195	-0,141
197,144	297,098	-0,196	-0,251
198,159	133,511	-0,223	-0,201
199,173	800,000	-0,070	-0,211
200,188	187,664	-0,136	-0,142
201,202	131,093	-0,181	-0,162
202,217	-13,259	-0,189	-0,085
203,232	132,881	-0,200	-0,180
204,246	-33,839	-0,205	-0,078
205,261	-200,000	-0,077	-0,284
206,275	-98,476	-0,234	-0,041
207,290	-176,830	-0,120	0,002
208,304	424,768	-0,116	-0,175
209,319	51,698	-0,106	-0,070
210,334	210,791	-0,174	-0,191
211,348	65,004	-0,199	-0,140
212,363	-200,000	-0,004	-0,219
213,377	800,000	-0,104	-0,278
214,392	19,371	-0,142	-0,079
215,407	649,131	-0,080	-0,142
216,421	92,851	-0,223	-0,175
217,436	-78,906	-0,170	-0,040
218,450	153,818	-0,143	-0,136
219,465	-11,694	-0,177	-0,081
220,480	-200,000	-0,013	-0,078
221,494	-2,843	-0,258	-0,125
222,509	183,522	-0,171	-0,176
223,523	800,000	-0,106	-0,219
224,538	503,111	-0,112	-0,180
225,553	70,002	-0,285	-0,204
226,567	8,154	-0,179	-0,093
227,582	33,062	-0,269	-0,162
228,596	116,415	-0,264	-0,225
229,611	-17,579	-0,230	-0,100
230,626	-67,583	-0,130	-0,035
231,640	-98,405	-0,261	-0,046
232,655	800,000	-0,075	-0,148
233,669	-105,517	-0,253	-0,040
234,684	31,139	-0,288	-0,171
235,699	180,718	-0,077	-0,078
236,713	800,000	-0,066	-0,178
237,728	-153,913	-0,092	-0,004
238,742	163,175	-0,126	-0,123
239,757	182,572	-0,225	-0,230
240,772	29,813	-0,228	-0,134
241,786	-85,694	-0,136	-0,029
242,801	-200,000	-0,023	-0,214
243,815	-42,663	-0,160	-0,056
244,830	558,261	-0,117	-0,196
245,844	-2,556	-0,167	-0,081
246,859	288,846	-0,154	-0,194
247,874	277,879	-0,178	-0,220
248,888	92,521	-0,176	-0,138
249,903	337,891	-0,101	-0,136
250,917	523,063	-0,068	-0,111
251,932	-134,565	-0,123	-0,010
252,947	-200,000	0,011	-0,076
253,961	437,741	-0,148	-0,224
254,976	123,521	-0,295	-0,257
255,990	151,088	-0,173	-0,163
257,005	-200,000	-0,055	-0,255
258,020	-165,937	-0,248	-0,007
259,034	-69,543	-0,130	-0,034
260,049	653,384	-0,110	-0,196
261,063	358,049	-0,139	-0,193
262,078	-83,644	-0,177	-0,039
263,093	105,607	-0,249	-0,204
264,107	-30,092	-0,169	-0,066
265,122	-39,840	-0,176	-0,063
266,136	155,913	-0,273	-0,261
267,151	-129,644	-0,251	-0,024
268,166	3,208	-0,101	-0,051
269,180	-65,909	-0,148	0,041
270,195	147,599	-0,204	-0,190
271,209	-200,000	-0,032	-0,187
272,224	602,308	-0,059	-0,101
273,239	-54,703	-0,102	-0,032
274,253	-91,517	-0,098	-0,019
275,268	124,056	-0,185	-0,161
276,282	-64,855	-0,183	-0,051
277,297	800,000	-0,100	-0,223
278,312	-7,628	-0,171	-0,080
279,326	-117,920	-0,252	-0,031
280,341	-83,716	-0,130	-0,028
281,355	42,618	-0,175	-0,110
282,370	-43,862	-0,209	-0,072
283,384	123,909	-0,112	-0,097
284,399	382,714	-0,214	-0,305
285,414	424,945	-0,144	-0,216
286,428	-133,970	-0,183	0,015
287,443	325,774	-0,168	-0,222
288,457	314,667	-0,044	-0,057
289,472	103,714	-0,078	-0,063
290,487	60,618	-0,141	-0,097
291,501	47,312	-0,144	-0,092
292,516	53,922	-0,103	-0,069
293,530	103,966	-0,149	-0,121
294,545	535,976	-0,154	-0,253
295,560	67,362	-0,139	-0,098
296,574	-27,122	-0,221	-0,089
297,589	-10,411	-0,130	-0,059
298,603	-200,000	-0,081	-0,258
299,618	85,766	-0,105	-0,080
300,633	-3,379	-0,113	-0,054
301,647	-200,000	-0,012	-0,168
302,662	-58,105	-0,211	-0,063
303,676	132,202	-0,105	0,093
304,691	-200,000	0,020	0,062
305,706	195,071	-0,140	-0,147
306,720	-87,809	-0,215	-0,044
307,735	8,757	-0,194	-0,100
308,749	312,869	-0,034	0,045
309,764	81,807	0,066	0,049
310,779	-53,734	-0,041	0,013
311,793	-200,000	-0,064	-0,204
312,808	40,435	-0,127	-0,079
313,822	132,247	-0,243	-0,216
314,837	4,701	-0,198	-0,100
315,852	90,059	-0,101	-0,078
316,866	739,908	-0,136	-0,253
317,881	697,745	-0,104	-0,190
318,895	261,653	-0,088	-0,105
319,910	304,144	-0,097	-0,124
320,925	237,629	-0,120	-0,137
321,939	90,696	-0,087	-0,067
322,954	-165,199	-0,068	-0,002
323,968	294,711	-0,066	-0,083
324,983	-28,273	-0,223	0,088
325,997	42,896	-0,103	-0,065
327,012	520,725	-0,097	-0,158
328,027	8,416	-0,126	-0,065
329,041	-12,525	-0,210	-0,094
330,056	-133,158	-0,160	-0,014
331,070	-28,633	-0,141	-0,056
332,085	61,542	-0,180	-0,123
333,100	6,947	-0,147	0,075
334,114	-200,000	0,028	-0,159
335,129	502,251	-0,084	-0,134
336,143	135,025	-0,109	-0,098
337,158	-114,136	-0,084	-0,011
338,173	177,253	-0,104	-0,104
339,187	213,622	-0,134	-0,146
340,202	-15,118	-0,165	-0,073
341,216	299,982	-0,120	-0,152
342,231	-23,853	-0,235	-0,096
343,246	37,609	-0,120	-0,073
344,260	313,351	-0,129	-0,168
345,275	-76,631	-0,116	0,028
346,289	-200,000	-0,047	-0,160
347,304	21,090	-0,150	-0,083
348,319	569,700	-0,176	-0,295
349,333	112,361	-0,185	-0,153
350,348	115,269	-0,142	-0,120
351,362	-85,626	-0,131	0,028
352,377	44,163	-0,053	-0,033
353,392	800,000	-0,107	-0,237
354,406	-95,307	-0,197	0,036
355,421	210,075	1313,537	1417,663
356,435	161,703	1474,173	1418,190
