DTS Sentinel unit serial number:	SN410029Multiplexer serial number:	ORYXHardware model number:	OX2-SRSoftware version number:	ORYX F/W v4,00 Oryx Data Collector v3.7.2.0data status	okinstallation	B3 Nyhavnadifferential loss correction	single-endedforward channel	channel 1reverse channel	N/Adate	2023/11/28time	22:07:30forward acquisition time	300,00reverse acquisition time	0,00gamma	499,1914k internal	0,3212k external	0,3212temperature offset calibration	1,0000default loss term (dB/km)	0,3820temperature slope calibration	1,0000multiplexer offset coefficient	1,0000multiplexer slope coefficient	1,0000fibre end	0,00T internal ref (°C)	8,52T ext. ref 1 (°C)	-6,03T ext. ref 2 (°C)	-6,18length (m)	temperature (°C)	Stokes	anti-Stokes-744,400	-200,000	-0,070	-0,272
-743,385	-200,000	-0,037	0,342
-742,371	-200,000	0,019	-0,239
-741,356	-200,000	0,056	0,336
-740,342	9,013	-0,190	-0,104
-739,327	800,000	-0,125	0,362
-738,312	629,908	-0,128	-0,236
-737,298	404,212	-0,131	0,200
-736,283	278,589	-0,140	-0,181
-735,269	-200,000	0,085	0,390
-734,254	139,287	-0,181	-0,173
-733,239	-60,069	-0,214	0,066
-732,225	800,000	-0,087	-0,206
-731,210	161,483	0,104	0,105
-730,196	604,040	-0,057	0,103
-729,181	-200,000	0,024	-0,095
-728,167	534,385	-0,060	-0,104
-727,152	78,611	-0,067	0,052
-726,137	26,256	0,155	-0,094
-725,123	-200,000	-0,060	-0,249
-724,108	-71,356	-0,149	0,040
-723,094	-149,639	-0,143	-0,008
-722,079	-146,160	0,047	-0,003
-721,064	152,068	-0,084	0,083
-720,050	43,786	0,038	0,025
-719,035	240,325	0,049	0,059
-718,021	543,840	-0,066	-0,115
-717,006	800,000	-0,051	-0,103
-715,991	800,000	-0,075	-0,176
-714,977	-200,000	0,008	-0,130
-713,962	20,371	-0,110	-0,064
-712,948	185,367	0,051	-0,055
-711,933	269,229	-0,068	-0,087
-710,918	696,140	-0,018	-0,035
-709,904	-94,675	-0,099	-0,019
-708,889	-9,859	-0,079	-0,038
-707,875	-200,000	0,047	-0,155
-706,860	800,000	0,041	0,091
-705,845	-200,000	-0,001	-0,017
-704,831	800,000	0,050	0,119
-703,816	64,081	-0,002	-0,001
-702,802	800,000	-0,017	0,036
-701,787	-200,000	-0,025	-0,119
-700,772	800,000	-0,017	0,045
-699,758	-200,000	0,007	0,063
-698,743	-136,725	0,033	0,003
-697,729	315,025	-0,046	-0,062
-696,714	-200,000	0,023	-0,089
-695,699	35,736	-0,099	-0,063
-694,685	-95,428	0,038	0,007
-693,670	400,270	-0,045	0,068
-692,656	315,935	0,055	-0,075
-691,641	158,208	0,070	0,070
-690,627	178,192	0,068	0,072
-689,612	-200,000	0,001	0,014
-688,597	412,334	-0,025	-0,038
-687,583	-128,251	0,044	-0,004
-686,568	206,625	-0,038	-0,043
-685,554	104,175	-0,059	0,051
-684,539	141,656	0,136	0,130
-683,524	-149,970	-0,139	0,008
-682,510	-200,000	-0,026	0,122
-681,495	-200,000	0,019	0,182
-680,481	800,000	0,084	-0,193
-679,466	-200,000	-0,003	0,112
-678,451	131,641	-0,092	-0,086
-677,437	400,382	-0,020	-0,030
-676,422	-200,000	0,012	0,065
-675,408	412,977	-0,026	0,040
-674,393	-200,000	-0,009	0,083
-673,378	-48,331	-0,131	-0,045
-672,364	10,820	-0,093	-0,051
-671,349	-106,287	0,054	0,009
-670,335	-114,339	0,010	0,001
-669,320	800,000	0,037	-0,117
-668,305	3,162	-0,103	-0,054
-667,291	-79,471	0,045	-0,011
-666,276	-38,519	-0,060	0,023
-665,262	478,846	-0,030	-0,049
-664,247	-200,000	-0,008	-0,188
-663,232	-200,000	-0,004	-0,022
-662,218	331,264	0,015	0,021
-661,203	597,040	-0,047	-0,084
-660,189	-22,797	0,140	0,061
-659,174	68,057	-0,160	-0,118
-658,159	-109,591	-0,059	-0,009
-657,145	180,440	-0,091	-0,096
-656,130	-89,346	0,106	0,022
-655,116	347,543	-0,015	-0,021
-654,101	68,284	-0,108	0,080
-653,086	-200,000	0,013	0,135
-652,072	800,000	-0,061	0,146
-651,057	-34,365	-0,206	-0,081
-650,043	-60,476	0,087	0,026
-649,028	214,476	0,059	0,068
-648,014	-200,000	-0,012	0,116
-646,999	-35,499	0,042	0,016
-645,984	462,962	-0,017	0,028
-644,970	-126,204	-0,091	0,010
-643,955	51,367	-0,080	-0,055
-642,941	300,375	-0,063	-0,084
-641,926	1,529	0,203	-0,105
-640,911	-119,590	0,044	0,005
-639,897	-200,000	-0,017	0,068
-638,882	26,045	0,026	0,016
-637,868	-85,507	-0,195	0,043
-636,853	27,301	-0,039	0,023
-635,838	139,076	0,084	-0,079
-634,824	-44,500	-0,121	0,044
-633,809	39,226	0,109	0,071
-632,795	-195,270	0,172	-0,001
-631,780	163,864	-0,046	0,047
-630,765	-200,000	-0,001	0,200
-629,751	-200,000	-0,009	-0,059
-628,736	61,467	-0,139	-0,100
-627,722	77,901	0,070	0,054
-626,707	-5,732	-0,049	0,024
-625,692	61,475	0,097	-0,070
-624,678	501,026	0,035	0,058
-623,663	800,000	-0,023	-0,059
-622,649	449,367	0,040	0,064
-621,634	-200,000	-0,043	-0,147
-620,619	62,126	-0,087	-0,062
-619,605	-78,720	-0,112	-0,027
-618,590	-121,901	0,116	0,014
-617,576	-38,624	-0,107	-0,041
-616,561	-13,585	0,020	0,009
-615,546	800,000	-0,062	-0,155
-614,532	-200,000	-0,015	-0,086
-613,517	-135,355	-0,076	0,006
-612,503	-200,000	-0,008	-0,076
-611,488	800,000	-0,017	0,044
-610,474	-5,516	-0,146	0,072
-609,459	107,147	-0,019	-0,017
-608,444	355,948	0,028	-0,040
-607,430	128,872	-0,133	0,122
-606,415	504,199	0,048	-0,080
-605,401	289,409	-0,141	0,185
-604,386	160,338	0,096	0,097
-603,371	619,221	-0,016	-0,030
-602,357	30,400	-0,053	0,033
-601,342	243,892	-0,057	-0,069
-600,328	148,901	-0,045	0,044
-599,313	-25,790	-0,120	-0,051
-598,298	-200,000	0,013	0,103
-597,284	533,191	-0,053	0,091
-596,269	-170,860	0,037	-0,001
-595,255	-136,873	0,068	0,006
-594,240	-78,329	-0,091	0,022
-593,225	-80,177	-0,032	0,008
-592,211	411,116	0,015	-0,024
-591,196	-48,990	-0,103	-0,035
-590,182	473,567	0,015	-0,024
-589,167	-78,161	-0,121	0,030
-588,152	586,827	-0,030	-0,053
-587,138	152,701	-0,035	0,035
-586,123	800,000	-0,034	0,078
-585,109	399,824	-0,058	-0,088
-584,094	-163,384	-0,091	-0,003
-583,079	9,447	0,073	-0,040
-582,065	-73,172	0,030	0,008
-581,050	183,166	0,054	0,058
-580,036	-200,000	0,012	0,069
-579,021	196,076	-0,116	0,128
-578,006	143,220	-0,109	-0,105
-576,992	800,000	0,038	0,104
-575,977	-200,000	-0,019	0,083
-574,963	13,946	0,060	0,034
-573,948	200,282	0,061	0,067
-572,934	-70,121	0,061	0,016
-571,919	454,034	-0,017	0,028
-570,904	-83,506	-0,082	-0,019
-569,890	450,592	0,035	-0,055
-568,875	800,000	-0,034	0,092
-567,861	179,850	0,114	-0,121
-566,846	800,000	0,024	0,060
-565,831	-102,387	-0,188	0,032
-564,817	-29,287	-0,108	-0,044
-563,802	13,030	-0,155	-0,086
-562,788	586,415	0,052	-0,093
-561,773	649,010	0,057	-0,106
-560,758	-65,139	0,108	-0,031
-559,744	333,211	-0,025	0,035
-558,729	-200,000	-0,006	0,068
-557,715	438,764	-0,032	0,051
-556,700	-76,939	-0,016	-0,004
-555,685	800,000	-0,071	-0,188
-554,671	-62,265	0,136	0,041
-553,656	106,243	0,134	-0,114
-552,642	-34,248	-0,101	0,040
-551,627	-73,101	0,010	-0,003
-550,612	-200,000	0,025	-0,107
-549,598	-74,166	-0,205	-0,053
-548,583	239,469	-0,062	-0,075
-547,569	137,265	-0,058	0,054
-546,554	5,056	-0,102	0,054
-545,539	-46,470	-0,020	-0,007
-544,525	-200,000	0,008	0,103
-543,510	-31,830	-0,114	-0,046
-542,496	-200,000	-0,018	-0,189
-541,481	123,833	0,095	0,086
-540,466	576,523	-0,050	-0,088
-539,452	800,000	0,035	0,089
-538,437	-192,096	0,024	0,000
-537,423	-54,115	0,083	0,027
-536,408	-200,000	0,013	-0,049
-535,393	521,941	-0,017	0,028
-534,379	-72,046	-0,109	-0,029
-533,364	-200,000	0,013	-0,146
-532,350	-3,735	0,014	-0,007
-531,335	40,047	-0,115	0,074
-530,321	12,193	-0,120	-0,066
-529,306	-120,552	-0,111	-0,013
-528,291	800,000	0,043	0,089
-527,277	716,313	-0,034	-0,066
-526,262	-88,779	0,150	-0,032
-525,248	312,465	0,044	0,059
-524,233	-45,195	0,148	0,053
-523,218	-200,000	0,016	-0,153
-522,204	-9,322	-0,128	-0,061
-521,189	96,904	0,008	0,006
-520,175	-200,000	0,004	-0,109
-519,160	-106,287	0,102	-0,016
-518,145	183,110	-0,078	-0,083
-517,131	-200,000	-0,001	-0,076
-516,116	193,000	-0,009	-0,010
-515,102	-57,565	0,023	0,007
-514,087	652,659	-0,036	-0,067
-513,072	-200,000	-0,016	-0,053
-512,058	173,439	0,084	-0,087
-511,043	238,367	0,023	-0,028
-510,029	-142,342	0,083	-0,006
-509,014	239,142	0,064	-0,076
-507,999	-52,472	0,049	0,016
-506,985	10,953	-0,121	0,066
-505,970	-72,472	0,051	-0,013
-504,956	229,525	-0,064	-0,075
-503,941	552,529	-0,057	-0,098
-502,926	-161,402	0,112	0,004
-501,912	-55,128	0,083	-0,027
-500,897	-4,505	0,065	0,032
-499,883	800,000	0,051	-0,114
-498,868	-200,000	-0,011	-0,076
-497,853	-200,000	0,006	0,059
-496,839	771,401	-0,043	-0,084
-495,824	12,928	0,104	0,058
-494,810	270,948	0,012	-0,016
-493,795	-13,525	-0,142	-0,066
-492,781	118,375	-0,072	-0,064
-491,766	-91,530	-0,017	-0,003
-490,751	-200,000	0,001	0,039
-489,737	-200,000	0,030	-0,120
-488,722	800,000	0,081	0,222
-487,708	284,265	0,114	0,147
-486,693	405,244	0,070	0,106
-485,678	-103,301	-0,086	-0,014
-484,664	344,299	-0,033	-0,047
-483,649	-200,000	-0,010	0,167
-482,635	120,496	-0,064	-0,057
-481,620	-200,000	0,006	-0,048
-480,605	79,574	-0,115	-0,088
-479,591	800,000	0,021	-0,042
-478,576	-114,765	-0,148	-0,020
-477,562	-182,276	-0,079	-0,001
-476,547	-162,466	0,132	0,005
-475,532	247,912	-0,066	0,081
-474,518	-150,318	-0,087	0,005
-473,503	-0,833	0,087	-0,044
-472,489	-21,074	0,104	-0,045
-471,474	-84,573	-0,061	-0,014
-470,459	800,000	0,033	-0,068
-469,445	14,347	-0,085	-0,047
-468,430	800,000	-0,030	-0,081
-467,416	800,000	0,074	0,173
-466,401	-51,486	0,011	0,004
-465,386	379,023	-0,018	0,026
-464,372	-33,903	0,088	0,035
-463,357	163,383	0,022	0,022
-462,343	69,555	-0,064	0,047
-461,328	-200,000	0,000	-0,224
-460,313	308,255	0,072	0,096
-459,299	157,212	0,059	0,058
-458,284	-24,055	-0,076	0,032
-457,270	-146,269	0,128	-0,008
-456,255	-21,169	-0,059	0,026
-455,241	764,269	0,029	-0,057
-454,226	-200,000	-0,041	-0,143
-453,211	-79,045	-0,054	0,013
-452,197	583,341	0,054	0,096
-451,182	30,131	0,163	0,099
-450,168	-53,255	-0,073	0,024
-449,153	-37,527	0,033	0,012
-448,138	321,600	0,035	-0,047
-447,124	-111,656	0,115	-0,016
-446,109	353,412	0,093	0,132
-445,095	800,000	0,039	-0,117
-444,080	-92,560	0,096	0,019
-443,065	42,723	0,070	-0,045
-442,051	-75,361	-0,080	-0,020
-441,036	75,781	0,042	0,032
-440,022	51,129	-0,039	0,027
-439,007	264,707	-0,048	-0,061
-437,992	800,000	0,065	0,153
-436,978	800,000	-0,042	-0,094
-435,963	711,700	-0,054	0,102
-434,949	280,363	-0,055	0,070
-433,934	-23,586	-0,094	0,040
-432,919	132,726	0,081	-0,075
-431,905	-200,000	-0,039	-0,213
-430,890	301,410	-0,124	-0,165
-429,876	63,242	0,033	0,024
-428,861	120,949	0,045	0,040
-427,846	-190,723	0,049	-0,000
-426,832	-3,738	-0,054	0,027
-425,817	800,000	0,043	0,102
-424,803	61,204	0,126	0,089
-423,788	140,573	0,039	0,036
-422,773	132,849	0,143	0,132
-421,759	57,284	0,045	0,031
-420,744	289,863	0,072	-0,093
-419,730	-45,521	-0,138	-0,049
-418,715	155,421	-0,076	0,075
-417,701	-125,443	0,046	0,005
-416,686	342,886	0,074	-0,104
-415,671	612,784	-0,029	0,052
-414,657	-200,000	0,004	0,041
-413,642	-200,000	-0,013	0,071
-412,628	44,518	0,114	-0,075
-411,613	-200,000	-0,006	-0,119
-410,598	-200,000	0,002	-0,080
-409,584	-16,558	0,035	0,016
-408,569	-133,465	0,113	0,010
-407,555	-8,472	0,015	0,007
-406,540	-158,180	-0,093	0,004
-405,525	68,362	0,159	0,116
-404,511	-200,000	0,002	-0,071
-403,496	440,693	-0,050	-0,079
-402,482	-103,929	-0,043	-0,007
-401,467	43,341	0,137	-0,089
-400,452	26,269	-0,054	0,032
-399,438	-28,491	0,180	0,074
-398,423	153,994	0,024	0,024
-397,409	-34,948	0,039	0,015
-396,394	241,769	0,049	0,059
-395,379	283,227	0,025	0,032
-394,365	583,471	-0,041	0,072
-393,350	93,763	-0,051	0,041
-392,336	620,794	0,009	0,016
-391,321	-93,676	-0,035	-0,007
-390,306	47,797	-0,154	-0,102
-389,292	357,886	-0,016	-0,023
-388,277	59,652	-0,036	0,025
-387,263	98,473	0,033	-0,028
-386,248	-200,000	-0,008	0,028
-385,233	-200,000	0,039	-0,136
-384,219	-200,000	-0,019	-0,067
-383,204	46,423	-0,080	-0,053
-382,190	-200,000	0,007	0,069
-381,175	-55,507	0,094	-0,030
-380,160	-25,706	-0,126	0,053
-379,146	133,809	0,092	0,085
-378,131	-200,000	0,017	-0,077
-377,117	74,477	-0,077	-0,058
-376,102	-44,874	-0,168	-0,059
-375,088	-200,000	-0,034	-0,141
-374,073	-51,013	-0,043	0,014
-373,058	-45,609	0,127	0,045
-372,044	622,534	-0,014	0,025
-371,029	-71,698	-0,052	0,014
-370,015	137,611	-0,090	0,084
-369,000	199,498	0,051	-0,055
-367,985	96,912	0,013	0,010
-366,971	3,270	-0,054	0,028
-365,956	-200,000	0,007	0,127
-364,942	614,550	0,058	0,105
-363,927	-70,583	0,085	0,023
-362,912	146,160	-0,051	0,049
-361,898	70,859	-0,041	0,031
-360,883	800,000	0,048	-0,134
-359,869	40,597	-0,110	0,070
-358,854	-77,432	0,119	0,029
-357,839	-78,305	-0,053	0,013
-356,825	-67,345	0,045	-0,013
-355,810	112,797	-0,033	-0,029
-354,796	625,301	0,048	-0,086
-353,781	277,985	-0,099	-0,126
-352,766	632,493	-0,011	0,020
-351,752	-24,867	-0,101	-0,042
-350,737	800,000	0,059	0,137
-349,723	-200,000	0,012	0,070
-348,708	-101,362	0,082	-0,014
-347,693	-23,882	0,080	0,034
-346,679	-43,944	-0,084	-0,030
-345,664	57,815	-0,058	0,041
-344,650	-200,000	-0,017	-0,127
-343,635	-143,655	0,146	-0,010
-342,620	-144,907	-0,076	-0,005
-341,606	-48,566	0,131	0,045
-340,591	705,222	-0,119	-0,225
-339,577	86,180	0,081	0,064
-338,562	-31,093	-0,066	-0,026
-337,548	92,173	0,044	0,035
-336,533	23,928	0,085	0,050
-335,518	800,000	0,021	0,065
-334,504	-132,272	0,060	-0,005
-333,489	214,446	-0,056	0,063
-332,475	126,767	-0,135	0,122
-331,460	-60,166	-0,043	0,013
-330,445	-96,510	0,058	0,011
-329,431	94,277	0,046	-0,037
-328,416	287,755	0,063	0,081
-327,402	-200,000	-0,040	0,206
-326,387	192,116	-0,128	-0,138
-325,372	-126,500	-0,046	-0,005
-324,358	73,149	-0,013	0,010
-323,343	-200,000	0,070	0,000
-322,329	-108,725	-0,073	-0,011
-321,314	-158,063	0,070	0,003
-320,299	12,378	-0,168	0,092
-319,285	182,728	-0,063	-0,067
-318,270	-17,110	-0,085	-0,038
-317,256	448,862	-0,068	-0,108
-316,241	-49,396	0,075	0,025
-315,226	334,442	0,103	0,142
-314,212	-22,239	-0,104	0,045
-313,197	27,176	0,079	0,047
-312,183	-200,000	-0,020	0,069
-311,168	41,586	-0,034	-0,022
-310,153	-174,023	-0,056	0,001
-309,139	266,119	0,019	-0,024
-308,124	-60,598	0,113	0,034
-307,110	800,000	-0,050	0,099
-306,095	-200,000	-0,000	-0,032
-305,080	-24,877	0,016	-0,007
-304,066	-8,766	0,108	0,051
-303,051	-200,000	-0,019	-0,073
-302,037	800,000	0,042	0,101
-301,022	-26,386	0,089	-0,037
-300,008	297,048	0,046	0,060
-298,993	-109,669	-0,036	0,005
-297,978	800,000	0,027	0,060
-296,964	-42,705	0,121	-0,043
-295,949	542,156	-0,095	-0,162
-294,935	-200,000	0,003	-0,023
-293,920	800,000	0,050	-0,109
-292,905	29,750	-0,086	0,052
-291,891	-115,395	0,078	0,010
-290,876	129,900	-0,096	-0,087
-289,862	-127,430	-0,078	0,008
-288,847	52,764	0,083	0,057
-287,832	-161,278	-0,132	-0,005
-286,818	111,013	-0,031	0,027
-285,803	800,000	-0,018	-0,056
-284,789	21,935	0,080	0,046
-283,774	-200,000	-0,006	0,113
-282,759	800,000	-0,034	0,079
-281,745	792,961	-0,029	-0,057
-280,730	218,827	0,066	-0,076
-279,716	80,672	0,151	-0,116
-278,701	85,128	0,023	0,018
-277,686	-136,671	0,065	0,005
-276,672	272,817	0,070	0,088
-275,657	-200,000	0,002	0,079
-274,643	103,579	0,008	-0,007
-273,628	296,593	-0,021	-0,028
-272,613	359,046	-0,053	-0,076
-271,599	55,252	-0,074	0,051
-270,584	455,227	0,071	0,112
-269,570	800,000	-0,014	0,036
-268,555	-20,968	0,033	-0,014
-267,540	-130,627	0,087	-0,008
-266,526	292,855	-0,009	0,011
-265,511	-200,000	-0,004	-0,121
-264,497	-200,000	0,026	-0,094
-263,482	152,743	0,045	0,044
-262,467	372,398	0,092	0,133
-261,453	86,573	0,113	-0,088
-260,438	-35,858	-0,077	0,030
-259,424	-155,917	0,091	0,004
-258,409	65,958	-0,061	0,044
-257,395	800,000	-0,045	0,124
-256,380	192,162	0,070	0,075
-255,365	-200,000	0,018	-0,102
-254,351	12,763	0,059	0,032
-253,336	99,650	-0,072	-0,060
-252,322	-92,121	-0,080	0,016
-251,307	-115,484	-0,071	0,009
-250,292	69,378	0,055	0,041
-249,278	-200,000	-0,026	0,214
-248,263	18,453	0,037	0,021
-247,249	-200,000	-0,042	0,143
-246,234	-200,000	0,002	0,105
-245,219	126,739	-0,074	0,067
-244,205	333,266	-0,065	-0,090
-243,190	-200,000	0,007	0,116
-242,176	94,981	-0,107	0,086
-241,161	800,000	0,059	0,120
-240,146	468,428	-0,052	-0,083
-239,132	-124,637	-0,095	-0,010
-238,117	-200,000	-0,007	-0,034
-237,103	-7,938	-0,136	-0,065
-236,088	-60,818	-0,059	-0,018
-235,073	-200,000	0,013	0,059
-234,059	22,681	0,101	0,059
-233,044	-53,549	-0,046	0,015
-232,030	-200,000	0,036	-0,117
-231,015	119,232	-0,053	-0,047
-230,000	381,901	0,085	-0,125
-228,986	-137,815	0,080	-0,006
-227,971	-110,948	0,159	-0,023
-226,957	800,000	0,043	0,098
-225,942	-200,000	0,010	-0,105
-224,927	6,166	-0,089	0,047
-223,913	-200,000	-0,038	-0,148
-222,898	800,000	-0,028	-0,087
-221,884	-104,819	0,131	0,021
-220,869	321,273	0,042	-0,057
-219,855	68,023	-0,039	0,029
-218,840	281,657	-0,123	0,157
-217,825	21,952	0,027	-0,016
-216,811	578,641	0,055	-0,096
-215,796	672,494	0,020	0,037
-214,782	-200,000	0,001	-0,023
-213,767	419,754	0,064	0,098
-212,752	669,863	0,059	0,109
-211,738	67,511	0,057	-0,041
-210,723	51,984	0,055	0,037
-209,709	-141,492	-0,060	0,004
-208,694	277,570	0,021	-0,026
-207,679	390,324	-0,091	-0,135
-206,665	554,126	-0,045	-0,077
-205,650	-22,258	0,141	-0,060
-204,636	-200,000	-0,009	0,089
-203,621	100,552	-0,088	0,073
-202,606	631,872	0,063	-0,115
-201,592	130,899	-0,054	0,050
-200,577	33,728	-0,025	-0,016
-199,563	-12,470	-0,079	0,037
-198,548	385,551	-0,015	0,022
-197,533	567,085	0,095	0,164
-196,519	-30,418	0,071	0,028
-195,504	-154,004	-0,145	-0,007
-194,490	613,943	0,050	0,089
-193,475	800,000	-0,064	-0,173
-192,460	800,000	0,044	-0,133
-191,446	-103,487	0,168	-0,028
-190,431	800,000	0,023	0,054
-189,417	120,365	-0,029	0,025
-188,402	800,000	0,027	-0,054
-187,387	-200,000	0,005	0,127
-186,373	178,115	-0,067	-0,070
-185,358	800,000	0,022	-0,068
-184,344	106,323	0,080	0,067
-183,329	-200,000	0,017	0,067
-182,315	-140,340	0,123	-0,009
-181,300	109,224	0,053	-0,045
-180,285	-200,000	-0,011	-0,072
-179,271	111,342	-0,103	0,088
-178,256	-2,730	0,138	0,068
-177,242	-125,077	0,057	-0,006
-176,227	151,030	-0,066	0,063
-175,212	5,711	0,092	-0,048
-174,198	-20,442	0,051	-0,022
-173,183	49,074	-0,042	-0,028
-172,169	800,000	0,101	-0,210
-171,154	800,000	-0,018	-0,046
-170,139	-8,576	0,073	0,035
-169,125	-200,000	-0,023	0,098
-168,110	311,249	-0,053	0,070
-167,096	-200,000	0,002	0,040
-166,081	-5,339	-0,079	0,038
-165,066	-93,622	-0,100	-0,019
-164,052	-200,000	-0,006	0,068
-163,037	800,000	-0,045	-0,100
-162,023	39,467	0,131	-0,083
-161,008	271,478	0,043	0,054
-159,993	617,849	0,053	-0,095
-158,979	-200,000	0,009	0,062
-157,964	-48,045	-0,125	-0,043
-156,950	800,000	-0,024	0,052
-155,935	-200,000	0,000	0,049
-154,920	-70,488	0,093	-0,025
-153,906	416,826	0,066	-0,100
-152,891	266,256	0,065	-0,081
-151,877	423,552	-0,097	0,147
-150,862	-30,259	0,101	-0,040
-149,847	722,948	-0,021	0,039
-148,833	-5,496	-0,046	-0,022
-147,818	134,384	0,034	-0,031
-146,804	-37,528	0,047	0,018
-145,789	181,354	-0,121	0,126
-144,775	342,751	-0,083	0,115
-143,760	442,031	0,063	-0,098
-142,745	153,762	-0,048	-0,046
-141,731	-46,221	0,047	-0,016
-140,716	456,016	-0,028	-0,043
-139,702	-200,000	-0,007	-0,042
-138,687	800,000	-0,026	0,059
-137,672	-56,701	-0,100	-0,031
-136,658	-188,764	-0,173	0,001
-135,643	146,877	-0,051	-0,049
-134,629	588,441	-0,047	0,082
-133,614	176,966	-0,071	-0,073
-132,599	172,814	0,052	0,053
-131,585	785,018	0,102	0,198
-130,570	800,000	-0,071	-0,161
-129,556	358,990	0,052	0,073
-128,541	800,000	-0,059	0,129
-127,526	-153,323	-0,070	-0,003
-126,512	-200,000	-0,001	-0,007
-125,497	-53,756	0,082	0,026
-124,483	136,595	0,057	0,053
-123,468	800,000	-0,029	0,088
-122,453	-104,911	-0,125	0,020
-121,439	81,552	0,014	0,011
-120,424	800,000	0,021	0,064
-119,410	-200,000	0,004	0,051
-118,395	-162,342	0,030	0,001
-117,380	-141,904	0,077	-0,005
-116,366	175,818	-0,076	0,078
-115,351	-65,847	0,130	-0,037
-114,337	170,188	-0,043	0,044
-113,322	135,059	-0,107	0,099
-112,307	452,457	-0,023	-0,037
-111,293	-40,518	0,099	0,036
-110,278	584,237	-0,040	0,069
-109,264	110,386	0,028	0,023
-108,249	143,807	0,085	0,081
-107,234	-200,000	0,001	0,081
-106,220	800,000	0,017	0,039
-105,205	-152,536	0,099	0,005
-104,191	-32,913	-0,108	0,042
-103,176	-18,107	0,034	0,015
-102,162	225,982	0,033	0,038
-101,147	-77,907	-0,107	0,026
-100,132	800,000	-0,039	-0,087
-99,118	-150,230	0,150	0,008
-98,103	304,112	-0,041	-0,054
-97,089	800,000	0,009	0,020
-96,074	-70,642	0,194	-0,051
-95,059	-26,641	-0,087	-0,036
-94,045	-200,000	0,013	-0,052
-93,030	-68,367	-0,216	0,059
-92,016	800,000	-0,010	-0,031
-91,001	266,303	-0,106	-0,132
-89,986	-35,807	-0,093	-0,036
-88,972	42,684	0,037	0,024
-87,957	63,068	0,074	0,052
-86,943	524,873	0,018	-0,031
-85,928	-200,000	0,006	-0,058
-84,913	-200,000	0,022	-0,087
-83,899	-140,736	0,091	-0,007
-82,884	66,692	0,122	-0,087
-81,870	44,434	0,128	0,083
-80,855	-200,000	-0,019	-0,095
-79,840	-200,000	-0,010	-0,219
-78,826	800,000	0,005	-0,013
-77,811	-200,000	-0,023	-0,079
-76,797	-200,000	-0,006	-0,057
-75,782	800,000	0,026	-0,073
-74,767	800,000	-0,076	0,162
-73,753	-200,000	0,023	0,115
-72,738	800,000	-0,018	-0,036
-71,724	-200,000	0,013	-0,088
-70,709	761,106	0,080	-0,155
-69,694	800,000	-0,017	-0,033
-68,680	211,406	0,101	0,113
-67,665	41,573	0,049	0,031
-66,651	-133,040	-0,090	-0,008
-65,636	-177,063	-0,091	-0,002
-64,622	99,830	0,126	0,103
-63,607	-83,508	0,053	-0,012
-62,592	254,449	-0,105	0,127
-61,578	334,320	0,050	-0,068
-60,563	-142,770	0,077	-0,005
-59,549	-200,000	0,008	0,043
-58,534	82,496	-2,000	-1,531
-57,519	416,691	-1,277	-1,930
-56,505	-200,000	-0,328	-4,352
-55,490	796,892	0,861	1,683
-54,476	800,000	5,149	11,308
-53,461	-200,000	22,094	342,217
-52,446	800,000	757,252	2300,390
-51,432	534,811	1647,923	2767,432
-50,417	68,793	1646,426	1191,182
-49,403	16,215	1521,580	844,332
-48,388	10,396	1446,347	774,635
-47,373	19,253	1438,957	812,856
-46,359	13,867	1427,306	780,823
-45,344	8,681	1423,518	754,194
-44,330	8,621	1421,674	752,903
-43,315	8,600	1419,610	751,679
-42,300	8,595	1417,963	750,752
-41,286	8,661	1416,669	750,351
-40,271	8,611	1415,392	749,408
-39,257	8,573	1414,356	748,655
-38,242	8,600	1413,372	748,230
-37,227	8,616	1412,332	747,725
-36,213	8,636	1410,738	746,946
-35,198	8,592	1409,692	746,155
-34,184	8,642	1408,810	745,891
-33,169	8,596	1407,267	744,832
-32,154	8,563	1406,608	744,298
-31,140	8,568	1405,070	743,476
-30,125	8,639	1403,893	743,154
-29,111	8,592	1402,781	742,321
-28,096	8,566	1401,480	741,482
-27,082	8,538	1400,413	740,753
-26,067	8,564	1399,256	740,234
-25,052	8,548	1398,220	739,582
-24,038	8,572	1397,348	739,203
-23,023	8,562	1396,418	738,636
-22,009	8,552	1395,502	738,077
-20,994	8,577	1394,094	737,420
-19,979	8,500	1393,450	736,690
-18,965	8,482	1392,517	736,086
-17,950	8,466	1391,526	735,458
-16,936	8,478	1390,747	735,075
-15,921	8,469	1389,700	734,447
-14,906	8,448	1388,798	733,846
-13,892	8,552	1387,645	733,686
-12,877	8,497	1386,910	733,016
-11,863	8,449	1386,210	732,397
-10,848	8,393	1385,446	731,707
-9,833	8,397	1384,247	731,061
-8,819	8,398	1383,474	730,629
-7,804	8,339	1382,601	729,865
-6,790	8,393	1381,436	729,470
-5,775	8,421	1380,428	729,039
-4,760	8,407	1379,434	728,422
-3,746	8,424	1378,642	728,052
-2,731	8,425	1377,650	727,502
-1,717	8,360	1376,926	726,793
-0,702	8,396	1375,175	726,005
0,313	12,424	1286,820	697,619
1,327	28,133	680,015	403,797
2,342	44,047	117,069	75,535
3,356	-1,608	16,512	8,176
4,371	-1,986	3,736	1,845
5,386	7,584	1,303	0,685
6,400	656,953	0,334	0,607
7,415	800,000	-0,079	-0,156
8,429	-141,325	-0,256	-0,018
9,444	-32,122	-0,392	-0,154
10,459	-77,310	-0,318	-0,077
11,473	-13,534	-0,357	-0,162
12,488	61,705	-0,262	-0,184
13,502	99,783	-0,279	-0,227
14,517	-12,487	-0,360	-0,165
15,531	128,747	-0,316	-0,284
16,546	169,747	-0,248	-0,249
17,561	162,564	-0,424	-0,419
18,575	87,296	-0,068	-0,053
19,590	102,246	-0,142	-0,116
20,604	-135,893	-0,295	-0,024
21,619	129,362	-0,337	-0,303
22,634	92,164	-0,506	-0,401
23,648	242,463	-0,307	-0,362
24,663	259,780	-0,252	-0,307
25,677	82,209	-0,327	-0,249
26,692	24,402	-0,269	-0,156
27,707	-25,209	-0,402	-0,167
28,721	78,774	-0,280	-0,210
29,736	54,773	-0,340	-0,230
30,750	65,367	-0,410	-0,291
31,765	132,597	-0,458	-0,415
32,780	195,634	-0,287	-0,308
33,794	79,476	-0,386	-0,291
34,809	14,066	-0,271	-0,148
35,823	26,124	-0,326	-0,191
36,838	179,352	-0,405	-0,417
37,853	190,279	-0,366	-0,387
38,867	121,506	-0,317	-0,277
39,882	-7,522	-0,423	-0,200
40,896	-1,827	-0,330	-0,162
41,911	-3,673	-0,333	-0,162
42,926	41,762	-0,378	-0,240
43,940	36,155	-0,274	-0,169
44,955	72,523	-0,394	-0,288
45,969	83,899	-0,416	-0,319
46,984	-61,546	-0,468	-0,137
47,999	65,637	-0,315	-0,224
49,013	302,559	-0,267	-0,348
50,028	41,973	-0,325	-0,207
51,042	245,332	-0,254	-0,300
52,057	-6,526	-0,329	-0,157
53,071	-34,630	-0,345	-0,132
54,086	9,825	-0,423	-0,225
55,101	-32,710	-0,417	-0,162
56,115	228,694	-0,203	-0,233
57,130	289,316	-0,280	-0,357
58,144	28,399	-0,262	-0,155
59,159	15,816	-0,332	-0,183
60,174	-39,619	-0,238	-0,087
61,188	121,024	-0,365	-0,318
62,203	-1,353	-0,319	-0,158
63,217	36,396	-0,278	-0,171
64,232	279,425	-0,140	-0,175
65,247	70,603	-0,293	-0,212
66,261	15,217	-0,347	-0,190
67,276	166,643	-0,359	-0,358
68,290	22,936	-0,342	-0,196
69,305	-146,215	-0,344	-0,021
70,320	-40,077	-0,349	-0,127
71,334	-43,939	-0,334	-0,117
72,349	225,263	-0,247	-0,280
73,363	8,084	-0,306	-0,160
74,378	112,512	-0,277	-0,235
75,393	-64,256	-0,317	-0,090
76,407	40,390	-0,338	-0,212
77,422	11,626	-0,330	-0,177
78,436	72,052	-0,179	-0,130
79,451	9,161	-0,358	-0,189
80,466	-11,139	-0,217	-0,100
81,480	-60,709	-0,323	-0,095
82,495	-73,558	-0,403	-0,102
83,509	63,720	-0,302	-0,212
84,524	64,790	-0,256	-0,181
85,539	150,708	-0,273	-0,260
86,553	79,190	-0,270	-0,202
87,568	-34,236	-0,364	-0,139
88,582	108,367	-0,280	-0,234
89,597	171,284	-0,232	-0,233
90,611	225,056	-0,300	-0,341
91,626	306,158	-0,097	-0,127
92,641	-15,208	-0,229	-0,102
93,655	-15,701	-0,316	-0,140
94,670	-21,509	-0,330	-0,140
95,684	83,975	-0,285	-0,217
96,699	108,917	-0,157	-0,131
97,714	-121,252	-0,312	-0,036
98,728	-47,461	-0,280	-0,095
99,743	96,905	-0,197	-0,158
100,757	113,522	-0,221	-0,187
101,772	21,717	-0,137	-0,078
102,787	47,364	-0,295	-0,192
103,801	118,261	-0,178	-0,153
104,816	-16,245	-0,130	-0,057
105,830	86,677	-0,278	-0,214
106,845	48,315	-0,228	-0,149
107,860	515,668	-0,122	-0,200
108,874	9,447	-0,307	-0,162
109,889	43,236	-0,254	-0,161
110,903	71,909	-0,231	-0,168
111,918	118,699	-0,262	-0,226
112,933	244,169	-0,180	-0,211
113,947	-99,995	-0,139	-0,024
114,962	-25,405	-0,190	-0,078
115,976	266,171	-0,255	-0,312
116,991	260,141	-0,163	-0,197
118,006	205,709	-0,193	-0,210
119,020	141,093	-0,258	-0,238
120,035	-17,928	-0,162	-0,071
121,049	167,071	-0,163	-0,162
122,064	90,773	-0,231	-0,181
123,079	372,110	-0,222	-0,315
124,093	97,627	-0,211	-0,169
125,108	-49,729	-0,430	-0,142
126,122	42,091	-0,373	-0,236
127,137	182,951	-0,126	-0,129
128,151	60,335	-0,217	-0,149
129,166	194,818	-0,260	-0,276
130,181	8,212	-0,198	-0,103
131,195	164,508	-0,256	-0,252
132,210	183,262	-0,206	-0,213
133,224	-126,531	-0,269	-0,027
134,239	9,111	-0,347	-0,182
135,254	77,682	-0,155	-0,115
136,268	234,561	-0,176	-0,202
137,283	47,354	-0,207	-0,134
138,297	114,262	-0,228	-0,194
139,312	-53,636	-0,380	-0,120
140,327	219,062	-0,207	-0,231
141,341	-114,954	-0,248	-0,033
142,356	-136,567	-0,172	0,014
143,370	473,991	-0,089	-0,141
144,385	209,690	-0,127	-0,139
145,400	-26,073	-0,281	-0,115
146,414	-81,068	-0,323	-0,074
147,429	448,357	-0,126	-0,195
148,443	262,774	-0,148	-0,180
149,458	111,890	-0,143	-0,120
150,473	557,910	-0,104	-0,176
151,487	-19,569	-0,282	-0,121
152,502	-36,276	-0,312	-0,117
153,516	-16,430	-0,238	-0,105
154,531	644,967	-0,127	-0,226
155,546	16,934	-0,285	-0,156
156,560	-104,936	-0,208	-0,033
157,575	-77,020	-0,237	-0,057
158,589	-200,000	-0,084	-0,288
159,604	-74,669	-0,213	-0,053
160,619	658,702	-0,129	-0,231
161,633	120,496	-0,267	-0,231
162,648	516,169	-0,193	-0,315
163,662	147,558	-0,131	-0,123
164,677	800,000	-0,066	-0,129
165,692	63,988	-0,163	-0,114
166,706	67,597	-0,198	-0,141
167,721	-8,425	-0,086	-0,040
168,735	-48,974	-0,185	-0,061
169,750	46,507	-0,169	-0,109
170,764	-66,089	-0,106	-0,029
171,779	-92,789	-0,139	-0,027
172,794	236,775	-0,156	-0,180
173,808	209,505	-0,174	-0,189
174,823	5,995	-0,157	-0,080
175,837	71,516	-0,226	-0,163
176,852	120,411	-0,263	-0,227
177,867	-96,256	-0,176	0,032
178,881	-111,041	-0,247	-0,035
179,896	-200,000	-0,033	-0,207
180,910	337,356	-0,046	-0,062
181,925	435,350	-0,155	-0,235
182,940	18,210	-0,221	-0,122
183,954	238,318	-0,102	-0,118
184,969	101,793	-0,192	-0,155
185,983	71,349	-0,169	-0,121
186,998	-162,083	-0,191	0,007
188,013	172,584	-0,200	-0,200
189,027	404,006	-0,155	-0,226
190,042	-51,287	-0,170	-0,055
191,056	186,380	-0,133	-0,138
192,071	35,069	-0,288	-0,175
193,086	39,422	-0,083	-0,051
194,100	20,003	-0,165	-0,092
195,115	13,717	-0,187	-0,100
196,129	174,485	-0,251	-0,252
197,144	-43,520	-0,372	-0,129
198,159	79,239	-0,289	-0,215
199,173	-10,331	-0,187	-0,086
200,188	-64,502	-0,133	-0,037
201,202	88,015	-0,246	-0,189
202,217	-150,714	-0,245	-0,013
203,232	308,888	-0,180	-0,233
204,246	28,013	-0,261	-0,152
205,261	-57,132	-0,295	-0,089
206,275	16,533	-0,191	-0,104
207,290	249,268	-0,059	-0,070
208,304	37,891	-0,167	-0,103
209,319	-23,951	-0,264	-0,109
210,334	-200,000	-0,059	-0,195
211,348	-7,959	-0,183	-0,085
212,363	68,121	-0,278	-0,197
213,377	154,563	-0,209	-0,199
214,392	143,299	-0,096	-0,088
215,407	-76,802	-0,190	-0,046
216,421	-58,430	-0,195	-0,058
217,436	10,833	-0,174	-0,091
218,450	-38,721	-0,185	-0,067
219,465	170,419	-0,174	-0,173
220,480	-2,727	-0,236	-0,114
221,494	16,350	-0,185	-0,101
222,509	25,769	-0,151	-0,087
223,523	-200,000	-0,178	-0,000
224,538	189,566	-0,235	-0,244
225,553	-25,818	-0,163	-0,066
226,567	321,658	-0,266	-0,351
227,582	659,903	-0,085	-0,152
228,596	-200,000	-0,033	-0,154
229,611	145,943	-0,158	-0,147
230,626	-30,672	-0,162	-0,063
231,640	712,217	-0,098	-0,181
232,655	-40,985	-0,229	-0,081
233,669	800,000	-0,102	-0,222
234,684	223,298	-0,275	-0,306
235,699	253,245	-0,119	-0,140
236,713	-81,678	-0,131	-0,029
237,728	85,205	-0,213	-0,161
238,742	-64,735	-0,128	0,036
239,757	238,804	-0,098	-0,112
240,772	-35,030	-0,154	-0,058
241,786	34,427	-0,166	-0,100
242,801	138,673	-0,111	-0,100
243,815	-200,000	-0,018	-0,156
244,830	-114,102	-0,088	0,012
245,844	26,037	-0,140	-0,080
246,859	103,457	-0,092	-0,075
247,874	-48,226	-0,139	-0,046
248,888	153,105	-0,140	-0,132
249,903	232,413	-0,144	-0,163
250,917	-200,000	0,005	-0,159
251,932	-16,129	-0,219	-0,095
252,947	-88,689	-0,161	0,033
253,961	135,049	-0,141	-0,127
254,976	26,760	-0,182	0,105
255,990	800,000	-0,134	-0,293
257,005	33,269	-0,208	-0,124
258,020	520,529	-0,079	-0,129
259,034	304,858	-0,181	-0,232
260,049	392,803	-0,119	-0,172
261,063	-134,074	-0,359	-0,030
262,078	-87,026	-0,241	-0,050
263,093	-38,157	-0,190	-0,069
264,107	152,977	-0,126	-0,119
265,122	48,744	-0,137	-0,088
266,136	61,778	-0,091	-0,062
267,151	22,575	-0,166	-0,093
268,166	-101,595	-0,187	-0,031
269,180	79,274	-0,237	-0,175
270,195	301,733	-0,169	-0,215
271,209	270,832	-0,153	-0,185
272,224	18,480	-0,094	-0,052
273,239	10,882	-0,075	-0,039
274,253	230,921	-0,208	-0,234
275,268	-148,617	-0,183	0,010
276,282	-99,624	-0,197	-0,034
277,297	163,573	-0,195	-0,189
278,312	117,159	-0,246	-0,208
279,326	17,393	-0,123	-0,067
280,341	-138,185	-0,152	0,011
281,355	-125,378	-0,147	-0,015
282,370	-147,244	-0,204	0,012
283,384	-95,287	-0,233	-0,043
284,399	57,471	-0,163	-0,109
285,414	-74,014	-0,216	-0,054
286,428	204,965	-0,173	-0,185
287,443	-188,788	-0,086	-0,001
288,457	716,462	-0,079	-0,146
289,472	-165,989	-0,156	-0,004
290,487	-116,928	0,049	0,006
291,501	-71,553	-0,322	-0,082
292,516	-5,129	-0,207	-0,098
293,530	800,000	-0,059	-0,118
294,545	326,645	-0,094	-0,124
295,560	-126,167	-0,351	-0,036
296,574	-90,799	-0,143	-0,028
297,589	74,880	-0,241	-0,174
298,603	93,086	-0,108	-0,084
299,618	104,663	-0,237	-0,192
300,633	2,010	-0,207	-0,102
301,647	-200,000	-0,050	-0,000
302,662	-19,834	-0,126	-0,053
303,676	800,000	-0,088	-0,206
304,691	-101,316	-0,192	0,032
305,706	262,430	-0,140	-0,167
306,720	-121,730	-0,160	-0,018
307,735	49,648	-0,239	-0,154
308,749	800,000	-0,043	-0,084
309,764	158,230	-0,081	-0,077
310,779	-111,871	-0,163	-0,022
311,793	171,692	-0,115	-0,113
312,808	295,211	-0,123	-0,154
313,822	653,704	-0,082	-0,145
314,837	-50,716	-0,221	0,071
315,852	-31,834	-0,122	-0,047
316,866	379,306	-0,068	-0,096
317,881	271,096	-0,095	-0,115
318,895	-146,956	-0,060	-0,003
319,910	800,000	-0,086	-0,231
320,925	-64,883	-0,068	0,019
321,939	-91,814	-0,186	-0,036
322,954	-200,000	-0,027	-0,089
323,968	-200,000	-0,034	-0,144
324,983	43,851	-0,157	-0,098
325,997	9,936	-0,171	-0,089
327,012	58,090	-0,043	0,029
328,027	800,000	-0,098	-0,211
329,041	-68,521	-0,141	-0,037
330,056	126,179	-0,132	-0,115
331,070	-200,000	-0,049	-0,160
332,085	-35,937	-0,191	-0,070
333,100	34,234	-0,234	-0,140
334,114	800,000	-0,034	-0,085
335,129	125,818	-0,176	-0,152
336,143	800,000	-0,058	-0,123
337,158	553,209	-0,093	-0,154
338,173	116,340	-0,106	-0,089
339,187	-184,224	-0,150	-0,002
340,202	-63,465	-0,227	0,063
341,216	-92,609	-0,130	-0,025
342,231	-98,223	-0,202	0,035
343,246	-73,387	-0,129	-0,032
344,260	220,118	-0,116	-0,127
345,275	425,686	-0,131	-0,193
346,289	-200,000	-0,037	-0,138
347,304	-69,448	-0,180	-0,047
348,319	365,180	-0,097	-0,134
349,333	182,715	-0,159	-0,161
350,348	-122,871	-0,106	0,011
351,362	-120,645	-0,109	-0,012
352,377	-39,705	-0,133	-0,047
353,392	27,690	-0,135	-0,077
354,406	530,967	-0,090	-0,146
355,421	206,344	1305,992	1391,550
356,435	158,695	1465,599	1392,024
