DTS Sentinel unit serial number:	SN410029Multiplexer serial number:	ORYXHardware model number:	OX2-SRSoftware version number:	ORYX F/W v4,00 Oryx Data Collector v3.7.2.0data status	okinstallation	B3 Nyhavnadifferential loss correction	single-endedforward channel	channel 1reverse channel	N/Adate	2023/11/30time	11:17:30forward acquisition time	300,00reverse acquisition time	0,00gamma	499,1914k internal	0,3211k external	0,3211temperature offset calibration	1,0000default loss term (dB/km)	0,3820temperature slope calibration	1,0000multiplexer offset coefficient	1,0000multiplexer slope coefficient	1,0000fibre end	0,00T internal ref (°C)	9,49T ext. ref 1 (°C)	-5,66T ext. ref 2 (°C)	-5,77length (m)	temperature (°C)	Stokes	anti-Stokes-744,400	125,116	-0,302	-0,276
-743,385	-200,000	-0,072	0,284
-742,371	-200,000	-0,051	-0,186
-741,356	-200,000	0,024	0,278
-740,342	800,000	-0,076	-0,239
-739,327	-200,000	0,000	0,229
-738,312	208,844	-0,202	-0,229
-737,298	800,000	-0,117	0,256
-736,283	384,903	-0,156	-0,233
-735,269	-200,000	0,026	0,257
-734,254	86,926	-0,157	-0,126
-733,239	73,086	-0,169	0,128
-732,225	739,426	-0,130	-0,254
-731,210	800,000	-0,035	0,086
-730,196	-200,000	0,022	-0,082
-729,181	-74,439	-0,067	-0,017
-728,167	458,980	0,001	-0,002
-727,152	468,783	-0,105	-0,172
-726,137	143,326	0,075	-0,072
-725,123	63,513	0,071	0,051
-724,108	-200,000	-0,039	-0,137
-723,094	-21,976	-0,094	-0,041
-722,079	-108,852	-0,131	-0,020
-721,064	340,822	-0,034	0,048
-720,050	139,899	0,102	-0,097
-719,035	148,427	-0,028	-0,027
-718,021	-72,724	-0,177	0,047
-717,006	-200,000	0,008	-0,178
-715,991	800,000	-0,039	-0,119
-714,977	-200,000	0,016	-0,250
-713,962	-110,700	0,099	0,015
-712,948	-25,557	0,064	0,027
-711,933	-65,628	0,023	0,007
-710,918	1,430	-0,027	-0,014
-709,904	800,000	0,017	-0,045
-708,889	-200,000	0,002	0,008
-707,875	-96,102	-0,202	-0,039
-706,860	-200,000	-0,023	-0,089
-705,845	-54,657	-0,054	-0,017
-704,831	-200,000	-0,009	-0,142
-703,816	200,835	-0,131	-0,146
-702,802	168,437	-0,110	-0,113
-701,787	85,681	-0,090	-0,072
-700,772	-200,000	0,036	-0,123
-699,758	177,212	-0,115	-0,121
-698,743	439,061	0,007	0,012
-697,729	-200,000	0,003	0,013
-696,714	-200,000	0,005	0,049
-695,699	-28,928	0,099	0,041
-694,685	-200,000	-0,009	-0,117
-693,670	641,653	-0,043	-0,079
-692,656	-21,694	-0,097	-0,043
-691,641	-200,000	-0,027	-0,126
-690,627	509,210	0,025	-0,043
-689,612	-10,339	0,130	-0,062
-688,597	-200,000	0,004	-0,185
-687,583	85,261	-0,180	-0,143
-686,568	-30,556	-0,070	0,028
-685,554	262,028	0,068	-0,086
-684,539	-200,000	-0,021	-0,105
-683,524	-55,654	0,125	-0,040
-682,510	-200,000	-0,001	0,005
-681,495	-76,585	-0,023	-0,006
-680,481	286,496	-0,038	0,050
-679,466	145,721	-0,113	-0,110
-678,451	-200,000	0,021	-0,138
-677,437	-200,000	-0,026	0,114
-676,422	-200,000	0,000	0,029
-675,408	-200,000	-0,007	0,093
-674,393	307,864	0,044	0,060
-673,378	-200,000	-0,046	-0,212
-672,364	-200,000	0,038	-0,142
-671,349	-87,939	-0,110	-0,024
-670,335	-118,716	0,151	-0,019
-669,320	-25,466	0,046	0,020
-668,305	82,653	-0,041	-0,032
-667,291	800,000	-0,083	-0,190
-666,276	800,000	-0,055	-0,166
-665,262	305,401	-0,018	-0,024
-664,247	192,854	-0,064	0,070
-663,232	233,995	0,058	0,069
-662,218	-160,820	0,095	0,004
-661,203	67,551	-0,039	0,029
-660,189	-200,000	-0,008	0,044
-659,174	-111,737	0,115	-0,017
-658,159	800,000	0,018	-0,047
-657,145	104,304	-0,116	-0,098
-656,130	83,025	-0,140	-0,110
-655,116	46,731	0,087	0,059
-654,101	-161,018	0,035	-0,001
-653,086	187,482	-0,105	0,114
-652,072	170,233	0,070	-0,073
-651,057	-29,696	0,078	-0,032
-650,043	-157,209	-0,073	-0,003
-649,028	12,884	0,130	-0,073
-648,014	-3,387	-0,108	0,054
-646,999	6,244	-0,028	0,015
-645,984	-200,000	0,002	-0,021
-644,970	444,596	-0,041	0,066
-643,955	-200,000	0,005	-0,059
-642,941	-148,995	-0,067	0,004
-641,926	800,000	0,059	0,119
-640,911	-101,015	-0,090	-0,016
-639,897	2,280	0,075	-0,039
-638,882	637,154	0,030	-0,056
-637,868	-86,394	-0,050	-0,011
-636,853	-200,000	-0,019	-0,167
-635,838	800,000	-0,036	-0,078
-634,824	-164,409	-0,142	0,005
-633,809	800,000	-0,035	-0,078
-632,795	-200,000	0,005	0,039
-631,780	-101,321	-0,019	0,003
-630,765	498,215	-0,067	-0,111
-629,751	-159,430	-0,063	-0,002
-628,736	-200,000	0,012	-0,117
-627,722	12,917	-0,045	-0,025
-626,707	800,000	0,055	-0,171
-625,692	30,476	0,125	-0,077
-624,678	330,119	0,016	-0,022
-623,663	58,956	0,141	-0,100
-622,649	-6,914	-0,068	-0,033
-621,634	55,923	0,098	-0,069
-620,619	229,609	-0,005	0,006
-619,605	58,725	-0,059	-0,041
-618,590	-120,226	0,163	-0,020
-617,576	180,109	-0,107	0,113
-616,561	107,318	-0,073	0,063
-615,546	148,698	-0,196	-0,191
-614,532	-200,000	-0,039	-0,150
-613,517	800,000	-0,025	0,068
-612,503	595,255	0,033	-0,060
-611,488	-200,000	0,003	-0,085
-610,474	800,000	-0,013	-0,028
-609,459	800,000	0,026	0,078
-608,444	-200,000	-0,038	-0,159
-607,430	-200,000	-0,005	0,045
-606,415	20,787	-0,183	0,107
-605,401	115,335	-0,006	-0,005
-604,386	-53,605	-0,042	0,014
-603,371	-100,214	0,125	-0,022
-602,357	-200,000	0,025	0,103
-601,342	13,827	0,143	0,080
-600,328	-200,000	0,013	0,050
-599,313	177,973	-0,071	0,074
-598,298	-200,000	0,041	0,145
-597,284	-60,903	0,160	-0,049
-596,269	-7,399	0,123	-0,060
-595,255	-200,000	0,011	0,047
-594,240	-48,927	-0,037	0,013
-593,225	-15,082	-0,060	-0,028
-592,211	1,687	0,038	0,020
-591,196	323,371	-0,055	-0,075
-590,182	191,795	0,066	-0,072
-589,167	489,478	0,023	0,038
-588,152	-45,914	0,090	0,032
-587,138	8,428	-0,030	0,016
-586,123	-5,305	-0,060	-0,029
-585,109	-200,000	-0,012	-0,110
-584,094	-14,014	-0,123	-0,057
-583,079	800,000	-0,049	0,103
-582,065	678,817	0,111	0,208
-581,050	206,733	-0,094	0,105
-580,036	-200,000	0,025	0,100
-579,021	-60,159	-0,194	0,059
-578,006	-200,000	-0,013	0,122
-576,992	28,216	-0,105	0,064
-575,977	441,039	-0,041	-0,065
-574,963	62,731	-0,071	-0,051
-573,948	-90,927	0,067	0,014
-572,934	-200,000	-0,005	-0,016
-571,919	88,005	-0,041	-0,033
-570,904	-101,249	-0,058	0,010
-569,890	250,540	-0,048	0,058
-568,875	-43,931	0,094	0,034
-567,861	-103,127	0,096	-0,016
-566,846	140,486	-0,025	-0,024
-565,831	316,859	-0,068	0,092
-564,817	800,000	-0,014	-0,030
-563,802	800,000	-0,053	-0,134
-562,788	-200,000	-0,014	0,101
-561,773	240,695	0,102	-0,123
-560,758	-20,314	0,103	0,046
-559,744	-200,000	0,002	0,010
-558,729	-78,397	0,065	-0,016
-557,715	466,736	-0,123	-0,199
-556,700	800,000	-0,007	0,021
-555,685	-16,832	-0,177	0,080
-554,671	116,085	0,044	0,039
-553,656	116,952	-0,031	-0,028
-552,642	366,538	0,072	0,104
-551,627	365,558	0,038	-0,056
-550,612	378,595	0,038	-0,057
-549,598	-200,000	0,032	-0,157
-548,583	-143,169	-0,104	-0,007
-547,569	-122,271	-0,023	0,003
-546,554	-200,000	0,076	0,327
-545,539	-200,000	0,038	0,154
-544,525	-102,162	-0,016	0,003
-543,510	260,517	-0,029	0,036
-542,496	428,334	-0,035	-0,055
-541,481	-40,062	0,080	-0,030
-540,466	380,240	-0,007	0,010
-539,452	-200,000	-0,001	0,064
-538,437	457,691	0,090	0,144
-537,423	-200,000	0,003	0,040
-536,408	800,000	0,050	-0,118
-535,393	-146,615	-0,131	0,008
-534,379	-200,000	0,022	-0,100
-533,364	83,653	0,046	0,036
-532,350	35,478	0,101	0,063
-531,335	-24,894	-0,121	0,051
-530,321	228,512	0,064	0,075
-529,306	-200,000	0,003	-0,040
-528,291	482,543	-0,023	-0,038
-527,277	68,410	-0,152	0,112
-526,262	504,140	-0,061	-0,102
-525,248	93,823	0,026	-0,021
-524,233	26,622	0,032	0,019
-523,218	171,972	0,094	-0,098
-522,204	-26,868	0,123	0,051
-521,189	-139,058	-0,041	-0,003
-520,175	-49,685	0,113	-0,038
-519,160	130,894	0,091	-0,084
-518,145	587,828	0,018	-0,032
-517,131	-136,528	-0,081	-0,007
-516,116	-88,477	0,072	-0,015
-515,102	-200,000	-0,030	0,101
-514,087	685,453	-0,067	-0,127
-513,072	-123,335	-0,118	0,013
-512,058	331,614	0,112	-0,156
-511,043	374,903	-0,060	0,089
-510,029	-162,682	0,131	-0,005
-509,014	-74,503	0,043	-0,011
-507,999	800,000	0,020	-0,047
-506,985	264,197	-0,032	0,040
-505,970	311,863	0,055	-0,075
-504,956	67,229	-0,195	-0,143
-503,941	-105,572	-0,056	0,009
-502,926	-39,600	-0,062	0,023
-501,912	352,998	0,006	0,009
-500,897	-16,809	0,062	0,028
-499,883	-200,000	-0,029	-0,095
-498,868	320,957	0,049	-0,068
-497,853	800,000	-0,030	-0,065
-496,839	-200,000	-0,004	-0,017
-495,824	45,239	0,075	-0,049
-494,810	-25,659	0,128	-0,054
-493,795	800,000	0,020	-0,051
-492,781	800,000	0,032	0,085
-491,766	-65,841	-0,133	-0,038
-490,751	139,751	-0,011	0,011
-489,737	-103,226	0,109	-0,018
-488,722	-200,000	0,013	-0,114
-487,708	207,419	-0,043	0,048
-486,693	200,984	0,025	0,028
-485,678	-200,000	0,020	0,064
-484,664	271,311	-0,111	-0,140
-483,649	-23,525	0,059	0,025
-482,635	-52,393	0,120	-0,040
-481,620	466,692	-0,036	0,058
-480,605	401,377	-0,068	0,102
-479,591	-15,557	0,043	0,019
-478,576	62,437	-0,143	0,102
-477,562	3,084	-0,069	-0,036
-476,547	-94,723	-0,048	0,009
-475,532	-200,000	-0,022	-0,134
-474,518	382,370	0,029	0,043
-473,503	-200,000	0,024	0,181
-472,489	800,000	-0,013	0,038
-471,474	26,215	0,099	0,059
-470,459	-100,543	0,095	0,017
-469,445	800,000	-0,054	0,109
-468,430	800,000	-0,023	-0,068
-467,416	-52,185	-0,064	0,021
-466,401	227,260	-0,097	0,113
-465,386	-175,469	-0,017	-0,000
-464,372	-200,000	-0,008	0,059
-463,357	-200,000	-0,016	0,234
-462,343	-101,422	-0,053	-0,009
-461,328	61,173	0,078	-0,055
-460,313	-200,000	0,032	0,104
-459,299	16,344	-0,024	-0,014
-458,284	1,430	-0,058	0,030
-457,270	-18,873	-0,150	-0,067
-456,255	-200,000	-0,011	0,082
-455,241	-200,000	-0,014	-0,058
-454,226	9,844	0,088	-0,048
-453,211	-200,000	-0,011	0,041
-452,197	-110,681	0,044	-0,006
-451,182	800,000	-0,008	-0,018
-450,168	800,000	0,018	-0,052
-449,153	58,008	-0,058	-0,041
-448,138	-70,375	0,149	0,040
-447,124	-200,000	0,009	0,037
-446,109	41,120	-0,111	0,072
-445,095	-200,000	-0,022	-0,100
-444,080	63,177	-0,058	0,042
-443,065	800,000	0,053	0,119
-442,051	-200,000	-0,012	-0,085
-441,036	-124,976	0,034	-0,004
-440,022	-53,432	0,138	-0,045
-439,007	404,791	0,021	-0,031
-437,992	-0,982	-0,109	-0,055
-436,978	800,000	-0,036	-0,076
-435,963	38,003	0,098	0,062
-434,949	346,244	0,051	-0,072
-433,934	-44,794	0,230	-0,082
-432,919	-200,000	-0,005	-0,086
-431,905	76,158	0,133	0,101
-430,890	10,684	0,055	0,030
-429,876	-84,418	-0,035	-0,008
-428,861	800,000	-0,023	0,068
-427,846	156,404	0,033	-0,033
-426,832	-200,000	0,055	-0,189
-425,817	236,870	0,123	-0,146
-424,803	11,264	-0,074	-0,040
-423,788	-200,000	-0,034	0,115
-422,773	3,529	0,100	-0,052
-421,759	274,186	0,064	0,082
-420,744	35,794	0,125	0,079
-419,730	800,000	0,023	-0,062
-418,715	278,269	-0,031	0,039
-417,701	-200,000	0,006	-0,059
-416,686	784,486	0,019	0,037
-415,671	-14,785	-0,068	-0,031
-414,657	-200,000	-0,016	0,093
-413,642	-12,664	0,125	-0,058
-412,628	391,209	-0,009	-0,013
-411,613	800,000	-0,030	-0,070
-410,598	3,999	0,141	-0,074
-409,584	-47,074	-0,112	0,039
-408,569	-145,146	0,101	-0,006
-407,555	800,000	-0,083	0,177
-406,540	-200,000	0,012	0,067
-405,525	99,337	-0,098	-0,081
-404,511	406,971	0,025	0,038
-403,496	-138,527	0,063	0,005
-402,482	-200,000	0,001	-0,055
-401,467	83,787	-0,063	-0,049
-400,452	350,894	0,054	0,077
-399,438	173,067	0,060	-0,062
-398,423	-200,000	-0,005	-0,141
-397,409	254,598	-0,087	-0,107
-396,394	-200,000	-0,009	-0,234
-395,379	-150,615	-0,019	-0,001
-394,365	240,026	0,050	-0,060
-393,350	391,250	0,043	0,064
-392,336	2,987	0,095	0,049
-391,321	800,000	-0,057	-0,125
-390,306	-200,000	0,003	-0,111
-389,292	-64,119	-0,050	0,015
-388,277	-84,355	-0,091	-0,020
-387,263	800,000	0,065	0,176
-386,248	552,623	0,038	0,065
-385,233	477,295	-0,023	0,037
-384,219	-200,000	0,006	0,023
-383,204	800,000	-0,032	-0,078
-382,190	29,652	-0,110	-0,067
-381,175	224,977	-0,076	0,088
-380,160	-124,968	-0,205	0,022
-379,146	-3,514	0,059	-0,029
-378,131	46,327	-0,056	0,037
-377,117	-82,646	0,033	0,008
-376,102	48,743	-0,098	0,066
-375,088	-127,180	0,102	0,011
-374,073	800,000	-0,053	0,148
-373,058	-80,827	0,165	0,039
-372,044	-200,000	-0,015	0,151
-371,029	-200,000	-0,001	-0,034
-370,015	73,342	-0,082	-0,061
-369,000	640,248	0,058	0,106
-367,985	252,013	-0,123	-0,150
-366,971	-108,591	0,069	-0,011
-365,956	340,938	-0,013	-0,018
-364,942	569,485	0,062	0,107
-363,927	-200,000	-0,040	0,131
-362,912	792,273	0,030	-0,058
-361,898	800,000	0,034	-0,085
-360,883	279,532	0,037	0,047
-359,869	800,000	0,047	-0,098
-358,854	587,128	-0,037	-0,065
-357,839	11,989	-0,082	0,045
-356,825	214,145	-0,059	0,067
-355,810	322,617	-0,078	0,107
-354,796	-131,650	-0,092	0,008
-353,781	87,876	-0,051	0,040
-352,766	-200,000	-0,021	-0,110
-351,752	410,638	0,087	-0,132
-350,737	-42,148	0,155	0,056
-349,723	800,000	-0,054	-0,118
-348,708	800,000	0,040	0,100
-347,693	-32,607	-0,070	0,028
-346,679	-200,000	-0,012	-0,078
-345,664	17,309	0,135	0,076
-344,650	-55,072	-0,141	0,045
-343,635	120,008	0,060	0,053
-342,620	-200,000	0,005	0,056
-341,606	-36,355	0,125	-0,048
-340,591	-103,972	-0,072	-0,012
-339,577	800,000	-0,062	0,155
-338,562	-200,000	0,023	-0,102
-337,548	-53,298	-0,115	0,037
-336,533	-109,683	0,052	-0,008
-335,518	-95,507	-0,059	-0,011
-334,504	-52,900	0,120	-0,039
-333,489	800,000	0,040	0,104
-332,475	-156,304	-0,146	-0,006
-331,460	-200,000	0,003	-0,020
-330,445	356,175	0,076	0,109
-329,431	-78,110	0,146	0,036
-328,416	-67,130	-0,028	0,008
-327,402	800,000	-0,094	0,188
-326,387	454,086	-0,065	-0,103
-325,372	327,948	-0,112	-0,154
-324,358	-153,724	-0,129	0,006
-323,343	800,000	0,001	-0,001
-322,329	-200,000	0,018	-0,146
-321,314	105,070	-0,032	0,027
-320,299	72,010	-0,045	0,033
-319,285	-107,139	0,104	0,016
-318,270	-126,713	0,022	0,002
-317,256	10,740	-0,231	-0,125
-316,241	800,000	0,052	0,122
-315,226	800,000	0,041	-0,095
-314,212	715,381	-0,044	-0,084
-313,197	232,539	0,080	-0,094
-312,183	800,000	0,045	-0,102
-311,168	800,000	0,032	0,083
-310,153	162,976	-0,131	0,131
-309,139	189,401	0,027	0,029
-308,124	-82,863	0,155	0,035
-307,110	117,168	0,054	0,047
-306,095	763,442	0,058	-0,113
-305,080	366,867	0,039	0,056
-304,066	123,137	-0,080	0,072
-303,051	-200,000	0,003	-0,166
-302,037	-144,695	-0,059	-0,004
-301,022	14,868	0,097	0,054
-300,008	-200,000	-0,004	0,026
-298,993	494,905	0,100	0,164
-297,978	-200,000	-0,005	-0,067
-296,964	-200,000	-0,023	0,103
-295,949	291,016	-0,054	-0,070
-294,935	-200,000	0,002	-0,023
-293,920	-92,709	0,030	0,006
-292,905	239,635	0,050	-0,060
-291,891	-155,329	0,153	0,007
-290,876	-200,000	-0,014	0,182
-289,862	354,640	-0,031	0,044
-288,847	18,793	-0,117	-0,067
-287,832	-130,084	-0,106	-0,010
-286,818	800,000	0,041	0,099
-285,803	65,892	-0,195	0,140
-284,789	389,154	0,028	0,041
-283,774	166,916	0,035	-0,036
-282,759	199,138	-0,092	-0,100
-281,745	-200,000	-0,011	0,038
-280,730	-89,413	-0,141	-0,029
-279,716	58,055	0,143	-0,099
-278,701	-44,228	-0,133	0,047
-277,686	13,256	0,068	0,038
-276,672	734,791	-0,055	0,105
-275,657	-109,464	0,093	-0,014
-274,643	-10,927	-0,124	-0,058
-273,628	-8,956	-0,069	0,033
-272,613	-200,000	-0,007	0,130
-271,599	-200,000	0,001	-0,029
-270,584	-200,000	-0,032	0,133
-269,570	-200,000	0,003	-0,060
-268,555	-200,000	-0,002	0,031
-267,540	800,000	0,075	-0,155
-266,526	-200,000	-0,015	-0,127
-265,511	-200,000	-0,012	0,111
-264,497	37,278	-0,063	-0,040
-263,482	219,269	-0,041	0,047
-262,467	-163,384	0,091	-0,003
-261,453	129,505	0,010	-0,009
-260,438	430,884	0,068	-0,105
-259,424	-200,000	0,011	-0,108
-258,409	485,482	0,077	-0,126
-257,395	-167,674	-0,022	0,001
-256,380	398,721	0,076	0,113
-255,365	-181,025	0,120	0,002
-254,351	64,753	-0,026	0,018
-253,336	-200,000	0,003	-0,139
-252,322	203,597	0,121	-0,134
-251,307	461,432	-0,040	0,064
-250,292	-200,000	-0,005	-0,140
-249,278	-200,000	0,002	0,048
-248,263	800,000	0,015	0,034
-247,249	112,388	0,158	0,136
-246,234	-134,708	0,075	0,006
-245,219	172,299	-0,079	0,081
-244,205	-125,537	-0,109	-0,012
-243,190	-200,000	-0,026	-0,081
-242,176	121,523	0,134	-0,119
-241,161	-143,632	0,173	0,012
-240,146	312,408	-0,044	0,058
-239,132	161,755	-0,044	0,044
-238,117	526,882	0,019	-0,031
-237,103	254,208	0,011	0,013
-236,088	284,572	-0,113	0,145
-235,073	-200,000	-0,005	-0,044
-234,059	626,599	0,024	-0,043
-233,044	800,000	0,005	-0,015
-232,030	-16,522	-0,027	-0,012
-231,015	33,963	0,057	-0,035
-230,000	800,000	0,010	-0,021
-228,986	800,000	0,040	-0,091
-227,971	-7,396	0,059	0,028
-226,957	144,998	0,165	0,157
-225,942	800,000	-0,041	0,124
-224,927	-107,853	-0,070	0,011
-223,913	800,000	-0,033	-0,073
-222,898	83,272	-0,099	-0,076
-221,884	-200,000	0,068	0,237
-220,869	98,230	0,112	0,092
-219,855	-200,000	-0,005	0,098
-218,840	586,921	-0,067	0,118
-217,825	55,516	0,085	-0,058
-216,811	36,562	-0,014	-0,009
-215,796	61,008	-0,095	-0,067
-214,782	307,416	-0,020	-0,026
-213,767	-200,000	-0,008	-0,049
-212,752	23,863	0,044	0,026
-211,738	-40,428	0,048	-0,017
-210,723	122,447	0,039	-0,034
-209,709	-25,769	0,041	0,017
-208,694	-200,000	-0,017	-0,101
-207,679	800,000	0,077	-0,207
-206,665	626,361	-0,051	0,091
-205,650	-200,000	-0,014	0,049
-204,636	200,087	0,073	0,080
-203,621	-129,797	0,092	-0,009
-202,606	319,113	-0,098	0,132
-201,592	-20,229	-0,098	-0,043
-200,577	88,370	-0,016	0,013
-199,563	-64,743	0,126	-0,036
-198,548	800,000	-0,019	0,055
-197,533	347,461	0,058	-0,081
-196,519	800,000	0,036	0,085
-195,504	-5,169	-0,042	-0,020
-194,490	-200,000	0,008	-0,180
-193,475	-52,007	-0,042	-0,014
-192,460	354,441	0,022	0,031
-191,446	-92,305	0,068	0,013
-190,431	-200,000	0,022	0,120
-189,417	-200,000	-0,012	0,142
-188,402	-200,000	-0,009	0,040
-187,387	710,861	-0,128	-0,241
-186,373	-200,000	-0,002	-0,069
-185,358	800,000	-0,025	-0,063
-184,344	12,266	0,052	-0,028
-183,329	-148,289	0,047	-0,003
-182,315	450,510	0,070	0,110
-181,300	74,974	-0,071	-0,053
-180,285	-200,000	-0,001	0,095
-179,271	67,456	-0,079	0,057
-178,256	-200,000	-0,017	-0,087
-177,242	800,000	-0,034	0,081
-176,227	61,409	-0,045	-0,032
-175,212	-200,000	0,046	0,152
-174,198	-200,000	-0,030	-0,095
-173,183	-122,288	-0,165	-0,019
-172,169	-200,000	-0,011	-0,131
-171,154	-200,000	0,011	-0,121
-170,139	519,666	0,061	0,102
-169,125	217,089	0,041	-0,046
-168,110	-89,929	0,012	0,002
-167,096	-200,000	0,009	0,138
-166,081	-144,876	-0,055	-0,004
-165,066	1,333	-0,137	-0,069
-164,052	-200,000	0,033	-0,124
-163,037	-200,000	0,033	0,169
-162,023	152,221	0,034	0,033
-161,008	-50,734	-0,055	0,018
-159,993	163,507	0,014	-0,014
-158,979	-200,000	0,000	0,032
-157,964	310,712	-0,106	0,141
-156,950	-101,072	-0,130	0,022
-155,935	-200,000	-0,005	-0,051
-154,920	-37,203	0,102	-0,038
-153,906	800,000	0,019	0,039
-152,891	0,669	0,108	0,054
-151,877	-1,390	-0,040	-0,020
-150,862	-200,000	0,002	0,081
-149,847	787,611	0,047	0,091
-148,833	-96,787	-0,013	0,002
-147,818	800,000	0,028	0,082
-146,804	800,000	0,061	0,142
-145,789	-33,826	-0,081	0,032
-144,775	323,442	-0,084	-0,114
-143,760	-168,822	0,122	-0,003
-142,745	236,591	-0,055	-0,065
-141,731	-200,000	0,004	-0,132
-140,716	225,629	0,069	-0,079
-139,702	-200,000	-0,010	0,051
-138,687	22,635	0,042	-0,024
-137,672	-3,410	-0,044	0,022
-136,658	-200,000	-0,008	-0,035
-135,643	-200,000	-0,022	-0,117
-134,629	-200,000	0,006	-0,102
-133,614	-200,000	0,004	-0,102
-132,599	72,932	-0,018	0,014
-131,585	391,575	-0,066	0,097
-130,570	185,376	0,032	-0,034
-129,556	104,589	0,070	-0,059
-128,541	800,000	-0,019	-0,048
-127,526	-200,000	0,035	0,137
-126,512	-200,000	-0,021	0,096
-125,497	-68,304	0,124	-0,034
-124,483	344,848	0,054	0,076
-123,468	-200,000	-0,017	0,055
-122,453	-200,000	-0,030	-0,118
-121,439	-122,081	-0,092	0,011
-120,424	800,000	0,019	-0,042
-119,410	-84,892	0,073	-0,016
-118,395	227,336	-0,065	-0,075
-117,380	361,189	0,078	-0,112
-116,366	-176,260	-0,036	-0,001
-115,351	-200,000	0,015	-0,123
-114,337	114,649	-0,090	-0,078
-113,322	-11,719	0,079	-0,037
-112,307	-200,000	-0,023	0,080
-111,293	319,244	0,120	0,161
-110,278	234,180	0,040	0,046
-109,264	-96,197	-0,014	-0,003
-108,249	85,738	-0,060	0,047
-107,234	9,309	-0,073	-0,039
-106,220	85,747	0,082	0,063
-105,205	-200,000	-0,148	-0,000
-104,191	-146,378	0,041	0,002
-103,176	65,925	0,055	0,039
-102,162	-12,037	0,018	0,008
-101,147	800,000	0,024	-0,055
-100,132	800,000	0,022	0,063
-99,118	-48,519	0,079	0,027
-98,103	272,696	0,069	-0,086
-97,089	800,000	-0,006	-0,015
-96,074	237,129	-0,033	0,038
-95,059	330,497	0,038	-0,052
-94,045	142,700	-0,074	-0,070
-93,030	-111,346	-0,041	0,006
-92,016	-200,000	0,004	-0,099
-91,001	162,147	-0,095	-0,094
-89,986	224,446	0,058	0,066
-88,972	-17,602	0,131	0,058
-87,957	119,414	-0,085	-0,074
-86,943	67,061	-0,131	-0,094
-85,928	-84,387	0,034	-0,007
-84,913	-18,727	-0,186	0,082
-83,899	-200,000	0,027	0,193
-82,884	103,433	0,047	-0,039
-81,870	-6,303	-0,084	0,040
-80,855	-200,000	0,027	0,099
-79,840	97,118	-0,078	-0,063
-78,826	-200,000	0,005	-0,111
-77,811	-200,000	-0,014	-0,058
-76,797	-200,000	0,005	-0,085
-75,782	-8,940	0,144	-0,068
-74,767	-107,720	0,056	0,008
-73,753	426,282	-0,091	0,140
-72,738	18,832	-0,039	-0,022
-71,724	-200,000	-0,008	0,097
-70,709	-200,000	0,010	-0,144
-69,694	800,000	0,030	-0,080
-68,680	-101,484	0,143	-0,024
-67,665	-83,174	0,147	0,033
-66,651	-200,000	-0,000	-0,062
-65,636	-200,000	0,021	-0,086
-64,622	-94,605	-0,057	0,011
-63,607	261,414	0,015	0,018
-62,592	-106,853	0,090	-0,014
-61,578	-73,549	0,108	0,028
-60,563	-200,000	0,005	-0,029
-59,549	-139,766	0,134	0,010
-58,534	44,783	-1,972	-1,279
-57,519	491,297	-1,197	-1,941
-56,505	-200,000	-0,427	-4,365
-55,490	428,720	0,979	1,498
-54,476	800,000	5,151	11,303
-53,461	-200,000	21,720	343,660
-52,446	800,000	763,165	2339,131
-51,432	545,871	1661,943	2814,775
-50,417	71,339	1658,510	1213,121
-49,403	17,241	1531,953	855,409
-48,388	11,246	1455,926	783,993
-47,373	19,350	1447,495	818,263
-46,359	14,802	1436,474	790,405
-45,344	9,638	1432,278	763,510
-44,330	9,551	1430,583	762,160
-43,315	9,551	1428,486	761,015
-42,300	9,550	1426,872	760,120
-41,286	9,549	1425,698	759,461
-40,271	9,535	1424,274	758,605
-39,257	9,582	1423,080	758,161
-38,242	9,612	1422,030	757,713
-37,227	9,615	1421,048	757,175
-36,213	9,591	1419,617	756,268
-35,198	9,583	1418,560	755,636
-34,184	9,588	1417,770	755,208
-33,169	9,491	1416,183	753,877
-32,154	9,559	1415,341	753,719
-31,140	9,526	1414,035	752,841
-30,125	9,599	1412,793	752,492
-29,111	9,606	1411,554	751,837
-28,096	9,579	1410,562	751,148
-27,082	9,517	1409,217	750,111
-26,067	9,509	1408,230	749,520
-25,052	9,569	1407,143	749,191
-24,038	9,569	1406,009	748,559
-23,023	9,519	1405,385	747,963
-22,009	9,529	1404,364	747,438
-20,994	9,508	1403,370	746,779
-19,979	9,522	1402,446	746,326
-18,965	9,491	1401,471	745,633
-17,950	9,474	1400,453	744,981
-16,936	9,445	1399,699	744,416
-15,921	9,425	1398,868	743,849
-14,906	9,421	1397,939	743,308
-13,892	9,480	1396,739	742,915
-12,877	9,421	1395,879	742,154
-11,863	9,472	1395,164	741,982
-10,848	9,414	1394,272	741,210
-9,833	9,347	1393,373	740,390
-8,819	9,304	1392,556	739,729
-7,804	9,339	1391,438	739,268
-6,790	9,326	1390,678	738,777
-5,775	9,297	1389,450	737,958
-4,760	9,289	1388,669	737,477
-3,746	9,310	1387,651	737,004
-2,731	9,374	1386,574	736,699
-1,717	9,294	1386,051	736,022
-0,702	9,313	1384,189	735,094
0,313	13,372	1296,331	706,956
1,327	29,471	687,217	411,133
2,342	45,957	118,710	77,331
3,356	-2,448	16,593	8,171
4,371	7,026	3,642	1,909
5,386	5,979	1,190	0,619
6,400	-200,000	0,177	0,678
7,415	254,650	-0,128	-0,155
8,429	-36,470	-0,396	-0,150
9,444	-58,336	-0,286	-0,087
10,459	119,678	-0,303	-0,265
11,473	144,862	-0,235	-0,222
12,488	25,572	-0,217	-0,127
13,502	0,378	-0,327	-0,164
14,517	35,455	-0,392	-0,242
15,531	10,560	-0,500	-0,267
16,546	-131,457	-0,394	-0,036
17,561	124,327	-0,324	-0,287
18,575	-26,747	-0,251	-0,103
19,590	100,477	-0,204	-0,167
20,604	195,848	-0,157	-0,168
21,619	66,301	-0,453	-0,324
22,634	-38,446	-0,495	-0,183
23,648	-9,258	-0,435	-0,204
24,663	-27,990	-0,321	-0,130
25,677	-10,187	-0,363	-0,169
26,692	112,591	-0,429	-0,365
27,707	47,794	-0,422	-0,277
28,721	90,475	-0,397	-0,313
29,736	103,487	-0,429	-0,354
30,750	-12,463	-0,359	-0,165
31,765	35,663	-0,361	-0,223
32,780	152,755	-0,422	-0,406
33,794	175,107	-0,319	-0,325
34,809	164,166	-0,259	-0,257
35,823	31,860	-0,401	-0,243
36,838	167,529	-0,341	-0,341
37,853	90,480	-0,360	-0,283
38,867	-43,884	-0,459	-0,161
39,882	131,727	-0,355	-0,321
40,896	196,038	-0,296	-0,317
41,911	7,538	-0,345	-0,181
42,926	135,289	-0,271	-0,248
43,940	-3,746	-0,477	-0,232
44,955	260,581	-0,293	-0,357
45,969	173,854	-0,374	-0,380
46,984	-28,049	-0,270	-0,109
47,999	121,270	-0,255	-0,223
49,013	14,551	-0,252	-0,138
50,028	-16,134	-0,357	-0,159
51,042	126,337	-0,403	-0,358
52,057	161,199	-0,365	-0,358
53,071	491,979	-0,235	-0,380
54,086	-13,020	-0,404	-0,184
55,101	28,574	-0,146	-0,087
56,115	-79,020	-0,374	-0,089
57,130	10,484	-0,478	-0,255
58,144	-46,702	-0,355	-0,121
59,159	79,023	-0,325	-0,244
60,174	99,165	-0,322	-0,261
61,188	269,739	-0,238	-0,294
62,203	88,837	-0,316	-0,246
63,217	93,269	-0,223	-0,177
64,232	-10,805	-0,340	-0,157
65,247	42,240	-0,309	-0,196
66,261	56,009	-0,337	-0,229
67,276	134,954	-0,372	-0,339
68,290	-26,913	-0,381	-0,155
69,305	231,383	-0,336	-0,387
70,320	256,283	-0,278	-0,336
71,334	46,289	-0,409	-0,265
72,349	144,040	-0,202	-0,189
73,363	106,668	-0,293	-0,243
74,378	97,619	-0,300	-0,241
75,393	-42,008	-0,447	-0,159
76,407	210,372	-0,225	-0,248
77,422	-22,877	-0,225	-0,095
78,436	30,499	-0,141	-0,084
79,451	-132,461	-0,423	-0,038
80,466	123,632	-0,292	-0,256
81,480	356,182	-0,189	-0,265
82,495	104,770	-0,268	-0,221
83,509	41,243	-0,226	-0,143
84,524	313,324	-0,180	-0,238
85,539	149,144	-0,280	-0,266
86,553	-14,902	-0,282	-0,126
87,568	25,479	-0,281	-0,163
88,582	-130,524	-0,339	-0,032
89,597	167,418	-0,227	-0,226
90,611	172,640	-0,231	-0,233
91,626	-42,654	-0,241	-0,085
92,641	42,395	-0,277	-0,176
93,655	800,000	-0,084	-0,191
94,670	115,217	-0,318	-0,272
95,684	88,726	-0,249	-0,194
96,699	-90,361	-0,477	-0,096
97,714	11,035	-0,226	-0,120
98,728	-82,621	-0,358	-0,080
99,743	-49,533	-0,374	-0,124
100,757	79,248	-0,273	-0,205
101,772	126,355	-0,290	-0,256
102,787	-15,781	-0,240	-0,107
103,801	33,532	-0,377	-0,228
104,816	-62,681	-0,227	-0,065
105,830	-22,055	-0,217	-0,092
106,845	-88,884	-0,218	-0,045
107,860	-9,904	-0,275	-0,127
108,874	211,484	-0,202	-0,222
109,889	108,146	-0,201	-0,167
110,903	-34,951	-0,292	-0,111
111,918	95,455	-0,227	-0,180
112,933	-114,101	-0,203	-0,027
113,947	152,280	-0,154	-0,147
114,962	28,244	-0,221	-0,130
115,976	7,604	-0,300	-0,156
116,991	36,818	-0,242	-0,149
118,006	249,582	-0,169	-0,201
119,020	53,185	-0,324	-0,216
120,035	107,832	-0,229	-0,190
121,049	-91,474	-0,222	-0,044
122,064	-126,967	-0,277	-0,028
123,079	-67,953	-0,368	-0,100
124,093	187,686	-0,196	-0,205
125,108	359,822	-0,200	-0,280
126,122	150,745	-0,206	-0,196
127,137	152,664	-0,082	-0,079
128,151	95,268	-0,184	-0,146
129,166	6,680	-0,183	-0,094
130,181	-43,280	-0,248	-0,087
131,195	20,482	-0,304	-0,171
132,210	264,608	-0,250	-0,304
133,224	-44,563	-0,242	-0,084
134,239	100,066	-0,234	-0,189
135,254	60,229	-0,232	-0,160
136,268	800,000	-0,119	-0,288
137,283	83,119	-0,223	-0,169
138,297	-36,482	-0,285	-0,106
139,312	88,388	-0,220	-0,170
140,327	265,785	-0,235	-0,287
141,341	102,222	-0,220	-0,179
142,356	206,663	-0,242	-0,263
143,370	-47,813	-0,283	-0,095
144,385	49,585	-0,265	-0,173
145,400	-60,235	-0,307	-0,091
146,414	233,896	-0,239	-0,274
147,429	-3,561	-0,320	-0,155
148,443	646,416	-0,061	-0,109
149,458	280,252	-0,139	-0,173
150,473	162,660	-0,159	-0,155
151,487	23,410	-0,189	-0,108
152,502	354,437	-0,141	-0,195
153,516	166,665	-0,235	-0,232
154,531	60,608	-0,252	-0,174
155,546	107,538	-0,200	-0,165
156,560	3,847	-0,266	-0,135
157,575	-23,480	-0,297	-0,123
158,589	44,194	-0,269	-0,171
159,604	-17,729	-0,242	-0,105
160,619	22,224	-0,131	-0,074
161,633	-65,709	-0,230	-0,064
162,648	333,402	-0,167	-0,226
163,662	12,058	-0,162	-0,087
164,677	86,805	-0,177	-0,136
165,692	-34,029	-0,217	-0,082
166,706	171,889	-0,260	-0,260
167,721	800,000	-0,143	-0,300
168,735	209,669	-0,189	-0,206
169,750	67,974	-0,255	-0,181
170,764	-21,494	-0,321	-0,136
171,779	21,125	-0,231	-0,130
172,794	671,152	-0,127	-0,230
173,808	27,184	-0,252	-0,147
174,823	167,946	-0,178	-0,176
175,837	95,138	-0,333	-0,263
176,852	2,600	-0,290	-0,146
177,867	242,368	-0,096	-0,111
178,881	-23,144	-0,164	-0,068
179,896	-94,959	-0,144	0,027
180,910	353,606	-0,211	-0,292
181,925	94,170	-0,229	-0,180
182,940	54,119	-0,174	-0,116
183,954	216,705	-0,116	-0,128
184,969	266,828	-0,224	-0,273
185,983	168,588	-0,159	-0,157
186,998	-66,277	-0,210	-0,058
188,013	90,310	-0,261	-0,202
189,027	-45,744	-0,264	-0,090
190,042	134,544	-0,281	-0,253
191,056	-16,259	-0,346	-0,152
192,071	228,608	-0,073	-0,082
193,086	69,533	-0,235	-0,168
194,100	-22,813	-0,173	-0,072
195,115	80,115	-0,209	-0,156
196,129	109,919	-0,219	-0,182
197,144	47,403	-0,136	-0,088
198,159	51,556	-0,216	-0,142
199,173	-47,311	-0,228	-0,076
200,188	22,788	-0,189	-0,107
201,202	83,389	-0,213	-0,161
202,217	599,267	-0,143	-0,246
203,232	-45,537	-0,194	-0,066
204,246	98,447	-0,234	-0,187
205,261	199,782	-0,166	-0,176
206,275	800,000	-0,034	-0,074
207,290	-200,000	-0,038	-0,149
208,304	-85,081	-0,061	0,013
209,319	200,964	-0,162	-0,173
210,334	-17,016	-0,216	-0,094
211,348	-91,742	-0,186	-0,036
212,363	89,345	-0,177	-0,137
213,377	720,668	-0,121	-0,225
214,392	60,753	-0,245	-0,168
215,407	161,273	-0,190	-0,184
216,421	-54,887	-0,213	-0,066
217,436	206,054	-0,254	-0,274
218,450	364,894	-0,174	-0,243
219,465	310,661	-0,244	-0,317
220,480	230,578	-0,161	-0,183
221,494	-80,836	-0,090	-0,021
222,509	721,010	-0,115	-0,212
223,523	-71,656	-0,207	-0,053
224,538	-173,715	-0,209	-0,004
225,553	95,201	-0,070	-0,055
226,567	186,547	-0,144	-0,149
227,582	27,403	-0,123	-0,071
228,596	69,498	-0,171	-0,122
229,611	356,380	-0,178	-0,246
230,626	264,997	-0,087	-0,105
231,640	800,000	-0,056	-0,139
232,655	40,233	-0,201	-0,124
233,669	202,152	-0,137	-0,146
234,684	-31,240	-0,161	-0,062
235,699	-43,280	-0,239	-0,083
236,713	126,681	-0,192	-0,168
237,728	226,119	-0,122	-0,137
238,742	34,979	-0,195	-0,118
239,757	456,644	-0,132	-0,203
240,772	-0,438	-0,037	-0,018
241,786	60,491	-0,245	-0,167
242,801	-147,636	-0,161	-0,009
243,815	-46,911	-0,132	-0,044
244,830	330,248	-0,110	-0,146
245,844	-95,056	-0,195	-0,036
246,859	4,780	-0,211	-0,106
247,874	800,000	-0,130	-0,291
248,888	-102,474	-0,116	0,019
249,903	221,340	-0,219	-0,243
250,917	160,042	-0,135	-0,130
251,932	800,000	-0,061	-0,150
252,947	265,120	-0,064	-0,077
253,961	10,989	-0,207	-0,109
254,976	32,776	-0,208	-0,124
255,990	425,867	-0,125	-0,187
257,005	-200,000	-0,033	-0,114
258,020	261,813	-0,090	-0,108
259,034	52,732	-0,099	-0,065
260,049	-200,000	-0,007	-0,044
261,063	-54,475	-0,231	-0,072
262,078	769,505	-0,133	-0,251
263,093	71,831	-0,151	-0,108
264,107	59,286	-0,168	-0,114
265,122	-14,453	-0,115	-0,051
266,136	43,999	-0,238	-0,150
267,151	-50,601	-0,158	-0,051
268,166	65,264	-0,211	-0,147
269,180	20,260	-0,167	-0,092
270,195	135,773	-0,163	-0,146
271,209	53,243	-0,180	-0,119
272,224	-85,345	-0,087	-0,019
273,239	-51,058	-0,145	-0,047
274,253	253,227	-0,140	-0,164
275,268	231,717	-0,196	-0,222
276,282	36,826	-0,280	-0,170
277,297	6,890	-0,178	-0,091
278,312	208,001	-0,153	-0,164
279,326	55,943	-0,143	-0,096
280,341	595,122	-0,104	-0,177
281,355	191,755	-0,158	-0,164
282,370	-148,271	-0,179	0,010
283,384	-92,040	-0,167	-0,032
284,399	245,355	-0,190	-0,221
285,414	-48,786	-0,155	-0,051
286,428	202,187	-0,117	-0,124
287,443	359,359	-0,099	-0,136
288,457	-32,645	-0,191	-0,073
289,472	800,000	-0,069	-0,190
290,487	68,528	-0,111	-0,078
291,501	27,543	-0,123	-0,071
292,516	93,362	-0,139	-0,108
293,530	-96,113	-0,198	0,036
294,545	97,992	-0,107	-0,085
295,560	-39,304	-0,113	-0,040
296,574	800,000	-0,030	-0,088
297,589	83,948	-0,176	-0,132
298,603	164,043	-0,157	-0,152
299,618	210,631	-0,165	-0,179
300,633	71,235	-0,071	-0,050
301,647	-8,062	-0,146	-0,067
302,662	-157,591	-0,071	0,003
303,676	-144,896	-0,096	0,006
304,691	134,038	-0,131	-0,116
305,706	49,557	-0,219	-0,142
306,720	450,650	-0,084	-0,128
307,735	116,089	-0,113	-0,095
308,749	13,850	-0,146	-0,077
309,764	8,741	-0,177	-0,091
310,779	-109,418	-0,199	0,029
311,793	228,636	-0,028	-0,031
312,808	42,398	-0,218	-0,136
313,822	71,809	-0,259	-0,185
314,837	-146,269	-0,134	-0,008
315,852	-200,000	-0,020	-0,091
316,866	116,977	-0,069	-0,058
317,881	206,426	-0,123	0,132
318,895	156,747	-0,099	-0,094
319,910	117,152	-0,114	-0,096
320,925	197,864	-0,134	-0,141
321,939	48,128	-0,168	-0,108
322,954	800,000	-0,048	-0,101
323,968	-200,000	-0,006	0,024
324,983	37,780	-0,136	-0,082
325,997	-84,473	-0,089	-0,019
327,012	215,363	-0,162	-0,177
328,027	-23,831	-0,148	-0,060
329,041	-39,277	-0,110	-0,039
330,056	114,902	-0,056	-0,047
331,070	319,958	-0,031	-0,041
332,085	397,639	-0,074	-0,106
333,100	76,456	-0,109	-0,079
334,114	92,964	-0,138	-0,107
335,129	632,187	-0,144	-0,250
336,143	-160,962	-0,193	-0,007
337,158	-154,083	-0,256	-0,012
338,173	310,602	-0,049	-0,063
339,187	800,000	-0,124	-0,288
340,202	196,297	-0,085	-0,089
341,216	71,230	-0,159	-0,113
342,231	-57,115	-0,183	-0,055
343,246	386,724	-0,100	-0,142
344,260	-55,355	-0,105	-0,032
345,275	-7,492	-0,235	-0,108
346,289	-4,477	-0,166	0,078
347,304	-57,151	-0,194	0,058
348,319	237,271	-0,078	-0,089
349,333	594,543	-0,111	-0,189
350,348	102,749	-0,041	-0,033
351,362	-56,005	-0,120	-0,036
352,377	6,332	-0,144	-0,073
353,392	-121,324	-0,051	0,006
354,406	170,721	-0,146	-0,143
355,421	207,463	1310,699	1400,162
356,435	159,598	1470,886	1400,630
