DTS Sentinel unit serial number:	SN410029Multiplexer serial number:	ORYXHardware model number:	OX2-SRSoftware version number:	ORYX F/W v4,00 Oryx Data Collector v3.7.2.0data status	okinstallation	B3 Nyhavnadifferential loss correction	single-endedforward channel	channel 1reverse channel	N/Adate	2023/11/29time	22:42:30forward acquisition time	300,00reverse acquisition time	0,00gamma	499,1914k internal	0,3210k external	0,3210temperature offset calibration	1,0000default loss term (dB/km)	0,3820temperature slope calibration	1,0000multiplexer offset coefficient	1,0000multiplexer slope coefficient	1,0000fibre end	0,00T internal ref (°C)	10,82T ext. ref 1 (°C)	-4,12T ext. ref 2 (°C)	-4,21length (m)	temperature (°C)	Stokes	anti-Stokes-744,400	424,798	-0,106	-0,166
-743,385	-200,000	0,040	0,264
-742,371	-200,000	-0,040	-0,187
-741,356	-200,000	0,050	0,413
-740,342	108,671	-0,217	-0,188
-739,327	-200,000	0,028	0,159
-738,312	722,297	-0,120	-0,232
-737,298	364,786	0,165	0,241
-736,283	800,000	-0,131	-0,300
-735,269	-200,000	0,061	0,283
-734,254	371,251	-0,149	-0,219
-733,239	-138,194	-0,115	-0,009
-732,225	445,156	-0,149	-0,239
-731,210	-62,118	0,323	0,097
-730,196	-200,000	-0,001	-0,016
-729,181	800,000	0,056	-0,120
-728,167	800,000	-0,058	-0,126
-727,152	48,460	0,034	0,023
-726,137	287,801	0,030	-0,040
-725,123	-141,614	-0,142	0,010
-724,108	255,447	-0,116	-0,145
-723,094	-200,000	0,003	-0,092
-722,079	647,417	-0,063	-0,117
-721,064	31,832	0,024	0,015
-720,050	-108,268	-0,116	-0,018
-719,035	-200,000	-0,005	0,058
-718,021	173,296	-0,122	-0,128
-717,006	92,021	-0,104	0,085
-715,991	152,520	0,063	-0,063
-714,977	-70,404	-0,093	-0,025
-713,962	6,404	-0,044	0,024
-712,948	800,000	0,025	-0,079
-711,933	-200,000	-0,033	0,143
-710,918	236,605	-0,052	-0,063
-709,904	273,037	-0,047	-0,060
-708,889	31,445	0,118	-0,073
-707,875	800,000	-0,046	-0,115
-706,860	800,000	-0,019	0,055
-705,845	8,064	0,065	-0,035
-704,831	126,750	-0,055	-0,051
-703,816	42,018	0,063	-0,041
-702,802	-200,000	-0,021	-0,076
-701,787	33,315	-0,092	-0,058
-700,772	666,013	-0,088	0,165
-699,758	-41,323	-0,035	0,013
-698,743	-200,000	0,011	-0,041
-697,729	-48,760	-0,078	0,027
-696,714	-200,000	0,012	0,095
-695,699	132,009	-0,013	0,012
-694,685	-200,000	-0,011	-0,089
-693,670	-9,147	-0,087	0,042
-692,656	-200,000	-0,027	-0,132
-691,641	209,875	0,032	-0,036
-690,627	-200,000	-0,005	-0,056
-689,612	104,481	-0,041	-0,035
-688,597	34,707	-0,094	0,059
-687,583	75,771	0,059	-0,045
-686,568	-4,537	-0,107	-0,054
-685,554	472,276	0,021	0,034
-684,539	-200,000	-0,018	0,132
-683,524	-200,000	-0,005	-0,047
-682,510	28,556	0,166	0,102
-681,495	-128,827	-0,115	0,012
-680,481	73,071	-0,079	-0,059
-679,466	800,000	0,092	-0,191
-678,451	800,000	-0,026	-0,056
-677,437	417,187	0,074	-0,115
-676,422	-200,000	-0,041	-0,130
-675,408	60,045	0,032	-0,023
-674,393	-56,294	-0,180	-0,058
-673,378	-200,000	0,004	-0,040
-672,364	-121,540	0,140	-0,017
-671,349	238,372	-0,139	-0,167
-670,335	-94,605	0,046	0,009
-669,320	-200,000	-0,004	-0,015
-668,305	28,599	0,057	-0,035
-667,291	800,000	0,030	0,078
-666,276	-86,078	0,048	-0,011
-665,262	-99,043	-0,121	-0,022
-664,247	424,134	-0,036	0,056
-663,232	-144,059	0,139	-0,009
-662,218	39,393	0,027	0,018
-661,203	-57,294	-0,117	0,037
-660,189	36,155	-0,058	-0,037
-659,174	800,000	-0,017	-0,042
-658,159	800,000	-0,021	-0,060
-657,145	800,000	0,024	-0,050
-656,130	-200,000	0,011	0,190
-655,116	-200,000	0,007	0,160
-654,101	-200,000	0,007	-0,115
-653,086	-200,000	0,005	-0,086
-652,072	-77,189	-0,095	0,024
-651,057	-200,000	-0,009	0,087
-650,043	115,418	-0,061	-0,054
-649,028	-200,000	0,016	-0,060
-648,014	-17,824	0,155	-0,070
-646,999	-45,747	0,163	-0,058
-645,984	229,205	-0,055	0,064
-644,970	-200,000	-0,015	0,140
-643,955	-200,000	-0,011	-0,130
-642,941	-58,149	-0,110	-0,034
-641,926	287,417	0,016	-0,020
-640,911	-43,569	0,075	-0,027
-639,897	202,459	0,085	-0,095
-638,882	5,589	0,101	0,054
-637,868	221,242	-0,111	-0,129
-636,853	-17,574	-0,040	-0,018
-635,838	-200,000	0,034	0,110
-634,824	-200,000	-0,000	-0,064
-633,809	-200,000	0,006	-0,019
-632,795	616,849	0,042	0,076
-631,780	-200,000	0,014	-0,062
-630,765	-200,000	0,015	-0,203
-629,751	-200,000	0,026	0,000
-628,736	-172,737	-0,078	0,002
-627,722	78,834	-0,058	-0,045
-626,707	668,987	-0,024	0,045
-625,692	800,000	-0,028	0,080
-624,678	82,912	-0,071	0,056
-623,663	800,000	0,036	0,100
-622,649	283,648	-0,047	-0,061
-621,634	800,000	-0,062	-0,152
-620,619	188,353	-0,111	-0,120
-619,605	80,425	-0,026	0,020
-618,590	-8,431	-0,014	-0,007
-617,576	-127,687	0,075	0,008
-616,561	50,895	-0,070	-0,048
-615,546	-200,000	0,026	0,124
-614,532	346,557	-0,031	-0,044
-613,517	-87,640	-0,131	0,028
-612,503	18,829	0,062	-0,036
-611,488	161,935	0,171	0,173
-610,474	18,977	-0,045	0,026
-609,459	-36,408	-0,079	0,030
-608,444	159,973	0,022	-0,022
-607,430	159,886	-0,162	-0,163
-606,415	-200,000	0,005	0,064
-605,401	800,000	-0,058	-0,137
-604,386	-200,000	-0,007	0,119
-603,371	459,744	0,089	0,143
-602,357	800,000	0,024	0,054
-601,342	188,502	0,019	0,021
-600,328	-69,427	-0,178	0,049
-599,313	800,000	0,017	0,036
-598,298	-131,672	-0,076	-0,007
-597,284	-94,577	0,207	0,040
-596,269	-200,000	-0,015	0,087
-595,255	166,490	0,067	0,068
-594,240	-200,000	-0,010	0,045
-593,225	-49,750	-0,165	-0,056
-592,211	167,179	-0,038	-0,039
-591,196	-127,609	-0,052	-0,005
-590,182	-88,956	-0,150	-0,032
-589,167	351,490	-0,069	0,099
-588,152	36,462	-0,044	0,028
-587,138	800,000	-0,013	0,035
-586,123	800,000	-0,012	0,026
-585,109	800,000	0,032	-0,073
-584,094	800,000	0,011	-0,025
-583,079	195,525	0,076	0,083
-582,065	642,966	-0,052	0,096
-581,050	120,663	0,138	0,123
-580,036	800,000	-0,024	0,063
-579,021	-200,000	0,003	-0,110
-578,006	-200,000	-0,011	-0,123
-576,992	-200,000	0,033	-0,110
-575,977	33,348	-0,056	0,035
-574,963	-115,803	-0,021	0,003
-573,948	-75,822	0,072	-0,018
-572,934	295,948	-0,055	-0,073
-571,919	-200,000	0,030	-0,119
-570,904	-6,834	-0,138	-0,068
-569,890	-142,509	0,127	0,009
-568,875	-200,000	0,030	0,098
-567,861	-54,889	0,079	-0,026
-566,846	800,000	-0,047	0,148
-565,831	800,000	0,024	-0,059
-564,817	69,973	-0,078	-0,058
-563,802	305,345	0,098	-0,132
-562,788	192,188	0,034	-0,037
-561,773	215,010	0,093	0,107
-560,758	-200,000	-0,006	-0,104
-559,744	35,739	-0,031	0,020
-558,729	628,824	-0,030	0,056
-557,715	-200,000	-0,015	0,068
-556,700	800,000	0,037	-0,088
-555,685	-46,352	-0,153	-0,054
-554,671	76,792	-0,096	0,073
-553,656	-116,542	0,086	-0,011
-552,642	-200,000	0,016	0,096
-551,627	-200,000	0,006	0,023
-550,612	-200,000	0,015	-0,205
-549,598	-109,528	-0,069	0,010
-548,583	-41,405	-0,056	-0,021
-547,569	800,000	0,043	-0,097
-546,554	345,952	-0,040	-0,057
-545,539	-176,818	-0,145	-0,003
-544,525	-19,802	0,129	0,057
-543,510	229,830	-0,133	-0,156
-542,496	105,825	-0,101	0,086
-541,481	-56,959	0,134	-0,042
-540,466	-162,870	0,037	-0,001
-539,452	-21,944	0,075	-0,033
-538,437	-200,000	-0,003	0,177
-537,423	161,047	0,126	0,126
-536,408	22,266	0,044	-0,026
-535,393	-25,008	-0,154	-0,065
-534,379	347,246	0,048	-0,068
-533,364	-106,091	0,045	-0,007
-532,350	-200,000	-0,019	-0,075
-531,335	800,000	0,017	0,041
-530,321	-104,759	-0,147	0,024
-529,306	-200,000	0,028	0,100
-528,291	800,000	0,063	-0,149
-527,277	-50,828	-0,157	-0,053
-526,262	80,917	0,110	0,085
-525,248	83,239	-0,110	0,086
-524,233	47,997	0,131	0,088
-523,218	800,000	0,008	0,018
-522,204	-129,626	-0,065	-0,006
-521,189	-200,000	0,002	0,087
-520,175	-169,056	-0,065	-0,002
-519,160	221,603	-0,066	-0,076
-518,145	-200,000	0,022	0,116
-517,131	-200,000	0,003	0,030
-516,116	800,000	0,029	0,084
-515,102	398,579	0,094	0,141
-514,087	-85,082	-0,194	0,043
-513,072	19,529	-0,084	0,048
-512,058	-12,831	-0,121	0,056
-511,043	-200,000	-0,013	0,078
-510,029	520,252	-0,059	-0,100
-509,014	-95,340	0,125	0,024
-507,999	800,000	-0,004	0,011
-506,985	-103,980	-0,054	-0,009
-505,970	245,802	-0,133	0,161
-504,956	132,679	-0,051	-0,047
-503,941	149,601	0,039	-0,038
-502,926	455,659	-0,070	0,111
-501,912	83,170	0,077	-0,060
-500,897	193,794	-0,156	-0,170
-499,883	6,794	-0,035	0,019
-498,868	39,001	-0,127	0,081
-497,853	-125,915	-0,071	0,008
-496,839	800,000	0,029	0,082
-495,824	-141,274	-0,078	-0,006
-494,810	-200,000	0,010	0,053
-493,795	-92,598	-0,039	-0,008
-492,781	168,282	0,061	-0,062
-491,766	331,057	-0,063	-0,087
-490,751	-200,000	0,004	-0,048
-489,737	24,575	-0,049	0,029
-488,722	-200,000	0,036	-0,123
-487,708	-169,990	0,042	-0,001
-486,693	312,626	0,078	0,106
-485,678	399,337	0,031	0,047
-484,664	800,000	0,026	-0,053
-483,649	597,209	0,058	-0,104
-482,635	-88,493	0,111	-0,024
-481,620	-28,965	-0,018	0,007
-480,605	-200,000	-0,007	-0,070
-479,591	599,344	0,074	0,132
-478,576	479,412	0,061	0,100
-477,562	-113,960	-0,032	0,004
-476,547	-24,425	-0,132	-0,056
-475,532	-143,065	0,029	0,002
-474,518	85,271	-0,091	0,072
-473,503	-200,000	0,008	0,065
-472,489	-200,000	-0,012	0,115
-471,474	31,141	0,119	0,073
-470,459	134,067	-0,145	0,135
-469,445	167,351	0,038	0,039
-468,430	-2,692	-0,128	0,064
-467,416	-200,000	0,025	-0,189
-466,401	-200,000	0,001	0,017
-465,386	-200,000	0,019	0,117
-464,372	-93,564	0,170	0,033
-463,357	-113,890	0,029	-0,004
-462,343	-200,000	0,011	-0,067
-461,328	-200,000	0,007	-0,089
-460,313	100,900	0,045	-0,038
-459,299	97,088	0,079	0,065
-458,284	-125,826	-0,056	0,006
-457,270	9,950	-0,065	0,035
-456,255	451,351	0,030	-0,048
-455,241	396,156	-0,052	0,078
-454,226	80,163	0,090	-0,070
-453,211	-200,000	0,023	0,125
-452,197	-200,000	-0,028	0,116
-451,182	-200,000	-0,002	0,132
-450,168	800,000	0,052	-0,125
-449,153	-3,558	-0,080	-0,040
-448,138	140,814	0,060	-0,056
-447,124	387,166	0,043	0,063
-446,109	3,838	-0,087	0,046
-445,095	-51,330	-0,045	-0,015
-444,080	-101,620	-0,106	0,018
-443,065	154,031	0,023	-0,022
-442,051	-84,876	-0,027	0,006
-441,036	435,082	-0,044	-0,068
-440,022	-121,010	0,084	0,010
-439,007	150,844	-0,076	0,074
-437,992	-122,789	0,085	-0,010
-436,978	-8,638	0,117	0,056
-435,963	105,522	0,036	0,031
-434,949	-200,000	0,023	-0,133
-433,934	309,743	-0,045	-0,061
-432,919	-200,000	0,024	-0,088
-431,905	85,057	0,045	-0,035
-430,890	-48,007	0,058	-0,020
-429,876	-200,000	0,013	0,186
-428,861	99,912	0,041	0,034
-427,846	129,424	-0,148	0,136
-426,832	-200,000	-0,012	-0,046
-425,817	2,941	-0,037	0,019
-424,803	800,000	-0,012	0,034
-423,788	109,335	0,055	0,047
-422,773	-200,000	0,001	0,021
-421,759	2,249	0,074	0,038
-420,744	800,000	0,035	-0,097
-419,730	69,047	0,081	-0,060
-418,715	-68,798	-0,139	-0,038
-417,701	589,652	0,087	0,154
-416,686	101,425	0,088	0,074
-415,671	10,650	-0,007	0,004
-414,657	543,892	0,006	0,010
-413,642	800,000	0,039	-0,101
-412,628	-200,000	0,001	-0,183
-411,613	194,207	-0,041	-0,044
-410,598	155,114	-0,024	-0,023
-409,584	-200,000	0,001	0,042
-408,569	800,000	-0,053	0,106
-407,555	-134,225	0,133	-0,012
-406,540	-49,777	-0,155	0,052
-405,525	800,000	-0,044	-0,115
-404,511	-80,572	-0,122	0,029
-403,496	364,423	-0,046	-0,067
-402,482	710,420	0,060	0,113
-401,467	129,932	0,108	0,098
-400,452	38,485	-0,052	0,033
-399,438	252,262	0,075	-0,091
-398,423	-53,330	-0,115	0,037
-397,409	-2,175	-0,058	0,029
-396,394	-36,034	-0,089	-0,034
-395,379	-18,329	-0,096	-0,043
-394,365	800,000	0,040	-0,085
-393,350	-13,102	0,167	-0,078
-392,336	25,464	-0,085	0,051
-391,321	-94,584	-0,062	0,012
-390,306	800,000	0,069	-0,142
-389,292	-152,335	-0,215	-0,011
-388,277	103,318	-0,053	-0,044
-387,263	-15,569	0,064	-0,029
-386,248	-200,000	-0,013	0,075
-385,233	-153,624	-0,036	-0,002
-384,219	-200,000	0,047	-0,200
-383,204	-108,325	-0,081	-0,012
-382,190	226,878	-0,093	-0,108
-381,175	134,194	0,051	0,048
-380,160	-200,000	-0,013	-0,042
-379,146	-39,655	0,026	0,010
-378,131	-200,000	-0,019	0,134
-377,117	-170,695	0,170	0,004
-376,102	143,997	-0,041	0,039
-375,088	135,350	0,058	-0,054
-374,073	68,047	0,109	0,079
-373,058	-106,436	0,092	0,014
-372,044	-133,608	-0,038	-0,003
-371,029	326,129	0,082	0,113
-370,015	-200,000	0,010	-0,033
-369,000	-200,000	0,012	-0,046
-367,985	270,883	-0,147	-0,185
-366,971	-200,000	0,017	-0,089
-365,956	-200,000	-0,003	0,095
-364,942	79,853	0,101	0,078
-363,927	276,781	-0,047	-0,060
-362,912	-200,000	-0,034	-0,175
-361,898	-200,000	0,007	-0,093
-360,883	104,413	0,022	0,018
-359,869	-200,000	-0,014	-0,079
-358,854	-31,484	0,054	-0,022
-357,839	-33,397	0,019	-0,007
-356,825	-200,000	0,003	0,095
-355,810	-14,149	0,076	0,035
-354,796	118,428	-0,039	0,035
-353,781	-200,000	0,010	0,036
-352,766	159,410	-0,065	-0,065
-351,752	-200,000	-0,007	-0,070
-350,737	-96,120	0,047	0,009
-349,723	-50,096	0,081	-0,027
-348,708	-200,000	-0,007	-0,095
-347,693	-50,038	0,111	-0,037
-346,679	73,470	-0,078	0,058
-345,664	100,273	-0,059	0,049
-344,650	208,882	-0,125	-0,140
-343,635	-200,000	0,083	0,000
-342,620	-200,000	0,009	0,079
-341,606	177,717	0,106	0,111
-340,591	35,259	-0,176	0,110
-339,577	-78,486	-0,092	-0,022
-338,562	180,451	-0,033	0,034
-337,548	-200,000	0,004	-0,076
-336,533	98,540	0,161	0,132
-335,518	-200,000	-0,004	0,091
-334,504	800,000	0,036	0,073
-333,489	-131,781	-0,107	-0,010
-332,475	-200,000	-0,007	0,066
-331,460	210,291	-0,002	0,002
-330,445	578,566	-0,047	-0,082
-329,431	-135,822	0,084	-0,007
-328,416	-5,061	0,133	0,065
-327,402	445,745	0,067	0,106
-326,387	-57,802	-0,117	0,036
-325,372	800,000	-0,037	-0,113
-324,358	752,841	0,079	-0,154
-323,343	-65,690	0,113	-0,032
-322,329	-200,000	-0,004	0,017
-321,314	21,904	0,064	-0,037
-320,299	500,709	0,048	-0,079
-319,285	-200,000	0,004	-0,019
-318,270	800,000	0,094	-0,187
-317,256	423,706	-0,089	-0,137
-316,241	178,501	0,059	-0,061
-315,226	800,000	0,017	-0,049
-314,212	-132,945	-0,086	-0,008
-313,197	-155,255	-0,053	0,002
-312,183	-200,000	0,017	-0,063
-311,168	800,000	-0,027	-0,068
-310,153	-200,000	-0,001	-0,036
-309,139	-97,341	-0,108	0,020
-308,124	-21,685	0,094	-0,041
-307,110	103,847	-0,041	-0,035
-306,095	-200,000	0,042	0,157
-305,080	470,222	0,063	0,101
-304,066	-43,973	0,042	-0,015
-303,051	800,000	0,062	-0,183
-302,037	202,697	0,076	-0,084
-301,022	47,302	0,118	0,078
-300,008	-200,000	-0,011	0,113
-298,993	188,179	-0,057	0,061
-297,978	123,341	-0,206	0,184
-296,964	800,000	-0,069	-0,164
-295,949	691,082	0,053	-0,100
-294,935	-200,000	-0,003	-0,020
-293,920	-48,903	-0,033	-0,011
-292,905	60,342	0,075	-0,053
-291,891	381,550	0,041	-0,060
-290,876	-200,000	-0,027	-0,104
-289,862	800,000	0,022	-0,067
-288,847	-200,000	0,003	-0,057
-287,832	530,694	0,021	-0,036
-286,818	47,009	0,065	-0,043
-285,803	-28,353	0,146	0,060
-284,789	800,000	0,086	0,181
-283,774	-53,572	0,071	0,023
-282,759	193,782	-0,064	0,069
-281,745	-0,571	-0,025	-0,013
-280,730	245,589	0,011	-0,013
-279,716	5,361	-0,065	-0,034
-278,701	-131,130	-0,010	-0,001
-277,686	50,303	0,119	0,080
-276,672	639,181	-0,124	0,226
-275,657	-200,000	0,032	0,137
-274,643	301,535	-0,024	-0,032
-273,628	-200,000	0,020	-0,116
-272,613	188,145	0,079	-0,084
-271,599	19,787	-0,051	0,029
-270,584	800,000	0,067	0,155
-269,570	-40,223	-0,066	-0,024
-268,555	-200,000	0,000	-0,067
-267,540	-200,000	0,014	-0,065
-266,526	-200,000	0,009	-0,170
-265,511	30,598	-0,111	-0,068
-264,497	-200,000	0,005	0,099
-263,482	-56,117	0,124	-0,039
-262,467	-200,000	0,001	-0,018
-261,453	-41,793	0,142	0,052
-260,438	-89,456	-0,162	-0,034
-259,424	-200,000	0,010	-0,053
-258,409	-200,000	-0,007	-0,073
-257,395	224,489	-0,015	-0,017
-256,380	-136,325	0,058	-0,005
-255,365	-200,000	0,067	0,214
-254,351	-80,997	-0,085	0,020
-253,336	-54,450	0,087	0,028
-252,322	800,000	-0,045	-0,132
-251,307	-176,967	-0,074	-0,001
-250,292	113,925	-0,060	0,052
-249,278	175,270	-0,016	-0,017
-248,263	-200,000	0,019	0,062
-247,249	-200,000	0,000	0,011
-246,234	-28,470	0,115	-0,047
-245,219	86,342	-0,183	-0,143
-244,205	800,000	-0,061	-0,143
-243,190	76,347	0,037	-0,028
-242,176	-141,018	0,070	-0,005
-241,161	800,000	0,066	0,157
-240,146	270,468	0,024	-0,030
-239,132	151,214	0,026	-0,026
-238,117	-200,000	0,011	0,040
-237,103	678,286	-0,016	-0,029
-236,088	-200,000	-0,001	0,117
-235,073	175,676	-0,019	0,020
-234,059	435,853	-0,039	0,061
-233,044	177,307	0,057	-0,059
-232,030	-148,129	-0,150	0,009
-231,015	-27,889	-0,106	-0,044
-230,000	-200,000	-0,024	-0,149
-228,986	-200,000	0,035	-0,150
-227,971	-200,000	0,058	-0,189
-226,957	800,000	0,037	0,104
-225,942	-59,525	0,127	0,039
-224,927	447,408	-0,078	0,123
-223,913	-43,187	0,079	-0,028
-222,898	138,237	-0,084	-0,078
-221,884	356,891	0,030	0,042
-220,869	800,000	-0,040	-0,103
-219,855	567,114	0,083	0,143
-218,840	-200,000	-0,019	0,126
-217,825	134,972	-0,111	0,102
-216,811	117,253	-0,032	-0,028
-215,796	-47,802	-0,060	0,021
-214,782	-200,000	0,011	0,081
-213,767	456,009	-0,049	0,078
-212,752	-200,000	0,015	-0,047
-211,738	172,410	0,146	0,150
-210,723	106,430	-0,160	-0,135
-209,709	197,101	0,113	0,123
-208,694	-7,169	0,108	-0,052
-207,679	-200,000	0,012	-0,059
-206,665	777,712	0,021	0,040
-205,650	89,370	0,067	-0,053
-204,636	-200,000	-0,041	0,158
-203,621	-64,078	0,079	-0,023
-202,606	58,885	-0,112	0,078
-201,592	327,808	-0,050	-0,068
-200,577	-154,832	-0,059	-0,003
-199,563	417,516	0,070	0,107
-198,548	449,889	-0,048	0,075
-197,533	-40,109	0,076	-0,028
-196,519	-200,000	-0,015	-0,127
-195,504	81,548	-0,047	-0,036
-194,490	-110,315	0,146	0,021
-193,475	800,000	0,080	0,173
-192,460	-200,000	-0,037	0,141
-191,446	271,353	0,113	0,141
-190,431	-169,448	-0,093	0,002
-189,417	-60,915	-0,054	-0,016
-188,402	-200,000	-0,006	-0,106
-187,387	-49,123	0,068	-0,023
-186,373	-200,000	0,027	-0,103
-185,358	-200,000	-0,028	-0,112
-184,344	-200,000	-0,009	-0,154
-183,329	536,017	-0,022	0,037
-182,315	-100,365	0,138	0,024
-181,300	-40,342	0,161	0,059
-180,285	35,174	-0,034	-0,021
-179,271	-167,245	0,055	0,002
-178,256	-200,000	0,014	-0,071
-177,242	256,693	0,043	0,053
-176,227	-56,009	-0,063	0,020
-175,212	132,210	0,014	-0,013
-174,198	448,612	0,061	-0,096
-173,183	-200,000	0,000	-0,118
-172,169	272,493	-0,059	-0,074
-171,154	53,923	0,054	-0,036
-170,139	-200,000	0,046	0,182
-169,125	-200,000	0,004	0,103
-168,110	67,544	0,066	0,048
-167,096	-200,000	0,014	0,174
-166,081	-200,000	0,024	0,141
-165,066	-93,604	-0,101	0,020
-164,052	800,000	-0,024	-0,060
-163,037	-28,819	-0,166	-0,067
-162,023	-196,318	0,160	-0,001
-161,008	-67,381	0,089	0,025
-159,993	800,000	0,053	-0,122
-158,979	79,478	-0,120	-0,091
-157,964	55,049	-0,158	-0,108
-156,950	-28,427	0,129	-0,053
-155,935	800,000	0,047	0,139
-154,920	44,444	0,031	0,020
-153,906	-200,000	-0,023	0,084
-152,891	253,568	-0,050	-0,061
-151,877	-52,618	-0,146	-0,047
-150,862	-3,865	-0,063	-0,031
-149,847	-200,000	-0,032	-0,132
-148,833	800,000	0,017	0,048
-147,818	-51,142	0,243	0,080
-146,804	-200,000	0,037	0,144
-145,789	96,580	-0,052	-0,042
-144,775	-103,010	-0,064	0,011
-143,760	48,326	-0,146	-0,097
-142,745	-200,000	0,016	-0,076
-141,731	-4,376	0,100	-0,049
-140,716	-50,299	0,122	0,041
-139,702	-75,413	-0,093	-0,023
-138,687	800,000	0,040	-0,093
-137,672	-200,000	0,016	-0,129
-136,658	-200,000	0,018	-0,091
-135,643	-200,000	0,001	-0,042
-134,629	80,809	0,083	0,064
-133,614	144,836	0,104	-0,098
-132,599	-60,767	0,097	0,029
-131,585	-200,000	0,003	-0,074
-130,570	-85,760	0,085	-0,019
-129,556	27,413	-0,075	0,044
-128,541	366,714	0,041	-0,059
-127,526	191,137	0,065	-0,069
-126,512	-61,355	-0,048	0,014
-125,497	346,373	0,039	0,055
-124,483	-200,000	-0,016	0,097
-123,468	580,234	0,045	-0,078
-122,453	800,000	0,017	0,041
-121,439	386,474	0,018	0,027
-120,424	-112,401	0,038	0,005
-119,410	120,283	0,014	-0,012
-118,395	-54,742	0,096	0,030
-117,380	246,798	0,016	0,019
-116,366	-35,939	0,097	-0,037
-115,351	-164,544	-0,103	0,003
-114,337	-30,837	-0,075	0,030
-113,322	-200,000	0,045	-0,169
-112,307	-200,000	-0,017	-0,139
-111,293	800,000	0,063	-0,151
-110,278	545,743	-0,042	0,071
-109,264	-200,000	0,028	0,173
-108,249	-200,000	0,007	-0,028
-107,234	459,322	0,029	0,047
-106,220	149,930	-0,133	-0,127
-105,205	220,551	0,143	-0,162
-104,191	141,587	-0,056	0,053
-103,176	-200,000	-0,008	0,054
-102,162	-61,419	-0,075	-0,022
-101,147	800,000	0,027	-0,074
-100,132	-200,000	0,008	-0,075
-99,118	800,000	0,015	-0,044
-98,103	571,781	0,023	-0,039
-97,089	800,000	-0,068	-0,135
-96,074	405,472	0,040	0,060
-95,059	-104,386	-0,096	-0,016
-94,045	-200,000	0,001	0,076
-93,030	116,333	0,055	-0,048
-92,016	-200,000	-0,002	0,019
-91,001	-97,444	0,222	-0,040
-89,986	-200,000	-0,007	-0,133
-88,972	-200,000	-0,010	0,071
-87,957	19,530	0,058	0,033
-86,943	800,000	0,031	0,082
-85,928	-9,481	-0,089	-0,042
-84,913	-135,866	0,173	0,014
-83,899	106,131	0,026	0,022
-82,884	31,808	0,109	0,066
-81,870	98,267	0,081	0,066
-80,855	-61,849	0,127	0,037
-79,840	-32,503	0,064	0,025
-78,826	-200,000	0,051	-0,161
-77,811	-200,000	-0,032	-0,102
-76,797	285,651	-0,045	-0,057
-75,782	-57,469	-0,142	-0,044
-74,767	-76,718	0,068	-0,017
-73,753	-88,928	0,123	0,026
-72,738	-90,080	-0,061	0,013
-71,724	96,936	-0,027	-0,022
-70,709	-200,000	-0,044	-0,164
-69,694	642,720	-0,097	-0,176
-68,680	251,070	-0,040	-0,048
-67,665	800,000	0,024	-0,051
-66,651	-49,727	-0,164	0,055
-65,636	16,278	0,057	0,031
-64,622	-74,395	-0,033	0,008
-63,607	204,013	0,063	-0,069
-62,592	148,187	-0,122	0,116
-61,578	800,000	-0,011	-0,027
-60,563	-200,000	-0,040	0,154
-59,549	-200,000	-0,007	0,032
-58,534	0,430	-2,025	-1,018
-57,519	552,198	-1,141	-1,943
-56,505	-200,000	-0,251	-4,419
-55,490	629,994	0,877	1,574
-54,476	800,000	5,078	11,166
-53,461	-200,000	20,916	329,669
-52,446	800,000	758,064	2323,768
-51,432	549,423	1662,637	2824,711
-50,417	73,369	1663,704	1227,873
-49,403	18,630	1537,135	865,765
-48,388	12,658	1460,003	793,415
-47,373	19,013	1450,791	818,902
-46,359	15,808	1440,017	797,532
-45,344	10,961	1435,643	771,986
-44,330	10,839	1433,955	770,467
-43,315	10,861	1432,030	769,505
-42,300	10,891	1430,323	768,701
-41,286	10,902	1429,072	768,050
-40,271	10,830	1427,922	767,059
-39,257	10,871	1426,519	766,470
-38,242	10,909	1425,564	766,110
-37,227	10,887	1424,490	765,395
-36,213	10,894	1423,022	764,610
-35,198	10,908	1422,122	764,161
-34,184	10,937	1421,019	763,677
-33,169	10,845	1419,743	762,528
-32,154	10,934	1418,798	762,407
-31,140	10,919	1417,606	761,667
-30,125	10,994	1416,166	761,213
-29,111	10,950	1415,158	760,437
-28,096	10,912	1414,173	759,700
-27,082	10,834	1413,149	758,750
-26,067	10,871	1411,973	758,263
-25,052	10,895	1410,789	757,713
-24,038	10,872	1409,841	757,061
-23,023	10,847	1408,876	756,399
-22,009	10,863	1407,940	755,942
-20,994	10,840	1406,662	755,117
-19,979	10,846	1405,784	754,642
-18,965	10,748	1405,058	753,768
-17,950	10,828	1403,865	753,469
-16,936	10,764	1403,270	752,822
-15,921	10,716	1402,365	752,083
-14,906	10,722	1401,403	751,564
-13,892	10,794	1400,292	751,275
-12,877	10,742	1399,718	750,693
-11,863	10,761	1398,800	750,261
-10,848	10,737	1397,805	749,584
-9,833	10,694	1396,798	748,819
-8,819	10,649	1396,138	748,227
-7,804	10,634	1395,148	747,596
-6,790	10,679	1394,075	747,199
-5,775	10,674	1392,982	746,559
-4,760	10,655	1392,200	746,023
-3,746	10,623	1391,372	745,404
-2,731	10,694	1390,551	745,260
-1,717	10,683	1389,536	744,636
-0,702	10,635	1387,873	743,493
0,313	14,706	1301,360	715,790
1,327	31,023	692,388	417,926
2,342	48,165	120,014	79,062
3,356	2,175	16,463	8,366
4,371	-7,262	3,561	1,696
5,386	29,381	0,935	0,559
6,400	-200,000	0,170	0,564
7,415	19,219	-0,213	-0,120
8,429	126,689	-0,249	-0,222
9,444	-43,908	-0,423	-0,149
10,459	190,117	-0,224	-0,238
11,473	49,842	-0,254	-0,169
12,488	-143,923	-0,358	-0,023
13,502	-81,401	-0,364	-0,084
14,517	3,328	-0,190	-0,097
15,531	11,861	-0,389	-0,210
16,546	79,379	-0,330	-0,249
17,561	65,321	-0,424	-0,302
18,575	1,596	-0,268	-0,135
19,590	-52,967	-0,273	-0,088
20,604	-62,037	-0,182	0,053
21,619	52,885	-0,317	-0,213
22,634	69,973	-0,489	-0,355
23,648	51,539	-0,499	-0,333
24,663	129,500	-0,439	-0,395
25,677	20,684	-0,291	-0,166
26,692	55,483	-0,371	-0,252
27,707	-12,392	-0,263	-0,121
28,721	-65,593	-0,373	-0,105
29,736	-13,206	-0,345	-0,157
30,750	66,684	-0,418	-0,299
31,765	260,845	-0,288	-0,351
32,780	98,026	-0,401	-0,325
33,794	-12,396	-0,449	-0,206
34,809	127,514	-0,248	-0,221
35,823	164,087	-0,297	-0,294
36,838	-31,207	-0,462	-0,182
37,853	39,095	-0,513	-0,322
38,867	28,717	-0,456	-0,271
39,882	-64,283	-0,406	-0,116
40,896	283,472	-0,207	-0,263
41,911	-106,181	-0,424	-0,066
42,926	43,382	-0,371	-0,238
43,940	148,615	-0,343	-0,326
44,955	150,510	-0,329	-0,314
45,969	227,321	-0,325	-0,372
46,984	19,239	-0,380	-0,214
47,999	90,350	-0,402	-0,316
49,013	11,962	-0,378	-0,204
50,028	-6,861	-0,316	-0,151
51,042	208,732	-0,251	-0,276
52,057	67,008	-0,363	-0,260
53,071	226,839	-0,189	-0,217
54,086	65,365	-0,292	-0,207
55,101	261,018	-0,240	-0,292
56,115	66,101	-0,271	-0,193
57,130	218,311	-0,281	-0,316
58,144	146,969	-0,270	-0,255
59,159	73,504	-0,389	-0,286
60,174	63,372	-0,429	-0,301
61,188	171,781	-0,311	-0,314
62,203	147,205	-0,281	-0,265
63,217	104,735	-0,321	-0,266
64,232	352,857	-0,257	-0,358
65,247	197,232	-0,247	-0,265
66,261	800,000	-0,139	-0,331
67,276	64,197	-0,426	-0,300
68,290	34,993	-0,341	-0,209
69,305	4,036	-0,333	-0,170
70,320	105,492	-0,245	-0,203
71,334	-36,716	-0,451	-0,169
72,349	282,367	-0,229	-0,288
73,363	79,862	-0,187	-0,141
74,378	6,473	-0,317	-0,165
75,393	114,491	-0,313	-0,267
76,407	34,789	-0,263	-0,161
77,422	79,734	-0,234	-0,176
78,436	214,275	-0,274	-0,304
79,451	261,910	-0,247	-0,300
80,466	132,937	-0,264	-0,239
81,480	-4,962	-0,422	-0,203
82,495	114,780	-0,331	-0,283
83,509	256,090	-0,250	-0,301
84,524	15,953	-0,303	-0,167
85,539	492,940	-0,089	-0,144
86,553	40,802	-0,190	-0,120
87,568	44,629	-0,293	-0,188
88,582	179,173	-0,279	-0,286
89,597	-22,173	-0,301	-0,127
90,611	7,794	-0,362	-0,189
91,626	26,650	-0,217	-0,127
92,641	-78,734	-0,252	-0,060
93,655	-23,582	-0,206	-0,086
94,670	-73,858	-0,329	-0,083
95,684	-6,052	-0,327	-0,156
96,699	161,453	-0,316	-0,310
97,714	-47,673	-0,157	-0,053
98,728	-53,762	-0,167	-0,053
99,743	-200,000	-0,274	0,000
100,757	-200,000	-0,065	-0,234
101,772	187,250	-0,227	-0,237
102,787	345,668	-0,224	-0,309
103,801	-10,404	-0,275	-0,127
104,816	73,309	-0,230	-0,168
105,830	-39,968	-0,125	-0,045
106,845	110,004	-0,205	-0,172
107,860	-112,971	-0,322	-0,044
108,874	-164,044	-0,243	-0,008
109,889	243,546	-0,230	-0,271
110,903	41,215	-0,362	-0,228
111,918	100,843	-0,308	-0,250
112,933	197,691	-0,117	-0,125
113,947	76,002	-0,227	-0,167
114,962	16,690	-0,246	-0,136
115,976	147,958	-0,212	-0,199
116,991	158,729	-0,244	-0,237
118,006	631,671	-0,171	-0,303
119,020	-41,353	-0,337	-0,120
120,035	-20,655	-0,265	-0,113
121,049	-26,657	-0,187	-0,076
122,064	-86,293	-0,332	-0,071
123,079	-161,291	-0,242	-0,009
124,093	302,108	-0,177	-0,229
125,108	800,000	-0,134	-0,298
126,122	60,264	-0,226	-0,155
127,137	468,635	-0,138	-0,217
128,151	-30,034	-0,428	-0,169
129,166	91,233	-0,215	-0,168
130,181	-9,357	-0,238	-0,110
131,195	146,395	-0,318	-0,298
132,210	160,125	-0,278	-0,270
133,224	-58,260	-0,326	-0,098
134,239	-57,966	-0,417	-0,126
135,254	6,313	-0,235	-0,121
136,268	297,368	-0,118	-0,152
137,283	-26,259	-0,291	-0,119
138,297	261,373	-0,128	-0,154
139,312	181,199	-0,193	-0,198
140,327	62,162	-0,260	-0,180
141,341	6,492	-0,341	-0,176
142,356	199,084	-0,179	-0,191
143,370	1,006	-0,248	-0,123
144,385	237,266	-0,133	-0,153
145,400	-63,298	-0,343	-0,098
146,414	-13,736	-0,381	-0,171
147,429	228,163	-0,180	-0,204
148,443	89,410	-0,286	-0,222
149,458	-13,744	-0,269	-0,121
150,473	98,368	-0,186	-0,149
151,487	-10,424	-0,320	-0,147
152,502	27,895	-0,244	-0,143
153,516	8,020	-0,255	-0,133
154,531	153,551	-0,161	-0,153
155,546	140,162	-0,092	-0,085
156,560	196,074	-0,247	-0,262
157,575	3,123	-0,300	-0,152
158,589	34,853	-0,226	-0,137
159,604	-51,988	-0,251	-0,081
160,619	12,700	-0,257	-0,138
161,633	106,912	-0,262	-0,217
162,648	41,133	-0,203	-0,127
163,662	108,654	-0,120	-0,100
164,677	96,481	-0,209	-0,166
165,692	107,858	-0,203	-0,168
166,706	452,833	-0,159	-0,246
167,721	93,213	-0,212	-0,167
168,735	-56,566	-0,163	-0,050
169,750	360,475	-0,147	-0,205
170,764	78,566	-0,296	-0,220
171,779	616,146	-0,181	-0,316
172,794	69,283	-0,104	-0,074
173,808	12,072	-0,250	-0,133
174,823	-17,895	-0,349	-0,152
175,837	-14,370	-0,349	-0,155
176,852	25,378	-0,216	-0,125
177,867	78,377	-0,163	-0,121
178,881	175,119	-0,230	-0,231
179,896	25,960	-0,272	-0,157
180,910	43,766	-0,102	-0,065
181,925	155,658	-0,265	-0,253
182,940	28,424	-0,276	-0,161
183,954	66,606	-0,177	-0,125
184,969	244,491	-0,145	-0,169
185,983	151,569	-0,292	-0,276
186,998	4,249	-0,125	-0,063
188,013	-72,144	-0,253	-0,065
189,027	-42,080	-0,149	-0,053
190,042	542,950	-0,167	-0,277
191,056	9,251	-0,170	-0,089
192,071	-16,836	-0,228	-0,100
193,086	25,498	-0,269	-0,155
194,100	48,589	-0,165	-0,107
195,115	259,091	-0,171	-0,205
196,129	800,000	-0,112	-0,258
197,144	119,851	-0,153	-0,131
198,159	317,782	-0,160	-0,210
199,173	352,456	-0,161	-0,223
200,188	68,805	-0,199	-0,141
201,202	148,364	-0,159	-0,149
202,217	139,350	-0,201	-0,184
203,232	33,484	-0,120	-0,072
204,246	385,901	-0,147	-0,211
205,261	42,532	-0,233	-0,146
206,275	273,286	-0,113	-0,139
207,290	25,347	-0,107	-0,061
208,304	-184,791	-0,057	-0,001
209,319	342,339	-0,134	-0,182
210,334	-67,610	-0,189	-0,051
211,348	181,009	-0,229	-0,233
212,363	215,379	-0,200	-0,220
213,377	85,410	-0,179	-0,136
214,392	-24,411	-0,272	-0,112
215,407	14,479	-0,221	-0,119
216,421	-21,415	-0,248	-0,104
217,436	125,550	-0,177	-0,154
218,450	112,288	-0,162	-0,135
219,465	162,972	-0,288	-0,280
220,480	-48,336	-0,177	-0,059
221,494	167,768	-0,162	-0,160
222,509	33,834	-0,309	-0,185
223,523	-3,179	-0,199	-0,096
224,538	7,007	-0,305	-0,157
225,553	175,013	-0,123	-0,124
226,567	-160,333	-0,244	-0,009
227,582	241,865	-0,217	-0,251
228,596	-200,000	0,019	-0,164
229,611	-22,435	-0,191	-0,080
230,626	373,007	-0,214	-0,301
231,640	75,982	-0,253	-0,185
232,655	235,382	-0,184	-0,211
233,669	-29,176	-0,240	-0,095
234,684	52,674	-0,205	-0,135
235,699	-40,606	-0,127	-0,045
236,713	-57,173	-0,095	-0,029
237,728	31,440	-0,181	-0,107
238,742	138,110	-0,237	-0,215
239,757	40,262	-0,201	-0,125
240,772	130,366	-0,237	-0,210
241,786	110,936	-0,234	-0,195
242,801	42,749	-0,100	-0,063
243,815	183,160	-0,149	-0,152
244,830	-51,494	-0,263	-0,084
245,844	1,155	-0,178	-0,088
246,859	13,899	-0,215	-0,115
247,874	-21,947	-0,214	-0,090
248,888	95,279	-0,209	-0,164
249,903	260,937	-0,089	-0,107
250,917	-2,701	-0,212	-0,102
251,932	479,207	-0,097	-0,153
252,947	161,028	-0,106	-0,102
253,961	42,119	-0,227	-0,142
254,976	140,922	-0,074	-0,067
255,990	-102,420	-0,210	-0,034
257,005	309,721	-0,164	-0,212
258,020	193,610	-0,172	-0,180
259,034	77,394	-0,183	-0,135
260,049	53,408	-0,092	-0,061
261,063	150,216	-0,172	-0,161
262,078	230,639	-0,173	-0,195
263,093	36,305	-0,152	-0,092
264,107	800,000	-0,100	-0,259
265,122	29,861	-0,169	-0,099
266,136	264,664	-0,168	-0,202
267,151	-46,874	-0,095	0,032
268,166	29,219	-0,247	-0,144
269,180	31,741	-0,183	-0,108
270,195	800,000	-0,085	-0,185
271,209	-70,458	-0,135	0,035
272,224	-72,280	-0,224	-0,057
273,239	-63,020	-0,125	-0,035
274,253	-125,848	-0,243	0,025
275,268	75,683	-0,170	-0,124
276,282	-112,632	-0,152	-0,021
277,297	82,164	-0,396	-0,296
278,312	303,243	-0,155	-0,198
279,326	105,282	-0,070	-0,057
280,341	185,354	-0,148	-0,152
281,355	252,568	-0,181	-0,213
282,370	132,264	-0,236	-0,209
283,384	212,594	-0,136	-0,148
284,399	353,735	-0,123	-0,169
285,414	-44,574	-0,142	-0,048
286,428	76,906	-0,187	-0,137
287,443	-88,439	-0,195	0,040
288,457	171,116	-0,130	-0,128
289,472	120,438	-0,102	-0,087
290,487	-200,000	-0,102	-0,313
291,501	-19,876	-0,160	-0,068
292,516	130,695	-0,159	-0,140
293,530	33,108	-0,144	-0,086
294,545	-200,000	-0,003	-0,051
295,560	144,981	-0,093	-0,085
296,574	800,000	-0,094	-0,227
297,589	114,839	-0,181	-0,151
298,603	55,042	-0,196	-0,130
299,618	320,736	-0,143	-0,188
300,633	27,003	-0,219	-0,126
301,647	-81,610	0,087	0,020
302,662	-55,563	-0,158	0,048
303,676	-125,123	-0,189	-0,020
304,691	226,888	-0,076	-0,085
305,706	176,052	-0,188	-0,188
306,720	166,737	-0,074	-0,072
307,735	-74,892	-0,149	-0,036
308,749	29,469	-0,068	-0,039
309,764	98,543	-0,119	-0,094
310,779	48,829	-0,212	-0,136
311,793	800,000	-0,059	-0,163
312,808	-58,445	-0,275	-0,082
313,822	118,932	-0,225	-0,191
314,837	-37,610	-0,171	-0,062
315,852	67,652	-0,109	-0,076
316,866	800,000	-0,042	-0,084
317,881	-200,000	-0,034	-0,266
318,895	-79,580	-0,133	-0,031
319,910	24,412	-0,161	-0,091
320,925	184,863	-0,150	-0,152
321,939	115,342	-0,119	-0,100
322,954	480,599	-0,077	-0,120
323,968	150,149	-0,153	-0,143
324,983	-95,617	-0,115	-0,021
325,997	65,807	-0,243	-0,169
327,012	615,472	-0,162	-0,280
328,027	-24,864	-0,260	-0,106
329,041	214,095	-0,167	-0,181
330,056	800,000	-0,088	-0,223
331,070	67,763	-0,122	-0,085
332,085	265,070	-0,112	-0,134
333,100	-13,351	-0,084	0,037
334,114	800,000	-0,067	-0,139
335,129	-82,956	-0,159	-0,035
336,143	800,000	-0,104	-0,201
337,158	-20,207	-0,192	-0,081
338,173	210,482	-0,076	-0,082
339,187	36,009	-0,101	-0,061
340,202	-74,765	-0,165	-0,040
341,216	68,825	-0,023	0,016
342,231	-140,663	-0,242	-0,017
343,246	81,474	-0,129	-0,096
344,260	133,790	-0,093	-0,082
345,275	574,189	-0,067	-0,112
346,289	195,851	-0,177	-0,184
347,304	-81,859	-0,105	-0,023
348,319	757,682	-0,141	-0,263
349,333	800,000	-0,061	-0,160
350,348	800,000	-0,119	-0,237
351,362	-57,233	-0,088	-0,026
352,377	-200,000	-0,014	-0,138
353,392	-200,000	-0,062	-0,244
354,406	800,000	-0,087	-0,222
355,421	207,487	1307,907	1397,914
356,435	159,618	1467,768	1398,396
