DTS Sentinel unit serial number:	SN410029Multiplexer serial number:	ORYXHardware model number:	OX2-SRSoftware version number:	ORYX F/W v4,00 Oryx Data Collector v3.7.2.0data status	okinstallation	B3 Nyhavnadifferential loss correction	single-endedforward channel	channel 1reverse channel	N/Adate	2023/12/04time	04:17:30forward acquisition time	300,00reverse acquisition time	0,00gamma	499,1914k internal	0,3206k external	0,3206temperature offset calibration	1,0000default loss term (dB/km)	0,3820temperature slope calibration	1,0000multiplexer offset coefficient	1,0000multiplexer slope coefficient	1,0000fibre end	0,00T internal ref (°C)	12,00T ext. ref 1 (°C)	-3,07T ext. ref 2 (°C)	-3,10length (m)	temperature (°C)	Stokes	anti-Stokes-744,400	224,758	-0,270	-0,317
-743,385	800,000	-0,075	0,194
-742,371	99,018	-0,208	-0,175
-741,356	-200,000	0,049	0,223
-740,342	263,523	-0,183	-0,231
-739,327	800,000	-0,099	0,283
-738,312	210,460	-0,163	-0,186
-737,298	177,242	-0,210	0,222
-736,283	311,875	-0,118	-0,161
-735,269	-200,000	0,084	0,306
-734,254	80,434	-0,177	-0,138
-733,239	-12,671	-0,235	0,111
-732,225	-200,000	-0,035	-0,214
-731,210	241,805	0,041	0,050
-730,196	800,000	0,059	-0,168
-729,181	253,819	0,074	-0,092
-728,167	-135,303	0,061	0,005
-727,152	11,802	-0,099	0,055
-726,137	-38,052	-0,082	-0,031
-725,123	-37,623	-0,242	-0,093
-724,108	-200,000	-0,007	-0,242
-723,094	14,033	-0,279	-0,157
-722,079	-200,000	-0,003	0,014
-721,064	38,356	0,028	0,018
-720,050	-10,540	0,071	-0,034
-719,035	-36,910	-0,106	0,041
-718,021	183,242	-0,100	-0,107
-717,006	-65,752	-0,071	0,020
-715,991	800,000	-0,042	0,095
-714,977	648,999	0,014	-0,027
-713,962	-163,593	-0,134	-0,005
-712,948	-200,000	0,004	0,152
-711,933	800,000	0,029	0,071
-710,918	-46,700	-0,086	-0,030
-709,904	-200,000	-0,006	0,078
-708,889	-110,740	-0,086	0,013
-707,875	-58,807	0,111	-0,035
-706,860	210,283	-0,033	0,038
-705,845	77,539	0,069	-0,053
-704,831	-59,871	-0,194	0,060
-703,816	687,649	-0,007	0,012
-702,802	-106,999	0,111	-0,018
-701,787	-93,554	-0,177	-0,035
-700,772	800,000	0,006	0,016
-699,758	-200,000	-0,022	-0,111
-698,743	108,540	-0,090	-0,078
-697,729	-153,125	0,161	-0,008
-696,714	800,000	-0,024	0,053
-695,699	-82,836	0,046	-0,011
-694,685	-153,153	-0,089	0,004
-693,670	-200,000	0,000	-0,055
-692,656	18,139	-0,064	0,037
-691,641	266,930	-0,019	0,025
-690,627	252,440	-0,045	-0,056
-689,612	-98,212	0,040	-0,007
-688,597	-39,273	-0,145	-0,055
-687,583	-200,000	0,014	-0,127
-686,568	387,127	0,018	-0,026
-685,554	217,394	0,078	0,090
-684,539	800,000	0,019	0,040
-683,524	-1,045	-0,090	-0,046
-682,510	775,805	0,062	-0,123
-681,495	-200,000	-0,004	0,082
-680,481	30,548	0,016	-0,010
-679,466	199,221	-0,108	-0,121
-678,451	0,894	-0,064	0,033
-677,437	-42,203	-0,070	0,026
-676,422	-200,000	0,003	0,031
-675,408	-200,000	-0,014	0,077
-674,393	800,000	-0,057	0,146
-673,378	800,000	-0,015	-0,030
-672,364	-200,000	0,015	-0,211
-671,349	-200,000	0,009	-0,044
-670,335	-200,000	0,013	-0,072
-669,320	-127,557	-0,080	-0,008
-668,305	800,000	0,043	0,122
-667,291	-200,000	-0,003	-0,034
-666,276	800,000	-0,081	-0,183
-665,262	-86,214	-0,183	-0,040
-664,247	146,013	-0,022	0,021
-663,232	800,000	0,071	0,169
-662,218	-184,391	-0,106	0,001
-661,203	-155,525	-0,132	0,006
-660,189	263,424	-0,052	-0,066
-659,174	108,106	0,060	-0,051
-658,159	32,824	-0,114	-0,071
-657,145	113,320	0,111	-0,097
-656,130	800,000	0,003	0,007
-655,116	-200,000	0,006	0,043
-654,101	573,848	0,034	0,061
-653,086	722,075	-0,052	-0,100
-652,072	778,047	-0,074	-0,147
-651,057	186,311	-0,082	-0,088
-650,043	-23,935	0,056	0,024
-649,028	800,000	0,036	-0,074
-648,014	-200,000	0,003	0,103
-646,999	203,920	0,075	0,084
-645,984	-100,884	-0,035	-0,006
-644,970	97,805	-0,118	-0,098
-643,955	83,141	-0,092	0,072
-642,941	-74,079	-0,049	-0,013
-641,926	-56,307	0,054	0,017
-640,911	235,861	0,031	-0,037
-639,897	-130,981	-0,057	0,005
-638,882	-200,000	0,025	0,154
-637,868	319,646	0,082	0,113
-636,853	800,000	-0,043	0,115
-635,838	-22,665	0,042	0,018
-634,824	82,406	-0,078	0,061
-633,809	-91,424	0,082	0,017
-632,795	-139,808	-0,120	0,009
-631,780	-62,368	0,166	0,050
-630,765	-200,000	0,012	-0,141
-629,751	286,840	-0,035	0,046
-628,736	742,129	-0,091	-0,178
-627,722	800,000	0,044	-0,122
-626,707	413,067	0,036	-0,055
-625,692	800,000	0,017	0,041
-624,678	-200,000	-0,023	0,131
-623,663	541,340	-0,055	-0,096
-622,649	-200,000	-0,036	0,196
-621,634	41,487	-0,139	-0,091
-620,619	800,000	-0,041	-0,114
-619,605	-200,000	-0,004	0,071
-618,590	-61,788	0,019	-0,006
-617,576	-90,863	0,119	0,025
-616,561	-200,000	-0,003	-0,056
-615,546	126,857	-0,060	0,055
-614,532	30,695	-0,035	-0,021
-613,517	800,000	0,053	-0,132
-612,503	-200,000	0,004	-0,065
-611,488	-171,640	0,100	-0,002
-610,474	56,799	0,052	0,036
-609,459	-200,000	0,006	0,028
-608,444	-0,894	-0,027	0,014
-607,430	-8,562	-0,130	-0,063
-606,415	55,860	0,037	-0,026
-605,401	-17,898	0,080	0,036
-604,386	-109,001	0,027	-0,004
-603,371	310,253	0,014	-0,019
-602,357	313,983	-0,065	-0,089
-601,342	76,337	0,054	0,042
-600,328	34,091	-0,113	-0,071
-599,313	-200,000	0,002	-0,060
-598,298	-88,600	0,107	-0,023
-597,284	-41,054	-0,078	0,029
-596,269	-85,558	0,216	-0,048
-595,255	337,388	-0,077	0,108
-594,240	800,000	0,022	0,045
-593,225	-200,000	-0,003	-0,048
-592,211	196,806	-0,072	-0,080
-591,196	-119,628	-0,069	0,009
-590,182	800,000	0,019	0,043
-589,167	305,108	0,038	-0,050
-588,152	-34,912	-0,123	0,048
-587,138	337,851	-0,037	0,053
-586,123	210,441	0,037	0,042
-585,109	-26,420	-0,045	0,019
-584,094	97,332	0,115	0,095
-583,079	-200,000	-0,031	0,141
-582,065	401,774	-0,026	0,039
-581,050	-83,417	0,077	-0,018
-580,036	-85,130	-0,014	-0,003
-579,021	170,205	0,089	0,092
-578,006	280,441	-0,029	-0,038
-576,992	-200,000	-0,019	-0,092
-575,977	22,272	-0,107	0,063
-574,963	302,255	0,045	0,061
-573,948	115,631	0,125	0,110
-572,934	800,000	0,031	-0,089
-571,919	523,650	-0,043	0,074
-570,904	-116,327	-0,032	-0,004
-569,890	-200,000	-0,001	-0,026
-568,875	800,000	-0,028	-0,090
-567,861	-200,000	-0,007	-0,041
-566,846	-200,000	0,011	0,038
-565,831	43,403	-0,067	0,044
-564,817	-37,042	0,132	-0,051
-563,802	272,280	0,049	-0,063
-562,788	-23,681	0,160	-0,069
-561,773	-118,500	-0,064	-0,008
-560,758	-200,000	-0,004	-0,061
-559,744	102,319	0,106	0,090
-558,729	-200,000	0,012	0,078
-557,715	800,000	-0,032	0,073
-556,700	323,663	0,044	-0,061
-555,685	-200,000	0,007	-0,208
-554,671	167,279	-0,033	-0,033
-553,656	-200,000	-0,009	-0,075
-552,642	689,518	0,036	-0,068
-551,627	-77,681	-0,015	-0,004
-550,612	42,560	-0,071	-0,046
-549,598	-200,000	-0,002	-0,041
-548,583	102,104	0,029	0,024
-547,569	-105,190	-0,015	0,003
-546,554	800,000	0,050	0,155
-545,539	215,644	0,063	0,072
-544,525	-200,000	-0,007	0,095
-543,510	288,154	0,089	0,117
-542,496	413,369	0,061	0,093
-541,481	800,000	-0,017	-0,047
-540,466	677,090	0,037	-0,070
-539,452	79,018	-0,039	0,030
-538,437	378,764	-0,062	0,091
-537,423	-157,825	0,054	-0,002
-536,408	800,000	-0,039	-0,118
-535,393	60,017	0,082	0,058
-534,379	-200,000	0,054	0,203
-533,364	-9,811	0,044	-0,021
-532,350	149,499	-0,107	-0,104
-531,335	40,702	-0,075	0,048
-530,321	-145,944	0,083	0,005
-529,306	800,000	-0,024	0,056
-528,291	784,511	0,054	0,108
-527,277	-35,966	0,137	-0,053
-526,262	-35,114	-0,051	0,020
-525,248	-97,564	-0,068	0,013
-524,233	8,345	0,252	-0,136
-523,218	-38,293	0,119	-0,045
-522,204	-101,842	-0,192	0,033
-521,189	-200,000	0,011	-0,126
-520,175	-161,730	-0,071	-0,003
-519,160	21,275	0,081	-0,047
-518,145	-43,274	0,079	-0,029
-517,131	-158,989	-0,038	0,002
-516,116	234,278	0,048	-0,057
-515,102	-163,544	-0,104	0,003
-514,087	544,305	-0,078	0,135
-513,072	129,363	-0,074	0,068
-512,058	800,000	-0,018	-0,038
-511,043	241,170	0,056	0,067
-510,029	-200,000	0,055	0,188
-509,014	800,000	0,017	0,039
-507,999	-24,978	0,058	-0,025
-506,985	385,166	0,038	0,056
-505,970	545,898	0,073	0,125
-504,956	-139,606	-0,065	-0,005
-503,941	-194,139	0,139	0,001
-502,926	-34,059	-0,097	-0,038
-501,912	-200,000	-0,013	0,151
-500,897	-134,971	0,015	-0,001
-499,883	-78,596	-0,031	0,007
-498,868	231,370	-0,092	0,109
-497,853	-56,102	-0,160	-0,051
-496,839	800,000	0,054	-0,113
-495,824	-83,563	0,056	-0,013
-494,810	187,461	0,009	-0,010
-493,795	22,969	0,079	-0,046
-492,781	-106,644	-0,107	0,017
-491,766	-51,086	-0,049	-0,016
-490,751	800,000	-0,046	-0,125
-489,737	3,418	0,155	0,081
-488,722	263,105	-0,023	0,029
-487,708	128,955	-0,060	-0,055
-486,693	-172,514	0,161	0,004
-485,678	319,935	-0,068	-0,094
-484,664	-159,301	-0,112	0,004
-483,649	-70,228	-0,118	0,032
-482,635	-19,646	-0,059	-0,026
-481,620	-200,000	0,001	-0,006
-480,605	-200,000	0,025	-0,101
-479,591	-92,071	-0,024	0,005
-478,576	193,288	0,036	-0,039
-477,562	-43,823	-0,054	0,019
-476,547	595,233	-0,049	-0,087
-475,532	-43,222	0,031	0,011
-474,518	58,205	-0,077	-0,054
-473,503	147,779	0,127	-0,123
-472,489	800,000	0,050	0,146
-471,474	-200,000	-0,003	0,207
-470,459	-200,000	-0,005	-0,140
-469,445	4,570	0,093	-0,049
-468,430	-186,193	0,061	-0,001
-467,416	800,000	0,065	-0,171
-466,401	200,119	0,015	0,017
-465,386	800,000	0,045	0,103
-464,372	245,510	-0,068	0,082
-463,357	42,766	-0,118	0,077
-462,343	78,540	0,123	-0,094
-461,328	-200,000	-0,004	0,091
-460,313	33,548	0,033	-0,020
-459,299	-129,047	0,148	0,015
-458,284	408,927	-0,008	0,013
-457,270	-200,000	0,013	0,107
-456,255	701,413	0,023	0,045
-455,241	98,033	0,018	0,015
-454,226	800,000	0,020	-0,041
-453,211	-72,896	-0,054	-0,014
-452,197	-200,000	0,012	0,044
-451,182	-117,312	-0,092	-0,012
-450,168	9,460	-0,037	-0,020
-449,153	8,816	0,077	0,042
-448,138	197,463	-0,191	-0,210
-447,124	421,293	0,028	0,043
-446,109	-197,770	0,123	-0,001
-445,095	-21,682	0,088	-0,038
-444,080	-116,861	0,115	0,015
-443,065	61,169	0,031	0,022
-442,051	115,269	0,058	-0,051
-441,036	-143,469	-0,074	0,005
-440,022	27,203	-0,109	0,065
-439,007	-200,000	-0,017	-0,055
-437,992	-81,472	-0,061	0,014
-436,978	-4,183	-0,056	-0,027
-435,963	800,000	0,021	0,062
-434,949	125,454	-0,080	0,072
-433,934	800,000	0,072	-0,193
-432,919	427,324	-0,058	-0,091
-431,905	421,303	-0,036	0,055
-430,890	350,519	0,088	-0,125
-429,876	-200,000	-0,049	0,159
-428,861	-92,703	0,080	0,016
-427,846	327,518	-0,079	0,109
-426,832	129,832	-0,023	0,021
-425,817	-200,000	0,012	-0,041
-424,803	458,832	-0,066	-0,106
-423,788	21,250	0,143	-0,083
-422,773	419,936	0,016	0,025
-421,759	800,000	-0,053	0,106
-420,744	800,000	-0,031	0,067
-419,730	164,727	-0,083	0,084
-418,715	800,000	-0,036	0,084
-417,701	-99,379	-0,097	0,017
-416,686	-18,897	-0,091	-0,041
-415,671	-55,758	0,142	-0,045
-414,657	558,672	-0,048	0,083
-413,642	-93,615	0,049	0,010
-412,628	-110,961	0,077	0,011
-411,613	800,000	-0,051	-0,150
-410,598	800,000	0,034	-0,083
-409,584	-64,582	-0,040	0,011
-408,569	800,000	-0,024	-0,049
-407,555	800,000	-0,040	0,082
-406,540	-200,000	-0,017	-0,087
-405,525	-61,467	0,108	-0,032
-404,511	-165,481	0,117	0,004
-403,496	800,000	0,028	-0,072
-402,482	-200,000	0,014	0,087
-401,467	-40,760	0,076	-0,028
-400,452	-200,000	-0,008	-0,142
-399,438	-15,225	0,080	0,037
-398,423	-101,601	0,129	-0,022
-397,409	-140,592	0,105	0,008
-396,394	-27,640	-0,134	-0,056
-395,379	-125,934	0,099	0,010
-394,365	398,389	-0,036	-0,055
-393,350	800,000	0,063	0,147
-392,336	800,000	-0,032	-0,087
-391,321	289,126	-0,041	-0,053
-390,306	149,419	-0,112	-0,109
-389,292	44,571	0,073	0,048
-388,277	117,305	-0,041	0,036
-387,263	200,937	0,082	-0,090
-386,248	-200,000	0,019	0,090
-385,233	77,330	-0,079	0,060
-384,219	-133,872	-0,041	-0,004
-383,204	-200,000	-0,038	-0,126
-382,190	368,793	0,008	-0,012
-381,175	164,668	-0,072	-0,073
-380,160	-64,424	0,122	-0,035
-379,146	92,410	-0,041	0,033
-378,131	17,641	0,044	-0,025
-377,117	61,007	-0,050	0,035
-376,102	-48,209	-0,077	0,026
-375,088	-114,209	-0,118	0,016
-374,073	340,207	-0,060	0,084
-373,058	-31,433	0,149	0,060
-372,044	-13,123	0,090	0,042
-371,029	-200,000	0,033	0,119
-370,015	800,000	0,082	0,217
-369,000	-3,272	0,110	0,055
-367,985	-200,000	0,031	-0,118
-366,971	718,200	-0,013	0,025
-365,956	-158,215	0,067	0,003
-364,942	800,000	0,053	0,122
-363,927	-131,282	0,069	-0,006
-362,912	157,614	0,022	-0,022
-361,898	-200,000	0,013	0,186
-360,883	-87,036	-0,153	-0,033
-359,869	-85,669	0,074	0,016
-358,854	-68,872	0,074	0,020
-357,839	-90,512	-0,104	0,021
-356,825	230,981	-0,033	-0,038
-355,810	-107,793	0,091	0,014
-354,796	800,000	-0,024	-0,065
-353,781	-200,000	0,009	-0,102
-352,766	-32,195	-0,049	0,019
-351,752	-200,000	0,003	-0,058
-350,737	538,886	-0,067	-0,114
-349,723	408,273	-0,031	0,047
-348,708	-110,751	-0,039	-0,006
-347,693	367,738	-0,036	-0,052
-346,679	-200,000	-0,026	-0,156
-345,664	-200,000	-0,016	-0,094
-344,650	236,268	-0,069	-0,082
-343,635	800,000	0,030	0,085
-342,620	-46,379	0,138	0,048
-341,606	-8,218	0,072	0,034
-340,591	-82,916	-0,119	-0,027
-339,577	800,000	-0,035	0,071
-338,562	232,273	-0,039	-0,046
-337,548	-200,000	-0,029	-0,112
-336,533	800,000	0,036	0,096
-335,518	-200,000	-0,005	0,019
-334,504	800,000	0,032	0,072
-333,489	800,000	0,032	0,064
-332,475	23,412	0,063	0,037
-331,460	3,445	-0,054	-0,028
-330,445	53,564	-0,223	0,153
-329,431	-16,997	0,095	-0,043
-328,416	30,915	0,141	0,086
-327,402	-123,134	0,097	-0,011
-326,387	-90,999	0,034	0,007
-325,372	-40,724	-0,095	-0,035
-324,358	-200,000	-0,010	-0,032
-323,343	251,939	0,065	0,080
-322,329	-143,822	0,114	0,008
-321,314	-200,000	0,020	0,077
-320,299	299,864	0,023	-0,030
-319,285	-200,000	0,026	-0,097
-318,270	-71,712	0,025	-0,007
-317,256	-23,386	-0,078	-0,033
-316,241	-200,000	0,029	-0,099
-315,226	25,560	0,088	0,052
-314,212	146,561	0,065	0,063
-313,197	-200,000	0,014	-0,083
-312,183	0,836	0,093	-0,048
-311,168	-186,474	-0,102	0,001
-310,153	800,000	-0,038	-0,078
-309,139	-0,369	-0,048	-0,024
-308,124	-94,376	0,103	-0,020
-307,110	69,285	-0,032	0,023
-306,095	-200,000	0,007	-0,103
-305,080	800,000	-0,050	0,102
-304,066	-169,746	0,082	0,002
-303,051	60,731	-0,119	-0,084
-302,037	-200,000	-0,006	0,091
-301,022	20,351	0,089	0,051
-300,008	-159,399	-0,030	-0,001
-298,993	800,000	0,046	0,099
-297,978	20,709	-0,088	0,051
-296,964	800,000	0,015	0,045
-295,949	800,000	0,025	-0,070
-294,935	279,623	-0,077	-0,099
-293,920	-58,847	0,148	-0,045
-292,905	383,963	-0,012	0,018
-291,891	800,000	0,066	0,162
-290,876	95,798	-0,039	-0,031
-289,862	-58,991	-0,024	0,007
-288,847	-24,789	-0,182	-0,077
-287,832	385,371	0,063	0,093
-286,818	53,678	0,078	0,054
-285,803	-131,244	0,050	0,005
-284,789	-200,000	-0,024	0,088
-283,774	-96,611	0,157	-0,029
-282,759	764,018	-0,056	-0,108
-281,745	342,295	-0,098	-0,137
-280,730	251,772	0,028	0,034
-279,716	-95,118	-0,048	-0,009
-278,701	800,000	0,035	-0,105
-277,686	800,000	0,027	0,054
-276,672	550,286	-0,075	-0,128
-275,657	-200,000	-0,010	0,129
-274,643	-200,000	-0,008	-0,072
-273,628	-200,000	-0,012	0,101
-272,613	327,243	0,020	-0,027
-271,599	-94,103	0,043	-0,008
-270,584	800,000	0,048	0,104
-269,570	-152,295	-0,161	0,008
-268,555	0,048	-0,175	0,089
-267,540	-200,000	-0,010	-0,059
-266,526	13,383	-0,060	0,033
-265,511	800,000	-0,052	-0,130
-264,497	-200,000	0,020	0,078
-263,482	-21,688	-0,037	-0,016
-262,467	-56,574	0,161	0,051
-261,453	800,000	0,101	0,209
-260,438	-200,000	-0,026	0,114
-259,424	-174,598	0,021	-0,000
-258,409	467,950	-0,080	-0,129
-257,395	135,333	0,079	0,073
-256,380	-200,000	0,006	0,119
-255,365	147,075	0,044	-0,042
-254,351	-194,295	0,051	-0,000
-253,336	-0,216	-0,188	0,095
-252,322	459,655	-0,063	-0,100
-251,307	148,149	-0,039	-0,037
-250,292	-200,000	0,000	0,055
-249,278	773,130	-0,051	0,100
-248,263	-200,000	0,037	0,202
-247,249	-200,000	0,012	0,075
-246,234	25,448	-0,080	-0,047
-245,219	135,710	-0,111	-0,103
-244,205	572,958	0,045	-0,078
-243,190	45,011	0,086	0,057
-242,176	800,000	-0,022	-0,045
-241,161	-161,753	0,081	-0,003
-240,146	-87,285	0,104	0,022
-239,132	746,829	-0,020	0,039
-238,117	42,965	0,159	-0,103
-237,103	96,896	-0,033	-0,027
-236,088	-132,703	-0,199	-0,018
-235,073	800,000	-0,051	0,158
-234,059	-200,000	0,006	0,119
-233,044	-200,000	-0,005	-0,052
-232,030	-112,959	-0,059	0,008
-231,015	204,070	0,009	-0,009
-230,000	800,000	-0,023	-0,047
-228,986	16,894	0,096	-0,054
-227,971	-200,000	0,006	-0,105
-226,957	-50,866	0,059	-0,020
-225,942	-27,588	-0,134	0,055
-224,927	-59,197	-0,097	0,030
-223,913	693,094	-0,050	-0,095
-222,898	142,245	0,051	0,049
-221,884	23,494	-0,127	-0,074
-220,869	261,752	-0,038	-0,047
-219,855	23,666	-0,052	-0,030
-218,840	-6,010	-0,046	-0,022
-217,825	58,954	-0,065	0,045
-216,811	103,706	0,072	0,060
-215,796	12,404	-0,008	0,004
-214,782	260,883	-0,038	-0,047
-213,767	800,000	-0,019	-0,040
-212,752	73,050	0,075	-0,056
-211,738	115,534	0,017	0,015
-210,723	-51,531	-0,151	-0,050
-209,709	-200,000	0,006	-0,086
-208,694	-200,000	0,048	-0,157
-207,679	-200,000	-0,030	-0,197
-206,665	-200,000	0,006	-0,032
-205,650	-184,482	0,054	-0,001
-204,636	800,000	0,016	-0,042
-203,621	-200,000	-0,006	-0,130
-202,606	543,202	-0,034	0,059
-201,592	84,413	-0,091	-0,071
-200,577	-34,314	-0,088	-0,034
-199,563	-168,719	0,015	-0,000
-198,548	335,600	0,091	0,125
-197,533	-101,205	0,144	-0,025
-196,519	205,845	0,047	-0,052
-195,504	800,000	0,042	0,128
-194,490	-179,905	0,064	-0,001
-193,475	-166,090	-0,166	-0,005
-192,460	-41,978	-0,075	-0,027
-191,446	-146,434	0,160	0,010
-190,431	295,096	-0,062	0,081
-189,417	620,394	-0,069	0,124
-188,402	-200,000	-0,057	0,182
-187,387	-56,922	-0,234	-0,073
-186,373	-200,000	0,003	-0,197
-185,358	-40,241	0,134	-0,049
-184,344	272,917	-0,051	0,064
-183,329	-200,000	0,022	0,199
-182,315	43,298	0,134	0,087
-181,300	-98,818	0,094	0,017
-180,285	34,325	-0,146	-0,090
-179,271	70,447	0,149	-0,109
-178,256	-105,721	-0,147	0,023
-177,242	800,000	-0,024	0,051
-176,227	-200,000	-0,006	0,089
-175,212	266,392	0,063	-0,079
-174,198	-125,229	0,126	-0,013
-173,183	34,821	-0,092	0,057
-172,169	-61,534	0,089	-0,026
-171,154	800,000	-0,060	-0,185
-170,139	88,343	-0,053	-0,042
-169,125	480,433	-0,016	0,026
-168,110	3,749	-0,138	-0,071
-167,096	478,034	-0,033	-0,053
-166,081	40,526	0,048	0,030
-165,066	421,161	-0,021	-0,032
-164,052	800,000	-0,069	-0,135
-163,037	95,860	0,051	0,041
-162,023	-200,000	0,015	0,203
-161,008	-96,746	-0,085	0,016
-159,993	-79,789	-0,068	-0,016
-158,979	-200,000	0,020	-0,072
-157,964	-200,000	-0,024	-0,165
-156,950	-19,984	-0,136	-0,059
-155,935	240,623	-0,088	-0,105
-154,920	-55,550	-0,090	-0,028
-153,906	132,410	0,028	0,026
-152,891	-200,000	0,001	-0,063
-151,877	-200,000	0,012	-0,083
-150,862	169,187	-0,075	-0,076
-149,847	-50,108	-0,036	-0,012
-148,833	-200,000	0,001	0,098
-147,818	-50,931	-0,034	0,011
-146,804	243,580	0,036	-0,043
-145,789	-41,831	0,164	0,059
-144,775	118,751	0,012	-0,010
-143,760	-164,070	-0,036	-0,001
-142,745	800,000	0,015	0,043
-141,731	17,101	0,081	0,046
-140,716	93,256	-0,017	-0,014
-139,702	-200,000	-0,045	0,164
-138,687	-141,749	0,095	-0,007
-137,672	83,940	-0,050	0,039
-136,658	-20,084	-0,064	0,028
-135,643	308,443	-0,081	-0,108
-134,629	-200,000	0,031	-0,162
-133,614	379,583	-0,048	-0,070
-132,599	800,000	0,064	0,170
-131,585	-112,143	0,107	0,015
-130,570	-200,000	-0,014	0,045
-129,556	151,808	0,035	-0,034
-128,541	566,885	-0,089	-0,153
-127,526	35,019	0,117	-0,073
-126,512	800,000	0,011	0,025
-125,497	-138,293	0,042	-0,003
-124,483	-200,000	-0,009	-0,059
-123,468	359,279	0,042	0,060
-122,453	30,489	0,119	-0,072
-121,439	-30,728	-0,218	-0,087
-120,424	-200,000	0,007	-0,062
-119,410	-28,654	0,119	0,048
-118,395	-158,833	-0,061	0,002
-117,380	-200,000	0,002	0,039
-116,366	-19,230	0,024	-0,011
-115,351	159,070	-0,051	-0,050
-114,337	201,602	-0,123	0,134
-113,322	743,877	0,073	-0,139
-112,307	-44,927	0,078	0,027
-111,293	-110,648	0,111	-0,016
-110,278	184,938	0,094	0,099
-109,264	73,359	0,057	0,042
-108,249	-78,791	-0,123	-0,030
-107,234	800,000	-0,009	-0,021
-106,220	-68,217	-0,015	0,004
-105,205	-25,851	0,229	-0,095
-104,191	133,950	0,023	-0,021
-103,176	-200,000	0,020	0,082
-102,162	330,323	-0,030	0,041
-101,147	16,728	-0,128	0,071
-100,132	800,000	-0,065	0,152
-99,118	342,282	0,038	0,052
-98,103	23,313	0,101	0,058
-97,089	-200,000	0,032	0,115
-96,074	272,642	-0,047	0,059
-95,059	800,000	-0,002	-0,004
-94,045	-183,752	0,153	-0,002
-93,030	310,083	-0,119	-0,157
-92,016	45,767	-0,102	-0,066
-91,001	-135,605	0,071	-0,006
-89,986	-184,095	0,097	0,001
-88,972	3,381	0,065	0,034
-87,957	82,328	-0,057	-0,044
-86,943	800,000	-0,033	0,080
-85,928	268,216	-0,065	0,081
-84,913	-181,891	-0,039	-0,001
-83,899	48,054	0,052	-0,034
-82,884	-200,000	0,011	0,062
-81,870	-10,863	0,119	0,055
-80,855	-200,000	0,001	-0,011
-79,840	-200,000	0,010	-0,083
-78,826	-122,514	-0,002	0,000
-77,811	-91,232	-0,039	0,008
-76,797	744,822	-0,096	-0,184
-75,782	83,915	-0,033	-0,026
-74,767	-68,444	0,018	0,005
-73,753	-200,000	-0,005	0,121
-72,738	-149,793	-0,021	-0,001
-71,724	-20,649	-0,089	-0,038
-70,709	98,097	-0,100	-0,081
-69,694	617,234	0,074	-0,131
-68,680	-51,577	0,069	0,023
-67,665	-66,322	0,057	0,016
-66,651	800,000	-0,040	0,110
-65,636	-62,062	-0,097	0,028
-64,622	-200,000	-0,005	-0,084
-63,607	-200,000	-0,021	-0,083
-62,592	86,824	-0,139	-0,108
-61,578	201,248	0,063	0,069
-60,563	-47,420	-0,092	0,031
-59,549	-200,000	0,017	0,073
-58,534	6,026	-1,720	-0,898
-57,519	472,453	-1,288	-2,058
-56,505	-200,000	-0,553	-4,610
-55,490	402,976	1,010	1,506
-54,476	800,000	4,848	11,247
-53,461	-200,000	20,266	323,964
-52,446	800,000	752,314	2311,167
-51,432	548,907	1662,857	2827,651
-50,417	74,766	1671,718	1242,547
-49,403	19,820	1544,739	877,246
-48,388	13,873	1467,100	804,222
-47,373	18,445	1457,314	820,912
-46,359	16,314	1446,842	804,771
-45,344	12,175	1442,413	782,455
-44,330	12,060	1440,645	780,914
-43,315	12,037	1438,693	779,715
-42,300	12,069	1436,929	778,880
-41,286	12,116	1435,806	778,468
-40,271	12,032	1434,472	777,313
-39,257	12,063	1433,212	776,747
-38,242	12,086	1431,988	776,158
-37,227	12,039	1431,049	775,395
-36,213	12,066	1429,507	774,658
-35,198	12,071	1428,513	774,112
-34,184	12,156	1427,310	773,833
-33,169	12,087	1426,033	772,786
-32,154	12,091	1424,867	772,142
-31,140	12,096	1423,716	771,508
-30,125	12,149	1422,496	771,067
-29,111	12,121	1421,338	770,279
-28,096	12,081	1420,320	769,507
-27,082	12,045	1419,373	768,793
-26,067	11,979	1418,515	767,987
-25,052	12,039	1417,123	767,485
-24,038	12,041	1416,155	766,941
-23,023	12,072	1414,935	766,395
-22,009	12,023	1413,998	765,626
-20,994	12,014	1413,084	765,061
-19,979	12,005	1412,379	764,604
-18,965	12,011	1411,270	764,004
-17,950	11,983	1410,354	763,344
-16,936	11,966	1409,620	762,836
-15,921	11,935	1408,603	762,112
-14,906	11,905	1407,756	761,481
-13,892	11,960	1406,659	761,118
-12,877	11,916	1406,166	760,616
-11,863	11,949	1404,861	760,030
-10,848	11,959	1403,955	759,557
-9,833	11,873	1403,188	758,713
-8,819	11,816	1402,555	758,072
-7,804	11,835	1401,513	757,571
-6,790	11,850	1400,365	756,988
-5,775	11,868	1399,334	756,487
-4,760	11,859	1398,237	755,821
-3,746	11,833	1397,410	755,221
-2,731	11,837	1396,692	754,822
-1,717	11,839	1395,630	754,228
-0,702	11,864	1393,911	753,383
0,313	15,768	1308,655	725,338
1,327	31,924	699,664	424,918
2,342	49,538	121,781	80,862
3,356	1,771	16,602	8,425
4,371	2,698	3,387	1,729
5,386	-32,483	0,781	0,306
6,400	-200,000	-0,028	0,351
7,415	64,823	-0,298	-0,212
8,429	176,372	-0,209	-0,215
9,444	104,490	-0,331	-0,275
10,459	-62,197	-0,296	-0,087
11,473	188,615	-0,238	-0,252
12,488	260,376	-0,160	-0,196
13,502	45,038	-0,328	-0,213
14,517	67,881	-0,352	-0,254
15,531	181,815	-0,247	-0,257
16,546	80,956	-0,229	-0,174
17,561	181,091	-0,378	-0,393
18,575	-108,627	-0,269	-0,040
19,590	355,637	-0,185	-0,260
20,604	-1,836	-0,312	-0,154
21,619	156,084	-0,339	-0,330
22,634	127,687	-0,420	-0,377
23,648	21,338	-0,468	-0,268
24,663	107,523	-0,324	-0,272
25,677	0,622	-0,364	-0,183
26,692	314,005	-0,260	-0,345
27,707	115,269	-0,344	-0,296
28,721	-21,025	-0,439	-0,189
29,736	55,189	-0,338	-0,230
30,750	119,931	-0,461	-0,402
31,765	-38,426	-0,390	-0,145
32,780	32,000	-0,296	-0,179
33,794	6,299	-0,338	-0,176
34,809	-7,940	-0,381	-0,180
35,823	116,347	-0,334	-0,288
36,838	102,841	-0,383	-0,315
37,853	63,994	-0,484	-0,342
38,867	177,116	-0,314	-0,322
39,882	49,105	-0,444	-0,293
40,896	59,475	-0,369	-0,256
41,911	213,168	-0,258	-0,288
42,926	109,597	-0,311	-0,262
43,940	-41,434	-0,387	-0,139
44,955	48,649	-0,385	-0,254
45,969	48,142	-0,324	-0,213
46,984	-36,736	-0,286	-0,108
47,999	-6,725	-0,428	-0,204
49,013	97,128	-0,314	-0,253
50,028	-1,794	-0,406	-0,200
51,042	107,714	-0,373	-0,312
52,057	323,376	-0,292	-0,393
53,071	800,000	-0,156	-0,355
54,086	438,422	-0,208	-0,320
55,101	-81,549	-0,332	-0,076
56,115	-188,275	-0,291	0,003
57,130	26,615	-0,317	-0,186
58,144	6,285	-0,430	-0,223
59,159	51,267	-0,441	-0,294
60,174	41,884	-0,307	-0,195
61,188	240,509	-0,192	-0,225
62,203	131,073	-0,322	-0,291
63,217	139,693	-0,223	-0,207
64,232	51,177	-0,368	-0,245
65,247	13,416	-0,340	-0,185
66,261	90,926	-0,335	-0,264
67,276	239,116	-0,277	-0,324
68,290	169,966	-0,308	-0,310
69,305	230,322	-0,217	-0,250
70,320	-4,575	-0,379	-0,183
71,334	-8,757	-0,343	-0,161
72,349	-9,382	-0,355	-0,166
73,363	30,577	-0,354	-0,212
74,378	-7,054	-0,398	-0,189
75,393	-41,119	-0,216	-0,078
76,407	20,365	-0,331	-0,187
77,422	30,527	-0,214	-0,128
78,436	10,419	-0,286	-0,152
79,451	59,017	-0,394	-0,271
80,466	192,271	-0,301	-0,318
81,480	155,497	-0,277	-0,267
82,495	87,277	-0,257	-0,200
83,509	103,824	-0,226	-0,186
84,524	123,625	-0,251	-0,220
85,539	73,330	-0,265	-0,194
86,553	-19,655	-0,231	-0,100
87,568	46,890	-0,167	-0,109
88,582	13,224	-0,275	-0,149
89,597	-5,498	-0,269	-0,129
90,611	-72,687	-0,331	-0,085
91,626	-113,795	-0,354	-0,048
92,641	31,278	-0,250	-0,150
93,655	-83,142	-0,295	-0,066
94,670	195,000	-0,201	-0,214
95,684	-45,115	-0,359	-0,124
96,699	-44,184	-0,255	-0,089
97,714	127,613	-0,136	-0,121
98,728	219,137	-0,209	-0,234
99,743	180,226	-0,268	-0,276
100,757	239,961	-0,207	-0,242
101,772	-124,889	-0,285	-0,030
102,787	46,089	-0,283	-0,183
103,801	-0,082	-0,320	-0,159
104,816	-0,035	-0,362	-0,180
105,830	54,667	-0,367	-0,247
106,845	71,223	-0,317	-0,230
107,860	-0,633	-0,220	-0,109
108,874	-26,018	-0,254	-0,104
109,889	113,553	-0,257	-0,219
110,903	127,779	-0,172	-0,153
111,918	451,873	-0,201	-0,312
112,933	-46,703	-0,292	-0,099
113,947	-117,421	-0,206	-0,026
114,962	24,612	-0,301	-0,174
115,976	379,055	-0,136	-0,196
116,991	29,464	-0,254	-0,150
118,006	-9,558	-0,286	-0,133
119,020	168,180	-0,192	-0,191
120,035	-70,909	-0,266	-0,070
121,049	-6,221	-0,202	-0,096
122,064	199,511	-0,177	-0,190
123,079	-100,292	-0,144	0,025
124,093	27,322	-0,352	-0,206
125,108	3,383	-0,367	-0,186
126,122	-31,564	-0,274	-0,107
127,137	-12,608	-0,240	-0,109
128,151	29,613	-0,236	-0,140
129,166	38,295	-0,204	-0,127
130,181	-59,016	-0,230	-0,069
131,195	-40,572	-0,353	-0,127
132,210	121,470	-0,322	-0,280
133,224	75,315	-0,185	-0,136
134,239	-71,116	-0,189	-0,049
135,254	-3,116	-0,184	-0,089
136,268	-74,203	-0,205	-0,051
137,283	159,754	-0,150	-0,146
138,297	47,518	-0,193	-0,125
139,312	-0,022	-0,251	-0,124
140,327	184,659	-0,332	-0,344
141,341	31,887	-0,199	-0,119
142,356	34,811	-0,163	-0,099
143,370	10,847	-0,193	-0,102
144,385	19,728	-0,246	-0,138
145,400	185,295	-0,267	-0,277
146,414	30,258	-0,224	-0,133
147,429	134,061	-0,295	-0,266
148,443	98,388	-0,237	-0,190
149,458	104,355	-0,305	-0,251
150,473	-18,822	-0,201	-0,087
151,487	336,653	-0,137	-0,186
152,502	14,873	-0,256	-0,139
153,516	133,479	-0,320	-0,289
154,531	776,653	-0,215	-0,411
155,546	65,343	-0,308	-0,217
156,560	181,981	-0,155	-0,159
157,575	19,386	-0,259	-0,145
158,589	777,687	-0,174	-0,332
159,604	-74,558	-0,287	-0,071
160,619	-54,186	-0,180	-0,057
161,633	259,604	-0,220	-0,265
162,648	-57,534	-0,227	-0,069
163,662	660,714	-0,138	-0,248
164,677	178,259	-0,155	-0,157
165,692	74,353	-0,271	-0,198
166,706	135,632	-0,188	-0,170
167,721	114,416	-0,287	-0,244
168,735	457,635	-0,147	-0,229
169,750	800,000	-0,150	-0,326
170,764	84,118	-0,222	-0,169
171,779	144,357	-0,223	-0,208
172,794	-168,674	-0,122	0,003
173,808	-146,999	-0,117	-0,007
174,823	56,221	-0,238	-0,161
175,837	62,439	-0,220	-0,152
176,852	-37,316	-0,258	-0,095
177,867	43,082	-0,184	-0,117
178,881	71,713	-0,195	-0,140
179,896	44,844	-0,223	-0,142
180,910	4,341	-0,181	-0,092
181,925	190,357	-0,244	-0,255
182,940	421,335	-0,102	-0,152
183,954	-72,044	-0,258	-0,066
184,969	800,000	-0,064	-0,195
185,983	800,000	-0,116	-0,260
186,998	-3,425	-0,293	-0,141
188,013	-11,707	-0,257	-0,117
189,027	-79,450	-0,354	-0,083
190,042	-106,445	-0,234	-0,036
191,056	-9,814	-0,215	-0,099
192,071	-27,264	-0,230	-0,093
193,086	16,706	-0,221	-0,121
194,100	50,390	-0,178	-0,117
195,115	128,128	-0,146	-0,129
196,129	155,109	-0,219	-0,209
197,144	131,765	-0,354	-0,316
198,159	2,585	-0,211	-0,106
199,173	507,101	-0,155	-0,250
200,188	122,075	-0,178	-0,154
201,202	-13,904	-0,189	-0,084
202,217	95,517	-0,138	-0,109
203,232	-84,076	-0,154	-0,034
204,246	18,126	-0,215	-0,119
205,261	83,310	-0,279	-0,211
206,275	196,430	-0,217	-0,230
207,290	-200,000	-0,048	-0,164
208,304	-10,773	-0,076	-0,035
209,319	-117,208	-0,210	-0,026
210,334	-45,933	-0,203	-0,069
211,348	-85,692	-0,310	-0,066
212,363	-111,627	-0,195	-0,027
213,377	71,840	-0,190	-0,137
214,392	-57,217	-0,230	-0,070
215,407	345,961	-0,110	-0,150
216,421	26,547	-0,155	-0,090
217,436	-73,065	-0,291	-0,073
218,450	13,777	-0,316	-0,170
219,465	77,440	-0,220	-0,162
220,480	771,277	-0,083	-0,158
221,494	212,515	-0,144	-0,158
222,509	67,683	-0,195	-0,138
223,523	-94,959	-0,212	-0,039
224,538	384,105	-0,065	-0,094
225,553	376,208	-0,140	-0,199
226,567	70,111	-0,237	-0,169
227,582	230,407	-0,203	-0,231
228,596	-117,122	-0,175	0,022
229,611	10,132	-0,196	-0,103
230,626	7,649	-0,231	-0,119
231,640	266,710	-0,008	0,010
232,655	163,597	-0,286	-0,279
233,669	800,000	-0,154	-0,352
234,684	175,145	-0,119	-0,119
235,699	31,176	-0,150	-0,089
236,713	-52,089	-0,184	-0,059
237,728	584,296	-0,101	-0,172
238,742	-116,806	-0,323	-0,040
239,757	272,923	-0,167	-0,205
240,772	133,026	-0,172	-0,154
241,786	-184,501	-0,190	0,002
242,801	30,684	-0,228	-0,135
243,815	306,792	-0,071	-0,092
244,830	288,000	-0,105	-0,132
245,844	-65,679	-0,298	-0,082
246,859	6,371	-0,391	-0,200
247,874	-96,660	-0,206	-0,037
248,888	160,987	-0,219	-0,212
249,903	40,167	-0,191	-0,118
250,917	182,073	-0,064	-0,065
251,932	389,093	-0,134	-0,192
252,947	211,726	-0,175	-0,191
253,961	-200,000	-0,027	-0,222
254,976	56,300	-0,167	-0,112
255,990	31,080	-0,136	-0,080
257,005	105,018	-0,203	-0,166
258,020	208,234	-0,120	-0,130
259,034	620,182	-0,094	-0,164
260,049	45,717	-0,145	0,093
261,063	43,431	-0,222	-0,140
262,078	251,365	-0,110	-0,129
263,093	272,762	-0,159	-0,195
264,107	412,980	-0,112	-0,165
265,122	64,469	-0,103	-0,072
266,136	-96,392	-0,179	0,032
267,151	-58,125	-0,160	0,048
268,166	0,348	-0,179	-0,088
269,180	176,573	-0,155	-0,155
270,195	86,895	-0,226	-0,172
271,209	230,958	-0,243	-0,276
272,224	37,298	-0,099	-0,060
273,239	74,094	-0,126	-0,091
274,253	-63,313	-0,166	-0,047
275,268	59,870	-0,296	-0,201
276,282	244,638	-0,138	-0,160
277,297	333,809	-0,205	-0,274
278,312	-51,691	-0,133	-0,042
279,326	439,873	-0,141	-0,212
280,341	63,197	-0,146	-0,101
281,355	70,459	-0,118	-0,084
282,370	372,178	-0,175	-0,246
283,384	254,580	-0,103	-0,122
284,399	75,556	-0,170	-0,124
285,414	-28,757	-0,189	-0,075
286,428	-200,000	-0,057	-0,185
287,443	12,596	-0,133	-0,070
288,457	-39,163	-0,105	0,038
289,472	-97,984	-0,131	-0,023
290,487	-192,911	-0,175	-0,001
291,501	800,000	-0,100	-0,250
292,516	800,000	-0,066	-0,173
293,530	74,501	-0,168	-0,121
294,545	-72,365	-0,135	0,034
295,560	330,807	-0,112	0,149
296,574	-34,254	-0,183	-0,069
297,589	98,901	-0,152	-0,121
298,603	43,994	-0,157	-0,099
299,618	-200,000	-0,016	-0,075
300,633	47,072	-0,174	-0,111
301,647	42,493	-0,244	0,152
302,662	-16,654	-0,109	-0,047
303,676	-200,000	0,002	-0,128
304,691	800,000	0,073	-0,146
305,706	69,288	-0,216	-0,153
306,720	55,506	-0,246	-0,163
307,735	800,000	-0,063	-0,123
308,749	-152,416	-0,095	-0,005
309,764	-131,838	-0,223	-0,020
310,779	-81,999	-0,083	0,018
311,793	697,211	-0,132	-0,239
312,808	-166,726	-0,059	0,002
313,822	-123,558	-0,135	0,015
314,837	-120,574	-0,091	-0,010
315,852	-37,287	-0,077	0,028
316,866	-45,072	-0,089	-0,030
317,881	800,000	-0,039	-0,090
318,895	48,815	-0,210	-0,135
319,910	-143,702	-0,177	0,011
320,925	198,305	-0,123	-0,129
321,939	120,864	-0,185	-0,158
322,954	530,167	-0,084	-0,136
323,968	-200,000	0,020	-0,122
324,983	-200,000	-0,002	-0,118
325,997	-127,105	-0,136	0,014
327,012	257,135	-0,199	-0,236
328,027	-200,000	0,000	-0,092
329,041	-200,000	-0,006	-0,131
330,056	-46,829	-0,093	-0,031
331,070	124,663	-0,118	-0,102
332,085	282,638	-0,115	-0,142
333,100	183,357	-0,171	-0,174
334,114	437,447	-0,180	-0,270
335,129	2,896	-0,139	-0,069
336,143	-92,882	-0,231	0,044
337,158	-133,535	-0,087	0,007
338,173	800,000	0,024	-0,055
339,187	112,616	-0,080	-0,066
340,202	800,000	-0,126	-0,256
341,216	-81,552	-0,200	-0,045
342,231	314,788	-0,045	-0,059
343,246	196,466	-0,174	-0,181
344,260	-46,365	-0,121	-0,041
345,275	167,237	-0,161	-0,157
346,289	155,763	-0,207	-0,196
347,304	800,000	-0,055	-0,137
348,319	761,199	0,027	0,050
349,333	-34,134	-0,181	-0,068
350,348	-46,303	-0,063	-0,021
351,362	-131,858	-0,110	-0,010
352,377	-144,979	-0,166	-0,010
353,392	800,000	-0,085	-0,228
354,406	800,000	-0,054	-0,134
355,421	208,008	1314,317	1408,161
356,435	160,038	1474,961	1408,635
