DTS Sentinel unit serial number:	SN410029Multiplexer serial number:	ORYXHardware model number:	OX2-SRSoftware version number:	ORYX F/W v4,00 Oryx Data Collector v3.7.2.0data status	okinstallation	B3 Nyhavnadifferential loss correction	single-endedforward channel	channel 1reverse channel	N/Adate	2023/12/03time	15:42:30forward acquisition time	300,00reverse acquisition time	0,00gamma	499,1914k internal	0,3196k external	0,3196temperature offset calibration	1,0000default loss term (dB/km)	0,3820temperature slope calibration	1,0000multiplexer offset coefficient	1,0000multiplexer slope coefficient	1,0000fibre end	0,00T internal ref (°C)	15,68T ext. ref 1 (°C)	0,20T ext. ref 2 (°C)	0,19length (m)	temperature (°C)	Stokes	anti-Stokes-744,400	93,349	-0,153	-0,126
-743,385	-200,000	-0,044	0,292
-742,371	269,623	-0,155	-0,199
-741,356	-200,000	0,019	0,310
-740,342	-67,201	-0,239	-0,068
-739,327	-200,000	0,003	0,369
-738,312	19,353	-0,318	-0,185
-737,298	-200,000	-0,041	0,213
-736,283	44,057	-0,295	-0,196
-735,269	-200,000	-0,023	0,264
-734,254	64,136	-0,147	-0,107
-733,239	-23,687	-0,178	0,077
-732,225	-13,125	-0,299	-0,141
-731,210	-129,197	0,111	-0,011
-730,196	115,257	-0,125	0,111
-729,181	-200,000	-0,008	0,073
-728,167	800,000	0,005	-0,014
-727,152	284,595	-0,047	-0,062
-726,137	-200,000	0,006	-0,133
-725,123	800,000	-0,059	-0,171
-724,108	85,957	-0,142	-0,113
-723,094	40,387	-0,023	-0,015
-722,079	417,026	0,042	-0,066
-721,064	-121,492	-0,239	-0,029
-720,050	800,000	-0,040	-0,123
-719,035	56,906	-0,105	-0,075
-718,021	178,031	-0,060	0,064
-717,006	-200,000	0,000	-0,150
-715,991	299,706	-0,077	-0,103
-714,977	-200,000	0,009	-0,098
-713,962	138,736	-0,095	-0,091
-712,948	-200,000	-0,000	0,074
-711,933	3,916	0,065	-0,035
-710,918	69,257	-0,188	-0,141
-709,904	-200,000	-0,030	0,124
-708,889	262,669	-0,036	-0,045
-707,875	-200,000	-0,008	-0,042
-706,860	-136,775	-0,058	-0,005
-705,845	16,630	-0,123	-0,071
-704,831	800,000	0,065	0,132
-703,816	241,224	-0,029	0,036
-702,802	-96,170	-0,062	0,012
-701,787	691,208	-0,037	-0,071
-700,772	-167,947	-0,093	-0,003
-699,758	57,141	0,008	-0,006
-698,743	669,274	-0,052	0,098
-697,729	242,894	-0,027	0,033
-696,714	-4,984	0,161	-0,080
-695,699	170,875	0,043	-0,045
-694,685	-87,745	-0,171	-0,037
-693,670	-200,000	0,006	0,052
-692,656	711,319	-0,028	0,054
-691,641	800,000	-0,019	0,058
-690,627	-12,665	-0,151	0,071
-689,612	50,411	-0,074	-0,050
-688,597	-200,000	-0,005	-0,025
-687,583	-79,944	-0,081	-0,020
-686,568	4,978	-0,015	-0,008
-685,554	163,560	-0,042	0,043
-684,539	-200,000	-0,010	0,056
-683,524	149,878	0,068	-0,067
-682,510	-35,133	-0,089	-0,035
-681,495	800,000	-0,062	-0,143
-680,481	130,370	-0,072	0,067
-679,466	-99,079	-0,142	-0,026
-678,451	171,630	-0,084	-0,088
-677,437	65,221	0,059	0,043
-676,422	-200,000	0,013	0,064
-675,408	-58,176	-0,016	0,005
-674,393	-200,000	0,028	-0,103
-673,378	414,697	0,035	0,054
-672,364	800,000	0,007	0,018
-671,349	451,596	-0,056	-0,091
-670,335	-200,000	0,013	-0,098
-669,320	700,486	0,030	0,058
-668,305	-57,880	-0,062	0,020
-667,291	-140,908	-0,130	0,010
-666,276	-200,000	-0,001	0,032
-665,262	327,878	-0,137	-0,191
-664,247	152,955	-0,143	-0,142
-663,232	-0,083	0,148	0,076
-662,218	800,000	-0,015	0,037
-661,203	132,995	-0,076	-0,071
-660,189	-183,787	-0,171	-0,002
-659,174	-72,694	-0,018	-0,005
-658,159	-155,023	-0,055	0,003
-657,145	-113,554	0,006	-0,001
-656,130	221,889	-0,055	0,064
-655,116	127,355	0,055	-0,051
-654,101	311,780	-0,111	0,152
-653,086	179,409	-0,032	0,034
-652,072	-150,544	-0,178	0,010
-651,057	143,123	-0,040	-0,039
-650,043	800,000	-0,042	-0,117
-649,028	-200,000	0,010	-0,038
-648,014	8,515	0,116	0,063
-646,999	-200,000	-0,001	-0,011
-645,984	65,257	-0,042	0,030
-644,970	564,508	-0,073	-0,128
-643,955	86,995	-0,017	0,013
-642,941	37,857	-0,101	-0,065
-641,926	-39,325	-0,015	0,006
-640,911	-200,000	0,016	0,097
-639,897	34,405	-0,078	0,049
-638,882	-28,043	-0,164	0,068
-637,868	-182,475	-0,026	-0,000
-636,853	-58,472	-0,109	0,034
-635,838	34,450	-0,152	-0,096
-634,824	716,790	0,046	-0,088
-633,809	-200,000	-0,005	-0,149
-632,795	86,223	0,124	0,099
-631,780	-118,949	-0,201	-0,025
-630,765	800,000	0,033	0,105
-629,751	173,702	0,035	0,037
-628,736	800,000	-0,036	0,077
-627,722	4,026	0,085	-0,045
-626,707	-200,000	0,086	-0,000
-625,692	-200,000	0,000	0,033
-624,678	-101,345	0,123	0,022
-623,663	-200,000	-0,019	-0,092
-622,649	-85,892	0,150	0,033
-621,634	-200,000	-0,031	-0,130
-620,619	-200,000	-0,023	-0,119
-619,605	180,643	-0,050	-0,054
-618,590	160,421	0,044	0,044
-617,576	54,174	0,083	-0,058
-616,561	127,029	0,012	-0,011
-615,546	-19,129	-0,080	0,036
-614,532	-51,189	-0,064	-0,022
-613,517	270,905	-0,033	0,042
-612,503	-87,753	-0,050	-0,011
-611,488	-80,385	-0,083	-0,020
-610,474	230,055	-0,048	0,057
-609,459	-200,000	0,033	0,160
-608,444	231,028	-0,031	0,037
-607,430	-200,000	-0,018	-0,093
-606,415	-66,805	-0,157	-0,045
-605,401	-68,714	0,096	-0,027
-604,386	214,007	0,069	-0,080
-603,371	-24,379	0,052	-0,022
-602,357	800,000	-0,043	-0,125
-601,342	43,984	-0,153	-0,101
-600,328	-54,895	-0,119	-0,039
-599,313	-3,853	0,049	-0,025
-598,298	800,000	0,023	0,051
-597,284	-136,047	-0,040	0,003
-596,269	-38,780	0,065	-0,025
-595,255	800,000	-0,024	-0,052
-594,240	-200,000	-0,018	-0,124
-593,225	16,320	0,096	-0,055
-592,211	-85,072	-0,088	0,020
-591,196	417,570	0,074	-0,115
-590,182	-200,000	0,006	0,159
-589,167	-200,000	-0,010	-0,091
-588,152	-200,000	-0,013	-0,113
-587,138	-135,147	0,125	-0,011
-586,123	-200,000	-0,007	-0,062
-585,109	122,479	-0,038	-0,035
-584,094	-200,000	0,014	0,056
-583,079	-118,021	0,079	-0,010
-582,065	330,936	-0,071	-0,099
-581,050	-200,000	0,008	-0,111
-580,036	40,467	-0,030	-0,019
-579,021	79,647	-0,106	0,082
-578,006	28,472	0,081	-0,050
-576,992	-200,000	-0,010	-0,144
-575,977	559,046	-0,036	0,062
-574,963	77,493	0,216	0,166
-573,948	9,527	0,070	-0,038
-572,934	-200,000	0,010	-0,041
-571,919	719,762	-0,078	-0,150
-570,904	-200,000	-0,014	-0,089
-569,890	-24,190	0,051	-0,022
-568,875	-184,750	-0,058	-0,001
-567,861	-200,000	0,039	0,147
-566,846	456,601	-0,020	-0,033
-565,831	-200,000	-0,011	-0,039
-564,817	-26,739	-0,172	-0,072
-563,802	-95,242	-0,064	0,012
-562,788	-200,000	-0,029	-0,097
-561,773	89,774	-0,033	0,026
-560,758	180,084	0,056	-0,059
-559,744	800,000	0,064	0,145
-558,729	329,129	-0,033	-0,046
-557,715	-200,000	-0,002	-0,108
-556,700	-200,000	-0,006	-0,068
-555,685	165,897	0,063	-0,065
-554,671	800,000	-0,033	-0,069
-553,656	-69,736	0,095	-0,026
-552,642	-200,000	-0,024	0,121
-551,627	315,120	0,086	-0,117
-550,612	118,994	0,086	0,077
-549,598	41,693	-0,051	-0,034
-548,583	-22,792	0,079	-0,034
-547,569	197,630	-0,021	-0,023
-546,554	97,576	-0,062	0,052
-545,539	-110,337	-0,029	0,004
-544,525	-106,763	-0,051	-0,008
-543,510	800,000	-0,041	-0,112
-542,496	-110,211	-0,124	0,018
-541,481	633,339	0,054	-0,099
-540,466	75,078	-0,079	0,060
-539,452	717,075	0,057	0,109
-538,437	206,016	-0,101	0,113
-537,423	374,526	-0,012	0,017
-536,408	181,175	-0,143	-0,152
-535,393	115,168	-0,096	-0,085
-534,379	800,000	-0,020	0,049
-533,364	-200,000	-0,003	0,032
-532,350	-127,624	0,046	0,005
-531,335	-101,884	0,112	-0,019
-530,321	40,870	-0,151	0,098
-529,306	800,000	-0,011	0,026
-528,291	-200,000	-0,013	-0,098
-527,277	27,136	0,078	-0,047
-526,262	173,862	-0,031	-0,032
-525,248	-14,132	-0,021	-0,010
-524,233	133,274	0,022	0,020
-523,218	-79,597	-0,124	0,030
-522,204	800,000	0,034	0,077
-521,189	-200,000	0,018	-0,066
-520,175	-200,000	0,020	0,079
-519,160	-13,362	0,094	0,044
-518,145	-200,000	0,014	-0,051
-517,131	-86,267	0,053	-0,012
-516,116	475,283	0,046	0,076
-515,102	98,835	-0,113	0,094
-514,087	-89,945	-0,077	-0,016
-513,072	800,000	0,055	-0,119
-512,058	800,000	-0,038	0,092
-511,043	-10,737	0,067	0,032
-510,029	800,000	-0,018	-0,040
-509,014	-64,387	0,107	0,031
-507,999	-48,328	-0,009	0,003
-506,985	3,605	-0,101	-0,053
-505,970	66,877	0,058	-0,043
-504,956	200,520	0,068	-0,075
-503,941	-115,756	0,098	-0,013
-502,926	800,000	-0,033	0,079
-501,912	424,070	-0,032	0,050
-500,897	238,679	-0,067	0,081
-499,883	800,000	-0,034	0,083
-498,868	-200,000	0,011	0,053
-497,853	800,000	-0,054	-0,133
-496,839	800,000	-0,020	0,048
-495,824	50,088	0,085	0,058
-494,810	-15,016	-0,099	0,045
-493,795	91,015	-0,047	0,038
-492,781	77,859	-0,116	0,089
-491,766	-82,894	-0,091	-0,021
-490,751	-43,748	-0,048	-0,017
-489,737	20,237	0,025	0,015
-488,722	-41,640	0,021	-0,008
-487,708	-11,872	0,118	-0,056
-486,693	126,654	0,044	-0,040
-485,678	-106,293	-0,066	0,011
-484,664	380,419	-0,058	0,086
-483,649	355,312	0,033	0,048
-482,635	-40,899	-0,145	-0,054
-481,620	-31,993	0,130	0,052
-480,605	-39,617	-0,134	0,050
-479,591	-200,000	-0,016	0,093
-478,576	-200,000	-0,022	-0,083
-477,562	122,743	0,054	0,049
-476,547	800,000	-0,041	-0,104
-475,532	291,506	0,084	-0,111
-474,518	-55,540	-0,028	-0,009
-473,503	565,799	-0,024	-0,041
-472,489	423,315	0,009	-0,014
-471,474	-200,000	-0,001	0,049
-470,459	-145,043	-0,027	-0,002
-469,445	13,687	-0,127	-0,071
-468,430	77,432	-0,055	-0,042
-467,416	800,000	-0,050	0,121
-466,401	252,882	0,047	0,057
-465,386	267,944	0,077	0,097
-464,372	-41,364	-0,134	0,050
-463,357	800,000	0,062	-0,160
-462,343	-200,000	0,014	-0,063
-461,328	281,869	0,072	-0,093
-460,313	800,000	-0,035	-0,087
-459,299	-83,697	0,087	0,020
-458,284	-200,000	-0,018	0,064
-457,270	25,294	0,053	0,032
-456,255	-88,846	0,075	0,016
-455,241	186,515	-0,070	-0,075
-454,226	88,704	0,079	0,063
-453,211	-40,892	0,053	-0,020
-452,197	-82,919	0,167	-0,038
-451,182	-8,952	-0,051	-0,025
-450,168	800,000	0,056	-0,116
-449,153	-7,035	0,013	-0,006
-448,138	593,835	-0,019	0,035
-447,124	800,000	-0,057	0,163
-446,109	-19,019	-0,069	0,031
-445,095	-200,000	0,013	0,129
-444,080	-11,981	-0,067	0,032
-443,065	64,229	0,096	-0,070
-442,051	-93,340	-0,240	-0,047
-441,036	-200,000	0,015	-0,219
-440,022	-100,185	0,079	-0,014
-439,007	509,597	0,043	0,073
-437,992	378,348	-0,062	-0,091
-436,978	-200,000	0,009	0,071
-435,963	800,000	-0,022	0,055
-434,949	560,962	0,079	-0,139
-433,934	254,977	0,013	-0,017
-432,919	684,508	0,044	-0,083
-431,905	-16,187	-0,149	0,068
-430,890	-47,557	-0,177	-0,061
-429,876	569,262	0,026	0,045
-428,861	271,280	0,097	0,123
-427,846	114,507	0,029	-0,025
-426,832	16,922	0,124	0,070
-425,817	-51,598	-0,059	0,020
-424,803	-23,334	0,128	-0,055
-423,788	-200,000	0,023	-0,207
-422,773	-200,000	-0,001	-0,069
-421,759	-200,000	0,006	0,147
-420,744	-46,013	0,066	0,023
-419,730	201,582	-0,087	0,096
-418,715	234,914	-0,017	-0,020
-417,701	147,057	-0,165	0,160
-416,686	138,251	0,077	-0,073
-415,671	-71,338	0,067	0,018
-414,657	-11,862	0,106	-0,050
-413,642	119,543	-0,052	-0,046
-412,628	800,000	-0,031	-0,087
-411,613	-56,480	0,032	0,010
-410,598	-200,000	-0,004	-0,026
-409,584	-85,585	0,126	0,028
-408,569	-200,000	-0,028	-0,103
-407,555	800,000	0,035	0,071
-406,540	62,867	0,030	-0,022
-405,525	-200,000	0,046	0,167
-404,511	800,000	0,044	0,106
-403,496	99,550	0,030	0,025
-402,482	11,968	0,070	-0,038
-401,467	10,068	0,020	0,011
-400,452	800,000	0,044	0,102
-399,438	667,659	-0,051	0,095
-398,423	-9,380	0,112	0,054
-397,409	-200,000	0,009	-0,126
-396,394	409,736	-0,059	-0,091
-395,379	9,269	0,056	-0,030
-394,365	-62,953	-0,053	0,016
-393,350	-3,891	0,158	0,078
-392,336	-200,000	-0,011	0,086
-391,321	-52,987	0,041	0,014
-390,306	63,473	-0,119	-0,086
-389,292	800,000	-0,029	-0,080
-388,277	-79,965	-0,107	-0,026
-387,263	-51,409	0,178	0,059
-386,248	-200,000	0,006	0,061
-385,233	-121,996	0,094	-0,011
-384,219	184,833	0,079	0,085
-383,204	800,000	-0,034	-0,105
-382,190	230,975	-0,051	-0,060
-381,175	800,000	-0,011	-0,022
-380,160	-200,000	-0,036	-0,123
-379,146	-138,914	0,172	0,013
-378,131	800,000	-0,035	0,092
-377,117	-96,917	-0,128	0,024
-376,102	-44,625	0,164	-0,059
-375,088	173,082	-0,043	-0,045
-374,073	434,803	-0,024	0,037
-373,058	800,000	-0,021	-0,048
-372,044	-80,466	0,028	-0,007
-371,029	-200,000	0,007	0,034
-370,015	-200,000	-0,023	-0,097
-369,000	5,150	0,086	-0,045
-367,985	524,444	-0,047	0,079
-366,971	188,088	0,032	0,034
-365,956	8,673	-0,135	-0,073
-364,942	-162,602	0,121	0,004
-363,927	-200,000	0,001	0,087
-362,912	45,586	-0,089	0,059
-361,898	-6,508	0,057	0,028
-360,883	-3,780	-0,057	-0,028
-359,869	435,924	-0,071	-0,111
-358,854	-200,000	-0,005	-0,026
-357,839	114,948	0,134	0,118
-356,825	-176,769	0,061	-0,001
-355,810	134,163	0,025	-0,023
-354,796	-200,000	0,003	0,086
-353,781	626,946	-0,053	-0,096
-352,766	-108,458	0,127	-0,019
-351,752	-125,785	-0,045	0,005
-350,737	800,000	-0,029	-0,063
-349,723	136,789	-0,046	-0,043
-348,708	-83,843	-0,123	-0,028
-347,693	314,530	0,068	-0,092
-346,679	549,076	0,077	-0,134
-345,664	-92,996	0,035	-0,007
-344,650	800,000	-0,021	0,058
-343,635	21,354	-0,034	0,020
-342,620	-200,000	0,054	0,181
-341,606	-105,549	0,070	0,011
-340,591	-32,811	-0,114	0,045
-339,577	-46,206	-0,061	-0,021
-338,562	-200,000	-0,027	-0,129
-337,548	800,000	-0,059	0,142
-336,533	-125,817	0,087	-0,009
-335,518	-32,839	0,111	-0,044
-334,504	601,384	0,065	0,116
-333,489	-83,184	-0,115	-0,026
-332,475	111,364	0,060	0,052
-331,460	-163,892	-0,112	-0,004
-330,445	29,066	0,030	0,018
-329,431	265,049	-0,056	0,071
-328,416	-155,634	0,138	0,006
-327,402	15,002	-0,117	-0,066
-326,387	-88,238	0,128	0,027
-325,372	272,709	-0,068	-0,087
-324,358	800,000	-0,030	-0,081
-323,343	-200,000	-0,022	-0,086
-322,329	-200,000	-0,002	-0,024
-321,314	16,685	-0,108	0,061
-320,299	237,734	0,057	0,068
-319,285	-118,161	-0,103	0,013
-318,270	-200,000	-0,011	-0,102
-317,256	-29,041	-0,160	-0,065
-316,241	159,070	-0,024	-0,024
-315,226	-69,523	0,151	0,041
-314,212	12,041	-0,112	-0,062
-313,197	193,054	-0,054	0,059
-312,183	-102,625	0,137	-0,023
-311,168	98,509	0,052	0,043
-310,153	98,900	-0,070	-0,058
-309,139	-127,882	-0,056	-0,006
-308,124	800,000	0,030	-0,070
-307,110	131,814	-0,091	0,083
-306,095	171,324	0,141	0,145
-305,080	800,000	-0,073	0,173
-304,066	-200,000	-0,024	-0,102
-303,051	340,518	-0,079	0,111
-302,037	163,138	-0,052	-0,052
-301,022	-114,150	-0,080	0,011
-300,008	800,000	0,059	-0,166
-298,993	86,056	0,063	0,049
-297,978	109,290	-0,097	-0,083
-296,964	800,000	0,060	-0,142
-295,949	-27,216	-0,196	-0,081
-294,935	800,000	0,050	0,116
-293,920	-200,000	-0,005	0,042
-292,905	-200,000	-0,007	0,044
-291,891	128,182	0,097	0,088
-290,876	-57,170	0,167	0,052
-289,862	290,468	0,043	0,057
-288,847	155,361	-0,034	-0,034
-287,832	207,709	0,131	0,146
-286,818	-200,000	0,001	0,006
-285,803	-103,259	-0,064	0,011
-284,789	-200,000	0,027	-0,090
-283,774	416,460	-0,040	-0,062
-282,759	800,000	0,021	0,064
-281,745	-200,000	0,003	0,028
-280,730	-200,000	0,030	-0,101
-279,716	-191,598	0,060	0,000
-278,701	-29,980	0,180	-0,073
-277,686	800,000	0,045	0,124
-276,672	39,112	0,087	-0,056
-275,657	-200,000	-0,025	-0,127
-274,643	-16,421	0,151	-0,068
-273,628	4,871	-0,157	-0,082
-272,613	14,955	0,056	-0,031
-271,599	-32,143	0,029	0,011
-270,584	800,000	0,045	0,094
-269,570	-200,000	0,025	0,123
-268,555	59,146	-0,044	0,031
-267,540	800,000	0,035	0,087
-266,526	624,097	-0,021	-0,037
-265,511	30,189	0,041	-0,025
-264,497	638,719	-0,068	0,124
-263,482	130,263	-0,093	-0,085
-262,467	-200,000	-0,027	0,136
-261,453	-177,418	0,051	-0,001
-260,438	-13,050	0,110	0,051
-259,424	-45,809	-0,060	0,021
-258,409	-200,000	-0,024	0,093
-257,395	800,000	0,013	-0,027
-256,380	281,009	-0,054	0,069
-255,365	-158,848	0,035	0,001
-254,351	109,270	0,065	-0,056
-253,336	-41,539	-0,117	0,043
-252,322	35,055	-0,084	0,053
-251,307	97,895	-0,192	-0,158
-250,292	-140,350	0,172	0,013
-249,278	-129,700	0,167	-0,016
-248,263	-200,000	0,003	0,197
-247,249	31,696	0,070	0,043
-246,234	437,646	0,059	0,092
-245,219	800,000	-0,061	0,156
-244,205	-200,000	-0,004	0,066
-243,190	-40,050	0,072	0,027
-242,176	800,000	-0,037	0,083
-241,161	115,470	0,033	0,029
-240,146	-188,274	0,048	0,000
-239,132	331,047	0,042	-0,058
-238,117	64,713	0,003	0,002
-237,103	514,294	-0,035	-0,059
-236,088	777,842	-0,047	-0,093
-235,073	-200,000	0,018	0,065
-234,059	800,000	-0,038	0,079
-233,044	800,000	0,110	0,222
-232,030	-200,000	-0,003	0,075
-231,015	-172,504	-0,141	0,003
-230,000	468,116	-0,080	0,128
-228,986	309,852	-0,032	0,043
-227,971	-200,000	0,015	0,147
-226,957	-74,439	0,050	0,013
-225,942	213,211	0,048	0,054
-224,927	338,023	-0,022	-0,031
-223,913	32,131	-0,068	0,042
-222,898	26,821	-0,075	0,045
-221,884	800,000	0,008	0,020
-220,869	363,343	0,069	-0,099
-219,855	-200,000	0,019	0,061
-218,840	800,000	0,054	0,120
-217,825	-200,000	0,005	-0,091
-216,811	65,446	-0,139	-0,100
-215,796	74,429	0,051	-0,038
-214,782	27,470	0,021	-0,013
-213,767	329,833	-0,066	-0,091
-212,752	531,010	0,032	-0,054
-211,738	254,990	0,038	-0,047
-210,723	-200,000	0,007	0,028
-209,709	800,000	-0,075	-0,154
-208,694	800,000	0,041	-0,115
-207,679	18,512	-0,069	-0,039
-206,665	-200,000	-0,017	-0,070
-205,650	-64,645	0,209	0,060
-204,636	800,000	0,013	-0,029
-203,621	800,000	0,025	0,056
-202,606	-200,000	0,027	0,125
-201,592	-200,000	-0,004	0,037
-200,577	104,324	0,064	0,054
-199,563	-133,579	-0,067	0,006
-198,548	103,718	0,123	-0,103
-197,533	47,714	0,095	-0,063
-196,519	508,870	0,059	-0,098
-195,504	800,000	0,058	-0,180
-194,490	-51,779	-0,061	-0,020
-193,475	-188,297	-0,161	-0,001
-192,460	-85,610	0,094	0,021
-191,446	34,879	0,132	0,082
-190,431	272,011	-0,078	0,098
-189,417	-67,077	-0,096	0,027
-188,402	288,721	-0,043	-0,055
-187,387	800,000	0,031	-0,073
-186,373	24,886	-0,094	-0,055
-185,358	159,908	0,037	-0,037
-184,344	-83,324	0,021	-0,005
-183,329	-21,722	-0,024	0,010
-182,315	113,606	-0,064	0,056
-181,300	-200,000	0,015	0,075
-180,285	47,404	-0,107	-0,071
-179,271	334,341	0,048	-0,066
-178,256	595,802	0,004	-0,007
-177,242	-200,000	0,026	0,097
-176,227	320,456	0,087	0,119
-175,212	800,000	0,053	0,116
-174,198	-30,207	-0,128	0,051
-173,183	297,632	-0,028	0,037
-172,169	-85,902	0,045	0,010
-171,154	-152,872	0,109	0,005
-170,139	-200,000	-0,006	0,140
-169,125	-200,000	0,015	-0,077
-168,110	88,729	0,156	0,124
-167,096	410,675	-0,060	0,090
-166,081	-96,585	-0,126	0,024
-165,066	167,681	-0,035	0,035
-164,052	-200,000	0,018	-0,065
-163,037	-169,751	0,176	0,004
-162,023	-200,000	0,002	0,078
-161,008	-200,000	0,000	0,052
-159,993	215,042	-0,032	0,036
-158,979	-200,000	-0,021	-0,100
-157,964	-200,000	-0,015	-0,066
-156,950	51,830	0,030	0,020
-155,935	-148,347	0,084	0,005
-154,920	-97,127	-0,138	0,025
-153,906	-200,000	0,000	0,050
-152,891	-120,454	-0,128	-0,015
-151,877	800,000	-0,029	-0,078
-150,862	-200,000	-0,021	0,094
-149,847	800,000	-0,006	0,013
-148,833	-200,000	0,002	0,203
-147,818	-123,042	0,115	0,013
-146,804	459,256	0,075	0,118
-145,789	-7,415	-0,139	0,067
-144,775	-200,000	-0,013	-0,052
-143,760	-200,000	0,014	0,082
-142,745	238,434	-0,047	-0,055
-141,731	-86,699	0,160	-0,034
-140,716	18,851	0,112	-0,064
-139,702	800,000	0,019	-0,056
-138,687	800,000	0,025	-0,051
-137,672	-49,464	-0,053	0,018
-136,658	367,350	0,084	-0,121
-135,643	415,410	0,102	0,155
-134,629	-77,524	-0,052	0,013
-133,614	-200,000	-0,005	-0,115
-132,599	276,954	0,056	0,071
-131,585	127,372	0,096	0,086
-130,570	-123,825	-0,062	-0,007
-129,556	-200,000	0,014	-0,110
-128,541	168,937	-0,118	-0,120
-127,526	-194,491	0,095	0,001
-126,512	70,019	-0,027	-0,019
-125,497	205,653	-0,016	-0,018
-124,483	-43,928	0,087	-0,031
-123,468	800,000	0,042	0,132
-122,453	800,000	-0,030	-0,072
-121,439	101,460	0,094	0,078
-120,424	800,000	-0,003	-0,008
-119,410	716,720	0,060	0,114
-118,395	-200,000	0,011	0,074
-117,380	321,931	0,101	0,137
-116,366	-200,000	0,021	0,067
-115,351	-200,000	-0,003	-0,020
-114,337	40,248	-0,066	0,042
-113,322	800,000	0,015	0,046
-112,307	-200,000	0,020	0,114
-111,293	-200,000	-0,017	0,109
-110,278	-163,535	0,180	-0,006
-109,264	800,000	0,020	-0,041
-108,249	49,941	0,077	0,051
-107,234	-177,500	-0,069	0,001
-106,220	261,469	0,013	-0,016
-105,205	-37,525	-0,087	0,033
-104,191	371,078	-0,038	0,054
-103,176	800,000	0,028	0,055
-102,162	-200,000	-0,104	-0,000
-101,147	73,070	-0,076	0,056
-100,132	392,196	-0,045	-0,067
-99,118	800,000	0,031	0,093
-98,103	794,171	0,044	0,087
-97,089	-200,000	-0,025	0,083
-96,074	19,497	-0,049	-0,028
-95,059	-74,892	-0,120	0,030
-94,045	-200,000	0,002	0,020
-93,030	131,278	-0,138	-0,126
-92,016	-200,000	-0,001	-0,065
-91,001	70,508	0,064	-0,047
-89,986	47,642	0,045	0,030
-88,972	6,770	0,140	0,074
-87,957	140,433	-0,169	0,158
-86,943	476,003	0,037	-0,059
-85,928	-9,591	0,105	-0,049
-84,913	-35,390	0,115	-0,044
-83,899	-149,514	-0,070	-0,004
-82,884	99,771	-0,041	0,034
-81,870	-200,000	-0,001	0,105
-80,855	74,452	0,096	0,072
-79,840	167,296	-0,153	-0,154
-78,826	-200,000	0,007	-0,036
-77,811	-155,789	-0,024	0,001
-76,797	-200,000	-0,013	0,067
-75,782	-150,583	-0,085	0,005
-74,767	224,075	0,078	0,090
-73,753	230,907	0,109	0,126
-72,738	-200,000	-0,004	-0,082
-71,724	-32,061	-0,091	-0,036
-70,709	800,000	0,047	-0,097
-69,694	-200,000	-0,037	0,154
-68,680	6,411	0,012	0,006
-67,665	-113,446	0,092	0,013
-66,651	-33,105	-0,083	-0,033
-65,636	146,739	0,073	-0,070
-64,622	-21,876	-0,137	-0,059
-63,607	-200,000	-0,011	-0,043
-62,592	-36,290	-0,006	-0,002
-61,578	-126,375	0,111	0,012
-60,563	-200,000	-0,014	0,088
-59,549	800,000	-0,027	0,076
-58,534	-76,325	-1,320	-0,327
-57,519	362,792	-1,503	-2,147
-56,505	-200,000	-0,590	-4,418
-55,490	123,147	1,028	0,913
-54,476	800,000	4,539	10,838
-53,461	-200,000	17,919	285,224
-52,446	800,000	723,011	2232,842
-51,432	562,367	1638,141	2820,981
-50,417	80,711	1661,041	1268,319
-49,403	23,571	1535,146	893,307
-48,388	17,500	1458,679	819,468
-47,373	18,135	1448,137	816,565
-46,359	17,639	1438,943	808,980
-45,344	15,765	1434,340	797,432
-44,330	15,700	1432,217	795,911
-43,315	15,771	1430,621	795,328
-42,300	15,755	1428,977	794,309
-41,286	15,826	1427,601	793,845
-40,271	15,773	1426,409	792,901
-39,257	15,732	1425,172	791,990
-38,242	15,793	1423,861	791,516
-37,227	15,819	1422,582	790,895
-36,213	15,778	1421,295	789,956
-35,198	15,790	1419,963	789,241
-34,184	15,834	1419,264	789,031
-33,169	15,734	1417,971	787,810
-32,154	15,776	1417,001	787,435
-31,140	15,801	1415,470	786,672
-30,125	15,847	1414,412	786,267
-29,111	15,777	1413,445	785,371
-28,096	15,752	1412,166	784,513
-27,082	15,759	1410,991	783,862
-26,067	15,734	1410,146	783,243
-25,052	15,700	1409,039	782,440
-24,038	15,707	1408,009	781,867
-23,023	15,701	1406,857	781,167
-22,009	15,666	1406,053	780,528
-20,994	15,657	1405,050	779,896
-19,979	15,690	1404,236	779,567
-18,965	15,652	1403,109	778,734
-17,950	15,627	1402,186	778,076
-16,936	15,665	1401,117	777,627
-15,921	15,620	1399,971	776,754
-14,906	15,593	1399,150	776,141
-13,892	15,637	1398,179	775,777
-12,877	15,606	1397,317	775,123
-11,863	15,585	1396,348	774,455
-10,848	15,577	1395,481	773,908
-9,833	15,558	1394,390	773,185
-8,819	15,499	1393,536	772,410
-7,804	15,485	1392,690	771,844
-6,790	15,532	1391,691	771,474
-5,775	15,511	1390,648	770,770
-4,760	15,521	1389,765	770,297
-3,746	15,519	1388,985	769,824
-2,731	15,520	1388,295	769,417
-1,717	15,483	1387,356	768,693
-0,702	15,516	1385,422	767,745
0,313	19,188	1305,655	740,547
1,327	35,452	707,027	438,738
2,342	54,345	125,208	85,288
3,356	2,413	16,630	8,499
4,371	-2,790	3,103	1,531
5,386	-26,643	0,576	0,238
6,400	711,643	-0,007	0,013
7,415	-36,893	-0,290	-0,109
8,429	105,182	-0,271	-0,226
9,444	-29,831	-0,288	-0,116
10,459	103,315	-0,317	-0,263
11,473	-110,536	-0,284	-0,041
12,488	-9,735	-0,476	-0,224
13,502	44,239	-0,295	-0,191
14,517	61,004	-0,357	-0,250
15,531	-37,702	-0,392	-0,147
16,546	27,622	-0,342	-0,203
17,561	-15,075	-0,392	-0,177
18,575	-23,217	-0,221	-0,094
19,590	1,338	-0,282	-0,143
20,604	-12,275	-0,218	-0,101
21,619	-42,494	-0,437	-0,157
22,634	62,136	-0,388	-0,273
23,648	21,360	-0,504	-0,289
24,663	-55,419	-0,480	-0,151
25,677	-2,248	-0,365	-0,181
26,692	607,671	-0,244	-0,432
27,707	44,352	-0,388	-0,251
28,721	102,802	-0,357	-0,295
29,736	123,338	-0,329	-0,291
30,750	171,453	-0,355	-0,361
31,765	-40,743	-0,421	-0,153
32,780	58,964	-0,382	-0,265
33,794	59,693	-0,299	-0,208
34,809	59,436	-0,338	-0,235
35,823	-16,820	-0,421	-0,187
36,838	59,858	-0,413	-0,288
37,853	110,081	-0,365	-0,309
38,867	8,983	-0,389	-0,207
39,882	66,375	-0,402	-0,288
40,896	29,638	-0,358	-0,214
41,911	53,178	-0,212	-0,143
42,926	283,729	-0,227	-0,289
43,940	116,174	-0,377	-0,326
44,955	-5,135	-0,397	-0,192
45,969	77,721	-0,348	-0,261
46,984	49,265	-0,222	-0,147
47,999	-29,267	-0,379	-0,152
49,013	47,616	-0,385	-0,253
50,028	137,239	-0,344	-0,317
51,042	137,123	-0,345	-0,318
52,057	120,422	-0,368	-0,322
53,071	26,756	-0,202	-0,119
54,086	60,238	-0,331	-0,231
55,101	59,841	-0,287	-0,200
56,115	-54,555	-0,312	-0,099
57,130	207,263	-0,403	-0,443
58,144	14,497	-0,457	-0,251
59,159	226,807	-0,252	-0,289
60,174	110,797	-0,267	-0,226
61,188	-71,800	-0,284	-0,074
62,203	260,281	-0,209	-0,255
63,217	24,558	-0,284	-0,165
64,232	10,186	-0,342	-0,183
65,247	153,070	-0,319	-0,307
66,261	151,638	-0,304	-0,292
67,276	56,976	-0,386	-0,264
68,290	280,899	-0,169	-0,214
69,305	117,402	-0,283	-0,245
70,320	73,369	-0,262	-0,193
71,334	2,928	-0,383	-0,195
72,349	120,433	-0,231	-0,202
73,363	8,230	-0,363	-0,192
74,378	82,302	-0,356	-0,272
75,393	283,004	-0,189	-0,239
76,407	126,098	-0,262	-0,233
77,422	4,732	-0,318	-0,164
78,436	87,044	-0,354	-0,275
79,451	46,804	-0,364	-0,238
80,466	23,681	-0,385	-0,222
81,480	118,419	-0,222	-0,193
82,495	4,907	-0,291	-0,150
83,509	6,063	-0,334	-0,173
84,524	-43,716	-0,395	-0,139
85,539	-55,025	-0,270	-0,085
86,553	-190,013	-0,295	0,002
87,568	121,521	-0,265	-0,233
88,582	211,477	-0,270	-0,299
89,597	581,705	-0,123	-0,212
90,611	-32,450	-0,290	-0,113
91,626	57,731	-0,237	-0,163
92,641	26,760	-0,323	-0,190
93,655	-62,284	-0,231	-0,067
94,670	148,560	-0,232	-0,220
95,684	314,194	-0,216	-0,286
96,699	180,186	-0,239	-0,246
97,714	-127,728	-0,333	0,033
98,728	-129,684	-0,161	-0,015
99,743	196,870	-0,182	-0,195
100,757	153,205	-0,292	-0,280
101,772	78,871	-0,341	-0,256
102,787	18,341	-0,288	-0,161
103,801	44,961	-0,290	-0,187
104,816	-36,077	-0,254	-0,096
105,830	136,237	-0,187	-0,171
106,845	115,524	-0,198	-0,170
107,860	1,291	-0,292	-0,147
108,874	159,228	-0,317	-0,309
109,889	181,548	-0,239	-0,247
110,903	93,743	-0,220	-0,175
111,918	92,214	-0,328	-0,259
112,933	-50,755	-0,267	-0,088
113,947	6,685	-0,352	-0,183
114,962	24,704	-0,185	-0,107
115,976	122,125	-0,201	-0,176
116,991	11,708	-0,280	-0,151
118,006	93,324	-0,268	-0,212
119,020	-120,945	-0,297	0,035
120,035	694,301	-0,051	-0,095
121,049	332,026	-0,225	-0,305
122,064	143,980	-0,177	-0,166
123,079	-6,944	-0,205	-0,097
124,093	79,099	-0,239	-0,179
125,108	45,017	-0,354	-0,228
126,122	-68,385	-0,416	-0,112
127,137	-118,358	-0,274	-0,034
128,151	261,065	-0,176	-0,214
129,166	150,792	-0,245	-0,233
130,181	187,160	-0,266	-0,278
131,195	130,001	-0,282	-0,253
132,210	150,834	-0,282	-0,268
133,224	162,442	-0,140	-0,137
134,239	32,019	-0,249	-0,150
135,254	152,028	-0,157	-0,150
136,268	9,532	-0,143	-0,076
137,283	172,048	-0,239	-0,241
138,297	-27,702	-0,332	-0,134
139,312	42,813	-0,234	-0,149
140,327	95,414	-0,221	-0,176
141,341	-102,831	-0,217	-0,036
142,356	-139,706	-0,165	0,012
143,370	164,249	-0,229	-0,226
144,385	-28,762	-0,315	-0,126
145,400	800,000	-0,085	-0,191
146,414	220,657	-0,224	-0,252
147,429	-37,578	-0,276	-0,103
148,443	9,819	-0,229	-0,121
149,458	82,817	-0,297	-0,226
150,473	29,318	-0,237	-0,141
151,487	77,897	-0,179	-0,133
152,502	364,969	-0,220	-0,310
153,516	87,873	-0,275	-0,213
154,531	-24,833	-0,265	-0,110
155,546	74,596	-0,173	-0,127
156,560	4,037	-0,288	-0,147
157,575	-25,684	-0,200	-0,082
158,589	-46,972	-0,282	-0,096
159,604	177,323	-0,252	-0,257
160,619	180,005	-0,269	-0,276
161,633	17,367	-0,242	-0,134
162,648	74,814	-0,174	-0,128
163,662	182,306	-0,187	-0,193
164,677	-41,749	-0,267	-0,095
165,692	166,979	-0,165	-0,164
166,706	200,276	-0,073	-0,079
167,721	108,944	-0,242	-0,202
168,735	531,607	-0,179	-0,297
169,750	-139,540	-0,246	-0,018
170,764	31,431	-0,244	-0,146
171,779	-35,250	-0,292	-0,110
172,794	331,497	-0,193	-0,261
173,808	130,624	-0,193	-0,173
174,823	-70,315	-0,209	-0,055
175,837	22,752	-0,413	-0,236
176,852	-54,880	-0,251	-0,079
177,867	800,000	-0,154	-0,362
178,881	-24,645	-0,196	-0,081
179,896	-75,432	-0,252	-0,062
180,910	127,027	-0,227	-0,201
181,925	38,983	-0,355	-0,221
182,940	95,814	-0,206	-0,164
183,954	378,998	-0,200	-0,287
184,969	765,232	-0,136	-0,260
185,983	122,152	-0,178	-0,155
186,998	-20,494	-0,200	-0,085
188,013	800,000	-0,133	-0,265
189,027	91,172	-0,280	-0,219
190,042	114,507	-0,227	-0,193
191,056	79,846	-0,171	-0,128
192,071	2,717	-0,244	-0,123
193,086	202,556	-0,188	-0,202
194,100	256,886	-0,261	-0,313
195,115	31,870	-0,230	-0,138
196,129	136,350	-0,162	-0,147
197,144	285,333	-0,195	-0,246
198,159	-52,472	-0,247	-0,079
199,173	677,184	-0,099	-0,180
200,188	14,222	-0,179	-0,097
201,202	736,749	-0,130	-0,243
202,217	10,918	-0,305	-0,162
203,232	800,000	-0,095	-0,195
204,246	-0,587	-0,310	-0,153
205,261	10,525	-0,122	-0,064
206,275	-13,059	-0,255	-0,115
207,290	-106,976	-0,164	0,025
208,304	-130,532	-0,250	0,023
209,319	-165,490	-0,099	-0,003
210,334	-7,226	-0,232	-0,109
211,348	-0,651	-0,180	-0,088
212,363	183,045	-0,198	-0,203
213,377	114,474	-0,141	-0,120
214,392	67,188	-0,140	-0,099
215,407	-200,000	-0,028	-0,263
216,421	364,593	-0,173	-0,243
217,436	40,419	-0,302	-0,189
218,450	-119,022	-0,203	-0,024
219,465	36,943	-0,353	-0,217
220,480	-16,299	-0,309	-0,136
221,494	-128,721	-0,281	-0,027
222,509	203,883	-0,150	-0,162
223,523	-74,041	-0,175	-0,044
224,538	-9,172	-0,147	0,068
225,553	28,686	-0,275	-0,161
226,567	615,441	-0,111	-0,193
227,582	113,855	-0,154	-0,130
228,596	49,983	-0,248	-0,162
229,611	185,609	-0,156	-0,161
230,626	304,641	-0,168	-0,217
231,640	227,771	-0,141	-0,160
232,655	259,542	-0,161	-0,193
233,669	-26,033	-0,180	-0,073
234,684	231,257	-0,182	-0,207
235,699	-73,758	-0,291	-0,073
236,713	87,491	-0,208	-0,159
237,728	-74,058	-0,264	-0,066
238,742	71,017	-0,288	-0,207
239,757	557,635	-0,165	-0,277
240,772	189,357	-0,165	-0,171
241,786	242,304	-0,233	-0,271
242,801	-117,027	-0,267	0,033
243,815	161,969	-0,095	-0,093
244,830	55,142	-0,188	-0,126
245,844	0,411	-0,219	-0,108
246,859	238,456	-0,123	-0,142
247,874	-121,041	-0,247	-0,028
248,888	706,043	-0,153	-0,282
249,903	57,771	-0,213	-0,144
250,917	-200,000	0,004	-0,013
251,932	-39,599	-0,215	-0,078
252,947	405,442	-0,050	-0,073
253,961	-54,039	-0,237	-0,074
254,976	49,127	-0,316	-0,205
255,990	-71,037	-0,265	0,069
257,005	-200,000	-0,011	-0,105
258,020	209,357	-0,138	-0,150
259,034	138,746	-0,177	-0,161
260,049	177,970	-0,195	-0,197
261,063	-110,056	-0,188	-0,027
262,078	49,565	-0,230	-0,150
263,093	800,000	-0,109	-0,279
264,107	137,316	-0,175	-0,159
265,122	800,000	-0,070	-0,172
266,136	525,014	-0,080	-0,131
267,151	241,078	-0,192	-0,222
268,166	23,283	-0,193	-0,109
269,180	175,723	-0,198	-0,199
270,195	38,174	-0,113	-0,069
271,209	143,749	-0,227	-0,209
272,224	-200,000	-0,065	-0,290
273,239	800,000	-0,087	-0,242
274,253	194,339	-0,175	-0,184
275,268	18,476	-0,094	-0,052
276,282	-200,000	-0,074	-0,249
277,297	161,819	-0,176	-0,171
278,312	340,108	-0,089	-0,120
279,326	178,538	-0,054	-0,055
280,341	142,861	-0,104	-0,095
281,355	-29,603	-0,227	-0,089
282,370	33,636	-0,194	-0,116
283,384	-5,910	-0,180	-0,085
284,399	-86,717	-0,123	-0,026
285,414	-83,636	-0,167	-0,037
286,428	8,011	-0,181	-0,094
287,443	179,590	-0,038	0,038
288,457	56,480	-0,114	-0,076
289,472	153,774	-0,174	-0,165
290,487	-28,366	-0,213	-0,084
291,501	118,472	-0,136	-0,116
292,516	67,434	-0,246	-0,173
293,530	14,499	-0,161	0,086
294,545	100,147	-0,102	-0,082
295,560	322,962	-0,127	-0,168
296,574	37,921	-0,146	-0,090
297,589	-3,816	-0,216	-0,103
298,603	-5,421	-0,172	-0,081
299,618	-140,638	-0,242	-0,017
300,633	-16,756	-0,226	-0,098
301,647	-24,961	-0,138	0,056
302,662	300,755	-0,123	-0,157
303,676	-17,469	-0,101	-0,044
304,691	-200,000	-0,072	-0,232
305,706	54,362	-0,180	-0,119
306,720	-70,145	-0,173	-0,045
307,735	408,935	-0,110	-0,161
308,749	103,847	-0,118	-0,095
309,764	-98,066	-0,223	-0,039
310,779	123,481	-0,111	-0,096
311,793	352,797	-0,142	-0,195
312,808	148,400	-0,181	-0,168
313,822	328,683	-0,111	-0,147
314,837	-30,940	-0,165	-0,064
315,852	-200,000	-0,013	-0,044
316,866	273,476	-0,087	-0,106
317,881	53,157	-0,179	-0,118
318,895	99,486	-0,183	-0,146
319,910	-181,757	-0,135	-0,002
320,925	83,255	-0,177	-0,133
321,939	81,513	-0,186	-0,139
322,954	628,762	-0,095	-0,167
323,968	-200,000	-0,036	-0,124
324,983	-73,657	-0,124	0,031
325,997	-44,537	-0,195	-0,067
327,012	45,340	-0,212	-0,134
328,027	-60,815	-0,276	-0,080
329,041	54,325	-0,209	-0,138
330,056	34,492	-0,189	-0,113
331,070	97,179	-0,218	-0,172
332,085	196,284	-0,185	-0,194
333,100	-12,345	-0,112	-0,050
334,114	55,527	-0,187	-0,124
335,129	-75,762	-0,224	-0,054
336,143	411,442	-0,139	-0,204
337,158	223,329	-0,098	-0,109
338,173	420,440	-0,108	-0,160
339,187	107,017	-0,090	-0,074
340,202	-55,125	-0,316	-0,097
341,216	-115,115	-0,273	-0,035
342,231	145,249	-0,204	-0,187
343,246	800,000	-0,025	-0,060
344,260	73,641	-0,126	-0,090
345,275	127,521	0,051	-0,045
346,289	-100,007	-0,151	-0,026
347,304	389,427	-0,076	-0,109
348,319	-11,159	-0,193	-0,087
349,333	-14,143	-0,217	-0,096
350,348	124,015	-0,096	-0,083
351,362	-105,700	-0,140	-0,022
352,377	-3,387	-0,023	-0,011
353,392	-37,142	-0,063	-0,023
354,406	271,888	-0,085	-0,104
355,421	210,103	1313,786	1417,945
356,435	161,732	1474,414	1418,457
