DTS Sentinel unit serial number:	SN410029Multiplexer serial number:	ORYXHardware model number:	OX2-SRSoftware version number:	ORYX F/W v4,00 Oryx Data Collector v3.7.2.0data status	okinstallation	B3 Nyhavnadifferential loss correction	single-endedforward channel	channel 1reverse channel	N/Adate	2023/12/02time	17:47:30forward acquisition time	300,00reverse acquisition time	0,00gamma	499,1914k internal	0,3199k external	0,3199temperature offset calibration	1,0000default loss term (dB/km)	0,3820temperature slope calibration	1,0000multiplexer offset coefficient	1,0000multiplexer slope coefficient	1,0000fibre end	0,00T internal ref (°C)	13,75T ext. ref 1 (°C)	-1,62T ext. ref 2 (°C)	-1,63length (m)	temperature (°C)	Stokes	anti-Stokes-744,400	52,182	-0,174	-0,121
-743,385	-200,000	0,038	0,241
-742,371	547,071	-0,191	-0,334
-741,356	800,000	0,146	0,322
-740,342	101,628	-0,100	-0,084
-739,327	-200,000	0,013	0,134
-738,312	424,973	-0,156	-0,246
-737,298	-200,000	-0,039	0,306
-736,283	-6,046	-0,232	-0,115
-735,269	800,000	0,141	0,412
-734,254	385,282	-0,242	-0,364
-733,239	527,974	-0,093	0,160
-732,225	50,996	-0,204	-0,141
-731,210	-72,815	0,132	-0,035
-730,196	-200,000	0,010	0,061
-729,181	-200,000	-0,018	0,096
-728,167	386,655	-0,039	-0,058
-727,152	-200,000	-0,006	0,042
-726,137	84,124	-0,088	-0,070
-725,123	-87,974	-0,098	-0,021
-724,108	214,634	-0,034	-0,039
-723,094	-200,000	-0,006	-0,126
-722,079	138,683	-0,083	-0,079
-721,064	-125,646	0,064	0,007
-720,050	84,037	-0,129	-0,102
-719,035	-36,316	-0,088	0,034
-718,021	-200,000	0,021	0,079
-717,006	800,000	-0,048	0,099
-715,991	28,559	0,042	-0,026
-714,977	-6,109	-0,071	-0,035
-713,962	-68,701	-0,060	0,017
-712,948	57,107	-0,052	-0,036
-711,933	126,373	0,125	-0,115
-710,918	-200,000	-0,007	-0,110
-709,904	-200,000	-0,042	-0,189
-708,889	41,631	-0,124	-0,081
-707,875	800,000	-0,025	-0,078
-706,860	-142,984	0,175	0,012
-705,845	-158,934	0,159	0,006
-704,831	424,523	0,068	0,107
-703,816	49,032	0,054	0,037
-702,802	-116,181	-0,107	-0,014
-701,787	14,168	0,046	-0,026
-700,772	800,000	0,042	-0,118
-699,758	-70,018	-0,146	0,040
-698,743	-200,000	-0,014	0,085
-697,729	-105,358	0,047	0,008
-696,714	-119,071	-0,093	0,012
-695,699	-79,181	-0,120	-0,029
-694,685	-91,433	0,155	-0,032
-693,670	485,096	0,066	-0,109
-692,656	-200,000	0,010	0,075
-691,641	800,000	0,037	0,102
-690,627	4,117	0,050	0,026
-689,612	82,568	-0,023	-0,018
-688,597	-200,000	-0,003	-0,084
-687,583	-63,556	0,029	-0,009
-686,568	-146,212	0,091	0,006
-685,554	752,968	-0,059	-0,116
-684,539	250,196	-0,039	-0,049
-683,524	476,730	-0,043	0,071
-682,510	800,000	0,028	-0,072
-681,495	-36,169	-0,130	0,051
-680,481	-90,806	-0,075	-0,016
-679,466	12,935	-0,081	-0,045
-678,451	800,000	0,035	0,094
-677,437	144,075	0,044	0,043
-676,422	-93,329	-0,068	0,014
-675,408	-200,000	-0,003	0,187
-674,393	347,973	-0,050	0,071
-673,378	629,522	-0,098	-0,181
-672,364	800,000	0,072	-0,174
-671,349	-200,000	-0,042	-0,138
-670,335	158,370	-0,065	-0,066
-669,320	800,000	0,010	0,020
-668,305	333,015	-0,037	0,053
-667,291	734,557	-0,137	-0,267
-666,276	160,489	-0,054	-0,055
-665,262	-53,377	-0,132	-0,043
-664,247	-55,859	-0,037	0,012
-663,232	-200,000	0,012	0,044
-662,218	282,569	0,038	0,050
-661,203	-30,655	-0,014	-0,006
-660,189	-0,910	-0,111	-0,057
-659,174	-200,000	-0,019	-0,124
-658,159	66,589	-0,081	-0,059
-657,145	800,000	-0,020	0,059
-656,130	563,840	0,083	0,147
-655,116	-39,546	0,115	0,043
-654,101	800,000	-0,070	0,201
-653,086	141,260	0,088	0,085
-652,072	-200,000	-0,003	0,101
-651,057	800,000	-0,078	0,166
-650,043	-51,358	0,015	-0,005
-649,028	-200,000	-0,037	0,135
-648,014	83,974	-0,063	-0,050
-646,999	4,712	0,058	-0,031
-645,984	-200,000	0,006	-0,022
-644,970	646,551	0,038	0,071
-643,955	-70,608	-0,099	0,027
-642,941	724,647	-0,008	0,016
-641,926	-200,000	0,020	-0,129
-640,911	-27,432	0,120	-0,050
-639,897	-200,000	-0,019	0,081
-638,882	-92,697	-0,075	-0,015
-637,868	-200,000	0,011	-0,039
-636,853	-110,414	0,111	-0,016
-635,838	72,784	-0,012	-0,009
-634,824	59,004	-0,096	-0,069
-633,809	-200,000	0,005	0,090
-632,795	-163,347	0,107	0,004
-631,780	325,816	0,041	-0,057
-630,765	800,000	-0,042	-0,113
-629,751	159,011	0,076	0,076
-628,736	-200,000	-0,005	-0,073
-627,722	22,866	0,029	-0,017
-626,707	-200,000	-0,037	0,140
-625,692	-200,000	0,010	0,072
-624,678	-200,000	0,006	0,089
-623,663	110,444	-0,103	0,089
-622,649	-200,000	0,010	-0,046
-621,634	640,540	0,053	-0,098
-620,619	-146,517	-0,098	-0,006
-619,605	-115,691	0,087	0,012
-618,590	-116,187	0,034	-0,004
-617,576	13,358	-0,106	-0,059
-616,561	-101,318	0,074	0,013
-615,546	-200,000	-0,016	0,130
-614,532	-84,512	-0,116	-0,026
-613,517	648,905	0,026	-0,049
-612,503	12,430	0,028	0,016
-611,488	-200,000	-0,022	0,077
-610,474	363,588	0,077	0,113
-609,459	800,000	-0,023	-0,070
-608,444	-0,697	-0,127	-0,065
-607,430	-39,683	0,158	0,060
-606,415	-200,000	-0,005	-0,053
-605,401	-122,791	0,154	0,018
-604,386	13,969	-0,064	0,036
-603,371	213,214	0,037	0,042
-602,357	45,606	-0,095	-0,063
-601,342	-4,529	-0,025	0,013
-600,328	724,081	-0,042	0,081
-599,313	56,610	-0,037	-0,026
-598,298	68,460	0,023	0,017
-597,284	435,651	0,058	-0,091
-596,269	-121,993	0,241	-0,028
-595,255	352,124	-0,086	0,124
-594,240	270,904	0,048	-0,061
-593,225	800,000	-0,014	-0,036
-592,211	-73,837	-0,122	0,032
-591,196	214,071	-0,072	-0,082
-590,182	-200,000	-0,010	0,079
-589,167	800,000	0,058	-0,122
-588,152	109,169	0,052	0,045
-587,138	-77,898	0,082	0,020
-586,123	161,925	-0,047	0,048
-585,109	171,999	-0,167	-0,174
-584,094	800,000	0,039	-0,081
-583,079	-200,000	-0,021	-0,124
-582,065	800,000	0,020	0,062
-581,050	121,891	-0,079	0,071
-580,036	185,696	-0,081	0,088
-579,021	240,541	0,060	-0,072
-578,006	-99,211	-0,121	-0,022
-576,992	-172,990	0,080	0,002
-575,977	50,391	0,090	-0,062
-574,963	-200,000	-0,000	0,011
-573,948	187,052	0,024	0,025
-572,934	89,219	0,074	-0,060
-571,919	-200,000	-0,021	-0,187
-570,904	-89,363	0,024	-0,005
-569,890	800,000	-0,032	0,076
-568,875	800,000	-0,036	-0,104
-567,861	-200,000	-0,007	0,115
-566,846	800,000	0,037	0,077
-565,831	-200,000	0,004	-0,056
-564,817	41,199	0,093	-0,061
-563,802	-56,878	-0,014	-0,005
-562,788	34,758	0,112	-0,071
-561,773	25,332	0,076	0,046
-560,758	-133,311	-0,021	-0,002
-559,744	193,334	-0,060	0,065
-558,729	-132,294	-0,092	0,008
-557,715	176,771	-0,075	0,079
-556,700	-65,448	0,047	-0,013
-555,685	285,050	0,061	0,080
-554,671	252,067	0,099	-0,122
-553,656	-70,104	0,008	-0,002
-552,642	-200,000	-0,033	0,138
-551,627	135,050	-0,131	0,123
-550,612	-200,000	0,002	0,071
-549,598	800,000	-0,010	-0,028
-548,583	-200,000	-0,010	-0,096
-547,569	682,097	-0,027	-0,050
-546,554	281,646	-0,060	0,078
-545,539	800,000	0,037	0,091
-544,525	-200,000	0,001	0,022
-543,510	169,961	-0,023	0,023
-542,496	-200,000	0,005	0,029
-541,481	-192,554	-0,073	-0,000
-540,466	-85,606	0,056	-0,012
-539,452	406,832	0,059	-0,090
-538,437	-55,095	-0,048	0,015
-537,423	114,458	0,042	0,037
-536,408	-200,000	-0,008	-0,129
-535,393	168,101	-0,156	-0,161
-534,379	-147,336	0,061	-0,004
-533,364	2,001	-0,090	-0,047
-532,350	-10,033	-0,102	-0,049
-531,335	-200,000	0,015	0,106
-530,321	800,000	0,010	-0,023
-529,306	-200,000	0,008	0,107
-528,291	104,154	-0,077	0,065
-527,277	-53,873	0,109	-0,036
-526,262	-200,000	-0,007	-0,075
-525,248	-43,568	0,039	0,014
-524,233	800,000	-0,045	-0,096
-523,218	-0,755	-0,062	-0,032
-522,204	162,034	-0,018	0,019
-521,189	800,000	-0,039	-0,104
-520,175	-200,000	0,024	-0,123
-519,160	-56,477	0,107	-0,034
-518,145	196,913	0,054	0,059
-517,131	-106,560	-0,059	0,009
-516,116	-200,000	0,001	0,133
-515,102	35,354	0,071	0,045
-514,087	800,000	-0,068	-0,138
-513,072	-130,543	-0,168	0,016
-512,058	-200,000	0,033	-0,223
-511,043	-200,000	0,003	-0,042
-510,029	42,354	0,135	-0,088
-509,014	130,365	-0,134	-0,124
-507,999	-200,000	0,010	-0,036
-506,985	-200,000	0,031	-0,108
-505,970	6,767	-0,095	-0,051
-504,956	800,000	-0,016	-0,044
-503,941	-70,142	0,103	0,028
-502,926	-92,796	-0,105	0,021
-501,912	308,507	-0,026	-0,035
-500,897	-149,563	0,020	-0,001
-499,883	-65,670	0,085	-0,024
-498,868	639,774	-0,051	-0,094
-497,853	-119,376	-0,079	0,010
-496,839	-200,000	0,001	-0,028
-495,824	-78,930	-0,095	-0,023
-494,810	-38,214	0,158	-0,060
-493,795	-200,000	-0,001	0,042
-492,781	-117,030	0,036	0,005
-491,766	800,000	0,010	-0,028
-490,751	69,573	-0,032	-0,024
-489,737	-200,000	0,005	-0,035
-488,722	142,339	0,044	0,043
-487,708	-1,414	0,023	-0,012
-486,693	88,713	0,114	0,091
-485,678	90,581	0,047	0,038
-484,664	-12,085	0,156	-0,073
-483,649	-82,521	-0,158	-0,037
-482,635	-200,000	-0,014	0,121
-481,620	716,487	0,064	0,124
-480,605	156,590	-0,070	0,069
-479,591	359,603	-0,079	-0,115
-478,576	159,758	-0,080	-0,080
-477,562	-8,556	-0,131	-0,063
-476,547	-200,000	-0,051	-0,175
-475,532	142,301	-0,028	-0,027
-474,518	171,452	-0,053	0,055
-473,503	192,338	0,116	0,126
-472,489	132,837	-0,076	-0,070
-471,474	-157,422	0,205	-0,009
-470,459	-165,911	-0,031	0,001
-469,445	800,000	0,065	-0,134
-468,430	95,373	0,108	0,089
-467,416	-134,496	0,043	0,004
-466,401	-48,736	-0,110	-0,038
-465,386	275,156	-0,056	-0,072
-464,372	51,424	0,112	0,077
-463,357	65,502	-0,084	-0,061
-462,343	800,000	0,030	-0,082
-461,328	800,000	-0,003	-0,010
-460,313	-200,000	0,011	-0,082
-459,299	-69,854	0,093	0,025
-458,284	241,325	0,076	0,092
-457,270	83,104	0,071	0,055
-456,255	38,839	0,066	0,042
-455,241	-93,136	-0,129	-0,026
-454,226	-139,644	-0,111	-0,008
-453,211	-39,812	0,079	0,030
-452,197	800,000	-0,043	-0,094
-451,182	-200,000	0,011	0,043
-450,168	-200,000	0,001	-0,003
-449,153	24,319	0,086	0,051
-448,138	-32,772	-0,083	-0,033
-447,124	11,888	-0,048	0,026
-446,109	-63,509	0,175	0,051
-445,095	169,920	0,035	0,036
-444,080	42,513	-0,143	0,093
-443,065	152,237	0,078	-0,077
-442,051	-6,073	0,110	-0,054
-441,036	-200,000	0,012	-0,123
-440,022	187,842	0,083	-0,090
-439,007	-125,060	-0,199	0,022
-437,992	260,415	0,072	-0,089
-436,978	-67,414	-0,165	-0,046
-435,963	-200,000	0,036	0,145
-434,949	52,521	0,078	0,054
-433,934	-200,000	0,024	-0,164
-432,919	131,287	0,043	0,040
-431,905	-200,000	-0,001	0,048
-430,890	-200,000	0,010	-0,054
-429,876	-23,590	0,093	0,040
-428,861	-200,000	-0,003	0,101
-427,846	116,463	0,007	-0,006
-426,832	-41,226	-0,076	-0,028
-425,817	800,000	-0,088	-0,183
-424,803	22,675	0,056	0,033
-423,788	-200,000	-0,012	-0,086
-422,773	51,961	0,084	-0,057
-421,759	800,000	-0,013	-0,029
-420,744	-200,000	0,018	0,095
-419,730	143,477	-0,073	0,070
-418,715	-200,000	0,008	0,057
-417,701	800,000	-0,031	0,093
-416,686	-12,221	0,055	0,026
-415,671	8,865	0,080	-0,043
-414,657	590,800	-0,058	0,103
-413,642	-22,021	0,018	0,008
-412,628	-200,000	-0,010	0,101
-411,613	-5,065	-0,028	-0,014
-410,598	-149,859	0,034	0,002
-409,584	13,835	0,047	0,026
-408,569	800,000	0,023	-0,048
-407,555	-118,847	0,171	0,021
-406,540	-35,902	-0,080	0,031
-405,525	266,191	-0,022	0,027
-404,511	800,000	-0,031	-0,091
-403,496	-38,710	-0,040	0,015
-402,482	800,000	-0,057	0,143
-401,467	760,647	-0,004	-0,009
-400,452	-49,094	0,046	-0,016
-399,438	-200,000	0,030	0,101
-398,423	224,217	-0,081	0,094
-397,409	304,402	0,036	0,048
-396,394	11,133	0,109	-0,060
-395,379	143,682	-0,068	0,065
-394,365	-200,000	-0,006	0,240
-393,350	-200,000	-0,001	0,101
-392,336	219,501	-0,044	-0,051
-391,321	-12,371	-0,109	-0,051
-390,306	800,000	-0,043	0,104
-389,292	48,654	0,029	0,019
-388,277	329,305	0,006	-0,008
-387,263	-6,263	0,046	0,023
-386,248	496,551	0,047	0,078
-385,233	-200,000	0,015	0,100
-384,219	800,000	0,041	-0,102
-383,204	800,000	-0,043	-0,114
-382,190	127,661	0,023	0,021
-381,175	78,928	-0,076	-0,058
-380,160	-75,290	0,072	0,018
-379,146	-144,337	0,139	0,009
-378,131	17,205	-0,095	0,054
-377,117	-15,789	-0,148	0,067
-376,102	800,000	0,011	0,027
-375,088	800,000	-0,048	-0,098
-374,073	-200,000	0,023	-0,092
-373,058	-200,000	-0,036	0,149
-372,044	-200,000	0,007	0,137
-371,029	-200,000	-0,005	0,075
-370,015	-41,157	0,174	0,064
-369,000	0,855	0,104	-0,054
-367,985	759,802	0,032	-0,062
-366,971	800,000	-0,036	0,095
-365,956	-72,245	0,029	0,008
-364,942	109,844	0,158	0,136
-363,927	215,922	-0,076	0,087
-362,912	-200,000	-0,004	0,047
-361,898	181,675	-0,061	0,065
-360,883	800,000	-0,020	0,048
-359,869	800,000	-0,010	-0,024
-358,854	800,000	-0,044	0,094
-357,839	25,805	0,103	0,061
-356,825	800,000	0,029	-0,065
-355,810	774,141	-0,048	-0,094
-354,796	14,209	-0,175	-0,098
-353,781	-107,031	-0,052	-0,008
-352,766	56,751	-0,120	-0,084
-351,752	-103,008	0,112	-0,019
-350,737	565,440	-0,039	-0,069
-349,723	-200,000	-0,013	0,170
-348,708	89,500	0,009	0,007
-347,693	-200,000	-0,029	0,157
-346,679	210,664	0,076	-0,086
-345,664	783,330	-0,049	-0,097
-344,650	-135,543	-0,069	0,006
-343,635	-200,000	-0,001	0,067
-342,620	512,748	-0,046	0,077
-341,606	205,976	0,097	-0,108
-340,591	-186,226	0,081	0,001
-339,577	-200,000	-0,037	-0,182
-338,562	23,331	0,021	-0,012
-337,548	233,995	0,047	0,056
-336,533	-200,000	0,002	-0,008
-335,518	264,420	0,142	0,178
-334,504	123,523	0,081	0,072
-333,489	6,272	0,039	0,021
-332,475	-38,658	-0,057	0,022
-331,460	41,317	-0,194	-0,125
-330,445	426,553	0,006	0,009
-329,431	-200,000	-0,010	-0,149
-328,416	524,447	-0,073	0,124
-327,402	260,838	0,022	0,027
-326,387	-200,000	-0,001	-0,126
-325,372	-200,000	-0,013	-0,113
-324,358	396,037	-0,062	-0,094
-323,343	-200,000	-0,031	-0,167
-322,329	-13,421	0,244	-0,113
-321,314	-15,411	0,063	-0,029
-320,299	-112,973	-0,070	-0,010
-319,285	-58,481	0,155	0,048
-318,270	366,531	0,018	-0,026
-317,256	202,894	0,023	0,025
-316,241	313,750	-0,043	-0,058
-315,226	-15,688	0,103	0,047
-314,212	-101,089	-0,041	-0,007
-313,197	-19,286	0,024	0,010
-312,183	-200,000	0,018	-0,134
-311,168	100,125	0,070	-0,058
-310,153	151,338	0,026	-0,025
-309,139	54,766	-0,070	0,048
-308,124	800,000	-0,090	-0,197
-307,110	-200,000	0,024	0,157
-306,095	800,000	0,055	0,133
-305,080	-200,000	0,010	-0,036
-304,066	-200,000	-0,034	-0,127
-303,051	-200,000	-0,014	-0,081
-302,037	800,000	-0,008	-0,023
-301,022	-3,569	-0,108	-0,053
-300,008	-200,000	0,025	0,141
-298,993	298,022	0,073	0,096
-297,978	14,888	-0,083	0,047
-296,964	-60,999	-0,063	0,019
-295,949	88,271	-0,076	-0,061
-294,935	-44,559	0,071	-0,025
-293,920	462,352	0,028	0,044
-292,905	76,603	0,044	0,034
-291,891	536,795	-0,019	0,032
-290,876	768,066	-0,034	0,066
-289,862	353,926	-0,099	0,141
-288,847	675,399	0,047	-0,088
-287,832	800,000	0,033	-0,085
-286,818	-0,386	-0,019	0,010
-285,803	-155,745	0,092	-0,004
-284,789	-200,000	0,043	0,201
-283,774	346,503	-0,042	0,060
-282,759	-200,000	0,046	-0,153
-281,745	-86,525	-0,052	0,011
-280,730	95,694	-0,114	-0,093
-279,716	-71,955	0,055	-0,014
-278,701	800,000	0,015	0,040
-277,686	32,985	-0,045	0,028
-276,672	-18,467	0,073	0,033
-275,657	15,796	-0,053	0,030
-274,643	128,068	0,021	-0,019
-273,628	-31,592	-0,048	-0,019
-272,613	-200,000	-0,019	0,162
-271,599	-47,944	0,181	0,062
-270,584	146,679	-0,045	-0,043
-269,570	36,149	0,059	0,037
-268,555	243,400	-0,081	0,097
-267,540	-200,000	-0,023	0,091
-266,526	-194,926	-0,118	-0,001
-265,511	-83,222	0,100	0,023
-264,497	188,571	0,033	-0,035
-263,482	-200,000	-0,008	-0,086
-262,467	800,000	-0,036	0,104
-261,453	-200,000	-0,025	-0,084
-260,438	-61,317	-0,040	0,012
-259,424	800,000	-0,047	-0,108
-258,409	-149,484	-0,066	0,004
-257,395	-104,538	0,159	-0,026
-256,380	310,263	0,063	-0,084
-255,365	-137,011	-0,008	0,001
-254,351	-111,025	-0,032	-0,005
-253,336	-200,000	-0,006	0,085
-252,322	-200,000	-0,006	-0,044
-251,307	201,492	-0,107	-0,117
-250,292	-47,350	0,056	0,019
-249,278	62,585	0,067	0,048
-248,263	104,464	0,152	0,128
-247,249	-200,000	-0,005	0,079
-246,234	301,319	-0,023	-0,030
-245,219	-75,258	0,028	0,007
-244,205	776,053	0,084	-0,165
-243,190	-188,504	-0,080	-0,001
-242,176	800,000	-0,022	0,045
-241,161	-77,060	0,155	0,038
-240,146	7,821	0,089	0,048
-239,132	-200,000	0,009	-0,172
-238,117	800,000	0,101	-0,228
-237,103	-144,931	-0,036	0,002
-236,088	-55,365	0,092	-0,029
-235,073	533,264	-0,014	0,024
-234,059	-25,568	-0,035	-0,015
-233,044	-3,368	-0,037	0,018
-232,030	170,367	0,086	0,088
-231,015	-200,000	-0,000	-0,019
-230,000	-56,033	0,054	0,017
-228,986	-175,183	0,226	-0,004
-227,971	-75,996	-0,044	0,011
-226,957	800,000	0,059	0,117
-225,942	21,841	-0,040	0,023
-224,927	-200,000	-0,000	0,080
-223,913	-200,000	-0,012	-0,047
-222,898	-65,334	-0,076	-0,022
-221,884	-200,000	-0,016	-0,117
-220,869	-153,985	0,137	-0,007
-219,855	-200,000	0,006	-0,129
-218,840	47,170	-0,038	0,025
-217,825	800,000	-0,032	0,075
-216,811	34,312	-0,087	-0,054
-215,796	469,720	-0,115	-0,185
-214,782	121,414	-0,022	0,020
-213,767	-200,000	0,005	0,288
-212,752	-86,100	-0,017	-0,004
-211,738	-67,369	-0,106	-0,030
-210,723	214,134	0,090	0,102
-209,709	-40,415	-0,097	-0,036
-208,694	11,188	-0,056	0,031
-207,679	-21,017	-0,039	-0,017
-206,665	306,205	0,050	0,067
-205,650	177,693	0,085	0,089
-204,636	441,553	0,054	-0,084
-203,621	138,572	-0,040	0,038
-202,606	-200,000	0,012	-0,160
-201,592	800,000	-0,049	-0,113
-200,577	237,887	0,087	-0,103
-199,563	-51,991	-0,102	-0,033
-198,548	-98,915	0,084	0,015
-197,533	800,000	0,027	0,085
-196,519	-200,000	-0,022	-0,112
-195,504	-185,181	0,068	-0,001
-194,490	131,538	-0,044	0,040
-193,475	-148,592	-0,076	0,004
-192,460	82,064	0,064	0,049
-191,446	-200,000	0,015	0,068
-190,431	-200,000	0,009	0,041
-189,417	-31,019	-0,159	0,064
-188,402	-61,148	-0,027	-0,008
-187,387	41,721	0,029	0,018
-186,373	103,812	-0,045	-0,038
-185,358	800,000	0,007	0,018
-184,344	-200,000	-0,032	0,111
-183,329	-200,000	-0,008	0,099
-182,315	706,322	0,002	-0,004
-181,300	800,000	-0,005	0,010
-180,285	61,867	0,028	0,020
-179,271	12,299	-0,150	0,082
-178,256	-92,710	-0,178	-0,035
-177,242	39,132	-0,130	0,083
-176,227	-131,167	0,094	-0,009
-175,212	476,309	0,072	0,116
-174,198	19,028	0,030	0,017
-173,183	321,638	-0,014	0,020
-172,169	321,370	-0,038	-0,051
-171,154	767,742	-0,035	-0,067
-170,139	95,042	-0,059	-0,047
-169,125	515,058	-0,054	0,090
-168,110	241,246	0,111	0,132
-167,096	-143,293	-0,222	0,015
-166,081	-62,784	-0,098	0,029
-165,066	100,708	-0,063	-0,052
-164,052	53,981	-0,089	-0,061
-163,037	70,227	0,079	0,058
-162,023	77,001	0,062	0,047
-161,008	162,441	-0,028	-0,028
-159,993	800,000	-0,007	-0,015
-158,979	-200,000	0,000	0,060
-157,964	-104,458	0,076	-0,012
-156,950	-14,018	-0,109	0,050
-155,935	255,769	-0,053	0,064
-154,920	-200,000	0,033	-0,126
-153,906	201,796	0,051	-0,056
-152,891	48,995	-0,026	-0,017
-151,877	-200,000	-0,012	0,127
-150,862	238,247	-0,091	0,108
-149,847	-200,000	-0,013	0,073
-148,833	-24,610	-0,048	-0,020
-147,818	-37,039	-0,153	0,058
-146,804	251,317	-0,080	-0,097
-145,789	-200,000	0,008	0,232
-144,775	800,000	0,027	0,073
-143,760	-93,657	0,072	0,014
-142,745	-108,593	0,073	-0,011
-141,731	800,000	-0,017	0,042
-140,716	331,307	0,061	0,084
-139,702	28,190	0,088	-0,053
-138,687	-115,942	-0,162	-0,021
-137,672	800,000	0,080	-0,167
-136,658	-200,000	-0,017	-0,110
-135,643	14,130	-0,053	0,029
-134,629	-68,822	0,042	-0,012
-133,614	-109,956	0,042	0,006
-132,599	290,151	0,064	0,083
-131,585	-200,000	-0,020	-0,085
-130,570	443,674	0,056	0,088
-129,556	-200,000	-0,006	-0,066
-128,541	-194,080	-0,156	0,001
-127,526	-126,357	0,037	0,004
-126,512	800,000	-0,018	-0,047
-125,497	-45,832	0,047	0,016
-124,483	234,967	-0,032	-0,038
-123,468	-200,000	0,004	0,136
-122,453	100,352	0,037	-0,030
-121,439	-200,000	-0,010	-0,061
-120,424	178,673	0,040	0,042
-119,410	-121,501	0,037	-0,004
-118,395	800,000	-0,039	-0,092
-117,380	154,932	0,167	0,163
-116,366	-71,616	-0,135	0,035
-115,351	-10,819	0,108	-0,050
-114,337	687,859	0,031	-0,058
-113,322	-200,000	-0,011	-0,066
-112,307	-139,060	0,101	0,008
-111,293	122,126	-0,074	0,066
-110,278	-48,162	0,151	-0,052
-109,264	244,021	-0,111	0,132
-108,249	-200,000	-0,007	-0,052
-107,234	370,005	-0,040	0,057
-106,220	79,155	-0,109	-0,082
-105,205	-124,409	0,117	-0,013
-104,191	-102,080	0,103	0,018
-103,176	78,029	0,095	0,072
-102,162	-62,434	-0,047	0,014
-101,147	-88,365	-0,022	-0,005
-100,132	-200,000	0,001	-0,031
-99,118	334,763	0,065	-0,089
-98,103	97,789	0,101	0,082
-97,089	201,246	0,041	0,044
-96,074	-52,402	-0,109	-0,036
-95,059	405,981	0,028	0,042
-94,045	800,000	-0,037	-0,117
-93,030	69,535	-0,055	-0,040
-92,016	-200,000	0,005	-0,229
-91,001	800,000	0,016	0,046
-89,986	729,057	-0,049	0,094
-88,972	-200,000	-0,031	0,151
-87,957	-101,368	-0,045	-0,008
-86,943	-200,000	-0,000	0,002
-85,928	47,144	-0,018	0,012
-84,913	3,586	-0,180	-0,093
-83,899	192,552	0,068	0,073
-82,884	-130,274	0,074	-0,007
-81,870	-48,567	-0,096	0,032
-80,855	-84,022	0,061	-0,014
-79,840	71,954	-0,089	0,065
-78,826	-144,159	0,024	-0,002
-77,811	-200,000	-0,034	-0,201
-76,797	-200,000	0,023	0,104
-75,782	554,762	0,019	-0,033
-74,767	206,893	-0,079	0,088
-73,753	800,000	-0,013	0,033
-72,738	-200,000	-0,000	-0,067
-71,724	49,119	-0,102	0,068
-70,709	-200,000	0,027	-0,091
-69,694	-200,000	-0,003	-0,068
-68,680	43,898	0,044	-0,028
-67,665	-20,488	-0,089	0,039
-66,651	76,799	0,060	0,045
-65,636	-148,667	-0,099	-0,006
-64,622	-92,639	-0,246	-0,048
-63,607	-6,169	0,090	0,043
-62,592	419,287	0,077	-0,117
-61,578	-200,000	0,018	0,069
-60,563	38,395	0,100	-0,063
-59,549	261,070	-0,063	0,077
-58,534	-39,732	-1,577	-0,581
-57,519	364,551	-1,472	-2,105
-56,505	-200,000	-0,452	-4,511
-55,490	195,652	1,045	1,127
-54,476	800,000	4,877	11,395
-53,461	-200,000	19,029	313,983
-52,446	-200,000	740,058	2327,771
-51,432	574,549	1655,819	2873,601
-50,417	78,836	1671,063	1265,359
-49,403	21,740	1543,687	888,196
-48,388	15,625	1466,114	813,830
-47,373	17,915	1456,155	819,337
-46,359	16,834	1446,207	808,519
-45,344	13,871	1441,733	791,788
-44,330	13,806	1439,632	790,293
-43,315	13,842	1437,827	789,444
-42,300	13,834	1436,217	788,492
-41,286	13,879	1435,057	788,035
-40,271	13,826	1433,774	787,045
-39,257	13,808	1432,480	786,220
-38,242	13,891	1431,241	785,907
-37,227	13,839	1429,929	784,907
-36,213	13,850	1428,643	784,222
-35,198	13,823	1427,624	783,502
-34,184	13,863	1426,623	783,109
-33,169	13,803	1425,250	782,043
-32,154	13,887	1424,309	781,895
-31,140	13,860	1422,777	780,895
-30,125	13,882	1421,856	780,460
-29,111	13,911	1420,483	779,812
-28,096	13,857	1419,609	779,047
-27,082	13,807	1418,333	778,082
-26,067	13,776	1417,456	777,423
-25,052	13,802	1416,305	776,881
-24,038	13,782	1415,291	776,203
-23,023	13,785	1414,268	775,626
-22,009	13,731	1413,346	774,831
-20,994	13,747	1412,429	774,376
-19,979	13,747	1411,622	773,903
-18,965	13,705	1410,492	773,057
-17,950	13,710	1409,790	772,663
-16,936	13,709	1408,649	772,004
-15,921	13,696	1407,701	771,390
-14,906	13,682	1406,696	770,746
-13,892	13,730	1405,920	770,511
-12,877	13,676	1405,044	769,748
-11,863	13,687	1403,901	769,143
-10,848	13,656	1403,197	768,583
-9,833	13,667	1402,324	768,125
-8,819	13,597	1401,585	767,364
-7,804	13,611	1400,627	766,877
-6,790	13,617	1399,318	766,154
-5,775	13,560	1398,325	765,315
-4,760	13,555	1397,496	764,808
-3,746	13,628	1396,551	764,601
-2,731	13,590	1395,789	763,975
-1,717	13,579	1394,821	763,367
-0,702	13,618	1393,000	762,522
0,313	17,246	1310,629	734,311
1,327	33,267	705,076	432,147
2,342	50,775	123,673	82,770
3,356	3,292	16,626	8,539
4,371	0,804	3,158	1,595
5,386	-33,759	0,456	0,177
6,400	269,965	0,071	0,089
7,415	159,073	-0,150	-0,148
8,429	-44,438	-0,354	-0,125
9,444	83,649	-0,273	-0,211
10,459	-54,096	-0,349	-0,112
11,473	-26,415	-0,390	-0,161
12,488	-137,175	-0,309	-0,025
13,502	109,445	-0,360	-0,305
14,517	63,219	-0,313	-0,222
15,531	62,431	-0,300	-0,212
16,546	240,623	-0,283	-0,334
17,561	39,418	-0,432	-0,273
18,575	-56,403	-0,445	-0,139
19,590	83,770	-0,324	-0,250
20,604	-90,793	-0,314	-0,063
21,619	271,438	-0,281	-0,351
22,634	116,995	-0,438	-0,380
23,648	99,679	-0,398	-0,326
24,663	38,672	-0,442	-0,278
25,677	148,179	-0,307	-0,292
26,692	94,654	-0,313	-0,251
27,707	214,410	-0,379	-0,425
28,721	192,268	-0,358	-0,382
29,736	-5,022	-0,432	-0,209
30,750	104,794	-0,459	-0,382
31,765	49,669	-0,372	-0,247
32,780	120,425	-0,325	-0,285
33,794	283,202	-0,317	-0,403
34,809	45,544	-0,365	-0,237
35,823	13,570	-0,360	-0,197
36,838	161,975	-0,254	-0,251
37,853	141,253	-0,463	-0,433
38,867	368,425	-0,194	-0,277
39,882	69,603	-0,300	-0,217
40,896	80,133	-0,308	-0,234
41,911	306,478	-0,188	-0,248
42,926	125,552	-0,331	-0,295
43,940	377,118	-0,241	-0,349
44,955	-24,534	-0,461	-0,193
45,969	59,360	-0,232	-0,161
46,984	217,577	-0,228	-0,257
47,999	27,112	-0,334	-0,197
49,013	83,895	-0,287	-0,221
50,028	129,659	-0,266	-0,240
51,042	62,528	-0,402	-0,283
52,057	46,080	-0,295	-0,192
53,071	-9,656	-0,393	-0,184
54,086	106,394	-0,307	-0,256
55,101	-63,752	-0,376	-0,108
56,115	-30,184	-0,410	-0,163
57,130	26,453	-0,320	-0,188
58,144	135,002	-0,309	-0,283
59,159	28,471	-0,403	-0,239
60,174	40,954	-0,408	-0,259
61,188	176,314	-0,315	-0,322
62,203	8,169	-0,234	-0,123
63,217	1,338	-0,228	-0,115
64,232	69,709	-0,349	-0,253
65,247	42,802	-0,359	-0,230
66,261	92,869	-0,259	-0,206
67,276	313,925	-0,197	-0,261
68,290	-12,257	-0,424	-0,195
69,305	155,400	-0,333	-0,323
70,320	140,090	-0,279	-0,259
71,334	16,015	-0,322	-0,178
72,349	109,664	-0,287	-0,242
73,363	73,579	-0,353	-0,260
74,378	34,156	-0,369	-0,226
75,393	44,378	-0,326	-0,210
76,407	27,727	-0,362	-0,214
77,422	-24,801	-0,174	-0,072
78,436	-5,937	-0,339	-0,163
79,451	178,860	-0,292	-0,300
80,466	125,050	-0,351	-0,311
81,480	75,509	-0,272	-0,201
82,495	173,574	-0,312	-0,317
83,509	73,911	-0,353	-0,260
84,524	85,164	-0,235	-0,181
85,539	-103,369	-0,204	-0,034
86,553	210,999	-0,223	-0,247
87,568	-12,905	-0,387	-0,176
88,582	168,970	-0,333	-0,334
89,597	8,458	-0,457	-0,241
90,611	10,273	-0,306	-0,163
91,626	298,551	-0,185	-0,240
92,641	77,869	-0,316	-0,237
93,655	-11,675	-0,330	-0,152
94,670	45,705	-0,233	-0,151
95,684	123,513	-0,267	-0,235
96,699	74,849	-0,271	-0,200
97,714	265,011	-0,271	-0,332
98,728	530,870	-0,162	-0,270
99,743	-88,940	-0,258	-0,053
100,757	-56,353	-0,269	-0,083
101,772	62,236	-0,279	-0,195
102,787	37,722	-0,343	-0,213
103,801	800,000	-0,125	-0,272
104,816	309,418	-0,205	-0,270
105,830	186,826	-0,175	-0,183
106,845	-97,829	-0,404	-0,073
107,860	-115,542	-0,218	-0,028
108,874	91,166	-0,325	-0,256
109,889	-95,499	-0,317	-0,059
110,903	108,987	-0,267	-0,224
111,918	-61,070	-0,323	-0,095
112,933	-27,715	-0,217	-0,088
113,947	44,957	-0,159	-0,103
114,962	28,173	-0,193	-0,114
115,976	42,050	-0,172	-0,109
116,991	259,452	-0,259	-0,314
118,006	390,055	-0,148	-0,216
119,020	-98,367	-0,283	-0,050
120,035	25,874	-0,165	-0,096
121,049	195,495	-0,212	-0,226
122,064	-15,963	-0,280	-0,124
123,079	-1,381	-0,241	-0,119
124,093	-0,176	-0,152	-0,076
125,108	10,901	-0,317	-0,169
126,122	83,322	-0,210	-0,160
127,137	48,124	-0,294	-0,192
128,151	81,281	-0,239	-0,181
129,166	21,044	-0,281	-0,159
130,181	94,844	-0,240	-0,191
131,195	484,614	-0,175	-0,280
132,210	131,319	-0,337	-0,303
133,224	46,001	-0,267	-0,172
134,239	623,527	-0,150	-0,266
135,254	326,766	-0,175	-0,235
136,268	238,404	-0,179	-0,208
137,283	153,309	-0,160	-0,153
138,297	199,874	-0,127	-0,137
139,312	235,259	-0,252	-0,292
140,327	348,321	-0,229	-0,317
141,341	506,428	-0,194	-0,316
142,356	398,148	-0,161	-0,237
143,370	-90,854	-0,221	-0,044
144,385	123,286	-0,214	-0,188
145,400	32,562	-0,221	-0,133
146,414	265,711	-0,193	-0,235
147,429	498,525	-0,148	-0,240
148,443	71,338	-0,324	-0,235
149,458	42,266	-0,242	-0,153
150,473	800,000	-0,130	-0,275
151,487	94,161	-0,249	-0,198
152,502	69,828	-0,207	-0,149
153,516	505,567	-0,211	-0,344
154,531	1,544	-0,276	-0,139
155,546	-13,864	-0,236	-0,106
156,560	-10,048	-0,233	-0,108
157,575	-57,616	-0,204	-0,062
158,589	168,654	-0,170	-0,169
159,604	89,223	-0,364	-0,283
160,619	800,000	-0,186	-0,386
161,633	192,493	-0,154	-0,162
162,648	173,223	-0,261	-0,263
163,662	288,128	-0,241	-0,305
164,677	-60,761	-0,156	-0,046
165,692	455,683	-0,166	-0,258
166,706	211,710	-0,178	-0,195
167,721	44,655	-0,259	-0,166
168,735	164,819	-0,214	-0,211
169,750	-43,265	-0,296	-0,104
170,764	101,415	-0,228	-0,185
171,779	165,475	-0,230	-0,226
172,794	186,802	-0,222	-0,231
173,808	-105,516	-0,210	-0,033
174,823	-17,097	-0,219	-0,096
175,837	30,748	-0,137	-0,082
176,852	-8,039	-0,309	-0,145
177,867	17,880	-0,196	-0,109
178,881	121,146	-0,111	-0,096
179,896	23,592	-0,197	-0,113
180,910	-33,794	-0,266	-0,102
181,925	289,695	-0,139	-0,176
182,940	31,914	-0,236	-0,141
183,954	6,545	-0,300	-0,155
184,969	-144,954	-0,090	-0,006
185,983	800,000	0,058	-0,168
186,998	800,000	-0,126	-0,247
188,013	115,319	-0,273	-0,232
189,027	243,224	-0,202	-0,237
190,042	322,907	-0,224	-0,298
191,056	215,819	-0,209	-0,231
192,071	97,119	-0,261	-0,208
193,086	98,955	-0,303	-0,243
194,100	-25,939	-0,128	-0,052
195,115	36,027	-0,181	-0,111
196,129	-110,739	-0,238	-0,034
197,144	277,553	-0,230	-0,286
198,159	192,507	-0,218	-0,229
199,173	253,478	-0,165	-0,196
200,188	85,717	-0,142	-0,109
201,202	-38,657	-0,182	-0,067
202,217	164,704	-0,172	-0,168
203,232	2,864	-0,122	-0,061
204,246	707,134	-0,107	-0,197
205,261	800,000	-0,083	-0,211
206,275	148,497	-0,128	-0,120
207,290	-53,650	-0,060	0,019
208,304	23,099	-0,167	-0,095
209,319	82,259	-0,177	-0,133
210,334	-37,515	-0,206	-0,076
211,348	195,061	-0,175	-0,185
212,363	13,936	-0,232	-0,125
213,377	-3,394	-0,134	-0,065
214,392	-80,513	-0,124	-0,029
215,407	-200,000	-0,061	-0,275
216,421	-29,928	-0,154	0,061
217,436	421,737	-0,185	-0,277
218,450	93,382	-0,266	-0,209
219,465	238,181	-0,162	-0,187
220,480	135,605	-0,189	-0,170
221,494	297,287	-0,102	-0,131
222,509	18,372	-0,135	-0,075
223,523	252,884	-0,171	-0,203
224,538	-69,810	-0,167	-0,044
225,553	-136,854	-0,175	-0,014
226,567	192,882	-0,149	-0,156
227,582	-126,999	-0,136	0,014
228,596	189,903	-0,158	-0,165
229,611	-200,000	0,011	-0,162
230,626	147,486	-0,164	-0,153
231,640	110,817	-0,184	-0,154
232,655	-172,573	-0,344	0,007
233,669	-97,957	-0,330	-0,058
234,684	105,622	-0,260	-0,213
235,699	410,226	-0,085	-0,126
236,713	-200,000	-0,012	-0,109
237,728	113,179	-0,119	-0,100
238,742	-19,795	-0,133	-0,057
239,757	800,000	-0,109	-0,216
240,772	-138,759	-0,204	0,015
241,786	-200,000	-0,023	-0,221
242,801	-28,845	-0,224	-0,089
243,815	63,574	-0,164	-0,114
244,830	77,543	-0,141	-0,104
245,844	-147,426	-0,296	-0,017
246,859	-47,576	-0,295	-0,099
247,874	396,465	-0,171	-0,248
248,888	-22,429	-0,267	-0,111
249,903	-2,962	-0,126	-0,061
250,917	800,000	-0,125	-0,311
251,932	427,409	-0,131	-0,196
252,947	160,767	-0,203	-0,196
253,961	800,000	-0,130	-0,301
254,976	9,608	-0,173	-0,091
255,990	41,665	-0,184	-0,115
257,005	-116,662	-0,037	0,005
258,020	800,000	-0,105	-0,214
259,034	-144,793	-0,193	-0,012
260,049	-150,647	-0,257	0,013
261,063	115,882	-0,075	-0,064
262,078	493,301	-0,118	-0,187
263,093	76,021	-0,195	-0,142
264,107	88,370	-0,139	-0,107
265,122	-7,411	-0,091	0,043
266,136	4,656	-0,167	-0,084
267,151	423,235	-0,086	-0,129
268,166	-140,072	-0,190	-0,014
269,180	68,569	-0,104	-0,073
270,195	11,839	-0,124	-0,066
271,209	-70,673	-0,199	-0,051
272,224	455,128	-0,094	-0,144
273,239	282,007	-0,166	-0,206
274,253	9,228	-0,126	0,066
275,268	92,793	-0,168	-0,131
276,282	85,440	-0,202	-0,153
277,297	800,000	-0,056	-0,126
278,312	-200,000	-0,012	-0,113
279,326	-29,609	-0,219	0,086
280,341	-1,020	-0,115	-0,056
281,355	-64,213	-0,128	0,036
282,370	-30,982	-0,174	0,067
283,384	-200,000	-0,029	-0,097
284,399	471,632	-0,190	-0,297
285,414	249,735	-0,107	-0,126
286,428	-200,000	-0,017	-0,089
287,443	67,721	-0,132	-0,093
288,457	39,356	-0,159	-0,098
289,472	402,405	-0,141	-0,205
290,487	-20,176	-0,208	-0,088
291,501	-4,572	-0,129	0,061
292,516	-59,933	-0,156	-0,046
293,530	245,836	-0,035	0,041
294,545	800,000	-0,076	-0,156
295,560	-83,749	-0,155	0,034
296,574	146,799	-0,112	-0,104
297,589	92,851	-0,162	-0,126
298,603	28,596	-0,211	-0,123
299,618	37,338	-0,192	-0,117
300,633	344,217	-0,143	-0,193
301,647	215,269	-0,077	-0,085
302,662	67,652	-0,205	-0,144
303,676	-200,000	-0,031	-0,131
304,691	128,363	-0,084	0,073
305,706	18,595	-0,209	-0,115
306,720	88,587	-0,153	-0,117
307,735	262,138	-0,101	-0,121
308,749	-10,784	-0,196	-0,089
309,764	800,000	-0,060	-0,174
310,779	209,248	-0,085	0,092
311,793	148,393	-0,257	-0,239
312,808	48,067	-0,142	-0,091
313,822	-200,000	-0,030	-0,171
314,837	800,000	-0,093	-0,190
315,852	349,437	0,090	-0,123
316,866	4,117	-0,093	-0,047
317,881	66,587	-0,165	-0,115
318,895	284,736	-0,207	-0,257
319,910	91,909	-0,160	-0,124
320,925	523,473	-0,129	-0,209
321,939	151,135	-0,096	-0,090
322,954	61,176	-0,085	0,058
323,968	112,777	-0,062	-0,052
324,983	-142,885	-0,076	-0,005
325,997	-69,777	-0,241	-0,063
327,012	-66,103	-0,098	0,027
328,027	475,881	-0,188	-0,294
329,041	86,199	-0,155	-0,117
330,056	-200,000	-0,006	-0,157
331,070	153,534	-0,097	-0,091
332,085	140,029	-0,123	-0,111
333,100	-48,976	-0,262	-0,086
334,114	-67,501	-0,185	-0,050
335,129	380,281	-0,163	-0,230
336,143	732,577	-0,053	-0,098
337,158	-200,000	-0,076	-0,317
338,173	212,918	-0,098	-0,107
339,187	351,679	-0,066	-0,090
340,202	-200,000	-0,010	0,121
341,216	380,857	-0,114	-0,161
342,231	532,818	-0,070	-0,114
343,246	35,330	-0,118	-0,071
344,260	51,133	-0,197	-0,128
345,275	90,384	-0,194	-0,149
346,289	-151,969	-0,184	-0,009
347,304	-65,316	-0,096	-0,026
348,319	33,785	-0,227	-0,135
349,333	83,490	-0,005	-0,004
350,348	-200,000	-0,070	-0,232
351,362	415,991	-0,116	-0,171
352,377	-123,738	-0,128	-0,014
353,392	775,068	-0,045	-0,086
354,406	540,335	-0,121	-0,198
355,421	209,191	1313,306	1413,476
356,435	160,991	1473,863	1413,967
