DTS Sentinel unit serial number:	SN410029Multiplexer serial number:	ORYXHardware model number:	OX2-SRSoftware version number:	ORYX F/W v4,00 Oryx Data Collector v3.7.2.0data status	okinstallation	B3 Nyhavnadifferential loss correction	single-endedforward channel	channel 1reverse channel	N/Adate	2023/11/29time	20:57:30forward acquisition time	300,00reverse acquisition time	0,00gamma	499,1914k internal	0,3210k external	0,3210temperature offset calibration	1,0000default loss term (dB/km)	0,3820temperature slope calibration	1,0000multiplexer offset coefficient	1,0000multiplexer slope coefficient	1,0000fibre end	0,00T internal ref (°C)	10,83T ext. ref 1 (°C)	-4,22T ext. ref 2 (°C)	-4,31length (m)	temperature (°C)	Stokes	anti-Stokes-744,400	11,090	-0,209	-0,116
-743,385	-200,000	0,032	0,339
-742,371	99,516	-0,034	-0,029
-741,356	-200,000	0,036	0,227
-740,342	231,278	-0,136	-0,161
-739,327	438,188	-0,101	0,160
-738,312	480,150	-0,199	-0,328
-737,298	-200,000	-0,034	0,318
-736,283	-33,074	-0,274	-0,110
-735,269	800,000	0,098	0,268
-734,254	54,089	-0,345	-0,240
-733,239	-200,000	-0,205	0,000
-732,225	800,000	-0,092	-0,212
-731,210	800,000	0,060	0,145
-730,196	-200,000	-0,020	-0,104
-729,181	-200,000	0,018	-0,094
-728,167	800,000	-0,034	-0,070
-727,152	800,000	-0,086	0,179
-726,137	-200,000	0,012	-0,101
-725,123	800,000	0,061	-0,184
-724,108	-52,686	-0,106	0,035
-723,094	112,965	-0,061	-0,053
-722,079	0,928	-0,029	-0,015
-721,064	420,143	0,032	-0,050
-720,050	-200,000	0,038	-0,143
-719,035	-200,000	-0,014	-0,057
-718,021	800,000	0,031	-0,094
-717,006	454,656	-0,092	-0,148
-715,991	800,000	-0,044	0,092
-714,977	-96,212	0,077	-0,015
-713,962	564,162	0,041	-0,073
-712,948	370,171	-0,042	-0,061
-711,933	-38,509	-0,098	-0,037
-710,918	-200,000	-0,008	0,073
-709,904	-116,184	-0,140	-0,019
-708,889	-8,968	-0,104	-0,050
-707,875	-7,618	0,049	-0,024
-706,860	-200,000	0,000	-0,006
-705,845	-200,000	-0,008	-0,026
-704,831	-200,000	0,015	-0,089
-703,816	-49,847	0,081	-0,028
-702,802	800,000	-0,046	0,098
-701,787	800,000	0,066	-0,138
-700,772	418,402	-0,088	-0,136
-699,758	-23,574	0,112	0,049
-698,743	-107,639	0,062	0,010
-697,729	-1,633	0,016	0,008
-696,714	-33,539	0,050	0,020
-695,699	-200,000	-0,009	-0,054
-694,685	-99,099	0,067	-0,012
-693,670	149,470	-0,147	-0,145
-692,656	-167,105	0,076	-0,002
-691,641	-99,155	0,033	0,006
-690,627	113,564	-0,064	0,057
-689,612	-200,000	-0,030	-0,216
-688,597	800,000	-0,054	-0,141
-687,583	-11,615	-0,055	-0,026
-686,568	162,721	0,099	-0,101
-685,554	-63,750	-0,165	-0,049
-684,539	-156,537	0,104	-0,005
-683,524	800,000	-0,036	-0,098
-682,510	-102,022	0,033	-0,006
-681,495	482,821	-0,073	-0,121
-680,481	67,737	0,054	-0,040
-679,466	-200,000	-0,049	-0,220
-678,451	262,413	0,086	-0,109
-677,437	182,043	-0,066	-0,071
-676,422	361,498	0,063	-0,091
-675,408	-165,642	-0,103	-0,003
-674,393	-200,000	-0,012	0,101
-673,378	379,979	-0,058	0,086
-672,364	-111,485	-0,107	-0,016
-671,349	800,000	-0,028	-0,083
-670,335	171,277	-0,044	-0,046
-669,320	146,930	0,041	-0,040
-668,305	-73,487	0,050	-0,013
-667,291	800,000	-0,033	-0,088
-666,276	800,000	-0,063	-0,189
-665,262	637,257	-0,056	-0,103
-664,247	-169,096	-0,194	-0,005
-663,232	-200,000	-0,014	0,100
-662,218	800,000	0,060	0,126
-661,203	800,000	0,033	0,091
-660,189	-28,657	0,067	0,028
-659,174	800,000	-0,013	0,039
-658,159	-178,541	-0,143	0,002
-657,145	146,999	-0,079	-0,077
-656,130	1,865	-0,166	0,086
-655,116	-200,000	0,030	0,118
-654,101	-21,697	-0,004	0,002
-653,086	-200,000	-0,015	0,152
-652,072	-200,000	-0,035	0,163
-651,057	-200,000	-0,003	-0,020
-650,043	-49,659	-0,105	0,036
-649,028	-184,044	-0,040	-0,000
-648,014	4,067	-0,036	-0,019
-646,999	-135,536	0,127	-0,011
-645,984	704,203	0,014	-0,027
-644,970	-29,289	-0,136	-0,056
-643,955	226,847	-0,101	-0,118
-642,941	490,286	-0,099	-0,164
-641,926	-200,000	0,005	-0,041
-640,911	-200,000	0,007	0,030
-639,897	-200,000	-0,027	-0,148
-638,882	548,947	-0,050	-0,088
-637,868	-71,589	0,080	-0,022
-636,853	180,472	-0,108	-0,115
-635,838	37,985	0,067	0,043
-634,824	800,000	0,045	0,097
-633,809	-200,000	-0,014	0,103
-632,795	35,930	0,082	-0,052
-631,780	115,301	0,094	-0,083
-630,765	277,008	0,050	-0,064
-629,751	-200,000	-0,017	-0,138
-628,736	313,686	-0,093	-0,127
-627,722	4,371	-0,067	-0,035
-626,707	-200,000	-0,004	0,065
-625,692	182,145	0,004	0,004
-624,678	800,000	-0,034	0,073
-623,663	54,686	0,080	0,055
-622,649	-5,546	-0,246	-0,121
-621,634	-141,156	0,137	-0,010
-620,619	-54,399	-0,151	0,049
-619,605	39,696	0,030	0,019
-618,590	-133,903	0,147	-0,013
-617,576	-51,543	0,067	-0,022
-616,561	-200,000	0,002	0,071
-615,546	117,722	-0,044	-0,039
-614,532	800,000	-0,040	0,082
-613,517	-65,488	-0,065	0,019
-612,503	-29,831	-0,062	-0,025
-611,488	-200,000	0,009	0,082
-610,474	223,194	-0,033	0,038
-609,459	-200,000	0,002	0,031
-608,444	474,280	-0,083	-0,136
-607,430	800,000	-0,057	-0,115
-606,415	-81,133	0,045	-0,011
-605,401	85,217	-0,051	0,041
-604,386	-200,000	0,033	0,113
-603,371	800,000	0,017	0,043
-602,357	-167,496	0,085	-0,002
-601,342	-200,000	0,009	0,078
-600,328	-56,998	0,160	0,051
-599,313	409,957	-0,085	0,131
-598,298	-200,000	0,004	0,019
-597,284	-200,000	-0,004	-0,016
-596,269	482,672	0,032	-0,053
-595,255	800,000	-0,012	-0,023
-594,240	-101,217	-0,134	-0,023
-593,225	-200,000	0,020	-0,092
-592,211	-200,000	0,007	-0,156
-591,196	-14,592	-0,073	-0,034
-590,182	-134,989	0,046	0,004
-589,167	-62,203	0,071	0,021
-588,152	88,535	0,105	-0,084
-587,138	-0,002	0,108	-0,055
-586,123	-99,101	0,090	-0,016
-585,109	-69,963	-0,146	0,040
-584,094	38,986	0,034	0,022
-583,079	-200,000	-0,026	0,148
-582,065	-119,282	0,040	0,005
-581,050	249,134	-0,029	-0,035
-580,036	-200,000	-0,009	-0,162
-579,021	800,000	-0,073	-0,159
-578,006	-100,625	-0,094	-0,017
-576,992	-20,729	0,072	0,032
-575,977	-200,000	0,026	0,084
-574,963	-200,000	0,033	0,109
-573,948	-165,011	0,066	-0,002
-572,934	446,911	0,037	-0,059
-571,919	47,485	-0,097	-0,065
-570,904	-200,000	-0,015	0,083
-569,890	800,000	-0,053	0,132
-568,875	296,332	-0,037	-0,049
-567,861	-2,308	-0,045	0,022
-566,846	800,000	0,043	0,098
-565,831	320,516	0,057	-0,078
-564,817	800,000	-0,015	-0,038
-563,802	62,605	0,033	0,024
-562,788	-200,000	-0,002	-0,022
-561,773	140,845	0,050	-0,048
-560,758	-51,916	0,162	0,054
-559,744	-51,335	0,049	0,016
-558,729	-98,194	-0,089	0,016
-557,715	360,571	-0,062	-0,090
-556,700	800,000	0,010	-0,024
-555,685	290,627	-0,089	-0,117
-554,671	800,000	0,012	0,035
-553,656	300,417	0,033	0,043
-552,642	198,732	0,013	0,014
-551,627	153,629	-0,055	0,054
-550,612	-200,000	-0,008	0,170
-549,598	-200,000	0,007	-0,038
-548,583	-18,335	0,066	-0,030
-547,569	-19,999	-0,107	0,047
-546,554	-51,324	-0,070	0,023
-545,539	267,277	-0,039	0,049
-544,525	680,591	0,044	0,083
-543,510	-200,000	-0,007	0,047
-542,496	286,082	-0,058	0,075
-541,481	7,517	0,078	-0,042
-540,466	800,000	0,074	-0,190
-539,452	800,000	-0,028	0,062
-538,437	-200,000	0,011	0,093
-537,423	-138,723	0,154	0,012
-536,408	-21,407	-0,123	-0,054
-535,393	195,404	0,084	0,092
-534,379	-200,000	-0,038	-0,169
-533,364	12,987	0,093	0,052
-532,350	800,000	0,034	0,095
-531,335	800,000	0,048	0,147
-530,321	179,717	0,038	-0,040
-529,306	33,883	0,096	0,060
-528,291	-200,000	-0,025	-0,153
-527,277	459,484	0,061	-0,097
-526,262	389,230	0,027	-0,041
-525,248	-82,599	0,128	0,030
-524,233	800,000	-0,051	0,111
-523,218	62,888	0,093	0,067
-522,204	170,479	0,061	-0,063
-521,189	-200,000	0,004	-0,123
-520,175	67,230	-0,082	0,060
-519,160	-33,956	0,173	-0,068
-518,145	-59,300	0,058	-0,018
-517,131	219,379	-0,022	0,025
-516,116	-98,437	0,050	-0,009
-515,102	-181,431	0,123	0,002
-514,087	6,842	-0,082	0,044
-513,072	107,032	-0,092	-0,079
-512,058	503,245	-0,015	0,025
-511,043	-89,201	0,132	0,028
-510,029	73,963	-0,061	-0,046
-509,014	91,987	0,061	0,049
-507,999	186,277	0,080	0,086
-506,985	-143,797	-0,033	0,002
-505,970	-112,190	-0,115	0,016
-504,956	-200,000	-0,038	-0,128
-503,941	-37,033	0,062	0,024
-502,926	800,000	0,019	0,043
-501,912	24,155	0,102	0,061
-500,897	-28,916	-0,082	0,034
-499,883	-200,000	-0,007	0,043
-498,868	-200,000	0,003	0,176
-497,853	103,512	0,054	-0,046
-496,839	-200,000	0,013	-0,045
-495,824	18,213	-0,088	0,050
-494,810	41,269	-0,086	0,055
-493,795	-200,000	0,016	-0,099
-492,781	131,298	0,088	0,082
-491,766	-107,941	0,099	0,015
-490,751	403,689	-0,090	-0,137
-489,737	-7,251	-0,075	0,036
-488,722	-109,530	0,118	0,018
-487,708	-139,414	-0,072	-0,005
-486,693	254,036	0,058	0,071
-485,678	-84,844	0,051	0,012
-484,664	42,470	-0,062	-0,041
-483,649	-200,000	0,028	-0,146
-482,635	800,000	0,047	-0,138
-481,620	347,295	0,065	0,092
-480,605	-1,256	-0,129	0,065
-479,591	394,494	0,040	0,060
-478,576	27,574	-0,089	-0,053
-477,562	-200,000	-0,004	0,045
-476,547	153,741	-0,101	0,099
-475,532	131,166	0,094	0,086
-474,518	-200,000	-0,011	0,045
-473,503	49,338	0,110	0,074
-472,489	-200,000	0,007	-0,045
-471,474	800,000	0,026	0,064
-470,459	-200,000	0,014	-0,150
-469,445	129,124	0,036	0,033
-468,430	140,900	-0,061	0,058
-467,416	559,832	-0,045	-0,078
-466,401	-161,403	0,118	0,004
-465,386	100,634	-0,084	0,070
-464,372	-136,930	-0,118	0,010
-463,357	20,980	0,093	-0,054
-462,343	-200,000	-0,010	-0,055
-461,328	62,870	0,045	0,032
-460,313	-109,395	0,194	-0,029
-459,299	800,000	-0,103	0,208
-458,284	-200,000	-0,021	-0,079
-457,270	498,106	0,044	-0,072
-456,255	-200,000	0,017	0,102
-455,241	257,349	0,119	0,147
-454,226	-200,000	-0,040	-0,133
-453,211	58,510	-0,157	-0,110
-452,197	-77,293	-0,107	-0,027
-451,182	-17,916	0,096	0,043
-450,168	800,000	-0,037	0,102
-449,153	197,693	-0,060	0,066
-448,138	800,000	-0,038	-0,085
-447,124	-200,000	-0,022	-0,096
-446,109	-200,000	-0,010	-0,038
-445,095	408,868	0,097	0,148
-444,080	-200,000	-0,001	0,147
-443,065	-51,089	-0,074	0,025
-442,051	-129,318	0,071	0,007
-441,036	-135,441	-0,080	0,007
-440,022	-77,696	-0,054	0,013
-439,007	343,078	-0,044	-0,062
-437,992	299,802	-0,029	0,038
-436,978	-200,000	-0,008	-0,077
-435,963	800,000	-0,035	0,104
-434,949	209,467	0,018	0,020
-433,934	-200,000	0,001	-0,025
-432,919	-176,058	-0,062	0,001
-431,905	106,450	-0,024	-0,021
-430,890	-115,518	-0,032	0,004
-429,876	-200,000	-0,014	0,046
-428,861	800,000	0,016	0,032
-427,846	-155,679	-0,071	0,003
-426,832	333,301	0,018	-0,025
-425,817	800,000	0,017	-0,042
-424,803	-200,000	0,000	-0,154
-423,788	377,091	0,052	-0,077
-422,773	216,955	0,051	-0,058
-421,759	-97,542	-0,069	0,013
-420,744	-200,000	0,011	-0,074
-419,730	-47,662	0,012	0,004
-418,715	-99,143	-0,109	-0,020
-417,701	-114,599	-0,088	-0,012
-416,686	-84,195	0,175	0,039
-415,671	-200,000	0,016	-0,083
-414,657	-200,000	-0,039	-0,171
-413,642	105,734	-0,121	0,102
-412,628	26,781	-0,031	-0,018
-411,613	30,295	-0,188	-0,115
-410,598	88,893	-0,096	-0,077
-409,584	-200,000	-0,015	0,053
-408,569	-200,000	0,013	0,054
-407,555	595,191	-0,053	-0,094
-406,540	425,709	0,037	0,058
-405,525	-200,000	-0,015	-0,127
-404,511	-200,000	0,024	-0,122
-403,496	800,000	0,066	0,162
-402,482	22,735	-0,080	-0,047
-401,467	764,842	0,032	-0,063
-400,452	-200,000	-0,003	0,009
-399,438	800,000	0,035	0,082
-398,423	-200,000	0,005	0,095
-397,409	40,753	-0,086	0,055
-396,394	45,900	-0,155	-0,103
-395,379	-25,106	-0,069	0,029
-394,365	-200,000	-0,007	0,036
-393,350	-100,853	0,098	-0,017
-392,336	113,426	0,096	0,083
-391,321	73,259	0,006	-0,005
-390,306	50,119	0,077	0,052
-389,292	800,000	-0,033	-0,100
-388,277	383,300	-0,071	0,105
-387,263	575,912	0,062	0,108
-386,248	-111,804	-0,120	0,017
-385,233	800,000	-0,090	0,198
-384,219	-131,735	0,180	0,017
-383,204	800,000	-0,042	-0,094
-382,190	-200,000	0,004	-0,095
-381,175	-159,774	-0,074	-0,003
-380,160	-98,738	0,143	0,026
-379,146	-56,280	0,095	0,030
-378,131	-30,713	0,045	-0,018
-377,117	-59,893	-0,197	0,060
-376,102	91,898	-0,016	-0,013
-375,088	-200,000	0,019	-0,064
-374,073	-6,404	0,123	-0,060
-373,058	-80,186	0,054	0,013
-372,044	59,913	0,123	0,087
-371,029	-72,701	-0,070	-0,018
-370,015	-120,684	-0,074	0,009
-369,000	304,694	-0,061	-0,081
-367,985	232,999	-0,091	-0,107
-366,971	-200,000	-0,029	0,177
-365,956	275,380	0,037	0,046
-364,942	-112,642	0,116	-0,016
-363,927	-152,243	0,020	0,001
-362,912	65,000	-0,046	0,033
-361,898	-60,201	-0,200	-0,061
-360,883	-58,594	0,095	0,029
-359,869	16,647	-0,111	-0,062
-358,854	-200,000	-0,016	0,056
-357,839	33,562	0,108	0,067
-356,825	-10,610	0,061	0,029
-355,810	-200,000	0,007	0,036
-354,796	-32,618	0,050	-0,020
-353,781	-64,502	0,021	0,006
-352,766	-185,119	-0,073	-0,001
-351,752	208,792	0,088	-0,098
-350,737	-200,000	-0,003	0,024
-349,723	66,613	-0,033	-0,024
-348,708	439,509	-0,033	0,051
-347,693	-115,164	0,106	-0,014
-346,679	-200,000	-0,001	0,095
-345,664	82,367	0,095	0,074
-344,650	-47,862	0,072	0,025
-343,635	113,494	-0,124	-0,107
-342,620	-55,701	-0,007	-0,002
-341,606	-45,793	-0,031	0,011
-340,591	147,754	-0,057	0,055
-339,577	800,000	-0,075	-0,172
-338,562	320,739	0,047	0,064
-337,548	138,978	0,075	0,071
-336,533	-200,000	-0,017	0,104
-335,518	61,731	0,035	0,025
-334,504	578,014	-0,053	0,093
-333,489	800,000	-0,041	0,094
-332,475	-43,912	-0,059	-0,021
-331,460	116,048	-0,024	-0,021
-330,445	-113,096	0,044	-0,006
-329,431	771,429	0,044	0,086
-328,416	-8,773	0,030	-0,014
-327,402	-14,203	0,070	0,032
-326,387	26,979	0,051	0,031
-325,372	725,197	-0,065	0,125
-324,358	-106,677	-0,069	0,011
-323,343	-70,897	0,040	0,011
-322,329	800,000	0,078	0,172
-321,314	-200,000	-0,003	-0,021
-320,299	-200,000	-0,009	0,045
-319,285	57,575	-0,043	0,030
-318,270	-200,000	0,001	-0,050
-317,256	-12,773	-0,050	-0,023
-316,241	800,000	0,027	-0,074
-315,226	127,582	0,085	-0,077
-314,212	-67,553	0,136	-0,038
-313,197	181,888	-0,044	0,046
-312,183	-200,000	0,028	0,096
-311,168	4,081	-0,132	-0,068
-310,153	800,000	-0,046	0,092
-309,139	-200,000	-0,009	0,057
-308,124	76,543	0,023	-0,017
-307,110	-61,047	0,120	0,036
-306,095	-60,249	-0,016	-0,005
-305,080	-200,000	0,020	0,169
-304,066	533,035	0,076	0,129
-303,051	-200,000	-0,011	-0,067
-302,037	-34,006	-0,064	-0,025
-301,022	-138,631	0,082	-0,006
-300,008	-200,000	0,004	-0,141
-298,993	-85,348	0,068	0,015
-297,978	-69,480	-0,160	0,043
-296,964	-200,000	-0,003	-0,100
-295,949	368,937	0,010	-0,015
-294,935	-200,000	-0,002	-0,019
-293,920	203,396	-0,036	0,039
-292,905	254,716	0,066	-0,081
-291,891	-151,841	0,137	-0,007
-290,876	52,231	0,093	0,063
-289,862	546,998	-0,051	0,088
-288,847	253,897	-0,051	-0,062
-287,832	-42,525	0,047	0,017
-286,818	473,156	-0,020	0,032
-285,803	-1,536	0,049	0,024
-284,789	-1,895	0,099	0,050
-283,774	-121,798	0,056	0,007
-282,759	-15,520	-0,170	0,077
-281,745	49,734	0,049	-0,033
-280,730	-23,988	0,019	-0,008
-279,716	263,078	-0,068	0,085
-278,701	800,000	0,030	0,070
-277,686	-200,000	0,019	-0,069
-276,672	610,579	-0,037	0,065
-275,657	-91,518	0,035	-0,007
-274,643	-200,000	0,003	0,076
-273,628	435,957	0,024	0,037
-272,613	156,003	-0,076	-0,075
-271,599	1,403	0,110	-0,056
-270,584	-200,000	0,005	0,094
-269,570	-200,000	0,004	0,026
-268,555	296,554	-0,045	0,058
-267,540	-185,245	-0,107	0,001
-266,526	-200,000	-0,026	0,161
-265,511	170,873	-0,109	0,111
-264,497	-105,438	0,153	0,024
-263,482	-200,000	0,010	-0,118
-262,467	-200,000	0,020	0,087
-261,453	141,346	-0,088	0,083
-260,438	325,506	-0,114	-0,155
-259,424	191,637	0,065	0,069
-258,409	800,000	0,044	-0,096
-257,395	132,957	0,113	-0,103
-256,380	375,473	0,054	-0,079
-255,365	-73,130	0,059	-0,015
-254,351	10,593	-0,028	-0,015
-253,336	-200,000	-0,031	-0,168
-252,322	-121,733	-0,113	0,013
-251,307	52,353	-0,105	-0,071
-250,292	34,058	-0,182	-0,113
-249,278	-200,000	0,008	-0,073
-248,263	105,139	-0,105	0,088
-247,249	-94,814	-0,072	-0,014
-246,234	-94,464	0,092	0,018
-245,219	-51,074	-0,077	0,026
-244,205	-115,295	-0,071	-0,009
-243,190	-200,000	-0,011	0,072
-242,176	-200,000	-0,015	0,058
-241,161	89,927	0,074	0,059
-240,146	-200,000	-0,004	0,016
-239,132	-200,000	-0,006	-0,040
-238,117	288,161	-0,103	-0,132
-237,103	75,831	0,065	-0,049
-236,088	670,206	-0,014	-0,027
-235,073	37,195	0,166	0,104
-234,059	120,660	0,062	0,055
-233,044	131,973	-0,056	-0,051
-232,030	416,452	-0,009	-0,013
-231,015	-79,863	0,121	-0,029
-230,000	-200,000	0,000	0,071
-228,986	-85,584	-0,081	-0,018
-227,971	40,921	0,107	0,068
-226,957	-32,057	-0,025	-0,010
-225,942	-38,630	0,099	-0,037
-224,927	-200,000	-0,042	0,167
-223,913	-200,000	0,005	-0,156
-222,898	-200,000	0,002	-0,008
-221,884	-56,692	-0,049	0,015
-220,869	-22,451	0,053	0,023
-219,855	-200,000	0,004	0,088
-218,840	37,481	0,066	-0,042
-217,825	222,323	-0,133	-0,152
-216,811	210,272	-0,126	-0,140
-215,796	-114,646	-0,024	0,003
-214,782	246,224	-0,084	-0,101
-213,767	63,633	0,085	0,061
-212,752	-153,509	0,200	0,010
-211,738	-95,273	-0,163	0,031
-210,723	-26,179	-0,152	0,063
-209,709	800,000	0,046	-0,096
-208,694	80,303	-0,038	-0,029
-207,679	-100,702	-0,055	0,009
-206,665	-119,367	0,031	0,004
-205,650	205,323	0,113	-0,124
-204,636	-20,144	0,043	-0,019
-203,621	-178,972	-0,107	-0,002
-202,606	800,000	0,071	-0,141
-201,592	640,300	-0,020	-0,036
-200,577	-77,067	0,079	-0,019
-199,563	112,876	-0,060	0,052
-198,548	-200,000	0,017	0,109
-197,533	116,211	0,129	0,112
-196,519	327,574	0,056	0,077
-195,504	428,842	0,087	-0,134
-194,490	-200,000	-0,050	-0,174
-193,475	800,000	-0,091	-0,272
-192,460	-33,074	0,067	-0,026
-191,446	154,824	-0,011	-0,010
-190,431	-13,950	0,078	0,036
-189,417	800,000	-0,018	-0,037
-188,402	113,258	0,106	0,091
-187,387	1,232	0,040	0,020
-186,373	3,362	-0,112	-0,057
-185,358	79,063	-0,043	0,032
-184,344	260,815	-0,061	-0,076
-183,329	89,496	0,066	-0,052
-182,315	552,844	0,062	-0,106
-181,300	687,909	-0,069	-0,129
-180,285	102,991	-0,102	0,085
-179,271	-200,000	0,037	-0,124
-178,256	416,107	0,026	-0,039
-177,242	-48,513	0,068	0,023
-176,227	800,000	-0,012	0,033
-175,212	-200,000	-0,010	0,119
-174,198	551,219	0,074	0,126
-173,183	123,202	-0,040	0,036
-172,169	-56,424	-0,179	0,056
-171,154	-174,521	-0,106	0,002
-170,139	85,166	0,103	-0,080
-169,125	-200,000	0,011	-0,098
-168,110	-24,573	-0,005	0,002
-167,096	-42,203	0,104	0,037
-166,081	-14,055	-0,045	-0,020
-165,066	148,294	-0,041	0,040
-164,052	-200,000	-0,044	-0,193
-163,037	452,427	0,038	-0,059
-162,023	641,999	0,047	-0,084
-161,008	124,268	0,078	0,070
-159,993	-182,978	-0,056	-0,001
-158,979	168,973	-0,088	0,089
-157,964	131,087	0,086	-0,078
-156,950	-42,521	-0,085	-0,031
-155,935	405,757	0,046	0,069
-154,920	-46,189	-0,039	0,014
-153,906	64,994	-0,037	0,026
-152,891	-200,000	-0,002	0,096
-151,877	101,511	-0,058	0,048
-150,862	45,466	-0,071	0,047
-149,847	-200,000	0,023	0,084
-148,833	-90,672	0,126	-0,026
-147,818	-98,954	0,121	-0,022
-146,804	98,618	-0,042	-0,034
-145,789	-7,512	0,081	0,039
-144,775	-200,000	-0,016	-0,150
-143,760	55,049	-0,072	-0,049
-142,745	62,623	0,036	0,025
-141,731	-200,000	0,000	-0,107
-140,716	-200,000	0,001	0,131
-139,702	800,000	0,035	-0,076
-138,687	215,591	-0,060	0,067
-137,672	-200,000	-0,023	-0,089
-136,658	204,427	0,024	-0,027
-135,643	227,482	0,027	-0,031
-134,629	-103,078	-0,103	-0,017
-133,614	-200,000	0,033	-0,117
-132,599	41,905	0,013	-0,008
-131,585	143,103	-0,058	0,054
-130,570	441,751	0,049	-0,076
-129,556	-200,000	0,004	0,029
-128,541	70,371	-0,091	0,067
-127,526	800,000	-0,012	0,034
-126,512	554,460	-0,032	0,055
-125,497	289,817	0,044	0,057
-124,483	-200,000	0,013	0,061
-123,468	14,750	-0,104	0,057
-122,453	23,864	0,028	0,016
-121,439	339,612	0,160	-0,221
-120,424	231,697	-0,122	-0,142
-119,410	-168,116	0,190	-0,005
-118,395	152,723	0,086	0,083
-117,380	-200,000	0,011	0,036
-116,366	-10,017	0,039	-0,018
-115,351	-82,551	-0,087	-0,020
-114,337	-117,477	-0,051	-0,006
-113,322	-200,000	-0,057	-0,202
-112,307	449,891	0,032	-0,050
-111,293	800,000	-0,009	0,022
-110,278	-45,489	0,131	-0,046
-109,264	340,119	-0,039	-0,054
-108,249	119,668	-0,111	0,098
-107,234	106,273	-0,116	-0,097
-106,220	476,678	0,059	0,094
-105,205	-79,822	0,078	0,019
-104,191	-200,000	-0,016	0,079
-103,176	387,230	0,053	0,078
-102,162	59,820	0,095	0,066
-101,147	-200,000	0,016	0,081
-100,132	792,315	-0,057	0,112
-99,118	79,277	0,113	-0,086
-98,103	72,853	-0,072	-0,053
-97,089	800,000	0,088	0,185
-96,074	559,606	-0,038	-0,065
-95,059	800,000	-0,052	0,112
-94,045	36,054	-0,027	-0,017
-93,030	36,827	-0,096	-0,060
-92,016	-27,665	-0,072	-0,029
-91,001	107,191	0,030	0,025
-89,986	800,000	-0,030	-0,075
-88,972	182,164	0,028	0,029
-87,957	-200,000	0,003	-0,088
-86,943	104,976	0,136	0,114
-85,928	-200,000	0,014	-0,055
-84,913	71,618	-0,075	-0,055
-83,899	-106,176	0,126	0,020
-82,884	-53,446	-0,085	0,027
-81,870	67,311	-0,130	-0,094
-80,855	-72,970	-0,035	0,009
-79,840	-200,000	0,024	0,091
-78,826	-167,638	-0,108	0,003
-77,811	121,574	0,114	-0,100
-76,797	-200,000	-0,013	-0,054
-75,782	118,715	-0,072	0,063
-74,767	-9,129	-0,019	0,009
-73,753	-46,811	-0,072	0,025
-72,738	-200,000	-0,000	0,080
-71,724	251,011	-0,070	-0,084
-70,709	-200,000	0,005	-0,041
-69,694	29,708	0,060	0,036
-68,680	123,712	-0,091	-0,081
-67,665	85,766	-0,041	0,032
-66,651	-200,000	-0,021	0,073
-65,636	373,807	0,124	0,178
-64,622	-129,655	-0,223	-0,021
-63,607	-200,000	-0,036	-0,229
-62,592	-15,016	-0,108	-0,049
-61,578	404,343	0,025	0,037
-60,563	-3,173	0,023	-0,011
-59,549	220,183	-0,009	-0,010
-58,534	23,196	-1,986	-1,149
-57,519	404,230	-1,336	-1,994
-56,505	-200,000	-0,388	-4,386
-55,490	457,037	0,897	1,412
-54,476	800,000	5,106	11,204
-53,461	-200,000	20,847	329,183
-52,446	800,000	757,319	2323,819
-51,432	550,374	1662,176	2825,825
-50,417	73,494	1663,848	1228,581
-49,403	18,681	1537,088	865,974
-48,388	12,668	1460,017	793,449
-47,373	19,009	1450,650	818,781
-46,359	15,861	1440,013	797,758
-45,344	10,904	1435,997	771,883
-44,330	10,877	1433,947	770,622
-43,315	10,825	1432,249	769,431
-42,300	10,863	1430,348	768,559
-41,286	10,881	1429,119	767,954
-40,271	10,879	1427,807	767,211
-39,257	10,884	1426,704	766,610
-38,242	10,869	1425,642	765,939
-37,227	10,833	1424,576	765,165
-36,213	10,920	1423,072	764,735
-35,198	10,881	1422,120	764,011
-34,184	10,950	1421,173	763,799
-33,169	10,870	1419,865	762,689
-32,154	10,986	1418,689	762,572
-31,140	10,956	1417,536	761,780
-30,125	10,995	1416,434	761,343
-29,111	10,958	1415,186	760,468
-28,096	10,935	1414,122	759,758
-27,082	10,853	1412,937	758,703
-26,067	10,824	1412,114	758,098
-25,052	10,886	1410,781	757,644
-24,038	10,858	1410,029	757,076
-23,023	10,883	1408,871	756,542
-22,009	10,835	1407,736	755,679
-20,994	10,826	1406,860	755,134
-19,979	10,871	1406,047	754,878
-18,965	10,814	1405,111	754,080
-17,950	10,810	1404,198	753,541
-16,936	10,787	1403,381	752,968
-15,921	10,743	1402,080	752,035
-14,906	10,770	1401,171	751,640
-13,892	10,805	1400,423	751,374
-12,877	10,733	1399,758	750,652
-11,863	10,757	1398,762	750,200
-10,848	10,697	1397,985	749,474
-9,833	10,742	1397,061	749,160
-8,819	10,681	1396,055	748,307
-7,804	10,685	1395,253	747,867
-6,790	10,712	1394,238	747,415
-5,775	10,680	1393,402	746,791
-4,760	10,710	1392,094	746,199
-3,746	10,678	1391,191	745,540
-2,731	10,639	1390,699	745,065
-1,717	10,687	1389,662	744,702
-0,702	10,634	1387,743	743,396
0,313	14,706	1301,371	715,773
1,327	30,916	692,992	418,038
2,342	48,607	120,142	79,313
3,356	0,309	16,444	8,253
4,371	4,762	3,469	1,793
5,386	17,984	0,925	0,519
6,400	-200,000	-0,059	0,453
7,415	68,602	-0,276	-0,199
8,429	115,691	-0,372	-0,320
9,444	89,770	-0,404	-0,318
10,459	40,128	-0,296	-0,187
11,473	68,674	-0,254	-0,184
12,488	69,180	-0,282	-0,204
13,502	65,797	-0,186	-0,132
14,517	-94,934	-0,334	-0,063
15,531	78,900	-0,293	-0,221
16,546	19,125	-0,424	-0,239
17,561	716,778	-0,172	-0,323
18,575	345,595	-0,090	-0,124
19,590	182,938	-0,316	-0,329
20,604	-97,545	-0,264	-0,048
21,619	-34,427	-0,543	-0,208
22,634	96,285	-0,516	-0,415
23,648	74,581	-0,501	-0,371
24,663	28,035	-0,406	-0,240
25,677	127,193	-0,247	-0,221
26,692	230,653	-0,189	-0,218
27,707	76,110	-0,297	-0,221
28,721	48,483	-0,196	-0,129
29,736	17,483	-0,566	-0,316
30,750	128,853	-0,390	-0,350
31,765	214,737	-0,249	-0,279
32,780	66,059	-0,312	-0,223
33,794	-48,059	-0,365	-0,123
34,809	40,649	-0,361	-0,228
35,823	-19,325	-0,291	-0,126
36,838	5,680	-0,486	-0,252
37,853	-32,837	-0,458	-0,178
38,867	88,262	-0,284	-0,222
39,882	7,604	-0,450	-0,236
40,896	242,553	-0,283	-0,334
41,911	97,294	-0,297	-0,240
42,926	164,601	-0,207	-0,206
43,940	39,902	-0,374	-0,235
44,955	64,166	-0,284	-0,200
45,969	372,901	-0,282	-0,403
46,984	53,214	-0,336	-0,226
47,999	-0,138	-0,377	-0,188
49,013	70,033	-0,256	-0,185
50,028	33,867	-0,383	-0,234
51,042	167,677	-0,283	-0,283
52,057	-67,539	-0,329	-0,090
53,071	65,347	-0,406	-0,288
54,086	139,093	-0,334	-0,308
55,101	34,169	-0,286	-0,175
56,115	50,618	-0,318	-0,211
57,130	108,966	-0,276	-0,232
58,144	58,805	-0,433	-0,299
59,159	129,475	-0,269	-0,241
60,174	19,392	-0,456	-0,257
61,188	583,749	-0,233	-0,404
62,203	73,476	-0,380	-0,279
63,217	-17,484	-0,449	-0,197
64,232	-10,449	-0,350	-0,162
65,247	4,782	-0,390	-0,200
66,261	4,534	-0,533	-0,273
67,276	107,588	-0,297	-0,248
68,290	5,546	-0,317	-0,164
69,305	83,683	-0,258	-0,197
70,320	12,602	-0,255	-0,138
71,334	52,330	-0,187	-0,125
72,349	66,767	-0,335	-0,239
73,363	139,103	-0,236	-0,218
74,378	12,641	-0,387	-0,209
75,393	30,927	-0,412	-0,247
76,407	153,455	-0,190	-0,183
77,422	-74,445	-0,353	-0,089
78,436	-6,953	-0,286	-0,135
79,451	-44,544	-0,318	-0,111
80,466	183,943	-0,275	-0,285
81,480	158,595	-0,362	-0,353
82,495	210,173	-0,312	-0,344
83,509	6,747	-0,199	-0,103
84,524	11,505	-0,206	-0,110
85,539	-62,307	-0,189	-0,055
86,553	468,931	-0,208	-0,327
87,568	2,640	-0,338	-0,171
88,582	103,908	-0,334	-0,274
89,597	128,973	-0,214	-0,191
90,611	69,468	-0,275	-0,198
91,626	-17,678	-0,228	-0,100
92,641	92,807	-0,213	-0,168
93,655	-94,689	-0,295	-0,056
94,670	140,035	-0,257	-0,237
95,684	58,212	-0,192	-0,131
96,699	169,351	-0,285	-0,285
97,714	273,830	-0,219	-0,272
98,728	117,652	-0,277	-0,239
99,743	-29,104	-0,283	-0,113
100,757	163,432	-0,183	-0,180
101,772	782,980	-0,116	-0,224
102,787	-35,977	-0,411	-0,155
103,801	-70,137	-0,353	-0,093
104,816	206,964	-0,165	-0,180
105,830	-43,666	-0,294	-0,103
106,845	-193,252	-0,336	0,002
107,860	74,898	-0,264	-0,194
108,874	27,229	-0,317	-0,186
109,889	118,021	-0,276	-0,237
110,903	16,157	-0,250	-0,138
111,918	55,034	-0,245	-0,165
112,933	-200,000	-0,238	-0,001
113,947	16,687	-0,334	-0,184
114,962	45,575	-0,206	-0,133
115,976	37,901	-0,298	-0,185
116,991	10,105	-0,274	-0,145
118,006	43,592	-0,296	-0,189
119,020	6,698	-0,349	-0,181
120,035	120,956	-0,095	-0,082
121,049	-1,158	-0,112	-0,055
122,064	232,623	-0,206	-0,237
123,079	55,834	-0,345	-0,233
124,093	40,146	-0,332	-0,208
125,108	-31,273	-0,222	-0,087
126,122	145,292	-0,150	-0,140
127,137	90,520	-0,227	-0,178
128,151	162,554	-0,293	-0,287
129,166	64,678	-0,335	-0,235
130,181	77,517	-0,228	-0,169
131,195	36,083	-0,251	-0,154
132,210	226,971	-0,205	-0,233
133,224	71,159	-0,249	-0,180
134,239	262,826	-0,140	-0,170
135,254	60,361	-0,200	-0,138
136,268	16,045	-0,260	-0,142
137,283	-78,832	-0,325	-0,077
138,297	245,662	-0,190	-0,223
139,312	19,969	-0,310	-0,174
140,327	214,763	-0,211	-0,234
141,341	294,369	-0,176	-0,225
142,356	72,531	-0,326	-0,236
143,370	149,795	-0,140	-0,132
144,385	17,537	-0,160	-0,088
145,400	206,247	-0,188	-0,204
146,414	44,054	-0,328	-0,209
147,429	70,563	-0,351	-0,252
148,443	-11,360	-0,255	-0,117
149,458	-17,441	-0,295	-0,129
150,473	231,071	-0,121	-0,138
151,487	152,313	-0,249	-0,237
152,502	-111,890	-0,293	0,041
153,516	53,388	-0,273	-0,182
154,531	7,187	-0,258	-0,133
155,546	22,816	-0,340	-0,194
156,560	16,428	-0,194	-0,106
157,575	39,358	-0,256	-0,159
158,589	-3,571	-0,248	-0,119
159,604	1,244	-0,319	-0,159
160,619	171,822	-0,291	-0,291
161,633	250,389	-0,236	-0,280
162,648	800,000	-0,083	-0,246
163,662	23,324	-0,266	-0,152
164,677	-14,038	-0,266	-0,119
165,692	-84,314	-0,121	-0,026
166,706	106,747	-0,209	-0,172
167,721	242,376	-0,143	-0,166
168,735	8,042	-0,215	-0,112
169,750	-29,772	-0,292	-0,115
170,764	-29,280	-0,128	-0,051
171,779	11,155	-0,203	-0,107
172,794	-10,529	-0,137	-0,063
173,808	89,727	-0,202	-0,157
174,823	120,765	-0,297	-0,257
175,837	180,868	-0,140	-0,143
176,852	124,196	-0,234	-0,204
177,867	-52,247	-0,188	-0,060
178,881	-157,693	-0,233	0,009
179,896	15,183	-0,211	-0,114
180,910	196,508	-0,129	-0,136
181,925	-45,399	-0,253	-0,087
182,940	376,254	-0,205	-0,292
183,954	-111,401	-0,315	-0,044
184,969	-71,756	-0,216	-0,055
185,983	63,719	-0,235	-0,164
186,998	61,980	-0,223	-0,154
188,013	-112,772	-0,314	-0,043
189,027	224,179	-0,169	-0,190
190,042	11,053	-0,207	-0,110
191,056	36,021	-0,243	-0,148
192,071	59,123	-0,218	-0,149
193,086	-200,000	-0,058	-0,216
194,100	800,000	-0,088	-0,191
195,115	48,864	-0,199	-0,129
196,129	800,000	-0,057	-0,124
197,144	164,773	-0,229	-0,225
198,159	99,964	-0,235	-0,189
199,173	-6,520	-0,139	-0,065
200,188	-54,176	-0,222	-0,070
201,202	-4,000	-0,218	-0,104
202,217	81,358	-0,300	-0,225
203,232	90,598	-0,222	-0,173
204,246	31,442	-0,364	-0,216
205,261	3,010	-0,247	-0,124
206,275	8,927	-0,257	-0,134
207,290	89,369	-0,214	-0,165
208,304	179,061	-0,148	-0,150
209,319	-87,159	-0,156	-0,033
210,334	-105,205	-0,140	-0,022
211,348	-31,417	-0,196	-0,076
212,363	132,318	-0,247	-0,221
213,377	549,205	-0,167	-0,278
214,392	272,618	-0,188	-0,231
215,407	9,431	-0,167	-0,087
216,421	-162,798	-0,148	0,005
217,436	-15,091	-0,127	-0,056
218,450	253,978	-0,161	-0,191
219,465	-122,227	-0,269	-0,030
220,480	15,727	-0,133	-0,072
221,494	-93,267	-0,140	0,027
222,509	-26,240	-0,090	-0,036
223,523	-75,286	-0,211	0,052
224,538	-200,000	-0,087	-0,284
225,553	-7,978	-0,264	-0,123
226,567	66,864	-0,183	-0,129
227,582	148,808	-0,147	-0,138
228,596	-200,000	-0,072	-0,334
229,611	-31,037	-0,100	-0,039
230,626	670,928	-0,112	-0,201
231,640	254,198	-0,197	-0,234
232,655	202,701	-0,190	-0,203
233,669	406,629	-0,123	-0,180
234,684	239,419	-0,231	-0,266
235,699	200,293	-0,153	-0,163
236,713	-57,013	-0,197	-0,060
237,728	-111,769	-0,273	-0,038
238,742	800,000	-0,076	-0,157
239,757	156,412	-0,171	-0,163
240,772	800,000	-0,067	-0,165
241,786	90,126	-0,252	-0,195
242,801	37,109	-0,217	-0,132
243,815	800,000	-0,091	-0,194
244,830	800,000	-0,157	-0,361
245,844	800,000	-0,113	-0,233
246,859	-52,498	-0,206	-0,065
247,874	48,534	-0,246	-0,159
248,888	-58,824	-0,258	-0,077
249,903	-200,000	-0,090	-0,284
250,917	577,275	-0,176	-0,299
251,932	11,252	-0,208	-0,109
252,947	133,335	-0,113	-0,101
253,961	211,663	-0,234	-0,255
254,976	251,299	-0,194	-0,228
255,990	62,819	-0,132	-0,091
257,005	-153,060	-0,201	0,010
258,020	118,242	-0,159	-0,135
259,034	67,685	-0,130	-0,091
260,049	256,484	-0,115	-0,136
261,063	46,824	-0,236	-0,151
262,078	48,417	-0,237	-0,153
263,093	437,869	-0,162	-0,244
264,107	118,029	-0,232	-0,197
265,122	17,031	-0,239	-0,130
266,136	-59,313	-0,156	-0,046
267,151	357,959	-0,103	-0,142
268,166	-87,271	-0,141	-0,029
269,180	216,835	-0,186	-0,204
270,195	-200,000	-0,034	-0,106
271,209	-40,369	-0,190	-0,068
272,224	-22,192	-0,162	-0,068
273,239	90,281	-0,139	-0,107
274,253	152,182	-0,182	-0,171
275,268	248,454	-0,183	-0,213
276,282	94,902	-0,223	-0,175
277,297	322,882	-0,171	-0,225
278,312	120,513	-0,253	-0,217
279,326	-34,322	-0,282	-0,106
280,341	-53,270	-0,218	0,069
281,355	-64,991	-0,167	-0,046
282,370	65,628	-0,135	-0,094
283,384	563,208	-0,162	-0,270
284,399	-121,627	-0,252	0,028
285,414	-91,531	-0,226	-0,044
286,428	-81,896	-0,068	-0,015
287,443	140,269	-0,075	-0,069
288,457	-134,438	-0,137	0,011
289,472	52,804	-0,217	-0,142
290,487	-120,234	-0,200	-0,023
291,501	-65,183	-0,158	-0,043
292,516	164,562	-0,135	-0,131
293,530	264,574	-0,092	-0,110
294,545	32,651	-0,178	-0,106
295,560	-36,865	-0,142	0,052
296,574	470,309	-0,115	-0,179
297,589	612,467	-0,126	-0,217
298,603	-119,935	-0,158	0,018
299,618	-119,264	-0,241	-0,029
300,633	-53,979	-0,173	-0,054
301,647	-200,000	-0,013	-0,073
302,662	-200,000	-0,045	-0,141
303,676	-200,000	-0,002	-0,159
304,691	141,896	-0,116	-0,105
305,706	123,741	-0,261	-0,225
306,720	-46,297	-0,074	-0,025
307,735	8,855	-0,287	-0,148
308,749	-155,885	-0,154	-0,007
309,764	170,389	-0,143	-0,140
310,779	-200,000	-0,046	-0,195
311,793	-44,229	-0,208	-0,071
312,808	-27,824	-0,224	-0,089
313,822	-37,455	-0,157	-0,057
314,837	2,620	-0,143	-0,071
315,852	69,433	-0,132	-0,093
316,866	207,001	-0,078	-0,083
317,881	-75,948	-0,163	-0,039
318,895	125,428	-0,220	-0,190
319,910	162,437	-0,227	-0,219
320,925	-48,406	-0,290	-0,095
321,939	-26,566	-0,196	0,078
322,954	-200,000	0,007	-0,057
323,968	10,093	-0,102	-0,053
324,983	21,417	-0,110	-0,061
325,997	-200,000	0,001	-0,023
327,012	-71,437	-0,186	-0,047
328,027	-66,714	-0,248	-0,067
329,041	82,998	-0,104	-0,077
330,056	-2,118	-0,099	0,048
331,070	11,922	-0,184	-0,097
332,085	67,620	-0,087	0,061
333,100	152,549	-0,178	-0,167
334,114	800,000	-0,034	-0,095
335,129	9,641	-0,164	-0,085
336,143	101,970	-0,118	-0,094
337,158	278,000	-0,138	-0,169
338,173	-55,723	-0,112	0,034
339,187	-44,526	-0,127	0,043
340,202	-39,892	-0,166	0,059
341,216	800,000	-0,060	-0,156
342,231	-18,152	-0,059	-0,025
343,246	178,146	-0,177	-0,177
344,260	-158,346	-0,073	-0,003
345,275	-200,000	-0,043	-0,189
346,289	5,642	-0,101	-0,051
347,304	503,544	-0,052	0,083
348,319	46,048	-0,126	-0,080
349,333	-200,000	0,027	-0,186
350,348	279,438	-0,111	-0,136
351,362	102,386	-0,164	-0,131
352,377	145,674	-0,072	0,066
353,392	507,333	-0,057	0,091
354,406	-151,978	-0,129	-0,006
355,421	207,670	1306,989	1397,444
356,435	159,761	1466,753	1397,921
