DTS Sentinel unit serial number:	SN410029Multiplexer serial number:	ORYXHardware model number:	OX2-SRSoftware version number:	ORYX F/W v4,00 Oryx Data Collector v3.7.2.0data status	okinstallation	B3 Nyhavnadifferential loss correction	single-endedforward channel	channel 1reverse channel	N/Adate	2023/12/04time	20:17:30forward acquisition time	300,00reverse acquisition time	0,00gamma	499,1914k internal	0,3200k external	0,3200temperature offset calibration	1,0000default loss term (dB/km)	0,3820temperature slope calibration	1,0000multiplexer offset coefficient	1,0000multiplexer slope coefficient	1,0000fibre end	0,00T internal ref (°C)	14,44T ext. ref 1 (°C)	-0,59T ext. ref 2 (°C)	-0,62length (m)	temperature (°C)	Stokes	anti-Stokes-744,400	-42,120	-0,207	-0,076
-743,385	-200,000	0,008	0,366
-742,371	82,779	-0,201	-0,159
-741,356	528,880	0,194	0,334
-740,342	206,966	-0,102	-0,116
-739,327	-200,000	0,017	0,186
-738,312	-200,000	-0,037	-0,207
-737,298	-200,000	-0,068	0,223
-736,283	132,004	-0,192	-0,180
-735,269	-200,000	-0,019	0,305
-734,254	-42,441	-0,144	-0,053
-733,239	26,363	-0,244	0,148
-732,225	107,269	-0,169	-0,146
-731,210	-22,182	0,105	0,046
-730,196	38,434	-0,042	0,027
-729,181	-94,774	-0,094	0,018
-728,167	-74,993	0,059	0,015
-727,152	-40,695	-0,140	0,053
-726,137	109,931	0,039	0,034
-725,123	-113,682	-0,149	-0,021
-724,108	800,000	-0,041	-0,116
-723,094	46,682	0,035	-0,024
-722,079	800,000	-0,036	-0,109
-721,064	-4,233	0,059	0,030
-720,050	43,263	0,085	-0,056
-719,035	-61,455	0,018	-0,005
-718,021	-29,114	-0,052	0,021
-717,006	800,000	-0,074	-0,205
-715,991	-93,561	-0,113	0,023
-714,977	-200,000	0,021	-0,205
-713,962	94,953	-0,041	-0,034
-712,948	-111,501	0,091	0,013
-711,933	96,825	-0,020	-0,017
-710,918	-200,000	-0,016	-0,071
-709,904	207,608	-0,114	-0,130
-708,889	583,115	-0,049	-0,087
-707,875	382,998	0,004	0,006
-706,860	-58,878	-0,069	-0,022
-705,845	0,560	0,081	0,042
-704,831	3,927	0,143	0,076
-703,816	-13,008	-0,078	0,037
-702,802	-200,000	-0,004	-0,015
-701,787	800,000	0,021	-0,059
-700,772	-64,389	-0,008	0,002
-699,758	75,585	-0,015	-0,012
-698,743	47,717	0,044	-0,029
-697,729	-49,333	0,117	-0,040
-696,714	30,206	0,171	0,106
-695,699	-130,907	-0,221	-0,021
-694,685	353,777	-0,006	-0,009
-693,670	-77,934	-0,048	0,012
-692,656	800,000	-0,047	-0,099
-691,641	10,835	0,074	0,041
-690,627	-200,000	0,005	0,088
-689,612	800,000	0,041	0,090
-688,597	797,885	-0,027	-0,054
-687,583	20,779	-0,131	-0,077
-686,568	315,827	0,078	-0,107
-685,554	800,000	-0,018	0,040
-684,539	242,709	-0,036	0,044
-683,524	-150,939	-0,036	-0,002
-682,510	-110,367	-0,065	0,010
-681,495	67,760	-0,062	-0,046
-680,481	207,307	-0,100	-0,113
-679,466	-200,000	0,001	0,075
-678,451	214,684	-0,151	0,173
-677,437	415,480	0,060	0,094
-676,422	-32,486	0,063	-0,026
-675,408	0,566	0,081	0,042
-674,393	-196,604	0,121	0,001
-673,378	406,826	-0,068	-0,105
-672,364	-70,098	-0,072	-0,020
-671,349	800,000	0,013	-0,031
-670,335	300,823	0,015	0,020
-669,320	-149,057	0,040	0,002
-668,305	-56,574	0,060	0,019
-667,291	79,474	-0,090	-0,070
-666,276	-200,000	-0,023	-0,113
-665,262	214,464	-0,142	0,163
-664,247	-8,863	-0,077	0,037
-663,232	318,528	-0,061	-0,084
-662,218	-99,014	0,096	0,018
-661,203	741,760	0,033	0,064
-660,189	174,356	-0,087	-0,091
-659,174	74,237	-0,098	-0,074
-658,159	-200,000	-0,017	0,066
-657,145	-102,064	-0,142	-0,025
-656,130	-200,000	0,021	0,068
-655,116	-200,000	0,004	-0,026
-654,101	-200,000	-0,005	-0,047
-653,086	-19,026	0,112	-0,050
-652,072	244,289	0,023	-0,029
-651,057	59,905	-0,068	0,049
-650,043	-89,414	0,063	0,013
-649,028	800,000	-0,049	-0,130
-648,014	122,320	-0,058	0,053
-646,999	-200,000	-0,006	0,112
-645,984	3,645	0,039	0,021
-644,970	-200,000	0,015	-0,127
-643,955	-200,000	0,024	-0,110
-642,941	103,680	0,039	-0,033
-641,926	16,440	0,025	-0,015
-640,911	-131,654	0,161	0,015
-639,897	-101,584	-0,032	0,006
-638,882	-200,000	-0,023	0,098
-637,868	44,975	-0,116	0,077
-636,853	-127,538	-0,078	-0,008
-635,838	-200,000	0,014	-0,054
-634,824	15,976	-0,142	-0,081
-633,809	111,250	0,036	0,032
-632,795	-200,000	0,008	-0,116
-631,780	-200,000	-0,009	0,038
-630,765	-69,704	-0,058	-0,016
-629,751	124,559	-0,067	-0,061
-628,736	-102,122	-0,088	0,015
-627,722	-58,030	0,091	-0,029
-626,707	153,850	-0,090	0,090
-625,692	436,857	-0,048	0,076
-624,678	71,575	-0,062	0,046
-623,663	25,383	-0,106	0,064
-622,649	-89,173	-0,165	0,035
-621,634	-200,000	0,023	-0,147
-620,619	129,162	0,038	-0,035
-619,605	-52,855	0,023	0,008
-618,590	58,408	0,112	0,079
-617,576	800,000	0,007	0,019
-616,561	-19,739	0,077	-0,034
-615,546	-45,882	-0,121	-0,043
-614,532	34,417	-0,051	0,032
-613,517	-80,646	-0,052	-0,012
-612,503	-110,015	-0,131	-0,020
-611,488	-200,000	0,024	0,080
-610,474	510,633	-0,037	0,062
-609,459	-31,819	0,093	0,038
-608,444	-114,424	-0,116	0,016
-607,430	110,618	0,102	-0,089
-606,415	227,599	0,071	0,084
-605,401	-24,878	-0,114	-0,049
-604,386	-12,351	0,062	0,029
-603,371	-125,587	0,035	-0,004
-602,357	26,443	0,077	-0,047
-601,342	307,422	0,058	-0,079
-600,328	-200,000	0,004	-0,067
-599,313	-200,000	0,025	0,134
-598,298	-90,121	-0,006	-0,001
-597,284	-0,226	-0,074	-0,038
-596,269	-200,000	0,005	0,047
-595,255	-53,829	-0,132	-0,043
-594,240	75,513	-0,090	-0,069
-593,225	-200,000	0,009	-0,131
-592,211	800,000	0,033	-0,065
-591,196	402,812	0,102	-0,155
-590,182	38,879	0,052	-0,034
-589,167	-200,000	0,017	-0,064
-588,152	-54,887	-0,165	0,053
-587,138	-90,994	-0,066	-0,014
-586,123	-200,000	0,012	-0,126
-585,109	-200,000	0,007	-0,123
-584,094	-48,234	-0,102	0,035
-583,079	-200,000	0,002	0,111
-582,065	-166,801	-0,107	-0,003
-581,050	45,416	0,105	-0,070
-580,036	-86,372	-0,103	-0,023
-579,021	-5,046	0,073	-0,036
-578,006	27,934	0,172	-0,105
-576,992	198,516	-0,088	-0,098
-575,977	800,000	-0,042	-0,131
-574,963	98,859	0,150	-0,125
-573,948	211,508	0,053	0,061
-572,934	677,737	0,016	0,030
-571,919	-63,080	-0,196	-0,058
-570,904	-150,232	0,064	-0,004
-569,890	-94,146	0,013	0,003
-568,875	-51,524	-0,033	0,011
-567,861	-130,113	0,113	0,011
-566,846	-61,778	0,061	0,018
-565,831	800,000	-0,002	-0,007
-564,817	423,178	0,074	0,115
-563,802	800,000	-0,029	-0,071
-562,788	701,976	0,037	-0,071
-561,773	498,353	0,047	0,079
-560,758	800,000	-0,037	0,117
-559,744	155,528	0,054	-0,053
-558,729	77,732	0,052	-0,040
-557,715	800,000	0,028	-0,070
-556,700	-200,000	-0,008	-0,110
-555,685	603,056	0,057	-0,103
-554,671	-84,255	-0,045	-0,010
-553,656	-48,325	0,047	0,016
-552,642	-200,000	0,000	0,040
-551,627	-200,000	-0,031	-0,150
-550,612	192,096	0,051	-0,056
-549,598	-200,000	0,013	-0,153
-548,583	177,853	-0,102	-0,107
-547,569	-10,840	0,158	-0,075
-546,554	-191,610	0,104	-0,001
-545,539	800,000	0,020	0,062
-544,525	-200,000	0,018	0,140
-543,510	-50,812	0,100	-0,034
-542,496	213,121	0,091	-0,104
-541,481	133,146	-0,031	0,029
-540,466	800,000	-0,028	0,067
-539,452	403,558	0,027	-0,041
-538,437	-174,102	-0,056	-0,001
-537,423	-122,204	0,090	0,010
-536,408	-200,000	0,015	-0,063
-535,393	-24,328	-0,194	-0,083
-534,379	-110,606	-0,101	-0,015
-533,364	18,363	-0,067	0,038
-532,350	401,036	0,063	-0,095
-531,335	73,774	0,141	0,107
-530,321	694,634	-0,050	-0,094
-529,306	-200,000	-0,019	0,153
-528,291	0,457	0,065	0,033
-527,277	800,000	-0,057	-0,132
-526,262	800,000	0,039	0,100
-525,248	-24,978	0,094	-0,040
-524,233	230,936	0,050	0,060
-523,218	567,913	-0,056	-0,098
-522,204	-94,386	0,156	-0,031
-521,189	353,416	-0,078	-0,112
-520,175	-200,000	0,001	-0,066
-519,160	354,513	-0,056	0,080
-518,145	-55,880	0,135	-0,043
-517,131	46,256	-0,066	0,044
-516,116	-42,682	0,147	-0,054
-515,102	308,157	-0,066	0,090
-514,087	-119,147	-0,140	-0,017
-513,072	800,000	-0,043	-0,134
-512,058	-87,963	0,014	0,003
-511,043	800,000	-0,018	0,038
-510,029	-200,000	0,016	0,056
-509,014	-61,987	0,096	-0,029
-507,999	-72,797	0,044	-0,012
-506,985	-181,239	0,008	0,000
-505,970	-91,175	-0,177	0,036
-504,956	-39,150	-0,065	0,024
-503,941	385,213	-0,079	-0,117
-502,926	14,524	0,099	0,056
-501,912	107,873	0,073	0,063
-500,897	21,586	0,066	0,039
-499,883	-200,000	0,012	-0,091
-498,868	-200,000	0,042	-0,223
-497,853	800,000	0,028	0,079
-496,839	76,684	-0,121	0,093
-495,824	-126,986	0,180	-0,019
-494,810	-200,000	0,002	-0,048
-493,795	-165,364	-0,069	-0,002
-492,781	29,238	0,061	0,037
-491,766	800,000	0,065	-0,182
-490,751	19,000	-0,086	-0,050
-489,737	131,492	0,056	-0,052
-488,722	800,000	0,017	-0,035
-487,708	-66,386	0,048	-0,014
-486,693	91,053	0,033	0,027
-485,678	108,438	-0,074	0,063
-484,664	-84,296	0,071	-0,016
-483,649	-200,000	0,003	-0,033
-482,635	-200,000	-0,003	-0,019
-481,620	-74,951	0,062	0,016
-480,605	102,058	0,081	-0,068
-479,591	-200,000	-0,007	-0,081
-478,576	-118,962	-0,242	0,030
-477,562	-135,483	-0,032	-0,003
-476,547	-30,141	-0,074	0,030
-475,532	800,000	0,027	-0,059
-474,518	111,400	0,114	0,099
-473,503	-115,364	0,074	0,010
-472,489	-200,000	-0,023	0,133
-471,474	800,000	-0,030	0,077
-470,459	800,000	0,007	-0,014
-469,445	-101,703	-0,061	0,011
-468,430	-142,902	0,137	-0,009
-467,416	133,856	-0,124	-0,116
-466,401	-102,473	0,114	-0,019
-465,386	-83,641	-0,091	-0,021
-464,372	800,000	0,003	0,009
-463,357	-3,999	-0,107	-0,053
-462,343	-200,000	0,006	-0,047
-461,328	-19,999	-0,066	-0,029
-460,313	-147,823	0,082	-0,005
-459,299	516,122	-0,055	0,093
-458,284	-200,000	-0,018	0,193
-457,270	97,988	-0,071	0,059
-456,255	70,739	-0,139	-0,104
-455,241	800,000	0,051	0,146
-454,226	-200,000	0,027	-0,156
-453,211	584,454	0,045	0,080
-452,197	635,949	0,082	0,150
-451,182	221,154	0,058	-0,067
-450,168	307,269	-0,131	0,177
-449,153	104,030	-0,152	-0,128
-448,138	302,550	0,076	-0,101
-447,124	33,604	-0,058	0,036
-446,109	-84,953	-0,084	-0,019
-445,095	33,118	-0,044	0,027
-444,080	-200,000	0,053	0,191
-443,065	-68,715	-0,032	0,009
-442,051	185,455	-0,062	-0,066
-441,036	-106,657	-0,134	0,021
-440,022	626,157	-0,032	-0,058
-439,007	-50,750	-0,097	-0,033
-437,992	-200,000	-0,021	0,084
-436,978	2,029	-0,095	-0,049
-435,963	369,476	0,059	0,086
-434,949	-99,007	-0,098	0,018
-433,934	-200,000	-0,009	0,058
-432,919	-47,149	0,150	-0,052
-431,905	-20,876	-0,075	0,033
-430,890	193,046	0,052	0,057
-429,876	-36,869	0,075	-0,029
-428,861	18,189	-0,111	-0,063
-427,846	-155,061	-0,042	-0,002
-426,832	724,829	0,040	-0,077
-425,817	117,041	0,120	-0,106
-424,803	-89,537	-0,086	-0,018
-423,788	86,039	0,063	0,050
-422,773	-200,000	-0,002	0,050
-421,759	537,022	-0,047	0,081
-420,744	-120,813	0,113	-0,014
-419,730	38,284	-0,123	-0,079
-418,715	-200,000	0,002	-0,016
-417,701	-200,000	0,015	-0,071
-416,686	-200,000	0,013	0,052
-415,671	-200,000	0,034	-0,115
-414,657	800,000	-0,019	0,054
-413,642	-200,000	-0,003	-0,023
-412,628	242,386	0,012	0,015
-411,613	-200,000	-0,003	0,044
-410,598	-200,000	-0,003	0,221
-409,584	17,637	-0,104	0,059
-408,569	-70,055	0,066	0,018
-407,555	800,000	0,076	0,160
-406,540	-109,468	0,095	0,014
-405,525	-21,262	-0,140	0,061
-404,511	75,230	-0,102	-0,077
-403,496	-200,000	-0,021	0,083
-402,482	313,491	-0,011	0,015
-401,467	-26,198	0,051	-0,022
-400,452	-128,829	0,041	0,004
-399,438	-200,000	-0,020	-0,090
-398,423	800,000	0,012	-0,025
-397,409	53,152	0,028	-0,019
-396,394	-200,000	0,006	-0,030
-395,379	-79,779	-0,088	0,021
-394,365	-7,677	0,108	0,052
-393,350	-200,000	-0,012	0,072
-392,336	97,732	0,113	0,093
-391,321	213,190	-0,097	-0,110
-390,306	800,000	-0,021	-0,054
-389,292	-200,000	-0,014	0,170
-388,277	182,752	0,051	0,054
-387,263	-136,169	0,110	-0,009
-386,248	366,486	-0,040	0,058
-385,233	115,476	0,077	0,068
-384,219	800,000	-0,032	0,098
-383,204	424,451	-0,018	0,028
-382,190	681,765	0,048	-0,090
-381,175	713,979	0,019	0,036
-380,160	355,431	0,122	0,175
-379,146	-200,000	0,002	0,063
-378,131	91,650	-0,113	-0,091
-377,117	-200,000	-0,013	-0,077
-376,102	-200,000	0,010	0,053
-375,088	-200,000	0,001	0,025
-374,073	-35,463	0,088	0,034
-373,058	-200,000	0,003	0,058
-372,044	198,097	0,132	0,145
-371,029	-200,000	0,019	0,083
-370,015	-200,000	0,002	0,050
-369,000	-114,567	0,106	-0,014
-367,985	160,732	-0,048	-0,048
-366,971	-6,404	-0,070	0,034
-365,956	81,351	0,067	0,052
-364,942	414,000	0,042	-0,065
-363,927	191,351	-0,065	0,070
-362,912	-200,000	0,006	-0,024
-361,898	216,859	-0,117	-0,134
-360,883	-47,861	-0,032	-0,011
-359,869	-200,000	0,015	0,049
-358,854	-200,000	0,004	0,042
-357,839	-200,000	-0,002	0,307
-356,825	-89,561	-0,094	-0,020
-355,810	-200,000	0,020	0,116
-354,796	-170,046	-0,130	0,003
-353,781	-21,617	-0,085	-0,037
-352,766	-52,165	0,092	-0,030
-351,752	800,000	0,033	0,080
-350,737	-200,000	-0,001	0,034
-349,723	-94,343	0,169	0,033
-348,708	309,377	-0,037	-0,050
-347,693	800,000	0,013	-0,030
-346,679	800,000	-0,025	0,071
-345,664	-86,652	-0,088	0,019
-344,650	7,808	0,004	-0,002
-343,635	109,391	-0,046	-0,039
-342,620	-91,016	0,068	0,014
-341,606	800,000	0,018	0,045
-340,591	583,061	-0,039	0,069
-339,577	116,772	-0,091	-0,080
-338,562	411,296	0,070	-0,107
-337,548	800,000	0,030	0,085
-336,533	2,728	-0,105	0,055
-335,518	800,000	0,056	0,145
-334,504	21,342	0,058	-0,034
-333,489	778,550	0,056	-0,110
-332,475	-200,000	0,039	-0,125
-331,460	4,912	0,090	-0,047
-330,445	800,000	0,042	-0,088
-329,431	-200,000	0,028	0,183
-328,416	271,172	0,046	0,058
-327,402	-60,204	0,193	0,059
-326,387	181,570	-0,182	0,192
-325,372	-200,000	-0,034	0,160
-324,358	117,644	-0,136	-0,119
-323,343	-120,935	-0,064	0,008
-322,329	-97,437	0,134	0,025
-321,314	-54,849	-0,070	-0,022
-320,299	748,761	0,052	-0,101
-319,285	9,660	0,099	-0,053
-318,270	-136,289	-0,058	0,005
-317,256	97,374	0,081	-0,067
-316,241	-200,000	-0,004	-0,132
-315,226	120,441	0,021	0,019
-314,212	137,928	0,122	0,114
-313,197	800,000	-0,040	0,083
-312,183	-200,000	0,012	0,069
-311,168	-200,000	0,002	-0,116
-310,153	-89,425	0,101	-0,021
-309,139	800,000	0,016	-0,038
-308,124	243,542	0,049	-0,058
-307,110	-200,000	0,023	0,076
-306,095	71,383	-0,073	-0,054
-305,080	-86,063	-0,148	0,032
-304,066	102,590	0,045	0,038
-303,051	617,003	-0,066	-0,118
-302,037	522,210	-0,082	-0,139
-301,022	-200,000	-0,010	0,040
-300,008	800,000	0,010	0,024
-298,993	-200,000	-0,007	0,100
-297,978	-200,000	0,009	0,147
-296,964	408,932	0,019	0,029
-295,949	94,992	0,059	0,048
-294,935	-200,000	-0,000	0,051
-293,920	364,592	-0,078	0,113
-292,905	-200,000	-0,026	-0,120
-291,891	-100,172	0,087	0,015
-290,876	-147,345	0,029	0,002
-289,862	-200,000	-0,011	0,084
-288,847	-90,562	-0,093	0,019
-287,832	-200,000	-0,014	-0,060
-286,818	-104,845	-0,083	0,014
-285,803	-76,554	0,066	-0,017
-284,789	-73,726	-0,049	-0,013
-283,774	287,547	-0,060	0,077
-282,759	-0,897	-0,095	-0,048
-281,745	-200,000	0,015	0,101
-280,730	-94,945	-0,053	0,010
-279,716	-200,000	-0,006	0,044
-278,701	38,295	0,093	0,059
-277,686	51,201	0,058	0,039
-276,672	367,372	0,039	0,056
-275,657	-139,734	0,036	0,003
-274,643	-77,649	-0,136	-0,033
-273,628	552,528	-0,006	0,011
-272,613	162,885	0,067	0,068
-271,599	12,465	-0,160	0,088
-270,584	128,147	0,128	0,116
-269,570	800,000	0,051	0,127
-268,555	40,916	-0,096	0,061
-267,540	-200,000	-0,007	-0,026
-266,526	66,970	-0,039	-0,028
-265,511	-200,000	0,022	-0,091
-264,497	-200,000	0,004	0,020
-263,482	45,535	-0,060	0,040
-262,467	-9,215	0,178	0,084
-261,453	7,231	-0,047	-0,025
-260,438	253,808	0,035	-0,043
-259,424	411,036	-0,075	-0,114
-258,409	-69,619	-0,146	-0,040
-257,395	800,000	0,038	0,108
-256,380	800,000	0,022	0,049
-255,365	-12,619	0,029	0,013
-254,351	99,801	-0,101	0,083
-253,336	-102,940	0,074	-0,012
-252,322	800,000	0,041	-0,100
-251,307	64,813	-0,106	-0,077
-250,292	-18,438	0,072	0,032
-249,278	-25,026	0,058	-0,024
-248,263	42,557	0,082	0,053
-247,249	-70,691	-0,140	0,037
-246,234	-135,738	-0,101	0,008
-245,219	-200,000	-0,023	-0,095
-244,205	-34,455	-0,131	-0,051
-243,190	-140,773	-0,071	-0,005
-242,176	-99,900	0,129	0,023
-241,161	141,070	0,043	0,040
-240,146	-105,539	0,076	0,012
-239,132	-74,719	0,046	-0,012
-238,117	138,723	0,044	-0,041
-237,103	800,000	-0,049	-0,109
-236,088	126,524	0,077	0,069
-235,073	2,803	-0,090	0,046
-234,059	47,330	-0,104	0,069
-233,044	-73,828	0,062	0,016
-232,030	800,000	-0,009	-0,026
-231,015	-66,611	0,106	0,030
-230,000	-200,000	0,007	0,084
-228,986	800,000	0,020	0,051
-227,971	712,037	-0,050	-0,095
-226,957	387,665	0,097	0,144
-225,942	180,226	-0,068	0,071
-224,927	800,000	-0,035	0,102
-223,913	79,158	-0,058	-0,044
-222,898	-200,000	-0,021	-0,075
-221,884	-200,000	-0,026	-0,104
-220,869	-138,934	0,184	-0,014
-219,855	338,929	-0,031	-0,043
-218,840	3,264	0,145	0,075
-217,825	425,035	-0,015	0,023
-216,811	7,106	-0,028	0,015
-215,796	122,516	-0,129	-0,115
-214,782	800,000	0,040	-0,093
-213,767	144,250	0,063	-0,060
-212,752	-200,000	-0,008	0,037
-211,738	-68,913	0,188	0,051
-210,723	-32,150	0,119	-0,047
-209,709	38,660	-0,039	0,025
-208,694	-14,195	0,093	-0,043
-207,679	-200,000	-0,007	-0,113
-206,665	19,910	0,121	-0,069
-205,650	451,732	0,046	-0,073
-204,636	-200,000	0,034	-0,108
-203,621	140,131	-0,020	-0,019
-202,606	155,864	-0,034	0,034
-201,592	-45,577	0,062	-0,022
-200,577	800,000	-0,045	-0,095
-199,563	57,898	-0,106	0,074
-198,548	553,232	-0,027	0,046
-197,533	-58,160	0,093	0,029
-196,519	-68,220	-0,187	0,052
-195,504	78,594	-0,144	-0,109
-194,490	-200,000	0,005	-0,037
-193,475	800,000	-0,059	-0,119
-192,460	63,591	-0,145	-0,103
-191,446	-21,559	0,106	-0,046
-190,431	-200,000	0,022	-0,081
-189,417	800,000	-0,028	-0,059
-188,402	-200,000	0,005	0,046
-187,387	48,128	-0,133	-0,088
-186,373	-54,898	-0,014	0,005
-185,358	15,414	-0,043	0,024
-184,344	-18,253	0,048	0,021
-183,329	794,177	-0,028	-0,055
-182,315	400,966	-0,030	0,045
-181,300	-200,000	-0,018	-0,078
-180,285	-85,347	0,082	-0,018
-179,271	-200,000	0,005	-0,108
-178,256	-200,000	-0,001	0,032
-177,242	-78,937	0,113	-0,027
-176,227	164,290	0,080	-0,081
-175,212	-101,055	0,087	-0,015
-174,198	-46,886	0,065	0,022
-173,183	-11,662	-0,062	0,029
-172,169	800,000	-0,036	0,090
-171,154	-102,333	0,122	0,021
-170,139	92,029	0,114	0,091
-169,125	-200,000	0,001	0,048
-168,110	-200,000	0,007	-0,081
-167,096	-1,121	-0,073	0,036
-166,081	179,634	0,012	-0,012
-165,066	-200,000	-0,012	-0,072
-164,052	275,750	-0,050	-0,063
-163,037	-16,289	0,054	0,024
-162,023	-20,494	0,107	0,047
-161,008	-152,823	-0,047	-0,002
-159,993	436,633	0,037	-0,057
-158,979	-173,178	-0,161	-0,003
-157,964	293,501	-0,047	-0,061
-156,950	-49,767	-0,112	-0,038
-155,935	-23,218	-0,064	0,027
-154,920	690,910	0,099	0,185
-153,906	218,221	0,074	0,084
-152,891	-200,000	0,019	0,154
-151,877	252,540	0,103	-0,125
-150,862	7,490	-0,030	0,016
-149,847	-84,198	-0,099	-0,022
-148,833	41,650	0,047	0,030
-147,818	227,147	-0,058	0,067
-146,804	110,235	-0,049	-0,042
-145,789	656,481	0,053	0,096
-144,775	519,581	0,042	0,071
-143,760	134,407	-0,062	0,057
-142,745	-163,753	-0,107	0,003
-141,731	800,000	-0,056	-0,128
-140,716	26,867	0,032	-0,019
-139,702	-200,000	-0,014	0,081
-138,687	-172,908	-0,034	-0,001
-137,672	351,371	-0,070	-0,098
-136,658	246,180	0,163	0,195
-135,643	-132,850	-0,075	-0,007
-134,629	760,903	0,058	0,112
-133,614	-34,382	0,141	0,055
-132,599	234,538	0,051	0,060
-131,585	375,254	0,049	0,071
-130,570	-200,000	-0,014	0,089
-129,556	-1,640	-0,069	-0,035
-128,541	-153,540	-0,069	-0,003
-127,526	429,994	-0,020	0,030
-126,512	299,656	0,048	-0,063
-125,497	393,248	0,034	-0,050
-124,483	-200,000	-0,020	0,088
-123,468	-15,803	-0,098	-0,044
-122,453	483,654	-0,019	-0,031
-121,439	0,499	0,072	0,036
-120,424	-200,000	-0,014	-0,064
-119,410	116,035	0,075	0,066
-118,395	-64,315	0,101	0,029
-117,380	-200,000	0,014	0,064
-116,366	-200,000	0,015	-0,079
-115,351	800,000	-0,023	0,047
-114,337	-21,782	-0,099	-0,042
-113,322	-80,384	0,090	-0,021
-112,307	-106,032	0,132	0,021
-111,293	-112,897	-0,002	0,000
-110,278	800,000	-0,054	-0,145
-109,264	-45,969	-0,089	0,031
-108,249	-200,000	-0,007	-0,182
-107,234	800,000	-0,026	-0,052
-106,220	510,769	0,061	-0,101
-105,205	-93,886	-0,051	0,010
-104,191	-71,623	0,066	0,017
-103,176	800,000	-0,070	0,183
-102,162	-79,730	0,027	0,006
-101,147	218,559	0,031	-0,035
-100,132	-200,000	0,012	-0,097
-99,118	604,050	0,100	-0,177
-98,103	-200,000	0,009	0,149
-97,089	-46,628	-0,033	0,011
-96,074	-51,630	0,075	0,025
-95,059	-200,000	0,000	0,216
-94,045	91,464	-0,074	-0,059
-93,030	-200,000	0,026	-0,094
-92,016	118,842	0,012	0,011
-91,001	541,470	0,026	-0,043
-89,986	-200,000	0,059	0,000
-88,972	-112,825	-0,094	-0,013
-87,957	800,000	-0,047	0,108
-86,943	800,000	-0,009	-0,024
-85,928	800,000	0,030	0,089
-84,913	-200,000	0,002	-0,038
-83,899	-200,000	0,026	-0,129
-82,884	477,996	0,036	0,057
-81,870	-44,452	-0,104	-0,037
-80,855	-137,632	-0,159	-0,013
-79,840	-154,412	0,059	-0,003
-78,826	800,000	0,050	0,100
-77,811	-8,782	-0,066	0,031
-76,797	-200,000	0,003	0,109
-75,782	25,002	-0,036	0,021
-74,767	800,000	-0,044	-0,097
-73,753	-26,420	-0,108	0,045
-72,738	-200,000	-0,025	0,114
-71,724	-200,000	0,019	-0,174
-70,709	-97,144	-0,082	0,015
-69,694	361,175	-0,092	0,131
-68,680	-200,000	-0,001	0,113
-67,665	-97,547	-0,072	0,013
-66,651	66,217	0,121	0,087
-65,636	732,577	-0,060	-0,114
-64,622	-103,531	0,054	-0,009
-63,607	745,941	0,069	-0,132
-62,592	-200,000	0,009	0,056
-61,578	-30,136	0,151	-0,060
-60,563	-22,182	0,202	0,086
-59,549	673,522	-0,030	-0,056
-58,534	-53,485	-1,713	-0,552
-57,519	395,306	-1,481	-2,194
-56,505	-200,000	-0,645	-4,618
-55,490	154,162	0,937	0,911
-54,476	800,000	4,901	11,311
-53,461	-200,000	18,586	298,230
-52,446	800,000	731,884	2262,129
-51,432	560,198	1648,308	2830,706
-50,417	78,944	1668,744	1263,703
-49,403	22,399	1541,784	890,144
-48,388	16,297	1464,882	816,125
-47,373	17,801	1454,425	817,524
-46,359	17,000	1444,922	808,314
-45,344	14,568	1440,307	794,064
-44,330	14,512	1438,228	792,619
-43,315	14,515	1436,652	791,736
-42,300	14,524	1434,902	790,782
-41,286	14,550	1433,833	790,286
-40,271	14,502	1432,488	789,283
-39,257	14,525	1431,278	788,695
-38,242	14,590	1429,887	788,205
-37,227	14,525	1428,889	787,319
-36,213	14,574	1427,324	786,656
-35,198	14,545	1426,154	785,844
-34,184	14,604	1425,348	785,646
-33,169	14,528	1424,209	784,627
-32,154	14,526	1423,078	783,962
-31,140	14,546	1421,616	783,224
-30,125	14,553	1420,502	782,611
-29,111	14,568	1419,305	781,991
-28,096	14,529	1418,364	781,255
-27,082	14,470	1417,212	780,315
-26,067	14,485	1416,203	779,797
-25,052	14,446	1415,385	779,131
-24,038	14,454	1414,203	778,487
-23,023	14,477	1413,180	778,004
-22,009	14,444	1412,188	777,272
-20,994	14,419	1411,250	776,605
-19,979	14,426	1410,404	776,143
-18,965	14,399	1409,443	775,456
-17,950	14,395	1408,308	774,785
-16,936	14,401	1407,547	774,362
-15,921	14,384	1406,215	773,521
-14,906	14,346	1405,775	773,069
-13,892	14,441	1404,292	772,668
-12,877	14,378	1403,656	771,990
-11,863	14,365	1402,724	771,388
-10,848	14,377	1401,959	770,991
-9,833	14,370	1401,051	770,431
-8,819	14,283	1400,299	769,582
-7,804	14,293	1399,381	769,092
-6,790	14,294	1398,051	768,337
-5,775	14,261	1397,137	767,651
-4,760	14,279	1396,314	767,250
-3,746	14,276	1395,453	766,732
-2,731	14,293	1394,448	766,228
-1,717	14,287	1393,723	765,772
-0,702	14,286	1391,874	764,722
0,313	18,098	1310,283	737,560
1,327	34,507	706,412	435,663
2,342	52,828	124,309	83,978
3,356	4,505	16,690	8,637
4,371	3,372	3,157	1,621
5,386	-25,374	0,522	0,217
6,400	800,000	0,077	0,210
7,415	170,980	-0,210	-0,213
8,429	204,591	-0,347	-0,381
9,444	-1,522	-0,433	-0,215
10,459	491,275	-0,139	-0,226
11,473	87,677	-0,275	-0,215
12,488	98,216	-0,226	-0,184
13,502	-25,698	-0,333	-0,138
14,517	60,611	-0,294	-0,205
15,531	22,379	-0,447	-0,258
16,546	80,164	-0,382	-0,290
17,561	61,937	-0,461	-0,324
18,575	-73,423	-0,298	-0,076
19,590	193,441	-0,174	-0,186
20,604	18,555	-0,247	-0,139
21,619	142,861	-0,375	-0,353
22,634	229,916	-0,387	-0,447
23,648	54,953	-0,525	-0,357
24,663	74,208	-0,441	-0,327
25,677	35,377	-0,406	-0,251
26,692	61,289	-0,362	-0,253
27,707	93,204	-0,276	-0,220
28,721	800,000	-0,189	-0,391
29,736	26,873	-0,469	-0,277
30,750	99,289	-0,359	-0,293
31,765	222,284	-0,343	-0,390
32,780	273,363	-0,289	-0,361
33,794	348,559	-0,298	-0,415
34,809	124,788	-0,367	-0,327
35,823	97,375	-0,366	-0,296
36,838	2,186	-0,381	-0,193
37,853	30,483	-0,389	-0,234
38,867	131,435	-0,289	-0,262
39,882	-11,465	-0,455	-0,210
40,896	78,816	-0,365	-0,275
41,911	185,975	-0,282	-0,296
42,926	97,798	-0,339	-0,275
43,940	29,705	-0,283	-0,170
44,955	29,506	-0,537	-0,321
45,969	228,911	-0,311	-0,359
46,984	447,730	-0,208	-0,324
47,999	108,224	-0,344	-0,289
49,013	-3,544	-0,253	-0,124
50,028	29,687	-0,353	-0,211
51,042	79,298	-0,265	-0,200
52,057	114,763	-0,384	-0,330
53,071	90,558	-0,320	-0,252
54,086	102,766	-0,400	-0,330
55,101	168,183	-0,264	-0,265
56,115	17,429	-0,261	-0,145
57,130	80,983	-0,418	-0,317
58,144	-40,430	-0,368	-0,134
59,159	115,471	-0,395	-0,340
60,174	93,167	-0,278	-0,221
61,188	-28,130	-0,390	-0,158
62,203	-4,793	-0,339	-0,164
63,217	-88,072	-0,395	-0,083
64,232	-5,847	-0,316	-0,152
65,247	141,498	-0,335	-0,312
66,261	128,502	-0,383	-0,344
67,276	77,720	-0,476	-0,357
68,290	255,422	-0,209	-0,252
69,305	-46,510	-0,276	-0,095
70,320	-20,542	-0,280	-0,121
71,334	59,285	-0,257	-0,178
72,349	-39,904	-0,260	-0,095
73,363	78,917	-0,286	-0,215
74,378	-38,789	-0,328	-0,121
75,393	27,554	-0,458	-0,270
76,407	150,222	-0,266	-0,254
77,422	145,902	-0,202	-0,191
78,436	-13,865	-0,309	-0,140
79,451	-131,008	-0,374	-0,035
80,466	-72,178	-0,391	-0,101
81,480	190,889	-0,221	-0,234
82,495	-16,216	-0,312	-0,139
83,509	54,744	-0,210	-0,142
84,524	189,758	-0,192	-0,203
85,539	-96,028	-0,439	-0,081
86,553	-94,030	-0,387	-0,074
87,568	128,654	-0,345	-0,309
88,582	29,797	-0,333	-0,199
89,597	-76,787	-0,190	-0,046
90,611	9,558	-0,251	-0,133
91,626	111,803	-0,284	-0,241
92,641	-17,031	-0,292	-0,129
93,655	75,854	-0,283	-0,210
94,670	123,269	-0,273	-0,241
95,684	-86,435	-0,352	-0,075
96,699	1,253	-0,460	-0,231
97,714	-54,466	-0,369	-0,117
98,728	35,017	-0,142	-0,087
99,743	601,545	-0,141	-0,246
100,757	41,280	-0,340	-0,216
101,772	-6,690	-0,402	-0,191
102,787	69,429	-0,228	-0,165
103,801	127,116	-0,392	-0,349
104,816	251,458	-0,154	-0,184
105,830	284,129	-0,170	-0,215
106,845	284,013	-0,163	-0,206
107,860	-23,698	-0,243	-0,102
108,874	114,321	-0,273	-0,233
109,889	20,075	-0,261	-0,147
110,903	206,946	-0,261	-0,286
111,918	70,404	-0,322	-0,233
112,933	-77,394	-0,276	-0,067
113,947	312,257	-0,127	-0,167
114,962	42,621	-0,174	-0,111
115,976	51,252	-0,284	-0,189
116,991	396,369	-0,222	-0,326
118,006	208,170	-0,266	-0,292
119,020	356,600	-0,183	-0,256
120,035	-107,214	-0,278	0,042
121,049	25,082	-0,279	-0,162
122,064	-146,817	-0,196	-0,012
123,079	-21,337	-0,345	-0,147
124,093	313,581	-0,194	-0,256
125,108	98,091	-0,287	-0,231
126,122	66,187	-0,226	-0,160
127,137	61,142	-0,238	-0,165
128,151	77,832	-0,241	-0,179
129,166	150,608	-0,251	-0,239
130,181	-112,107	-0,187	-0,026
131,195	40,234	-0,161	-0,101
132,210	35,643	-0,252	-0,155
133,224	-49,761	-0,361	-0,119
134,239	311,895	-0,216	-0,284
135,254	-1,504	-0,278	-0,136
136,268	24,622	-0,222	-0,128
137,283	-29,209	-0,345	-0,137
138,297	-39,760	-0,287	-0,104
139,312	17,805	-0,293	-0,163
140,327	139,034	-0,225	-0,207
141,341	285,762	-0,195	-0,247
142,356	514,599	-0,092	-0,151
143,370	17,253	-0,429	-0,238
144,385	6,036	-0,260	-0,134
145,400	52,554	-0,316	-0,210
146,414	193,428	-0,277	-0,293
147,429	222,870	-0,200	-0,225
148,443	33,926	-0,251	-0,152
149,458	-86,373	-0,140	-0,030
150,473	-95,641	-0,286	-0,053
151,487	47,493	-0,162	-0,105
152,502	97,999	-0,152	-0,122
153,516	-2,220	-0,218	-0,106
154,531	239,022	-0,232	-0,269
155,546	14,096	-0,351	-0,190
156,560	135,916	-0,328	-0,298
157,575	-114,439	-0,183	-0,024
158,589	-45,099	-0,203	-0,070
159,604	150,589	-0,244	-0,232
160,619	475,856	-0,089	-0,141
161,633	-0,590	-0,287	-0,142
162,648	54,094	-0,258	-0,173
163,662	-83,568	-0,276	-0,061
164,677	-11,235	-0,145	-0,067
165,692	203,738	-0,190	-0,206
166,706	44,770	-0,218	-0,140
167,721	-52,182	-0,350	-0,113
168,735	68,046	-0,168	-0,120
169,750	3,903	-0,251	-0,127
170,764	39,130	-0,255	-0,158
171,779	246,958	-0,150	-0,177
172,794	800,000	-0,120	-0,258
173,808	701,764	-0,122	-0,225
174,823	57,401	-0,206	-0,140
175,837	394,334	-0,237	-0,345
176,852	240,455	-0,144	-0,167
177,867	19,654	-0,308	-0,172
178,881	71,833	-0,259	-0,188
179,896	87,327	-0,322	-0,248
180,910	680,882	-0,155	-0,282
181,925	-4,543	-0,389	-0,186
182,940	46,327	-0,294	-0,190
183,954	6,765	-0,263	-0,136
184,969	-200,000	-0,056	-0,241
185,983	800,000	-0,103	-0,267
186,998	-19,450	-0,236	-0,101
188,013	15,999	-0,288	-0,158
189,027	1,129	-0,261	-0,130
190,042	-57,975	-0,300	-0,091
191,056	120,281	-0,218	-0,189
192,071	-107,106	-0,320	-0,049
193,086	800,000	-0,092	-0,263
194,100	132,409	-0,201	-0,181
195,115	-126,080	-0,281	0,029
196,129	190,793	-0,137	-0,143
197,144	117,987	-0,213	-0,183
198,159	477,747	-0,167	-0,263
199,173	772,201	-0,127	-0,243
200,188	-58,547	-0,167	-0,050
201,202	51,000	-0,227	-0,149
202,217	65,644	-0,237	-0,167
203,232	107,572	-0,208	-0,172
204,246	289,868	-0,312	-0,395
205,261	127,544	-0,228	-0,201
206,275	-200,000	0,026	-0,117
207,290	61,661	-0,205	-0,142
208,304	69,462	-0,206	-0,147
209,319	305,971	-0,171	-0,222
210,334	364,628	-0,172	-0,241
211,348	-67,337	-0,183	-0,050
212,363	-0,259	-0,218	-0,108
213,377	55,693	-0,250	-0,168
214,392	188,757	-0,206	-0,214
215,407	739,759	-0,095	-0,178
216,421	11,580	-0,239	-0,127
217,436	4,890	-0,269	-0,137
218,450	126,618	-0,106	-0,093
219,465	-44,061	-0,218	-0,076
220,480	-42,163	-0,182	-0,064
221,494	769,195	-0,142	-0,270
222,509	184,177	-0,168	-0,172
223,523	-36,198	-0,060	-0,022
224,538	99,346	-0,212	-0,170
225,553	-5,188	-0,207	-0,098
226,567	-9,203	-0,255	-0,118
227,582	181,231	-0,244	-0,249
228,596	162,168	-0,214	-0,209
229,611	800,000	-0,128	-0,270
230,626	-44,268	-0,252	-0,087
231,640	-162,111	-0,183	-0,006
232,655	43,386	-0,322	-0,204
233,669	103,839	-0,273	-0,222
234,684	95,642	-0,185	-0,146
235,699	283,631	-0,075	-0,094
236,713	-91,222	-0,115	-0,023
237,728	-11,625	-0,179	-0,081
238,742	-56,244	-0,106	-0,032
239,757	8,324	-0,131	-0,068
240,772	800,000	-0,085	-0,214
241,786	257,267	-0,209	-0,249
242,801	168,192	-0,160	-0,158
243,815	-70,763	-0,129	-0,034
244,830	44,204	-0,185	-0,117
245,844	21,719	-0,193	-0,108
246,859	600,749	-0,133	-0,229
247,874	-200,000	-0,085	-0,314
248,888	101,476	-0,275	-0,222
249,903	-73,902	-0,220	-0,055
250,917	3,649	-0,123	0,062
251,932	-124,066	-0,225	-0,024
252,947	206,589	-0,109	-0,118
253,961	23,167	-0,349	-0,198
254,976	56,444	-0,176	-0,118
255,990	56,511	-0,242	-0,163
257,005	278,323	-0,152	-0,187
258,020	-173,599	-0,154	-0,003
259,034	-5,559	-0,076	-0,036
260,049	60,088	-0,197	-0,134
261,063	-21,601	-0,068	0,029
262,078	389,964	-0,067	-0,096
263,093	133,641	-0,276	-0,247
264,107	146,502	-0,160	-0,149
265,122	197,919	-0,125	-0,132
266,136	-59,353	-0,217	-0,064
267,151	-116,803	-0,155	0,019
268,166	31,095	-0,244	-0,144
269,180	78,085	-0,196	-0,144
270,195	603,244	-0,111	-0,191
271,209	154,543	-0,156	-0,148
272,224	800,000	-0,077	-0,181
273,239	800,000	-0,057	-0,124
274,253	62,208	-0,184	-0,127
275,268	28,868	-0,131	-0,077
276,282	33,782	-0,245	-0,147
277,297	2,025	-0,224	-0,111
278,312	-65,520	-0,178	-0,049
279,326	312,514	-0,056	-0,073
280,341	-68,007	-0,228	-0,061
281,355	-152,653	-0,186	0,009
282,370	-125,494	-0,159	-0,017
283,384	178,016	-0,151	-0,152
284,399	128,240	-0,179	-0,157
285,414	800,000	-0,097	-0,227
286,428	27,871	-0,200	-0,116
287,443	393,371	-0,059	-0,086
288,457	216,549	-0,084	-0,092
289,472	-158,062	-0,232	-0,009
290,487	624,828	-0,085	-0,149
291,501	55,323	-0,285	-0,190
292,516	791,997	-0,149	-0,284
293,530	502,926	-0,137	-0,219
294,545	440,727	-0,098	-0,149
295,560	-1,405	-0,080	0,039
296,574	-111,021	-0,151	-0,021
297,589	88,393	-0,127	-0,097
298,603	401,053	-0,143	-0,208
299,618	-48,764	-0,246	-0,081
300,633	68,803	-0,099	-0,070
301,647	123,726	-0,169	-0,146
302,662	84,851	-0,012	-0,009
303,676	317,255	-0,071	-0,092
304,691	37,931	-0,127	-0,077
305,706	-58,518	-0,144	-0,043
306,720	174,577	-0,219	-0,219
307,735	-66,232	-0,248	-0,067
308,749	672,675	-0,087	-0,155
309,764	-75,021	-0,114	0,028
310,779	206,512	-0,123	-0,132
311,793	96,820	-0,226	-0,178
312,808	527,358	-0,086	-0,141
313,822	-200,000	-0,012	-0,231
314,837	200,334	-0,070	-0,074
315,852	283,592	-0,150	-0,186
316,866	71,614	-0,073	0,052
317,881	521,258	-0,058	-0,095
318,895	-85,904	-0,096	-0,020
319,910	32,592	-0,098	-0,058
320,925	333,345	-0,153	-0,204
321,939	597,083	-0,073	-0,125
322,954	-19,809	-0,018	-0,008
323,968	-124,918	-0,245	0,026
324,983	-2,583	-0,168	-0,081
325,997	-25,041	-0,225	0,091
327,012	129,708	-0,117	-0,102
328,027	192,006	-0,140	-0,146
329,041	443,208	-0,098	-0,148
330,056	53,119	-0,146	-0,096
331,070	800,000	-0,098	-0,205
332,085	-105,979	-0,146	-0,022
333,100	317,860	-0,138	-0,180
334,114	74,632	-0,162	-0,117
335,129	60,740	-0,249	-0,169
336,143	-67,978	-0,186	-0,050
337,158	554,703	-0,079	-0,131
338,173	800,000	-0,051	-0,101
339,187	124,909	-0,126	-0,109
340,202	623,442	-0,093	-0,161
341,216	-53,875	-0,099	-0,031
342,231	487,296	-0,110	-0,173
343,246	-92,053	-0,120	-0,023
344,260	-48,006	-0,076	-0,025
345,275	30,606	-0,110	-0,064
346,289	10,364	-0,155	-0,081
347,304	91,785	-0,148	-0,114
348,319	156,779	-0,153	-0,145
349,333	410,509	-0,103	-0,151
350,348	114,523	-0,080	-0,067
351,362	-117,834	-0,165	-0,020
352,377	-73,048	-0,143	0,036
353,392	58,825	-0,061	-0,041
354,406	800,000	-0,046	-0,105
355,421	208,224	1316,309	1413,266
356,435	160,209	1477,223	1413,755
