DTS Sentinel unit serial number:	SN410029Multiplexer serial number:	ORYXHardware model number:	OX2-SRSoftware version number:	ORYX F/W v4,00 Oryx Data Collector v3.7.2.0data status	okinstallation	B3 Nyhavnadifferential loss correction	single-endedforward channel	channel 1reverse channel	N/Adate	2023/12/01time	23:52:30forward acquisition time	300,00reverse acquisition time	0,00gamma	499,1914k internal	0,3196k external	0,3196temperature offset calibration	1,0000default loss term (dB/km)	0,3820temperature slope calibration	1,0000multiplexer offset coefficient	1,0000multiplexer slope coefficient	1,0000fibre end	0,00T internal ref (°C)	16,01T ext. ref 1 (°C)	1,58T ext. ref 2 (°C)	1,57length (m)	temperature (°C)	Stokes	anti-Stokes-744,400	434,533	-0,169	-0,268
-743,385	-200,000	0,010	0,297
-742,371	29,729	-0,263	-0,163
-741,356	-200,000	-0,104	0,457
-740,342	243,961	-0,147	-0,180
-739,327	-200,000	-0,001	0,265
-738,312	515,555	-0,175	-0,299
-737,298	-200,000	0,021	0,335
-736,283	319,306	-0,186	-0,257
-735,269	-200,000	0,008	0,330
-734,254	800,000	-0,108	-0,235
-733,239	-41,810	-0,196	0,073
-732,225	800,000	-0,122	-0,290
-731,210	-27,213	0,053	0,022
-730,196	-103,255	-0,073	-0,012
-729,181	34,851	-0,149	0,095
-728,167	800,000	-0,025	-0,059
-727,152	800,000	0,033	0,086
-726,137	167,183	0,080	0,083
-725,123	800,000	-0,026	0,074
-724,108	-25,168	0,047	0,020
-723,094	800,000	-0,054	-0,133
-722,079	386,315	-0,058	-0,087
-721,064	62,037	-0,065	0,047
-720,050	800,000	0,012	-0,037
-719,035	-45,306	-0,076	0,027
-718,021	-200,000	0,026	0,000
-717,006	325,175	0,055	0,077
-715,991	-16,255	-0,130	-0,060
-714,977	-200,000	0,046	-0,152
-713,962	242,764	0,100	-0,122
-712,948	154,235	0,078	0,077
-711,933	53,310	0,063	-0,044
-710,918	164,371	-0,052	-0,054
-709,904	503,348	-0,089	-0,150
-708,889	-97,980	-0,100	0,019
-707,875	122,123	-0,110	-0,100
-706,860	254,693	-0,058	-0,073
-705,845	-32,495	0,138	0,056
-704,831	-33,919	-0,156	-0,062
-703,816	-200,000	-0,001	-0,007
-702,802	-89,645	-0,085	-0,018
-701,787	214,120	-0,095	-0,110
-700,772	-200,000	-0,005	-0,102
-699,758	-111,724	0,145	0,021
-698,743	360,504	0,019	0,027
-697,729	107,661	0,066	-0,057
-696,714	77,960	-0,066	-0,051
-695,699	111,088	0,024	0,021
-694,685	-48,437	-0,014	-0,005
-693,670	-78,633	-0,069	-0,017
-692,656	-21,475	-0,185	0,082
-691,641	800,000	-0,034	0,087
-690,627	-200,000	0,035	0,211
-689,612	-70,392	0,107	0,029
-688,597	43,546	-0,027	0,018
-687,583	-185,783	-0,086	0,001
-686,568	-200,000	-0,030	-0,181
-685,554	800,000	0,016	-0,040
-684,539	-9,574	-0,068	-0,033
-683,524	800,000	0,039	0,095
-682,510	115,761	0,077	-0,069
-681,495	800,000	0,059	-0,161
-680,481	135,322	-0,087	0,083
-679,466	-96,331	-0,133	0,025
-678,451	-57,116	-0,076	-0,024
-677,437	50,100	0,099	-0,068
-676,422	-200,000	0,013	0,065
-675,408	35,500	0,029	0,019
-674,393	-200,000	-0,010	-0,054
-673,378	-9,128	0,096	0,046
-672,364	-21,892	-0,080	-0,035
-671,349	-200,000	0,033	-0,140
-670,335	800,000	0,038	0,109
-669,320	202,360	0,049	-0,055
-668,305	-200,000	-0,007	0,045
-667,291	418,557	-0,051	-0,079
-666,276	-87,970	-0,032	-0,007
-665,262	387,599	-0,075	0,112
-664,247	60,330	-0,033	-0,023
-663,232	-28,876	0,087	0,036
-662,218	-200,000	-0,044	0,205
-661,203	121,564	-0,037	0,034
-660,189	-123,323	-0,016	-0,002
-659,174	800,000	0,050	-0,157
-658,159	-200,000	-0,050	-0,169
-657,145	124,093	0,114	-0,104
-656,130	330,046	-0,051	0,072
-655,116	641,372	-0,047	-0,088
-654,101	339,428	0,075	0,106
-653,086	-43,226	0,106	0,039
-652,072	800,000	0,034	-0,088
-651,057	-148,198	-0,083	0,005
-650,043	-2,393	-0,110	-0,056
-649,028	800,000	-0,044	-0,116
-648,014	-147,872	0,106	-0,006
-646,999	-99,655	-0,039	-0,007
-645,984	-112,456	0,055	-0,008
-644,970	-30,430	-0,082	-0,034
-643,955	800,000	0,024	-0,052
-642,941	-65,187	-0,064	-0,019
-641,926	-120,426	0,059	-0,007
-640,911	116,294	0,059	0,052
-639,897	-3,358	0,062	-0,031
-638,882	483,408	-0,060	0,099
-637,868	-200,000	-0,002	0,059
-636,853	-200,000	-0,033	-0,161
-635,838	128,311	-0,061	-0,056
-634,824	-200,000	-0,007	0,045
-633,809	314,184	0,036	0,049
-632,795	-200,000	0,002	-0,066
-631,780	522,484	-0,062	0,106
-630,765	479,070	-0,067	0,111
-629,751	8,880	-0,058	-0,031
-628,736	-200,000	0,016	0,060
-627,722	-37,564	-0,133	0,051
-626,707	-200,000	-0,006	0,051
-625,692	-120,582	0,117	0,014
-624,678	-99,818	-0,114	0,020
-623,663	-88,186	0,140	-0,030
-622,649	258,407	-0,053	-0,066
-621,634	387,690	-0,010	-0,015
-620,619	-200,000	-0,011	0,075
-619,605	-126,394	-0,062	0,007
-618,590	58,367	0,034	0,024
-617,576	-58,489	-0,108	0,034
-616,561	-60,217	-0,020	-0,006
-615,546	-200,000	0,026	-0,136
-614,532	119,069	0,066	-0,059
-613,517	-41,680	0,058	0,021
-612,503	800,000	-0,046	-0,117
-611,488	-195,593	-0,055	-0,000
-610,474	-200,000	-0,023	0,102
-609,459	-99,885	0,092	0,017
-608,444	-22,390	0,041	-0,018
-607,430	302,187	-0,021	0,029
-606,415	-81,530	-0,097	-0,023
-605,401	-200,000	0,007	0,035
-604,386	-92,259	0,094	-0,019
-603,371	37,741	-0,078	0,050
-602,357	156,342	-0,104	0,104
-601,342	488,249	-0,016	0,027
-600,328	-200,000	-0,021	-0,145
-599,313	59,784	-0,057	-0,041
-598,298	-149,909	0,024	-0,001
-597,284	-131,515	0,161	0,015
-596,269	-5,818	0,044	-0,022
-595,255	-126,729	0,084	-0,009
-594,240	-74,175	-0,099	-0,026
-593,225	296,890	-0,026	0,034
-592,211	-200,000	0,001	-0,004
-591,196	-36,131	-0,081	-0,031
-590,182	-200,000	0,020	-0,080
-589,167	-32,406	0,128	-0,052
-588,152	297,966	0,051	0,068
-587,138	56,601	-0,108	-0,076
-586,123	-1,156	-0,031	0,016
-585,109	-69,731	-0,080	0,022
-584,094	159,927	-0,168	-0,170
-583,079	-21,844	-0,041	0,018
-582,065	-162,086	-0,162	-0,006
-581,050	800,000	0,055	0,113
-580,036	105,886	-0,106	-0,091
-579,021	-200,000	-0,007	-0,031
-578,006	-134,216	-0,090	0,008
-576,992	-4,499	-0,086	-0,043
-575,977	143,335	0,070	0,067
-574,963	58,752	0,126	0,090
-573,948	3,529	0,077	0,041
-572,934	-200,000	-0,014	-0,062
-571,919	-13,820	-0,022	-0,010
-570,904	162,742	-0,090	0,091
-569,890	-51,142	0,017	-0,006
-568,875	-31,292	0,006	-0,003
-567,861	800,000	0,045	0,107
-566,846	-137,842	0,085	-0,007
-565,831	160,756	-0,123	0,125
-564,817	-7,477	-0,109	-0,053
-563,802	800,000	-0,049	-0,114
-562,788	-49,469	0,071	-0,024
-561,773	800,000	0,025	-0,063
-560,758	109,361	-0,085	0,073
-559,744	334,055	0,081	-0,114
-558,729	800,000	0,057	0,132
-557,715	217,327	-0,113	-0,130
-556,700	120,771	-0,076	-0,069
-555,685	-45,847	0,119	-0,042
-554,671	-134,024	0,036	-0,003
-553,656	430,262	-0,085	0,133
-552,642	146,708	0,189	0,184
-551,627	-200,000	-0,011	0,040
-550,612	100,379	0,098	-0,082
-549,598	-200,000	-0,014	-0,166
-548,583	27,255	-0,065	-0,039
-547,569	48,961	-0,131	-0,089
-546,554	-2,619	0,090	-0,045
-545,539	243,744	0,082	0,100
-544,525	-77,622	0,167	-0,041
-543,510	800,000	-0,026	-0,073
-542,496	800,000	0,016	-0,044
-541,481	-98,998	-0,031	-0,006
-540,466	-66,359	0,077	0,022
-539,452	269,832	0,069	0,088
-538,437	-109,703	-0,195	0,029
-537,423	227,735	0,142	0,167
-536,408	-200,000	-0,004	-0,029
-535,393	-200,000	-0,011	0,046
-534,379	800,000	-0,083	-0,174
-533,364	-200,000	-0,009	-0,080
-532,350	5,897	0,018	-0,010
-531,335	-37,030	0,052	0,020
-530,321	-200,000	0,003	0,044
-529,306	-43,882	0,033	-0,012
-528,291	348,760	0,040	-0,057
-527,277	7,017	-0,067	0,036
-526,262	-200,000	0,004	0,121
-525,248	352,800	-0,026	0,037
-524,233	577,955	-0,082	-0,145
-523,218	171,484	-0,107	0,111
-522,204	800,000	0,041	0,114
-521,189	-200,000	-0,019	0,130
-520,175	800,000	0,031	-0,066
-519,160	-200,000	0,001	-0,089
-518,145	55,804	0,062	0,044
-517,131	-118,483	0,026	-0,003
-516,116	800,000	-0,021	0,059
-515,102	-72,537	0,093	0,025
-514,087	800,000	0,028	-0,073
-513,072	116,468	0,132	-0,117
-512,058	-92,543	-0,144	-0,029
-511,043	-200,000	-0,008	-0,041
-510,029	-134,062	0,136	-0,012
-509,014	-200,000	-0,009	-0,041
-507,999	800,000	0,036	0,087
-506,985	800,000	-0,034	0,073
-505,970	335,474	-0,071	-0,100
-504,956	11,087	-0,064	-0,035
-503,941	-136,356	0,102	0,008
-502,926	-73,098	-0,103	0,027
-501,912	682,353	-0,038	0,072
-500,897	-200,000	-0,033	0,195
-499,883	-126,418	-0,022	0,002
-498,868	-47,864	-0,027	-0,009
-497,853	707,756	-0,034	-0,066
-496,839	-98,640	-0,068	0,012
-495,824	-54,758	0,068	0,022
-494,810	-155,050	0,131	-0,006
-493,795	389,980	-0,091	0,137
-492,781	-200,000	-0,001	-0,078
-491,766	800,000	-0,049	0,129
-490,751	-182,338	-0,070	0,001
-489,737	-89,369	0,094	-0,020
-488,722	-26,139	-0,074	0,031
-487,708	270,274	-0,010	0,012
-486,693	-92,244	0,016	0,003
-485,678	484,928	0,042	0,069
-484,664	-200,000	0,013	-0,157
-483,649	-42,146	-0,069	0,025
-482,635	705,803	-0,024	-0,046
-481,620	-200,000	0,001	0,028
-480,605	-200,000	0,145	-0,000
-479,591	42,931	-0,059	0,039
-478,576	135,674	-0,050	-0,047
-477,562	25,101	0,066	0,039
-476,547	146,592	0,130	-0,126
-475,532	448,873	0,037	0,060
-474,518	34,350	0,117	-0,074
-473,503	-200,000	-0,025	0,119
-472,489	-106,736	-0,056	-0,009
-471,474	-28,449	-0,081	0,033
-470,459	334,246	-0,067	-0,093
-469,445	-200,000	0,003	0,048
-468,430	-200,000	-0,014	-0,124
-467,416	385,067	-0,076	0,113
-466,401	-200,000	0,010	0,149
-465,386	213,292	0,117	0,134
-464,372	236,857	-0,058	0,069
-463,357	191,274	-0,062	0,068
-462,343	800,000	0,028	0,078
-461,328	-200,000	-0,000	-0,054
-460,313	-157,734	0,032	-0,001
-459,299	-200,000	0,037	0,129
-458,284	-200,000	0,006	0,083
-457,270	-200,000	0,042	0,148
-456,255	-18,273	0,064	0,029
-455,241	-133,463	-0,077	0,007
-454,226	-144,199	0,073	-0,005
-453,211	180,063	0,086	-0,091
-452,197	17,968	0,022	0,012
-451,182	105,537	-0,133	0,113
-450,168	-200,000	0,004	0,023
-449,153	-200,000	-0,003	-0,149
-448,138	764,723	0,023	0,045
-447,124	147,002	-0,119	-0,115
-446,109	800,000	0,057	0,137
-445,095	800,000	-0,021	-0,059
-444,080	-118,705	0,021	-0,003
-443,065	71,538	0,042	0,031
-442,051	106,086	0,017	0,015
-441,036	-130,587	-0,155	-0,015
-440,022	183,819	0,019	-0,020
-439,007	-200,000	-0,005	0,018
-437,992	513,093	0,049	0,082
-436,978	-32,157	-0,066	-0,026
-435,963	-200,000	-0,002	0,066
-434,949	331,933	-0,048	-0,067
-433,934	355,570	-0,120	-0,173
-432,919	800,000	-0,036	-0,076
-431,905	-3,089	0,040	-0,020
-430,890	16,750	0,037	0,021
-429,876	-49,968	0,147	0,050
-428,861	-63,766	0,019	0,005
-427,846	51,156	-0,101	-0,069
-426,832	-200,000	-0,003	0,055
-425,817	-91,513	-0,157	-0,032
-424,803	-60,180	-0,055	-0,017
-423,788	-4,140	0,122	-0,061
-422,773	39,488	-0,072	0,046
-421,759	31,573	0,104	0,064
-420,744	-200,000	0,011	0,167
-419,730	69,988	-0,053	-0,039
-418,715	793,162	-0,056	-0,112
-417,701	-200,000	-0,004	0,021
-416,686	-171,835	0,153	-0,004
-415,671	800,000	-0,040	0,115
-414,657	119,333	0,038	0,034
-413,642	217,905	0,114	0,131
-412,628	26,631	-0,191	-0,115
-411,613	-1,429	-0,078	-0,039
-410,598	7,316	0,111	0,059
-409,584	308,868	-0,043	-0,057
-408,569	41,912	0,142	0,092
-407,555	-200,000	0,015	-0,095
-406,540	-200,000	0,015	0,184
-405,525	800,000	-0,051	-0,153
-404,511	134,930	0,043	-0,041
-403,496	-32,944	-0,048	-0,019
-402,482	-18,669	-0,170	-0,076
-401,467	-106,960	0,009	0,001
-400,452	-200,000	-0,023	0,148
-399,438	446,240	0,017	-0,027
-398,423	-200,000	-0,007	-0,113
-397,409	-200,000	-0,053	-0,193
-396,394	-200,000	-0,040	-0,197
-395,379	30,930	0,006	-0,004
-394,365	742,112	0,018	-0,034
-393,350	-32,063	0,103	0,041
-392,336	-128,285	0,036	-0,004
-391,321	-200,000	-0,020	-0,178
-390,306	310,540	-0,022	-0,030
-389,292	108,732	-0,051	-0,043
-388,277	40,577	0,104	-0,067
-387,263	127,356	0,029	-0,026
-386,248	-73,011	0,076	-0,020
-385,233	382,179	-0,094	-0,140
-384,219	-200,000	0,017	0,063
-383,204	626,128	0,045	-0,081
-382,190	576,610	-0,048	-0,084
-381,175	-200,000	-0,032	0,159
-380,160	53,962	0,052	-0,036
-379,146	-200,000	0,018	0,184
-378,131	-200,000	-0,006	0,035
-377,117	-50,782	0,034	0,011
-376,102	-140,684	-0,052	0,004
-375,088	-200,000	-0,020	-0,073
-374,073	666,656	-0,070	-0,130
-373,058	131,086	0,100	-0,092
-372,044	579,819	-0,029	-0,051
-371,029	-200,000	-0,025	0,102
-370,015	800,000	0,062	0,126
-369,000	367,069	-0,096	-0,139
-367,985	-200,000	0,013	0,065
-366,971	-200,000	0,003	-0,088
-365,956	39,072	-0,093	-0,060
-364,942	124,867	-0,065	0,059
-363,927	668,668	0,039	-0,073
-362,912	-140,231	0,084	0,006
-361,898	-121,647	-0,120	-0,014
-360,883	800,000	0,047	0,099
-359,869	-200,000	0,000	0,085
-358,854	-44,287	-0,122	-0,044
-357,839	-66,108	0,056	0,016
-356,825	508,999	0,129	0,216
-355,810	94,317	0,070	-0,057
-354,796	-200,000	-0,018	-0,062
-353,781	298,718	-0,101	-0,133
-352,766	-57,290	-0,225	-0,070
-351,752	-54,612	-0,060	-0,020
-350,737	-114,559	0,095	0,013
-349,723	273,579	-0,079	-0,101
-348,708	-26,283	0,108	0,045
-347,693	-200,000	-0,025	0,000
-346,679	800,000	0,040	-0,104
-345,664	69,935	-0,113	0,083
-344,650	-200,000	-0,005	0,050
-343,635	547,957	0,093	0,161
-342,620	446,413	0,023	-0,037
-341,606	-200,000	-0,007	0,076
-340,591	800,000	0,024	-0,051
-339,577	-54,935	-0,038	0,012
-338,562	173,322	0,039	-0,041
-337,548	-52,187	0,123	-0,041
-336,533	800,000	-0,009	-0,021
-335,518	256,802	0,069	0,086
-334,504	447,570	0,080	0,127
-333,489	-200,000	-0,025	-0,083
-332,475	130,672	0,087	-0,080
-331,460	-44,475	0,075	-0,027
-330,445	-200,000	0,018	-0,074
-329,431	-45,385	0,105	0,037
-328,416	800,000	0,032	0,086
-327,402	11,974	0,078	0,043
-326,387	62,467	-0,130	0,093
-325,372	-70,878	-0,127	-0,034
-324,358	-105,742	-0,068	-0,011
-323,343	-166,237	-0,122	-0,004
-322,329	-4,890	-0,131	0,064
-321,314	169,359	-0,067	-0,069
-320,299	-10,785	0,113	-0,053
-319,285	195,582	0,092	-0,101
-318,270	197,185	-0,036	0,039
-317,256	216,743	-0,036	0,041
-316,241	-200,000	-0,016	-0,084
-315,226	800,000	-0,023	0,055
-314,212	800,000	0,015	-0,041
-313,197	551,916	0,037	0,063
-312,183	800,000	0,037	0,074
-311,168	435,964	0,058	-0,091
-310,153	-200,000	0,022	-0,202
-309,139	-51,933	0,110	0,037
-308,124	800,000	-0,009	-0,026
-307,110	-1,305	-0,163	0,082
-306,095	-0,595	0,067	0,034
-305,080	-200,000	-0,027	0,092
-304,066	-88,584	0,057	0,012
-303,051	183,780	0,071	-0,075
-302,037	-108,689	-0,063	-0,010
-301,022	-200,000	-0,003	-0,042
-300,008	-68,308	0,095	0,026
-298,993	254,411	0,083	0,102
-297,978	93,933	-0,078	0,063
-296,964	-72,086	0,051	0,014
-295,949	800,000	0,011	0,029
-294,935	-200,000	0,078	-0,249
-293,920	67,673	0,065	-0,048
-292,905	32,213	0,042	0,026
-291,891	-60,356	0,180	-0,055
-290,876	800,000	0,037	-0,075
-289,862	-124,354	-0,109	0,012
-288,847	779,871	-0,023	0,046
-287,832	-200,000	-0,051	-0,204
-286,818	109,039	-0,041	-0,035
-285,803	-200,000	0,001	-0,030
-284,789	-150,073	0,062	0,003
-283,774	-200,000	-0,002	0,135
-282,759	-13,847	0,014	-0,006
-281,745	733,665	-0,055	-0,105
-280,730	-112,245	-0,147	-0,021
-279,716	648,583	-0,024	0,044
-278,701	121,116	0,125	-0,111
-277,686	50,224	-0,101	0,068
-276,672	-200,000	0,006	-0,055
-275,657	-200,000	-0,061	0,267
-274,643	92,113	-0,110	-0,088
-273,628	526,975	0,078	0,132
-272,613	-155,414	-0,013	-0,001
-271,599	244,800	0,047	-0,057
-270,584	-5,590	-0,071	0,035
-269,570	800,000	0,037	0,081
-268,555	416,071	0,037	-0,057
-267,540	524,604	0,054	0,092
-266,526	-200,000	0,010	-0,050
-265,511	800,000	0,055	-0,126
-264,497	-200,000	-0,007	-0,082
-263,482	-99,086	-0,133	0,024
-262,467	379,904	-0,057	-0,084
-261,453	180,357	-0,053	0,055
-260,438	-104,940	-0,129	0,021
-259,424	800,000	0,059	-0,185
-258,409	228,434	0,048	-0,056
-257,395	-200,000	0,006	0,025
-256,380	183,220	0,035	-0,037
-255,365	-67,840	0,152	0,042
-254,351	-200,000	0,006	0,042
-253,336	-200,000	0,038	0,156
-252,322	-88,324	-0,108	-0,023
-251,307	-189,694	0,062	-0,000
-250,292	-121,939	0,050	-0,006
-249,278	800,000	0,016	-0,042
-248,263	327,863	-0,066	0,091
-247,249	-200,000	0,006	0,040
-246,234	56,337	0,080	-0,056
-245,219	466,928	-0,066	-0,106
-244,205	363,286	0,068	0,098
-243,190	-200,000	-0,012	-0,143
-242,176	-200,000	0,005	-0,015
-241,161	130,068	0,105	0,096
-240,146	-200,000	-0,012	0,067
-239,132	-200,000	0,010	0,074
-238,117	38,203	-0,065	-0,041
-237,103	-200,000	0,003	0,055
-236,088	-200,000	-0,000	0,037
-235,073	-71,571	0,067	-0,018
-234,059	-118,151	0,069	-0,009
-233,044	-200,000	-0,013	0,169
-232,030	119,934	0,084	-0,075
-231,015	-140,113	-0,209	0,015
-230,000	-200,000	-0,005	0,031
-228,986	9,518	-0,130	0,070
-227,971	439,912	0,067	-0,105
-226,957	-37,984	0,069	0,026
-225,942	800,000	0,024	0,069
-224,927	-200,000	0,043	0,139
-223,913	225,525	0,039	-0,045
-222,898	1,820	0,104	0,053
-221,884	-128,659	0,049	0,005
-220,869	800,000	0,033	0,072
-219,855	457,818	0,029	0,046
-218,840	-200,000	-0,023	0,122
-217,825	264,119	-0,064	-0,079
-216,811	800,000	-0,053	-0,139
-215,796	-200,000	-0,009	0,147
-214,782	800,000	-0,054	-0,116
-213,767	464,121	-0,053	-0,085
-212,752	-114,725	0,031	0,004
-211,738	-200,000	0,045	0,150
-210,723	800,000	0,029	0,076
-209,709	5,649	0,069	0,036
-208,694	-43,504	0,039	-0,014
-207,679	279,519	-0,022	-0,028
-206,665	-200,000	0,018	-0,138
-205,650	652,501	0,015	0,028
-204,636	344,652	0,040	0,057
-203,621	154,949	-0,041	-0,041
-202,606	13,195	0,055	0,030
-201,592	-13,494	-0,207	-0,095
-200,577	-71,835	0,109	0,029
-199,563	-194,223	-0,050	-0,000
-198,548	-76,492	0,087	0,022
-197,533	-14,587	0,027	0,012
-196,519	183,283	-0,052	-0,055
-195,504	-62,888	0,088	-0,026
-194,490	-34,681	0,034	0,013
-193,475	-37,039	-0,130	-0,050
-192,460	800,000	0,025	-0,061
-191,446	-200,000	-0,006	-0,083
-190,431	-200,000	-0,005	-0,068
-189,417	557,647	-0,014	-0,024
-188,402	-62,640	0,121	0,035
-187,387	-200,000	-0,003	0,018
-186,373	557,316	-0,049	0,084
-185,358	497,208	-0,041	-0,067
-184,344	435,802	0,026	0,041
-183,329	-29,349	0,070	-0,028
-182,315	-51,012	0,097	-0,032
-181,300	-40,639	0,129	-0,047
-180,285	-126,484	-0,089	0,009
-179,271	249,380	-0,085	-0,103
-178,256	167,233	0,099	0,100
-177,242	244,202	0,001	-0,002
-176,227	800,000	-0,018	0,043
-175,212	-200,000	0,012	0,107
-174,198	46,317	-0,077	0,051
-173,183	-106,554	-0,108	-0,017
-172,169	612,799	-0,030	0,054
-171,154	-81,713	0,065	-0,015
-170,139	-74,121	-0,146	0,037
-169,125	382,708	0,055	0,081
-168,110	159,006	0,109	0,107
-167,096	261,440	0,056	0,069
-166,081	-49,538	-0,079	-0,027
-165,066	-47,015	-0,137	0,047
-164,052	21,469	0,084	-0,048
-163,037	-200,000	-0,014	-0,102
-162,023	80,621	0,084	0,064
-161,008	29,606	0,076	0,046
-159,993	-50,409	-0,102	-0,034
-158,979	51,114	-0,069	0,047
-157,964	290,260	0,127	-0,164
-156,950	-0,338	0,101	-0,051
-155,935	-124,801	-0,096	-0,010
-154,920	72,080	0,038	0,028
-153,906	36,447	-0,026	-0,016
-152,891	97,192	0,016	0,013
-151,877	294,013	-0,056	-0,073
-150,862	428,001	0,061	-0,095
-149,847	-102,408	0,178	0,030
-148,833	129,512	0,041	-0,038
-147,818	235,645	0,071	-0,083
-146,804	226,015	0,021	0,024
-145,789	800,000	0,049	-0,117
-144,775	800,000	-0,054	-0,139
-143,760	67,595	0,034	0,024
-142,745	215,881	0,145	0,164
-141,731	-105,951	0,084	-0,013
-140,716	-200,000	0,001	-0,092
-139,702	129,441	0,135	0,122
-138,687	61,812	-0,098	-0,069
-137,672	-200,000	-0,018	0,073
-136,658	295,753	-0,069	-0,090
-135,643	6,992	-0,045	-0,024
-134,629	534,670	0,028	0,048
-133,614	579,063	0,057	-0,100
-132,599	-200,000	-0,013	0,119
-131,585	-145,970	0,029	0,002
-130,570	34,058	0,055	-0,034
-129,556	23,485	0,039	0,023
-128,541	800,000	-0,036	-0,081
-127,526	-100,004	0,119	0,021
-126,512	319,392	0,038	0,051
-125,497	800,000	0,048	0,108
-124,483	11,563	0,019	0,011
-123,468	-200,000	0,014	0,107
-122,453	-47,926	-0,217	-0,074
-121,439	800,000	0,007	0,018
-120,424	107,722	-0,074	0,063
-119,410	800,000	-0,031	-0,062
-118,395	-124,603	0,064	0,007
-117,380	-28,087	0,091	-0,037
-116,366	50,209	0,040	0,027
-115,351	-200,000	-0,014	-0,051
-114,337	-200,000	-0,011	0,044
-113,322	-47,900	-0,038	0,013
-112,307	-101,360	-0,125	0,022
-111,293	-5,458	0,247	-0,120
-110,278	-200,000	0,027	0,107
-109,264	-200,000	0,014	-0,195
-108,249	195,648	0,032	-0,035
-107,234	44,753	-0,067	-0,044
-106,220	-200,000	0,026	0,094
-105,205	243,885	0,005	0,006
-104,191	675,228	-0,032	0,060
-103,176	-132,592	0,057	-0,005
-102,162	-200,000	0,000	0,016
-101,147	800,000	-0,016	-0,035
-100,132	-43,355	-0,093	-0,033
-99,118	-200,000	-0,013	-0,166
-98,103	-200,000	-0,013	0,056
-97,089	219,918	-0,064	-0,073
-96,074	800,000	-0,051	0,135
-95,059	-200,000	0,006	0,097
-94,045	-200,000	0,033	-0,144
-93,030	320,431	-0,043	-0,058
-92,016	-42,255	0,099	-0,036
-91,001	403,495	0,054	0,080
-89,986	-57,931	-0,096	-0,030
-88,972	547,849	0,042	0,072
-87,957	426,148	0,063	0,097
-86,943	-76,447	0,051	0,013
-85,928	800,000	-0,040	0,105
-84,913	-87,165	0,077	-0,016
-83,899	-34,680	-0,101	0,039
-82,884	-200,000	-0,016	0,051
-81,870	263,634	0,070	0,087
-80,855	754,293	-0,050	-0,097
-79,840	800,000	0,022	0,063
-78,826	-200,000	-0,028	-0,203
-77,811	62,697	-0,109	0,077
-76,797	-143,532	0,020	-0,001
-75,782	-200,000	0,005	0,141
-74,767	800,000	0,030	-0,079
-73,753	-105,004	0,224	0,036
-72,738	-126,478	-0,075	0,008
-71,724	800,000	-0,035	-0,096
-70,709	800,000	-0,032	0,079
-69,694	-89,866	-0,020	0,004
-68,680	58,200	0,099	0,069
-67,665	-121,728	-0,086	-0,010
-66,651	338,204	0,017	-0,024
-65,636	93,696	-0,059	0,047
-64,622	-98,941	-0,216	-0,039
-63,607	800,000	-0,064	0,138
-62,592	71,783	-0,029	0,022
-61,578	-200,000	0,201	-0,000
-60,563	800,000	-0,073	0,149
-59,549	800,000	0,007	0,022
-58,534	-68,519	-1,410	-0,385
-57,519	341,700	-1,539	-2,139
-56,505	-200,000	-0,428	-4,411
-55,490	85,324	0,789	0,614
-54,476	800,000	4,720	11,335
-53,461	-200,000	17,597	279,505
-52,446	800,000	719,703	2216,522
-51,432	560,543	1633,884	2810,188
-50,417	81,052	1657,632	1267,530
-49,403	23,851	1532,043	892,981
-48,388	17,834	1455,309	819,251
-47,373	18,245	1444,742	815,241
-46,359	17,852	1435,518	808,129
-45,344	16,107	1430,939	797,228
-44,330	16,071	1428,676	795,762
-43,315	16,073	1427,106	794,868
-42,300	16,084	1425,514	794,002
-41,286	16,137	1424,220	793,499
-40,271	16,103	1423,102	792,683
-39,257	16,071	1421,712	791,729
-38,242	16,114	1420,357	791,144
-37,227	16,160	1419,087	790,625
-36,213	16,107	1417,911	789,685
-35,198	16,060	1416,923	788,884
-34,184	16,160	1415,835	788,717
-33,169	16,058	1414,532	787,480
-32,154	16,106	1413,678	787,201
-31,140	16,128	1412,130	786,407
-30,125	16,151	1410,968	785,839
-29,111	16,135	1409,745	785,049
-28,096	16,120	1408,637	784,333
-27,082	16,059	1407,668	783,478
-26,067	16,076	1406,632	782,948
-25,052	16,085	1405,480	782,319
-24,038	16,030	1404,654	781,572
-23,023	16,058	1403,514	781,038
-22,009	15,992	1402,561	780,170
-20,994	15,968	1401,665	779,526
-19,979	16,001	1400,453	778,973
-18,965	15,999	1399,566	778,441
-17,950	15,979	1398,617	777,790
-16,936	15,976	1397,787	777,284
-15,921	15,942	1396,645	776,459
-14,906	15,962	1395,539	775,906
-13,892	15,952	1394,799	775,417
-12,877	15,936	1393,775	774,744
-11,863	15,949	1392,928	774,304
-10,848	15,920	1392,187	773,726
-9,833	15,921	1391,003	773,043
-8,819	15,862	1390,164	772,272
-7,804	15,811	1389,273	771,512
-6,790	15,854	1388,146	771,054
-5,775	15,765	1387,358	770,173
-4,760	15,823	1386,237	769,788
-3,746	15,826	1385,556	769,394
-2,731	15,856	1384,616	768,980
-1,717	15,853	1383,702	768,425
-0,702	15,835	1381,950	767,340
0,313	19,643	1302,896	741,001
1,327	36,191	706,699	440,266
2,342	55,545	125,253	85,801
3,356	5,509	16,502	8,605
4,371	5,828	3,113	1,626
5,386	-33,443	0,413	0,161
6,400	95,972	-0,077	0,063
7,415	-11,153	-0,242	-0,112
8,429	66,029	-0,317	-0,228
9,444	107,940	-0,327	-0,276
10,459	16,958	-0,323	-0,181
11,473	74,583	-0,280	-0,208
12,488	38,010	-0,301	-0,189
13,502	-53,331	-0,391	-0,126
14,517	9,315	-0,349	-0,186
15,531	48,058	-0,305	-0,201
16,546	49,780	-0,352	-0,234
17,561	177,231	-0,281	-0,290
18,575	1,378	-0,237	-0,120
19,590	591,754	-0,222	-0,390
20,604	52,037	-0,199	-0,134
21,619	49,010	-0,377	-0,250
22,634	137,288	-0,433	-0,401
23,648	1,397	-0,330	-0,167
24,663	22,234	-0,496	-0,286
25,677	112,886	-0,370	-0,317
26,692	118,434	-0,351	-0,306
27,707	99,127	-0,376	-0,307
28,721	287,431	-0,336	-0,431
29,736	98,842	-0,356	-0,291
30,750	111,759	-0,406	-0,347
31,765	255,149	-0,349	-0,424
32,780	114,217	-0,319	-0,274
33,794	-62,866	-0,402	-0,117
34,809	231,013	-0,300	-0,348
35,823	133,086	-0,288	-0,262
36,838	73,343	-0,339	-0,250
37,853	142,272	-0,426	-0,399
38,867	53,914	-0,385	-0,261
39,882	38,836	-0,310	-0,195
40,896	195,388	-0,285	-0,306
41,911	107,643	-0,336	-0,282
42,926	-36,211	-0,372	-0,141
43,940	-83,246	-0,381	-0,086
44,955	43,602	-0,401	-0,258
45,969	224,784	-0,316	-0,361
46,984	41,767	-0,317	-0,202
47,999	175,845	-0,245	-0,251
49,013	143,632	-0,350	-0,329
50,028	179,040	-0,251	-0,260
51,042	154,741	-0,336	-0,326
52,057	131,124	-0,373	-0,338
53,071	47,001	-0,316	-0,207
54,086	74,789	-0,251	-0,186
55,101	62,147	-0,294	-0,206
56,115	42,820	-0,397	-0,255
57,130	250,273	-0,235	-0,282
58,144	15,767	-0,439	-0,243
59,159	-10,351	-0,430	-0,200
60,174	29,479	-0,476	-0,285
61,188	800,000	-0,208	-0,526
62,203	132,274	-0,288	-0,261
63,217	716,246	-0,225	-0,423
64,232	-3,513	-0,421	-0,206
65,247	342,275	-0,274	-0,378
66,261	-33,469	-0,446	-0,173
67,276	106,672	-0,371	-0,310
68,290	-26,791	-0,262	-0,108
69,305	219,131	-0,351	-0,396
70,320	-14,277	-0,334	-0,151
71,334	154,039	-0,282	-0,272
72,349	57,283	-0,338	-0,232
73,363	170,317	-0,313	-0,316
74,378	90,851	-0,397	-0,313
75,393	88,172	-0,277	-0,216
76,407	-200,000	-0,004	-0,063
77,422	33,410	-0,367	-0,224
78,436	9,823	-0,249	-0,132
79,451	-14,679	-0,325	-0,146
80,466	294,040	-0,243	-0,313
81,480	125,572	-0,323	-0,287
82,495	-69,151	-0,383	-0,103
83,509	-44,299	-0,292	-0,102
84,524	-125,729	-0,331	-0,035
85,539	531,461	-0,173	-0,289
86,553	591,822	-0,203	-0,353
87,568	206,784	-0,281	-0,309
88,582	175,975	-0,315	-0,322
89,597	19,907	-0,312	-0,176
90,611	-125,699	-0,236	0,025
91,626	800,000	-0,069	-0,179
92,641	-8,502	-0,261	-0,123
93,655	800,000	-0,139	-0,320
94,670	30,851	-0,329	-0,198
95,684	263,458	-0,267	-0,326
96,699	140,779	-0,391	-0,363
97,714	66,173	-0,172	-0,123
98,728	73,466	-0,244	-0,179
99,743	-5,701	-0,285	-0,137
100,757	-52,284	-0,342	-0,111
101,772	134,259	-0,160	-0,146
102,787	25,442	-0,446	-0,260
103,801	273,271	-0,335	-0,416
104,816	-66,442	-0,349	-0,097
105,830	327,576	-0,123	-0,166
106,845	503,393	-0,148	-0,241
107,860	200,263	-0,209	-0,225
108,874	1,409	-0,326	-0,164
109,889	25,619	-0,174	-0,101
110,903	31,869	-0,251	-0,151
111,918	-51,746	-0,374	-0,122
112,933	192,066	-0,167	-0,177
113,947	-21,150	-0,222	-0,095
114,962	69,865	-0,181	-0,131
115,976	170,909	-0,264	-0,266
116,991	118,818	-0,321	-0,278
118,006	37,708	-0,307	-0,191
119,020	-30,906	-0,276	-0,109
120,035	144,401	-0,209	-0,196
121,049	178,629	-0,222	-0,228
122,064	-80,480	-0,242	-0,056
123,079	-49,980	-0,271	-0,090
124,093	377,475	-0,112	-0,161
125,108	275,225	-0,277	-0,345
126,122	49,325	-0,268	-0,177
127,137	121,474	-0,254	-0,221
128,151	102,284	-0,204	-0,167
129,166	37,900	-0,194	-0,121
130,181	104,458	-0,228	-0,188
131,195	190,240	-0,285	-0,300
132,210	155,189	-0,156	-0,150
133,224	-22,152	-0,187	-0,079
134,239	69,017	-0,259	-0,186
135,254	-200,000	-0,082	-0,337
136,268	153,977	-0,253	-0,243
137,283	30,772	-0,324	-0,194
138,297	318,825	-0,217	-0,288
139,312	44,704	-0,294	-0,189
140,327	160,813	-0,149	-0,145
141,341	273,394	-0,264	-0,327
142,356	16,777	-0,238	-0,132
143,370	234,119	-0,184	-0,213
144,385	78,741	-0,180	-0,135
145,400	27,789	-0,363	-0,213
146,414	27,672	-0,214	-0,126
147,429	108,739	-0,255	-0,213
148,443	143,281	-0,244	-0,227
149,458	22,390	-0,263	-0,150
150,473	100,206	-0,260	-0,211
151,487	7,257	-0,300	-0,156
152,502	800,000	-0,133	-0,362
153,516	275,996	-0,206	-0,257
154,531	52,704	-0,300	-0,200
155,546	330,460	-0,209	-0,282
156,560	60,964	-0,202	-0,140
157,575	150,361	-0,241	-0,228
158,589	291,412	-0,134	-0,171
159,604	128,706	-0,192	-0,171
160,619	800,000	-0,048	-0,131
161,633	247,992	-0,204	-0,241
162,648	-80,384	-0,319	-0,074
163,662	35,765	-0,268	-0,165
164,677	122,430	-0,116	-0,101
165,692	54,055	-0,186	-0,124
166,706	-89,872	-0,173	-0,035
167,721	-9,312	-0,295	-0,137
168,735	129,890	-0,162	-0,144
169,750	-38,757	-0,313	-0,115
170,764	194,025	-0,162	-0,172
171,779	-65,903	-0,221	0,061
172,794	229,071	-0,163	-0,186
173,808	195,766	-0,203	-0,216
174,823	58,555	-0,250	-0,171
175,837	-28,557	-0,307	-0,123
176,852	197,448	-0,256	-0,273
177,867	190,557	-0,254	-0,266
178,881	-200,000	-0,018	-0,080
179,896	92,249	-0,069	-0,054
180,910	-1,339	-0,202	-0,099
181,925	23,515	-0,222	-0,127
182,940	-200,000	-0,288	0,000
183,954	-98,906	-0,151	0,027
184,969	249,407	-0,164	-0,194
185,983	-64,149	-0,235	-0,066
186,998	30,000	-0,118	-0,070
188,013	-52,905	-0,281	-0,090
189,027	-37,279	-0,245	-0,091
190,042	52,100	-0,282	-0,187
191,056	339,634	-0,155	-0,211
192,071	180,742	-0,146	-0,149
193,086	144,179	-0,059	-0,055
194,100	-137,788	-0,241	-0,019
195,115	142,441	-0,158	-0,146
196,129	-8,970	-0,194	-0,090
197,144	199,134	-0,217	-0,232
198,159	83,888	-0,287	-0,218
199,173	800,000	-0,134	-0,302
200,188	-38,018	-0,189	-0,069
201,202	219,317	-0,164	-0,183
202,217	-37,121	-0,141	-0,052
203,232	238,880	-0,140	-0,162
204,246	200,871	-0,239	-0,256
205,261	-86,910	-0,163	-0,034
206,275	400,091	-0,190	-0,278
207,290	-68,343	-0,102	-0,027
208,304	86,880	-0,269	-0,207
209,319	279,751	-0,146	-0,182
210,334	-103,631	-0,129	-0,021
211,348	258,588	-0,180	-0,216
212,363	-59,964	-0,247	-0,073
213,377	79,478	-0,146	-0,109
214,392	266,141	-0,170	-0,207
215,407	72,144	-0,137	-0,099
216,421	-9,731	-0,250	-0,115
217,436	0,511	-0,272	-0,135
218,450	-65,507	-0,130	-0,036
219,465	338,968	-0,218	-0,296
220,480	27,617	-0,135	-0,079
221,494	-52,296	-0,301	-0,096
222,509	69,290	-0,155	-0,111
223,523	-53,701	-0,249	-0,079
224,538	250,301	-0,157	-0,185
225,553	420,263	-0,182	-0,272
226,567	74,416	-0,202	-0,147
227,582	421,942	-0,174	-0,260
228,596	16,990	-0,148	-0,081
229,611	450,130	-0,121	-0,186
230,626	207,144	-0,145	-0,157
231,640	800,000	-0,059	-0,148
232,655	233,565	-0,195	-0,223
233,669	261,790	-0,185	-0,223
234,684	180,448	-0,173	-0,177
235,699	-51,170	-0,207	-0,067
236,713	800,000	-0,112	-0,244
237,728	-146,407	-0,202	-0,012
238,742	331,412	-0,138	-0,185
239,757	99,926	-0,238	-0,191
240,772	35,285	-0,168	-0,102
241,786	26,142	-0,261	-0,151
242,801	800,000	-0,074	-0,183
243,815	239,422	-0,095	-0,109
244,830	464,073	-0,091	-0,141
245,844	800,000	-0,109	-0,279
246,859	-125,529	-0,259	-0,027
247,874	119,755	-0,215	-0,184
248,888	624,482	-0,088	-0,155
249,903	181,912	-0,171	-0,175
250,917	614,392	-0,092	-0,160
251,932	800,000	-0,067	-0,206
252,947	337,956	-0,191	-0,259
253,961	8,073	-0,187	-0,097
254,976	179,220	-0,180	-0,183
255,990	606,432	-0,142	-0,246
257,005	666,322	-0,106	-0,190
258,020	553,809	-0,027	-0,046
259,034	10,246	-0,203	-0,107
260,049	-11,835	-0,277	-0,126
261,063	69,233	-0,250	0,178
262,078	171,567	-0,148	-0,147
263,093	216,508	-0,161	-0,177
264,107	168,776	-0,138	-0,137
265,122	-2,399	-0,136	-0,066
266,136	-78,573	-0,246	0,058
267,151	-161,868	-0,221	-0,008
268,166	689,371	-0,069	-0,125
269,180	47,822	-0,223	-0,144
270,195	-49,577	-0,257	-0,084
271,209	34,401	-0,166	-0,100
272,224	205,704	-0,185	-0,199
273,239	-61,395	-0,231	-0,067
274,253	46,491	0,013	-0,008
275,268	-42,185	-0,195	-0,069
276,282	290,536	-0,129	-0,163
277,297	9,712	-0,235	-0,123
278,312	119,869	-0,122	-0,104
279,326	140,246	-0,101	-0,092
280,341	251,113	-0,106	-0,125
281,355	-150,449	-0,231	-0,012
282,370	174,793	-0,100	-0,100
283,384	453,874	-0,116	-0,178
284,399	294,544	-0,156	-0,197
285,414	3,837	-0,197	-0,099
286,428	-93,575	-0,148	-0,028
287,443	-99,958	-0,110	-0,019
288,457	-200,000	-0,003	-0,118
289,472	96,632	-0,126	-0,099
290,487	100,006	-0,122	-0,098
291,501	11,532	-0,167	-0,088
292,516	-119,926	-0,184	0,022
293,530	104,366	-0,160	-0,130
294,545	-200,000	-0,064	-0,267
295,560	770,852	-0,102	-0,192
296,574	39,623	-0,162	-0,100
297,589	153,154	-0,176	-0,166
298,603	665,932	-0,083	-0,149
299,618	-61,694	-0,158	-0,045
300,633	-200,000	-0,003	-0,109
301,647	265,344	-0,162	-0,195
302,662	800,000	-0,068	-0,145
303,676	118,931	-0,163	-0,139
304,691	184,840	-0,211	-0,216
305,706	-200,000	-0,000	-0,224
306,720	118,234	-0,143	-0,122
307,735	-103,079	-0,171	-0,028
308,749	-58,838	-0,173	0,051
309,764	-134,100	-0,215	0,018
310,779	675,223	-0,055	-0,099
311,793	0,157	-0,112	-0,055
312,808	27,259	-0,165	-0,095
313,822	131,962	-0,220	-0,196
314,837	-100,374	-0,185	0,031
315,852	112,390	-0,116	-0,097
316,866	56,446	-0,077	-0,051
317,881	23,363	-0,200	0,113
318,895	-18,322	-0,152	-0,065
319,910	800,000	-0,052	-0,111
320,925	-61,808	-0,192	-0,055
321,939	-179,288	-0,098	-0,001
322,954	80,330	-0,154	-0,114
323,968	537,616	-0,082	-0,135
324,983	-75,726	-0,102	-0,025
325,997	-200,000	-0,043	-0,183
327,012	-22,815	-0,131	-0,054
328,027	800,000	-0,098	-0,247
329,041	200,679	-0,131	-0,139
330,056	460,221	-0,112	-0,172
331,070	-200,000	-0,044	-0,189
332,085	-21,724	-0,157	-0,065
333,100	-25,207	-0,255	-0,104
334,114	-88,135	-0,215	-0,044
335,129	-200,000	-0,011	-0,165
336,143	136,698	-0,054	-0,049
337,158	119,948	-0,126	-0,107
338,173	-18,100	-0,096	0,041
339,187	248,736	-0,110	-0,128
340,202	-200,000	-0,035	-0,238
341,216	800,000	-0,101	-0,205
342,231	-15,194	-0,196	-0,086
343,246	-11,927	-0,171	-0,077
344,260	-175,738	-0,207	-0,004
345,275	126,335	-0,147	-0,128
346,289	-76,169	-0,051	-0,012
347,304	95,875	-0,164	-0,128
348,319	58,878	-0,166	-0,112
349,333	-76,575	-0,190	-0,046
350,348	-200,000	-0,030	-0,225
351,362	-200,000	-0,015	-0,144
352,377	-200,000	-0,015	-0,064
353,392	800,000	-0,083	-0,180
354,406	800,000	-0,018	0,051
355,421	210,279	1312,710	1417,422
356,435	161,880	1473,205	1417,958
