DTS Sentinel unit serial number:	SN410029Multiplexer serial number:	ORYXHardware model number:	OX2-SRSoftware version number:	ORYX F/W v4,00 Oryx Data Collector v3.7.2.0data status	okinstallation	B3 Nyhavnadifferential loss correction	single-endedforward channel	channel 1reverse channel	N/Adate	2023/12/04time	16:42:30forward acquisition time	300,00reverse acquisition time	0,00gamma	499,1914k internal	0,3200k external	0,3200temperature offset calibration	1,0000default loss term (dB/km)	0,3820temperature slope calibration	1,0000multiplexer offset coefficient	1,0000multiplexer slope coefficient	1,0000fibre end	0,00T internal ref (°C)	15,19T ext. ref 1 (°C)	0,14T ext. ref 2 (°C)	0,13length (m)	temperature (°C)	Stokes	anti-Stokes-744,400	71,625	-0,241	-0,182
-743,385	800,000	0,103	0,284
-742,371	296,728	-0,118	-0,157
-741,356	-200,000	-0,085	0,394
-740,342	52,084	-0,252	-0,174
-739,327	782,763	0,133	0,266
-738,312	83,166	-0,310	-0,246
-737,298	800,000	-0,071	0,193
-736,283	58,003	-0,254	-0,181
-735,269	367,083	0,184	0,272
-734,254	323,761	-0,249	-0,347
-733,239	-157,524	-0,150	0,006
-732,225	-200,000	-0,007	-0,229
-731,210	800,000	0,044	0,128
-730,196	-174,257	-0,082	0,002
-729,181	72,865	-0,169	-0,128
-728,167	188,844	0,073	-0,080
-727,152	-200,000	0,006	0,020
-726,137	705,670	0,019	0,037
-725,123	-135,458	-0,122	-0,010
-724,108	-131,516	-0,164	0,016
-723,094	442,215	0,048	-0,076
-722,079	-200,000	-0,031	-0,130
-721,064	-108,492	-0,090	-0,014
-720,050	192,072	-0,039	0,043
-719,035	800,000	-0,035	0,106
-718,021	-50,269	-0,041	0,014
-717,006	-112,320	-0,075	0,011
-715,991	800,000	-0,052	-0,133
-714,977	212,426	-0,091	-0,104
-713,962	-200,000	0,011	0,095
-712,948	310,302	-0,057	-0,078
-711,933	-107,719	0,106	0,017
-710,918	-47,479	0,141	0,050
-709,904	37,611	-0,070	-0,045
-708,889	-200,000	-0,025	-0,101
-707,875	177,011	-0,161	-0,170
-706,860	54,016	0,120	0,083
-705,845	-131,501	0,018	-0,002
-704,831	800,000	-0,016	-0,048
-703,816	-4,921	-0,117	-0,058
-702,802	275,775	0,057	-0,074
-701,787	234,435	0,051	-0,061
-700,772	-119,081	-0,186	0,023
-699,758	-200,000	0,006	0,023
-698,743	-63,746	-0,115	-0,034
-697,729	-24,623	0,106	-0,046
-696,714	-81,151	-0,093	-0,022
-695,699	-192,382	-0,075	0,000
-694,685	-119,141	-0,160	-0,020
-693,670	-122,681	-0,128	0,015
-692,656	-72,583	0,040	-0,011
-691,641	-51,621	0,076	0,025
-690,627	16,280	0,081	-0,046
-689,612	-200,000	-0,014	-0,069
-688,597	800,000	0,008	-0,018
-687,583	-200,000	-0,040	-0,169
-686,568	71,339	-0,074	0,055
-685,554	437,646	-0,032	-0,051
-684,539	-200,000	-0,051	0,266
-683,524	-97,395	0,065	-0,012
-682,510	-60,842	0,157	-0,048
-681,495	21,855	0,024	-0,014
-680,481	-200,000	-0,021	-0,100
-679,466	-58,845	-0,090	0,028
-678,451	42,163	0,010	0,006
-677,437	391,708	-0,031	0,048
-676,422	513,123	-0,038	0,065
-675,408	-106,703	-0,126	-0,020
-674,393	-170,856	0,025	0,001
-673,378	-200,000	-0,005	-0,091
-672,364	-200,000	0,007	-0,189
-671,349	-200,000	0,012	-0,065
-670,335	-200,000	-0,002	-0,023
-669,320	-200,000	0,026	-0,099
-668,305	-73,532	-0,121	0,032
-667,291	-200,000	0,019	-0,121
-666,276	-76,006	-0,142	-0,036
-665,262	800,000	-0,079	0,189
-664,247	32,143	-0,046	0,029
-663,232	-200,000	-0,016	0,147
-662,218	393,274	0,059	0,090
-661,203	21,064	-0,083	-0,049
-660,189	120,526	0,063	-0,057
-659,174	-117,434	-0,248	-0,032
-658,159	578,773	-0,036	-0,064
-657,145	640,514	-0,043	-0,080
-656,130	-13,048	-0,116	0,055
-655,116	800,000	-0,021	-0,058
-654,101	30,654	-0,068	-0,042
-653,086	93,615	-0,042	-0,035
-652,072	-35,578	0,077	0,030
-651,057	800,000	0,042	-0,132
-650,043	-200,000	0,017	-0,085
-649,028	800,000	-0,014	-0,037
-648,014	192,246	0,121	0,132
-646,999	631,939	-0,064	0,119
-645,984	525,834	-0,035	0,060
-644,970	644,798	-0,049	-0,091
-643,955	421,208	-0,066	-0,103
-642,941	-100,420	-0,169	-0,030
-641,926	800,000	0,026	-0,081
-640,911	-6,412	0,042	-0,021
-639,897	66,142	0,117	0,086
-638,882	-200,000	0,002	0,054
-637,868	126,735	-0,099	-0,091
-636,853	78,229	0,072	0,055
-635,838	-13,325	-0,112	-0,053
-634,824	214,829	0,099	0,113
-633,809	800,000	0,045	-0,094
-632,795	-200,000	0,015	0,092
-631,780	218,812	0,054	-0,063
-630,765	554,597	0,026	0,045
-629,751	3,075	-0,129	-0,068
-628,736	800,000	-0,035	-0,107
-627,722	571,311	0,047	0,084
-626,707	-172,644	-0,079	-0,002
-625,692	800,000	-0,029	0,092
-624,678	-118,755	-0,158	-0,020
-623,663	-200,000	-0,001	0,092
-622,649	-200,000	-0,012	-0,115
-621,634	-122,607	-0,119	-0,014
-620,619	-79,651	0,074	0,018
-619,605	-179,257	-0,149	0,002
-618,590	781,569	-0,017	-0,033
-617,576	198,085	0,017	-0,019
-616,561	-135,352	-0,079	0,007
-615,546	-200,000	-0,008	-0,100
-614,532	125,410	-0,106	-0,097
-613,517	40,116	-0,027	-0,017
-612,503	53,260	0,115	-0,080
-611,488	-12,289	0,142	-0,067
-610,474	-200,000	-0,001	0,050
-609,459	-200,000	0,024	0,079
-608,444	-200,000	0,021	-0,092
-607,430	-200,000	-0,003	-0,029
-606,415	310,155	-0,029	-0,039
-605,401	-105,149	-0,042	0,007
-604,386	-200,000	-0,004	0,038
-603,371	-200,000	-0,008	0,029
-602,357	16,139	-0,078	-0,044
-601,342	154,418	-0,069	0,069
-600,328	-39,308	-0,185	0,070
-599,313	800,000	-0,021	0,049
-598,298	-126,525	-0,093	0,010
-597,284	-56,641	0,076	-0,024
-596,269	-27,608	-0,079	0,033
-595,255	800,000	0,008	-0,024
-594,240	-200,000	-0,032	-0,122
-593,225	18,030	-0,135	-0,077
-592,211	-200,000	0,027	-0,155
-591,196	800,000	0,041	0,094
-590,182	236,693	0,039	0,047
-589,167	-62,007	0,102	0,031
-588,152	-200,000	0,034	0,156
-587,138	163,411	0,012	0,013
-586,123	137,931	-0,099	0,094
-585,109	235,394	0,055	-0,066
-584,094	366,121	-0,040	-0,059
-583,079	-23,610	-0,107	0,046
-582,065	66,436	0,154	0,113
-581,050	628,607	0,032	0,060
-580,036	138,608	0,103	0,098
-579,021	607,268	-0,031	-0,056
-578,006	-45,475	-0,184	0,066
-576,992	-97,997	0,054	-0,010
-575,977	5,285	0,029	0,015
-574,963	215,972	0,107	0,123
-573,948	-200,000	0,027	0,121
-572,934	455,248	-0,004	0,006
-571,919	-80,006	-0,145	-0,035
-570,904	-36,847	0,051	0,020
-569,890	8,974	-0,060	-0,032
-568,875	369,350	0,029	-0,043
-567,861	-81,758	0,175	-0,041
-566,846	-72,449	-0,071	0,019
-565,831	58,671	-0,036	-0,026
-564,817	-106,579	0,064	-0,010
-563,802	800,000	0,018	0,037
-562,788	-200,000	-0,013	-0,074
-561,773	600,664	0,055	-0,099
-560,758	49,584	0,054	0,036
-559,744	-91,434	-0,085	0,017
-558,729	-122,664	0,085	-0,010
-557,715	-200,000	-0,011	0,104
-556,700	-200,000	0,003	0,030
-555,685	-200,000	-0,001	0,063
-554,671	158,302	0,082	0,082
-553,656	-200,000	0,012	0,094
-552,642	-200,000	-0,023	0,078
-551,627	265,946	0,042	-0,053
-550,612	-125,956	-0,047	-0,005
-549,598	361,385	-0,075	-0,109
-548,583	-151,421	-0,156	-0,008
-547,569	-167,471	0,121	0,003
-546,554	-200,000	0,005	-0,040
-545,539	800,000	-0,037	0,074
-544,525	800,000	0,016	0,033
-543,510	-152,167	-0,078	-0,004
-542,496	276,674	0,090	-0,116
-541,481	33,096	-0,044	0,028
-540,466	254,168	-0,080	-0,099
-539,452	75,026	-0,108	-0,082
-538,437	800,000	0,023	0,056
-537,423	-200,000	0,012	-0,041
-536,408	-43,239	-0,087	-0,032
-535,393	-200,000	-0,059	-0,219
-534,379	439,758	0,077	-0,122
-533,364	-200,000	-0,012	0,052
-532,350	514,709	0,050	-0,084
-531,335	91,237	0,053	0,043
-530,321	-74,354	-0,069	-0,018
-529,306	-132,086	0,069	-0,006
-528,291	800,000	-0,050	-0,146
-527,277	800,000	-0,042	0,100
-526,262	-84,969	-0,040	0,009
-525,248	-152,819	-0,057	0,003
-524,233	-200,000	0,021	-0,075
-523,218	39,446	-0,116	0,075
-522,204	-121,969	-0,060	0,007
-521,189	-116,943	-0,105	-0,014
-520,175	-200,000	-0,074	-0,246
-519,160	389,156	0,008	-0,011
-518,145	-200,000	0,018	-0,072
-517,131	60,448	-0,119	0,085
-516,116	-200,000	-0,004	-0,068
-515,102	534,753	0,062	0,106
-514,087	-200,000	0,002	-0,046
-513,072	-200,000	-0,033	-0,107
-512,058	84,513	-0,136	-0,107
-511,043	-122,027	0,081	0,009
-510,029	-200,000	-0,023	0,195
-509,014	-85,489	0,150	0,033
-507,999	800,000	-0,021	0,049
-506,985	196,703	-0,061	0,067
-505,970	372,028	-0,125	-0,183
-504,956	465,937	0,134	-0,217
-503,941	-30,270	-0,041	-0,017
-502,926	386,262	0,080	0,119
-501,912	800,000	0,012	0,031
-500,897	-200,000	-0,007	-0,040
-499,883	-200,000	-0,008	0,027
-498,868	220,429	0,082	-0,094
-497,853	800,000	0,018	-0,042
-496,839	26,442	0,057	0,034
-495,824	800,000	-0,052	-0,115
-494,810	800,000	0,043	-0,108
-493,795	-81,523	-0,058	0,014
-492,781	16,628	0,149	-0,085
-491,766	800,000	-0,050	-0,159
-490,751	-157,042	0,031	-0,001
-489,737	704,009	0,064	0,123
-488,722	473,671	0,075	-0,122
-487,708	36,951	0,241	0,154
-486,693	-84,044	0,126	0,029
-485,678	-143,672	-0,038	0,003
-484,664	4,874	-0,111	-0,058
-483,649	-200,000	0,008	0,047
-482,635	238,064	0,018	-0,022
-481,620	800,000	0,033	0,104
-480,605	421,460	0,037	-0,057
-479,591	-200,000	0,007	-0,044
-478,576	256,241	-0,098	0,121
-477,562	390,847	0,031	0,047
-476,547	800,000	-0,003	-0,010
-475,532	800,000	0,051	0,152
-474,518	116,839	0,097	-0,086
-473,503	-200,000	-0,018	0,075
-472,489	19,683	0,077	0,045
-471,474	157,347	-0,098	0,097
-470,459	-29,416	0,077	-0,032
-469,445	357,649	0,035	-0,051
-468,430	-200,000	-0,013	-0,066
-467,416	-21,543	0,092	-0,040
-466,401	192,785	0,062	0,068
-465,386	-200,000	-0,004	-0,157
-464,372	88,517	0,159	-0,127
-463,357	-77,615	-0,101	-0,025
-462,343	555,268	0,083	-0,145
-461,328	-200,000	-0,020	0,109
-460,313	7,329	-0,109	-0,058
-459,299	203,160	0,164	0,183
-458,284	-71,246	0,088	-0,024
-457,270	-47,530	0,110	-0,038
-456,255	800,000	-0,033	0,076
-455,241	-106,512	0,037	-0,006
-454,226	800,000	-0,024	0,055
-453,211	-200,000	-0,002	0,071
-452,197	-144,443	0,098	0,006
-451,182	108,828	0,103	0,089
-450,168	800,000	-0,044	0,104
-449,153	317,230	0,045	-0,062
-448,138	196,859	0,069	-0,076
-447,124	-79,235	-0,107	-0,026
-446,109	174,098	-0,025	0,026
-445,095	70,149	0,123	0,091
-444,080	90,679	-0,053	0,043
-443,065	-86,921	-0,009	0,002
-442,051	660,180	0,060	0,111
-441,036	-37,733	0,105	0,040
-440,022	236,741	0,047	-0,056
-439,007	209,643	-0,040	-0,045
-437,992	117,495	0,062	-0,055
-436,978	-78,058	0,114	0,028
-435,963	-200,000	-0,015	0,178
-434,949	353,407	-0,087	0,124
-433,934	-98,614	0,016	-0,003
-432,919	-200,000	-0,001	-0,017
-431,905	73,011	-0,033	0,025
-430,890	-200,000	0,013	-0,051
-429,876	-82,567	-0,076	-0,018
-428,861	-131,878	-0,118	-0,011
-427,846	-200,000	-0,008	-0,176
-426,832	-200,000	0,007	-0,082
-425,817	228,455	-0,034	-0,040
-424,803	30,955	-0,151	0,093
-423,788	-135,692	0,079	0,007
-422,773	139,888	0,039	0,037
-421,759	175,742	0,027	-0,028
-420,744	-200,000	0,009	0,054
-419,730	341,433	-0,032	0,044
-418,715	800,000	0,031	-0,087
-417,701	-111,625	-0,055	0,008
-416,686	-100,071	0,056	0,010
-415,671	800,000	0,037	0,099
-414,657	-200,000	0,016	0,181
-413,642	85,438	0,060	0,047
-412,628	538,093	-0,012	-0,021
-411,613	-200,000	-0,021	-0,084
-410,598	800,000	0,031	-0,083
-409,584	-34,900	-0,056	0,022
-408,569	351,977	-0,070	0,100
-407,555	336,893	0,030	-0,042
-406,540	129,220	0,107	0,098
-405,525	-200,000	0,031	0,124
-404,511	105,828	-0,037	-0,031
-403,496	141,651	-0,060	-0,057
-402,482	127,206	0,154	-0,141
-401,467	-200,000	-0,008	-0,032
-400,452	44,429	-0,094	0,062
-399,438	-64,510	0,234	0,068
-398,423	35,485	-0,177	0,111
-397,409	141,472	-0,114	-0,108
-396,394	43,225	0,026	-0,017
-395,379	321,689	0,108	0,147
-394,365	800,000	-0,027	0,068
-393,350	62,228	0,053	-0,038
-392,336	337,329	-0,056	0,078
-391,321	85,533	0,038	0,030
-390,306	-200,000	0,034	-0,175
-389,292	371,930	-0,031	-0,046
-388,277	409,340	0,062	-0,094
-387,263	-1,062	0,094	-0,047
-386,248	-200,000	-0,013	0,053
-385,233	110,479	0,053	0,045
-384,219	32,832	0,061	-0,038
-383,204	-34,605	-0,182	-0,071
-382,190	-129,779	-0,094	0,009
-381,175	323,511	0,018	-0,025
-380,160	440,092	0,067	-0,106
-379,146	-200,000	0,015	-0,114
-378,131	293,463	0,015	0,019
-377,117	-174,029	-0,129	0,003
-376,102	-165,127	-0,064	0,002
-375,088	-176,411	-0,105	0,002
-374,073	800,000	-0,033	0,086
-373,058	-200,000	-0,016	0,088
-372,044	-132,390	0,080	-0,007
-371,029	-200,000	-0,007	0,044
-370,015	451,718	-0,060	0,095
-369,000	62,977	0,089	-0,064
-367,985	2,883	0,047	-0,024
-366,971	326,864	-0,088	-0,122
-365,956	-200,000	-0,012	0,117
-364,942	88,093	0,091	-0,072
-363,927	-200,000	0,029	0,155
-362,912	800,000	0,030	-0,085
-361,898	-108,854	-0,089	-0,013
-360,883	800,000	-0,087	-0,209
-359,869	-200,000	-0,017	0,096
-358,854	-29,676	-0,090	0,037
-357,839	508,001	0,020	0,033
-356,825	-200,000	0,038	0,121
-355,810	268,361	0,042	0,053
-354,796	-200,000	0,007	0,049
-353,781	30,543	-0,050	0,031
-352,766	293,136	-0,026	0,034
-351,752	76,220	0,061	-0,046
-350,737	765,902	0,040	-0,078
-349,723	-58,017	0,044	0,014
-348,708	-51,399	-0,058	0,019
-347,693	129,917	0,079	0,073
-346,679	800,000	-0,043	0,095
-345,664	-37,960	0,075	-0,028
-344,650	-17,021	0,044	0,020
-343,635	-200,000	-0,007	-0,044
-342,620	-200,000	-0,012	0,060
-341,606	511,366	-0,044	0,074
-340,591	304,696	-0,054	0,072
-339,577	800,000	-0,007	-0,018
-338,562	-20,970	-0,053	0,023
-337,548	800,000	-0,026	0,072
-336,533	800,000	0,047	-0,100
-335,518	-200,000	0,012	-0,051
-334,504	-200,000	0,015	0,167
-333,489	-200,000	-0,005	0,112
-332,475	800,000	-0,033	0,069
-331,460	800,000	-0,029	-0,080
-330,445	-20,588	0,095	-0,042
-329,431	60,317	0,062	0,044
-328,416	800,000	0,074	0,162
-327,402	-96,211	0,174	-0,033
-326,387	-54,402	0,029	-0,009
-325,372	800,000	-0,035	-0,081
-324,358	-30,739	0,032	-0,013
-323,343	22,597	-0,126	0,074
-322,329	-20,731	-0,147	0,064
-321,314	-80,152	0,036	0,009
-320,299	328,967	-0,056	-0,078
-319,285	576,367	0,040	0,070
-318,270	-31,383	-0,150	0,060
-317,256	-71,736	0,121	-0,032
-316,241	62,496	-0,054	-0,038
-315,226	-115,462	0,104	-0,014
-314,212	-200,000	-0,001	0,046
-313,197	-102,828	0,096	-0,016
-312,183	-200,000	0,005	-0,027
-311,168	24,888	0,061	-0,036
-310,153	-6,921	-0,119	-0,058
-309,139	-200,000	-0,018	-0,058
-308,124	738,487	-0,035	0,067
-307,110	-39,423	0,148	-0,055
-306,095	-200,000	0,003	0,043
-305,080	-193,062	-0,129	-0,001
-304,066	-200,000	0,041	-0,203
-303,051	88,495	-0,098	-0,078
-302,037	-46,244	-0,034	-0,012
-301,022	-16,460	-0,045	-0,020
-300,008	800,000	0,039	0,084
-298,993	329,262	0,078	0,108
-297,978	-36,978	0,168	0,064
-296,964	-200,000	0,028	0,149
-295,949	800,000	-0,052	-0,106
-294,935	-103,507	0,170	-0,028
-293,920	183,276	0,039	0,042
-292,905	141,925	-0,046	0,043
-291,891	-138,877	-0,013	-0,001
-290,876	127,103	0,073	-0,066
-289,862	-93,524	-0,045	-0,009
-288,847	-200,000	0,008	-0,047
-287,832	28,838	0,143	-0,086
-286,818	17,349	0,038	-0,021
-285,803	247,328	-0,055	-0,067
-284,789	428,668	-0,005	0,008
-283,774	-155,468	-0,122	-0,006
-282,759	372,697	-0,060	-0,088
-281,745	10,194	0,092	0,050
-280,730	-200,000	0,026	-0,094
-279,716	-200,000	-0,010	0,106
-278,701	337,182	0,062	0,086
-277,686	-116,821	-0,023	0,003
-276,672	27,287	0,089	0,053
-275,657	173,654	-0,055	0,057
-274,643	-97,649	-0,176	-0,032
-273,628	161,123	-0,097	0,097
-272,613	800,000	0,018	0,053
-271,599	370,888	0,069	-0,100
-270,584	800,000	0,016	0,048
-269,570	-200,000	0,028	0,119
-268,555	238,305	-0,098	-0,117
-267,540	405,517	-0,040	0,060
-266,526	-61,083	-0,078	0,023
-265,511	-40,527	-0,102	0,038
-264,497	91,217	-0,023	0,018
-263,482	313,048	0,132	0,178
-262,467	-68,843	0,093	0,025
-261,453	75,438	-0,126	0,095
-260,438	17,735	-0,070	0,040
-259,424	-102,524	0,046	0,008
-258,409	800,000	-0,065	-0,200
-257,395	378,868	0,022	-0,033
-256,380	-62,627	-0,031	0,009
-255,365	732,520	0,026	0,050
-254,351	-200,000	-0,087	0,000
-253,336	-200,000	-0,005	0,046
-252,322	537,934	-0,065	-0,110
-251,307	800,000	-0,032	0,085
-250,292	762,241	0,065	0,126
-249,278	484,617	-0,071	0,115
-248,263	609,070	-0,063	0,112
-247,249	-200,000	-0,012	0,070
-246,234	-200,000	-0,010	-0,112
-245,219	94,999	-0,061	-0,049
-244,205	300,953	-0,048	0,063
-243,190	-80,669	-0,115	-0,027
-242,176	114,049	0,047	0,041
-241,161	800,000	0,023	0,050
-240,146	800,000	-0,005	0,016
-239,132	-200,000	0,059	-0,191
-238,117	-200,000	-0,004	-0,039
-237,103	145,463	-0,117	-0,112
-236,088	73,067	-0,024	-0,018
-235,073	610,952	0,025	0,044
-234,059	800,000	0,001	0,003
-233,044	800,000	-0,039	-0,083
-232,030	618,510	0,042	-0,075
-231,015	-66,036	-0,156	-0,044
-230,000	28,035	-0,063	0,038
-228,986	-4,942	0,054	0,026
-227,971	210,146	-0,096	0,107
-226,957	366,073	0,041	0,058
-225,942	-200,000	0,012	-0,088
-224,927	-40,163	0,075	0,028
-223,913	-200,000	0,037	-0,165
-222,898	-200,000	-0,028	-0,201
-221,884	566,220	-0,033	-0,057
-220,869	3,971	0,071	0,037
-219,855	-200,000	0,013	-0,069
-218,840	-134,667	0,055	0,005
-217,825	-180,540	-0,078	-0,001
-216,811	-101,454	0,092	-0,016
-215,796	61,572	0,100	-0,071
-214,782	-200,000	0,009	0,134
-213,767	-200,000	0,001	-0,090
-212,752	243,272	0,053	0,063
-211,738	800,000	0,039	-0,084
-210,723	-200,000	0,008	-0,067
-209,709	216,185	0,055	-0,063
-208,694	-36,194	-0,170	0,065
-207,679	-200,000	0,013	0,116
-206,665	-68,187	-0,032	0,009
-205,650	14,214	0,094	0,052
-204,636	-200,000	-0,038	0,143
-203,621	-200,000	-0,036	0,205
-202,606	34,753	0,090	0,056
-201,592	102,117	-0,070	0,058
-200,577	82,388	0,090	-0,069
-199,563	-200,000	-0,010	0,154
-198,548	72,119	0,133	0,098
-197,533	-16,906	-0,205	-0,092
-196,519	-200,000	-0,011	0,050
-195,504	-200,000	-0,001	-0,031
-194,490	135,052	-0,088	-0,082
-193,475	796,593	-0,055	-0,109
-192,460	19,750	0,103	-0,059
-191,446	656,998	0,027	0,050
-190,431	222,078	0,063	0,072
-189,417	-200,000	-0,008	-0,087
-188,402	315,420	0,098	-0,131
-187,387	-200,000	-0,030	-0,140
-186,373	171,966	0,084	-0,086
-185,358	152,453	-0,055	-0,054
-184,344	-200,000	-0,018	0,113
-183,329	337,808	-0,044	-0,061
-182,315	295,200	0,043	0,056
-181,300	-73,626	0,022	-0,006
-180,285	476,901	0,036	-0,059
-179,271	-46,758	-0,116	0,040
-178,256	-18,936	0,101	-0,045
-177,242	-53,667	0,069	-0,022
-176,227	-27,617	-0,050	-0,020
-175,212	92,032	0,099	0,079
-174,198	-168,302	-0,186	-0,005
-173,183	-200,000	-0,002	-0,160
-172,169	-1,915	0,079	-0,039
-171,154	-80,272	-0,018	0,004
-170,139	-200,000	0,004	0,076
-169,125	-139,614	0,066	-0,005
-168,110	-138,224	0,158	-0,012
-167,096	-200,000	0,005	-0,032
-166,081	-200,000	0,013	0,061
-165,066	730,786	-0,068	0,129
-164,052	-200,000	0,036	-0,119
-163,037	-200,000	0,018	-0,058
-162,023	144,251	-0,049	-0,047
-161,008	-16,952	-0,070	0,031
-159,993	800,000	-0,046	-0,105
-158,979	-200,000	-0,022	-0,090
-157,964	800,000	-0,020	-0,061
-156,950	35,689	-0,072	0,045
-155,935	-200,000	-0,022	-0,144
-154,920	-35,470	0,065	0,025
-153,906	800,000	0,027	-0,062
-152,891	800,000	0,069	0,138
-151,877	800,000	-0,046	-0,111
-150,862	468,153	-0,046	-0,074
-149,847	-200,000	-0,032	-0,109
-148,833	800,000	-0,029	0,069
-147,818	658,598	0,051	0,093
-146,804	-50,369	0,081	0,027
-145,789	8,812	0,037	0,020
-144,775	-61,644	-0,029	-0,009
-143,760	454,267	-0,026	0,042
-142,745	437,863	-0,091	-0,141
-141,731	268,507	0,031	0,039
-140,716	221,278	-0,073	0,084
-139,702	-200,000	0,032	0,278
-138,687	800,000	0,034	0,099
-137,672	181,418	-0,087	0,091
-136,658	-200,000	0,008	-0,069
-135,643	166,691	-0,026	-0,026
-134,629	403,534	0,070	-0,105
-133,614	800,000	0,040	0,105
-132,599	226,163	-0,053	0,061
-131,585	800,000	-0,087	0,194
-130,570	800,000	0,039	0,114
-129,556	-40,541	-0,125	-0,046
-128,541	-139,897	-0,103	0,008
-127,526	800,000	0,028	-0,075
-126,512	371,537	0,098	-0,142
-125,497	-145,896	0,025	0,002
-124,483	207,276	0,043	0,048
-123,468	-147,880	-0,083	0,005
-122,453	13,098	-0,119	0,065
-121,439	174,343	0,019	-0,019
-120,424	467,928	0,050	-0,081
-119,410	-36,267	-0,113	0,043
-118,395	167,623	0,054	0,054
-117,380	81,691	0,186	0,143
-116,366	-200,000	0,044	0,269
-115,351	200,953	-0,083	0,091
-114,337	195,781	0,021	-0,023
-113,322	-172,178	-0,095	0,002
-112,307	-195,207	-0,029	-0,000
-111,293	-100,413	0,085	-0,015
-110,278	186,698	0,017	0,018
-109,264	-156,450	0,056	-0,002
-108,249	35,688	-0,057	-0,035
-107,234	-103,624	-0,092	-0,015
-106,220	-24,107	-0,104	0,044
-105,205	800,000	-0,040	-0,105
-104,191	537,279	0,047	-0,079
-103,176	-59,459	-0,091	0,027
-102,162	-200,000	0,015	-0,095
-101,147	-86,984	0,091	-0,020
-100,132	-200,000	-0,032	-0,126
-99,118	-200,000	0,024	-0,077
-98,103	-110,001	0,105	0,015
-97,089	31,767	0,157	-0,096
-96,074	-200,000	-0,038	0,124
-95,059	-127,905	-0,012	0,001
-94,045	-134,161	0,026	0,002
-93,030	77,259	-0,111	-0,084
-92,016	-200,000	0,007	-0,164
-91,001	-83,487	0,044	-0,010
-89,986	-108,893	0,071	0,011
-88,972	-200,000	-0,003	-0,026
-87,957	-200,000	-0,028	0,100
-86,943	-200,000	-0,005	-0,022
-85,928	329,158	0,036	-0,050
-84,913	800,000	0,015	-0,040
-83,899	-200,000	0,006	0,051
-82,884	800,000	-0,046	0,134
-81,870	-187,484	0,030	0,000
-80,855	-200,000	0,005	-0,056
-79,840	-200,000	0,021	-0,083
-78,826	247,956	0,051	0,061
-77,811	-31,325	-0,100	0,040
-76,797	167,552	-0,053	-0,053
-75,782	152,838	0,107	-0,104
-74,767	-200,000	0,008	-0,060
-73,753	-139,237	0,104	0,008
-72,738	134,121	-0,086	0,079
-71,724	-200,000	-0,001	0,047
-70,709	267,728	-0,119	-0,147
-69,694	800,000	0,020	0,059
-68,680	659,078	0,049	-0,090
-67,665	-200,000	-0,015	-0,081
-66,651	-143,639	0,174	0,012
-65,636	-200,000	-0,047	-0,164
-64,622	120,271	0,007	0,006
-63,607	-153,746	-0,132	-0,006
-62,592	363,452	-0,074	-0,106
-61,578	800,000	-0,065	-0,130
-60,563	75,698	0,103	0,077
-59,549	489,051	-0,051	0,083
-58,534	-74,685	-1,476	-0,373
-57,519	380,320	-1,489	-2,169
-56,505	-200,000	-0,599	-4,561
-55,490	144,095	0,932	0,881
-54,476	800,000	4,801	11,283
-53,461	-200,000	18,055	285,545
-52,446	800,000	726,421	2222,376
-51,432	553,870	1642,147	2807,729
-50,417	79,516	1664,409	1263,549
-49,403	23,103	1538,245	891,829
-48,388	17,090	1461,517	818,243
-47,373	17,892	1451,447	816,432
-46,359	17,385	1442,058	808,693
-45,344	15,332	1437,470	796,294
-44,330	15,228	1435,494	794,670
-43,315	15,247	1433,680	793,727
-42,300	15,265	1432,061	792,882
-41,286	15,291	1431,046	792,414
-40,271	15,246	1429,734	791,444
-39,257	15,223	1428,569	790,659
-38,242	15,288	1427,143	790,145
-37,227	15,339	1425,664	789,535
-36,213	15,302	1424,610	788,747
-35,198	15,307	1423,352	788,043
-34,184	15,305	1422,660	787,619
-33,169	15,239	1421,374	786,565
-32,154	15,300	1420,266	786,207
-31,140	15,287	1419,118	785,480
-30,125	15,295	1417,984	784,858
-29,111	15,320	1416,570	784,159
-28,096	15,242	1415,714	783,287
-27,082	15,234	1414,545	782,573
-26,067	15,239	1413,321	781,888
-25,052	15,260	1412,341	781,413
-24,038	15,220	1411,405	780,677
-23,023	15,204	1410,232	779,922
-22,009	15,180	1409,415	779,331
-20,994	15,194	1408,419	778,814
-19,979	15,133	1407,698	778,098
-18,965	15,122	1406,593	777,406
-17,950	15,180	1405,625	777,111
-16,936	15,158	1404,664	776,446
-15,921	15,118	1403,386	775,522
-14,906	15,120	1402,589	775,059
-13,892	15,103	1401,710	774,464
-12,877	15,095	1400,839	773,916
-11,863	15,109	1399,849	773,403
-10,848	15,120	1399,158	773,042
-9,833	15,104	1397,961	772,276
-8,819	15,048	1397,209	771,569
-7,804	14,987	1396,387	770,802
-6,790	15,054	1395,191	770,420
-5,775	15,080	1394,040	769,875
-4,760	15,055	1393,260	769,297
-3,746	15,011	1392,458	768,620
-2,731	14,975	1391,738	768,030
-1,717	15,040	1390,753	767,752
-0,702	15,024	1388,926	766,639
0,313	18,834	1308,501	739,875
1,327	35,168	707,769	438,101
2,342	54,335	124,923	85,005
3,356	3,800	16,656	8,581
4,371	2,618	3,240	1,656
5,386	-14,437	0,560	0,254
6,400	454,109	0,050	0,078
7,415	207,108	-0,110	-0,122
8,429	195,356	-0,277	-0,298
9,444	22,477	-0,400	-0,231
10,459	237,527	-0,174	-0,204
11,473	-23,873	-0,282	-0,119
12,488	-21,265	-0,366	-0,158
13,502	-82,796	-0,330	-0,075
14,517	45,988	-0,374	-0,245
15,531	67,192	-0,381	-0,275
16,546	171,767	-0,307	-0,312
17,561	270,357	-0,319	-0,397
18,575	-100,867	-0,322	-0,055
19,590	46,632	-0,311	-0,204
20,604	46,918	-0,245	-0,161
21,619	173,863	-0,286	-0,292
22,634	73,036	-0,513	-0,378
23,648	39,556	-0,509	-0,322
24,663	66,298	-0,434	-0,311
25,677	12,982	-0,369	-0,201
26,692	176,742	-0,331	-0,341
27,707	151,050	-0,302	-0,290
28,721	89,883	-0,345	-0,272
29,736	152,251	-0,416	-0,401
30,750	121,688	-0,388	-0,342
31,765	24,420	-0,516	-0,300
32,780	332,892	-0,241	-0,330
33,794	104,059	-0,353	-0,293
34,809	174,364	-0,268	-0,274
35,823	-9,698	-0,387	-0,181
36,838	165,024	-0,308	-0,307
37,853	26,475	-0,485	-0,285
38,867	14,996	-0,499	-0,275
39,882	108,704	-0,364	-0,307
40,896	114,003	-0,283	-0,243
41,911	-49,252	-0,390	-0,131
42,926	-38,762	-0,319	-0,118
43,940	91,317	-0,362	-0,287
44,955	89,337	-0,437	-0,343
45,969	144,422	-0,366	-0,345
46,984	117,141	-0,357	-0,309
47,999	203,401	-0,234	-0,255
49,013	278,832	-0,210	-0,264
50,028	226,255	-0,363	-0,416
51,042	252,020	-0,240	-0,289
52,057	227,199	-0,348	-0,399
53,071	157,851	-0,272	-0,266
54,086	20,866	-0,340	-0,194
55,101	47,233	-0,255	-0,167
56,115	-55,008	-0,282	-0,089
57,130	5,529	-0,274	-0,142
58,144	409,592	-0,261	-0,391
59,159	-67,709	-0,465	-0,127
60,174	59,625	-0,417	-0,289
61,188	127,011	-0,315	-0,281
62,203	-43,431	-0,325	-0,115
63,217	46,149	-0,301	-0,196
64,232	-123,404	-0,349	-0,039
65,247	92,561	-0,348	-0,276
66,261	91,290	-0,378	-0,299
67,276	99,608	-0,364	-0,296
68,290	21,351	-0,447	-0,255
69,305	-14,481	-0,196	-0,088
70,320	9,928	-0,259	-0,138
71,334	12,542	-0,453	-0,245
72,349	109,304	-0,319	-0,269
73,363	126,969	-0,366	-0,326
74,378	60,536	-0,401	-0,279
75,393	374,269	-0,218	-0,313
76,407	13,053	-0,328	-0,178
77,422	177,086	-0,282	-0,289
78,436	-50,285	-0,333	-0,110
79,451	-31,990	-0,314	-0,123
80,466	71,467	-0,312	-0,228
81,480	376,111	-0,266	-0,382
82,495	115,414	-0,268	-0,230
83,509	144,259	-0,235	-0,221
84,524	-58,629	-0,392	-0,119
85,539	93,019	-0,259	-0,205
86,553	10,319	-0,312	-0,167
87,568	293,711	-0,231	-0,297
88,582	20,003	-0,339	-0,192
89,597	192,150	-0,274	-0,290
90,611	3,475	-0,319	-0,163
91,626	4,306	-0,179	-0,092
92,641	102,120	-0,294	-0,241
93,655	-7,194	-0,386	-0,183
94,670	130,747	-0,270	-0,244
95,684	-69,313	-0,316	-0,085
96,699	40,614	-0,255	-0,161
97,714	136,359	-0,300	-0,275
98,728	152,269	-0,250	-0,239
99,743	50,703	-0,435	-0,289
100,757	43,784	-0,154	-0,099
101,772	-10,243	-0,383	-0,178
102,787	33,719	-0,304	-0,185
103,801	125,896	-0,282	-0,250
104,816	185,262	-0,291	-0,303
105,830	374,107	-0,158	-0,227
106,845	-7,976	-0,284	-0,134
107,860	538,566	-0,143	-0,239
108,874	110,690	-0,318	-0,268
109,889	69,575	-0,320	-0,231
110,903	124,242	-0,227	-0,200
111,918	7,805	-0,227	-0,119
112,933	-137,027	-0,229	-0,018
113,947	57,533	-0,235	-0,161
114,962	161,537	-0,279	-0,273
115,976	10,410	-0,307	-0,163
116,991	55,843	-0,181	-0,123
118,006	80,726	-0,339	-0,256
119,020	276,796	-0,159	-0,198
120,035	-119,863	-0,263	-0,031
121,049	-25,549	-0,344	-0,142
122,064	-24,064	-0,202	-0,084
123,079	131,616	-0,164	-0,148
124,093	3,002	-0,368	-0,187
125,108	377,838	-0,173	-0,248
126,122	61,136	-0,264	-0,183
127,137	262,068	-0,161	-0,196
128,151	7,138	-0,258	-0,134
129,166	75,547	-0,218	-0,161
130,181	105,558	-0,297	-0,245
131,195	-46,034	-0,254	-0,087
132,210	2,808	-0,406	-0,206
133,224	22,898	-0,323	-0,185
134,239	101,192	-0,158	-0,128
135,254	-20,352	-0,234	-0,100
136,268	43,577	-0,152	-0,097
137,283	241,171	-0,188	-0,220
138,297	48,845	-0,309	-0,202
139,312	34,739	-0,230	-0,140
140,327	426,989	-0,194	-0,293
141,341	121,848	-0,241	-0,210
142,356	305,485	-0,141	-0,183
143,370	271,073	-0,197	-0,243
144,385	-90,736	-0,262	-0,052
145,400	-4,638	-0,243	-0,117
146,414	6,364	-0,279	-0,145
147,429	74,798	-0,258	-0,190
148,443	194,827	-0,267	-0,284
149,458	-67,092	-0,292	-0,080
150,473	52,021	-0,239	-0,159
151,487	-143,738	-0,231	0,015
152,502	109,540	-0,173	-0,145
153,516	56,602	-0,167	-0,114
154,531	300,047	-0,271	-0,350
155,546	93,664	-0,230	-0,182
156,560	491,102	-0,119	-0,191
157,575	-75,976	-0,321	-0,079
158,589	-30,023	-0,211	-0,083
159,604	229,042	-0,260	-0,297
160,619	418,052	-0,165	-0,247
161,633	800,000	-0,135	-0,321
162,648	108,908	-0,192	-0,160
163,662	70,576	-0,142	-0,102
164,677	-76,267	-0,286	-0,070
165,692	3,553	-0,225	-0,114
166,706	-8,812	-0,313	-0,146
167,721	188,714	-0,181	-0,189
168,735	55,225	-0,333	-0,224
169,750	49,620	-0,356	-0,234
170,764	589,722	-0,112	-0,192
171,779	800,000	-0,082	-0,192
172,794	43,632	-0,247	-0,157
173,808	55,144	-0,099	-0,067
174,823	157,205	-0,249	-0,241
175,837	177,101	-0,273	-0,278
176,852	326,110	-0,199	-0,266
177,867	-27,078	-0,179	-0,073
178,881	-200,000	-0,078	-0,290
179,896	-34,033	-0,290	-0,110
180,910	195,756	-0,229	-0,243
181,925	100,415	-0,309	-0,249
182,940	3,465	-0,386	-0,195
183,954	111,948	-0,150	-0,126
184,969	69,748	-0,125	-0,089
185,983	-52,297	-0,137	-0,044
186,998	-192,091	-0,127	0,001
188,013	-29,068	-0,196	-0,078
189,027	138,746	-0,348	-0,318
190,042	727,224	-0,141	-0,263
191,056	-99,569	-0,273	-0,047
192,071	-28,546	-0,199	-0,080
193,086	-118,721	-0,141	-0,017
194,100	-0,888	-0,125	-0,061
195,115	66,390	-0,154	-0,108
196,129	268,485	-0,163	-0,200
197,144	99,415	-0,209	-0,168
198,159	176,987	-0,201	-0,204
199,173	-28,291	-0,214	-0,085
200,188	-123,705	-0,257	-0,028
201,202	-200,000	-0,045	-0,152
202,217	128,221	-0,146	-0,129
203,232	800,000	-0,096	-0,241
204,246	-42,783	-0,277	-0,097
205,261	278,604	-0,087	-0,108
206,275	196,769	-0,224	-0,237
207,290	239,043	-0,184	-0,213
208,304	188,107	-0,187	-0,194
209,319	7,082	-0,253	-0,131
210,334	43,069	-0,263	-0,166
211,348	-56,869	-0,282	-0,086
212,363	184,128	-0,190	-0,195
213,377	60,221	-0,161	-0,111
214,392	653,302	-0,098	-0,175
215,407	227,049	-0,192	-0,217
216,421	246,926	-0,135	-0,159
217,436	25,373	-0,142	-0,082
218,450	800,000	-0,106	-0,205
219,465	199,223	-0,198	-0,211
220,480	353,397	-0,132	-0,182
221,494	160,572	-0,143	-0,139
222,509	43,010	-0,112	-0,071
223,523	129,501	-0,125	-0,111
224,538	800,000	-0,129	-0,335
225,553	181,093	-0,200	-0,204
226,567	36,635	-0,171	-0,105
227,582	444,537	-0,194	-0,296
228,596	617,802	-0,118	-0,206
229,611	154,718	-0,130	-0,124
230,626	256,561	-0,108	-0,129
231,640	-100,738	-0,236	-0,040
232,655	89,112	-0,153	-0,118
233,669	164,250	-0,160	-0,157
234,684	-98,559	-0,110	-0,019
235,699	-56,529	-0,176	0,054
236,713	155,954	-0,131	-0,126
237,728	32,998	-0,131	-0,078
238,742	20,059	-0,237	-0,132
239,757	235,012	-0,175	-0,200
240,772	194,654	-0,200	-0,211
241,786	41,297	-0,247	-0,155
242,801	29,052	-0,113	-0,066
243,815	146,461	-0,161	-0,150
244,830	65,181	-0,236	-0,165
245,844	-60,433	-0,276	-0,081
246,859	39,784	-0,224	-0,139
247,874	24,406	-0,208	-0,119
248,888	-62,519	-0,233	-0,067
249,903	800,000	-0,056	-0,114
250,917	623,704	-0,110	-0,193
251,932	118,860	-0,193	-0,165
252,947	139,110	-0,248	-0,226
253,961	9,788	-0,197	-0,103
254,976	375,053	-0,122	-0,172
255,990	-12,350	-0,252	-0,114
257,005	337,813	-0,203	-0,274
258,020	6,787	-0,140	-0,072
259,034	16,420	-0,166	-0,090
260,049	101,052	-0,179	-0,144
261,063	126,036	-0,164	-0,144
262,078	49,002	-0,188	-0,122
263,093	40,617	-0,183	-0,114
264,107	181,237	-0,052	-0,053
265,122	-200,000	-0,017	-0,169
266,136	0,102	-0,157	-0,077
267,151	46,958	-0,124	-0,080
268,166	46,721	-0,191	-0,123
269,180	50,789	-0,171	-0,112
270,195	91,266	-0,220	-0,171
271,209	5,213	-0,180	-0,091
272,224	82,240	-0,247	-0,185
273,239	-6,717	-0,139	-0,065
274,253	262,984	-0,066	-0,080
275,268	-77,997	-0,238	0,056
276,282	128,441	-0,262	-0,231
277,297	135,264	-0,138	-0,124
278,312	53,912	-0,220	-0,146
279,326	800,000	-0,039	-0,119
280,341	-33,486	-0,174	-0,066
281,355	-27,273	-0,208	-0,083
282,370	-39,526	-0,259	-0,093
283,384	77,903	-0,184	-0,135
284,399	-200,000	-0,072	-0,256
285,414	638,204	-0,089	-0,156
286,428	250,398	-0,174	-0,204
287,443	800,000	-0,074	-0,145
288,457	-31,373	-0,136	0,053
289,472	-25,672	-0,180	-0,073
290,487	57,024	-0,257	-0,172
291,501	434,060	-0,133	-0,200
292,516	-200,000	-0,087	-0,286
293,530	48,155	-0,168	-0,108
294,545	140,196	-0,051	-0,047
295,560	15,775	-0,167	-0,090
296,574	5,548	-0,103	0,052
297,589	79,445	-0,199	-0,147
298,603	51,297	-0,234	-0,153
299,618	295,470	-0,127	-0,161
300,633	49,684	-0,210	-0,136
301,647	-3,599	-0,138	-0,066
302,662	-171,396	-0,104	0,002
303,676	127,994	-0,163	-0,143
304,691	-55,296	-0,245	-0,076
305,706	116,347	-0,211	-0,178
306,720	111,929	-0,213	-0,177
307,735	763,710	-0,146	-0,274
308,749	133,636	-0,147	-0,131
309,764	-187,468	-0,140	0,001
310,779	1,767	-0,217	-0,107
311,793	800,000	-0,077	-0,199
312,808	101,203	-0,235	-0,188
313,822	-13,421	-0,155	-0,069
314,837	65,286	-0,141	-0,098
315,852	435,373	-0,045	-0,068
316,866	94,841	-0,113	0,089
317,881	70,874	-0,178	-0,127
318,895	800,000	-0,038	-0,099
319,910	550,685	-0,143	-0,237
320,925	-183,623	-0,184	0,002
321,939	485,526	-0,083	-0,131
322,954	252,306	-0,085	-0,100
323,968	-72,998	-0,033	0,008
324,983	94,367	-0,156	-0,122
325,997	44,736	-0,213	-0,135
327,012	168,862	-0,078	-0,076
328,027	-145,999	-0,185	-0,011
329,041	-108,291	-0,251	-0,037
330,056	-48,491	-0,049	0,016
331,070	-16,152	-0,227	-0,099
332,085	43,399	-0,153	-0,096
333,100	-134,838	-0,156	-0,013
334,114	172,292	-0,217	-0,215
335,129	482,397	-0,107	-0,168
336,143	173,562	-0,157	-0,156
337,158	188,827	-0,095	-0,097
338,173	201,242	-0,070	-0,075
339,187	155,604	-0,053	-0,051
340,202	45,286	-0,130	0,082
341,216	-114,722	-0,142	0,018
342,231	800,000	-0,042	-0,125
343,246	152,327	-0,186	-0,175
344,260	-200,000	-0,040	-0,132
345,275	404,662	-0,067	-0,097
346,289	-40,385	-0,059	-0,021
347,304	536,497	-0,106	-0,173
348,319	339,991	-0,140	-0,188
349,333	40,420	-0,309	-0,191
350,348	-24,864	-0,187	-0,076
351,362	10,195	-0,152	-0,079
352,377	242,382	-0,101	-0,116
353,392	-200,000	-0,017	-0,101
354,406	154,552	-0,137	-0,129
355,421	207,893	1319,695	1416,144
356,435	159,937	1481,055	1416,648
