DTS Sentinel unit serial number:	SN410029Multiplexer serial number:	ORYXHardware model number:	OX2-SRSoftware version number:	ORYX F/W v4,00 Oryx Data Collector v3.7.2.0data status	okinstallation	B3 Nyhavnadifferential loss correction	single-endedforward channel	channel 1reverse channel	N/Adate	2023/12/01time	21:37:30forward acquisition time	300,00reverse acquisition time	0,00gamma	499,1914k internal	0,3196k external	0,3196temperature offset calibration	1,0000default loss term (dB/km)	0,3820temperature slope calibration	1,0000multiplexer offset coefficient	1,0000multiplexer slope coefficient	1,0000fibre end	0,00T internal ref (°C)	16,03T ext. ref 1 (°C)	1,09T ext. ref 2 (°C)	1,09length (m)	temperature (°C)	Stokes	anti-Stokes-744,400	673,356	-0,116	-0,220
-743,385	-200,000	0,102	0,454
-742,371	127,290	-0,224	-0,207
-741,356	-200,000	0,010	0,455
-740,342	82,308	-0,284	-0,224
-739,327	-200,000	0,007	0,356
-738,312	2,997	-0,274	-0,145
-737,298	-200,000	-0,018	0,086
-736,283	197,896	-0,222	-0,247
-735,269	-200,000	0,047	0,514
-734,254	114,834	-0,233	-0,207
-733,239	-200,000	-0,033	0,208
-732,225	238,542	-0,139	-0,168
-731,210	-19,698	0,143	0,064
-730,196	800,000	-0,022	0,070
-729,181	82,427	-0,059	-0,047
-728,167	-66,162	-0,079	-0,023
-727,152	395,777	0,041	0,062
-726,137	27,564	-0,058	0,035
-725,123	0,755	0,060	-0,031
-724,108	55,827	-0,046	0,033
-723,094	-149,490	-0,155	0,009
-722,079	-200,000	0,005	-0,037
-721,064	396,984	0,010	0,016
-720,050	35,092	-0,046	-0,029
-719,035	12,384	-0,010	0,006
-718,021	603,275	-0,044	-0,080
-717,006	140,260	-0,132	-0,127
-715,991	-200,000	-0,003	0,025
-714,977	346,834	0,144	-0,207
-713,962	800,000	-0,016	-0,034
-712,948	-16,007	0,117	0,054
-711,933	142,498	-0,041	0,040
-710,918	-200,000	-0,024	-0,115
-709,904	-200,000	-0,001	0,148
-708,889	-180,313	-0,097	-0,001
-707,875	-3,901	0,062	-0,031
-706,860	233,633	-0,013	-0,016
-705,845	-146,715	-0,027	-0,002
-704,831	-15,440	-0,095	0,044
-703,816	-19,137	0,140	-0,063
-702,802	35,411	-0,080	-0,051
-701,787	331,184	-0,009	0,013
-700,772	21,645	-0,040	0,023
-699,758	-200,000	0,011	0,129
-698,743	782,535	0,054	0,109
-697,729	-200,000	-0,006	0,118
-696,714	45,242	0,023	0,015
-695,699	-200,000	-0,009	0,082
-694,685	-178,200	-0,062	0,001
-693,670	-166,900	-0,112	0,003
-692,656	-200,000	0,004	-0,123
-691,641	-45,320	0,086	0,031
-690,627	777,298	0,062	0,123
-689,612	139,640	-0,078	0,075
-688,597	800,000	-0,064	-0,152
-687,583	30,340	-0,136	0,084
-686,568	-160,273	-0,100	0,004
-685,554	-5,757	0,032	0,016
-684,539	66,783	-0,182	0,135
-683,524	163,303	0,079	0,081
-682,510	-200,000	0,017	0,073
-681,495	-121,640	-0,075	-0,009
-680,481	446,127	0,048	-0,077
-679,466	434,912	-0,019	-0,029
-678,451	256,570	-0,013	-0,016
-677,437	-200,000	0,013	0,048
-676,422	549,839	0,031	0,054
-675,408	709,614	-0,014	-0,028
-674,393	261,470	0,035	-0,044
-673,378	-28,617	-0,124	-0,052
-672,364	-91,853	-0,101	0,021
-671,349	-200,000	0,022	-0,146
-670,335	-111,406	0,091	0,013
-669,320	800,000	-0,063	-0,166
-668,305	424,746	-0,025	-0,039
-667,291	-38,080	0,154	0,059
-666,276	726,862	0,034	-0,066
-665,262	78,332	0,016	0,012
-664,247	-76,478	-0,127	-0,032
-663,232	-87,138	-0,120	0,026
-662,218	71,231	-0,113	0,085
-661,203	-200,000	0,009	0,099
-660,189	554,135	-0,052	-0,091
-659,174	-87,151	-0,025	-0,006
-658,159	183,320	-0,106	-0,114
-657,145	-64,237	-0,087	-0,025
-656,130	-200,000	-0,008	0,068
-655,116	-200,000	-0,014	0,101
-654,101	133,595	0,125	0,118
-653,086	-71,282	-0,083	-0,023
-652,072	720,249	0,033	-0,065
-651,057	690,409	0,067	-0,127
-650,043	-55,814	0,029	-0,009
-649,028	-23,503	-0,111	-0,048
-648,014	57,744	0,098	-0,070
-646,999	117,392	0,116	0,104
-645,984	187,951	0,064	-0,069
-644,970	34,496	0,038	-0,024
-643,955	744,775	-0,123	-0,241
-642,941	-200,000	-0,006	0,114
-641,926	233,112	-0,100	0,120
-640,911	12,568	-0,076	-0,043
-639,897	-81,136	0,125	0,030
-638,882	-200,000	-0,023	0,110
-637,868	-200,000	-0,009	-0,042
-636,853	-200,000	-0,025	-0,149
-635,838	210,654	-0,053	-0,061
-634,824	-65,139	-0,082	-0,024
-633,809	70,938	0,101	0,076
-632,795	52,899	-0,094	0,065
-631,780	-61,744	0,063	-0,019
-630,765	277,621	-0,034	0,043
-629,751	141,296	-0,141	0,136
-628,736	49,749	0,065	-0,044
-627,722	-200,000	-0,025	0,198
-626,707	27,925	0,174	0,106
-625,692	-87,803	0,053	-0,011
-624,678	-138,614	-0,102	0,008
-623,663	93,279	-0,072	0,059
-622,649	261,554	0,053	0,066
-621,634	-200,000	0,002	0,017
-620,619	562,863	-0,037	0,066
-619,605	-200,000	0,031	0,135
-618,590	329,884	0,068	-0,096
-617,576	261,029	0,042	0,053
-616,561	7,306	-0,074	0,040
-615,546	-142,245	-0,059	0,004
-614,532	157,841	-0,081	-0,081
-613,517	-200,000	-0,014	-0,072
-612,503	-27,517	0,107	0,045
-611,488	-147,386	-0,019	0,001
-610,474	-192,917	-0,096	-0,001
-609,459	800,000	0,036	0,109
-608,444	-46,037	-0,069	0,025
-607,430	-37,895	-0,161	-0,062
-606,415	-114,802	-0,142	-0,019
-605,401	-200,000	-0,004	-0,038
-604,386	-200,000	-0,023	0,117
-603,371	155,818	-0,027	0,027
-602,357	35,111	0,124	0,079
-601,342	-200,000	0,019	0,108
-600,328	800,000	0,059	-0,127
-599,313	-200,000	0,017	-0,086
-598,298	-29,215	-0,097	-0,040
-597,284	469,199	0,075	0,123
-596,269	222,165	-0,104	0,121
-595,255	-37,341	0,052	-0,020
-594,240	800,000	-0,008	0,026
-593,225	-200,000	0,024	-0,140
-592,211	-95,118	-0,094	-0,018
-591,196	-200,000	-0,012	0,107
-590,182	226,713	0,099	-0,116
-589,167	-44,333	-0,043	0,016
-588,152	-200,000	0,005	0,117
-587,138	-86,070	-0,035	-0,008
-586,123	200,336	0,084	-0,094
-585,109	-111,422	-0,219	0,032
-584,094	79,783	-0,069	0,053
-583,079	-174,507	0,131	0,003
-582,065	-200,000	0,021	0,092
-581,050	66,740	-0,074	0,054
-580,036	-110,667	0,104	-0,015
-579,021	38,219	0,078	-0,050
-578,006	-57,083	0,042	0,013
-576,992	58,731	0,032	-0,023
-575,977	-160,013	0,152	-0,006
-574,963	93,217	0,119	0,097
-573,948	-73,013	-0,168	-0,044
-572,934	29,070	0,100	-0,061
-571,919	9,504	-0,160	-0,088
-570,904	741,678	-0,061	-0,119
-569,890	263,803	-0,039	-0,049
-568,875	297,908	-0,023	-0,030
-567,861	-200,000	0,007	0,089
-566,846	190,819	-0,056	-0,061
-565,831	-27,510	0,155	-0,065
-564,817	800,000	0,037	-0,080
-563,802	-3,240	0,083	0,041
-562,788	-74,675	-0,121	-0,031
-561,773	194,622	0,106	0,116
-560,758	-81,923	-0,168	0,039
-559,744	-40,512	0,220	0,082
-558,729	177,340	0,013	0,014
-557,715	242,518	-0,048	-0,058
-556,700	28,859	-0,116	-0,071
-555,685	51,100	0,012	-0,008
-554,671	800,000	0,074	0,182
-553,656	800,000	-0,033	-0,068
-552,642	6,303	0,156	0,084
-551,627	26,537	-0,116	0,070
-550,612	96,453	0,029	-0,024
-549,598	-200,000	-0,001	0,099
-548,583	715,928	0,020	-0,039
-547,569	-9,396	0,052	0,025
-546,554	190,403	-0,056	-0,061
-545,539	-23,766	0,011	-0,005
-544,525	800,000	0,023	-0,063
-543,510	-200,000	-0,027	-0,114
-542,496	67,941	-0,077	-0,057
-541,481	-137,213	-0,110	0,009
-540,466	800,000	-0,042	-0,128
-539,452	2,109	0,007	0,004
-538,437	39,445	0,064	0,041
-537,423	-22,856	-0,082	-0,035
-536,408	-73,245	-0,014	-0,004
-535,393	-145,601	-0,123	-0,008
-534,379	800,000	0,010	0,032
-533,364	219,792	0,013	0,015
-532,350	101,222	-0,013	0,011
-531,335	800,000	-0,040	0,117
-530,321	-200,000	-0,006	0,084
-529,306	-148,260	-0,042	-0,002
-528,291	-48,192	-0,090	-0,031
-527,277	800,000	-0,008	0,018
-526,262	-200,000	0,007	-0,052
-525,248	592,184	-0,012	-0,021
-524,233	170,566	-0,057	-0,059
-523,218	-200,000	-0,028	-0,156
-522,204	-200,000	-0,006	0,038
-521,189	49,796	-0,098	-0,066
-520,175	-17,953	-0,017	0,008
-519,160	70,396	0,068	-0,050
-518,145	-50,316	0,066	-0,022
-517,131	118,648	-0,031	0,027
-516,116	-200,000	0,054	0,174
-515,102	61,190	-0,145	-0,104
-514,087	-20,522	-0,078	0,034
-513,072	87,030	-0,040	0,032
-512,058	-33,353	0,054	-0,022
-511,043	54,645	0,023	0,016
-510,029	33,196	0,069	0,043
-509,014	800,000	0,060	0,130
-507,999	515,939	0,028	-0,048
-506,985	240,424	-0,033	0,040
-505,970	-20,580	0,076	0,034
-504,956	468,934	0,049	-0,080
-503,941	-51,055	0,042	0,014
-502,926	-23,894	0,095	-0,041
-501,912	-35,839	-0,063	-0,025
-500,897	341,980	-0,078	-0,110
-499,883	791,112	0,039	0,078
-498,868	-200,000	0,004	-0,052
-497,853	86,992	-0,076	0,061
-496,839	19,480	0,229	0,132
-495,824	-200,000	-0,022	0,081
-494,810	-57,766	-0,015	-0,005
-493,795	-200,000	-0,024	0,156
-492,781	27,143	0,071	-0,043
-491,766	800,000	-0,031	-0,089
-490,751	36,678	-0,111	-0,070
-489,737	-200,000	-0,017	-0,251
-488,722	206,350	0,075	0,084
-487,708	800,000	-0,027	0,062
-486,693	-63,747	-0,051	-0,015
-485,678	-1,568	0,075	0,038
-484,664	588,816	0,037	-0,066
-483,649	0,926	-0,064	-0,033
-482,635	13,378	-0,067	-0,037
-481,620	178,276	-0,042	0,044
-480,605	-45,833	0,118	0,042
-479,591	-200,000	-0,018	-0,125
-478,576	-126,327	-0,052	-0,005
-477,562	-30,250	-0,094	-0,038
-476,547	-109,243	-0,079	-0,012
-475,532	674,017	0,086	-0,162
-474,518	172,507	0,132	-0,137
-473,503	148,182	-0,107	-0,104
-472,489	30,403	0,043	0,026
-471,474	800,000	-0,062	0,151
-470,459	-111,290	-0,040	0,006
-469,445	164,012	-0,033	0,033
-468,430	79,014	0,060	0,046
-467,416	800,000	0,058	0,152
-466,401	440,776	0,046	0,072
-465,386	361,931	0,066	0,096
-464,372	-38,657	0,123	0,046
-463,357	-200,000	0,043	-0,146
-462,343	135,099	-0,118	-0,110
-461,328	-68,902	-0,091	0,025
-460,313	-77,651	-0,068	-0,017
-459,299	800,000	0,044	0,131
-458,284	172,503	-0,064	0,067
-457,270	38,631	0,069	0,044
-456,255	-200,000	0,013	-0,052
-455,241	-28,838	-0,042	0,017
-454,226	-200,000	-0,030	0,157
-453,211	-122,512	0,064	-0,007
-452,197	111,426	0,078	0,068
-451,182	230,664	-0,060	-0,071
-450,168	-200,000	0,001	-0,048
-449,153	-101,217	0,146	-0,025
-448,138	308,252	-0,086	0,115
-447,124	-16,664	0,094	-0,043
-446,109	277,531	-0,042	-0,054
-445,095	10,699	0,179	-0,098
-444,080	-200,000	0,017	-0,147
-443,065	-141,696	0,049	-0,003
-442,051	796,975	0,060	0,119
-441,036	62,184	0,067	0,048
-440,022	60,985	0,045	0,032
-439,007	-40,441	-0,074	0,028
-437,992	-200,000	0,000	-0,122
-436,978	-10,022	0,110	-0,052
-435,963	-39,098	-0,048	0,018
-434,949	-29,339	0,089	-0,037
-433,934	5,632	-0,164	0,087
-432,919	270,749	0,098	0,125
-431,905	239,451	-0,046	0,055
-430,890	230,498	-0,017	0,020
-429,876	-14,798	-0,114	0,053
-428,861	-200,000	-0,012	0,139
-427,846	-200,000	-0,003	-0,015
-426,832	-200,000	0,000	-0,124
-425,817	470,490	-0,099	0,160
-424,803	9,175	-0,098	0,053
-423,788	54,323	-0,095	0,066
-422,773	-200,000	0,018	-0,082
-421,759	800,000	-0,045	-0,106
-420,744	-200,000	-0,002	-0,010
-419,730	-200,000	0,020	-0,118
-418,715	-118,100	-0,113	0,014
-417,701	658,295	0,031	0,057
-416,686	-74,403	-0,080	-0,021
-415,671	-34,962	0,078	-0,031
-414,657	91,761	0,058	0,047
-413,642	-76,164	-0,048	0,012
-412,628	-200,000	0,021	-0,068
-411,613	239,727	-0,144	-0,173
-410,598	-80,564	-0,101	-0,024
-409,584	162,481	0,043	-0,044
-408,569	-134,497	-0,060	-0,005
-407,555	95,529	0,040	-0,033
-406,540	608,843	0,028	-0,051
-405,525	-9,288	-0,077	-0,037
-404,511	-74,301	-0,175	0,045
-403,496	800,000	0,016	-0,041
-402,482	-145,291	0,087	-0,006
-401,467	800,000	-0,010	-0,028
-400,452	266,886	-0,081	0,102
-399,438	-129,322	0,094	0,009
-398,423	800,000	-0,029	0,090
-397,409	-54,859	-0,072	-0,023
-396,394	-155,040	0,129	-0,006
-395,379	800,000	0,024	-0,060
-394,365	198,669	-0,109	-0,120
-393,350	800,000	0,055	0,156
-392,336	27,711	0,046	0,028
-391,321	24,490	-0,095	0,056
-390,306	-200,000	0,024	-0,098
-389,292	-200,000	-0,002	0,141
-388,277	153,985	0,051	-0,050
-387,263	107,843	0,030	-0,026
-386,248	41,423	-0,030	0,019
-385,233	-141,975	-0,032	-0,002
-384,219	555,156	0,014	-0,024
-383,204	277,137	-0,080	-0,103
-382,190	171,338	0,026	0,027
-381,175	214,776	-0,040	0,046
-380,160	-200,000	-0,004	-0,029
-379,146	422,181	0,107	0,165
-378,131	-200,000	0,005	0,035
-377,117	800,000	0,044	-0,093
-376,102	-200,000	-0,019	-0,173
-375,088	76,848	-0,082	-0,062
-374,073	737,930	0,063	-0,121
-373,058	-15,631	-0,049	-0,022
-372,044	-134,413	-0,033	0,003
-371,029	-200,000	0,010	-0,076
-370,015	249,943	-0,185	0,225
-369,000	68,358	0,038	-0,028
-367,985	-200,000	-0,005	0,125
-366,971	-11,015	0,149	-0,070
-365,956	511,117	0,072	0,121
-364,942	800,000	-0,023	-0,051
-363,927	-32,394	-0,037	0,015
-362,912	-3,670	0,042	0,021
-361,898	800,000	-0,081	0,205
-360,883	238,906	-0,017	-0,020
-359,869	-200,000	0,024	-0,079
-358,854	-10,500	0,128	-0,061
-357,839	61,217	0,109	0,077
-356,825	6,055	0,094	-0,050
-355,810	-200,000	0,009	0,052
-354,796	-200,000	-0,026	-0,112
-353,781	87,913	-0,039	0,031
-352,766	-90,466	0,001	-0,000
-351,752	556,994	-0,030	0,052
-350,737	66,768	0,155	0,113
-349,723	474,366	0,080	0,130
-348,708	689,801	-0,032	-0,059
-347,693	-81,487	0,059	0,014
-346,679	-200,000	0,018	-0,085
-345,664	433,355	-0,051	-0,080
-344,650	-13,033	-0,081	0,038
-343,635	-6,162	0,120	-0,058
-342,620	800,000	0,007	0,015
-341,606	-14,278	-0,061	0,028
-340,591	800,000	-0,029	-0,080
-339,577	-68,147	0,040	0,011
-338,562	119,218	0,080	-0,071
-337,548	-20,882	-0,091	-0,040
-336,533	585,711	-0,038	0,067
-335,518	-200,000	0,010	-0,053
-334,504	143,496	0,016	0,015
-333,489	-75,197	-0,133	0,034
-332,475	584,066	-0,045	-0,079
-331,460	-200,000	-0,032	-0,135
-330,445	-200,000	-0,012	0,080
-329,431	-165,253	0,064	-0,002
-328,416	726,417	0,043	0,082
-327,402	-54,868	0,085	0,027
-326,387	449,620	0,057	0,090
-325,372	-200,000	-0,024	-0,098
-324,358	-30,106	-0,119	-0,048
-323,343	-200,000	-0,013	-0,129
-322,329	243,065	0,021	0,026
-321,314	368,338	0,026	-0,038
-320,299	-200,000	0,003	0,106
-319,285	-200,000	-0,000	0,003
-318,270	-200,000	-0,011	0,049
-317,256	118,828	0,048	0,043
-316,241	800,000	-0,024	-0,056
-315,226	-200,000	-0,005	0,039
-314,212	630,447	0,046	0,084
-313,197	-200,000	-0,012	0,093
-312,183	-200,000	-0,017	0,056
-311,168	-68,932	0,163	-0,045
-310,153	-15,993	-0,092	0,042
-309,139	34,695	0,084	-0,053
-308,124	-65,151	0,066	-0,019
-307,110	191,031	0,106	-0,114
-306,095	34,341	-0,052	-0,032
-305,080	-200,000	-0,004	-0,029
-304,066	800,000	-0,040	0,087
-303,051	-200,000	-0,007	-0,196
-302,037	800,000	0,023	-0,069
-301,022	-132,714	0,059	0,005
-300,008	30,149	-0,103	-0,063
-298,993	-11,238	0,088	0,041
-297,978	-0,524	0,089	0,045
-296,964	204,072	0,012	-0,013
-295,949	450,150	0,063	-0,100
-294,935	406,289	0,032	-0,049
-293,920	-105,819	0,016	-0,003
-292,905	-200,000	-0,001	0,045
-291,891	-200,000	0,026	0,089
-290,876	233,529	-0,048	0,057
-289,862	112,569	-0,039	-0,034
-288,847	-200,000	-0,035	-0,151
-287,832	180,244	-0,059	-0,062
-286,818	80,481	0,112	-0,086
-285,803	-88,840	0,060	-0,013
-284,789	800,000	-0,008	-0,020
-283,774	533,971	0,065	0,110
-282,759	12,817	0,056	0,031
-281,745	-200,000	0,011	-0,086
-280,730	-86,735	-0,072	-0,016
-279,716	-41,911	0,016	0,006
-278,701	0,369	-0,106	-0,054
-277,686	-155,698	0,155	-0,007
-276,672	800,000	0,031	0,079
-275,657	-107,854	-0,039	0,006
-274,643	325,160	-0,032	-0,044
-273,628	334,366	-0,097	0,134
-272,613	252,519	-0,058	-0,071
-271,599	-24,520	-0,038	-0,016
-270,584	243,520	0,034	-0,041
-269,570	77,047	0,087	-0,066
-268,555	-43,389	0,136	0,049
-267,540	345,794	0,034	-0,048
-266,526	281,233	-0,023	-0,030
-265,511	-110,031	0,138	-0,020
-264,497	110,990	-0,036	0,031
-263,482	-200,000	-0,008	-0,086
-262,467	-75,397	0,032	0,008
-261,453	-200,000	-0,023	0,135
-260,438	210,208	-0,064	0,072
-259,424	24,294	0,192	0,113
-258,409	-166,763	-0,140	0,004
-257,395	-125,722	-0,153	0,016
-256,380	-200,000	0,012	-0,097
-255,365	-200,000	0,025	0,088
-254,351	-75,692	-0,098	-0,025
-253,336	800,000	0,049	-0,128
-252,322	-153,613	-0,061	-0,003
-251,307	114,904	0,041	-0,035
-250,292	-117,660	0,035	-0,004
-249,278	-40,164	0,040	0,015
-248,263	-65,910	0,171	0,049
-247,249	800,000	0,037	0,077
-246,234	257,472	0,047	-0,058
-245,219	-200,000	0,024	-0,111
-244,205	63,299	0,107	0,077
-243,190	600,786	0,028	0,050
-242,176	-200,000	0,048	0,192
-241,161	274,337	-0,079	0,101
-240,146	9,322	0,079	0,042
-239,132	-200,000	0,017	0,115
-238,117	138,914	-0,170	0,160
-237,103	113,354	0,053	0,046
-236,088	201,315	0,045	0,050
-235,073	800,000	-0,015	-0,043
-234,059	700,077	-0,049	0,093
-233,044	228,264	0,068	-0,079
-232,030	-151,090	0,036	-0,002
-231,015	-81,118	-0,112	-0,026
-230,000	99,273	0,007	-0,006
-228,986	-18,617	0,166	-0,073
-227,971	-156,968	0,137	0,006
-226,957	-200,000	0,024	-0,096
-225,942	800,000	0,046	0,122
-224,927	-62,306	0,035	-0,010
-223,913	163,759	0,026	-0,026
-222,898	197,869	0,025	-0,028
-221,884	-200,000	-0,002	-0,048
-220,869	296,505	0,050	0,066
-219,855	118,702	0,087	-0,077
-218,840	16,505	0,086	-0,048
-217,825	-69,997	-0,104	0,028
-216,811	-200,000	0,012	-0,041
-215,796	412,472	-0,116	-0,176
-214,782	-83,301	0,106	0,024
-213,767	-181,875	0,103	0,001
-212,752	123,980	-0,121	0,109
-211,738	289,315	-0,029	-0,038
-210,723	-84,773	0,114	0,025
-209,709	101,112	-0,057	-0,048
-208,694	416,509	0,059	-0,089
-207,679	800,000	-0,018	0,040
-206,665	-200,000	0,011	0,037
-205,650	-200,000	-0,014	0,050
-204,636	800,000	-0,036	0,078
-203,621	82,970	-0,176	-0,136
-202,606	-87,285	0,011	-0,002
-201,592	59,620	-0,064	-0,045
-200,577	-79,268	0,018	0,004
-199,563	-127,805	-0,071	-0,007
-198,548	800,000	0,028	-0,081
-197,533	-24,167	0,077	0,032
-196,519	-200,000	-0,027	-0,155
-195,504	-200,000	-0,017	-0,080
-194,490	6,761	-0,027	0,014
-193,475	-98,188	-0,087	0,016
-192,460	-200,000	-0,017	-0,054
-191,446	800,000	0,032	-0,070
-190,431	-125,290	-0,061	-0,007
-189,417	-200,000	0,017	0,111
-188,402	-12,352	-0,070	-0,033
-187,387	176,787	-0,065	-0,067
-186,373	288,178	0,094	-0,121
-185,358	-200,000	0,001	-0,156
-184,344	-67,043	0,054	0,015
-183,329	-53,394	0,025	0,008
-182,315	28,481	-0,098	0,059
-181,300	-200,000	-0,023	0,133
-180,285	-32,699	0,021	0,008
-179,271	328,641	0,043	-0,059
-178,256	-200,000	0,024	0,083
-177,242	-30,281	0,124	0,050
-176,227	-59,361	-0,009	-0,003
-175,212	-200,000	-0,015	0,081
-174,198	-114,151	-0,080	0,011
-173,183	139,549	0,029	-0,027
-172,169	-200,000	-0,027	-0,122
-171,154	-200,000	0,028	0,135
-170,139	12,100	-0,112	0,061
-169,125	-8,068	0,107	0,051
-168,110	19,423	0,061	-0,035
-167,096	-173,101	-0,028	0,001
-166,081	40,577	0,052	-0,033
-165,066	-200,000	-0,002	-0,152
-164,052	-200,000	-0,051	0,168
-163,037	-139,994	-0,117	-0,009
-162,023	65,310	-0,094	-0,068
-161,008	62,821	0,012	0,008
-159,993	-10,445	0,041	-0,019
-158,979	-78,005	-0,043	0,010
-157,964	-200,000	-0,003	0,067
-156,950	-52,132	-0,145	-0,048
-155,935	89,186	-0,089	-0,070
-154,920	-200,000	-0,031	0,106
-153,906	-200,000	-0,008	0,028
-152,891	800,000	-0,069	-0,144
-151,877	-200,000	-0,004	-0,105
-150,862	-200,000	0,005	-0,062
-149,847	96,239	-0,053	-0,043
-148,833	19,336	0,107	-0,061
-147,818	-63,034	0,155	0,045
-146,804	-68,667	0,071	0,019
-145,789	-157,982	0,150	0,006
-144,775	97,214	-0,034	-0,028
-143,760	3,133	0,162	-0,084
-142,745	-39,086	-0,073	-0,027
-141,731	68,694	0,067	0,049
-140,716	-24,865	0,052	-0,022
-139,702	-48,651	0,099	-0,034
-138,687	800,000	-0,019	0,056
-137,672	-18,116	0,093	-0,041
-136,658	37,649	-0,124	-0,078
-135,643	800,000	-0,066	-0,159
-134,629	-111,505	-0,091	-0,013
-133,614	-200,000	-0,008	-0,029
-132,599	161,959	0,062	-0,062
-131,585	498,869	0,061	-0,100
-130,570	-200,000	-0,011	-0,062
-129,556	800,000	-0,043	-0,092
-128,541	-173,895	-0,098	0,002
-127,526	137,438	-0,043	-0,040
-126,512	-78,881	0,094	0,023
-125,497	800,000	0,034	0,078
-124,483	-119,105	-0,050	0,006
-123,468	-73,988	-0,156	-0,040
-122,453	800,000	0,073	-0,212
-121,439	114,519	-0,067	-0,058
-120,424	476,061	0,020	0,033
-119,410	518,545	-0,063	0,104
-118,395	-10,282	0,175	0,082
-117,380	15,431	0,042	-0,024
-116,366	465,753	-0,095	0,152
-115,351	-36,694	-0,114	-0,043
-114,337	800,000	-0,015	0,036
-113,322	-200,000	0,004	0,081
-112,307	-200,000	0,026	0,134
-111,293	414,502	-0,082	0,125
-110,278	235,696	0,049	0,057
-109,264	701,240	-0,081	0,153
-108,249	108,340	0,027	0,023
-107,234	-39,766	0,040	0,015
-106,220	68,076	-0,074	-0,054
-105,205	45,570	0,108	-0,071
-104,191	-200,000	0,021	-0,113
-103,176	197,566	0,082	0,089
-102,162	-95,110	0,067	0,013
-101,147	800,000	-0,040	0,099
-100,132	800,000	0,049	0,129
-99,118	800,000	0,033	0,088
-98,103	-34,732	-0,036	0,014
-97,089	430,902	-0,034	-0,053
-96,074	-200,000	0,008	-0,150
-95,059	98,547	0,050	0,041
-94,045	280,875	-0,092	0,118
-93,030	545,930	-0,054	-0,092
-92,016	-19,990	-0,106	-0,046
-91,001	138,466	-0,115	-0,108
-89,986	-200,000	-0,004	0,115
-88,972	241,997	0,064	0,076
-87,957	-83,878	0,044	0,010
-86,943	-200,000	0,002	0,015
-85,928	92,962	-0,017	-0,014
-84,913	148,117	-0,045	-0,043
-83,899	-191,786	-0,105	0,001
-82,884	-140,159	0,055	-0,004
-81,870	-90,861	0,160	-0,032
-80,855	-200,000	-0,023	0,077
-79,840	-35,974	-0,116	-0,044
-78,826	491,318	0,047	-0,077
-77,811	333,152	0,087	-0,120
-76,797	274,450	0,049	-0,062
-75,782	-90,756	0,123	-0,025
-74,767	-200,000	0,010	0,071
-73,753	-117,894	-0,090	-0,011
-72,738	800,000	-0,059	-0,121
-71,724	143,288	-0,118	-0,112
-70,709	-27,575	0,018	0,007
-69,694	-200,000	-0,004	0,104
-68,680	-200,000	0,006	0,092
-67,665	800,000	0,032	0,071
-66,651	95,192	-0,030	0,024
-65,636	320,796	-0,063	-0,085
-64,622	491,344	-0,048	-0,079
-63,607	45,726	0,045	-0,029
-62,592	-200,000	0,011	-0,060
-61,578	-57,204	0,082	0,025
-60,563	-10,647	0,043	-0,020
-59,549	-200,000	-0,003	-0,034
-58,534	-92,477	-1,318	-0,260
-57,519	369,164	-1,603	-2,308
-56,505	-200,000	-0,516	-4,357
-55,490	92,725	0,850	0,680
-54,476	800,000	4,922	11,330
-53,461	-200,000	17,665	280,449
-52,446	800,000	720,096	2216,591
-51,432	559,091	1634,235	2807,866
-50,417	80,912	1658,104	1267,192
-49,403	23,846	1532,057	892,969
-48,388	17,872	1455,558	819,577
-47,373	18,319	1445,043	815,768
-46,359	17,915	1435,750	808,561
-45,344	16,140	1431,058	797,451
-44,330	16,113	1428,944	796,113
-43,315	16,088	1427,470	795,143
-42,300	16,132	1425,648	794,306
-41,286	16,159	1424,652	793,848
-40,271	16,095	1423,355	792,788
-39,257	16,092	1422,112	792,050
-38,242	16,146	1420,750	791,515
-37,227	16,129	1419,457	790,683
-36,213	16,121	1418,289	789,967
-35,198	16,091	1417,105	789,134
-34,184	16,137	1416,101	788,760
-33,169	16,086	1414,834	787,784
-32,154	16,123	1413,797	787,346
-31,140	16,146	1412,310	786,595
-30,125	16,191	1411,160	786,135
-29,111	16,089	1410,448	785,231
-28,096	16,114	1409,098	784,563
-27,082	16,084	1407,951	783,753
-26,067	16,074	1406,803	783,037
-25,052	16,113	1405,596	782,513
-24,038	16,012	1404,962	781,662
-23,023	16,025	1403,832	781,062
-22,009	16,039	1402,731	780,485
-20,994	15,971	1401,768	779,602
-19,979	15,965	1400,968	779,097
-18,965	15,984	1399,906	778,564
-17,950	15,980	1398,909	777,960
-16,936	16,043	1397,822	777,616
-15,921	15,977	1396,690	776,651
-14,906	15,982	1395,646	776,062
-13,892	15,971	1394,988	775,613
-12,877	15,969	1394,102	775,081
-11,863	15,979	1393,229	774,612
-10,848	15,987	1392,207	774,049
-9,833	15,937	1391,293	773,280
-8,819	15,879	1390,368	772,468
-7,804	15,887	1389,301	771,878
-6,790	15,898	1388,288	771,337
-5,775	15,880	1387,233	770,637
-4,760	15,848	1386,362	769,975
-3,746	15,832	1385,707	769,509
-2,731	15,853	1384,994	769,178
-1,717	15,852	1383,816	768,489
-0,702	15,833	1382,052	767,392
0,313	19,570	1302,945	740,717
1,327	36,032	706,634	439,861
2,342	55,376	125,223	85,714
3,356	4,121	16,627	8,593
4,371	7,911	3,084	1,633
5,386	-56,684	0,468	0,146
6,400	-200,000	-0,007	0,126
7,415	-58,139	-0,218	-0,067
8,429	-8,705	-0,281	-0,133
9,444	96,821	-0,250	-0,203
10,459	284,049	-0,204	-0,261
11,473	-40,022	-0,254	-0,093
12,488	19,932	-0,190	-0,108
13,502	27,262	-0,398	-0,236
14,517	71,917	-0,319	-0,234
15,531	83,973	-0,292	-0,226
16,546	398,683	-0,247	-0,368
17,561	113,818	-0,293	-0,252
18,575	-86,318	-0,277	-0,060
19,590	36,721	-0,219	-0,137
20,604	24,272	-0,308	-0,179
21,619	65,741	-0,445	-0,319
22,634	120,412	-0,416	-0,365
23,648	91,000	-0,457	-0,362
24,663	157,439	-0,398	-0,389
25,677	303,457	-0,209	-0,274
26,692	130,762	-0,326	-0,296
27,707	-37,360	-0,400	-0,150
28,721	437,182	-0,227	-0,351
29,736	93,173	-0,428	-0,342
30,750	78,939	-0,327	-0,247
31,765	107,808	-0,387	-0,325
32,780	81,255	-0,353	-0,269
33,794	-16,056	-0,543	-0,243
34,809	79,878	-0,400	-0,304
35,823	24,177	-0,352	-0,205
36,838	92,452	-0,446	-0,355
37,853	94,234	-0,458	-0,367
38,867	241,956	-0,354	-0,418
39,882	103,006	-0,354	-0,293
40,896	-34,128	-0,323	-0,125
41,911	-32,061	-0,241	-0,095
42,926	82,529	-0,286	-0,219
43,940	-13,426	-0,389	-0,177
44,955	-45,897	-0,485	-0,168
45,969	170,225	-0,289	-0,292
46,984	35,812	-0,376	-0,233
47,999	121,349	-0,237	-0,208
49,013	118,114	-0,354	-0,308
50,028	-97,547	-0,323	-0,059
51,042	232,674	-0,311	-0,361
52,057	41,906	-0,476	-0,304
53,071	49,157	-0,418	-0,276
54,086	10,395	-0,255	-0,136
55,101	115,864	-0,363	-0,313
56,115	129,373	-0,226	-0,204
57,130	70,305	-0,323	-0,235
58,144	-0,854	-0,413	-0,206
59,159	21,497	-0,414	-0,237
60,174	177,582	-0,365	-0,375
61,188	800,000	-0,184	-0,360
62,203	102,010	-0,188	-0,155
63,217	4,941	-0,332	-0,171
64,232	147,669	-0,323	-0,307
65,247	261,431	-0,281	-0,344
66,261	15,464	-0,262	-0,144
67,276	142,043	-0,368	-0,344
68,290	-41,112	-0,333	-0,121
69,305	-68,584	-0,273	-0,074
70,320	101,921	-0,244	-0,200
71,334	78,368	-0,292	-0,219
72,349	-23,451	-0,446	-0,188
73,363	22,157	-0,339	-0,195
74,378	96,360	-0,246	-0,198
75,393	82,580	-0,463	-0,354
76,407	69,290	-0,318	-0,230
77,422	16,672	-0,231	-0,128
78,436	-149,422	-0,240	-0,013
79,451	27,212	-0,360	-0,212
80,466	199,813	-0,229	-0,248
81,480	72,466	-0,432	-0,317
82,495	89,383	-0,263	-0,206
83,509	-65,326	-0,258	-0,073
84,524	-133,897	-0,241	-0,021
85,539	170,462	-0,194	-0,195
86,553	53,562	-0,279	-0,188
87,568	-20,351	-0,298	-0,128
88,582	184,057	-0,327	-0,341
89,597	131,529	-0,353	-0,319
90,611	-10,161	-0,237	-0,110
91,626	-119,640	-0,292	-0,035
92,641	-0,896	-0,269	-0,133
93,655	366,416	-0,088	-0,125
94,670	-73,890	-0,330	-0,084
95,684	-28,615	-0,264	-0,106
96,699	102,468	-0,339	-0,278
97,714	42,460	-0,291	-0,186
98,728	66,695	-0,251	-0,179
99,743	-35,418	-0,172	-0,066
100,757	329,730	-0,224	-0,304
101,772	-52,359	-0,319	-0,103
102,787	122,329	-0,320	-0,281
103,801	166,431	-0,286	-0,285
104,816	207,022	-0,233	-0,256
105,830	439,961	-0,230	-0,354
106,845	66,493	-0,261	-0,186
107,860	-85,398	-0,348	-0,076
108,874	340,989	-0,274	-0,376
109,889	25,646	-0,307	-0,179
110,903	100,775	-0,336	-0,274
111,918	575,595	-0,153	-0,263
112,933	-63,488	-0,269	-0,077
113,947	-26,401	-0,201	-0,082
114,962	-105,119	-0,159	-0,025
115,976	74,132	-0,402	-0,295
116,991	84,918	-0,259	-0,199
118,006	166,254	-0,259	-0,257
119,020	144,786	-0,157	-0,148
120,035	-90,722	-0,205	-0,041
121,049	-22,779	-0,225	-0,095
122,064	-26,373	-0,134	-0,055
123,079	77,631	-0,241	-0,180
124,093	800,000	-0,102	-0,259
125,108	260,862	-0,216	-0,263
126,122	264,204	-0,205	-0,251
127,137	-5,877	-0,266	-0,127
128,151	216,529	-0,255	-0,284
129,166	44,138	-0,234	-0,150
130,181	-39,207	-0,312	-0,114
131,195	262,447	-0,133	-0,162
132,210	311,602	-0,177	-0,234
133,224	431,156	-0,141	-0,215
134,239	433,184	-0,235	-0,358
135,254	-52,542	-0,307	-0,099
136,268	380,343	-0,139	-0,200
137,283	106,179	-0,187	-0,155
138,297	252,673	-0,193	-0,230
139,312	800,000	-0,138	-0,346
140,327	117,726	-0,238	-0,205
141,341	33,207	-0,282	-0,171
142,356	-200,000	-0,064	-0,201
143,370	53,835	-0,284	-0,191
144,385	265,588	-0,231	-0,283
145,400	208,217	-0,222	-0,243
146,414	135,605	-0,240	-0,218
147,429	242,607	-0,264	-0,310
148,443	193,926	-0,205	-0,217
149,458	-48,153	-0,165	-0,056
150,473	64,266	-0,275	-0,194
151,487	283,011	-0,171	-0,215
152,502	77,084	-0,295	-0,219
153,516	-9,675	-0,198	-0,092
154,531	-9,508	-0,275	-0,128
155,546	197,825	-0,248	-0,266
156,560	-63,526	-0,228	-0,065
157,575	111,799	-0,135	-0,114
158,589	174,743	-0,139	-0,141
159,604	165,464	-0,191	-0,188
160,619	-22,603	-0,262	-0,110
161,633	157,425	-0,275	-0,266
162,648	322,973	-0,199	-0,266
163,662	37,342	-0,271	-0,168
164,677	1,772	-0,255	-0,128
165,692	142,218	-0,161	-0,149
166,706	-15,231	-0,212	-0,094
167,721	115,131	-0,265	-0,226
168,735	225,887	-0,079	-0,089
169,750	91,230	-0,176	-0,138
170,764	44,093	-0,224	-0,143
171,779	-14,966	-0,220	-0,098
172,794	135,049	-0,139	-0,126
173,808	17,251	-0,254	-0,140
174,823	362,960	-0,232	-0,327
175,837	95,376	-0,375	-0,298
176,852	122,911	-0,300	-0,262
177,867	91,214	-0,199	-0,156
178,881	78,947	-0,221	-0,165
179,896	41,019	-0,235	-0,148
180,910	128,594	-0,212	-0,188
181,925	57,037	-0,218	-0,148
182,940	-103,599	-0,276	-0,045
183,954	101,544	-0,257	-0,209
184,969	-11,566	-0,152	-0,069
185,983	-200,000	-0,053	-0,191
186,998	61,908	-0,250	-0,173
188,013	-93,161	-0,175	-0,034
189,027	340,277	-0,192	-0,261
190,042	-72,272	-0,354	-0,091
191,056	593,228	-0,151	-0,262
192,071	42,440	-0,267	-0,169
193,086	5,283	-0,122	-0,062
194,100	280,789	-0,185	-0,231
195,115	-54,719	-0,205	-0,064
196,129	-101,419	-0,172	-0,029
197,144	239,476	-0,251	-0,292
198,159	481,049	-0,144	-0,229
199,173	774,283	-0,125	-0,239
200,188	-200,000	-0,016	-0,078
201,202	180,694	-0,147	-0,150
202,217	78,633	-0,218	-0,162
203,232	-27,083	-0,188	-0,076
204,246	35,595	-0,188	-0,115
205,261	94,645	-0,187	-0,148
206,275	59,180	-0,179	-0,123
207,290	-20,619	-0,143	0,061
208,304	-0,699	-0,225	-0,111
209,319	327,716	-0,180	-0,240
210,334	1,074	-0,337	-0,167
211,348	85,589	-0,164	-0,125
212,363	60,916	-0,171	-0,118
213,377	49,937	-0,264	-0,173
214,392	-50,093	-0,298	-0,098
215,407	-200,000	-0,074	-0,232
216,421	24,569	-0,121	-0,069
217,436	123,306	-0,254	-0,221
218,450	-18,386	-0,330	-0,143
219,465	382,316	-0,166	-0,238
220,480	-5,609	-0,071	-0,034
221,494	546,825	-0,161	-0,269
222,509	47,855	-0,138	-0,089
223,523	800,000	-0,138	-0,277
224,538	288,906	-0,186	-0,235
225,553	287,389	-0,237	-0,299
226,567	131,473	-0,276	-0,246
227,582	65,529	-0,292	-0,205
228,596	763,906	-0,122	-0,231
229,611	234,260	-0,097	-0,111
230,626	-66,788	-0,241	-0,066
231,640	54,862	-0,254	-0,170
232,655	33,684	-0,215	-0,129
233,669	196,908	-0,157	-0,167
234,684	417,958	-0,135	-0,201
235,699	-67,608	-0,047	-0,013
236,713	-151,770	-0,247	0,012
237,728	53,685	-0,085	-0,057
238,742	136,812	-0,192	-0,174
239,757	-103,669	-0,140	-0,023
240,772	-117,360	-0,189	-0,023
241,786	36,269	-0,233	-0,142
242,801	505,549	-0,188	-0,303
243,815	-164,060	-0,100	0,003
244,830	93,598	-0,265	-0,208
245,844	17,223	-0,170	-0,093
246,859	493,957	-0,129	-0,206
247,874	383,157	-0,145	-0,208
248,888	4,253	-0,252	-0,127
249,903	-147,266	-0,217	-0,013
250,917	-87,274	-0,159	-0,033
251,932	800,000	-0,074	-0,149
252,947	93,020	-0,120	-0,094
253,961	-91,658	-0,217	-0,042
254,976	-11,804	-0,153	-0,069
255,990	104,621	-0,230	-0,188
257,005	575,160	-0,136	-0,231
258,020	-81,505	-0,214	-0,048
259,034	-185,175	-0,220	-0,002
260,049	-38,215	-0,132	-0,048
261,063	22,980	-0,083	-0,047
262,078	279,413	-0,225	-0,278
263,093	313,899	-0,204	-0,266
264,107	108,449	-0,177	-0,147
265,122	193,941	-0,105	-0,111
266,136	-8,533	-0,167	-0,078
267,151	525,873	-0,092	-0,150
268,166	800,000	-0,063	-0,181
269,180	628,591	-0,156	-0,274
270,195	800,000	-0,070	-0,168
271,209	-200,000	-0,135	0,000
272,224	-93,671	-0,213	-0,040
273,239	-84,220	-0,084	0,018
274,253	-100,129	-0,168	0,029
275,268	-73,335	-0,203	0,051
276,282	800,000	-0,101	-0,270
277,297	-57,142	-0,362	-0,110
278,312	168,805	-0,110	-0,109
279,326	236,348	-0,142	-0,163
280,341	-200,000	0,027	-0,200
281,355	-48,907	-0,075	-0,025
282,370	373,492	-0,127	-0,179
283,384	184,934	-0,133	-0,136
284,399	36,730	-0,299	-0,182
285,414	128,471	-0,215	-0,189
286,428	-39,124	-0,218	-0,079
287,443	166,167	-0,050	-0,049
288,457	80,275	-0,093	0,069
289,472	-170,787	-0,183	-0,004
290,487	-39,878	-0,207	-0,074
291,501	0,292	-0,230	-0,113
292,516	538,663	-0,144	-0,238
293,530	306,562	-0,140	-0,180
294,545	30,749	-0,142	-0,084
295,560	13,954	-0,266	-0,142
296,574	238,220	-0,075	-0,087
297,589	-70,149	-0,156	-0,041
298,603	58,012	-0,152	-0,102
299,618	251,236	-0,161	-0,190
300,633	-200,000	-0,016	-0,075
301,647	117,832	-0,189	-0,160
302,662	800,000	-0,049	-0,112
303,676	800,000	-0,071	-0,155
304,691	168,238	-0,150	-0,148
305,706	143,035	-0,134	-0,123
306,720	105,643	-0,052	-0,042
307,735	800,000	-0,079	-0,225
308,749	-26,538	-0,251	-0,101
309,764	32,021	-0,130	0,077
310,779	-102,865	-0,237	-0,038
311,793	-200,000	-0,010	-0,279
312,808	111,877	-0,236	-0,196
313,822	800,000	-0,079	-0,221
314,837	12,857	-0,064	-0,034
315,852	-134,414	-0,099	-0,008
316,866	-85,358	-0,067	-0,014
317,881	-11,821	-0,166	-0,075
318,895	219,423	-0,140	-0,154
319,910	-126,142	-0,244	0,025
320,925	-29,753	-0,191	-0,075
321,939	800,000	-0,083	-0,178
322,954	155,485	-0,099	-0,094
323,968	0,644	-0,149	0,073
324,983	-76,545	-0,192	-0,046
325,997	37,504	-0,117	-0,071
327,012	154,989	-0,131	-0,124
328,027	24,578	-0,083	-0,047
329,041	-61,560	-0,161	-0,046
330,056	337,324	-0,112	-0,150
331,070	-91,182	-0,178	-0,035
332,085	103,760	-0,153	-0,124
333,100	660,347	-0,051	-0,092
334,114	130,407	-0,113	-0,100
335,129	58,669	-0,072	-0,048
336,143	-106,520	-0,203	-0,031
337,158	139,278	-0,155	-0,140
338,173	52,395	-0,030	-0,020
339,187	800,000	-0,088	-0,185
340,202	104,295	-0,188	-0,152
341,216	800,000	-0,067	-0,164
342,231	301,640	-0,104	-0,133
343,246	478,878	-0,234	-0,366
344,260	16,914	-0,175	-0,095
345,275	-112,226	-0,186	-0,025
346,289	127,257	-0,112	-0,098
347,304	183,407	-0,089	-0,091
348,319	-72,895	-0,133	-0,033
349,333	26,938	-0,232	-0,133
350,348	508,375	-0,140	-0,224
351,362	800,000	-0,083	-0,176
352,377	575,276	-0,011	-0,019
353,392	324,351	-0,060	-0,079
354,406	-8,795	-0,131	0,060
355,421	209,577	1313,990	1416,680
356,435	161,303	1474,676	1417,215
