DTS Sentinel unit serial number:	SN410029Multiplexer serial number:	ORYXHardware model number:	OX2-SRSoftware version number:	ORYX F/W v4,00 Oryx Data Collector v3.7.2.0data status	okinstallation	B3 Nyhavnadifferential loss correction	single-endedforward channel	channel 1reverse channel	N/Adate	2023/11/30time	11:07:30forward acquisition time	300,00reverse acquisition time	0,00gamma	499,1914k internal	0,3211k external	0,3211temperature offset calibration	1,0000default loss term (dB/km)	0,3820temperature slope calibration	1,0000multiplexer offset coefficient	1,0000multiplexer slope coefficient	1,0000fibre end	0,00T internal ref (°C)	9,51T ext. ref 1 (°C)	-5,66T ext. ref 2 (°C)	-5,76length (m)	temperature (°C)	Stokes	anti-Stokes-744,400	800,000	-0,131	-0,313
-743,385	-200,000	-0,021	0,237
-742,371	731,940	-0,120	-0,234
-741,356	-200,000	-0,067	0,335
-740,342	-200,000	0,008	-0,312
-739,327	-200,000	0,028	0,178
-738,312	287,466	-0,229	-0,301
-737,298	800,000	0,042	0,111
-736,283	487,927	-0,194	-0,321
-735,269	-200,000	-0,001	0,284
-734,254	-14,579	-0,351	-0,163
-733,239	181,745	-0,167	0,179
-732,225	800,000	-0,117	-0,257
-731,210	-113,895	0,113	0,016
-730,196	-75,165	-0,170	-0,044
-729,181	146,755	0,033	0,032
-728,167	-48,355	-0,051	-0,018
-727,152	795,638	0,021	-0,041
-726,137	-200,000	0,000	0,057
-725,123	-2,368	-0,113	-0,057
-724,108	285,429	0,046	0,061
-723,094	-10,168	-0,161	-0,077
-722,079	70,563	-0,114	-0,085
-721,064	-200,000	0,011	0,037
-720,050	-200,000	-0,018	0,092
-719,035	131,834	-0,027	-0,026
-718,021	172,139	-0,086	-0,089
-717,006	-127,729	0,078	0,008
-715,991	383,535	0,045	-0,068
-714,977	170,958	0,043	-0,045
-713,962	543,122	-0,043	-0,075
-712,948	189,063	-0,025	-0,027
-711,933	-54,310	0,058	-0,019
-710,918	-200,000	-0,031	0,109
-709,904	-97,771	0,124	0,023
-708,889	-90,153	-0,075	-0,016
-707,875	-161,071	-0,052	0,002
-706,860	30,298	0,077	0,048
-705,845	-42,726	0,172	0,063
-704,831	120,471	-0,032	0,029
-703,816	-200,000	-0,011	-0,144
-702,802	-126,741	-0,147	-0,016
-701,787	-17,676	0,055	0,025
-700,772	-139,240	0,139	-0,011
-699,758	2,584	-0,042	-0,022
-698,743	-200,000	0,006	-0,037
-697,729	-63,477	0,091	0,027
-696,714	323,055	-0,027	0,038
-695,699	249,876	-0,016	-0,020
-694,685	-63,955	-0,068	-0,020
-693,670	-200,000	0,004	-0,128
-692,656	-111,371	0,018	0,003
-691,641	63,238	0,096	-0,069
-690,627	-200,000	0,005	0,096
-689,612	-200,000	-0,039	-0,155
-688,597	473,023	0,011	-0,018
-687,583	-128,162	-0,050	0,005
-686,568	116,684	0,149	-0,133
-685,554	-1,581	-0,070	-0,036
-684,539	-200,000	0,000	0,114
-683,524	102,401	-0,053	-0,044
-682,510	76,506	-0,085	-0,065
-681,495	-200,000	0,026	-0,223
-680,481	469,846	-0,113	-0,185
-679,466	-200,000	-0,003	-0,035
-678,451	800,000	-0,077	-0,166
-677,437	94,092	-0,034	-0,028
-676,422	356,303	0,022	-0,031
-675,408	422,563	0,020	-0,031
-674,393	-124,605	-0,120	0,013
-673,378	-200,000	0,036	-0,145
-672,364	800,000	0,024	-0,055
-671,349	-200,000	0,002	-0,025
-670,335	-200,000	-0,015	0,124
-669,320	588,551	-0,008	-0,014
-668,305	310,837	0,050	0,068
-667,291	580,569	-0,033	0,058
-666,276	-200,000	-0,000	0,035
-665,262	-27,911	0,082	-0,034
-664,247	119,881	0,067	0,060
-663,232	-200,000	-0,010	-0,050
-662,218	472,401	0,050	0,082
-661,203	-13,239	-0,055	0,026
-660,189	-118,611	-0,040	0,005
-659,174	-17,934	0,036	0,016
-658,159	-175,491	-0,018	-0,000
-657,145	-165,012	-0,147	-0,005
-656,130	-200,000	0,002	0,015
-655,116	65,572	0,073	0,053
-654,101	410,996	0,084	-0,129
-653,086	305,679	-0,015	0,020
-652,072	120,195	-0,058	-0,052
-651,057	49,404	-0,115	-0,078
-650,043	800,000	-0,009	0,023
-649,028	-200,000	0,023	-0,088
-648,014	-200,000	0,063	0,000
-646,999	-200,000	0,016	0,066
-645,984	-200,000	-0,024	0,087
-644,970	258,103	0,029	0,036
-643,955	-3,273	-0,073	0,036
-642,941	-200,000	-0,022	-0,118
-641,926	512,886	0,046	0,077
-640,911	588,925	0,059	0,105
-639,897	124,875	0,046	-0,042
-638,882	494,620	-0,025	0,041
-637,868	53,625	-0,030	-0,021
-636,853	-164,302	-0,093	-0,003
-635,838	800,000	-0,030	0,070
-634,824	337,646	-0,038	0,053
-633,809	800,000	0,044	0,111
-632,795	-129,986	0,086	-0,008
-631,780	-200,000	-0,003	0,011
-630,765	-91,404	-0,062	0,013
-629,751	206,502	-0,051	-0,058
-628,736	-200,000	-0,046	-0,170
-627,722	-200,000	-0,016	0,109
-626,707	558,006	-0,006	0,010
-625,692	596,025	-0,062	-0,111
-624,678	-75,954	0,065	-0,016
-623,663	800,000	-0,043	-0,099
-622,649	-152,175	-0,053	0,003
-621,634	-122,405	-0,066	-0,008
-620,619	-111,813	-0,028	0,004
-619,605	-200,000	-0,027	0,121
-618,590	-47,075	0,065	0,023
-617,576	-67,622	-0,027	0,008
-616,561	800,000	0,042	-0,088
-615,546	-59,682	0,059	0,018
-614,532	-105,818	-0,145	-0,023
-613,517	150,033	0,090	-0,088
-612,503	-200,000	-0,037	-0,137
-611,488	553,704	-0,087	0,151
-610,474	464,498	0,052	0,084
-609,459	0,112	0,060	-0,031
-608,444	302,878	-0,152	-0,204
-607,430	176,584	-0,070	-0,073
-606,415	44,797	0,053	0,035
-605,401	-200,000	0,011	0,059
-604,386	800,000	0,066	0,207
-603,371	-171,180	0,083	-0,002
-602,357	631,942	-0,057	0,105
-601,342	-200,000	0,014	0,097
-600,328	-75,102	0,006	-0,002
-599,313	-63,845	0,114	0,033
-598,298	-76,992	-0,065	-0,016
-597,284	800,000	0,073	0,229
-596,269	-200,000	-0,033	0,129
-595,255	800,000	-0,028	-0,080
-594,240	-46,350	0,016	0,006
-593,225	-200,000	-0,153	0,000
-592,211	-200,000	-0,016	-0,217
-591,196	-200,000	0,006	-0,115
-590,182	59,049	0,058	0,041
-589,167	238,482	0,109	0,131
-588,152	-120,343	-0,060	0,007
-587,138	44,238	-0,066	-0,043
-586,123	-110,779	-0,072	-0,011
-585,109	21,603	-0,069	-0,040
-584,094	800,000	-0,048	0,136
-583,079	144,353	0,038	-0,037
-582,065	279,311	0,042	0,055
-581,050	-200,000	0,014	-0,098
-580,036	137,235	-0,044	-0,041
-579,021	22,182	0,042	-0,024
-578,006	800,000	-0,078	-0,208
-576,992	-33,577	-0,174	0,069
-575,977	259,633	0,022	0,028
-574,963	337,556	0,055	-0,077
-573,948	65,155	0,144	0,105
-572,934	-200,000	0,007	-0,066
-571,919	800,000	-0,046	-0,095
-570,904	67,961	-0,060	-0,044
-569,890	282,395	-0,012	-0,015
-568,875	-200,000	0,005	-0,087
-567,861	204,141	0,072	-0,081
-566,846	435,083	0,027	0,043
-565,831	168,038	-0,058	0,059
-564,817	800,000	-0,043	-0,109
-563,802	-58,303	-0,040	-0,012
-562,788	92,117	0,039	-0,032
-561,773	-200,000	0,014	-0,096
-560,758	106,051	-0,057	-0,049
-559,744	-200,000	0,021	0,131
-558,729	-200,000	-0,031	-0,140
-557,715	-200,000	-0,001	-0,031
-556,700	-66,714	-0,134	0,038
-555,685	-49,351	0,063	0,022
-554,671	-42,334	0,047	0,017
-553,656	-102,486	0,077	0,013
-552,642	-200,000	0,046	0,162
-551,627	-83,557	0,035	-0,008
-550,612	800,000	-0,040	-0,120
-549,598	800,000	0,005	0,012
-548,583	-19,422	-0,252	-0,112
-547,569	-148,178	0,090	0,005
-546,554	73,396	0,025	0,019
-545,539	-35,541	0,067	-0,026
-544,525	540,728	-0,040	-0,068
-543,510	800,000	0,005	0,011
-542,496	-180,768	-0,104	0,001
-541,481	-25,636	-0,057	0,024
-540,466	-67,744	0,026	-0,007
-539,452	-64,460	-0,053	-0,015
-538,437	-57,445	0,092	-0,029
-537,423	35,401	0,213	-0,134
-536,408	-200,000	0,006	0,071
-535,393	-200,000	-0,010	-0,046
-534,379	-200,000	0,002	-0,015
-533,364	62,081	0,142	0,102
-532,350	30,044	0,123	0,075
-531,335	447,657	0,086	0,136
-530,321	548,214	0,051	-0,089
-529,306	-174,892	-0,049	-0,001
-528,291	218,983	0,077	0,088
-527,277	123,430	0,077	-0,070
-526,262	-95,811	-0,053	-0,010
-525,248	240,593	0,057	0,068
-524,233	-28,269	0,078	-0,032
-523,218	-124,905	0,061	0,007
-522,204	-166,322	-0,056	-0,002
-521,189	21,683	-0,141	0,082
-520,175	-78,203	0,009	0,002
-519,160	800,000	0,022	0,061
-518,145	-200,000	0,044	-0,164
-517,131	346,950	0,075	0,106
-516,116	800,000	0,047	0,099
-515,102	27,508	-0,105	0,063
-514,087	-200,000	-0,011	0,178
-513,072	359,293	-0,049	-0,071
-512,058	45,031	-0,061	-0,040
-511,043	-200,000	-0,001	0,108
-510,029	-20,469	-0,048	-0,021
-509,014	-200,000	-0,004	0,110
-507,999	800,000	0,022	-0,046
-506,985	-200,000	0,008	-0,112
-505,970	8,764	-0,188	-0,102
-504,956	-200,000	0,034	-0,160
-503,941	-200,000	-0,010	0,142
-502,926	800,000	0,046	0,093
-501,912	-200,000	0,048	0,181
-500,897	-85,342	-0,142	0,032
-499,883	245,774	0,032	-0,039
-498,868	-92,579	0,070	-0,014
-497,853	145,889	-0,089	-0,086
-496,839	552,308	0,056	-0,096
-495,824	-123,929	0,050	-0,006
-494,810	180,661	-0,038	0,040
-493,795	512,579	0,095	-0,160
-492,781	800,000	-0,028	0,086
-491,766	-35,540	-0,053	0,021
-490,751	-116,564	0,108	-0,014
-489,737	149,440	0,043	0,042
-488,722	77,933	0,125	0,096
-487,708	100,706	-0,087	0,072
-486,693	800,000	-0,027	0,083
-485,678	-200,000	0,001	0,092
-484,664	-90,952	0,081	0,017
-483,649	-149,737	-0,099	0,005
-482,635	800,000	-0,049	0,137
-481,620	134,455	-0,099	-0,092
-480,605	-200,000	-0,014	0,109
-479,591	-200,000	-0,027	0,101
-478,576	594,319	-0,023	-0,041
-477,562	-91,894	0,178	0,036
-476,547	-64,602	-0,190	-0,055
-475,532	149,455	-0,086	-0,084
-474,518	-31,256	-0,097	-0,039
-473,503	27,495	0,167	0,101
-472,489	800,000	-0,060	0,158
-471,474	282,985	-0,113	0,146
-470,459	39,582	0,047	-0,030
-469,445	-72,708	0,107	0,028
-468,430	-22,886	-0,098	-0,042
-467,416	800,000	0,017	-0,048
-466,401	681,538	-0,098	0,185
-465,386	124,136	0,062	0,056
-464,372	45,322	-0,027	0,018
-463,357	800,000	-0,003	0,009
-462,343	-86,566	-0,040	-0,009
-461,328	-200,000	0,035	-0,139
-460,313	109,282	0,085	0,073
-459,299	-69,816	-0,026	-0,007
-458,284	-114,565	-0,034	0,005
-457,270	262,672	0,099	0,123
-456,255	261,833	-0,081	0,101
-455,241	368,229	0,027	-0,039
-454,226	-137,863	-0,143	0,011
-453,211	-200,000	0,014	0,062
-452,197	11,621	-0,123	-0,068
-451,182	-200,000	0,003	0,082
-450,168	-19,063	0,140	0,062
-449,153	-109,752	-0,130	0,019
-448,138	-200,000	0,003	0,040
-447,124	-200,000	0,021	-0,137
-446,109	800,000	0,026	0,074
-445,095	-200,000	-0,005	-0,129
-444,080	-94,256	0,032	0,006
-443,065	-29,602	0,045	0,018
-442,051	-41,012	-0,098	-0,036
-441,036	-200,000	-0,011	0,127
-440,022	-29,567	-0,053	0,021
-439,007	-105,056	0,080	0,013
-437,992	-200,000	0,003	0,014
-436,978	-200,000	0,019	0,081
-435,963	-109,311	-0,103	0,016
-434,949	420,902	-0,020	-0,031
-433,934	170,748	0,041	0,042
-432,919	234,768	-0,017	0,020
-431,905	425,435	0,065	-0,100
-430,890	-42,650	-0,125	-0,045
-429,876	800,000	-0,026	0,072
-428,861	-200,000	-0,041	0,241
-427,846	-47,075	0,047	0,016
-426,832	-200,000	-0,008	0,044
-425,817	-200,000	-0,015	0,137
-424,803	-200,000	-0,007	0,067
-423,788	140,772	-0,025	-0,024
-422,773	-155,037	-0,050	-0,002
-421,759	147,368	0,081	0,078
-420,744	800,000	0,019	0,059
-419,730	536,212	-0,040	-0,067
-418,715	-200,000	-0,018	-0,217
-417,701	-200,000	-0,001	0,013
-416,686	-200,000	-0,042	0,183
-415,671	-34,538	0,190	0,074
-414,657	-200,000	0,000	-0,033
-413,642	-86,800	0,078	-0,017
-412,628	527,264	-0,033	-0,056
-411,613	631,272	-0,053	-0,096
-410,598	-69,777	-0,147	-0,040
-409,584	-159,847	0,104	0,004
-408,569	-200,000	-0,036	-0,124
-407,555	506,295	0,055	0,091
-406,540	83,701	-0,025	-0,020
-405,525	800,000	-0,040	-0,091
-404,511	-200,000	-0,012	-0,200
-403,496	-200,000	0,025	-0,177
-402,482	43,313	-0,064	0,042
-401,467	42,897	0,078	0,051
-400,452	154,112	-0,130	0,127
-399,438	-200,000	-0,004	0,088
-398,423	-200,000	0,014	-0,067
-397,409	-42,521	-0,050	0,018
-396,394	435,669	0,069	-0,108
-395,379	-200,000	-0,008	0,117
-394,365	-127,943	-0,081	0,008
-393,350	321,916	0,073	-0,099
-392,336	222,160	0,080	0,092
-391,321	367,639	-0,086	-0,124
-390,306	-200,000	-0,002	-0,074
-389,292	-179,633	0,043	-0,001
-388,277	800,000	0,013	-0,037
-387,263	336,898	-0,047	-0,065
-386,248	114,428	0,071	0,062
-385,233	8,720	0,093	-0,050
-384,219	-127,395	0,050	0,005
-383,204	800,000	-0,029	-0,083
-382,190	-200,000	0,033	-0,113
-381,175	-200,000	-0,006	-0,031
-380,160	-200,000	-0,000	0,074
-379,146	-200,000	0,009	0,095
-378,131	-115,287	-0,037	0,005
-377,117	71,261	0,075	-0,056
-376,102	29,805	-0,097	-0,059
-375,088	-200,000	0,009	-0,089
-374,073	244,081	-0,043	-0,051
-373,058	132,722	0,083	0,076
-372,044	1,580	0,127	-0,065
-371,029	400,997	-0,070	0,106
-370,015	212,426	0,056	0,063
-369,000	192,871	-0,045	0,049
-367,985	-200,000	0,016	-0,094
-366,971	423,990	-0,048	-0,074
-365,956	-200,000	0,032	-0,145
-364,942	60,377	0,091	0,064
-363,927	-200,000	-0,012	0,107
-362,912	54,528	0,140	0,096
-361,898	51,189	0,009	-0,006
-360,883	-173,907	-0,157	0,003
-359,869	-200,000	-0,013	-0,095
-358,854	-60,519	0,016	0,005
-357,839	67,586	0,110	0,080
-356,825	-200,000	-0,023	0,075
-355,810	-23,600	0,062	-0,026
-354,796	-112,547	-0,027	-0,004
-353,781	-200,000	-0,014	0,135
-352,766	545,397	0,028	-0,047
-351,752	-104,672	0,048	-0,008
-350,737	-177,198	-0,087	-0,002
-349,723	186,722	0,102	0,109
-348,708	543,931	-0,060	0,103
-347,693	161,414	-0,022	-0,022
-346,679	159,961	-0,057	-0,056
-345,664	65,941	0,101	0,073
-344,650	-168,640	-0,049	0,001
-343,635	751,790	-0,026	-0,051
-342,620	-93,755	0,076	0,015
-341,606	800,000	-0,021	0,062
-340,591	640,664	-0,017	-0,031
-339,577	-200,000	-0,012	0,040
-338,562	-13,009	-0,088	-0,041
-337,548	53,465	0,067	0,046
-336,533	-81,153	-0,132	-0,031
-335,518	262,928	-0,058	0,072
-334,504	176,203	0,062	0,064
-333,489	176,401	0,048	-0,049
-332,475	-200,000	-0,003	-0,071
-331,460	-200,000	-0,011	-0,043
-330,445	-200,000	0,001	0,042
-329,431	-200,000	0,006	-0,125
-328,416	-200,000	-0,010	0,047
-327,402	-108,020	0,090	0,014
-326,387	365,253	-0,057	0,082
-325,372	91,121	-0,160	-0,128
-324,358	-86,376	0,065	-0,014
-323,343	289,201	-0,067	-0,086
-322,329	-200,000	0,020	-0,064
-321,314	32,675	-0,177	0,109
-320,299	-200,000	0,042	0,140
-319,285	-200,000	-0,020	0,064
-318,270	-29,515	0,108	0,044
-317,256	397,435	-0,116	-0,174
-316,241	-124,750	-0,074	-0,008
-315,226	164,846	0,078	0,079
-314,212	52,391	0,090	-0,061
-313,197	23,674	0,096	0,056
-312,183	-83,016	-0,161	-0,037
-311,168	-77,992	-0,019	0,005
-310,153	30,845	-0,019	0,011
-309,139	72,857	-0,056	0,042
-308,124	351,918	0,048	-0,067
-307,110	-200,000	0,001	0,011
-306,095	800,000	0,033	0,085
-305,080	133,212	-0,054	0,050
-304,066	-106,621	-0,045	0,007
-303,051	-98,856	-0,113	-0,020
-302,037	-35,854	-0,030	0,012
-301,022	285,524	0,089	-0,114
-300,008	-10,564	-0,026	-0,012
-298,993	173,787	0,053	-0,055
-297,978	-200,000	0,045	-0,226
-296,964	-142,995	0,093	-0,006
-295,949	737,205	-0,022	-0,043
-294,935	-142,016	0,101	-0,007
-293,920	800,000	-0,042	-0,115
-292,905	-200,000	0,004	-0,026
-291,891	-40,505	0,044	-0,016
-290,876	-200,000	-0,011	0,163
-289,862	18,945	-0,042	-0,024
-288,847	243,529	0,016	-0,019
-287,832	-200,000	-0,040	-0,146
-286,818	-200,000	0,035	-0,119
-285,803	-192,555	0,017	0,000
-284,789	-200,000	0,028	-0,103
-283,774	-30,815	0,185	-0,074
-282,759	157,910	-0,066	0,066
-281,745	91,801	0,046	-0,037
-280,730	305,055	-0,050	0,066
-279,716	800,000	-0,033	-0,094
-278,701	140,392	-0,064	0,060
-277,686	183,256	-0,038	0,040
-276,672	-200,000	0,011	-0,061
-275,657	96,639	0,116	-0,095
-274,643	800,000	-0,005	-0,015
-273,628	-200,000	0,001	-0,020
-272,613	-200,000	-0,003	-0,098
-271,599	-200,000	-0,002	-0,225
-270,584	431,357	0,090	-0,139
-269,570	800,000	-0,042	0,086
-268,555	-68,622	0,051	-0,014
-267,540	7,148	-0,031	0,016
-266,526	131,139	-0,122	-0,112
-265,511	-200,000	0,007	-0,029
-264,497	-200,000	0,028	0,104
-263,482	779,763	-0,031	-0,060
-262,467	37,032	0,116	0,073
-261,453	-95,948	0,065	-0,012
-260,438	68,659	-0,029	-0,021
-259,424	800,000	0,006	-0,012
-258,409	552,805	-0,026	0,045
-257,395	-43,652	0,154	0,055
-256,380	-83,231	0,077	-0,018
-255,365	-20,974	0,135	0,059
-254,351	585,561	0,070	-0,123
-253,336	-189,893	-0,014	-0,000
-252,322	-200,000	-0,012	-0,134
-251,307	-36,993	0,061	0,023
-250,292	41,941	0,052	0,034
-249,278	331,736	0,040	0,056
-248,263	294,026	0,037	0,048
-247,249	-8,007	-0,152	-0,072
-246,234	236,037	-0,078	-0,092
-245,219	310,280	-0,054	-0,072
-244,205	-200,000	-0,006	-0,040
-243,190	-200,000	0,001	-0,051
-242,176	44,086	0,086	0,056
-241,161	-36,109	0,093	0,036
-240,146	-42,154	0,032	-0,012
-239,132	574,334	-0,047	-0,081
-238,117	800,000	0,069	0,147
-237,103	-200,000	-0,026	-0,171
-236,088	265,036	0,016	0,020
-235,073	503,939	0,007	0,012
-234,059	-200,000	0,008	0,222
-233,044	-68,420	0,086	-0,024
-232,030	-200,000	0,018	0,091
-231,015	88,795	-0,055	-0,044
-230,000	235,829	-0,079	-0,093
-228,986	800,000	-0,011	-0,029
-227,971	-70,866	0,126	0,033
-226,957	-200,000	0,015	0,177
-225,942	-200,000	-0,009	0,081
-224,927	-99,721	0,082	-0,014
-223,913	-200,000	0,005	-0,178
-222,898	117,254	-0,180	-0,157
-221,884	-69,716	0,127	-0,034
-220,869	768,951	-0,080	0,156
-219,855	800,000	0,068	0,151
-218,840	560,029	-0,066	0,113
-217,825	-13,973	-0,069	0,032
-216,811	-200,000	-0,031	0,127
-215,796	-100,854	-0,071	-0,012
-214,782	426,919	-0,090	-0,139
-213,767	677,357	-0,061	-0,114
-212,752	216,846	-0,068	-0,077
-211,738	41,382	0,023	-0,015
-210,723	-200,000	-0,024	-0,099
-209,709	14,734	-0,028	-0,016
-208,694	-157,544	0,109	0,005
-207,679	23,205	0,044	-0,026
-206,665	44,166	0,072	-0,047
-205,650	-200,000	-0,010	-0,085
-204,636	241,450	-0,081	-0,096
-203,621	800,000	0,020	-0,040
-202,606	-200,000	-0,013	-0,128
-201,592	257,916	-0,058	-0,071
-200,577	-144,759	0,040	-0,003
-199,563	181,371	0,054	-0,057
-198,548	-200,000	0,005	0,108
-197,533	800,000	0,022	0,055
-196,519	34,147	0,110	0,068
-195,504	-57,309	-0,103	-0,032
-194,490	800,000	-0,055	-0,119
-193,475	-200,000	-0,011	-0,086
-192,460	150,391	0,152	-0,147
-191,446	-111,478	0,110	-0,016
-190,431	624,495	0,053	0,095
-189,417	-110,733	0,031	-0,005
-188,402	385,591	-0,032	-0,048
-187,387	292,401	0,042	0,055
-186,373	14,850	0,098	0,054
-185,358	800,000	-0,038	-0,079
-184,344	-200,000	0,015	0,129
-183,329	136,289	-0,062	0,057
-182,315	800,000	-0,037	-0,073
-181,300	-200,000	0,025	-0,142
-180,285	105,345	-0,092	-0,077
-179,271	-200,000	-0,005	0,168
-178,256	-77,040	0,139	-0,034
-177,242	182,886	0,060	-0,063
-176,227	708,063	0,011	-0,021
-175,212	12,955	0,152	0,083
-174,198	-149,030	-0,125	-0,007
-173,183	-200,000	-0,002	0,108
-172,169	58,162	0,073	0,050
-171,154	-143,756	-0,131	-0,009
-170,139	-98,809	-0,021	0,004
-169,125	528,510	-0,080	0,135
-168,110	500,882	0,082	0,134
-167,096	-155,265	-0,088	0,004
-166,081	641,192	-0,043	-0,077
-165,066	171,406	0,051	-0,052
-164,052	455,313	0,008	-0,012
-163,037	148,015	0,090	-0,086
-162,023	-90,287	-0,119	-0,024
-161,008	152,387	0,037	0,036
-159,993	172,135	-0,085	0,087
-158,979	170,715	0,088	0,089
-157,964	143,895	-0,089	-0,085
-156,950	-200,000	-0,019	0,095
-155,935	255,590	0,098	0,119
-154,920	-6,786	-0,084	-0,040
-153,906	-200,000	-0,025	0,098
-152,891	800,000	-0,033	0,097
-151,877	800,000	0,007	-0,022
-150,862	-101,902	0,075	-0,013
-149,847	-200,000	-0,000	-0,105
-148,833	263,407	-0,054	0,067
-147,818	46,933	-0,074	-0,048
-146,804	-31,646	0,121	0,048
-145,789	37,956	0,026	-0,016
-144,775	-75,209	0,200	0,050
-143,760	-158,250	-0,114	-0,005
-142,745	-18,911	0,142	-0,062
-141,731	800,000	0,027	-0,065
-140,716	56,824	0,028	0,019
-139,702	-97,412	0,076	0,014
-138,687	800,000	-0,015	0,037
-137,672	-200,000	-0,004	-0,108
-136,658	-78,854	-0,014	0,003
-135,643	107,340	0,067	-0,057
-134,629	-125,504	-0,190	0,020
-133,614	-200,000	0,014	-0,102
-132,599	-200,000	-0,003	-0,077
-131,585	-10,961	-0,073	0,034
-130,570	290,947	0,013	0,017
-129,556	800,000	-0,025	-0,052
-128,541	125,118	-0,037	0,033
-127,526	-200,000	0,013	-0,205
-126,512	193,474	0,003	0,003
-125,497	172,501	0,052	0,053
-124,483	3,361	-0,024	-0,012
-123,468	-84,953	0,102	0,022
-122,453	-200,000	-0,039	-0,198
-121,439	176,291	-0,066	-0,068
-120,424	-120,288	-0,015	0,002
-119,410	281,659	0,052	-0,067
-118,395	39,118	-0,060	-0,038
-117,380	527,131	-0,044	-0,074
-116,366	-115,478	0,117	0,015
-115,351	185,516	-0,064	0,067
-114,337	291,540	-0,029	0,037
-113,322	-118,589	0,121	-0,015
-112,307	214,721	0,059	-0,066
-111,293	-163,000	0,093	-0,003
-110,278	-200,000	0,024	-0,140
-109,264	-200,000	-0,000	0,015
-108,249	-166,447	-0,222	0,006
-107,234	-2,826	-0,237	-0,117
-106,220	-200,000	-0,011	-0,202
-105,205	280,329	-0,091	0,115
-104,191	-85,473	0,095	-0,021
-103,176	-200,000	0,022	-0,125
-102,162	-62,804	0,086	0,025
-101,147	691,769	-0,025	-0,047
-100,132	-200,000	-0,019	0,083
-99,118	199,222	-0,106	0,115
-98,103	336,347	-0,057	-0,078
-97,089	800,000	-0,029	-0,058
-96,074	800,000	-0,046	-0,102
-95,059	187,993	-0,095	-0,101
-94,045	800,000	0,009	-0,017
-93,030	307,481	-0,080	-0,106
-92,016	-200,000	0,005	-0,040
-91,001	51,159	-0,156	-0,104
-89,986	-127,970	0,092	0,009
-88,972	305,008	0,086	-0,113
-87,957	-92,131	0,030	0,006
-86,943	21,381	-0,131	0,075
-85,928	-75,868	-0,094	0,023
-84,913	43,271	-0,088	-0,056
-83,899	67,504	0,094	-0,068
-82,884	-18,063	-0,092	0,041
-81,870	618,630	0,027	0,047
-80,855	70,270	-0,056	0,040
-79,840	418,974	-0,021	0,032
-78,826	800,000	-0,038	-0,083
-77,811	607,397	-0,031	-0,055
-76,797	158,643	-0,049	0,048
-75,782	-45,265	0,152	0,053
-74,767	326,711	0,033	0,044
-73,753	-200,000	-0,030	0,164
-72,738	800,000	0,019	-0,052
-71,724	-33,340	-0,082	0,032
-70,709	96,498	-0,061	-0,049
-69,694	800,000	0,046	0,091
-68,680	-43,275	0,110	-0,039
-67,665	-17,828	0,096	-0,042
-66,651	-200,000	-0,007	0,025
-65,636	800,000	-0,045	0,134
-64,622	428,840	-0,099	0,152
-63,607	-200,000	-0,013	-0,060
-62,592	-90,743	-0,041	0,008
-61,578	320,614	-0,040	0,054
-60,563	-12,037	0,068	0,031
-59,549	-95,505	-0,137	0,026
-58,534	34,661	-2,000	-1,231
-57,519	525,933	-1,094	-1,826
-56,505	-200,000	-0,502	-4,349
-55,490	564,767	0,912	1,566
-54,476	800,000	5,123	11,089
-53,461	-200,000	21,871	344,435
-52,446	800,000	763,026	2341,826
-51,432	546,794	1661,987	2817,007
-50,417	71,511	1658,699	1214,229
-49,403	17,276	1532,252	855,823
-48,388	11,298	1456,150	784,429
-47,373	19,405	1447,751	818,738
-46,359	14,817	1436,783	790,713
-45,344	9,613	1432,541	763,591
-44,330	9,557	1430,620	762,269
-43,315	9,575	1428,772	761,342
-42,300	9,590	1426,742	760,300
-41,286	9,574	1425,877	759,735
-40,271	9,554	1424,625	758,941
-39,257	9,543	1423,475	758,248
-38,242	9,575	1422,376	757,781
-37,227	9,576	1421,409	757,245
-36,213	9,596	1419,868	756,487
-35,198	9,616	1418,569	755,860
-34,184	9,673	1417,742	755,657
-33,169	9,549	1416,409	754,333
-32,154	9,611	1415,317	754,012
-31,140	9,585	1414,071	753,197
-30,125	9,627	1412,959	752,774
-29,111	9,614	1411,855	752,092
-28,096	9,581	1410,716	751,299
-27,082	9,531	1409,424	750,348
-26,067	9,501	1408,379	749,621
-25,052	9,545	1407,551	749,357
-24,038	9,559	1406,258	748,707
-23,023	9,535	1405,494	748,158
-22,009	9,524	1404,565	747,580
-20,994	9,527	1403,456	746,974
-19,979	9,522	1402,542	746,434
-18,965	9,500	1401,451	745,723
-17,950	9,497	1400,545	745,195
-16,936	9,429	1399,906	744,510
-15,921	9,425	1399,045	744,004
-14,906	9,483	1397,837	743,604
-13,892	9,474	1396,904	743,033
-12,877	9,494	1396,141	742,694
-11,863	9,462	1395,447	742,144
-10,848	9,409	1394,583	741,412
-9,833	9,414	1393,496	740,827
-8,819	9,343	1392,788	740,092
-7,804	9,325	1391,823	739,468
-6,790	9,330	1390,864	738,952
-5,775	9,381	1389,652	738,512
-4,760	9,400	1388,586	738,004
-3,746	9,383	1387,681	737,415
-2,731	9,359	1387,000	736,914
-1,717	9,339	1385,990	736,255
-0,702	9,310	1384,402	735,249
0,313	13,349	1296,568	707,041
1,327	29,426	687,371	411,158
2,342	45,601	118,791	77,254
3,356	1,611	16,549	8,375
4,371	8,652	3,671	1,944
5,386	19,418	1,107	0,626
6,400	800,000	0,243	0,611
7,415	24,461	-0,233	-0,136
8,429	-16,994	-0,250	-0,111
9,444	1,765	-0,358	-0,181
10,459	87,203	-0,348	-0,271
11,473	8,610	-0,284	-0,150
12,488	10,444	-0,221	-0,118
13,502	508,677	-0,177	-0,290
14,517	118,856	-0,284	-0,248
15,531	19,790	-0,426	-0,241
16,546	148,183	-0,351	-0,333
17,561	161,557	-0,354	-0,350
18,575	22,488	-0,172	-0,099
19,590	85,285	-0,277	-0,214
20,604	42,476	-0,223	-0,143
21,619	26,495	-0,426	-0,250
22,634	155,128	-0,446	-0,432
23,648	107,342	-0,396	-0,331
24,663	74,778	-0,354	-0,262
25,677	-13,552	-0,399	-0,181
26,692	73,436	-0,342	-0,252
27,707	554,458	-0,169	-0,287
28,721	550,658	-0,200	-0,339
29,736	66,084	-0,427	-0,304
30,750	123,042	-0,326	-0,288
31,765	202,548	-0,264	-0,288
32,780	32,111	-0,337	-0,204
33,794	-36,024	-0,415	-0,157
34,809	190,360	-0,239	-0,253
35,823	102,203	-0,350	-0,288
36,838	154,942	-0,373	-0,360
37,853	509,855	-0,203	-0,333
38,867	15,643	-0,432	-0,238
39,882	103,112	-0,341	-0,281
40,896	35,327	-0,252	-0,155
41,911	52,230	-0,203	-0,136
42,926	182,291	-0,319	-0,331
43,940	37,308	-0,464	-0,288
44,955	373,429	-0,205	-0,294
45,969	1,368	-0,348	-0,175
46,984	50,664	-0,336	-0,223
47,999	-18,368	-0,358	-0,156
49,013	96,041	-0,179	-0,144
50,028	98,326	-0,259	-0,209
51,042	13,396	-0,419	-0,228
52,057	46,324	-0,427	-0,278
53,071	140,383	-0,355	-0,329
54,086	181,162	-0,267	-0,276
55,101	-0,494	-0,404	-0,201
56,115	151,110	-0,225	-0,215
57,130	91,797	-0,321	-0,253
58,144	239,557	-0,265	-0,310
59,159	227,223	-0,299	-0,342
60,174	175,727	-0,384	-0,392
61,188	-46,629	-0,448	-0,153
62,203	-17,663	-0,371	-0,163
63,217	800,000	-0,210	-0,461
64,232	286,777	-0,310	-0,393
65,247	211,799	-0,349	-0,386
66,261	17,445	-0,394	-0,219
67,276	194,697	-0,342	-0,364
68,290	48,533	-0,387	-0,254
69,305	456,825	-0,231	-0,362
70,320	-36,559	-0,414	-0,155
71,334	-64,086	-0,378	-0,107
72,349	119,064	-0,310	-0,269
73,363	175,667	-0,278	-0,283
74,378	107,782	-0,247	-0,206
75,393	-70,367	-0,327	-0,086
76,407	21,543	-0,298	-0,169
77,422	-62,703	-0,379	-0,109
78,436	17,311	-0,377	-0,209
79,451	-114,839	-0,343	0,045
80,466	-35,491	-0,374	-0,142
81,480	65,914	-0,294	-0,208
82,495	179,711	-0,181	-0,186
83,509	-45,529	-0,384	-0,132
84,524	-200,000	-0,342	0,001
85,539	-36,501	-0,315	-0,118
86,553	-92,609	-0,227	-0,044
87,568	158,903	-0,290	-0,282
88,582	11,754	-0,365	-0,196
89,597	69,449	-0,321	-0,231
90,611	-0,229	-0,152	-0,076
91,626	309,554	-0,185	-0,243
92,641	-115,886	-0,393	-0,051
93,655	-20,991	-0,291	-0,124
94,670	346,651	-0,114	-0,157
95,684	59,699	-0,276	-0,190
96,699	-108,749	-0,318	-0,047
97,714	-51,038	-0,319	-0,104
98,728	-8,051	-0,154	0,072
99,743	28,889	0,049	-0,029
100,757	-49,971	-0,307	-0,101
101,772	19,497	-0,333	-0,187
102,787	154,970	-0,274	-0,263
103,801	48,459	-0,288	-0,188
104,816	-8,249	-0,363	-0,170
105,830	200,283	-0,256	-0,275
106,845	-63,345	-0,185	-0,053
107,860	186,980	-0,175	-0,183
108,874	276,448	-0,250	-0,311
109,889	63,159	-0,279	-0,195
110,903	319,253	-0,226	-0,300
111,918	41,022	-0,266	-0,167
112,933	187,873	-0,144	-0,150
113,947	133,896	-0,268	-0,242
114,962	105,564	-0,217	-0,179
115,976	119,021	-0,282	-0,244
116,991	66,588	-0,369	-0,262
118,006	218,819	-0,262	-0,292
119,020	800,000	-0,112	-0,248
120,035	429,984	-0,170	-0,258
121,049	-57,246	-0,266	-0,081
122,064	-200,000	-0,038	-0,254
123,079	74,884	-0,177	-0,130
124,093	-119,988	-0,255	-0,030
125,108	62,938	-0,240	-0,167
126,122	226,955	-0,146	-0,166
127,137	-27,411	-0,117	0,047
128,151	40,678	-0,216	-0,135
129,166	160,593	-0,266	-0,259
130,181	77,149	-0,160	-0,119
131,195	238,789	-0,273	-0,317
132,210	253,118	-0,221	-0,264
133,224	328,672	-0,195	-0,262
134,239	-19,961	-0,267	-0,114
135,254	129,651	-0,234	-0,209
136,268	331,153	-0,184	-0,248
137,283	210,045	-0,226	-0,247
138,297	113,590	-0,314	-0,266
139,312	274,554	-0,272	-0,336
140,327	168,662	-0,262	-0,260
141,341	444,762	-0,167	-0,256
142,356	25,510	-0,283	-0,163
143,370	62,622	-0,208	-0,144
144,385	107,597	-0,210	-0,174
145,400	-101,859	-0,430	-0,072
146,414	344,560	-0,159	-0,218
147,429	23,730	-0,321	-0,184
148,443	125,418	-0,242	-0,213
149,458	-4,781	-0,306	-0,147
150,473	800,000	-0,078	-0,225
151,487	148,728	-0,224	-0,210
152,502	185,268	-0,265	-0,274
153,516	144,452	-0,182	-0,170
154,531	95,463	-0,199	-0,158
155,546	162,037	-0,173	-0,169
156,560	178,265	-0,135	-0,137
157,575	53,586	-0,150	-0,100
158,589	552,409	-0,119	-0,200
159,604	59,176	-0,180	-0,123
160,619	125,313	-0,342	-0,300
161,633	22,517	-0,379	-0,215
162,648	-20,820	-0,311	-0,132
163,662	35,804	-0,240	-0,146
164,677	218,597	-0,158	-0,176
165,692	-13,433	-0,254	-0,114
166,706	52,894	-0,192	-0,127
167,721	115,308	-0,306	-0,260
168,735	375,038	-0,216	-0,308
169,750	158,662	-0,203	-0,196
170,764	-27,255	-0,302	-0,122
171,779	-9,868	-0,167	-0,077
172,794	-5,147	-0,255	-0,121
173,808	117,428	-0,222	-0,190
174,823	43,668	-0,347	-0,220
175,837	6,135	-0,198	-0,102
176,852	212,622	-0,182	-0,200
177,867	-71,310	-0,216	-0,056
178,881	-97,896	-0,295	-0,052
179,896	-76,736	-0,197	-0,048
180,910	197,809	-0,253	-0,268
181,925	17,707	-0,282	-0,155
182,940	30,371	-0,230	-0,136
183,954	-85,792	-0,242	-0,052
184,969	528,088	-0,118	-0,193
185,983	-137,125	-0,205	-0,016
186,998	158,282	-0,121	-0,117
188,013	-8,280	-0,243	-0,113
189,027	-24,971	-0,220	-0,090
190,042	586,433	-0,213	-0,365
191,056	435,641	-0,170	-0,258
192,071	385,429	-0,169	-0,243
193,086	60,822	-0,244	-0,167
194,100	-200,000	-0,014	-0,121
195,115	19,852	-0,310	-0,173
196,129	-96,855	-0,161	-0,029
197,144	232,048	-0,203	-0,231
198,159	34,561	-0,233	-0,141
199,173	-24,512	-0,168	-0,069
200,188	219,487	-0,168	-0,186
201,202	253,987	-0,195	-0,232
202,217	308,365	-0,083	-0,108
203,232	29,324	-0,150	-0,088
204,246	-92,161	-0,253	-0,049
205,261	27,358	-0,297	-0,172
206,275	14,686	-0,277	-0,150
207,290	-35,815	-0,259	-0,097
208,304	51,521	-0,212	-0,139
209,319	-49,717	-0,309	-0,101
210,334	360,427	-0,117	-0,163
211,348	458,578	-0,232	-0,359
212,363	44,858	-0,190	-0,121
213,377	606,145	-0,104	-0,180
214,392	469,113	-0,111	-0,173
215,407	-167,420	-0,195	0,005
216,421	20,221	-0,180	-0,100
217,436	800,000	-0,103	-0,273
218,450	315,321	-0,218	-0,285
219,465	197,013	-0,225	-0,238
220,480	190,696	-0,188	-0,196
221,494	43,058	-0,210	-0,132
222,509	101,546	-0,159	-0,128
223,523	92,840	-0,204	-0,159
224,538	-21,942	-0,198	-0,083
225,553	-94,152	-0,187	-0,035
226,567	117,622	-0,135	-0,115
227,582	-73,769	-0,206	-0,051
228,596	147,581	-0,138	-0,129
229,611	200,372	-0,104	-0,111
230,626	-200,000	0,032	-0,115
231,640	-118,437	-0,231	0,028
232,655	316,839	-0,190	-0,248
233,669	800,000	-0,127	-0,361
234,684	107,142	-0,257	-0,211
235,699	-99,189	-0,204	0,035
236,713	134,557	-0,117	-0,105
237,728	8,388	-0,165	-0,086
238,742	32,018	-0,143	-0,085
239,757	276,698	-0,165	-0,203
240,772	122,328	-0,227	-0,195
241,786	583,553	-0,165	-0,282
242,801	-125,286	-0,257	-0,027
243,815	191,464	-0,143	-0,149
244,830	100,550	-0,184	-0,147
245,844	800,000	-0,100	-0,199
246,859	101,737	-0,141	-0,114
247,874	607,334	-0,162	-0,281
248,888	136,695	-0,260	-0,235
249,903	108,545	-0,146	-0,120
250,917	260,786	-0,159	-0,190
251,932	-16,227	-0,153	0,067
252,947	292,666	-0,083	-0,104
253,961	161,284	-0,155	-0,150
254,976	94,396	-0,097	-0,076
255,990	463,645	-0,121	-0,187
257,005	786,926	-0,140	-0,266
258,020	135,743	-0,182	-0,163
259,034	-19,963	-0,110	0,047
260,049	-140,342	-0,180	0,013
261,063	800,000	-0,061	-0,168
262,078	-79,955	-0,115	-0,026
263,093	181,751	-0,159	-0,161
264,107	103,545	-0,142	-0,115
265,122	-166,976	-0,161	-0,004
266,136	-173,993	-0,136	-0,003
267,151	74,889	-0,227	-0,164
268,166	120,302	-0,118	-0,101
269,180	229,222	-0,145	-0,164
270,195	-200,000	-0,063	-0,197
271,209	4,174	-0,138	-0,069
272,224	-87,078	-0,271	0,056
273,239	-173,777	-0,177	0,004
274,253	-94,303	-0,217	-0,040
275,268	61,548	-0,115	-0,079
276,282	190,504	-0,129	-0,133
277,297	-113,270	-0,146	-0,020
278,312	24,320	-0,094	-0,053
279,326	58,968	-0,159	-0,107
280,341	96,171	-0,187	-0,147
281,355	800,000	-0,098	-0,247
282,370	503,597	-0,044	-0,071
283,384	-154,126	-0,183	0,008
284,399	89,484	-0,146	-0,112
285,414	800,000	0,002	0,006
286,428	-75,422	-0,238	-0,058
287,443	-107,222	-0,138	-0,021
288,457	-102,835	-0,114	0,018
289,472	95,455	-0,037	0,029
290,487	17,312	-0,179	-0,097
291,501	151,491	-0,115	-0,108
292,516	71,972	-0,216	-0,154
293,530	-69,298	-0,215	0,056
294,545	-200,000	-0,027	-0,097
295,560	113,007	-0,045	-0,037
296,574	110,020	-0,200	-0,165
297,589	-111,383	-0,258	-0,036
298,603	93,049	-0,193	-0,150
299,618	134,729	-0,111	-0,099
300,633	624,882	-0,072	-0,126
301,647	800,000	-0,082	-0,246
302,662	800,000	-0,077	-0,155
303,676	81,415	-0,206	-0,153
304,691	222,679	-0,176	-0,195
305,706	-88,798	-0,117	-0,024
306,720	91,825	-0,178	-0,137
307,735	-64,061	-0,093	-0,026
308,749	-200,000	0,008	-0,036
309,764	295,692	-0,119	0,151
310,779	80,683	-0,125	-0,092
311,793	-150,108	-0,097	-0,005
312,808	-141,783	-0,051	-0,003
313,822	197,102	-0,130	-0,136
314,837	-82,181	-0,126	-0,028
315,852	473,029	-0,068	-0,105
316,866	279,686	0,023	-0,028
317,881	681,597	-0,096	-0,172
318,895	133,352	-0,156	-0,138
319,910	-50,469	-0,107	-0,035
320,925	57,194	-0,085	-0,057
321,939	-158,550	-0,220	-0,009
322,954	14,029	-0,148	-0,079
323,968	175,306	-0,124	-0,123
324,983	-155,963	-0,126	0,005
325,997	-49,967	-0,103	-0,033
327,012	800,000	-0,049	-0,112
328,027	543,698	-0,075	-0,124
329,041	-17,674	-0,207	-0,089
330,056	-200,000	-0,001	-0,086
331,070	-39,763	-0,144	-0,051
332,085	-99,405	-0,131	0,022
333,100	-90,006	-0,171	0,034
334,114	800,000	-0,039	-0,119
335,129	52,460	-0,202	-0,132
336,143	-97,052	-0,228	-0,040
337,158	-102,683	-0,160	-0,026
338,173	-91,249	-0,151	0,029
339,187	542,639	-0,070	-0,115
340,202	22,636	-0,165	-0,092
341,216	-6,518	-0,277	-0,129
342,231	151,533	-0,153	-0,142
343,246	800,000	-0,109	-0,278
344,260	-16,586	-0,171	-0,074
345,275	-200,000	-0,015	-0,077
346,289	-48,707	-0,115	-0,038
347,304	-118,480	-0,211	0,025
348,319	18,189	-0,121	-0,066
349,333	96,980	-0,185	-0,145
350,348	-5,511	-0,264	-0,123
351,362	-166,814	-0,086	-0,002
352,377	-200,000	0,004	0,040
353,392	149,934	-0,104	-0,097
354,406	-121,446	-0,168	-0,019
355,421	206,778	1311,454	1399,005
356,435	159,041	1471,752	1399,480
