DTS Sentinel unit serial number:	SN410029Multiplexer serial number:	ORYXHardware model number:	OX2-SRSoftware version number:	ORYX F/W v4,00 Oryx Data Collector v3.7.2.0data status	okinstallation	B3 Nyhavnadifferential loss correction	single-endedforward channel	channel 1reverse channel	N/Adate	2023/11/29time	14:52:30forward acquisition time	300,00reverse acquisition time	0,00gamma	499,1914k internal	0,3211k external	0,3211temperature offset calibration	1,0000default loss term (dB/km)	0,3820temperature slope calibration	1,0000multiplexer offset coefficient	1,0000multiplexer slope coefficient	1,0000fibre end	0,00T internal ref (°C)	11,09T ext. ref 1 (°C)	-3,03T ext. ref 2 (°C)	-3,17length (m)	temperature (°C)	Stokes	anti-Stokes-744,400	217,026	-0,202	-0,234
-743,385	-200,000	-0,061	0,336
-742,371	207,483	-0,198	-0,225
-741,356	-200,000	0,034	0,392
-740,342	800,000	-0,174	-0,413
-739,327	-200,000	0,023	0,124
-738,312	500,447	-0,241	-0,404
-737,298	568,248	-0,085	0,151
-736,283	152,467	-0,165	-0,164
-735,269	505,733	0,190	0,320
-734,254	536,217	-0,156	-0,270
-733,239	37,337	-0,203	0,130
-732,225	329,480	-0,127	-0,178
-731,210	55,791	0,109	0,077
-730,196	-200,000	-0,019	-0,121
-729,181	243,639	0,082	-0,100
-728,167	-19,095	0,047	0,021
-727,152	81,822	0,096	-0,075
-726,137	-90,264	-0,060	-0,013
-725,123	-200,000	-0,023	-0,115
-724,108	-200,000	-0,018	-0,066
-723,094	221,979	-0,088	-0,103
-722,079	336,046	-0,029	-0,041
-721,064	-17,219	0,091	0,042
-720,050	31,132	-0,064	0,040
-719,035	-158,679	-0,146	0,006
-718,021	800,000	-0,024	-0,071
-717,006	363,955	-0,077	-0,112
-715,991	369,443	-0,085	-0,125
-714,977	-200,000	0,016	-0,063
-713,962	222,333	-0,070	-0,082
-712,948	-200,000	-0,007	0,040
-711,933	800,000	-0,009	0,028
-710,918	82,014	-0,041	-0,032
-709,904	138,547	-0,039	0,037
-708,889	-200,000	-0,013	-0,105
-707,875	73,205	-0,091	0,069
-706,860	-200,000	0,011	-0,098
-705,845	-200,000	0,019	-0,126
-704,831	135,600	0,045	0,042
-703,816	-200,000	0,012	-0,045
-702,802	519,963	0,084	-0,143
-701,787	-173,892	-0,116	0,002
-700,772	77,345	-0,057	0,044
-699,758	-101,312	0,115	0,020
-698,743	-47,705	0,065	-0,023
-697,729	62,520	-0,022	-0,016
-696,714	-70,685	0,065	0,018
-695,699	-200,000	-0,018	-0,069
-694,685	800,000	0,069	0,152
-693,670	76,839	-0,094	-0,072
-692,656	199,571	0,041	-0,046
-691,641	-200,000	0,001	-0,037
-690,627	800,000	-0,045	-0,112
-689,612	800,000	-0,044	0,093
-688,597	-157,136	-0,078	0,003
-687,583	-200,000	-0,035	-0,134
-686,568	-200,000	-0,007	-0,103
-685,554	-200,000	-0,018	-0,056
-684,539	-200,000	-0,005	-0,101
-683,524	58,800	0,068	0,048
-682,510	-59,115	0,060	-0,019
-681,495	559,263	-0,047	-0,082
-680,481	-200,000	-0,025	-0,150
-679,466	-200,000	-0,020	-0,162
-678,451	-136,675	-0,129	0,011
-677,437	800,000	-0,083	-0,188
-676,422	-200,000	-0,002	0,071
-675,408	106,968	0,028	-0,024
-674,393	56,431	-0,050	0,035
-673,378	83,030	-0,006	-0,005
-672,364	-200,000	-0,033	-0,143
-671,349	-73,022	-0,098	0,026
-670,335	213,982	0,083	0,095
-669,320	-198,069	0,065	0,000
-668,305	-74,040	0,024	-0,006
-667,291	502,888	-0,060	-0,101
-666,276	800,000	-0,017	-0,052
-665,262	-133,779	-0,031	-0,003
-664,247	41,994	-0,100	0,066
-663,232	-200,000	0,009	-0,083
-662,218	102,946	-0,041	-0,035
-661,203	800,000	-0,010	0,029
-660,189	-200,000	-0,005	-0,031
-659,174	347,182	-0,069	-0,098
-658,159	5,624	0,031	0,016
-657,145	483,726	-0,027	-0,045
-656,130	-60,512	0,010	-0,003
-655,116	-200,000	-0,014	-0,080
-654,101	103,999	0,037	0,031
-653,086	618,220	0,044	0,080
-652,072	-200,000	0,013	-0,108
-651,057	281,870	-0,081	-0,106
-650,043	-78,999	0,048	-0,012
-649,028	-19,891	-0,184	-0,082
-648,014	-76,002	0,114	-0,029
-646,999	162,204	0,119	-0,120
-645,984	265,107	0,049	0,062
-644,970	-4,794	0,043	0,022
-643,955	88,039	-0,098	-0,079
-642,941	-114,129	-0,080	0,011
-641,926	127,375	-0,104	-0,096
-640,911	555,434	-0,045	0,079
-639,897	369,452	0,033	0,048
-638,882	-165,968	0,095	0,003
-637,868	-129,622	-0,024	-0,002
-636,853	-34,170	-0,027	0,011
-635,838	167,858	-0,053	-0,055
-634,824	108,229	-0,060	-0,051
-633,809	-167,495	0,201	-0,006
-632,795	-3,654	0,066	-0,033
-631,780	-200,000	0,018	0,113
-630,765	21,805	0,036	0,021
-629,751	-72,549	-0,088	-0,023
-628,736	-105,204	-0,025	0,004
-627,722	188,440	0,016	0,018
-626,707	-25,031	0,080	-0,034
-625,692	59,804	-0,143	0,101
-624,678	-200,000	-0,011	0,046
-623,663	694,998	0,059	-0,112
-622,649	641,954	-0,038	-0,071
-621,634	520,586	-0,041	-0,069
-620,619	-200,000	-0,003	0,083
-619,605	230,768	0,027	-0,032
-618,590	-110,407	-0,126	-0,019
-617,576	751,817	0,055	0,108
-616,561	-53,839	-0,061	0,020
-615,546	-119,597	-0,042	0,005
-614,532	-200,000	-0,009	0,063
-613,517	596,301	0,018	-0,032
-612,503	-84,441	-0,091	0,021
-611,488	255,121	0,067	-0,083
-610,474	131,334	0,121	0,112
-609,459	-200,000	-0,084	0,000
-608,444	-200,000	-0,042	-0,193
-607,430	-200,000	0,025	0,135
-606,415	73,196	-0,061	-0,046
-605,401	-161,756	-0,083	-0,003
-604,386	401,929	0,014	0,021
-603,371	-200,000	0,005	-0,081
-602,357	800,000	0,045	0,107
-601,342	230,767	0,060	-0,071
-600,328	214,610	-0,015	0,017
-599,313	-62,057	-0,181	0,054
-598,298	124,473	0,044	-0,039
-597,284	57,987	0,041	-0,029
-596,269	-6,811	-0,047	-0,023
-595,255	-200,000	-0,002	0,101
-594,240	-200,000	0,044	-0,145
-593,225	16,858	-0,090	0,051
-592,211	205,959	-0,014	0,016
-591,196	9,772	-0,118	0,064
-590,182	394,063	-0,026	0,039
-589,167	78,400	0,017	-0,013
-588,152	626,484	0,071	0,129
-587,138	-171,480	-0,040	-0,001
-586,123	-8,180	-0,247	-0,119
-585,109	-200,000	0,005	-0,059
-584,094	-32,696	-0,149	-0,060
-583,079	-200,000	0,003	-0,038
-582,065	-153,861	0,155	0,008
-581,050	-200,000	0,005	0,088
-580,036	800,000	0,021	0,065
-579,021	34,628	-0,144	-0,091
-578,006	537,272	0,051	-0,088
-576,992	671,122	-0,078	-0,146
-575,977	800,000	-0,051	-0,147
-574,963	132,663	0,048	-0,044
-573,948	36,895	-0,066	0,042
-572,934	343,668	0,043	0,061
-571,919	-200,000	-0,022	-0,132
-570,904	800,000	0,024	-0,063
-569,890	800,000	-0,070	-0,158
-568,875	-200,000	-0,021	-0,075
-567,861	56,225	0,046	0,032
-566,846	800,000	0,046	-0,126
-565,831	65,611	0,062	-0,045
-564,817	307,008	0,084	-0,112
-563,802	-200,000	0,015	-0,061
-562,788	800,000	0,042	-0,122
-561,773	-140,484	-0,042	-0,003
-560,758	457,459	-0,094	0,151
-559,744	-200,000	0,020	0,066
-558,729	-118,732	-0,070	-0,009
-557,715	346,174	-0,026	-0,036
-556,700	-200,000	-0,013	-0,082
-555,685	-112,461	0,107	0,015
-554,671	-47,542	0,072	0,025
-553,656	146,313	-0,067	0,064
-552,642	-120,321	0,146	-0,018
-551,627	-42,671	-0,066	0,024
-550,612	800,000	0,037	0,095
-549,598	-200,000	-0,024	-0,104
-548,583	-143,309	-0,244	-0,017
-547,569	-52,281	0,163	-0,054
-546,554	-24,116	-0,008	0,003
-545,539	800,000	-0,044	0,097
-544,525	76,624	0,105	0,080
-543,510	91,169	-0,125	-0,100
-542,496	-157,618	-0,025	-0,001
-541,481	340,205	-0,124	-0,175
-540,466	697,176	0,069	0,131
-539,452	-200,000	-0,001	-0,008
-538,437	-10,651	0,043	0,020
-537,423	-8,452	0,056	0,027
-536,408	51,890	-0,095	0,065
-535,393	-158,701	-0,071	-0,003
-534,379	-200,000	0,051	-0,170
-533,364	800,000	0,011	0,030
-532,350	-133,024	0,091	-0,008
-531,335	-200,000	-0,008	0,127
-530,321	42,737	0,162	0,106
-529,306	-23,044	-0,133	0,057
-528,291	188,133	0,075	-0,081
-527,277	800,000	-0,028	-0,064
-526,262	-103,960	-0,045	-0,007
-525,248	46,125	0,151	-0,100
-524,233	800,000	0,078	-0,171
-523,218	800,000	0,026	-0,058
-522,204	246,663	-0,064	-0,077
-521,189	352,601	-0,095	0,135
-520,175	-83,577	-0,064	-0,015
-519,160	-200,000	0,004	-0,020
-518,145	164,723	-0,042	-0,042
-517,131	9,619	0,040	0,022
-516,116	222,706	-0,056	0,065
-515,102	412,092	0,092	-0,140
-514,087	588,290	-0,052	0,093
-513,072	-0,516	-0,032	0,016
-512,058	88,473	-0,008	0,006
-511,043	228,879	0,040	-0,046
-510,029	-200,000	0,020	0,124
-509,014	-143,213	0,121	-0,008
-507,999	-194,922	-0,065	0,000
-506,985	800,000	0,089	-0,185
-505,970	-122,968	-0,084	-0,010
-504,956	-200,000	0,013	-0,058
-503,941	-40,190	0,056	0,021
-502,926	-79,742	0,073	0,018
-501,912	800,000	0,052	0,122
-500,897	-37,660	-0,044	-0,017
-499,883	-41,986	0,030	0,011
-498,868	-200,000	-0,009	0,085
-497,853	37,841	0,115	0,073
-496,839	-105,391	0,073	-0,012
-495,824	56,315	0,045	0,031
-494,810	800,000	0,015	-0,047
-493,795	10,128	0,173	-0,094
-492,781	223,707	-0,056	-0,065
-491,766	-200,000	0,010	-0,112
-490,751	367,445	-0,086	-0,125
-489,737	14,884	-0,065	0,036
-488,722	-200,000	-0,013	0,087
-487,708	800,000	0,085	0,224
-486,693	-5,560	-0,052	-0,026
-485,678	800,000	0,017	-0,046
-484,664	-56,140	0,102	0,032
-483,649	-53,978	-0,151	0,049
-482,635	472,696	-0,022	-0,036
-481,620	-47,745	0,146	-0,050
-480,605	583,537	-0,030	0,054
-479,591	-2,335	0,053	-0,026
-478,576	149,313	-0,041	-0,040
-477,562	800,000	-0,030	0,078
-476,547	-87,102	-0,140	0,030
-475,532	-200,000	0,017	0,083
-474,518	101,040	0,104	0,087
-473,503	211,644	0,041	0,047
-472,489	-43,815	-0,098	0,035
-471,474	495,921	0,024	-0,040
-470,459	800,000	-0,046	-0,101
-469,445	-200,000	0,037	-0,141
-468,430	215,147	0,054	-0,061
-467,416	-32,987	-0,027	0,011
-466,401	-21,550	0,008	0,004
-465,386	7,130	-0,086	0,046
-464,372	-186,177	-0,090	-0,001
-463,357	220,528	-0,061	0,070
-462,343	-101,918	-0,092	0,016
-461,328	197,734	-0,023	0,025
-460,313	398,137	-0,009	-0,013
-459,299	205,408	0,024	-0,027
-458,284	148,288	0,036	-0,035
-457,270	-200,000	0,001	0,027
-456,255	-73,159	-0,109	-0,028
-455,241	345,257	-0,087	-0,123
-454,226	313,935	-0,029	-0,039
-453,211	180,927	0,086	0,091
-452,197	101,354	0,088	0,073
-451,182	800,000	0,014	0,039
-450,168	-51,933	-0,176	0,058
-449,153	104,379	-0,082	-0,069
-448,138	213,329	-0,058	0,066
-447,124	190,432	-0,070	-0,076
-446,109	-124,481	0,068	0,008
-445,095	238,310	0,078	0,093
-444,080	-117,132	0,077	0,010
-443,065	56,070	-0,041	0,028
-442,051	151,056	-0,064	-0,062
-441,036	188,148	0,081	-0,086
-440,022	93,111	-0,062	0,050
-439,007	36,029	0,046	0,029
-437,992	327,641	0,063	0,087
-436,978	-84,306	0,063	0,014
-435,963	449,600	0,061	0,096
-434,949	-200,000	-0,004	-0,053
-433,934	703,681	-0,048	0,091
-432,919	201,665	0,024	0,026
-431,905	800,000	0,086	0,174
-430,890	-170,832	0,080	-0,002
-429,876	800,000	-0,023	-0,059
-428,861	13,876	0,028	-0,015
-427,846	-200,000	-0,029	0,111
-426,832	800,000	0,029	0,063
-425,817	24,513	-0,088	-0,052
-424,803	-41,158	-0,035	-0,013
-423,788	-200,000	0,003	-0,046
-422,773	499,627	0,068	0,113
-421,759	22,982	0,023	0,014
-420,744	800,000	-0,026	0,051
-419,730	105,882	-0,094	0,079
-418,715	17,452	-0,073	-0,042
-417,701	145,512	0,070	0,067
-416,686	-200,000	0,004	0,038
-415,671	-166,044	0,139	0,004
-414,657	-200,000	-0,012	0,129
-413,642	56,849	0,111	-0,078
-412,628	451,410	-0,063	0,100
-411,613	-46,104	0,124	-0,043
-410,598	-12,585	0,130	0,060
-409,584	507,680	0,045	-0,074
-408,569	-27,034	-0,167	0,069
-407,555	-1,174	0,159	0,080
-406,540	579,372	0,095	0,166
-405,525	-137,822	-0,038	-0,003
-404,511	-157,642	-0,162	-0,007
-403,496	-200,000	0,001	-0,079
-402,482	153,982	-0,037	-0,036
-401,467	-57,095	-0,005	-0,001
-400,452	-15,232	0,143	0,065
-399,438	-5,858	-0,099	0,048
-398,423	-23,040	-0,017	0,007
-397,409	800,000	0,057	0,133
-396,394	80,366	0,014	0,011
-395,379	161,538	-0,100	0,100
-394,365	261,552	0,051	0,063
-393,350	800,000	0,011	-0,028
-392,336	364,458	0,068	0,098
-391,321	193,470	-0,103	0,112
-390,306	-6,539	-0,147	-0,071
-389,292	156,851	0,082	-0,081
-388,277	-200,000	0,025	-0,080
-387,263	340,710	0,050	-0,070
-386,248	-2,791	-0,045	-0,022
-385,233	776,183	0,058	-0,113
-384,219	-200,000	-0,014	0,081
-383,204	745,212	0,025	0,048
-382,190	800,000	0,036	-0,090
-381,175	-150,258	0,098	-0,005
-380,160	468,900	-0,024	-0,038
-379,146	-143,115	0,050	0,003
-378,131	-109,410	0,047	0,007
-377,117	14,974	-0,016	0,009
-376,102	303,727	-0,041	-0,055
-375,088	-127,730	-0,079	0,008
-374,073	-138,460	-0,065	-0,005
-373,058	800,000	0,052	-0,162
-372,044	99,642	0,086	-0,071
-371,029	563,100	-0,075	0,129
-370,015	24,185	0,153	-0,090
-369,000	-200,000	0,021	-0,092
-367,985	355,277	-0,098	0,139
-366,971	-183,454	-0,183	-0,002
-365,956	306,704	-0,025	-0,033
-364,942	346,862	0,056	0,079
-363,927	800,000	-0,074	0,157
-362,912	-155,548	-0,106	0,005
-361,898	-131,625	-0,168	-0,016
-360,883	150,801	-0,010	-0,009
-359,869	-145,052	0,084	-0,005
-358,854	-200,000	-0,002	0,023
-357,839	-115,080	0,124	-0,017
-356,825	-200,000	0,010	-0,100
-355,810	-200,000	-0,031	0,111
-354,796	81,898	-0,066	0,051
-353,781	107,914	-0,088	-0,075
-352,766	-200,000	-0,007	0,073
-351,752	154,756	0,067	-0,066
-350,737	452,774	-0,033	-0,052
-349,723	-200,000	0,022	-0,097
-348,708	323,790	0,081	0,111
-347,693	55,104	0,049	-0,034
-346,679	646,955	-0,042	-0,076
-345,664	209,965	-0,016	0,018
-344,650	-200,000	0,026	-0,157
-343,635	-120,181	0,110	-0,013
-342,620	-74,087	-0,133	0,034
-341,606	38,053	0,104	-0,066
-340,591	-200,000	0,002	0,062
-339,577	120,380	-0,068	0,060
-338,562	800,000	0,014	0,039
-337,548	757,118	-0,064	-0,125
-336,533	-46,140	-0,095	0,033
-335,518	145,080	0,102	-0,097
-334,504	-135,838	-0,072	0,006
-333,489	373,972	-0,102	0,148
-332,475	23,420	0,082	0,048
-331,460	290,352	-0,060	-0,077
-330,445	-200,000	-0,027	0,238
-329,431	800,000	0,013	-0,026
-328,416	-71,702	0,164	0,043
-327,402	265,883	-0,034	0,043
-326,387	158,043	-0,047	-0,047
-325,372	-9,464	-0,070	0,033
-324,358	800,000	0,041	-0,086
-323,343	-200,000	0,017	-0,073
-322,329	-79,191	-0,036	-0,009
-321,314	558,545	-0,067	0,116
-320,299	-200,000	0,020	0,190
-319,285	0,291	0,144	0,073
-318,270	7,024	0,009	-0,005
-317,256	383,954	-0,063	-0,092
-316,241	29,417	-0,153	-0,092
-315,226	56,301	0,055	-0,038
-314,212	141,577	0,020	-0,019
-313,197	-32,947	-0,103	0,041
-312,183	211,192	0,113	0,127
-311,168	-108,855	-0,173	-0,026
-310,153	-85,316	-0,091	-0,020
-309,139	-25,455	-0,067	-0,028
-308,124	89,217	0,131	0,104
-307,110	-60,431	-0,033	-0,010
-306,095	-119,957	-0,027	-0,003
-305,080	143,634	-0,091	-0,087
-304,066	-132,361	-0,191	0,017
-303,051	114,119	-0,117	-0,102
-302,037	562,108	0,042	-0,073
-301,022	-63,365	-0,014	-0,004
-300,008	-6,187	0,072	0,035
-298,993	76,142	-0,045	0,034
-297,978	586,736	0,024	-0,042
-296,964	253,298	0,092	-0,112
-295,949	-111,523	-0,170	-0,024
-294,935	168,701	0,157	-0,159
-293,920	800,000	0,039	0,101
-292,905	658,929	0,131	0,241
-291,891	102,559	0,036	-0,030
-290,876	-200,000	0,001	0,150
-289,862	-200,000	0,015	0,048
-288,847	800,000	0,039	0,092
-287,832	184,017	-0,050	-0,052
-286,818	-200,000	0,014	0,063
-285,803	18,544	-0,110	-0,063
-284,789	800,000	0,032	0,084
-283,774	800,000	-0,064	0,132
-282,759	264,044	0,060	-0,074
-281,745	-61,542	0,098	-0,029
-280,730	113,467	-0,117	-0,101
-279,716	144,158	0,125	-0,119
-278,701	800,000	-0,045	0,097
-277,686	-200,000	0,002	0,030
-276,672	-27,953	0,117	0,048
-275,657	-129,455	-0,076	-0,007
-274,643	428,909	-0,028	-0,043
-273,628	495,151	0,031	0,052
-272,613	-57,542	-0,068	-0,021
-271,599	71,904	0,080	0,059
-270,584	73,159	0,095	-0,071
-269,570	800,000	0,041	0,093
-268,555	-123,960	-0,092	-0,010
-267,540	147,843	-0,061	0,058
-266,526	-200,000	-0,011	0,065
-265,511	-13,974	-0,099	0,045
-264,497	-200,000	0,013	0,053
-263,482	31,819	0,091	0,055
-262,467	-137,852	0,126	-0,010
-261,453	17,642	0,104	0,059
-260,438	203,332	-0,037	-0,041
-259,424	-34,654	-0,052	-0,020
-258,409	-200,000	0,003	-0,035
-257,395	-200,000	0,011	-0,096
-256,380	-90,209	0,126	-0,026
-255,365	-143,591	0,119	-0,008
-254,351	-109,987	0,087	-0,013
-253,336	-118,523	0,093	0,012
-252,322	-75,327	-0,149	0,038
-251,307	-39,890	-0,044	-0,016
-250,292	-102,363	0,135	-0,023
-249,278	-172,107	0,070	0,002
-248,263	453,338	-0,058	-0,092
-247,249	108,758	-0,016	-0,014
-246,234	-200,000	0,022	-0,078
-245,219	202,481	-0,110	-0,121
-244,205	-25,449	0,062	-0,026
-243,190	-114,515	0,114	0,015
-242,176	-200,000	0,009	0,048
-241,161	-21,567	0,080	0,035
-240,146	800,000	0,025	0,054
-239,132	-200,000	-0,040	-0,174
-238,117	800,000	-0,003	0,006
-237,103	-43,743	0,054	0,019
-236,088	84,144	0,111	-0,086
-235,073	211,855	-0,038	-0,042
-234,059	229,115	0,037	-0,043
-233,044	263,957	0,055	0,068
-232,030	800,000	0,081	-0,207
-231,015	-73,278	-0,076	-0,019
-230,000	208,068	-0,136	-0,151
-228,986	-31,133	0,082	-0,033
-227,971	-91,212	0,104	-0,021
-226,957	-200,000	-0,007	0,038
-225,942	-156,866	-0,041	0,002
-224,927	-200,000	0,003	0,036
-223,913	20,875	-0,086	-0,049
-222,898	184,445	0,132	-0,139
-221,884	18,128	-0,078	-0,044
-220,869	800,000	-0,046	-0,122
-219,855	518,329	-0,037	0,063
-218,840	-200,000	0,022	0,102
-217,825	22,463	-0,107	0,062
-216,811	-34,759	0,076	0,030
-215,796	511,086	-0,102	-0,168
-214,782	-140,765	0,038	-0,003
-213,767	700,565	-0,017	0,033
-212,752	-177,465	0,137	-0,002
-211,738	-61,491	0,066	-0,020
-210,723	240,094	0,058	0,069
-209,709	-100,060	0,047	0,008
-208,694	-26,286	-0,163	-0,068
-207,679	89,235	-0,005	-0,004
-206,665	-200,000	0,027	0,139
-205,650	209,532	-0,059	0,065
-204,636	-200,000	-0,005	0,034
-203,621	53,520	0,006	-0,004
-202,606	-11,810	0,025	-0,012
-201,592	390,925	-0,077	-0,114
-200,577	5,710	0,065	0,034
-199,563	50,330	0,092	0,061
-198,548	119,628	0,084	-0,073
-197,533	800,000	0,049	0,104
-196,519	174,653	-0,029	0,030
-195,504	-64,833	-0,049	0,014
-194,490	-55,634	0,025	-0,008
-193,475	37,329	-0,040	-0,025
-192,460	-200,000	0,001	-0,031
-191,446	202,621	0,032	-0,035
-190,431	800,000	0,037	-0,082
-189,417	-200,000	-0,029	0,187
-188,402	-190,084	-0,162	0,001
-187,387	142,710	-0,048	-0,045
-186,373	-200,000	0,019	0,194
-185,358	34,164	0,053	0,033
-184,344	112,016	0,010	0,009
-183,329	-75,177	0,151	-0,038
-182,315	-179,956	0,084	-0,001
-181,300	-200,000	-0,035	0,137
-180,285	-200,000	-0,006	0,050
-179,271	800,000	0,032	-0,071
-178,256	70,995	-0,034	-0,025
-177,242	-200,000	0,021	-0,108
-176,227	154,828	-0,033	-0,032
-175,212	157,606	-0,092	0,090
-174,198	279,799	-0,041	0,053
-173,183	-11,441	-0,068	-0,032
-172,169	-200,000	0,015	-0,125
-171,154	-68,919	-0,083	-0,023
-170,139	-127,211	0,069	-0,007
-169,125	632,355	0,032	0,057
-168,110	800,000	0,068	0,189
-167,096	556,274	0,049	0,084
-166,081	115,901	-0,058	0,051
-165,066	320,559	0,043	0,058
-164,052	-93,146	-0,103	-0,020
-163,037	127,162	0,097	0,088
-162,023	-5,123	0,153	0,075
-161,008	-147,799	-0,120	-0,007
-159,993	-200,000	-0,012	-0,096
-158,979	-200,000	-0,018	-0,067
-157,964	-144,465	0,056	-0,004
-156,950	-81,337	-0,058	0,013
-155,935	-200,000	0,028	-0,125
-154,920	800,000	0,019	-0,038
-153,906	-200,000	-0,023	0,074
-152,891	-200,000	0,006	-0,021
-151,877	800,000	-0,027	-0,055
-150,862	-8,853	0,027	-0,013
-149,847	244,547	-0,037	-0,044
-148,833	-89,215	0,060	0,012
-147,818	-138,488	0,032	-0,002
-146,804	-21,717	-0,062	0,027
-145,789	70,357	-0,065	0,047
-144,775	-200,000	0,015	-0,047
-143,760	-200,000	-0,019	-0,136
-142,745	-200,000	-0,004	-0,093
-141,731	-200,000	0,030	0,128
-140,716	589,299	0,050	-0,088
-139,702	-200,000	-0,017	-0,065
-138,687	52,652	-0,078	-0,053
-137,672	-60,742	-0,184	0,055
-136,658	-16,746	-0,089	-0,040
-135,643	800,000	0,040	-0,097
-134,629	-62,922	0,087	-0,025
-133,614	-200,000	0,018	0,201
-132,599	186,585	0,057	0,060
-131,585	-31,835	0,083	0,033
-130,570	-91,874	0,108	0,022
-129,556	-127,121	-0,166	-0,017
-128,541	-200,000	-0,007	0,056
-127,526	71,736	-0,040	0,029
-126,512	671,157	0,022	0,041
-125,497	800,000	0,067	-0,140
-124,483	-200,000	0,002	0,048
-123,468	-200,000	-0,006	0,033
-122,453	-12,879	0,055	0,025
-121,439	107,097	-0,174	-0,146
-120,424	-200,000	0,013	0,051
-119,410	179,421	0,096	0,099
-118,395	800,000	-0,030	0,088
-117,380	-200,000	0,009	-0,050
-116,366	-122,339	-0,046	0,005
-115,351	-32,588	0,150	-0,059
-114,337	-135,599	-0,164	-0,014
-113,322	-90,189	-0,099	-0,020
-112,307	409,984	0,061	0,092
-111,293	679,976	-0,030	0,055
-110,278	-121,311	0,032	-0,004
-109,264	511,050	-0,035	-0,057
-108,249	-154,335	-0,133	-0,006
-107,234	-142,339	0,134	0,009
-106,220	-128,000	0,131	0,013
-105,205	100,069	-0,049	0,040
-104,191	800,000	0,055	0,142
-103,176	-200,000	0,054	0,187
-102,162	383,026	-0,048	0,070
-101,147	800,000	0,022	0,043
-100,132	-120,581	-0,088	-0,010
-99,118	288,827	-0,039	-0,050
-98,103	-54,880	0,088	-0,028
-97,089	-113,628	0,084	0,012
-96,074	-28,902	0,106	0,043
-95,059	615,111	0,020	0,035
-94,045	161,573	-0,121	-0,119
-93,030	-200,000	-0,017	-0,086
-92,016	50,532	0,135	-0,090
-91,001	-73,410	0,039	0,010
-89,986	-200,000	0,018	-0,163
-88,972	800,000	0,016	0,041
-87,957	-152,207	0,157	0,008
-86,943	800,000	0,015	-0,036
-85,928	-73,274	-0,084	-0,022
-84,913	528,558	-0,006	0,010
-83,899	-67,246	-0,090	0,025
-82,884	450,612	0,037	0,057
-81,870	-200,000	0,014	-0,054
-80,855	244,789	-0,040	0,048
-79,840	-200,000	-0,009	-0,179
-78,826	19,231	-0,042	0,024
-77,811	-132,360	-0,077	0,007
-76,797	77,359	0,117	-0,088
-75,782	-83,669	0,133	0,030
-74,767	23,897	-0,039	-0,023
-73,753	800,000	0,058	0,156
-72,738	185,122	-0,036	-0,038
-71,724	800,000	-0,082	-0,223
-70,709	-131,277	-0,204	0,019
-69,694	77,192	0,097	-0,073
-68,680	38,526	0,102	-0,064
-67,665	65,057	0,069	-0,049
-66,651	155,631	0,070	-0,069
-65,636	-63,137	-0,212	0,061
-64,622	-200,000	-0,009	-0,059
-63,607	309,130	-0,064	-0,084
-62,592	-159,778	-0,030	-0,001
-61,578	-200,000	-0,032	-0,147
-60,563	-19,194	0,090	0,039
-59,549	-200,000	-0,025	0,213
-58,534	34,013	-1,863	-1,143
-57,519	452,393	-1,269	-1,988
-56,505	-200,000	-0,256	-4,423
-55,490	341,688	0,900	1,246
-54,476	800,000	5,213	11,429
-53,461	-200,000	20,510	326,538
-52,446	800,000	754,183	2314,906
-51,432	551,699	1659,544	2823,108
-50,417	73,777	1663,205	1229,119
-49,403	18,937	1536,450	866,609
-48,388	12,923	1459,227	793,973
-47,373	18,784	1449,796	816,936
-46,359	15,948	1439,151	797,414
-45,344	11,240	1435,068	772,713
-44,330	11,146	1433,029	771,140
-43,315	11,140	1431,114	770,050
-42,300	11,131	1429,417	769,062
-41,286	11,161	1428,105	768,469
-40,271	11,156	1426,881	767,754
-39,257	11,170	1425,689	767,148
-38,242	11,172	1424,504	766,490
-37,227	11,136	1423,355	765,673
-36,213	11,153	1422,302	765,158
-35,198	11,113	1421,131	764,309
-34,184	11,206	1420,187	764,207
-33,169	11,147	1418,746	763,122
-32,154	11,207	1417,634	762,776
-31,140	11,236	1416,384	762,211
-30,125	11,230	1415,352	761,600
-29,111	11,219	1414,263	760,928
-28,096	11,228	1413,006	760,267
-27,082	11,103	1412,075	759,150
-26,067	11,125	1411,052	758,673
-25,052	11,136	1409,808	758,024
-24,038	11,101	1409,157	757,479
-23,023	11,139	1407,852	756,925
-22,009	11,095	1406,977	756,222
-20,994	11,108	1405,869	755,655
-19,979	11,088	1405,162	755,152
-18,965	11,089	1404,011	754,509
-17,950	11,075	1403,239	753,997
-16,936	11,026	1402,491	753,338
-15,921	11,035	1401,343	752,736
-14,906	11,008	1400,472	752,110
-13,892	11,056	1399,433	751,745
-12,877	11,037	1398,645	751,204
-11,863	11,037	1397,737	750,685
-10,848	11,009	1396,878	750,066
-9,833	10,999	1396,093	749,569
-8,819	10,921	1395,318	748,762
-7,804	10,912	1394,397	748,194
-6,790	10,945	1393,182	747,664
-5,775	10,960	1392,289	747,227
-4,760	10,947	1391,367	746,639
-3,746	10,966	1390,324	746,139
-2,731	10,941	1389,627	745,623
-1,717	10,888	1388,839	744,922
-0,702	10,895	1386,929	743,905
0,313	14,913	1301,056	716,242
1,327	31,121	693,560	418,697
2,342	48,449	120,402	79,396
3,356	-1,103	16,526	8,213
4,371	-6,060	3,494	1,678
5,386	-17,450	0,882	0,390
6,400	800,000	0,193	0,379
7,415	-34,460	-0,264	-0,101
8,429	7,008	-0,192	-0,101
9,444	169,659	-0,327	-0,330
10,459	49,877	-0,227	-0,151
11,473	14,812	-0,201	-0,110
12,488	95,937	-0,167	-0,135
13,502	152,826	-0,288	-0,278
14,517	-9,246	-0,395	-0,185
15,531	123,366	-0,322	-0,284
16,546	198,397	-0,323	-0,348
17,561	65,021	-0,414	-0,294
18,575	-75,390	-0,149	-0,037
19,590	189,101	-0,258	-0,272
20,604	230,076	-0,213	-0,246
21,619	134,248	-0,376	-0,344
22,634	13,456	-0,445	-0,242
23,648	226,810	-0,328	-0,376
24,663	50,705	-0,413	-0,275
25,677	364,994	-0,271	-0,385
26,692	130,845	-0,362	-0,327
27,707	196,681	-0,223	-0,240
28,721	42,229	-0,398	-0,254
29,736	56,951	-0,391	-0,268
30,750	58,116	-0,430	-0,296
31,765	106,687	-0,325	-0,271
32,780	127,212	-0,256	-0,229
33,794	-29,972	-0,327	-0,130
34,809	155,613	-0,245	-0,238
35,823	21,069	-0,354	-0,202
36,838	-11,233	-0,402	-0,185
37,853	126,652	-0,434	-0,387
38,867	95,277	-0,262	-0,210
39,882	-18,170	-0,470	-0,206
40,896	335,127	-0,180	-0,246
41,911	38,186	-0,234	-0,146
42,926	64,723	-0,405	-0,287
43,940	163,134	-0,331	-0,327
44,955	-43,841	-0,398	-0,140
45,969	96,021	-0,355	-0,285
46,984	51,815	-0,436	-0,291
47,999	-22,293	-0,359	-0,152
49,013	-14,510	-0,463	-0,208
50,028	211,825	-0,237	-0,262
51,042	-5,008	-0,392	-0,189
52,057	3,423	-0,427	-0,217
53,071	2,224	-0,414	-0,209
54,086	12,915	-0,394	-0,213
55,101	-85,789	-0,230	-0,050
56,115	-67,123	-0,324	-0,089
57,130	-42,059	-0,385	-0,138
58,144	-87,545	-0,421	-0,089
59,159	641,479	-0,242	-0,435
60,174	119,457	-0,366	-0,318
61,188	148,095	-0,358	-0,339
62,203	53,460	-0,356	-0,239
63,217	340,284	-0,163	-0,224
64,232	103,545	-0,251	-0,207
65,247	67,257	-0,358	-0,256
66,261	131,418	-0,309	-0,279
67,276	141,848	-0,302	-0,281
68,290	150,499	-0,344	-0,328
69,305	39,953	-0,271	-0,170
70,320	-71,455	-0,422	-0,110
71,334	-32,305	-0,391	-0,152
72,349	101,343	-0,251	-0,204
73,363	63,091	-0,344	-0,241
74,378	339,278	-0,203	-0,279
75,393	386,210	-0,117	-0,169
76,407	110,011	-0,321	-0,270
77,422	161,294	-0,253	-0,248
78,436	-34,553	-0,371	-0,142
79,451	23,472	-0,262	-0,151
80,466	36,007	-0,272	-0,167
81,480	64,052	-0,386	-0,272
82,495	50,878	-0,188	-0,125
83,509	123,165	-0,262	-0,230
84,524	155,842	-0,220	-0,212
85,539	-42,892	-0,286	-0,101
86,553	10,011	-0,348	-0,184
87,568	40,142	-0,282	-0,177
88,582	113,437	-0,289	-0,246
89,597	107,158	-0,297	-0,247
90,611	-52,032	-0,276	-0,089
91,626	27,798	-0,308	-0,181
92,641	74,999	-0,291	-0,214
93,655	311,414	-0,231	-0,304
94,670	273,555	-0,244	-0,302
95,684	-52,384	-0,290	-0,093
96,699	-11,175	-0,352	-0,162
97,714	267,501	-0,174	-0,214
98,728	41,407	-0,239	-0,151
99,743	125,319	-0,257	-0,227
100,757	-76,540	-0,447	-0,109
101,772	66,876	-0,291	-0,207
102,787	45,927	-0,346	-0,224
103,801	150,720	-0,309	-0,294
104,816	126,243	-0,207	-0,183
105,830	88,760	-0,169	-0,131
106,845	-38,841	-0,283	-0,104
107,860	-78,319	-0,325	-0,077
108,874	138,307	-0,209	-0,191
109,889	44,531	-0,219	-0,140
110,903	137,088	-0,342	-0,312
111,918	-3,489	-0,262	-0,127
112,933	118,691	-0,183	-0,158
113,947	113,715	-0,160	-0,136
114,962	339,450	-0,291	-0,397
115,976	226,282	-0,210	-0,238
116,991	107,289	-0,210	-0,174
118,006	81,834	-0,320	-0,242
119,020	342,148	-0,187	-0,256
120,035	-28,622	-0,305	-0,122
121,049	51,155	-0,316	-0,209
122,064	132,037	-0,226	-0,203
123,079	-43,030	-0,288	-0,101
124,093	52,632	-0,388	-0,258
125,108	-133,128	-0,246	-0,021
126,122	254,410	-0,230	-0,275
127,137	68,936	-0,129	-0,092
128,151	272,043	-0,200	-0,246
129,166	163,013	-0,205	-0,201
130,181	45,434	-0,367	-0,236
131,195	86,071	-0,270	-0,207
132,210	54,885	-0,270	-0,182
133,224	551,096	-0,165	-0,277
134,239	-51,189	-0,253	-0,082
135,254	228,985	-0,207	-0,236
136,268	170,159	-0,167	-0,166
137,283	-0,504	-0,344	-0,170
138,297	-12,282	-0,299	-0,136
139,312	72,073	-0,307	-0,222
140,327	486,653	-0,209	-0,333
141,341	224,706	-0,200	-0,226
142,356	12,737	-0,363	-0,195
143,370	800,000	-0,063	-0,132
144,385	-32,325	-0,184	-0,071
145,400	13,475	-0,347	-0,187
146,414	490,825	-0,196	-0,314
147,429	177,360	-0,204	-0,207
148,443	49,765	-0,357	-0,234
149,458	800,000	-0,103	-0,201
150,473	417,851	-0,145	-0,216
151,487	123,185	-0,237	-0,207
152,502	237,019	-0,244	-0,282
153,516	94,444	-0,281	-0,222
154,531	49,253	-0,282	-0,184
155,546	37,916	-0,291	-0,179
156,560	800,000	-0,084	-0,254
157,575	574,157	-0,136	-0,232
158,589	149,382	-0,203	-0,192
159,604	210,921	-0,169	-0,185
160,619	121,257	-0,185	-0,160
161,633	104,262	-0,243	-0,198
162,648	140,400	-0,229	-0,210
163,662	-61,362	-0,198	-0,057
164,677	-15,558	-0,305	-0,135
165,692	285,700	-0,144	-0,181
166,706	-12,429	-0,207	-0,094
167,721	151,622	-0,183	-0,173
168,735	106,092	-0,203	-0,167
169,750	137,592	-0,211	-0,192
170,764	800,000	-0,110	-0,253
171,779	144,232	-0,294	-0,273
172,794	68,433	-0,294	-0,209
173,808	154,739	-0,083	-0,079
174,823	-22,494	-0,246	-0,103
175,837	800,000	-0,082	-0,243
176,852	50,676	-0,226	-0,148
177,867	-46,903	-0,241	-0,082
178,881	-9,495	-0,285	-0,132
179,896	76,347	-0,243	-0,179
180,910	1,187	-0,362	-0,180
181,925	380,256	-0,142	-0,203
182,940	-164,151	-0,273	0,009
183,954	48,864	-0,340	-0,221
184,969	24,626	-0,162	-0,093
185,983	493,934	-0,107	-0,171
186,998	90,567	-0,164	-0,127
188,013	168,486	-0,156	-0,155
189,027	-52,983	-0,205	-0,065
190,042	47,303	-0,286	-0,185
191,056	800,000	-0,101	-0,252
192,071	225,612	-0,160	-0,180
193,086	528,359	-0,082	-0,135
194,100	763,780	-0,161	-0,304
195,115	-72,198	-0,230	-0,059
196,129	-106,332	-0,169	-0,026
197,144	145,332	-0,271	-0,251
198,159	-19,185	-0,264	-0,113
199,173	406,696	-0,159	-0,233
200,188	-66,806	-0,184	-0,050
201,202	800,000	-0,116	-0,276
202,217	-89,760	-0,201	-0,040
203,232	183,223	-0,171	-0,176
204,246	445,858	-0,162	-0,247
205,261	72,751	-0,238	-0,172
206,275	-69,027	-0,246	-0,065
207,290	165,256	-0,155	-0,152
208,304	-80,573	-0,146	-0,033
209,319	-117,328	-0,196	0,024
210,334	-74,753	-0,129	-0,032
211,348	52,482	-0,179	-0,118
212,363	-35,638	-0,265	-0,099
213,377	138,160	-0,294	-0,267
214,392	34,932	-0,232	-0,140
215,407	-73,827	-0,094	-0,023
216,421	-83,389	-0,120	-0,026
217,436	-18,614	-0,194	-0,083
218,450	290,910	-0,133	-0,167
219,465	150,307	-0,203	-0,191
220,480	63,231	-0,257	-0,178
221,494	800,000	-0,074	-0,220
222,509	41,480	-0,224	-0,140
223,523	-26,926	-0,194	-0,078
224,538	166,907	-0,208	-0,204
225,553	-72,183	-0,172	-0,044
226,567	-200,000	-0,054	-0,206
227,582	800,000	-0,161	-0,399
228,596	-47,352	-0,243	-0,081
229,611	-3,940	-0,204	-0,097
230,626	18,851	-0,251	-0,139
231,640	800,000	-0,147	-0,313
232,655	297,681	-0,169	-0,215
233,669	51,640	-0,222	-0,146
234,684	800,000	-0,091	-0,273
235,699	-19,918	-0,135	-0,058
236,713	-4,106	-0,127	-0,061
237,728	214,434	-0,095	-0,104
238,742	142,774	-0,178	-0,164
239,757	-8,388	-0,319	-0,148
240,772	66,938	-0,158	-0,111
241,786	374,466	-0,126	-0,178
242,801	800,000	-0,075	-0,147
243,815	800,000	-0,127	-0,276
244,830	-98,895	-0,308	-0,054
245,844	232,823	-0,140	-0,159
246,859	800,000	-0,091	-0,231
247,874	-13,312	-0,259	-0,116
248,888	58,131	-0,217	-0,147
249,903	790,230	-0,092	-0,175
250,917	33,803	-0,244	-0,146
251,932	80,918	-0,072	-0,053
252,947	168,373	-0,149	-0,147
253,961	20,142	-0,031	-0,017
254,976	-200,000	-0,090	-0,319
255,990	800,000	-0,122	-0,275
257,005	139,854	-0,141	-0,128
258,020	800,000	-0,042	-0,121
259,034	23,435	-0,094	-0,053
260,049	-200,000	-0,045	-0,157
261,063	-140,778	-0,160	-0,011
262,078	130,200	-0,110	-0,097
263,093	57,962	-0,236	-0,159
264,107	23,254	-0,166	-0,093
265,122	-58,156	-0,129	-0,038
266,136	-177,728	-0,282	-0,005
267,151	32,610	-0,157	-0,094
268,166	12,699	-0,183	-0,097
269,180	70,990	-0,209	-0,149
270,195	2,555	-0,159	-0,079
271,209	415,410	-0,092	-0,136
272,224	185,859	-0,138	-0,142
273,239	153,093	-0,208	-0,196
274,253	777,953	-0,118	-0,223
275,268	47,099	-0,263	-0,168
276,282	151,852	-0,169	-0,159
277,297	469,703	-0,110	-0,170
278,312	8,714	-0,120	-0,062
279,326	800,000	-0,079	-0,152
280,341	-28,912	-0,154	-0,061
281,355	-6,792	-0,040	0,019
282,370	18,783	-0,066	0,036
283,384	800,000	-0,056	-0,130
284,399	253,411	-0,259	-0,305
285,414	327,963	-0,079	-0,104
286,428	800,000	-0,066	-0,153
287,443	409,633	-0,087	-0,127
288,457	-24,402	-0,193	-0,079
289,472	166,099	-0,122	-0,119
290,487	-123,174	-0,132	0,014
291,501	99,224	-0,157	-0,125
292,516	67,605	-0,063	-0,044
293,530	266,434	-0,089	-0,107
294,545	123,526	-0,210	-0,181
295,560	-87,239	-0,155	-0,032
296,574	160,598	-0,085	0,081
297,589	697,311	-0,150	-0,272
298,603	371,890	-0,123	-0,172
299,618	70,948	-0,127	-0,090
300,633	63,237	-0,207	-0,142
301,647	-65,388	-0,154	0,042
302,662	44,253	-0,061	-0,038
303,676	22,401	-0,228	-0,128
304,691	-200,000	-0,009	-0,215
305,706	64,162	-0,186	-0,129
306,720	34,970	-0,106	-0,064
307,735	-137,022	-0,090	-0,007
308,749	-200,000	-0,056	-0,201
309,764	-200,000	-0,019	-0,117
310,779	48,279	-0,151	-0,097
311,793	800,000	-0,101	-0,250
312,808	40,409	-0,232	-0,143
313,822	-78,928	-0,228	-0,053
314,837	-56,673	-0,310	-0,094
315,852	-172,126	-0,161	0,003
316,866	197,575	-0,136	-0,142
317,881	16,025	-0,144	-0,078
318,895	31,887	-0,167	-0,098
319,910	236,736	-0,191	-0,217
320,925	-11,060	-0,155	-0,070
321,939	-78,364	-0,140	-0,033
322,954	57,852	-0,125	-0,084
323,968	213,414	-0,104	-0,113
324,983	-46,261	-0,172	-0,058
325,997	381,540	-0,135	-0,190
327,012	-6,451	-0,271	-0,126
328,027	438,425	-0,144	-0,217
329,041	423,782	-0,039	-0,058
330,056	-177,494	-0,041	0,001
331,070	-200,000	-0,038	-0,124
332,085	312,863	-0,102	-0,132
333,100	292,838	-0,061	-0,077
334,114	-129,310	-0,287	-0,027
335,129	-28,240	-0,176	-0,069
336,143	149,496	-0,164	-0,152
337,158	800,000	-0,042	-0,091
338,173	-132,581	-0,209	-0,018
339,187	377,837	-0,087	-0,122
340,202	-200,000	-0,018	-0,077
341,216	-118,561	-0,196	-0,023
342,231	583,013	-0,135	-0,228
343,246	-200,000	-0,051	-0,157
344,260	3,465	-0,141	-0,070
345,275	-119,346	-0,130	-0,015
346,289	-166,744	-0,229	-0,006
347,304	-88,730	-0,179	0,036
348,319	-93,094	-0,137	0,026
349,333	109,657	-0,204	-0,167
350,348	800,000	-0,091	-0,242
351,362	139,751	-0,174	-0,157
352,377	-200,000	-0,013	-0,129
353,392	-86,039	-0,117	0,025
354,406	203,551	-0,077	-0,082
355,421	208,539	1308,262	1400,936
356,435	160,467	1468,187	1401,425
