DTS Sentinel unit serial number:	SN410029Multiplexer serial number:	ORYXHardware model number:	OX2-SRSoftware version number:	ORYX F/W v4,00 Oryx Data Collector v3.7.2.0data status	okinstallation	B3 Nyhavnadifferential loss correction	single-endedforward channel	channel 1reverse channel	N/Adate	2023/12/02time	20:22:30forward acquisition time	300,00reverse acquisition time	0,00gamma	499,1914k internal	0,3201k external	0,3201temperature offset calibration	1,0000default loss term (dB/km)	0,3820temperature slope calibration	1,0000multiplexer offset coefficient	1,0000multiplexer slope coefficient	1,0000fibre end	0,00T internal ref (°C)	13,28T ext. ref 1 (°C)	-1,79T ext. ref 2 (°C)	-1,81length (m)	temperature (°C)	Stokes	anti-Stokes-744,400	800,000	-0,083	-0,203
-743,385	-200,000	0,051	0,187
-742,371	117,129	-0,158	-0,141
-741,356	-200,000	-0,003	0,249
-740,342	800,000	-0,124	-0,271
-739,327	-200,000	0,064	0,250
-738,312	-0,839	-0,327	-0,168
-737,298	-200,000	-0,001	0,295
-736,283	37,549	-0,300	-0,193
-735,269	-200,000	-0,024	0,326
-734,254	190,020	-0,244	-0,267
-733,239	-22,947	-0,181	0,079
-732,225	800,000	-0,089	-0,244
-731,210	96,290	0,173	0,143
-730,196	137,126	0,025	-0,024
-729,181	-200,000	-0,004	-0,096
-728,167	-30,144	-0,126	-0,052
-727,152	-109,453	-0,076	0,012
-726,137	-138,339	-0,051	0,004
-725,123	628,929	-0,047	-0,086
-724,108	252,085	0,108	-0,133
-723,094	120,262	-0,101	-0,091
-722,079	-10,644	0,053	0,026
-721,064	800,000	-0,028	-0,068
-720,050	-167,433	0,029	-0,001
-719,035	-200,000	-0,045	0,172
-718,021	215,013	-0,156	0,180
-717,006	800,000	-0,035	-0,080
-715,991	-21,095	-0,099	-0,044
-714,977	449,371	-0,051	-0,081
-713,962	290,430	0,066	-0,087
-712,948	647,138	-0,051	-0,095
-711,933	11,658	0,048	-0,027
-710,918	-3,365	-0,082	-0,041
-709,904	800,000	-0,080	-0,253
-708,889	410,179	-0,067	-0,104
-707,875	-98,476	-0,149	-0,028
-706,860	800,000	0,053	-0,107
-705,845	-136,604	0,100	-0,008
-704,831	-75,783	-0,078	-0,020
-703,816	100,942	-0,065	0,055
-702,802	31,069	-0,070	-0,043
-701,787	800,000	-0,060	-0,173
-700,772	-106,023	0,161	-0,026
-699,758	48,610	-0,023	-0,016
-698,743	-200,000	0,031	0,133
-697,729	165,998	0,052	-0,053
-696,714	198,017	-0,017	0,019
-695,699	-200,000	-0,038	-0,133
-694,685	800,000	0,036	0,088
-693,670	-200,000	-0,016	-0,223
-692,656	386,469	-0,096	0,145
-691,641	-116,857	-0,075	-0,010
-690,627	373,357	0,028	0,041
-689,612	-200,000	-0,002	-0,043
-688,597	-18,560	0,060	0,027
-687,583	-200,000	0,038	-0,123
-686,568	800,000	0,058	-0,142
-685,554	800,000	-0,040	0,092
-684,539	147,176	0,056	0,054
-683,524	-200,000	0,016	0,058
-682,510	-200,000	0,011	0,079
-681,495	161,004	-0,079	-0,081
-680,481	127,912	0,050	-0,046
-679,466	198,404	0,129	0,143
-678,451	336,524	-0,066	0,093
-677,437	-200,000	0,017	0,123
-676,422	-200,000	0,016	0,156
-675,408	-107,230	-0,087	-0,014
-674,393	-200,000	0,007	-0,055
-673,378	-200,000	0,002	0,021
-672,364	109,588	-0,145	-0,126
-671,349	-200,000	-0,001	-0,131
-670,335	-102,694	-0,130	0,022
-669,320	-123,026	0,027	0,003
-668,305	-106,509	-0,106	-0,017
-667,291	-200,000	-0,001	-0,069
-666,276	240,734	-0,042	-0,050
-665,262	-200,000	0,010	-0,070
-664,247	678,138	0,032	-0,060
-663,232	-200,000	-0,002	-0,084
-662,218	-200,000	-0,005	-0,051
-661,203	-9,496	0,116	0,056
-660,189	-84,921	0,100	-0,023
-659,174	-71,951	-0,137	0,037
-658,159	40,505	0,027	-0,017
-657,145	-48,360	-0,083	-0,029
-656,130	-103,863	-0,075	-0,013
-655,116	213,397	0,090	0,103
-654,101	14,224	0,053	0,030
-653,086	-200,000	-0,017	0,101
-652,072	-200,000	0,009	-0,033
-651,057	73,261	-0,041	-0,031
-650,043	136,332	-0,070	-0,066
-649,028	12,524	-0,049	-0,028
-648,014	-70,220	0,072	-0,020
-646,999	-87,369	-0,127	-0,028
-645,984	-102,861	0,067	0,011
-644,970	800,000	-0,045	0,096
-643,955	-68,824	-0,092	0,026
-642,941	800,000	0,068	-0,163
-641,926	283,408	-0,052	-0,067
-640,911	-3,852	0,068	-0,034
-639,897	254,633	-0,040	0,050
-638,882	800,000	-0,012	0,031
-637,868	29,853	-0,089	0,055
-636,853	245,611	-0,081	-0,099
-635,838	-137,824	-0,039	-0,003
-634,824	800,000	-0,015	-0,038
-633,809	130,831	0,032	-0,030
-632,795	548,554	0,044	0,077
-631,780	26,737	-0,027	-0,016
-630,765	-200,000	-0,013	0,058
-629,751	800,000	-0,032	0,100
-628,736	-200,000	0,015	-0,132
-627,722	-200,000	0,009	0,103
-626,707	-48,220	0,083	0,029
-625,692	103,604	-0,129	-0,109
-624,678	580,404	-0,060	0,107
-623,663	-200,000	-0,009	0,042
-622,649	-103,128	0,075	0,013
-621,634	-200,000	-0,007	-0,072
-620,619	-106,667	0,206	0,033
-619,605	800,000	0,025	0,056
-618,590	-7,066	-0,044	0,021
-617,576	78,373	0,040	0,031
-616,561	-110,273	-0,071	0,011
-615,546	-152,740	0,029	-0,001
-614,532	-200,000	-0,041	-0,274
-613,517	-200,000	-0,040	-0,144
-612,503	8,464	0,038	-0,021
-611,488	-106,713	0,049	-0,008
-610,474	48,008	0,043	-0,029
-609,459	207,523	0,104	-0,118
-608,444	420,146	0,032	0,049
-607,430	789,139	-0,032	0,064
-606,415	-200,000	-0,028	-0,170
-605,401	-95,963	-0,119	-0,023
-604,386	-189,702	0,104	-0,001
-603,371	86,783	0,075	0,060
-602,357	-200,000	-0,034	0,144
-601,342	16,655	-0,057	0,032
-600,328	52,684	-0,065	-0,045
-599,313	800,000	-0,044	-0,114
-598,298	800,000	-0,019	-0,047
-597,284	-200,000	0,005	0,137
-596,269	105,987	0,055	0,047
-595,255	256,562	0,064	-0,079
-594,240	69,404	-0,125	-0,093
-593,225	-200,000	0,015	-0,184
-592,211	-135,952	-0,117	-0,010
-591,196	291,801	0,118	-0,156
-590,182	800,000	0,013	-0,036
-589,167	85,446	-0,015	0,012
-588,152	247,721	0,059	-0,072
-587,138	611,475	0,056	-0,101
-586,123	800,000	0,040	-0,121
-585,109	-65,907	0,125	0,036
-584,094	4,412	-0,068	-0,036
-583,079	4,442	0,090	0,048
-582,065	-64,261	0,141	-0,041
-581,050	-200,000	0,028	0,153
-580,036	-200,000	-0,005	-0,027
-579,021	-200,000	0,018	-0,130
-578,006	-92,312	-0,124	-0,025
-576,992	-200,000	-0,007	0,044
-575,977	-108,624	-0,190	-0,029
-574,963	31,707	0,130	0,081
-573,948	800,000	-0,012	0,026
-572,934	-200,000	-0,007	-0,073
-571,919	-200,000	0,000	-0,004
-570,904	-200,000	0,002	0,111
-569,890	228,114	-0,015	0,018
-568,875	-104,800	0,068	0,011
-567,861	-6,022	-0,045	0,022
-566,846	-164,070	0,113	0,004
-565,831	5,997	0,036	0,019
-564,817	-53,710	0,058	-0,019
-563,802	39,935	-0,048	-0,031
-562,788	269,581	-0,084	-0,106
-561,773	177,115	0,023	0,024
-560,758	196,504	-0,082	0,090
-559,744	-8,564	0,092	0,045
-558,729	157,458	0,070	0,070
-557,715	57,364	-0,060	-0,042
-556,700	706,741	0,017	0,032
-555,685	228,959	-0,025	0,029
-554,671	-29,507	-0,094	-0,039
-553,656	1,520	0,071	0,037
-552,642	288,490	0,079	-0,103
-551,627	-200,000	-0,006	0,033
-550,612	-105,385	-0,084	0,014
-549,598	-200,000	-0,015	-0,060
-548,583	114,854	0,053	-0,047
-547,569	91,852	0,047	-0,038
-546,554	-108,399	-0,164	0,025
-545,539	59,614	0,063	0,045
-544,525	-200,000	0,009	-0,068
-543,510	443,977	-0,033	0,052
-542,496	-200,000	-0,021	0,075
-541,481	275,307	-0,095	0,122
-540,466	142,057	-0,064	-0,061
-539,452	-145,295	0,129	-0,008
-538,437	-200,000	-0,000	0,037
-537,423	800,000	0,015	-0,048
-536,408	-176,449	-0,044	0,001
-535,393	185,896	-0,018	0,019
-534,379	-35,011	-0,102	-0,040
-533,364	-57,117	0,090	0,028
-532,350	-200,000	0,015	0,068
-531,335	100,997	0,040	0,034
-530,321	-200,000	-0,043	0,146
-529,306	594,984	0,084	-0,151
-528,291	800,000	-0,029	-0,079
-527,277	157,127	-0,071	-0,071
-526,262	-7,671	-0,048	0,023
-525,248	194,922	0,031	0,034
-524,233	125,898	0,035	0,032
-523,218	70,970	0,100	-0,074
-522,204	-144,452	-0,125	0,008
-521,189	53,111	-0,077	-0,053
-520,175	-200,000	0,027	-0,113
-519,160	41,783	-0,035	-0,023
-518,145	-13,305	0,136	0,064
-517,131	283,581	0,063	0,081
-516,116	-200,000	-0,001	0,012
-515,102	-74,313	0,069	-0,018
-514,087	-200,000	-0,020	-0,099
-513,072	800,000	-0,045	-0,098
-512,058	-22,725	-0,143	-0,062
-511,043	101,711	-0,010	0,008
-510,029	114,816	-0,055	-0,049
-509,014	800,000	0,033	0,076
-507,999	48,047	0,078	0,052
-506,985	329,185	0,046	-0,063
-505,970	-19,315	-0,072	-0,032
-504,956	800,000	0,019	-0,043
-503,941	800,000	0,041	0,116
-502,926	546,605	0,006	-0,011
-501,912	-96,464	0,092	-0,017
-500,897	98,005	-0,054	-0,045
-499,883	-27,756	-0,069	0,029
-498,868	100,402	-0,059	-0,049
-497,853	-200,000	0,000	-0,104
-496,839	714,394	0,064	-0,123
-495,824	750,998	0,047	0,091
-494,810	61,497	0,018	0,013
-493,795	800,000	-0,015	-0,032
-492,781	157,908	-0,168	0,168
-491,766	11,167	-0,093	0,051
-490,751	-200,000	0,013	0,042
-489,737	-114,930	0,078	-0,011
-488,722	-1,423	-0,047	0,024
-487,708	800,000	0,096	0,204
-486,693	-115,641	0,064	0,009
-485,678	714,747	0,012	0,023
-484,664	-170,810	-0,104	0,003
-483,649	232,216	-0,072	-0,085
-482,635	13,948	-0,065	-0,036
-481,620	148,230	0,038	-0,037
-480,605	-200,000	-0,009	0,115
-479,591	-72,412	-0,057	-0,015
-478,576	-72,062	-0,156	-0,042
-477,562	-200,000	-0,010	-0,061
-476,547	2,259	-0,090	-0,047
-475,532	69,306	-0,119	-0,088
-474,518	-200,000	-0,027	0,100
-473,503	-200,000	0,008	0,112
-472,489	254,162	-0,067	-0,082
-471,474	-200,000	0,003	0,032
-470,459	761,691	-0,075	0,147
-469,445	234,867	0,058	0,069
-468,430	619,242	-0,039	-0,072
-467,416	-200,000	-0,007	0,092
-466,401	-148,084	0,167	-0,010
-465,386	14,675	0,028	-0,016
-464,372	-200,000	0,002	-0,065
-463,357	800,000	-0,047	-0,110
-462,343	-3,766	-0,169	-0,084
-461,328	-200,000	-0,009	-0,090
-460,313	800,000	0,002	-0,007
-459,299	34,006	0,034	-0,021
-458,284	-115,214	-0,060	0,008
-457,270	-200,000	-0,031	-0,130
-456,255	-145,603	0,053	0,003
-455,241	107,461	0,010	-0,009
-454,226	-200,000	0,002	-0,154
-453,211	-187,423	0,075	-0,001
-452,197	31,598	-0,113	0,070
-451,182	529,574	0,082	0,140
-450,168	-121,485	0,072	0,009
-449,153	185,520	-0,087	0,093
-448,138	-200,000	-0,003	0,011
-447,124	351,235	-0,031	0,044
-446,109	125,097	0,030	-0,028
-445,095	375,896	0,099	-0,145
-444,080	800,000	-0,005	-0,012
-443,065	-200,000	-0,000	0,003
-442,051	800,000	0,039	-0,098
-441,036	49,282	-0,097	0,065
-440,022	-68,491	-0,086	0,024
-439,007	800,000	-0,011	-0,029
-437,992	90,148	0,117	0,094
-436,978	-64,538	0,025	0,007
-435,963	101,416	0,125	0,105
-434,949	-137,555	-0,172	-0,014
-433,934	-95,304	-0,119	-0,023
-432,919	-200,000	0,046	-0,159
-431,905	75,427	0,066	0,050
-430,890	-200,000	0,003	0,065
-429,876	227,303	0,118	0,138
-428,861	-200,000	0,014	0,047
-427,846	525,657	-0,008	0,014
-426,832	-159,236	-0,178	-0,007
-425,817	800,000	0,053	-0,152
-424,803	375,120	0,051	-0,075
-423,788	800,000	-0,040	0,082
-422,773	-106,537	0,138	0,022
-421,759	-200,000	0,010	-0,043
-420,744	407,486	0,052	0,079
-419,730	564,263	0,071	-0,125
-418,715	430,576	-0,017	0,026
-417,701	176,152	-0,095	-0,100
-416,686	542,978	-0,056	0,096
-415,671	800,000	-0,054	-0,150
-414,657	316,481	-0,057	0,077
-413,642	-200,000	0,006	0,042
-412,628	-49,989	0,064	-0,022
-411,613	279,226	0,042	-0,055
-410,598	23,817	-0,050	0,030
-409,584	124,823	-0,058	0,053
-408,569	-88,385	0,072	0,015
-407,555	656,386	0,026	-0,048
-406,540	-200,000	0,033	0,219
-405,525	800,000	0,014	-0,032
-404,511	-149,117	-0,077	0,004
-403,496	30,055	-0,141	-0,086
-402,482	800,000	0,035	0,083
-401,467	-11,930	0,124	0,058
-400,452	-200,000	-0,012	0,090
-399,438	-200,000	0,020	0,136
-398,423	-200,000	0,028	0,091
-397,409	-41,976	-0,105	-0,038
-396,394	-44,695	-0,095	0,034
-395,379	512,472	-0,008	-0,013
-394,365	-97,587	-0,053	-0,010
-393,350	9,377	-0,084	0,046
-392,336	-120,573	0,139	0,017
-391,321	-186,855	-0,069	0,001
-390,306	148,742	-0,026	0,025
-389,292	-200,000	-0,010	-0,058
-388,277	611,606	-0,043	-0,078
-387,263	-148,100	0,141	0,008
-386,248	208,862	0,074	0,083
-385,233	12,079	0,034	0,019
-384,219	800,000	0,013	-0,039
-383,204	-59,644	-0,243	0,074
-382,190	-200,000	0,030	0,137
-381,175	545,434	-0,075	-0,130
-380,160	-52,049	0,047	0,016
-379,146	70,153	-0,122	0,090
-378,131	-56,152	0,058	-0,018
-377,117	-200,000	-0,023	0,127
-376,102	800,000	-0,062	-0,138
-375,088	195,367	0,066	0,072
-374,073	-32,981	0,082	-0,033
-373,058	72,330	0,088	0,066
-372,044	62,730	-0,067	0,048
-371,029	96,518	0,060	-0,049
-370,015	-30,942	0,027	0,011
-369,000	-200,000	-0,011	0,047
-367,985	-48,036	-0,169	-0,058
-366,971	190,705	0,081	0,088
-365,956	408,357	-0,076	0,115
-364,942	800,000	-0,022	-0,046
-363,927	357,084	0,050	-0,072
-362,912	-131,893	-0,190	-0,018
-361,898	-40,620	0,064	0,024
-360,883	51,138	-0,067	-0,045
-359,869	76,831	0,112	-0,085
-358,854	800,000	-0,034	-0,104
-357,839	-77,074	-0,079	0,020
-356,825	32,544	0,039	-0,024
-355,810	224,916	0,090	-0,104
-354,796	-200,000	0,011	0,086
-353,781	7,724	-0,101	0,054
-352,766	-200,000	-0,039	-0,152
-351,752	-34,237	0,177	0,069
-350,737	800,000	0,049	0,111
-349,723	76,644	0,069	0,052
-348,708	-168,390	-0,099	-0,003
-347,693	75,410	-0,079	-0,059
-346,679	170,940	0,034	-0,035
-345,664	35,158	-0,130	-0,081
-344,650	-150,187	0,032	0,002
-343,635	-28,049	0,079	0,033
-342,620	-20,307	0,119	0,052
-341,606	800,000	-0,018	0,049
-340,591	13,729	0,084	0,047
-339,577	210,693	-0,109	0,123
-338,562	800,000	-0,003	-0,006
-337,548	-200,000	0,003	0,077
-336,533	65,483	0,058	0,042
-335,518	-72,768	0,103	-0,027
-334,504	-200,000	0,008	0,047
-333,489	800,000	0,019	0,038
-332,475	104,596	0,026	-0,022
-331,460	-80,083	-0,054	-0,013
-330,445	-200,000	-0,002	0,059
-329,431	-99,654	0,127	-0,023
-328,416	195,177	-0,043	-0,046
-327,402	800,000	0,039	0,102
-326,387	-95,115	0,159	-0,030
-325,372	-118,377	-0,121	0,015
-324,358	1,882	0,087	-0,045
-323,343	-200,000	0,035	-0,121
-322,329	-77,469	0,083	0,020
-321,314	38,264	-0,036	0,023
-320,299	-200,000	-0,025	0,157
-319,285	232,458	0,065	0,076
-318,270	800,000	0,034	0,069
-317,256	12,444	-0,154	-0,085
-316,241	-6,109	-0,027	0,013
-315,226	-200,000	-0,051	0,186
-314,212	-146,401	-0,060	0,004
-313,197	-73,875	-0,072	0,019
-312,183	251,589	-0,032	-0,039
-311,168	-101,943	0,147	-0,025
-310,153	384,417	-0,087	-0,128
-309,139	545,227	-0,068	-0,116
-308,124	61,079	0,042	-0,030
-307,110	-200,000	0,020	-0,100
-306,095	187,036	0,091	0,097
-305,080	506,520	-0,032	0,052
-304,066	-29,896	-0,080	0,032
-303,051	800,000	0,024	-0,070
-302,037	293,657	-0,004	0,006
-301,022	69,646	0,057	-0,042
-300,008	-86,285	0,078	-0,017
-298,993	-200,000	0,000	0,029
-297,978	101,060	0,083	-0,069
-296,964	192,986	-0,030	-0,033
-295,949	-200,000	-0,003	-0,080
-294,935	31,205	-0,081	0,050
-293,920	464,381	-0,067	0,108
-292,905	-132,860	0,044	-0,004
-291,891	-105,220	0,098	0,016
-290,876	196,695	-0,040	-0,044
-289,862	-200,000	0,015	0,102
-288,847	333,920	0,038	0,052
-287,832	-48,181	-0,049	-0,017
-286,818	800,000	-0,034	-0,079
-285,803	-200,000	-0,004	0,099
-284,789	-158,928	0,091	-0,004
-283,774	800,000	0,021	0,047
-282,759	-200,000	-0,008	-0,056
-281,745	35,612	-0,046	-0,029
-280,730	248,785	-0,073	-0,088
-279,716	-7,922	0,198	-0,095
-278,701	-14,001	-0,054	-0,025
-277,686	18,870	0,065	-0,037
-276,672	14,445	0,048	-0,027
-275,657	284,423	-0,041	0,052
-274,643	-200,000	0,009	-0,050
-273,628	-53,440	-0,154	0,050
-272,613	-18,565	0,097	-0,043
-271,599	302,997	0,096	0,127
-270,584	-10,710	0,098	-0,046
-269,570	-173,036	0,082	0,002
-268,555	142,575	-0,093	0,088
-267,540	-0,016	0,090	0,046
-266,526	3,646	-0,060	-0,031
-265,511	132,860	0,087	0,080
-264,497	78,286	0,054	-0,041
-263,482	105,851	-0,037	-0,031
-262,467	119,670	0,110	0,097
-261,453	-200,000	0,011	0,080
-260,438	-200,000	-0,004	-0,022
-259,424	638,820	-0,019	-0,035
-258,409	800,000	0,019	-0,041
-257,395	800,000	-0,020	-0,048
-256,380	-76,551	-0,077	-0,019
-255,365	-200,000	-0,017	0,115
-254,351	682,870	0,052	0,097
-253,336	800,000	-0,005	0,010
-252,322	-103,513	-0,147	-0,024
-251,307	-54,358	-0,063	0,020
-250,292	16,188	-0,038	0,021
-249,278	-164,392	0,053	-0,002
-248,263	-200,000	-0,007	-0,075
-247,249	224,942	0,107	0,123
-246,234	76,215	0,211	-0,159
-245,219	800,000	-0,056	-0,174
-244,205	729,606	0,054	-0,104
-243,190	-200,000	-0,013	0,046
-242,176	21,705	-0,059	0,034
-241,161	50,307	0,039	0,026
-240,146	-200,000	-0,001	-0,094
-239,132	800,000	-0,035	0,082
-238,117	90,129	-0,024	0,019
-237,103	474,945	-0,036	-0,059
-236,088	800,000	0,017	-0,041
-235,073	-200,000	0,004	0,104
-234,059	12,903	-0,103	-0,057
-233,044	-163,382	0,038	-0,001
-232,030	367,966	0,030	0,044
-231,015	-200,000	-0,001	-0,032
-230,000	-96,560	-0,167	0,031
-228,986	346,400	0,083	0,116
-227,971	424,537	-0,048	0,074
-226,957	79,843	-0,016	-0,012
-225,942	-93,305	0,154	0,030
-224,927	-109,073	0,078	-0,012
-223,913	-163,117	-0,085	0,003
-222,898	-53,639	-0,159	0,051
-221,884	-58,868	0,053	0,016
-220,869	-113,801	0,060	-0,008
-219,855	-31,558	0,091	0,036
-218,840	-134,225	-0,022	-0,002
-217,825	86,851	0,108	-0,085
-216,811	245,548	-0,025	-0,030
-215,796	-110,671	-0,049	-0,007
-214,782	-200,000	0,003	-0,038
-213,767	-4,414	0,156	-0,077
-212,752	96,388	0,025	0,020
-211,738	62,454	-0,052	-0,037
-210,723	218,592	-0,053	0,060
-209,709	800,000	-0,009	0,022
-208,694	259,769	-0,046	0,057
-207,679	131,714	-0,069	0,063
-206,665	-147,157	-0,136	0,008
-205,650	-137,581	-0,043	0,003
-204,636	52,408	0,072	-0,049
-203,621	52,812	-0,109	-0,074
-202,606	-200,000	-0,024	-0,178
-201,592	284,993	-0,079	-0,101
-200,577	-84,473	-0,094	-0,021
-199,563	-133,935	-0,066	0,006
-198,548	489,528	-0,075	0,122
-197,533	-113,926	0,234	0,032
-196,519	310,115	0,067	0,089
-195,504	92,347	-0,075	0,061
-194,490	346,738	-0,031	-0,043
-193,475	-200,000	0,001	0,064
-192,460	-200,000	-0,005	0,063
-191,446	-55,766	0,147	0,047
-190,431	316,832	0,053	0,072
-189,417	-114,978	-0,145	0,019
-188,402	-200,000	0,020	-0,116
-187,387	-28,551	0,013	0,005
-186,373	-200,000	-0,044	-0,153
-185,358	-200,000	-0,032	-0,115
-184,344	149,205	0,054	-0,052
-183,329	-200,000	-0,006	-0,067
-182,315	-164,594	-0,066	0,002
-181,300	382,836	-0,057	0,084
-180,285	291,857	0,038	0,049
-179,271	-200,000	-0,018	-0,154
-178,256	752,961	-0,075	0,145
-177,242	59,935	0,078	-0,055
-176,227	-195,079	0,149	0,001
-175,212	-200,000	0,026	0,194
-174,198	800,000	0,051	0,104
-173,183	-149,840	-0,147	0,008
-172,169	108,465	-0,032	0,027
-171,154	541,223	0,011	-0,018
-170,139	-73,253	0,086	-0,022
-169,125	634,393	0,073	0,133
-168,110	800,000	0,003	-0,008
-167,096	-61,248	0,063	0,019
-166,081	665,328	-0,007	0,012
-165,066	800,000	-0,038	0,092
-164,052	109,999	-0,033	-0,028
-163,037	71,865	0,122	-0,090
-162,023	800,000	0,021	0,061
-161,008	800,000	0,006	-0,017
-159,993	-63,803	0,163	-0,047
-158,979	149,546	-0,119	-0,115
-157,964	-20,898	-0,032	0,014
-156,950	-75,863	0,136	-0,034
-155,935	-8,229	0,090	-0,043
-154,920	-200,000	0,007	0,096
-153,906	-98,275	-0,113	-0,020
-152,891	-96,225	0,052	-0,010
-151,877	-10,965	-0,054	0,025
-150,862	-200,000	-0,001	-0,072
-149,847	800,000	-0,022	-0,049
-148,833	73,225	0,072	-0,053
-147,818	96,294	-0,008	0,006
-146,804	211,532	-0,093	-0,104
-145,789	163,009	0,077	0,077
-144,775	147,191	-0,053	-0,051
-143,760	-134,919	0,049	-0,004
-142,745	-200,000	-0,016	-0,107
-141,731	211,573	0,056	-0,063
-140,716	-43,936	0,133	0,047
-139,702	80,882	-0,055	-0,042
-138,687	207,578	-0,023	-0,026
-137,672	-162,330	-0,027	-0,001
-136,658	620,851	-0,041	-0,074
-135,643	-200,000	0,006	-0,062
-134,629	101,103	-0,078	0,064
-133,614	59,989	0,040	-0,028
-132,599	-135,682	0,062	-0,005
-131,585	270,228	-0,048	-0,060
-130,570	800,000	-0,018	-0,052
-129,556	400,429	-0,070	-0,104
-128,541	800,000	-0,040	-0,123
-127,526	-12,025	0,057	-0,026
-126,512	403,823	-0,030	0,045
-125,497	684,497	-0,053	0,098
-124,483	-64,207	0,076	0,022
-123,468	531,360	-0,040	0,068
-122,453	800,000	0,037	-0,074
-121,439	-126,300	-0,145	0,015
-120,424	-93,828	-0,032	0,006
-119,410	24,698	0,133	-0,078
-118,395	-84,713	0,117	-0,026
-117,380	-200,000	0,000	-0,001
-116,366	-200,000	0,012	-0,182
-115,351	107,049	-0,068	-0,058
-114,337	-159,992	-0,050	-0,002
-113,322	85,939	-0,093	0,072
-112,307	448,166	0,070	0,109
-111,293	125,063	0,061	-0,054
-110,278	350,061	-0,023	-0,032
-109,264	800,000	0,027	-0,074
-108,249	-122,943	-0,106	0,012
-107,234	6,660	0,019	-0,010
-106,220	800,000	0,026	-0,062
-105,205	344,206	-0,044	0,061
-104,191	268,422	0,051	-0,064
-103,176	-135,688	0,071	-0,006
-102,162	-100,813	-0,165	-0,029
-101,147	61,555	-0,011	-0,008
-100,132	-200,000	0,004	-0,071
-99,118	-7,198	0,106	0,051
-98,103	41,652	0,030	0,019
-97,089	17,864	-0,053	0,030
-96,074	165,267	0,045	0,045
-95,059	151,522	0,041	0,040
-94,045	61,822	-0,073	-0,052
-93,030	253,512	-0,026	-0,031
-92,016	-51,960	-0,123	-0,040
-91,001	800,000	-0,056	-0,164
-89,986	138,392	-0,039	-0,037
-88,972	279,007	-0,048	0,061
-87,957	-200,000	-0,033	0,121
-86,943	182,062	-0,181	0,189
-85,928	-154,240	-0,059	-0,003
-84,913	337,117	0,057	0,078
-83,899	532,274	0,011	-0,018
-82,884	-200,000	0,013	0,054
-81,870	-107,490	0,149	-0,023
-80,855	-41,618	-0,035	-0,013
-79,840	-111,409	0,015	0,002
-78,826	125,892	0,025	-0,023
-77,811	46,218	0,039	-0,025
-76,797	427,662	-0,026	0,040
-75,782	-200,000	0,000	-0,024
-74,767	800,000	-0,061	-0,176
-73,753	709,385	0,049	0,092
-72,738	800,000	0,021	0,042
-71,724	50,715	-0,059	0,039
-70,709	-26,024	0,059	0,025
-69,694	-200,000	0,011	-0,042
-68,680	-82,336	-0,101	-0,023
-67,665	-187,292	-0,087	-0,001
-66,651	146,255	-0,058	-0,055
-65,636	-65,052	-0,150	0,043
-64,622	-200,000	0,011	0,089
-63,607	-200,000	-0,000	-0,001
-62,592	165,740	0,027	-0,027
-61,578	-17,898	0,116	0,051
-60,563	-200,000	-0,009	0,050
-59,549	-200,000	-0,026	0,098
-58,534	-12,677	-1,635	-0,752
-57,519	406,339	-1,411	-2,116
-56,505	-200,000	-0,461	-4,521
-55,490	213,041	0,843	0,944
-54,476	800,000	4,833	11,473
-53,461	-200,000	19,206	320,762
-52,446	-200,000	741,420	2335,166
-51,432	572,658	1655,864	2868,621
-50,417	78,189	1671,078	1261,505
-49,403	21,276	1543,911	885,564
-48,388	15,158	1466,446	811,373
-47,373	17,962	1456,797	819,560
-46,359	16,683	1446,438	807,563
-45,344	13,424	1441,867	789,368
-44,330	13,297	1440,122	787,772
-43,315	13,350	1438,189	786,937
-42,300	13,322	1436,570	785,884
-41,286	13,367	1435,320	785,386
-40,271	13,308	1434,057	784,383
-39,257	13,316	1432,662	783,627
-38,242	13,380	1431,353	783,182
-37,227	13,372	1430,258	782,516
-36,213	13,383	1428,826	781,752
-35,198	13,397	1427,630	781,136
-34,184	13,420	1426,796	780,755
-33,169	13,343	1425,581	779,694
-32,154	13,398	1424,267	779,204
-31,140	13,403	1423,138	778,579
-30,125	13,438	1421,908	778,041
-29,111	13,387	1420,834	777,184
-28,096	13,393	1419,701	776,562
-27,082	13,360	1418,714	775,832
-26,067	13,307	1417,447	774,862
-25,052	13,287	1416,525	774,230
-24,038	13,343	1415,419	773,861
-23,023	13,261	1414,610	773,001
-22,009	13,290	1413,511	772,506
-20,994	13,228	1412,834	771,812
-19,979	13,270	1411,737	771,380
-18,965	13,262	1410,789	770,796
-17,950	13,229	1410,026	770,191
-16,936	13,224	1408,946	769,549
-15,921	13,217	1407,813	768,868
-14,906	13,254	1406,757	768,433
-13,892	13,213	1405,851	767,715
-12,877	13,187	1405,193	767,207
-11,863	13,211	1404,149	766,716
-10,848	13,212	1403,256	766,202
-9,833	13,206	1402,398	765,678
-8,819	13,130	1401,623	764,868
-7,804	13,141	1400,628	764,347
-6,790	13,100	1399,700	763,618
-5,775	13,142	1398,424	763,088
-4,760	13,167	1397,535	762,688
-3,746	13,085	1396,730	761,839
-2,731	13,091	1396,046	761,464
-1,717	13,100	1394,923	760,863
-0,702	13,067	1393,259	759,771
0,313	16,938	1310,056	732,327
1,327	33,157	703,519	430,749
2,342	50,949	123,241	82,512
3,356	-0,284	16,739	8,392
4,371	6,012	3,343	1,746
5,386	23,945	0,554	0,322
6,400	800,000	0,088	0,246
7,415	109,970	-0,246	-0,209
8,429	95,790	-0,322	-0,260
9,444	199,314	-0,179	-0,194
10,459	98,366	-0,275	-0,224
11,473	196,289	-0,197	-0,213
12,488	-31,630	-0,283	-0,112
13,502	18,453	-0,202	-0,114
14,517	106,158	-0,266	-0,223
15,531	82,362	-0,382	-0,293
16,546	-21,765	-0,411	-0,176
17,561	120,878	-0,482	-0,424
18,575	-39,102	-0,319	-0,118
19,590	291,963	-0,126	-0,163
20,604	-161,298	-0,294	-0,011
21,619	101,431	-0,251	-0,207
22,634	127,867	-0,432	-0,388
23,648	147,984	-0,382	-0,364
24,663	17,202	-0,382	-0,213
25,677	132,000	-0,317	-0,288
26,692	146,786	-0,351	-0,333
27,707	58,327	-0,338	-0,234
28,721	-28,477	-0,488	-0,198
29,736	20,393	-0,407	-0,232
30,750	800,000	-0,236	-0,480
31,765	81,060	-0,386	-0,294
32,780	144,950	-0,356	-0,336
33,794	184,267	-0,247	-0,259
34,809	56,272	-0,390	-0,267
35,823	187,002	-0,273	-0,288
36,838	32,448	-0,362	-0,220
37,853	213,202	-0,362	-0,404
38,867	-37,620	-0,461	-0,172
39,882	-20,597	-0,365	-0,158
40,896	361,272	-0,225	-0,320
41,911	21,028	-0,303	-0,173
42,926	81,814	-0,278	-0,212
43,940	223,064	-0,256	-0,292
44,955	-64,167	-0,477	-0,136
45,969	800,000	-0,090	-0,265
46,984	90,637	-0,290	-0,229
47,999	74,594	-0,348	-0,258
49,013	78,751	-0,320	-0,241
50,028	52,938	-0,381	-0,256
51,042	55,998	-0,368	-0,251
52,057	63,055	-0,388	-0,273
53,071	122,833	-0,425	-0,375
54,086	176,005	-0,214	-0,219
55,101	87,269	-0,328	-0,255
56,115	-99,225	-0,358	-0,063
57,130	99,466	-0,370	-0,302
58,144	49,801	-0,329	-0,218
59,159	85,159	-0,448	-0,346
60,174	-41,164	-0,354	-0,128
61,188	-30,701	-0,300	-0,119
62,203	304,971	-0,114	-0,150
63,217	106,036	-0,287	-0,239
64,232	315,329	-0,127	-0,169
65,247	149,985	-0,245	-0,234
66,261	104,008	-0,335	-0,277
67,276	111,353	-0,299	-0,254
68,290	33,995	-0,174	-0,106
69,305	231,578	-0,231	-0,267
70,320	-20,470	-0,249	-0,107
71,334	129,794	-0,252	-0,227
72,349	60,826	-0,267	-0,186
73,363	112,100	-0,251	-0,213
74,378	58,574	-0,302	-0,208
75,393	-69,279	-0,281	-0,075
76,407	84,289	-0,153	-0,118
77,422	-100,946	-0,263	-0,045
78,436	-7,430	-0,311	-0,147
79,451	-15,207	-0,374	-0,168
80,466	201,618	-0,296	-0,321
81,480	152,541	-0,338	-0,325
82,495	64,097	-0,320	-0,226
83,509	9,927	-0,301	-0,160
84,524	17,010	-0,340	-0,189
85,539	5,778	-0,289	-0,149
86,553	259,272	-0,210	-0,255
87,568	102,362	-0,336	-0,276
88,582	175,122	-0,311	-0,317
89,597	186,182	-0,150	-0,157
90,611	-138,797	-0,225	-0,017
91,626	-13,337	-0,352	-0,160
92,641	48,293	-0,223	-0,146
93,655	-38,733	-0,263	-0,097
94,670	40,442	-0,293	-0,185
95,684	537,257	-0,180	-0,302
96,699	20,319	-0,274	-0,155
97,714	-61,162	-0,204	-0,060
98,728	44,356	-0,185	-0,119
99,743	-38,493	-0,333	-0,123
100,757	8,663	-0,299	-0,158
101,772	125,794	-0,368	-0,326
102,787	0,941	-0,410	-0,205
103,801	211,288	-0,239	-0,265
104,816	15,251	-0,276	-0,151
105,830	23,428	-0,251	-0,145
106,845	777,882	-0,144	-0,277
107,860	35,034	-0,256	-0,157
108,874	-4,196	-0,231	-0,112
109,889	34,618	-0,367	-0,224
110,903	51,687	-0,296	-0,197
111,918	800,000	-0,102	-0,299
112,933	73,509	-0,241	-0,177
113,947	288,842	-0,189	-0,240
114,962	39,962	-0,361	-0,226
115,976	78,333	-0,198	-0,148
116,991	-71,755	-0,309	-0,080
118,006	-32,536	-0,337	-0,131
119,020	111,862	-0,203	-0,172
120,035	39,277	-0,137	-0,086
121,049	690,535	-0,144	-0,265
122,064	239,739	-0,197	-0,230
123,079	23,995	-0,270	-0,155
124,093	119,575	-0,449	-0,390
125,108	-158,866	-0,277	-0,011
126,122	127,266	-0,331	-0,294
127,137	277,138	-0,164	-0,205
128,151	6,359	-0,236	-0,122
129,166	61,682	-0,167	-0,116
130,181	40,256	-0,262	-0,164
131,195	-85,287	-0,302	-0,065
132,210	112,928	-0,233	-0,197
133,224	346,653	-0,241	-0,332
134,239	-200,000	-0,036	-0,225
135,254	29,706	-0,245	-0,146
136,268	278,893	-0,207	-0,259
137,283	-15,617	-0,321	-0,143
138,297	21,732	-0,380	-0,216
139,312	5,490	-0,254	-0,131
140,327	220,089	-0,192	-0,215
141,341	-4,581	-0,183	-0,088
142,356	-200,000	-0,293	0,000
143,370	111,497	-0,178	-0,150
144,385	6,027	-0,290	-0,150
145,400	-0,581	-0,192	-0,095
146,414	-28,245	-0,242	-0,097
147,429	28,674	-0,227	-0,134
148,443	-7,550	-0,364	-0,171
149,458	78,838	-0,177	-0,132
150,473	99,284	-0,190	-0,153
151,487	104,620	-0,249	-0,205
152,502	-52,193	-0,318	-0,102
153,516	289,851	-0,275	-0,350
154,531	-5,964	-0,297	-0,142
155,546	500,077	-0,250	-0,403
156,560	164,169	-0,160	-0,158
157,575	-120,999	-0,240	-0,028
158,589	123,927	-0,108	-0,094
159,604	408,469	-0,172	-0,255
160,619	800,000	-0,136	-0,276
161,633	44,068	-0,245	-0,156
162,648	412,962	-0,145	-0,216
163,662	-47,834	-0,245	-0,082
164,677	37,305	-0,251	-0,155
165,692	86,344	-0,221	-0,169
166,706	16,120	-0,279	-0,153
167,721	-175,651	-0,167	0,003
168,735	55,500	-0,198	-0,133
169,750	136,309	-0,139	-0,126
170,764	-29,100	-0,189	-0,075
171,779	91,175	-0,143	-0,112
172,794	178,004	-0,215	-0,219
173,808	37,903	-0,135	-0,083
174,823	166,507	-0,242	-0,239
175,837	424,655	-0,183	-0,275
176,852	759,563	-0,129	-0,246
177,867	-32,075	-0,316	-0,123
178,881	254,725	-0,192	-0,230
179,896	-47,849	-0,205	-0,069
180,910	76,203	-0,151	-0,111
181,925	98,446	-0,257	-0,206
182,940	248,405	-0,203	-0,240
183,954	354,071	-0,144	-0,200
184,969	470,613	-0,175	-0,274
185,983	349,486	-0,110	-0,152
186,998	-70,997	-0,201	-0,052
188,013	-101,629	-0,440	-0,074
189,027	88,217	-0,187	-0,145
190,042	-92,053	-0,195	-0,038
191,056	29,956	-0,234	-0,138
192,071	-0,796	-0,274	-0,134
193,086	800,000	-0,088	-0,266
194,100	105,963	-0,201	-0,166
195,115	-58,647	-0,222	-0,067
196,129	197,819	-0,308	-0,328
197,144	485,321	-0,220	-0,350
198,159	67,920	-0,291	-0,206
199,173	218,648	-0,209	-0,232
200,188	146,253	-0,194	-0,182
201,202	-31,220	-0,202	0,079
202,217	-122,106	-0,209	-0,024
203,232	-29,411	-0,226	-0,089
204,246	82,726	-0,276	-0,208
205,261	366,564	-0,145	-0,204
206,275	-68,113	-0,312	-0,084
207,290	-35,645	-0,194	-0,073
208,304	-88,172	-0,116	-0,024
209,319	12,648	-0,169	-0,090
210,334	-8,570	-0,175	-0,081
211,348	219,082	-0,161	-0,179
212,363	7,572	-0,266	-0,138
213,377	557,718	-0,155	-0,261
214,392	800,000	-0,117	-0,295
215,407	2,557	-0,180	-0,090
216,421	-125,817	-0,143	-0,015
217,436	-10,019	-0,250	-0,115
218,450	-96,024	-0,102	0,019
219,465	184,015	-0,263	-0,270
220,480	14,132	-0,208	-0,112
221,494	-200,000	-0,041	-0,202
222,509	272,328	-0,111	-0,136
223,523	-22,340	-0,226	-0,095
224,538	-74,173	-0,302	-0,075
225,553	175,975	-0,196	-0,198
226,567	89,042	-0,192	-0,148
227,582	14,685	-0,153	-0,083
228,596	-62,871	-0,241	-0,069
229,611	67,272	-0,158	-0,111
230,626	50,227	-0,148	-0,097
231,640	-110,069	-0,275	-0,039
232,655	715,356	-0,162	-0,300
233,669	150,968	-0,282	-0,266
234,684	189,304	-0,186	-0,193
235,699	-16,248	-0,173	-0,076
236,713	-8,113	-0,258	-0,120
237,728	9,330	-0,108	-0,056
238,742	-19,500	-0,220	-0,094
239,757	-107,922	-0,255	-0,038
240,772	2,024	-0,186	-0,093
241,786	800,000	-0,128	-0,261
242,801	216,066	-0,152	-0,167
243,815	-200,000	-0,020	-0,156
244,830	-89,500	-0,196	-0,040
245,844	133,546	-0,198	-0,177
246,859	213,462	-0,172	-0,188
247,874	-35,664	-0,245	-0,092
248,888	41,812	-0,306	-0,192
249,903	152,647	-0,172	-0,163
250,917	136,330	-0,196	-0,177
251,932	-40,512	-0,234	-0,084
252,947	-154,522	-0,196	-0,009
253,961	132,405	-0,233	-0,208
254,976	18,696	-0,215	-0,119
255,990	-96,594	-0,318	-0,057
257,005	49,903	-0,280	-0,183
258,020	134,476	-0,216	-0,194
259,034	-108,507	-0,207	-0,031
260,049	51,599	-0,244	-0,160
261,063	-32,586	-0,171	-0,066
262,078	72,085	-0,149	-0,107
263,093	293,057	-0,192	-0,243
264,107	-51,462	-0,340	-0,109
265,122	-93,375	-0,113	0,021
266,136	108,875	-0,104	-0,086
267,151	492,371	-0,089	-0,141
268,166	386,955	-0,075	-0,108
269,180	47,624	-0,179	-0,115
270,195	764,037	-0,122	-0,229
271,209	-74,050	-0,260	-0,065
272,224	15,028	-0,182	-0,098
273,239	-200,000	-0,047	-0,185
274,253	-162,663	-0,126	-0,004
275,268	425,508	-0,084	-0,125
276,282	69,096	-0,063	-0,044
277,297	176,053	-0,186	-0,186
278,312	369,154	-0,161	-0,226
279,326	800,000	-0,096	-0,224
280,341	644,050	-0,104	-0,185
281,355	-86,620	-0,294	-0,062
282,370	667,486	-0,102	-0,182
283,384	381,730	-0,127	-0,180
284,399	64,937	-0,157	-0,109
285,414	-13,011	-0,179	-0,080
286,428	328,161	-0,098	-0,130
287,443	114,968	-0,112	-0,094
288,457	-71,281	-0,078	-0,020
289,472	78,261	-0,170	-0,125
290,487	-6,113	-0,056	-0,026
291,501	306,388	-0,091	-0,117
292,516	144,691	-0,137	-0,127
293,530	-56,871	-0,195	-0,059
294,545	-200,000	0,002	0,029
295,560	-18,706	-0,213	-0,091
296,574	-79,800	-0,155	-0,036
297,589	168,736	-0,121	-0,119
298,603	800,000	-0,129	-0,259
299,618	800,000	-0,101	-0,234
300,633	41,048	-0,141	-0,088
301,647	335,259	-0,048	0,064
302,662	81,845	-0,138	-0,103
303,676	-109,083	0,020	-0,003
304,691	-11,876	-0,185	-0,083
305,706	255,583	-0,117	-0,138
306,720	722,034	-0,133	-0,245
307,735	451,606	-0,113	-0,172
308,749	53,104	-0,101	-0,067
309,764	24,035	-0,149	-0,084
310,779	309,038	-0,199	-0,256
311,793	-79,721	-0,208	-0,048
312,808	227,376	-0,104	-0,117
313,822	-61,934	-0,140	-0,040
314,837	-157,460	-0,082	-0,003
315,852	80,333	-0,155	-0,115
316,866	-101,184	-0,156	-0,026
317,881	-200,000	-0,011	-0,169
318,895	140,534	-0,148	-0,135
319,910	-52,022	-0,231	-0,073
320,925	315,333	-0,093	-0,120
321,939	402,808	-0,097	-0,140
322,954	37,969	-0,134	-0,082
323,968	-72,578	-0,070	-0,018
324,983	-200,000	-0,001	0,027
325,997	221,714	-0,056	-0,062
327,012	244,422	-0,147	-0,170
328,027	210,771	-0,185	-0,200
329,041	-41,871	-0,127	-0,044
330,056	389,894	-0,074	-0,106
331,070	379,819	-0,121	-0,172
332,085	299,535	-0,122	-0,155
333,100	-107,386	-0,144	-0,022
334,114	-200,000	-0,054	-0,230
335,129	201,825	-0,087	-0,093
336,143	16,368	-0,073	0,039
337,158	800,000	-0,082	-0,159
338,173	800,000	0,005	-0,011
339,187	218,585	-0,121	-0,133
340,202	-71,648	-0,051	0,013
341,216	179,384	-0,118	-0,119
342,231	273,964	-0,141	-0,171
343,246	92,605	-0,088	-0,068
344,260	800,000	-0,091	-0,262
345,275	240,917	-0,040	-0,046
346,289	151,653	-0,072	-0,067
347,304	-200,000	0,011	-0,069
348,319	-104,233	-0,173	-0,027
349,333	-107,709	-0,224	-0,033
350,348	61,737	-0,152	-0,104
351,362	511,496	-0,044	-0,070
352,377	74,559	-0,130	-0,094
353,392	-115,665	-0,078	-0,010
354,406	180,047	-0,114	-0,114
355,421	209,400	1313,260	1413,429
356,435	161,158	1473,815	1413,915
