DTS Sentinel unit serial number:	SN410029Multiplexer serial number:	ORYXHardware model number:	OX2-SRSoftware version number:	ORYX F/W v4,00 Oryx Data Collector v3.7.2.0data status	okinstallation	B3 Nyhavnadifferential loss correction	single-endedforward channel	channel 1reverse channel	N/Adate	2023/12/01time	10:27:30forward acquisition time	300,00reverse acquisition time	0,00gamma	499,1914k internal	0,3213k external	0,3213temperature offset calibration	1,0000default loss term (dB/km)	0,3820temperature slope calibration	1,0000multiplexer offset coefficient	1,0000multiplexer slope coefficient	1,0000fibre end	0,00T internal ref (°C)	8,06T ext. ref 1 (°C)	-6,26T ext. ref 2 (°C)	-6,36length (m)	temperature (°C)	Stokes	anti-Stokes-744,400	235,842	-0,149	-0,178
-743,385	-200,000	0,078	0,280
-742,371	300,832	-0,148	-0,198
-741,356	-200,000	-0,025	0,342
-740,342	33,673	-0,194	-0,122
-739,327	-200,000	-0,062	0,291
-738,312	46,702	-0,190	-0,128
-737,298	800,000	-0,115	0,309
-736,283	108,545	-0,189	-0,163
-735,269	-200,000	0,043	0,186
-734,254	800,000	-0,103	-0,285
-733,239	-69,646	-0,308	-0,085
-732,225	529,634	-0,115	-0,198
-731,210	197,066	0,155	0,171
-730,196	-58,980	-0,056	0,018
-729,181	615,288	0,044	-0,080
-728,167	-117,762	-0,062	0,008
-727,152	-80,966	0,082	0,020
-726,137	230,500	-0,089	-0,106
-725,123	-200,000	0,001	-0,133
-724,108	-137,425	0,096	-0,008
-723,094	-128,263	-0,072	-0,007
-722,079	16,514	0,193	-0,110
-721,064	-76,257	0,038	0,010
-720,050	244,211	-0,083	0,101
-719,035	395,883	-0,033	0,050
-718,021	-200,000	-0,011	0,111
-717,006	-200,000	0,003	0,094
-715,991	-200,000	0,006	-0,122
-714,977	130,435	0,029	0,027
-713,962	145,327	0,059	-0,057
-712,948	-23,098	0,204	0,089
-711,933	-37,491	-0,234	-0,090
-710,918	109,134	0,073	-0,064
-709,904	-200,000	0,018	-0,241
-708,889	-139,558	-0,136	0,010
-707,875	-200,000	0,011	0,040
-706,860	-200,000	0,009	0,039
-705,845	257,167	-0,039	-0,048
-704,831	156,372	0,021	0,021
-703,816	-102,097	-0,117	0,020
-702,802	-200,000	0,020	-0,091
-701,787	800,000	-0,012	0,035
-700,772	-200,000	-0,009	0,038
-699,758	800,000	0,015	0,043
-698,743	245,670	0,034	0,041
-697,729	-99,288	-0,032	0,006
-696,714	-200,000	-0,002	0,073
-695,699	35,144	-0,066	0,042
-694,685	104,910	-0,059	-0,050
-693,670	-75,598	0,173	-0,044
-692,656	279,511	-0,045	-0,059
-691,641	-110,663	0,120	0,018
-690,627	-200,000	0,020	0,067
-689,612	800,000	-0,025	-0,058
-688,597	128,923	-0,060	-0,055
-687,583	432,052	-0,047	-0,073
-686,568	-200,000	-0,004	0,019
-685,554	-28,962	0,021	-0,009
-684,539	-28,093	-0,151	0,063
-683,524	86,405	-0,083	0,066
-682,510	-138,478	-0,042	-0,003
-681,495	134,067	0,051	0,048
-680,481	-200,000	-0,005	-0,084
-679,466	-200,000	-0,032	-0,193
-678,451	-11,517	-0,076	-0,036
-677,437	-173,759	-0,028	-0,001
-676,422	39,405	-0,009	-0,006
-675,408	522,506	0,048	0,081
-674,393	114,951	-0,068	0,060
-673,378	292,293	-0,032	-0,042
-672,364	800,000	-0,053	-0,141
-671,349	31,638	-0,098	-0,061
-670,335	430,237	0,024	-0,038
-669,320	800,000	0,008	0,018
-668,305	29,320	-0,104	-0,064
-667,291	-1,956	-0,081	0,041
-666,276	-91,026	0,173	0,036
-665,262	68,714	-0,089	0,066
-664,247	649,628	-0,038	-0,070
-663,232	-81,519	0,112	-0,026
-662,218	53,972	-0,107	0,074
-661,203	459,546	0,044	-0,072
-660,189	500,959	0,055	0,093
-659,174	388,572	-0,024	0,035
-658,159	170,560	0,027	-0,028
-657,145	-3,741	0,108	0,054
-656,130	800,000	-0,016	-0,041
-655,116	149,256	0,057	0,056
-654,101	800,000	-0,051	0,119
-653,086	788,042	0,051	-0,102
-652,072	181,423	-0,062	-0,066
-651,057	-46,696	-0,167	-0,059
-650,043	194,307	-0,049	0,054
-649,028	109,471	-0,036	-0,031
-648,014	55,806	0,084	0,059
-646,999	800,000	0,041	0,113
-645,984	800,000	0,026	0,072
-644,970	-200,000	-0,002	-0,083
-643,955	114,600	-0,124	0,109
-642,941	330,338	0,028	0,039
-641,926	-200,000	-0,025	-0,086
-640,911	-122,576	0,115	-0,013
-639,897	213,282	-0,082	0,093
-638,882	330,640	0,112	0,156
-637,868	-200,000	0,002	-0,065
-636,853	-15,029	0,033	-0,015
-635,838	800,000	0,052	-0,143
-634,824	800,000	-0,011	0,024
-633,809	-200,000	-0,002	0,014
-632,795	151,836	0,107	0,105
-631,780	-25,437	0,104	0,044
-630,765	50,646	-0,188	-0,128
-629,751	-200,000	0,003	-0,064
-628,736	-51,266	-0,193	-0,065
-627,722	412,449	-0,060	0,092
-626,707	126,613	0,103	0,094
-625,692	-200,000	0,019	0,081
-624,678	800,000	0,064	0,168
-623,663	-200,000	0,016	0,055
-622,649	-45,901	-0,035	-0,012
-621,634	31,354	-0,097	0,060
-620,619	-51,663	-0,027	0,009
-619,605	265,149	0,065	0,082
-618,590	-3,497	0,160	-0,080
-617,576	-200,000	-0,022	-0,115
-616,561	194,088	-0,042	0,046
-615,546	-91,985	-0,054	-0,011
-614,532	42,583	0,055	-0,036
-613,517	70,864	-0,121	-0,091
-612,503	126,510	-0,016	0,015
-611,488	446,753	-0,068	-0,108
-610,474	-91,820	0,138	0,028
-609,459	-200,000	-0,025	0,207
-608,444	449,271	-0,075	-0,119
-607,430	-200,000	-0,016	-0,097
-606,415	536,684	-0,057	-0,098
-605,401	800,000	0,041	-0,107
-604,386	-200,000	-0,011	0,040
-603,371	13,912	0,082	0,046
-602,357	800,000	-0,011	0,025
-601,342	95,329	0,081	0,066
-600,328	34,093	-0,089	0,056
-599,313	800,000	0,052	-0,146
-598,298	71,607	0,158	-0,118
-597,284	800,000	-0,021	-0,058
-596,269	291,587	-0,062	0,082
-595,255	635,608	-0,029	0,053
-594,240	800,000	-0,047	0,116
-593,225	596,991	0,028	-0,050
-592,211	-42,036	-0,138	-0,050
-591,196	-141,074	-0,136	-0,010
-590,182	-200,000	-0,039	0,163
-589,167	-200,000	0,020	-0,084
-588,152	-9,823	-0,057	-0,027
-587,138	90,134	-0,113	-0,091
-586,123	45,254	-0,066	-0,044
-585,109	552,546	-0,043	-0,075
-584,094	168,821	-0,082	-0,084
-583,079	-200,000	-0,003	0,123
-582,065	-200,000	-0,007	0,058
-581,050	-200,000	0,004	0,038
-580,036	-200,000	-0,003	0,015
-579,021	-159,371	-0,053	0,002
-578,006	-200,000	-0,003	-0,117
-576,992	800,000	0,018	-0,037
-575,977	385,446	0,064	-0,096
-574,963	-200,000	-0,002	0,054
-573,948	-91,141	0,089	0,018
-572,934	72,020	-0,106	-0,080
-571,919	-168,418	-0,158	0,004
-570,904	-200,000	0,025	-0,096
-569,890	91,819	-0,124	-0,100
-568,875	309,664	-0,040	0,054
-567,861	384,511	0,037	0,056
-566,846	20,101	0,049	-0,028
-565,831	173,829	-0,097	0,101
-564,817	-200,000	0,010	0,082
-563,802	800,000	-0,036	0,092
-562,788	532,892	-0,035	0,060
-561,773	800,000	0,043	-0,099
-560,758	68,297	-0,086	-0,063
-559,744	-200,000	-0,017	0,070
-558,729	135,444	0,092	-0,086
-557,715	145,366	0,047	-0,045
-556,700	515,282	-0,032	-0,053
-555,685	-20,406	-0,014	0,006
-554,671	-166,543	-0,097	-0,003
-553,656	-200,000	0,018	0,097
-552,642	800,000	0,024	-0,051
-551,627	-200,000	0,005	0,021
-550,612	162,216	-0,064	-0,065
-549,598	467,082	-0,080	0,129
-548,583	-200,000	-0,003	-0,086
-547,569	-160,511	0,081	0,003
-546,554	318,748	-0,084	0,115
-545,539	-200,000	0,032	0,136
-544,525	-200,000	-0,005	0,207
-543,510	800,000	0,046	-0,121
-542,496	138,732	0,047	-0,045
-541,481	68,278	-0,101	-0,074
-540,466	16,670	-0,051	-0,029
-539,452	-117,151	0,091	0,012
-538,437	-41,196	0,072	0,027
-537,423	-87,868	0,031	0,007
-536,408	-1,521	-0,095	0,048
-535,393	206,805	-0,039	-0,044
-534,379	41,127	-0,078	-0,050
-533,364	-51,314	0,084	-0,028
-532,350	800,000	0,060	-0,136
-531,335	93,088	0,057	0,046
-530,321	82,770	-0,025	0,020
-529,306	10,901	-0,039	0,021
-528,291	-200,000	-0,024	0,089
-527,277	-138,956	0,084	-0,006
-526,262	-188,380	-0,118	0,001
-525,248	-137,116	0,157	0,013
-524,233	406,669	-0,082	0,125
-523,218	62,231	0,153	0,110
-522,204	420,387	-0,052	-0,080
-521,189	-8,310	-0,110	-0,053
-520,175	-200,000	-0,026	-0,109
-519,160	-125,850	-0,126	-0,013
-518,145	151,419	0,051	0,050
-517,131	336,742	-0,057	0,079
-516,116	283,649	0,101	-0,131
-515,102	57,061	0,094	0,066
-514,087	190,258	0,058	0,063
-513,072	636,117	-0,057	-0,105
-512,058	-200,000	0,022	-0,174
-511,043	149,858	-0,100	-0,098
-510,029	-137,058	0,037	0,003
-509,014	-44,361	-0,111	0,040
-507,999	472,780	0,031	0,050
-506,985	-104,366	0,154	0,025
-505,970	-11,371	-0,045	-0,021
-504,956	734,425	0,088	-0,169
-503,941	-81,724	0,072	-0,017
-502,926	800,000	0,020	-0,048
-501,912	-200,000	0,005	-0,072
-500,897	800,000	-0,045	0,114
-499,883	31,405	0,072	0,044
-498,868	-27,770	0,102	0,042
-497,853	155,087	-0,103	-0,102
-496,839	-17,539	-0,085	0,038
-495,824	48,874	0,075	-0,051
-494,810	-107,390	0,057	-0,009
-493,795	800,000	0,016	0,048
-492,781	146,792	-0,072	0,069
-491,766	227,746	0,113	-0,133
-490,751	284,794	-0,061	-0,079
-489,737	234,384	0,026	-0,030
-488,722	800,000	-0,077	-0,154
-487,708	-174,107	-0,066	0,001
-486,693	-200,000	0,022	0,090
-485,678	-200,000	0,029	-0,120
-484,664	-74,277	0,132	-0,034
-483,649	-200,000	-0,037	-0,130
-482,635	178,806	0,040	-0,042
-481,620	-66,264	0,162	-0,046
-480,605	-200,000	0,002	0,031
-479,591	-200,000	0,025	0,122
-478,576	107,868	-0,059	-0,051
-477,562	23,313	-0,100	-0,059
-476,547	39,652	-0,037	-0,024
-475,532	165,226	-0,010	0,011
-474,518	-200,000	-0,047	-0,163
-473,503	9,472	0,102	-0,055
-472,489	56,278	0,014	-0,010
-471,474	-200,000	-0,001	0,091
-470,459	196,168	0,106	-0,116
-469,445	-14,972	-0,035	-0,016
-468,430	-60,196	-0,093	-0,028
-467,416	68,455	0,027	0,020
-466,401	-104,498	0,097	0,016
-465,386	-98,328	0,052	-0,010
-464,372	107,526	-0,058	0,050
-463,357	243,125	-0,052	-0,063
-462,343	-99,034	0,103	-0,019
-461,328	702,894	0,022	-0,042
-460,313	-13,354	0,044	0,021
-459,299	98,124	0,081	-0,067
-458,284	344,282	-0,050	-0,070
-457,270	-15,067	-0,088	0,040
-456,255	-200,000	-0,014	0,086
-455,241	800,000	0,029	-0,060
-454,226	-120,786	-0,160	-0,019
-453,211	800,000	0,087	-0,225
-452,197	432,687	-0,012	-0,018
-451,182	402,995	0,051	0,077
-450,168	800,000	-0,009	-0,020
-449,153	-200,000	-0,005	-0,023
-448,138	-14,953	-0,148	0,068
-447,124	283,945	-0,052	-0,067
-446,109	59,521	-0,074	-0,052
-445,095	-14,571	-0,099	0,046
-444,080	-74,283	0,186	0,048
-443,065	-9,315	0,018	0,008
-442,051	800,000	-0,009	-0,017
-441,036	-86,026	-0,126	0,028
-440,022	-200,000	0,003	-0,097
-439,007	-200,000	-0,008	0,069
-437,992	229,271	-0,068	0,079
-436,978	-197,615	-0,065	0,000
-435,963	56,035	-0,097	0,067
-434,949	595,615	0,036	0,064
-433,934	-39,809	-0,107	-0,040
-432,919	3,812	0,113	-0,059
-431,905	-153,394	-0,061	-0,003
-430,890	800,000	-0,021	0,060
-429,876	-200,000	0,003	-0,124
-428,861	178,908	0,043	0,045
-427,846	195,811	-0,057	0,063
-426,832	402,801	-0,067	-0,101
-425,817	89,109	0,076	-0,060
-424,803	-161,961	-0,035	-0,001
-423,788	-86,941	-0,091	-0,020
-422,773	-200,000	0,037	0,145
-421,759	-200,000	0,008	0,058
-420,744	-200,000	0,006	0,158
-419,730	588,859	-0,048	-0,086
-418,715	145,469	-0,106	-0,102
-417,701	216,110	-0,054	-0,062
-416,686	-18,102	0,045	0,020
-415,671	-59,472	0,073	-0,022
-414,657	800,000	-0,027	0,054
-413,642	388,666	-0,023	0,034
-412,628	0,747	-0,156	0,080
-411,613	340,386	0,032	0,044
-410,598	800,000	-0,019	0,052
-409,584	-200,000	-0,008	0,075
-408,569	-200,000	-0,001	-0,110
-407,555	-62,643	0,161	-0,047
-406,540	107,584	-0,082	-0,070
-405,525	-200,000	-0,027	-0,105
-404,511	-38,277	-0,105	-0,040
-403,496	5,012	-0,058	-0,030
-402,482	22,022	-0,015	-0,009
-401,467	656,262	0,072	0,134
-400,452	610,815	0,042	0,075
-399,438	-200,000	-0,020	-0,208
-398,423	-119,277	-0,195	0,024
-397,409	-200,000	-0,007	-0,061
-396,394	-200,000	0,021	0,087
-395,379	-200,000	-0,004	0,060
-394,365	0,933	0,150	0,076
-393,350	460,896	0,112	0,180
-392,336	338,526	0,108	0,150
-391,321	-200,000	0,006	0,025
-390,306	-200,000	-0,001	0,061
-389,292	637,407	0,060	-0,109
-388,277	450,687	0,029	0,046
-387,263	-34,529	0,213	0,083
-386,248	-200,000	-0,002	0,090
-385,233	115,966	0,132	-0,116
-384,219	-196,079	0,121	-0,001
-383,204	11,293	0,061	0,034
-382,190	-68,473	-0,133	0,037
-381,175	-200,000	-0,000	-0,002
-380,160	-11,684	0,094	0,044
-379,146	63,798	-0,108	0,078
-378,131	800,000	-0,033	0,094
-377,117	-28,627	-0,030	0,012
-376,102	-200,000	-0,013	0,089
-375,088	652,911	-0,052	-0,096
-374,073	232,323	0,107	0,126
-373,058	800,000	-0,022	-0,054
-372,044	668,718	0,019	-0,035
-371,029	800,000	0,032	-0,092
-370,015	523,833	0,006	0,010
-369,000	-111,477	-0,094	0,014
-367,985	174,636	-0,119	0,123
-366,971	-147,636	-0,109	-0,006
-365,956	-178,578	0,078	0,001
-364,942	-62,003	0,120	-0,036
-363,927	-67,522	-0,052	0,014
-362,912	-200,000	-0,009	-0,073
-361,898	-112,652	0,005	-0,001
-360,883	79,604	-0,080	-0,061
-359,869	-59,184	0,080	-0,024
-358,854	106,338	0,068	-0,058
-357,839	339,483	0,039	-0,055
-356,825	196,009	0,119	0,129
-355,810	-200,000	0,020	-0,078
-354,796	34,645	-0,136	-0,084
-353,781	92,371	-0,058	0,047
-352,766	-200,000	-0,002	0,011
-351,752	800,000	-0,023	-0,067
-350,737	482,774	0,049	0,079
-349,723	-60,703	0,054	0,016
-348,708	518,963	0,061	0,103
-347,693	132,888	0,024	-0,022
-346,679	-200,000	0,014	0,053
-345,664	776,167	0,038	0,074
-344,650	-31,710	-0,054	0,022
-343,635	12,900	0,070	0,038
-342,620	-130,157	0,075	-0,007
-341,606	-200,000	0,008	0,085
-340,591	-200,000	-0,028	-0,092
-339,577	-200,000	0,007	-0,169
-338,562	102,201	-0,025	0,021
-337,548	-68,642	0,085	-0,023
-336,533	621,852	-0,045	-0,082
-335,518	755,773	0,047	0,091
-334,504	-200,000	-0,025	0,165
-333,489	123,701	0,170	0,152
-332,475	-59,086	-0,110	0,034
-331,460	-177,813	-0,087	0,001
-330,445	-200,000	0,026	-0,130
-329,431	-200,000	0,014	0,104
-328,416	522,104	0,086	0,144
-327,402	-151,101	0,013	0,001
-326,387	-108,513	0,179	0,027
-325,372	73,661	-0,175	0,131
-324,358	-200,000	-0,012	0,111
-323,343	110,247	-0,079	-0,067
-322,329	-200,000	-0,016	0,067
-321,314	-200,000	0,000	0,045
-320,299	211,697	0,068	-0,077
-319,285	-35,984	0,058	0,022
-318,270	-200,000	-0,019	-0,171
-317,256	-182,929	-0,057	0,001
-316,241	476,236	0,031	0,050
-315,226	-134,130	0,121	0,011
-314,212	281,161	-0,056	0,071
-313,197	800,000	-0,027	0,058
-312,183	299,942	-0,048	0,063
-311,168	155,162	0,124	-0,122
-310,153	-130,144	-0,062	0,006
-309,139	255,755	0,027	-0,033
-308,124	-200,000	-0,008	-0,185
-307,110	-200,000	-0,002	0,083
-306,095	800,000	0,037	0,087
-305,080	174,612	0,065	0,067
-304,066	331,839	-0,047	0,065
-303,051	-82,702	0,116	-0,027
-302,037	-200,000	-0,008	-0,202
-301,022	-200,000	-0,023	0,142
-300,008	96,910	0,168	0,137
-298,993	-160,305	-0,087	-0,003
-297,978	-184,581	0,140	-0,002
-296,964	-63,450	-0,093	0,027
-295,949	617,246	0,103	-0,186
-294,935	-134,777	0,073	-0,006
-293,920	-200,000	0,008	0,044
-292,905	-88,976	-0,035	0,007
-291,891	800,000	-0,048	0,148
-290,876	-47,950	0,097	-0,033
-289,862	484,546	-0,073	0,119
-288,847	20,301	-0,076	-0,044
-287,832	285,860	-0,038	-0,049
-286,818	170,651	-0,055	0,056
-285,803	-23,530	-0,056	0,024
-284,789	-200,000	-0,050	0,198
-283,774	-200,000	0,018	0,112
-282,759	-200,000	0,003	0,033
-281,745	800,000	-0,057	-0,120
-280,730	146,726	-0,119	-0,114
-279,716	30,559	-0,064	0,039
-278,701	-200,000	-0,005	0,033
-277,686	47,861	-0,096	-0,064
-276,672	800,000	-0,052	0,150
-275,657	-28,063	-0,171	-0,070
-274,643	-200,000	0,034	-0,125
-273,628	-200,000	0,005	0,176
-272,613	350,184	-0,068	0,095
-271,599	220,725	0,030	0,035
-270,584	-82,863	0,107	-0,024
-269,570	30,316	0,083	0,050
-268,555	341,374	-0,061	0,085
-267,540	146,548	0,046	0,044
-266,526	153,538	-0,084	-0,082
-265,511	-10,068	-0,036	-0,017
-264,497	494,800	-0,039	-0,064
-263,482	399,742	-0,057	0,085
-262,467	68,500	-0,074	0,054
-261,453	-87,858	0,043	-0,009
-260,438	589,582	0,023	-0,040
-259,424	305,515	-0,035	-0,046
-258,409	216,597	-0,082	-0,092
-257,395	338,297	0,033	-0,046
-256,380	231,262	-0,069	-0,081
-255,365	-104,341	0,021	-0,003
-254,351	576,717	-0,052	-0,090
-253,336	-9,726	0,039	0,018
-252,322	-99,913	-0,129	0,023
-251,307	728,956	0,053	0,102
-250,292	-85,703	0,131	0,029
-249,278	-181,808	-0,094	-0,001
-248,263	800,000	-0,014	0,039
-247,249	42,155	-0,064	-0,041
-246,234	-200,000	-0,010	-0,176
-245,219	10,282	-0,098	0,053
-244,205	193,891	0,072	-0,078
-243,190	193,381	0,115	-0,124
-242,176	-28,499	0,114	-0,046
-241,161	-200,000	-0,017	-0,055
-240,146	81,306	0,076	0,058
-239,132	162,183	0,053	-0,052
-238,117	71,553	-0,177	-0,130
-237,103	79,215	-0,025	-0,019
-236,088	-126,197	0,093	0,010
-235,073	-200,000	0,006	0,088
-234,059	34,808	0,169	0,105
-233,044	-13,147	-0,194	0,089
-232,030	75,061	-0,156	0,117
-231,015	-200,000	-0,021	-0,096
-230,000	203,406	-0,008	0,009
-228,986	-200,000	-0,001	-0,027
-227,971	145,159	0,121	-0,115
-226,957	51,572	-0,050	0,034
-225,942	203,913	0,080	-0,088
-224,927	800,000	-0,007	0,021
-223,913	227,671	0,071	0,083
-222,898	121,439	0,085	-0,075
-221,884	50,926	0,092	-0,061
-220,869	257,859	0,032	0,039
-219,855	202,184	0,076	0,083
-218,840	800,000	0,064	0,132
-217,825	71,099	-0,071	0,052
-216,811	128,202	-0,064	0,058
-215,796	188,931	0,130	-0,138
-214,782	33,413	0,057	0,035
-213,767	-200,000	0,011	0,087
-212,752	344,449	0,095	0,132
-211,738	500,308	-0,088	0,145
-210,723	53,263	-0,106	0,072
-209,709	-111,843	0,123	-0,017
-208,694	-76,898	0,051	-0,012
-207,679	-200,000	0,047	-0,160
-206,665	-179,705	0,141	-0,002
-205,650	76,895	0,080	-0,060
-204,636	40,204	-0,040	-0,025
-203,621	-156,782	0,135	0,006
-202,606	108,301	-0,063	0,054
-201,592	112,746	0,062	-0,053
-200,577	800,000	0,057	-0,126
-199,563	-200,000	0,015	0,091
-198,548	16,665	0,135	0,076
-197,533	310,691	0,037	-0,049
-196,519	284,797	-0,049	-0,063
-195,504	-200,000	-0,032	-0,102
-194,490	279,739	0,019	0,024
-193,475	675,708	-0,057	-0,105
-192,460	196,352	-0,116	-0,125
-191,446	28,153	-0,121	0,072
-190,431	128,992	0,019	0,017
-189,417	800,000	0,062	-0,158
-188,402	-71,417	0,105	0,028
-187,387	-200,000	-0,032	-0,104
-186,373	-126,686	-0,144	0,015
-185,358	800,000	0,047	-0,116
-184,344	268,043	0,054	0,067
-183,329	-151,300	0,132	0,007
-182,315	-183,653	0,096	-0,001
-181,300	-36,572	0,072	-0,027
-180,285	-200,000	-0,007	-0,131
-179,271	-20,444	-0,091	-0,040
-178,256	800,000	0,008	-0,024
-177,242	800,000	0,067	0,140
-176,227	-147,533	0,177	0,010
-175,212	-200,000	-0,027	0,086
-174,198	-200,000	0,010	-0,120
-173,183	156,229	-0,132	0,129
-172,169	-193,200	-0,044	0,000
-171,154	800,000	-0,030	0,091
-170,139	-200,000	-0,003	-0,131
-169,125	261,238	0,064	0,078
-168,110	-103,239	0,058	-0,010
-167,096	-21,909	0,042	-0,018
-166,081	-152,383	0,100	0,005
-165,066	226,937	-0,148	-0,171
-164,052	800,000	-0,038	-0,116
-163,037	-200,000	0,004	-0,064
-162,023	-114,480	-0,180	0,024
-161,008	119,957	0,064	0,056
-159,993	-134,854	-0,035	0,003
-158,979	800,000	-0,046	-0,114
-157,964	800,000	0,022	0,048
-156,950	800,000	0,018	-0,044
-155,935	88,813	0,077	0,061
-154,920	-200,000	-0,012	0,119
-153,906	-124,395	-0,099	-0,011
-152,891	800,000	-0,031	0,062
-151,877	82,901	0,026	-0,020
-150,862	-200,000	0,021	0,092
-149,847	-100,253	0,119	0,021
-148,833	112,674	0,197	0,169
-147,818	-109,862	0,158	0,023
-146,804	577,433	-0,054	0,094
-145,789	-171,839	-0,050	0,001
-144,775	800,000	-0,003	-0,005
-143,760	-30,259	0,105	0,042
-142,745	-200,000	-0,030	-0,126
-141,731	-200,000	0,003	0,019
-140,716	23,630	0,057	-0,033
-139,702	-200,000	-0,037	-0,131
-138,687	-72,168	-0,054	-0,014
-137,672	-129,626	-0,020	-0,002
-136,658	163,582	-0,050	-0,050
-135,643	-200,000	-0,023	-0,185
-134,629	-130,335	0,113	0,011
-133,614	118,934	0,039	-0,034
-132,599	-200,000	-0,018	-0,170
-131,585	212,574	0,097	-0,108
-130,570	49,028	0,066	-0,043
-129,556	4,112	0,073	0,038
-128,541	800,000	-0,076	-0,222
-127,526	-200,000	0,014	-0,125
-126,512	800,000	0,041	0,093
-125,497	178,447	0,052	0,053
-124,483	-146,723	0,053	-0,003
-123,468	49,091	0,118	0,078
-122,453	-200,000	-0,009	0,050
-121,439	610,093	0,077	-0,137
-120,424	-18,411	0,119	-0,053
-119,410	-115,713	0,120	0,016
-118,395	230,472	-0,038	0,044
-117,380	142,233	0,082	0,077
-116,366	-200,000	-0,026	-0,102
-115,351	-200,000	0,037	-0,153
-114,337	-93,693	0,025	0,005
-113,322	-200,000	-0,003	-0,098
-112,307	61,060	0,122	-0,086
-111,293	-200,000	0,010	0,086
-110,278	800,000	-0,038	-0,119
-109,264	800,000	-0,025	0,055
-108,249	594,830	-0,033	-0,058
-107,234	347,684	-0,016	0,022
-106,220	173,577	-0,022	-0,022
-105,205	378,765	0,024	0,035
-104,191	-200,000	-0,023	0,091
-103,176	-38,059	-0,048	0,018
-102,162	-200,000	-0,003	0,060
-101,147	-200,000	0,027	-0,146
-100,132	-200,000	0,001	-0,077
-99,118	192,404	0,023	0,024
-98,103	112,703	0,067	0,057
-97,089	-17,571	-0,061	0,027
-96,074	464,971	0,027	-0,043
-95,059	-160,641	-0,025	0,001
-94,045	492,053	0,040	-0,065
-93,030	452,953	-0,058	0,092
-92,016	440,593	-0,118	-0,183
-91,001	22,561	-0,050	0,029
-89,986	125,172	0,142	-0,127
-88,972	-50,513	0,100	0,033
-87,957	-200,000	0,035	0,148
-86,943	800,000	-0,011	0,027
-85,928	37,067	-0,090	0,056
-84,913	-200,000	0,016	-0,097
-83,899	11,028	0,049	0,026
-82,884	-82,783	0,140	-0,032
-81,870	-61,387	0,035	-0,010
-80,855	800,000	-0,037	0,080
-79,840	-131,439	-0,089	0,008
-78,826	-200,000	0,031	-0,114
-77,811	-84,413	-0,165	0,036
-76,797	10,154	-0,164	-0,088
-75,782	671,107	-0,040	-0,074
-74,767	61,151	0,054	-0,038
-73,753	-200,000	0,009	-0,127
-72,738	265,709	0,076	0,094
-71,724	-200,000	0,017	-0,177
-70,709	464,978	0,026	-0,041
-69,694	-200,000	0,021	-0,156
-68,680	-200,000	0,000	0,037
-67,665	-200,000	-0,014	-0,051
-66,651	329,084	-0,036	0,049
-65,636	562,412	-0,067	-0,115
-64,622	166,103	-0,105	-0,105
-63,607	-200,000	-0,014	-0,169
-62,592	82,138	0,052	-0,039
-61,578	140,057	0,125	0,116
-60,563	318,708	0,073	-0,098
-59,549	264,075	0,030	0,037
-58,534	46,337	-2,169	-1,416
-57,519	534,787	-1,075	-1,805
-56,505	-200,000	-0,452	-4,528
-55,490	798,918	0,887	1,734
-54,476	800,000	5,213	11,394
-53,461	-200,000	22,427	347,272
-52,446	800,000	757,746	2296,592
-51,432	534,211	1645,174	2760,132
-50,417	68,149	1643,641	1185,288
-49,403	15,714	1520,958	841,033
-48,388	9,937	1446,836	772,290
-47,373	19,365	1439,507	813,282
-46,359	13,433	1428,010	778,755
-45,344	8,234	1424,042	751,968
-44,330	8,186	1422,118	750,692
-43,315	8,124	1420,334	749,430
-42,300	8,147	1418,530	748,555
-41,286	8,191	1417,170	748,018
-40,271	8,164	1415,860	747,166
-39,257	8,153	1414,699	746,472
-38,242	8,141	1413,781	745,904
-37,227	8,133	1412,607	745,219
-36,213	8,190	1411,098	744,659
-35,198	8,181	1409,849	743,928
-34,184	8,171	1409,042	743,427
-33,169	8,094	1407,886	742,425
-32,154	8,159	1406,908	742,184
-31,140	8,113	1405,640	741,269
-30,125	8,197	1404,290	740,921
-29,111	8,120	1403,290	740,007
-28,096	8,149	1402,150	739,512
-27,082	8,116	1400,743	738,586
-26,067	8,086	1399,908	737,977
-25,052	8,120	1398,761	737,501
-24,038	8,120	1397,715	736,918
-23,023	8,095	1396,962	736,378
-22,009	8,079	1395,908	735,719
-20,994	8,075	1394,752	735,062
-19,979	8,056	1393,926	734,506
-18,965	8,045	1393,012	733,946
-17,950	8,049	1391,904	733,353
-16,936	8,040	1390,984	732,798
-15,921	7,986	1390,057	732,028
-14,906	7,973	1389,393	731,591
-13,892	8,048	1388,118	731,237
-12,877	8,007	1387,490	730,687
-11,863	7,982	1386,786	730,174
-10,848	7,976	1385,953	729,679
-9,833	7,920	1384,969	728,870
-8,819	7,953	1383,871	728,416
-7,804	7,897	1383,102	727,727
-6,790	7,917	1382,144	727,286
-5,775	7,911	1381,096	726,676
-4,760	7,895	1380,025	726,013
-3,746	7,925	1379,009	725,584
-2,731	7,940	1378,254	725,226
-1,717	7,892	1377,572	724,622
-0,702	7,918	1375,695	723,726
0,313	11,906	1285,986	694,597
1,327	27,659	677,768	401,208
2,342	42,789	116,694	74,785
3,356	-0,042	16,549	8,277
4,371	0,577	3,885	1,951
5,386	0,299	1,396	0,700
6,400	511,269	0,385	0,634
7,415	353,261	-0,163	-0,228
8,429	58,215	-0,269	-0,186
9,444	7,724	-0,405	-0,213
10,459	22,574	-0,296	-0,170
11,473	-90,954	-0,347	-0,070
12,488	-89,842	-0,332	-0,068
13,502	-131,884	-0,306	-0,028
14,517	0,036	-0,461	-0,230
15,531	8,176	-0,380	-0,200
16,546	192,241	-0,331	-0,352
17,561	24,424	-0,339	-0,197
18,575	94,028	-0,152	-0,121
19,590	-33,033	-0,251	-0,097
20,604	330,846	-0,176	-0,240
21,619	138,966	-0,374	-0,346
22,634	144,959	-0,446	-0,420
23,648	92,148	-0,358	-0,283
24,663	106,102	-0,331	-0,276
25,677	70,966	-0,316	-0,230
26,692	19,246	-0,265	-0,149
27,707	107,784	-0,286	-0,239
28,721	168,330	-0,364	-0,365
29,736	72,372	-0,432	-0,316
30,750	85,009	-0,439	-0,338
31,765	96,299	-0,407	-0,327
32,780	49,710	-0,296	-0,196
33,794	41,387	-0,298	-0,189
34,809	-6,720	-0,393	-0,187
35,823	5,417	-0,391	-0,202
36,838	105,175	-0,386	-0,320
37,853	11,928	-0,404	-0,218
38,867	-2,937	-0,438	-0,214
39,882	67,490	-0,387	-0,277
40,896	39,690	-0,233	-0,146
41,911	22,152	-0,292	-0,167
42,926	35,898	-0,361	-0,222
43,940	150,312	-0,368	-0,351
44,955	228,012	-0,302	-0,346
45,969	17,108	-0,401	-0,223
46,984	356,072	-0,212	-0,297
47,999	212,956	-0,304	-0,337
49,013	95,909	-0,259	-0,207
50,028	-37,424	-0,230	-0,086
51,042	107,313	-0,338	-0,282
52,057	800,000	-0,120	-0,265
53,071	-1,111	-0,493	-0,244
54,086	115,452	-0,302	-0,259
55,101	160,892	-0,247	-0,242
56,115	-9,248	-0,302	-0,141
57,130	-18,442	-0,415	-0,181
58,144	157,788	-0,365	-0,355
59,159	86,963	-0,269	-0,209
60,174	156,901	-0,319	-0,310
61,188	263,967	-0,280	-0,342
62,203	-53,076	-0,424	-0,136
63,217	-98,850	-0,253	-0,045
64,232	-59,864	-0,381	-0,113
65,247	112,331	-0,306	-0,260
66,261	166,492	-0,357	-0,355
67,276	32,346	-0,327	-0,197
68,290	-89,683	-0,420	-0,086
69,305	-2,991	-0,335	-0,164
70,320	9,717	-0,338	-0,179
71,334	162,305	-0,282	-0,277
72,349	130,280	-0,176	-0,158
73,363	-9,956	-0,433	-0,201
74,378	256,156	-0,294	-0,354
75,393	25,321	-0,257	-0,149
76,407	120,948	-0,204	-0,178
77,422	130,679	-0,260	-0,234
78,436	-39,858	-0,301	-0,109
79,451	240,308	-0,223	-0,261
80,466	22,401	-0,267	-0,152
81,480	79,540	-0,288	-0,216
82,495	23,696	-0,300	-0,173
83,509	-67,617	-0,294	-0,080
84,524	141,122	-0,122	-0,113
85,539	-0,369	-0,266	-0,132
86,553	59,551	-0,384	-0,265
87,568	61,295	-0,348	-0,241
88,582	25,892	-0,339	-0,197
89,597	-51,566	-0,346	-0,112
90,611	147,783	-0,192	-0,181
91,626	-48,972	-0,261	-0,087
92,641	262,169	-0,198	-0,240
93,655	-94,243	-0,283	-0,054
94,670	-47,749	-0,319	-0,107
95,684	249,372	-0,170	-0,202
96,699	160,771	-0,338	-0,330
97,714	294,358	-0,253	-0,324
98,728	49,031	-0,328	-0,215
99,743	18,688	-0,194	-0,108
100,757	53,535	-0,217	-0,145
101,772	16,893	-0,320	-0,177
102,787	196,719	-0,186	-0,198
103,801	187,358	-0,197	-0,205
104,816	-33,373	-0,229	-0,088
105,830	222,182	-0,175	-0,197
106,845	118,576	-0,203	-0,175
107,860	-9,124	-0,263	-0,122
108,874	98,649	-0,271	-0,218
109,889	199,567	-0,287	-0,307
110,903	66,327	-0,286	-0,202
111,918	205,441	-0,290	-0,315
112,933	800,000	-0,060	-0,177
113,947	433,423	-0,158	-0,240
114,962	-96,854	-0,224	-0,041
115,976	49,146	-0,289	-0,189
116,991	89,927	-0,344	-0,268
118,006	-14,201	-0,268	-0,120
119,020	147,402	-0,282	-0,265
120,035	20,255	-0,133	-0,075
121,049	51,249	-0,186	-0,123
122,064	322,126	-0,154	-0,205
123,079	17,845	-0,322	-0,178
124,093	401,028	-0,143	-0,209
125,108	237,361	-0,192	-0,222
126,122	260,285	-0,234	-0,282
127,137	402,100	-0,158	-0,231
128,151	800,000	-0,147	-0,320
129,166	54,443	-0,201	-0,135
130,181	0,378	-0,287	-0,142
131,195	113,164	-0,308	-0,260
132,210	326,309	-0,183	-0,244
133,224	283,997	-0,200	-0,251
134,239	446,536	-0,154	-0,236
135,254	642,853	-0,085	-0,152
136,268	92,317	-0,288	-0,226
137,283	-21,007	-0,176	-0,075
138,297	-57,232	-0,402	-0,122
139,312	303,256	-0,225	-0,291
140,327	800,000	-0,099	-0,239
141,341	800,000	-0,131	-0,259
142,356	176,408	-0,168	-0,170
143,370	10,977	-0,174	-0,092
144,385	-79,549	-0,271	-0,063
145,400	288,639	-0,160	-0,202
146,414	43,066	-0,392	-0,248
147,429	0,579	-0,306	-0,152
148,443	36,610	-0,289	-0,177
149,458	26,238	-0,217	-0,126
150,473	-85,259	-0,085	0,018
151,487	-44,158	-0,286	-0,099
152,502	15,023	-0,371	-0,202
153,516	57,768	-0,268	-0,182
154,531	48,611	-0,230	-0,149
155,546	-82,696	-0,225	-0,050
156,560	405,424	-0,124	-0,182
157,575	125,998	-0,206	-0,181
158,589	-23,536	-0,317	-0,132
159,604	62,351	-0,264	-0,183
160,619	-4,507	-0,340	-0,163
161,633	-21,150	-0,305	-0,129
162,648	101,594	-0,272	-0,220
163,662	-68,772	-0,146	-0,039
164,677	5,213	-0,214	-0,109
165,692	38,332	-0,270	-0,167
166,706	162,125	-0,184	-0,180
167,721	473,327	-0,186	-0,292
168,735	32,248	-0,273	-0,163
169,750	376,662	-0,151	-0,215
170,764	-49,308	-0,093	-0,031
171,779	-31,110	-0,163	-0,063
172,794	123,691	-0,301	-0,262
173,808	-6,431	-0,286	-0,135
174,823	117,260	-0,316	-0,270
175,837	40,901	-0,224	-0,140
176,852	383,542	-0,159	-0,227
177,867	-47,026	-0,278	-0,094
178,881	112,846	-0,337	-0,283
179,896	-94,802	-0,184	0,034
180,910	-29,470	-0,205	-0,081
181,925	34,128	-0,283	-0,171
182,940	-10,257	-0,303	-0,139
183,954	190,630	-0,207	-0,216
184,969	143,185	-0,172	-0,158
185,983	-80,463	-0,203	-0,047
186,998	-25,753	-0,202	-0,082
188,013	-28,833	-0,183	-0,072
189,027	-87,337	-0,306	-0,064
190,042	800,000	-0,128	-0,249
191,056	-60,089	-0,351	-0,103
192,071	51,421	-0,204	-0,134
193,086	214,682	-0,163	-0,179
194,100	36,308	-0,175	-0,107
195,115	-58,648	-0,128	-0,038
196,129	-46,576	-0,259	-0,088
197,144	-41,332	-0,385	-0,137
198,159	3,752	-0,256	-0,129
199,173	345,443	-0,178	-0,242
200,188	576,513	-0,112	-0,190
201,202	-65,967	-0,192	-0,053
202,217	-200,000	-0,038	-0,230
203,232	-97,302	-0,187	-0,034
204,246	39,984	-0,256	-0,159
205,261	362,369	-0,207	-0,288
206,275	115,138	-0,265	-0,224
207,290	146,154	-0,144	-0,134
208,304	-169,968	-0,154	0,004
209,319	548,758	-0,150	-0,250
210,334	78,820	-0,214	-0,159
211,348	88,905	-0,234	-0,180
212,363	126,898	-0,162	-0,142
213,377	-82,053	-0,100	-0,023
214,392	125,447	-0,168	-0,147
215,407	-90,453	-0,177	-0,035
216,421	-28,919	-0,172	-0,068
217,436	-77,403	-0,161	-0,038
218,450	199,377	-0,173	-0,184
219,465	-54,120	-0,290	-0,091
220,480	307,803	-0,131	-0,169
221,494	-200,000	-0,011	-0,093
222,509	800,000	-0,037	-0,097
223,523	217,679	-0,126	-0,139
224,538	-38,595	-0,214	-0,078
225,553	97,631	-0,171	-0,136
226,567	14,853	-0,174	-0,094
227,582	78,186	-0,202	-0,149
228,596	334,422	-0,060	-0,080
229,611	43,447	-0,184	-0,116
230,626	108,003	-0,107	0,088
231,640	451,177	-0,061	-0,093
232,655	90,829	-0,301	-0,233
233,669	327,519	-0,186	-0,248
234,684	-200,000	0,048	-0,169
235,699	800,000	-0,143	-0,339
236,713	160,839	-0,202	-0,195
237,728	540,738	-0,063	-0,104
238,742	-53,245	-0,170	-0,053
239,757	86,264	-0,159	-0,121
240,772	-200,000	-0,045	-0,246
241,786	229,725	-0,220	-0,248
242,801	45,889	-0,213	-0,136
243,815	76,205	-0,170	-0,124
244,830	-200,000	-0,028	-0,291
245,844	115,185	-0,061	0,051
246,859	63,370	-0,275	-0,190
247,874	375,553	-0,114	-0,161
248,888	26,080	-0,156	-0,090
249,903	-146,096	-0,143	-0,009
250,917	300,496	-0,031	-0,040
251,932	19,267	-0,283	-0,156
252,947	172,427	-0,116	-0,115
253,961	-200,000	-0,044	-0,252
254,976	-45,627	-0,155	-0,053
255,990	130,682	-0,159	-0,140
257,005	190,970	-0,078	-0,081
258,020	-49,705	-0,148	-0,048
259,034	-4,450	-0,219	-0,104
260,049	318,693	-0,088	-0,116
261,063	57,885	-0,092	-0,062
262,078	455,826	-0,126	-0,193
263,093	800,000	-0,119	-0,235
264,107	612,508	-0,041	-0,070
265,122	-2,145	-0,192	-0,093
266,136	-111,965	-0,118	-0,016
267,151	-200,000	-0,126	0,000
268,166	-19,191	-0,144	-0,061
269,180	188,091	-0,215	-0,221
270,195	153,818	-0,172	-0,162
271,209	58,540	-0,278	-0,188
272,224	-126,380	-0,143	-0,015
273,239	-73,949	-0,172	0,043
274,253	-80,358	-0,111	-0,025
275,268	-197,151	-0,163	-0,001
276,282	-41,925	-0,394	-0,138
277,297	88,607	-0,150	-0,114
278,312	720,952	-0,127	-0,234
279,326	68,110	-0,116	-0,082
280,341	138,135	-0,129	-0,116
281,355	60,674	-0,111	-0,076
282,370	274,491	-0,206	-0,252
283,384	89,457	-0,137	-0,105
284,399	33,657	-0,194	-0,116
285,414	330,579	-0,098	-0,131
286,428	-200,000	-0,026	-0,138
287,443	243,282	-0,183	-0,211
288,457	238,642	-0,063	-0,072
289,472	43,786	-0,135	-0,084
290,487	-200,000	0,010	-0,177
291,501	-92,261	-0,163	-0,031
292,516	-60,247	-0,166	-0,048
293,530	33,521	-0,116	-0,069
294,545	-4,521	-0,071	0,033
295,560	-87,678	-0,100	-0,021
296,574	-200,000	0,005	-0,110
297,589	-58,987	-0,215	-0,063
298,603	-61,642	-0,347	-0,099
299,618	800,000	-0,020	-0,059
300,633	800,000	-0,151	-0,326
301,647	-200,000	-0,011	-0,088
302,662	47,498	-0,158	-0,101
303,676	-12,463	-0,131	-0,059
304,691	-34,558	-0,213	-0,080
305,706	108,270	-0,172	-0,141
306,720	800,000	0,020	-0,046
307,735	59,530	-0,086	-0,058
308,749	725,622	-0,061	-0,111
309,764	757,814	-0,083	-0,154
310,779	-120,799	-0,059	-0,007
311,793	473,439	-0,107	-0,165
312,808	510,894	-0,112	-0,180
313,822	-35,330	-0,253	-0,094
314,837	-200,000	-0,048	-0,166
315,852	166,071	-0,121	-0,118
316,866	17,926	-0,054	-0,029
317,881	258,891	-0,125	-0,148
318,895	-90,316	-0,062	-0,012
319,910	-88,569	-0,144	-0,029
320,925	144,854	-0,056	-0,052
321,939	193,009	-0,071	-0,074
322,954	-200,000	0,007	-0,101
323,968	222,442	-0,083	-0,092
324,983	143,969	-0,092	-0,084
325,997	-112,989	-0,237	-0,032
327,012	7,062	-0,134	-0,068
328,027	-29,577	-0,159	-0,062
329,041	149,355	-0,138	-0,128
330,056	-68,413	-0,188	0,050
331,070	800,000	-0,086	-0,164
332,085	254,250	-0,084	0,098
333,100	90,774	-0,136	-0,104
334,114	600,321	-0,151	-0,258
335,129	261,643	-0,195	-0,231
336,143	-60,131	-0,174	-0,050
337,158	-10,074	-0,077	-0,035
338,173	-35,250	-0,169	-0,063
339,187	-156,522	-0,151	0,006
340,202	309,394	-0,112	-0,144
341,216	-147,683	-0,114	-0,006
342,231	-94,642	-0,157	-0,029
343,246	-120,801	-0,154	0,018
344,260	105,562	-0,092	-0,075
345,275	795,718	-0,028	-0,052
346,289	-48,782	-0,058	0,019
347,304	-200,000	-0,036	-0,156
348,319	-31,133	-0,135	-0,052
349,333	37,554	-0,214	-0,130
350,348	-54,792	-0,190	-0,058
351,362	102,676	-0,168	-0,134
352,377	157,745	-0,093	-0,088
353,392	194,096	-0,106	-0,109
354,406	-106,454	-0,060	-0,009
355,421	208,440	1309,982	1401,423
356,435	160,389	1470,060	1401,865
