DTS Sentinel unit serial number:	SN410029Multiplexer serial number:	ORYXHardware model number:	OX2-SRSoftware version number:	ORYX F/W v4,00 Oryx Data Collector v3.7.2.0data status	okinstallation	B3 Nyhavnadifferential loss correction	single-endedforward channel	channel 1reverse channel	N/Adate	2023/12/04time	02:57:30forward acquisition time	300,00reverse acquisition time	0,00gamma	499,1914k internal	0,3204k external	0,3204temperature offset calibration	1,0000default loss term (dB/km)	0,3820temperature slope calibration	1,0000multiplexer offset coefficient	1,0000multiplexer slope coefficient	1,0000fibre end	0,00T internal ref (°C)	12,19T ext. ref 1 (°C)	-3,01T ext. ref 2 (°C)	-3,03length (m)	temperature (°C)	Stokes	anti-Stokes-744,400	800,000	-0,107	-0,285
-743,385	-200,000	0,026	0,215
-742,371	83,200	-0,356	-0,282
-741,356	-200,000	0,076	0,366
-740,342	202,288	-0,192	-0,216
-739,327	-200,000	0,071	0,303
-738,312	145,607	-0,250	-0,244
-737,298	-200,000	0,058	0,256
-736,283	14,700	-0,312	-0,177
-735,269	-200,000	0,062	0,319
-734,254	208,704	-0,140	-0,159
-733,239	-101,357	-0,128	-0,023
-732,225	127,334	-0,162	-0,149
-731,210	-167,546	-0,085	0,002
-730,196	-200,000	-0,020	-0,212
-729,181	552,358	-0,036	-0,063
-728,167	298,924	-0,029	0,039
-727,152	291,333	-0,076	-0,100
-726,137	680,317	-0,038	-0,073
-725,123	222,534	-0,056	0,065
-724,108	-200,000	-0,009	-0,042
-723,094	-133,525	-0,158	-0,014
-722,079	-33,064	-0,069	-0,028
-721,064	-30,009	-0,101	0,042
-720,050	-80,041	-0,083	-0,020
-719,035	-200,000	-0,048	-0,185
-718,021	99,056	-0,032	-0,027
-717,006	77,603	-0,061	-0,047
-715,991	-27,328	-0,142	-0,060
-714,977	-15,818	0,124	-0,057
-713,962	800,000	0,045	-0,099
-712,948	-200,000	-0,031	0,106
-711,933	-26,374	-0,030	0,013
-710,918	-69,748	0,112	-0,031
-709,904	312,346	-0,042	0,058
-708,889	-62,854	-0,077	0,023
-707,875	192,297	0,121	-0,133
-706,860	-189,694	0,142	-0,001
-705,845	4,398	-0,112	0,059
-704,831	535,981	0,064	0,111
-703,816	-200,000	-0,010	-0,064
-702,802	128,709	-0,080	-0,074
-701,787	-119,641	-0,056	-0,007
-700,772	28,743	0,090	-0,055
-699,758	-45,896	-0,103	0,037
-698,743	800,000	0,011	0,022
-697,729	-200,000	-0,002	-0,097
-696,714	-200,000	-0,014	-0,048
-695,699	-12,530	0,045	0,021
-694,685	374,488	-0,081	-0,119
-693,670	-200,000	-0,014	-0,120
-692,656	-43,984	0,083	0,030
-691,641	4,180	-0,081	-0,043
-690,627	-32,039	-0,042	-0,017
-689,612	-200,000	-0,004	-0,061
-688,597	800,000	-0,043	-0,129
-687,583	721,677	-0,032	0,063
-686,568	480,264	-0,035	0,057
-685,554	96,032	-0,085	-0,070
-684,539	229,718	-0,015	0,018
-683,524	-80,531	-0,070	-0,017
-682,510	800,000	0,020	0,047
-681,495	800,000	0,028	0,089
-680,481	505,458	0,037	-0,062
-679,466	276,440	-0,038	-0,048
-678,451	51,541	0,124	-0,086
-677,437	-200,000	-0,065	0,000
-676,422	-200,000	-0,013	-0,056
-675,408	9,318	-0,097	0,053
-674,393	104,263	-0,016	-0,014
-673,378	800,000	0,029	-0,079
-672,364	800,000	0,039	-0,113
-671,349	-200,000	-0,013	-0,059
-670,335	-102,928	-0,081	0,014
-669,320	244,659	0,040	-0,048
-668,305	-200,000	0,011	-0,170
-667,291	-80,443	-0,100	-0,024
-666,276	191,689	-0,064	0,070
-665,262	482,799	-0,055	-0,091
-664,247	-94,053	0,063	0,012
-663,232	146,332	-0,111	-0,108
-662,218	535,266	0,043	0,074
-661,203	800,000	-0,021	0,045
-660,189	-200,000	0,020	0,066
-659,174	-200,000	-0,020	-0,095
-658,159	142,641	0,027	0,026
-657,145	-200,000	0,012	-0,085
-656,130	-107,021	0,045	0,007
-655,116	-133,406	-0,115	-0,010
-654,101	2,548	0,096	-0,050
-653,086	-19,269	-0,041	0,018
-652,072	668,474	-0,017	-0,033
-651,057	110,381	-0,134	-0,117
-650,043	-29,216	0,081	0,034
-649,028	-110,645	0,099	-0,015
-648,014	-148,002	-0,096	0,006
-646,999	-200,000	-0,003	0,083
-645,984	-200,000	-0,017	0,070
-644,970	-63,452	-0,102	-0,030
-643,955	344,344	-0,034	-0,048
-642,941	14,570	-0,048	0,027
-641,926	-200,000	0,026	-0,114
-640,911	-69,331	0,088	-0,024
-639,897	689,804	0,081	0,153
-638,882	-200,000	0,016	0,075
-637,868	800,000	0,030	0,092
-636,853	-122,416	-0,157	0,018
-635,838	-200,000	0,027	-0,193
-634,824	-18,197	-0,057	0,026
-633,809	502,945	-0,053	-0,089
-632,795	800,000	0,045	-0,113
-631,780	19,402	-0,046	-0,027
-630,765	-103,295	0,091	0,015
-629,751	-39,628	-0,080	0,030
-628,736	-96,238	-0,084	-0,016
-627,722	-200,000	-0,006	-0,034
-626,707	800,000	0,029	-0,078
-625,692	-37,551	-0,015	-0,006
-624,678	559,986	0,013	0,022
-623,663	-130,335	-0,034	-0,003
-622,649	-145,569	-0,109	0,007
-621,634	800,000	0,039	0,122
-620,619	800,000	0,042	0,086
-619,605	183,991	-0,042	0,045
-618,590	693,567	0,067	0,128
-617,576	101,471	-0,035	0,029
-616,561	17,211	-0,007	-0,004
-615,546	-128,295	0,094	0,010
-614,532	355,383	-0,131	-0,189
-613,517	56,019	0,079	-0,055
-612,503	186,009	-0,073	0,078
-611,488	-68,105	0,099	0,028
-610,474	-200,000	0,000	0,130
-609,459	-93,699	0,062	0,012
-608,444	-200,000	-0,020	-0,099
-607,430	-46,845	-0,112	-0,039
-606,415	101,106	0,037	-0,032
-605,401	-15,037	-0,057	0,026
-604,386	247,572	0,037	0,046
-603,371	-97,987	-0,062	-0,011
-602,357	724,717	-0,072	-0,140
-601,342	42,927	0,036	-0,024
-600,328	-2,834	-0,080	-0,040
-599,313	-200,000	-0,019	0,117
-598,298	-200,000	-0,011	-0,066
-597,284	-9,007	0,081	-0,039
-596,269	78,779	0,110	-0,085
-595,255	39,841	0,028	-0,018
-594,240	800,000	-0,050	0,125
-593,225	-141,723	-0,100	0,007
-592,211	659,614	-0,017	0,031
-591,196	417,897	0,043	-0,066
-590,182	-200,000	0,007	-0,044
-589,167	-33,900	0,079	0,031
-588,152	-117,225	-0,126	-0,016
-587,138	-200,000	0,007	-0,041
-586,123	-200,000	-0,021	0,080
-585,109	-74,783	-0,077	0,020
-584,094	-19,209	0,066	0,030
-583,079	76,303	-0,058	-0,045
-582,065	556,041	0,014	0,025
-581,050	-200,000	-0,009	0,120
-580,036	110,888	-0,034	-0,029
-579,021	800,000	-0,017	-0,051
-578,006	-105,837	-0,205	-0,033
-576,992	225,237	0,092	-0,108
-575,977	-200,000	-0,008	0,047
-574,963	-42,219	0,089	-0,033
-573,948	300,548	-0,046	-0,062
-572,934	-113,398	-0,032	-0,004
-571,919	414,817	0,073	0,112
-570,904	-200,000	-0,023	-0,075
-569,890	185,150	-0,030	-0,032
-568,875	-150,487	-0,110	-0,006
-567,861	-140,528	-0,014	-0,001
-566,846	31,052	-0,063	-0,039
-565,831	-30,823	0,024	-0,010
-564,817	-200,000	0,017	0,084
-563,802	-200,000	-0,001	-0,015
-562,788	115,036	0,053	-0,047
-561,773	-35,275	0,054	0,021
-560,758	-100,368	-0,053	0,009
-559,744	-91,874	0,114	-0,023
-558,729	800,000	-0,045	-0,105
-557,715	-3,220	-0,140	-0,070
-556,700	-14,236	-0,041	-0,019
-555,685	-27,888	0,006	0,003
-554,671	-81,677	-0,050	-0,012
-553,656	206,066	-0,021	-0,024
-552,642	-136,204	-0,083	-0,007
-551,627	-21,849	0,018	-0,008
-550,612	-142,010	-0,073	-0,005
-549,598	26,060	-0,037	-0,022
-548,583	-200,000	-0,014	-0,059
-547,569	-51,865	-0,094	-0,031
-546,554	-54,504	0,101	0,033
-545,539	-200,000	-0,031	0,207
-544,525	-95,244	0,128	0,025
-543,510	111,099	-0,064	0,056
-542,496	365,389	-0,093	-0,135
-541,481	-30,464	-0,102	-0,041
-540,466	-39,076	-0,010	0,004
-539,452	40,708	0,091	0,059
-538,437	-200,000	0,006	0,163
-537,423	715,061	0,039	0,076
-536,408	-200,000	-0,060	-0,229
-535,393	-64,245	-0,126	0,037
-534,379	-3,748	-0,096	-0,048
-533,364	-138,982	-0,161	0,012
-532,350	795,552	0,071	0,141
-531,335	691,326	0,069	0,130
-530,321	107,931	-0,037	-0,032
-529,306	-93,227	0,070	-0,014
-528,291	-125,036	-0,043	0,005
-527,277	-200,000	0,009	-0,086
-526,262	-144,137	-0,082	0,005
-525,248	83,734	-0,092	0,072
-524,233	-23,320	-0,065	0,028
-523,218	220,143	-0,076	0,088
-522,204	-200,000	-0,007	-0,073
-521,189	-200,000	-0,044	-0,150
-520,175	115,113	0,076	-0,067
-519,160	75,866	-0,070	-0,053
-518,145	215,558	0,044	-0,050
-517,131	800,000	0,068	0,187
-516,116	-200,000	-0,013	-0,057
-515,102	-200,000	0,003	-0,153
-514,087	-40,921	-0,048	-0,018
-513,072	84,708	0,115	-0,091
-512,058	-200,000	0,013	-0,137
-511,043	-200,000	0,002	-0,039
-510,029	800,000	0,070	0,195
-509,014	-200,000	0,011	0,087
-507,999	17,078	0,175	0,100
-506,985	127,308	-0,081	0,074
-505,970	800,000	0,068	-0,207
-504,956	596,985	-0,030	0,053
-503,941	57,622	-0,027	-0,019
-502,926	72,083	-0,075	-0,056
-501,912	86,872	0,153	-0,122
-500,897	-194,506	-0,074	-0,000
-499,883	800,000	0,042	-0,102
-498,868	-94,977	-0,091	0,018
-497,853	800,000	-0,069	0,142
-496,839	800,000	-0,032	0,070
-495,824	-67,748	-0,077	0,021
-494,810	158,764	0,051	0,051
-493,795	21,787	-0,150	0,088
-492,781	117,827	-0,081	0,072
-491,766	57,530	-0,068	-0,048
-490,751	515,191	0,040	-0,068
-489,737	-200,000	0,027	0,113
-488,722	800,000	0,048	-0,106
-487,708	-200,000	0,003	0,052
-486,693	389,311	-0,096	0,144
-485,678	-148,848	0,035	0,002
-484,664	-81,304	-0,128	0,030
-483,649	343,460	0,089	-0,125
-482,635	800,000	0,035	0,099
-481,620	395,353	-0,035	-0,052
-480,605	-53,873	0,153	-0,050
-479,591	-52,724	0,046	0,015
-478,576	-125,054	0,068	0,007
-477,562	378,803	0,044	-0,065
-476,547	528,429	0,075	-0,128
-475,532	124,449	-0,045	0,041
-474,518	146,286	-0,024	0,023
-473,503	92,026	-0,027	0,022
-472,489	-200,000	-0,009	-0,059
-471,474	772,095	0,096	0,189
-470,459	63,817	-0,096	-0,069
-469,445	228,608	-0,061	-0,071
-468,430	95,621	0,103	-0,084
-467,416	800,000	0,024	-0,059
-466,401	800,000	0,073	0,209
-465,386	-178,783	0,072	-0,001
-464,372	-200,000	0,007	-0,032
-463,357	-200,000	0,002	0,008
-462,343	-63,798	-0,105	-0,031
-461,328	-200,000	-0,004	-0,046
-460,313	-18,568	0,086	-0,039
-459,299	-57,828	-0,081	-0,025
-458,284	800,000	0,018	-0,047
-457,270	-200,000	-0,010	-0,123
-456,255	6,394	0,031	0,016
-455,241	-45,087	-0,053	-0,019
-454,226	-200,000	0,037	-0,197
-453,211	65,571	0,058	-0,042
-452,197	-114,386	0,100	0,014
-451,182	142,266	0,021	-0,020
-450,168	-200,000	-0,013	0,148
-449,153	-200,000	0,023	-0,121
-448,138	-179,780	-0,030	0,000
-447,124	-200,000	-0,020	-0,085
-446,109	10,749	0,053	-0,029
-445,095	-200,000	0,012	-0,232
-444,080	82,485	-0,073	-0,057
-443,065	351,382	-0,085	0,120
-442,051	800,000	0,074	0,204
-441,036	128,504	-0,066	-0,060
-440,022	189,067	-0,092	-0,099
-439,007	127,789	0,056	-0,051
-437,992	217,320	0,067	-0,077
-436,978	-93,564	0,120	-0,024
-435,963	-49,502	-0,040	-0,014
-434,949	-200,000	-0,023	-0,089
-433,934	-200,000	-0,002	0,051
-432,919	534,443	0,045	-0,077
-431,905	105,916	0,039	-0,033
-430,890	77,664	0,073	-0,055
-429,876	580,608	0,090	0,159
-428,861	800,000	-0,018	-0,047
-427,846	-31,586	-0,021	0,008
-426,832	477,064	-0,089	-0,146
-425,817	-115,471	-0,123	0,016
-424,803	-81,433	0,075	0,018
-423,788	44,754	0,119	0,079
-422,773	-200,000	0,006	0,098
-421,759	663,180	0,035	0,065
-420,744	-200,000	0,003	-0,081
-419,730	298,747	-0,121	-0,160
-418,715	800,000	-0,033	0,087
-417,701	774,050	0,055	0,108
-416,686	-89,487	0,054	-0,011
-415,671	-55,173	0,087	0,028
-414,657	145,986	0,052	0,050
-413,642	-71,657	-0,114	0,030
-412,628	100,591	-0,037	-0,031
-411,613	378,104	-0,034	0,050
-410,598	-119,980	-0,078	-0,009
-409,584	123,847	0,041	0,037
-408,569	-200,000	0,028	0,123
-407,555	128,275	0,109	0,100
-406,540	427,722	-0,009	-0,014
-405,525	-96,177	-0,124	-0,023
-404,511	187,326	0,018	0,019
-403,496	-200,000	0,020	-0,138
-402,482	294,450	-0,018	0,023
-401,467	-128,065	0,074	0,007
-400,452	212,045	0,085	0,097
-399,438	800,000	0,034	0,068
-398,423	-200,000	-0,011	-0,062
-397,409	359,428	-0,062	-0,089
-396,394	-77,667	0,094	0,023
-395,379	132,949	0,035	0,032
-394,365	-106,917	0,112	0,018
-393,350	-62,002	0,150	0,045
-392,336	-200,000	-0,015	0,131
-391,321	-93,057	0,052	-0,010
-390,306	483,280	-0,042	-0,068
-389,292	233,767	-0,030	-0,035
-388,277	-172,926	0,111	0,002
-387,263	578,274	-0,019	-0,034
-386,248	-89,708	0,117	0,024
-385,233	800,000	0,014	-0,034
-384,219	398,525	-0,063	-0,095
-383,204	182,426	-0,115	-0,121
-382,190	-200,000	0,000	-0,122
-381,175	-200,000	-0,017	-0,117
-380,160	145,492	-0,083	-0,079
-379,146	-125,087	-0,041	-0,004
-378,131	800,000	0,050	0,123
-377,117	-66,384	0,058	0,016
-376,102	-71,870	-0,097	0,026
-375,088	128,349	-0,154	0,141
-374,073	0,602	0,040	-0,020
-373,058	374,797	-0,047	0,069
-372,044	103,590	0,160	-0,134
-371,029	227,761	-0,043	-0,050
-370,015	-79,751	0,063	0,015
-369,000	374,972	-0,106	-0,155
-367,985	-43,383	-0,139	-0,050
-366,971	-200,000	-0,017	-0,148
-365,956	-48,674	0,022	-0,008
-364,942	-64,970	-0,171	-0,049
-363,927	-37,797	-0,015	0,006
-362,912	800,000	-0,075	0,171
-361,898	37,705	0,064	0,040
-360,883	-200,000	-0,030	-0,094
-359,869	179,373	0,039	0,041
-358,854	-200,000	-0,009	-0,035
-357,839	-200,000	-0,029	0,259
-356,825	-34,734	0,158	-0,062
-355,810	-129,815	0,059	0,006
-354,796	63,984	0,016	0,012
-353,781	125,907	0,028	-0,025
-352,766	-59,919	-0,107	-0,033
-351,752	-150,980	0,022	-0,001
-350,737	-200,000	0,002	-0,021
-349,723	-165,600	0,083	0,003
-348,708	800,000	0,046	0,093
-347,693	192,438	0,035	-0,038
-346,679	-200,000	-0,004	0,099
-345,664	800,000	-0,043	-0,087
-344,650	35,263	0,058	0,036
-343,635	-200,000	-0,015	0,094
-342,620	-12,311	0,099	0,046
-341,606	-200,000	-0,007	0,199
-340,591	366,548	0,003	-0,004
-339,577	185,032	-0,051	-0,054
-338,562	15,704	-0,074	-0,041
-337,548	154,793	0,099	0,097
-336,533	-19,364	-0,056	-0,025
-335,518	-77,082	0,032	-0,008
-334,504	-4,175	0,213	0,105
-333,489	-58,018	-0,030	-0,009
-332,475	353,136	0,060	-0,086
-331,460	222,219	-0,015	-0,017
-330,445	23,428	-0,030	0,017
-329,431	60,403	0,177	0,125
-328,416	-82,201	0,126	0,029
-327,402	-200,000	-0,021	0,119
-326,387	-63,005	0,130	0,038
-325,372	-35,758	-0,082	-0,032
-324,358	49,164	-0,108	0,072
-323,343	-200,000	-0,025	-0,122
-322,329	277,405	-0,018	-0,023
-321,314	41,933	0,068	0,044
-320,299	15,771	0,111	-0,062
-319,285	800,000	-0,057	0,141
-318,270	-200,000	-0,007	-0,031
-317,256	-200,000	0,002	0,069
-316,241	800,000	-0,005	0,010
-315,226	-200,000	0,009	-0,139
-314,212	226,388	0,116	-0,135
-313,197	234,332	-0,083	0,098
-312,183	-70,436	0,143	0,038
-311,168	166,042	0,016	0,016
-310,153	-200,000	-0,040	-0,151
-309,139	-111,532	-0,112	0,016
-308,124	-126,222	0,145	-0,015
-307,110	-200,000	-0,002	0,165
-306,095	214,376	-0,098	-0,112
-305,080	-200,000	-0,005	0,017
-304,066	262,016	0,078	0,096
-303,051	168,016	-0,084	-0,086
-302,037	603,732	0,016	0,028
-301,022	-120,073	0,031	-0,004
-300,008	800,000	-0,031	0,075
-298,993	-28,873	0,118	-0,048
-297,978	-53,685	-0,013	0,004
-296,964	-200,000	0,008	-0,153
-295,949	-27,092	-0,106	-0,044
-294,935	-200,000	-0,019	-0,064
-293,920	321,279	0,034	-0,046
-292,905	-77,657	0,086	0,021
-291,891	-200,000	0,040	0,130
-290,876	72,878	-0,054	-0,041
-289,862	800,000	0,018	0,055
-288,847	5,843	-0,085	-0,045
-287,832	81,448	0,033	-0,026
-286,818	166,542	0,093	0,094
-285,803	535,466	0,048	-0,082
-284,789	82,066	0,073	0,056
-283,774	-141,829	0,079	0,006
-282,759	108,803	0,083	0,071
-281,745	-200,000	0,048	0,171
-280,730	42,567	-0,132	-0,085
-279,716	-97,768	-0,075	-0,014
-278,701	-200,000	-0,031	0,138
-277,686	-200,000	0,003	-0,040
-276,672	365,558	-0,069	0,099
-275,657	698,794	0,052	0,097
-274,643	510,852	-0,082	-0,137
-273,628	-200,000	0,054	-0,214
-272,613	-200,000	-0,060	0,195
-271,599	800,000	0,086	0,171
-270,584	-200,000	-0,007	0,160
-269,570	41,992	0,057	-0,037
-268,555	800,000	0,021	0,054
-267,540	-120,366	-0,093	-0,011
-266,526	-200,000	-0,012	-0,060
-265,511	-14,254	0,150	-0,069
-264,497	-200,000	-0,006	-0,136
-263,482	-200,000	-0,023	-0,095
-262,467	425,059	-0,022	0,034
-261,453	800,000	-0,033	0,073
-260,438	-17,940	0,042	-0,019
-259,424	800,000	0,073	-0,178
-258,409	-200,000	0,050	-0,170
-257,395	-128,211	0,101	0,010
-256,380	-23,710	0,094	-0,040
-255,365	628,516	0,028	-0,051
-254,351	278,555	-0,033	0,042
-253,336	-200,000	0,016	0,081
-252,322	75,518	0,028	-0,021
-251,307	-200,000	-0,007	0,123
-250,292	-49,945	0,068	-0,023
-249,278	8,649	-0,055	0,029
-248,263	-186,148	0,050	-0,001
-247,249	165,632	-0,063	-0,063
-246,234	-52,061	0,138	-0,045
-245,219	171,999	-0,186	-0,190
-244,205	112,830	0,060	-0,052
-243,190	-200,000	-0,005	0,100
-242,176	800,000	0,010	0,027
-241,161	-200,000	0,189	-0,000
-240,146	103,625	-0,059	0,049
-239,132	800,000	0,036	0,083
-238,117	-151,643	-0,047	0,002
-237,103	-200,000	0,002	-0,104
-236,088	-200,000	0,004	0,057
-235,073	38,502	-0,114	-0,072
-234,059	151,568	0,053	0,051
-233,044	-4,889	0,146	-0,071
-232,030	-45,804	0,145	0,051
-231,015	800,000	-0,039	-0,110
-230,000	800,000	0,043	-0,124
-228,986	-31,195	-0,070	0,028
-227,971	800,000	0,063	-0,147
-226,957	82,885	-0,036	0,028
-225,942	31,126	0,128	0,078
-224,927	-200,000	0,014	-0,053
-223,913	-200,000	-0,012	0,089
-222,898	163,774	0,027	-0,027
-221,884	225,888	0,027	-0,031
-220,869	-160,219	0,041	0,002
-219,855	-200,000	-0,010	0,043
-218,840	-47,159	0,004	-0,001
-217,825	117,406	0,042	-0,037
-216,811	-97,685	0,110	0,020
-215,796	-37,196	-0,034	0,013
-214,782	-200,000	0,009	0,105
-213,767	800,000	-0,035	-0,107
-212,752	-200,000	-0,022	-0,109
-211,738	715,363	0,024	0,045
-210,723	-65,779	-0,064	0,018
-209,709	110,316	-0,037	0,032
-208,694	-31,512	0,090	-0,036
-207,679	4,165	0,037	0,019
-206,665	-51,791	-0,076	0,025
-205,650	-19,289	-0,146	0,064
-204,636	25,883	-0,025	-0,015
-203,621	263,280	-0,020	0,025
-202,606	96,779	-0,025	-0,020
-201,592	32,635	-0,082	0,050
-200,577	134,202	-0,127	0,117
-199,563	-59,752	-0,049	0,015
-198,548	-26,012	0,209	0,087
-197,533	-157,040	-0,102	0,004
-196,519	309,593	-0,003	-0,004
-195,504	499,975	-0,042	0,070
-194,490	800,000	0,047	-0,127
-193,475	-101,019	0,061	0,011
-192,460	-200,000	-0,006	0,067
-191,446	178,727	0,102	0,106
-190,431	800,000	-0,048	0,096
-189,417	-200,000	0,002	0,050
-188,402	-200,000	0,027	0,089
-187,387	-82,861	-0,068	0,015
-186,373	204,982	0,067	0,074
-185,358	-34,644	0,064	0,025
-184,344	800,000	0,026	-0,052
-183,329	246,459	-0,035	0,042
-182,315	-200,000	0,006	0,193
-181,300	352,523	-0,049	0,070
-180,285	800,000	-0,017	-0,042
-179,271	800,000	-0,050	-0,133
-178,256	-90,482	-0,107	-0,022
-177,242	-43,267	-0,109	0,039
-176,227	-109,424	-0,111	0,017
-175,212	235,523	0,018	0,021
-174,198	-200,000	0,022	-0,081
-173,183	800,000	-0,022	0,067
-172,169	583,582	-0,020	-0,034
-171,154	-97,523	-0,108	-0,020
-170,139	-33,710	0,085	0,033
-169,125	146,732	0,044	0,042
-168,110	101,373	-0,094	0,077
-167,096	-200,000	-0,019	0,085
-166,081	-163,644	0,073	0,002
-165,066	-200,000	-0,010	-0,081
-164,052	-200,000	0,012	-0,041
-163,037	-109,818	-0,183	0,027
-162,023	380,730	0,070	-0,102
-161,008	800,000	-0,046	0,138
-159,993	185,390	0,019	-0,020
-158,979	613,436	-0,045	0,080
-157,964	175,380	-0,039	-0,040
-156,950	115,419	-0,062	0,054
-155,935	800,000	-0,064	-0,141
-154,920	-200,000	0,025	-0,080
-153,906	69,695	0,117	0,085
-152,891	310,909	-0,096	0,128
-151,877	-45,013	0,058	0,021
-150,862	-130,746	-0,044	0,004
-149,847	-26,770	-0,038	-0,016
-148,833	209,523	0,051	-0,057
-147,818	-200,000	-0,014	0,064
-146,804	536,409	0,055	0,093
-145,789	800,000	0,046	0,091
-144,775	-200,000	0,005	0,049
-143,760	800,000	-0,022	0,062
-142,745	255,921	-0,073	-0,089
-141,731	-33,690	0,161	0,063
-140,716	-92,870	0,105	0,021
-139,702	-200,000	-0,018	0,106
-138,687	-200,000	0,018	0,095
-137,672	-94,834	-0,101	0,019
-136,658	-200,000	-0,006	-0,059
-135,643	-200,000	-0,032	-0,133
-134,629	179,082	0,008	0,008
-133,614	307,284	-0,067	0,089
-132,599	-109,706	0,044	0,007
-131,585	149,615	0,085	-0,082
-130,570	-19,411	-0,040	-0,018
-129,556	-200,000	-0,006	-0,034
-128,541	-40,876	-0,123	0,045
-127,526	800,000	-0,048	-0,140
-126,512	-200,000	-0,013	-0,101
-125,497	559,108	-0,051	0,088
-124,483	-200,000	0,022	0,149
-123,468	-1,779	0,032	-0,016
-122,453	-23,925	-0,098	-0,041
-121,439	-109,939	-0,089	-0,013
-120,424	11,999	-0,117	-0,064
-119,410	-200,000	-0,004	0,083
-118,395	240,336	-0,025	-0,029
-117,380	-200,000	-0,003	0,059
-116,366	-106,579	0,038	-0,006
-115,351	66,475	0,035	0,026
-114,337	415,847	0,044	-0,067
-113,322	-106,848	-0,189	-0,029
-112,307	-200,000	0,013	0,098
-111,293	356,241	-0,060	0,085
-110,278	800,000	0,041	0,085
-109,264	-47,226	-0,038	0,013
-108,249	171,520	-0,043	-0,043
-107,234	800,000	-0,029	-0,079
-106,220	800,000	0,013	-0,027
-105,205	91,876	-0,182	0,145
-104,191	374,539	0,080	0,116
-103,176	-129,208	0,146	0,014
-102,162	-200,000	-0,005	0,017
-101,147	565,864	-0,024	-0,041
-100,132	459,285	0,097	-0,153
-99,118	800,000	-0,049	-0,109
-98,103	800,000	0,030	-0,070
-97,089	-200,000	-0,007	0,083
-96,074	800,000	0,070	0,157
-95,059	-200,000	0,021	-0,097
-94,045	220,104	-0,032	0,037
-93,030	-200,000	-0,010	-0,081
-92,016	10,381	0,007	-0,004
-91,001	-107,572	-0,111	-0,017
-89,986	-200,000	0,031	-0,145
-88,972	-200,000	0,003	0,141
-87,957	800,000	-0,031	0,063
-86,943	-200,000	-0,020	0,163
-85,928	107,041	0,040	0,034
-84,913	505,976	-0,081	-0,134
-83,899	-200,000	0,005	-0,045
-82,884	139,235	0,012	-0,011
-81,870	-49,232	0,076	-0,026
-80,855	-90,627	-0,046	0,009
-79,840	604,562	0,028	-0,049
-78,826	22,974	-0,077	0,045
-77,811	647,902	0,031	-0,055
-76,797	800,000	-0,034	0,080
-75,782	-125,511	-0,100	0,011
-74,767	-200,000	0,006	0,141
-73,753	488,252	0,037	0,060
-72,738	3,699	0,110	0,056
-71,724	-200,000	-0,002	-0,024
-70,709	369,193	0,030	-0,044
-69,694	800,000	-0,019	-0,060
-68,680	-200,000	-0,013	0,041
-67,665	109,046	0,127	0,108
-66,651	-200,000	0,010	0,035
-65,636	-200,000	0,013	-0,113
-64,622	510,272	-0,046	-0,075
-63,607	30,770	-0,079	-0,047
-62,592	-200,000	0,054	-0,178
-61,578	-34,913	-0,038	-0,015
-60,563	3,978	-0,047	0,024
-59,549	553,592	-0,110	0,188
-58,534	8,080	-1,612	-0,853
-57,519	542,358	-1,132	-1,917
-56,505	-200,000	-0,516	-4,593
-55,490	393,457	0,951	1,404
-54,476	800,000	4,917	11,337
-53,461	-200,000	20,245	324,445
-52,446	800,000	752,450	2312,644
-51,432	548,831	1663,658	2829,864
-50,417	75,052	1672,053	1244,707
-49,403	20,021	1544,926	878,692
-48,388	14,048	1467,283	805,463
-47,373	18,292	1457,512	820,575
-46,359	16,345	1446,952	805,268
-45,344	12,302	1442,432	783,352
-44,330	12,207	1440,740	781,947
-43,315	12,216	1438,936	780,981
-42,300	12,207	1437,444	780,100
-41,286	12,218	1436,127	779,403
-40,271	12,200	1434,731	778,531
-39,257	12,229	1433,253	777,837
-38,242	12,259	1432,204	777,378
-37,227	12,298	1430,982	776,868
-36,213	12,232	1429,899	775,937
-35,198	12,283	1428,500	775,390
-34,184	12,335	1427,381	774,997
-33,169	12,262	1426,042	773,893
-32,154	12,263	1425,238	773,433
-31,140	12,340	1423,623	772,892
-30,125	12,335	1422,710	772,342
-29,111	12,319	1421,483	771,568
-28,096	12,308	1420,387	770,890
-27,082	12,227	1419,245	769,855
-26,067	12,217	1418,353	769,295
-25,052	12,252	1417,123	768,765
-24,038	12,231	1416,095	768,075
-23,023	12,218	1414,992	767,385
-22,009	12,211	1413,957	766,760
-20,994	12,198	1413,072	766,191
-19,979	12,206	1412,250	765,753
-18,965	12,166	1411,601	765,184
-17,950	12,132	1410,474	764,382
-16,936	12,150	1409,904	764,123
-15,921	12,099	1408,783	763,247
-14,906	12,125	1407,677	762,740
-13,892	12,138	1406,716	762,251
-12,877	12,150	1405,684	761,716
-11,863	12,090	1405,140	761,111
-10,848	12,096	1404,149	760,572
-9,833	12,070	1403,251	759,935
-8,819	12,014	1402,457	759,212
-7,804	12,006	1401,580	758,671
-6,790	11,987	1400,758	758,107
-5,775	12,063	1399,345	757,666
-4,760	12,033	1398,425	756,998
-3,746	12,034	1397,619	756,540
-2,731	11,982	1396,822	755,833
-1,717	11,972	1396,046	755,340
-0,702	11,975	1394,174	754,312
0,313	16,007	1308,862	726,750
1,327	32,313	699,577	425,904
2,342	50,633	121,754	81,298
3,356	2,200	16,557	8,429
4,371	5,197	3,349	1,739
5,386	-15,290	0,594	0,268
6,400	800,000	0,119	0,285
7,415	46,966	-0,247	-0,162
8,429	128,791	-0,205	-0,184
9,444	-122,423	-0,389	-0,044
10,459	-51,339	-0,257	-0,084
11,473	130,895	-0,342	-0,310
12,488	8,400	-0,170	-0,090
13,502	8,519	-0,219	-0,116
14,517	35,431	-0,326	-0,202
15,531	0,307	-0,385	-0,193
16,546	-47,412	-0,292	-0,100
17,561	372,781	-0,254	-0,365
18,575	86,127	-0,241	-0,187
19,590	167,174	-0,322	-0,323
20,604	-39,617	-0,248	-0,091
21,619	5,448	-0,388	-0,201
22,634	26,114	-0,540	-0,318
23,648	62,342	-0,438	-0,308
24,663	69,291	-0,362	-0,262
25,677	184,006	-0,331	-0,346
26,692	67,094	-0,350	-0,252
27,707	157,677	-0,343	-0,335
28,721	103,520	-0,364	-0,301
29,736	83,716	-0,334	-0,256
30,750	72,404	-0,338	-0,248
31,765	-44,755	-0,415	-0,145
32,780	253,695	-0,307	-0,370
33,794	22,528	-0,433	-0,249
34,809	-44,153	-0,394	-0,139
35,823	99,444	-0,308	-0,251
36,838	262,781	-0,307	-0,376
37,853	137,355	-0,277	-0,256
38,867	86,364	-0,343	-0,266
39,882	284,765	-0,230	-0,292
40,896	-10,554	-0,453	-0,210
41,911	-28,508	-0,422	-0,171
42,926	8,018	-0,364	-0,192
43,940	172,649	-0,313	-0,317
44,955	40,214	-0,380	-0,240
45,969	29,400	-0,398	-0,238
46,984	80,211	-0,290	-0,219
47,999	69,147	-0,206	-0,149
49,013	148,533	-0,273	-0,260
50,028	185,114	-0,224	-0,234
51,042	-102,061	-0,434	-0,073
52,057	-54,905	-0,349	-0,110
53,071	69,161	-0,240	-0,173
54,086	49,369	-0,357	-0,236
55,101	364,215	-0,257	-0,365
56,115	86,110	-0,308	-0,238
57,130	15,478	-0,325	-0,179
58,144	78,124	-0,376	-0,282
59,159	80,895	-0,454	-0,344
60,174	79,828	-0,374	-0,282
61,188	51,525	-0,489	-0,326
62,203	37,976	-0,284	-0,177
63,217	141,264	-0,288	-0,268
64,232	12,117	-0,279	-0,151
65,247	27,513	-0,395	-0,233
66,261	163,570	-0,305	-0,302
67,276	56,460	-0,392	-0,267
68,290	-13,223	-0,382	-0,174
69,305	-68,317	-0,300	-0,081
70,320	-13,830	-0,257	-0,116
71,334	-129,984	-0,415	-0,039
72,349	38,571	-0,337	-0,211
73,363	10,915	-0,266	-0,142
74,378	156,195	-0,324	-0,314
75,393	71,629	-0,281	-0,205
76,407	36,572	-0,312	-0,193
77,422	532,365	-0,218	-0,363
78,436	34,612	-0,256	-0,156
79,451	0,871	-0,309	-0,155
80,466	335,198	-0,220	-0,301
81,480	-0,859	-0,340	-0,168
82,495	15,589	-0,282	-0,155
83,509	-20,069	-0,383	-0,165
84,524	409,369	-0,189	-0,281
85,539	-76,388	-0,170	-0,042
86,553	296,311	-0,212	-0,273
87,568	191,143	-0,266	-0,281
88,582	16,140	-0,303	-0,167
89,597	346,363	-0,266	-0,368
90,611	162,825	-0,250	-0,246
91,626	-9,806	-0,287	-0,133
92,641	126,650	-0,265	-0,235
93,655	14,345	-0,393	-0,214
94,670	131,180	-0,303	-0,272
95,684	188,309	-0,262	-0,275
96,699	800,000	-0,076	-0,214
97,714	59,970	-0,275	-0,190
98,728	49,213	-0,251	-0,165
99,743	-3,878	-0,246	-0,119
100,757	29,638	-0,275	-0,164
101,772	297,660	-0,237	-0,305
102,787	218,322	-0,328	-0,367
103,801	-9,039	-0,368	-0,172
104,816	65,160	-0,199	-0,140
105,830	94,099	-0,238	-0,189
106,845	6,765	-0,267	-0,139
107,860	3,401	-0,233	-0,119
108,874	178,800	-0,225	-0,231
109,889	7,794	-0,345	-0,180
110,903	-43,280	-0,372	-0,131
111,918	-75,675	-0,327	-0,081
112,933	152,084	-0,121	-0,115
113,947	7,788	-0,292	-0,153
114,962	-13,338	-0,121	-0,055
115,976	75,026	-0,161	-0,118
116,991	-124,498	-0,351	-0,038
118,006	3,602	-0,391	-0,199
119,020	68,951	-0,249	-0,179
120,035	66,793	-0,253	-0,180
121,049	202,212	-0,144	-0,155
122,064	166,197	-0,258	-0,256
123,079	166,789	-0,217	-0,216
124,093	255,820	-0,217	-0,260
125,108	25,342	-0,248	-0,144
126,122	62,082	-0,273	-0,190
127,137	111,837	-0,113	-0,096
128,151	-110,225	-0,327	-0,047
129,166	1,560	-0,196	-0,098
130,181	63,697	-0,274	-0,192
131,195	46,360	-0,247	-0,160
132,210	473,639	-0,135	-0,214
133,224	36,014	-0,288	-0,177
134,239	146,743	-0,275	-0,258
135,254	102,297	-0,226	-0,184
136,268	42,129	-0,342	-0,217
137,283	58,503	-0,179	-0,122
138,297	22,035	-0,243	-0,138
139,312	17,574	-0,203	-0,113
140,327	21,056	-0,349	-0,197
141,341	34,289	-0,290	-0,176
142,356	149,490	-0,234	-0,222
143,370	-26,450	-0,244	-0,099
144,385	303,472	-0,229	-0,296
145,400	260,311	-0,241	-0,291
146,414	103,186	-0,190	-0,156
147,429	-75,775	-0,366	-0,090
148,443	800,000	-0,079	-0,166
149,458	1,372	-0,328	-0,164
150,473	41,604	-0,257	-0,162
151,487	800,000	-0,116	-0,228
152,502	-0,619	-0,249	-0,123
153,516	72,941	-0,187	-0,136
154,531	126,365	-0,217	-0,191
155,546	-11,511	-0,243	-0,111
156,560	102,904	-0,318	-0,260
157,575	375,465	-0,149	-0,213
158,589	215,344	-0,172	-0,190
159,604	-10,065	-0,322	-0,148
160,619	298,214	-0,228	-0,292
161,633	574,003	-0,114	-0,195
162,648	88,861	-0,301	-0,233
163,662	396,715	-0,148	-0,216
164,677	99,507	-0,235	-0,189
165,692	160,909	-0,142	-0,138
166,706	316,292	-0,144	-0,190
167,721	18,838	-0,247	-0,138
168,735	-58,296	-0,197	-0,059
169,750	166,429	-0,088	-0,087
170,764	212,615	-0,261	-0,287
171,779	26,590	-0,267	0,155
172,794	305,071	-0,085	-0,110
173,808	94,192	-0,206	-0,162
174,823	-124,648	-0,202	-0,022
175,837	8,097	-0,211	-0,110
176,852	104,419	-0,258	-0,212
177,867	42,077	-0,312	-0,197
178,881	-46,268	-0,367	-0,125
179,896	37,923	-0,274	-0,169
180,910	12,071	-0,116	-0,062
181,925	106,139	-0,437	-0,360
182,940	-15,264	-0,290	-0,129
183,954	-200,000	-0,046	-0,163
184,969	414,096	-0,141	-0,210
185,983	275,567	-0,133	-0,165
186,998	-183,750	-0,148	-0,002
188,013	85,950	-0,194	-0,148
189,027	-119,341	-0,228	-0,027
190,042	800,000	-0,091	-0,272
191,056	49,448	-0,210	-0,137
192,071	86,725	-0,221	-0,169
193,086	-22,116	-0,201	-0,084
194,100	-81,879	-0,387	-0,087
195,115	334,411	-0,094	-0,126
196,129	69,598	-0,193	-0,138
197,144	116,091	-0,238	-0,202
198,159	202,986	-0,189	-0,204
199,173	51,252	-0,190	-0,125
200,188	99,960	-0,101	-0,082
201,202	21,355	-0,112	-0,063
202,217	-126,080	-0,210	-0,022
203,232	214,705	-0,106	-0,117
204,246	514,056	-0,170	-0,276
205,261	124,134	-0,205	-0,179
206,275	301,953	-0,297	-0,382
207,290	-74,780	-0,258	-0,064
208,304	17,237	-0,148	-0,081
209,319	351,865	-0,123	-0,169
210,334	-183,248	-0,251	-0,003
211,348	-57,560	-0,232	-0,070
212,363	94,077	-0,236	-0,186
213,377	133,194	-0,211	-0,189
214,392	-200,000	-0,039	-0,233
215,407	-60,564	-0,201	0,059
216,421	434,307	-0,147	-0,222
217,436	84,559	-0,179	-0,136
218,450	115,546	-0,183	-0,155
219,465	160,313	-0,145	-0,140
220,480	146,438	-0,228	-0,213
221,494	157,085	-0,186	-0,178
222,509	172,538	-0,187	-0,187
223,523	169,233	-0,181	-0,180
224,538	-4,017	-0,186	-0,089
225,553	215,917	-0,181	-0,200
226,567	141,083	-0,206	-0,189
227,582	-58,753	-0,294	-0,088
228,596	16,530	-0,132	-0,072
229,611	-115,853	-0,100	0,013
230,626	37,741	-0,250	-0,154
231,640	-77,615	-0,202	-0,048
232,655	119,291	-0,246	-0,211
233,669	154,492	-0,188	-0,179
234,684	-118,748	-0,271	0,033
235,699	0,764	-0,149	-0,074
236,713	244,928	-0,145	-0,169
237,728	480,049	-0,113	-0,178
238,742	20,810	-0,207	-0,116
239,757	-8,094	-0,214	-0,099
240,772	-97,526	-0,248	-0,044
241,786	-126,426	-0,114	-0,012
242,801	-200,000	-0,040	-0,146
243,815	182,054	-0,150	-0,153
244,830	62,261	-0,159	-0,109
245,844	-52,342	-0,154	-0,049
246,859	28,785	-0,250	-0,146
247,874	305,879	-0,167	-0,215
248,888	441,947	-0,182	-0,276
249,903	44,472	-0,182	-0,115
250,917	-71,614	-0,098	-0,025
251,932	-162,978	-0,105	-0,003
252,947	23,541	-0,237	-0,134
253,961	-44,280	-0,263	-0,090
254,976	756,617	-0,109	-0,205
255,990	446,392	-0,150	-0,229
257,005	225,253	-0,144	-0,162
258,020	158,495	-0,124	-0,119
259,034	180,794	-0,044	-0,044
260,049	-16,981	-0,214	-0,093
261,063	226,106	-0,208	-0,234
262,078	800,000	-0,095	-0,217
263,093	42,996	-0,267	-0,168
264,107	79,130	-0,232	-0,172
265,122	266,322	-0,099	-0,120
266,136	6,551	-0,168	-0,086
267,151	-87,471	-0,228	-0,047
268,166	313,363	-0,160	-0,208
269,180	280,098	-0,167	-0,207
270,195	73,191	-0,297	-0,214
271,209	84,838	-0,247	-0,186
272,224	-9,728	-0,250	-0,115
273,239	-69,979	-0,234	-0,061
274,253	-65,497	-0,174	-0,048
275,268	209,025	-0,107	-0,116
276,282	81,909	-0,301	-0,225
277,297	9,150	-0,218	-0,113
278,312	300,905	-0,102	-0,130
279,326	-114,687	-0,194	0,025
280,341	494,707	-0,090	-0,143
281,355	228,363	-0,156	-0,175
282,370	192,683	-0,100	-0,104
283,384	-55,633	-0,213	-0,065
284,399	-130,032	-0,193	-0,018
285,414	66,362	-0,140	-0,098
286,428	104,496	-0,187	-0,151
287,443	-64,353	-0,060	-0,017
288,457	-70,873	-0,147	-0,038
289,472	-119,387	-0,217	0,026
290,487	-122,410	-0,206	-0,023
291,501	305,792	-0,155	-0,199
292,516	-200,000	-0,043	-0,234
293,530	21,314	-0,133	0,074
294,545	-73,423	-0,156	0,039
295,560	-43,125	-0,106	-0,037
296,574	-159,961	-0,173	0,006
297,589	-200,000	-0,057	-0,217
298,603	800,000	-0,114	-0,223
299,618	-71,163	-0,121	-0,031
300,633	193,632	-0,140	-0,146
301,647	-36,723	-0,170	-0,062
302,662	-101,250	-0,119	-0,020
303,676	131,928	-0,072	-0,063
304,691	226,780	-0,203	-0,228
305,706	240,728	-0,144	-0,166
306,720	-78,034	-0,116	0,027
307,735	798,381	-0,119	-0,226
308,749	236,134	-0,125	-0,142
309,764	-172,213	-0,013	-0,000
310,779	718,263	-0,049	-0,091
311,793	-89,592	-0,105	0,021
312,808	-37,474	-0,125	-0,046
313,822	-200,000	-0,038	-0,274
314,837	-51,180	-0,159	-0,051
315,852	-19,883	-0,181	-0,076
316,866	800,000	-0,029	-0,073
317,881	-61,794	-0,118	-0,034
318,895	49,121	-0,183	-0,118
319,910	-28,324	-0,163	-0,064
320,925	420,180	-0,121	-0,178
321,939	800,000	-0,095	-0,213
322,954	499,531	-0,120	-0,191
323,968	209,026	-0,113	-0,121
324,983	-38,587	-0,210	-0,076
325,997	-178,647	-0,192	0,003
327,012	262,743	-0,103	-0,124
328,027	116,942	-0,088	-0,074
329,041	59,374	-0,204	-0,138
330,056	100,047	-0,157	-0,125
331,070	76,523	-0,143	-0,104
332,085	677,079	-0,064	-0,115
333,100	-122,989	-0,117	-0,013
334,114	-116,639	-0,163	-0,020
335,129	64,789	-0,298	-0,206
336,143	121,648	-0,124	-0,106
337,158	7,323	-0,080	0,041
338,173	-200,000	-0,023	-0,162
339,187	237,323	-0,080	-0,091
340,202	153,491	-0,081	-0,076
341,216	-59,826	-0,204	-0,059
342,231	-2,703	-0,159	-0,076
343,246	800,000	-0,050	-0,095
344,260	117,339	-0,056	-0,048
345,275	28,772	-0,110	0,064
346,289	30,442	-0,115	-0,067
347,304	342,082	-0,121	-0,162
348,319	-86,375	-0,085	-0,018
349,333	-54,028	-0,203	-0,063
350,348	200,567	-0,178	-0,188
351,362	106,407	-0,175	-0,142
352,377	83,920	-0,130	-0,097
353,392	4,088	-0,129	-0,065
354,406	143,902	-0,070	-0,064
355,421	209,069	1312,069	1409,467
356,435	160,895	1472,451	1409,945
