DTS Sentinel unit serial number:	SN410029Multiplexer serial number:	ORYXHardware model number:	OX2-SRSoftware version number:	ORYX F/W v4,00 Oryx Data Collector v3.7.2.0data status	okinstallation	B3 Nyhavnadifferential loss correction	single-endedforward channel	channel 1reverse channel	N/Adate	2023/12/01time	22:57:30forward acquisition time	300,00reverse acquisition time	0,00gamma	499,1914k internal	0,3196k external	0,3196temperature offset calibration	1,0000default loss term (dB/km)	0,3820temperature slope calibration	1,0000multiplexer offset coefficient	1,0000multiplexer slope coefficient	1,0000fibre end	0,00T internal ref (°C)	15,84T ext. ref 1 (°C)	1,06T ext. ref 2 (°C)	1,03length (m)	temperature (°C)	Stokes	anti-Stokes-744,400	-200,000	-0,045	-0,238
-743,385	-200,000	0,051	0,368
-742,371	62,977	-0,218	-0,159
-741,356	-200,000	0,006	0,352
-740,342	312,790	-0,211	-0,289
-739,327	-200,000	0,012	0,156
-738,312	386,380	-0,203	-0,306
-737,298	-200,000	0,052	0,258
-736,283	164,071	-0,270	-0,277
-735,269	-200,000	0,080	0,334
-734,254	183,189	-0,304	-0,328
-733,239	39,743	-0,156	0,102
-732,225	239,223	-0,171	-0,207
-731,210	800,000	0,012	-0,027
-730,196	800,000	0,020	-0,047
-729,181	-51,016	0,135	-0,046
-728,167	95,194	0,070	-0,058
-727,152	181,016	-0,135	-0,145
-726,137	70,136	-0,040	0,030
-725,123	707,574	0,013	-0,024
-724,108	-34,294	-0,230	-0,092
-723,094	595,562	-0,086	-0,155
-722,079	-200,000	-0,014	-0,110
-721,064	800,000	-0,041	-0,109
-720,050	-200,000	-0,012	0,097
-719,035	-80,794	-0,109	0,026
-718,021	800,000	-0,048	0,138
-717,006	800,000	-0,068	-0,161
-715,991	-4,032	-0,119	-0,060
-714,977	-200,000	-0,039	-0,132
-713,962	800,000	-0,069	-0,158
-712,948	-77,395	0,052	0,013
-711,933	-44,904	0,077	0,028
-710,918	-200,000	-0,020	-0,120
-709,904	-200,000	-0,007	0,042
-708,889	-200,000	0,004	-0,065
-707,875	-145,220	-0,171	-0,011
-706,860	78,188	-0,202	-0,157
-705,845	595,756	0,018	-0,032
-704,831	284,490	0,058	0,076
-703,816	-200,000	0,026	0,124
-702,802	800,000	-0,030	-0,068
-701,787	800,000	0,049	-0,101
-700,772	-91,082	0,123	-0,025
-699,758	-11,357	-0,099	0,047
-698,743	-200,000	0,000	0,044
-697,729	54,590	0,103	0,072
-696,714	-81,954	-0,094	0,022
-695,699	-200,000	-0,005	0,101
-694,685	-200,000	-0,003	-0,091
-693,670	-200,000	-0,058	-0,230
-692,656	800,000	0,079	-0,166
-691,641	-56,832	-0,023	0,007
-690,627	-200,000	0,044	0,164
-689,612	-200,000	-0,012	-0,061
-688,597	-200,000	0,012	-0,082
-687,583	-200,000	0,019	0,135
-686,568	-92,724	-0,057	0,011
-685,554	546,360	-0,024	0,042
-684,539	212,789	-0,077	-0,088
-683,524	326,205	0,048	0,067
-682,510	406,504	0,033	-0,051
-681,495	-200,000	0,002	0,031
-680,481	315,354	-0,130	-0,179
-679,466	35,393	-0,134	-0,085
-678,451	761,157	-0,087	-0,172
-677,437	69,071	-0,099	-0,074
-676,422	0,927	-0,051	-0,026
-675,408	800,000	-0,046	-0,099
-674,393	-200,000	0,005	-0,071
-673,378	-176,299	-0,016	-0,000
-672,364	512,684	-0,049	-0,083
-671,349	-200,000	-0,026	-0,122
-670,335	-32,394	0,141	-0,057
-669,320	522,617	0,078	0,133
-668,305	520,786	-0,071	0,122
-667,291	142,761	-0,022	-0,021
-666,276	124,050	-0,075	-0,068
-665,262	565,633	-0,081	0,143
-664,247	-156,683	-0,057	-0,003
-663,232	-30,476	0,062	-0,025
-662,218	680,348	0,044	0,083
-661,203	-200,000	-0,034	0,149
-660,189	288,631	0,054	-0,071
-659,174	618,178	-0,012	0,021
-658,159	-191,292	-0,085	0,001
-657,145	-43,586	-0,139	-0,051
-656,130	800,000	0,035	-0,079
-655,116	800,000	0,035	-0,077
-654,101	-200,000	-0,022	-0,131
-653,086	-156,264	0,104	0,005
-652,072	-4,242	-0,066	-0,033
-651,057	800,000	-0,054	-0,125
-650,043	-200,000	-0,046	-0,202
-649,028	243,723	-0,047	0,058
-648,014	-136,606	0,119	-0,010
-646,999	531,625	-0,054	-0,092
-645,984	28,389	0,113	-0,069
-644,970	347,956	0,032	0,045
-643,955	-139,882	-0,175	-0,013
-642,941	647,211	-0,050	-0,093
-641,926	-12,396	-0,076	-0,036
-640,911	-40,731	0,100	0,037
-639,897	142,579	0,082	0,079
-638,882	-48,636	-0,204	-0,071
-637,868	-66,056	0,025	-0,007
-636,853	501,009	-0,061	0,102
-635,838	800,000	0,020	-0,062
-634,824	56,494	-0,165	-0,116
-633,809	-25,143	-0,039	0,016
-632,795	-97,812	0,150	-0,028
-631,780	-19,202	-0,014	0,006
-630,765	206,840	0,004	0,005
-629,751	123,305	0,077	-0,070
-628,736	-200,000	-0,025	0,115
-627,722	-147,983	-0,058	0,003
-626,707	-200,000	0,009	0,042
-625,692	-136,926	0,097	-0,008
-624,678	214,646	-0,030	0,034
-623,663	70,473	-0,094	-0,071
-622,649	-97,895	0,047	-0,009
-621,634	39,062	0,064	0,042
-620,619	67,537	0,089	-0,066
-619,605	-200,000	0,005	-0,042
-618,590	-14,383	-0,036	0,017
-617,576	79,719	0,021	-0,017
-616,561	150,605	-0,073	-0,072
-615,546	-100,004	-0,227	0,041
-614,532	31,786	-0,128	-0,080
-613,517	-29,933	0,042	0,017
-612,503	-200,000	-0,008	0,062
-611,488	33,919	-0,034	-0,021
-610,474	-111,059	0,036	-0,005
-609,459	146,365	-0,074	0,072
-608,444	-200,000	-0,020	0,069
-607,430	-200,000	-0,008	-0,043
-606,415	-132,447	0,139	0,013
-605,401	563,292	-0,048	0,085
-604,386	101,171	0,003	0,003
-603,371	-74,301	-0,123	0,032
-602,357	-200,000	-0,017	0,074
-601,342	407,713	-0,064	-0,099
-600,328	-11,188	-0,136	-0,065
-599,313	121,492	0,044	-0,040
-598,298	-200,000	0,012	0,067
-597,284	-90,235	-0,078	0,016
-596,269	-92,812	0,115	0,023
-595,255	-200,000	0,015	-0,051
-594,240	597,045	-0,054	-0,097
-593,225	-70,546	-0,171	0,047
-592,211	-44,822	-0,082	-0,029
-591,196	308,323	-0,008	-0,011
-590,182	-111,603	0,106	-0,015
-589,167	-77,534	0,045	0,011
-588,152	-97,380	0,170	0,032
-587,138	-39,983	-0,095	-0,036
-586,123	-200,000	-0,003	-0,098
-585,109	-200,000	-0,005	-0,110
-584,094	387,215	-0,042	0,062
-583,079	329,623	-0,042	0,058
-582,065	90,025	0,052	-0,042
-581,050	323,815	0,058	-0,080
-580,036	-56,164	-0,026	-0,008
-579,021	-200,000	-0,003	-0,036
-578,006	179,500	-0,053	0,056
-576,992	-200,000	-0,013	-0,062
-575,977	37,790	0,047	-0,030
-574,963	800,000	-0,020	-0,041
-573,948	56,870	-0,069	-0,048
-572,934	66,939	-0,059	-0,043
-571,919	-200,000	0,002	-0,055
-570,904	-154,010	-0,168	-0,008
-569,890	-200,000	0,012	0,090
-568,875	-80,492	0,033	-0,008
-567,861	145,044	0,073	-0,071
-566,846	555,423	0,061	0,107
-565,831	800,000	-0,030	0,078
-564,817	-53,388	-0,119	-0,039
-563,802	-50,346	-0,084	0,029
-562,788	-200,000	-0,029	-0,205
-561,773	255,446	0,016	0,019
-560,758	-113,802	0,142	0,020
-559,744	-200,000	-0,025	-0,124
-558,729	47,895	0,031	0,021
-557,715	322,428	0,024	0,033
-556,700	-59,730	0,150	-0,046
-555,685	-200,000	-0,026	-0,087
-554,671	-54,810	0,102	-0,033
-553,656	-105,328	0,054	-0,009
-552,642	800,000	0,007	0,020
-551,627	-200,000	0,011	0,043
-550,612	800,000	-0,021	-0,058
-549,598	585,609	0,071	-0,127
-548,583	-200,000	-0,013	-0,049
-547,569	-53,001	-0,083	-0,027
-546,554	154,177	0,054	-0,053
-545,539	800,000	-0,005	0,013
-544,525	-200,000	0,003	-0,084
-543,510	56,661	0,167	-0,117
-542,496	-41,160	-0,136	0,050
-541,481	-200,000	-0,024	-0,107
-540,466	35,208	0,115	0,073
-539,452	-200,000	-0,014	0,122
-538,437	-200,000	0,052	0,174
-537,423	800,000	-0,039	-0,095
-536,408	800,000	0,031	-0,069
-535,393	-41,607	-0,211	-0,078
-534,379	35,685	-0,106	0,067
-533,364	-200,000	-0,013	-0,124
-532,350	-115,470	0,028	-0,004
-531,335	280,082	0,048	-0,062
-530,321	493,257	0,035	-0,058
-529,306	69,824	0,072	0,053
-528,291	-158,095	-0,077	0,003
-527,277	-64,478	-0,108	-0,032
-526,262	-54,666	0,054	-0,018
-525,248	-7,917	0,081	0,040
-524,233	-59,396	-0,117	0,036
-523,218	719,467	-0,031	-0,060
-522,204	400,262	-0,074	-0,112
-521,189	340,313	-0,010	0,014
-520,175	16,422	-0,194	-0,110
-519,160	380,158	-0,083	0,123
-518,145	92,436	0,028	-0,023
-517,131	-145,911	0,086	0,005
-516,116	800,000	0,013	0,031
-515,102	431,979	-0,067	-0,106
-514,087	51,271	-0,124	0,085
-513,072	-200,000	0,004	0,055
-512,058	800,000	-0,028	-0,074
-511,043	-200,000	0,022	0,120
-510,029	265,963	0,056	0,071
-509,014	-200,000	-0,057	0,190
-507,999	-200,000	0,014	0,063
-506,985	432,829	0,047	0,073
-505,970	428,791	-0,040	0,062
-504,956	341,402	-0,107	-0,152
-503,941	800,000	0,041	0,094
-502,926	-77,999	-0,055	0,014
-501,912	-200,000	0,031	0,164
-500,897	800,000	0,031	0,070
-499,883	-89,745	0,085	0,018
-498,868	-87,095	0,193	-0,042
-497,853	-200,000	-0,052	-0,201
-496,839	-40,756	-0,042	-0,016
-495,824	-61,416	0,122	0,037
-494,810	536,036	0,011	-0,018
-493,795	-200,000	-0,002	0,037
-492,781	-100,395	-0,124	-0,022
-491,766	176,332	0,060	-0,063
-490,751	800,000	-0,029	-0,061
-489,737	800,000	-0,033	-0,073
-488,722	603,539	0,065	0,116
-487,708	-71,203	0,152	-0,041
-486,693	-200,000	-0,001	0,120
-485,678	800,000	0,023	-0,058
-484,664	107,879	-0,090	-0,078
-483,649	-200,000	-0,002	-0,087
-482,635	-200,000	0,018	-0,073
-481,620	-7,685	0,033	0,016
-480,605	166,148	0,069	0,071
-479,591	-3,180	0,182	0,091
-478,576	294,023	-0,066	-0,087
-477,562	-63,131	-0,179	0,053
-476,547	142,255	0,082	-0,078
-475,532	-126,406	-0,091	0,010
-474,518	-200,000	0,021	0,080
-473,503	-142,836	0,167	0,012
-472,489	550,631	-0,022	0,038
-471,474	-105,564	-0,174	0,028
-470,459	43,263	0,114	0,075
-469,445	-200,000	-0,013	-0,072
-468,430	30,182	0,054	0,033
-467,416	421,215	0,032	0,050
-466,401	406,688	-0,025	-0,039
-465,386	491,635	-0,059	-0,098
-464,372	-139,745	0,093	-0,007
-463,357	-45,604	0,103	-0,036
-462,343	-200,000	-0,005	-0,187
-461,328	-16,837	0,161	-0,073
-460,313	800,000	0,026	-0,078
-459,299	-200,000	0,016	-0,217
-458,284	800,000	0,020	-0,049
-457,270	-28,632	0,099	-0,041
-456,255	-19,882	0,042	0,019
-455,241	352,102	-0,126	-0,180
-454,226	800,000	0,107	0,214
-453,211	-82,224	0,018	0,004
-452,197	-47,016	0,067	0,023
-451,182	610,648	-0,035	0,063
-450,168	7,244	0,197	0,106
-449,153	-200,000	0,017	-0,110
-448,138	-33,760	-0,086	-0,034
-447,124	800,000	-0,013	-0,025
-446,109	-38,944	-0,177	0,067
-445,095	368,830	0,035	-0,052
-444,080	800,000	0,024	0,050
-443,065	97,683	-0,161	-0,133
-442,051	-60,440	0,078	-0,024
-441,036	800,000	0,024	-0,065
-440,022	403,133	0,018	-0,028
-439,007	284,159	0,097	-0,126
-437,992	-89,528	-0,074	-0,016
-436,978	23,461	0,102	0,060
-435,963	-136,288	-0,048	-0,004
-434,949	-86,470	-0,124	0,027
-433,934	4,525	0,047	-0,025
-432,919	800,000	-0,063	-0,134
-431,905	-33,535	-0,067	-0,026
-430,890	752,802	-0,092	0,179
-429,876	208,575	0,119	0,134
-428,861	288,185	-0,067	0,088
-427,846	102,767	0,146	0,122
-426,832	800,000	-0,013	-0,036
-425,817	-200,000	-0,017	-0,115
-424,803	-63,195	-0,074	0,022
-423,788	284,115	0,049	0,063
-422,773	147,254	0,109	0,105
-421,759	-200,000	-0,000	0,011
-420,744	126,461	0,045	0,041
-419,730	-200,000	-0,002	0,019
-418,715	800,000	-0,015	-0,033
-417,701	87,899	-0,039	-0,031
-416,686	580,728	-0,040	0,070
-415,671	285,371	0,058	0,076
-414,657	362,883	-0,028	0,041
-413,642	-173,786	-0,131	0,003
-412,628	36,893	0,200	-0,127
-411,613	271,250	0,077	-0,098
-410,598	-34,434	0,049	-0,019
-409,584	800,000	-0,035	0,086
-408,569	-200,000	0,012	0,062
-407,555	-5,614	0,042	0,021
-406,540	-83,350	-0,173	-0,040
-405,525	-200,000	-0,120	-0,000
-404,511	800,000	-0,062	-0,187
-403,496	109,990	0,033	-0,028
-402,482	1,859	-0,032	-0,016
-401,467	-93,661	-0,096	-0,019
-400,452	60,660	0,036	0,026
-399,438	-200,000	-0,028	0,114
-398,423	140,078	0,080	0,076
-397,409	-18,279	-0,108	0,048
-396,394	182,805	-0,073	0,078
-395,379	226,274	0,022	0,026
-394,365	113,903	-0,038	-0,033
-393,350	-200,000	0,007	0,099
-392,336	-200,000	-0,041	0,206
-391,321	-123,015	0,081	-0,009
-390,306	-200,000	-0,019	-0,162
-389,292	-7,952	-0,070	0,034
-388,277	-200,000	0,003	-0,037
-387,263	43,500	0,147	-0,097
-386,248	-200,000	-0,004	0,074
-385,233	-26,195	-0,013	0,005
-384,219	-124,932	-0,064	0,007
-383,204	-200,000	-0,021	-0,242
-382,190	-164,282	-0,122	0,004
-381,175	-200,000	-0,012	0,079
-380,160	-52,947	0,061	0,020
-379,146	326,876	0,060	-0,082
-378,131	169,695	0,081	-0,083
-377,117	-95,479	-0,113	0,022
-376,102	-200,000	0,002	-0,097
-375,088	77,823	-0,101	-0,077
-374,073	800,000	0,043	0,098
-373,058	575,341	-0,026	0,045
-372,044	-35,816	-0,043	0,017
-371,029	-58,152	0,122	-0,038
-370,015	-200,000	0,035	0,141
-369,000	177,500	-0,089	0,093
-367,985	321,534	-0,088	-0,120
-366,971	-68,217	0,027	0,008
-365,956	-200,000	-0,025	0,128
-364,942	289,784	0,164	-0,214
-363,927	-200,000	-0,004	0,016
-362,912	800,000	-0,012	0,035
-361,898	409,032	0,029	0,044
-360,883	800,000	0,033	-0,097
-359,869	-200,000	0,015	0,101
-358,854	-10,538	0,085	0,040
-357,839	63,028	0,044	-0,032
-356,825	767,624	-0,014	0,027
-355,810	96,824	-0,080	-0,065
-354,796	29,772	0,039	0,024
-353,781	-200,000	0,014	-0,128
-352,766	440,757	-0,041	0,064
-351,752	19,954	-0,027	0,016
-350,737	70,727	0,113	0,084
-349,723	-200,000	0,035	0,131
-348,708	58,275	0,029	-0,020
-347,693	800,000	0,066	0,146
-346,679	-200,000	-0,036	-0,133
-345,664	55,230	-0,070	-0,049
-344,650	235,391	-0,040	-0,047
-343,635	-200,000	0,057	0,197
-342,620	-86,469	0,078	-0,017
-341,606	226,655	-0,083	0,097
-340,591	-19,905	0,031	0,014
-339,577	-200,000	-0,002	-0,083
-338,562	663,892	0,054	0,101
-337,548	-99,043	0,080	0,014
-336,533	126,111	0,099	-0,090
-335,518	-148,925	-0,068	0,004
-334,504	-49,281	-0,042	0,014
-333,489	55,939	0,153	0,106
-332,475	-200,000	-0,021	-0,104
-331,460	-153,995	0,086	-0,004
-330,445	-200,000	-0,004	-0,039
-329,431	-71,769	0,025	-0,007
-328,416	-200,000	-0,006	0,072
-327,402	-27,497	0,053	0,022
-326,387	363,365	-0,052	0,075
-325,372	199,221	-0,059	-0,065
-324,358	350,731	0,035	0,050
-323,343	-124,816	-0,158	0,017
-322,329	78,191	-0,100	0,077
-321,314	-200,000	-0,046	0,170
-320,299	-128,455	0,051	-0,005
-319,285	-36,237	0,045	0,017
-318,270	-99,006	-0,054	-0,010
-317,256	-200,000	0,037	-0,123
-316,241	-142,208	0,075	-0,005
-315,226	295,362	-0,023	0,031
-314,212	70,318	0,146	0,108
-313,197	-200,000	0,005	0,052
-312,183	-94,223	-0,219	0,042
-311,168	134,194	0,028	-0,026
-310,153	90,469	-0,093	-0,074
-309,139	164,537	0,052	-0,053
-308,124	-200,000	0,006	-0,069
-307,110	800,000	0,032	0,092
-306,095	-185,069	0,146	-0,002
-305,080	244,980	0,071	-0,086
-304,066	-9,577	-0,060	0,029
-303,051	161,683	-0,069	0,069
-302,037	92,229	0,063	-0,051
-301,022	188,952	0,102	-0,110
-300,008	-200,000	0,029	-0,126
-298,993	-124,164	0,133	-0,015
-297,978	-200,000	0,021	0,068
-296,964	-33,260	-0,051	-0,020
-295,949	141,903	-0,071	0,067
-294,935	-200,000	0,005	0,066
-293,920	-200,000	0,009	0,077
-292,905	800,000	0,057	0,147
-291,891	-200,000	0,025	0,080
-290,876	116,756	0,127	0,112
-289,862	-51,730	-0,056	0,019
-288,847	800,000	-0,014	0,035
-287,832	800,000	0,094	0,223
-286,818	3,373	-0,165	0,086
-285,803	-196,964	0,102	0,000
-284,789	-200,000	0,002	0,019
-283,774	389,878	-0,085	0,127
-282,759	193,356	0,037	0,040
-281,745	-200,000	-0,017	-0,090
-280,730	-17,689	-0,065	-0,029
-279,716	-200,000	-0,026	-0,170
-278,701	-139,939	-0,063	-0,005
-277,686	-22,607	-0,022	0,009
-276,672	-200,000	-0,027	0,185
-275,657	463,449	-0,045	0,072
-274,643	268,505	-0,060	-0,076
-273,628	611,014	-0,078	-0,141
-272,613	-200,000	0,011	0,058
-271,599	-121,944	-0,101	0,012
-270,584	-200,000	0,026	0,086
-269,570	-80,612	0,093	-0,022
-268,555	218,713	0,054	0,061
-267,540	17,294	0,098	0,055
-266,526	92,122	0,063	-0,051
-265,511	104,611	-0,093	0,078
-264,497	166,110	-0,029	-0,029
-263,482	362,553	-0,021	0,030
-262,467	-31,844	0,034	0,014
-261,453	800,000	-0,018	-0,051
-260,438	-18,905	-0,136	-0,060
-259,424	-5,006	-0,029	0,014
-258,409	800,000	0,020	0,062
-257,395	-200,000	-0,030	-0,117
-256,380	-42,158	0,070	-0,026
-255,365	-200,000	0,014	0,144
-254,351	-200,000	-0,019	-0,111
-253,336	223,052	0,026	-0,030
-252,322	-8,185	-0,064	-0,030
-251,307	275,005	-0,081	-0,102
-250,292	-200,000	-0,013	-0,121
-249,278	-23,396	0,193	0,083
-248,263	-200,000	0,006	-0,079
-247,249	226,046	0,054	-0,063
-246,234	-200,000	-0,012	-0,060
-245,219	495,835	-0,066	0,109
-244,205	800,000	-0,035	0,093
-243,190	19,346	-0,076	0,044
-242,176	-81,632	0,040	0,009
-241,161	800,000	-0,030	0,091
-240,146	210,547	0,033	-0,038
-239,132	-200,000	0,025	0,079
-238,117	-97,851	-0,116	0,021
-237,103	200,509	-0,085	-0,094
-236,088	-200,000	0,013	0,050
-235,073	-200,000	-0,011	0,094
-234,059	242,689	0,003	-0,004
-233,044	-200,000	0,018	-0,135
-232,030	40,182	0,067	0,043
-231,015	-145,171	-0,205	0,013
-230,000	-200,000	-0,010	0,193
-228,986	-64,510	0,036	-0,010
-227,971	-72,546	0,097	-0,025
-226,957	-24,083	0,120	-0,051
-225,942	-10,810	-0,013	-0,006
-224,927	72,578	-0,146	0,109
-223,913	200,270	0,144	-0,158
-222,898	800,000	-0,016	-0,048
-221,884	267,109	-0,078	-0,098
-220,869	-200,000	-0,017	0,054
-219,855	-43,563	-0,032	-0,011
-218,840	-164,255	0,066	-0,002
-217,825	-77,062	0,013	0,003
-216,811	116,701	0,119	-0,104
-215,796	800,000	-0,059	-0,137
-214,782	20,278	-0,086	-0,049
-213,767	-200,000	0,018	-0,102
-212,752	542,879	0,035	-0,059
-211,738	3,285	0,087	-0,045
-210,723	541,287	0,076	-0,129
-209,709	780,186	-0,017	0,032
-208,694	-106,922	-0,108	-0,017
-207,679	-200,000	0,002	0,044
-206,665	721,494	-0,029	0,055
-205,650	-52,579	-0,117	-0,038
-204,636	-58,109	0,157	-0,049
-203,621	-160,790	0,043	0,002
-202,606	203,072	0,065	0,072
-201,592	-64,468	0,131	0,038
-200,577	-200,000	-0,011	-0,122
-199,563	417,730	-0,038	0,057
-198,548	-19,749	0,109	0,048
-197,533	-128,886	0,108	-0,011
-196,519	-72,009	-0,065	0,017
-195,504	800,000	0,027	-0,076
-194,490	731,596	-0,080	-0,153
-193,475	84,528	-0,076	0,059
-192,460	-113,113	0,087	-0,012
-191,446	-200,000	-0,010	0,056
-190,431	-200,000	0,008	0,045
-189,417	800,000	0,087	0,194
-188,402	-4,181	-0,094	0,046
-187,387	-144,981	0,044	-0,003
-186,373	-11,565	0,068	-0,032
-185,358	54,161	-0,043	-0,029
-184,344	119,151	0,018	0,016
-183,329	65,223	-0,045	0,032
-182,315	-143,715	0,014	-0,001
-181,300	-34,513	0,037	0,014
-180,285	97,115	0,102	0,083
-179,271	-27,190	0,148	-0,061
-178,256	-34,499	-0,121	0,047
-177,242	430,364	-0,014	-0,022
-176,227	-200,000	0,018	0,197
-175,212	37,956	0,062	0,039
-174,198	97,090	-0,141	-0,115
-173,183	-82,938	-0,076	0,017
-172,169	-161,137	-0,084	0,003
-171,154	367,794	0,042	-0,060
-170,139	-38,276	0,095	0,036
-169,125	-200,000	0,103	0,000
-168,110	800,000	0,034	0,096
-167,096	-200,000	0,011	0,050
-166,081	89,509	-0,073	-0,058
-165,066	203,622	-0,092	0,101
-164,052	779,793	-0,019	-0,037
-163,037	109,418	0,079	0,068
-162,023	-200,000	-0,013	-0,045
-161,008	142,639	0,061	0,058
-159,993	429,464	-0,078	0,121
-158,979	800,000	0,037	0,081
-157,964	-109,800	-0,107	-0,016
-156,950	-200,000	-0,003	-0,113
-155,935	474,361	0,048	-0,077
-154,920	800,000	-0,071	0,187
-153,906	228,208	0,071	-0,083
-152,891	390,525	-0,046	0,069
-151,877	-106,377	-0,073	0,011
-150,862	-148,727	-0,124	-0,007
-149,847	110,290	-0,075	-0,064
-148,833	32,707	0,066	0,041
-147,818	120,995	0,005	0,004
-146,804	-200,000	0,022	0,106
-145,789	800,000	-0,038	0,085
-144,775	21,225	0,035	0,020
-143,760	-200,000	-0,022	-0,179
-142,745	465,537	0,054	-0,086
-141,731	-200,000	-0,001	-0,025
-140,716	-200,000	-0,013	0,069
-139,702	-171,088	0,125	0,003
-138,687	-75,490	-0,174	-0,044
-137,672	-200,000	-0,030	-0,177
-136,658	800,000	-0,076	-0,179
-135,643	279,279	-0,103	-0,131
-134,629	-200,000	0,012	0,099
-133,614	-13,075	-0,096	0,044
-132,599	-128,213	0,087	-0,009
-131,585	133,114	0,045	0,042
-130,570	-200,000	-0,005	0,139
-129,556	-24,467	0,048	-0,020
-128,541	-200,000	0,015	-0,132
-127,526	223,463	0,052	-0,059
-126,512	198,704	0,069	-0,075
-125,497	-200,000	-0,012	-0,083
-124,483	800,000	0,055	0,139
-123,468	-200,000	0,003	-0,105
-122,453	-200,000	-0,006	-0,024
-121,439	608,911	0,024	0,043
-120,424	-93,369	-0,132	0,026
-119,410	-155,333	0,057	-0,003
-118,395	196,023	-0,041	0,045
-117,380	167,482	-0,126	0,128
-116,366	-90,650	0,081	-0,017
-115,351	-200,000	0,000	-0,030
-114,337	468,880	0,059	-0,094
-113,322	24,339	-0,127	0,074
-112,307	800,000	0,044	-0,123
-111,293	800,000	-0,088	-0,201
-110,278	800,000	0,031	-0,085
-109,264	-104,615	0,162	0,026
-108,249	800,000	-0,028	0,078
-107,234	-68,569	0,060	-0,016
-106,220	-130,291	-0,038	-0,004
-105,205	190,557	0,108	0,115
-104,191	-49,210	-0,061	-0,021
-103,176	-200,000	-0,000	0,194
-102,162	-200,000	0,015	0,092
-101,147	-51,884	-0,094	-0,031
-100,132	347,204	0,039	-0,054
-99,118	177,620	0,061	-0,063
-98,103	-200,000	-0,016	-0,138
-97,089	262,729	-0,063	0,077
-96,074	800,000	0,058	0,133
-95,059	179,762	-0,063	-0,065
-94,045	165,123	-0,024	0,024
-93,030	-200,000	-0,010	0,069
-92,016	-200,000	-0,014	-0,126
-91,001	3,211	0,116	-0,060
-89,986	-200,000	0,007	0,044
-88,972	-106,284	-0,066	0,010
-87,957	-200,000	0,029	0,000
-86,943	-69,487	0,024	0,006
-85,928	-49,028	-0,064	0,022
-84,913	-93,789	0,072	-0,014
-83,899	88,607	0,081	0,064
-82,884	31,761	0,161	-0,098
-81,870	405,861	-0,019	0,028
-80,855	19,148	0,033	-0,019
-79,840	800,000	0,057	-0,156
-78,826	800,000	0,040	-0,121
-77,811	-200,000	-0,010	0,050
-76,797	131,431	-0,048	-0,044
-75,782	800,000	-0,025	0,070
-74,767	7,647	0,094	0,050
-73,753	223,496	-0,064	-0,074
-72,738	-101,931	-0,059	0,010
-71,724	-200,000	0,045	-0,155
-70,709	433,236	-0,156	-0,241
-69,694	300,854	-0,086	-0,113
-68,680	159,573	0,042	-0,042
-67,665	-130,709	0,076	0,007
-66,651	104,830	0,050	-0,042
-65,636	800,000	-0,022	0,064
-64,622	575,908	0,012	-0,020
-63,607	-200,000	-0,041	-0,131
-62,592	-200,000	0,008	-0,151
-61,578	585,195	0,072	-0,126
-60,563	-36,027	0,071	0,027
-59,549	-200,000	-0,026	0,144
-58,534	-61,576	-1,477	-0,437
-57,519	342,782	-1,603	-2,232
-56,505	-200,000	-0,508	-4,463
-55,490	71,432	1,000	0,735
-54,476	800,000	4,930	11,241
-53,461	-200,000	17,708	283,101
-52,446	800,000	721,120	2228,068
-51,432	563,564	1635,117	2818,338
-50,417	80,851	1659,003	1267,539
-49,403	23,712	1532,764	892,684
-48,388	17,685	1456,418	819,136
-47,373	18,204	1446,038	815,755
-46,359	17,790	1436,598	808,426
-45,344	15,959	1431,980	797,088
-44,330	15,881	1429,855	795,502
-43,315	15,865	1428,212	794,478
-42,300	15,873	1426,647	793,616
-41,286	15,966	1425,322	793,287
-40,271	15,909	1424,144	792,329
-39,257	15,917	1422,787	791,580
-38,242	16,010	1421,491	791,267
-37,227	15,973	1420,363	790,433
-36,213	15,966	1419,004	789,612
-35,198	15,910	1417,972	788,742
-34,184	15,931	1417,140	788,349
-33,169	15,940	1415,490	787,444
-32,154	15,961	1414,583	787,007
-31,140	15,936	1413,301	786,143
-30,125	15,986	1412,208	785,737
-29,111	15,924	1411,209	784,861
-28,096	15,931	1409,915	784,144
-27,082	15,860	1408,806	783,164
-26,067	15,856	1407,715	782,506
-25,052	15,893	1406,679	782,072
-24,038	15,813	1405,798	781,179
-23,023	15,818	1404,604	780,508
-22,009	15,848	1403,665	780,094
-20,994	15,802	1402,875	779,411
-19,979	15,824	1401,698	778,827
-18,965	15,827	1400,792	778,307
-17,950	15,788	1400,037	777,675
-16,936	15,838	1398,656	777,111
-15,921	15,741	1397,784	776,146
-14,906	15,768	1396,852	775,722
-13,892	15,785	1395,821	775,196
-12,877	15,754	1395,130	774,640
-11,863	15,734	1394,090	773,936
-10,848	15,785	1393,167	773,632
-9,833	15,770	1392,030	772,900
-8,819	15,715	1391,372	772,248
-7,804	15,702	1390,270	771,546
-6,790	15,705	1389,010	770,832
-5,775	15,714	1388,074	770,323
-4,760	15,643	1387,656	769,733
-3,746	15,649	1386,721	769,212
-2,731	15,651	1385,906	768,739
-1,717	15,639	1384,913	768,099
-0,702	15,608	1383,080	766,912
0,313	19,408	1303,640	740,397
1,327	35,673	706,443	438,908
2,342	54,819	125,027	85,357
3,356	3,677	16,651	8,581
4,371	12,895	2,986	1,630
5,386	-72,366	0,504	0,131
6,400	517,890	-0,077	0,128
7,415	30,235	-0,340	-0,205
8,429	40,715	-0,404	-0,258
9,444	19,802	-0,382	-0,218
10,459	-7,794	-0,436	-0,208
11,473	-43,345	-0,232	-0,082
12,488	74,376	-0,245	-0,182
13,502	310,147	-0,181	-0,240
14,517	-38,495	-0,484	-0,180
15,531	63,295	-0,314	-0,222
16,546	218,708	-0,255	-0,289
17,561	800,000	-0,295	-0,586
18,575	3,920	-0,261	-0,134
19,590	-185,973	-0,251	0,003
20,604	279,351	-0,223	-0,282
21,619	153,721	-0,424	-0,411
22,634	89,676	-0,471	-0,372
23,648	67,802	-0,481	-0,347
24,663	263,509	-0,412	-0,507
25,677	2,580	-0,315	-0,161
26,692	-32,007	-0,398	-0,157
27,707	29,418	-0,172	-0,103
28,721	70,022	-0,459	-0,334
29,736	122,350	-0,316	-0,279
30,750	93,538	-0,485	-0,388
31,765	252,828	-0,390	-0,471
32,780	40,262	-0,461	-0,293
33,794	108,917	-0,305	-0,258
34,809	260,966	-0,323	-0,396
35,823	41,143	-0,423	-0,270
36,838	189,259	-0,307	-0,325
37,853	101,898	-0,404	-0,333
38,867	-9,252	-0,483	-0,227
39,882	-29,244	-0,448	-0,180
40,896	99,656	-0,407	-0,333
41,911	-40,221	-0,406	-0,149
42,926	175,409	-0,295	-0,302
43,940	83,215	-0,370	-0,284
44,955	67,674	-0,478	-0,345
45,969	-19,609	-0,420	-0,183
46,984	200,900	-0,359	-0,390
47,999	150,581	-0,285	-0,273
49,013	95,247	-0,320	-0,257
50,028	19,822	-0,299	-0,169
51,042	57,530	-0,329	-0,227
52,057	50,282	-0,384	-0,256
53,071	-6,353	-0,460	-0,221
54,086	7,397	-0,377	-0,198
55,101	82,221	-0,265	-0,203
56,115	227,926	-0,279	-0,320
57,130	20,091	-0,466	-0,264
58,144	6,765	-0,416	-0,217
59,159	190,047	-0,307	-0,325
60,174	194,736	-0,313	-0,335
61,188	-25,221	-0,465	-0,193
62,203	9,169	-0,400	-0,213
63,217	60,684	-0,466	-0,325
64,232	136,508	-0,327	-0,301
65,247	57,315	-0,354	-0,243
66,261	131,388	-0,321	-0,291
67,276	22,391	-0,354	-0,204
68,290	-20,531	-0,417	-0,180
69,305	39,660	-0,476	-0,300
70,320	98,216	-0,297	-0,241
71,334	119,290	-0,263	-0,229
72,349	66,406	-0,339	-0,243
73,363	98,910	-0,410	-0,333
74,378	26,853	-0,346	-0,204
75,393	35,486	-0,388	-0,239
76,407	83,764	-0,303	-0,233
77,422	5,246	-0,360	-0,186
78,436	-3,334	-0,247	-0,121
79,451	-38,784	-0,313	-0,116
80,466	131,960	-0,319	-0,289
81,480	66,995	-0,453	-0,324
82,495	31,630	-0,351	-0,212
83,509	8,021	-0,367	-0,193
84,524	71,200	-0,345	-0,252
85,539	800,000	-0,098	-0,268
86,553	74,558	-0,245	-0,181
87,568	78,736	-0,403	-0,303
88,582	-19,404	-0,349	-0,151
89,597	23,077	-0,319	-0,184
90,611	423,179	-0,137	-0,208
91,626	107,994	-0,251	-0,210
92,641	75,628	-0,213	-0,158
93,655	0,680	-0,308	-0,154
94,670	-0,482	-0,372	-0,185
95,684	104,688	-0,368	-0,304
96,699	288,130	-0,148	-0,189
97,714	-99,740	-0,244	-0,043
98,728	52,521	-0,326	-0,219
99,743	-7,834	-0,343	-0,162
100,757	271,784	-0,093	-0,115
101,772	266,594	-0,246	-0,303
102,787	83,735	-0,297	-0,227
103,801	21,836	-0,371	-0,212
104,816	65,831	-0,290	-0,206
105,830	-83,212	-0,304	-0,068
106,845	19,321	-0,190	-0,107
107,860	-98,428	-0,371	-0,066
108,874	33,984	-0,225	-0,137
109,889	238,147	-0,194	-0,227
110,903	295,334	-0,247	-0,318
111,918	100,323	-0,216	-0,176
112,933	138,061	-0,183	-0,168
113,947	-24,006	-0,253	-0,106
114,962	14,843	-0,321	-0,176
115,976	61,663	-0,268	-0,187
116,991	65,498	-0,332	-0,236
118,006	349,644	-0,221	-0,308
119,020	800,000	-0,111	-0,257
120,035	-59,154	-0,385	-0,116
121,049	-131,998	-0,342	-0,031
122,064	243,031	-0,138	-0,163
123,079	-94,866	-0,223	-0,042
124,093	138,811	-0,226	-0,208
125,108	16,765	-0,201	-0,111
126,122	64,683	-0,266	-0,188
127,137	61,116	-0,199	-0,138
128,151	102,990	-0,159	-0,131
129,166	5,157	-0,359	-0,185
130,181	-51,087	-0,206	-0,067
131,195	-5,578	-0,227	-0,108
132,210	-16,541	-0,356	-0,158
133,224	-17,136	-0,343	-0,151
134,239	132,271	-0,213	-0,193
135,254	437,469	-0,166	-0,254
136,268	800,000	-0,051	-0,149
137,283	76,482	-0,232	-0,172
138,297	-181,423	-0,361	-0,005
139,312	-45,160	-0,378	-0,131
140,327	30,406	-0,292	-0,174
141,341	160,541	-0,184	-0,180
142,356	-19,128	-0,385	-0,167
143,370	783,065	-0,118	-0,228
144,385	173,229	-0,172	-0,173
145,400	-106,448	-0,250	-0,039
146,414	184,152	-0,246	-0,255
147,429	132,308	-0,257	-0,231
148,443	18,187	-0,191	-0,106
149,458	27,552	-0,265	-0,155
150,473	150,257	-0,128	-0,122
151,487	13,412	-0,237	-0,128
152,502	124,547	-0,306	-0,269
153,516	107,997	-0,281	-0,234
154,531	65,781	-0,255	-0,181
155,546	28,036	-0,235	-0,138
156,560	-10,922	-0,220	-0,101
157,575	43,755	-0,214	-0,137
158,589	32,974	-0,255	-0,154
159,604	-8,036	-0,190	-0,089
160,619	-56,830	-0,405	-0,124
161,633	434,357	-0,169	-0,257
162,648	192,696	-0,222	-0,234
163,662	401,971	-0,170	-0,250
164,677	218,062	-0,147	-0,164
165,692	81,479	-0,222	-0,168
166,706	800,000	-0,132	-0,301
167,721	88,575	-0,235	-0,182
168,735	545,855	-0,157	-0,264
169,750	14,265	-0,290	-0,157
170,764	384,434	-0,161	-0,232
171,779	124,279	-0,168	-0,147
172,794	197,644	-0,199	-0,212
173,808	19,171	-0,241	-0,135
174,823	60,636	-0,281	-0,194
175,837	88,198	-0,241	-0,187
176,852	134,078	-0,245	-0,222
177,867	79,733	-0,157	-0,117
178,881	223,001	-0,285	-0,321
179,896	25,750	-0,247	-0,143
180,910	69,499	-0,334	-0,239
181,925	476,228	-0,200	-0,317
182,940	175,797	-0,231	-0,234
183,954	91,621	-0,284	-0,223
184,969	115,613	-0,220	-0,187
185,983	-200,000	-0,068	-0,263
186,998	800,000	-0,113	-0,289
188,013	106,207	-0,060	-0,050
189,027	521,935	-0,139	-0,228
190,042	133,218	-0,301	-0,272
191,056	543,273	-0,160	-0,267
192,071	162,917	-0,166	-0,162
193,086	560,203	-0,094	-0,159
194,100	327,190	-0,151	-0,203
195,115	-53,897	-0,292	-0,092
196,129	-30,135	-0,336	-0,133
197,144	-35,785	-0,183	-0,069
198,159	152,706	-0,179	-0,171
199,173	-11,301	-0,246	-0,113
200,188	192,577	-0,118	-0,124
201,202	-184,610	-0,249	0,003
202,217	117,601	-0,191	-0,163
203,232	45,537	-0,285	-0,183
204,246	88,687	-0,195	-0,151
205,261	94,670	-0,266	-0,210
206,275	111,058	-0,183	-0,154
207,290	800,000	-0,098	-0,197
208,304	87,063	-0,234	-0,179
209,319	-200,000	0,013	-0,251
210,334	140,696	-0,206	-0,189
211,348	135,599	-0,190	-0,172
212,363	-66,917	-0,157	-0,043
213,377	52,856	-0,227	-0,151
214,392	-40,765	-0,138	-0,049
215,407	-176,533	-0,057	0,001
216,421	79,077	-0,213	-0,158
217,436	119,384	-0,247	-0,212
218,450	-76,860	-0,206	-0,050
219,465	28,804	-0,257	-0,151
220,480	79,813	-0,222	-0,166
221,494	168,442	-0,054	-0,053
222,509	-13,027	-0,097	-0,044
223,523	-68,256	-0,261	-0,070
224,538	697,770	-0,142	-0,260
225,553	-38,706	-0,214	-0,078
226,567	402,263	-0,173	-0,253
227,582	693,590	-0,144	-0,264
228,596	557,175	-0,115	-0,193
229,611	-68,129	-0,263	-0,071
230,626	-75,796	-0,193	-0,047
231,640	-60,157	-0,199	-0,059
232,655	-3,067	-0,253	-0,122
233,669	6,287	-0,146	-0,075
234,684	-200,000	-0,072	-0,240
235,699	-200,000	-0,089	-0,277
236,713	-46,704	-0,099	-0,033
237,728	-25,920	-0,245	-0,100
238,742	301,512	-0,104	-0,133
239,757	49,629	-0,312	-0,204
240,772	158,259	-0,261	-0,251
241,786	78,491	-0,202	-0,150
242,801	-138,417	-0,183	-0,014
243,815	-84,934	-0,300	-0,065
244,830	-84,538	-0,086	-0,019
245,844	-70,187	-0,220	-0,058
246,859	36,141	-0,218	-0,133
247,874	-22,543	-0,194	-0,081
248,888	-114,937	-0,299	-0,039
249,903	147,950	-0,271	-0,254
250,917	-1,758	-0,214	-0,104
251,932	36,820	-0,163	-0,100
252,947	-93,828	-0,211	-0,040
253,961	332,841	-0,166	-0,223
254,976	166,176	-0,183	-0,180
255,990	155,811	-0,213	-0,203
257,005	-148,190	-0,233	-0,013
258,020	148,309	-0,186	-0,174
259,034	800,000	-0,094	-0,214
260,049	112,571	-0,230	-0,193
261,063	800,000	-0,091	-0,255
262,078	-56,144	-0,396	-0,121
263,093	-18,302	-0,264	-0,114
264,107	75,644	-0,175	-0,128
265,122	-132,197	-0,239	-0,021
266,136	-73,090	-0,161	-0,041
267,151	388,091	-0,070	-0,101
268,166	385,954	-0,185	-0,265
269,180	151,302	-0,279	-0,263
270,195	-46,081	-0,258	-0,087
271,209	-6,064	-0,228	-0,108
272,224	-95,532	-0,207	-0,038
273,239	100,756	-0,205	-0,165
274,253	52,715	-0,051	-0,034
275,268	166,610	-0,235	-0,231
276,282	-139,825	-0,221	-0,016
277,297	-200,000	-0,063	-0,207
278,312	21,114	-0,176	-0,098
279,326	50,938	-0,068	-0,045
280,341	284,737	-0,225	-0,281
281,355	5,529	-0,154	-0,078
282,370	55,662	-0,100	-0,067
283,384	21,203	-0,157	-0,088
284,399	800,000	-0,060	-0,127
285,414	451,216	-0,138	-0,211
286,428	644,968	-0,125	-0,221
287,443	-109,697	-0,125	0,018
288,457	-148,568	-0,096	0,005
289,472	800,000	-0,062	-0,130
290,487	18,849	-0,118	0,065
291,501	414,455	-0,161	-0,238
292,516	156,762	-0,129	-0,123
293,530	800,000	-0,045	-0,112
294,545	-171,158	-0,202	-0,005
295,560	723,207	-0,085	-0,157
296,574	-123,982	-0,165	-0,018
297,589	67,616	-0,184	-0,130
298,603	-200,000	-0,095	-0,302
299,618	-5,534	-0,179	-0,085
300,633	483,886	-0,183	-0,289
301,647	135,389	-0,127	-0,114
302,662	800,000	0,022	0,061
303,676	455,068	-0,080	-0,122
304,691	366,752	-0,094	-0,132
305,706	-76,666	-0,193	-0,046
306,720	800,000	-0,067	-0,182
307,735	73,897	-0,141	-0,102
308,749	-200,000	0,031	-0,132
309,764	260,150	-0,181	-0,216
310,779	-40,977	-0,138	-0,049
311,793	134,153	-0,218	-0,195
312,808	164,916	-0,201	-0,196
313,822	800,000	-0,083	-0,203
314,837	-16,085	-0,129	-0,056
315,852	800,000	-0,037	-0,087
316,866	135,406	-0,106	-0,095
317,881	86,326	-0,077	-0,058
318,895	111,825	-0,096	-0,080
319,910	658,912	-0,099	-0,177
320,925	636,883	-0,123	-0,215
321,939	-76,618	-0,273	-0,065
322,954	-101,807	-0,061	-0,010
323,968	-200,000	-0,001	-0,097
324,983	622,737	-0,084	-0,146
325,997	-200,000	-0,022	-0,106
327,012	-145,409	-0,106	-0,006
328,027	131,177	-0,122	-0,108
329,041	64,014	-0,143	-0,099
330,056	73,408	-0,120	-0,087
331,070	-200,000	0,044	-0,135
332,085	117,681	-0,093	-0,079
333,100	-54,390	-0,210	-0,065
334,114	-174,293	-0,170	0,003
335,129	-81,033	-0,175	-0,040
336,143	280,674	-0,097	-0,119
337,158	-86,643	-0,173	-0,036
338,173	-200,000	0,015	-0,139
339,187	390,989	0,009	0,013
340,202	800,000	-0,088	-0,212
341,216	667,406	-0,111	-0,199
342,231	-119,740	-0,072	-0,008
343,246	84,245	-0,125	-0,094
344,260	800,000	-0,083	-0,191
345,275	165,353	-0,124	-0,121
346,289	152,894	-0,136	-0,128
347,304	130,398	-0,103	-0,090
348,319	185,966	-0,101	-0,104
349,333	800,000	-0,022	-0,056
350,348	69,506	-0,036	-0,025
351,362	-200,000	-0,033	-0,169
352,377	800,000	-0,038	-0,089
353,392	-79,141	-0,131	0,030
354,406	-177,477	-0,166	-0,003
355,421	209,698	1313,479	1416,466
356,435	161,403	1474,093	1416,998
