DTS Sentinel unit serial number:	SN410029Multiplexer serial number:	ORYXHardware model number:	OX2-SRSoftware version number:	ORYX F/W v4,00 Oryx Data Collector v3.7.2.0data status	okinstallation	B3 Nyhavnadifferential loss correction	single-endedforward channel	channel 1reverse channel	N/Adate	2023/12/05time	02:42:30forward acquisition time	300,00reverse acquisition time	0,00gamma	499,1914k internal	0,3201k external	0,3201temperature offset calibration	1,0000default loss term (dB/km)	0,3820temperature slope calibration	1,0000multiplexer offset coefficient	1,0000multiplexer slope coefficient	1,0000fibre end	0,00T internal ref (°C)	14,00T ext. ref 1 (°C)	-0,64T ext. ref 2 (°C)	-0,67length (m)	temperature (°C)	Stokes	anti-Stokes-744,400	682,550	-0,146	-0,278
-743,385	-200,000	-0,041	0,490
-742,371	800,000	-0,051	-0,149
-741,356	-200,000	-0,030	0,376
-740,342	49,537	-0,265	-0,181
-739,327	-200,000	0,047	0,284
-738,312	800,000	-0,119	-0,261
-737,298	800,000	0,049	0,139
-736,283	56,959	-0,250	-0,177
-735,269	-200,000	0,017	0,309
-734,254	202,396	-0,209	-0,234
-733,239	143,678	-0,189	0,183
-732,225	583,457	-0,032	-0,058
-731,210	199,235	0,210	0,235
-730,196	631,737	-0,061	-0,112
-729,181	-3,704	-0,106	-0,053
-728,167	-119,393	0,084	0,010
-727,152	-192,296	0,061	-0,000
-726,137	800,000	-0,011	-0,028
-725,123	-200,000	-0,025	-0,102
-724,108	25,081	-0,104	-0,062
-723,094	375,056	-0,140	-0,209
-722,079	188,040	0,049	-0,053
-721,064	-200,000	-0,011	0,074
-720,050	143,598	0,068	-0,066
-719,035	-2,388	0,011	0,006
-718,021	127,416	-0,094	0,086
-717,006	-107,536	-0,069	-0,011
-715,991	800,000	-0,043	-0,107
-714,977	123,086	-0,074	0,068
-713,962	325,275	-0,029	0,041
-712,948	800,000	0,082	0,185
-711,933	-200,000	-0,010	0,098
-710,918	21,951	0,046	0,027
-709,904	-80,645	-0,074	-0,018
-708,889	756,175	-0,030	0,059
-707,875	800,000	-0,094	-0,208
-706,860	-115,269	0,164	-0,022
-705,845	304,488	-0,059	0,079
-704,831	-200,000	0,010	-0,101
-703,816	-67,527	-0,084	-0,024
-702,802	800,000	-0,035	-0,082
-701,787	-11,491	-0,035	0,016
-700,772	800,000	-0,024	0,050
-699,758	210,251	-0,065	-0,074
-698,743	800,000	0,026	-0,056
-697,729	-200,000	-0,024	0,148
-696,714	-108,333	-0,105	0,016
-695,699	-200,000	-0,005	0,058
-694,685	-200,000	-0,004	-0,143
-693,670	800,000	0,038	-0,085
-692,656	282,303	-0,049	-0,064
-691,641	-200,000	-0,016	0,088
-690,627	-200,000	-0,009	0,046
-689,612	-200,000	0,007	0,047
-688,597	-1,792	-0,114	0,058
-687,583	313,625	-0,043	-0,058
-686,568	325,031	-0,026	0,036
-685,554	763,402	0,022	0,043
-684,539	-200,000	-0,027	0,232
-683,524	-120,184	0,044	0,005
-682,510	168,930	0,055	0,057
-681,495	-132,120	-0,143	-0,013
-680,481	-200,000	-0,070	-0,226
-679,466	139,067	0,042	-0,040
-678,451	800,000	-0,011	-0,024
-677,437	20,937	-0,043	-0,025
-676,422	-76,173	-0,038	0,010
-675,408	-34,430	-0,158	0,062
-674,393	229,853	-0,082	-0,097
-673,378	800,000	-0,045	-0,125
-672,364	800,000	-0,034	-0,100
-671,349	30,262	-0,110	0,068
-670,335	-148,954	0,036	0,002
-669,320	-200,000	0,000	-0,040
-668,305	325,483	-0,039	-0,055
-667,291	763,641	-0,098	0,193
-666,276	-200,000	0,001	-0,059
-665,262	313,421	-0,043	-0,058
-664,247	-200,000	0,017	-0,057
-663,232	381,293	0,030	0,045
-662,218	-200,000	0,003	-0,017
-661,203	-200,000	0,026	0,090
-660,189	460,098	0,067	0,109
-659,174	-70,567	-0,050	-0,014
-658,159	-110,318	-0,064	0,010
-657,145	-200,000	-0,011	-0,177
-656,130	11,622	0,106	0,059
-655,116	-40,859	-0,119	0,045
-654,101	-200,000	0,001	0,024
-653,086	800,000	0,034	0,076
-652,072	598,746	-0,069	-0,124
-651,057	-74,020	-0,122	-0,032
-650,043	-200,000	-0,015	-0,100
-649,028	-121,910	0,133	0,016
-648,014	-47,981	-0,018	0,006
-646,999	-37,019	0,107	0,041
-645,984	800,000	-0,031	-0,065
-644,970	746,426	-0,098	0,191
-643,955	-176,279	-0,086	-0,002
-642,941	800,000	-0,050	-0,110
-641,926	45,108	-0,125	-0,084
-640,911	-99,022	0,042	0,008
-639,897	-200,000	0,030	0,095
-638,882	35,774	-0,030	-0,019
-637,868	-25,820	0,038	-0,016
-636,853	-200,000	-0,010	-0,077
-635,838	800,000	-0,067	-0,193
-634,824	-114,414	-0,131	-0,018
-633,809	800,000	0,049	-0,144
-632,795	-200,000	-0,042	-0,137
-631,780	249,299	-0,020	0,024
-630,765	-200,000	0,024	-0,087
-629,751	-200,000	0,005	-0,101
-628,736	-54,583	-0,042	0,014
-627,722	54,337	-0,106	-0,074
-626,707	-117,263	-0,153	0,020
-625,692	-200,000	0,026	0,098
-624,678	-130,253	0,056	0,005
-623,663	562,862	-0,061	0,108
-622,649	800,000	-0,015	0,033
-621,634	1,743	-0,036	0,019
-620,619	-62,327	-0,099	-0,030
-619,605	220,376	-0,063	0,074
-618,590	784,822	0,019	0,038
-617,576	-200,000	-0,002	0,013
-616,561	506,598	-0,032	-0,055
-615,546	5,275	0,111	-0,059
-614,532	-126,158	-0,150	-0,016
-613,517	-200,000	0,000	-0,043
-612,503	-50,803	-0,100	0,034
-611,488	150,884	0,039	0,038
-610,474	-200,000	0,021	-0,083
-609,459	-200,000	-0,012	0,052
-608,444	800,000	0,010	0,032
-607,430	-157,936	-0,113	-0,005
-606,415	171,288	0,081	-0,084
-605,401	201,517	-0,014	0,016
-604,386	-127,956	0,105	0,011
-603,371	-81,422	0,079	0,019
-602,357	-200,000	-0,029	-0,114
-601,342	800,000	0,018	0,046
-600,328	800,000	-0,047	-0,125
-599,313	-200,000	0,040	-0,279
-598,298	-107,906	-0,073	0,011
-597,284	-139,995	0,116	-0,009
-596,269	-200,000	0,030	0,099
-595,255	321,441	0,070	0,096
-594,240	319,808	-0,091	-0,125
-593,225	-200,000	-0,003	-0,089
-592,211	79,325	-0,024	-0,019
-591,196	-200,000	-0,033	-0,210
-590,182	-200,000	0,019	0,098
-589,167	225,240	0,015	-0,018
-588,152	172,275	0,038	0,039
-587,138	-38,406	-0,207	-0,079
-586,123	399,103	0,034	-0,052
-585,109	-77,568	-0,173	-0,043
-584,094	-70,307	-0,030	-0,008
-583,079	-200,000	0,002	-0,057
-582,065	-118,839	0,070	0,009
-581,050	-74,161	-0,211	0,055
-580,036	-200,000	-0,013	-0,156
-579,021	259,738	0,063	-0,079
-578,006	-105,911	-0,108	0,017
-576,992	179,155	0,053	0,056
-575,977	132,638	0,080	-0,074
-574,963	-200,000	-0,001	0,029
-573,948	-200,000	0,029	-0,133
-572,934	337,602	0,102	-0,144
-571,919	-200,000	-0,080	-0,277
-570,904	-200,000	-0,017	-0,071
-569,890	447,696	-0,098	0,157
-568,875	145,213	-0,044	-0,042
-567,861	-200,000	0,024	-0,078
-566,846	-200,000	-0,006	0,034
-565,831	6,763	-0,135	-0,073
-564,817	800,000	0,038	-0,104
-563,802	114,961	-0,031	0,027
-562,788	-200,000	-0,017	-0,093
-561,773	800,000	-0,030	-0,072
-560,758	-166,685	0,071	0,002
-559,744	18,458	0,070	-0,040
-558,729	800,000	0,006	-0,017
-557,715	22,302	-0,131	0,077
-556,700	-198,298	-0,181	-0,001
-555,685	385,440	0,054	-0,080
-554,671	118,356	0,176	0,157
-553,656	800,000	0,018	-0,046
-552,642	523,534	0,046	-0,079
-551,627	16,439	0,078	0,044
-550,612	136,779	-0,025	-0,024
-549,598	-14,343	0,142	0,066
-548,583	-200,000	0,009	-0,034
-547,569	210,693	-0,048	-0,054
-546,554	160,423	-0,114	0,115
-545,539	-200,000	-0,038	0,226
-544,525	-200,000	0,006	0,039
-543,510	373,148	-0,008	-0,011
-542,496	-21,231	-0,074	-0,033
-541,481	-69,826	-0,149	-0,041
-540,466	161,265	-0,052	-0,053
-539,452	-27,800	-0,068	0,028
-538,437	-11,789	0,081	0,038
-537,423	-21,607	-0,030	0,013
-536,408	107,304	-0,110	0,094
-535,393	-10,466	0,090	-0,043
-534,379	58,463	0,058	-0,041
-533,364	800,000	0,030	-0,074
-532,350	-193,665	-0,167	0,001
-531,335	800,000	-0,035	0,090
-530,321	800,000	-0,037	0,100
-529,306	-31,839	0,142	-0,057
-528,291	-45,712	-0,077	0,027
-527,277	89,528	0,095	0,077
-526,262	-2,024	0,112	0,057
-525,248	-200,000	-0,032	0,156
-524,233	-2,252	0,070	0,035
-523,218	113,225	0,071	0,062
-522,204	-200,000	0,021	-0,088
-521,189	-24,125	-0,064	-0,027
-520,175	242,065	-0,043	-0,052
-519,160	800,000	0,046	0,111
-518,145	-50,529	0,072	-0,024
-517,131	766,597	-0,003	-0,006
-516,116	155,393	0,032	-0,031
-515,102	23,965	0,045	0,026
-514,087	-200,000	0,008	0,186
-513,072	-200,000	-0,004	0,036
-512,058	-122,330	0,090	-0,010
-511,043	-12,664	-0,010	-0,005
-510,029	521,969	-0,056	0,094
-509,014	-200,000	0,037	-0,137
-507,999	161,994	0,056	0,057
-506,985	134,899	-0,083	-0,078
-505,970	115,038	-0,064	-0,056
-504,956	32,965	-0,093	-0,058
-503,941	270,148	0,012	-0,016
-502,926	-32,704	-0,094	0,037
-501,912	163,043	0,050	-0,051
-500,897	-200,000	-0,020	0,189
-499,883	279,135	-0,088	0,114
-498,868	800,000	-0,040	-0,090
-497,853	-200,000	-0,038	-0,130
-496,839	143,341	-0,122	0,117
-495,824	-200,000	0,023	0,082
-494,810	-200,000	0,021	0,091
-493,795	195,776	0,117	-0,128
-492,781	-200,000	-0,014	0,057
-491,766	204,660	-0,083	-0,093
-490,751	-117,758	0,108	0,014
-489,737	465,808	-0,073	0,118
-488,722	-120,711	0,208	0,025
-487,708	-200,000	-0,016	0,085
-486,693	800,000	-0,047	0,145
-485,678	241,515	-0,055	-0,066
-484,664	-200,000	-0,008	-0,181
-483,649	21,424	0,044	0,025
-482,635	-76,013	0,116	-0,029
-481,620	-183,725	-0,065	0,001
-480,605	-40,814	0,069	0,025
-479,591	230,047	0,087	0,102
-478,576	-76,491	-0,118	0,030
-477,562	72,705	0,078	0,059
-476,547	354,619	-0,133	-0,191
-475,532	-63,537	0,081	0,024
-474,518	74,718	0,094	0,071
-473,503	101,114	-0,082	0,069
-472,489	637,740	0,029	0,052
-471,474	800,000	-0,066	-0,142
-470,459	233,726	-0,087	-0,103
-469,445	-200,000	-0,037	-0,128
-468,430	-200,000	-0,005	-0,167
-467,416	-78,056	0,050	-0,012
-466,401	68,102	0,077	0,056
-465,386	211,283	-0,032	-0,036
-464,372	-200,000	0,019	-0,081
-463,357	-22,233	0,060	0,026
-462,343	800,000	0,016	-0,043
-461,328	-189,388	-0,116	-0,001
-460,313	247,475	-0,020	-0,025
-459,299	-109,810	0,100	-0,015
-458,284	112,182	0,072	0,062
-457,270	-200,000	0,022	-0,089
-456,255	53,072	-0,080	-0,055
-455,241	445,938	-0,014	-0,022
-454,226	-200,000	0,007	-0,081
-453,211	-129,916	-0,065	0,006
-452,197	195,822	0,025	-0,027
-451,182	70,635	0,065	-0,048
-450,168	-2,379	0,154	0,078
-449,153	-200,000	0,005	-0,036
-448,138	-81,710	0,141	-0,033
-447,124	-0,574	0,005	-0,002
-446,109	-200,000	0,010	0,125
-445,095	322,191	-0,083	0,114
-444,080	119,662	0,137	0,122
-443,065	800,000	0,055	0,118
-442,051	196,647	0,024	0,026
-441,036	59,932	-0,073	-0,052
-440,022	-149,939	-0,097	-0,005
-439,007	800,000	-0,047	-0,111
-437,992	-33,902	0,070	0,027
-436,978	42,480	0,163	0,106
-435,963	-129,823	0,064	-0,006
-434,949	-85,480	-0,101	0,022
-433,934	-35,726	0,029	-0,011
-432,919	122,937	0,022	-0,019
-431,905	-200,000	-0,006	0,042
-430,890	-105,118	0,087	0,014
-429,876	-53,608	0,150	0,049
-428,861	789,359	0,022	0,044
-427,846	49,545	-0,055	-0,037
-426,832	800,000	-0,034	-0,077
-425,817	-200,000	0,038	-0,130
-424,803	-41,633	-0,026	-0,009
-423,788	-200,000	0,010	-0,070
-422,773	78,594	0,134	0,103
-421,759	-187,674	0,135	0,001
-420,744	84,498	0,061	0,048
-419,730	-200,000	0,006	0,061
-418,715	800,000	-0,025	0,054
-417,701	-96,558	-0,068	0,013
-416,686	27,516	0,044	-0,027
-415,671	-200,000	0,036	0,202
-414,657	-175,343	0,068	0,001
-413,642	800,000	-0,036	0,088
-412,628	284,633	0,035	0,045
-411,613	417,561	-0,050	0,078
-410,598	-200,000	-0,018	0,083
-409,584	-200,000	-0,011	0,041
-408,569	92,737	-0,075	0,061
-407,555	-200,000	-0,028	0,118
-406,540	-200,000	-0,024	0,134
-405,525	105,250	-0,091	-0,077
-404,511	99,840	0,094	-0,078
-403,496	-56,260	-0,125	0,040
-402,482	131,253	0,015	0,014
-401,467	800,000	0,033	-0,078
-400,452	325,059	-0,075	0,102
-399,438	-200,000	0,005	0,102
-398,423	-22,691	-0,015	0,006
-397,409	78,654	-0,083	-0,064
-396,394	-101,984	-0,081	-0,014
-395,379	125,974	-0,052	-0,048
-394,365	-149,571	0,124	-0,007
-393,350	33,964	0,098	0,061
-392,336	-101,708	-0,152	0,026
-391,321	40,558	-0,056	0,036
-390,306	-84,149	-0,109	-0,025
-389,292	800,000	0,032	-0,094
-388,277	-131,250	0,126	-0,012
-387,263	191,422	0,113	-0,122
-386,248	422,680	0,046	0,071
-385,233	220,887	0,087	0,100
-384,219	199,629	0,039	0,043
-383,204	489,347	0,056	-0,092
-382,190	-131,263	0,023	-0,002
-381,175	-20,323	0,107	-0,047
-380,160	428,274	0,091	-0,142
-379,146	-200,000	-0,013	-0,069
-378,131	76,540	0,018	0,014
-377,117	185,174	0,131	0,140
-376,102	-126,108	0,075	0,008
-375,088	800,000	-0,011	-0,028
-374,073	-28,123	0,038	0,016
-373,058	-133,228	0,181	0,016
-372,044	800,000	0,014	0,032
-371,029	-15,656	0,140	-0,064
-370,015	-200,000	0,001	0,058
-369,000	-68,956	-0,192	0,053
-367,985	-66,130	-0,072	0,021
-366,971	-136,170	-0,028	0,002
-365,956	-47,241	-0,064	0,022
-364,942	116,265	0,103	0,090
-363,927	-110,771	0,107	0,016
-362,912	-200,000	-0,007	0,027
-361,898	-127,735	-0,094	0,010
-360,883	-98,802	-0,147	-0,027
-359,869	800,000	0,031	-0,098
-358,854	46,545	-0,024	-0,016
-357,839	-100,224	0,128	-0,023
-356,825	-200,000	0,023	0,150
-355,810	527,131	-0,027	0,045
-354,796	68,238	-0,040	0,030
-353,781	214,079	-0,147	-0,166
-352,766	106,163	0,053	-0,045
-351,752	-22,922	0,118	-0,051
-350,737	605,316	-0,063	0,113
-349,723	-10,392	0,085	-0,040
-348,708	200,335	0,066	0,073
-347,693	100,456	0,130	0,108
-346,679	152,728	0,062	-0,061
-345,664	800,000	-0,056	-0,146
-344,650	800,000	-0,021	-0,050
-343,635	79,844	0,057	-0,044
-342,620	715,523	-0,056	0,107
-341,606	800,000	0,020	-0,044
-340,591	-200,000	0,014	-0,051
-339,577	-63,947	0,024	-0,007
-338,562	-149,829	-0,060	-0,003
-337,548	-200,000	-0,004	-0,069
-336,533	-63,978	-0,106	0,031
-335,518	-200,000	0,006	0,156
-334,504	800,000	0,021	0,043
-333,489	377,398	0,076	0,111
-332,475	-80,389	0,035	-0,008
-331,460	146,121	-0,049	0,047
-330,445	15,660	-0,054	-0,030
-329,431	800,000	-0,006	-0,018
-328,416	196,479	-0,071	0,077
-327,402	-200,000	-0,006	-0,041
-326,387	-118,632	-0,138	-0,017
-325,372	-67,416	-0,058	0,016
-324,358	-200,000	0,023	-0,160
-323,343	-32,167	0,051	-0,020
-322,329	-139,542	0,143	-0,011
-321,314	800,000	0,041	0,085
-320,299	-200,000	0,016	0,064
-319,285	661,351	-0,034	-0,064
-318,270	-29,802	-0,122	-0,049
-317,256	180,299	-0,072	-0,076
-316,241	-136,140	-0,024	0,002
-315,226	-121,821	0,107	0,012
-314,212	-200,000	0,011	0,085
-313,197	231,137	-0,054	0,064
-312,183	800,000	0,031	0,099
-311,168	66,717	-0,107	0,078
-310,153	184,669	0,053	-0,056
-309,139	589,781	0,019	-0,033
-308,124	-200,000	0,026	0,090
-307,110	800,000	0,003	0,006
-306,095	48,143	0,109	-0,073
-305,080	-200,000	0,011	0,114
-304,066	-183,941	-0,180	0,002
-303,051	744,656	-0,086	-0,166
-302,037	-200,000	-0,009	0,033
-301,022	-15,915	0,184	0,083
-300,008	-168,914	0,105	0,003
-298,993	-200,000	0,016	0,070
-297,978	56,219	-0,104	0,072
-296,964	-81,911	-0,105	0,024
-295,949	52,900	0,042	-0,029
-294,935	27,536	-0,058	-0,035
-293,920	-93,727	0,157	-0,031
-292,905	-85,877	-0,045	0,010
-291,891	-28,179	0,093	0,038
-290,876	172,243	0,088	0,091
-289,862	-93,695	-0,172	0,034
-288,847	148,891	-0,052	0,050
-287,832	-14,676	0,023	0,011
-286,818	-200,000	0,022	0,079
-285,803	356,311	0,050	0,072
-284,789	-157,642	0,134	-0,006
-283,774	-200,000	-0,011	0,051
-282,759	91,988	-0,137	0,110
-281,745	284,607	0,004	0,005
-280,730	-200,000	0,017	0,168
-279,716	-200,000	0,013	-0,083
-278,701	328,007	-0,072	0,099
-277,686	800,000	-0,036	0,104
-276,672	-200,000	0,014	0,069
-275,657	-200,000	0,006	0,087
-274,643	-200,000	-0,014	-0,098
-273,628	-33,703	0,046	0,018
-272,613	-59,851	-0,074	0,023
-271,599	-200,000	0,009	0,031
-270,584	5,754	0,087	0,046
-269,570	-135,251	0,148	-0,012
-268,555	431,576	-0,064	-0,100
-267,540	444,868	-0,037	-0,058
-266,526	35,887	0,041	-0,026
-265,511	-200,000	-0,008	-0,045
-264,497	-115,512	0,067	-0,009
-263,482	317,005	0,043	-0,058
-262,467	508,426	-0,026	0,043
-261,453	-200,000	-0,118	0,000
-260,438	-77,069	0,107	-0,027
-259,424	-197,757	-0,063	-0,000
-258,409	-200,000	-0,025	-0,118
-257,395	189,224	-0,049	0,052
-256,380	-99,127	-0,139	-0,025
-255,365	34,842	0,042	-0,026
-254,351	-34,310	0,133	-0,052
-253,336	129,283	-0,040	0,037
-252,322	-118,775	0,084	0,010
-251,307	-157,018	-0,082	0,004
-250,292	377,785	0,047	-0,068
-249,278	376,765	0,111	0,162
-248,263	-17,624	0,086	-0,038
-247,249	452,245	0,036	0,057
-246,234	-200,000	-0,004	-0,018
-245,219	-98,552	-0,039	0,007
-244,205	304,132	0,011	-0,014
-243,190	197,234	0,076	0,083
-242,176	89,264	0,050	-0,040
-241,161	-200,000	-0,030	0,156
-240,146	800,000	0,037	0,110
-239,132	-48,461	-0,052	-0,018
-238,117	-11,198	-0,055	-0,026
-237,103	375,686	-0,057	-0,084
-236,088	-145,460	0,134	0,008
-235,073	360,201	0,032	-0,045
-234,059	-200,000	-0,015	0,310
-233,044	1,173	0,164	0,084
-232,030	128,036	-0,003	-0,002
-231,015	497,963	0,061	-0,100
-230,000	47,771	-0,103	0,069
-228,986	-76,961	0,141	0,035
-227,971	444,179	0,062	-0,097
-226,957	-200,000	0,019	0,086
-225,942	122,683	0,031	0,027
-224,927	211,415	-0,061	-0,069
-223,913	561,777	0,052	-0,091
-222,898	-63,287	-0,120	-0,035
-221,884	-169,173	-0,047	0,001
-220,869	-123,743	0,128	0,014
-219,855	800,000	0,033	0,078
-218,840	148,257	0,097	0,093
-217,825	110,726	-0,024	-0,020
-216,811	-200,000	0,036	-0,120
-215,796	-11,761	0,105	-0,049
-214,782	65,080	0,031	-0,022
-213,767	-200,000	-0,005	-0,086
-212,752	551,144	-0,045	-0,077
-211,738	-83,588	-0,012	0,003
-210,723	116,953	-0,048	-0,042
-209,709	21,464	-0,091	-0,052
-208,694	334,425	-0,065	0,090
-207,679	-200,000	0,022	0,073
-206,665	113,676	0,071	-0,062
-205,650	800,000	0,039	-0,100
-204,636	800,000	0,054	0,127
-203,621	-29,274	0,051	-0,021
-202,606	-200,000	0,044	-0,151
-201,592	40,328	-0,117	-0,075
-200,577	139,253	-0,023	-0,021
-199,563	67,466	0,051	0,037
-198,548	-18,244	0,005	0,002
-197,533	205,292	-0,074	0,081
-196,519	800,000	-0,025	0,060
-195,504	800,000	-0,054	0,146
-194,490	-69,019	-0,135	0,037
-193,475	58,606	-0,096	-0,067
-192,460	-200,000	0,042	-0,214
-191,446	-200,000	-0,006	0,072
-190,431	272,827	-0,043	0,054
-189,417	-36,268	0,129	-0,049
-188,402	-5,910	0,151	0,073
-187,387	69,197	-0,046	-0,034
-186,373	-45,443	-0,113	0,040
-185,358	-200,000	-0,013	-0,132
-184,344	800,000	-0,045	-0,100
-183,329	800,000	-0,036	0,097
-182,315	4,467	-0,081	0,042
-181,300	-200,000	0,004	0,015
-180,285	-70,206	-0,146	0,039
-179,271	-200,000	-0,013	-0,084
-178,256	-189,173	0,152	0,001
-177,242	-77,006	-0,033	0,008
-176,227	-8,493	0,040	-0,019
-175,212	253,600	0,061	-0,074
-174,198	-200,000	0,022	0,100
-173,183	-51,632	-0,182	-0,060
-172,169	769,667	-0,037	-0,073
-171,154	532,845	-0,038	0,064
-170,139	-135,492	-0,080	0,007
-169,125	800,000	0,074	0,148
-168,110	-125,585	-0,060	-0,006
-167,096	800,000	0,019	-0,050
-166,081	570,896	-0,097	-0,168
-165,066	303,076	-0,085	-0,112
-164,052	-200,000	-0,038	-0,208
-163,037	-200,000	0,021	-0,076
-162,023	-185,086	-0,194	-0,002
-161,008	324,239	0,055	0,075
-159,993	-200,000	-0,014	-0,145
-158,979	-95,240	-0,082	-0,016
-157,964	80,807	-0,090	0,069
-156,950	-200,000	0,018	-0,059
-155,935	93,127	0,102	-0,082
-154,920	-200,000	0,004	0,027
-153,906	64,563	0,036	0,026
-152,891	-200,000	0,014	0,181
-151,877	-138,981	-0,097	-0,007
-150,862	-173,987	-0,078	-0,002
-149,847	41,183	0,039	0,025
-148,833	800,000	0,014	-0,032
-147,818	234,991	-0,097	0,114
-146,804	-200,000	0,014	0,096
-145,789	800,000	0,059	0,123
-144,775	96,357	-0,034	0,028
-143,760	-54,649	-0,068	-0,022
-142,745	795,038	-0,058	-0,114
-141,731	393,758	-0,066	0,098
-140,716	-200,000	0,008	0,067
-139,702	800,000	0,067	0,162
-138,687	-8,060	-0,086	-0,041
-137,672	800,000	-0,041	0,124
-136,658	203,942	-0,129	-0,142
-135,643	7,181	-0,078	-0,041
-134,629	61,547	-0,054	0,038
-133,614	217,413	0,130	0,147
-132,599	-200,000	0,007	-0,038
-131,585	291,728	-0,014	0,018
-130,570	-89,099	-0,106	0,022
-129,556	-37,375	-0,101	0,038
-128,541	544,759	-0,066	0,112
-127,526	-200,000	0,008	0,168
-126,512	800,000	-0,040	0,099
-125,497	-117,322	-0,028	-0,004
-124,483	-200,000	0,043	0,145
-123,468	-200,000	0,014	0,051
-122,453	170,295	0,058	-0,059
-121,439	-19,324	-0,070	0,031
-120,424	100,156	0,063	-0,052
-119,410	107,208	0,147	-0,124
-118,395	90,382	-0,040	0,032
-117,380	-200,000	0,047	0,281
-116,366	12,389	-0,092	-0,050
-115,351	570,199	0,007	0,012
-114,337	-200,000	0,014	0,048
-113,322	25,235	0,059	-0,035
-112,307	-200,000	-0,031	0,111
-111,293	-11,462	0,074	0,035
-110,278	650,989	0,037	-0,068
-109,264	561,683	-0,058	0,099
-108,249	-74,778	-0,056	-0,014
-107,234	-90,795	0,085	-0,017
-106,220	593,370	-0,083	-0,146
-105,205	-200,000	0,002	-0,013
-104,191	-200,000	0,014	0,064
-103,176	300,409	0,011	0,015
-102,162	68,742	0,024	-0,018
-101,147	177,207	-0,093	-0,096
-100,132	-32,809	-0,089	-0,035
-99,118	192,365	-0,013	0,014
-98,103	-200,000	0,028	0,182
-97,089	800,000	0,056	0,122
-96,074	-111,245	0,101	-0,014
-95,059	117,898	-0,079	0,069
-94,045	-200,000	0,001	0,084
-93,030	-125,256	-0,082	0,009
-92,016	-200,000	0,005	-0,030
-91,001	-142,189	0,054	0,004
-89,986	67,355	0,136	0,099
-88,972	-89,192	0,077	-0,016
-87,957	308,665	-0,040	0,053
-86,943	92,216	-0,034	0,027
-85,928	122,245	-0,159	-0,141
-84,913	-113,926	0,015	0,002
-83,899	-13,588	-0,126	0,058
-82,884	149,348	0,081	0,077
-81,870	797,082	-0,009	0,017
-80,855	20,849	-0,028	-0,016
-79,840	-1,105	-0,051	-0,026
-78,826	-200,000	0,014	-0,049
-77,811	-200,000	0,011	-0,063
-76,797	296,422	-0,057	-0,074
-75,782	800,000	0,019	-0,050
-74,767	-19,184	-0,083	0,037
-73,753	-48,916	0,013	-0,004
-72,738	95,170	0,011	0,009
-71,724	197,973	-0,031	0,033
-70,709	-52,895	-0,037	-0,012
-69,694	-132,370	0,072	-0,006
-68,680	800,000	0,060	0,154
-67,665	-200,000	-0,031	0,138
-66,651	800,000	0,043	-0,086
-65,636	-127,473	-0,106	0,011
-64,622	-173,432	-0,147	0,003
-63,607	800,000	-0,066	0,132
-62,592	312,235	-0,135	-0,180
-61,578	168,759	0,097	0,098
-60,563	-38,184	0,168	0,063
-59,549	-200,000	0,011	0,075
-58,534	-15,761	-1,630	-0,733
-57,519	431,491	-1,397	-2,151
-56,505	-200,000	-0,721	-4,717
-55,490	156,513	1,016	0,993
-54,476	800,000	4,696	11,513
-53,461	-200,000	18,882	307,805
-52,446	800,000	737,179	2303,567
-51,432	570,605	1653,390	2859,794
-50,417	79,149	1670,285	1265,608
-49,403	21,979	1543,409	888,725
-48,388	15,889	1465,812	814,460
-47,373	17,688	1456,064	817,702
-46,359	16,867	1445,862	808,001
-45,344	14,129	1441,430	792,386
-44,330	14,018	1439,806	790,933
-43,315	14,062	1438,069	790,157
-42,300	14,115	1436,061	789,273
-41,286	14,086	1434,855	788,445
-40,271	14,023	1433,764	787,512
-39,257	14,069	1432,292	786,893
-38,242	14,107	1431,063	786,364
-37,227	14,104	1429,917	785,688
-36,213	14,157	1428,471	785,118
-35,198	14,113	1427,573	784,384
-34,184	14,133	1426,630	783,928
-33,169	14,116	1425,218	783,040
-32,154	14,099	1424,270	782,410
-31,140	14,107	1422,877	781,648
-30,125	14,132	1421,783	781,136
-29,111	14,111	1420,563	780,334
-28,096	14,118	1419,546	779,782
-27,082	14,051	1418,690	778,960
-26,067	13,989	1417,684	778,087
-25,052	14,061	1416,208	777,586
-24,038	14,045	1415,312	776,985
-23,023	14,007	1414,375	776,265
-22,009	13,990	1413,243	775,532
-20,994	14,009	1412,450	775,152
-19,979	14,009	1411,574	774,641
-18,965	13,938	1410,759	773,832
-17,950	13,985	1409,681	773,431
-16,936	13,963	1408,948	772,893
-15,921	13,935	1407,703	772,051
-14,906	13,888	1406,888	771,354
-13,892	13,931	1405,842	770,951
-12,877	13,922	1405,003	770,416
-11,863	13,945	1404,241	770,073
-10,848	13,908	1403,255	769,332
-9,833	13,877	1402,513	768,749
-8,819	13,880	1401,527	768,191
-7,804	13,825	1400,730	767,472
-6,790	13,878	1399,455	766,988
-5,775	13,855	1398,519	766,335
-4,760	13,854	1397,354	765,665
-3,746	13,826	1396,792	765,193
-2,731	13,792	1396,085	764,619
-1,717	13,854	1394,857	764,206
-0,702	13,840	1393,159	763,177
0,313	17,696	1311,134	736,110
1,327	34,137	705,688	434,263
2,342	52,662	123,943	83,645
3,356	3,705	16,621	8,554
4,371	4,546	3,305	1,710
5,386	-99,707	0,578	0,101
6,400	350,172	0,059	0,083
7,415	46,631	-0,266	-0,174
8,429	66,680	-0,275	-0,198
9,444	83,821	-0,324	-0,250
10,459	17,661	-0,339	-0,190
11,473	-95,985	-0,355	-0,066
12,488	-25,758	-0,307	-0,127
13,502	38,810	-0,215	-0,135
14,517	4,056	-0,349	-0,180
15,531	80,333	-0,333	-0,253
16,546	25,704	-0,372	-0,219
17,561	279,019	-0,277	-0,349
18,575	-1,222	-0,212	-0,105
19,590	20,028	-0,320	-0,182
20,604	231,145	-0,199	-0,230
21,619	115,679	-0,315	-0,272
22,634	50,957	-0,485	-0,324
23,648	3,229	-0,418	-0,214
24,663	212,986	-0,330	-0,369
25,677	15,482	-0,374	-0,207
26,692	197,572	-0,282	-0,305
27,707	75,004	-0,334	-0,248
28,721	62,468	-0,442	-0,311
29,736	19,730	-0,397	-0,225
30,750	65,814	-0,388	-0,277
31,765	74,764	-0,322	-0,239
32,780	76,300	-0,272	-0,203
33,794	-89,765	-0,451	-0,092
34,809	25,204	-0,334	-0,195
35,823	176,120	-0,281	-0,288
36,838	-42,279	-0,399	-0,143
37,853	75,513	-0,381	-0,283
38,867	71,592	-0,450	-0,330
39,882	-8,328	-0,349	-0,165
40,896	-19,784	-0,409	-0,177
41,911	34,528	-0,330	-0,203
42,926	293,085	-0,267	-0,345
43,940	-11,831	-0,441	-0,203
44,955	101,952	-0,357	-0,293
45,969	22,873	-0,321	-0,185
46,984	40,676	-0,364	-0,231
47,999	-97,502	-0,372	-0,067
49,013	9,972	-0,385	-0,205
50,028	222,587	-0,268	-0,304
51,042	163,752	-0,347	-0,345
52,057	151,452	-0,280	-0,269
53,071	134,301	-0,359	-0,328
54,086	21,595	-0,329	-0,188
55,101	61,577	-0,346	-0,242
56,115	69,805	-0,413	-0,299
57,130	30,881	-0,439	-0,264
58,144	11,799	-0,399	-0,215
59,159	199,398	-0,209	-0,226
60,174	166,381	-0,344	-0,343
61,188	-30,073	-0,307	-0,122
62,203	68,462	-0,346	-0,249
63,217	51,641	-0,336	-0,225
64,232	50,537	-0,373	-0,248
65,247	80,413	-0,303	-0,230
66,261	152,980	-0,295	-0,284
67,276	77,599	-0,273	-0,204
68,290	12,257	-0,438	-0,237
69,305	203,199	-0,223	-0,243
70,320	-29,351	-0,423	-0,170
71,334	-47,596	-0,325	-0,110
72,349	-71,770	-0,304	-0,079
73,363	155,832	-0,322	-0,312
74,378	-42,226	-0,461	-0,165
75,393	15,485	-0,309	-0,170
76,407	1,413	-0,271	-0,137
77,422	-28,263	-0,236	-0,096
78,436	152,683	-0,235	-0,226
79,451	62,666	-0,293	-0,205
80,466	173,598	-0,278	-0,282
81,480	35,422	-0,280	-0,172
82,495	-45,995	-0,407	-0,140
83,509	6,398	-0,319	-0,166
84,524	22,218	-0,379	-0,217
85,539	42,777	-0,213	-0,136
86,553	-74,122	-0,239	-0,060
87,568	187,235	-0,246	-0,257
88,582	490,199	-0,220	-0,354
89,597	270,091	-0,185	-0,229
90,611	59,932	-0,306	-0,212
91,626	121,882	-0,279	-0,244
92,641	44,198	-0,266	-0,171
93,655	-134,394	-0,254	-0,022
94,670	125,640	-0,248	-0,220
95,684	98,015	-0,337	-0,272
96,699	465,339	-0,194	-0,306
97,714	173,723	-0,149	-0,151
98,728	317,848	-0,203	-0,270
99,743	61,228	-0,284	-0,198
100,757	40,560	-0,360	-0,227
101,772	-44,031	-0,265	-0,093
102,787	35,516	-0,246	-0,151
103,801	107,066	-0,275	-0,229
104,816	6,057	-0,222	-0,115
105,830	137,977	-0,262	-0,241
106,845	62,017	-0,239	-0,167
107,860	89,513	-0,282	-0,220
108,874	52,905	-0,143	-0,096
109,889	74,336	-0,240	-0,176
110,903	125,546	-0,401	-0,355
111,918	81,301	-0,312	-0,236
112,933	174,087	-0,260	-0,264
113,947	-33,707	-0,299	-0,115
114,962	33,036	-0,220	-0,134
115,976	742,199	-0,132	-0,250
116,991	90,758	-0,231	-0,181
118,006	-8,202	-0,366	-0,172
119,020	61,118	-0,358	-0,249
120,035	292,618	-0,112	-0,143
121,049	121,863	-0,208	-0,182
122,064	27,738	-0,323	-0,190
123,079	48,982	-0,222	-0,146
124,093	-81,113	-0,328	-0,075
125,108	339,967	-0,209	-0,286
126,122	47,358	-0,335	-0,218
127,137	150,677	-0,195	-0,185
128,151	384,448	-0,155	-0,224
129,166	116,665	-0,273	-0,235
130,181	137,621	-0,241	-0,221
131,195	800,000	-0,214	-0,419
132,210	81,295	-0,293	-0,221
133,224	26,445	-0,187	-0,109
134,239	-85,038	-0,268	-0,058
135,254	38,844	-0,224	-0,139
136,268	143,016	-0,169	-0,158
137,283	-73,426	-0,185	-0,047
138,297	90,963	-0,251	-0,197
139,312	47,686	-0,266	-0,173
140,327	-81,874	-0,295	-0,067
141,341	57,928	-0,203	-0,138
142,356	-13,092	-0,223	-0,101
143,370	-49,614	-0,267	-0,088
144,385	14,727	-0,287	-0,156
145,400	23,119	-0,285	-0,163
146,414	77,346	-0,278	-0,206
147,429	-26,035	-0,272	-0,111
148,443	23,585	-0,330	-0,189
149,458	254,106	-0,151	-0,181
150,473	191,617	-0,204	-0,214
151,487	35,676	-0,193	-0,118
152,502	108,038	-0,228	-0,190
153,516	201,758	-0,264	-0,285
154,531	234,528	-0,203	-0,234
155,546	126,699	-0,269	-0,237
156,560	-28,285	-0,231	-0,093
157,575	99,420	-0,178	-0,144
158,589	53,306	-0,346	-0,231
159,604	173,453	-0,249	-0,251
160,619	156,329	-0,230	-0,222
161,633	-27,083	-0,280	-0,113
162,648	146,275	-0,220	-0,206
163,662	13,602	-0,218	-0,118
164,677	549,191	-0,113	-0,190
165,692	83,459	-0,232	-0,176
166,706	236,376	-0,166	-0,192
167,721	-36,036	-0,323	-0,121
168,735	99,319	-0,261	-0,210
169,750	-39,532	-0,281	-0,102
170,764	243,236	-0,243	-0,285
171,779	140,298	-0,128	-0,118
172,794	311,519	-0,229	-0,300
173,808	224,933	-0,149	-0,168
174,823	-6,766	-0,282	-0,133
175,837	354,775	-0,187	-0,260
176,852	46,401	-0,143	-0,092
177,867	-16,689	-0,303	-0,133
178,881	-11,408	-0,200	-0,091
179,896	128,157	-0,228	-0,202
180,910	62,592	-0,268	-0,186
181,925	67,664	-0,235	-0,167
182,940	-40,025	-0,296	-0,107
183,954	-35,162	-0,162	-0,061
184,969	-115,968	-0,197	-0,025
185,983	129,217	-0,139	-0,123
186,998	619,350	-0,103	-0,181
188,013	158,345	-0,181	-0,175
189,027	4,879	-0,293	-0,150
190,042	-25,631	-0,299	-0,122
191,056	49,543	-0,211	-0,138
192,071	78,090	-0,123	-0,091
193,086	107,820	-0,274	-0,227
194,100	179,262	-0,202	-0,206
195,115	-52,383	-0,137	-0,044
196,129	120,956	-0,185	-0,160
197,144	96,080	-0,297	-0,236
198,159	-1,247	-0,227	-0,111
199,173	64,141	-0,254	-0,178
200,188	-92,052	-0,268	-0,052
201,202	158,219	-0,054	-0,052
202,217	69,932	-0,226	-0,162
203,232	107,692	-0,280	-0,232
204,246	110,121	-0,207	-0,173
205,261	564,109	-0,162	-0,274
206,275	800,000	-0,134	-0,280
207,290	404,512	-0,111	-0,163
208,304	383,764	-0,152	-0,218
209,319	-200,000	-0,036	-0,117
210,334	451,649	-0,140	-0,216
211,348	800,000	-0,060	-0,136
212,363	800,000	-0,173	-0,342
213,377	40,193	-0,129	-0,080
214,392	-67,565	-0,119	-0,032
215,407	36,712	-0,248	-0,152
216,421	-8,699	-0,147	-0,068
217,436	22,966	-0,202	-0,115
218,450	800,000	-0,108	-0,211
219,465	190,108	-0,253	-0,264
220,480	543,044	-0,150	-0,249
221,494	296,392	-0,189	-0,241
222,509	43,317	-0,247	-0,156
223,523	251,486	-0,158	-0,187
224,538	-34,029	-0,115	-0,044
225,553	104,045	-0,307	-0,250
226,567	-154,621	-0,214	-0,010
227,582	800,000	-0,038	-0,078
228,596	196,735	-0,227	-0,240
229,611	1,099	-0,093	-0,046
230,626	-200,000	-0,038	-0,121
231,640	-99,544	-0,371	-0,064
232,655	-47,169	-0,280	0,094
233,669	15,732	-0,307	-0,167
234,684	800,000	-0,114	-0,331
235,699	171,719	-0,062	-0,062
236,713	108,682	-0,081	-0,067
237,728	-113,757	-0,124	0,017
238,742	-14,819	0,022	-0,010
239,757	768,748	-0,122	-0,232
240,772	34,648	-0,255	-0,154
241,786	159,727	-0,133	-0,128
242,801	-92,599	-0,165	-0,032
243,815	34,228	-0,127	-0,077
244,830	145,971	-0,232	-0,215
245,844	93,846	-0,215	-0,168
246,859	-48,400	-0,244	-0,081
247,874	-48,571	-0,283	-0,094
248,888	-151,757	-0,183	-0,009
249,903	-49,651	-0,166	-0,054
250,917	-31,857	-0,158	-0,061
251,932	69,331	-0,151	0,107
252,947	-173,412	-0,215	-0,004
253,961	28,917	-0,256	-0,150
254,976	105,218	-0,092	-0,075
255,990	240,552	-0,205	-0,237
257,005	108,097	-0,155	-0,128
258,020	-200,000	-0,048	-0,162
259,034	-200,000	-0,043	-0,174
260,049	-200,000	-0,043	-0,151
261,063	-0,380	-0,247	-0,121
262,078	-24,525	-0,190	-0,078
263,093	35,998	-0,297	-0,181
264,107	191,069	-0,185	-0,193
265,122	713,189	-0,054	-0,100
266,136	92,490	-0,094	0,073
267,151	91,437	-0,260	-0,202
268,166	66,266	-0,245	-0,172
269,180	305,241	-0,161	-0,207
270,195	-169,746	-0,236	-0,006
271,209	-53,596	-0,256	-0,080
272,224	-144,775	-0,305	0,019
273,239	-117,417	-0,104	-0,013
274,253	-10,198	-0,119	-0,055
275,268	38,081	-0,158	-0,097
276,282	470,507	-0,156	-0,242
277,297	220,374	-0,230	-0,255
278,312	139,216	-0,222	-0,202
279,326	32,243	-0,159	-0,094
280,341	148,543	-0,112	-0,105
281,355	316,163	-0,081	-0,106
282,370	-51,999	-0,119	-0,038
283,384	220,412	-0,106	-0,117
284,399	4,340	-0,226	-0,114
285,414	217,560	-0,207	-0,228
286,428	-145,122	-0,240	-0,015
287,443	-36,335	-0,195	-0,072
288,457	262,582	-0,058	-0,070
289,472	-112,945	-0,047	-0,006
290,487	-29,346	-0,208	-0,082
291,501	65,389	-0,272	-0,189
292,516	149,398	-0,081	-0,076
293,530	397,009	-0,056	-0,082
294,545	538,183	-0,102	-0,168
295,560	194,711	-0,105	-0,110
296,574	-31,359	-0,148	0,057
297,589	69,735	-0,215	-0,153
298,603	147,644	-0,137	-0,127
299,618	-200,000	-0,155	0,000
300,633	-164,091	-0,222	-0,007
301,647	157,032	-0,137	-0,131
302,662	27,801	-0,213	-0,123
303,676	259,067	-0,151	-0,180
304,691	-101,396	-0,220	-0,037
305,706	-129,325	-0,200	-0,019
306,720	174,703	-0,171	-0,171
307,735	-200,000	-0,047	-0,224
308,749	-200,000	-0,008	-0,235
309,764	-200,000	-0,026	-0,137
310,779	52,290	-0,100	-0,065
311,793	303,013	-0,133	-0,170
312,808	800,000	-0,082	-0,243
313,822	89,910	-0,161	-0,124
314,837	75,918	-0,030	0,022
315,852	274,236	-0,127	-0,154
316,866	-127,607	-0,082	-0,008
317,881	610,784	-0,115	-0,199
318,895	40,891	-0,167	-0,104
319,910	-57,246	-0,154	-0,046
320,925	82,552	-0,169	-0,126
321,939	632,507	-0,048	-0,084
322,954	-112,661	-0,186	0,025
323,968	-40,087	-0,148	0,053
324,983	27,624	-0,129	0,074
325,997	-129,226	-0,267	-0,025
327,012	83,115	-0,090	-0,067
328,027	15,045	-0,245	-0,131
329,041	-112,746	-0,253	-0,034
330,056	-200,000	-0,031	-0,113
331,070	-25,603	-0,124	-0,050
332,085	-52,000	0,034	-0,011
333,100	2,877	-0,155	-0,077
334,114	85,360	-0,118	-0,089
335,129	85,848	-0,182	-0,138
336,143	800,000	-0,123	-0,253
337,158	-61,004	-0,163	-0,047
338,173	-200,000	0,019	-0,157
339,187	-74,456	-0,112	-0,028
340,202	-200,000	0,004	-0,214
341,216	95,608	-0,065	-0,051
342,231	332,806	-0,121	-0,162
343,246	800,000	-0,066	-0,153
344,260	541,573	-0,129	-0,211
345,275	269,546	-0,073	-0,088
346,289	-11,169	-0,160	-0,072
347,304	12,285	-0,185	-0,098
348,319	111,290	-0,168	-0,139
349,333	245,731	-0,158	-0,183
350,348	363,476	-0,127	-0,176
351,362	-200,000	-0,079	-0,243
352,377	800,000	-0,065	-0,125
353,392	800,000	-0,081	-0,210
354,406	-200,000	-0,034	-0,169
355,421	208,231	1315,126	1411,674
356,435	160,213	1475,898	1412,156
