DTS Sentinel unit serial number:	SN410029Multiplexer serial number:	ORYXHardware model number:	OX2-SRSoftware version number:	ORYX F/W v4,00 Oryx Data Collector v3.7.2.0data status	okinstallation	B3 Nyhavnadifferential loss correction	single-endedforward channel	channel 1reverse channel	N/Adate	2023/12/04time	03:07:30forward acquisition time	300,00reverse acquisition time	0,00gamma	499,1914k internal	0,3204k external	0,3204temperature offset calibration	1,0000default loss term (dB/km)	0,3820temperature slope calibration	1,0000multiplexer offset coefficient	1,0000multiplexer slope coefficient	1,0000fibre end	0,00T internal ref (°C)	12,17T ext. ref 1 (°C)	-3,07T ext. ref 2 (°C)	-3,10length (m)	temperature (°C)	Stokes	anti-Stokes-744,400	214,221	-0,170	-0,196
-743,385	-200,000	0,029	0,281
-742,371	800,000	-0,115	-0,296
-741,356	-200,000	0,003	0,275
-740,342	16,268	-0,165	-0,094
-739,327	-200,000	0,021	0,280
-738,312	182,902	-0,282	-0,303
-737,298	-200,000	-0,034	0,263
-736,283	70,757	-0,153	-0,115
-735,269	-200,000	0,045	0,350
-734,254	69,964	-0,215	-0,161
-733,239	-125,895	-0,151	0,016
-732,225	-200,000	-0,007	-0,253
-731,210	-139,568	0,184	0,014
-730,196	-200,000	-0,028	0,099
-729,181	800,000	-0,020	0,049
-728,167	47,040	-0,045	-0,031
-727,152	782,249	-0,050	0,099
-726,137	-186,958	-0,095	0,001
-725,123	-147,667	-0,112	0,007
-724,108	800,000	-0,065	-0,139
-723,094	-200,000	-0,021	-0,223
-722,079	-140,415	-0,104	0,008
-721,064	-200,000	0,022	0,098
-720,050	573,299	0,026	-0,046
-719,035	-200,000	-0,036	-0,123
-718,021	282,528	0,101	-0,132
-717,006	-99,882	-0,088	-0,016
-715,991	7,062	-0,124	-0,067
-714,977	-103,947	0,067	-0,011
-713,962	36,728	-0,056	-0,036
-712,948	206,032	-0,029	-0,032
-711,933	37,551	0,086	0,055
-710,918	449,424	-0,029	-0,047
-709,904	60,116	0,077	-0,055
-708,889	-113,523	-0,184	-0,026
-707,875	238,929	-0,043	0,052
-706,860	-200,000	0,020	0,075
-705,845	104,730	0,052	0,044
-704,831	169,113	-0,065	-0,067
-703,816	211,104	0,128	0,146
-702,802	311,379	-0,038	0,052
-701,787	210,721	-0,019	-0,021
-700,772	-78,368	-0,062	0,015
-699,758	13,952	0,033	-0,019
-698,743	299,667	0,037	0,049
-697,729	2,615	0,058	-0,030
-696,714	204,190	-0,100	-0,112
-695,699	-104,287	0,088	-0,015
-694,685	268,384	-0,121	-0,155
-693,670	156,347	0,033	0,033
-692,656	5,139	-0,168	0,090
-691,641	-186,126	0,069	0,001
-690,627	215,844	0,056	0,064
-689,612	775,936	0,038	-0,076
-688,597	-93,470	-0,068	-0,013
-687,583	-78,016	-0,142	-0,035
-686,568	-200,000	0,039	-0,151
-685,554	800,000	0,051	-0,126
-684,539	123,672	0,093	0,084
-683,524	719,858	0,043	0,084
-682,510	-101,663	0,004	-0,001
-681,495	12,792	-0,158	0,088
-680,481	58,019	0,038	0,027
-679,466	-105,773	-0,108	-0,018
-678,451	-5,555	0,063	0,031
-677,437	-41,985	-0,172	0,063
-676,422	-163,381	0,125	0,004
-675,408	-102,858	-0,122	-0,021
-674,393	-70,141	0,044	-0,012
-673,378	-52,160	-0,103	-0,034
-672,364	292,756	-0,114	-0,151
-671,349	313,584	0,049	-0,067
-670,335	-28,110	-0,129	0,054
-669,320	-63,951	0,127	-0,037
-668,305	-103,788	0,087	0,015
-667,291	190,926	0,023	-0,025
-666,276	-200,000	-0,025	-0,140
-665,262	-38,541	-0,064	-0,024
-664,247	-200,000	-0,035	-0,152
-663,232	-63,971	0,151	-0,044
-662,218	-86,832	0,029	-0,006
-661,203	421,047	0,037	0,058
-660,189	-200,000	0,029	0,146
-659,174	535,514	-0,012	-0,020
-658,159	800,000	-0,035	-0,104
-657,145	517,178	0,054	-0,091
-656,130	46,247	-0,061	0,041
-655,116	-200,000	0,035	0,114
-654,101	-48,390	0,114	0,040
-653,086	800,000	-0,035	0,103
-652,072	-143,031	-0,039	-0,003
-651,057	-54,260	-0,079	-0,026
-650,043	744,350	-0,030	0,059
-649,028	-45,017	-0,076	0,027
-648,014	800,000	0,050	0,107
-646,999	379,682	-0,020	-0,030
-645,984	38,885	-0,047	0,030
-644,970	47,318	0,081	0,055
-643,955	308,152	-0,015	-0,020
-642,941	226,175	-0,037	0,043
-641,926	800,000	-0,029	0,059
-640,911	163,306	-0,016	-0,016
-639,897	-99,117	0,053	0,010
-638,882	217,041	0,047	-0,054
-637,868	423,047	-0,038	0,059
-636,853	800,000	-0,070	-0,164
-635,838	233,625	-0,076	-0,091
-634,824	-67,934	0,149	0,042
-633,809	121,489	-0,034	0,031
-632,795	276,070	-0,087	0,112
-631,780	-200,000	0,008	-0,084
-630,765	-200,000	-0,006	-0,086
-629,751	-200,000	-0,016	-0,066
-628,736	288,232	-0,069	-0,091
-627,722	14,152	0,178	-0,100
-626,707	800,000	0,006	-0,014
-625,692	-200,000	0,000	0,064
-624,678	0,731	-0,129	-0,066
-623,663	784,348	-0,052	0,103
-622,649	311,902	0,008	-0,010
-621,634	73,200	-0,043	-0,032
-620,619	-200,000	0,006	-0,058
-619,605	-200,000	-0,020	-0,100
-618,590	-71,016	0,065	0,017
-617,576	-139,129	-0,094	-0,007
-616,561	181,107	0,050	0,053
-615,546	-200,000	0,002	-0,106
-614,532	59,129	0,056	0,040
-613,517	427,028	-0,034	-0,054
-612,503	-200,000	-0,000	0,076
-611,488	-18,198	0,130	0,059
-610,474	447,718	0,073	0,117
-609,459	337,418	0,101	0,143
-608,444	105,139	-0,105	-0,090
-607,430	800,000	0,025	-0,080
-606,415	-200,000	-0,005	-0,120
-605,401	800,000	0,046	-0,121
-604,386	-92,362	0,077	-0,015
-603,371	-200,000	0,001	0,006
-602,357	-200,000	0,010	-0,110
-601,342	-200,000	0,012	-0,098
-600,328	39,528	-0,073	-0,047
-599,313	-200,000	-0,005	-0,103
-598,298	-134,442	0,029	0,003
-597,284	-89,716	0,055	-0,012
-596,269	104,034	0,120	0,102
-595,255	315,736	-0,063	0,087
-594,240	800,000	-0,033	0,093
-593,225	176,198	0,093	-0,097
-592,211	117,191	0,071	-0,063
-591,196	57,921	-0,144	-0,101
-590,182	28,481	-0,047	0,029
-589,167	-14,845	0,119	0,055
-588,152	-40,390	0,074	0,028
-587,138	-73,078	0,061	-0,016
-586,123	64,168	0,054	0,039
-585,109	324,150	-0,044	0,060
-584,094	-200,000	-0,031	-0,115
-583,079	800,000	-0,018	0,057
-582,065	146,259	-0,019	0,018
-581,050	800,000	-0,016	0,042
-580,036	92,718	-0,034	-0,028
-579,021	-91,006	-0,136	-0,028
-578,006	-158,841	0,113	-0,005
-576,992	-33,143	-0,006	-0,002
-575,977	737,366	-0,049	0,095
-574,963	800,000	-0,018	-0,052
-573,948	-200,000	-0,013	0,065
-572,934	-96,544	0,076	0,014
-571,919	-71,632	-0,070	-0,019
-570,904	621,438	-0,065	-0,119
-569,890	-200,000	0,009	0,071
-568,875	445,409	0,016	-0,025
-567,861	-126,429	0,020	-0,002
-566,846	800,000	-0,014	-0,036
-565,831	-200,000	-0,015	0,135
-564,817	-200,000	0,015	-0,178
-563,802	27,416	-0,145	-0,088
-562,788	210,476	-0,080	0,091
-561,773	223,246	-0,086	-0,100
-560,758	50,963	0,031	-0,021
-559,744	111,071	0,060	0,053
-558,729	800,000	0,053	-0,127
-557,715	-71,677	-0,161	-0,043
-556,700	-200,000	0,003	-0,019
-555,685	-200,000	-0,017	0,179
-554,671	-78,462	-0,107	-0,026
-553,656	-200,000	-0,022	-0,159
-552,642	82,157	-0,075	-0,058
-551,627	113,326	-0,106	0,093
-550,612	800,000	0,017	-0,035
-549,598	-200,000	-0,021	-0,081
-548,583	-6,705	0,104	-0,051
-547,569	59,658	0,015	-0,011
-546,554	-95,797	-0,139	-0,026
-545,539	48,641	0,089	-0,060
-544,525	800,000	-0,025	0,055
-543,510	-123,964	0,154	-0,017
-542,496	-149,301	-0,059	-0,003
-541,481	-31,489	0,055	0,022
-540,466	178,590	0,041	0,043
-539,452	800,000	-0,027	0,073
-538,437	-15,847	0,060	0,027
-537,423	124,024	0,084	0,076
-536,408	-200,000	0,016	0,058
-535,393	-63,662	-0,114	-0,033
-534,379	283,671	0,014	0,018
-533,364	-131,462	-0,104	0,010
-532,350	-148,895	-0,025	0,001
-531,335	-151,419	0,079	0,004
-530,321	104,032	0,023	0,019
-529,306	-200,000	0,018	-0,283
-528,291	77,976	-0,073	0,056
-527,277	-200,000	-0,012	-0,050
-526,262	-200,000	0,003	0,019
-525,248	-200,000	-0,010	-0,086
-524,233	-81,524	0,106	-0,025
-523,218	634,666	-0,076	-0,140
-522,204	-86,617	0,067	-0,015
-521,189	259,896	0,040	-0,050
-520,175	-200,000	-0,005	-0,064
-519,160	183,681	0,072	0,077
-518,145	-91,674	-0,074	-0,015
-517,131	50,290	0,067	0,045
-516,116	-64,822	-0,106	0,031
-515,102	380,841	-0,034	0,050
-514,087	-200,000	-0,021	0,074
-513,072	800,000	-0,026	0,067
-512,058	490,643	-0,040	-0,066
-511,043	-108,559	-0,036	-0,006
-510,029	1,846	0,113	-0,059
-509,014	-14,433	0,077	0,036
-507,999	413,372	0,079	-0,122
-506,985	-200,000	0,004	-0,049
-505,970	743,120	-0,025	-0,048
-504,956	769,901	-0,064	-0,126
-503,941	-200,000	-0,001	0,047
-502,926	-100,208	0,057	-0,010
-501,912	-200,000	-0,010	0,085
-500,897	-65,289	0,116	0,033
-499,883	-200,000	0,011	-0,090
-498,868	-200,000	-0,007	-0,133
-497,853	417,152	-0,034	0,052
-496,839	-200,000	-0,009	-0,202
-495,824	98,341	0,042	0,035
-494,810	800,000	-0,020	-0,048
-493,795	-19,181	0,127	-0,056
-492,781	309,468	-0,102	-0,138
-491,766	129,563	-0,071	0,065
-490,751	-38,683	-0,029	0,011
-489,737	-200,000	0,017	-0,121
-488,722	800,000	-0,040	0,120
-487,708	6,625	-0,138	0,074
-486,693	-200,000	0,017	0,153
-485,678	-40,031	-0,026	0,010
-484,664	-67,408	-0,108	-0,030
-483,649	-2,925	0,060	-0,030
-482,635	-200,000	0,012	-0,042
-481,620	97,312	0,059	0,049
-480,605	403,120	-0,036	0,054
-479,591	738,119	0,030	0,059
-478,576	800,000	0,045	0,123
-477,562	-59,596	-0,020	-0,006
-476,547	-200,000	-0,011	-0,081
-475,532	-200,000	-0,012	0,045
-474,518	334,756	0,031	0,044
-473,503	391,733	0,057	-0,085
-472,489	265,712	-0,060	0,075
-471,474	48,090	-0,050	-0,033
-470,459	-80,978	0,036	-0,009
-469,445	273,321	0,027	-0,034
-468,430	255,092	-0,096	0,119
-467,416	446,222	-0,085	0,134
-466,401	-105,602	0,109	-0,018
-465,386	-200,000	0,019	0,220
-464,372	-89,051	0,047	0,010
-463,357	127,262	-0,079	-0,072
-462,343	-40,874	-0,116	0,043
-461,328	54,959	-0,034	-0,024
-460,313	-29,292	0,078	0,032
-459,299	-200,000	0,006	0,040
-458,284	244,876	0,043	-0,052
-457,270	-200,000	-0,003	0,032
-456,255	-7,845	0,078	-0,038
-455,241	321,842	-0,030	-0,042
-454,226	-111,452	-0,200	-0,029
-453,211	44,254	-0,125	-0,082
-452,197	-125,201	0,077	0,008
-451,182	262,614	0,091	-0,114
-450,168	-148,673	-0,093	-0,005
-449,153	800,000	-0,044	-0,098
-448,138	-200,000	-0,001	-0,096
-447,124	-66,037	0,036	-0,010
-446,109	-200,000	0,017	-0,160
-445,095	85,872	0,056	-0,044
-444,080	255,362	0,083	0,102
-443,065	-200,000	0,013	0,084
-442,051	-10,850	-0,094	0,045
-441,036	183,966	0,083	-0,088
-440,022	86,789	0,035	0,027
-439,007	-25,868	0,041	0,017
-437,992	276,226	-0,033	0,043
-436,978	-29,413	-0,041	0,017
-435,963	371,106	-0,033	0,049
-434,949	200,929	0,068	-0,076
-433,934	261,710	-0,054	-0,068
-432,919	15,159	0,044	0,025
-431,905	-159,199	-0,091	-0,004
-430,890	202,136	0,057	0,063
-429,876	800,000	0,023	0,069
-428,861	-60,727	-0,095	-0,029
-427,846	456,557	0,048	-0,077
-426,832	23,952	-0,076	-0,045
-425,817	800,000	-0,006	0,016
-424,803	31,652	-0,056	-0,035
-423,788	800,000	0,048	-0,132
-422,773	-67,654	0,086	0,024
-421,759	-200,000	-0,037	0,160
-420,744	-82,533	0,121	0,028
-419,730	800,000	-0,028	-0,085
-418,715	65,226	-0,127	-0,092
-417,701	-44,433	0,146	-0,052
-416,686	268,363	0,068	0,086
-415,671	189,781	-0,093	-0,100
-414,657	-200,000	-0,004	0,059
-413,642	405,699	0,026	0,040
-412,628	-200,000	-0,033	0,108
-411,613	-200,000	0,008	0,032
-410,598	-114,523	-0,152	0,021
-409,584	360,396	0,099	-0,142
-408,569	318,436	-0,033	0,045
-407,555	-71,439	0,055	-0,015
-406,540	-200,000	0,003	-0,067
-405,525	289,641	-0,067	-0,088
-404,511	-200,000	-0,008	-0,093
-403,496	214,432	-0,085	-0,096
-402,482	-15,441	0,078	-0,036
-401,467	120,382	0,162	0,144
-400,452	98,239	0,040	0,033
-399,438	-200,000	0,007	0,039
-398,423	800,000	-0,053	0,118
-397,409	94,529	0,104	0,085
-396,394	-67,103	0,050	-0,014
-395,379	96,519	-0,075	-0,062
-394,365	-124,594	0,095	0,010
-393,350	-200,000	0,008	0,112
-392,336	-106,573	0,040	-0,006
-391,321	-168,593	0,115	-0,003
-390,306	30,073	-0,053	-0,032
-389,292	-79,779	-0,150	-0,036
-388,277	42,437	0,122	0,079
-387,263	78,217	0,147	0,112
-386,248	558,010	-0,062	0,107
-385,233	-200,000	-0,012	0,097
-384,219	-200,000	-0,026	0,097
-383,204	1,570	-0,086	0,044
-382,190	-200,000	0,003	0,022
-381,175	-200,000	-0,011	0,065
-380,160	31,089	0,116	0,071
-379,146	66,870	0,098	0,071
-378,131	-85,856	0,081	-0,018
-377,117	90,458	0,027	-0,022
-376,102	800,000	-0,018	-0,054
-375,088	224,234	-0,040	-0,047
-374,073	74,694	0,033	0,025
-373,058	-200,000	-0,035	0,170
-372,044	-12,252	0,112	0,052
-371,029	-113,340	-0,094	-0,013
-370,015	-200,000	-0,008	-0,187
-369,000	-87,804	0,028	0,006
-367,985	-8,933	-0,016	0,008
-366,971	262,870	0,079	-0,098
-365,956	-200,000	-0,008	0,060
-364,942	100,850	0,136	0,113
-363,927	800,000	0,016	0,048
-362,912	-57,791	0,068	-0,021
-361,898	-34,285	-0,025	-0,010
-360,883	-200,000	0,005	-0,073
-359,869	-64,111	0,100	-0,029
-358,854	-161,494	0,053	0,002
-357,839	-120,991	0,035	0,004
-356,825	-25,055	-0,077	0,033
-355,810	727,772	0,052	-0,099
-354,796	92,558	-0,119	-0,096
-353,781	-200,000	-0,007	-0,060
-352,766	800,000	-0,085	-0,174
-351,752	-156,776	-0,078	0,003
-350,737	259,299	0,088	0,109
-349,723	-200,000	-0,037	0,214
-348,708	-200,000	-0,010	-0,035
-347,693	-200,000	-0,029	0,103
-346,679	-200,000	0,040	-0,170
-345,664	148,603	0,012	0,011
-344,650	-200,000	0,012	0,047
-343,635	33,229	-0,037	0,023
-342,620	-177,200	-0,115	0,002
-341,606	800,000	-0,010	0,030
-340,591	800,000	-0,024	-0,058
-339,577	800,000	-0,053	-0,131
-338,562	458,062	-0,053	-0,084
-337,548	800,000	0,036	0,074
-336,533	49,383	0,126	0,085
-335,518	-200,000	-0,017	0,140
-334,504	800,000	0,087	0,178
-333,489	44,292	-0,160	0,105
-332,475	-29,044	-0,073	-0,030
-331,460	215,810	-0,060	-0,068
-330,445	167,028	0,094	0,095
-329,431	614,264	-0,073	-0,132
-328,416	199,911	0,081	0,089
-327,402	-200,000	-0,000	-0,004
-326,387	-153,984	0,064	0,003
-325,372	6,639	-0,098	-0,052
-324,358	-14,738	0,018	-0,008
-323,343	79,673	0,027	0,020
-322,329	-128,407	-0,033	0,003
-321,314	353,978	0,065	0,092
-320,299	-200,000	0,037	0,142
-319,285	-200,000	-0,104	0,000
-318,270	-90,353	-0,067	-0,014
-317,256	761,639	-0,077	-0,150
-316,241	120,306	-0,070	-0,062
-315,226	-42,618	0,069	0,025
-314,212	352,412	0,080	-0,114
-313,197	120,960	0,101	-0,090
-312,183	52,747	-0,025	-0,017
-311,168	194,310	0,004	-0,004
-310,153	31,417	0,052	-0,032
-309,139	86,464	-0,121	-0,095
-308,124	77,320	-0,078	0,059
-307,110	-200,000	0,020	0,085
-306,095	588,871	0,065	0,115
-305,080	-200,000	0,018	0,120
-304,066	-8,363	-0,120	0,058
-303,051	-200,000	0,003	-0,129
-302,037	800,000	0,062	-0,141
-301,022	-200,000	0,008	-0,155
-300,008	-65,209	0,105	-0,030
-298,993	-64,525	0,053	0,015
-297,978	206,858	-0,064	0,071
-296,964	215,358	0,026	0,030
-295,949	-85,816	-0,046	0,010
-294,935	800,000	-0,047	-0,143
-293,920	-200,000	-0,030	-0,103
-292,905	73,196	-0,067	0,050
-291,891	477,616	0,065	0,105
-290,876	-113,619	-0,059	-0,008
-289,862	596,787	0,027	0,048
-288,847	240,819	0,056	0,066
-287,832	800,000	-0,033	-0,075
-286,818	800,000	0,036	-0,074
-285,803	-200,000	0,002	0,135
-284,789	800,000	0,029	0,083
-283,774	800,000	-0,036	-0,083
-282,759	-142,103	-0,094	-0,007
-281,745	-23,720	-0,130	-0,055
-280,730	169,274	-0,070	-0,072
-279,716	800,000	-0,048	0,096
-278,701	800,000	0,053	0,134
-277,686	59,182	0,033	-0,023
-276,672	-4,191	0,002	-0,001
-275,657	-99,956	-0,205	-0,036
-274,643	2,834	0,033	-0,017
-273,628	-200,000	0,003	0,014
-272,613	-35,603	-0,022	0,008
-271,599	-148,162	-0,081	0,005
-270,584	154,936	0,129	0,127
-269,570	412,308	-0,015	0,023
-268,555	800,000	0,029	0,084
-267,540	1,734	-0,102	-0,052
-266,526	-8,269	0,098	0,047
-265,511	334,216	0,031	-0,043
-264,497	186,932	0,072	0,076
-263,482	308,638	-0,059	0,078
-262,467	800,000	-0,056	0,157
-261,453	-4,218	-0,178	0,088
-260,438	15,659	0,046	0,026
-259,424	800,000	0,057	-0,114
-258,409	800,000	0,076	-0,155
-257,395	49,796	0,021	0,014
-256,380	-99,687	0,147	0,026
-255,365	800,000	0,008	0,017
-254,351	-84,551	0,091	-0,020
-253,336	585,044	0,092	-0,162
-252,322	-159,421	-0,068	-0,003
-251,307	142,345	-0,053	0,050
-250,292	-200,000	0,010	0,107
-249,278	-12,813	0,115	0,053
-248,263	61,337	0,064	-0,045
-247,249	143,632	-0,011	0,011
-246,234	35,159	-0,021	0,013
-245,219	800,000	-0,024	-0,065
-244,205	-48,271	-0,067	0,023
-243,190	-94,608	0,238	0,046
-242,176	27,071	0,125	-0,075
-241,161	-200,000	0,014	0,075
-240,146	-200,000	0,001	0,056
-239,132	199,892	-0,050	-0,054
-238,117	70,647	0,078	0,057
-237,103	47,605	0,028	0,018
-236,088	-200,000	-0,030	-0,099
-235,073	-123,926	0,140	0,016
-234,059	5,544	0,026	-0,014
-233,044	482,008	-0,065	0,105
-232,030	-200,000	0,005	-0,018
-231,015	109,061	-0,043	-0,036
-230,000	-170,833	0,078	0,002
-228,986	-200,000	0,017	-0,093
-227,971	206,657	-0,047	0,052
-226,957	-200,000	0,021	0,139
-225,942	800,000	-0,061	0,139
-224,927	152,340	-0,064	-0,063
-223,913	171,929	-0,014	0,014
-222,898	719,170	0,032	0,061
-221,884	-25,776	-0,073	0,030
-220,869	55,479	0,013	-0,009
-219,855	-119,257	0,044	-0,005
-218,840	-19,820	-0,105	0,046
-217,825	-81,793	-0,116	0,027
-216,811	56,727	-0,066	0,045
-215,796	183,367	-0,110	-0,115
-214,782	256,761	-0,083	-0,102
-213,767	800,000	0,090	0,280
-212,752	391,162	0,067	0,099
-211,738	-200,000	0,011	-0,073
-210,723	-200,000	-0,035	0,184
-209,709	-200,000	-0,008	0,087
-208,694	384,524	0,078	-0,115
-207,679	-90,468	-0,133	-0,027
-206,665	-171,491	0,133	-0,003
-205,650	87,994	0,081	-0,064
-204,636	-200,000	-0,014	0,054
-203,621	-43,852	-0,030	-0,011
-202,606	304,645	-0,075	-0,100
-201,592	-23,284	-0,065	-0,028
-200,577	31,515	-0,076	0,046
-199,563	-31,606	-0,073	0,029
-198,548	-114,616	-0,066	-0,009
-197,533	-63,860	-0,038	0,011
-196,519	-200,000	0,008	-0,073
-195,504	122,065	-0,063	-0,056
-194,490	54,710	-0,065	0,045
-193,475	-200,000	-0,014	0,068
-192,460	-200,000	0,021	-0,079
-191,446	333,919	0,103	0,141
-190,431	-25,611	0,179	0,075
-189,417	-200,000	-0,010	0,054
-188,402	184,786	0,052	0,054
-187,387	76,264	0,083	-0,062
-186,373	15,925	-0,027	0,015
-185,358	233,972	0,049	-0,058
-184,344	658,667	0,036	-0,067
-183,329	-200,000	0,001	-0,074
-182,315	23,846	0,066	0,039
-181,300	-126,185	-0,145	0,015
-180,285	-162,693	0,125	-0,004
-179,271	15,473	-0,054	0,030
-178,256	-200,000	-0,010	0,088
-177,242	-38,295	-0,045	0,017
-176,227	800,000	-0,048	0,122
-175,212	800,000	0,032	0,080
-174,198	132,708	-0,017	0,016
-173,183	-200,000	-0,026	-0,099
-172,169	795,076	0,041	-0,080
-171,154	794,506	-0,048	-0,095
-170,139	-23,964	0,072	-0,030
-169,125	800,000	0,012	0,027
-168,110	800,000	-0,026	-0,069
-167,096	-71,642	-0,048	-0,013
-166,081	221,261	0,017	0,019
-165,066	608,467	-0,022	0,039
-164,052	-100,294	-0,074	-0,013
-163,037	-200,000	0,014	0,056
-162,023	66,441	0,220	0,158
-161,008	108,739	0,025	0,022
-159,993	604,685	-0,029	-0,052
-158,979	-57,249	-0,062	0,019
-157,964	800,000	-0,068	-0,202
-156,950	800,000	0,065	-0,184
-155,935	-163,609	-0,087	0,003
-154,920	-200,000	0,000	-0,044
-153,906	-200,000	-0,010	0,126
-152,891	94,858	0,100	0,080
-151,877	125,648	0,057	0,051
-150,862	-200,000	0,003	0,117
-149,847	-10,655	-0,025	-0,012
-148,833	229,372	0,063	0,074
-147,818	53,167	0,153	0,104
-146,804	134,148	0,046	-0,042
-145,789	197,022	0,074	0,080
-144,775	800,000	-0,077	-0,158
-143,760	13,256	-0,090	-0,050
-142,745	588,891	0,038	-0,066
-141,731	127,194	-0,078	0,071
-140,716	17,477	-0,031	0,017
-139,702	80,562	0,095	0,073
-138,687	-113,802	0,073	-0,010
-137,672	-200,000	0,015	-0,199
-136,658	-200,000	0,013	-0,049
-135,643	800,000	-0,018	-0,051
-134,629	-200,000	0,005	0,180
-133,614	-200,000	-0,026	-0,133
-132,599	-159,351	0,109	0,004
-131,585	-200,000	-0,013	0,192
-130,570	125,456	0,072	0,064
-129,556	-1,883	-0,117	-0,058
-128,541	-59,506	-0,076	0,023
-127,526	-31,807	-0,127	0,050
-126,512	308,159	0,096	0,127
-125,497	-200,000	-0,010	0,035
-124,483	67,905	0,018	-0,013
-123,468	-113,205	0,121	-0,017
-122,453	271,327	-0,052	0,064
-121,439	775,719	-0,065	0,127
-120,424	-200,000	0,004	-0,014
-119,410	-86,724	-0,050	-0,011
-118,395	154,187	0,071	0,069
-117,380	-200,000	-0,026	0,136
-116,366	-44,983	0,071	0,025
-115,351	-200,000	0,004	0,050
-114,337	-137,051	0,165	-0,013
-113,322	65,123	-0,113	0,081
-112,307	-200,000	0,033	0,210
-111,293	324,302	-0,070	0,096
-110,278	161,578	-0,006	-0,006
-109,264	191,834	-0,038	0,041
-108,249	277,510	-0,043	-0,055
-107,234	-13,284	-0,078	-0,036
-106,220	49,533	-0,063	-0,042
-105,205	-200,000	-0,003	-0,089
-104,191	-20,908	-0,049	0,021
-103,176	-200,000	0,016	0,057
-102,162	-20,291	-0,124	0,054
-101,147	-200,000	-0,007	0,067
-100,132	396,612	-0,004	0,005
-99,118	563,136	-0,048	-0,083
-98,103	800,000	0,045	0,118
-97,089	-200,000	0,025	0,150
-96,074	-39,324	-0,041	0,015
-95,059	-200,000	0,020	0,070
-94,045	-200,000	-0,018	-0,084
-93,030	-200,000	0,016	-0,059
-92,016	-36,590	-0,108	0,041
-91,001	265,597	-0,032	-0,040
-89,986	-200,000	0,028	0,092
-88,972	-116,305	0,125	0,016
-87,957	800,000	-0,047	0,094
-86,943	537,858	0,100	0,168
-85,928	431,589	0,061	-0,095
-84,913	-200,000	0,023	-0,108
-83,899	243,159	0,048	0,057
-82,884	531,362	0,015	0,025
-81,870	800,000	0,004	0,010
-80,855	-172,234	0,163	0,004
-79,840	173,376	-0,015	0,015
-78,826	74,902	0,032	0,024
-77,811	190,891	-0,073	-0,078
-76,797	-25,958	-0,068	-0,028
-75,782	405,881	0,030	-0,045
-74,767	-60,665	0,127	0,038
-73,753	261,595	-0,078	0,096
-72,738	-200,000	0,044	0,199
-71,724	-30,100	-0,121	0,049
-70,709	-2,343	0,070	0,034
-69,694	14,751	-0,163	-0,090
-68,680	315,064	-0,037	-0,050
-67,665	-200,000	0,001	0,117
-66,651	-103,668	0,079	-0,013
-65,636	-200,000	-0,000	-0,101
-64,622	126,639	0,065	-0,058
-63,607	-200,000	-0,017	-0,065
-62,592	-200,000	-0,002	0,050
-61,578	-71,030	0,175	-0,046
-60,563	156,059	-0,064	0,063
-59,549	-200,000	-0,011	-0,049
-58,534	-10,940	-1,783	-0,830
-57,519	400,588	-1,321	-1,966
-56,505	-200,000	-0,569	-4,506
-55,490	290,294	1,022	1,316
-54,476	800,000	4,844	10,992
-53,461	-200,000	20,294	325,297
-52,446	800,000	752,509	2314,498
-51,432	549,175	1663,806	2830,782
-50,417	75,066	1672,574	1245,143
-49,403	19,995	1545,561	878,901
-48,388	14,003	1467,828	805,530
-47,373	18,506	1457,965	821,847
-46,359	16,448	1447,452	806,028
-45,344	12,297	1443,065	783,660
-44,330	12,226	1441,117	782,230
-43,315	12,158	1439,663	781,085
-42,300	12,238	1437,617	780,324
-41,286	12,221	1436,429	779,567
-40,271	12,237	1434,957	778,817
-39,257	12,194	1433,877	777,995
-38,242	12,262	1432,519	777,550
-37,227	12,228	1431,393	776,745
-36,213	12,245	1430,035	776,057
-35,198	12,270	1428,898	775,530
-34,184	12,275	1428,149	775,116
-33,169	12,233	1426,582	774,035
-32,154	12,270	1425,468	773,577
-31,140	12,303	1424,179	773,002
-30,125	12,327	1423,131	772,515
-29,111	12,283	1422,189	771,768
-28,096	12,265	1420,833	770,916
-27,082	12,186	1419,920	770,017
-26,067	12,197	1418,870	769,467
-25,052	12,242	1417,487	768,897
-24,038	12,203	1416,640	768,224
-23,023	12,188	1415,703	767,618
-22,009	12,216	1414,376	767,000
-20,994	12,206	1413,486	766,438
-19,979	12,144	1412,801	765,743
-18,965	12,181	1411,928	765,417
-17,950	12,145	1411,028	764,727
-16,936	12,156	1410,014	764,199
-15,921	12,094	1409,036	763,348
-14,906	12,072	1408,260	762,794
-13,892	12,097	1407,297	762,358
-12,877	12,117	1406,253	761,860
-11,863	12,117	1405,293	761,307
-10,848	12,080	1404,405	760,623
-9,833	12,087	1403,495	760,133
-8,819	11,987	1402,924	759,329
-7,804	12,024	1401,895	758,912
-6,790	11,994	1401,037	758,277
-5,775	11,986	1399,836	757,561
-4,760	12,003	1398,878	757,090
-3,746	12,031	1397,898	756,659
-2,731	12,025	1397,257	756,256
-1,717	11,991	1396,101	755,444
-0,702	11,987	1394,384	754,464
0,313	16,093	1309,333	727,373
1,327	32,700	700,093	427,091
2,342	50,493	122,282	81,594
3,356	2,068	16,439	8,361
4,371	1,109	3,059	1,546
5,386	-20,425	0,547	0,237
6,400	-200,000	-0,022	0,258
7,415	69,281	-0,207	-0,150
8,429	99,407	-0,322	-0,263
9,444	-23,681	-0,450	-0,190
10,459	7,073	-0,159	-0,084
11,473	87,544	-0,229	-0,179
12,488	-177,918	-0,200	0,003
13,502	-62,196	-0,419	-0,123
14,517	-83,855	-0,413	-0,092
15,531	596,669	-0,196	-0,343
16,546	82,763	-0,365	-0,280
17,561	32,757	-0,403	-0,246
18,575	39,651	-0,218	-0,138
19,590	484,727	-0,123	-0,198
20,604	-130,961	-0,218	-0,020
21,619	176,285	-0,378	-0,388
22,634	113,131	-0,449	-0,384
23,648	47,919	-0,413	-0,271
24,663	85,570	-0,363	-0,281
25,677	-9,198	-0,286	-0,134
26,692	144,272	-0,339	-0,319
27,707	193,635	-0,292	-0,312
28,721	77,736	-0,361	-0,271
29,736	-23,633	-0,412	-0,174
30,750	55,391	-0,506	-0,345
31,765	108,758	-0,308	-0,260
32,780	135,135	-0,390	-0,358
33,794	80,668	-0,410	-0,311
34,809	663,854	-0,265	-0,484
35,823	142,460	-0,343	-0,321
36,838	65,527	-0,397	-0,283
37,853	239,460	-0,316	-0,371
38,867	78,529	-0,384	-0,288
39,882	-54,131	-0,426	-0,136
40,896	113,775	-0,387	-0,331
41,911	16,243	-0,390	-0,216
42,926	209,625	-0,214	-0,236
43,940	-42,628	-0,335	-0,119
44,955	120,332	-0,250	-0,219
45,969	57,816	-0,367	-0,253
46,984	-12,542	-0,421	-0,193
47,999	116,124	-0,262	-0,226
49,013	-4,012	-0,317	-0,154
50,028	-4,647	-0,349	-0,169
51,042	205,288	-0,279	-0,306
52,057	-22,438	-0,334	-0,142
53,071	-50,189	-0,381	-0,126
54,086	62,378	-0,309	-0,217
55,101	117,513	-0,315	-0,272
56,115	25,703	-0,323	-0,189
57,130	27,413	-0,361	-0,213
58,144	-36,812	-0,331	-0,124
59,159	122,901	-0,472	-0,415
60,174	519,121	-0,218	-0,360
61,188	174,688	-0,389	-0,396
62,203	-99,125	-0,377	-0,066
63,217	386,971	-0,105	-0,154
64,232	120,527	-0,267	-0,233
65,247	330,342	-0,252	-0,342
66,261	205,013	-0,273	-0,298
67,276	75,873	-0,422	-0,313
68,290	-3,842	-0,381	-0,185
69,305	92,520	-0,299	-0,237
70,320	67,019	-0,363	-0,260
71,334	-25,886	-0,380	-0,157
72,349	75,100	-0,305	-0,226
73,363	13,036	-0,323	-0,175
74,378	48,443	-0,326	-0,214
75,393	219,089	-0,271	-0,305
76,407	-52,697	-0,264	-0,085
77,422	-78,574	-0,289	-0,069
78,436	-30,672	-0,281	-0,111
79,451	79,399	-0,228	-0,172
80,466	-41,656	-0,483	-0,173
81,480	128,755	-0,281	-0,251
82,495	245,764	-0,250	-0,296
83,509	-72,741	-0,396	-0,102
84,524	-6,895	-0,298	-0,141
85,539	-140,043	-0,361	-0,026
86,553	36,876	-0,290	-0,179
87,568	283,309	-0,267	-0,338
88,582	-72,497	-0,311	-0,080
89,597	117,256	-0,204	-0,176
90,611	61,048	-0,398	-0,277
91,626	145,738	-0,222	-0,208
92,641	-38,115	-0,233	-0,086
93,655	-92,356	-0,230	-0,045
94,670	55,579	-0,312	-0,212
95,684	284,631	-0,210	-0,265
96,699	54,166	-0,297	-0,200
97,714	-136,252	-0,207	0,017
98,728	159,771	-0,235	-0,229
99,743	132,820	-0,204	-0,184
100,757	-34,607	-0,228	-0,087
101,772	171,334	-0,241	-0,243
102,787	273,150	-0,250	-0,310
103,801	-23,298	-0,196	-0,082
104,816	715,848	-0,196	-0,366
105,830	-110,395	-0,310	-0,045
106,845	-3,124	-0,242	-0,118
107,860	-33,841	-0,345	-0,132
108,874	61,275	-0,266	-0,185
109,889	126,987	-0,316	-0,281
110,903	109,932	-0,248	-0,209
111,918	295,981	-0,156	-0,200
112,933	-23,639	-0,078	-0,033
113,947	-28,110	-0,272	-0,110
114,962	-16,541	-0,242	-0,107
115,976	-15,403	-0,328	-0,146
116,991	233,992	-0,195	-0,225
118,006	67,680	-0,329	-0,235
119,020	-75,619	-0,245	-0,061
120,035	84,326	-0,221	-0,169
121,049	190,683	-0,129	-0,136
122,064	438,236	-0,218	-0,334
123,079	7,706	-0,288	-0,150
124,093	-104,382	-0,239	-0,038
125,108	0,827	-0,240	-0,120
126,122	-76,823	-0,316	-0,077
127,137	37,904	-0,135	-0,084
128,151	-25,729	-0,290	-0,119
129,166	-18,532	-0,201	-0,087
130,181	307,682	-0,147	-0,192
131,195	76,621	-0,250	-0,185
132,210	-42,759	-0,220	-0,078
133,224	-200,000	-0,035	-0,234
134,239	112,484	-0,270	-0,228
135,254	129,110	-0,230	-0,205
136,268	102,685	-0,252	-0,206
137,283	68,208	-0,200	-0,143
138,297	345,615	-0,156	-0,215
139,312	-114,397	-0,318	0,042
140,327	206,129	-0,268	-0,292
141,341	-80,587	-0,204	-0,047
142,356	-71,662	-0,157	-0,041
143,370	72,437	-0,189	-0,137
144,385	356,395	-0,189	-0,264
145,400	800,000	-0,134	-0,289
146,414	455,542	-0,225	-0,349
147,429	22,756	-0,166	-0,095
148,443	-111,750	-0,197	-0,028
149,458	96,352	-0,176	-0,140
150,473	-1,004	-0,232	-0,114
151,487	-117,877	-0,301	-0,037
152,502	115,050	-0,242	-0,206
153,516	138,341	-0,245	-0,224
154,531	186,486	-0,252	-0,262
155,546	178,245	-0,128	-0,131
156,560	167,896	-0,251	-0,249
157,575	-83,003	-0,268	-0,060
158,589	-71,169	-0,316	-0,082
159,604	-46,343	-0,229	-0,078
160,619	-34,704	-0,290	-0,110
161,633	22,202	-0,293	-0,166
162,648	145,118	-0,209	-0,195
163,662	-12,348	-0,413	-0,187
164,677	59,497	-0,207	-0,142
165,692	158,565	-0,215	-0,208
166,706	73,787	-0,199	-0,145
167,721	98,049	-0,240	-0,193
168,735	180,808	-0,190	-0,195
169,750	58,800	-0,271	-0,185
170,764	-80,211	-0,244	-0,056
171,779	-28,570	-0,280	-0,112
172,794	111,633	-0,159	-0,133
173,808	121,391	-0,261	-0,226
174,823	128,821	-0,289	-0,257
175,837	-55,444	-0,229	-0,071
176,852	497,181	-0,092	-0,148
177,867	186,226	-0,152	-0,158
178,881	228,795	-0,106	-0,120
179,896	-180,513	-0,086	0,001
180,910	223,846	-0,246	-0,276
181,925	119,360	-0,175	-0,151
182,940	569,024	-0,121	-0,205
183,954	411,754	-0,150	-0,222
184,969	346,255	-0,203	-0,279
185,983	800,000	-0,149	-0,304
186,998	154,085	-0,138	-0,132
188,013	169,626	-0,068	-0,068
189,027	83,467	-0,151	-0,115
190,042	-181,143	-0,222	-0,003
191,056	124,848	-0,147	-0,129
192,071	654,233	-0,151	-0,271
193,086	449,740	-0,153	-0,235
194,100	222,685	-0,140	-0,157
195,115	1,252	-0,205	-0,102
196,129	494,102	-0,160	-0,256
197,144	-21,224	-0,244	-0,103
198,159	-97,144	-0,118	-0,021
199,173	155,337	-0,089	-0,085
200,188	72,144	-0,184	-0,133
201,202	63,480	-0,151	-0,105
202,217	-200,000	-0,020	-0,137
203,232	452,100	-0,180	-0,278
204,246	-80,790	-0,340	-0,078
205,261	87,649	-0,126	-0,097
206,275	73,823	-0,207	-0,151
207,290	206,183	-0,147	-0,159
208,304	800,000	-0,092	-0,201
209,319	47,979	-0,197	-0,128
210,334	-6,435	-0,310	-0,146
211,348	97,052	-0,258	-0,205
212,363	328,524	-0,121	-0,162
213,377	-3,711	-0,246	-0,118
214,392	170,843	-0,081	-0,080
215,407	126,143	-0,245	-0,215
216,421	49,041	-0,104	-0,068
217,436	-91,203	-0,165	-0,033
218,450	65,627	-0,242	-0,170
219,465	-71,771	-0,270	-0,069
220,480	105,232	-0,321	-0,263
221,494	168,578	-0,113	-0,112
222,509	10,239	-0,126	-0,066
223,523	6,259	-0,099	-0,051
224,538	722,848	-0,115	-0,214
225,553	186,943	-0,143	-0,147
226,567	-43,074	-0,186	-0,065
227,582	151,560	-0,196	-0,185
228,596	-200,000	-0,052	-0,164
229,611	800,000	-0,129	-0,252
230,626	88,790	-0,110	-0,085
231,640	-80,384	-0,188	0,043
232,655	55,821	-0,169	-0,113
233,669	11,396	-0,234	-0,124
234,684	187,786	-0,284	-0,294
235,699	281,875	-0,115	-0,143
236,713	185,070	-0,151	-0,155
237,728	99,086	-0,101	-0,081
238,742	213,779	-0,218	-0,239
239,757	46,167	-0,155	-0,099
240,772	32,408	-0,231	-0,138
241,786	410,946	-0,126	-0,185
242,801	-200,000	-0,062	-0,193
243,815	-200,000	-0,031	-0,142
244,830	214,275	-0,146	-0,160
245,844	-200,000	-0,017	-0,144
246,859	150,667	-0,133	-0,125
247,874	327,428	-0,159	-0,211
248,888	83,799	-0,139	-0,105
249,903	74,677	-0,158	-0,115
250,917	-200,000	0,003	-0,043
251,932	384,727	-0,065	-0,093
252,947	177,557	-0,116	-0,117
253,961	199,648	-0,188	-0,199
254,976	179,235	-0,170	-0,172
255,990	460,596	-0,130	-0,200
257,005	-22,350	-0,222	-0,093
258,020	22,062	-0,181	-0,102
259,034	-134,077	-0,209	-0,018
260,049	800,000	-0,070	-0,135
261,063	112,097	-0,139	-0,116
262,078	28,357	-0,179	-0,104
263,093	-31,874	-0,081	-0,031
264,107	263,551	-0,110	-0,132
265,122	-12,737	-0,219	-0,098
266,136	800,000	-0,118	-0,246
267,151	-3,782	-0,172	-0,082
268,166	129,511	-0,243	-0,215
269,180	328,412	-0,186	-0,248
270,195	120,971	-0,190	-0,163
271,209	78,666	-0,129	-0,095
272,224	-67,894	-0,157	-0,042
273,239	25,224	-0,168	-0,096
274,253	-125,622	-0,186	0,019
275,268	13,748	-0,121	-0,065
276,282	-31,543	-0,210	-0,081
277,297	35,772	-0,170	-0,103
278,312	102,625	-0,031	-0,025
279,326	691,650	-0,117	-0,213
280,341	-114,346	-0,143	-0,019
281,355	-23,012	-0,177	-0,073
282,370	239,506	-0,186	-0,214
283,384	153,810	-0,249	-0,235
284,399	800,000	-0,097	-0,269
285,414	-200,000	-0,058	-0,210
286,428	-46,029	-0,012	0,004
287,443	74,248	-0,115	-0,083
288,457	-143,791	-0,110	-0,007
289,472	-137,753	-0,153	-0,012
290,487	103,247	-0,197	-0,159
291,501	288,309	-0,179	-0,224
292,516	-172,158	-0,171	-0,004
293,530	410,771	-0,165	-0,243
294,545	-25,015	-0,123	0,050
295,560	626,459	-0,115	-0,200
296,574	-57,241	-0,224	-0,067
297,589	275,999	-0,108	-0,132
298,603	-78,845	-0,148	0,034
299,618	-5,806	-0,216	-0,102
300,633	49,720	-0,093	-0,061
301,647	20,171	-0,139	-0,077
302,662	-120,772	-0,129	-0,015
303,676	62,538	-0,131	-0,090
304,691	621,352	-0,118	-0,205
305,706	-29,169	-0,155	-0,061
306,720	29,829	-0,205	-0,120
307,735	-55,157	-0,118	-0,036
308,749	226,864	-0,033	-0,037
309,764	-200,000	-0,068	-0,329
310,779	407,968	-0,153	-0,223
311,793	-200,000	-0,012	-0,071
312,808	485,692	-0,093	-0,146
313,822	-94,802	-0,126	0,023
314,837	-200,000	-0,037	-0,189
315,852	-103,407	-0,202	0,032
316,866	-200,000	-0,040	-0,139
317,881	69,721	-0,170	-0,121
318,895	800,000	-0,071	-0,171
319,910	20,254	-0,284	-0,157
320,925	800,000	-0,099	-0,234
321,939	321,873	-0,095	-0,124
322,954	-200,000	-0,002	-0,077
323,968	222,758	-0,097	-0,107
324,983	428,310	-0,135	-0,201
325,997	425,757	-0,110	-0,163
327,012	-165,322	-0,196	0,006
328,027	54,420	-0,156	-0,103
329,041	-105,215	-0,080	-0,012
330,056	-166,718	-0,100	-0,003
331,070	724,978	-0,110	-0,202
332,085	26,870	-0,154	-0,088
333,100	36,214	-0,052	-0,031
334,114	186,284	-0,141	-0,144
335,129	-200,000	-0,069	-0,297
336,143	23,249	-0,124	-0,070
337,158	800,000	-0,041	-0,085
338,173	363,099	-0,103	-0,143
339,187	79,202	-0,094	-0,069
340,202	-166,143	-0,114	0,003
341,216	-159,992	-0,154	0,006
342,231	-55,161	-0,164	-0,050
343,246	-169,184	-0,163	0,004
344,260	-19,892	-0,075	-0,032
345,275	-59,603	-0,129	-0,038
346,289	-200,000	-0,045	-0,156
347,304	-139,978	-0,263	-0,019
348,319	-193,840	-0,217	0,001
349,333	-96,682	-0,235	-0,042
350,348	129,227	-0,129	-0,113
351,362	-1,348	-0,285	-0,138
352,377	160,378	-0,114	-0,109
353,392	-200,000	-0,083	-0,259
354,406	274,820	-0,083	-0,101
355,421	208,399	1313,633	1409,091
356,435	160,348	1474,212	1409,557
