DTS Sentinel unit serial number:	SN410029Multiplexer serial number:	ORYXHardware model number:	OX2-SRSoftware version number:	ORYX F/W v4,00 Oryx Data Collector v3.7.2.0data status	okinstallation	B3 Nyhavnadifferential loss correction	single-endedforward channel	channel 1reverse channel	N/Adate	2023/12/01time	07:47:30forward acquisition time	300,00reverse acquisition time	0,00gamma	499,1914k internal	0,3212k external	0,3212temperature offset calibration	1,0000default loss term (dB/km)	0,3820temperature slope calibration	1,0000multiplexer offset coefficient	1,0000multiplexer slope coefficient	1,0000fibre end	0,00T internal ref (°C)	8,07T ext. ref 1 (°C)	-6,35T ext. ref 2 (°C)	-6,49length (m)	temperature (°C)	Stokes	anti-Stokes-744,400	630,219	-0,131	-0,242
-743,385	-200,000	-0,045	0,296
-742,371	277,224	-0,270	-0,348
-741,356	-200,000	0,053	0,308
-740,342	800,000	-0,047	-0,128
-739,327	-200,000	-0,016	0,293
-738,312	8,441	-0,189	-0,103
-737,298	-200,000	0,057	0,243
-736,283	442,737	-0,141	-0,224
-735,269	-200,000	-0,006	0,265
-734,254	800,000	-0,097	-0,251
-733,239	31,028	-0,153	0,095
-732,225	-200,000	-0,045	-0,255
-731,210	-14,985	-0,077	0,036
-730,196	-26,979	0,038	0,016
-729,181	-143,380	0,051	-0,004
-728,167	161,563	-0,178	-0,180
-727,152	-200,000	0,029	-0,115
-726,137	309,976	-0,052	-0,070
-725,123	-200,000	0,037	-0,179
-724,108	122,445	-0,047	-0,043
-723,094	138,282	-0,153	-0,145
-722,079	-200,000	0,006	-0,045
-721,064	-35,782	-0,137	-0,053
-720,050	416,682	0,023	-0,036
-719,035	93,831	0,170	-0,139
-718,021	124,777	-0,109	0,099
-717,006	-31,226	-0,060	-0,024
-715,991	160,739	-0,135	-0,136
-714,977	800,000	-0,022	0,050
-713,962	800,000	0,034	-0,080
-712,948	606,086	-0,053	-0,096
-711,933	40,017	-0,162	0,105
-710,918	200,764	-0,045	0,050
-709,904	553,778	0,034	-0,060
-708,889	150,933	-0,109	-0,107
-707,875	787,448	0,029	0,057
-706,860	181,943	-0,048	0,051
-705,845	-18,003	0,068	0,031
-704,831	-88,675	-0,042	0,009
-703,816	800,000	-0,036	0,109
-702,802	256,265	0,068	-0,084
-701,787	-15,625	-0,069	-0,032
-700,772	-62,405	-0,020	0,006
-699,758	800,000	-0,026	0,065
-698,743	-200,000	0,016	0,111
-697,729	217,951	0,094	0,109
-696,714	-40,962	-0,092	0,034
-695,699	42,727	0,115	-0,076
-694,685	71,912	-0,063	0,047
-693,670	68,243	-0,089	-0,066
-692,656	-159,353	0,018	-0,001
-691,641	-132,169	-0,080	-0,007
-690,627	342,132	0,024	0,033
-689,612	-200,000	0,019	-0,064
-688,597	-200,000	-0,002	-0,064
-687,583	800,000	0,047	-0,113
-686,568	461,832	0,072	-0,116
-685,554	193,301	-0,054	-0,059
-684,539	117,043	0,029	0,025
-683,524	-95,608	0,042	0,008
-682,510	800,000	-0,071	0,147
-681,495	-107,080	0,036	0,006
-680,481	-55,516	-0,123	-0,039
-679,466	800,000	0,022	-0,050
-678,451	-200,000	-0,028	-0,101
-677,437	28,262	-0,115	0,070
-676,422	800,000	-0,049	-0,103
-675,408	-34,514	0,102	0,040
-674,393	-18,275	-0,071	0,032
-673,378	-128,413	0,057	-0,006
-672,364	41,114	-0,174	-0,113
-671,349	-200,000	-0,031	0,118
-670,335	-200,000	0,003	-0,135
-669,320	800,000	-0,016	-0,041
-668,305	-84,972	-0,138	0,031
-667,291	-53,148	0,075	0,025
-666,276	-49,355	-0,018	0,006
-665,262	-158,116	-0,218	-0,009
-664,247	17,194	0,117	-0,067
-663,232	-28,176	-0,051	0,021
-662,218	-49,942	-0,028	0,010
-661,203	52,371	-0,123	0,085
-660,189	71,694	-0,089	0,067
-659,174	800,000	-0,046	-0,101
-658,159	800,000	-0,070	-0,191
-657,145	-125,409	-0,140	-0,015
-656,130	39,794	0,044	-0,028
-655,116	800,000	-0,057	-0,143
-654,101	36,872	0,126	-0,080
-653,086	93,000	0,027	-0,022
-652,072	484,099	-0,056	0,093
-651,057	-5,163	-0,115	-0,057
-650,043	-29,228	-0,069	-0,028
-649,028	271,564	0,084	-0,107
-648,014	-43,783	-0,041	-0,015
-646,999	26,032	0,132	0,079
-645,984	-200,000	-0,015	0,146
-644,970	217,014	0,124	-0,143
-643,955	84,085	-0,070	-0,056
-642,941	800,000	0,033	-0,088
-641,926	-55,312	-0,053	-0,017
-640,911	-200,000	-0,001	0,083
-639,897	-200,000	-0,034	0,146
-638,882	15,752	0,039	0,022
-637,868	-38,366	0,021	-0,008
-636,853	49,610	0,027	-0,019
-635,838	-108,315	-0,158	0,024
-634,824	800,000	0,025	0,051
-633,809	-200,000	-0,001	0,072
-632,795	85,416	-0,059	0,047
-631,780	800,000	0,076	0,206
-630,765	800,000	0,036	0,077
-629,751	-62,072	-0,135	0,041
-628,736	-105,283	0,130	-0,021
-627,722	9,640	-0,063	-0,035
-626,707	375,168	0,021	0,030
-625,692	-200,000	0,002	-0,115
-624,678	13,985	0,015	0,008
-623,663	135,095	0,077	0,073
-622,649	-82,053	-0,076	-0,018
-621,634	800,000	0,012	0,035
-620,619	369,657	0,002	0,004
-619,605	-52,275	0,097	-0,032
-618,590	72,999	0,122	0,092
-617,576	-200,000	0,036	0,120
-616,561	-200,000	0,001	-0,059
-615,546	663,453	-0,065	0,121
-614,532	62,592	0,077	-0,055
-613,517	-53,990	0,046	-0,015
-612,503	-200,000	-0,004	0,032
-611,488	235,104	-0,109	-0,130
-610,474	800,000	0,062	0,149
-609,459	-27,028	-0,206	0,086
-608,444	231,212	-0,053	-0,063
-607,430	791,338	0,037	-0,074
-606,415	-24,072	-0,068	-0,029
-605,401	6,348	0,103	-0,055
-604,386	548,398	0,063	0,109
-603,371	-153,274	0,091	0,004
-602,357	-200,000	0,011	-0,077
-601,342	342,919	-0,139	-0,197
-600,328	-200,000	0,037	-0,137
-599,313	-200,000	-0,015	-0,115
-598,298	-68,358	0,112	0,031
-597,284	359,443	-0,026	0,037
-596,269	-200,000	0,002	0,049
-595,255	-200,000	-0,002	-0,034
-594,240	-200,000	-0,016	-0,118
-593,225	-124,177	-0,188	-0,021
-592,211	165,359	0,092	-0,094
-591,196	800,000	0,050	-0,148
-590,182	354,739	-0,038	-0,055
-589,167	800,000	0,024	0,060
-588,152	-81,487	0,037	-0,009
-587,138	216,497	0,038	0,044
-586,123	211,647	0,070	-0,080
-585,109	161,869	-0,122	-0,123
-584,094	518,166	-0,007	0,012
-583,079	83,418	0,112	-0,088
-582,065	-172,392	0,092	0,002
-581,050	800,000	0,045	0,093
-580,036	-104,902	-0,150	-0,024
-579,021	-148,063	0,078	-0,005
-578,006	-62,474	0,098	0,029
-576,992	-200,000	-0,047	-0,219
-575,977	201,052	0,116	-0,128
-574,963	115,537	-0,059	0,052
-573,948	99,327	0,083	-0,069
-572,934	-122,901	-0,021	-0,002
-571,919	93,323	0,077	0,063
-570,904	-200,000	0,011	-0,062
-569,890	205,745	-0,027	0,030
-568,875	-200,000	0,022	0,141
-567,861	78,590	0,037	0,029
-566,846	-35,949	-0,050	-0,019
-565,831	6,526	-0,150	-0,080
-564,817	-200,000	0,007	-0,025
-563,802	-44,747	0,069	0,025
-562,788	-96,999	0,060	-0,011
-561,773	-200,000	0,021	-0,107
-560,758	415,841	0,069	0,106
-559,744	-200,000	-0,006	0,189
-558,729	800,000	0,038	-0,087
-557,715	551,742	0,059	0,102
-556,700	-200,000	0,032	-0,169
-555,685	-91,050	-0,151	-0,031
-554,671	-200,000	-0,013	-0,061
-553,656	-164,858	-0,061	-0,002
-552,642	390,378	0,012	-0,018
-551,627	-55,724	-0,092	0,029
-550,612	-88,509	0,090	0,019
-549,598	3,174	-0,095	0,050
-548,583	-130,320	-0,123	0,012
-547,569	-125,469	0,115	0,012
-546,554	800,000	0,029	-0,086
-545,539	-200,000	0,025	-0,102
-544,525	-78,086	0,112	0,027
-543,510	800,000	0,057	0,123
-542,496	322,236	-0,020	0,027
-541,481	200,110	0,046	0,050
-540,466	-30,326	0,081	-0,033
-539,452	-200,000	0,002	-0,112
-538,437	244,326	-0,049	0,059
-537,423	103,244	0,042	-0,035
-536,408	382,926	0,072	-0,107
-535,393	-128,674	-0,117	0,012
-534,379	-25,564	0,102	-0,043
-533,364	-200,000	-0,000	-0,080
-532,350	-120,656	-0,062	-0,007
-531,335	800,000	0,011	-0,030
-530,321	-4,505	-0,018	0,009
-529,306	-200,000	0,008	0,149
-528,291	-200,000	-0,009	-0,254
-527,277	-68,932	-0,079	-0,022
-526,262	285,205	0,006	-0,007
-525,248	45,607	0,098	-0,065
-524,233	-42,155	-0,079	0,029
-523,218	-113,585	-0,120	-0,017
-522,204	800,000	0,006	0,015
-521,189	244,230	-0,079	-0,096
-520,175	-200,000	0,006	-0,208
-519,160	702,794	0,039	-0,074
-518,145	-94,358	-0,062	0,012
-517,131	176,376	-0,047	-0,049
-516,116	-71,691	0,119	0,032
-515,102	800,000	0,047	0,111
-514,087	-39,367	-0,091	-0,034
-513,072	-24,833	-0,084	0,036
-512,058	338,195	-0,116	-0,162
-511,043	-19,624	0,075	-0,033
-510,029	-200,000	0,019	0,089
-509,014	390,527	-0,074	0,111
-507,999	196,088	-0,135	0,148
-506,985	189,270	-0,060	0,065
-505,970	-200,000	-0,008	0,062
-504,956	-200,000	0,044	-0,144
-503,941	-200,000	0,028	0,110
-502,926	800,000	0,083	0,206
-501,912	800,000	-0,074	0,158
-500,897	-200,000	-0,006	0,124
-499,883	34,562	-0,126	-0,079
-498,868	232,811	-0,082	-0,097
-497,853	93,366	0,120	-0,097
-496,839	800,000	-0,009	0,028
-495,824	-59,258	0,100	0,031
-494,810	223,176	-0,010	0,012
-493,795	-102,267	0,011	-0,002
-492,781	102,396	0,077	0,065
-491,766	220,997	-0,127	-0,146
-490,751	800,000	0,066	-0,180
-489,737	-113,180	-0,202	-0,028
-488,722	-144,655	0,136	-0,009
-487,708	442,993	-0,066	0,104
-486,693	-45,310	0,096	-0,034
-485,678	-118,075	-0,054	-0,007
-484,664	-85,631	0,075	-0,017
-483,649	539,911	0,082	-0,141
-482,635	143,163	0,099	0,095
-481,620	-200,000	0,015	0,060
-480,605	-156,747	-0,015	0,001
-479,591	40,804	0,065	0,042
-478,576	406,451	0,069	-0,105
-477,562	-14,583	-0,116	0,054
-476,547	-72,108	-0,055	0,015
-475,532	218,792	0,104	-0,119
-474,518	295,655	-0,049	-0,064
-473,503	509,715	0,041	0,068
-472,489	201,166	0,030	0,033
-471,474	-138,689	0,101	-0,008
-470,459	2,406	0,055	0,029
-469,445	346,189	-0,069	-0,098
-468,430	-181,125	-0,125	0,002
-467,416	800,000	0,039	0,110
-466,401	-35,194	-0,056	0,022
-465,386	-200,000	-0,035	0,112
-464,372	-200,000	-0,019	0,101
-463,357	-200,000	-0,018	-0,096
-462,343	-200,000	-0,022	0,137
-461,328	-30,531	-0,090	0,036
-460,313	57,311	0,046	0,032
-459,299	109,024	0,031	-0,026
-458,284	-200,000	-0,016	0,179
-457,270	-200,000	-0,002	-0,037
-456,255	2,412	-0,060	0,031
-455,241	647,840	0,055	-0,101
-454,226	-116,284	-0,069	0,009
-453,211	800,000	0,051	-0,120
-452,197	-112,173	0,126	-0,018
-451,182	-200,000	-0,004	-0,088
-450,168	-121,025	0,123	-0,015
-449,153	-53,015	-0,171	-0,056
-448,138	-13,303	-0,082	-0,038
-447,124	645,645	-0,038	-0,070
-446,109	-180,785	0,090	-0,001
-445,095	154,854	-0,097	0,095
-444,080	-33,650	-0,107	-0,042
-443,065	16,413	0,152	0,086
-442,051	193,962	-0,041	0,045
-441,036	-31,417	0,083	-0,033
-440,022	-37,294	-0,109	-0,042
-439,007	530,281	0,033	-0,056
-437,992	-200,000	0,012	-0,048
-436,978	149,310	0,110	0,107
-435,963	-200,000	-0,000	-0,035
-434,949	800,000	-0,015	0,034
-433,934	-8,936	-0,065	-0,031
-432,919	-102,303	-0,080	0,014
-431,905	29,069	-0,046	0,028
-430,890	-24,591	0,134	0,057
-429,876	-38,563	-0,151	0,057
-428,861	265,978	0,078	0,098
-427,846	415,316	0,027	0,042
-426,832	220,590	0,082	-0,095
-425,817	167,090	0,084	-0,086
-424,803	591,376	0,076	-0,135
-423,788	-200,000	0,007	0,073
-422,773	-144,418	0,102	0,007
-421,759	-200,000	0,017	0,114
-420,744	134,382	-0,014	0,013
-419,730	362,825	-0,098	-0,141
-418,715	165,321	0,038	-0,039
-417,701	-14,008	-0,056	0,026
-416,686	124,109	0,109	-0,098
-415,671	-131,490	0,072	0,007
-414,657	-87,650	-0,056	0,012
-413,642	800,000	0,040	-0,093
-412,628	-66,484	0,011	0,003
-411,613	-32,932	-0,035	-0,014
-410,598	-38,718	0,022	-0,008
-409,584	-127,893	-0,092	-0,009
-408,569	-114,059	0,067	0,009
-407,555	-200,000	-0,004	0,175
-406,540	-200,000	0,019	0,121
-405,525	8,255	-0,123	-0,066
-404,511	83,793	0,045	-0,035
-403,496	-123,767	-0,027	0,003
-402,482	-43,852	0,076	-0,027
-401,467	-105,621	-0,035	0,006
-400,452	-130,134	0,045	-0,004
-399,438	262,503	-0,079	0,099
-398,423	-26,536	0,057	-0,024
-397,409	-200,000	-0,003	-0,079
-396,394	800,000	-0,014	-0,043
-395,379	800,000	0,006	-0,016
-394,365	800,000	0,043	0,118
-393,350	338,057	-0,014	-0,019
-392,336	57,819	-0,001	-0,001
-391,321	84,950	-0,104	-0,082
-390,306	520,721	-0,138	0,231
-389,292	310,683	-0,042	-0,056
-388,277	-170,397	0,060	0,001
-387,263	367,381	0,120	0,173
-386,248	-200,000	-0,025	0,157
-385,233	-22,116	-0,015	0,006
-384,219	-43,392	0,149	-0,053
-383,204	-159,912	-0,214	0,008
-382,190	800,000	0,065	0,143
-381,175	-21,405	-0,066	-0,029
-380,160	135,110	0,085	-0,079
-379,146	34,586	0,077	0,048
-378,131	-200,000	0,009	0,110
-377,117	-200,000	0,003	-0,034
-376,102	15,593	-0,025	-0,014
-375,088	-200,000	-0,018	-0,181
-374,073	783,517	0,083	-0,164
-373,058	310,417	0,083	0,111
-372,044	339,801	-0,025	0,035
-371,029	800,000	-0,037	0,080
-370,015	35,569	-0,035	0,022
-369,000	-200,000	0,002	-0,032
-367,985	72,820	0,121	-0,090
-366,971	646,047	-0,054	0,098
-365,956	-85,392	0,038	0,008
-364,942	189,036	0,048	0,052
-363,927	-200,000	0,033	0,132
-362,912	-105,103	-0,040	0,006
-361,898	-200,000	-0,014	-0,126
-360,883	-55,751	-0,096	0,030
-359,869	-200,000	-0,011	-0,066
-358,854	-74,236	-0,146	-0,037
-357,839	55,522	0,065	0,045
-356,825	737,875	0,045	0,087
-355,810	-200,000	-0,024	0,080
-354,796	-88,748	-0,075	-0,016
-353,781	-200,000	-0,008	-0,097
-352,766	-200,000	0,027	-0,126
-351,752	800,000	-0,034	0,073
-350,737	-200,000	0,152	0,000
-349,723	-135,463	0,140	-0,012
-348,708	-200,000	-0,011	0,093
-347,693	5,913	-0,043	0,023
-346,679	88,902	0,093	-0,073
-345,664	-92,347	-0,123	-0,025
-344,650	442,962	0,061	0,096
-343,635	62,413	0,110	-0,079
-342,620	800,000	-0,063	0,164
-341,606	-200,000	0,018	0,186
-340,591	800,000	-0,017	0,045
-339,577	-47,930	0,022	-0,008
-338,562	427,865	0,046	-0,071
-337,548	252,285	0,048	-0,059
-336,533	79,878	0,084	-0,065
-335,518	-36,114	0,086	-0,033
-334,504	621,659	0,017	0,031
-333,489	-153,767	0,234	-0,011
-332,475	556,579	-0,061	-0,106
-331,460	-200,000	0,002	-0,144
-330,445	69,659	0,097	-0,071
-329,431	148,404	-0,048	0,046
-328,416	800,000	-0,018	-0,037
-327,402	-158,765	0,187	0,008
-326,387	-36,402	-0,119	0,045
-325,372	-22,537	0,139	0,060
-324,358	-200,000	0,043	-0,187
-323,343	800,000	-0,020	-0,053
-322,329	800,000	0,010	-0,023
-321,314	-200,000	0,005	0,061
-320,299	35,478	0,066	-0,041
-319,285	-120,281	-0,098	0,012
-318,270	-55,372	-0,063	-0,020
-317,256	-200,000	-0,005	0,030
-316,241	5,853	0,133	0,070
-315,226	85,594	-0,014	-0,011
-314,212	149,137	0,121	0,117
-313,197	-55,131	0,066	-0,021
-312,183	-56,843	-0,141	0,044
-311,168	-86,286	-0,128	0,028
-310,153	800,000	-0,042	-0,108
-309,139	-81,762	-0,021	-0,005
-308,124	-177,238	0,014	0,000
-307,110	288,419	0,046	-0,060
-306,095	266,363	0,076	0,095
-305,080	-100,994	-0,141	0,024
-304,066	-200,000	-0,053	-0,173
-303,051	268,344	-0,058	0,073
-302,037	73,940	-0,117	0,087
-301,022	-200,000	0,004	-0,043
-300,008	320,596	0,056	0,075
-298,993	274,679	0,076	0,096
-297,978	-200,000	-0,023	0,087
-296,964	-49,030	-0,056	0,019
-295,949	-200,000	0,007	-0,050
-294,935	-200,000	0,001	0,077
-293,920	-17,926	-0,048	-0,021
-292,905	100,205	0,152	0,125
-291,891	291,084	-0,117	0,152
-290,876	-200,000	0,012	0,176
-289,862	-26,224	-0,079	-0,033
-288,847	253,129	0,033	-0,041
-287,832	145,039	0,029	-0,028
-286,818	-200,000	0,107	0,000
-285,803	141,497	-0,137	0,129
-284,789	-164,472	0,077	0,002
-283,774	-77,558	0,096	-0,024
-282,759	-3,912	-0,068	-0,033
-281,745	93,349	-0,100	-0,080
-280,730	58,781	-0,083	0,058
-279,716	315,302	-0,024	-0,033
-278,701	-43,759	-0,063	-0,022
-277,686	31,793	0,040	-0,025
-276,672	126,493	0,063	0,057
-275,657	413,145	0,041	-0,062
-274,643	800,000	0,022	-0,057
-273,628	-200,000	-0,051	-0,172
-272,613	108,243	-0,111	0,095
-271,599	227,275	0,081	-0,093
-270,584	-40,644	-0,088	0,032
-269,570	294,296	-0,045	0,059
-268,555	-68,712	0,080	0,022
-267,540	-200,000	0,010	-0,101
-266,526	-145,980	-0,180	0,011
-265,511	267,572	0,034	-0,042
-264,497	447,374	-0,040	0,063
-263,482	178,207	0,137	0,142
-262,467	-200,000	-0,013	0,115
-261,453	-63,584	-0,085	0,025
-260,438	62,094	0,094	0,066
-259,424	306,405	0,034	-0,046
-258,409	800,000	0,014	0,037
-257,395	-200,000	-0,005	0,089
-256,380	800,000	0,062	0,136
-255,365	-191,243	-0,110	0,001
-254,351	125,088	0,050	0,044
-253,336	309,457	-0,042	-0,056
-252,322	-200,000	-0,041	-0,218
-251,307	349,884	0,066	-0,093
-250,292	-89,290	-0,128	0,027
-249,278	-200,000	0,030	-0,139
-248,263	488,133	-0,027	0,044
-247,249	541,695	0,026	0,044
-246,234	-200,000	-0,027	-0,147
-245,219	-134,990	0,018	0,002
-244,205	-52,545	0,073	-0,024
-243,190	-55,402	0,071	-0,022
-242,176	108,386	-0,039	0,033
-241,161	-105,529	-0,027	-0,004
-240,146	-51,908	0,133	0,044
-239,132	-61,969	-0,053	-0,016
-238,117	-64,753	-0,178	0,051
-237,103	-200,000	0,010	0,109
-236,088	-0,831	0,096	0,048
-235,073	-200,000	-0,025	0,182
-234,059	-39,286	0,052	-0,019
-233,044	30,592	-0,038	-0,023
-232,030	-112,219	-0,031	-0,004
-231,015	-200,000	0,022	0,126
-230,000	59,127	-0,157	0,109
-228,986	-200,000	0,013	-0,077
-227,971	23,747	-0,087	0,051
-226,957	-94,890	0,193	0,037
-225,942	258,963	-0,059	0,072
-224,927	50,746	0,132	0,088
-223,913	-200,000	-0,011	-0,133
-222,898	-15,294	-0,121	0,055
-221,884	202,428	0,016	0,017
-220,869	-200,000	-0,014	0,138
-219,855	-45,950	0,037	0,013
-218,840	-200,000	-0,020	0,110
-217,825	251,165	-0,067	-0,081
-216,811	13,384	-0,167	-0,092
-215,796	28,112	0,042	-0,025
-214,782	-200,000	-0,016	-0,180
-213,767	686,953	-0,021	-0,040
-212,752	-63,583	0,140	0,040
-211,738	24,513	-0,101	-0,059
-210,723	-200,000	0,013	0,147
-209,709	330,786	0,055	-0,075
-208,694	-74,591	-0,186	-0,047
-207,679	472,134	0,027	-0,043
-206,665	800,000	0,033	0,079
-205,650	-200,000	0,000	0,033
-204,636	-200,000	-0,036	0,162
-203,621	800,000	-0,032	0,091
-202,606	124,292	-0,028	-0,025
-201,592	-200,000	0,016	-0,091
-200,577	77,532	-0,138	-0,104
-199,563	-153,583	-0,046	0,002
-198,548	62,907	0,056	-0,040
-197,533	237,640	0,069	-0,081
-196,519	-22,151	-0,064	0,027
-195,504	-200,000	-0,011	0,085
-194,490	800,000	-0,036	0,083
-193,475	48,736	-0,103	-0,069
-192,460	-200,000	-0,023	-0,128
-191,446	98,359	0,029	0,024
-190,431	39,317	0,129	0,082
-189,417	-23,023	-0,085	0,036
-188,402	228,311	0,068	0,079
-187,387	544,686	0,061	0,104
-186,373	243,063	0,065	-0,077
-185,358	-42,058	0,170	0,061
-184,344	-35,405	-0,074	-0,028
-183,329	286,428	-0,045	0,057
-182,315	800,000	0,069	0,153
-181,300	-200,000	-0,030	-0,109
-180,285	800,000	-0,057	-0,130
-179,271	164,748	-0,067	-0,067
-178,256	113,546	-0,080	-0,068
-177,242	-46,898	0,109	-0,038
-176,227	327,804	-0,093	0,126
-175,212	217,359	-0,137	0,154
-174,198	800,000	-0,073	-0,162
-173,183	-152,130	-0,095	0,005
-172,169	182,897	0,030	-0,032
-171,154	76,362	-0,117	-0,088
-170,139	22,885	0,066	0,038
-169,125	-200,000	-0,029	0,110
-168,110	280,769	0,066	-0,084
-167,096	91,166	-0,074	-0,059
-166,081	30,805	0,048	-0,029
-165,066	800,000	-0,044	-0,095
-164,052	800,000	0,026	-0,067
-163,037	59,021	0,043	-0,030
-162,023	-47,746	-0,097	-0,033
-161,008	-200,000	0,002	0,061
-159,993	-200,000	-0,015	-0,066
-158,979	44,083	-0,114	-0,074
-157,964	-200,000	-0,014	-0,169
-156,950	-136,067	-0,102	-0,008
-155,935	-41,988	-0,078	0,028
-154,920	583,977	-0,014	-0,025
-153,906	-58,239	0,099	-0,030
-152,891	557,861	-0,018	-0,031
-151,877	-200,000	0,007	0,129
-150,862	363,107	-0,089	0,126
-149,847	415,874	-0,078	-0,118
-148,833	800,000	-0,036	0,103
-147,818	800,000	-0,086	0,178
-146,804	209,130	0,127	0,141
-145,789	632,959	-0,048	-0,086
-144,775	260,699	-0,051	-0,062
-143,760	253,827	0,052	-0,063
-142,745	-10,961	-0,118	-0,055
-141,731	-200,000	0,006	-0,063
-140,716	-97,445	-0,026	0,005
-139,702	800,000	-0,021	0,052
-138,687	-200,000	0,012	0,090
-137,672	-200,000	0,001	-0,035
-136,658	1,057	-0,171	-0,086
-135,643	129,107	-0,091	-0,082
-134,629	-200,000	-0,010	-0,069
-133,614	-200,000	-0,024	0,186
-132,599	-200,000	-0,007	0,165
-131,585	-67,495	-0,171	-0,047
-130,570	158,838	0,051	-0,050
-129,556	686,997	0,056	0,104
-128,541	66,696	-0,023	-0,017
-127,526	223,620	0,094	0,108
-126,512	37,869	-0,053	-0,033
-125,497	29,797	0,113	-0,068
-124,483	7,248	0,089	0,047
-123,468	40,327	-0,117	0,075
-122,453	-32,579	0,065	0,025
-121,439	-200,000	-0,030	-0,129
-120,424	800,000	0,064	-0,135
-119,410	-47,220	0,007	0,003
-118,395	-133,463	0,083	0,007
-117,380	219,880	0,018	0,021
-116,366	-15,788	-0,057	-0,026
-115,351	0,175	-0,087	-0,044
-114,337	-200,000	-0,005	-0,111
-113,322	49,614	-0,141	0,094
-112,307	96,013	-0,045	0,036
-111,293	-200,000	-0,005	-0,076
-110,278	-67,552	0,057	-0,016
-109,264	442,520	-0,061	-0,094
-108,249	64,518	-0,119	0,085
-107,234	32,835	-0,018	0,011
-106,220	800,000	-0,021	0,057
-105,205	-200,000	0,008	0,116
-104,191	61,248	0,017	0,012
-103,176	163,248	-0,077	0,076
-102,162	-200,000	0,014	0,096
-101,147	-200,000	-0,035	-0,142
-100,132	177,037	-0,098	-0,100
-99,118	-200,000	-0,006	-0,117
-98,103	-200,000	-0,009	-0,054
-97,089	-132,696	-0,061	-0,005
-96,074	-122,200	-0,104	0,012
-95,059	17,651	0,051	-0,028
-94,045	135,799	0,054	-0,050
-93,030	193,258	-0,042	0,045
-92,016	269,086	-0,010	0,012
-91,001	273,022	0,048	-0,060
-89,986	-57,793	0,121	-0,037
-88,972	73,931	0,066	-0,049
-87,957	353,021	0,022	0,031
-86,943	-129,238	-0,131	0,013
-85,928	627,632	0,064	-0,115
-84,913	-14,791	0,058	0,026
-83,899	800,000	-0,055	0,136
-82,884	484,340	0,055	0,089
-81,870	800,000	-0,032	-0,066
-80,855	115,580	-0,048	0,042
-79,840	-94,411	0,081	-0,015
-78,826	-200,000	-0,018	0,161
-77,811	110,904	-0,071	-0,060
-76,797	-200,000	-0,007	0,064
-75,782	61,138	0,092	-0,065
-74,767	800,000	0,026	-0,059
-73,753	-138,300	0,100	0,008
-72,738	9,480	-0,061	-0,033
-71,724	493,804	-0,064	-0,104
-70,709	-44,558	-0,059	-0,021
-69,694	-200,000	-0,007	-0,070
-68,680	-59,679	0,084	-0,025
-67,665	398,513	0,140	0,207
-66,651	448,612	-0,051	0,080
-65,636	-200,000	0,028	-0,146
-64,622	800,000	-0,025	0,068
-63,607	203,608	-0,027	-0,030
-62,592	27,875	-0,075	-0,045
-61,578	188,280	0,035	0,037
-60,563	-200,000	-0,011	-0,120
-59,549	133,304	-0,053	0,049
-58,534	70,405	-2,117	-1,542
-57,519	624,762	-1,074	-1,919
-56,505	-200,000	-0,390	-4,651
-55,490	755,696	0,884	1,694
-54,476	800,000	5,264	11,395
-53,461	-200,000	22,460	346,363
-52,446	800,000	757,647	2296,610
-51,432	534,513	1644,856	2760,994
-50,417	68,183	1643,410	1185,616
-49,403	15,748	1520,756	841,322
-48,388	9,929	1446,702	772,392
-47,373	19,224	1439,054	812,580
-46,359	13,385	1427,777	778,616
-45,344	8,236	1423,664	751,981
-44,330	8,223	1421,810	750,912
-43,315	8,160	1419,958	749,604
-42,300	8,137	1418,114	748,492
-41,286	8,197	1416,836	748,071
-40,271	8,146	1415,622	747,162
-39,257	8,191	1414,545	746,774
-38,242	8,166	1413,330	745,988
-37,227	8,154	1412,418	745,417
-36,213	8,197	1410,823	744,749
-35,198	8,145	1409,774	743,925
-34,184	8,221	1408,863	743,768
-33,169	8,108	1407,358	742,416
-32,154	8,188	1406,468	742,291
-31,140	8,155	1405,109	741,388
-30,125	8,178	1404,309	741,046
-29,111	8,134	1402,995	740,117
-28,096	8,143	1401,776	739,487
-27,082	8,155	1400,345	738,758
-26,067	8,054	1399,588	737,858
-25,052	8,122	1398,374	737,509
-24,038	8,132	1397,412	737,018
-23,023	8,085	1396,590	736,336
-22,009	8,085	1395,529	735,745
-20,994	8,051	1394,482	735,009
-19,979	8,093	1393,576	734,697
-18,965	8,031	1392,696	733,914
-17,950	8,046	1391,711	733,439
-16,936	8,062	1390,736	732,966
-15,921	7,993	1389,904	732,183
-14,906	7,995	1389,060	731,717
-13,892	8,033	1387,889	731,246
-12,877	8,031	1387,139	730,815
-11,863	8,029	1386,348	730,358
-10,848	7,998	1385,528	729,755
-9,833	7,983	1384,538	729,134
-8,819	7,934	1383,630	728,404
-7,804	7,902	1382,710	727,742
-6,790	7,928	1381,700	727,301
-5,775	7,958	1380,753	726,913
-4,760	7,957	1379,774	726,362
-3,746	7,954	1378,712	725,758
-2,731	7,947	1378,203	725,432
-1,717	7,937	1377,115	724,785
-0,702	7,943	1375,420	723,891
0,313	11,828	1285,929	694,424
1,327	27,637	677,592	401,163
2,342	42,801	116,530	74,704
3,356	-1,786	16,464	8,141
4,371	-6,747	3,931	1,878
5,386	-2,271	1,347	0,664
6,400	800,000	0,323	0,731
7,415	-2,365	-0,019	-0,010
8,429	-58,362	-0,319	-0,097
9,444	4,418	-0,246	-0,127
10,459	-55,579	-0,327	-0,103
11,473	-0,661	-0,348	-0,173
12,488	71,657	-0,319	-0,233
13,502	59,976	-0,305	-0,212
14,517	628,158	-0,120	-0,214
15,531	45,530	-0,369	-0,240
16,546	-4,074	-0,409	-0,199
17,561	137,518	-0,432	-0,398
18,575	-100,846	-0,170	-0,029
19,590	428,594	-0,136	-0,208
20,604	-85,332	-0,176	-0,038
21,619	54,137	-0,404	-0,273
22,634	121,395	-0,420	-0,369
23,648	237,459	-0,360	-0,421
24,663	111,486	-0,296	-0,251
25,677	113,064	-0,252	-0,214
26,692	138,516	-0,199	-0,184
27,707	14,709	-0,404	-0,221
28,721	-9,440	-0,421	-0,197
29,736	43,270	-0,381	-0,244
30,750	13,074	-0,311	-0,169
31,765	147,453	-0,376	-0,356
32,780	-8,014	-0,341	-0,161
33,794	73,880	-0,260	-0,192
34,809	1,805	-0,354	-0,179
35,823	64,704	-0,329	-0,233
36,838	93,510	-0,289	-0,230
37,853	36,770	-0,385	-0,238
38,867	95,560	-0,401	-0,322
39,882	29,262	-0,308	-0,184
40,896	-21,292	-0,275	-0,118
41,911	-53,242	-0,304	-0,098
42,926	131,081	-0,280	-0,253
43,940	132,747	-0,305	-0,277
44,955	28,686	-0,379	-0,225
45,969	335,404	-0,245	-0,335
46,984	132,760	-0,283	-0,257
47,999	-46,968	-0,347	-0,119
49,013	108,514	-0,308	-0,258
50,028	52,263	-0,357	-0,239
51,042	255,981	-0,188	-0,227
52,057	34,652	-0,451	-0,276
53,071	130,419	-0,319	-0,287
54,086	20,714	-0,358	-0,203
55,101	154,271	-0,191	-0,184
56,115	62,666	-0,349	-0,245
57,130	57,025	-0,347	-0,237
58,144	246,912	-0,257	-0,305
59,159	214,039	-0,300	-0,333
60,174	-67,888	-0,463	-0,126
61,188	-129,913	-0,326	0,031
62,203	-11,938	-0,322	-0,147
63,217	138,544	-0,324	-0,299
64,232	-176,054	-0,313	0,006
65,247	40,926	-0,230	-0,146
66,261	10,764	-0,321	-0,171
67,276	56,440	-0,414	-0,282
68,290	-72,270	-0,357	-0,092
69,305	57,309	-0,242	-0,165
70,320	42,929	-0,341	-0,218
71,334	380,232	-0,216	-0,312
72,349	162,266	-0,220	-0,216
73,363	217,122	-0,202	-0,226
74,378	49,283	-0,392	-0,258
75,393	163,205	-0,230	-0,226
76,407	-55,393	-0,314	-0,098
77,422	-6,107	-0,311	-0,148
78,436	347,696	-0,228	-0,315
79,451	157,384	-0,214	-0,207
80,466	-45,290	-0,420	-0,145
81,480	286,883	-0,214	-0,272
82,495	73,699	-0,353	-0,258
83,509	334,872	-0,207	-0,281
84,524	180,798	-0,202	-0,208
85,539	39,303	-0,347	-0,217
86,553	98,798	-0,238	-0,192
87,568	124,558	-0,276	-0,243
88,582	21,928	-0,280	-0,159
89,597	176,456	-0,162	-0,165
90,611	-59,747	-0,228	-0,068
91,626	293,724	-0,144	-0,185
92,641	68,479	-0,334	-0,239
93,655	169,868	-0,202	-0,202
94,670	-69,635	-0,391	-0,104
95,684	93,292	-0,213	-0,168
96,699	-61,935	-0,297	-0,086
97,714	-2,270	-0,202	-0,099
98,728	-0,146	-0,171	-0,085
99,743	321,828	-0,178	-0,238
100,757	52,948	-0,356	-0,238
101,772	210,862	-0,288	-0,316
102,787	-50,520	-0,216	-0,071
103,801	115,001	-0,187	-0,160
104,816	248,591	-0,171	-0,203
105,830	-127,089	-0,315	0,032
106,845	342,140	-0,181	-0,247
107,860	108,617	-0,320	-0,267
108,874	133,832	-0,294	-0,265
109,889	133,869	-0,261	-0,236
110,903	-45,067	-0,367	-0,127
111,918	166,791	-0,173	-0,171
112,933	134,065	-0,179	-0,162
113,947	35,021	-0,305	-0,186
114,962	-131,864	-0,275	0,025
115,976	-17,505	-0,328	-0,144
116,991	-30,042	-0,296	-0,117
118,006	121,040	-0,196	-0,171
119,020	77,389	-0,223	-0,166
120,035	280,459	-0,161	-0,202
121,049	-15,737	-0,361	-0,160
122,064	77,442	-0,184	-0,136
123,079	-7,021	-0,143	-0,067
124,093	89,249	-0,304	-0,236
125,108	-200,000	-0,089	-0,337
126,122	-64,643	-0,252	-0,071
127,137	-111,498	-0,266	-0,037
128,151	119,927	-0,173	-0,150
129,166	271,585	-0,105	-0,129
130,181	-66,456	-0,183	-0,050
131,195	-27,254	-0,344	-0,139
132,210	265,820	-0,179	-0,218
133,224	83,329	-0,260	-0,198
134,239	150,885	-0,226	-0,214
135,254	58,264	-0,308	-0,210
136,268	174,124	-0,267	-0,269
137,283	21,421	-0,257	-0,145
138,297	-51,929	-0,277	-0,089
139,312	58,046	-0,305	-0,208
140,327	800,000	-0,084	-0,214
141,341	127,194	-0,261	-0,230
142,356	303,462	-0,255	-0,330
143,370	84,815	-0,201	-0,153
144,385	-7,034	-0,226	-0,106
145,400	153,077	-0,265	-0,252
146,414	276,630	-0,197	-0,244
147,429	514,415	-0,216	-0,352
148,443	161,288	-0,234	-0,228
149,458	583,860	-0,157	-0,269
150,473	-75,665	-0,170	-0,042
151,487	111,612	-0,171	-0,143
152,502	169,212	-0,266	-0,264
153,516	95,648	-0,237	-0,188
154,531	28,028	-0,194	-0,114
155,546	367,208	-0,076	-0,108
156,560	445,649	-0,191	-0,293
157,575	119,098	-0,199	-0,171
158,589	7,600	-0,241	-0,125
159,604	62,518	-0,291	-0,202
160,619	-67,193	-0,284	-0,077
161,633	58,477	-0,273	-0,186
162,648	15,045	-0,342	-0,186
163,662	12,477	-0,275	-0,147
164,677	59,858	-0,139	-0,096
165,692	-18,631	-0,278	-0,120
166,706	300,007	-0,129	-0,165
167,721	44,128	-0,194	-0,124
168,735	635,535	-0,123	-0,218
169,750	800,000	-0,108	-0,304
170,764	20,428	-0,269	-0,151
171,779	314,543	-0,133	-0,174
172,794	-9,731	-0,249	-0,115
173,808	-43,320	-0,271	-0,095
174,823	351,534	-0,250	-0,344
175,837	96,020	-0,224	-0,178
176,852	55,870	-0,266	-0,179
177,867	-24,394	-0,153	-0,063
178,881	237,719	-0,213	-0,246
179,896	448,118	-0,075	-0,115
180,910	130,114	-0,168	-0,149
181,925	168,104	-0,242	-0,239
182,940	73,676	-0,184	-0,134
183,954	-19,610	-0,147	-0,063
184,969	23,066	-0,265	-0,150
185,983	78,291	-0,142	-0,105
186,998	-4,453	-0,243	-0,116
188,013	140,561	-0,240	-0,220
189,027	179,625	-0,225	-0,229
190,042	-8,636	-0,292	-0,136
191,056	6,023	-0,380	-0,195
192,071	103,086	-0,163	-0,133
193,086	800,000	-0,014	-0,032
194,100	-7,157	-0,251	-0,117
195,115	-36,580	-0,225	-0,083
196,129	17,842	-0,183	-0,101
197,144	45,092	-0,212	-0,135
198,159	135,480	-0,254	-0,229
199,173	12,551	-0,295	-0,157
200,188	107,125	-0,187	-0,154
201,202	302,026	-0,161	-0,207
202,217	97,050	-0,164	-0,130
203,232	154,064	-0,200	-0,190
204,246	-134,973	-0,244	-0,020
205,261	278,500	-0,214	-0,265
206,275	49,040	-0,171	-0,111
207,290	235,772	-0,192	-0,221
208,304	326,432	-0,154	-0,205
209,319	76,495	-0,170	-0,125
210,334	50,567	-0,214	-0,140
211,348	-35,306	-0,286	-0,107
212,363	259,756	-0,188	-0,225
213,377	14,541	-0,163	-0,088
214,392	800,000	-0,091	-0,189
215,407	-58,074	-0,207	-0,062
216,421	26,308	-0,151	-0,087
217,436	342,597	-0,114	-0,155
218,450	-15,918	-0,435	-0,191
219,465	78,046	-0,292	-0,215
220,480	283,551	-0,141	-0,176
221,494	482,665	-0,119	-0,188
222,509	-148,429	-0,156	-0,009
223,523	56,729	-0,080	-0,054
224,538	86,684	-0,244	-0,186
225,553	151,244	-0,266	-0,250
226,567	38,826	-0,225	-0,138
227,582	-56,873	-0,191	-0,058
228,596	25,780	-0,119	-0,068
229,611	-200,000	-0,060	-0,197
230,626	150,184	-0,139	-0,130
231,640	71,919	-0,202	-0,145
232,655	-147,529	-0,238	-0,014
233,669	-72,983	-0,193	-0,049
234,684	17,861	-0,206	-0,113
235,699	182,712	-0,171	-0,174
236,713	-38,946	-0,282	-0,102
237,728	76,072	-0,249	-0,182
238,742	-50,625	-0,160	-0,052
239,757	-42,288	-0,252	-0,089
240,772	800,000	-0,054	-0,123
241,786	236,024	-0,199	-0,227
242,801	75,467	-0,265	-0,193
243,815	20,532	-0,117	-0,065
244,830	115,388	-0,191	-0,161
245,844	201,155	-0,188	-0,200
246,859	-5,975	-0,234	-0,110
247,874	-40,609	-0,129	-0,046
248,888	245,256	-0,208	-0,242
249,903	373,086	-0,122	-0,171
250,917	12,116	-0,186	-0,099
251,932	350,374	-0,168	-0,230
252,947	-46,508	-0,170	-0,057
253,961	269,777	-0,229	-0,278
254,976	271,006	-0,201	-0,244
255,990	55,380	-0,153	-0,102
257,005	1,301	-0,221	-0,109
258,020	-43,659	-0,207	-0,072
259,034	-59,580	-0,173	0,051
260,049	180,711	-0,203	-0,206
261,063	29,907	-0,288	-0,169
262,078	253,659	-0,164	-0,193
263,093	-32,574	-0,205	-0,078
264,107	-200,000	-0,079	-0,254
265,122	-54,774	-0,147	0,045
266,136	-129,737	-0,249	-0,023
267,151	-15,496	-0,098	-0,043
268,166	196,565	-0,170	-0,178
269,180	478,935	-0,106	-0,166
270,195	213,942	-0,102	-0,112
271,209	552,267	-0,107	-0,177
272,224	651,374	-0,158	-0,280
273,239	-139,543	-0,150	-0,011
274,253	88,025	-0,090	-0,069
275,268	421,201	-0,102	-0,151
276,282	-74,846	-0,210	0,051
277,297	-52,707	-0,157	-0,049
278,312	800,000	-0,071	-0,162
279,326	217,218	-0,132	-0,145
280,341	126,656	-0,203	-0,177
281,355	56,443	-0,115	-0,077
282,370	143,633	-0,165	-0,151
283,384	325,260	-0,094	-0,124
284,399	197,818	-0,197	-0,207
285,414	800,000	-0,096	-0,217
286,428	28,339	-0,225	-0,130
287,443	-40,274	-0,113	0,040
288,457	-71,112	-0,078	0,020
289,472	-76,869	-0,109	0,026
290,487	133,680	-0,226	-0,201
291,501	800,000	-0,093	-0,218
292,516	-81,596	-0,156	-0,035
293,530	377,064	-0,119	-0,168
294,545	-133,202	-0,213	-0,018
295,560	15,911	-0,119	-0,064
296,574	61,308	-0,225	-0,154
297,589	-200,000	-0,065	-0,249
298,603	0,251	-0,197	-0,096
299,618	143,418	-0,144	-0,132
300,633	-23,775	-0,177	-0,072
301,647	-89,691	-0,211	-0,042
302,662	-107,604	-0,135	-0,020
303,676	-7,970	-0,101	-0,046
304,691	-78,859	-0,166	0,039
305,706	-20,513	-0,163	-0,069
306,720	172,527	-0,115	-0,113
307,735	-200,000	-0,009	-0,098
308,749	-66,920	-0,140	-0,038
309,764	-67,257	-0,206	-0,055
310,779	-3,532	-0,299	-0,142
311,793	-200,000	0,014	-0,067
312,808	194,650	-0,201	-0,209
313,822	133,062	-0,142	-0,126
314,837	-200,000	-0,022	-0,106
315,852	90,203	-0,151	-0,116
316,866	-200,000	0,026	-0,099
317,881	13,570	-0,114	-0,061
318,895	178,165	-0,184	-0,184
319,910	85,274	-0,092	-0,069
320,925	-150,027	-0,327	0,017
321,939	8,376	-0,256	-0,131
322,954	330,570	-0,061	-0,080
323,968	221,950	-0,040	-0,045
324,983	91,714	-0,128	-0,099
325,997	-9,727	-0,080	-0,036
327,012	790,002	-0,088	-0,167
328,027	233,921	-0,199	-0,225
329,041	69,132	-0,258	-0,182
330,056	-12,035	-0,049	0,022
331,070	-166,186	-0,084	0,002
332,085	-151,262	-0,184	0,009
333,100	250,474	-0,067	-0,078
334,114	307,728	-0,110	-0,141
335,129	678,687	-0,078	-0,140
336,143	800,000	-0,055	-0,165
337,158	-153,895	-0,144	0,007
338,173	481,102	-0,067	-0,105
339,187	651,971	-0,071	-0,125
340,202	800,000	-0,047	-0,110
341,216	-94,819	-0,198	-0,036
342,231	711,539	-0,163	-0,297
343,246	159,764	-0,180	-0,172
344,260	114,084	-0,099	-0,083
345,275	530,111	-0,046	-0,075
346,289	800,000	0,044	-0,103
347,304	148,373	-0,051	-0,047
348,319	208,337	-0,075	-0,080
349,333	39,490	-0,235	-0,144
350,348	68,843	-0,178	-0,125
351,362	340,000	-0,119	-0,159
352,377	224,351	-0,065	-0,072
353,392	271,802	-0,083	-0,100
354,406	208,390	-0,119	-0,127
355,421	208,255	1310,275	1401,561
356,435	160,236	1470,396	1401,998
