DTS Sentinel unit serial number:	SN410029Multiplexer serial number:	ORYXHardware model number:	OX2-SRSoftware version number:	ORYX F/W v4,00 Oryx Data Collector v3.7.2.0data status	okinstallation	B3 Nyhavnadifferential loss correction	single-endedforward channel	channel 1reverse channel	N/Adate	2023/12/01time	17:37:30forward acquisition time	300,00reverse acquisition time	0,00gamma	499,1914k internal	0,3204k external	0,3204temperature offset calibration	1,0000default loss term (dB/km)	0,3820temperature slope calibration	1,0000multiplexer offset coefficient	1,0000multiplexer slope coefficient	1,0000fibre end	0,00T internal ref (°C)	14,25T ext. ref 1 (°C)	0,31T ext. ref 2 (°C)	0,28length (m)	temperature (°C)	Stokes	anti-Stokes-744,400	800,000	-0,154	-0,319
-743,385	-200,000	-0,021	0,409
-742,371	61,004	-0,165	-0,119
-741,356	704,767	0,095	0,183
-740,342	-200,000	-0,051	-0,166
-739,327	-200,000	0,047	0,233
-738,312	136,097	-0,223	-0,211
-737,298	-200,000	-0,010	0,391
-736,283	30,280	-0,300	-0,186
-735,269	800,000	0,132	0,335
-734,254	24,681	-0,257	-0,154
-733,239	96,839	-0,109	0,090
-732,225	800,000	-0,048	-0,103
-731,210	12,789	0,086	0,048
-730,196	-73,373	0,112	0,029
-729,181	-185,269	-0,166	0,002
-728,167	42,058	-0,018	-0,012
-727,152	776,258	0,047	-0,095
-726,137	800,000	-0,099	-0,244
-725,123	-96,638	-0,088	-0,017
-724,108	-163,892	-0,104	-0,003
-723,094	67,527	0,131	-0,097
-722,079	-109,107	-0,183	0,028
-721,064	-200,000	-0,008	0,126
-720,050	590,748	-0,049	-0,088
-719,035	-200,000	-0,030	-0,122
-718,021	-82,102	-0,029	-0,007
-717,006	142,181	-0,123	-0,118
-715,991	262,188	-0,062	0,079
-714,977	-200,000	-0,012	-0,118
-713,962	-79,226	-0,053	0,013
-712,948	449,072	0,012	-0,019
-711,933	161,231	-0,076	0,077
-710,918	201,818	-0,040	0,044
-709,904	-200,000	0,007	-0,128
-708,889	476,117	-0,082	-0,136
-707,875	-200,000	-0,019	-0,153
-706,860	164,150	0,065	-0,067
-705,845	-200,000	-0,008	0,118
-704,831	-200,000	0,012	0,064
-703,816	443,414	-0,051	0,081
-702,802	176,882	0,068	0,072
-701,787	-200,000	-0,006	-0,058
-700,772	-142,463	0,056	-0,004
-699,758	19,430	0,081	-0,047
-698,743	25,115	-0,088	0,053
-697,729	-200,000	0,009	0,120
-696,714	42,100	0,081	0,053
-695,699	76,619	0,093	0,071
-694,685	-117,557	-0,084	0,011
-693,670	25,271	-0,091	-0,055
-692,656	-200,000	-0,009	-0,042
-691,641	-138,017	0,070	0,006
-690,627	171,605	-0,026	0,027
-689,612	34,830	0,050	0,032
-688,597	-90,017	0,100	-0,021
-687,583	304,089	-0,137	-0,185
-686,568	-100,772	-0,106	0,019
-685,554	245,852	0,028	0,034
-684,539	-12,840	-0,124	-0,059
-683,524	101,674	0,109	0,092
-682,510	-49,521	-0,153	0,052
-681,495	-19,370	-0,117	0,052
-680,481	800,000	-0,031	-0,070
-679,466	16,814	-0,139	-0,080
-678,451	-57,521	-0,027	-0,009
-677,437	-19,306	-0,084	-0,038
-676,422	-200,000	0,019	0,129
-675,408	735,364	-0,062	0,121
-674,393	-99,214	-0,260	0,047
-673,378	704,581	-0,045	-0,086
-672,364	-200,000	0,007	0,046
-671,349	264,366	-0,090	-0,114
-670,335	-200,000	0,002	0,025
-669,320	-56,460	-0,071	0,023
-668,305	-39,416	-0,005	0,002
-667,291	251,755	-0,049	-0,060
-666,276	-64,734	-0,071	-0,021
-665,262	62,880	-0,073	-0,053
-664,247	-28,303	-0,193	-0,080
-663,232	318,891	0,041	-0,056
-662,218	-200,000	-0,013	0,151
-661,203	-18,439	-0,054	0,024
-660,189	-200,000	0,014	0,052
-659,174	-200,000	0,006	-0,050
-658,159	800,000	0,012	-0,033
-657,145	-131,868	-0,103	-0,010
-656,130	-152,413	-0,114	-0,006
-655,116	329,766	-0,009	0,012
-654,101	8,441	0,095	-0,052
-653,086	26,411	-0,149	0,090
-652,072	800,000	0,052	-0,154
-651,057	335,777	-0,053	-0,074
-650,043	719,991	-0,070	-0,136
-649,028	-200,000	0,013	-0,101
-648,014	800,000	0,039	0,105
-646,999	-200,000	0,002	-0,108
-645,984	800,000	0,091	0,229
-644,970	-47,509	-0,114	-0,040
-643,955	-200,000	-0,002	0,022
-642,941	186,623	-0,095	-0,103
-641,926	27,279	-0,038	0,023
-640,911	169,949	0,064	-0,066
-639,897	281,053	0,024	0,031
-638,882	35,623	0,103	-0,066
-637,868	-200,000	-0,030	-0,098
-636,853	-200,000	0,015	-0,050
-635,838	304,219	-0,124	-0,167
-634,824	-109,876	0,095	0,014
-633,809	252,743	-0,017	0,021
-632,795	-136,245	-0,118	-0,010
-631,780	71,252	0,082	-0,061
-630,765	-200,000	-0,004	0,088
-629,751	417,038	0,024	-0,037
-628,736	-62,246	-0,279	-0,083
-627,722	-110,195	-0,087	0,013
-626,707	-106,834	0,080	0,013
-625,692	800,000	0,036	-0,074
-624,678	15,914	-0,116	0,066
-623,663	-159,946	-0,024	0,001
-622,649	-18,079	-0,118	-0,053
-621,634	177,491	-0,123	-0,130
-620,619	490,253	-0,038	-0,063
-619,605	33,344	0,042	0,026
-618,590	800,000	-0,029	0,072
-617,576	760,676	0,053	0,103
-616,561	-200,000	-0,038	0,138
-615,546	-200,000	-0,001	-0,009
-614,532	97,408	-0,046	0,039
-613,517	288,658	0,059	0,077
-612,503	-200,000	-0,014	-0,108
-611,488	36,511	0,036	0,023
-610,474	449,539	0,043	0,069
-609,459	-2,431	-0,085	-0,043
-608,444	800,000	0,032	0,085
-607,430	197,129	0,041	-0,046
-606,415	298,638	0,094	-0,125
-605,401	-19,447	0,073	-0,033
-604,386	563,953	0,036	0,063
-603,371	800,000	0,019	-0,056
-602,357	242,481	0,053	0,064
-601,342	-77,743	-0,105	-0,026
-600,328	800,000	-0,048	-0,148
-599,313	41,427	0,031	0,020
-598,298	416,031	0,016	-0,025
-597,284	317,245	0,104	-0,142
-596,269	735,949	0,011	-0,022
-595,255	-55,004	-0,096	-0,031
-594,240	-82,798	0,045	-0,010
-593,225	-95,660	-0,096	0,018
-592,211	90,758	0,047	-0,038
-591,196	-200,000	0,009	0,053
-590,182	109,488	-0,111	-0,096
-589,167	-200,000	-0,002	0,114
-588,152	670,855	0,066	0,124
-587,138	-200,000	0,011	-0,177
-586,123	-64,795	-0,109	0,032
-585,109	-47,950	-0,068	0,024
-584,094	-152,591	-0,055	0,003
-583,079	-200,000	-0,003	-0,036
-582,065	326,675	-0,075	0,104
-581,050	-35,655	0,086	0,034
-580,036	-200,000	-0,003	-0,075
-579,021	123,452	-0,115	-0,104
-578,006	225,204	-0,044	0,052
-576,992	175,895	0,017	0,018
-575,977	-200,000	0,005	0,021
-574,963	-0,827	-0,043	-0,022
-573,948	-2,263	0,104	0,053
-572,934	584,480	0,066	-0,118
-571,919	-56,439	-0,157	0,050
-570,904	-200,000	0,014	0,076
-569,890	-200,000	-0,004	-0,046
-568,875	182,706	-0,074	0,079
-567,861	-16,676	0,116	-0,053
-566,846	-128,273	-0,070	0,007
-565,831	-200,000	-0,003	0,056
-564,817	-200,000	-0,004	-0,088
-563,802	-200,000	0,002	-0,106
-562,788	-200,000	0,028	-0,163
-561,773	-200,000	0,034	-0,115
-560,758	-22,001	0,062	-0,027
-559,744	341,379	-0,008	-0,011
-558,729	-45,963	-0,136	0,048
-557,715	321,019	0,063	-0,087
-556,700	88,072	-0,067	-0,054
-555,685	-151,122	-0,207	-0,011
-554,671	33,671	0,134	-0,084
-553,656	127,354	-0,105	0,096
-552,642	157,916	-0,029	0,029
-551,627	-54,629	-0,016	-0,005
-550,612	-90,222	-0,072	-0,015
-549,598	394,539	-0,054	-0,081
-548,583	-39,354	0,027	-0,010
-547,569	10,911	-0,124	-0,068
-546,554	-164,268	0,069	0,002
-545,539	-83,160	-0,099	0,023
-544,525	328,421	-0,058	0,080
-543,510	-200,000	-0,047	0,179
-542,496	519,762	-0,070	0,118
-541,481	800,000	0,057	-0,118
-540,466	72,880	-0,109	-0,082
-539,452	-200,000	0,023	0,140
-538,437	-200,000	-0,020	0,195
-537,423	75,134	0,082	0,062
-536,408	-23,067	0,048	0,021
-535,393	13,014	-0,078	-0,043
-534,379	154,578	-0,086	-0,085
-533,364	393,979	-0,043	0,065
-532,350	-167,143	0,112	0,003
-531,335	-200,000	0,023	-0,084
-530,321	528,439	0,017	0,029
-529,306	222,972	-0,031	-0,036
-528,291	103,654	-0,143	0,121
-527,277	-200,000	-0,025	-0,107
-526,262	321,507	-0,065	-0,089
-525,248	800,000	0,002	0,005
-524,233	342,406	0,094	0,133
-523,218	52,952	0,074	0,051
-522,204	308,936	-0,095	-0,128
-521,189	678,341	-0,020	-0,038
-520,175	800,000	0,061	-0,126
-519,160	-69,506	-0,068	0,019
-518,145	-33,994	0,060	-0,024
-517,131	-125,586	0,076	0,008
-516,116	367,000	0,058	0,084
-515,102	13,555	-0,114	0,063
-514,087	-200,000	0,012	0,052
-513,072	-142,835	-0,061	0,004
-512,058	187,257	0,059	-0,063
-511,043	-200,000	-0,023	0,099
-510,029	87,621	0,048	-0,038
-509,014	119,642	0,095	0,085
-507,999	-200,000	-0,001	0,028
-506,985	-135,112	0,081	0,007
-505,970	-200,000	0,011	-0,049
-504,956	437,768	-0,054	0,085
-503,941	-200,000	0,000	-0,091
-502,926	-87,192	-0,106	0,023
-501,912	13,444	0,053	-0,030
-500,897	-200,000	-0,016	-0,119
-499,883	-42,252	0,075	-0,027
-498,868	800,000	0,068	-0,206
-497,853	-58,417	-0,079	0,024
-496,839	-200,000	0,024	0,202
-495,824	23,425	-0,065	-0,038
-494,810	-141,145	0,143	0,010
-493,795	160,042	-0,032	0,032
-492,781	-133,304	-0,069	-0,006
-491,766	-26,671	-0,098	-0,041
-490,751	-200,000	0,000	-0,021
-489,737	-69,566	0,072	0,020
-488,722	254,665	0,089	-0,110
-487,708	174,411	-0,027	-0,029
-486,693	-159,369	0,055	-0,002
-485,678	327,818	-0,041	0,056
-484,664	8,130	-0,146	-0,079
-483,649	800,000	-0,025	-0,056
-482,635	107,086	-0,079	0,068
-481,620	741,194	0,012	-0,022
-480,605	-44,779	-0,015	-0,005
-479,591	305,297	-0,077	0,103
-478,576	73,701	-0,034	-0,025
-477,562	-60,830	-0,091	-0,028
-476,547	124,547	0,101	-0,091
-475,532	-4,592	0,080	0,039
-474,518	800,000	-0,069	0,145
-473,503	-54,040	-0,117	0,038
-472,489	-200,000	0,001	0,011
-471,474	149,261	0,051	0,050
-470,459	-200,000	0,002	-0,051
-469,445	23,060	0,057	-0,034
-468,430	-52,628	0,041	-0,013
-467,416	-66,058	-0,036	0,010
-466,401	783,230	0,039	0,076
-465,386	-200,000	0,013	-0,050
-464,372	-38,792	0,101	-0,038
-463,357	214,097	-0,092	0,104
-462,343	210,297	0,128	-0,145
-461,328	-200,000	-0,003	-0,068
-460,313	130,324	-0,011	0,010
-459,299	37,389	-0,023	0,015
-458,284	417,963	0,063	0,097
-457,270	-21,550	-0,109	0,048
-456,255	-90,361	-0,138	0,029
-455,241	-86,844	0,025	-0,006
-454,226	-200,000	-0,049	-0,157
-453,211	-20,751	0,111	-0,049
-452,197	-100,540	0,061	-0,011
-451,182	800,000	0,078	0,166
-450,168	607,070	0,026	-0,046
-449,153	-134,510	-0,264	0,023
-448,138	182,742	0,076	0,081
-447,124	-38,210	-0,078	0,030
-446,109	54,523	0,071	0,049
-445,095	21,823	0,036	-0,021
-444,080	410,311	-0,013	-0,020
-443,065	800,000	0,018	0,045
-442,051	-200,000	0,016	0,085
-441,036	294,533	-0,048	-0,064
-440,022	-110,299	-0,003	-0,000
-439,007	422,553	-0,070	-0,109
-437,992	-200,000	0,006	0,030
-436,978	800,000	0,032	0,086
-435,963	800,000	-0,030	0,067
-434,949	-200,000	0,000	-0,204
-433,934	113,318	-0,129	-0,112
-432,919	-151,350	-0,007	-0,000
-431,905	-149,843	0,086	-0,005
-430,890	547,696	0,040	-0,069
-429,876	85,599	0,032	-0,025
-428,861	800,000	0,044	0,114
-427,846	-181,807	-0,177	0,002
-426,832	-76,095	0,077	-0,019
-425,817	704,011	-0,028	0,053
-424,803	-52,350	-0,161	0,053
-423,788	155,554	0,047	-0,046
-422,773	-118,485	0,218	0,027
-421,759	-200,000	0,008	0,162
-420,744	-81,595	-0,110	0,026
-419,730	800,000	-0,032	0,065
-418,715	800,000	0,015	0,046
-417,701	319,308	-0,087	-0,119
-416,686	56,604	-0,059	0,041
-415,671	-77,230	0,110	0,027
-414,657	-200,000	-0,002	0,009
-413,642	-200,000	0,010	-0,057
-412,628	-61,799	-0,253	-0,076
-411,613	-96,204	0,082	-0,016
-410,598	-126,141	-0,095	0,010
-409,584	187,320	-0,108	0,115
-408,569	800,000	0,080	0,193
-407,555	48,217	0,131	-0,088
-406,540	-175,627	-0,070	-0,001
-405,525	-200,000	-0,013	0,199
-404,511	-31,352	0,109	0,044
-403,496	-200,000	0,009	0,106
-402,482	-200,000	0,004	-0,051
-401,467	800,000	0,045	0,110
-400,452	800,000	0,022	-0,060
-399,438	800,000	-0,025	-0,055
-398,423	-30,533	0,022	-0,009
-397,409	-200,000	0,002	-0,048
-396,394	-68,966	0,051	-0,014
-395,379	800,000	-0,044	-0,109
-394,365	-34,509	0,094	0,037
-393,350	-62,269	0,030	-0,009
-392,336	-57,138	-0,104	0,033
-391,321	-52,011	0,062	0,020
-390,306	-200,000	-0,011	-0,068
-389,292	800,000	0,023	-0,070
-388,277	-73,490	0,131	0,034
-387,263	64,820	0,149	0,108
-386,248	32,667	0,125	0,077
-385,233	304,325	0,087	0,116
-384,219	593,674	0,055	0,099
-383,204	-87,395	-0,079	0,017
-382,190	800,000	0,014	-0,040
-381,175	-200,000	0,044	-0,162
-380,160	59,752	0,139	-0,098
-379,146	584,228	0,019	0,034
-378,131	-200,000	-0,027	0,213
-377,117	19,321	0,132	0,076
-376,102	-145,172	-0,120	0,008
-375,088	-82,271	0,169	0,039
-374,073	-200,000	0,007	-0,113
-373,058	-71,051	0,068	0,018
-372,044	235,764	0,061	0,072
-371,029	364,789	-0,062	0,090
-370,015	-200,000	0,020	-0,107
-369,000	-72,670	-0,080	-0,021
-367,985	247,398	-0,045	-0,055
-366,971	223,735	-0,034	0,040
-365,956	-132,055	0,068	-0,006
-364,942	-76,859	-0,132	0,033
-363,927	-103,790	0,068	-0,011
-362,912	105,236	-0,025	-0,021
-361,898	-200,000	0,024	0,124
-360,883	58,292	-0,144	-0,101
-359,869	-86,737	-0,043	0,009
-358,854	800,000	-0,040	0,097
-357,839	-174,234	0,100	0,002
-356,825	-90,856	0,074	0,015
-355,810	800,000	-0,028	0,063
-354,796	-200,000	0,012	-0,040
-353,781	800,000	0,015	-0,037
-352,766	521,276	0,088	-0,148
-351,752	11,878	-0,048	-0,026
-350,737	89,405	0,034	-0,027
-349,723	637,148	0,049	0,089
-348,708	-200,000	0,013	0,204
-347,693	-200,000	0,005	0,112
-346,679	-6,535	-0,103	0,050
-345,664	16,584	0,051	-0,029
-344,650	-85,754	0,050	0,011
-343,635	45,046	0,065	-0,043
-342,620	457,808	-0,081	0,129
-341,606	800,000	0,044	0,111
-340,591	38,553	-0,096	0,061
-339,577	51,714	0,037	0,025
-338,562	-200,000	0,031	-0,113
-337,548	230,067	0,119	-0,140
-336,533	181,626	0,063	-0,066
-335,518	-43,273	0,149	0,054
-334,504	-200,000	-0,000	0,044
-333,489	-4,298	-0,112	-0,055
-332,475	-200,000	-0,008	-0,045
-331,460	800,000	0,030	-0,060
-330,445	800,000	0,013	-0,041
-329,431	800,000	-0,021	0,051
-328,416	100,244	0,038	-0,032
-327,402	-6,507	0,177	0,086
-326,387	-200,000	-0,009	0,062
-325,372	78,459	-0,049	-0,037
-324,358	-128,293	0,025	-0,002
-323,343	-200,000	0,031	-0,127
-322,329	-14,987	0,131	0,060
-321,314	113,838	-0,068	-0,059
-320,299	21,086	0,066	-0,038
-319,285	-200,000	-0,017	0,102
-318,270	-200,000	-0,022	0,101
-317,256	466,188	-0,063	-0,101
-316,241	53,175	0,089	-0,061
-315,226	128,527	0,104	0,095
-314,212	174,681	-0,120	0,125
-313,197	158,172	0,108	0,107
-312,183	-92,760	-0,037	-0,007
-311,168	-186,324	0,077	-0,001
-310,153	-200,000	0,012	-0,055
-309,139	-110,645	-0,087	-0,013
-308,124	-156,757	0,080	-0,003
-307,110	321,732	-0,066	-0,089
-306,095	800,000	0,052	0,163
-305,080	87,293	0,045	-0,036
-304,066	649,655	-0,077	0,141
-303,051	-200,000	-0,015	-0,086
-302,037	53,957	-0,057	0,039
-301,022	431,231	-0,055	0,086
-300,008	-104,360	0,043	0,007
-298,993	-186,192	0,051	0,001
-297,978	-146,490	0,035	-0,002
-296,964	691,239	-0,008	-0,016
-295,949	375,398	-0,028	-0,040
-294,935	32,164	0,075	-0,046
-293,920	657,340	0,051	-0,095
-292,905	-200,000	0,000	-0,019
-291,891	800,000	0,041	0,115
-290,876	-48,765	-0,058	-0,020
-289,862	642,582	-0,038	-0,069
-288,847	-200,000	-0,013	-0,110
-287,832	-5,611	0,039	-0,019
-286,818	-111,058	0,031	-0,005
-285,803	-200,000	-0,013	-0,054
-284,789	-200,000	0,007	-0,028
-283,774	8,101	0,124	0,066
-282,759	49,696	-0,093	0,062
-281,745	-140,897	-0,058	0,004
-280,730	15,160	-0,112	0,063
-279,716	46,603	0,057	-0,038
-278,701	-166,939	-0,090	0,003
-277,686	47,161	0,193	-0,128
-276,672	-15,753	0,131	-0,059
-275,657	800,000	-0,014	0,043
-274,643	800,000	-0,007	-0,016
-273,628	-53,247	-0,078	0,025
-272,613	-36,914	-0,089	-0,034
-271,599	636,815	-0,056	0,103
-270,584	800,000	-0,029	0,065
-269,570	148,695	0,066	-0,064
-268,555	208,605	-0,093	-0,104
-267,540	185,395	-0,055	0,059
-266,526	82,339	-0,156	-0,121
-265,511	130,785	-0,095	-0,087
-264,497	72,076	0,104	0,077
-263,482	-71,999	0,045	0,012
-262,467	793,213	0,018	0,035
-261,453	426,507	-0,068	0,105
-260,438	4,588	0,107	-0,056
-259,424	140,399	-0,061	-0,058
-258,409	-108,199	-0,111	-0,017
-257,395	298,125	-0,032	-0,042
-256,380	599,437	0,065	0,116
-255,365	73,436	-0,069	0,052
-254,351	-24,482	-0,090	0,038
-253,336	-200,000	0,005	0,042
-252,322	-200,000	-0,019	-0,086
-251,307	139,722	0,016	0,015
-250,292	784,345	-0,050	-0,099
-249,278	-115,089	0,125	0,017
-248,263	-8,622	0,069	0,033
-247,249	-200,000	0,056	-0,000
-246,234	-200,000	0,004	-0,059
-245,219	131,314	-0,026	-0,024
-244,205	204,686	0,115	0,127
-243,190	340,818	0,035	-0,049
-242,176	-103,398	0,054	0,009
-241,161	71,094	0,006	0,004
-240,146	5,065	-0,087	0,045
-239,132	116,475	0,088	-0,077
-238,117	-92,450	0,094	0,019
-237,103	263,708	-0,058	0,072
-236,088	-100,513	0,043	0,007
-235,073	-200,000	-0,019	-0,139
-234,059	-200,000	-0,002	-0,062
-233,044	31,175	0,146	0,089
-232,030	-200,000	-0,015	0,077
-231,015	134,965	0,089	-0,083
-230,000	234,495	-0,057	-0,067
-228,986	146,520	-0,129	0,123
-227,971	-4,879	0,127	0,062
-226,957	52,366	0,047	0,032
-225,942	-121,476	-0,049	-0,006
-224,927	-200,000	0,001	0,024
-223,913	145,347	0,033	-0,031
-222,898	-157,918	-0,044	0,002
-221,884	143,970	-0,111	-0,105
-220,869	-6,229	0,086	-0,041
-219,855	-200,000	-0,007	0,078
-218,840	10,988	0,068	-0,037
-217,825	-26,176	0,020	0,009
-216,811	118,222	-0,088	-0,078
-215,796	-123,982	0,089	-0,010
-214,782	-62,844	-0,090	0,026
-213,767	17,149	0,057	0,032
-212,752	-200,000	-0,037	0,142
-211,738	445,271	0,097	0,152
-210,723	348,606	0,020	-0,028
-209,709	5,887	0,052	0,028
-208,694	87,684	-0,111	-0,088
-207,679	492,829	0,026	0,042
-206,665	-200,000	-0,022	0,074
-205,650	800,000	-0,025	0,062
-204,636	-130,294	0,156	-0,015
-203,621	-200,000	0,020	0,086
-202,606	-36,070	0,103	0,040
-201,592	-200,000	-0,007	-0,051
-200,577	519,807	0,057	-0,096
-199,563	800,000	-0,043	-0,125
-198,548	146,902	0,115	-0,110
-197,533	-200,000	-0,017	0,163
-196,519	-11,872	-0,140	0,065
-195,504	-200,000	-0,006	-0,113
-194,490	6,925	-0,158	-0,084
-193,475	-200,000	0,002	-0,012
-192,460	-2,678	-0,106	-0,052
-191,446	62,074	0,032	0,023
-190,431	381,914	0,013	0,019
-189,417	142,681	-0,069	0,065
-188,402	-149,316	0,029	0,002
-187,387	445,440	0,033	0,051
-186,373	-200,000	-0,017	-0,057
-185,358	-124,085	0,063	-0,007
-184,344	-94,069	-0,055	-0,011
-183,329	-200,000	0,045	0,143
-182,315	67,552	-0,050	-0,036
-181,300	-200,000	-0,015	0,094
-180,285	-49,750	-0,095	-0,032
-179,271	800,000	0,058	-0,151
-178,256	-200,000	0,012	-0,072
-177,242	-64,967	0,039	-0,011
-176,227	-107,851	0,174	0,027
-175,212	-96,592	-0,206	0,038
-174,198	-200,000	0,014	0,088
-173,183	11,145	0,084	0,046
-172,169	-200,000	-0,012	-0,081
-171,154	229,822	0,044	-0,052
-170,139	800,000	-0,060	-0,154
-169,125	-50,534	-0,066	0,022
-168,110	800,000	0,051	0,158
-167,096	-40,656	-0,124	-0,045
-166,081	800,000	0,041	-0,096
-165,066	438,936	0,028	0,043
-164,052	-200,000	0,018	-0,089
-163,037	492,852	0,029	0,047
-162,023	73,472	0,089	-0,066
-161,008	-200,000	-0,010	0,097
-159,993	250,891	-0,027	-0,033
-158,979	-200,000	-0,006	-0,065
-157,964	641,486	-0,049	0,088
-156,950	-200,000	-0,031	-0,120
-155,935	-11,967	0,047	-0,022
-154,920	800,000	0,030	-0,080
-153,906	133,241	0,096	0,088
-152,891	-200,000	-0,000	-0,122
-151,877	-121,910	-0,080	0,009
-150,862	-200,000	-0,010	-0,087
-149,847	-55,377	0,051	-0,016
-148,833	20,214	0,148	-0,084
-147,818	528,009	0,032	0,054
-146,804	-200,000	0,006	0,081
-145,789	800,000	0,009	-0,025
-144,775	-132,757	0,024	0,002
-143,760	800,000	0,014	-0,034
-142,745	282,190	0,063	0,080
-141,731	124,740	-0,065	-0,058
-140,716	-21,700	-0,124	0,053
-139,702	-180,315	0,075	-0,001
-138,687	-200,000	-0,002	-0,101
-137,672	800,000	-0,031	0,063
-136,658	499,956	-0,041	-0,067
-135,643	-91,667	-0,112	0,022
-134,629	37,557	-0,015	0,009
-133,614	-22,222	0,090	0,039
-132,599	-16,392	-0,058	0,026
-131,585	-35,386	-0,092	-0,035
-130,570	-146,756	0,073	0,004
-129,556	15,940	-0,080	0,045
-128,541	515,986	0,045	-0,074
-127,526	133,794	0,071	-0,065
-126,512	-40,277	-0,029	-0,010
-125,497	224,730	0,083	0,096
-124,483	-200,000	0,020	0,126
-123,468	224,817	0,120	-0,137
-122,453	351,406	-0,051	-0,072
-121,439	194,962	0,022	-0,024
-120,424	800,000	0,052	-0,102
-119,410	74,096	-0,053	0,039
-118,395	121,514	-0,067	0,059
-117,380	99,718	0,079	0,065
-116,366	127,298	0,039	0,035
-115,351	67,815	-0,094	-0,068
-114,337	-7,994	-0,101	-0,048
-113,322	-200,000	0,011	-0,056
-112,307	-200,000	0,011	0,110
-111,293	-29,831	-0,006	0,002
-110,278	474,558	0,070	-0,112
-109,264	183,673	-0,100	0,105
-108,249	467,399	-0,025	-0,040
-107,234	58,983	-0,094	0,065
-106,220	31,381	0,027	0,016
-105,205	-200,000	-0,013	-0,096
-104,191	17,070	0,094	0,053
-103,176	-200,000	0,003	0,081
-102,162	-187,628	-0,073	-0,001
-101,147	-83,660	0,060	-0,013
-100,132	-11,365	-0,108	-0,050
-99,118	610,309	0,064	-0,114
-98,103	-62,298	0,050	0,015
-97,089	-33,039	0,070	0,028
-96,074	336,870	0,084	0,116
-95,059	800,000	0,042	0,085
-94,045	-200,000	0,019	0,061
-93,030	-200,000	-0,006	0,103
-92,016	453,822	0,074	-0,116
-91,001	-200,000	-0,028	0,165
-89,986	-200,000	-0,016	0,087
-88,972	-200,000	0,005	0,174
-87,957	-200,000	-0,025	-0,106
-86,943	50,397	-0,056	-0,038
-85,928	800,000	-0,054	-0,134
-84,913	800,000	-0,033	-0,068
-83,899	-2,905	-0,063	0,031
-82,884	-200,000	0,040	0,135
-81,870	-1,565	0,103	-0,051
-80,855	800,000	-0,014	0,036
-79,840	800,000	-0,003	-0,008
-78,826	451,694	-0,077	-0,121
-77,811	7,257	-0,027	-0,014
-76,797	-200,000	-0,014	-0,053
-75,782	-102,871	0,166	0,028
-74,767	-53,400	0,029	0,009
-73,753	-38,574	-0,083	0,031
-72,738	-13,236	-0,012	0,005
-71,724	37,286	-0,057	0,036
-70,709	-200,000	0,062	-0,222
-69,694	-55,888	-0,073	-0,023
-68,680	327,581	0,046	0,063
-67,665	-200,000	0,015	0,062
-66,651	-13,788	0,070	0,032
-65,636	-130,446	0,046	-0,004
-64,622	-200,000	-0,007	-0,050
-63,607	-78,844	-0,116	-0,028
-62,592	-60,756	0,023	0,007
-61,578	337,358	0,026	-0,037
-60,563	429,751	0,103	0,158
-59,549	800,000	0,008	0,018
-58,534	-16,572	-1,498	-0,669
-57,519	345,218	-1,592	-2,219
-56,505	-200,000	-0,329	-4,390
-55,490	269,264	0,791	0,984
-54,476	800,000	4,902	11,284
-53,461	-200,000	18,444	295,767
-52,446	800,000	729,982	2247,568
-51,432	556,413	1644,392	2812,962
-50,417	78,474	1663,962	1256,219
-49,403	22,143	1537,564	885,362
-48,388	16,117	1460,415	811,806
-47,373	17,735	1450,467	814,022
-46,359	16,907	1440,891	804,663
-45,344	14,430	1435,985	790,094
-44,330	14,339	1434,224	788,661
-43,315	14,307	1432,616	787,591
-42,300	14,320	1430,929	786,694
-41,286	14,342	1429,748	786,119
-40,271	14,309	1428,443	785,212
-39,257	14,300	1427,258	784,491
-38,242	14,378	1425,708	783,977
-37,227	14,352	1424,737	783,286
-36,213	14,352	1423,537	782,597
-35,198	14,349	1422,114	781,767
-34,184	14,390	1421,278	781,471
-33,169	14,339	1419,922	780,454
-32,154	14,360	1418,936	779,982
-31,140	14,361	1417,670	779,260
-30,125	14,427	1416,516	778,903
-29,111	14,400	1415,374	778,120
-28,096	14,367	1414,202	777,290
-27,082	14,241	1413,465	776,261
-26,067	14,277	1412,427	775,829
-25,052	14,316	1411,201	775,305
-24,038	14,238	1410,362	774,453
-23,023	14,264	1409,262	773,939
-22,009	14,250	1408,272	773,300
-20,994	14,215	1407,459	772,655
-19,979	14,240	1406,454	772,194
-18,965	14,206	1405,351	771,397
-17,950	14,195	1404,531	770,866
-16,936	14,223	1403,603	770,457
-15,921	14,197	1402,444	769,670
-14,906	14,162	1401,464	768,938
-13,892	14,175	1400,708	768,553
-12,877	14,158	1399,771	767,928
-11,863	14,218	1398,876	767,683
-10,848	14,186	1397,895	766,966
-9,833	14,143	1397,088	766,295
-8,819	14,120	1396,071	765,600
-7,804	14,134	1395,122	765,115
-6,790	14,093	1394,167	764,372
-5,775	14,125	1393,219	763,970
-4,760	14,104	1392,154	763,257
-3,746	14,103	1391,291	762,751
-2,731	14,090	1390,664	762,314
-1,717	14,077	1389,746	761,723
-0,702	14,118	1387,908	760,872
0,313	17,969	1306,768	734,159
1,327	34,405	704,296	433,615
2,342	53,120	123,908	83,723
3,356	1,470	16,495	8,358
4,371	9,511	3,110	1,659
5,386	-46,397	0,575	0,198
6,400	291,409	0,074	0,095
7,415	106,981	-0,273	-0,229
8,429	108,377	-0,255	-0,215
9,444	-2,470	-0,387	-0,191
10,459	124,657	-0,222	-0,197
11,473	13,455	-0,281	-0,153
12,488	171,134	-0,216	-0,219
13,502	-12,728	-0,289	-0,132
14,517	-12,089	-0,352	-0,162
15,531	104,376	-0,338	-0,281
16,546	-94,873	-0,500	-0,095
17,561	188,790	-0,296	-0,313
18,575	147,202	-0,187	-0,178
19,590	68,370	-0,209	-0,151
20,604	-40,423	-0,317	-0,116
21,619	142,142	-0,489	-0,458
22,634	139,930	-0,458	-0,426
23,648	36,444	-0,394	-0,245
24,663	17,346	-0,490	-0,274
25,677	-6,944	-0,313	-0,149
26,692	25,764	-0,267	-0,157
27,707	24,253	-0,535	-0,311
28,721	196,256	-0,332	-0,357
29,736	-20,521	-0,486	-0,210
30,750	105,031	-0,480	-0,399
31,765	308,369	-0,194	-0,256
32,780	4,578	-0,438	-0,226
33,794	37,025	-0,327	-0,203
34,809	65,780	-0,392	-0,280
35,823	52,987	-0,292	-0,196
36,838	56,344	-0,377	-0,258
37,853	183,926	-0,426	-0,444
38,867	77,681	-0,397	-0,298
39,882	150,541	-0,276	-0,264
40,896	159,547	-0,344	-0,338
41,911	28,990	-0,301	-0,179
42,926	251,844	-0,287	-0,344
43,940	26,142	-0,299	-0,175
44,955	111,393	-0,358	-0,304
45,969	32,432	-0,314	-0,191
46,984	94,208	-0,277	-0,221
47,999	-11,293	-0,342	-0,158
49,013	455,902	-0,172	-0,270
50,028	75,416	-0,381	-0,283
51,042	257,931	-0,317	-0,385
52,057	114,262	-0,324	-0,278
53,071	64,277	-0,309	-0,219
54,086	20,245	-0,500	-0,283
55,101	-153,494	-0,354	-0,017
56,115	-28,872	-0,368	-0,148
57,130	-7,314	-0,308	-0,146
58,144	10,355	-0,364	-0,194
59,159	79,735	-0,305	-0,230
60,174	94,454	-0,346	-0,276
61,188	174,485	-0,205	-0,209
62,203	121,486	-0,348	-0,305
63,217	78,469	-0,225	-0,169
64,232	97,528	-0,275	-0,222
65,247	-4,289	-0,291	-0,141
66,261	-43,049	-0,339	-0,120
67,276	123,729	-0,389	-0,343
68,290	153,010	-0,294	-0,282
69,305	765,434	-0,198	-0,380
70,320	118,587	-0,283	-0,245
71,334	3,030	-0,331	-0,169
72,349	-29,373	-0,317	-0,127
73,363	123,994	-0,290	-0,255
74,378	109,812	-0,294	-0,248
75,393	-21,477	-0,318	-0,136
76,407	24,349	-0,365	-0,211
77,422	45,093	-0,203	-0,131
78,436	-59,468	-0,277	-0,083
79,451	87,190	-0,331	-0,256
80,466	86,105	-0,254	-0,196
81,480	-5,393	-0,263	-0,126
82,495	-98,650	-0,370	-0,066
83,509	100,842	-0,311	-0,254
84,524	24,272	-0,188	-0,108
85,539	47,008	-0,293	-0,191
86,553	101,873	-0,336	-0,275
87,568	217,135	-0,202	-0,226
88,582	-52,773	-0,422	-0,136
89,597	29,314	-0,226	-0,134
90,611	-67,277	-0,264	-0,072
91,626	130,196	-0,168	-0,151
92,641	84,477	-0,119	-0,091
93,655	-68,594	-0,274	-0,074
94,670	41,655	-0,379	-0,240
95,684	100,558	-0,363	-0,296
96,699	357,034	-0,273	-0,383
97,714	50,080	-0,218	-0,144
98,728	-31,414	-0,241	-0,094
99,743	135,390	-0,215	-0,196
100,757	51,302	-0,205	-0,136
101,772	-84,407	-0,384	-0,084
102,787	169,636	-0,332	-0,332
103,801	79,840	-0,252	-0,189
104,816	75,065	-0,278	-0,205
105,830	136,768	-0,244	-0,223
106,845	-34,852	-0,343	-0,130
107,860	-61,375	-0,203	-0,059
108,874	354,621	-0,183	-0,255
109,889	267,460	-0,254	-0,311
110,903	182,408	-0,235	-0,243
111,918	-80,739	-0,318	-0,073
112,933	47,625	-0,196	-0,128
113,947	156,102	-0,147	-0,142
114,962	90,246	-0,269	-0,211
115,976	129,917	-0,256	-0,229
116,991	-82,349	-0,318	-0,072
118,006	163,973	-0,174	-0,172
119,020	-15,782	-0,316	-0,141
120,035	-108,310	-0,247	-0,037
121,049	100,890	-0,208	-0,169
122,064	-46,704	-0,285	-0,097
123,079	147,150	-0,241	-0,227
124,093	41,098	-0,319	-0,201
125,108	-47,202	-0,300	0,102
126,122	87,928	-0,249	-0,193
127,137	53,923	-0,294	-0,197
128,151	777,014	-0,111	-0,213
129,166	80,917	-0,191	-0,144
130,181	59,520	-0,242	-0,167
131,195	59,252	-0,269	-0,185
132,210	17,637	-0,311	-0,173
133,224	61,908	-0,345	-0,240
134,239	166,358	-0,196	-0,194
135,254	-28,887	-0,258	-0,103
136,268	-105,225	-0,244	0,038
137,283	-43,708	-0,246	-0,086
138,297	245,699	-0,279	-0,329
139,312	111,254	-0,256	-0,215
140,327	-40,011	-0,229	-0,083
141,341	82,589	-0,233	-0,176
142,356	-43,975	-0,176	-0,061
143,370	535,583	-0,223	-0,371
144,385	367,186	-0,218	-0,308
145,400	-44,104	-0,195	-0,068
146,414	319,728	-0,197	-0,262
147,429	-28,368	-0,362	-0,145
148,443	88,541	-0,116	-0,090
149,458	169,740	-0,213	-0,212
150,473	-17,821	-0,316	-0,138
151,487	0,945	-0,199	-0,099
152,502	94,305	-0,311	-0,246
153,516	57,230	-0,167	-0,113
154,531	151,628	-0,248	-0,236
155,546	170,365	-0,206	-0,206
156,560	259,411	-0,092	-0,110
157,575	318,992	-0,146	-0,193
158,589	44,289	-0,325	-0,207
159,604	81,970	-0,275	-0,207
160,619	28,168	-0,301	-0,177
161,633	-35,102	-0,301	-0,114
162,648	147,190	-0,199	-0,186
163,662	380,053	-0,145	-0,207
164,677	-34,789	-0,157	-0,059
165,692	35,200	-0,185	-0,113
166,706	-11,091	-0,299	-0,137
167,721	-12,862	-0,386	-0,175
168,735	-11,849	-0,199	-0,090
169,750	97,332	-0,291	-0,232
170,764	-60,652	-0,143	-0,042
171,779	28,371	-0,178	-0,104
172,794	170,749	-0,135	-0,135
173,808	160,753	-0,172	-0,167
174,823	126,417	-0,267	-0,236
175,837	72,148	-0,334	-0,242
176,852	-129,789	-0,245	-0,023
177,867	473,888	-0,251	-0,396
178,881	413,862	-0,117	-0,174
179,896	58,078	-0,141	-0,096
180,910	154,894	-0,247	-0,236
181,925	-2,736	-0,194	-0,094
182,940	48,725	-0,222	-0,144
183,954	35,087	-0,192	-0,117
184,969	50,076	-0,204	-0,134
185,983	678,065	-0,097	-0,175
186,998	-64,109	-0,185	-0,052
188,013	383,669	-0,172	-0,247
189,027	192,726	-0,196	-0,206
190,042	86,336	-0,189	-0,145
191,056	584,290	-0,119	-0,203
192,071	203,189	-0,206	-0,222
193,086	386,879	-0,064	-0,092
194,100	137,152	-0,233	-0,212
195,115	-200,000	-0,045	-0,220
196,129	32,504	-0,135	-0,081
197,144	159,360	-0,179	-0,173
198,159	629,053	-0,236	-0,417
199,173	-23,712	-0,292	-0,121
200,188	279,125	-0,146	-0,182
201,202	-52,693	-0,231	-0,074
202,217	83,378	-0,123	-0,093
203,232	3,294	-0,248	-0,125
204,246	194,108	-0,185	-0,194
205,261	330,209	-0,110	-0,148
206,275	81,380	-0,228	-0,171
207,290	-0,228	-0,167	-0,082
208,304	7,413	-0,220	-0,114
209,319	-32,087	-0,302	-0,117
210,334	472,296	-0,140	-0,220
211,348	68,217	-0,262	-0,186
212,363	-21,989	-0,248	-0,104
213,377	178,532	-0,211	-0,214
214,392	226,299	-0,214	-0,242
215,407	420,537	-0,107	-0,160
216,421	-175,109	-0,148	0,003
217,436	-56,718	-0,227	-0,069
218,450	259,172	-0,149	-0,178
219,465	101,946	-0,151	-0,122
220,480	60,490	-0,200	-0,137
221,494	-61,821	-0,200	-0,058
222,509	28,174	-0,270	-0,157
223,523	12,722	-0,070	-0,038
224,538	191,210	-0,117	-0,123
225,553	35,620	-0,194	-0,118
226,567	140,323	-0,128	-0,117
227,582	301,286	-0,135	-0,173
228,596	66,105	-0,227	-0,159
229,611	553,098	-0,142	-0,238
230,626	196,008	-0,212	-0,224
231,640	24,647	-0,252	-0,144
232,655	-46,124	-0,250	-0,085
233,669	-21,561	-0,429	-0,180
234,684	141,780	-0,195	-0,179
235,699	800,000	-0,057	-0,156
236,713	-34,089	-0,209	-0,079
237,728	153,620	-0,178	-0,169
238,742	-3,323	-0,252	-0,121
239,757	8,646	-0,244	-0,127
240,772	68,806	-0,244	-0,173
241,786	105,991	-0,166	-0,136
242,801	800,000	-0,091	-0,209
243,815	353,060	-0,074	-0,102
244,830	0,124	-0,084	-0,041
245,844	800,000	-0,101	-0,211
246,859	-8,784	-0,240	-0,111
247,874	800,000	-0,128	-0,270
248,888	800,000	-0,085	-0,167
249,903	1,362	-0,130	-0,065
250,917	115,966	-0,144	-0,122
251,932	-38,213	-0,153	-0,056
252,947	-89,644	-0,232	-0,047
253,961	382,926	-0,146	-0,209
254,976	27,249	-0,215	-0,124
255,990	442,241	-0,197	-0,300
257,005	-200,000	-0,039	-0,178
258,020	-0,922	-0,068	-0,033
259,034	-2,971	-0,125	-0,060
260,049	-128,669	-0,197	0,019
261,063	-23,162	-0,193	-0,080
262,078	100,768	-0,114	-0,092
263,093	244,325	-0,163	-0,189
264,107	233,754	-0,181	-0,206
265,122	145,244	-0,115	-0,106
266,136	312,817	-0,136	-0,177
267,151	72,183	-0,195	-0,140
268,166	135,503	-0,181	-0,163
269,180	143,628	-0,134	-0,123
270,195	211,898	-0,152	-0,166
271,209	184,153	-0,161	-0,165
272,224	-200,000	0,001	-0,049
273,239	-104,419	-0,181	0,029
274,253	352,288	-0,159	-0,218
275,268	800,000	-0,110	-0,241
276,282	87,238	-0,160	-0,122
277,297	297,502	-0,165	-0,209
278,312	48,819	-0,202	-0,131
279,326	-127,012	-0,172	-0,017
280,341	455,992	-0,066	-0,101
281,355	-82,489	-0,153	-0,034
282,370	-200,000	-0,022	-0,253
283,384	-99,684	-0,217	-0,037
284,399	800,000	-0,065	-0,149
285,414	-81,588	-0,179	-0,040
286,428	141,237	-0,178	-0,163
287,443	64,826	-0,074	-0,051
288,457	-72,673	-0,247	-0,062
289,472	-37,547	-0,215	-0,079
290,487	-48,041	-0,055	-0,018
291,501	16,949	-0,287	-0,156
292,516	800,000	-0,064	-0,156
293,530	549,909	-0,042	0,070
294,545	-86,636	-0,212	-0,044
295,560	555,197	-0,081	-0,134
296,574	122,411	-0,212	-0,182
297,589	25,647	-0,104	-0,059
298,603	-200,000	-0,069	-0,268
299,618	30,078	-0,140	-0,082
300,633	-115,954	-0,157	-0,020
301,647	54,286	-0,177	-0,117
302,662	14,797	-0,172	-0,092
303,676	-104,628	-0,205	-0,032
304,691	800,000	-0,036	-0,088
305,706	-200,000	-0,035	-0,139
306,720	431,137	-0,115	-0,172
307,735	67,823	-0,171	-0,120
308,749	174,555	-0,107	-0,107
309,764	-138,047	-0,194	0,015
310,779	90,349	-0,135	-0,104
311,793	34,587	-0,130	-0,078
312,808	152,836	-0,131	-0,123
313,822	800,000	-0,088	-0,231
314,837	-101,135	-0,093	0,016
315,852	-137,821	-0,099	0,008
316,866	259,930	-0,088	-0,105
317,881	152,736	-0,132	-0,124
318,895	516,421	-0,118	-0,190
319,910	2,003	-0,143	-0,071
320,925	302,655	-0,149	-0,190
321,939	185,962	-0,183	-0,187
322,954	19,422	-0,101	-0,055
323,968	-200,000	-0,022	-0,092
324,983	112,758	-0,058	-0,048
325,997	18,935	-0,137	-0,075
327,012	286,620	-0,112	-0,140
328,027	-200,000	-0,063	-0,210
329,041	341,236	-0,142	-0,191
330,056	-0,091	-0,164	-0,080
331,070	170,430	-0,076	-0,075
332,085	-65,481	-0,099	-0,027
333,100	283,791	-0,125	-0,154
334,114	-46,847	-0,134	-0,045
335,129	800,000	-0,040	-0,098
336,143	246,017	-0,119	-0,138
337,158	310,183	-0,125	-0,161
338,173	-66,076	-0,102	-0,028
339,187	22,918	0,033	-0,019
340,202	-200,000	-0,105	-0,342
341,216	518,877	-0,086	-0,139
342,231	-5,019	-0,243	-0,115
343,246	-27,441	-0,170	-0,067
344,260	367,564	-0,121	-0,169
345,275	410,520	-0,074	-0,109
346,289	-103,258	-0,250	0,040
347,304	165,473	-0,113	-0,109
348,319	123,567	-0,201	-0,173
349,333	-83,452	-0,113	-0,025
350,348	800,000	-0,053	-0,115
351,362	439,503	-0,125	-0,187
352,377	136,812	-0,062	-0,056
353,392	218,327	-0,125	-0,137
354,406	-200,000	-0,025	-0,106
355,421	208,256	1313,519	1408,709
356,435	160,240	1474,101	1409,226
