DTS Sentinel unit serial number:	SN410029Multiplexer serial number:	ORYXHardware model number:	OX2-SRSoftware version number:	ORYX F/W v4,00 Oryx Data Collector v3.7.2.0data status	okinstallation	B3 Nyhavnadifferential loss correction	single-endedforward channel	channel 1reverse channel	N/Adate	2023/12/01time	16:52:30forward acquisition time	300,00reverse acquisition time	0,00gamma	499,1914k internal	0,3206k external	0,3206temperature offset calibration	1,0000default loss term (dB/km)	0,3820temperature slope calibration	1,0000multiplexer offset coefficient	1,0000multiplexer slope coefficient	1,0000fibre end	0,00T internal ref (°C)	13,62T ext. ref 1 (°C)	-0,05T ext. ref 2 (°C)	-0,07length (m)	temperature (°C)	Stokes	anti-Stokes-744,400	470,192	-0,121	-0,198
-743,385	-200,000	0,072	0,484
-742,371	23,059	-0,410	-0,244
-741,356	800,000	0,091	0,238
-740,342	-63,595	-0,255	-0,076
-739,327	-200,000	-0,004	0,222
-738,312	206,755	-0,247	-0,280
-737,298	800,000	0,103	0,265
-736,283	54,529	-0,171	-0,119
-735,269	800,000	0,071	0,210
-734,254	254,153	-0,214	-0,266
-733,239	192,688	-0,134	0,147
-732,225	602,501	-0,101	-0,184
-731,210	250,886	0,052	0,064
-730,196	149,169	-0,013	-0,013
-729,181	206,026	0,117	0,132
-728,167	-23,857	-0,219	-0,095
-727,152	-70,817	-0,104	0,028
-726,137	-159,978	-0,082	-0,003
-725,123	-200,000	-0,017	-0,136
-724,108	-200,000	-0,012	-0,163
-723,094	48,024	0,075	-0,051
-722,079	69,806	-0,070	-0,052
-721,064	157,755	-0,009	-0,009
-720,050	-200,000	-0,021	0,095
-719,035	611,799	-0,084	0,153
-718,021	205,949	0,102	-0,116
-717,006	800,000	0,021	-0,063
-715,991	-200,000	-0,018	0,134
-714,977	-79,659	0,033	-0,008
-713,962	-25,336	-0,053	0,023
-712,948	-200,000	-0,006	0,029
-711,933	-81,613	0,053	-0,013
-710,918	-120,149	0,054	0,007
-709,904	305,683	-0,050	-0,068
-708,889	45,459	-0,087	-0,058
-707,875	-200,000	0,011	-0,119
-706,860	80,632	-0,112	-0,088
-705,845	603,707	0,030	-0,054
-704,831	-73,817	0,033	0,009
-703,816	22,544	0,036	-0,022
-702,802	27,418	0,051	0,031
-701,787	800,000	-0,020	0,045
-700,772	-37,337	0,024	0,009
-699,758	57,655	-0,092	-0,065
-698,743	-200,000	0,004	-0,059
-697,729	664,499	0,036	0,068
-696,714	-98,951	-0,089	0,016
-695,699	-200,000	0,011	-0,072
-694,685	270,806	-0,054	-0,070
-693,670	60,919	0,102	-0,073
-692,656	120,644	-0,109	-0,099
-691,641	762,643	0,005	0,010
-690,627	-29,526	0,132	0,055
-689,612	92,337	-0,077	0,063
-688,597	43,525	-0,061	0,040
-687,583	-72,467	-0,089	-0,024
-686,568	23,563	-0,106	-0,063
-685,554	216,254	0,100	-0,115
-684,539	800,000	0,066	-0,205
-683,524	122,006	-0,112	0,102
-682,510	191,805	-0,098	-0,107
-681,495	800,000	0,010	0,025
-680,481	-108,776	0,058	0,009
-679,466	52,507	-0,131	-0,091
-678,451	98,828	-0,119	-0,100
-677,437	-100,175	-0,114	-0,020
-676,422	-200,000	-0,027	0,099
-675,408	110,633	-0,097	0,084
-674,393	-200,000	0,014	0,106
-673,378	-200,000	0,010	-0,152
-672,364	245,563	0,040	-0,049
-671,349	363,403	-0,035	-0,051
-670,335	199,506	0,080	0,089
-669,320	202,246	0,092	0,103
-668,305	-200,000	-0,003	0,049
-667,291	800,000	-0,006	-0,013
-666,276	184,961	-0,045	-0,049
-665,262	-90,271	0,060	-0,012
-664,247	-200,000	-0,016	-0,073
-663,232	225,123	0,108	0,126
-662,218	128,554	0,135	-0,125
-661,203	-200,000	-0,006	0,061
-660,189	-7,342	-0,011	-0,006
-659,174	609,599	-0,064	-0,117
-658,159	311,454	0,071	-0,097
-657,145	-200,000	-0,017	-0,139
-656,130	304,330	-0,008	0,011
-655,116	-68,573	0,149	0,042
-654,101	348,704	-0,030	0,043
-653,086	-200,000	-0,024	0,087
-652,072	184,935	-0,109	-0,117
-651,057	-76,587	0,054	-0,014
-650,043	-200,000	0,033	0,113
-649,028	-65,619	0,198	-0,057
-648,014	-12,063	-0,034	-0,016
-646,999	81,275	0,092	-0,072
-645,984	-55,528	0,113	-0,037
-644,970	18,650	-0,057	0,033
-643,955	-99,873	-0,153	-0,027
-642,941	-68,143	0,122	0,034
-641,926	-200,000	-0,016	0,076
-640,911	-88,591	-0,054	-0,012
-639,897	11,137	0,053	0,029
-638,882	42,292	0,091	-0,060
-637,868	500,549	-0,087	0,145
-636,853	-200,000	-0,008	-0,048
-635,838	-125,738	-0,210	0,023
-634,824	-103,678	0,051	-0,008
-633,809	-200,000	-0,108	-0,000
-632,795	51,833	0,094	0,065
-631,780	-200,000	0,024	0,091
-630,765	12,154	-0,063	-0,035
-629,751	800,000	-0,025	-0,064
-628,736	56,652	0,037	-0,026
-627,722	-200,000	0,026	-0,093
-626,707	800,000	0,021	0,064
-625,692	-16,073	0,097	-0,045
-624,678	615,392	0,031	-0,057
-623,663	-104,268	0,157	0,026
-622,649	-15,936	-0,118	0,054
-621,634	800,000	-0,055	-0,145
-620,619	160,667	-0,032	-0,032
-619,605	247,977	-0,110	-0,135
-618,590	168,498	0,051	-0,052
-617,576	283,173	-0,026	-0,033
-616,561	120,393	-0,049	-0,044
-615,546	41,481	0,022	-0,014
-614,532	800,000	-0,058	0,123
-613,517	54,983	0,058	-0,041
-612,503	110,952	-0,160	-0,139
-611,488	-77,334	0,107	0,027
-610,474	573,711	0,066	0,116
-609,459	-105,114	-0,125	-0,020
-608,444	-200,000	-0,004	-0,074
-607,430	-17,703	0,034	0,016
-606,415	197,249	0,050	-0,056
-605,401	171,228	0,068	0,071
-604,386	-108,220	-0,096	0,015
-603,371	-55,001	0,138	0,045
-602,357	-69,910	0,097	0,026
-601,342	800,000	-0,037	-0,090
-600,328	581,413	0,009	-0,016
-599,313	-200,000	-0,001	0,066
-598,298	-200,000	0,003	-0,055
-597,284	76,793	-0,027	0,020
-596,269	800,000	0,041	0,097
-595,255	800,000	-0,043	0,121
-594,240	-136,221	-0,078	0,007
-593,225	800,000	0,072	0,177
-592,211	-200,000	-0,004	-0,111
-591,196	-155,220	-0,145	-0,007
-590,182	67,313	0,115	-0,085
-589,167	191,069	0,036	-0,039
-588,152	-200,000	-0,006	-0,028
-587,138	31,067	-0,013	-0,008
-586,123	29,509	-0,121	-0,074
-585,109	9,283	-0,096	-0,052
-584,094	234,594	0,029	-0,035
-583,079	245,103	-0,061	0,074
-582,065	-200,000	-0,025	0,092
-581,050	364,209	0,044	-0,064
-580,036	-86,818	-0,172	0,038
-579,021	-200,000	0,031	-0,159
-578,006	-200,000	-0,005	-0,058
-576,992	131,474	-0,041	-0,038
-575,977	88,005	-0,059	-0,047
-574,963	800,000	0,026	0,072
-573,948	-19,263	0,028	0,013
-572,934	162,849	0,133	-0,134
-571,919	290,428	0,036	0,048
-570,904	800,000	0,011	0,030
-569,890	41,707	-0,035	-0,023
-568,875	800,000	-0,038	0,083
-567,861	-200,000	-0,040	0,166
-566,846	-200,000	0,042	0,206
-565,831	59,598	-0,130	0,092
-564,817	32,789	0,022	-0,014
-563,802	23,869	0,018	-0,011
-562,788	800,000	-0,042	-0,128
-561,773	-200,000	-0,013	-0,174
-560,758	-113,318	0,160	-0,022
-559,744	361,543	0,059	0,086
-558,729	-200,000	0,001	0,114
-557,715	428,021	-0,113	-0,177
-556,700	-121,254	-0,103	0,012
-555,685	79,065	0,045	-0,035
-554,671	-200,000	-0,031	0,164
-553,656	550,619	-0,031	0,053
-552,642	790,035	-0,027	0,054
-551,627	-200,000	-0,016	0,101
-550,612	360,604	-0,078	0,112
-549,598	3,419	-0,047	-0,025
-548,583	-163,585	-0,107	-0,004
-547,569	-138,989	-0,027	0,002
-546,554	181,610	-0,088	0,093
-545,539	800,000	0,073	0,166
-544,525	-33,904	0,040	0,016
-543,510	313,176	-0,061	-0,083
-542,496	-102,932	0,025	0,004
-541,481	7,751	-0,106	-0,057
-540,466	-40,596	0,072	-0,027
-539,452	-118,746	0,086	0,011
-538,437	-182,559	-0,192	0,002
-537,423	-119,774	0,127	0,016
-536,408	-200,000	0,000	0,057
-535,393	161,487	0,029	-0,030
-534,379	11,907	0,068	0,037
-533,364	21,694	0,042	0,024
-532,350	57,170	0,013	-0,009
-531,335	273,379	0,071	0,090
-530,321	-123,527	-0,127	0,014
-529,306	6,914	-0,009	0,005
-528,291	0,114	-0,049	-0,025
-527,277	64,747	-0,045	-0,033
-526,262	64,277	-0,024	-0,018
-525,248	-200,000	-0,008	-0,173
-524,233	97,182	0,067	-0,055
-523,218	800,000	0,043	-0,113
-522,204	531,726	-0,037	-0,063
-521,189	-200,000	-0,017	-0,083
-520,175	-200,000	0,009	-0,142
-519,160	235,152	0,074	-0,088
-518,145	-102,711	0,027	0,005
-517,131	53,053	0,112	0,077
-516,116	-16,172	0,085	0,039
-515,102	252,548	-0,077	-0,095
-514,087	-103,048	-0,068	0,012
-513,072	126,180	-0,003	-0,002
-512,058	151,308	0,072	-0,071
-511,043	-53,860	-0,053	0,017
-510,029	-63,314	-0,028	-0,008
-509,014	5,328	0,091	-0,048
-507,999	-200,000	0,018	-0,109
-506,985	-9,723	-0,117	-0,056
-505,970	-83,801	-0,072	-0,016
-504,956	217,276	0,038	0,044
-503,941	285,428	-0,043	-0,056
-502,926	-200,000	0,001	0,115
-501,912	391,586	-0,067	0,101
-500,897	707,185	-0,043	0,082
-499,883	-200,000	-0,006	-0,103
-498,868	-102,649	0,061	0,010
-497,853	-2,396	-0,099	-0,050
-496,839	179,604	-0,079	-0,083
-495,824	800,000	0,038	-0,102
-494,810	156,166	0,072	0,072
-493,795	378,766	-0,024	0,035
-492,781	448,549	-0,043	-0,068
-491,766	-19,459	-0,025	-0,011
-490,751	-200,000	-0,045	-0,155
-489,737	-97,755	0,111	0,020
-488,722	-33,690	0,056	-0,022
-487,708	667,538	0,013	0,024
-486,693	-127,044	-0,176	-0,018
-485,678	-79,286	-0,092	0,022
-484,664	800,000	-0,032	-0,100
-483,649	-200,000	-0,002	0,028
-482,635	-46,311	-0,099	-0,035
-481,620	800,000	0,052	0,124
-480,605	87,537	0,087	-0,069
-479,591	482,689	0,075	-0,123
-478,576	537,756	-0,090	-0,154
-477,562	-200,000	-0,007	0,046
-476,547	-200,000	0,006	-0,167
-475,532	126,424	0,015	0,014
-474,518	-88,431	0,130	-0,028
-473,503	800,000	-0,013	0,035
-472,489	-68,205	0,025	0,007
-471,474	-200,000	-0,027	0,110
-470,459	-59,819	-0,075	0,023
-469,445	284,110	0,057	-0,073
-468,430	592,752	-0,036	0,065
-467,416	192,359	-0,073	0,080
-466,401	190,751	0,032	0,035
-465,386	-26,200	0,125	0,052
-464,372	-87,623	-0,073	-0,016
-463,357	104,089	0,094	-0,079
-462,343	-200,000	-0,001	0,106
-461,328	32,528	-0,030	0,019
-460,313	369,622	-0,029	-0,042
-459,299	-200,000	0,017	0,075
-458,284	-200,000	0,016	-0,051
-457,270	800,000	-0,071	-0,167
-456,255	27,839	0,081	-0,049
-455,241	-25,539	-0,051	0,022
-454,226	208,035	-0,098	-0,110
-453,211	112,621	0,083	0,072
-452,197	-6,931	0,020	-0,010
-451,182	242,938	0,078	0,094
-450,168	203,483	-0,065	0,072
-449,153	-200,000	0,007	-0,053
-448,138	-119,407	-0,117	-0,014
-447,124	-200,000	-0,029	-0,174
-446,109	-200,000	0,021	0,097
-445,095	-30,440	-0,045	0,018
-444,080	68,713	0,163	0,120
-443,065	-85,979	-0,100	0,022
-442,051	283,489	-0,076	-0,098
-441,036	-200,000	0,022	0,120
-440,022	289,370	-0,090	0,117
-439,007	89,738	0,076	-0,061
-437,992	-135,125	-0,104	0,009
-436,978	800,000	-0,048	0,107
-435,963	-125,998	0,102	0,011
-434,949	-200,000	0,065	0,220
-433,934	-130,275	-0,016	-0,002
-432,919	20,567	-0,150	-0,087
-431,905	800,000	0,042	-0,092
-430,890	211,921	0,047	-0,054
-429,876	35,311	-0,094	-0,059
-428,861	-13,205	0,129	0,060
-427,846	-200,000	0,014	-0,044
-426,832	165,040	-0,067	-0,068
-425,817	80,985	0,094	-0,073
-424,803	-200,000	-0,006	-0,023
-423,788	-95,869	0,151	-0,029
-422,773	106,632	-0,016	0,014
-421,759	-200,000	-0,050	0,163
-420,744	-27,425	-0,047	-0,020
-419,730	-117,255	-0,061	-0,008
-418,715	800,000	0,069	-0,151
-417,701	-200,000	0,000	-0,223
-416,686	-15,095	-0,077	0,035
-415,671	800,000	0,056	0,126
-414,657	-22,472	0,017	0,007
-413,642	-26,740	0,033	-0,014
-412,628	-45,540	0,086	0,030
-411,613	-23,907	0,093	-0,040
-410,598	800,000	0,026	0,067
-409,584	173,679	0,073	0,076
-408,569	-177,097	0,141	0,002
-407,555	800,000	-0,034	-0,075
-406,540	-91,129	-0,040	-0,008
-405,525	800,000	-0,026	-0,054
-404,511	-51,335	0,148	-0,049
-403,496	-57,540	-0,107	-0,033
-402,482	-122,819	-0,122	-0,014
-401,467	-200,000	0,002	0,040
-400,452	292,691	0,060	0,078
-399,438	800,000	0,026	-0,053
-398,423	599,163	-0,028	-0,049
-397,409	134,242	-0,094	-0,088
-396,394	134,572	0,105	-0,098
-395,379	128,753	0,098	-0,090
-394,365	119,505	0,027	0,024
-393,350	800,000	0,025	0,075
-392,336	769,147	0,060	0,118
-391,321	800,000	0,057	0,127
-390,306	800,000	0,031	0,064
-389,292	12,971	0,105	-0,058
-388,277	34,605	0,055	0,034
-387,263	-200,000	0,002	0,006
-386,248	-200,000	0,004	0,058
-385,233	-145,598	0,160	0,010
-384,219	-200,000	0,003	-0,028
-383,204	-120,512	-0,142	0,017
-382,190	800,000	-0,038	0,101
-381,175	-200,000	0,009	-0,033
-380,160	-200,000	-0,004	-0,089
-379,146	44,242	0,019	-0,012
-378,131	625,228	0,030	-0,054
-377,117	-113,385	-0,134	0,019
-376,102	168,351	-0,093	-0,095
-375,088	-78,523	-0,135	-0,033
-374,073	-37,176	0,045	-0,017
-373,058	-200,000	-0,003	0,174
-372,044	58,349	-0,062	0,043
-371,029	132,734	-0,050	0,046
-370,015	-179,856	0,049	0,001
-369,000	-200,000	0,041	-0,154
-367,985	-100,578	-0,170	-0,030
-366,971	204,410	0,015	-0,017
-365,956	-200,000	0,012	-0,094
-364,942	97,078	-0,083	0,068
-363,927	-38,251	0,035	0,013
-362,912	124,783	0,016	-0,014
-361,898	800,000	0,013	-0,027
-360,883	-65,120	0,043	-0,012
-359,869	662,176	-0,031	0,058
-358,854	-86,016	0,041	-0,009
-357,839	-200,000	-0,015	-0,079
-356,825	800,000	0,035	0,099
-355,810	284,116	-0,062	0,079
-354,796	248,392	-0,106	0,129
-353,781	-200,000	0,011	-0,087
-352,766	-200,000	0,012	-0,097
-351,752	59,895	0,022	-0,016
-350,737	-200,000	0,006	0,053
-349,723	149,861	0,055	-0,053
-348,708	708,964	0,031	-0,059
-347,693	-145,098	-0,096	-0,006
-346,679	-97,034	-0,120	0,022
-345,664	-54,445	0,045	-0,014
-344,650	-200,000	-0,022	0,090
-343,635	-96,098	0,138	0,026
-342,620	-81,306	0,079	0,018
-341,606	-200,000	-0,008	-0,041
-340,591	-127,587	0,126	-0,013
-339,577	-12,496	-0,173	-0,081
-338,562	59,410	-0,068	-0,048
-337,548	52,434	-0,159	0,108
-336,533	800,000	-0,062	0,163
-335,518	-37,971	0,129	0,049
-334,504	800,000	0,078	0,226
-333,489	-10,596	-0,060	0,028
-332,475	61,329	-0,113	0,080
-331,460	800,000	-0,011	-0,034
-330,445	800,000	-0,016	0,047
-329,431	-200,000	0,037	0,134
-328,416	-13,418	0,108	-0,050
-327,402	88,587	-0,051	-0,041
-326,387	800,000	0,014	-0,036
-325,372	50,749	0,032	-0,021
-324,358	304,063	-0,103	-0,137
-323,343	-54,595	0,042	-0,013
-322,329	-200,000	0,015	-0,096
-321,314	-112,268	-0,193	0,027
-320,299	-200,000	-0,033	0,112
-319,285	-67,914	0,072	-0,020
-318,270	800,000	-0,029	-0,084
-317,256	-200,000	-0,023	-0,091
-316,241	94,296	-0,017	-0,013
-315,226	-159,373	0,064	-0,002
-314,212	59,178	0,016	0,011
-313,197	-167,069	0,124	0,004
-312,183	235,712	-0,065	-0,076
-311,168	240,650	0,070	0,084
-310,153	159,237	-0,106	-0,105
-309,139	-6,905	0,097	0,047
-308,124	430,733	0,028	-0,043
-307,110	-200,000	-0,019	0,100
-306,095	-200,000	-0,013	0,060
-305,080	800,000	-0,028	0,075
-304,066	584,525	0,023	-0,041
-303,051	-200,000	-0,012	0,069
-302,037	133,553	-0,098	-0,090
-301,022	-200,000	0,001	0,092
-300,008	-200,000	-0,030	0,142
-298,993	-15,792	0,015	0,007
-297,978	-200,000	0,019	0,062
-296,964	800,000	-0,044	-0,117
-295,949	22,151	0,017	0,010
-294,935	307,305	-0,049	0,065
-293,920	249,539	-0,039	0,048
-292,905	-200,000	0,015	0,048
-291,891	-200,000	-0,001	-0,048
-290,876	-200,000	0,005	0,122
-289,862	-86,837	0,053	0,011
-288,847	237,946	-0,070	-0,084
-287,832	94,482	-0,053	0,043
-286,818	0,631	0,065	0,033
-285,803	718,204	-0,033	-0,064
-284,789	200,593	0,112	0,123
-283,774	180,664	0,052	0,054
-282,759	-200,000	-0,006	0,056
-281,745	27,394	-0,122	-0,073
-280,730	556,247	-0,017	0,030
-279,716	-59,756	-0,082	0,025
-278,701	800,000	0,028	0,075
-277,686	13,822	0,072	0,040
-276,672	15,632	-0,107	0,060
-275,657	-8,264	0,148	0,071
-274,643	14,673	0,045	-0,025
-273,628	-176,092	-0,162	-0,003
-272,613	-200,000	0,030	0,121
-271,599	-200,000	0,022	0,126
-270,584	152,050	0,073	-0,071
-269,570	-49,270	0,059	-0,020
-268,555	-200,000	-0,008	-0,043
-267,540	-200,000	0,005	-0,146
-266,526	272,324	0,078	-0,098
-265,511	14,774	0,086	-0,048
-264,497	800,000	-0,005	0,014
-263,482	80,053	0,044	0,034
-262,467	40,472	0,062	0,040
-261,453	53,245	0,072	-0,049
-260,438	158,679	-0,028	-0,028
-259,424	-200,000	0,001	0,082
-258,409	-114,767	-0,130	0,017
-257,395	-200,000	-0,007	0,065
-256,380	225,691	0,067	-0,077
-255,365	35,501	-0,079	0,049
-254,351	35,240	-0,102	0,064
-253,336	73,777	-0,075	-0,056
-252,322	494,791	-0,058	-0,096
-251,307	800,000	-0,059	0,181
-250,292	122,599	-0,188	-0,167
-249,278	95,641	-0,016	0,013
-248,263	-200,000	0,040	0,181
-247,249	799,452	0,099	0,195
-246,234	370,535	-0,059	-0,085
-245,219	182,821	-0,016	-0,017
-244,205	-200,000	-0,015	-0,133
-243,190	-25,954	0,057	0,024
-242,176	402,291	0,057	0,086
-241,161	-200,000	0,064	0,249
-240,146	-200,000	-0,016	0,070
-239,132	-82,331	0,051	-0,012
-238,117	-200,000	0,016	-0,072
-237,103	199,134	-0,036	0,039
-236,088	-200,000	0,029	-0,213
-235,073	-140,175	0,092	-0,007
-234,059	-122,353	0,086	-0,010
-233,044	240,416	0,069	-0,082
-232,030	599,359	-0,106	-0,188
-231,015	239,772	0,046	-0,055
-230,000	-200,000	-0,020	-0,146
-228,986	43,164	-0,100	0,065
-227,971	79,455	-0,052	-0,039
-226,957	347,664	0,039	0,054
-225,942	-15,880	-0,078	0,035
-224,927	-200,000	-0,036	0,116
-223,913	800,000	-0,046	-0,103
-222,898	146,167	0,057	-0,055
-221,884	-177,775	0,130	-0,002
-220,869	-200,000	-0,003	-0,158
-219,855	-90,232	0,201	-0,041
-218,840	-29,180	0,103	-0,042
-217,825	-26,861	0,106	-0,044
-216,811	-119,296	-0,047	-0,006
-215,796	280,355	-0,022	-0,028
-214,782	79,025	-0,110	0,084
-213,767	299,725	-0,026	0,034
-212,752	800,000	-0,008	-0,021
-211,738	-200,000	0,011	0,135
-210,723	-119,229	-0,116	0,014
-209,709	-127,437	-0,096	0,010
-208,694	364,688	0,047	-0,067
-207,679	250,867	-0,030	-0,037
-206,665	-150,942	0,091	0,005
-205,650	33,841	0,079	-0,049
-204,636	-84,909	0,090	-0,020
-203,621	242,357	-0,087	0,103
-202,606	-200,000	-0,001	-0,171
-201,592	41,938	-0,071	-0,046
-200,577	46,441	-0,036	0,024
-199,563	70,163	0,126	-0,092
-198,548	709,441	-0,081	0,152
-197,533	516,955	-0,023	0,038
-196,519	800,000	0,068	0,144
-195,504	-41,116	-0,140	0,051
-194,490	-200,000	0,037	-0,127
-193,475	433,453	0,076	-0,118
-192,460	-102,070	0,076	-0,013
-191,446	-68,540	0,040	-0,011
-190,431	402,763	0,082	0,122
-189,417	569,232	-0,056	0,096
-188,402	-200,000	-0,006	0,037
-187,387	45,459	-0,039	-0,026
-186,373	-200,000	-0,010	0,050
-185,358	63,563	0,109	0,078
-184,344	324,487	0,095	0,129
-183,329	185,452	0,025	-0,026
-182,315	17,155	0,142	0,080
-181,300	800,000	0,052	-0,124
-180,285	160,474	0,063	-0,062
-179,271	-200,000	0,011	-0,129
-178,256	-67,269	0,041	0,011
-177,242	800,000	-0,067	0,144
-176,227	800,000	0,005	-0,012
-175,212	100,631	-0,079	0,065
-174,198	-31,934	0,024	0,010
-173,183	800,000	-0,048	-0,097
-172,169	-49,251	-0,091	-0,031
-171,154	6,431	-0,037	-0,019
-170,139	704,654	-0,025	-0,048
-169,125	-37,163	0,073	0,028
-168,110	-16,210	-0,041	0,019
-167,096	54,888	0,006	-0,004
-166,081	484,123	-0,054	-0,088
-165,066	800,000	0,070	-0,214
-164,052	-200,000	-0,003	0,045
-163,037	506,780	0,062	0,103
-162,023	-200,000	-0,005	-0,022
-161,008	-26,574	0,139	0,058
-159,993	319,562	-0,100	0,134
-158,979	-60,962	0,060	0,018
-157,964	-200,000	0,010	0,069
-156,950	61,543	-0,128	0,090
-155,935	-200,000	0,012	0,095
-154,920	-79,942	0,140	-0,033
-153,906	-138,017	0,139	0,011
-152,891	-4,787	0,027	-0,013
-151,877	446,716	0,017	-0,026
-150,862	378,365	0,043	-0,062
-149,847	-57,164	-0,131	-0,041
-148,833	-21,407	0,006	-0,002
-147,818	-200,000	-0,011	-0,143
-146,804	126,875	0,099	-0,089
-145,789	479,665	0,017	-0,027
-144,775	29,302	-0,131	-0,079
-143,760	-200,000	-0,027	0,146
-142,745	56,857	-0,007	0,005
-141,731	263,682	0,051	-0,064
-140,716	-200,000	0,013	0,128
-139,702	-200,000	-0,002	-0,046
-138,687	13,241	-0,048	0,027
-137,672	-200,000	0,037	-0,188
-136,658	-75,356	-0,052	-0,013
-135,643	-200,000	-0,011	0,047
-134,629	176,430	0,053	0,055
-133,614	242,577	-0,062	-0,073
-132,599	-200,000	-0,018	-0,103
-131,585	-200,000	-0,005	-0,046
-130,570	-200,000	-0,016	0,057
-129,556	-99,839	-0,059	0,010
-128,541	-200,000	0,010	-0,082
-127,526	-45,941	-0,156	-0,054
-126,512	78,029	0,091	-0,069
-125,497	-200,000	-0,003	0,055
-124,483	167,987	-0,105	0,106
-123,468	-31,797	-0,036	-0,014
-122,453	-200,000	-0,009	-0,042
-121,439	-56,520	0,064	0,020
-120,424	129,727	-0,125	-0,114
-119,410	800,000	-0,071	-0,152
-118,395	-200,000	-0,024	0,131
-117,380	-200,000	-0,012	0,185
-116,366	-6,769	0,059	0,028
-115,351	142,178	-0,070	0,065
-114,337	-60,922	-0,097	0,029
-113,322	-91,409	0,157	-0,031
-112,307	-200,000	-0,007	-0,118
-111,293	800,000	0,035	0,091
-110,278	298,481	0,061	0,079
-109,264	800,000	-0,007	-0,017
-108,249	-170,104	-0,118	0,003
-107,234	424,979	-0,047	-0,072
-106,220	10,729	-0,139	0,075
-105,205	-200,000	0,029	-0,116
-104,191	-20,976	0,135	0,059
-103,176	800,000	0,048	-0,110
-102,162	52,744	0,046	0,031
-101,147	-200,000	0,007	-0,090
-100,132	511,159	-0,092	-0,152
-99,118	209,720	-0,030	0,033
-98,103	317,891	-0,059	-0,079
-97,089	-116,975	0,109	-0,014
-96,074	134,731	0,103	0,094
-95,059	115,182	-0,106	0,092
-94,045	-200,000	-0,009	-0,057
-93,030	591,002	0,011	0,019
-92,016	-11,607	0,047	0,022
-91,001	-200,000	-0,020	-0,159
-89,986	-43,652	0,080	-0,028
-88,972	670,182	0,067	0,124
-87,957	728,437	0,032	0,060
-86,943	481,596	-0,037	-0,059
-85,928	134,576	0,094	0,086
-84,913	-200,000	-0,007	0,044
-83,899	-200,000	-0,011	0,110
-82,884	-200,000	-0,001	-0,023
-81,870	180,616	0,115	0,119
-80,855	107,781	0,062	-0,052
-79,840	800,000	-0,028	-0,070
-78,826	-200,000	0,016	0,081
-77,811	95,801	-0,151	-0,122
-76,797	800,000	-0,095	0,189
-75,782	-74,399	-0,038	-0,010
-74,767	272,166	-0,043	0,053
-73,753	800,000	-0,042	-0,082
-72,738	-2,023	-0,023	0,011
-71,724	599,356	0,086	-0,152
-70,709	-57,726	-0,090	-0,028
-69,694	425,581	0,004	-0,006
-68,680	-200,000	0,012	-0,081
-67,665	101,084	0,057	-0,047
-66,651	-200,000	-0,014	0,096
-65,636	-200,000	0,020	0,274
-64,622	-59,877	-0,088	-0,026
-63,607	407,145	-0,014	0,021
-62,592	-200,000	-0,018	0,145
-61,578	-200,000	0,006	0,106
-60,563	396,245	0,046	0,068
-59,549	-200,000	0,018	0,171
-58,534	-21,031	-1,560	-0,672
-57,519	379,427	-1,455	-2,114
-56,505	-200,000	-0,495	-4,379
-55,490	194,842	0,862	0,926
-54,476	800,000	4,995	11,202
-53,461	-200,000	18,952	310,330
-52,446	-200,000	736,728	2302,192
-51,432	569,158	1650,848	2848,409
-50,417	78,445	1666,646	1257,471
-49,403	21,538	1539,865	883,178
-48,388	15,451	1462,376	809,264
-47,373	17,942	1452,454	815,724
-46,359	16,843	1442,589	804,906
-45,344	13,755	1437,933	787,548
-44,330	13,643	1436,199	786,032
-43,315	13,657	1434,431	785,099
-42,300	13,686	1432,783	784,303
-41,286	13,692	1431,460	783,579
-40,271	13,667	1430,291	782,790
-39,257	13,632	1429,053	781,912
-38,242	13,702	1427,513	781,371
-37,227	13,780	1426,470	781,140
-36,213	13,741	1425,124	780,186
-35,198	13,754	1423,892	779,545
-34,184	13,798	1423,063	779,265
-33,169	13,659	1421,784	777,878
-32,154	13,767	1420,662	777,742
-31,140	13,712	1419,464	776,798
-30,125	13,731	1418,331	776,237
-29,111	13,731	1417,275	775,628
-28,096	13,757	1415,976	775,010
-27,082	13,650	1415,193	774,044
-26,067	13,648	1413,963	773,331
-25,052	13,613	1412,974	772,598
-24,038	13,680	1411,728	772,200
-23,023	13,578	1410,951	771,267
-22,009	13,642	1409,759	770,885
-20,994	13,575	1409,004	770,126
-19,979	13,621	1408,115	769,826
-18,965	13,575	1407,240	769,100
-17,950	13,590	1406,226	768,588
-16,936	13,594	1405,407	768,128
-15,921	13,568	1404,217	767,326
-14,906	13,544	1403,289	766,676
-13,892	13,591	1402,348	766,351
-12,877	13,552	1401,508	765,679
-11,863	13,546	1400,678	765,167
-10,848	13,552	1399,698	764,629
-9,833	13,545	1399,006	764,189
-8,819	13,503	1398,169	763,506
-7,804	13,481	1397,000	762,736
-6,790	13,447	1396,015	762,012
-5,775	13,432	1395,030	761,374
-4,760	13,488	1393,843	760,952
-3,746	13,440	1393,139	760,319
-2,731	13,474	1392,407	760,047
-1,717	13,442	1391,527	759,386
-0,702	13,413	1389,813	758,288
0,313	17,242	1307,714	731,174
1,327	33,549	703,037	430,667
2,342	51,210	123,591	82,718
3,356	1,550	16,554	8,388
4,371	0,398	3,276	1,647
5,386	-38,315	0,541	0,201
6,400	-200,000	-0,033	0,147
7,415	-10,826	-0,191	-0,089
8,429	22,474	-0,328	-0,189
9,444	-17,041	-0,416	-0,185
10,459	66,450	-0,260	-0,186
11,473	323,174	-0,196	-0,264
12,488	-88,116	-0,325	-0,068
13,502	53,002	-0,347	-0,234
14,517	3,521	-0,379	-0,194
15,531	257,445	-0,308	-0,375
16,546	103,364	-0,459	-0,380
17,561	103,262	-0,456	-0,377
18,575	-110,091	-0,040	0,006
19,590	72,782	-0,328	-0,241
20,604	25,838	-0,223	-0,131
21,619	436,262	-0,214	-0,329
22,634	242,224	-0,369	-0,436
23,648	108,040	-0,290	-0,243
24,663	374,256	-0,213	-0,307
25,677	28,299	-0,468	-0,278
26,692	22,873	-0,374	-0,215
27,707	633,927	-0,204	-0,366
28,721	34,373	-0,383	-0,235
29,736	180,067	-0,258	-0,267
30,750	80,867	-0,418	-0,318
31,765	91,493	-0,409	-0,324
32,780	140,448	-0,422	-0,393
33,794	57,725	-0,294	-0,202
34,809	11,314	-0,420	-0,226
35,823	126,011	-0,337	-0,300
36,838	193,744	-0,309	-0,330
37,853	242,077	-0,305	-0,359
38,867	93,095	-0,313	-0,249
39,882	160,489	-0,315	-0,310
40,896	95,437	-0,311	-0,249
41,911	-102,597	-0,457	-0,076
42,926	-51,167	-0,371	-0,122
43,940	272,050	-0,321	-0,399
44,955	-52,675	-0,372	-0,120
45,969	300,058	-0,262	-0,340
46,984	-33,271	-0,430	-0,167
47,999	167,578	-0,390	-0,390
49,013	160,765	-0,268	-0,264
50,028	13,280	-0,343	-0,186
51,042	23,694	-0,194	-0,112
52,057	47,627	-0,397	-0,260
53,071	6,873	-0,435	-0,227
54,086	126,038	-0,362	-0,322
55,101	99,925	-0,340	-0,277
56,115	134,880	-0,237	-0,217
57,130	1,565	-0,262	-0,132
58,144	99,411	-0,367	-0,298
59,159	10,928	-0,359	-0,192
60,174	79,976	-0,281	-0,212
61,188	-15,258	-0,334	-0,149
62,203	29,208	-0,337	-0,201
63,217	127,527	-0,299	-0,267
64,232	44,666	-0,347	-0,224
65,247	3,719	-0,365	-0,186
66,261	96,381	-0,338	-0,272
67,276	181,041	-0,349	-0,361
68,290	19,047	-0,352	-0,198
69,305	-80,388	-0,273	-0,063
70,320	-36,784	-0,300	-0,112
71,334	30,445	-0,244	-0,146
72,349	36,806	-0,340	-0,211
73,363	54,955	-0,359	-0,243
74,378	133,555	-0,306	-0,278
75,393	65,276	-0,386	-0,273
76,407	83,302	-0,225	-0,172
77,422	187,540	-0,242	-0,254
78,436	38,845	-0,287	-0,180
79,451	12,731	-0,248	-0,134
80,466	271,070	-0,218	-0,270
81,480	-46,599	-0,278	-0,095
82,495	249,461	-0,292	-0,348
83,509	-7,185	-0,319	-0,151
84,524	-97,666	-0,313	-0,056
85,539	110,778	-0,333	-0,281
86,553	133,361	-0,227	-0,206
87,568	37,492	-0,221	-0,137
88,582	232,600	-0,189	-0,218
89,597	51,231	-0,194	-0,129
90,611	-9,336	-0,266	-0,124
91,626	32,449	-0,265	-0,160
92,641	800,000	-0,064	-0,163
93,655	40,256	-0,359	-0,226
94,670	208,806	-0,245	-0,269
95,684	65,226	-0,291	-0,206
96,699	126,680	-0,331	-0,294
97,714	-27,245	-0,371	-0,151
98,728	13,944	-0,283	-0,154
99,743	-56,608	-0,334	-0,103
100,757	78,633	-0,225	-0,168
101,772	129,814	-0,304	-0,272
102,787	85,758	-0,345	-0,266
103,801	-26,694	-0,295	-0,120
104,816	54,650	-0,339	-0,229
105,830	-66,118	-0,210	-0,058
106,845	-78,973	-0,362	-0,086
107,860	0,643	-0,244	-0,122
108,874	280,701	-0,166	-0,208
109,889	299,926	-0,155	-0,201
110,903	67,677	-0,207	-0,148
111,918	-157,993	-0,282	-0,011
112,933	103,187	-0,143	-0,117
113,947	253,148	-0,151	-0,180
114,962	-36,709	-0,245	-0,092
115,976	58,591	-0,201	-0,138
116,991	-53,300	-0,227	-0,072
118,006	-9,974	-0,207	-0,096
119,020	-49,396	-0,221	-0,073
120,035	141,825	-0,169	-0,156
121,049	36,897	-0,248	-0,153
122,064	-134,091	-0,282	-0,024
123,079	76,079	-0,194	-0,143
124,093	46,194	-0,266	-0,172
125,108	243,370	-0,246	-0,289
126,122	-52,993	-0,269	-0,086
127,137	9,621	-0,137	-0,072
128,151	-31,374	-0,144	-0,057
129,166	48,798	-0,283	-0,185
130,181	-123,465	-0,269	-0,030
131,195	252,359	-0,306	-0,366
132,210	13,433	-0,289	-0,156
133,224	192,654	-0,251	-0,265
134,239	800,000	-0,116	-0,299
135,254	-62,904	-0,211	-0,061
136,268	-200,000	-0,241	-0,001
137,283	62,562	-0,178	-0,124
138,297	199,544	-0,284	-0,304
139,312	104,087	-0,273	-0,224
140,327	135,281	-0,258	-0,234
141,341	27,306	-0,234	-0,137
142,356	161,294	-0,222	-0,217
143,370	-119,199	-0,232	0,028
144,385	213,729	-0,180	-0,199
145,400	151,654	-0,266	-0,253
146,414	87,859	-0,236	-0,182
147,429	117,152	-0,270	-0,231
148,443	28,755	-0,269	-0,159
149,458	16,289	-0,186	-0,102
150,473	-104,665	-0,154	-0,025
151,487	36,772	-0,277	-0,170
152,502	-0,345	-0,273	-0,135
153,516	7,117	-0,188	-0,097
154,531	13,223	-0,301	-0,162
155,546	-0,876	-0,326	-0,160
156,560	105,068	-0,238	-0,196
157,575	114,080	-0,120	-0,101
158,589	589,547	-0,161	-0,277
159,604	136,980	-0,246	-0,224
160,619	219,465	-0,124	-0,139
161,633	-40,037	-0,348	-0,126
162,648	133,983	-0,185	-0,167
163,662	-63,878	-0,215	-0,061
164,677	-123,613	-0,236	-0,026
165,692	28,969	-0,173	-0,102
166,706	-36,626	-0,379	-0,141
167,721	-97,479	-0,237	-0,043
168,735	277,010	-0,199	-0,247
169,750	113,634	-0,206	-0,174
170,764	-82,580	-0,249	-0,056
171,779	16,559	-0,330	-0,181
172,794	292,341	-0,215	-0,273
173,808	79,452	-0,272	-0,203
174,823	462,792	-0,141	-0,220
175,837	75,888	-0,190	-0,140
176,852	-5,810	-0,330	-0,157
177,867	30,509	-0,094	-0,056
178,881	45,633	-0,246	-0,158
179,896	800,000	-0,094	-0,203
180,910	84,530	-0,235	-0,179
181,925	606,362	-0,109	-0,189
182,940	225,785	-0,205	-0,231
183,954	86,649	-0,292	-0,224
184,969	800,000	-0,110	-0,264
185,983	-200,000	-0,003	-0,133
186,998	-97,998	-0,196	-0,035
188,013	18,813	-0,212	-0,118
189,027	146,432	-0,179	-0,167
190,042	16,818	-0,222	-0,122
191,056	80,648	-0,285	-0,213
192,071	-84,468	-0,289	-0,063
193,086	6,568	-0,173	0,089
194,100	-22,157	-0,142	0,060
195,115	457,620	-0,088	-0,136
196,129	-23,121	-0,168	-0,070
197,144	-9,006	-0,336	-0,156
198,159	800,000	-0,161	-0,335
199,173	800,000	-0,147	-0,286
200,188	-73,182	-0,158	-0,040
201,202	-102,916	-0,138	0,023
202,217	163,615	-0,228	-0,223
203,232	582,246	-0,131	-0,225
204,246	800,000	-0,092	-0,196
205,261	262,286	-0,255	-0,308
206,275	800,000	-0,131	-0,273
207,290	-36,389	-0,178	-0,066
208,304	127,167	-0,116	-0,102
209,319	35,207	-0,245	-0,149
210,334	46,867	-0,239	-0,154
211,348	211,264	-0,216	-0,236
212,363	-70,683	-0,292	-0,076
213,377	186,319	-0,141	-0,146
214,392	275,029	-0,087	-0,107
215,407	81,168	-0,238	-0,178
216,421	20,940	-0,092	-0,052
217,436	456,083	-0,137	-0,211
218,450	62,264	-0,246	-0,170
219,465	136,012	-0,202	-0,182
220,480	103,349	-0,119	-0,097
221,494	-200,000	-0,044	-0,262
222,509	112,902	-0,133	-0,112
223,523	800,000	-0,126	-0,242
224,538	-40,802	-0,326	-0,116
225,553	-21,528	-0,243	-0,102
226,567	380,423	-0,217	-0,310
227,582	158,244	-0,076	-0,073
228,596	-7,988	-0,178	-0,083
229,611	-89,333	-0,151	-0,031
230,626	-33,616	-0,189	-0,072
231,640	-200,000	-0,008	-0,071
232,655	187,675	-0,156	-0,161
233,669	165,918	-0,142	-0,139
234,684	-45,336	-0,201	-0,069
235,699	-78,289	-0,193	-0,046
236,713	800,000	-0,074	-0,154
237,728	-78,109	-0,157	-0,037
238,742	161,307	-0,161	-0,156
239,757	-132,553	-0,216	-0,019
240,772	63,099	-0,114	-0,079
241,786	800,000	-0,087	-0,227
242,801	114,013	-0,201	-0,169
243,815	82,030	-0,143	-0,107
244,830	-59,865	-0,176	0,052
245,844	-41,870	-0,186	-0,066
246,859	800,000	-0,064	-0,131
247,874	-81,958	-0,099	-0,022
248,888	116,893	-0,197	-0,167
249,903	-19,297	-0,214	-0,092
250,917	125,396	-0,102	-0,089
251,932	-32,526	-0,182	0,070
252,947	-38,933	-0,257	-0,093
253,961	55,475	-0,169	-0,113
254,976	-41,610	-0,130	-0,046
255,990	-88,040	-0,184	-0,038
257,005	-56,356	-0,162	0,049
258,020	265,468	-0,143	-0,173
259,034	-17,794	-0,177	-0,076
260,049	800,000	-0,106	-0,236
261,063	273,356	-0,076	-0,093
262,078	99,864	-0,235	-0,188
263,093	162,291	-0,204	-0,197
264,107	99,273	-0,176	-0,141
265,122	-200,000	0,000	-0,057
266,136	-13,439	-0,198	-0,088
267,151	-78,700	-0,168	-0,039
268,166	-92,196	-0,187	-0,036
269,180	-140,278	-0,156	0,011
270,195	-14,715	-0,216	-0,095
271,209	392,450	-0,137	-0,197
272,224	343,157	-0,144	-0,196
273,239	19,058	-0,169	-0,093
274,253	-200,000	-0,033	-0,174
275,268	-8,118	-0,230	-0,107
276,282	71,149	-0,253	-0,181
277,297	8,478	-0,172	-0,089
278,312	152,260	-0,170	-0,160
279,326	522,118	-0,167	-0,272
280,341	2,904	-0,215	-0,107
281,355	-104,528	-0,180	-0,028
282,370	-108,037	-0,151	0,022
283,384	282,624	-0,098	-0,122
284,399	215,156	-0,096	-0,105
285,414	-27,651	-0,286	-0,114
286,428	-53,153	-0,155	-0,049
287,443	-165,422	-0,132	-0,004
288,457	88,056	-0,167	-0,127
289,472	-36,765	-0,098	-0,036
290,487	429,938	-0,158	-0,236
291,501	33,853	-0,267	-0,160
292,516	309,815	-0,172	-0,222
293,530	76,509	-0,114	-0,083
294,545	65,627	-0,058	0,040
295,560	114,976	-0,106	-0,089
296,574	-200,000	-0,022	0,080
297,589	84,284	-0,060	-0,045
298,603	87,222	-0,296	-0,225
299,618	800,000	-0,060	-0,141
300,633	284,069	-0,062	-0,077
301,647	3,584	-0,101	-0,050
302,662	183,962	-0,162	-0,165
303,676	-57,597	-0,226	-0,068
304,691	-200,000	-0,029	-0,139
305,706	318,399	-0,201	-0,263
306,720	-7,844	-0,201	-0,093
307,735	-200,000	-0,020	-0,110
308,749	-200,000	0,030	-0,099
309,764	549,086	-0,050	-0,082
310,779	-58,147	-0,035	-0,011
311,793	-7,749	-0,177	-0,082
312,808	194,919	-0,139	-0,145
313,822	201,614	-0,184	-0,195
314,837	7,413	-0,207	-0,106
315,852	-8,107	-0,154	-0,071
316,866	-45,993	-0,066	-0,022
317,881	9,908	-0,113	-0,059
318,895	109,460	-0,150	-0,123
319,910	-158,523	-0,205	0,008
320,925	271,992	-0,093	-0,113
321,939	-132,115	-0,082	-0,007
322,954	-78,825	-0,146	-0,034
323,968	126,003	-0,059	-0,051
324,983	-43,877	-0,097	0,033
325,997	-3,365	-0,088	-0,042
327,012	385,908	-0,160	-0,227
328,027	77,270	-0,215	-0,157
329,041	-17,086	-0,083	-0,036
330,056	-200,000	0,008	-0,123
331,070	91,369	-0,129	-0,100
332,085	204,609	-0,125	0,133
333,100	-200,000	-0,027	-0,084
334,114	8,960	-0,094	-0,048
335,129	43,415	-0,154	-0,096
336,143	298,906	-0,088	-0,111
337,158	42,115	-0,165	-0,102
338,173	703,694	-0,092	0,167
339,187	-114,206	-0,095	-0,012
340,202	172,761	-0,064	-0,063
341,216	-101,791	-0,165	-0,027
342,231	238,011	-0,193	-0,220
343,246	42,912	-0,071	-0,045
344,260	409,007	-0,116	-0,169
345,275	48,881	-0,166	0,106
346,289	156,097	-0,017	-0,016
347,304	-59,849	-0,147	0,043
348,319	-7,993	-0,224	-0,103
349,333	62,333	-0,197	-0,134
350,348	430,275	-0,201	-0,299
351,362	-7,027	-0,099	-0,046
352,377	800,000	-0,044	-0,119
353,392	-200,000	-0,002	-0,009
354,406	21,504	-0,097	-0,054
355,421	210,350	1312,509	1413,255
356,435	161,930	1472,980	1413,758
