DTS Sentinel unit serial number:	SN410029Multiplexer serial number:	ORYXHardware model number:	OX2-SRSoftware version number:	ORYX F/W v4,00 Oryx Data Collector v3.7.2.0data status	okinstallation	B3 Nyhavnadifferential loss correction	single-endedforward channel	channel 1reverse channel	N/Adate	2023/12/03time	01:27:30forward acquisition time	300,00reverse acquisition time	0,00gamma	499,1914k internal	0,3201k external	0,3201temperature offset calibration	1,0000default loss term (dB/km)	0,3820temperature slope calibration	1,0000multiplexer offset coefficient	1,0000multiplexer slope coefficient	1,0000fibre end	0,00T internal ref (°C)	13,32T ext. ref 1 (°C)	-1,69T ext. ref 2 (°C)	-1,70length (m)	temperature (°C)	Stokes	anti-Stokes-744,400	240,013	-0,223	-0,270
-743,385	-200,000	0,004	0,239
-742,371	46,708	-0,233	-0,157
-741,356	800,000	0,098	0,281
-740,342	0,323	-0,118	-0,061
-739,327	-200,000	-0,029	0,285
-738,312	270,047	-0,131	-0,168
-737,298	-200,000	0,057	0,295
-736,283	60,735	-0,199	-0,144
-735,269	-200,000	-0,085	0,321
-734,254	176,722	-0,227	-0,240
-733,239	-116,255	-0,138	0,018
-732,225	800,000	-0,072	-0,193
-731,210	-200,000	0,012	0,134
-730,196	265,679	0,089	-0,113
-729,181	304,587	-0,025	0,034
-728,167	232,630	-0,049	0,058
-727,152	800,000	0,052	0,137
-726,137	-159,049	-0,063	0,003
-725,123	134,638	-0,120	-0,113
-724,108	-200,000	0,002	-0,125
-723,094	800,000	-0,047	-0,120
-722,079	-151,726	-0,212	0,011
-721,064	191,025	0,030	-0,032
-720,050	154,628	0,048	-0,048
-719,035	474,266	-0,022	0,037
-718,021	486,281	0,133	-0,221
-717,006	43,483	-0,088	-0,058
-715,991	6,862	-0,100	0,054
-714,977	-104,243	0,122	0,020
-713,962	-200,000	0,010	-0,040
-712,948	-46,811	0,029	-0,010
-711,933	-154,770	0,142	0,007
-710,918	-36,837	-0,209	0,081
-709,904	-104,958	-0,127	0,021
-708,889	151,381	-0,036	-0,036
-707,875	304,606	-0,032	-0,043
-706,860	41,041	-0,025	0,016
-705,845	581,855	-0,013	-0,024
-704,831	171,069	-0,083	-0,086
-703,816	55,680	0,067	-0,047
-702,802	-200,000	-0,039	-0,180
-701,787	800,000	-0,048	-0,120
-700,772	-164,435	-0,142	0,005
-699,758	14,467	0,067	-0,038
-698,743	42,911	-0,016	-0,011
-697,729	227,008	0,108	0,127
-696,714	-200,000	-0,012	-0,073
-695,699	30,309	-0,089	-0,055
-694,685	496,969	-0,071	-0,119
-693,670	-7,575	0,080	-0,039
-692,656	-200,000	-0,007	0,062
-691,641	20,086	-0,094	0,055
-690,627	-200,000	-0,009	0,140
-689,612	521,675	0,033	-0,057
-688,597	289,956	-0,056	0,073
-687,583	-2,541	-0,069	-0,035
-686,568	59,560	-0,143	-0,102
-685,554	-47,824	0,090	-0,031
-684,539	757,368	0,057	0,113
-683,524	-200,000	-0,003	0,077
-682,510	-200,000	0,045	0,202
-681,495	27,108	-0,142	0,087
-680,481	-159,043	-0,117	0,005
-679,466	31,479	-0,031	0,019
-678,451	99,243	-0,096	-0,080
-677,437	-200,000	0,007	0,095
-676,422	147,178	0,105	0,102
-675,408	-200,000	-0,050	0,177
-674,393	-200,000	-0,030	0,112
-673,378	10,278	-0,064	0,035
-672,364	800,000	-0,032	-0,083
-671,349	-200,000	0,008	0,073
-670,335	4,719	0,073	-0,039
-669,320	800,000	-0,041	0,116
-668,305	11,292	0,142	-0,079
-667,291	-107,739	-0,058	0,009
-666,276	800,000	-0,049	-0,141
-665,262	800,000	0,018	0,057
-664,247	745,243	-0,045	-0,088
-663,232	624,800	-0,009	0,016
-662,218	-20,945	-0,066	-0,029
-661,203	371,576	-0,055	-0,081
-660,189	64,230	0,049	-0,035
-659,174	-200,000	0,038	-0,210
-658,159	-200,000	-0,021	-0,077
-657,145	195,720	-0,024	-0,026
-656,130	800,000	-0,065	-0,141
-655,116	800,000	0,038	-0,097
-654,101	-132,242	-0,104	-0,010
-653,086	-26,886	-0,165	0,069
-652,072	800,000	-0,023	0,047
-651,057	-200,000	-0,026	-0,100
-650,043	-66,991	-0,066	-0,019
-649,028	-200,000	0,018	0,111
-648,014	-118,603	0,084	0,011
-646,999	238,286	0,029	-0,035
-645,984	113,187	-0,120	-0,105
-644,970	-22,176	-0,135	0,059
-643,955	-97,043	-0,092	-0,017
-642,941	616,861	0,055	-0,100
-641,926	268,674	-0,067	-0,085
-640,911	-77,475	-0,075	-0,019
-639,897	-200,000	-0,042	0,135
-638,882	-133,080	0,077	-0,007
-637,868	137,131	-0,112	-0,106
-636,853	-51,633	-0,083	-0,028
-635,838	-19,192	-0,211	-0,094
-634,824	-200,000	0,005	-0,118
-633,809	530,278	-0,074	0,127
-632,795	32,026	0,152	0,095
-631,780	-12,449	-0,120	0,057
-630,765	800,000	0,040	-0,126
-629,751	-200,000	-0,011	0,057
-628,736	157,501	-0,017	0,017
-627,722	-200,000	0,019	-0,214
-626,707	735,393	-0,036	-0,071
-625,692	-200,000	0,001	0,120
-624,678	800,000	-0,054	0,143
-623,663	3,160	-0,167	0,087
-622,649	217,321	0,041	-0,047
-621,634	-6,424	-0,048	0,024
-620,619	321,261	0,045	0,062
-619,605	782,199	0,042	-0,084
-618,590	-44,870	-0,072	0,026
-617,576	800,000	-0,023	-0,072
-616,561	28,896	-0,176	0,108
-615,546	-200,000	-0,006	0,034
-614,532	228,524	-0,063	-0,074
-613,517	-200,000	-0,028	-0,109
-612,503	11,710	0,159	0,088
-611,488	508,934	0,032	0,055
-610,474	-200,000	-0,011	0,088
-609,459	128,435	0,055	-0,051
-608,444	360,843	-0,053	-0,077
-607,430	266,198	-0,056	-0,071
-606,415	-200,000	0,042	-0,159
-605,401	57,620	-0,048	-0,034
-604,386	-92,581	-0,141	-0,028
-603,371	-200,000	0,003	0,102
-602,357	800,000	-0,044	0,129
-601,342	-109,803	-0,074	-0,011
-600,328	800,000	-0,031	-0,064
-599,313	209,281	-0,055	-0,062
-598,298	-81,794	-0,115	0,027
-597,284	-80,902	0,012	-0,003
-596,269	-106,697	0,121	-0,019
-595,255	-200,000	-0,025	0,085
-594,240	476,552	-0,063	0,103
-593,225	-5,418	-0,116	-0,057
-592,211	203,829	0,057	0,064
-591,196	49,210	-0,113	-0,076
-590,182	800,000	0,037	-0,109
-589,167	-18,687	0,083	0,037
-588,152	149,821	0,103	-0,101
-587,138	182,810	-0,078	0,083
-586,123	451,024	-0,083	-0,134
-585,109	-200,000	-0,001	-0,041
-584,094	-200,000	-0,006	-0,120
-583,079	340,266	0,054	-0,077
-582,065	-127,904	0,024	0,002
-581,050	-30,250	0,025	0,010
-580,036	57,176	0,027	0,019
-579,021	69,319	-0,098	0,073
-578,006	448,156	-0,084	-0,135
-576,992	538,831	0,077	-0,133
-575,977	-200,000	-0,008	-0,216
-574,963	-200,000	-0,018	0,086
-573,948	36,732	0,116	-0,074
-572,934	-200,000	-0,009	0,042
-571,919	-27,416	-0,006	0,003
-570,904	-200,000	0,000	0,016
-569,890	732,665	-0,123	-0,239
-568,875	-100,938	-0,043	-0,008
-567,861	-200,000	-0,029	0,200
-566,846	195,141	0,092	0,101
-565,831	130,390	0,031	-0,029
-564,817	247,761	0,039	-0,047
-563,802	-102,937	0,129	-0,022
-562,788	575,632	0,045	-0,080
-561,773	-200,000	-0,009	-0,081
-560,758	110,319	0,054	-0,047
-559,744	734,638	-0,094	0,182
-558,729	-200,000	0,000	-0,085
-557,715	45,009	-0,116	0,077
-556,700	-19,788	-0,085	-0,038
-555,685	800,000	-0,047	-0,116
-554,671	-47,459	0,034	0,012
-553,656	9,020	0,049	-0,026
-552,642	-113,017	-0,040	0,006
-551,627	-109,021	0,043	-0,007
-550,612	5,177	0,111	0,059
-549,598	90,912	-0,066	0,053
-548,583	39,018	-0,071	-0,046
-547,569	-200,000	-0,039	-0,145
-546,554	-141,900	0,056	0,004
-545,539	191,270	0,094	0,102
-544,525	-200,000	0,022	0,079
-543,510	-200,000	0,002	0,055
-542,496	800,000	0,017	-0,041
-541,481	800,000	-0,029	-0,082
-540,466	800,000	-0,056	0,117
-539,452	-26,505	-0,050	-0,021
-538,437	62,493	0,035	0,025
-537,423	106,613	0,036	-0,031
-536,408	-25,993	0,128	0,054
-535,393	218,974	-0,053	-0,061
-534,379	800,000	-0,052	0,119
-533,364	-180,418	-0,032	0,000
-532,350	-52,490	0,011	-0,004
-531,335	457,231	0,017	-0,027
-530,321	-168,234	0,064	-0,002
-529,306	566,947	0,101	-0,177
-528,291	752,598	-0,014	0,028
-527,277	-27,983	-0,120	-0,050
-526,262	560,409	-0,071	-0,124
-525,248	-200,000	-0,003	-0,037
-524,233	-73,004	0,091	0,024
-523,218	800,000	0,020	0,057
-522,204	-38,043	0,021	-0,008
-521,189	-200,000	0,002	-0,107
-520,175	800,000	0,036	-0,098
-519,160	299,178	0,050	-0,067
-518,145	-200,000	0,014	0,076
-517,131	92,943	0,038	0,031
-516,116	86,023	-0,123	0,098
-515,102	117,389	0,084	-0,075
-514,087	-139,520	-0,114	-0,009
-513,072	-27,250	-0,040	-0,017
-512,058	-200,000	0,007	-0,110
-511,043	-200,000	-0,018	-0,083
-510,029	-54,562	0,048	0,016
-509,014	-200,000	0,002	-0,024
-507,999	-200,000	0,007	0,022
-506,985	59,915	-0,051	-0,036
-505,970	232,825	0,054	0,064
-504,956	60,747	-0,071	0,051
-503,941	-84,495	0,067	0,015
-502,926	-133,313	-0,024	-0,002
-501,912	-45,315	-0,085	-0,030
-500,897	294,817	-0,034	-0,045
-499,883	800,000	-0,021	-0,053
-498,868	407,501	-0,037	0,057
-497,853	145,418	-0,053	0,051
-496,839	120,004	0,038	0,034
-495,824	-7,292	0,015	0,007
-494,810	-22,233	0,068	0,030
-493,795	-47,258	-0,045	0,016
-492,781	346,414	-0,089	-0,126
-491,766	-200,000	-0,026	-0,088
-490,751	-3,694	-0,070	-0,035
-489,737	-9,456	-0,134	0,064
-488,722	46,223	0,071	0,047
-487,708	-9,601	0,137	0,065
-486,693	-150,870	0,100	-0,005
-485,678	-200,000	0,011	-0,062
-484,664	-200,000	-0,007	-0,055
-483,649	-200,000	0,014	-0,281
-482,635	800,000	-0,019	0,046
-481,620	-73,371	-0,075	-0,020
-480,605	-44,147	-0,024	0,009
-479,591	-200,000	0,015	0,100
-478,576	-200,000	0,007	-0,032
-477,562	-60,068	0,123	-0,037
-476,547	301,934	0,020	-0,027
-475,532	-200,000	0,002	-0,008
-474,518	-200,000	0,022	0,168
-473,503	161,198	0,148	0,149
-472,489	17,634	0,106	0,060
-471,474	321,461	0,058	0,080
-470,459	-51,201	0,034	-0,011
-469,445	47,305	-0,142	0,095
-468,430	-200,000	-0,001	-0,008
-467,416	184,959	-0,062	0,066
-466,401	264,112	0,083	-0,104
-465,386	-77,938	-0,063	0,016
-464,372	70,046	0,006	-0,004
-463,357	-71,836	-0,079	-0,021
-462,343	510,541	-0,032	0,053
-461,328	5,889	-0,047	-0,025
-460,313	301,534	0,023	-0,031
-459,299	-44,058	0,038	-0,014
-458,284	-200,000	0,039	0,123
-457,270	233,517	0,079	-0,094
-456,255	-193,802	-0,176	-0,001
-455,241	-52,959	0,080	-0,026
-454,226	72,286	-0,041	-0,031
-453,211	45,718	0,038	0,025
-452,197	-3,717	-0,068	-0,034
-451,182	-39,878	-0,039	0,015
-450,168	602,680	-0,020	0,036
-449,153	-200,000	0,036	0,116
-448,138	-12,085	0,048	0,022
-447,124	-200,000	-0,014	0,085
-446,109	800,000	-0,044	-0,087
-445,095	249,389	-0,040	-0,049
-444,080	272,991	0,054	0,069
-443,065	133,950	-0,041	0,038
-442,051	-30,913	0,040	0,016
-441,036	41,507	0,052	-0,034
-440,022	-200,000	-0,002	-0,031
-439,007	-122,729	0,105	-0,012
-437,992	-87,524	0,133	-0,029
-436,978	492,437	0,031	-0,052
-435,963	-29,126	0,078	-0,032
-434,949	-68,592	0,219	0,061
-433,934	-200,000	0,007	0,041
-432,919	800,000	-0,026	-0,074
-431,905	172,853	-0,017	-0,018
-430,890	-69,903	0,119	0,032
-429,876	-42,970	0,146	0,053
-428,861	733,908	-0,071	0,138
-427,846	-95,074	-0,050	0,010
-426,832	-200,000	-0,011	0,036
-425,817	105,373	-0,035	0,029
-424,803	206,300	-0,022	0,024
-423,788	44,945	0,045	0,030
-422,773	-200,000	-0,000	0,020
-421,759	-200,000	0,043	0,138
-420,744	381,503	-0,062	-0,091
-419,730	-54,661	0,015	-0,005
-418,715	270,561	-0,061	-0,077
-417,701	-34,084	-0,085	0,034
-416,686	101,437	0,101	0,085
-415,671	-9,766	0,094	-0,045
-414,657	-200,000	0,053	0,190
-413,642	-200,000	-0,008	0,110
-412,628	364,157	-0,132	0,191
-411,613	-151,008	0,031	0,002
-410,598	-200,000	-0,006	0,214
-409,584	800,000	0,029	-0,081
-408,569	82,016	0,033	0,025
-407,555	-151,728	0,078	-0,004
-406,540	-83,564	-0,080	-0,018
-405,525	100,765	-0,137	-0,115
-404,511	-158,372	0,063	0,003
-403,496	142,127	-0,121	-0,116
-402,482	109,022	-0,066	0,056
-401,467	-117,983	0,075	0,010
-400,452	25,453	0,148	0,088
-399,438	26,452	0,091	-0,055
-398,423	800,000	-0,024	-0,047
-397,409	577,879	-0,009	0,016
-396,394	-200,000	0,011	-0,117
-395,379	363,494	-0,049	0,071
-394,365	-200,000	0,008	-0,033
-393,350	-170,110	0,145	0,004
-392,336	-200,000	0,002	-0,013
-391,321	581,766	-0,031	-0,055
-390,306	-121,855	-0,123	0,014
-389,292	-124,386	-0,107	0,012
-388,277	753,413	-0,031	-0,061
-387,263	800,000	-0,028	0,056
-386,248	800,000	0,053	-0,128
-385,233	-10,549	-0,069	0,033
-384,219	-94,903	-0,083	0,016
-383,204	-159,888	-0,097	-0,004
-382,190	103,690	-0,090	-0,076
-381,175	136,784	-0,039	0,036
-380,160	40,921	-0,032	0,020
-379,146	577,293	0,065	0,114
-378,131	-163,412	0,054	0,002
-377,117	-200,000	0,006	0,034
-376,102	116,497	-0,100	0,088
-375,088	-100,292	-0,089	-0,016
-374,073	-5,949	0,066	-0,032
-373,058	-136,127	-0,041	0,003
-372,044	-88,224	0,050	-0,011
-371,029	318,573	-0,033	0,045
-370,015	-84,402	-0,016	0,004
-369,000	800,000	-0,056	0,136
-367,985	332,078	-0,037	-0,051
-366,971	-200,000	-0,013	-0,142
-365,956	221,532	0,073	0,085
-364,942	-32,848	0,048	-0,019
-363,927	-200,000	0,002	0,021
-362,912	800,000	-0,040	0,113
-361,898	736,980	-0,043	0,083
-360,883	-200,000	0,007	0,067
-359,869	292,540	-0,047	0,061
-358,854	800,000	0,033	-0,072
-357,839	134,195	0,054	0,050
-356,825	-200,000	0,003	0,028
-355,810	800,000	-0,032	-0,069
-354,796	-105,491	-0,057	0,009
-353,781	-102,899	0,060	0,010
-352,766	-200,000	-0,009	-0,074
-351,752	-200,000	-0,029	0,102
-350,737	-145,117	0,131	-0,008
-349,723	53,008	0,106	-0,072
-348,708	-200,000	-0,046	0,161
-347,693	-193,924	0,060	-0,000
-346,679	174,955	-0,119	-0,123
-345,664	91,201	-0,110	-0,088
-344,650	547,450	0,031	-0,053
-343,635	-200,000	0,023	-0,149
-342,620	354,779	0,049	-0,070
-341,606	-200,000	-0,014	0,054
-340,591	-39,694	0,131	-0,049
-339,577	-96,067	0,097	-0,018
-338,562	800,000	0,017	0,048
-337,548	-21,508	-0,050	0,022
-336,533	-156,409	0,124	0,005
-335,518	227,258	0,058	-0,068
-334,504	800,000	0,015	-0,044
-333,489	-200,000	0,015	-0,068
-332,475	-70,149	-0,133	0,036
-331,460	-38,032	0,186	-0,070
-330,445	129,208	-0,046	0,042
-329,431	-19,715	-0,027	0,012
-328,416	-200,000	-0,000	0,018
-327,402	-134,212	-0,043	0,004
-326,387	344,298	-0,044	0,062
-325,372	-200,000	0,031	-0,179
-324,358	124,214	0,061	-0,055
-323,343	-200,000	-0,006	0,042
-322,329	23,437	-0,046	0,027
-321,314	12,120	-0,059	-0,033
-320,299	-163,190	0,097	0,003
-319,285	87,785	0,036	-0,028
-318,270	1,542	-0,139	0,071
-317,256	74,788	0,049	-0,037
-316,241	339,329	-0,034	-0,048
-315,226	800,000	0,003	0,007
-314,212	17,730	0,180	0,102
-313,197	-200,000	0,011	0,110
-312,183	680,100	-0,046	0,086
-311,168	164,515	0,069	-0,070
-310,153	31,430	-0,041	0,025
-309,139	800,000	-0,094	-0,230
-308,124	663,327	0,021	-0,039
-307,110	-136,939	-0,064	-0,005
-306,095	-147,253	0,123	0,007
-305,080	800,000	0,015	-0,045
-304,066	-200,000	0,032	-0,142
-303,051	2,182	0,098	-0,050
-302,037	-161,713	-0,049	0,002
-301,022	59,406	0,142	0,100
-300,008	678,511	0,036	-0,067
-298,993	-5,478	0,096	0,047
-297,978	84,398	0,150	0,118
-296,964	46,287	-0,008	0,005
-295,949	800,000	0,010	0,026
-294,935	357,910	0,007	-0,009
-293,920	800,000	0,012	-0,025
-292,905	68,198	0,155	-0,113
-291,891	-159,939	0,156	-0,006
-290,876	48,497	0,143	0,096
-289,862	172,240	0,095	0,098
-288,847	-200,000	-0,000	-0,188
-287,832	222,187	-0,043	-0,049
-286,818	-200,000	0,032	-0,114
-285,803	800,000	-0,045	-0,093
-284,789	-31,926	-0,121	0,048
-283,774	-200,000	0,031	0,144
-282,759	-200,000	-0,011	0,111
-281,745	-200,000	0,024	0,097
-280,730	200,874	-0,104	-0,114
-279,716	-76,593	-0,010	-0,003
-278,701	-31,061	0,137	0,055
-277,686	426,608	0,015	0,023
-276,672	245,239	-0,059	0,071
-275,657	-5,631	-0,097	-0,047
-274,643	-200,000	-0,001	-0,025
-273,628	-163,598	0,145	0,005
-272,613	-80,261	-0,064	-0,015
-271,599	800,000	0,075	0,194
-270,584	442,164	0,066	0,104
-269,570	-200,000	-0,007	-0,023
-268,555	-99,727	0,058	0,010
-267,540	-19,326	-0,040	0,017
-266,526	127,851	-0,063	-0,057
-265,511	96,408	-0,063	0,052
-264,497	-94,953	0,087	0,017
-263,482	63,560	-0,025	0,018
-262,467	351,608	0,043	-0,062
-261,453	146,847	0,028	-0,027
-260,438	65,610	0,087	-0,063
-259,424	-200,000	-0,032	-0,178
-258,409	-200,000	0,002	-0,082
-257,395	-3,073	-0,089	0,044
-256,380	800,000	0,030	0,077
-255,365	-200,000	0,078	0,249
-254,351	18,752	0,054	0,031
-253,336	18,286	-0,106	-0,060
-252,322	-93,121	0,172	-0,034
-251,307	-200,000	0,017	-0,086
-250,292	-178,681	-0,029	-0,000
-249,278	-200,000	0,008	0,029
-248,263	-200,000	-0,001	-0,026
-247,249	-103,839	0,138	0,023
-246,234	344,190	-0,047	0,066
-245,219	-74,056	-0,096	0,025
-244,205	554,216	-0,033	0,056
-243,190	-200,000	0,015	0,108
-242,176	-2,941	0,072	0,036
-241,161	800,000	0,018	-0,053
-240,146	-151,169	0,079	-0,004
-239,132	800,000	-0,050	-0,105
-238,117	456,229	-0,017	-0,028
-237,103	663,503	0,024	0,044
-236,088	-94,601	-0,156	0,030
-235,073	550,786	0,088	0,151
-234,059	16,459	0,052	0,029
-233,044	-200,000	0,019	0,107
-232,030	800,000	-0,024	0,067
-231,015	-200,000	-0,017	0,127
-230,000	-92,566	-0,171	0,034
-228,986	-37,354	-0,112	0,042
-227,971	109,362	-0,107	-0,091
-226,957	-48,076	-0,130	0,045
-225,942	92,685	0,093	0,075
-224,927	101,234	-0,138	0,114
-223,913	-19,241	0,022	-0,010
-222,898	-31,734	0,024	0,010
-221,884	458,704	-0,095	-0,152
-220,869	-132,773	0,076	-0,007
-219,855	-200,000	-0,017	0,157
-218,840	10,318	-0,032	0,017
-217,825	800,000	-0,020	-0,058
-216,811	800,000	0,030	-0,080
-215,796	-29,624	-0,063	-0,026
-214,782	-190,161	-0,034	0,000
-213,767	-200,000	-0,010	0,051
-212,752	37,786	0,162	0,103
-211,738	78,014	-0,150	-0,114
-210,723	-121,467	0,051	-0,006
-209,709	-200,000	-0,039	-0,135
-208,694	8,120	-0,119	-0,064
-207,679	-200,000	-0,016	0,110
-206,665	-191,331	-0,009	0,000
-205,650	232,599	0,135	0,158
-204,636	-200,000	-0,028	-0,143
-203,621	-200,000	0,011	-0,054
-202,606	800,000	-0,058	-0,132
-201,592	-17,858	0,100	-0,044
-200,577	-200,000	-0,002	-0,066
-199,563	17,946	-0,029	0,017
-198,548	-65,900	0,140	-0,039
-197,533	26,913	0,110	-0,066
-196,519	-24,414	-0,150	0,063
-195,504	38,776	0,064	0,041
-194,490	-200,000	-0,011	0,071
-193,475	157,167	-0,062	-0,061
-192,460	-200,000	0,000	0,035
-191,446	37,838	0,031	-0,020
-190,431	505,936	0,129	0,213
-189,417	-200,000	-0,006	0,092
-188,402	-111,618	0,114	0,016
-187,387	800,000	-0,029	-0,063
-186,373	-200,000	-0,033	-0,120
-185,358	222,052	-0,035	0,040
-184,344	346,906	0,038	0,054
-183,329	-200,000	0,001	-0,035
-182,315	152,531	0,029	-0,029
-181,300	289,145	0,041	-0,052
-180,285	-99,612	-0,113	-0,020
-179,271	-200,000	0,008	0,083
-178,256	-200,000	-0,003	0,056
-177,242	275,281	0,116	0,147
-176,227	448,756	0,038	-0,060
-175,212	0,889	-0,185	0,094
-174,198	-29,916	-0,116	-0,047
-173,183	111,340	0,041	0,035
-172,169	471,451	-0,088	-0,141
-171,154	-95,740	-0,007	0,001
-170,139	42,465	0,041	0,027
-169,125	-154,076	0,106	0,005
-168,110	-36,419	0,200	0,076
-167,096	-200,000	0,007	-0,126
-166,081	-85,695	-0,082	-0,018
-165,066	800,000	-0,036	-0,094
-164,052	-98,042	-0,169	-0,031
-163,037	-97,372	0,138	0,025
-162,023	-200,000	0,000	0,054
-161,008	5,950	-0,045	-0,024
-159,993	101,896	-0,094	-0,078
-158,979	31,092	-0,097	0,059
-157,964	800,000	-0,035	0,078
-156,950	110,078	-0,012	0,010
-155,935	43,788	0,108	0,070
-154,920	-128,839	0,142	-0,014
-153,906	-140,804	0,122	0,009
-152,891	-70,183	-0,125	0,033
-151,877	168,256	-0,055	0,056
-150,862	-200,000	0,013	-0,106
-149,847	-100,271	0,123	-0,021
-148,833	-14,443	0,075	-0,034
-147,818	-115,707	-0,115	0,015
-146,804	-94,062	-0,078	-0,015
-145,789	800,000	0,041	0,100
-144,775	-103,603	-0,085	0,014
-143,760	83,538	-0,084	-0,065
-142,745	-200,000	0,009	0,060
-141,731	313,600	-0,052	-0,070
-140,716	-66,347	0,162	0,045
-139,702	-200,000	-0,036	0,155
-138,687	424,550	0,085	0,130
-137,672	-187,504	-0,089	-0,001
-136,658	-200,000	0,043	-0,194
-135,643	-86,759	-0,089	-0,019
-134,629	21,030	-0,071	-0,041
-133,614	-64,436	0,112	-0,032
-132,599	603,255	0,089	0,158
-131,585	352,097	0,084	-0,118
-130,570	-67,706	-0,107	-0,030
-129,556	800,000	-0,027	-0,081
-128,541	-200,000	0,024	0,089
-127,526	-179,934	-0,192	0,003
-126,512	403,394	0,067	0,101
-125,497	18,347	-0,058	0,033
-124,483	-200,000	0,030	0,109
-123,468	-200,000	-0,010	0,045
-122,453	-78,495	-0,138	-0,033
-121,439	51,603	-0,035	-0,024
-120,424	167,200	0,135	-0,136
-119,410	-200,000	0,009	-0,036
-118,395	253,719	-0,147	0,178
-117,380	-200,000	-0,012	-0,055
-116,366	622,185	0,041	0,074
-115,351	-200,000	0,005	-0,082
-114,337	2,263	0,057	-0,029
-113,322	-2,873	0,045	-0,022
-112,307	126,563	0,066	0,059
-111,293	138,168	0,057	0,053
-110,278	44,330	-0,057	0,037
-109,264	345,317	0,044	0,061
-108,249	-200,000	0,010	-0,119
-107,234	-118,215	-0,135	0,017
-106,220	-80,718	-0,086	0,020
-105,205	1,848	0,028	-0,014
-104,191	-200,000	0,012	0,235
-103,176	671,421	-0,060	0,111
-102,162	-100,706	0,072	-0,012
-101,147	-23,750	-0,121	-0,051
-100,132	14,068	0,048	-0,026
-99,118	95,404	0,094	-0,076
-98,103	800,000	0,076	-0,190
-97,089	-30,368	0,129	-0,052
-96,074	208,248	0,107	0,119
-95,059	-9,518	0,023	0,011
-94,045	-200,000	-0,002	0,070
-93,030	-112,563	0,055	-0,008
-92,016	359,642	0,020	-0,029
-91,001	92,125	0,040	-0,032
-89,986	267,445	0,006	-0,007
-88,972	239,423	0,108	-0,127
-87,957	336,930	-0,045	0,062
-86,943	131,463	-0,129	0,117
-85,928	-200,000	-0,015	-0,060
-84,913	112,446	0,057	-0,049
-83,899	-11,636	-0,095	-0,044
-82,884	258,319	-0,037	-0,045
-81,870	-11,995	0,066	-0,031
-80,855	-172,467	-0,106	-0,002
-79,840	-200,000	0,023	0,116
-78,826	-61,619	0,070	-0,021
-77,811	-200,000	-0,007	-0,045
-76,797	434,157	-0,062	0,095
-75,782	-13,464	0,099	-0,045
-74,767	325,786	0,084	0,114
-73,753	130,807	0,054	0,049
-72,738	521,181	0,029	0,049
-71,724	-16,322	0,168	-0,075
-70,709	185,819	-0,067	-0,071
-69,694	279,779	-0,008	0,010
-68,680	-16,374	0,030	0,014
-67,665	-200,000	0,041	0,221
-66,651	-200,000	0,000	0,027
-65,636	-200,000	0,005	0,092
-64,622	272,610	-0,027	-0,034
-63,607	-200,000	-0,022	0,084
-62,592	234,173	0,078	-0,091
-61,578	-200,000	-0,009	-0,069
-60,563	800,000	-0,032	0,086
-59,549	290,769	0,015	-0,019
-58,534	-9,008	-1,575	-0,744
-57,519	350,256	-1,406	-1,974
-56,505	-200,000	-0,431	-4,543
-55,490	178,390	1,044	1,081
-54,476	800,000	4,914	11,349
-53,461	-200,000	19,153	319,717
-52,446	-200,000	740,524	2334,526
-51,432	573,763	1655,677	2870,407
-50,417	78,248	1671,325	1261,951
-49,403	21,328	1544,036	885,869
-48,388	15,198	1466,449	811,540
-47,373	17,928	1456,766	819,347
-46,359	16,661	1446,686	807,569
-45,344	13,441	1441,893	789,432
-44,330	13,341	1440,096	787,939
-43,315	13,401	1438,252	787,187
-42,300	13,397	1436,474	786,161
-41,286	13,384	1435,488	785,532
-40,271	13,368	1434,099	784,663
-39,257	13,361	1432,867	783,926
-38,242	13,395	1431,349	783,222
-37,227	13,498	1430,116	783,009
-36,213	13,433	1428,924	782,016
-35,198	13,453	1427,533	781,320
-34,184	13,430	1426,890	780,825
-33,169	13,397	1425,554	779,906
-32,154	13,445	1424,330	779,433
-31,140	13,396	1423,142	778,524
-30,125	13,418	1422,062	778,006
-29,111	13,394	1421,035	777,300
-28,096	13,433	1419,668	776,702
-27,082	13,373	1418,740	775,883
-26,067	13,354	1417,733	775,213
-25,052	13,355	1416,474	774,497
-24,038	13,336	1415,539	773,864
-23,023	13,338	1414,474	773,259
-22,009	13,321	1413,538	772,637
-20,994	13,296	1412,700	772,035
-19,979	13,297	1411,898	771,569
-18,965	13,271	1410,729	770,776
-17,950	13,301	1409,885	770,428
-16,936	13,294	1408,847	769,797
-15,921	13,287	1407,742	769,128
-14,906	13,267	1406,921	768,555
-13,892	13,281	1406,071	768,125
-12,877	13,242	1405,167	767,418
-11,863	13,287	1404,139	767,039
-10,848	13,267	1403,145	766,373
-9,833	13,207	1402,556	765,741
-8,819	13,142	1401,738	764,962
-7,804	13,173	1400,795	764,558
-6,790	13,168	1399,753	763,939
-5,775	13,171	1398,486	763,229
-4,760	13,165	1397,564	762,669
-3,746	13,172	1396,752	762,228
-2,731	13,147	1395,978	761,659
-1,717	13,138	1395,159	761,140
-0,702	13,159	1393,217	760,148
0,313	16,964	1310,218	732,505
1,327	33,199	703,893	431,059
2,342	51,167	123,251	82,601
3,356	5,027	16,649	8,643
4,371	15,443	3,146	1,742
5,386	14,180	0,601	0,330
6,400	800,000	0,148	0,317
7,415	-6,290	-0,087	-0,042
8,429	800,000	-0,135	-0,273
9,444	-17,558	-0,311	-0,138
10,459	81,515	-0,267	-0,204
11,473	58,389	-0,305	-0,211
12,488	-83,742	-0,242	-0,054
13,502	184,022	-0,201	-0,211
14,517	46,900	-0,342	-0,224
15,531	13,761	-0,399	-0,218
16,546	-76,387	-0,276	-0,068
17,561	350,694	-0,295	-0,413
18,575	516,280	-0,114	-0,190
19,590	-77,066	-0,266	-0,065
20,604	76,652	-0,209	-0,156
21,619	53,928	-0,535	-0,363
22,634	248,620	-0,344	-0,412
23,648	246,412	-0,364	-0,434
24,663	253,987	-0,289	-0,350
25,677	-43,727	-0,363	-0,128
26,692	-102,495	-0,388	-0,065
27,707	-29,973	-0,397	-0,159
28,721	60,045	-0,341	-0,238
29,736	36,158	-0,426	-0,264
30,750	199,140	-0,294	-0,319
31,765	101,272	-0,455	-0,374
32,780	245,099	-0,300	-0,357
33,794	29,204	-0,289	-0,173
34,809	-56,036	-0,359	-0,112
35,823	104,633	-0,219	-0,182
36,838	342,489	-0,284	-0,393
37,853	78,302	-0,354	-0,266
38,867	68,902	-0,483	-0,349
39,882	440,551	-0,259	-0,401
40,896	386,492	-0,214	-0,313
41,911	4,569	-0,363	-0,187
42,926	36,853	-0,375	-0,234
43,940	221,557	-0,330	-0,374
44,955	94,304	-0,386	-0,308
45,969	36,642	-0,288	-0,179
46,984	46,406	-0,334	-0,218
47,999	215,658	-0,332	-0,372
49,013	507,485	-0,215	-0,353
50,028	34,236	-0,447	-0,274
51,042	-143,816	-0,401	-0,026
52,057	43,945	-0,303	-0,195
53,071	28,284	-0,360	-0,214
54,086	318,270	-0,217	-0,290
55,101	24,368	-0,373	-0,216
56,115	80,728	-0,261	-0,198
57,130	25,055	-0,292	-0,170
58,144	136,701	-0,367	-0,338
59,159	38,460	-0,506	-0,317
60,174	-23,460	-0,349	-0,147
61,188	14,252	-0,383	-0,210
62,203	32,789	-0,382	-0,232
63,217	61,106	-0,256	-0,179
64,232	42,773	-0,409	-0,261
65,247	70,266	-0,342	-0,248
66,261	104,493	-0,348	-0,288
67,276	5,024	-0,382	-0,197
68,290	486,718	-0,199	-0,321
69,305	44,099	-0,310	-0,199
70,320	-82,292	-0,264	-0,060
71,334	-25,913	-0,377	-0,156
72,349	-22,588	-0,318	-0,134
73,363	150,247	-0,306	-0,292
74,378	69,631	-0,309	-0,224
75,393	14,112	-0,391	-0,214
76,407	-48,476	-0,365	-0,123
77,422	203,641	-0,255	-0,277
78,436	382,794	-0,107	-0,155
79,451	-0,906	-0,367	-0,182
80,466	70,695	-0,355	-0,258
81,480	-4,504	-0,300	-0,145
82,495	-20,770	-0,273	-0,117
83,509	210,963	-0,227	-0,252
84,524	270,613	-0,177	-0,219
85,539	-53,743	-0,338	-0,108
86,553	10,849	-0,235	-0,126
87,568	-6,027	-0,370	-0,177
88,582	109,482	-0,241	-0,203
89,597	-26,115	-0,378	-0,155
90,611	64,160	-0,212	-0,150
91,626	-111,753	-0,245	-0,035
92,641	-13,916	-0,273	-0,123
93,655	51,508	-0,299	-0,199
94,670	31,333	-0,311	-0,187
95,684	-13,772	-0,421	-0,191
96,699	23,904	-0,256	-0,148
97,714	227,340	-0,188	-0,215
98,728	47,127	-0,261	-0,170
99,743	-124,224	-0,340	-0,037
100,757	-48,481	-0,254	-0,085
101,772	-119,521	-0,214	-0,026
102,787	89,793	-0,259	-0,203
103,801	157,038	-0,197	-0,191
104,816	-112,605	-0,347	-0,048
105,830	52,317	-0,266	-0,177
106,845	46,845	-0,205	-0,133
107,860	421,876	-0,125	-0,189
108,874	91,281	-0,228	-0,179
109,889	10,974	-0,275	-0,147
110,903	11,946	-0,345	-0,186
111,918	134,018	-0,219	-0,199
112,933	170,343	-0,165	-0,165
113,947	-25,486	-0,243	-0,100
114,962	-60,963	-0,292	-0,086
115,976	-56,723	-0,292	-0,090
116,991	229,803	-0,282	-0,323
118,006	49,714	-0,374	-0,247
119,020	83,217	-0,252	-0,192
120,035	106,727	-0,229	-0,191
121,049	-11,157	-0,287	-0,132
122,064	366,720	-0,206	-0,291
123,079	222,294	-0,160	-0,181
124,093	-3,667	-0,256	-0,124
125,108	37,180	-0,336	-0,208
126,122	-9,427	-0,124	-0,058
127,137	800,000	-0,164	-0,327
128,151	161,296	-0,185	-0,181
129,166	-184,568	-0,360	0,004
130,181	-159,669	-0,220	0,008
131,195	124,575	-0,269	-0,237
132,210	134,599	-0,235	-0,214
133,224	55,530	-0,260	-0,176
134,239	-44,485	-0,314	-0,109
135,254	-28,921	-0,210	-0,084
136,268	-200,000	-0,282	-0,001
137,283	46,856	-0,276	-0,179
138,297	214,759	-0,228	-0,253
139,312	-162,776	-0,307	-0,010
140,327	43,431	-0,242	-0,154
141,341	209,181	-0,271	-0,297
142,356	-2,373	-0,299	-0,146
143,370	-23,539	-0,219	-0,092
144,385	89,452	-0,266	-0,207
145,400	254,059	-0,285	-0,341
146,414	68,002	-0,233	-0,167
147,429	-74,018	-0,188	-0,047
148,443	136,547	-0,211	-0,193
149,458	52,868	-0,282	-0,188
150,473	800,000	-0,067	-0,151
151,487	156,325	-0,236	-0,227
152,502	-6,433	-0,301	-0,143
153,516	-77,237	-0,161	-0,039
154,531	23,744	-0,280	-0,161
155,546	110,107	-0,154	-0,129
156,560	251,046	-0,146	-0,173
157,575	-96,993	-0,234	-0,042
158,589	27,004	-0,356	-0,208
159,604	56,051	-0,173	-0,117
160,619	125,939	-0,182	-0,160
161,633	26,658	-0,224	-0,130
162,648	-200,000	0,070	-0,222
163,662	161,302	-0,121	-0,118
164,677	-14,315	-0,203	-0,091
165,692	-129,506	-0,189	-0,018
166,706	147,232	-0,259	-0,244
167,721	84,479	-0,293	-0,223
168,735	304,980	-0,189	-0,245
169,750	-200,000	-0,062	-0,221
170,764	180,878	-0,175	-0,179
171,779	80,362	-0,235	-0,176
172,794	-110,992	-0,269	0,038
173,808	190,100	-0,164	-0,171
174,823	-14,322	-0,328	-0,146
175,837	382,745	-0,111	-0,159
176,852	-91,883	-0,219	-0,043
177,867	178,859	-0,257	-0,262
178,881	222,881	-0,130	-0,147
179,896	53,726	-0,252	-0,169
180,910	-3,307	-0,194	-0,094
181,925	82,605	-0,278	-0,210
182,940	33,085	-0,184	-0,111
183,954	14,943	-0,261	-0,142
184,969	-200,000	-0,085	-0,279
185,983	44,642	-0,228	-0,146
186,998	359,637	-0,119	-0,166
188,013	-19,819	-0,184	-0,079
189,027	96,753	-0,148	-0,118
190,042	42,493	-0,239	-0,151
191,056	22,941	-0,311	-0,177
192,071	76,472	-0,142	-0,104
193,086	23,126	-0,256	-0,146
194,100	61,501	-0,139	-0,096
195,115	11,318	-0,212	-0,113
196,129	114,783	-0,212	-0,180
197,144	34,801	-0,179	-0,109
198,159	-58,908	-0,225	-0,067
199,173	59,075	-0,151	-0,103
200,188	-110,997	-0,206	-0,029
201,202	125,354	-0,196	-0,172
202,217	800,000	-0,084	-0,164
203,232	-191,814	-0,205	-0,001
204,246	130,260	-0,204	-0,182
205,261	70,042	-0,214	-0,153
206,275	239,864	-0,152	-0,176
207,290	800,000	-0,066	-0,182
208,304	-15,730	-0,114	-0,050
209,319	125,349	-0,253	-0,222
210,334	-114,838	-0,334	-0,044
211,348	165,993	-0,189	-0,186
212,363	-45,633	-0,268	-0,092
213,377	0,283	-0,394	-0,195
214,392	681,999	-0,123	-0,223
215,407	467,652	-0,121	-0,189
216,421	800,000	-0,111	-0,253
217,436	51,516	-0,345	-0,227
218,450	253,487	-0,198	-0,236
219,465	-25,831	-0,261	-0,106
220,480	226,510	-0,196	-0,221
221,494	58,825	-0,108	-0,074
222,509	-36,792	-0,217	-0,081
223,523	400,700	-0,137	-0,200
224,538	328,005	-0,176	-0,235
225,553	60,542	-0,174	-0,120
226,567	-200,000	-0,033	-0,137
227,582	164,554	-0,148	-0,144
228,596	-117,154	-0,159	-0,020
229,611	506,771	-0,099	-0,160
230,626	110,854	-0,170	-0,142
231,640	-104,521	-0,355	-0,056
232,655	141,066	-0,155	-0,142
233,669	800,000	-0,094	-0,200
234,684	800,000	-0,102	-0,219
235,699	-59,102	-0,240	-0,071
236,713	-200,000	-0,000	-0,145
237,728	-59,558	-0,150	0,044
238,742	10,577	-0,193	-0,102
239,757	-8,300	-0,212	-0,098
240,772	-45,266	-0,350	-0,120
241,786	161,458	-0,111	-0,108
242,801	59,928	-0,152	-0,104
243,815	151,076	-0,048	-0,046
244,830	60,079	-0,220	-0,151
245,844	800,000	-0,076	-0,202
246,859	-4,615	-0,173	-0,083
247,874	232,295	-0,120	-0,136
248,888	-28,018	-0,249	-0,099
249,903	-56,387	-0,100	-0,031
250,917	12,949	-0,103	-0,055
251,932	724,924	-0,165	-0,306
252,947	-148,905	-0,233	0,013
253,961	-193,726	-0,220	-0,001
254,976	7,448	-0,281	-0,145
255,990	-31,245	-0,285	-0,110
257,005	-57,142	-0,184	-0,056
258,020	-102,773	-0,151	-0,025
259,034	86,163	-0,098	-0,075
260,049	-156,078	-0,127	-0,005
261,063	-83,719	-0,327	-0,072
262,078	288,681	-0,152	-0,190
263,093	97,586	-0,165	-0,131
264,107	54,018	-0,132	-0,088
265,122	-137,705	-0,107	0,008
266,136	32,307	-0,098	-0,058
267,151	-22,906	-0,231	-0,096
268,166	84,501	-0,220	-0,166
269,180	-200,000	-0,049	-0,199
270,195	-103,114	-0,331	-0,054
271,209	-123,510	-0,256	0,028
272,224	76,586	-0,153	-0,112
273,239	-196,257	-0,216	-0,001
274,253	276,574	-0,133	-0,164
275,268	416,559	-0,194	-0,287
276,282	-26,224	-0,227	-0,092
277,297	378,428	-0,155	-0,220
278,312	234,530	-0,195	-0,222
279,326	-38,721	-0,137	-0,050
280,341	328,583	-0,073	-0,097
281,355	13,024	-0,071	-0,038
282,370	444,920	-0,086	-0,131
283,384	-53,975	-0,229	-0,072
284,399	409,899	-0,206	-0,303
285,414	-78,019	-0,232	-0,055
286,428	19,834	-0,113	-0,063
287,443	105,132	-0,094	-0,077
288,457	-99,977	-0,251	-0,043
289,472	69,025	-0,124	-0,088
290,487	90,164	-0,267	-0,206
291,501	-85,168	-0,133	-0,028
292,516	-60,156	-0,198	-0,058
293,530	62,955	-0,180	-0,124
294,545	-74,998	-0,161	-0,040
295,560	268,339	-0,062	-0,075
296,574	-12,716	-0,127	0,057
297,589	39,150	-0,111	-0,069
298,603	260,903	-0,140	-0,168
299,618	10,279	-0,127	0,066
300,633	37,580	-0,157	-0,096
301,647	-200,000	-0,013	0,054
302,662	123,369	-0,122	-0,106
303,676	94,982	-0,110	-0,087
304,691	-22,548	-0,176	0,073
305,706	208,884	-0,169	-0,182
306,720	172,820	-0,243	-0,241
307,735	109,218	-0,099	-0,082
308,749	55,477	-0,155	-0,103
309,764	200,861	-0,117	-0,124
310,779	-200,000	-0,005	-0,147
311,793	800,000	-0,039	-0,083
312,808	71,908	-0,153	-0,110
313,822	146,706	-0,204	-0,189
314,837	326,334	-0,065	-0,085
315,852	375,868	-0,069	-0,097
316,866	-97,407	-0,117	-0,021
317,881	-118,884	-0,016	-0,002
318,895	-175,735	-0,092	0,002
319,910	-59,055	-0,279	-0,082
320,925	99,137	-0,088	-0,070
321,939	-56,646	-0,109	-0,033
322,954	54,653	-0,277	-0,184
323,968	-105,661	-0,158	-0,024
324,983	33,973	-0,098	-0,059
325,997	31,555	-0,080	-0,047
327,012	800,000	-0,059	-0,171
328,027	800,000	-0,091	-0,178
329,041	179,774	-0,173	-0,174
330,056	800,000	0,024	-0,052
331,070	-137,237	-0,162	0,012
332,085	-18,792	-0,209	-0,089
333,100	-75,166	-0,129	0,031
334,114	188,325	-0,141	-0,145
335,129	-17,947	-0,148	-0,063
336,143	-131,058	-0,188	-0,017
337,158	-200,000	0,000	0,049
338,173	308,959	-0,088	-0,113
339,187	-200,000	-0,006	-0,143
340,202	800,000	-0,068	-0,137
341,216	374,535	-0,070	-0,098
342,231	-24,050	-0,256	-0,105
343,246	126,360	-0,104	-0,090
344,260	153,035	-0,149	-0,140
345,275	156,591	-0,169	-0,160
346,289	28,582	-0,054	0,031
347,304	229,808	-0,038	-0,043
348,319	-15,882	-0,273	-0,119
349,333	69,561	-0,219	-0,155
350,348	-24,124	-0,180	-0,074
351,362	686,640	-0,079	-0,143
352,377	191,618	-0,199	-0,206
353,392	-200,000	-0,022	-0,170
354,406	800,000	-0,041	-0,088
355,421	210,077	1313,994	1416,223
356,435	161,713	1474,622	1416,716
