DTS Sentinel unit serial number:	SN410029Multiplexer serial number:	ORYXHardware model number:	OX2-SRSoftware version number:	ORYX F/W v4,00 Oryx Data Collector v3.7.2.0data status	okinstallation	B3 Nyhavnadifferential loss correction	single-endedforward channel	channel 1reverse channel	N/Adate	2023/12/02time	06:27:30forward acquisition time	300,00reverse acquisition time	0,00gamma	499,1914k internal	0,3194k external	0,3194temperature offset calibration	1,0000default loss term (dB/km)	0,3820temperature slope calibration	1,0000multiplexer offset coefficient	1,0000multiplexer slope coefficient	1,0000fibre end	0,00T internal ref (°C)	15,96T ext. ref 1 (°C)	0,64T ext. ref 2 (°C)	0,62length (m)	temperature (°C)	Stokes	anti-Stokes-744,400	-22,805	-0,405	-0,177
-743,385	-200,000	0,109	0,360
-742,371	-134,588	-0,132	-0,012
-741,356	800,000	0,167	0,450
-740,342	59,173	-0,193	-0,138
-739,327	-200,000	0,022	0,368
-738,312	63,244	-0,289	-0,211
-737,298	-200,000	-0,025	0,175
-736,283	46,295	-0,253	-0,171
-735,269	800,000	0,128	0,295
-734,254	311,499	-0,102	-0,140
-733,239	155,705	-0,123	0,123
-732,225	-200,000	-0,057	-0,262
-731,210	153,588	0,163	0,163
-730,196	178,448	0,060	-0,064
-729,181	-23,720	-0,036	-0,016
-728,167	-159,416	0,063	-0,003
-727,152	-66,712	-0,126	-0,036
-726,137	-143,466	-0,074	0,005
-725,123	106,789	0,051	-0,044
-724,108	-111,421	-0,118	-0,017
-723,094	-138,251	0,050	0,004
-722,079	192,407	-0,006	-0,006
-721,064	153,173	0,083	-0,083
-720,050	-103,975	-0,129	0,022
-719,035	677,353	-0,024	-0,045
-718,021	168,337	-0,183	-0,190
-717,006	24,339	-0,038	0,023
-715,991	800,000	-0,026	-0,084
-714,977	-200,000	-0,015	-0,156
-713,962	172,092	-0,049	0,051
-712,948	150,551	0,127	-0,126
-711,933	472,618	0,033	0,054
-710,918	-28,184	0,140	-0,059
-709,904	30,790	-0,147	-0,091
-708,889	139,776	-0,112	-0,108
-707,875	800,000	-0,039	-0,091
-706,860	-92,551	-0,013	-0,003
-705,845	800,000	-0,028	-0,074
-704,831	85,869	0,117	-0,094
-703,816	800,000	-0,065	0,138
-702,802	-200,000	-0,009	0,136
-701,787	-200,000	-0,015	-0,135
-700,772	634,946	-0,077	-0,144
-699,758	-52,022	-0,178	0,060
-698,743	105,479	-0,121	0,104
-697,729	-200,000	-0,006	0,139
-696,714	631,670	-0,019	0,035
-695,699	415,296	-0,046	-0,072
-694,685	-188,304	0,041	-0,000
-693,670	-97,028	-0,106	-0,020
-692,656	-163,420	-0,065	-0,002
-691,641	800,000	0,036	0,088
-690,627	15,530	0,065	-0,037
-689,612	61,810	0,067	0,048
-688,597	-200,000	0,003	0,042
-687,583	119,782	0,069	-0,062
-686,568	610,729	-0,064	-0,117
-685,554	749,650	0,035	0,069
-684,539	-87,356	0,066	-0,015
-683,524	-200,000	-0,021	-0,105
-682,510	32,385	0,041	-0,026
-681,495	-200,000	0,005	0,048
-680,481	32,879	-0,100	0,063
-679,466	-200,000	0,022	-0,090
-678,451	-200,000	0,038	-0,163
-677,437	800,000	-0,056	-0,132
-676,422	800,000	-0,020	0,049
-675,408	-56,668	-0,086	-0,027
-674,393	683,574	0,047	-0,090
-673,378	-200,000	-0,022	-0,100
-672,364	121,762	-0,071	-0,064
-671,349	-145,519	-0,064	-0,004
-670,335	-42,865	0,098	0,036
-669,320	-24,971	-0,008	-0,003
-668,305	355,329	-0,062	-0,090
-667,291	-200,000	0,010	-0,109
-666,276	-111,665	0,022	-0,003
-665,262	-193,929	-0,140	0,001
-664,247	51,014	-0,124	-0,085
-663,232	252,160	-0,085	-0,105
-662,218	800,000	0,026	-0,074
-661,203	23,107	0,125	-0,074
-660,189	-200,000	0,049	-0,166
-659,174	148,987	-0,138	0,136
-658,159	-200,000	0,023	0,092
-657,145	77,199	-0,047	-0,036
-656,130	25,508	-0,093	0,056
-655,116	273,953	0,094	0,121
-654,101	-173,022	-0,110	-0,002
-653,086	-123,692	0,105	-0,012
-652,072	-119,679	-0,063	0,008
-651,057	-200,000	-0,017	-0,239
-650,043	-79,106	-0,036	0,009
-649,028	762,256	0,079	-0,157
-648,014	388,426	0,031	0,046
-646,999	21,333	-0,127	0,075
-645,984	-128,571	-0,019	0,002
-644,970	-37,691	-0,101	-0,039
-643,955	40,915	-0,072	0,047
-642,941	800,000	0,040	-0,107
-641,926	169,402	0,083	-0,086
-640,911	-200,000	0,032	0,109
-639,897	726,202	-0,056	-0,109
-638,882	271,080	0,030	0,039
-637,868	-124,161	0,046	-0,005
-636,853	-63,434	-0,083	0,025
-635,838	-200,000	0,014	-0,074
-634,824	-69,603	-0,075	0,021
-633,809	450,598	-0,026	-0,042
-632,795	-200,000	-0,021	0,070
-631,780	800,000	-0,049	0,130
-630,765	79,424	-0,136	-0,106
-629,751	800,000	0,020	-0,065
-628,736	250,096	-0,056	0,069
-627,722	230,406	0,052	-0,062
-626,707	-200,000	0,023	0,091
-625,692	-200,000	0,005	0,030
-624,678	87,075	0,053	0,043
-623,663	-6,362	-0,061	-0,030
-622,649	-200,000	-0,016	-0,150
-621,634	-55,017	-0,107	-0,035
-620,619	154,136	-0,017	-0,017
-619,605	52,216	0,057	0,039
-618,590	-69,743	0,124	-0,034
-617,576	800,000	0,062	0,126
-616,561	-200,000	-0,004	0,126
-615,546	-200,000	0,013	-0,136
-614,532	800,000	-0,040	-0,104
-613,517	-200,000	-0,010	-0,057
-612,503	215,049	0,050	0,057
-611,488	591,673	0,022	0,039
-610,474	345,820	-0,043	0,061
-609,459	-128,901	0,047	0,005
-608,444	89,069	-0,058	-0,047
-607,430	-109,070	0,031	-0,005
-606,415	271,419	-0,073	-0,093
-605,401	-200,000	0,015	-0,076
-604,386	-200,000	0,003	-0,028
-603,371	800,000	0,019	0,057
-602,357	144,629	0,071	0,069
-601,342	-173,060	-0,205	-0,004
-600,328	124,792	-0,012	-0,011
-599,313	271,298	-0,019	0,024
-598,298	189,832	0,069	-0,075
-597,284	524,423	-0,045	-0,077
-596,269	218,176	-0,053	-0,062
-595,255	-100,662	0,087	-0,015
-594,240	-65,842	-0,241	0,069
-593,225	575,795	-0,004	-0,006
-592,211	33,869	-0,091	0,057
-591,196	-200,000	0,014	-0,157
-590,182	800,000	0,018	0,043
-589,167	7,026	-0,057	0,031
-588,152	-73,932	-0,057	0,015
-587,138	-1,870	-0,050	-0,025
-586,123	-147,870	-0,113	-0,007
-585,109	500,009	0,039	-0,065
-584,094	102,231	0,069	0,058
-583,079	167,778	-0,008	0,008
-582,065	-0,118	0,110	0,056
-581,050	-200,000	0,016	0,070
-580,036	-39,168	0,068	-0,026
-579,021	-200,000	0,004	-0,131
-578,006	261,800	-0,074	-0,093
-576,992	-200,000	-0,005	0,025
-575,977	112,938	-0,026	0,023
-574,963	260,464	0,055	0,069
-573,948	800,000	-0,058	0,132
-572,934	373,086	0,106	0,156
-571,919	-3,157	-0,038	0,019
-570,904	800,000	-0,031	-0,063
-569,890	-200,000	0,008	-0,092
-568,875	79,562	0,087	-0,068
-567,861	-78,562	0,106	-0,026
-566,846	-87,025	0,040	-0,009
-565,831	-200,000	-0,004	0,018
-564,817	800,000	0,026	-0,062
-563,802	-103,120	0,079	-0,013
-562,788	188,194	0,117	-0,126
-561,773	-64,502	0,069	0,020
-560,758	-43,969	0,062	-0,023
-559,744	144,103	0,088	-0,085
-558,729	800,000	-0,045	0,102
-557,715	-200,000	-0,017	-0,126
-556,700	-200,000	0,009	-0,053
-555,685	-91,773	-0,160	0,033
-554,671	57,403	0,141	0,099
-553,656	-200,000	-0,017	-0,075
-552,642	5,863	0,090	0,048
-551,627	27,138	-0,073	0,044
-550,612	-18,066	-0,111	0,050
-549,598	78,033	0,089	-0,069
-548,583	800,000	0,058	-0,164
-547,569	-112,083	-0,115	-0,017
-546,554	-200,000	-0,000	-0,048
-545,539	800,000	0,031	0,090
-544,525	800,000	-0,031	0,074
-543,510	641,002	-0,064	0,119
-542,496	-200,000	-0,004	0,064
-541,481	-200,000	0,019	-0,153
-540,466	3,466	0,026	-0,014
-539,452	89,077	0,073	0,059
-538,437	696,520	-0,025	-0,048
-537,423	53,274	-0,033	0,023
-536,408	-157,143	-0,057	0,002
-535,393	-200,000	0,007	-0,117
-534,379	-70,786	-0,132	0,036
-533,364	-200,000	0,034	-0,139
-532,350	356,386	-0,061	-0,088
-531,335	-13,684	0,098	0,046
-530,321	-23,462	-0,023	-0,010
-529,306	-200,000	0,029	-0,154
-528,291	478,303	-0,003	-0,005
-527,277	-200,000	0,013	-0,135
-526,262	-88,817	0,057	0,012
-525,248	6,387	-0,073	0,039
-524,233	800,000	-0,011	-0,031
-523,218	-84,922	0,105	-0,024
-522,204	-92,073	-0,129	0,026
-521,189	800,000	0,037	0,113
-520,175	168,321	-0,133	-0,137
-519,160	-161,104	-0,080	-0,003
-518,145	38,987	0,112	-0,072
-517,131	-200,000	0,010	-0,118
-516,116	337,569	-0,035	0,049
-515,102	-200,000	-0,034	0,195
-514,087	-38,323	0,129	0,049
-513,072	-200,000	-0,025	0,085
-512,058	-157,519	-0,062	-0,003
-511,043	61,914	-0,071	-0,051
-510,029	-200,000	0,004	0,049
-509,014	800,000	0,021	-0,054
-507,999	-200,000	-0,002	0,033
-506,985	-50,628	0,093	0,031
-505,970	-200,000	-0,009	0,055
-504,956	321,374	-0,049	-0,068
-503,941	-200,000	0,007	0,095
-502,926	306,070	-0,034	0,046
-501,912	-112,505	0,043	-0,006
-500,897	730,508	-0,056	-0,108
-499,883	-138,537	-0,219	-0,017
-498,868	800,000	0,021	0,064
-497,853	800,000	0,026	-0,079
-496,839	116,048	-0,100	-0,089
-495,824	245,355	0,083	0,100
-494,810	579,611	-0,055	0,098
-493,795	665,019	0,078	-0,147
-492,781	-25,431	-0,077	-0,033
-491,766	800,000	0,013	-0,034
-490,751	-83,615	0,040	-0,009
-489,737	-200,000	0,005	0,038
-488,722	186,404	-0,061	0,066
-487,708	800,000	0,072	0,145
-486,693	-200,000	0,011	0,095
-485,678	800,000	-0,033	0,080
-484,664	144,406	0,106	0,102
-483,649	-116,832	-0,124	0,016
-482,635	-83,567	-0,161	0,037
-481,620	-200,000	-0,019	0,206
-480,605	39,735	0,086	0,055
-479,591	-200,000	-0,034	0,144
-478,576	-13,578	-0,069	-0,032
-477,562	-36,243	0,041	-0,016
-476,547	249,313	-0,086	-0,106
-475,532	-43,596	-0,018	0,007
-474,518	48,750	0,078	-0,053
-473,503	-40,276	0,095	-0,035
-472,489	-200,000	-0,034	0,174
-471,474	800,000	-0,043	-0,108
-470,459	318,010	0,063	0,086
-469,445	800,000	-0,051	-0,137
-468,430	768,176	-0,005	0,010
-467,416	-200,000	0,013	0,055
-466,401	414,811	0,054	-0,083
-465,386	152,354	0,065	0,064
-464,372	272,321	-0,035	0,045
-463,357	-200,000	0,008	-0,100
-462,343	-200,000	-0,033	-0,162
-461,328	800,000	-0,046	-0,121
-460,313	-200,000	0,018	-0,102
-459,299	800,000	0,032	0,075
-458,284	-67,708	0,055	0,015
-457,270	157,002	0,125	-0,125
-456,255	-200,000	-0,184	0,000
-455,241	288,364	-0,048	-0,063
-454,226	-56,362	0,052	0,017
-453,211	156,156	-0,100	0,100
-452,197	-200,000	-0,011	-0,107
-451,182	-200,000	0,026	-0,121
-450,168	8,225	0,055	0,030
-449,153	-200,000	-0,040	-0,146
-448,138	-120,476	-0,071	-0,009
-447,124	-72,870	-0,111	-0,029
-446,109	-200,000	-0,037	-0,128
-445,095	-130,383	0,125	-0,012
-444,080	-21,713	0,066	-0,029
-443,065	181,396	0,087	-0,092
-442,051	-70,054	0,070	0,019
-441,036	10,073	-0,122	-0,066
-440,022	75,025	-0,086	-0,065
-439,007	-153,870	0,057	-0,003
-437,992	-50,280	-0,055	-0,019
-436,978	-68,990	-0,133	0,037
-435,963	-135,906	0,195	-0,016
-434,949	-46,747	-0,093	-0,033
-433,934	484,988	-0,107	-0,176
-432,919	50,120	0,091	0,062
-431,905	-140,856	-0,033	-0,002
-430,890	78,663	0,022	-0,017
-429,876	-200,000	-0,012	0,082
-428,861	-200,000	0,016	0,052
-427,846	-200,000	-0,032	-0,164
-426,832	800,000	0,071	-0,146
-425,817	505,075	0,031	-0,052
-424,803	444,936	0,012	-0,019
-423,788	-113,491	0,128	0,018
-422,773	162,874	0,054	-0,055
-421,759	52,475	0,122	0,084
-420,744	-200,000	-0,003	-0,025
-419,730	800,000	-0,006	0,013
-418,715	-200,000	-0,028	-0,113
-417,701	-57,981	0,120	0,037
-416,686	-40,760	-0,073	0,027
-415,671	5,134	0,083	-0,044
-414,657	-73,611	0,211	-0,055
-413,642	151,399	0,081	-0,079
-412,628	33,774	-0,098	-0,061
-411,613	-200,000	-0,011	-0,076
-410,598	-200,000	-0,018	-0,115
-409,584	800,000	-0,027	-0,062
-408,569	229,613	0,077	-0,091
-407,555	-147,118	0,151	0,009
-406,540	-200,000	0,018	0,185
-405,525	705,170	0,056	-0,107
-404,511	800,000	-0,077	-0,192
-403,496	-16,510	0,086	-0,039
-402,482	224,236	-0,045	0,052
-401,467	-40,015	0,141	0,053
-400,452	-200,000	-0,009	-0,058
-399,438	412,777	0,036	0,055
-398,423	-59,963	-0,137	0,042
-397,409	197,449	0,078	-0,085
-396,394	-149,158	-0,095	0,005
-395,379	-148,064	0,049	0,003
-394,365	-71,597	0,052	-0,014
-393,350	70,440	-0,067	0,050
-392,336	581,156	-0,058	0,102
-391,321	109,928	0,091	0,079
-390,306	-200,000	-0,011	-0,119
-389,292	35,641	-0,121	-0,076
-388,277	800,000	-0,027	0,072
-387,263	245,502	0,069	0,084
-386,248	165,359	-0,079	0,080
-385,233	800,000	-0,041	0,123
-384,219	-200,000	0,006	-0,027
-383,204	100,386	0,034	-0,029
-382,190	121,488	-0,042	0,038
-381,175	43,784	-0,074	0,048
-380,160	16,691	0,016	-0,009
-379,146	-165,977	0,037	-0,001
-378,131	-200,000	-0,000	0,021
-377,117	194,502	0,132	0,144
-376,102	-41,540	0,067	-0,025
-375,088	6,919	-0,092	-0,049
-374,073	560,286	-0,032	-0,055
-373,058	151,964	-0,064	-0,063
-372,044	-200,000	-0,005	0,060
-371,029	-22,795	0,091	-0,039
-370,015	-200,000	-0,002	0,037
-369,000	-7,919	-0,178	-0,086
-367,985	44,945	0,062	-0,041
-366,971	-3,681	-0,049	-0,024
-365,956	-128,898	0,103	-0,010
-364,942	-50,736	0,025	0,008
-363,927	-200,000	0,004	-0,127
-362,912	-200,000	-0,001	-0,033
-361,898	-46,638	-0,100	0,035
-360,883	665,634	-0,063	-0,117
-359,869	-200,000	-0,027	0,101
-358,854	-159,647	0,048	-0,002
-357,839	-200,000	0,011	0,087
-356,825	-178,549	0,104	0,002
-355,810	574,011	0,055	-0,097
-354,796	349,106	-0,060	0,085
-353,781	-145,895	-0,099	0,006
-352,766	800,000	-0,013	-0,027
-351,752	72,821	0,099	0,074
-350,737	-41,778	0,113	0,041
-349,723	-44,792	-0,042	-0,015
-348,708	-200,000	-0,015	0,181
-347,693	17,111	0,016	0,009
-346,679	-80,089	0,073	0,017
-345,664	337,495	-0,134	-0,187
-344,650	511,213	0,018	0,030
-343,635	800,000	0,036	0,093
-342,620	171,862	-0,053	0,054
-341,606	115,946	-0,052	0,046
-340,591	-173,038	0,112	-0,002
-339,577	-64,276	-0,142	0,041
-338,562	800,000	0,027	-0,078
-337,548	-136,750	-0,239	-0,019
-336,533	335,603	-0,037	-0,052
-335,518	304,322	0,016	0,021
-334,504	92,187	0,161	0,130
-333,489	-111,370	-0,023	0,003
-332,475	127,377	-0,145	-0,132
-331,460	-109,368	-0,117	-0,018
-330,445	192,829	0,085	0,092
-329,431	-161,565	0,136	0,005
-328,416	-73,903	0,052	-0,013
-327,402	-200,000	0,014	0,101
-326,387	-15,818	0,021	0,010
-325,372	318,697	0,052	-0,071
-324,358	286,696	-0,027	-0,034
-323,343	-168,085	0,077	0,002
-322,329	-80,564	-0,142	0,034
-321,314	13,627	-0,075	0,042
-320,299	272,084	-0,016	0,021
-319,285	560,041	-0,027	-0,048
-318,270	800,000	-0,053	-0,109
-317,256	800,000	-0,068	-0,168
-316,241	129,394	0,047	0,043
-315,226	-108,393	-0,062	-0,009
-314,212	-10,912	0,110	0,052
-313,197	-126,341	0,161	0,017
-312,183	10,641	-0,023	0,013
-311,168	756,213	-0,039	-0,075
-310,153	124,656	0,090	-0,081
-309,139	-107,926	-0,051	-0,008
-308,124	394,455	-0,066	-0,099
-307,110	-200,000	0,003	0,087
-306,095	-200,000	-0,021	-0,095
-305,080	-200,000	-0,018	0,088
-304,066	-188,290	-0,069	0,001
-303,051	-200,000	0,045	-0,214
-302,037	79,122	0,061	-0,047
-301,022	339,910	-0,018	-0,025
-300,008	-200,000	0,004	-0,071
-298,993	69,841	-0,159	0,117
-297,978	49,454	-0,084	-0,057
-296,964	206,495	-0,065	0,072
-295,949	800,000	0,050	-0,112
-294,935	90,754	0,036	-0,029
-293,920	173,757	-0,060	-0,062
-292,905	213,773	0,061	0,069
-291,891	-200,000	-0,029	0,102
-290,876	-200,000	0,009	0,075
-289,862	-200,000	-0,000	-0,017
-288,847	800,000	0,019	-0,050
-287,832	800,000	0,037	0,083
-286,818	800,000	-0,019	-0,061
-285,803	-200,000	-0,007	0,055
-284,789	-19,143	0,104	0,046
-283,774	338,160	-0,036	0,050
-282,759	-200,000	-0,014	0,088
-281,745	92,182	0,058	0,046
-280,730	-60,195	0,071	-0,022
-279,716	616,338	0,060	-0,107
-278,701	318,569	0,034	-0,046
-277,686	800,000	-0,040	0,117
-276,672	800,000	-0,020	0,053
-275,657	-200,000	-0,009	0,096
-274,643	-200,000	-0,002	0,035
-273,628	157,959	0,020	0,020
-272,613	-200,000	-0,034	-0,143
-271,599	800,000	-0,022	-0,052
-270,584	-183,178	0,084	0,001
-269,570	-87,950	0,133	0,028
-268,555	295,685	-0,053	0,069
-267,540	19,135	0,021	0,012
-266,526	84,718	-0,052	0,040
-265,511	-200,000	0,007	-0,043
-264,497	-134,067	-0,128	0,011
-263,482	-25,630	0,076	-0,032
-262,467	-69,084	0,097	-0,027
-261,453	-200,000	-0,009	-0,097
-260,438	-200,000	-0,007	0,045
-259,424	728,412	0,013	-0,024
-258,409	800,000	-0,050	-0,138
-257,395	-200,000	0,006	-0,036
-256,380	-200,000	0,022	0,141
-255,365	-11,173	0,122	0,058
-254,351	-183,377	0,110	-0,001
-253,336	-67,609	-0,143	0,040
-252,322	-200,000	0,005	-0,074
-251,307	793,610	0,027	-0,053
-250,292	-154,201	0,167	0,008
-249,278	-120,862	-0,041	-0,005
-248,263	122,071	0,141	0,126
-247,249	-78,978	-0,065	-0,016
-246,234	270,361	0,029	0,036
-245,219	66,230	-0,032	0,023
-244,205	171,985	-0,095	-0,098
-243,190	-165,775	0,024	0,001
-242,176	-37,378	0,095	0,036
-241,161	800,000	-0,053	0,122
-240,146	189,557	0,121	0,130
-239,132	242,395	0,073	0,088
-238,117	-166,819	0,058	-0,002
-237,103	-116,705	-0,099	0,013
-236,088	-52,818	0,075	-0,025
-235,073	-58,088	0,110	-0,034
-234,059	342,731	0,038	0,053
-233,044	800,000	-0,062	0,149
-232,030	469,929	0,035	0,056
-231,015	-74,071	-0,114	0,029
-230,000	-200,000	0,014	0,064
-228,986	-200,000	-0,002	-0,093
-227,971	-12,662	0,113	0,053
-226,957	800,000	-0,072	0,154
-225,942	800,000	-0,053	0,162
-224,927	-200,000	0,027	0,105
-223,913	191,843	-0,096	0,103
-222,898	-96,384	0,031	-0,006
-221,884	-107,924	-0,058	0,009
-220,869	800,000	0,052	0,130
-219,855	-200,000	-0,002	0,199
-218,840	-158,259	0,085	-0,003
-217,825	30,226	0,063	0,038
-216,811	800,000	-0,007	-0,015
-215,796	571,019	-0,031	-0,054
-214,782	-170,662	0,177	0,004
-213,767	302,862	0,064	0,085
-212,752	-104,729	0,069	0,011
-211,738	25,922	0,031	-0,019
-210,723	-4,761	-0,078	-0,038
-209,709	-200,000	-0,013	-0,056
-208,694	-200,000	0,019	0,065
-207,679	-70,019	-0,088	-0,024
-206,665	232,803	-0,015	-0,018
-205,650	2,762	0,056	0,029
-204,636	-200,000	-0,013	0,096
-203,621	-200,000	-0,003	-0,068
-202,606	-14,848	-0,076	-0,034
-201,592	-9,766	-0,044	-0,021
-200,577	800,000	-0,028	0,062
-199,563	-106,266	-0,100	0,016
-198,548	-200,000	-0,004	0,039
-197,533	-200,000	-0,004	0,062
-196,519	-200,000	0,025	0,089
-195,504	-67,058	0,045	0,012
-194,490	-166,084	-0,067	-0,002
-193,475	171,544	-0,081	-0,083
-192,460	651,901	-0,042	-0,077
-191,446	-65,636	0,069	0,020
-190,431	82,680	0,071	-0,055
-189,417	-200,000	0,006	0,050
-188,402	-45,162	-0,065	0,023
-187,387	800,000	0,031	-0,083
-186,373	-200,000	0,003	-0,095
-185,358	-200,000	0,023	-0,076
-184,344	42,089	-0,011	0,007
-183,329	160,369	-0,020	0,020
-182,315	283,188	0,047	0,060
-181,300	119,777	0,072	0,063
-180,285	-200,000	0,011	-0,058
-179,271	800,000	0,014	-0,030
-178,256	-2,499	0,055	-0,028
-177,242	-112,574	0,114	-0,016
-176,227	157,808	-0,053	-0,053
-175,212	107,538	-0,096	0,081
-174,198	101,360	-0,029	0,024
-173,183	-200,000	-0,015	0,062
-172,169	22,486	-0,138	0,081
-171,154	-189,195	0,110	-0,001
-170,139	-138,415	0,060	-0,005
-169,125	800,000	0,017	0,047
-168,110	696,798	0,096	0,181
-167,096	610,051	-0,072	0,130
-166,081	-75,560	-0,041	-0,010
-165,066	-200,000	0,018	0,064
-164,052	78,763	-0,086	-0,066
-163,037	-36,056	0,064	0,025
-162,023	112,954	-0,131	0,113
-161,008	-106,809	-0,063	0,010
-159,993	140,449	-0,045	0,042
-158,979	-162,945	-0,120	0,004
-157,964	-200,000	-0,003	-0,140
-156,950	-200,000	-0,023	0,088
-155,935	-200,000	-0,018	0,061
-154,920	28,433	0,078	0,047
-153,906	-200,000	0,074	0,235
-152,891	-39,488	-0,034	-0,013
-151,877	800,000	0,023	-0,061
-150,862	121,760	-0,046	-0,041
-149,847	-61,265	-0,049	-0,015
-148,833	-200,000	-0,016	0,127
-147,818	800,000	-0,033	0,075
-146,804	-145,046	0,065	0,004
-145,789	-69,361	0,045	0,012
-144,775	-136,020	0,026	0,002
-143,760	-200,000	-0,004	0,129
-142,745	177,256	-0,069	0,072
-141,731	-126,180	-0,081	0,008
-140,716	57,300	0,052	0,036
-139,702	-200,000	-0,006	-0,056
-138,687	-200,000	0,012	0,089
-137,672	10,566	-0,050	-0,027
-136,658	-200,000	-0,015	-0,098
-135,643	-108,885	-0,074	0,011
-134,629	278,220	-0,051	0,064
-133,614	800,000	0,037	0,084
-132,599	-200,000	0,035	0,119
-131,585	-155,113	-0,043	-0,002
-130,570	-7,538	-0,079	-0,038
-129,556	-200,000	-0,026	0,136
-128,541	-95,129	-0,063	-0,012
-127,526	-200,000	0,024	0,085
-126,512	139,423	0,048	0,045
-125,497	436,136	-0,040	0,062
-124,483	71,050	0,065	-0,048
-123,468	-49,148	-0,044	-0,015
-122,453	800,000	-0,023	0,050
-121,439	800,000	-0,042	-0,095
-120,424	-200,000	0,016	-0,098
-119,410	-66,496	-0,097	0,027
-118,395	173,025	-0,021	-0,021
-117,380	-63,670	-0,175	-0,051
-116,366	3,647	0,142	0,073
-115,351	-57,025	-0,092	-0,029
-114,337	-200,000	-0,011	-0,147
-113,322	-200,000	-0,005	0,234
-112,307	667,732	0,046	0,084
-111,293	139,886	0,167	0,156
-110,278	282,247	-0,100	0,128
-109,264	-130,457	0,009	-0,001
-108,249	68,228	0,037	-0,027
-107,234	-11,311	0,134	-0,063
-106,220	96,466	0,075	-0,061
-105,205	142,667	-0,072	-0,068
-104,191	253,229	-0,033	-0,040
-103,176	-134,490	0,034	-0,003
-102,162	-8,406	-0,071	0,034
-101,147	162,521	-0,129	0,129
-100,132	-17,603	-0,100	0,045
-99,118	800,000	0,071	0,148
-98,103	-40,090	0,070	-0,026
-97,089	136,820	-0,045	-0,042
-96,074	800,000	-0,008	-0,019
-95,059	3,551	-0,066	0,034
-94,045	353,627	-0,075	-0,106
-93,030	448,594	0,018	0,029
-92,016	158,115	-0,054	-0,054
-91,001	73,846	-0,089	0,066
-89,986	-82,882	0,070	0,016
-88,972	99,607	0,085	0,070
-87,957	311,420	-0,034	0,046
-86,943	800,000	0,019	0,058
-85,928	-91,700	-0,181	-0,036
-84,913	800,000	-0,050	-0,105
-83,899	-9,058	-0,062	0,029
-82,884	-105,499	0,044	-0,007
-81,870	800,000	0,067	0,138
-80,855	19,981	-0,048	-0,028
-79,840	112,338	-0,035	-0,030
-78,826	236,426	0,071	-0,083
-77,811	-200,000	0,002	0,060
-76,797	-105,892	-0,102	-0,016
-75,782	-200,000	-0,001	-0,079
-74,767	107,600	0,065	-0,055
-73,753	-114,124	0,023	0,003
-72,738	-175,894	0,015	0,000
-71,724	800,000	-0,042	-0,107
-70,709	800,000	-0,014	0,028
-69,694	-78,157	0,151	-0,037
-68,680	409,250	0,060	0,091
-67,665	-43,687	0,028	-0,010
-66,651	11,788	0,070	-0,038
-65,636	800,000	0,076	0,201
-64,622	177,677	-0,146	-0,151
-63,607	113,466	-0,062	-0,053
-62,592	494,366	0,039	-0,064
-61,578	-20,041	-0,076	0,033
-60,563	486,213	0,086	-0,139
-59,549	15,864	0,076	-0,042
-58,534	-94,787	-1,440	-0,275
-57,519	418,149	-1,454	-2,214
-56,505	-200,000	-0,575	-4,460
-55,490	151,317	0,833	0,805
-54,476	800,000	4,747	11,285
-53,461	-200,000	17,710	282,417
-52,446	800,000	720,333	2228,381
-51,432	564,907	1635,185	2823,471
-50,417	81,070	1658,985	1269,675
-49,403	23,835	1532,750	894,033
-48,388	17,798	1456,147	820,206
-47,373	18,323	1445,506	816,700
-46,359	17,891	1436,477	809,506
-45,344	16,056	1431,743	798,070
-44,330	16,003	1429,775	796,689
-43,315	15,997	1428,213	795,759
-42,300	15,997	1426,598	794,829
-41,286	16,117	1425,250	794,616
-40,271	16,051	1423,949	793,544
-39,257	16,055	1422,600	792,783
-38,242	16,056	1421,392	792,081
-37,227	16,082	1419,973	791,382
-36,213	16,083	1418,773	790,688
-35,198	16,053	1417,744	789,940
-34,184	16,097	1416,690	789,528
-33,169	15,998	1415,571	788,410
-32,154	16,030	1414,573	787,973
-31,140	16,075	1413,153	787,363
-30,125	16,106	1411,981	786,823
-29,111	16,105	1410,855	786,159
-28,096	16,032	1409,726	785,155
-27,082	15,954	1408,991	784,349
-26,067	16,008	1407,435	783,708
-25,052	15,981	1406,525	783,042
-24,038	15,927	1405,618	782,253
-23,023	15,943	1404,621	781,744
-22,009	15,973	1403,588	781,276
-20,994	15,957	1402,512	780,571
-19,979	15,916	1401,761	779,932
-18,965	15,932	1400,651	779,358
-17,950	15,947	1399,694	778,864
-16,936	15,929	1398,797	778,252
-15,921	15,877	1397,495	777,253
-14,906	15,895	1396,522	776,767
-13,892	15,910	1395,696	776,346
-12,877	15,915	1394,713	775,788
-11,863	15,868	1393,789	775,029
-10,848	15,889	1392,744	774,513
-9,833	15,861	1391,961	773,919
-8,819	15,836	1391,028	773,253
-7,804	15,802	1389,865	772,419
-6,790	15,773	1389,032	771,790
-5,775	15,784	1388,052	771,268
-4,760	15,761	1387,237	770,678
-3,746	15,789	1386,310	770,260
-2,731	15,796	1385,737	769,945
-1,717	15,786	1384,758	769,323
-0,702	15,748	1382,893	768,083
0,313	19,475	1303,611	741,277
1,327	35,887	706,668	439,902
2,342	54,772	125,245	85,558
3,356	4,441	16,601	8,605
4,371	-0,135	3,190	1,604
5,386	-39,940	0,666	0,245
6,400	-84,930	0,103	0,023
7,415	55,450	-0,211	-0,144
8,429	44,181	-0,232	-0,150
9,444	-2,492	-0,389	-0,193
10,459	343,091	-0,155	-0,216
11,473	-87,340	-0,226	-0,048
12,488	92,116	-0,124	-0,099
13,502	115,763	-0,275	-0,238
14,517	0,851	-0,420	-0,212
15,531	305,897	-0,286	-0,378
16,546	145,312	-0,304	-0,288
17,561	40,665	-0,414	-0,264
18,575	31,075	-0,229	-0,138
19,590	5,429	-0,344	-0,179
20,604	220,646	-0,143	-0,163
21,619	100,295	-0,372	-0,306
22,634	36,262	-0,526	-0,327
23,648	108,551	-0,505	-0,426
24,663	178,659	-0,365	-0,378
25,677	225,223	-0,270	-0,310
26,692	294,705	-0,298	-0,387
27,707	41,862	-0,459	-0,294
28,721	93,730	-0,413	-0,331
29,736	135,596	-0,384	-0,354
30,750	89,311	-0,359	-0,283
31,765	202,065	-0,385	-0,420
32,780	68,945	-0,396	-0,288
33,794	24,024	-0,348	-0,203
34,809	178,772	-0,367	-0,380
35,823	74,232	-0,400	-0,296
36,838	57,016	-0,388	-0,267
37,853	103,872	-0,374	-0,311
38,867	141,687	-0,282	-0,264
39,882	-0,066	-0,277	-0,139
40,896	7,317	-0,325	-0,171
41,911	54,925	-0,421	-0,286
42,926	197,359	-0,276	-0,298
43,940	59,376	-0,252	-0,175
44,955	-36,584	-0,399	-0,151
45,969	29,471	-0,475	-0,285
46,984	19,228	-0,421	-0,238
47,999	154,225	-0,278	-0,269
49,013	-32,515	-0,328	-0,128
50,028	129,524	-0,342	-0,308
51,042	64,643	-0,335	-0,239
52,057	738,462	-0,190	-0,361
53,071	158,564	-0,323	-0,317
54,086	187,069	-0,257	-0,271
55,101	17,618	-0,477	-0,267
56,115	101,686	-0,298	-0,245
57,130	-40,245	-0,430	-0,157
58,144	-50,405	-0,468	-0,155
59,159	409,263	-0,249	-0,373
60,174	95,209	-0,379	-0,305
61,188	148,794	-0,233	-0,222
62,203	4,781	-0,197	-0,102
63,217	83,035	-0,343	-0,263
64,232	185,386	-0,239	-0,250
65,247	110,900	-0,360	-0,305
66,261	-14,079	-0,397	-0,180
67,276	41,710	-0,413	-0,263
68,290	65,198	-0,318	-0,226
69,305	116,433	-0,372	-0,321
70,320	30,204	-0,404	-0,243
71,334	84,493	-0,295	-0,227
72,349	74,455	-0,376	-0,278
73,363	96,849	-0,271	-0,219
74,378	34,727	-0,416	-0,256
75,393	-28,224	-0,349	-0,141
76,407	-98,890	-0,329	-0,058
77,422	-77,026	-0,325	-0,079
78,436	-31,610	-0,179	-0,070
79,451	-24,510	-0,278	-0,116
80,466	-10,983	-0,244	-0,113
81,480	94,598	-0,200	-0,160
82,495	20,186	-0,414	-0,235
83,509	191,820	-0,259	-0,275
84,524	-17,051	-0,255	-0,113
85,539	33,620	-0,230	-0,140
86,553	133,513	-0,213	-0,194
87,568	-36,922	-0,328	-0,123
88,582	141,956	-0,311	-0,290
89,597	199,961	-0,364	-0,394
90,611	317,522	-0,207	-0,276
91,626	36,406	-0,277	-0,171
92,641	202,026	-0,168	-0,183
93,655	92,042	-0,171	-0,136
94,670	42,754	-0,401	-0,256
95,684	111,573	-0,309	-0,262
96,699	70,869	-0,280	-0,204
97,714	-2,949	-0,232	-0,113
98,728	-83,855	-0,230	-0,051
99,743	69,448	-0,266	-0,192
100,757	-16,508	-0,372	-0,165
101,772	100,662	-0,178	-0,145
102,787	652,583	-0,199	-0,360
103,801	51,953	-0,345	-0,230
104,816	800,000	-0,135	-0,292
105,830	83,813	-0,317	-0,243
106,845	-22,356	-0,302	-0,128
107,860	64,613	-0,195	-0,138
108,874	83,894	-0,301	-0,231
109,889	193,221	-0,233	-0,247
110,903	-19,412	-0,368	-0,160
111,918	252,557	-0,226	-0,271
112,933	19,834	-0,332	-0,187
113,947	-25,072	-0,314	-0,130
114,962	-144,891	-0,269	-0,017
115,976	96,308	-0,246	-0,198
116,991	115,936	-0,229	-0,196
118,006	82,159	-0,217	-0,165
119,020	488,135	-0,093	-0,149
120,035	222,776	-0,254	-0,287
121,049	82,186	-0,094	-0,071
122,064	-33,894	-0,375	-0,144
123,079	144,214	-0,229	-0,215
124,093	79,224	-0,222	-0,166
125,108	28,542	-0,272	-0,161
126,122	106,743	-0,220	-0,183
127,137	-7,527	-0,274	-0,130
128,151	36,815	-0,317	-0,196
129,166	113,002	-0,256	-0,218
130,181	111,067	-0,204	-0,172
131,195	-33,067	-0,218	-0,084
132,210	0,101	-0,287	-0,143
133,224	87,873	-0,213	-0,165
134,239	5,289	-0,243	-0,125
135,254	84,304	-0,190	-0,145
136,268	1,817	-0,285	-0,144
137,283	-0,937	-0,281	-0,139
138,297	401,024	-0,214	-0,316
139,312	139,198	-0,271	-0,250
140,327	105,658	-0,275	-0,228
141,341	-20,071	-0,320	-0,137
142,356	106,032	-0,255	-0,212
143,370	-169,181	-0,262	0,007
144,385	-99,284	-0,257	-0,045
145,400	84,012	-0,286	-0,219
146,414	-65,202	-0,347	-0,097
147,429	114,181	-0,250	-0,213
148,443	-161,004	-0,236	0,008
149,458	29,760	-0,207	-0,123
150,473	87,072	-0,144	-0,111
151,487	-84,636	-0,232	0,051
152,502	-4,277	-0,306	-0,148
153,516	394,339	-0,160	-0,234
154,531	-88,471	-0,234	-0,048
155,546	192,403	-0,249	-0,263
156,560	29,004	-0,151	-0,089
157,575	800,000	-0,091	-0,214
158,589	-9,627	-0,291	-0,135
159,604	-15,770	-0,271	-0,120
160,619	67,254	-0,293	-0,209
161,633	204,354	-0,262	-0,285
162,648	167,792	-0,107	-0,107
163,662	67,338	-0,198	-0,141
164,677	272,911	-0,165	-0,204
165,692	59,486	-0,283	-0,194
166,706	-176,839	-0,252	-0,004
167,721	65,846	-0,203	-0,143
168,735	464,436	-0,121	-0,190
169,750	146,126	-0,279	-0,261
170,764	-57,155	-0,257	-0,079
171,779	-83,816	-0,173	-0,038
172,794	200,368	-0,190	-0,204
173,808	-131,973	-0,225	-0,020
174,823	-36,787	-0,120	-0,045
175,837	-58,114	-0,279	-0,084
176,852	255,814	-0,143	-0,172
177,867	545,912	-0,122	-0,205
178,881	-50,963	-0,357	-0,116
179,896	134,020	-0,128	-0,116
180,910	-9,976	-0,193	-0,089
181,925	-44,108	-0,285	-0,099
182,940	98,025	-0,291	-0,233
183,954	8,916	-0,197	-0,103
184,969	224,135	-0,208	-0,234
185,983	37,328	-0,117	-0,072
186,998	-4,422	-0,221	-0,106
188,013	61,509	-0,234	-0,162
189,027	14,269	-0,241	-0,131
190,042	157,047	-0,200	-0,193
191,056	-24,717	-0,248	-0,102
192,071	-156,953	-0,328	-0,014
193,086	181,209	-0,162	-0,166
194,100	-24,032	-0,086	-0,036
195,115	295,177	-0,116	-0,148
196,129	63,820	-0,291	-0,204
197,144	800,000	-0,094	-0,218
198,159	183,553	-0,181	-0,187
199,173	136,003	-0,138	-0,126
200,188	434,002	-0,159	-0,242
201,202	196,173	-0,142	-0,150
202,217	52,249	-0,255	-0,169
203,232	530,400	-0,115	-0,189
204,246	97,871	-0,156	-0,125
205,261	29,885	-0,300	-0,178
206,275	279,138	-0,194	-0,242
207,290	377,291	-0,048	-0,069
208,304	-10,166	-0,178	-0,082
209,319	160,427	-0,156	-0,152
210,334	49,020	-0,199	-0,130
211,348	83,706	-0,167	-0,127
212,363	341,332	-0,184	-0,251
213,377	-4,365	-0,239	-0,114
214,392	-73,746	-0,125	0,031
215,407	54,301	-0,219	-0,146
216,421	100,131	-0,253	-0,204
217,436	-39,002	-0,192	-0,070
218,450	34,073	-0,243	-0,147
219,465	270,398	-0,155	-0,189
220,480	163,464	-0,107	-0,105
221,494	28,005	-0,162	-0,095
222,509	46,166	-0,163	-0,105
223,523	175,804	-0,159	-0,160
224,538	26,131	-0,207	-0,120
225,553	258,249	-0,223	-0,267
226,567	-37,794	-0,187	-0,069
227,582	94,530	-0,173	-0,137
228,596	39,104	-0,154	-0,095
229,611	-26,910	-0,281	-0,114
230,626	142,854	-0,162	-0,149
231,640	1,662	-0,204	-0,102
232,655	800,000	-0,074	-0,185
233,669	36,949	-0,287	-0,176
234,684	80,186	-0,173	-0,129
235,699	-200,000	0,006	0,071
236,713	19,637	-0,203	-0,113
237,728	20,646	-0,296	-0,166
238,742	159,082	-0,181	-0,174
239,757	75,799	-0,187	-0,137
240,772	181,274	-0,145	-0,148
241,786	-67,403	-0,180	-0,049
242,801	340,192	-0,106	-0,143
243,815	800,000	-0,107	-0,214
244,830	-200,000	-0,005	-0,035
245,844	-118,712	-0,129	0,016
246,859	19,770	-0,233	-0,130
247,874	-179,289	-0,132	-0,002
248,888	14,396	-0,317	-0,171
249,903	800,000	-0,108	-0,258
250,917	768,555	-0,084	-0,159
251,932	173,673	-0,182	-0,182
252,947	185,312	-0,153	-0,158
253,961	289,973	-0,125	-0,158
254,976	273,040	-0,167	-0,205
255,990	-99,353	-0,225	-0,039
257,005	24,143	-0,125	-0,071
258,020	-7,870	-0,147	-0,068
259,034	800,000	-0,101	-0,196
260,049	800,000	-0,137	-0,270
261,063	394,451	-0,151	-0,219
262,078	-14,410	-0,148	-0,066
263,093	637,686	-0,093	-0,165
264,107	800,000	-0,094	-0,185
265,122	-104,294	-0,133	0,021
266,136	-73,972	-0,241	-0,060
267,151	800,000	-0,078	-0,218
268,166	-15,199	-0,123	0,054
269,180	488,609	-0,209	-0,331
270,195	203,747	-0,069	-0,074
271,209	800,000	-0,064	-0,162
272,224	-87,121	-0,161	-0,034
273,239	541,644	-0,125	-0,207
274,253	-99,204	-0,068	0,012
275,268	-164,326	-0,176	0,005
276,282	33,999	-0,369	-0,222
277,297	190,681	-0,189	-0,197
278,312	313,123	-0,135	-0,176
279,326	13,243	-0,214	-0,115
280,341	103,528	-0,145	-0,118
281,355	36,070	-0,114	0,069
282,370	-55,681	-0,257	-0,079
283,384	6,203	-0,131	-0,067
284,399	58,937	-0,167	-0,114
285,414	-29,887	-0,236	-0,092
286,428	5,031	-0,172	-0,087
287,443	499,353	-0,132	-0,211
288,457	311,546	-0,118	-0,154
289,472	800,000	-0,104	-0,278
290,487	122,636	-0,214	-0,185
291,501	-47,180	0,075	-0,025
292,516	51,118	-0,028	-0,018
293,530	800,000	-0,036	-0,074
294,545	191,347	-0,108	-0,113
295,560	-84,207	-0,082	-0,018
296,574	-200,000	-0,006	-0,192
297,589	-27,616	-0,220	-0,088
298,603	197,378	-0,149	-0,157
299,618	285,166	-0,123	-0,153
300,633	-68,551	-0,163	-0,043
301,647	-114,486	-0,126	-0,017
302,662	-53,227	-0,186	-0,059
303,676	159,266	-0,219	-0,210
304,691	223,088	-0,174	-0,194
305,706	-38,877	-0,206	-0,074
306,720	570,968	-0,076	-0,128
307,735	132,635	-0,086	-0,076
308,749	7,125	-0,241	-0,124
309,764	165,445	-0,082	-0,080
310,779	402,601	-0,047	-0,068
311,793	800,000	-0,076	-0,184
312,808	60,505	-0,163	-0,111
313,822	257,508	-0,084	-0,100
314,837	260,803	-0,210	-0,251
315,852	800,000	-0,040	-0,080
316,866	41,057	-0,130	-0,081
317,881	-200,000	-0,059	-0,186
318,895	723,684	-0,027	-0,049
319,910	1,340	-0,176	-0,087
320,925	327,983	-0,112	-0,149
321,939	-28,625	-0,124	-0,049
322,954	244,789	-0,133	-0,154
323,968	95,730	-0,122	-0,096
324,983	213,669	-0,141	-0,154
325,997	-113,509	-0,228	-0,030
327,012	393,024	-0,087	-0,125
328,027	230,431	-0,174	-0,197
329,041	-41,750	-0,205	-0,072
330,056	346,193	-0,171	-0,232
331,070	800,000	-0,082	-0,162
332,085	800,000	-0,069	-0,149
333,100	67,945	-0,255	-0,179
334,114	454,873	-0,143	-0,220
335,129	146,915	-0,183	-0,169
336,143	3,119	-0,219	-0,109
337,158	107,656	-0,091	0,075
338,173	-62,725	-0,151	-0,043
339,187	23,123	-0,103	0,058
340,202	285,296	-0,139	-0,173
341,216	794,436	-0,071	-0,136
342,231	-160,627	-0,106	-0,004
343,246	-200,000	0,001	-0,086
344,260	-5,373	-0,106	-0,050
345,275	800,000	-0,025	-0,059
346,289	800,000	-0,053	-0,137
347,304	-170,855	-0,165	-0,004
348,319	127,509	-0,089	-0,078
349,333	-5,670	-0,155	-0,073
350,348	148,932	-0,115	-0,107
351,362	-50,896	-0,159	-0,051
352,377	155,003	-0,077	-0,073
353,392	800,000	0,025	-0,073
354,406	381,028	-0,099	-0,139
355,421	209,419	1312,787	1416,036
356,435	161,174	1473,315	1416,555
