DTS Sentinel unit serial number:	SN410029Multiplexer serial number:	ORYXHardware model number:	OX2-SRSoftware version number:	ORYX F/W v4,00 Oryx Data Collector v3.7.2.0data status	okinstallation	B3 Nyhavnadifferential loss correction	single-endedforward channel	channel 1reverse channel	N/Adate	2023/11/28time	19:52:30forward acquisition time	300,00reverse acquisition time	0,00gamma	499,1914k internal	0,3209k external	0,3209temperature offset calibration	1,0000default loss term (dB/km)	0,3820temperature slope calibration	1,0000multiplexer offset coefficient	1,0000multiplexer slope coefficient	1,0000fibre end	0,00T internal ref (°C)	7,75T ext. ref 1 (°C)	-6,92T ext. ref 2 (°C)	-7,06length (m)	temperature (°C)	Stokes	anti-Stokes-744,400	800,000	-0,177	-0,374
-743,385	-200,000	-0,039	0,174
-742,371	-200,000	-0,001	-0,079
-741,356	800,000	-0,086	0,269
-740,342	556,703	-0,162	-0,284
-739,327	-200,000	0,023	0,294
-738,312	800,000	-0,089	-0,251
-737,298	65,351	-0,200	0,147
-736,283	222,328	-0,188	-0,220
-735,269	-200,000	-0,025	0,281
-734,254	20,401	-0,101	-0,059
-733,239	20,317	-0,257	0,150
-732,225	119,797	-0,125	-0,113
-731,210	800,000	0,084	0,255
-730,196	79,110	0,050	-0,039
-729,181	134,079	-0,069	0,065
-728,167	59,709	-0,053	0,038
-727,152	517,315	0,081	-0,138
-726,137	-200,000	0,018	-0,192
-725,123	-32,753	-0,172	-0,069
-724,108	149,842	-0,075	-0,074
-723,094	-87,695	0,087	-0,019
-722,079	-136,629	-0,112	-0,009
-721,064	-200,000	0,012	-0,063
-720,050	184,481	-0,018	0,019
-719,035	64,548	0,128	-0,093
-718,021	-101,857	-0,068	-0,012
-717,006	137,153	-0,210	-0,199
-715,991	-73,420	-0,179	-0,047
-714,977	85,413	-0,025	0,020
-713,962	-200,000	0,021	0,069
-712,948	-200,000	0,021	-0,138
-711,933	-200,000	0,003	0,041
-710,918	-84,547	0,099	-0,022
-709,904	-43,415	-0,131	-0,048
-708,889	160,258	-0,031	0,031
-707,875	274,424	-0,115	0,148
-706,860	20,437	0,053	0,031
-705,845	800,000	0,039	0,109
-704,831	27,468	-0,069	0,042
-703,816	-102,274	0,049	-0,008
-702,802	550,558	0,058	-0,102
-701,787	-163,677	-0,150	-0,005
-700,772	800,000	0,032	0,069
-699,758	131,843	0,068	0,063
-698,743	-155,127	0,162	0,008
-697,729	163,688	-0,051	0,052
-696,714	477,485	-0,028	0,046
-695,699	13,300	0,101	-0,057
-694,685	73,574	-0,083	-0,063
-693,670	645,831	-0,063	-0,117
-692,656	-200,000	-0,015	-0,077
-691,641	-200,000	0,015	-0,176
-690,627	232,910	0,042	0,050
-689,612	56,735	-0,059	-0,041
-688,597	26,930	-0,123	0,074
-687,583	-200,000	-0,029	-0,149
-686,568	35,360	0,050	-0,032
-685,554	43,018	-0,160	0,105
-684,539	-135,466	0,090	-0,008
-683,524	51,924	-0,039	0,027
-682,510	800,000	-0,020	-0,042
-681,495	44,297	-0,100	0,066
-680,481	-200,000	-0,025	0,113
-679,466	-100,553	-0,081	-0,014
-678,451	-58,032	-0,135	0,043
-677,437	800,000	0,076	0,157
-676,422	-29,897	0,078	0,032
-675,408	-159,076	-0,154	0,006
-674,393	800,000	0,018	-0,043
-673,378	-9,953	-0,084	0,040
-672,364	-62,096	-0,071	-0,021
-671,349	25,377	-0,110	0,066
-670,335	-200,000	-0,021	-0,070
-669,320	-200,000	0,003	-0,125
-668,305	-137,435	0,178	-0,014
-667,291	800,000	0,035	-0,071
-666,276	533,237	-0,063	-0,108
-665,262	800,000	-0,022	-0,063
-664,247	-200,000	-0,012	0,143
-663,232	795,305	-0,034	-0,068
-662,218	-200,000	0,009	-0,028
-661,203	-0,544	0,103	-0,053
-660,189	-200,000	-0,012	-0,067
-659,174	496,160	0,064	0,106
-658,159	354,291	-0,146	-0,211
-657,145	-200,000	0,003	-0,142
-656,130	223,206	-0,069	-0,081
-655,116	-19,917	-0,048	-0,021
-654,101	-94,153	0,023	0,005
-653,086	-200,000	0,002	0,115
-652,072	-200,000	-0,022	0,118
-651,057	-18,730	-0,034	0,015
-650,043	62,107	-0,012	-0,009
-649,028	115,608	-0,071	0,063
-648,014	189,386	-0,042	0,046
-646,999	800,000	0,011	0,030
-645,984	132,230	-0,100	0,094
-644,970	-200,000	-0,006	-0,032
-643,955	-200,000	-0,035	-0,205
-642,941	-84,785	-0,161	-0,036
-641,926	-61,531	0,104	-0,031
-640,911	38,818	-0,071	-0,046
-639,897	367,126	0,045	-0,066
-638,882	42,446	-0,070	0,046
-637,868	-200,000	0,006	-0,095
-636,853	321,075	-0,096	-0,132
-635,838	11,607	-0,074	-0,041
-634,824	49,599	0,033	-0,023
-633,809	800,000	0,027	0,073
-632,795	800,000	0,048	0,100
-631,780	194,211	0,051	-0,056
-630,765	333,831	0,043	0,061
-629,751	-66,894	-0,091	0,026
-628,736	-17,181	0,105	-0,047
-627,722	17,984	-0,012	0,007
-626,707	-105,305	-0,059	0,010
-625,692	-79,383	-0,077	-0,019
-624,678	-93,155	-0,044	0,009
-623,663	207,271	0,044	-0,049
-622,649	-200,000	-0,043	0,138
-621,634	-6,930	0,122	0,059
-620,619	-11,011	0,092	-0,044
-619,605	-138,334	0,093	0,007
-618,590	-108,358	0,090	-0,014
-617,576	-63,793	-0,075	-0,022
-616,561	-200,000	-0,008	0,059
-615,546	-52,390	-0,084	-0,028
-614,532	617,086	-0,055	-0,101
-613,517	800,000	-0,017	-0,037
-612,503	439,395	0,004	0,006
-611,488	332,775	0,013	-0,018
-610,474	69,641	0,097	-0,072
-609,459	216,718	-0,151	0,174
-608,444	14,298	-0,029	-0,016
-607,430	218,492	-0,086	-0,099
-606,415	-128,041	0,058	-0,006
-605,401	38,974	0,086	-0,056
-604,386	-200,000	0,056	0,216
-603,371	-200,000	0,005	0,139
-602,357	800,000	-0,058	0,153
-601,342	717,543	0,029	0,056
-600,328	241,149	-0,076	0,092
-599,313	-80,900	0,108	-0,026
-598,298	-2,859	-0,157	-0,079
-597,284	-200,000	0,029	0,096
-596,269	-200,000	-0,012	0,101
-595,255	688,281	0,061	0,115
-594,240	23,166	-0,069	-0,041
-593,225	-11,265	0,042	-0,020
-592,211	-3,750	-0,010	0,005
-591,196	-121,061	0,104	0,012
-590,182	12,529	-0,081	0,045
-589,167	269,520	0,060	0,076
-588,152	425,865	0,049	0,076
-587,138	800,000	-0,026	0,063
-586,123	126,368	-0,187	-0,171
-585,109	-200,000	-0,064	-0,266
-584,094	-200,000	-0,008	-0,079
-583,079	-7,509	-0,047	0,023
-582,065	-200,000	-0,037	0,119
-581,050	-103,500	-0,102	0,017
-580,036	800,000	-0,014	-0,033
-579,021	-110,517	-0,042	-0,006
-578,006	416,974	-0,012	-0,019
-576,992	129,128	0,069	-0,064
-575,977	361,760	0,017	0,025
-574,963	-200,000	0,007	0,064
-573,948	-29,921	-0,106	-0,043
-572,934	142,824	-0,037	-0,035
-571,919	139,615	0,020	0,019
-570,904	-200,000	0,008	0,069
-569,890	336,314	-0,036	-0,051
-568,875	-0,808	0,055	-0,028
-567,861	-42,893	0,227	0,083
-566,846	717,575	-0,046	0,089
-565,831	-200,000	0,004	0,051
-564,817	800,000	0,042	0,084
-563,802	116,459	-0,057	-0,050
-562,788	105,850	-0,080	-0,069
-561,773	358,625	0,026	0,037
-560,758	-200,000	0,003	-0,116
-559,744	523,707	-0,030	0,052
-558,729	-18,579	0,033	-0,015
-557,715	-200,000	0,037	0,173
-556,700	272,573	-0,090	0,115
-555,685	334,743	0,058	-0,081
-554,671	74,560	0,088	-0,066
-553,656	125,822	-0,137	0,125
-552,642	-140,703	0,121	-0,009
-551,627	318,732	-0,019	0,026
-550,612	-200,000	-0,016	-0,072
-549,598	-200,000	-0,034	0,113
-548,583	-200,000	0,025	-0,103
-547,569	399,799	0,073	0,111
-546,554	216,128	-0,079	0,091
-545,539	-200,000	-0,003	0,094
-544,525	-200,000	-0,028	-0,115
-543,510	605,231	0,046	-0,082
-542,496	-116,151	-0,099	0,013
-541,481	-127,904	-0,070	0,007
-540,466	-200,000	0,039	0,143
-539,452	-200,000	-0,013	0,085
-538,437	190,602	0,061	0,066
-537,423	11,826	-0,096	-0,053
-536,408	-200,000	0,006	0,028
-535,393	17,894	0,053	-0,030
-534,379	-91,788	-0,116	0,024
-533,364	121,241	0,052	0,047
-532,350	-200,000	0,007	-0,100
-531,335	-61,362	-0,118	0,036
-530,321	270,487	0,046	0,059
-529,306	503,183	-0,048	-0,080
-528,291	543,804	-0,027	-0,046
-527,277	-54,256	0,074	0,024
-526,262	9,914	0,131	0,071
-525,248	217,413	0,107	-0,123
-524,233	27,260	-0,061	0,037
-523,218	800,000	-0,016	-0,039
-522,204	-200,000	-0,023	0,127
-521,189	-8,383	-0,051	-0,024
-520,175	-200,000	-0,028	-0,184
-519,160	800,000	0,056	-0,132
-518,145	-44,946	0,031	0,011
-517,131	-134,618	0,137	0,012
-516,116	500,165	0,071	0,118
-515,102	-200,000	-0,014	0,086
-514,087	690,948	-0,086	0,163
-513,072	49,249	-0,111	-0,075
-512,058	18,715	0,018	0,010
-511,043	744,382	-0,059	0,114
-510,029	800,000	-0,008	0,024
-509,014	450,113	-0,048	0,076
-507,999	-14,051	-0,084	0,039
-506,985	-200,000	0,002	-0,054
-505,970	103,867	-0,056	-0,047
-504,956	-118,283	0,082	-0,010
-503,941	83,925	0,032	-0,025
-502,926	-200,000	0,009	0,077
-501,912	800,000	0,025	0,056
-500,897	-200,000	0,027	-0,153
-499,883	-160,504	0,139	0,005
-498,868	-160,275	-0,109	-0,004
-497,853	104,432	-0,113	-0,095
-496,839	399,940	0,067	0,102
-495,824	25,215	0,121	0,072
-494,810	800,000	0,046	0,139
-493,795	-200,000	-0,029	-0,137
-492,781	-200,000	0,031	-0,141
-491,766	-78,899	0,054	-0,013
-490,751	-109,998	-0,167	0,025
-489,737	304,982	-0,050	-0,067
-488,722	800,000	-0,035	0,091
-487,708	-200,000	-0,008	0,114
-486,693	-95,964	0,084	0,016
-485,678	-138,899	-0,031	-0,002
-484,664	-200,000	-0,051	0,000
-483,649	246,637	0,047	0,057
-482,635	-200,000	0,013	-0,146
-481,620	-127,275	0,073	0,008
-480,605	719,409	0,074	0,142
-479,591	-92,939	-0,050	-0,010
-478,576	49,776	-0,049	0,033
-477,562	399,246	-0,085	-0,128
-476,547	85,743	0,056	-0,045
-475,532	-146,436	0,123	-0,008
-474,518	754,761	-0,065	0,126
-473,503	-200,000	0,033	0,160
-472,489	800,000	-0,019	-0,057
-471,474	263,943	0,014	-0,017
-470,459	-114,372	0,075	-0,010
-469,445	-200,000	-0,009	0,063
-468,430	-200,000	-0,002	-0,083
-467,416	-200,000	0,015	0,080
-466,401	-159,197	0,132	-0,005
-465,386	58,241	-0,011	0,008
-464,372	-38,165	-0,049	0,019
-463,357	-200,000	-0,013	-0,082
-462,343	726,378	-0,064	-0,122
-461,328	-200,000	-0,022	-0,088
-460,313	-21,252	-0,078	-0,034
-459,299	147,380	0,069	-0,066
-458,284	800,000	0,026	-0,070
-457,270	137,771	-0,120	0,113
-456,255	800,000	-0,052	-0,122
-455,241	-26,870	-0,130	-0,054
-454,226	341,034	0,025	-0,036
-453,211	4,333	0,090	-0,047
-452,197	329,144	0,027	0,037
-451,182	800,000	0,021	0,046
-450,168	336,557	0,021	0,030
-449,153	-200,000	0,012	0,079
-448,138	-200,000	0,001	-0,086
-447,124	-116,564	-0,163	0,021
-446,109	-200,000	-0,004	-0,033
-445,095	-180,870	0,223	-0,003
-444,080	800,000	-0,033	0,075
-443,065	59,208	0,164	0,116
-442,051	-11,540	-0,139	-0,065
-441,036	-200,000	0,004	0,018
-440,022	-128,784	-0,172	-0,017
-439,007	42,777	0,106	-0,069
-437,992	-142,759	0,217	-0,015
-436,978	197,787	-0,039	0,043
-435,963	592,707	0,111	0,197
-434,949	-117,015	-0,080	-0,010
-433,934	-55,696	-0,063	0,020
-432,919	38,678	-0,099	-0,064
-431,905	-200,000	0,024	0,168
-430,890	-15,478	0,037	0,017
-429,876	-95,368	-0,051	-0,010
-428,861	800,000	-0,032	0,069
-427,846	-143,947	0,150	0,010
-426,832	172,721	-0,063	0,065
-425,817	-61,960	0,038	0,011
-424,803	800,000	0,050	-0,109
-423,788	40,770	0,150	-0,097
-422,773	-200,000	-0,036	-0,154
-421,759	90,329	0,056	-0,045
-420,744	-200,000	-0,027	0,086
-419,730	800,000	-0,066	0,157
-418,715	800,000	-0,020	-0,058
-417,701	-200,000	0,008	-0,145
-416,686	-50,416	-0,114	-0,038
-415,671	737,539	0,055	0,105
-414,657	583,881	-0,096	-0,169
-413,642	-200,000	-0,009	-0,101
-412,628	60,670	0,047	-0,033
-411,613	-129,043	-0,165	-0,016
-410,598	-26,472	-0,035	-0,015
-409,584	608,993	0,073	0,131
-408,569	800,000	0,059	0,121
-407,555	27,149	0,097	-0,058
-406,540	574,573	-0,010	-0,018
-405,525	-31,383	0,029	0,012
-404,511	546,263	-0,049	-0,084
-403,496	-200,000	-0,022	-0,190
-402,482	-147,540	0,155	-0,009
-401,467	-192,732	0,026	-0,000
-400,452	-103,293	0,141	0,024
-399,438	-119,116	-0,140	-0,017
-398,423	-200,000	-0,025	-0,079
-397,409	4,622	-0,167	-0,088
-396,394	-148,111	0,060	-0,003
-395,379	116,945	-0,124	-0,109
-394,365	533,370	-0,037	0,062
-393,350	88,153	0,048	-0,038
-392,336	-200,000	-0,009	0,067
-391,321	-91,643	0,126	0,026
-390,306	-14,390	-0,238	0,109
-389,292	-117,011	-0,025	0,003
-388,277	175,512	0,101	-0,104
-387,263	800,000	0,053	0,110
-386,248	-40,526	0,043	0,016
-385,233	-90,811	-0,208	-0,042
-384,219	9,029	-0,025	-0,014
-383,204	66,243	-0,080	-0,058
-382,190	408,705	0,046	-0,070
-381,175	-200,000	-0,002	0,014
-380,160	18,198	-0,107	0,061
-379,146	-200,000	-0,009	0,109
-378,131	69,488	0,041	0,030
-377,117	336,052	-0,079	-0,110
-376,102	-200,000	0,019	-0,085
-375,088	-137,345	0,047	-0,004
-374,073	-24,338	-0,072	0,031
-373,058	800,000	0,024	-0,060
-372,044	579,541	0,014	0,025
-371,029	800,000	0,044	-0,096
-370,015	-156,899	0,156	-0,007
-369,000	-200,000	-0,001	-0,094
-367,985	-54,551	-0,072	0,023
-366,971	201,904	-0,035	-0,038
-365,956	66,072	-0,026	0,019
-364,942	-126,003	0,096	0,010
-363,927	-200,000	0,009	0,057
-362,912	-194,257	-0,068	-0,000
-361,898	89,210	0,024	-0,019
-360,883	253,553	0,139	-0,170
-359,869	238,829	-0,088	-0,105
-358,854	800,000	0,007	-0,015
-357,839	800,000	0,050	0,109
-356,825	-200,000	0,007	-0,068
-355,810	800,000	0,073	0,161
-354,796	20,356	-0,043	-0,025
-353,781	-200,000	-0,048	-0,151
-352,766	534,572	-0,062	-0,106
-351,752	71,499	-0,071	-0,053
-350,737	800,000	0,091	0,213
-349,723	50,036	0,156	0,105
-348,708	184,513	-0,006	0,007
-347,693	340,576	-0,070	-0,097
-346,679	-152,999	-0,032	0,002
-345,664	286,059	-0,035	-0,045
-344,650	575,288	0,061	-0,107
-343,635	-24,599	0,025	-0,010
-342,620	644,912	0,016	-0,030
-341,606	-200,000	0,006	0,031
-340,591	129,837	0,054	0,050
-339,577	-200,000	-0,064	-0,223
-338,562	770,153	0,078	-0,153
-337,548	76,384	-0,081	-0,061
-336,533	210,590	0,084	0,094
-335,518	-6,982	0,165	0,080
-334,504	-77,313	-0,099	0,024
-333,489	-17,088	-0,063	-0,028
-332,475	-79,761	-0,048	0,011
-331,460	-200,000	-0,006	0,021
-330,445	-200,000	-0,008	-0,048
-329,431	488,622	0,054	-0,088
-328,416	267,378	0,067	0,084
-327,402	-200,000	0,000	0,094
-326,387	730,158	-0,029	-0,056
-325,372	88,419	-0,137	-0,108
-324,358	220,664	0,017	-0,019
-323,343	177,446	-0,011	0,012
-322,329	608,764	-0,061	-0,109
-321,314	800,000	0,024	-0,072
-320,299	-142,888	-0,033	-0,002
-319,285	-70,630	-0,179	0,048
-318,270	-200,000	0,004	-0,014
-317,256	-41,544	-0,070	0,026
-316,241	241,888	-0,029	-0,035
-315,226	-200,000	0,002	-0,095
-314,212	-60,174	0,037	0,011
-313,197	800,000	-0,041	0,106
-312,183	272,096	-0,108	0,136
-311,168	-200,000	-0,056	-0,204
-310,153	13,003	-0,058	0,032
-309,139	680,868	-0,034	-0,064
-308,124	180,031	-0,082	-0,086
-307,110	393,688	0,042	0,063
-306,095	-118,262	0,139	0,017
-305,080	-200,000	-0,029	0,131
-304,066	800,000	0,022	-0,062
-303,051	51,525	-0,151	0,102
-302,037	800,000	0,101	-0,251
-301,022	800,000	0,050	-0,151
-300,008	-200,000	0,027	-0,203
-298,993	-200,000	0,003	0,042
-297,978	-86,895	-0,204	0,044
-296,964	-101,221	0,034	-0,006
-295,949	204,714	0,104	-0,115
-294,935	800,000	0,021	-0,058
-293,920	88,572	-0,087	0,069
-292,905	23,707	0,116	0,068
-291,891	800,000	0,027	0,053
-290,876	-115,925	0,099	-0,013
-289,862	-44,095	-0,090	-0,032
-288,847	-200,000	-0,001	-0,157
-287,832	-200,000	-0,033	0,113
-286,818	225,538	0,099	0,114
-285,803	-200,000	0,039	0,175
-284,789	-200,000	-0,023	0,096
-283,774	-28,570	0,131	-0,054
-282,759	800,000	-0,011	0,022
-281,745	21,419	-0,014	0,008
-280,730	8,772	-0,026	0,014
-279,716	800,000	0,017	-0,039
-278,701	101,106	0,021	0,017
-277,686	446,852	0,024	0,038
-276,672	-66,456	-0,103	0,029
-275,657	138,003	-0,121	0,113
-274,643	-200,000	-0,021	0,072
-273,628	-84,544	0,054	0,012
-272,613	-133,809	-0,168	-0,015
-271,599	-166,440	0,135	-0,004
-270,584	482,107	0,036	-0,058
-269,570	-68,143	0,069	0,019
-268,555	-32,702	0,128	0,051
-267,540	507,746	-0,017	-0,029
-266,526	256,877	-0,070	0,086
-265,511	800,000	0,018	0,051
-264,497	270,897	-0,056	0,070
-263,482	236,642	0,055	0,065
-262,467	-200,000	0,006	0,031
-261,453	-200,000	0,047	0,154
-260,438	-168,906	-0,199	-0,005
-259,424	-200,000	0,002	0,060
-258,409	-90,805	0,031	-0,006
-257,395	800,000	0,062	0,145
-256,380	93,228	0,067	-0,054
-255,365	303,638	-0,050	0,066
-254,351	-40,219	-0,028	-0,010
-253,336	259,623	-0,081	0,100
-252,322	-161,732	-0,120	0,004
-251,307	229,433	-0,057	-0,066
-250,292	800,000	-0,018	0,049
-249,278	53,812	0,017	-0,012
-248,263	54,337	-0,047	0,032
-247,249	-13,923	0,089	0,041
-246,234	-79,837	0,066	0,016
-245,219	-200,000	-0,011	-0,096
-244,205	78,144	-0,043	-0,033
-243,190	226,473	0,083	-0,096
-242,176	-200,000	0,001	-0,086
-241,161	89,153	0,028	0,022
-240,146	10,856	0,057	0,031
-239,132	-11,796	-0,189	0,088
-238,117	-107,397	-0,133	0,020
-237,103	236,890	0,039	0,046
-236,088	55,934	0,037	-0,025
-235,073	-200,000	0,008	-0,030
-234,059	-200,000	0,036	0,158
-233,044	-0,797	-0,097	-0,049
-232,030	53,586	-0,032	0,022
-231,015	-53,307	0,076	-0,025
-230,000	28,358	0,151	0,091
-228,986	-151,930	0,202	0,010
-227,971	-200,000	-0,010	0,091
-226,957	-75,524	0,055	-0,014
-225,942	295,088	0,026	0,033
-224,927	96,495	0,040	-0,033
-223,913	157,351	-0,092	-0,090
-222,898	800,000	0,018	-0,039
-221,884	-3,430	-0,079	0,039
-220,869	146,780	0,050	-0,048
-219,855	-174,549	0,167	0,003
-218,840	249,360	-0,066	0,080
-217,825	800,000	0,015	-0,035
-216,811	-200,000	-0,001	0,019
-215,796	-26,858	-0,059	-0,024
-214,782	49,200	0,101	-0,067
-213,767	166,685	-0,066	0,066
-212,752	-45,214	-0,070	-0,025
-211,738	138,936	0,055	-0,051
-210,723	78,686	-0,025	0,019
-209,709	-7,200	0,035	-0,017
-208,694	-200,000	-0,018	-0,139
-207,679	800,000	-0,056	-0,158
-206,665	-200,000	-0,002	0,063
-205,650	-142,163	-0,108	0,008
-204,636	307,874	0,142	0,188
-203,621	217,525	0,042	-0,047
-202,606	-200,000	0,012	-0,069
-201,592	-200,000	0,002	0,086
-200,577	-200,000	-0,028	-0,114
-199,563	-200,000	0,013	-0,102
-198,548	-38,170	0,079	-0,030
-197,533	800,000	0,046	0,102
-196,519	-200,000	0,021	0,130
-195,504	-9,166	0,083	0,039
-194,490	-200,000	0,009	-0,180
-193,475	45,149	0,036	-0,023
-192,460	360,958	-0,028	0,040
-191,446	96,151	0,079	-0,064
-190,431	44,865	0,049	0,032
-189,417	-167,295	0,040	-0,001
-188,402	800,000	0,064	0,132
-187,387	800,000	0,059	-0,175
-186,373	229,396	0,017	-0,019
-185,358	800,000	-0,008	-0,022
-184,344	-200,000	-0,003	-0,039
-183,329	-146,374	0,044	0,003
-182,315	496,242	0,067	0,110
-181,300	-76,284	-0,176	0,044
-180,285	579,432	0,018	-0,032
-179,271	87,748	-0,048	0,038
-178,256	251,685	0,065	0,079
-177,242	-200,000	0,010	0,099
-176,227	800,000	0,014	0,033
-175,212	-200,000	0,011	0,037
-174,198	-66,264	-0,079	-0,022
-173,183	800,000	-0,019	-0,039
-172,169	-200,000	-0,038	0,147
-171,154	225,175	0,062	-0,071
-170,139	-41,693	-0,025	-0,009
-169,125	-78,633	0,140	0,034
-168,110	-136,722	-0,104	0,008
-167,096	-162,214	0,297	0,010
-166,081	76,115	-0,048	-0,036
-165,066	-200,000	-0,029	-0,226
-164,052	761,027	0,033	-0,063
-163,037	363,791	0,069	0,098
-162,023	800,000	0,008	-0,024
-161,008	350,027	-0,059	0,084
-159,993	800,000	0,031	-0,086
-158,979	800,000	0,025	-0,051
-157,964	-200,000	-0,005	-0,059
-156,950	800,000	0,050	-0,127
-155,935	800,000	0,050	-0,139
-154,920	-200,000	-0,003	0,039
-153,906	-200,000	0,029	0,100
-152,891	-53,365	0,071	0,023
-151,877	277,258	-0,023	0,029
-150,862	129,538	-0,107	-0,097
-149,847	800,000	-0,037	-0,114
-148,833	757,524	0,013	-0,025
-147,818	-71,985	0,124	0,033
-146,804	139,830	0,088	0,083
-145,789	-200,000	0,044	-0,197
-144,775	-20,287	-0,083	0,036
-143,760	549,289	-0,050	-0,085
-142,745	-200,000	-0,012	-0,092
-141,731	612,891	0,041	-0,073
-140,716	-119,737	0,048	0,006
-139,702	800,000	-0,023	0,046
-138,687	-150,686	0,099	0,005
-137,672	-200,000	-0,001	-0,108
-136,658	80,111	0,137	-0,104
-135,643	140,758	-0,127	-0,119
-134,629	-200,000	-0,014	0,070
-133,614	94,014	0,134	0,108
-132,599	-200,000	-0,019	-0,079
-131,585	-41,104	-0,037	-0,014
-130,570	-51,635	0,054	0,018
-129,556	-28,289	-0,176	-0,072
-128,541	-200,000	-0,031	-0,106
-127,526	-97,220	0,138	0,025
-126,512	-88,016	-0,038	0,008
-125,497	110,600	0,091	0,078
-124,483	785,602	0,061	0,118
-123,468	-200,000	0,000	0,163
-122,453	-72,825	-0,106	0,028
-121,439	800,000	0,017	-0,042
-120,424	197,480	0,074	0,080
-119,410	170,900	-0,031	-0,031
-118,395	-107,668	-0,046	-0,007
-117,380	135,693	0,041	0,038
-116,366	11,225	-0,046	0,025
-115,351	-162,471	-0,168	-0,006
-114,337	-200,000	0,016	-0,157
-113,322	66,122	-0,083	0,059
-112,307	190,325	-0,077	-0,082
-111,293	-12,996	0,114	0,052
-110,278	-200,000	0,010	0,032
-109,264	146,509	0,067	0,064
-108,249	177,044	0,140	0,144
-107,234	-168,823	-0,093	0,002
-106,220	-31,019	0,164	0,065
-105,205	-200,000	-0,006	-0,085
-104,191	175,680	-0,058	-0,060
-103,176	190,957	0,077	-0,082
-102,162	-200,000	-0,016	-0,059
-101,147	-85,181	0,091	-0,020
-100,132	-200,000	0,006	-0,124
-99,118	-200,000	-0,135	0,000
-98,103	-50,790	0,079	0,026
-97,089	-200,000	0,000	0,032
-96,074	49,430	0,088	-0,059
-95,059	1,482	-0,141	0,072
-94,045	749,753	-0,023	-0,044
-93,030	18,695	-0,093	-0,052
-92,016	-200,000	-0,018	-0,152
-91,001	135,112	-0,060	-0,055
-89,986	123,272	0,089	0,079
-88,972	-200,000	-0,012	0,053
-87,957	358,542	-0,060	0,085
-86,943	87,248	-0,038	-0,030
-85,928	-45,212	-0,118	0,041
-84,913	387,784	0,023	0,033
-83,899	-104,512	0,074	0,012
-82,884	-3,184	-0,081	0,040
-81,870	-200,000	-0,035	0,180
-80,855	176,183	0,104	-0,107
-79,840	366,845	0,055	-0,078
-78,826	99,578	-0,098	-0,080
-77,811	141,447	-0,049	0,046
-76,797	-200,000	0,016	0,093
-75,782	217,189	0,057	-0,065
-74,767	-200,000	-0,011	0,076
-73,753	127,623	0,073	0,065
-72,738	-21,630	0,061	-0,026
-71,724	440,137	-0,063	0,097
-70,709	-200,000	0,002	-0,169
-69,694	-31,445	0,032	-0,013
-68,680	118,219	-0,025	0,022
-67,665	-125,524	-0,138	-0,015
-66,651	15,979	0,247	0,137
-65,636	71,826	0,058	-0,042
-64,622	446,715	-0,031	0,048
-63,607	-69,401	-0,123	0,033
-62,592	80,395	-0,058	0,044
-61,578	576,583	-0,095	-0,164
-60,563	375,158	0,086	0,124
-59,549	-200,000	-0,002	0,193
-58,534	54,017	-2,171	-1,472
-57,519	497,785	-1,242	-2,027
-56,505	-200,000	-0,324	-4,270
-55,490	560,779	1,028	1,762
-54,476	800,000	5,134	11,095
-53,461	-200,000	22,489	345,823
-52,446	800,000	755,549	2283,728
-51,432	528,372	1638,952	2741,171
-50,417	67,075	1635,533	1175,652
-49,403	15,386	1506,239	832,426
-48,388	9,610	1427,803	761,646
-47,373	19,282	1420,069	803,037
-46,359	13,187	1408,250	767,908
-45,344	7,893	1404,097	740,878
-44,330	7,873	1402,311	739,811
-43,315	7,866	1400,517	738,801
-42,300	7,837	1398,692	737,674
-41,286	7,869	1397,351	737,089
-40,271	7,840	1396,184	736,307
-39,257	7,832	1395,348	735,801
-38,242	7,856	1394,123	735,237
-37,227	7,862	1392,986	734,638
-36,213	7,842	1391,711	733,841
-35,198	7,854	1390,519	733,241
-34,184	7,894	1389,615	732,921
-33,169	7,755	1388,467	731,643
-32,154	7,836	1387,543	731,499
-31,140	7,787	1386,390	730,637
-30,125	7,899	1385,038	730,414
-29,111	7,838	1384,081	729,598
-28,096	7,849	1382,734	728,910
-27,082	7,767	1381,569	727,890
-26,067	7,771	1380,586	727,362
-25,052	7,800	1379,641	726,967
-24,038	7,830	1378,605	726,531
-23,023	7,747	1377,811	725,701
-22,009	7,804	1376,621	725,308
-20,994	7,816	1375,650	724,821
-19,979	7,754	1374,822	724,074
-18,965	7,727	1373,751	723,357
-17,950	7,708	1372,910	722,799
-16,936	7,704	1372,059	722,301
-15,921	7,694	1371,012	721,677
-14,906	7,697	1370,085	721,176
-13,892	7,694	1369,203	720,667
-12,877	7,683	1368,473	720,206
-11,863	7,657	1367,748	719,678
-10,848	7,627	1366,835	719,031
-9,833	7,657	1365,833	718,610
-8,819	7,598	1364,936	717,843
-7,804	7,623	1363,909	717,387
-6,790	7,647	1363,036	717,009
-5,775	7,639	1361,876	716,335
-4,760	7,596	1361,331	715,824
-3,746	7,615	1360,359	715,371
-2,731	7,611	1359,391	714,814
-1,717	7,650	1358,408	714,448
-0,702	7,596	1356,718	713,285
0,313	11,623	1268,116	684,712
1,327	27,294	667,398	394,824
2,342	42,469	114,533	73,385
3,356	-3,573	16,411	8,025
4,371	-4,129	3,792	1,847
5,386	26,097	1,358	0,798
6,400	265,708	0,485	0,599
7,415	-142,136	-0,244	0,017
8,429	48,809	-0,341	-0,226
9,444	112,801	-0,259	-0,222
10,459	202,648	-0,210	-0,229
11,473	-147,917	-0,277	-0,016
12,488	8,546	-0,334	-0,177
13,502	59,216	-0,278	-0,193
14,517	26,853	-0,286	-0,169
15,531	243,095	-0,307	-0,363
16,546	105,640	-0,281	-0,234
17,561	39,310	-0,444	-0,280
18,575	-169,433	-0,289	-0,007
19,590	201,406	-0,227	-0,247
20,604	-29,168	-0,263	-0,106
21,619	129,831	-0,364	-0,328
22,634	36,639	-0,463	-0,287
23,648	87,419	-0,406	-0,316
24,663	157,438	-0,366	-0,357
25,677	37,709	-0,369	-0,230
26,692	4,052	-0,421	-0,216
27,707	-5,470	-0,266	-0,128
28,721	135,337	-0,296	-0,271
29,736	50,720	-0,351	-0,233
30,750	169,633	-0,386	-0,388
31,765	252,754	-0,277	-0,333
32,780	4,062	-0,360	-0,185
33,794	116,175	-0,281	-0,243
34,809	39,370	-0,448	-0,282
35,823	144,388	-0,366	-0,344
36,838	163,521	-0,395	-0,391
37,853	606,927	-0,202	-0,356
38,867	8,584	-0,446	-0,235
39,882	76,033	-0,384	-0,286
40,896	12,152	-0,361	-0,195
41,911	173,575	-0,313	-0,318
42,926	-5,611	-0,375	-0,180
43,940	72,272	-0,330	-0,241
44,955	198,684	-0,331	-0,357
45,969	90,595	-0,330	-0,260
46,984	20,540	-0,457	-0,259
47,999	43,085	-0,248	-0,159
49,013	-27,950	-0,347	-0,141
50,028	108,712	-0,349	-0,293
51,042	246,466	-0,337	-0,400
52,057	64,022	-0,259	-0,183
53,071	48,046	-0,316	-0,207
54,086	-7,176	-0,410	-0,195
55,101	61,168	-0,407	-0,284
56,115	-8,323	-0,260	-0,122
57,130	75,588	-0,326	-0,242
58,144	97,820	-0,431	-0,348
59,159	255,454	-0,273	-0,329
60,174	139,515	-0,374	-0,346
61,188	388,518	-0,268	-0,391
62,203	-23,643	-0,313	-0,131
63,217	133,539	-0,289	-0,263
64,232	35,856	-0,384	-0,237
65,247	57,174	-0,328	-0,224
66,261	77,300	-0,159	-0,119
67,276	133,914	-0,280	-0,254
68,290	-189,320	-0,313	-0,003
69,305	202,120	-0,285	-0,309
70,320	126,428	-0,227	-0,202
71,334	256,834	-0,204	-0,247
72,349	365,168	-0,088	-0,124
73,363	192,914	-0,262	-0,278
74,378	-70,659	-0,250	-0,066
75,393	52,001	-0,331	-0,221
76,407	-33,630	-0,186	-0,072
77,422	-111,515	-0,395	-0,056
78,436	-36,227	-0,325	-0,122
79,451	78,369	-0,245	-0,183
80,466	133,564	-0,301	-0,273
81,480	6,723	-0,320	-0,166
82,495	454,144	-0,144	-0,224
83,509	-21,270	-0,375	-0,160
84,524	25,860	-0,209	-0,122
85,539	161,784	-0,221	-0,217
86,553	306,191	-0,184	-0,240
87,568	37,472	-0,313	-0,194
88,582	-39,601	-0,268	-0,098
89,597	13,702	-0,403	-0,219
90,611	-20,507	-0,144	-0,062
91,626	99,004	-0,244	-0,197
92,641	-47,544	-0,132	-0,045
93,655	3,493	-0,305	-0,155
94,670	-29,762	-0,349	-0,139
95,684	49,595	-0,266	-0,175
96,699	168,251	-0,301	-0,300
97,714	102,268	-0,224	-0,183
98,728	41,907	-0,227	-0,144
99,743	301,285	-0,173	-0,225
100,757	17,333	-0,356	-0,197
101,772	-138,012	-0,214	-0,016
102,787	80,604	-0,269	-0,202
103,801	51,048	-0,369	-0,244
104,816	246,908	-0,183	-0,216
105,830	44,341	-0,216	-0,138
106,845	89,737	-0,260	-0,203
107,860	-23,307	-0,317	-0,133
108,874	-15,368	-0,272	-0,121
109,889	-117,031	-0,297	0,037
110,903	-30,727	-0,374	-0,147
111,918	101,406	-0,247	-0,201
112,933	30,442	-0,263	-0,157
113,947	8,130	-0,248	-0,130
114,962	-0,966	-0,413	-0,203
115,976	-37,632	-0,207	-0,077
116,991	81,194	-0,322	-0,243
118,006	61,471	-0,218	-0,151
119,020	-36,501	-0,274	-0,102
120,035	-30,423	-0,202	-0,080
121,049	34,384	-0,268	-0,163
122,064	269,782	-0,192	-0,237
123,079	119,123	-0,176	-0,152
124,093	57,709	-0,214	-0,146
125,108	157,490	-0,198	-0,191
126,122	55,511	-0,233	-0,157
127,137	-200,000	-0,018	-0,155
128,151	152,375	-0,171	-0,163
129,166	246,419	-0,250	-0,295
130,181	170,169	-0,274	-0,274
131,195	12,275	-0,282	-0,151
132,210	112,513	-0,202	-0,170
133,224	13,011	-0,260	-0,140
134,239	-34,091	-0,318	-0,121
135,254	-8,019	-0,261	-0,122
136,268	196,310	-0,123	-0,131
137,283	-29,207	-0,287	-0,114
138,297	100,802	-0,293	-0,237
139,312	-22,810	-0,321	-0,135
140,327	-10,813	-0,352	-0,162
141,341	300,767	-0,086	-0,111
142,356	-171,109	-0,203	0,005
143,370	-74,642	-0,217	-0,054
144,385	142,936	-0,229	-0,212
145,400	75,502	-0,209	-0,153
146,414	191,326	-0,247	-0,260
147,429	71,016	-0,252	-0,181
148,443	387,636	-0,231	-0,334
149,458	88,626	-0,094	-0,073
150,473	20,647	-0,272	-0,153
151,487	110,013	-0,205	-0,171
152,502	131,858	-0,260	-0,233
153,516	454,921	-0,186	-0,288
154,531	225,779	-0,208	-0,235
155,546	-87,255	-0,276	-0,058
156,560	184,449	-0,148	-0,153
157,575	155,132	-0,182	-0,174
158,589	428,291	-0,130	-0,197
159,604	107,944	-0,202	-0,167
160,619	213,751	-0,310	-0,342
161,633	134,597	-0,238	-0,215
162,648	-104,286	-0,212	-0,034
163,662	-30,381	-0,276	-0,108
164,677	35,347	-0,254	-0,154
165,692	261,396	-0,187	-0,226
166,706	203,946	-0,211	-0,228
167,721	-19,029	-0,177	-0,076
168,735	93,866	-0,225	-0,178
169,750	-79,316	-0,242	-0,056
170,764	196,913	-0,284	-0,301
171,779	-57,149	-0,235	-0,072
172,794	-72,909	-0,276	-0,070
173,808	-200,000	-0,006	-0,135
174,823	673,075	-0,186	-0,337
175,837	327,104	-0,210	-0,280
176,852	-3,483	-0,217	-0,105
177,867	-33,809	-0,268	-0,102
178,881	6,541	-0,196	-0,101
179,896	-50,260	-0,166	-0,054
180,910	13,432	-0,247	-0,133
181,925	77,324	-0,239	-0,177
182,940	300,605	-0,219	-0,282
183,954	246,761	-0,199	-0,234
184,969	800,000	-0,084	-0,204
185,983	68,371	-0,176	-0,125
186,998	186,238	-0,150	-0,155
188,013	216,328	-0,246	-0,272
189,027	39,282	-0,228	-0,141
190,042	800,000	-0,128	-0,267
191,056	11,940	-0,176	-0,094
192,071	17,028	-0,264	-0,145
193,086	800,000	-0,115	-0,296
194,100	114,938	-0,239	-0,203
195,115	31,470	-0,149	-0,089
196,129	257,658	-0,248	-0,297
197,144	-60,286	-0,148	-0,044
198,159	15,049	-0,250	-0,135
199,173	86,925	-0,198	-0,151
200,188	800,000	-0,099	-0,215
201,202	41,533	-0,096	-0,060
202,217	-5,446	-0,166	-0,079
203,232	-6,185	-0,308	-0,145
204,246	109,805	-0,169	-0,141
205,261	125,772	-0,236	-0,206
206,275	69,023	-0,188	-0,134
207,290	-155,802	-0,257	-0,011
208,304	37,189	-0,155	-0,095
209,319	-84,315	-0,168	-0,036
210,334	89,276	-0,218	-0,168
211,348	215,689	-0,124	-0,137
212,363	800,000	-0,104	-0,242
213,377	800,000	-0,105	-0,251
214,392	-200,000	-0,018	-0,122
215,407	183,310	-0,171	-0,175
216,421	58,351	-0,165	-0,112
217,436	-200,000	-0,053	-0,230
218,450	73,896	-0,233	-0,169
219,465	250,282	-0,163	-0,193
220,480	800,000	-0,117	-0,247
221,494	362,868	-0,070	-0,098
222,509	800,000	-0,073	-0,168
223,523	74,962	-0,181	-0,132
224,538	69,132	-0,179	-0,127
225,553	-50,731	-0,221	-0,072
226,567	134,442	-0,083	-0,074
227,582	94,559	-0,155	-0,122
228,596	553,832	-0,063	-0,106
229,611	56,866	-0,112	-0,075
230,626	-123,666	-0,143	-0,015
231,640	84,407	-0,140	-0,106
232,655	178,552	-0,196	-0,198
233,669	37,418	-0,279	-0,171
234,684	132,494	-0,222	-0,198
235,699	-53,637	-0,201	0,063
236,713	-200,000	-0,023	-0,148
237,728	-33,923	-0,188	-0,071
238,742	82,891	-0,127	-0,095
239,757	247,143	-0,190	-0,223
240,772	19,732	-0,284	-0,158
241,786	10,311	-0,290	-0,152
242,801	-5,043	-0,116	0,055
243,815	-200,000	0,013	-0,087
244,830	-24,789	-0,266	-0,109
245,844	-51,459	-0,197	-0,063
246,859	-12,406	-0,193	-0,087
247,874	129,979	-0,208	-0,184
248,888	452,279	-0,083	-0,127
249,903	-39,364	-0,190	-0,069
250,917	173,717	-0,205	-0,204
251,932	163,317	-0,218	-0,212
252,947	-101,640	-0,130	-0,022
253,961	108,364	-0,218	-0,180
254,976	52,999	-0,249	-0,164
255,990	243,395	-0,192	-0,222
257,005	-200,000	-0,070	-0,239
258,020	23,115	-0,242	-0,137
259,034	128,829	-0,101	-0,088
260,049	287,030	-0,156	-0,195
261,063	334,892	-0,095	-0,127
262,078	19,788	-0,286	-0,158
263,093	-78,396	-0,259	-0,061
264,107	-73,136	-0,178	-0,045
265,122	-186,224	-0,114	-0,001
266,136	36,107	-0,142	-0,086
267,151	-83,731	-0,129	-0,028
268,166	-40,812	-0,239	-0,085
269,180	341,684	-0,185	-0,250
270,195	681,615	-0,141	-0,255
271,209	-81,492	-0,328	-0,074
272,224	-113,256	-0,203	0,027
273,239	419,747	-0,129	-0,192
274,253	490,093	-0,143	-0,227
275,268	160,608	-0,151	-0,146
276,282	260,754	-0,165	-0,196
277,297	17,087	-0,180	-0,098
278,312	-71,881	-0,224	-0,057
279,326	-109,476	-0,155	-0,022
280,341	-90,348	-0,158	-0,031
281,355	-6,439	-0,199	-0,093
282,370	479,951	-0,121	-0,190
283,384	12,282	-0,257	-0,136
284,399	-7,977	-0,241	-0,111
285,414	223,927	-0,178	-0,198
286,428	-141,720	-0,200	0,014
287,443	99,462	-0,086	-0,068
288,457	-42,356	-0,255	-0,089
289,472	-200,000	-0,007	-0,143
290,487	800,000	-0,079	-0,171
291,501	655,035	-0,118	-0,209
292,516	800,000	-0,119	-0,226
293,530	83,543	-0,218	-0,164
294,545	-200,000	-0,034	-0,152
295,560	41,960	-0,156	-0,097
296,574	-70,819	-0,124	-0,032
297,589	102,633	-0,088	-0,071
298,603	174,772	-0,152	-0,151
299,618	32,279	-0,115	-0,068
300,633	-133,771	-0,102	-0,009
301,647	-6,410	-0,098	0,046
302,662	-110,535	-0,219	-0,031
303,676	-31,374	-0,183	0,071
304,691	-100,392	-0,166	0,028
305,706	210,655	-0,213	-0,230
306,720	196,672	-0,166	-0,174
307,735	493,715	-0,194	-0,307
308,749	-144,819	-0,064	-0,004
309,764	-163,924	-0,198	0,006
310,779	-45,851	-0,272	-0,092
311,793	52,159	-0,189	-0,123
312,808	-50,109	-0,194	-0,063
313,822	800,000	-0,043	-0,107
314,837	-33,559	-0,237	-0,090
315,852	800,000	-0,049	-0,105
316,866	-107,169	-0,137	-0,020
317,881	100,470	-0,100	-0,079
318,895	583,557	-0,073	-0,123
319,910	4,726	-0,128	-0,064
320,925	479,823	-0,081	-0,126
321,939	-32,967	-0,131	0,050
322,954	-60,425	-0,109	-0,032
323,968	-200,000	0,036	-0,199
324,983	800,000	-0,075	-0,214
325,997	-70,597	-0,309	-0,080
327,012	84,046	-0,117	-0,087
328,027	546,640	-0,126	-0,208
329,041	379,611	-0,189	-0,266
330,056	-25,406	-0,191	-0,077
331,070	86,097	-0,138	-0,104
332,085	134,320	-0,161	-0,143
333,100	41,105	-0,149	-0,092
334,114	318,566	-0,151	-0,197
335,129	58,638	-0,151	-0,101
336,143	69,515	-0,125	-0,088
337,158	800,000	-0,067	-0,136
338,173	-11,972	-0,121	-0,054
339,187	-54,089	-0,240	0,074
340,202	-76,004	-0,163	-0,039
341,216	159,431	-0,056	0,054
342,231	800,000	-0,067	-0,160
343,246	-99,720	-0,114	-0,019
344,260	-128,421	-0,189	-0,018
345,275	156,293	-0,116	-0,109
346,289	-56,911	-0,088	0,026
347,304	231,254	-0,252	-0,283
348,319	118,866	-0,145	-0,123
349,333	47,204	-0,195	-0,124
350,348	132,366	-0,149	-0,131
351,362	-105,466	-0,156	-0,024
352,377	660,032	-0,044	-0,077
353,392	-103,676	-0,201	-0,032
354,406	-78,890	-0,206	-0,048
355,421	206,053	1304,955	1390,801
356,435	158,451	1464,454	1391,264
