DTS Sentinel unit serial number:	SN410029Multiplexer serial number:	ORYXHardware model number:	OX2-SRSoftware version number:	ORYX F/W v4,00 Oryx Data Collector v3.7.2.0data status	okinstallation	B3 Nyhavnadifferential loss correction	single-endedforward channel	channel 1reverse channel	N/Adate	2023/11/29time	12:57:30forward acquisition time	300,00reverse acquisition time	0,00gamma	499,1914k internal	0,3212k external	0,3212temperature offset calibration	1,0000default loss term (dB/km)	0,3820temperature slope calibration	1,0000multiplexer offset coefficient	1,0000multiplexer slope coefficient	1,0000fibre end	0,00T internal ref (°C)	10,07T ext. ref 1 (°C)	-3,99T ext. ref 2 (°C)	-4,14length (m)	temperature (°C)	Stokes	anti-Stokes-744,400	137,185	-0,168	-0,159
-743,385	-200,000	0,025	0,248
-742,371	371,823	-0,176	-0,260
-741,356	-200,000	-0,047	0,296
-740,342	242,056	-0,141	-0,171
-739,327	665,028	-0,159	0,298
-738,312	-200,000	-0,047	-0,374
-737,298	-200,000	-0,011	0,279
-736,283	343,703	-0,177	-0,252
-735,269	-200,000	0,095	0,412
-734,254	-24,771	-0,174	-0,075
-733,239	88,093	-0,256	0,206
-732,225	-0,355	-0,273	-0,140
-731,210	157,813	0,079	0,079
-730,196	506,878	0,060	-0,100
-729,181	800,000	0,051	-0,153
-728,167	55,328	-0,115	0,080
-727,152	-200,000	-0,004	-0,063
-726,137	-128,538	-0,237	-0,024
-725,123	-200,000	0,019	-0,149
-724,108	-97,713	-0,089	0,016
-723,094	-63,966	-0,267	0,079
-722,079	-105,316	-0,054	-0,009
-721,064	218,352	0,060	-0,069
-720,050	658,842	0,034	0,064
-719,035	289,571	-0,030	-0,039
-718,021	305,487	-0,070	0,095
-717,006	-53,458	-0,136	-0,045
-715,991	-200,000	0,005	-0,146
-714,977	60,602	-0,093	-0,067
-713,962	392,794	0,026	-0,039
-712,948	-200,000	0,004	-0,075
-711,933	-200,000	-0,001	-0,069
-710,918	168,533	-0,076	-0,078
-709,904	800,000	-0,036	-0,104
-708,889	-166,562	-0,122	-0,004
-707,875	506,448	-0,074	0,124
-706,860	-200,000	0,017	-0,064
-705,845	-1,350	-0,097	0,049
-704,831	-200,000	0,004	0,025
-703,816	-200,000	-0,027	-0,123
-702,802	-162,372	0,158	-0,006
-701,787	355,450	-0,072	-0,104
-700,772	379,627	-0,069	-0,102
-699,758	800,000	-0,023	-0,054
-698,743	800,000	0,017	0,050
-697,729	-200,000	0,006	0,139
-696,714	-200,000	0,007	0,119
-695,699	366,507	-0,055	-0,080
-694,685	-200,000	-0,000	-0,039
-693,670	10,135	-0,207	-0,114
-692,656	-200,000	-0,031	-0,166
-691,641	33,311	0,119	-0,074
-690,627	341,905	0,070	0,099
-689,612	-78,417	0,142	0,035
-688,597	-88,358	0,083	-0,018
-687,583	800,000	0,034	0,080
-686,568	-164,167	-0,150	0,005
-685,554	-200,000	0,001	0,034
-684,539	-94,793	-0,124	-0,024
-683,524	-5,766	0,049	0,024
-682,510	698,457	0,029	0,055
-681,495	283,901	-0,059	-0,077
-680,481	-43,757	-0,107	0,039
-679,466	418,928	-0,073	0,113
-678,451	-109,925	0,070	0,011
-677,437	-200,000	0,005	-0,079
-676,422	-86,585	0,084	0,019
-675,408	-200,000	0,028	0,127
-674,393	-200,000	-0,018	-0,073
-673,378	-27,353	-0,103	-0,043
-672,364	-7,754	0,049	-0,024
-671,349	800,000	0,016	-0,045
-670,335	-200,000	0,010	-0,075
-669,320	9,224	0,068	-0,037
-668,305	800,000	-0,044	0,119
-667,291	800,000	-0,009	-0,018
-666,276	-200,000	-0,004	-0,035
-665,262	118,673	0,069	-0,062
-664,247	360,372	-0,062	-0,090
-663,232	121,416	-0,032	-0,029
-662,218	117,781	0,111	-0,099
-661,203	663,384	0,032	-0,060
-660,189	-200,000	-0,011	0,149
-659,174	61,161	0,050	0,036
-658,159	-37,879	0,050	-0,019
-657,145	-200,000	-0,002	-0,026
-656,130	-200,000	0,014	-0,136
-655,116	247,346	0,039	0,047
-654,101	691,419	0,041	-0,078
-653,086	199,338	0,045	0,050
-652,072	-200,000	0,026	-0,231
-651,057	800,000	0,022	-0,054
-650,043	-43,847	-0,172	0,062
-649,028	-140,096	-0,028	-0,002
-648,014	-125,300	0,166	0,018
-646,999	800,000	-0,028	0,061
-645,984	-200,000	0,015	0,169
-644,970	192,725	-0,073	0,080
-643,955	231,560	-0,024	-0,029
-642,941	96,108	0,032	-0,027
-641,926	84,268	0,045	0,035
-640,911	-200,000	0,001	0,083
-639,897	-45,464	-0,078	0,028
-638,882	-35,140	-0,053	0,021
-637,868	11,344	-0,071	-0,039
-636,853	220,729	-0,081	0,094
-635,838	64,083	-0,067	-0,049
-634,824	-200,000	0,003	-0,063
-633,809	-52,800	-0,032	0,011
-632,795	460,436	-0,049	0,079
-631,780	800,000	-0,025	-0,061
-630,765	-200,000	0,003	0,088
-629,751	800,000	0,019	-0,044
-628,736	800,000	0,034	-0,100
-627,722	-30,496	-0,069	-0,028
-626,707	-200,000	0,027	-0,096
-625,692	-200,000	-0,015	0,147
-624,678	188,285	0,070	-0,076
-623,663	-152,514	0,118	-0,006
-622,649	206,858	-0,132	-0,149
-621,634	132,902	-0,116	-0,108
-620,619	800,000	0,021	0,043
-619,605	-65,619	0,113	-0,032
-618,590	-200,000	0,005	0,027
-617,576	-200,000	-0,024	0,085
-616,561	800,000	-0,028	0,077
-615,546	93,407	0,090	0,073
-614,532	74,199	-0,050	-0,038
-613,517	94,235	-0,090	-0,074
-612,503	800,000	0,034	-0,087
-611,488	-36,378	-0,112	0,043
-610,474	-200,000	0,006	-0,026
-609,459	128,708	0,064	0,059
-608,444	-112,364	0,083	0,012
-607,430	-45,395	-0,075	-0,027
-606,415	34,183	-0,113	0,071
-605,401	48,380	-0,059	0,040
-604,386	227,395	-0,015	-0,018
-603,371	-200,000	0,016	0,080
-602,357	-200,000	-0,034	0,131
-601,342	-25,446	-0,045	0,019
-600,328	121,751	-0,037	0,034
-599,313	-75,947	-0,105	-0,027
-598,298	-200,000	0,019	-0,131
-597,284	282,355	0,056	0,072
-596,269	99,670	0,054	0,045
-595,255	466,663	0,107	0,174
-594,240	341,689	-0,074	-0,105
-593,225	12,503	-0,094	-0,052
-592,211	18,098	-0,150	-0,086
-591,196	-124,805	0,091	0,010
-590,182	800,000	-0,042	-0,098
-589,167	123,837	0,065	-0,059
-588,152	800,000	-0,042	0,101
-587,138	-36,747	-0,098	-0,038
-586,123	800,000	0,069	-0,151
-585,109	800,000	-0,029	-0,092
-584,094	-200,000	0,009	0,094
-583,079	-27,402	-0,019	0,008
-582,065	30,285	0,088	-0,054
-581,050	-200,000	0,009	-0,163
-580,036	-200,000	-0,020	-0,101
-579,021	-200,000	0,036	-0,125
-578,006	800,000	0,021	-0,057
-576,992	800,000	-0,041	0,089
-575,977	-99,513	0,086	-0,015
-574,963	60,042	-0,087	0,062
-573,948	177,322	0,058	-0,061
-572,934	800,000	-0,041	0,094
-571,919	63,721	0,055	0,040
-570,904	226,756	-0,035	0,040
-569,890	-100,702	-0,122	-0,021
-568,875	-35,400	0,168	-0,066
-567,861	-16,213	0,050	-0,023
-566,846	800,000	0,017	-0,047
-565,831	-200,000	-0,025	-0,090
-564,817	61,211	-0,030	-0,021
-563,802	-200,000	-0,010	-0,201
-562,788	-200,000	0,013	-0,095
-561,773	800,000	0,024	-0,066
-560,758	92,847	0,055	0,045
-559,744	-200,000	0,054	0,183
-558,729	-200,000	0,002	0,014
-557,715	800,000	-0,030	-0,061
-556,700	-94,926	-0,069	0,013
-555,685	-200,000	0,032	-0,105
-554,671	290,090	0,050	0,066
-553,656	169,213	-0,039	0,041
-552,642	116,686	-0,091	0,081
-551,627	800,000	-0,037	-0,078
-550,612	50,955	-0,033	0,022
-549,598	-200,000	0,016	0,057
-548,583	-122,480	0,110	0,013
-547,569	320,349	0,055	0,076
-546,554	-133,547	0,199	-0,018
-545,539	412,198	0,026	-0,040
-544,525	800,000	-0,079	-0,189
-543,510	-89,156	-0,063	0,013
-542,496	-76,970	-0,144	0,036
-541,481	-200,000	-0,028	-0,096
-540,466	101,376	0,018	-0,015
-539,452	638,626	-0,065	-0,120
-538,437	-200,000	-0,003	-0,040
-537,423	-135,352	0,114	0,010
-536,408	119,580	-0,082	-0,073
-535,393	800,000	-0,036	-0,086
-534,379	352,062	-0,083	-0,119
-533,364	800,000	-0,021	-0,067
-532,350	-28,087	0,180	-0,074
-531,335	-200,000	-0,011	-0,037
-530,321	682,841	0,017	0,031
-529,306	458,241	0,009	0,015
-528,291	-14,568	-0,105	0,048
-527,277	66,056	-0,171	0,124
-526,262	-165,904	-0,148	0,004
-525,248	-130,990	0,052	0,005
-524,233	-86,849	0,037	0,008
-523,218	800,000	-0,017	-0,044
-522,204	178,248	-0,092	-0,097
-521,189	230,404	-0,071	-0,084
-520,175	-200,000	0,009	-0,048
-519,160	350,510	0,058	0,082
-518,145	107,861	0,089	-0,076
-517,131	-200,000	-0,037	0,121
-516,116	13,235	-0,035	0,019
-515,102	-23,457	0,030	0,013
-514,087	-200,000	0,002	0,112
-513,072	-46,942	-0,110	0,038
-512,058	-101,849	-0,071	0,012
-511,043	800,000	0,039	-0,084
-510,029	-105,429	0,134	-0,022
-509,014	-200,000	-0,018	0,143
-507,999	-200,000	0,112	0,000
-506,985	-100,879	0,173	0,030
-505,970	611,347	-0,103	-0,186
-504,956	-56,729	0,089	0,028
-503,941	113,938	0,039	-0,034
-502,926	-18,669	0,044	-0,020
-501,912	-23,756	0,018	0,008
-500,897	-200,000	0,026	0,103
-499,883	-200,000	0,032	0,155
-498,868	-98,623	0,046	0,008
-497,853	259,554	-0,069	-0,085
-496,839	-200,000	0,026	0,095
-495,824	-144,256	-0,020	-0,001
-494,810	-200,000	0,009	0,196
-493,795	420,169	0,099	0,153
-492,781	246,892	-0,063	0,076
-491,766	-200,000	0,032	-0,136
-490,751	485,976	-0,074	-0,121
-489,737	-159,789	0,157	0,006
-488,722	-1,393	0,103	0,052
-487,708	716,722	0,050	0,096
-486,693	24,424	0,096	0,057
-485,678	-200,000	-0,020	0,103
-484,664	391,371	-0,090	-0,134
-483,649	800,000	0,027	-0,065
-482,635	227,384	-0,112	0,130
-481,620	637,519	0,066	0,120
-480,605	692,934	0,025	0,048
-479,591	534,882	-0,091	-0,155
-478,576	800,000	0,023	0,059
-477,562	-145,084	-0,087	-0,006
-476,547	800,000	-0,049	-0,136
-475,532	275,819	-0,086	-0,110
-474,518	670,097	0,031	-0,058
-473,503	-200,000	-0,006	0,021
-472,489	800,000	-0,024	0,067
-471,474	94,082	-0,019	-0,015
-470,459	682,535	0,040	0,075
-469,445	-200,000	0,020	-0,071
-468,430	-148,189	0,110	0,006
-467,416	82,909	-0,088	-0,068
-466,401	-72,584	0,071	-0,019
-465,386	30,378	0,057	0,035
-464,372	-200,000	0,020	0,076
-463,357	-63,229	-0,017	0,005
-462,343	800,000	-0,055	-0,126
-461,328	323,496	-0,073	-0,100
-460,313	-131,549	0,018	0,002
-459,299	-62,073	0,081	0,024
-458,284	266,936	-0,079	0,100
-457,270	120,957	-0,110	0,098
-456,255	36,258	-0,035	-0,022
-455,241	800,000	-0,019	-0,045
-454,226	-200,000	-0,039	-0,138
-453,211	-10,276	0,056	-0,027
-452,197	-200,000	0,024	0,096
-451,182	800,000	0,028	-0,084
-450,168	-145,340	0,065	0,004
-449,153	-44,659	0,027	0,010
-448,138	56,553	-0,061	-0,043
-447,124	-78,627	-0,081	0,020
-446,109	310,289	0,035	-0,047
-445,095	-200,000	-0,018	-0,068
-444,080	288,025	0,085	0,110
-443,065	375,360	0,030	0,044
-442,051	800,000	0,051	-0,121
-441,036	-41,395	0,028	0,010
-440,022	-40,554	0,092	0,034
-439,007	-32,715	0,069	-0,027
-437,992	-200,000	0,013	0,062
-436,978	10,880	0,145	0,079
-435,963	163,534	-0,042	0,042
-434,949	800,000	-0,041	0,114
-433,934	240,707	-0,052	0,062
-432,919	214,219	0,017	0,019
-431,905	24,461	-0,085	-0,050
-430,890	-200,000	-0,020	-0,124
-429,876	9,829	0,103	0,056
-428,861	-200,000	0,114	-0,000
-427,846	800,000	-0,018	0,053
-426,832	-93,160	-0,102	0,020
-425,817	-164,663	0,107	-0,003
-424,803	-200,000	-0,027	-0,091
-423,788	-200,000	0,006	-0,026
-422,773	-200,000	0,007	0,081
-421,759	800,000	-0,053	0,111
-420,744	-200,000	-0,007	-0,045
-419,730	-33,197	-0,128	-0,051
-418,715	-200,000	-0,019	-0,105
-417,701	-81,687	0,114	0,027
-416,686	17,318	0,138	-0,078
-415,671	-24,361	0,070	0,030
-414,657	-139,622	-0,021	0,002
-413,642	-119,629	-0,079	0,010
-412,628	800,000	-0,055	0,171
-411,613	409,526	0,037	-0,056
-410,598	273,806	0,073	0,092
-409,584	23,696	-0,086	0,050
-408,569	800,000	0,040	0,110
-407,555	800,000	-0,046	0,116
-406,540	-200,000	-0,023	-0,099
-405,525	388,835	0,042	-0,062
-404,511	707,405	-0,034	-0,065
-403,496	-200,000	-0,014	-0,152
-402,482	-200,000	0,006	0,046
-401,467	-127,160	-0,052	0,005
-400,452	-25,285	0,100	0,042
-399,438	-200,000	-0,016	0,059
-398,423	-30,854	0,167	0,067
-397,409	-104,509	0,025	-0,004
-396,394	-200,000	0,016	0,077
-395,379	-78,702	-0,077	-0,019
-394,365	373,975	-0,071	-0,104
-393,350	44,249	0,137	-0,090
-392,336	663,558	-0,005	-0,010
-391,321	-200,000	-0,012	-0,055
-390,306	228,288	-0,095	-0,110
-389,292	613,837	0,046	-0,082
-388,277	28,470	0,040	0,024
-387,263	-149,277	0,068	0,004
-386,248	-200,000	0,041	0,174
-385,233	220,539	0,054	0,063
-384,219	-200,000	-0,010	0,105
-383,204	-200,000	0,000	0,029
-382,190	-146,880	-0,106	-0,006
-381,175	122,341	0,018	0,016
-380,160	-62,300	0,124	-0,037
-379,146	115,120	0,145	-0,126
-378,131	800,000	0,056	0,129
-377,117	-153,187	-0,030	0,001
-376,102	-200,000	-0,020	-0,120
-375,088	97,063	-0,023	0,019
-374,073	-18,823	-0,031	-0,014
-373,058	-59,072	0,089	-0,027
-372,044	-20,922	0,090	0,039
-371,029	800,000	-0,027	0,057
-370,015	-200,000	-0,017	0,148
-369,000	-91,365	-0,192	-0,039
-367,985	411,668	0,072	-0,109
-366,971	-99,619	0,085	0,015
-365,956	-45,884	-0,151	-0,053
-364,942	95,213	0,124	-0,101
-363,927	147,165	0,058	-0,056
-362,912	323,765	0,050	0,068
-361,898	-86,362	-0,079	-0,017
-360,883	-200,000	-0,005	-0,163
-359,869	115,202	0,033	0,028
-358,854	800,000	0,040	0,093
-357,839	108,383	0,056	-0,048
-356,825	162,345	-0,066	0,066
-355,810	98,489	-0,076	0,063
-354,796	-7,224	0,005	-0,002
-353,781	231,366	-0,061	-0,072
-352,766	259,423	-0,117	-0,145
-351,752	-22,522	0,113	-0,049
-350,737	-200,000	0,038	0,142
-349,723	-9,123	-0,091	0,043
-348,708	-102,466	0,086	0,015
-347,693	29,418	-0,107	-0,065
-346,679	-200,000	0,005	-0,159
-345,664	-200,000	-0,032	0,140
-344,650	-70,494	0,143	0,038
-343,635	29,191	-0,060	-0,036
-342,620	5,280	0,093	0,049
-341,606	-65,371	0,046	-0,013
-340,591	-200,000	0,009	-0,088
-339,577	201,331	0,086	-0,094
-338,562	-200,000	0,000	-0,051
-337,548	-131,899	-0,046	-0,004
-336,533	800,000	0,030	-0,076
-335,518	800,000	0,066	0,139
-334,504	107,686	-0,079	0,067
-333,489	-90,270	-0,054	0,011
-332,475	139,591	-0,100	-0,094
-331,460	51,498	-0,082	-0,056
-330,445	800,000	-0,011	-0,026
-329,431	-185,064	0,114	0,001
-328,416	-200,000	-0,003	0,065
-327,402	-200,000	-0,036	-0,116
-326,387	800,000	-0,055	-0,128
-325,372	-200,000	0,000	0,003
-324,358	70,372	-0,031	-0,023
-323,343	-49,825	-0,093	-0,031
-322,329	107,313	0,055	0,047
-321,314	-35,371	0,092	0,036
-320,299	263,539	-0,101	0,126
-319,285	-200,000	0,016	0,085
-318,270	-123,003	-0,060	0,007
-317,256	-41,312	0,122	-0,045
-316,241	-200,000	-0,004	-0,080
-315,226	-160,553	-0,108	-0,004
-314,212	-143,798	-0,068	-0,004
-313,197	209,016	0,103	0,115
-312,183	108,544	-0,098	0,084
-311,168	-200,000	0,011	0,084
-310,153	306,785	-0,070	-0,093
-309,139	638,317	-0,058	-0,106
-308,124	-86,858	0,212	-0,046
-307,110	-85,786	-0,020	0,004
-306,095	-200,000	0,037	-0,118
-305,080	-74,909	-0,129	0,033
-304,066	-149,267	-0,090	-0,005
-303,051	-15,995	0,073	-0,033
-302,037	-90,002	0,040	-0,008
-301,022	15,146	0,071	0,040
-300,008	-200,000	0,070	0,266
-298,993	20,847	0,091	0,052
-297,978	138,126	-0,037	-0,035
-296,964	152,836	-0,161	-0,157
-295,949	298,650	0,028	-0,036
-294,935	800,000	0,048	0,108
-293,920	-127,591	-0,047	-0,005
-292,905	46,492	0,051	0,034
-291,891	-146,391	0,080	0,005
-290,876	-20,096	0,134	0,058
-289,862	-87,401	-0,308	0,066
-288,847	-200,000	0,002	-0,054
-287,832	800,000	0,013	0,034
-286,818	-69,430	0,128	0,035
-285,803	800,000	-0,055	-0,124
-284,789	800,000	-0,046	-0,127
-283,774	-111,766	0,096	-0,014
-282,759	-106,437	-0,011	0,002
-281,745	-86,329	-0,129	-0,028
-280,730	800,000	0,043	-0,102
-279,716	-164,802	0,043	0,001
-278,701	-17,183	-0,114	-0,051
-277,686	800,000	-0,056	0,115
-276,672	-200,000	-0,001	0,032
-275,657	121,391	-0,046	0,040
-274,643	-107,829	0,170	-0,026
-273,628	429,495	-0,036	-0,055
-272,613	354,255	-0,057	-0,081
-271,599	206,388	-0,028	-0,031
-270,584	-153,242	0,017	0,001
-269,570	52,996	-0,103	0,070
-268,555	66,035	-0,179	0,129
-267,540	41,635	0,157	-0,101
-266,526	-1,488	-0,108	0,054
-265,511	48,086	-0,081	-0,054
-264,497	-200,000	-0,011	-0,068
-263,482	-200,000	0,002	0,086
-262,467	-156,294	0,213	0,009
-261,453	-123,273	0,140	0,016
-260,438	-200,000	-0,002	-0,055
-259,424	763,235	-0,049	-0,094
-258,409	-72,208	-0,105	-0,028
-257,395	478,453	0,088	-0,143
-256,380	-79,785	0,135	-0,032
-255,365	800,000	-0,022	0,057
-254,351	-200,000	-0,020	0,145
-253,336	318,998	0,033	0,045
-252,322	-200,000	-0,019	-0,088
-251,307	-85,053	-0,145	0,032
-250,292	102,719	0,072	-0,060
-249,278	-200,000	0,004	0,125
-248,263	-176,994	-0,040	-0,001
-247,249	-200,000	0,005	0,045
-246,234	-200,000	-0,011	-0,048
-245,219	38,364	-0,076	-0,048
-244,205	254,168	-0,054	-0,066
-243,190	-93,229	-0,052	0,010
-242,176	-200,000	-0,008	0,081
-241,161	499,721	0,033	0,055
-240,146	-45,675	-0,037	0,013
-239,132	800,000	-0,048	0,143
-238,117	20,155	-0,008	0,004
-237,103	-49,975	-0,102	0,034
-236,088	-164,407	-0,049	-0,002
-235,073	-10,695	0,125	-0,059
-234,059	350,731	0,032	-0,045
-233,044	-111,070	0,097	0,014
-232,030	292,876	-0,096	-0,125
-231,015	295,716	-0,061	-0,080
-230,000	88,744	-0,126	-0,099
-228,986	48,429	0,142	-0,094
-227,971	709,246	-0,048	0,090
-226,957	61,870	0,096	0,068
-225,942	-200,000	-0,000	-0,094
-224,927	-120,427	0,108	-0,013
-223,913	286,170	-0,088	-0,112
-222,898	-76,852	-0,087	-0,021
-221,884	32,640	0,040	-0,025
-220,869	-200,000	-0,005	0,086
-219,855	-39,723	-0,052	-0,019
-218,840	262,704	0,071	-0,088
-217,825	-200,000	0,007	0,112
-216,811	91,537	0,072	-0,057
-215,796	-200,000	-0,019	-0,092
-214,782	-138,801	-0,101	0,008
-213,767	-156,107	-0,045	0,002
-212,752	-93,447	0,027	0,005
-211,738	541,597	0,102	0,173
-210,723	53,200	-0,100	-0,068
-209,709	-200,000	0,023	-0,120
-208,694	-200,000	0,008	0,039
-207,679	665,350	0,033	0,061
-206,665	-15,218	-0,078	0,035
-205,650	-47,353	0,050	0,017
-204,636	30,855	0,117	-0,071
-203,621	-200,000	0,026	0,122
-202,606	-200,000	-0,002	0,032
-201,592	-200,000	0,005	0,039
-200,577	382,081	-0,021	-0,031
-199,563	-200,000	-0,028	0,120
-198,548	800,000	-0,028	0,067
-197,533	438,139	0,056	-0,086
-196,519	32,897	0,043	0,026
-195,504	800,000	-0,028	0,082
-194,490	93,608	0,112	-0,090
-193,475	92,067	-0,119	-0,095
-192,460	800,000	-0,054	0,108
-191,446	-200,000	-0,038	0,136
-190,431	-148,654	0,165	-0,009
-189,417	-133,056	-0,024	-0,002
-188,402	-21,992	-0,168	-0,072
-187,387	800,000	0,023	-0,069
-186,373	498,475	-0,069	-0,114
-185,358	-200,000	-0,011	0,037
-184,344	188,259	-0,074	-0,079
-183,329	155,944	0,098	0,096
-182,315	83,334	-0,051	0,039
-181,300	-35,060	-0,082	0,031
-180,285	-200,000	0,035	0,114
-179,271	-143,941	-0,047	-0,003
-178,256	800,000	0,021	0,063
-177,242	-17,360	0,155	-0,069
-176,227	-200,000	-0,007	0,048
-175,212	-200,000	0,037	0,182
-174,198	668,309	-0,024	0,044
-173,183	-200,000	-0,008	0,111
-172,169	800,000	-0,068	0,154
-171,154	-200,000	0,005	0,138
-170,139	-10,625	0,196	0,092
-169,125	639,001	-0,058	-0,104
-168,110	800,000	0,013	-0,039
-167,096	-200,000	0,004	-0,035
-166,081	-72,374	-0,047	-0,012
-165,066	61,110	0,045	0,032
-164,052	33,298	0,068	-0,042
-163,037	-147,874	0,058	0,003
-162,023	-200,000	-0,012	-0,083
-161,008	689,369	0,067	0,124
-159,993	38,960	0,113	0,071
-158,979	-38,381	-0,009	-0,003
-157,964	105,211	-0,111	0,093
-156,950	472,466	-0,039	-0,063
-155,935	-33,905	-0,045	0,017
-154,920	-57,148	0,094	0,029
-153,906	800,000	0,068	0,193
-152,891	-162,100	-0,091	0,003
-151,877	625,090	-0,030	0,054
-150,862	-200,000	-0,023	0,082
-149,847	119,635	-0,077	-0,068
-148,833	-200,000	0,018	0,068
-147,818	-74,463	-0,085	-0,022
-146,804	800,000	0,068	0,163
-145,789	547,693	-0,013	0,022
-144,775	-200,000	-0,000	0,111
-143,760	243,503	0,084	-0,100
-142,745	27,553	0,153	-0,091
-141,731	800,000	0,072	-0,169
-140,716	739,368	0,118	0,225
-139,702	-36,426	0,038	0,014
-138,687	380,882	0,057	-0,083
-137,672	686,626	-0,044	0,082
-136,658	81,357	-0,057	-0,044
-135,643	-200,000	-0,024	0,096
-134,629	-200,000	-0,021	0,127
-133,614	171,373	0,032	-0,032
-132,599	781,520	0,020	0,039
-131,585	199,412	0,035	0,038
-130,570	-200,000	0,020	0,077
-129,556	396,418	0,046	-0,068
-128,541	-200,000	0,011	-0,066
-127,526	-108,287	-0,077	0,012
-126,512	-200,000	-0,001	-0,048
-125,497	125,070	-0,064	-0,057
-124,483	800,000	0,030	-0,078
-123,468	10,007	-0,075	-0,040
-122,453	-26,749	-0,087	0,036
-121,439	119,812	0,055	0,049
-120,424	-19,415	-0,048	0,021
-119,410	800,000	0,053	0,130
-118,395	-116,308	-0,085	-0,011
-117,380	-200,000	0,010	-0,051
-116,366	625,988	-0,061	0,109
-115,351	140,951	-0,120	-0,112
-114,337	-38,707	-0,008	-0,003
-113,322	-163,725	-0,111	-0,004
-112,307	800,000	0,029	0,085
-111,293	399,444	-0,107	0,159
-110,278	542,129	-0,066	0,112
-109,264	-200,000	0,049	0,180
-108,249	800,000	-0,121	0,249
-107,234	-60,733	-0,199	0,059
-106,220	-35,983	0,068	-0,026
-105,205	12,207	0,137	0,074
-104,191	-32,212	0,097	-0,038
-103,176	4,217	0,133	-0,068
-102,162	165,331	-0,107	0,107
-101,147	800,000	-0,036	0,102
-100,132	169,241	0,070	-0,070
-99,118	186,540	0,076	-0,081
-98,103	-102,576	0,095	-0,016
-97,089	175,520	0,050	-0,051
-96,074	-113,947	-0,080	0,011
-95,059	800,000	-0,022	0,066
-94,045	-84,152	-0,068	0,015
-93,030	800,000	-0,041	-0,092
-92,016	550,883	0,067	-0,114
-91,001	99,366	0,059	-0,048
-89,986	134,437	0,075	-0,069
-88,972	-200,000	-0,019	0,086
-87,957	-200,000	0,015	-0,118
-86,943	-32,868	0,110	-0,043
-85,928	-200,000	0,019	-0,128
-84,913	100,195	-0,101	0,083
-83,899	14,034	0,028	-0,015
-82,884	-124,616	0,149	-0,016
-81,870	47,997	0,084	-0,055
-80,855	-123,845	0,118	-0,013
-79,840	-100,017	-0,174	-0,030
-78,826	284,675	0,066	-0,085
-77,811	-200,000	0,025	-0,089
-76,797	18,987	0,034	-0,019
-75,782	25,811	-0,035	0,020
-74,767	800,000	0,033	-0,100
-73,753	-200,000	-0,001	-0,007
-72,738	800,000	0,052	-0,109
-71,724	-55,291	-0,243	-0,077
-70,709	-64,543	-0,144	-0,041
-69,694	-81,181	-0,189	0,044
-68,680	265,719	-0,012	0,014
-67,665	90,756	0,109	0,086
-66,651	-151,922	-0,050	-0,003
-65,636	-41,631	-0,036	-0,013
-64,622	-104,767	-0,166	0,027
-63,607	-200,000	0,021	-0,120
-62,592	-200,000	-0,008	-0,078
-61,578	-131,212	-0,060	-0,006
-60,563	157,900	0,087	0,086
-59,549	632,996	-0,052	0,094
-58,534	12,262	-1,992	-1,079
-57,519	416,612	-1,311	-1,981
-56,505	-200,000	-0,266	-4,308
-55,490	497,477	0,848	1,383
-54,476	800,000	5,255	11,518
-53,461	-200,000	21,108	339,744
-52,446	800,000	759,438	2356,832
-51,432	558,773	1662,231	2841,401
-50,417	73,524	1660,852	1225,720
-49,403	17,954	1534,542	860,287
-48,388	11,912	1457,695	788,004
-47,373	19,339	1448,935	818,855
-46,359	15,399	1438,139	793,998
-45,344	10,199	1434,073	766,983
-44,330	10,117	1432,317	765,622
-43,315	10,121	1430,375	764,572
-42,300	10,064	1428,742	763,396
-41,286	10,108	1427,545	762,938
-40,271	10,109	1426,176	762,179
-39,257	10,092	1425,084	761,487
-38,242	10,135	1423,901	761,027
-37,227	10,170	1422,675	760,506
-36,213	10,171	1421,428	759,814
-35,198	10,150	1420,379	759,122
-34,184	10,190	1419,446	758,785
-33,169	10,141	1417,915	757,703
-32,154	10,193	1416,890	757,371
-31,140	10,166	1415,688	756,574
-30,125	10,200	1414,627	756,133
-29,111	10,184	1413,468	755,409
-28,096	10,163	1412,397	754,710
-27,082	10,073	1411,117	753,572
-26,067	10,070	1410,176	753,028
-25,052	10,124	1409,081	752,667
-24,038	10,101	1408,123	752,017
-23,023	10,094	1407,016	751,364
-22,009	10,078	1406,261	750,853
-20,994	10,060	1405,283	750,218
-19,979	10,082	1404,327	749,782
-18,965	10,038	1403,452	749,080
-17,950	10,034	1402,496	748,522
-16,936	10,013	1401,746	747,992
-15,921	9,958	1400,563	747,078
-14,906	10,016	1399,682	746,846
-13,892	10,067	1398,554	746,453
-12,877	10,029	1397,849	745,869
-11,863	10,007	1397,116	745,349
-10,848	9,983	1396,075	744,648
-9,833	9,951	1395,379	744,101
-8,819	9,942	1394,422	743,521
-7,804	9,889	1393,535	742,772
-6,790	9,933	1392,503	742,394
-5,775	9,974	1391,151	741,835
-4,760	9,944	1390,308	741,215
-3,746	9,928	1389,414	740,635
-2,731	9,891	1388,675	740,042
-1,717	9,872	1387,928	739,529
-0,702	9,892	1386,149	738,641
0,313	14,021	1299,058	711,085
1,327	30,405	690,201	414,933
2,342	47,171	119,539	78,317
3,356	1,785	16,526	8,371
4,371	5,907	3,441	1,790
5,386	1,407	1,016	0,513
6,400	-200,000	0,171	0,601
7,415	-4,638	-0,239	-0,116
8,429	-0,164	-0,347	-0,173
9,444	-1,115	-0,282	-0,140
10,459	-19,717	-0,314	-0,136
11,473	-0,311	-0,279	-0,139
12,488	31,479	-0,218	-0,132
13,502	39,225	-0,261	-0,164
14,517	128,367	-0,259	-0,232
15,531	87,296	-0,368	-0,287
16,546	174,790	-0,245	-0,250
17,561	13,971	-0,296	-0,162
18,575	-125,776	-0,190	-0,020
19,590	22,649	-0,282	-0,162
20,604	21,539	-0,201	-0,115
21,619	-35,151	-0,478	-0,182
22,634	-64,472	-0,434	-0,123
23,648	200,730	-0,352	-0,381
24,663	58,462	-0,375	-0,258
25,677	12,399	-0,283	-0,153
26,692	85,851	-0,348	-0,269
27,707	85,367	-0,399	-0,308
28,721	64,300	-0,375	-0,265
29,736	59,277	-0,375	-0,259
30,750	176,888	-0,422	-0,432
31,765	14,095	-0,376	-0,205
32,780	229,411	-0,366	-0,421
33,794	-8,648	-0,402	-0,189
34,809	217,080	-0,257	-0,288
35,823	103,426	-0,328	-0,270
36,838	57,868	-0,446	-0,306
37,853	104,158	-0,417	-0,345
38,867	206,120	-0,319	-0,349
39,882	57,104	-0,253	-0,173
40,896	102,936	-0,288	-0,237
41,911	24,310	-0,275	-0,160
42,926	20,088	-0,326	-0,184
43,940	70,913	-0,323	-0,235
44,955	-35,244	-0,319	-0,121
45,969	-24,605	-0,472	-0,196
46,984	-26,935	-0,253	-0,103
47,999	-17,858	-0,296	-0,130
49,013	129,858	-0,265	-0,238
50,028	90,009	-0,355	-0,279
51,042	41,398	-0,428	-0,271
52,057	90,019	-0,325	-0,255
53,071	125,613	-0,286	-0,253
54,086	-1,744	-0,388	-0,191
55,101	50,178	-0,359	-0,238
56,115	27,901	-0,244	-0,144
57,130	36,438	-0,521	-0,322
58,144	32,025	-0,512	-0,309
59,159	20,376	-0,439	-0,248
60,174	54,450	-0,401	-0,271
61,188	87,410	-0,287	-0,223
62,203	-109,031	-0,447	-0,066
63,217	-73,813	-0,323	-0,082
64,232	23,128	-0,360	-0,207
65,247	84,837	-0,279	-0,214
66,261	19,226	-0,411	-0,231
67,276	100,676	-0,366	-0,298
68,290	61,743	-0,378	-0,264
69,305	69,020	-0,338	-0,243
70,320	404,045	-0,180	-0,266
71,334	-19,913	-0,222	-0,096
72,349	219,324	-0,207	-0,233
73,363	31,960	-0,482	-0,290
74,378	-45,911	-0,361	-0,124
75,393	41,351	-0,268	-0,170
76,407	63,068	-0,232	-0,163
77,422	3,739	-0,340	-0,173
78,436	-117,821	-0,210	-0,026
79,451	-63,584	-0,291	-0,083
80,466	95,708	-0,230	-0,184
81,480	12,033	-0,389	-0,209
82,495	84,565	-0,347	-0,266
83,509	-53,953	-0,311	-0,099
84,524	-39,054	-0,302	-0,111
85,539	-3,231	-0,180	-0,088
86,553	6,725	-0,225	-0,117
87,568	202,259	-0,221	-0,239
88,582	330,788	-0,245	-0,332
89,597	78,496	-0,227	-0,170
90,611	-61,475	-0,284	-0,083
91,626	7,693	-0,270	-0,141
92,641	95,659	-0,271	-0,216
93,655	12,856	-0,304	-0,164
94,670	-34,505	-0,362	-0,138
95,684	104,742	-0,361	-0,298
96,699	249,554	-0,218	-0,259
97,714	18,980	-0,374	-0,209
98,728	66,152	-0,257	-0,182
99,743	471,003	-0,171	-0,271
100,757	31,176	-0,298	-0,178
101,772	32,848	-0,292	-0,176
102,787	224,654	-0,248	-0,281
103,801	267,324	-0,141	-0,173
104,816	-12,248	-0,346	-0,158
105,830	-31,726	-0,267	-0,104
106,845	-71,807	-0,369	-0,095
107,860	13,833	-0,068	-0,037
108,874	-93,060	-0,382	-0,074
109,889	10,818	-0,263	-0,140
110,903	398,583	-0,170	-0,249
111,918	72,741	-0,206	-0,150
112,933	2,451	-0,333	-0,168
113,947	800,000	-0,125	-0,246
114,962	800,000	-0,100	-0,214
115,976	78,390	-0,368	-0,274
116,991	193,092	-0,251	-0,265
118,006	386,610	-0,136	-0,197
119,020	-73,635	-0,256	-0,065
120,035	118,197	-0,204	-0,176
121,049	5,071	-0,149	-0,076
122,064	-4,332	-0,226	-0,109
123,079	800,000	-0,105	-0,206
124,093	101,557	-0,284	-0,231
125,108	66,722	-0,193	-0,137
126,122	47,656	-0,324	-0,211
127,137	531,028	-0,155	-0,256
128,151	136,537	-0,276	-0,251
129,166	205,812	-0,182	-0,197
130,181	98,896	-0,290	-0,233
131,195	116,434	-0,126	-0,107
132,210	121,184	-0,263	-0,229
133,224	38,785	-0,322	-0,200
134,239	-175,405	-0,380	-0,007
135,254	-7,461	-0,257	-0,121
136,268	167,329	-0,174	-0,173
137,283	190,500	-0,214	-0,225
138,297	282,319	-0,227	-0,284
139,312	38,381	-0,250	-0,155
140,327	766,778	-0,086	-0,164
141,341	63,855	-0,147	-0,103
142,356	-67,751	-0,197	-0,053
143,370	-37,990	-0,254	-0,094
144,385	2,875	-0,299	-0,151
145,400	157,255	-0,277	-0,267
146,414	19,622	-0,267	-0,149
147,429	161,793	-0,278	-0,271
148,443	207,566	-0,239	-0,260
149,458	45,204	-0,210	-0,134
150,473	117,345	-0,264	-0,226
151,487	-200,000	-0,025	-0,077
152,502	65,893	-0,291	-0,205
153,516	-6,621	-0,263	-0,124
154,531	-73,262	-0,392	-0,099
155,546	290,496	-0,164	-0,207
156,560	4,601	-0,256	-0,130
157,575	376,368	-0,136	-0,194
158,589	171,997	-0,286	-0,286
159,604	-1,154	-0,319	-0,156
160,619	637,326	-0,168	-0,299
161,633	88,955	-0,180	-0,139
162,648	78,078	-0,247	-0,183
163,662	679,564	-0,177	-0,322
164,677	137,886	-0,197	-0,180
165,692	68,471	-0,275	-0,196
166,706	78,182	-0,200	-0,148
167,721	215,273	-0,153	-0,169
168,735	-12,064	-0,173	-0,078
169,750	-165,238	-0,246	0,007
170,764	-85,222	-0,214	-0,046
171,779	401,813	-0,171	-0,250
172,794	13,913	-0,240	-0,129
173,808	746,746	-0,159	-0,300
174,823	426,017	-0,152	-0,228
175,837	-58,555	-0,350	-0,105
176,852	312,000	-0,156	-0,203
177,867	52,412	-0,153	-0,101
178,881	-171,272	-0,268	-0,006
179,896	54,186	-0,144	-0,096
180,910	580,546	-0,141	-0,241
181,925	800,000	-0,100	-0,214
182,940	59,158	-0,278	-0,189
183,954	161,243	-0,200	-0,194
184,969	292,518	-0,245	-0,311
185,983	-9,078	-0,269	-0,125
186,998	327,275	-0,217	-0,290
188,013	21,606	-0,164	-0,092
189,027	19,257	-0,248	-0,138
190,042	108,185	-0,147	-0,121
191,056	-50,050	-0,136	-0,044
192,071	299,158	-0,171	-0,219
193,086	-104,570	-0,180	-0,029
194,100	-113,275	-0,254	-0,034
195,115	86,635	-0,113	-0,086
196,129	593,773	-0,098	-0,168
197,144	-10,598	-0,274	-0,125
198,159	196,087	-0,153	-0,162
199,173	15,628	-0,182	-0,099
200,188	-176,231	-0,137	-0,002
201,202	583,589	-0,189	-0,322
202,217	12,526	-0,164	-0,087
203,232	-31,365	-0,138	-0,053
204,246	613,812	-0,185	-0,322
205,261	157,284	-0,164	-0,157
206,275	309,296	-0,179	-0,232
207,290	-200,000	-0,079	-0,275
208,304	800,000	-0,106	-0,262
209,319	265,822	-0,092	-0,111
210,334	128,542	-0,239	-0,211
211,348	10,107	-0,288	-0,151
212,363	-13,701	-0,161	-0,072
213,377	-200,000	-0,040	-0,238
214,392	308,868	-0,110	-0,142
215,407	-73,323	-0,026	0,006
216,421	-90,458	-0,158	-0,031
217,436	-55,425	-0,271	-0,084
218,450	153,330	-0,101	-0,096
219,465	-10,866	-0,280	-0,127
220,480	205,399	-0,161	-0,173
221,494	-95,761	-0,150	-0,027
222,509	190,550	-0,142	-0,147
223,523	-14,404	-0,209	-0,092
224,538	-22,060	-0,314	-0,131
225,553	-147,645	-0,144	0,008
226,567	51,721	-0,270	-0,177
227,582	0,524	-0,296	-0,146
228,596	800,000	-0,077	-0,195
229,611	-111,728	-0,126	0,017
230,626	211,805	-0,057	-0,063
231,640	21,364	-0,265	-0,148
232,655	-200,000	-0,205	-0,000
233,669	453,655	-0,104	-0,160
234,684	-72,036	-0,108	-0,028
235,699	68,349	-0,169	-0,119
236,713	-200,000	-0,054	-0,205
237,728	205,178	-0,167	-0,179
238,742	753,932	-0,137	-0,256
239,757	250,183	-0,184	-0,216
240,772	46,904	-0,176	-0,112
241,786	-120,008	-0,173	-0,020
242,801	-141,151	-0,094	0,007
243,815	-28,520	-0,103	-0,041
244,830	-80,315	-0,159	0,036
245,844	-16,071	-0,207	-0,090
246,859	-51,458	-0,170	-0,055
247,874	166,259	-0,203	-0,199
248,888	-14,183	-0,164	-0,073
249,903	-7,349	-0,254	-0,118
250,917	-10,980	-0,116	-0,052
251,932	12,166	-0,132	-0,070
252,947	151,775	-0,182	-0,171
253,961	-28,251	-0,299	-0,119
254,976	-163,125	-0,081	0,003
255,990	29,300	-0,259	-0,151
257,005	-154,024	-0,257	-0,012
258,020	121,183	-0,159	-0,136
259,034	-85,506	-0,146	-0,031
260,049	-200,000	-0,009	-0,094
261,063	-13,300	-0,217	-0,097
262,078	800,000	-0,082	-0,244
263,093	89,593	-0,251	-0,193
264,107	373,776	-0,135	-0,190
265,122	-147,738	-0,113	0,006
266,136	59,142	-0,146	-0,099
267,151	-2,231	-0,208	-0,100
268,166	-61,219	-0,173	-0,050
269,180	-66,818	-0,358	-0,097
270,195	800,000	-0,089	-0,256
271,209	-37,835	-0,165	-0,060
272,224	800,000	-0,075	-0,172
273,239	23,682	-0,225	-0,127
274,253	-200,000	-0,004	-0,081
275,268	44,979	-0,270	-0,171
276,282	596,414	-0,161	-0,275
277,297	287,661	-0,128	-0,159
278,312	144,788	-0,113	-0,104
279,326	64,268	-0,079	-0,055
280,341	351,712	-0,111	-0,152
281,355	121,101	-0,165	-0,142
282,370	800,000	-0,122	-0,270
283,384	47,929	-0,137	-0,088
284,399	162,744	-0,206	-0,199
285,414	141,097	-0,182	-0,166
286,428	312,810	-0,102	-0,132
287,443	224,202	-0,130	-0,144
288,457	232,796	-0,183	-0,207
289,472	5,406	-0,160	-0,081
290,487	-31,499	-0,175	-0,067
291,501	620,122	-0,135	-0,234
292,516	-31,663	-0,255	-0,098
293,530	47,944	-0,129	-0,083
294,545	69,166	-0,103	-0,073
295,560	776,339	-0,045	-0,085
296,574	-47,487	-0,200	0,066
297,589	-46,029	-0,099	-0,033
298,603	126,081	-0,116	-0,101
299,618	-95,175	-0,200	-0,037
300,633	4,610	-0,283	-0,142
301,647	110,227	-0,093	-0,077
302,662	-21,279	-0,145	-0,061
303,676	-152,889	-0,241	0,011
304,691	55,459	-0,200	-0,133
305,706	171,093	-0,138	-0,136
306,720	800,000	-0,047	-0,125
307,735	12,684	-0,205	-0,108
308,749	-49,654	-0,096	-0,031
309,764	229,924	-0,102	-0,115
310,779	-200,000	0,013	-0,163
311,793	234,342	-0,157	-0,178
312,808	-145,866	-0,192	0,011
313,822	85,311	-0,147	-0,111
314,837	105,415	-0,147	-0,119
315,852	-167,421	-0,178	0,005
316,866	-200,000	-0,139	0,000
317,881	-50,050	-0,206	-0,067
318,895	23,217	-0,188	-0,105
319,910	87,635	-0,142	-0,108
320,925	139,462	-0,197	-0,178
321,939	-24,436	-0,209	-0,085
322,954	77,961	-0,146	-0,107
323,968	-198,436	-0,099	0,000
324,983	-14,768	-0,328	-0,144
325,997	178,313	-0,136	-0,136
327,012	37,068	-0,060	-0,036
328,027	144,740	-0,169	-0,155
329,041	375,675	-0,073	-0,103
330,056	-200,000	-0,020	-0,221
331,070	-166,827	-0,170	-0,005
332,085	800,000	-0,081	-0,218
333,100	-104,718	-0,229	0,036
334,114	129,748	-0,187	-0,164
335,129	48,419	-0,201	-0,129
336,143	130,508	-0,136	-0,119
337,158	107,948	-0,128	0,104
338,173	-73,544	-0,059	-0,015
339,187	-197,283	-0,092	-0,000
340,202	-26,892	-0,114	-0,045
341,216	800,000	-0,089	-0,189
342,231	493,814	-0,089	-0,141
343,246	-6,296	-0,183	-0,085
344,260	800,000	-0,044	-0,117
345,275	421,962	-0,100	-0,147
346,289	163,673	-0,120	-0,116
347,304	161,446	-0,184	-0,176
348,319	-16,331	-0,105	-0,045
349,333	675,690	-0,118	-0,210
350,348	800,000	-0,117	-0,222
351,362	39,338	-0,219	-0,134
352,377	-200,000	-0,030	-0,138
353,392	-200,000	-0,032	-0,112
354,406	-178,314	-0,079	0,001
355,421	207,147	1306,398	1394,320
356,435	159,344	1466,077	1394,809
