DTS Sentinel unit serial number:	SN410029Multiplexer serial number:	ORYXHardware model number:	OX2-SRSoftware version number:	ORYX F/W v4,00 Oryx Data Collector v3.7.2.0data status	okinstallation	B3 Nyhavnadifferential loss correction	single-endedforward channel	channel 1reverse channel	N/Adate	2023/12/04time	05:47:30forward acquisition time	300,00reverse acquisition time	0,00gamma	499,1914k internal	0,3206k external	0,3206temperature offset calibration	1,0000default loss term (dB/km)	0,3820temperature slope calibration	1,0000multiplexer offset coefficient	1,0000multiplexer slope coefficient	1,0000fibre end	0,00T internal ref (°C)	12,02T ext. ref 1 (°C)	-2,92T ext. ref 2 (°C)	-2,95length (m)	temperature (°C)	Stokes	anti-Stokes-744,400	60,531	-0,233	-0,167
-743,385	-200,000	-0,086	0,497
-742,371	800,000	-0,107	-0,232
-741,356	-200,000	0,002	0,253
-740,342	-108,943	-0,238	-0,036
-739,327	-200,000	0,087	0,292
-738,312	312,739	-0,216	-0,295
-737,298	800,000	-0,065	0,201
-736,283	-29,960	-0,202	-0,083
-735,269	800,000	0,068	0,195
-734,254	298,216	-0,245	-0,328
-733,239	520,581	-0,091	0,155
-732,225	52,537	-0,176	-0,122
-731,210	463,700	0,064	0,105
-730,196	800,000	-0,023	-0,056
-729,181	213,986	-0,042	-0,048
-728,167	24,996	0,076	0,046
-727,152	-91,113	-0,051	0,011
-726,137	-200,000	0,020	0,160
-725,123	-109,814	-0,150	-0,023
-724,108	19,767	-0,103	-0,060
-723,094	8,904	-0,085	-0,046
-722,079	-200,000	0,010	-0,054
-721,064	375,316	-0,058	-0,087
-720,050	16,435	-0,107	0,061
-719,035	-12,088	-0,197	-0,093
-718,021	-159,276	-0,091	-0,004
-717,006	-200,000	-0,015	-0,157
-715,991	800,000	0,076	-0,195
-714,977	262,038	-0,105	-0,132
-713,962	367,979	-0,068	-0,100
-712,948	123,989	0,031	-0,028
-711,933	-55,024	-0,124	0,040
-710,918	800,000	-0,021	-0,060
-709,904	800,000	0,016	0,045
-708,889	-200,000	-0,007	-0,077
-707,875	-200,000	-0,037	-0,141
-706,860	-200,000	0,017	-0,108
-705,845	493,045	0,011	0,019
-704,831	-200,000	0,036	0,169
-703,816	61,258	-0,046	0,033
-702,802	-200,000	-0,012	-0,038
-701,787	392,917	-0,058	0,088
-700,772	325,900	-0,079	-0,110
-699,758	448,836	-0,038	-0,062
-698,743	800,000	-0,044	0,089
-697,729	-91,063	-0,055	0,011
-696,714	-200,000	-0,010	-0,032
-695,699	800,000	0,012	0,031
-694,685	26,071	-0,129	-0,078
-693,670	627,334	0,032	0,058
-692,656	230,721	-0,075	0,089
-691,641	800,000	0,019	0,052
-690,627	-9,546	0,026	0,012
-689,612	19,721	-0,113	0,066
-688,597	-200,000	0,008	-0,169
-687,583	-94,355	-0,086	-0,017
-686,568	800,000	-0,018	-0,058
-685,554	10,803	-0,018	-0,010
-684,539	-21,433	0,060	0,027
-683,524	-59,336	0,148	-0,046
-682,510	393,921	-0,061	-0,092
-681,495	44,070	-0,080	0,053
-680,481	11,141	-0,054	-0,030
-679,466	-200,000	0,032	0,173
-678,451	800,000	-0,003	-0,009
-677,437	800,000	-0,038	-0,092
-676,422	800,000	-0,043	0,120
-675,408	196,335	-0,051	-0,056
-674,393	482,739	0,056	0,092
-673,378	-57,269	-0,094	0,030
-672,364	166,740	-0,098	-0,100
-671,349	-162,348	-0,026	-0,001
-670,335	-6,596	-0,096	0,047
-669,320	228,582	0,022	0,026
-668,305	800,000	-0,046	0,134
-667,291	-112,192	0,033	0,005
-666,276	131,000	-0,052	0,048
-665,262	-200,000	-0,002	0,026
-664,247	800,000	0,032	0,077
-663,232	81,560	0,130	-0,102
-662,218	-30,424	-0,098	0,040
-661,203	203,557	0,087	0,097
-660,189	74,133	0,043	0,032
-659,174	-96,998	0,068	-0,013
-658,159	-200,000	-0,001	-0,211
-657,145	-139,220	-0,046	-0,004
-656,130	-93,297	0,081	-0,016
-655,116	23,134	-0,091	0,054
-654,101	69,204	-0,036	-0,027
-653,086	-75,724	0,083	-0,021
-652,072	80,272	0,027	0,021
-651,057	387,154	-0,035	0,052
-650,043	264,513	-0,022	-0,027
-649,028	587,068	0,035	-0,062
-648,014	-200,000	0,022	0,105
-646,999	70,058	0,054	0,040
-645,984	4,687	-0,049	-0,026
-644,970	800,000	-0,047	-0,123
-643,955	151,420	0,085	-0,084
-642,941	42,450	-0,069	0,045
-641,926	200,586	0,039	-0,043
-640,911	-200,000	0,003	-0,119
-639,897	-31,260	-0,090	0,036
-638,882	-105,268	-0,057	-0,009
-637,868	-200,000	-0,012	-0,057
-636,853	412,527	0,058	-0,089
-635,838	-200,000	0,007	-0,066
-634,824	-75,579	-0,130	-0,033
-633,809	-42,457	-0,027	-0,010
-632,795	-164,171	0,028	0,001
-631,780	-62,540	-0,058	0,017
-630,765	-75,541	0,128	-0,033
-629,751	800,000	-0,030	-0,071
-628,736	36,880	-0,092	-0,059
-627,722	496,549	0,059	-0,099
-626,707	-200,000	-0,024	-0,086
-625,692	800,000	0,026	-0,064
-624,678	136,880	-0,034	0,032
-623,663	-200,000	0,016	0,239
-622,649	-144,334	-0,112	-0,007
-621,634	-200,000	-0,033	-0,118
-620,619	50,510	0,048	-0,032
-619,605	-95,797	0,035	0,007
-618,590	336,414	0,073	0,103
-617,576	-200,000	0,027	0,126
-616,561	800,000	0,006	-0,013
-615,546	134,035	-0,101	-0,095
-614,532	69,010	0,182	-0,135
-613,517	60,794	-0,141	-0,101
-612,503	293,407	0,069	-0,091
-611,488	-39,221	-0,079	0,030
-610,474	78,342	0,030	0,023
-609,459	122,116	0,069	0,062
-608,444	-86,626	-0,136	0,030
-607,430	655,904	-0,028	-0,052
-606,415	800,000	-0,034	-0,086
-605,401	-100,230	0,052	0,009
-604,386	-83,235	-0,019	-0,004
-603,371	800,000	-0,025	0,056
-602,357	-46,782	0,124	-0,043
-601,342	-200,000	0,023	-0,079
-600,328	-77,430	-0,116	-0,029
-599,313	-84,762	0,088	0,020
-598,298	206,449	0,106	-0,119
-597,284	800,000	-0,030	-0,078
-596,269	9,037	0,036	0,020
-595,255	-119,742	0,192	-0,024
-594,240	584,452	-0,074	-0,132
-593,225	-38,684	-0,094	0,036
-592,211	368,434	-0,134	-0,197
-591,196	136,518	0,100	-0,094
-590,182	800,000	0,032	-0,075
-589,167	180,057	0,059	-0,063
-588,152	-77,360	0,075	-0,019
-587,138	58,156	-0,178	-0,126
-586,123	-73,758	-0,104	-0,027
-585,109	800,000	0,036	-0,080
-584,094	618,253	0,055	0,100
-583,079	143,427	-0,055	-0,053
-582,065	-76,554	0,071	0,018
-581,050	21,274	0,048	0,028
-580,036	-131,805	-0,019	-0,002
-579,021	-67,318	-0,166	-0,047
-578,006	68,489	0,140	-0,103
-576,992	-80,774	0,073	0,017
-575,977	293,917	-0,029	0,039
-574,963	320,776	-0,042	0,058
-573,948	12,497	0,038	0,021
-572,934	-200,000	0,119	0,000
-571,919	699,053	-0,120	-0,229
-570,904	15,140	-0,047	0,027
-569,890	19,761	0,145	0,084
-568,875	-124,863	0,062	-0,007
-567,861	-200,000	-0,023	-0,147
-566,846	-38,625	-0,018	-0,007
-565,831	-100,096	0,124	-0,022
-564,817	40,342	-0,099	0,064
-563,802	204,761	-0,073	0,081
-562,788	229,893	0,032	0,038
-561,773	-200,000	0,004	-0,082
-560,758	-21,349	0,045	-0,020
-559,744	128,331	-0,127	0,117
-558,729	800,000	-0,035	-0,096
-557,715	619,601	0,038	-0,069
-556,700	362,974	-0,070	-0,101
-555,685	36,650	-0,049	-0,031
-554,671	-200,000	0,009	-0,130
-553,656	-93,866	0,157	0,031
-552,642	82,924	0,064	0,050
-551,627	484,338	0,000	0,001
-550,612	800,000	0,013	-0,038
-549,598	50,084	-0,077	-0,052
-548,583	289,167	0,033	-0,043
-547,569	-200,000	-0,030	0,169
-546,554	734,432	-0,058	0,113
-545,539	-125,840	0,056	0,006
-544,525	-19,181	-0,044	0,020
-543,510	-200,000	-0,006	0,102
-542,496	800,000	0,010	0,025
-541,481	-200,000	0,003	0,016
-540,466	84,668	0,096	-0,075
-539,452	-200,000	-0,005	-0,059
-538,437	-200,000	0,016	-0,115
-537,423	-175,599	-0,121	0,002
-536,408	-200,000	-0,005	0,107
-535,393	-2,866	-0,090	-0,045
-534,379	-72,635	0,073	0,019
-533,364	95,348	-0,089	-0,073
-532,350	-113,156	0,128	-0,018
-531,335	-53,085	0,055	-0,018
-530,321	800,000	-0,021	0,048
-529,306	-0,420	-0,037	-0,019
-528,291	-85,695	-0,021	-0,005
-527,277	-200,000	-0,008	0,057
-526,262	800,000	0,018	0,050
-525,248	-200,000	0,005	0,097
-524,233	5,221	0,008	-0,004
-523,218	-146,035	0,142	-0,009
-522,204	-62,185	-0,125	0,037
-521,189	-144,474	-0,131	-0,009
-520,175	205,762	-0,167	-0,188
-519,160	109,770	0,084	0,073
-518,145	800,000	0,043	0,103
-517,131	367,870	0,031	0,045
-516,116	336,164	-0,079	0,111
-515,102	-129,374	-0,132	0,013
-514,087	-200,000	-0,017	-0,107
-513,072	-200,000	0,014	-0,087
-512,058	800,000	0,087	0,186
-511,043	119,566	-0,032	-0,028
-510,029	-131,364	0,102	-0,010
-509,014	-52,605	-0,043	0,014
-507,999	-122,428	0,055	0,006
-506,985	109,041	-0,074	0,063
-505,970	226,580	-0,122	-0,143
-504,956	-185,414	0,077	-0,001
-503,941	-126,892	0,126	-0,013
-502,926	-200,000	0,010	-0,068
-501,912	-200,000	-0,022	0,096
-500,897	400,414	-0,046	-0,069
-499,883	487,612	0,039	0,065
-498,868	122,343	-0,124	-0,111
-497,853	-200,000	-0,029	-0,116
-496,839	800,000	-0,031	0,063
-495,824	180,249	0,098	0,103
-494,810	-200,000	-0,049	0,162
-493,795	36,444	0,046	-0,029
-492,781	-64,144	-0,199	0,058
-491,766	-200,000	0,006	-0,091
-490,751	95,768	-0,131	-0,107
-489,737	183,786	-0,070	0,075
-488,722	472,627	0,083	0,134
-487,708	-200,000	-0,009	0,039
-486,693	-182,380	-0,039	-0,001
-485,678	-128,324	0,060	0,006
-484,664	-122,521	0,017	-0,002
-483,649	-18,598	-0,114	-0,051
-482,635	344,025	0,047	0,066
-481,620	514,353	0,074	0,125
-480,605	800,000	-0,039	-0,091
-479,591	38,347	-0,050	0,032
-478,576	800,000	-0,045	0,113
-477,562	-137,990	-0,062	-0,005
-476,547	-38,018	-0,093	-0,035
-475,532	-49,551	-0,094	-0,032
-474,518	106,480	0,101	0,086
-473,503	31,171	-0,095	0,058
-472,489	78,075	-0,074	0,057
-471,474	657,025	-0,017	0,032
-470,459	122,612	-0,036	-0,032
-469,445	294,239	0,035	-0,046
-468,430	-200,000	-0,025	-0,134
-467,416	-105,500	0,097	0,016
-466,401	-200,000	-0,001	0,068
-465,386	-102,801	0,104	-0,018
-464,372	-30,477	-0,023	0,009
-463,357	-104,777	0,056	-0,009
-462,343	800,000	0,057	-0,145
-461,328	-19,193	-0,071	0,031
-460,313	253,081	0,036	-0,044
-459,299	-200,000	-0,032	0,104
-458,284	-106,835	-0,009	-0,001
-457,270	-77,495	-0,060	-0,015
-456,255	132,975	0,094	-0,087
-455,241	-70,023	-0,052	0,014
-454,226	-200,000	-0,014	-0,139
-453,211	-72,700	0,024	0,006
-452,197	-57,069	0,086	-0,027
-451,182	-61,813	-0,071	-0,021
-450,168	-66,088	0,068	-0,019
-449,153	-129,399	-0,155	0,015
-448,138	-45,085	-0,077	0,027
-447,124	-3,595	-0,046	-0,023
-446,109	309,886	0,045	0,060
-445,095	84,647	0,092	-0,072
-444,080	-200,000	-0,001	0,141
-443,065	-200,000	0,001	-0,026
-442,051	800,000	-0,073	-0,209
-441,036	390,504	-0,056	-0,083
-440,022	108,407	-0,037	0,032
-439,007	800,000	0,043	-0,110
-437,992	-14,320	0,100	0,046
-436,978	223,968	0,047	-0,054
-435,963	42,739	0,108	0,071
-434,949	-200,000	0,046	0,229
-433,934	-200,000	-0,023	0,093
-432,919	800,000	-0,029	-0,063
-431,905	-110,677	-0,076	-0,011
-430,890	-3,632	0,050	-0,025
-429,876	-200,000	-0,006	0,097
-428,861	800,000	0,050	0,140
-427,846	-200,000	0,003	-0,058
-426,832	178,529	0,041	-0,043
-425,817	8,340	-0,063	-0,034
-424,803	-200,000	-0,024	0,165
-423,788	582,392	0,037	-0,066
-422,773	315,248	0,088	0,119
-421,759	48,434	0,037	-0,025
-420,744	-200,000	-0,017	0,152
-419,730	-111,090	0,047	-0,007
-418,715	48,281	-0,110	-0,074
-417,701	800,000	-0,023	0,053
-416,686	124,675	-0,076	0,069
-415,671	-8,042	0,089	-0,043
-414,657	-200,000	-0,006	-0,048
-413,642	800,000	0,031	0,081
-412,628	-64,019	0,077	0,022
-411,613	-64,388	-0,052	0,015
-410,598	800,000	-0,032	0,089
-409,584	-148,661	0,068	0,004
-408,569	122,603	0,108	-0,097
-407,555	392,808	-0,071	0,106
-406,540	647,863	-0,072	-0,133
-405,525	317,238	-0,068	-0,093
-404,511	-200,000	0,010	0,041
-403,496	800,000	-0,085	-0,209
-402,482	-200,000	0,047	-0,200
-401,467	800,000	-0,046	0,113
-400,452	800,000	-0,005	-0,014
-399,438	800,000	0,042	0,083
-398,423	81,398	-0,013	0,010
-397,409	-200,000	-0,019	-0,107
-396,394	9,955	-0,108	0,058
-395,379	582,941	0,050	0,089
-394,365	-79,607	0,111	0,027
-393,350	263,571	0,151	0,188
-392,336	-104,134	-0,098	0,016
-391,321	711,034	-0,013	0,025
-390,306	-170,806	0,025	-0,001
-389,292	-200,000	0,006	-0,164
-388,277	64,352	0,086	-0,062
-387,263	-30,709	0,178	-0,072
-386,248	84,741	0,121	0,095
-385,233	-30,586	0,041	-0,017
-384,219	-200,000	-0,015	-0,104
-383,204	603,069	0,050	0,089
-382,190	-67,445	0,093	0,026
-381,175	-200,000	0,012	0,057
-380,160	369,857	0,038	0,056
-379,146	800,000	-0,010	-0,021
-378,131	800,000	0,065	-0,184
-377,117	657,944	0,034	0,063
-376,102	4,543	-0,145	-0,076
-375,088	800,000	-0,041	-0,084
-374,073	28,636	-0,023	0,014
-373,058	68,232	0,053	-0,039
-372,044	513,779	-0,061	-0,102
-371,029	800,000	0,043	0,105
-370,015	142,229	0,137	0,130
-369,000	142,014	-0,128	-0,122
-367,985	800,000	-0,053	-0,129
-366,971	-200,000	-0,014	0,067
-365,956	800,000	0,022	-0,044
-364,942	364,807	0,050	0,072
-363,927	149,033	0,114	0,110
-362,912	-200,000	0,027	0,131
-361,898	-200,000	-0,010	-0,040
-360,883	139,333	-0,107	-0,101
-359,869	92,486	-0,052	-0,042
-358,854	-189,841	0,091	-0,001
-357,839	239,918	-0,066	0,079
-356,825	800,000	-0,061	0,172
-355,810	469,597	0,041	-0,066
-354,796	-176,338	-0,075	-0,001
-353,781	-80,032	-0,100	-0,024
-352,766	-200,000	0,005	-0,069
-351,752	162,474	-0,063	-0,063
-350,737	338,730	0,038	-0,053
-349,723	-3,267	-0,019	-0,010
-348,708	-111,251	0,183	0,026
-347,693	23,554	0,011	-0,007
-346,679	-151,473	0,034	0,002
-345,664	83,937	-0,041	0,032
-344,650	800,000	0,009	-0,022
-343,635	-200,000	0,013	0,091
-342,620	671,704	-0,033	-0,061
-341,606	119,625	0,062	-0,055
-340,591	149,867	0,003	-0,003
-339,577	288,061	-0,094	-0,122
-338,562	800,000	0,026	0,062
-337,548	432,022	0,107	0,166
-336,533	-172,033	0,088	0,002
-335,518	136,415	-0,112	0,104
-334,504	-0,385	-0,068	-0,034
-333,489	368,398	-0,037	-0,053
-332,475	-51,520	-0,108	-0,036
-331,460	264,441	-0,050	-0,062
-330,445	129,219	-0,092	0,084
-329,431	-9,262	0,046	-0,022
-328,416	-57,833	-0,031	0,010
-327,402	-102,694	-0,069	-0,012
-326,387	-70,249	-0,038	-0,010
-325,372	492,496	0,033	-0,055
-324,358	191,327	0,051	-0,055
-323,343	-18,194	-0,073	-0,033
-322,329	-200,000	-0,032	0,153
-321,314	176,845	0,166	0,173
-320,299	113,771	0,127	0,110
-319,285	-33,781	-0,074	-0,029
-318,270	86,660	-0,134	-0,105
-317,256	52,850	-0,111	-0,075
-316,241	139,384	-0,090	-0,085
-315,226	-39,639	-0,110	0,041
-314,212	23,354	0,032	0,019
-313,197	800,000	0,047	0,139
-312,183	-33,862	-0,067	0,026
-311,168	-113,204	0,054	-0,008
-310,153	-97,412	-0,103	0,019
-309,139	800,000	-0,015	-0,043
-308,124	-82,370	-0,051	0,012
-307,110	-200,000	-0,022	-0,071
-306,095	-200,000	-0,016	0,107
-305,080	399,424	-0,032	0,049
-304,066	800,000	0,040	-0,083
-303,051	-146,735	0,077	0,005
-302,037	214,476	-0,023	-0,026
-301,022	56,009	-0,121	0,084
-300,008	145,849	0,098	-0,094
-298,993	-200,000	-0,022	0,199
-297,978	-21,359	0,100	0,044
-296,964	-87,607	-0,088	-0,019
-295,949	607,235	0,041	0,074
-294,935	142,821	0,070	-0,067
-293,920	-126,389	0,082	-0,009
-292,905	-200,000	-0,001	0,022
-291,891	238,078	0,127	0,151
-290,876	697,697	-0,074	0,140
-289,862	568,200	-0,043	0,075
-288,847	394,210	-0,028	0,041
-287,832	43,948	0,040	0,026
-286,818	160,963	0,054	-0,054
-285,803	-172,577	0,095	0,002
-284,789	-200,000	-0,002	0,071
-283,774	47,401	0,024	-0,016
-282,759	103,914	0,085	-0,071
-281,745	-200,000	-0,000	-0,072
-280,730	91,795	0,106	-0,085
-279,716	800,000	0,047	-0,133
-278,701	229,148	0,059	0,068
-277,686	257,200	0,056	0,069
-276,672	-200,000	-0,002	0,043
-275,657	-105,422	0,197	0,032
-274,643	474,944	0,066	-0,107
-273,628	438,888	-0,024	-0,038
-272,613	-0,569	-0,072	0,036
-271,599	139,750	-0,093	0,088
-270,584	-200,000	0,026	0,105
-269,570	800,000	0,024	0,053
-268,555	-200,000	0,035	-0,110
-267,540	-61,815	-0,157	0,047
-266,526	-92,043	0,074	-0,015
-265,511	162,007	-0,149	-0,149
-264,497	800,000	0,038	0,106
-263,482	19,846	0,125	0,072
-262,467	800,000	0,052	0,127
-261,453	800,000	-0,039	0,091
-260,438	800,000	0,063	0,180
-259,424	78,556	-0,041	0,031
-258,409	589,093	0,087	-0,154
-257,395	-200,000	-0,005	0,024
-256,380	-37,460	0,098	0,037
-255,365	1,417	0,085	-0,043
-254,351	-4,314	0,073	-0,036
-253,336	-66,005	-0,140	-0,040
-252,322	-151,794	-0,045	-0,002
-251,307	-30,298	-0,089	-0,036
-250,292	-70,163	-0,085	-0,023
-249,278	85,885	-0,103	0,080
-248,263	-1,175	-0,145	0,073
-247,249	800,000	0,026	-0,053
-246,234	-200,000	0,009	0,078
-245,219	319,279	-0,067	-0,091
-244,205	800,000	-0,029	-0,071
-243,190	-11,500	0,118	-0,055
-242,176	-200,000	0,008	-0,038
-241,161	751,454	-0,037	0,072
-240,146	-200,000	-0,010	0,082
-239,132	-200,000	-0,014	0,045
-238,117	-54,995	0,028	0,009
-237,103	-81,822	0,139	0,032
-236,088	436,806	-0,028	0,044
-235,073	-200,000	0,011	-0,040
-234,059	-107,304	0,061	-0,009
-233,044	-26,245	0,080	0,033
-232,030	-54,727	-0,158	0,051
-231,015	-10,028	-0,107	0,051
-230,000	573,329	-0,049	0,086
-228,986	97,057	0,037	-0,030
-227,971	76,213	-0,069	-0,052
-226,957	405,889	0,084	0,127
-225,942	-139,099	0,073	0,006
-224,927	-9,020	-0,017	0,008
-223,913	31,762	0,112	0,068
-222,898	800,000	0,062	-0,155
-221,884	60,676	0,056	0,040
-220,869	28,571	0,045	0,027
-219,855	-200,000	-0,003	-0,070
-218,840	800,000	-0,035	-0,081
-217,825	-68,885	0,106	-0,029
-216,811	-132,666	-0,116	0,010
-215,796	159,032	0,055	-0,054
-214,782	-123,665	0,060	-0,007
-213,767	800,000	0,026	0,062
-212,752	524,220	0,031	0,051
-211,738	-160,097	0,075	0,003
-210,723	-200,000	0,006	0,050
-209,709	-70,855	-0,078	0,021
-208,694	729,310	-0,051	-0,098
-207,679	-101,675	0,070	-0,012
-206,665	-200,000	0,018	0,086
-205,650	-68,041	0,027	-0,007
-204,636	566,832	0,095	0,164
-203,621	28,938	0,060	0,036
-202,606	-200,000	-0,005	0,017
-201,592	163,537	-0,161	-0,161
-200,577	576,163	0,031	0,054
-199,563	221,056	0,012	-0,014
-198,548	3,428	0,006	-0,003
-197,533	341,141	0,059	0,082
-196,519	800,000	-0,026	0,063
-195,504	158,684	0,118	-0,117
-194,490	-200,000	-0,015	-0,112
-193,475	-11,218	-0,102	-0,048
-192,460	-26,847	0,054	0,022
-191,446	67,709	-0,095	0,069
-190,431	-80,781	0,101	0,024
-189,417	233,843	0,021	-0,025
-188,402	363,286	-0,058	0,083
-187,387	556,791	-0,067	-0,114
-186,373	12,647	-0,092	0,050
-185,358	655,499	-0,044	0,080
-184,344	401,928	0,016	0,023
-183,329	-20,006	0,098	0,043
-182,315	-131,345	-0,085	-0,008
-181,300	-200,000	0,018	-0,088
-180,285	-59,624	-0,046	-0,014
-179,271	-186,609	-0,149	0,001
-178,256	-56,535	0,136	-0,043
-177,242	-118,573	-0,049	-0,006
-176,227	-119,147	0,153	0,019
-175,212	26,713	-0,090	0,053
-174,198	-200,000	-0,040	0,257
-173,183	138,329	-0,105	-0,097
-172,169	51,864	0,017	-0,012
-171,154	239,398	-0,072	-0,086
-170,139	124,866	0,057	-0,051
-169,125	-55,894	0,121	0,038
-168,110	-95,093	-0,089	-0,017
-167,096	-145,373	-0,063	-0,004
-166,081	-200,000	0,021	0,108
-165,066	116,785	-0,108	0,094
-164,052	-76,364	-0,111	0,028
-163,037	-200,000	0,002	0,103
-162,023	197,235	0,037	0,040
-161,008	-148,513	0,139	0,008
-159,993	86,882	-0,108	0,085
-158,979	-3,973	0,085	0,042
-157,964	-200,000	-0,026	-0,150
-156,950	800,000	0,059	-0,145
-155,935	-154,177	-0,024	0,001
-154,920	-200,000	0,027	0,122
-153,906	34,581	0,046	0,029
-152,891	-200,000	0,011	-0,039
-151,877	527,761	-0,055	0,093
-150,862	296,024	-0,089	0,117
-149,847	800,000	0,057	0,141
-148,833	800,000	-0,036	-0,074
-147,818	637,252	-0,057	-0,103
-146,804	139,892	0,109	0,102
-145,789	133,672	0,083	0,077
-144,775	-54,272	0,214	-0,069
-143,760	-81,121	-0,058	-0,013
-142,745	152,343	0,098	-0,095
-141,731	-108,923	0,051	0,008
-140,716	-11,640	-0,076	0,035
-139,702	-109,670	0,103	0,015
-138,687	-60,419	0,083	0,025
-137,672	-36,600	-0,028	-0,011
-136,658	8,205	-0,072	0,038
-135,643	-200,000	-0,005	0,016
-134,629	312,362	0,032	0,042
-133,614	87,084	0,052	-0,041
-132,599	-113,788	0,067	0,009
-131,585	-59,793	0,060	0,018
-130,570	-47,916	-0,078	0,027
-129,556	-32,100	0,068	-0,027
-128,541	-95,850	-0,072	0,013
-127,526	-86,753	0,069	-0,015
-126,512	-200,000	0,038	0,180
-125,497	191,393	0,085	0,091
-124,483	-200,000	0,002	0,020
-123,468	-45,151	0,127	0,045
-122,453	-200,000	-0,034	-0,117
-121,439	-200,000	-0,035	-0,163
-120,424	800,000	0,028	0,065
-119,410	16,930	-0,098	-0,055
-118,395	800,000	0,027	0,060
-117,380	-200,000	0,018	0,108
-116,366	-200,000	0,000	-0,109
-115,351	-200,000	0,014	-0,084
-114,337	-200,000	0,000	-0,021
-113,322	-111,416	-0,056	0,008
-112,307	764,690	-0,016	0,031
-111,293	102,925	0,152	0,126
-110,278	-200,000	-0,039	0,134
-109,264	225,425	-0,104	-0,119
-108,249	362,764	-0,087	0,125
-107,234	800,000	-0,026	-0,064
-106,220	589,229	0,047	-0,083
-105,205	574,191	-0,038	-0,067
-104,191	-200,000	-0,015	0,110
-103,176	-21,639	0,149	0,064
-102,162	-200,000	-0,021	-0,075
-101,147	44,153	-0,083	0,054
-100,132	-143,374	-0,080	0,005
-99,118	211,533	-0,079	-0,088
-98,103	-74,518	-0,146	-0,037
-97,089	36,299	0,077	0,048
-96,074	-72,373	0,094	-0,024
-95,059	32,690	0,119	-0,073
-94,045	38,028	0,024	-0,015
-93,030	20,642	-0,041	-0,024
-92,016	93,059	0,059	-0,048
-91,001	-200,000	0,006	-0,080
-89,986	800,000	-0,068	0,155
-88,972	33,280	0,014	0,009
-87,957	-67,106	0,036	-0,010
-86,943	147,695	0,030	-0,029
-85,928	-50,978	-0,083	-0,027
-84,913	75,019	-0,082	-0,061
-83,899	-200,000	0,003	-0,120
-82,884	800,000	0,069	0,144
-81,870	-200,000	-0,001	0,077
-80,855	21,120	0,135	0,077
-79,840	-200,000	-0,007	0,030
-78,826	-200,000	0,000	0,084
-77,811	-107,356	0,067	-0,010
-76,797	800,000	-0,055	-0,134
-75,782	-200,000	-0,003	-0,025
-74,767	511,183	-0,075	0,124
-73,753	-108,765	0,070	-0,010
-72,738	-200,000	0,009	-0,084
-71,724	617,070	-0,029	-0,052
-70,709	800,000	0,020	0,050
-69,694	-117,033	-0,133	-0,017
-68,680	102,546	0,046	0,038
-67,665	72,374	0,048	0,036
-66,651	-31,939	0,066	-0,026
-65,636	125,315	-0,087	0,077
-64,622	429,012	-0,021	0,032
-63,607	800,000	0,074	-0,191
-62,592	389,042	-0,079	-0,117
-61,578	-200,000	0,001	0,115
-60,563	411,046	0,087	0,132
-59,549	-200,000	-0,005	0,066
-58,534	-13,511	-1,760	-0,804
-57,519	387,620	-1,375	-2,017
-56,505	-200,000	-0,625	-4,635
-55,490	219,996	1,175	1,333
-54,476	800,000	4,917	11,217
-53,461	-200,000	20,348	323,969
-52,446	800,000	752,491	2310,639
-51,432	548,462	1663,075	2827,010
-50,417	74,757	1671,301	1242,156
-49,403	19,857	1544,490	877,266
-48,388	13,884	1466,980	804,186
-47,373	18,423	1457,166	820,696
-46,359	16,285	1446,794	804,585
-45,344	12,116	1442,289	782,081
-44,330	12,080	1440,368	780,836
-43,315	12,089	1438,616	779,898
-42,300	12,093	1436,960	778,988
-41,286	12,103	1435,625	778,282
-40,271	12,065	1434,362	777,386
-39,257	12,015	1433,404	776,598
-38,242	12,057	1431,855	775,926
-37,227	12,135	1430,651	775,615
-36,213	12,109	1429,330	774,746
-35,198	12,112	1428,296	774,168
-34,184	12,112	1427,222	773,554
-33,169	12,045	1425,865	772,469
-32,154	12,114	1424,812	772,199
-31,140	12,127	1423,746	771,652
-30,125	12,202	1422,337	771,210
-29,111	12,119	1421,345	770,251
-28,096	12,099	1420,085	769,444
-27,082	12,061	1419,160	768,730
-26,067	12,087	1418,012	768,200
-25,052	12,069	1416,953	767,513
-24,038	12,053	1416,110	766,952
-23,023	12,045	1414,970	766,266
-22,009	12,058	1413,907	765,720
-20,994	12,034	1412,946	765,055
-19,979	12,011	1412,169	764,497
-18,965	11,972	1411,345	763,835
-17,950	12,016	1410,281	763,437
-16,936	11,989	1409,494	762,856
-15,921	11,943	1408,342	761,986
-14,906	11,952	1407,621	761,608
-13,892	12,003	1406,507	761,215
-12,877	11,960	1405,577	760,481
-11,863	11,949	1404,868	760,012
-10,848	11,917	1404,006	759,370
-9,833	11,854	1403,093	758,552
-8,819	11,877	1402,193	758,142
-7,804	11,827	1401,434	757,468
-6,790	11,845	1400,352	756,937
-5,775	11,907	1399,060	756,496
-4,760	11,872	1398,236	755,857
-3,746	11,826	1397,327	755,125
-2,731	11,844	1396,364	754,657
-1,717	11,814	1395,737	754,147
-0,702	11,777	1393,923	752,969
0,313	15,852	1308,617	725,664
1,327	32,251	699,199	425,369
2,342	49,941	121,821	81,043
3,356	-0,314	16,557	8,286
4,371	5,345	3,194	1,659
5,386	-51,356	0,654	0,215
6,400	800,000	0,095	0,252
7,415	320,513	-0,168	-0,226
8,429	407,833	-0,180	-0,269
9,444	115,166	-0,252	-0,217
10,459	-16,480	-0,355	-0,158
11,473	52,339	-0,284	-0,191
12,488	-44,148	-0,210	-0,074
13,502	12,533	-0,359	-0,195
14,517	-81,398	-0,324	-0,075
15,531	189,260	-0,270	-0,286
16,546	-26,310	-0,343	-0,141
17,561	27,842	-0,372	-0,221
18,575	-83,188	-0,133	0,030
19,590	355,498	-0,225	-0,317
20,604	134,212	-0,167	-0,153
21,619	135,411	-0,419	-0,384
22,634	38,768	-0,595	-0,374
23,648	100,849	-0,390	-0,320
24,663	195,070	-0,397	-0,426
25,677	256,160	-0,210	-0,254
26,692	23,266	-0,401	-0,232
27,707	-90,638	-0,376	-0,076
28,721	-11,555	-0,355	-0,164
29,736	73,638	-0,422	-0,311
30,750	106,000	-0,280	-0,233
31,765	91,904	-0,338	-0,268
32,780	-23,171	-0,347	-0,146
33,794	2,104	-0,376	-0,191
34,809	42,543	-0,347	-0,222
35,823	62,487	-0,346	-0,243
36,838	-81,238	-0,407	-0,094
37,853	223,964	-0,360	-0,410
38,867	150,513	-0,225	-0,215
39,882	-91,433	-0,438	-0,087
40,896	-0,895	-0,377	-0,187
41,911	-116,343	-0,403	-0,052
42,926	367,922	-0,289	-0,412
43,940	61,764	-0,321	-0,225
44,955	336,287	-0,195	-0,267
45,969	8,029	-0,355	-0,187
46,984	109,799	-0,360	-0,304
47,999	-3,236	-0,358	-0,175
49,013	235,180	-0,233	-0,271
50,028	57,071	-0,360	-0,246
51,042	92,179	-0,212	-0,168
52,057	150,598	-0,297	-0,284
53,071	21,193	-0,408	-0,233
54,086	151,458	-0,283	-0,271
55,101	222,618	-0,221	-0,250
56,115	-95,630	-0,397	-0,074
57,130	248,417	-0,251	-0,300
58,144	83,909	-0,317	-0,243
59,159	27,170	-0,479	-0,282
60,174	86,975	-0,380	-0,295
61,188	229,212	-0,291	-0,335
62,203	203,575	-0,349	-0,380
63,217	114,587	-0,307	-0,263
64,232	173,526	-0,300	-0,304
65,247	36,754	-0,368	-0,228
66,261	14,778	-0,401	-0,220
67,276	92,145	-0,426	-0,337
68,290	-6,560	-0,282	-0,134
69,305	-15,907	-0,348	-0,155
70,320	234,168	-0,213	-0,247
71,334	22,988	-0,312	-0,179
72,349	53,608	-0,220	-0,148
73,363	-52,941	-0,318	-0,102
74,378	-4,963	-0,403	-0,194
75,393	132,559	-0,368	-0,333
76,407	86,669	-0,285	-0,221
77,422	146,634	-0,238	-0,224
78,436	-91,577	-0,286	-0,057
79,451	-23,027	-0,452	-0,190
80,466	15,555	-0,354	-0,194
81,480	153,561	-0,305	-0,294
82,495	41,223	-0,243	-0,154
83,509	-146,779	-0,287	0,017
84,524	-92,447	-0,280	-0,055
85,539	-42,426	-0,335	-0,119
86,553	52,608	-0,238	-0,159
87,568	1,965	-0,360	-0,182
88,582	56,431	-0,310	-0,211
89,597	145,240	-0,292	-0,274
90,611	650,644	-0,158	-0,285
91,626	-3,197	-0,284	-0,138
92,641	-84,490	-0,363	-0,080
93,655	224,108	-0,202	-0,229
94,670	-100,018	-0,332	-0,057
95,684	96,199	-0,291	-0,233
96,699	21,963	-0,355	-0,202
97,714	181,164	-0,237	-0,244
98,728	-12,600	-0,322	-0,147
99,743	222,491	-0,211	-0,238
100,757	107,108	-0,243	-0,202
101,772	576,434	-0,181	-0,311
102,787	12,027	-0,356	-0,191
103,801	121,950	-0,274	-0,239
104,816	-1,840	-0,324	-0,159
105,830	166,311	-0,149	-0,147
106,845	-16,440	-0,323	-0,143
107,860	-20,666	-0,322	-0,138
108,874	-107,799	-0,282	-0,042
109,889	78,263	-0,294	-0,219
110,903	-39,790	-0,290	-0,106
111,918	70,222	-0,243	-0,176
112,933	-26,817	-0,323	-0,131
113,947	217,831	-0,117	-0,131
114,962	89,245	-0,142	-0,111
115,976	73,884	-0,237	-0,174
116,991	175,982	-0,236	-0,240
118,006	10,142	-0,265	-0,141
119,020	11,102	-0,179	-0,095
120,035	52,721	-0,144	-0,096
121,049	301,156	-0,071	-0,092
122,064	-51,823	-0,327	-0,106
123,079	-30,347	-0,258	-0,102
124,093	-82,857	-0,303	-0,068
125,108	9,169	-0,241	-0,127
126,122	-38,086	-0,215	-0,079
127,137	53,838	-0,238	-0,159
128,151	9,339	-0,195	-0,103
129,166	-85,399	-0,190	0,041
130,181	-58,101	-0,192	-0,058
131,195	-6,613	-0,371	-0,176
132,210	-11,913	-0,410	-0,187
133,224	227,252	-0,278	-0,316
134,239	-159,975	-0,246	0,009
135,254	120,092	-0,195	-0,169
136,268	-64,838	-0,338	-0,095
137,283	1,521	-0,299	-0,150
138,297	197,916	-0,209	-0,223
139,312	-17,622	-0,272	-0,119
140,327	28,746	-0,373	-0,220
141,341	60,586	-0,186	-0,128
142,356	-44,259	-0,173	-0,060
143,370	-41,440	-0,261	-0,093
144,385	267,897	-0,293	-0,359
145,400	330,529	-0,218	-0,294
146,414	709,942	-0,168	-0,312
147,429	86,130	-0,151	-0,116
148,443	172,021	-0,222	-0,223
149,458	635,090	-0,085	-0,151
150,473	173,097	-0,140	-0,141
151,487	20,925	-0,203	-0,114
152,502	184,038	-0,266	-0,274
153,516	-20,320	-0,204	-0,087
154,531	103,694	-0,373	-0,305
155,546	329,220	-0,159	-0,214
156,560	2,787	-0,184	-0,093
157,575	83,666	-0,189	-0,143
158,589	152,117	-0,192	-0,183
159,604	109,324	-0,304	-0,254
160,619	209,362	-0,107	-0,117
161,633	24,834	-0,285	-0,164
162,648	104,292	-0,170	-0,139
163,662	157,878	-0,208	-0,201
164,677	122,438	-0,165	-0,144
165,692	-200,000	-0,019	-0,088
166,706	294,771	-0,137	-0,174
167,721	132,544	-0,216	-0,194
168,735	45,258	-0,340	-0,218
169,750	264,540	-0,121	-0,147
170,764	210,429	-0,139	-0,153
171,779	228,541	-0,201	-0,229
172,794	72,209	-0,215	-0,156
173,808	9,474	-0,193	-0,101
174,823	310,636	-0,142	-0,185
175,837	473,766	-0,126	-0,198
176,852	107,772	-0,355	-0,294
177,867	-76,600	-0,243	-0,059
178,881	49,928	-0,130	-0,085
179,896	-58,466	-0,219	-0,066
180,910	46,103	-0,222	-0,143
181,925	395,863	-0,169	-0,246
182,940	164,573	-0,181	-0,177
183,954	38,469	-0,381	-0,236
184,969	35,632	-0,280	-0,170
185,983	98,683	-0,200	-0,160
186,998	73,630	-0,191	-0,139
188,013	-64,452	-0,243	-0,068
189,027	23,461	-0,205	-0,117
190,042	42,933	-0,235	-0,149
191,056	50,727	-0,337	-0,221
192,071	-179,993	-0,325	-0,005
193,086	-56,533	-0,151	-0,046
194,100	358,856	-0,079	-0,110
195,115	126,301	-0,238	-0,210
196,129	10,731	-0,253	-0,134
197,144	115,888	-0,235	-0,199
198,159	-5,793	-0,290	-0,137
199,173	47,774	-0,282	-0,183
200,188	423,900	-0,078	-0,117
201,202	28,649	-0,226	-0,132
202,217	-14,794	-0,206	-0,092
203,232	72,365	-0,078	-0,057
204,246	-42,194	-0,236	-0,083
205,261	49,587	-0,211	-0,138
206,275	17,157	-0,223	-0,123
207,290	372,206	-0,182	-0,257
208,304	800,000	-0,074	-0,148
209,319	193,763	-0,158	-0,166
210,334	87,000	-0,126	-0,097
211,348	630,018	-0,181	-0,320
212,363	140,625	-0,224	-0,205
213,377	5,454	-0,181	-0,093
214,392	-44,092	-0,225	-0,078
215,407	40,953	-0,211	-0,132
216,421	-142,756	-0,131	-0,009
217,436	-96,320	-0,236	-0,043
218,450	248,001	-0,233	-0,273
219,465	800,000	-0,068	-0,185
220,480	119,532	-0,148	-0,127
221,494	-78,554	-0,137	-0,032
222,509	430,583	-0,141	-0,213
223,523	396,248	-0,105	-0,153
224,538	132,295	-0,056	-0,050
225,553	65,029	-0,143	-0,100
226,567	51,377	-0,303	-0,199
227,582	79,829	-0,193	-0,144
228,596	-5,916	-0,171	-0,081
229,611	185,064	-0,125	-0,129
230,626	-33,552	-0,139	0,053
231,640	69,535	-0,215	-0,153
232,655	33,830	-0,319	-0,192
233,669	690,407	-0,130	-0,237
234,684	200,980	-0,137	-0,146
235,699	693,042	-0,102	-0,187
236,713	-97,055	-0,062	-0,011
237,728	649,986	-0,096	-0,171
238,742	39,717	-0,227	-0,141
239,757	304,939	-0,120	-0,155
240,772	268,606	-0,198	-0,241
241,786	94,159	-0,244	-0,192
242,801	-48,604	-0,153	-0,051
243,815	-50,860	-0,267	-0,086
244,830	81,226	-0,199	-0,149
245,844	321,538	-0,205	-0,270
246,859	-200,000	-0,055	-0,174
247,874	73,360	-0,271	-0,196
248,888	70,143	-0,134	-0,096
249,903	-4,088	-0,222	-0,106
250,917	-89,689	-0,279	-0,056
251,932	-105,715	-0,174	-0,027
252,947	122,415	-0,151	-0,130
253,961	70,137	-0,243	-0,173
254,976	43,551	-0,282	-0,178
255,990	25,524	-0,220	-0,126
257,005	-200,000	-0,065	-0,232
258,020	235,493	-0,200	-0,229
259,034	82,980	-0,179	-0,134
260,049	-123,720	-0,137	0,015
261,063	277,404	-0,083	-0,103
262,078	-40,336	-0,202	-0,072
263,093	115,192	-0,216	-0,182
264,107	239,532	-0,105	-0,120
265,122	405,449	-0,113	-0,166
266,136	199,242	-0,215	-0,228
267,151	-92,999	-0,169	-0,032
268,166	-44,184	-0,194	-0,067
269,180	596,240	-0,174	-0,298
270,195	123,201	-0,111	-0,096
271,209	162,445	-0,087	-0,085
272,224	-8,135	-0,252	-0,117
273,239	71,814	-0,086	-0,062
274,253	640,676	-0,109	-0,192
275,268	259,588	-0,165	-0,197
276,282	-194,389	-0,354	-0,002
277,297	-52,529	-0,196	-0,062
278,312	-67,814	-0,159	0,043
279,326	-43,082	-0,230	-0,080
280,341	-35,539	-0,279	-0,104
281,355	-58,201	-0,143	0,043
282,370	-89,103	-0,153	-0,031
283,384	72,737	-0,154	-0,110
284,399	216,145	-0,183	-0,201
285,414	-112,655	-0,209	-0,028
286,428	143,202	-0,145	-0,133
287,443	89,656	-0,056	-0,043
288,457	298,235	-0,126	-0,160
289,472	29,625	-0,161	-0,094
290,487	107,454	-0,219	-0,180
291,501	15,488	-0,182	-0,098
292,516	-9,391	-0,117	-0,053
293,530	-18,207	-0,224	-0,096
294,545	190,449	-0,140	-0,145
295,560	-59,692	-0,079	0,023
296,574	43,031	-0,192	-0,120
297,589	800,000	-0,042	-0,107
298,603	-35,502	-0,134	-0,050
299,618	-2,405	-0,208	-0,100
300,633	-24,297	-0,136	-0,056
301,647	-44,786	-0,177	0,061
302,662	267,957	-0,133	-0,160
303,676	742,239	-0,062	-0,115
304,691	62,085	-0,245	-0,168
305,706	20,086	-0,269	-0,149
306,720	204,403	-0,087	-0,093
307,735	13,648	-0,198	-0,106
308,749	-200,000	-0,021	-0,184
309,764	39,545	-0,067	-0,041
310,779	-14,000	-0,160	0,071
311,793	-35,435	-0,089	-0,033
312,808	82,924	-0,130	-0,097
313,822	450,345	-0,079	-0,120
314,837	151,175	-0,108	-0,101
315,852	-124,955	-0,123	0,013
316,866	55,921	-0,095	-0,063
317,881	360,703	-0,116	-0,160
318,895	-97,991	-0,234	-0,041
319,910	41,763	-0,079	-0,049
320,925	259,679	-0,144	-0,172
321,939	327,815	-0,103	-0,136
322,954	18,616	-0,142	-0,078
323,968	463,875	-0,128	-0,198
324,983	126,527	-0,175	-0,152
325,997	77,296	-0,188	-0,137
327,012	-61,490	-0,206	-0,059
328,027	340,043	-0,117	-0,157
329,041	-52,465	-0,105	-0,033
330,056	71,740	-0,183	-0,131
331,070	800,000	-0,081	-0,201
332,085	124,984	-0,132	-0,114
333,100	396,357	-0,119	-0,171
334,114	175,591	-0,179	-0,178
335,129	25,070	-0,233	-0,132
336,143	0,911	-0,206	-0,101
337,158	800,000	-0,075	-0,185
338,173	-110,687	-0,044	0,006
339,187	-92,693	-0,041	0,008
340,202	-200,000	-0,027	-0,145
341,216	67,747	-0,117	-0,082
342,231	-29,727	-0,268	-0,104
343,246	5,069	-0,151	-0,076
344,260	-110,529	-0,061	-0,009
345,275	-76,255	-0,122	0,029
346,289	28,398	-0,123	-0,071
347,304	409,330	-0,068	-0,098
348,319	800,000	-0,074	-0,155
349,333	224,301	-0,105	-0,116
350,348	260,913	-0,133	-0,157
351,362	-35,834	-0,146	-0,054
352,377	276,266	-0,044	-0,053
353,392	-49,447	-0,069	0,022
354,406	107,406	-0,092	-0,075
355,421	208,185	1315,888	1410,339
356,435	160,178	1476,733	1410,814
