DTS Sentinel unit serial number:	SN410029Multiplexer serial number:	ORYXHardware model number:	OX2-SRSoftware version number:	ORYX F/W v4,00 Oryx Data Collector v3.7.2.0data status	okinstallation	B3 Nyhavnadifferential loss correction	single-endedforward channel	channel 1reverse channel	N/Adate	2023/11/30time	14:02:30forward acquisition time	300,00reverse acquisition time	0,00gamma	499,1914k internal	0,3212k external	0,3212temperature offset calibration	1,0000default loss term (dB/km)	0,3820temperature slope calibration	1,0000multiplexer offset coefficient	1,0000multiplexer slope coefficient	1,0000fibre end	0,00T internal ref (°C)	11,26T ext. ref 1 (°C)	-2,02T ext. ref 2 (°C)	-2,10length (m)	temperature (°C)	Stokes	anti-Stokes-744,400	131,205	-0,232	-0,216
-743,385	-200,000	-0,101	0,370
-742,371	194,681	-0,234	-0,257
-741,356	-200,000	-0,051	0,343
-740,342	-43,117	-0,215	-0,079
-739,327	318,190	-0,123	0,169
-738,312	117,662	-0,221	-0,197
-737,298	728,253	0,143	0,277
-736,283	-1,214	-0,166	-0,085
-735,269	-200,000	-0,055	0,230
-734,254	125,962	-0,204	-0,187
-733,239	-91,053	-0,173	0,036
-732,225	317,859	-0,159	-0,219
-731,210	-200,000	-0,010	0,165
-730,196	133,040	-0,040	0,037
-729,181	-124,638	0,146	0,016
-728,167	800,000	0,034	0,102
-727,152	-117,248	0,043	0,006
-726,137	-48,368	-0,155	-0,054
-725,123	482,041	-0,084	-0,139
-724,108	-200,000	0,075	-0,265
-723,094	-114,650	-0,066	-0,009
-722,079	79,748	0,020	0,016
-721,064	800,000	0,041	-0,090
-720,050	6,829	0,111	-0,060
-719,035	-200,000	-0,024	-0,081
-718,021	62,107	0,034	0,024
-717,006	-200,000	0,003	-0,027
-715,991	-200,000	-0,020	-0,108
-714,977	-200,000	-0,020	0,130
-713,962	-72,447	-0,154	0,041
-712,948	800,000	0,050	0,118
-711,933	-120,699	-0,085	0,010
-710,918	526,144	-0,043	-0,074
-709,904	-200,000	-0,009	-0,140
-708,889	-73,744	-0,031	-0,008
-707,875	236,398	-0,063	0,076
-706,860	800,000	-0,029	0,071
-705,845	742,556	-0,041	-0,080
-704,831	173,872	-0,059	0,062
-703,816	-24,053	-0,074	-0,032
-702,802	-148,815	0,012	-0,001
-701,787	-176,845	-0,177	-0,003
-700,772	311,242	-0,062	0,084
-699,758	515,517	0,044	-0,075
-698,743	424,278	0,010	-0,016
-697,729	-200,000	0,019	-0,064
-696,714	800,000	-0,067	0,177
-695,699	-3,876	-0,102	-0,051
-694,685	-200,000	-0,011	0,037
-693,670	21,147	-0,101	-0,059
-692,656	661,961	0,025	0,047
-691,641	-91,078	-0,050	0,010
-690,627	68,289	0,154	-0,114
-689,612	-200,000	-0,011	-0,109
-688,597	555,035	0,041	0,072
-687,583	204,111	0,046	-0,051
-686,568	-200,000	0,014	0,103
-685,554	185,881	0,082	-0,088
-684,539	-86,686	0,130	0,029
-683,524	-132,354	-0,068	-0,006
-682,510	244,164	-0,026	-0,031
-681,495	-31,432	-0,078	0,032
-680,481	66,082	-0,084	-0,062
-679,466	-74,149	-0,019	0,005
-678,451	4,805	-0,070	0,037
-677,437	457,040	0,034	0,055
-676,422	67,879	0,042	-0,031
-675,408	800,000	-0,037	-0,107
-674,393	-5,745	-0,059	0,029
-673,378	-200,000	-0,007	-0,035
-672,364	-200,000	0,008	0,175
-671,349	412,932	-0,058	0,089
-670,335	236,519	0,084	-0,100
-669,320	-164,952	-0,087	0,003
-668,305	197,305	0,125	0,138
-667,291	-78,949	-0,075	-0,018
-666,276	34,187	-0,101	-0,063
-665,262	112,614	-0,145	-0,127
-664,247	-94,281	-0,081	-0,016
-663,232	16,778	0,039	0,022
-662,218	85,463	0,030	0,024
-661,203	45,857	0,154	-0,103
-660,189	-70,705	0,125	0,034
-659,174	-104,818	-0,131	-0,022
-658,159	-197,446	-0,178	-0,001
-657,145	654,412	-0,060	-0,111
-656,130	-110,632	0,131	-0,019
-655,116	-200,000	-0,004	0,046
-654,101	342,565	0,073	0,103
-653,086	612,308	0,038	0,070
-652,072	-121,443	0,008	0,001
-651,057	73,495	-0,134	-0,101
-650,043	800,000	0,072	-0,150
-649,028	-40,898	-0,041	0,015
-648,014	800,000	-0,052	-0,125
-646,999	800,000	-0,045	-0,102
-645,984	206,654	-0,048	0,054
-644,970	18,046	0,029	0,016
-643,955	107,174	0,054	-0,046
-642,941	631,939	0,026	-0,049
-641,926	-49,805	-0,088	0,030
-640,911	-200,000	0,001	0,047
-639,897	542,451	0,063	-0,109
-638,882	-200,000	-0,008	0,065
-637,868	434,306	-0,076	0,120
-636,853	102,991	-0,106	0,089
-635,838	27,113	-0,043	0,026
-634,824	402,902	-0,031	-0,047
-633,809	-108,394	-0,123	-0,019
-632,795	69,301	0,065	0,048
-631,780	151,540	0,060	-0,059
-630,765	-97,659	0,094	-0,017
-629,751	-152,948	-0,110	0,005
-628,736	393,810	0,029	0,044
-627,722	-200,000	-0,005	-0,043
-626,707	389,677	-0,082	-0,123
-625,692	-200,000	0,000	0,061
-624,678	139,396	0,061	0,058
-623,663	8,382	-0,074	-0,040
-622,649	117,730	-0,062	0,055
-621,634	589,981	0,018	0,031
-620,619	-98,267	0,082	-0,015
-619,605	-97,617	-0,029	-0,005
-618,590	800,000	-0,059	0,122
-617,576	100,647	-0,013	0,011
-616,561	-73,883	0,078	-0,020
-615,546	-200,000	0,019	-0,082
-614,532	164,723	-0,066	-0,067
-613,517	481,478	-0,115	-0,189
-612,503	65,035	-0,022	-0,016
-611,488	229,960	0,022	0,027
-610,474	-175,679	0,156	-0,003
-609,459	-82,249	0,002	-0,001
-608,444	-200,000	0,005	-0,158
-607,430	800,000	-0,066	-0,170
-606,415	-57,179	-0,201	0,063
-605,401	26,685	0,080	0,048
-604,386	94,442	-0,057	0,047
-603,371	288,986	-0,066	0,086
-602,357	800,000	0,028	-0,061
-601,342	800,000	0,014	-0,038
-600,328	-49,597	-0,080	0,027
-599,313	-200,000	-0,023	-0,163
-598,298	154,023	0,110	0,108
-597,284	99,542	-0,065	0,054
-596,269	-54,080	-0,061	0,020
-595,255	-200,000	-0,005	-0,044
-594,240	800,000	-0,084	-0,181
-593,225	-200,000	-0,016	-0,057
-592,211	-110,871	0,060	0,009
-591,196	3,503	0,055	-0,029
-590,182	-200,000	0,012	0,088
-589,167	283,648	-0,022	0,028
-588,152	-83,681	-0,098	0,022
-587,138	-200,000	-0,004	0,023
-586,123	800,000	-0,006	0,017
-585,109	283,541	-0,051	0,066
-584,094	-94,583	0,156	-0,030
-583,079	177,866	0,062	0,065
-582,065	800,000	0,040	0,103
-581,050	69,570	0,068	0,050
-580,036	800,000	-0,013	-0,030
-579,021	149,499	-0,124	-0,121
-578,006	561,215	-0,040	-0,070
-576,992	-76,189	0,063	0,016
-575,977	175,576	-0,041	-0,043
-574,963	800,000	-0,022	0,066
-573,948	-95,640	0,093	0,018
-572,934	98,570	-0,035	-0,029
-571,919	-200,000	0,024	-0,098
-570,904	-200,000	-0,025	-0,268
-569,890	626,958	-0,048	-0,088
-568,875	-200,000	0,002	0,039
-567,861	800,000	-0,018	-0,049
-566,846	39,032	0,090	0,058
-565,831	163,541	-0,076	0,077
-564,817	116,914	-0,116	-0,102
-563,802	-200,000	-0,023	-0,130
-562,788	-200,000	-0,024	-0,128
-561,773	800,000	0,020	0,041
-560,758	646,787	-0,007	-0,012
-559,744	-200,000	0,024	0,103
-558,729	42,952	-0,073	-0,048
-557,715	22,634	0,008	0,004
-556,700	-200,000	-0,012	0,054
-555,685	-200,000	0,006	-0,091
-554,671	-28,467	0,094	0,039
-553,656	800,000	0,048	0,111
-552,642	-48,843	-0,110	-0,038
-551,627	145,835	-0,021	0,020
-550,612	800,000	0,053	-0,126
-549,598	-200,000	0,011	-0,092
-548,583	-190,541	-0,098	0,001
-547,569	-77,506	0,050	0,012
-546,554	284,285	0,079	-0,102
-545,539	97,057	-0,104	0,086
-544,525	-129,535	0,057	-0,006
-543,510	800,000	-0,023	-0,062
-542,496	-200,000	0,007	-0,060
-541,481	-200,000	0,002	0,008
-540,466	261,683	0,087	0,109
-539,452	800,000	-0,058	0,154
-538,437	-156,929	0,059	0,003
-537,423	633,625	-0,092	-0,169
-536,408	136,671	0,115	-0,108
-535,393	-89,143	-0,098	-0,021
-534,379	800,000	-0,022	0,064
-533,364	35,958	-0,060	-0,038
-532,350	25,556	0,118	0,070
-531,335	236,918	-0,045	-0,054
-530,321	800,000	-0,028	-0,075
-529,306	562,675	0,068	0,119
-528,291	-200,000	-0,008	0,139
-527,277	351,110	0,038	-0,054
-526,262	237,032	-0,025	-0,030
-525,248	-94,948	0,067	-0,013
-524,233	249,490	0,029	0,035
-523,218	800,000	0,020	-0,058
-522,204	515,880	0,008	0,014
-521,189	800,000	0,006	0,017
-520,175	81,812	-0,102	-0,079
-519,160	-200,000	0,004	-0,076
-518,145	-137,145	-0,034	-0,003
-517,131	800,000	-0,040	-0,125
-516,116	800,000	0,071	0,173
-515,102	180,348	-0,051	-0,054
-514,087	605,433	-0,094	0,170
-513,072	-33,946	-0,111	-0,044
-512,058	-200,000	-0,013	-0,112
-511,043	-161,885	-0,138	0,005
-510,029	-93,851	0,055	-0,011
-509,014	229,242	0,123	0,145
-507,999	800,000	0,062	0,194
-506,985	13,669	0,018	-0,010
-505,970	35,969	-0,178	-0,112
-504,956	-39,647	-0,015	-0,006
-503,941	-200,000	0,017	0,104
-502,926	-200,000	-0,037	0,147
-501,912	-74,576	0,118	0,030
-500,897	-200,000	-0,026	-0,129
-499,883	125,492	0,015	-0,014
-498,868	-108,313	-0,164	-0,025
-497,853	-37,963	0,159	-0,060
-496,839	-15,366	-0,171	0,078
-495,824	-55,817	0,091	-0,029
-494,810	800,000	-0,008	0,024
-493,795	-200,000	-0,009	0,028
-492,781	225,044	0,061	0,071
-491,766	188,359	-0,051	0,055
-490,751	-101,885	-0,120	0,021
-489,737	11,195	-0,105	0,058
-488,722	70,202	0,036	0,027
-487,708	-200,000	-0,003	-0,018
-486,693	-92,326	0,117	0,023
-485,678	60,222	-0,056	0,039
-484,664	-139,417	0,076	0,006
-483,649	638,439	-0,113	-0,208
-482,635	122,463	-0,165	0,148
-481,620	-149,081	0,110	0,006
-480,605	-72,230	0,079	-0,021
-479,591	-200,000	0,007	0,092
-478,576	-200,000	0,004	-0,017
-477,562	356,443	-0,081	0,115
-476,547	46,000	-0,108	0,072
-475,532	38,465	-0,027	0,017
-474,518	220,747	0,062	0,072
-473,503	6,648	0,058	-0,031
-472,489	-200,000	-0,016	0,051
-471,474	-49,149	0,091	-0,031
-470,459	700,960	-0,055	-0,105
-469,445	-73,335	0,064	-0,017
-468,430	100,919	0,053	0,044
-467,416	20,320	0,045	-0,026
-466,401	50,925	0,082	-0,056
-465,386	238,495	0,040	-0,048
-464,372	-200,000	-0,016	-0,073
-463,357	-200,000	-0,006	0,020
-462,343	160,471	0,074	-0,074
-461,328	-200,000	0,007	-0,047
-460,313	251,960	0,092	-0,112
-459,299	-37,831	0,061	0,023
-458,284	-200,000	-0,026	0,157
-457,270	-200,000	0,057	0,189
-456,255	-81,831	0,119	0,028
-455,241	-200,000	0,033	-0,150
-454,226	-200,000	-0,006	0,064
-453,211	-200,000	-0,014	0,069
-452,197	-2,625	-0,037	0,018
-451,182	-200,000	-0,024	0,083
-450,168	594,501	0,051	-0,092
-449,153	-200,000	-0,004	-0,040
-448,138	-200,000	-0,026	0,090
-447,124	-198,983	-0,148	-0,001
-446,109	800,000	-0,037	-0,114
-445,095	88,655	-0,038	-0,030
-444,080	406,898	0,039	0,058
-443,065	275,596	-0,033	-0,042
-442,051	-92,524	-0,053	0,011
-441,036	686,715	0,034	0,064
-440,022	-2,161	-0,073	-0,037
-439,007	800,000	-0,012	-0,030
-437,992	5,428	0,095	0,050
-436,978	-200,000	0,016	0,066
-435,963	-200,000	-0,013	0,109
-434,949	322,360	0,053	0,073
-433,934	-17,279	0,083	0,037
-432,919	800,000	0,025	-0,075
-431,905	459,329	0,050	-0,081
-430,890	114,611	-0,025	0,022
-429,876	8,294	0,045	-0,024
-428,861	800,000	-0,002	-0,006
-427,846	-44,982	-0,083	-0,030
-426,832	-14,145	-0,017	-0,008
-425,817	401,984	-0,033	0,049
-424,803	129,188	-0,048	0,044
-423,788	-200,000	0,001	-0,091
-422,773	800,000	0,031	0,089
-421,759	221,223	-0,062	0,072
-420,744	163,267	0,073	0,073
-419,730	68,123	-0,083	-0,061
-418,715	24,360	0,021	0,013
-417,701	49,145	-0,067	-0,045
-416,686	269,320	0,026	-0,033
-415,671	-200,000	-0,033	-0,203
-414,657	-84,136	0,080	0,018
-413,642	-15,118	0,083	-0,038
-412,628	800,000	-0,035	-0,084
-411,613	207,386	-0,018	-0,021
-410,598	-200,000	-0,005	-0,041
-409,584	-34,224	-0,058	-0,023
-408,569	-200,000	0,030	0,217
-407,555	98,549	0,115	0,095
-406,540	-62,987	-0,083	-0,024
-405,525	-11,872	-0,058	0,027
-404,511	-57,094	-0,092	-0,029
-403,496	227,554	-0,052	-0,061
-402,482	-17,164	-0,031	0,014
-401,467	-200,000	-0,000	0,107
-400,452	45,432	-0,042	0,028
-399,438	-196,165	0,122	-0,001
-398,423	-158,594	-0,144	0,006
-397,409	-200,000	0,010	-0,045
-396,394	-200,000	0,030	-0,185
-395,379	19,709	-0,041	-0,023
-394,365	-4,911	-0,086	-0,042
-393,350	593,701	-0,051	-0,091
-392,336	-176,948	-0,085	0,001
-391,321	-14,852	-0,125	-0,057
-390,306	-77,766	0,105	-0,026
-389,292	-2,469	-0,025	-0,012
-388,277	765,691	-0,037	-0,071
-387,263	-200,000	-0,021	-0,080
-386,248	-69,455	0,129	0,035
-385,233	-184,651	0,023	-0,000
-384,219	-12,719	0,094	0,044
-383,204	-40,312	-0,130	0,048
-382,190	-143,568	-0,056	0,004
-381,175	318,855	0,023	0,031
-380,160	800,000	0,056	0,142
-379,146	-59,440	0,038	-0,011
-378,131	607,642	0,080	-0,143
-377,117	209,582	0,025	0,028
-376,102	205,798	0,046	-0,051
-375,088	223,922	-0,084	0,097
-374,073	57,129	0,121	-0,084
-373,058	-113,515	0,026	0,004
-372,044	-128,820	0,162	0,016
-371,029	-200,000	0,012	-0,063
-370,015	-129,252	0,057	-0,006
-369,000	-200,000	0,021	-0,100
-367,985	526,296	-0,113	-0,191
-366,971	-200,000	0,006	-0,186
-365,956	-73,837	-0,070	-0,018
-364,942	-200,000	0,031	-0,108
-363,927	-126,069	-0,200	0,021
-362,912	47,654	-0,029	-0,019
-361,898	40,258	0,070	-0,045
-360,883	349,534	-0,058	-0,083
-359,869	800,000	-0,031	-0,061
-358,854	-192,617	0,159	-0,001
-357,839	236,412	0,127	0,151
-356,825	-120,310	-0,025	0,003
-355,810	-10,950	0,039	-0,018
-354,796	-200,000	-0,008	0,182
-353,781	-200,000	-0,015	-0,052
-352,766	-64,404	-0,038	-0,011
-351,752	254,791	0,011	-0,014
-350,737	800,000	0,014	-0,042
-349,723	-15,770	-0,071	0,032
-348,708	-169,438	-0,086	-0,002
-347,693	28,750	0,088	0,053
-346,679	-43,317	0,118	-0,042
-345,664	-124,751	-0,157	0,017
-344,650	297,188	-0,046	-0,060
-343,635	131,487	0,103	-0,095
-342,620	-124,470	0,067	-0,007
-341,606	87,246	-0,067	0,053
-340,591	-119,762	0,077	-0,009
-339,577	147,320	-0,025	0,024
-338,562	510,214	-0,047	0,078
-337,548	362,517	-0,096	-0,138
-336,533	-8,483	0,193	0,092
-335,518	583,316	0,034	0,059
-334,504	642,319	-0,043	0,078
-333,489	25,898	0,012	0,007
-332,475	81,590	-0,047	0,036
-331,460	177,388	-0,033	0,034
-330,445	284,988	-0,043	0,055
-329,431	-50,454	0,115	-0,038
-328,416	35,873	0,148	0,092
-327,402	-200,000	0,009	0,044
-326,387	-200,000	0,008	0,110
-325,372	247,055	-0,060	-0,072
-324,358	-10,240	-0,118	-0,056
-323,343	-200,000	-0,003	-0,095
-322,329	800,000	0,038	-0,088
-321,314	301,999	0,062	-0,082
-320,299	-53,606	0,023	0,008
-319,285	-200,000	0,029	0,159
-318,270	-200,000	0,003	0,036
-317,256	-102,134	-0,118	-0,020
-316,241	800,000	0,046	-0,099
-315,226	-3,917	-0,046	0,023
-314,212	-200,000	0,006	0,075
-313,197	137,675	0,079	0,074
-312,183	800,000	-0,033	0,074
-311,168	524,674	0,027	-0,045
-310,153	-65,425	-0,151	0,043
-309,139	-200,000	-0,003	-0,067
-308,124	-114,694	0,120	-0,016
-307,110	112,263	-0,074	-0,064
-306,095	800,000	0,031	-0,091
-305,080	-200,000	-0,013	-0,144
-304,066	80,733	0,130	-0,100
-303,051	-200,000	0,021	-0,167
-302,037	95,580	-0,072	0,058
-301,022	142,265	-0,014	0,013
-300,008	174,985	0,053	0,054
-298,993	59,671	-0,017	0,012
-297,978	-200,000	0,017	-0,120
-296,964	229,675	-0,066	-0,077
-295,949	-200,000	0,051	-0,000
-294,935	-173,729	-0,015	0,000
-293,920	-30,870	-0,023	-0,009
-292,905	322,107	0,060	-0,082
-291,891	-91,214	0,078	0,016
-290,876	266,833	0,057	-0,071
-289,862	-52,094	0,093	0,030
-288,847	34,607	0,022	0,014
-287,832	340,372	0,066	-0,091
-286,818	307,380	0,042	-0,056
-285,803	284,689	0,105	0,135
-284,789	-200,000	0,041	0,138
-283,774	-45,230	-0,050	0,018
-282,759	-127,816	0,088	-0,009
-281,745	-200,000	0,006	0,037
-280,730	-115,318	0,053	-0,007
-279,716	472,419	0,078	0,125
-278,701	-200,000	-0,001	0,105
-277,686	-200,000	-0,001	0,103
-276,672	-75,630	-0,082	-0,021
-275,657	176,122	-0,063	-0,066
-274,643	-200,000	0,007	-0,037
-273,628	-200,000	-0,022	-0,073
-272,613	372,603	0,021	0,030
-271,599	68,082	-0,083	-0,060
-270,584	145,895	-0,092	0,088
-269,570	-129,163	0,067	0,007
-268,555	562,134	-0,036	0,062
-267,540	336,884	0,056	-0,078
-266,526	-76,933	-0,144	0,035
-265,511	-200,000	-0,008	-0,144
-264,497	57,554	0,068	0,047
-263,482	471,786	0,029	-0,046
-262,467	800,000	0,061	0,162
-261,453	-200,000	-0,023	-0,130
-260,438	160,323	-0,103	0,102
-259,424	244,671	-0,020	-0,024
-258,409	-52,060	0,100	0,033
-257,395	-41,143	0,112	0,041
-256,380	-200,000	0,061	0,194
-255,365	-200,000	0,044	0,159
-254,351	-200,000	0,008	-0,052
-253,336	42,187	-0,037	0,024
-252,322	-200,000	0,016	-0,055
-251,307	-200,000	-0,003	0,018
-250,292	-200,000	-0,008	-0,032
-249,278	56,965	0,211	0,146
-248,263	30,360	0,088	0,053
-247,249	128,746	-0,014	-0,012
-246,234	56,933	-0,101	0,070
-245,219	-98,390	0,063	0,011
-244,205	399,989	-0,073	-0,109
-243,190	-98,413	0,155	0,028
-242,176	-64,043	-0,040	-0,012
-241,161	-196,058	0,057	0,000
-240,146	-200,000	-0,004	0,059
-239,132	103,395	-0,095	-0,079
-238,117	-200,000	-0,011	0,080
-237,103	562,721	0,046	0,080
-236,088	194,980	0,085	-0,092
-235,073	800,000	0,028	0,070
-234,059	800,000	0,051	0,122
-233,044	-200,000	-0,007	-0,095
-232,030	55,251	0,058	-0,040
-231,015	61,914	-0,024	-0,017
-230,000	-200,000	-0,003	-0,042
-228,986	-61,925	-0,086	-0,025
-227,971	493,878	0,083	0,136
-226,957	-4,342	0,092	0,045
-225,942	372,244	-0,075	-0,109
-224,927	-94,554	-0,138	0,026
-223,913	178,322	0,085	-0,089
-222,898	-200,000	-0,017	-0,064
-221,884	-117,379	-0,047	0,006
-220,869	800,000	0,033	-0,094
-219,855	-22,259	0,057	-0,024
-218,840	-141,792	0,152	-0,011
-217,825	-200,000	0,003	0,048
-216,811	-1,881	0,039	0,019
-215,796	163,820	-0,047	0,047
-214,782	800,000	0,039	-0,095
-213,767	120,418	-0,011	-0,009
-212,752	267,824	0,009	0,011
-211,738	-200,000	0,018	0,081
-210,723	800,000	0,071	0,177
-209,709	-48,169	-0,062	-0,021
-208,694	-200,000	-0,005	-0,057
-207,679	-200,000	0,014	-0,053
-206,665	-200,000	0,009	0,155
-205,650	-39,880	0,037	-0,014
-204,636	800,000	0,034	0,081
-203,621	678,787	0,053	0,097
-202,606	-200,000	0,029	-0,096
-201,592	-71,301	0,040	0,011
-200,577	614,154	-0,088	0,157
-199,563	65,860	0,024	0,017
-198,548	131,593	0,047	0,043
-197,533	-154,609	-0,026	-0,001
-196,519	-33,438	-0,138	-0,054
-195,504	31,988	0,121	0,074
-194,490	-3,359	-0,116	-0,057
-193,475	-117,709	-0,130	-0,016
-192,460	102,271	0,115	0,095
-191,446	-200,000	-0,002	0,029
-190,431	-117,900	-0,025	0,003
-189,417	-93,037	0,054	0,011
-188,402	-138,087	-0,055	-0,004
-187,387	37,087	-0,052	-0,033
-186,373	-85,769	-0,099	-0,022
-185,358	800,000	-0,036	0,081
-184,344	11,443	-0,046	-0,025
-183,329	-24,945	-0,076	-0,032
-182,315	93,126	0,069	0,055
-181,300	746,142	0,064	0,124
-180,285	76,646	0,051	-0,038
-179,271	39,722	-0,111	0,070
-178,256	-82,016	-0,110	-0,025
-177,242	117,926	0,043	0,038
-176,227	711,354	-0,044	0,083
-175,212	-200,000	0,054	0,177
-174,198	29,734	-0,090	0,054
-173,183	120,980	-0,116	0,102
-172,169	-15,243	-0,076	0,034
-171,154	800,000	0,025	-0,058
-170,139	505,104	0,063	0,103
-169,125	-200,000	0,010	0,095
-168,110	242,188	0,029	0,035
-167,096	800,000	-0,020	0,058
-166,081	800,000	-0,014	-0,040
-165,066	113,593	0,049	-0,042
-164,052	168,069	0,020	-0,020
-163,037	34,504	0,084	-0,052
-162,023	800,000	-0,033	-0,071
-161,008	157,479	0,099	-0,097
-159,993	-104,899	0,033	0,005
-158,979	483,873	0,058	-0,093
-157,964	142,349	0,063	-0,059
-156,950	-124,708	-0,071	0,008
-155,935	800,000	-0,065	0,130
-154,920	-30,716	0,050	0,020
-153,906	800,000	-0,037	-0,085
-152,891	5,062	-0,103	0,054
-151,877	-200,000	0,020	0,114
-150,862	218,308	-0,068	0,077
-149,847	800,000	-0,038	-0,086
-148,833	-200,000	0,031	-0,162
-147,818	-100,235	0,101	0,018
-146,804	110,649	0,049	-0,042
-145,789	-200,000	0,026	-0,226
-144,775	-155,155	-0,109	0,005
-143,760	-145,876	0,106	0,007
-142,745	-200,000	0,002	-0,068
-141,731	-200,000	-0,006	-0,045
-140,716	-200,000	-0,005	-0,124
-139,702	-16,916	0,056	-0,025
-138,687	226,446	-0,017	0,020
-137,672	142,462	0,060	-0,057
-136,658	-70,431	-0,037	0,010
-135,643	-200,000	-0,028	-0,188
-134,629	154,247	-0,025	-0,024
-133,614	-88,862	-0,079	-0,016
-132,599	491,292	-0,040	-0,065
-131,585	800,000	0,055	-0,114
-130,570	245,356	0,036	-0,043
-129,556	-200,000	-0,024	-0,122
-128,541	-56,068	0,021	-0,007
-127,526	53,010	0,083	-0,056
-126,512	800,000	-0,026	0,074
-125,497	209,313	0,015	0,016
-124,483	-200,000	-0,006	-0,055
-123,468	-169,205	-0,112	0,003
-122,453	292,729	-0,070	-0,090
-121,439	-200,000	-0,002	-0,129
-120,424	800,000	0,005	-0,010
-119,410	157,735	-0,026	0,025
-118,395	-34,066	0,109	-0,042
-117,380	62,328	-0,070	-0,049
-116,366	-63,512	0,096	0,028
-115,351	-200,000	-0,033	-0,172
-114,337	-66,812	-0,149	-0,041
-113,322	-200,000	-0,002	0,106
-112,307	-200,000	0,017	0,053
-111,293	416,591	0,073	0,111
-110,278	779,852	-0,022	0,043
-109,264	-96,737	-0,100	-0,019
-108,249	800,000	0,051	-0,107
-107,234	47,186	-0,124	-0,081
-106,220	-72,392	-0,166	0,043
-105,205	29,452	0,082	0,049
-104,191	-200,000	-0,036	0,345
-103,176	325,484	0,067	0,091
-102,162	-90,762	0,049	0,010
-101,147	254,012	-0,028	-0,034
-100,132	-200,000	-0,002	-0,039
-99,118	-200,000	0,012	-0,151
-98,103	-18,787	0,096	-0,042
-97,089	610,121	-0,023	0,040
-96,074	-200,000	-0,012	0,145
-95,059	772,732	0,017	0,032
-94,045	-66,562	-0,087	-0,024
-93,030	-200,000	0,017	0,136
-92,016	28,703	0,123	-0,074
-91,001	-51,774	-0,038	0,012
-89,986	-200,000	0,014	0,148
-88,972	59,866	0,064	0,044
-87,957	61,094	-0,013	-0,009
-86,943	-21,829	-0,043	-0,018
-85,928	-14,439	-0,124	-0,056
-84,913	-113,544	0,052	-0,007
-83,899	543,754	0,041	-0,069
-82,884	58,001	0,123	-0,085
-81,870	800,000	-0,018	0,047
-80,855	-200,000	0,006	0,033
-79,840	469,300	0,076	0,122
-78,826	626,526	-0,082	-0,147
-77,811	506,461	-0,097	-0,159
-76,797	-21,960	0,128	0,054
-75,782	-161,472	0,019	-0,001
-74,767	173,683	-0,109	-0,111
-73,753	800,000	0,044	0,113
-72,738	-200,000	0,008	-0,026
-71,724	800,000	0,027	-0,074
-70,709	131,502	-0,043	-0,039
-69,694	-7,483	-0,028	-0,013
-68,680	4,349	0,103	-0,053
-67,665	90,168	-0,058	0,046
-66,651	656,595	-0,027	-0,049
-65,636	217,524	0,103	-0,116
-64,622	136,956	-0,089	-0,082
-63,607	-130,131	0,165	0,016
-62,592	2,673	0,051	0,026
-61,578	-200,000	0,028	0,128
-60,563	312,038	-0,059	0,078
-59,549	-200,000	-0,004	0,128
-58,534	35,530	-1,831	-1,132
-57,519	454,347	-1,258	-1,973
-56,505	-200,000	-0,399	-4,441
-55,490	544,982	0,768	1,300
-54,476	800,000	5,179	11,448
-53,461	-200,000	20,398	328,568
-52,446	800,000	752,659	2314,116
-51,432	551,867	1658,904	2821,332
-50,417	74,127	1664,476	1231,396
-49,403	19,173	1537,676	868,179
-48,388	13,103	1460,124	795,043
-47,373	18,882	1450,749	817,640
-46,359	16,108	1440,307	798,526
-45,344	11,399	1435,719	773,538
-44,330	11,262	1433,911	771,884
-43,315	11,280	1432,212	771,025
-42,300	11,309	1430,406	770,159
-41,286	11,316	1429,042	769,425
-40,271	11,226	1427,818	768,310
-39,257	11,243	1426,525	767,665
-38,242	11,303	1425,622	767,430
-37,227	11,306	1424,354	766,732
-36,213	11,329	1423,084	766,129
-35,198	11,307	1421,742	765,271
-34,184	11,361	1420,994	765,094
-33,169	11,338	1419,663	764,240
-32,154	11,390	1418,567	763,860
-31,140	11,361	1417,373	763,051
-30,125	11,414	1416,349	762,722
-29,111	11,407	1415,060	761,964
-28,096	11,362	1414,068	761,188
-27,082	11,301	1413,015	760,303
-26,067	11,284	1411,913	759,602
-25,052	11,314	1410,906	759,170
-24,038	11,298	1409,790	758,464
-23,023	11,293	1408,912	757,938
-22,009	11,310	1407,529	757,245
-20,994	11,294	1406,480	756,575
-19,979	11,224	1405,981	755,948
-18,965	11,240	1404,995	755,465
-17,950	11,271	1403,943	755,014
-16,936	11,209	1403,326	754,361
-15,921	11,167	1402,282	753,574
-14,906	11,165	1401,242	752,979
-13,892	11,234	1400,294	752,761
-12,877	11,220	1399,534	752,254
-11,863	11,148	1398,814	751,505
-10,848	11,195	1397,713	751,104
-9,833	11,142	1396,796	750,335
-8,819	11,108	1396,186	749,817
-7,804	11,123	1394,908	749,171
-6,790	11,091	1394,201	748,616
-5,775	11,101	1393,074	748,024
-4,760	11,109	1392,155	747,539
-3,746	11,104	1391,181	746,965
-2,731	11,073	1390,405	746,374
-1,717	11,082	1389,549	745,924
-0,702	11,077	1387,703	744,884
0,313	15,162	1302,458	717,824
1,327	31,449	695,281	420,324
2,342	48,920	120,937	79,901
3,356	-0,217	16,541	8,267
4,371	14,115	3,319	1,817
5,386	-9,686	0,877	0,410
6,400	-200,000	0,097	0,462
7,415	-101,773	-0,193	-0,033
8,429	-88,676	-0,376	-0,078
9,444	36,419	-0,330	-0,204
10,459	52,951	-0,321	-0,216
11,473	551,330	-0,146	-0,247
12,488	-92,288	-0,210	-0,041
13,502	-47,943	-0,364	-0,123
14,517	136,935	-0,250	-0,231
15,531	-15,715	-0,525	-0,235
16,546	192,639	-0,288	-0,307
17,561	97,487	-0,367	-0,297
18,575	-75,445	-0,241	-0,060
19,590	707,537	-0,160	-0,298
20,604	-89,822	-0,279	-0,057
21,619	128,389	-0,282	-0,253
22,634	137,337	-0,377	-0,347
23,648	35,199	-0,386	-0,238
24,663	63,608	-0,383	-0,270
25,677	21,779	-0,341	-0,195
26,692	171,188	-0,340	-0,343
27,707	-32,556	-0,440	-0,171
28,721	180,730	-0,346	-0,358
29,736	34,929	-0,314	-0,193
30,750	81,018	-0,427	-0,324
31,765	94,396	-0,298	-0,238
32,780	4,402	-0,386	-0,198
33,794	22,726	-0,369	-0,212
34,809	-23,363	-0,350	-0,147
35,823	39,913	-0,372	-0,234
36,838	3,473	-0,354	-0,181
37,853	153,736	-0,362	-0,348
38,867	345,022	-0,236	-0,327
39,882	204,908	-0,304	-0,332
40,896	194,945	-0,275	-0,294
41,911	-14,497	-0,293	-0,132
42,926	45,577	-0,352	-0,228
43,940	71,313	-0,461	-0,335
44,955	85,518	-0,339	-0,262
45,969	153,734	-0,169	-0,163
46,984	518,919	-0,205	-0,339
47,999	29,792	-0,384	-0,229
49,013	52,408	-0,269	-0,180
50,028	-14,877	-0,379	-0,170
51,042	51,991	-0,454	-0,303
52,057	-36,334	-0,309	-0,116
53,071	27,791	-0,403	-0,238
54,086	51,957	-0,337	-0,225
55,101	13,952	-0,363	-0,198
56,115	0,911	-0,221	-0,111
57,130	-45,414	-0,407	-0,141
58,144	119,442	-0,258	-0,224
59,159	53,899	-0,557	-0,375
60,174	420,404	-0,200	-0,301
61,188	171,503	-0,331	-0,333
62,203	-11,770	-0,418	-0,192
63,217	77,765	-0,371	-0,277
64,232	7,705	-0,255	-0,134
65,247	6,346	-0,264	-0,137
66,261	173,888	-0,282	-0,286
67,276	271,010	-0,375	-0,464
68,290	37,080	-0,380	-0,236
69,305	165,147	-0,214	-0,212
70,320	-119,651	-0,320	-0,038
71,334	79,019	-0,193	-0,145
72,349	-71,569	-0,422	-0,110
73,363	-16,333	-0,320	-0,142
74,378	-4,491	-0,377	-0,182
75,393	51,419	-0,330	-0,219
76,407	-71,909	-0,216	0,056
77,422	-121,394	-0,298	-0,034
78,436	55,316	-0,300	-0,203
79,451	165,868	-0,342	-0,339
80,466	132,778	-0,303	-0,274
81,480	187,576	-0,295	-0,309
82,495	243,853	-0,303	-0,357
83,509	74,597	-0,346	-0,254
84,524	-138,662	-0,388	-0,029
85,539	6,596	-0,191	-0,099
86,553	46,512	-0,251	-0,163
87,568	6,748	-0,359	-0,186
88,582	-26,658	-0,391	-0,160
89,597	98,421	-0,367	-0,296
90,611	10,996	-0,156	-0,083
91,626	47,342	-0,326	-0,212
92,641	-69,966	-0,258	-0,068
93,655	135,828	-0,275	-0,250
94,670	84,558	-0,249	-0,190
95,684	51,703	-0,214	-0,142
96,699	-52,422	-0,139	-0,045
97,714	63,814	-0,234	-0,164
98,728	-117,480	-0,309	-0,039
99,743	52,421	-0,299	-0,199
100,757	159,781	-0,254	-0,248
101,772	343,181	-0,228	-0,313
102,787	-17,490	-0,347	-0,152
103,801	211,891	-0,232	-0,256
104,816	160,777	-0,201	-0,196
105,830	119,023	-0,243	-0,210
106,845	23,714	-0,158	-0,091
107,860	-35,573	-0,204	-0,077
108,874	-75,708	-0,251	-0,062
109,889	335,887	-0,288	-0,391
110,903	18,817	-0,271	-0,151
111,918	-101,211	-0,307	-0,052
112,933	-12,858	-0,215	-0,097
113,947	286,943	-0,209	-0,264
114,962	234,666	-0,248	-0,287
115,976	133,230	-0,203	-0,183
116,991	105,749	-0,255	-0,211
118,006	51,009	-0,303	-0,200
119,020	233,486	-0,295	-0,339
120,035	204,169	-0,267	-0,289
121,049	245,122	-0,101	-0,119
122,064	94,096	-0,283	-0,224
123,079	297,816	-0,185	-0,237
124,093	371,620	-0,206	-0,293
125,108	87,743	-0,285	-0,220
126,122	69,576	-0,210	-0,151
127,137	518,005	-0,129	-0,211
128,151	-40,543	-0,193	-0,069
129,166	-54,024	-0,141	-0,045
130,181	6,742	-0,354	-0,183
131,195	235,783	-0,148	-0,171
132,210	93,023	-0,146	-0,115
133,224	5,190	-0,277	-0,142
134,239	800,000	-0,134	-0,265
135,254	-69,919	-0,274	-0,072
136,268	525,732	-0,144	-0,237
137,283	107,476	-0,304	-0,252
138,297	30,423	-0,392	-0,233
139,312	-11,556	-0,237	-0,108
140,327	-200,000	-0,057	-0,212
141,341	156,047	-0,176	-0,169
142,356	259,862	-0,201	-0,242
143,370	68,211	-0,282	-0,201
144,385	191,431	-0,219	-0,230
145,400	-87,562	-0,201	0,042
146,414	191,542	-0,272	-0,285
147,429	22,968	-0,237	-0,135
148,443	70,061	-0,358	-0,257
149,458	-18,577	-0,182	-0,079
150,473	-88,746	-0,138	-0,028
151,487	-14,101	-0,278	-0,124
152,502	91,291	-0,197	-0,154
153,516	-109,935	-0,226	-0,033
154,531	315,840	-0,183	-0,240
155,546	800,000	-0,084	-0,196
156,560	4,990	-0,194	-0,099
157,575	-171,295	-0,110	-0,003
158,589	-38,921	-0,249	-0,091
159,604	136,720	-0,173	-0,157
160,619	162,910	-0,225	-0,220
161,633	312,727	-0,174	-0,228
162,648	108,773	-0,262	-0,218
163,662	80,933	-0,195	-0,146
164,677	-27,998	-0,281	-0,113
165,692	50,599	-0,141	-0,093
166,706	-7,138	-0,277	-0,130
167,721	191,898	-0,249	-0,261
168,735	74,188	-0,264	-0,192
169,750	535,036	-0,143	-0,236
170,764	-19,930	-0,295	-0,126
171,779	-2,151	-0,216	-0,105
172,794	97,724	-0,131	-0,104
173,808	67,731	-0,254	-0,180
174,823	228,460	-0,183	-0,208
175,837	-33,719	-0,277	-0,105
176,852	145,000	-0,162	-0,151
177,867	-38,537	-0,132	-0,048
178,881	5,518	-0,243	-0,124
179,896	-11,498	-0,161	-0,073
180,910	-2,760	-0,343	-0,166
181,925	-200,000	-0,232	0,000
182,940	45,721	-0,220	-0,141
183,954	353,940	-0,205	-0,283
184,969	-89,183	-0,291	-0,059
185,983	91,648	-0,140	-0,109
186,998	489,730	-0,178	-0,283
188,013	-33,189	-0,178	-0,068
189,027	97,687	-0,224	-0,178
190,042	162,183	-0,200	-0,195
191,056	472,881	-0,099	-0,155
192,071	15,822	-0,189	-0,103
193,086	13,366	-0,182	-0,098
194,100	185,919	-0,130	-0,134
195,115	-117,335	-0,189	-0,023
196,129	-17,835	-0,249	-0,108
197,144	-99,226	-0,338	-0,059
198,159	800,000	-0,070	-0,148
199,173	800,000	-0,042	-0,127
200,188	122,179	-0,196	-0,170
201,202	-138,879	-0,119	0,009
202,217	-200,000	-0,071	-0,219
203,232	106,356	-0,149	-0,122
204,246	93,724	-0,222	-0,174
205,261	-142,168	-0,213	0,014
206,275	19,221	-0,221	-0,122
207,290	37,375	-0,120	-0,073
208,304	800,000	0,045	-0,122
209,319	-130,154	-0,202	-0,019
210,334	138,871	-0,212	-0,193
211,348	31,944	-0,216	-0,129
212,363	166,621	-0,214	-0,210
213,377	45,936	-0,241	-0,154
214,392	13,534	-0,154	0,083
215,407	302,009	-0,128	-0,165
216,421	-19,373	-0,147	-0,063
217,436	229,352	-0,172	-0,195
218,450	-200,000	-0,082	-0,318
219,465	-5,834	-0,273	-0,129
220,480	61,712	-0,231	-0,159
221,494	208,904	-0,104	-0,112
222,509	-77,574	-0,141	-0,033
223,523	-77,779	-0,252	-0,060
224,538	-98,731	-0,120	-0,021
225,553	310,354	-0,200	-0,260
226,567	200,477	-0,112	-0,119
227,582	44,915	-0,252	-0,160
228,596	-14,113	-0,210	-0,093
229,611	76,956	-0,126	-0,093
230,626	471,917	-0,118	-0,184
231,640	390,352	-0,137	-0,197
232,655	-72,178	-0,260	-0,066
233,669	44,225	-0,408	-0,258
234,684	321,176	-0,156	-0,205
235,699	-101,138	-0,113	-0,019
236,713	-53,910	-0,259	-0,081
237,728	149,443	-0,153	-0,143
238,742	85,658	-0,203	-0,154
239,757	65,968	-0,148	-0,103
240,772	50,128	-0,277	-0,180
241,786	622,235	-0,101	-0,177
242,801	107,457	-0,112	-0,092
243,815	-28,957	-0,156	-0,061
244,830	-2,974	-0,150	0,072
245,844	230,220	-0,149	0,168
246,859	-20,697	-0,160	-0,067
247,874	-110,564	-0,278	-0,039
248,888	83,331	-0,174	-0,130
249,903	-200,000	-0,020	-0,145
250,917	-121,270	-0,076	0,009
251,932	99,480	-0,215	-0,171
252,947	-32,005	-0,141	-0,054
253,961	45,009	-0,161	-0,102
254,976	-48,973	-0,165	-0,054
255,990	459,608	-0,144	-0,222
257,005	314,261	-0,100	-0,130
258,020	-66,393	-0,204	-0,055
259,034	252,600	-0,126	-0,148
260,049	112,686	-0,174	-0,146
261,063	342,447	-0,175	-0,237
262,078	109,882	-0,297	-0,245
263,093	107,562	-0,208	-0,170
264,107	-63,967	-0,246	-0,069
265,122	-97,536	-0,167	0,030
266,136	-94,125	-0,126	-0,023
267,151	34,406	-0,096	-0,058
268,166	17,008	-0,206	-0,112
269,180	-136,002	-0,158	0,013
270,195	-38,383	-0,290	-0,105
271,209	276,776	-0,123	-0,151
272,224	-87,307	-0,249	-0,052
273,239	-81,467	-0,141	0,032
274,253	112,376	-0,184	-0,153
275,268	800,000	-0,063	-0,170
276,282	2,604	-0,200	-0,100
277,297	175,924	-0,222	-0,222
278,312	188,942	-0,196	-0,202
279,326	-93,308	-0,167	0,032
280,341	131,226	-0,181	-0,160
281,355	368,496	-0,032	-0,045
282,370	-36,327	-0,247	-0,091
283,384	-135,577	-0,217	-0,018
284,399	174,937	-0,096	-0,096
285,414	237,582	-0,157	-0,179
286,428	383,328	-0,153	-0,217
287,443	800,000	-0,070	-0,139
288,457	29,654	-0,059	0,034
289,472	-7,539	-0,127	-0,059
290,487	-137,714	-0,177	-0,013
291,501	-126,155	-0,186	-0,019
292,516	241,191	-0,224	-0,258
293,530	-200,000	-0,223	-0,000
294,545	-120,256	-0,135	-0,016
295,560	-68,928	-0,060	0,016
296,574	10,110	-0,178	-0,093
297,589	-89,814	-0,130	-0,026
298,603	549,307	-0,138	-0,228
299,618	-97,656	-0,125	-0,022
300,633	463,806	-0,127	-0,196
301,647	680,751	-0,006	-0,012
302,662	-200,000	-0,024	-0,073
303,676	800,000	-0,026	0,052
304,691	-148,257	-0,195	0,011
305,706	-200,000	-0,042	-0,216
306,720	800,000	-0,142	-0,286
307,735	567,044	-0,127	-0,213
308,749	342,258	-0,088	-0,119
309,764	800,000	-0,051	-0,130
310,779	175,729	-0,161	-0,160
311,793	3,075	-0,094	-0,047
312,808	369,382	-0,131	-0,182
313,822	-43,758	-0,154	-0,053
314,837	-10,775	-0,126	-0,057
315,852	-38,508	-0,198	-0,071
316,866	-200,000	-0,056	-0,270
317,881	526,286	-0,093	-0,150
318,895	800,000	-0,121	-0,292
319,910	57,401	-0,210	-0,141
320,925	-34,494	-0,181	-0,068
321,939	2,503	-0,127	-0,063
322,954	187,770	-0,144	-0,147
323,968	-99,564	-0,218	-0,037
324,983	17,761	-0,129	-0,070
325,997	-22,354	-0,161	-0,067
327,012	-9,766	-0,138	-0,063
328,027	144,540	-0,140	-0,128
329,041	800,000	-0,082	-0,223
330,056	-200,000	-0,028	0,089
331,070	185,106	-0,135	-0,137
332,085	54,125	-0,126	-0,083
333,100	-200,000	0,011	-0,105
334,114	225,300	-0,116	-0,129
335,129	407,655	-0,146	-0,212
336,143	392,469	-0,095	-0,136
337,158	82,518	-0,190	-0,141
338,173	-134,913	0,086	-0,007
339,187	-33,941	-0,104	0,039
340,202	255,149	-0,137	-0,161
341,216	-129,776	-0,229	-0,021
342,231	53,916	-0,167	-0,110
343,246	677,282	-0,116	-0,208
344,260	667,258	-0,046	0,081
345,275	23,342	-0,110	-0,061
346,289	-91,303	-0,128	-0,025
347,304	-73,457	-0,160	-0,040
348,319	486,152	-0,122	-0,190
349,333	33,174	-0,272	-0,161
350,348	609,400	-0,094	-0,162
351,362	177,658	-0,249	-0,249
352,377	-33,690	-0,130	0,049
353,392	135,698	-0,101	0,089
354,406	22,589	-0,168	-0,094
355,421	206,856	1311,282	1398,566
356,435	159,102	1471,588	1399,061
