DTS Sentinel unit serial number:	SN410029Multiplexer serial number:	ORYXHardware model number:	OX2-SRSoftware version number:	ORYX F/W v4,00 Oryx Data Collector v3.7.2.0data status	okinstallation	B3 Nyhavnadifferential loss correction	single-endedforward channel	channel 1reverse channel	N/Adate	2023/11/29time	19:22:30forward acquisition time	300,00reverse acquisition time	0,00gamma	499,1914k internal	0,3209k external	0,3209temperature offset calibration	1,0000default loss term (dB/km)	0,3820temperature slope calibration	1,0000multiplexer offset coefficient	1,0000multiplexer slope coefficient	1,0000fibre end	0,00T internal ref (°C)	10,96T ext. ref 1 (°C)	-4,31T ext. ref 2 (°C)	-4,41length (m)	temperature (°C)	Stokes	anti-Stokes-744,400	72,218	-0,328	-0,248
-743,385	800,000	-0,091	0,214
-742,371	110,907	-0,193	-0,168
-741,356	-200,000	-0,011	0,345
-740,342	127,451	-0,165	-0,152
-739,327	-200,000	0,083	0,397
-738,312	240,731	-0,144	-0,175
-737,298	-200,000	0,040	0,239
-736,283	99,784	-0,167	-0,140
-735,269	-200,000	0,077	0,332
-734,254	170,130	-0,114	-0,118
-733,239	-29,901	-0,144	0,059
-732,225	800,000	-0,056	-0,123
-731,210	-46,744	0,167	-0,059
-730,196	122,698	0,038	-0,035
-729,181	-89,515	-0,044	0,009
-728,167	-39,253	-0,122	0,046
-727,152	458,904	0,011	0,018
-726,137	310,804	-0,087	-0,119
-725,123	81,419	-0,114	0,089
-724,108	318,818	-0,102	-0,140
-723,094	-31,096	-0,099	-0,040
-722,079	-75,063	-0,093	-0,024
-721,064	800,000	-0,009	-0,023
-720,050	-61,907	0,193	-0,058
-719,035	635,070	-0,038	-0,071
-718,021	-66,660	-0,055	0,016
-717,006	135,914	-0,152	0,144
-715,991	405,513	-0,092	-0,140
-714,977	-144,743	-0,091	-0,006
-713,962	171,099	-0,050	-0,052
-712,948	53,411	-0,116	-0,081
-711,933	800,000	0,032	-0,083
-710,918	-200,000	-0,038	0,197
-709,904	-89,690	-0,116	-0,024
-708,889	800,000	-0,016	0,040
-707,875	313,271	-0,114	-0,156
-706,860	190,930	0,130	-0,142
-705,845	163,365	-0,095	0,097
-704,831	-194,197	0,121	-0,001
-703,816	800,000	0,018	0,042
-702,802	434,410	-0,009	-0,014
-701,787	282,142	-0,079	-0,103
-700,772	-200,000	-0,002	-0,104
-699,758	24,307	-0,061	0,037
-698,743	123,522	0,061	-0,055
-697,729	64,916	-0,033	-0,024
-696,714	-200,000	-0,012	0,077
-695,699	111,112	-0,092	0,080
-694,685	-200,000	-0,003	0,073
-693,670	-200,000	-0,002	0,027
-692,656	800,000	-0,047	-0,096
-691,641	95,826	-0,055	0,046
-690,627	225,493	-0,070	-0,082
-689,612	264,995	-0,068	0,086
-688,597	-100,519	-0,023	-0,004
-687,583	-106,675	-0,122	0,019
-686,568	557,567	-0,034	-0,060
-685,554	800,000	-0,014	0,027
-684,539	-200,000	0,014	-0,115
-683,524	43,071	0,054	-0,036
-682,510	-200,000	0,014	0,121
-681,495	-200,000	0,007	0,096
-680,481	-200,000	-0,004	-0,031
-679,466	800,000	-0,069	-0,173
-678,451	-200,000	0,016	-0,124
-677,437	-134,215	-0,095	-0,008
-676,422	225,602	0,088	-0,103
-675,408	-131,124	-0,025	0,002
-674,393	220,387	-0,052	-0,061
-673,378	-49,092	0,100	0,034
-672,364	2,412	0,078	-0,041
-671,349	-55,085	-0,135	-0,044
-670,335	128,780	0,144	-0,133
-669,320	-200,000	0,015	0,075
-668,305	176,288	0,038	-0,040
-667,291	-200,000	-0,002	-0,069
-666,276	227,867	-0,115	-0,136
-665,262	-97,118	0,075	-0,014
-664,247	149,252	0,002	0,002
-663,232	211,924	-0,106	-0,121
-662,218	-19,686	0,149	-0,066
-661,203	107,961	-0,050	-0,043
-660,189	-127,457	0,088	0,009
-659,174	-200,000	0,006	-0,144
-658,159	199,475	-0,081	-0,090
-657,145	-200,000	-0,037	-0,172
-656,130	57,895	-0,046	-0,033
-655,116	-24,988	0,052	-0,022
-654,101	-153,583	0,019	0,001
-653,086	75,915	-0,045	-0,035
-652,072	41,867	0,091	-0,059
-651,057	800,000	-0,069	0,145
-650,043	-200,000	0,015	-0,066
-649,028	-200,000	-0,002	-0,133
-648,014	236,333	0,068	0,081
-646,999	-53,375	-0,057	0,019
-645,984	-200,000	0,042	-0,153
-644,970	-200,000	-0,026	0,112
-643,955	-15,401	-0,166	-0,076
-642,941	-22,907	-0,040	0,017
-641,926	-200,000	0,013	0,100
-640,911	-200,000	0,000	0,096
-639,897	800,000	0,056	0,147
-638,882	-200,000	-0,017	0,113
-637,868	-76,567	0,128	0,032
-636,853	-119,276	-0,094	0,012
-635,838	-130,487	-0,196	0,019
-634,824	190,226	0,090	-0,098
-633,809	-200,000	0,029	-0,118
-632,795	134,557	-0,072	0,068
-631,780	605,722	-0,038	-0,068
-630,765	800,000	-0,026	-0,057
-629,751	89,651	-0,118	-0,095
-628,736	53,218	-0,149	-0,103
-627,722	-197,099	0,110	0,000
-626,707	91,164	0,061	-0,050
-625,692	-91,811	0,192	-0,039
-624,678	-130,685	-0,155	-0,015
-623,663	125,433	-0,079	-0,072
-622,649	800,000	0,025	-0,057
-621,634	800,000	-0,037	0,102
-620,619	-5,188	-0,039	-0,019
-619,605	565,923	0,029	0,051
-618,590	-200,000	-0,014	0,113
-617,576	-200,000	0,001	0,136
-616,561	40,211	0,067	0,043
-615,546	-123,620	-0,181	0,020
-614,532	643,832	-0,094	-0,174
-613,517	-200,000	-0,026	-0,131
-612,503	-173,148	0,103	-0,002
-611,488	-200,000	0,003	-0,054
-610,474	520,258	-0,064	-0,109
-609,459	-200,000	0,008	0,065
-608,444	-48,967	-0,123	0,042
-607,430	-200,000	-0,022	-0,076
-606,415	800,000	-0,031	-0,079
-605,401	-0,004	-0,168	0,086
-604,386	-73,306	0,128	-0,034
-603,371	124,523	-0,057	0,051
-602,357	-130,653	0,024	0,002
-601,342	-95,727	0,102	-0,019
-600,328	-200,000	-0,008	-0,025
-599,313	41,935	0,081	0,053
-598,298	497,074	-0,045	-0,075
-597,284	800,000	-0,014	0,031
-596,269	-44,517	0,199	0,072
-595,255	800,000	0,042	0,099
-594,240	-10,327	-0,108	-0,051
-593,225	800,000	0,052	0,109
-592,211	-88,686	-0,082	0,017
-591,196	-115,010	0,091	-0,012
-590,182	-63,786	0,111	0,033
-589,167	-118,109	0,070	0,009
-588,152	344,126	0,047	-0,066
-587,138	-200,000	-0,012	0,064
-586,123	-120,246	-0,142	-0,017
-585,109	-164,022	0,081	0,003
-584,094	30,207	-0,084	-0,052
-583,079	41,469	0,137	0,089
-582,065	-200,000	-0,006	-0,079
-581,050	103,099	-0,046	-0,039
-580,036	-113,292	0,032	-0,005
-579,021	800,000	-0,026	-0,057
-578,006	692,529	-0,093	-0,176
-576,992	410,801	0,038	-0,058
-575,977	470,810	0,038	-0,061
-574,963	800,000	0,082	0,174
-573,948	800,000	0,022	-0,056
-572,934	-200,000	0,027	0,112
-571,919	8,547	-0,111	0,060
-570,904	97,783	0,053	-0,044
-569,890	199,493	-0,028	-0,031
-568,875	164,745	0,071	0,072
-567,861	-96,246	0,148	0,028
-566,846	19,618	-0,053	0,031
-565,831	800,000	-0,040	-0,087
-564,817	-200,000	-0,017	-0,165
-563,802	746,965	-0,025	-0,049
-562,788	215,693	-0,025	-0,028
-561,773	11,126	0,101	-0,056
-560,758	-189,033	-0,033	0,000
-559,744	800,000	-0,031	0,073
-558,729	-73,170	-0,073	0,019
-557,715	18,285	-0,016	-0,009
-556,700	-75,172	0,100	0,026
-555,685	51,969	0,105	-0,072
-554,671	192,318	-0,079	-0,086
-553,656	800,000	-0,047	0,094
-552,642	-96,893	-0,054	-0,010
-551,627	-189,524	-0,123	0,001
-550,612	-38,578	-0,123	0,046
-549,598	199,227	-0,054	-0,060
-548,583	-23,591	-0,133	-0,057
-547,569	-109,305	-0,136	-0,020
-546,554	52,421	-0,068	-0,046
-545,539	-122,180	0,129	0,015
-544,525	-34,567	-0,083	-0,032
-543,510	73,448	0,054	-0,041
-542,496	20,089	-0,129	-0,075
-541,481	-30,669	-0,038	0,015
-540,466	65,687	-0,125	-0,091
-539,452	10,880	-0,073	0,040
-538,437	112,519	0,075	0,065
-537,423	245,474	-0,067	0,081
-536,408	67,148	-0,046	0,034
-535,393	139,139	-0,104	-0,099
-534,379	-13,042	-0,097	0,045
-533,364	-200,000	0,005	0,025
-532,350	171,682	0,096	0,100
-531,335	-3,618	-0,060	0,030
-530,321	-200,000	0,001	-0,065
-529,306	28,069	-0,125	0,076
-528,291	253,287	0,058	0,072
-527,277	74,151	0,082	0,062
-526,262	118,468	-0,045	0,040
-525,248	97,625	0,078	-0,065
-524,233	800,000	-0,052	-0,105
-523,218	289,798	0,067	0,087
-522,204	163,135	0,091	0,092
-521,189	145,287	0,041	-0,040
-520,175	-200,000	-0,026	-0,100
-519,160	72,858	0,082	0,062
-518,145	800,000	-0,026	0,055
-517,131	-200,000	-0,006	0,026
-516,116	84,574	0,171	0,135
-515,102	39,640	0,020	0,013
-514,087	-200,000	-0,016	0,104
-513,072	-79,593	0,049	-0,012
-512,058	-200,000	-0,005	-0,067
-511,043	0,468	-0,118	0,060
-510,029	-32,222	0,091	-0,036
-509,014	-200,000	0,016	-0,078
-507,999	70,841	0,029	0,021
-506,985	116,737	0,049	-0,043
-505,970	800,000	0,014	-0,039
-504,956	800,000	-0,065	-0,161
-503,941	39,620	-0,123	0,079
-502,926	121,332	-0,072	-0,064
-501,912	-161,923	0,141	0,005
-500,897	-200,000	-0,004	0,027
-499,883	800,000	0,005	0,010
-498,868	-200,000	-0,044	-0,186
-497,853	-53,156	0,036	0,012
-496,839	24,892	0,108	-0,064
-495,824	46,702	-0,007	0,004
-494,810	800,000	0,023	-0,051
-493,795	91,359	-0,058	0,046
-492,781	155,677	-0,072	-0,072
-491,766	800,000	-0,022	0,047
-490,751	229,664	0,030	-0,035
-489,737	114,767	0,031	-0,027
-488,722	-200,000	0,009	-0,042
-487,708	-134,214	0,096	-0,008
-486,693	109,698	0,042	0,036
-485,678	13,243	0,037	0,020
-484,664	35,650	-0,129	-0,081
-483,649	-111,054	0,041	-0,006
-482,635	-11,996	-0,048	-0,023
-481,620	-200,000	-0,003	0,122
-480,605	-200,000	-0,002	0,017
-479,591	-40,379	-0,119	-0,044
-478,576	-124,379	0,126	-0,014
-477,562	-200,000	-0,010	-0,162
-476,547	160,350	-0,051	0,051
-475,532	-165,591	0,171	-0,005
-474,518	-108,374	-0,066	0,010
-473,503	203,078	0,052	-0,058
-472,489	800,000	0,076	0,168
-471,474	-200,000	-0,020	0,079
-470,459	345,159	0,082	-0,116
-469,445	-99,684	-0,098	0,018
-468,430	745,456	0,055	-0,106
-467,416	-200,000	-0,016	-0,094
-466,401	-43,211	-0,014	0,005
-465,386	-14,362	0,123	-0,057
-464,372	-126,256	-0,083	0,009
-463,357	800,000	-0,008	-0,019
-462,343	314,601	-0,015	-0,021
-461,328	-64,292	-0,110	0,032
-460,313	103,608	-0,118	-0,099
-459,299	-130,916	0,068	-0,006
-458,284	-130,340	-0,043	0,004
-457,270	30,611	0,090	0,055
-456,255	-200,000	-0,006	0,048
-455,241	-200,000	0,015	0,092
-454,226	-200,000	-0,032	-0,169
-453,211	21,731	0,051	-0,030
-452,197	-142,291	0,067	0,005
-451,182	762,364	0,074	0,145
-450,168	800,000	-0,017	0,036
-449,153	-125,563	-0,063	0,007
-448,138	43,376	0,082	0,054
-447,124	-200,000	-0,022	-0,202
-446,109	-200,000	0,009	-0,072
-445,095	-83,980	0,047	-0,011
-444,080	800,000	-0,030	-0,064
-443,065	34,919	0,090	0,057
-442,051	363,283	-0,040	0,058
-441,036	136,955	-0,028	-0,027
-440,022	-200,000	0,001	-0,038
-439,007	-119,963	-0,092	-0,011
-437,992	-200,000	0,014	0,123
-436,978	-200,000	-0,015	0,096
-435,963	800,000	0,013	-0,038
-434,949	-200,000	-0,016	-0,093
-433,934	-200,000	-0,012	-0,075
-432,919	800,000	-0,054	-0,117
-431,905	26,484	0,055	0,033
-430,890	170,591	-0,045	-0,047
-429,876	228,229	0,030	-0,035
-428,861	585,271	-0,077	0,137
-427,846	-8,795	-0,134	0,064
-426,832	142,901	-0,058	0,056
-425,817	102,435	0,011	-0,009
-424,803	-91,801	0,051	-0,010
-423,788	510,977	0,038	-0,064
-422,773	-144,432	-0,093	-0,006
-421,759	22,482	-0,097	0,057
-420,744	-61,449	-0,142	0,042
-419,730	115,085	-0,055	-0,048
-418,715	67,255	0,094	-0,069
-417,701	800,000	0,018	-0,037
-416,686	-200,000	-0,005	0,018
-415,671	-85,551	-0,077	-0,017
-414,657	249,826	0,043	-0,052
-413,642	66,549	0,133	0,097
-412,628	162,248	-0,084	0,085
-411,613	287,587	-0,037	0,048
-410,598	-23,108	0,084	-0,036
-409,584	120,033	0,063	-0,056
-408,569	-35,962	0,049	0,019
-407,555	-193,377	0,084	-0,001
-406,540	-23,216	-0,124	0,053
-405,525	248,949	-0,052	-0,063
-404,511	-200,000	0,011	0,038
-403,496	255,285	-0,080	-0,098
-402,482	-200,000	0,002	0,060
-401,467	-5,105	0,149	0,073
-400,452	32,029	-0,022	-0,014
-399,438	-200,000	-0,022	-0,092
-398,423	100,281	0,028	-0,023
-397,409	109,786	0,163	-0,140
-396,394	-200,000	0,009	-0,034
-395,379	-200,000	0,031	0,145
-394,365	11,031	0,092	0,050
-393,350	800,000	0,008	-0,020
-392,336	800,000	-0,012	-0,029
-391,321	800,000	-0,021	0,046
-390,306	-33,097	-0,071	-0,028
-389,292	205,577	-0,031	-0,034
-388,277	82,309	0,012	0,009
-387,263	-200,000	-0,003	-0,092
-386,248	119,637	0,070	0,062
-385,233	632,411	0,138	0,252
-384,219	800,000	-0,066	0,151
-383,204	15,581	-0,073	-0,041
-382,190	71,155	-0,090	-0,067
-381,175	800,000	0,028	-0,076
-380,160	527,652	0,044	0,075
-379,146	800,000	0,062	0,154
-378,131	187,218	0,090	-0,096
-377,117	800,000	0,010	-0,025
-376,102	141,257	-0,088	-0,083
-375,088	-200,000	0,004	-0,033
-374,073	619,780	-0,015	-0,027
-373,058	350,017	0,092	0,131
-372,044	14,147	0,097	-0,054
-371,029	225,450	0,056	0,065
-370,015	37,356	-0,068	-0,043
-369,000	-200,000	-0,012	-0,136
-367,985	800,000	-0,047	-0,115
-366,971	533,834	0,044	-0,075
-365,956	-200,000	-0,019	-0,097
-364,942	-200,000	-0,019	0,061
-363,927	-1,729	0,169	0,085
-362,912	-200,000	-0,008	0,035
-361,898	800,000	0,067	-0,144
-360,883	260,545	-0,054	-0,067
-359,869	185,039	0,089	0,094
-358,854	-129,975	-0,050	-0,005
-357,839	195,751	0,075	-0,082
-356,825	394,958	0,037	0,056
-355,810	66,658	0,025	-0,019
-354,796	-92,570	-0,107	0,021
-353,781	-200,000	-0,020	-0,081
-352,766	315,026	0,066	0,089
-351,752	-200,000	-0,003	0,109
-350,737	-58,864	0,148	0,045
-349,723	70,319	-0,033	0,024
-348,708	104,801	0,092	0,077
-347,693	356,780	-0,011	-0,016
-346,679	-200,000	-0,014	-0,126
-345,664	-18,201	-0,124	-0,055
-344,650	709,876	0,046	-0,088
-343,635	120,125	0,094	0,084
-342,620	-200,000	0,008	0,066
-341,606	-78,257	0,101	0,025
-340,591	-200,000	-0,032	-0,119
-339,577	-200,000	-0,007	-0,047
-338,562	82,790	-0,114	-0,089
-337,548	80,934	-0,044	0,034
-336,533	-67,194	0,052	0,014
-335,518	-179,547	-0,045	-0,001
-334,504	800,000	-0,043	0,091
-333,489	-86,983	-0,120	-0,026
-332,475	621,598	-0,023	-0,042
-331,460	450,013	0,042	0,066
-330,445	10,714	0,047	0,026
-329,431	-200,000	0,036	0,116
-328,416	-200,000	0,003	0,053
-327,402	-200,000	0,019	-0,103
-326,387	153,274	0,067	-0,066
-325,372	257,371	-0,019	0,023
-324,358	-28,335	-0,043	-0,018
-323,343	-94,735	-0,056	-0,011
-322,329	451,770	-0,039	0,062
-321,314	86,223	0,123	0,096
-320,299	-126,171	0,030	-0,003
-319,285	443,208	-0,011	-0,017
-318,270	85,384	-0,054	0,042
-317,256	741,511	-0,036	-0,069
-316,241	107,253	0,040	0,034
-315,226	-200,000	0,012	-0,111
-314,212	-200,000	-0,041	0,149
-313,197	-200,000	-0,021	0,075
-312,183	800,000	-0,024	0,074
-311,168	-200,000	0,012	0,056
-310,153	-188,448	0,022	-0,000
-309,139	-49,947	-0,085	-0,028
-308,124	1,109	0,052	-0,026
-307,110	15,895	0,194	-0,108
-306,095	800,000	0,090	0,179
-305,080	800,000	-0,036	0,105
-304,066	-200,000	0,007	0,151
-303,051	113,169	-0,043	0,038
-302,037	800,000	-0,022	0,070
-301,022	-152,415	0,082	-0,004
-300,008	-200,000	0,006	0,121
-298,993	-77,127	0,212	-0,052
-297,978	519,474	-0,013	0,021
-296,964	128,318	-0,006	-0,006
-295,949	800,000	-0,007	-0,017
-294,935	-200,000	0,032	-0,187
-293,920	-118,356	-0,086	0,011
-292,905	-200,000	0,016	-0,069
-291,891	-68,422	-0,068	0,019
-290,876	66,680	0,073	0,053
-289,862	167,628	-0,104	-0,106
-288,847	-132,012	0,079	-0,007
-287,832	-21,125	-0,067	0,029
-286,818	127,676	-0,070	-0,064
-285,803	-99,128	0,085	-0,015
-284,789	53,569	0,089	0,061
-283,774	97,341	0,129	0,106
-282,759	-49,923	-0,188	0,063
-281,745	75,513	-0,057	-0,043
-280,730	800,000	0,062	-0,126
-279,716	731,640	-0,042	-0,081
-278,701	-4,501	-0,153	0,075
-277,686	228,718	0,128	-0,148
-276,672	-89,980	0,096	-0,020
-275,657	-200,000	0,071	-0,234
-274,643	63,843	-0,139	-0,099
-273,628	81,946	0,064	0,049
-272,613	-200,000	-0,027	-0,140
-271,599	-200,000	0,013	0,153
-270,584	800,000	-0,036	0,073
-269,570	-96,218	0,091	-0,017
-268,555	-200,000	-0,183	0,000
-267,540	592,464	-0,027	-0,048
-266,526	69,934	-0,124	-0,091
-265,511	743,926	0,039	0,075
-264,497	46,609	-0,077	-0,051
-263,482	800,000	0,029	0,071
-262,467	800,000	0,076	0,152
-261,453	-200,000	0,007	-0,033
-260,438	800,000	0,006	-0,011
-259,424	33,210	-0,069	0,042
-258,409	-56,046	-0,059	-0,019
-257,395	-200,000	0,024	0,146
-256,380	188,634	0,149	0,159
-255,365	800,000	0,023	0,055
-254,351	190,986	0,094	0,101
-253,336	800,000	-0,030	-0,080
-252,322	800,000	0,013	0,033
-251,307	-19,722	0,063	-0,028
-250,292	800,000	-0,029	0,076
-249,278	152,859	0,124	0,120
-248,263	-53,972	-0,044	-0,014
-247,249	-200,000	-0,014	0,069
-246,234	-92,834	-0,068	0,013
-245,219	-111,756	-0,149	0,021
-244,205	622,509	-0,031	-0,057
-243,190	-58,263	0,060	0,019
-242,176	306,400	0,069	0,092
-241,161	-200,000	0,000	0,124
-240,146	-75,722	-0,068	0,017
-239,132	-145,339	0,047	-0,003
-238,117	511,816	-0,053	0,089
-237,103	-68,058	-0,176	-0,049
-236,088	-154,396	0,144	-0,007
-235,073	-112,541	0,103	0,014
-234,059	198,029	0,021	-0,023
-233,044	-200,000	-0,016	0,148
-232,030	145,082	-0,026	-0,025
-231,015	189,395	-0,067	-0,071
-230,000	-200,000	-0,000	-0,107
-228,986	-200,000	-0,000	-0,014
-227,971	-164,658	-0,139	0,004
-226,957	-20,004	0,140	0,061
-225,942	800,000	0,044	0,124
-224,927	-125,271	-0,196	0,021
-223,913	800,000	-0,034	0,105
-222,898	45,202	0,157	-0,103
-221,884	-200,000	-0,003	0,037
-220,869	-58,975	0,060	0,018
-219,855	800,000	-0,048	0,114
-218,840	-200,000	-0,014	0,156
-217,825	-200,000	-0,012	0,041
-216,811	395,962	-0,064	-0,096
-215,796	183,928	-0,044	0,047
-214,782	-108,918	-0,056	0,008
-213,767	13,455	0,078	0,043
-212,752	-200,000	0,027	0,094
-211,738	-84,445	0,067	-0,015
-210,723	-200,000	-0,012	0,042
-209,709	247,869	-0,104	-0,126
-208,694	256,957	0,082	-0,100
-207,679	265,623	0,039	-0,048
-206,665	-86,904	-0,028	-0,006
-205,650	-27,007	0,076	0,031
-204,636	73,820	0,142	0,105
-203,621	-15,993	-0,087	0,039
-202,606	800,000	0,066	-0,143
-201,592	-200,000	0,014	-0,096
-200,577	138,850	-0,019	0,018
-199,563	207,302	-0,019	-0,021
-198,548	83,909	0,090	0,070
-197,533	280,664	0,049	0,063
-196,519	-130,530	0,027	0,003
-195,504	-115,347	0,159	-0,021
-194,490	566,267	-0,006	-0,011
-193,475	-200,000	0,016	-0,133
-192,460	-193,021	-0,232	0,001
-191,446	69,804	0,057	-0,042
-190,431	-200,000	-0,007	-0,025
-189,417	-200,000	0,002	0,150
-188,402	49,813	0,103	0,069
-187,387	-200,000	-0,005	-0,100
-186,373	112,656	0,038	-0,033
-185,358	112,018	-0,023	0,020
-184,344	-200,000	0,006	0,024
-183,329	-6,685	-0,098	0,047
-182,315	80,981	-0,075	0,057
-181,300	-200,000	-0,024	-0,097
-180,285	535,161	-0,024	0,041
-179,271	-66,813	0,117	-0,033
-178,256	-200,000	0,013	-0,083
-177,242	68,184	-0,060	0,043
-176,227	-151,675	0,094	-0,005
-175,212	76,020	-0,103	-0,077
-174,198	-27,966	-0,012	0,005
-173,183	-200,000	0,001	0,017
-172,169	-200,000	0,045	0,162
-171,154	-5,751	-0,037	0,018
-170,139	-100,160	-0,051	-0,009
-169,125	-200,000	0,014	0,084
-168,110	-196,192	-0,074	0,000
-167,096	363,031	0,053	-0,075
-166,081	207,689	-0,055	0,061
-165,066	298,691	-0,096	-0,126
-164,052	110,238	0,027	0,023
-163,037	21,995	0,198	-0,114
-162,023	-112,748	-0,053	-0,007
-161,008	474,907	-0,105	-0,169
-159,993	-183,196	-0,077	-0,001
-158,979	44,338	-0,031	-0,020
-157,964	364,711	0,073	0,104
-156,950	9,967	-0,025	0,014
-155,935	27,740	0,092	0,055
-154,920	-5,129	0,036	-0,017
-153,906	110,498	0,044	-0,037
-152,891	435,657	0,032	-0,050
-151,877	800,000	0,009	-0,020
-150,862	-159,555	0,102	0,004
-149,847	-200,000	0,039	-0,137
-148,833	-91,940	0,195	-0,039
-147,818	-200,000	0,018	-0,105
-146,804	102,513	0,068	-0,056
-145,789	800,000	0,016	0,031
-144,775	800,000	-0,068	-0,157
-143,760	-20,657	-0,073	0,031
-142,745	452,554	-0,049	0,076
-141,731	-68,248	-0,053	-0,015
-140,716	-76,407	-0,139	-0,034
-139,702	800,000	0,078	0,174
-138,687	710,812	-0,017	0,032
-137,672	287,425	-0,064	0,082
-136,658	8,272	-0,105	-0,056
-135,643	415,559	-0,042	-0,063
-134,629	-23,972	0,046	0,020
-133,614	297,986	-0,040	0,052
-132,599	-143,842	0,097	-0,006
-131,585	800,000	0,049	0,101
-130,570	-82,436	0,084	0,019
-129,556	-200,000	-0,018	0,078
-128,541	-126,416	-0,011	-0,001
-127,526	-200,000	0,031	0,117
-126,512	-133,538	0,051	0,004
-125,497	305,477	0,089	0,118
-124,483	800,000	0,033	0,074
-123,468	10,610	0,043	-0,023
-122,453	-128,662	-0,138	-0,014
-121,439	-200,000	0,042	-0,171
-120,424	-200,000	-0,031	-0,201
-119,410	54,373	-0,044	0,030
-118,395	407,079	0,062	-0,093
-117,380	-165,746	-0,028	-0,001
-116,366	800,000	-0,047	0,096
-115,351	317,970	-0,018	0,024
-114,337	417,063	-0,089	-0,136
-113,322	594,909	0,050	-0,088
-112,307	76,683	-0,162	-0,121
-111,293	94,735	0,022	-0,018
-110,278	596,535	0,037	0,065
-109,264	43,125	0,032	-0,020
-108,249	-200,000	-0,017	-0,106
-107,234	103,635	-0,096	0,079
-106,220	800,000	-0,016	-0,033
-105,205	733,966	0,032	0,060
-104,191	-200,000	0,015	0,118
-103,176	100,631	0,065	0,053
-102,162	800,000	0,033	0,084
-101,147	108,414	0,075	0,064
-100,132	-159,381	-0,132	0,005
-99,118	-200,000	-0,036	-0,157
-98,103	-10,973	-0,095	-0,044
-97,089	600,095	0,034	0,060
-96,074	-86,694	0,056	0,012
-95,059	-200,000	-0,015	0,068
-94,045	2,341	0,165	-0,084
-93,030	17,480	-0,081	0,045
-92,016	137,913	-0,147	0,136
-91,001	800,000	0,016	0,032
-89,986	-200,000	-0,009	0,195
-88,972	188,954	0,101	-0,107
-87,957	-111,762	-0,072	0,010
-86,943	-200,000	0,024	0,128
-85,928	407,816	0,004	0,006
-84,913	574,030	0,054	-0,093
-83,899	75,667	0,132	-0,098
-82,884	42,001	0,038	0,024
-81,870	-144,147	0,065	-0,004
-80,855	14,072	0,066	0,036
-79,840	301,495	0,040	0,052
-78,826	180,591	-0,013	-0,013
-77,811	-200,000	-0,012	-0,039
-76,797	-25,939	-0,030	0,012
-75,782	-11,222	-0,127	0,059
-74,767	293,013	-0,053	0,068
-73,753	353,452	0,056	-0,079
-72,738	-11,889	0,046	-0,021
-71,724	-113,831	-0,093	0,013
-70,709	800,000	-0,051	-0,153
-69,694	344,887	0,050	0,069
-68,680	-200,000	-0,013	0,099
-67,665	-200,000	0,044	0,148
-66,651	388,995	-0,037	-0,055
-65,636	800,000	0,044	0,090
-64,622	-108,409	-0,100	0,015
-63,607	420,735	-0,018	0,027
-62,592	364,996	0,051	0,073
-61,578	538,013	-0,026	-0,044
-60,563	-118,835	0,169	-0,021
-59,549	800,000	0,100	0,201
-58,534	49,446	-1,763	-1,170
-57,519	471,376	-1,322	-2,109
-56,505	-200,000	-0,322	-4,460
-55,490	752,561	0,777	1,490
-54,476	800,000	5,085	11,183
-53,461	-200,000	20,953	328,850
-52,446	800,000	757,130	2322,000
-51,432	549,816	1662,201	2825,341
-50,417	73,525	1664,150	1229,239
-49,403	18,744	1537,616	866,787
-48,388	12,755	1460,323	794,213
-47,373	18,997	1451,269	819,256
-46,359	15,869	1440,477	798,231
-45,344	11,111	1436,121	773,109
-44,330	10,986	1434,556	771,644
-43,315	10,980	1432,395	770,422
-42,300	10,970	1430,715	769,437
-41,286	11,006	1429,350	768,843
-40,271	10,932	1428,231	767,859
-39,257	10,965	1427,081	767,369
-38,242	11,011	1425,736	766,832
-37,227	11,016	1424,784	766,316
-36,213	11,023	1423,361	765,550
-35,198	11,055	1422,130	765,010
-34,184	11,090	1421,524	764,820
-33,169	10,992	1420,005	763,508
-32,154	11,059	1419,007	763,260
-31,140	11,063	1417,855	762,627
-30,125	11,137	1416,696	762,321
-29,111	11,140	1415,458	761,641
-28,096	11,052	1414,429	760,640
-27,082	10,974	1413,374	759,679
-26,067	11,007	1412,310	759,231
-25,052	10,975	1411,187	758,449
-24,038	10,982	1410,235	757,937
-23,023	10,958	1409,385	757,338
-22,009	10,999	1408,032	756,775
-20,994	10,915	1407,273	755,944
-19,979	10,992	1406,073	755,626
-18,965	10,918	1405,256	754,813
-17,950	10,928	1404,291	754,312
-16,936	10,943	1403,679	754,023
-15,921	10,854	1402,651	753,025
-14,906	10,884	1401,653	752,599
-13,892	10,909	1400,753	752,202
-12,877	10,932	1399,778	751,757
-11,863	10,911	1399,028	751,224
-10,848	10,860	1397,972	750,394
-9,833	10,820	1397,185	749,756
-8,819	10,813	1396,484	749,316
-7,804	10,809	1395,571	748,780
-6,790	10,785	1394,561	748,094
-5,775	10,882	1393,137	747,751
-4,760	10,793	1392,458	746,945
-3,746	10,820	1391,612	746,586
-2,731	10,799	1390,773	746,009
-1,717	10,759	1390,012	745,386
-0,702	10,735	1388,189	744,268
0,313	14,713	1301,889	716,250
1,327	30,880	692,984	418,045
2,342	47,875	120,153	79,058
3,356	3,398	16,200	8,300
4,371	0,318	3,513	1,763
5,386	-0,775	0,709	0,354
6,400	-200,000	0,138	0,543
7,415	74,947	-0,188	-0,140
8,429	87,368	-0,229	-0,179
9,444	79,485	-0,261	-0,197
10,459	-62,419	-0,376	-0,110
11,473	45,608	-0,340	-0,221
12,488	-132,028	-0,238	-0,022
13,502	181,084	-0,193	-0,200
14,517	50,450	-0,340	-0,226
15,531	50,512	-0,492	-0,327
16,546	79,483	-0,229	-0,173
17,561	-45,089	-0,349	-0,122
18,575	-103,973	-0,223	-0,036
19,590	800,000	-0,112	-0,234
20,604	20,629	-0,275	-0,156
21,619	115,945	-0,435	-0,375
22,634	88,761	-0,324	-0,254
23,648	56,939	-0,380	-0,261
24,663	77,946	-0,297	-0,223
25,677	294,866	-0,133	-0,171
26,692	92,612	-0,315	-0,250
27,707	-12,150	-0,412	-0,189
28,721	24,966	-0,372	-0,217
29,736	19,500	-0,283	-0,160
30,750	90,153	-0,425	-0,334
31,765	30,040	-0,402	-0,241
32,780	103,645	-0,313	-0,259
33,794	90,493	-0,263	-0,207
34,809	383,077	-0,262	-0,380
35,823	204,916	-0,273	-0,298
36,838	67,546	-0,382	-0,274
37,853	114,986	-0,325	-0,279
38,867	137,907	-0,310	-0,285
39,882	67,454	-0,370	-0,265
40,896	21,327	-0,416	-0,237
41,911	0,526	-0,421	-0,211
42,926	64,473	-0,393	-0,278
43,940	56,854	-0,421	-0,288
44,955	115,389	-0,302	-0,260
45,969	4,985	-0,417	-0,215
46,984	429,251	-0,172	-0,262
47,999	13,101	-0,377	-0,204
49,013	-5,116	-0,369	-0,178
50,028	5,706	-0,402	-0,208
51,042	171,049	-0,309	-0,312
52,057	47,786	-0,474	-0,310
53,071	11,437	-0,329	-0,177
54,086	135,400	-0,325	-0,297
55,101	511,221	-0,231	-0,379
56,115	231,119	-0,293	-0,338
57,130	-42,682	-0,294	-0,105
58,144	-3,640	-0,420	-0,204
59,159	122,320	-0,411	-0,361
60,174	84,613	-0,235	-0,180
61,188	62,638	-0,362	-0,254
62,203	50,110	-0,299	-0,198
63,217	48,923	-0,301	-0,198
64,232	114,464	-0,273	-0,233
65,247	33,232	-0,283	-0,172
66,261	68,069	-0,366	-0,262
67,276	49,797	-0,512	-0,338
68,290	106,650	-0,332	-0,276
69,305	-105,470	-0,321	-0,051
70,320	-86,488	-0,266	-0,057
71,334	18,604	-0,312	-0,175
72,349	32,184	-0,377	-0,228
73,363	32,132	-0,242	-0,146
74,378	48,811	-0,378	-0,248
75,393	42,524	-0,323	-0,206
76,407	164,832	-0,227	-0,224
77,422	49,835	-0,293	-0,194
78,436	-126,820	-0,244	-0,025
79,451	143,773	-0,316	-0,295
80,466	28,790	-0,311	-0,184
81,480	30,894	-0,401	-0,240
82,495	76,945	-0,204	-0,151
83,509	-9,857	-0,310	-0,144
84,524	-108,605	-0,245	-0,037
85,539	52,926	-0,278	-0,186
86,553	78,245	-0,276	-0,206
87,568	-7,080	-0,391	-0,185
88,582	66,234	-0,256	-0,182
89,597	10,611	-0,315	-0,167
90,611	53,080	-0,240	-0,160
91,626	15,010	-0,407	-0,223
92,641	153,740	-0,277	-0,266
93,655	113,399	-0,233	-0,198
94,670	-58,197	-0,303	-0,092
95,684	74,652	-0,269	-0,198
96,699	-11,812	-0,415	-0,190
97,714	10,659	-0,257	-0,137
98,728	23,377	-0,186	-0,107
99,743	-50,891	-0,208	-0,068
100,757	123,424	-0,127	-0,112
101,772	68,893	-0,396	-0,284
102,787	-66,560	-0,267	-0,074
103,801	72,604	-0,243	-0,177
104,816	278,726	-0,154	-0,192
105,830	-33,174	-0,207	-0,080
106,845	-69,469	-0,359	-0,096
107,860	-64,896	-0,238	-0,067
108,874	-40,616	-0,249	-0,090
109,889	-33,723	-0,346	-0,133
110,903	505,205	-0,140	-0,228
111,918	33,417	-0,224	-0,136
112,933	-105,330	-0,139	-0,022
113,947	17,294	-0,285	-0,158
114,962	34,150	-0,226	-0,137
115,976	-45,898	-0,350	-0,120
116,991	-89,824	-0,144	-0,029
118,006	-24,305	-0,320	-0,133
119,020	570,545	-0,202	-0,345
120,035	494,595	-0,172	-0,277
121,049	-47,540	-0,259	-0,087
122,064	-4,770	-0,357	-0,171
123,079	10,502	-0,264	-0,140
124,093	23,964	-0,313	-0,180
125,108	245,509	-0,176	-0,207
126,122	1,143	-0,240	-0,120
127,137	-40,887	-0,189	-0,068
128,151	-81,451	-0,249	-0,057
129,166	1,930	-0,231	-0,116
130,181	294,725	-0,196	-0,250
131,195	122,127	-0,322	-0,281
132,210	82,868	-0,265	-0,201
133,224	-14,475	-0,279	-0,125
134,239	-31,814	-0,282	-0,110
135,254	39,562	-0,167	-0,104
136,268	-6,870	-0,195	-0,092
137,283	123,932	-0,381	-0,334
138,297	71,064	-0,166	-0,120
139,312	179,620	-0,226	-0,231
140,327	78,924	-0,312	-0,232
141,341	205,196	-0,183	-0,198
142,356	-100,198	-0,192	-0,033
143,370	166,632	-0,199	-0,197
144,385	-128,899	-0,285	0,028
145,400	345,183	-0,222	-0,305
146,414	173,769	-0,276	-0,278
147,429	302,665	-0,195	-0,253
148,443	264,267	-0,217	-0,263
149,458	65,582	-0,204	-0,143
150,473	-74,954	-0,262	-0,065
151,487	69,061	-0,238	-0,170
152,502	126,384	-0,287	-0,253
153,516	511,495	-0,177	-0,288
154,531	264,116	-0,308	-0,374
155,546	52,813	-0,181	-0,120
156,560	78,686	-0,194	-0,144
157,575	36,798	-0,177	-0,108
158,589	22,316	-0,310	-0,176
159,604	-186,240	-0,204	0,002
160,619	411,302	-0,082	-0,122
161,633	68,309	-0,264	-0,188
162,648	-9,115	-0,150	-0,070
163,662	-200,000	-0,055	-0,178
164,677	78,859	-0,183	-0,136
165,692	56,969	-0,228	-0,155
166,706	265,316	-0,087	-0,105
167,721	7,436	-0,201	-0,104
168,735	323,147	-0,162	-0,216
169,750	200,544	-0,082	-0,087
170,764	-200,000	-0,216	-0,000
171,779	157,200	-0,260	-0,250
172,794	80,033	-0,168	-0,126
173,808	393,650	-0,097	-0,141
174,823	104,875	-0,227	-0,186
175,837	260,611	-0,189	-0,227
176,852	385,709	-0,140	-0,201
177,867	-72,203	-0,303	-0,078
178,881	49,997	-0,128	-0,084
179,896	-68,824	-0,161	-0,043
180,910	234,387	-0,172	-0,198
181,925	10,341	-0,278	-0,147
182,940	151,621	-0,228	-0,216
183,954	-39,598	-0,217	-0,079
184,969	-45,435	-0,295	-0,101
185,983	196,215	-0,144	-0,152
186,998	6,304	-0,235	-0,120
188,013	443,763	-0,147	-0,224
189,027	16,139	-0,286	-0,156
190,042	145,193	-0,192	-0,179
191,056	220,598	-0,177	-0,197
192,071	279,680	-0,135	-0,168
193,086	-31,613	-0,205	-0,079
194,100	-103,552	-0,154	0,025
195,115	111,529	-0,236	-0,197
196,129	-29,889	-0,234	-0,092
197,144	101,034	-0,212	-0,171
198,159	150,888	-0,223	-0,210
199,173	800,000	-0,106	-0,256
200,188	-22,151	-0,216	-0,091
201,202	-49,565	-0,186	-0,061
202,217	-200,000	-0,062	-0,190
203,232	438,797	-0,126	-0,191
204,246	46,316	-0,247	-0,159
205,261	351,829	-0,138	-0,190
206,275	129,570	-0,158	-0,140
207,290	-103,839	-0,132	0,021
208,304	51,450	-0,272	-0,179
209,319	-14,150	-0,204	-0,091
210,334	800,000	-0,034	-0,095
211,348	-2,395	-0,141	-0,068
212,363	187,744	-0,141	-0,146
213,377	199,624	-0,227	-0,241
214,392	69,900	-0,154	-0,110
215,407	-72,034	-0,184	-0,047
216,421	699,407	-0,123	-0,226
217,436	126,648	-0,160	-0,141
218,450	800,000	-0,066	-0,142
219,465	185,010	-0,178	-0,183
220,480	198,353	-0,134	-0,142
221,494	-166,792	-0,090	0,003
222,509	50,016	-0,184	-0,120
223,523	171,653	-0,172	-0,171
224,538	133,033	-0,220	-0,196
225,553	230,775	-0,114	-0,130
226,567	-29,923	-0,364	-0,143
227,582	-0,602	-0,311	-0,152
228,596	119,431	-0,146	-0,125
229,611	-51,996	-0,174	-0,056
230,626	86,248	-0,129	-0,098
231,640	15,234	-0,170	-0,092
232,655	86,587	-0,202	-0,154
233,669	407,788	-0,069	-0,102
234,684	138,642	-0,171	-0,155
235,699	689,781	-0,098	-0,178
236,713	-11,207	-0,312	-0,142
237,728	82,403	-0,266	-0,200
238,742	26,748	-0,185	-0,107
239,757	183,375	-0,065	-0,066
240,772	46,445	-0,162	-0,104
241,786	-110,725	-0,222	-0,031
242,801	47,682	-0,206	-0,133
243,815	91,629	-0,101	-0,078
244,830	127,875	-0,135	-0,119
245,844	129,369	-0,109	-0,096
246,859	34,186	-0,252	-0,152
247,874	21,465	-0,197	-0,110
248,888	131,969	-0,134	-0,119
249,903	8,167	-0,221	-0,114
250,917	800,000	-0,122	-0,236
251,932	194,583	-0,218	-0,228
252,947	362,108	-0,090	-0,125
253,961	35,565	-0,182	-0,110
254,976	4,448	-0,213	-0,107
255,990	115,978	-0,144	-0,121
257,005	69,909	-0,175	-0,125
258,020	-131,229	-0,152	0,014
259,034	-189,572	-0,259	0,002
260,049	192,260	-0,112	-0,117
261,063	239,602	-0,111	-0,128
262,078	-200,000	-0,017	-0,199
263,093	-170,965	-0,124	-0,003
264,107	800,000	-0,055	-0,107
265,122	66,041	-0,119	-0,083
266,136	-4,533	-0,055	-0,026
267,151	55,136	-0,097	0,064
268,166	37,604	-0,272	-0,166
269,180	258,750	-0,228	-0,271
270,195	600,941	-0,059	-0,102
271,209	800,000	-0,089	-0,208
272,224	37,787	-0,070	-0,043
273,239	73,266	-0,105	-0,076
274,253	46,398	-0,230	-0,147
275,268	-56,245	-0,238	-0,072
276,282	75,352	-0,215	-0,156
277,297	80,702	-0,125	-0,093
278,312	489,864	-0,141	-0,224
279,326	-168,619	-0,200	-0,005
280,341	-30,597	-0,159	-0,062
281,355	228,392	-0,200	-0,225
282,370	-200,000	0,008	-0,096
283,384	260,936	-0,197	-0,236
284,399	-59,220	-0,163	-0,048
285,414	42,281	-0,181	-0,113
286,428	-200,000	-0,046	-0,165
287,443	249,931	-0,043	-0,051
288,457	-33,736	-0,176	0,066
289,472	-25,748	-0,187	-0,075
290,487	-11,278	-0,076	-0,034
291,501	-70,031	-0,149	-0,039
292,516	-68,649	-0,204	-0,054
293,530	-166,616	-0,175	-0,005
294,545	800,000	0,018	-0,047
295,560	367,421	-0,092	-0,129
296,574	-65,582	-0,246	-0,067
297,589	139,226	-0,130	-0,118
298,603	129,106	-0,192	-0,169
299,618	-66,018	-0,231	-0,063
300,633	44,503	-0,169	-0,107
301,647	-200,000	-0,017	-0,190
302,662	106,938	-0,103	-0,084
303,676	414,922	-0,143	-0,210
304,691	800,000	-0,081	-0,163
305,706	-116,703	-0,204	-0,025
306,720	64,307	-0,210	-0,145
307,735	-23,869	-0,132	-0,054
308,749	71,404	-0,199	-0,142
309,764	285,864	0,033	-0,041
310,779	-188,793	-0,096	0,001
311,793	-163,157	-0,221	-0,007
312,808	32,380	-0,202	-0,120
313,822	25,859	-0,089	0,051
314,837	51,607	-0,101	-0,066
315,852	-31,858	-0,108	-0,042
316,866	88,369	-0,143	-0,109
317,881	78,752	-0,171	-0,125
318,895	491,199	-0,027	-0,043
319,910	78,052	-0,131	-0,096
320,925	255,621	-0,198	-0,233
321,939	558,329	-0,050	-0,084
322,954	-34,498	-0,187	-0,070
323,968	-83,373	-0,103	0,023
324,983	-27,194	-0,163	-0,065
325,997	169,967	-0,143	-0,140
327,012	100,648	-0,163	-0,130
328,027	189,336	-0,048	-0,049
329,041	-39,987	-0,181	-0,065
330,056	800,000	-0,016	0,035
331,070	-200,000	-0,012	0,071
332,085	103,724	-0,049	-0,040
333,100	37,989	-0,189	-0,115
334,114	-97,252	-0,179	-0,032
335,129	11,646	-0,149	-0,078
336,143	800,000	-0,027	-0,058
337,158	-200,000	-0,040	-0,265
338,173	-56,746	-0,060	0,018
339,187	82,530	-0,178	0,133
340,202	82,501	-0,037	-0,027
341,216	169,282	-0,129	-0,126
342,231	-75,223	-0,233	-0,057
343,246	340,412	-0,162	-0,217
344,260	-0,198	-0,094	-0,046
345,275	800,000	-0,063	-0,134
346,289	800,000	-0,045	-0,127
347,304	28,618	-0,158	-0,091
348,319	-143,465	-0,179	-0,011
349,333	-200,000	-0,011	0,051
350,348	800,000	-0,114	-0,236
351,362	800,000	-0,093	-0,189
352,377	104,442	-0,134	0,108
353,392	36,224	-0,110	-0,066
354,406	-200,000	-0,016	-0,226
355,421	206,257	1309,934	1396,628
356,435	158,624	1470,039	1397,119
