DTS Sentinel unit serial number:	SN410029Multiplexer serial number:	ORYXHardware model number:	OX2-SRSoftware version number:	ORYX F/W v4,00 Oryx Data Collector v3.7.2.0data status	okinstallation	B3 Nyhavnadifferential loss correction	single-endedforward channel	channel 1reverse channel	N/Adate	2023/12/03time	00:17:30forward acquisition time	300,00reverse acquisition time	0,00gamma	499,1914k internal	0,3201k external	0,3201temperature offset calibration	1,0000default loss term (dB/km)	0,3820temperature slope calibration	1,0000multiplexer offset coefficient	1,0000multiplexer slope coefficient	1,0000fibre end	0,00T internal ref (°C)	13,30T ext. ref 1 (°C)	-1,66T ext. ref 2 (°C)	-1,67length (m)	temperature (°C)	Stokes	anti-Stokes-744,400	131,595	-0,245	-0,230
-743,385	-200,000	0,019	0,277
-742,371	65,405	-0,198	-0,145
-741,356	-200,000	0,091	0,323
-740,342	-200,000	-0,007	-0,359
-739,327	-200,000	-0,024	0,459
-738,312	37,982	-0,258	-0,167
-737,298	-200,000	0,039	0,229
-736,283	480,282	-0,101	-0,168
-735,269	-200,000	-0,027	0,381
-734,254	299,416	-0,201	-0,269
-733,239	93,890	-0,192	0,158
-732,225	4,628	-0,263	-0,140
-731,210	720,465	0,113	0,220
-730,196	504,036	-0,040	0,067
-729,181	800,000	0,042	-0,102
-728,167	27,537	-0,013	-0,008
-727,152	151,439	0,034	-0,034
-726,137	-200,000	0,001	0,014
-725,123	15,114	-0,067	-0,038
-724,108	-131,749	-0,092	-0,009
-723,094	132,779	-0,251	-0,235
-722,079	-200,000	0,019	-0,145
-721,064	-101,785	0,089	-0,016
-720,050	-55,493	-0,028	0,009
-719,035	-75,301	0,113	-0,029
-718,021	-200,000	-0,047	-0,169
-717,006	800,000	-0,057	-0,136
-715,991	-200,000	-0,008	-0,131
-714,977	118,212	-0,066	0,059
-713,962	-200,000	0,001	0,053
-712,948	350,862	-0,032	0,046
-711,933	11,676	-0,121	0,067
-710,918	-31,700	0,142	0,058
-709,904	-93,799	-0,051	-0,010
-708,889	800,000	-0,047	-0,129
-707,875	800,000	-0,044	0,100
-706,860	132,797	0,043	0,040
-705,845	-21,843	0,091	0,040
-704,831	-73,171	0,064	-0,017
-703,816	-90,634	0,127	0,026
-702,802	-31,070	0,091	-0,037
-701,787	800,000	-0,042	-0,103
-700,772	800,000	-0,049	-0,105
-699,758	-46,418	0,084	-0,030
-698,743	-2,578	0,051	0,026
-697,729	506,528	-0,044	0,074
-696,714	-58,501	0,068	0,021
-695,699	15,197	-0,096	-0,055
-694,685	-13,588	-0,083	0,039
-693,670	440,743	-0,071	0,113
-692,656	79,891	-0,056	0,043
-691,641	175,361	0,081	0,086
-690,627	-41,678	0,025	-0,009
-689,612	-200,000	-0,018	0,159
-688,597	-15,082	-0,062	-0,029
-687,583	-119,402	-0,119	0,015
-686,568	80,227	0,052	-0,040
-685,554	616,348	0,066	-0,121
-684,539	-105,460	-0,149	-0,024
-683,524	-14,654	0,061	0,028
-682,510	-61,413	0,050	0,015
-681,495	114,794	-0,042	-0,037
-680,481	-200,000	-0,038	0,132
-679,466	-200,000	-0,018	-0,066
-678,451	156,764	0,002	0,002
-677,437	-200,000	0,000	0,011
-676,422	54,775	0,093	-0,065
-675,408	-28,958	0,046	0,019
-674,393	800,000	-0,028	-0,075
-673,378	-184,192	-0,054	0,001
-672,364	-49,482	-0,052	-0,018
-671,349	-200,000	-0,009	-0,065
-670,335	800,000	-0,017	0,051
-669,320	11,653	-0,086	0,048
-668,305	-200,000	-0,013	0,145
-667,291	596,397	-0,073	-0,131
-666,276	-74,635	-0,038	-0,010
-665,262	164,482	-0,060	0,062
-664,247	-70,917	0,078	0,021
-663,232	-200,000	-0,082	-0,000
-662,218	-200,000	0,041	-0,142
-661,203	-85,239	0,224	-0,050
-660,189	81,251	-0,060	-0,047
-659,174	75,679	-0,067	0,051
-658,159	2,854	-0,070	-0,037
-657,145	271,116	-0,093	-0,119
-656,130	176,583	0,020	0,021
-655,116	800,000	-0,057	-0,174
-654,101	-200,000	0,029	0,110
-653,086	-60,157	0,099	0,031
-652,072	512,487	-0,035	0,059
-651,057	-123,366	-0,173	-0,020
-650,043	-200,000	-0,029	-0,129
-649,028	326,712	0,070	0,098
-648,014	-39,657	-0,103	-0,039
-646,999	-17,123	-0,104	-0,048
-645,984	301,911	-0,055	0,074
-644,970	-200,000	0,012	-0,102
-643,955	-200,000	-0,007	0,047
-642,941	552,054	-0,088	-0,153
-641,926	-200,000	0,019	0,090
-640,911	-74,562	0,113	0,029
-639,897	49,175	-0,087	0,059
-638,882	-200,000	-0,002	0,141
-637,868	9,539	0,067	-0,036
-636,853	-200,000	-0,022	-0,075
-635,838	305,126	-0,063	-0,085
-634,824	213,195	-0,041	0,048
-633,809	800,000	-0,046	0,116
-632,795	77,384	0,154	0,119
-631,780	-31,120	-0,090	-0,036
-630,765	-200,000	-0,035	0,155
-629,751	-200,000	-0,006	-0,020
-628,736	-137,425	-0,035	-0,003
-627,722	-75,505	0,017	-0,004
-626,707	-84,363	-0,087	0,020
-625,692	39,019	-0,070	-0,045
-624,678	179,298	-0,046	0,049
-623,663	267,215	-0,039	-0,049
-622,649	-54,472	-0,041	0,013
-621,634	-33,446	-0,077	-0,031
-620,619	35,367	-0,110	-0,070
-619,605	-129,723	0,053	-0,005
-618,590	-105,760	-0,091	0,015
-617,576	-33,478	-0,084	0,033
-616,561	-145,925	-0,034	0,002
-615,546	800,000	-0,053	-0,106
-614,532	475,897	-0,046	-0,075
-613,517	212,855	-0,078	-0,089
-612,503	800,000	0,077	-0,190
-611,488	-155,261	0,052	0,002
-610,474	346,600	-0,017	-0,024
-609,459	323,263	-0,063	-0,087
-608,444	800,000	0,110	-0,239
-607,430	800,000	-0,027	-0,058
-606,415	474,076	-0,029	0,047
-605,401	1,340	-0,053	-0,028
-604,386	0,985	-0,049	-0,025
-603,371	62,630	0,141	-0,102
-602,357	-200,000	-0,009	0,047
-601,342	-73,798	-0,108	0,028
-600,328	53,716	-0,071	-0,049
-599,313	-10,632	-0,121	-0,058
-598,298	294,758	-0,048	-0,063
-597,284	312,181	-0,062	-0,084
-596,269	13,156	0,070	-0,039
-595,255	-56,400	0,123	0,039
-594,240	-200,000	-0,048	-0,208
-593,225	-180,996	-0,076	-0,001
-592,211	-135,060	0,027	0,002
-591,196	-15,110	-0,043	-0,020
-590,182	-200,000	-0,027	0,134
-589,167	800,000	0,028	-0,086
-588,152	10,905	-0,013	0,007
-587,138	-64,383	0,042	-0,012
-586,123	-124,917	0,092	-0,010
-585,109	-85,551	-0,098	-0,022
-584,094	131,224	0,023	0,021
-583,079	-200,000	-0,037	0,134
-582,065	466,918	0,035	0,056
-581,050	-142,943	-0,083	-0,006
-580,036	-94,398	0,029	-0,006
-579,021	-73,745	-0,077	0,020
-578,006	-120,655	-0,130	0,016
-576,992	-200,000	-0,015	0,097
-575,977	800,000	-0,013	0,028
-574,963	583,807	0,027	0,048
-573,948	387,009	-0,031	-0,047
-572,934	-18,651	-0,083	0,037
-571,919	-4,855	0,124	-0,062
-570,904	-90,299	-0,156	-0,032
-569,890	-200,000	-0,019	0,137
-568,875	800,000	0,036	0,095
-567,861	-5,568	0,083	-0,041
-566,846	129,327	-0,083	0,077
-565,831	760,182	0,039	-0,077
-564,817	48,804	-0,125	-0,084
-563,802	-22,631	0,029	0,013
-562,788	-200,000	0,010	-0,035
-561,773	418,988	-0,059	0,092
-560,758	-77,600	0,097	-0,024
-559,744	-200,000	-0,005	-0,027
-558,729	-200,000	-0,005	0,020
-557,715	-134,869	0,052	0,005
-556,700	186,413	-0,018	-0,020
-555,685	111,765	0,015	-0,013
-554,671	109,688	0,031	0,027
-553,656	193,219	0,073	-0,080
-552,642	-200,000	-0,009	0,080
-551,627	253,967	0,027	-0,033
-550,612	-159,451	-0,052	0,002
-549,598	-200,000	-0,037	-0,122
-548,583	-124,791	0,130	0,014
-547,569	800,000	0,043	0,115
-546,554	800,000	0,015	0,035
-545,539	-22,657	0,132	-0,057
-544,525	-10,981	-0,043	-0,020
-543,510	40,739	0,093	-0,061
-542,496	32,770	-0,074	-0,046
-541,481	-26,311	-0,110	-0,046
-540,466	-101,920	0,059	0,010
-539,452	-7,933	0,110	-0,054
-538,437	120,106	0,067	0,060
-537,423	-200,000	-0,023	0,150
-536,408	142,905	-0,136	0,130
-535,393	110,008	0,020	-0,017
-534,379	-121,042	0,079	-0,009
-533,364	-11,259	0,060	0,028
-532,350	788,536	-0,052	0,104
-531,335	-106,178	-0,058	-0,009
-530,321	-176,712	0,054	-0,001
-529,306	-25,793	0,066	-0,028
-528,291	523,330	-0,089	-0,152
-527,277	-200,000	-0,154	0,001
-526,262	-189,344	0,067	0,001
-525,248	800,000	0,026	-0,074
-524,233	-85,733	-0,023	-0,005
-523,218	-200,000	-0,006	0,049
-522,204	-0,232	0,033	-0,017
-521,189	-200,000	-0,025	-0,110
-520,175	-200,000	-0,032	-0,161
-519,160	-83,798	-0,085	-0,019
-518,145	157,144	0,096	-0,096
-517,131	-81,890	0,092	-0,022
-516,116	131,725	0,086	0,080
-515,102	11,205	-0,138	-0,076
-514,087	-67,185	0,031	-0,009
-513,072	-101,429	-0,075	0,013
-512,058	-200,000	0,017	0,090
-511,043	-97,934	-0,106	-0,019
-510,029	179,174	0,047	0,050
-509,014	800,000	-0,010	0,025
-507,999	9,033	0,110	-0,060
-506,985	187,876	-0,038	-0,041
-505,970	260,798	0,040	-0,050
-504,956	447,021	0,068	-0,107
-503,941	-32,055	0,138	-0,055
-502,926	-16,220	0,063	0,029
-501,912	-136,488	0,101	-0,008
-500,897	-142,882	-0,124	0,009
-499,883	-200,000	-0,008	-0,118
-498,868	293,797	-0,069	-0,090
-497,853	542,248	-0,033	-0,056
-496,839	39,500	0,023	0,015
-495,824	107,710	0,077	0,066
-494,810	25,136	-0,049	-0,029
-493,795	-78,822	0,078	-0,019
-492,781	364,230	0,024	-0,035
-491,766	-200,000	-0,012	-0,042
-490,751	0,382	-0,156	-0,080
-489,737	159,130	0,052	-0,052
-488,722	284,471	-0,083	0,108
-487,708	615,220	0,028	0,051
-486,693	-200,000	0,020	0,141
-485,678	201,148	-0,066	-0,073
-484,664	671,486	-0,020	-0,038
-483,649	-30,826	-0,155	-0,063
-482,635	726,673	0,067	-0,129
-481,620	-129,827	0,178	0,017
-480,605	159,146	0,055	0,055
-479,591	19,009	-0,103	-0,059
-478,576	800,000	-0,016	-0,045
-477,562	199,339	0,070	-0,077
-476,547	-200,000	-0,030	-0,115
-475,532	-200,000	-0,006	0,063
-474,518	574,864	0,022	-0,039
-473,503	-200,000	0,001	0,036
-472,489	800,000	0,062	0,175
-471,474	621,703	-0,010	0,018
-470,459	59,654	-0,101	-0,072
-469,445	-91,397	-0,088	0,018
-468,430	1,693	-0,152	0,079
-467,416	-200,000	0,031	0,159
-466,401	412,306	0,067	0,103
-465,386	58,778	0,046	-0,032
-464,372	800,000	-0,026	0,056
-463,357	-200,000	0,005	0,061
-462,343	-200,000	0,000	-0,119
-461,328	-200,000	-0,008	-0,027
-460,313	-200,000	0,035	0,141
-459,299	-77,554	0,153	0,038
-458,284	-117,145	0,120	0,016
-457,270	-200,000	-0,022	0,111
-456,255	484,702	0,027	-0,045
-455,241	149,005	0,049	-0,047
-454,226	-91,158	-0,049	-0,010
-453,211	22,915	0,163	0,096
-452,197	142,814	-0,017	0,017
-451,182	-15,784	-0,065	0,030
-450,168	800,000	0,026	-0,061
-449,153	-200,000	-0,003	-0,035
-448,138	-200,000	-0,004	0,085
-447,124	161,995	-0,043	0,043
-446,109	-200,000	-0,029	0,095
-445,095	-200,000	0,047	0,154
-444,080	-117,780	-0,082	-0,010
-443,065	228,356	0,089	-0,104
-442,051	-142,057	-0,135	-0,010
-441,036	-99,789	-0,087	-0,015
-440,022	-200,000	0,007	-0,054
-439,007	44,802	0,029	-0,019
-437,992	-10,266	0,032	-0,015
-436,978	-56,902	0,195	0,061
-435,963	-74,171	0,082	-0,021
-434,949	208,412	0,016	-0,018
-433,934	800,000	-0,082	-0,166
-432,919	112,760	-0,189	-0,164
-431,905	-182,950	-0,067	0,001
-430,890	-5,523	-0,080	-0,040
-429,876	352,986	0,038	0,054
-428,861	453,200	-0,014	-0,023
-427,846	146,086	0,048	-0,046
-426,832	28,401	0,024	-0,015
-425,817	-200,000	-0,009	-0,064
-424,803	331,590	0,033	-0,045
-423,788	-200,000	0,027	-0,157
-422,773	60,752	0,089	0,063
-421,759	435,077	-0,038	-0,060
-420,744	-110,212	-0,122	-0,018
-419,730	48,986	-0,042	0,028
-418,715	239,109	0,041	0,049
-417,701	-152,061	0,069	0,004
-416,686	-70,246	-0,036	0,010
-415,671	40,654	0,072	-0,047
-414,657	311,538	0,028	-0,037
-413,642	-16,657	0,127	0,058
-412,628	-53,234	0,039	-0,013
-411,613	105,640	-0,070	-0,060
-410,598	67,565	-0,115	-0,084
-409,584	-200,000	0,005	0,047
-408,569	-147,364	0,067	0,004
-407,555	555,381	0,029	0,050
-406,540	-120,701	0,044	-0,005
-405,525	583,130	-0,036	-0,063
-404,511	169,163	-0,108	0,111
-403,496	93,527	-0,025	-0,020
-402,482	-76,105	0,082	-0,021
-401,467	800,000	0,082	0,206
-400,452	33,252	-0,016	-0,010
-399,438	800,000	0,018	-0,042
-398,423	1,081	0,053	-0,027
-397,409	800,000	0,051	0,108
-396,394	85,392	-0,087	0,068
-395,379	234,924	0,077	-0,091
-394,365	-131,415	-0,044	0,004
-393,350	-37,690	0,114	0,043
-392,336	-58,005	0,050	0,016
-391,321	-200,000	-0,019	-0,067
-390,306	-45,921	-0,037	0,013
-389,292	-200,000	0,026	0,096
-388,277	80,737	-0,127	-0,098
-387,263	261,169	0,081	0,101
-386,248	574,576	0,060	0,106
-385,233	-134,471	-0,045	-0,004
-384,219	-2,785	-0,123	0,061
-383,204	34,315	-0,065	-0,041
-382,190	328,292	0,045	0,062
-381,175	800,000	-0,032	-0,077
-380,160	198,496	0,025	0,028
-379,146	62,398	0,058	-0,042
-378,131	37,382	-0,061	0,039
-377,117	-200,000	0,008	0,062
-376,102	800,000	-0,057	-0,131
-375,088	-133,314	-0,076	0,007
-374,073	-200,000	0,007	0,021
-373,058	-45,545	0,114	0,040
-372,044	800,000	-0,015	-0,045
-371,029	-200,000	0,018	0,078
-370,015	-64,643	0,033	0,010
-369,000	-200,000	0,005	-0,101
-367,985	293,705	0,035	-0,046
-366,971	-13,961	-0,083	-0,038
-365,956	800,000	-0,028	0,063
-364,942	-156,954	-0,171	-0,007
-363,927	-25,152	0,262	0,111
-362,912	-58,295	-0,083	-0,026
-361,898	800,000	0,015	-0,032
-360,883	-109,852	-0,120	0,018
-359,869	-200,000	-0,001	0,004
-358,854	-169,932	0,107	0,003
-357,839	-112,336	0,088	0,012
-356,825	-183,773	-0,056	-0,001
-355,810	150,363	0,037	-0,036
-354,796	-200,000	0,041	-0,133
-353,781	527,774	-0,060	-0,101
-352,766	-83,993	-0,133	-0,030
-351,752	-200,000	-0,006	-0,122
-350,737	-23,764	-0,045	0,019
-349,723	-65,265	0,049	-0,014
-348,708	800,000	-0,063	0,163
-347,693	-200,000	0,018	-0,107
-346,679	-200,000	-0,030	0,138
-345,664	-15,814	0,161	-0,073
-344,650	800,000	-0,035	-0,111
-343,635	228,473	0,090	-0,105
-342,620	-37,778	0,077	-0,029
-341,606	383,173	0,021	0,031
-340,591	651,016	0,042	-0,078
-339,577	-105,633	0,134	0,022
-338,562	502,839	0,094	-0,156
-337,548	534,289	-0,054	0,092
-336,533	462,866	0,008	-0,013
-335,518	124,643	0,086	0,078
-334,504	-200,000	0,005	0,030
-333,489	294,771	-0,079	0,103
-332,475	-92,392	-0,191	-0,038
-331,460	-200,000	-0,021	-0,147
-330,445	157,472	0,064	0,064
-329,431	800,000	0,039	0,091
-328,416	-35,931	0,036	0,014
-327,402	14,318	0,184	-0,102
-326,387	152,596	-0,053	-0,052
-325,372	800,000	-0,024	0,047
-324,358	-151,241	-0,110	0,006
-323,343	248,832	-0,107	0,130
-322,329	-56,277	0,053	-0,017
-321,314	-73,124	0,038	-0,010
-320,299	-200,000	-0,026	0,097
-319,285	-200,000	0,002	0,043
-318,270	-44,083	-0,051	-0,018
-317,256	-168,000	-0,138	-0,004
-316,241	800,000	0,031	-0,084
-315,226	-85,083	-0,150	0,033
-314,212	-92,213	-0,079	0,016
-313,197	266,147	-0,088	-0,110
-312,183	110,359	-0,037	-0,032
-311,168	-200,000	0,017	-0,053
-310,153	163,213	-0,081	-0,082
-309,139	-200,000	0,005	0,029
-308,124	-200,000	0,017	-0,060
-307,110	82,166	0,062	0,048
-306,095	-200,000	-0,027	-0,129
-305,080	-108,076	-0,056	-0,009
-304,066	800,000	-0,019	-0,053
-303,051	135,665	0,069	-0,064
-302,037	-109,906	-0,026	-0,004
-301,022	-200,000	0,016	0,087
-300,008	192,837	0,098	0,106
-298,993	147,308	0,124	0,119
-297,978	-11,596	-0,142	-0,067
-296,964	354,955	0,031	0,044
-295,949	-138,530	0,077	-0,006
-294,935	-200,000	-0,010	-0,045
-293,920	144,460	0,041	0,039
-292,905	800,000	-0,025	0,056
-291,891	800,000	0,053	0,111
-290,876	800,000	-0,026	0,070
-289,862	-16,425	0,197	-0,089
-288,847	-200,000	0,031	-0,148
-287,832	174,858	-0,167	-0,173
-286,818	800,000	0,031	-0,090
-285,803	92,991	0,092	-0,074
-284,789	-200,000	0,019	0,127
-283,774	184,884	0,062	0,066
-282,759	203,577	-0,168	-0,186
-281,745	-200,000	0,002	-0,017
-280,730	-200,000	0,038	-0,145
-279,716	736,942	0,028	-0,054
-278,701	-43,494	0,083	-0,030
-277,686	-200,000	0,029	0,119
-276,672	149,105	-0,197	0,191
-275,657	-114,580	-0,052	0,007
-274,643	121,836	-0,041	-0,036
-273,628	56,668	0,049	-0,034
-272,613	161,816	-0,024	0,024
-271,599	-200,000	-0,005	0,019
-270,584	-148,652	0,109	-0,006
-269,570	343,042	-0,039	0,054
-268,555	-41,578	-0,041	0,015
-267,540	-86,047	0,056	-0,012
-266,526	224,515	-0,069	-0,079
-265,511	-78,312	0,152	0,037
-264,497	-200,000	0,020	0,100
-263,482	-12,679	0,167	0,077
-262,467	724,323	0,052	-0,099
-261,453	559,591	0,087	0,151
-260,438	76,642	0,036	0,027
-259,424	800,000	0,041	-0,095
-258,409	82,317	0,099	-0,077
-257,395	-23,681	-0,029	0,013
-256,380	16,894	0,071	-0,040
-255,365	104,256	0,154	0,129
-254,351	-200,000	0,018	0,090
-253,336	-141,228	0,113	0,008
-252,322	-200,000	-0,020	-0,144
-251,307	78,566	-0,060	0,046
-250,292	356,073	-0,075	-0,107
-249,278	-200,000	0,005	0,107
-248,263	800,000	-0,048	0,098
-247,249	204,146	-0,074	0,082
-246,234	-200,000	0,018	0,112
-245,219	-98,861	-0,145	-0,026
-244,205	49,814	0,084	-0,057
-243,190	259,816	-0,009	0,011
-242,176	800,000	0,042	0,106
-241,161	79,076	0,138	0,106
-240,146	157,331	0,093	0,092
-239,132	-200,000	-0,037	0,193
-238,117	-200,000	0,008	0,069
-237,103	-107,781	-0,059	0,009
-236,088	-94,932	0,031	0,006
-235,073	-200,000	0,030	-0,185
-234,059	-200,000	0,011	0,146
-233,044	-54,285	0,070	-0,022
-232,030	-143,538	0,039	0,003
-231,015	481,554	0,044	-0,071
-230,000	-120,800	-0,029	0,003
-228,986	414,852	0,058	-0,089
-227,971	-109,571	0,095	0,014
-226,957	-200,000	0,017	0,144
-225,942	800,000	-0,019	-0,039
-224,927	337,042	-0,061	0,084
-223,913	-3,035	-0,085	0,042
-222,898	55,327	-0,088	-0,060
-221,884	-60,465	0,097	-0,029
-220,869	800,000	-0,069	0,159
-219,855	-36,293	0,069	0,026
-218,840	252,807	0,066	0,080
-217,825	-200,000	0,022	0,100
-216,811	-200,000	0,031	-0,106
-215,796	-77,352	-0,017	0,004
-214,782	313,703	0,033	0,044
-213,767	800,000	0,036	0,074
-212,752	174,719	0,098	0,101
-211,738	178,500	-0,078	-0,082
-210,723	-200,000	0,002	0,080
-209,709	600,111	-0,006	-0,011
-208,694	800,000	-0,022	0,059
-207,679	-200,000	0,000	-0,042
-206,665	284,076	0,017	-0,022
-205,650	-200,000	0,036	0,172
-204,636	-107,724	0,055	0,008
-203,621	-200,000	0,024	-0,109
-202,606	800,000	0,008	-0,024
-201,592	-200,000	-0,028	-0,089
-200,577	157,330	-0,077	0,076
-199,563	800,000	-0,015	-0,042
-198,548	78,376	0,062	0,047
-197,533	-110,511	-0,184	0,027
-196,519	-200,000	0,013	0,055
-195,504	263,732	-0,034	-0,042
-194,490	-127,898	-0,106	-0,011
-193,475	85,487	-0,158	-0,123
-192,460	-200,000	0,040	0,168
-191,446	-200,000	0,019	0,073
-190,431	-152,396	0,105	0,005
-189,417	-200,000	-0,001	-0,013
-188,402	800,000	0,016	0,036
-187,387	-200,000	-0,048	0,152
-186,373	473,084	-0,054	-0,087
-185,358	-200,000	0,001	0,075
-184,344	628,646	0,023	-0,041
-183,329	485,055	-0,020	-0,032
-182,315	-7,596	-0,134	0,064
-181,300	64,401	0,043	-0,031
-180,285	-200,000	0,001	0,055
-179,271	281,729	0,050	-0,064
-178,256	190,355	0,020	0,021
-177,242	601,966	-0,054	-0,096
-176,227	-200,000	-0,011	0,132
-175,212	-200,000	0,013	0,197
-174,198	85,627	-0,113	0,088
-173,183	81,756	-0,059	0,046
-172,169	-33,105	0,072	-0,028
-171,154	800,000	-0,016	-0,047
-170,139	-200,000	0,005	0,143
-169,125	-200,000	0,040	0,142
-168,110	800,000	-0,032	0,064
-167,096	-9,961	-0,058	0,027
-166,081	-200,000	0,004	0,036
-165,066	-200,000	0,004	0,042
-164,052	64,581	0,132	-0,094
-163,037	129,440	-0,088	-0,080
-162,023	611,114	0,048	-0,085
-161,008	-19,825	0,058	-0,025
-159,993	-50,014	0,113	0,038
-158,979	48,858	0,113	-0,075
-157,964	-24,030	-0,036	-0,015
-156,950	-107,143	0,038	0,006
-155,935	-5,275	-0,096	-0,047
-154,920	-200,000	0,008	0,034
-153,906	-59,631	0,040	-0,012
-152,891	277,555	-0,032	-0,041
-151,877	-200,000	0,012	-0,083
-150,862	377,435	-0,037	-0,054
-149,847	235,793	0,034	-0,040
-148,833	-200,000	0,006	0,018
-147,818	39,497	0,100	0,063
-146,804	83,280	-0,116	0,090
-145,789	81,849	0,022	-0,017
-144,775	749,630	-0,026	0,050
-143,760	38,151	-0,020	-0,012
-142,745	105,600	0,030	-0,025
-141,731	-131,154	0,058	-0,005
-140,716	-200,000	-0,005	-0,131
-139,702	-200,000	0,014	0,102
-138,687	-200,000	0,030	0,097
-137,672	165,472	-0,005	-0,005
-136,658	-13,353	-0,023	-0,010
-135,643	214,431	0,060	-0,068
-134,629	152,117	0,025	-0,024
-133,614	-119,989	0,064	0,008
-132,599	456,267	0,084	0,133
-131,585	-200,000	0,000	0,085
-130,570	-146,805	-0,036	0,002
-129,556	29,945	0,067	0,041
-128,541	-200,000	-0,009	-0,137
-127,526	800,000	0,045	-0,111
-126,512	-200,000	0,015	-0,138
-125,497	-200,000	0,038	-0,130
-124,483	332,090	-0,079	-0,109
-123,468	-200,000	0,047	0,000
-122,453	-95,943	-0,148	-0,028
-121,439	-200,000	0,026	-0,101
-120,424	-14,471	0,093	0,042
-119,410	424,030	-0,022	0,034
-118,395	-70,373	0,087	-0,023
-117,380	65,480	0,116	0,083
-116,366	-8,028	0,044	0,021
-115,351	-200,000	0,002	-0,199
-114,337	113,626	0,014	-0,012
-113,322	156,398	0,075	-0,073
-112,307	143,163	-0,110	0,104
-111,293	334,254	0,136	0,187
-110,278	123,307	0,047	0,042
-109,264	-7,249	-0,118	0,056
-108,249	-158,783	0,076	-0,003
-107,234	-76,525	-0,076	0,019
-106,220	136,346	-0,125	-0,115
-105,205	326,885	0,066	0,090
-104,191	-129,959	0,085	0,008
-103,176	800,000	0,052	0,126
-102,162	-145,281	-0,077	0,005
-101,147	73,062	0,090	0,067
-100,132	197,864	0,070	-0,076
-99,118	-28,729	-0,105	-0,043
-98,103	-200,000	0,008	-0,037
-97,089	164,178	-0,062	0,062
-96,074	-64,310	0,124	0,036
-95,059	-105,161	0,043	0,007
-94,045	800,000	-0,020	-0,060
-93,030	800,000	-0,039	0,082
-92,016	-66,250	-0,050	-0,014
-91,001	-200,000	-0,016	-0,147
-89,986	519,268	-0,042	0,070
-88,972	-200,000	-0,013	0,067
-87,957	800,000	0,056	0,135
-86,943	-110,851	0,046	0,007
-85,928	370,446	-0,049	0,071
-84,913	18,483	-0,136	-0,077
-83,899	-82,365	0,046	0,011
-82,884	-48,787	0,108	0,036
-81,870	-62,771	0,048	-0,014
-80,855	800,000	0,036	0,076
-79,840	800,000	0,032	-0,065
-78,826	84,829	-0,089	-0,069
-77,811	-25,821	-0,109	0,045
-76,797	566,659	-0,032	0,056
-75,782	800,000	0,021	0,044
-74,767	-200,000	0,004	0,169
-73,753	356,898	0,010	-0,014
-72,738	-37,871	-0,029	-0,011
-71,724	-200,000	0,012	-0,145
-70,709	-200,000	0,020	-0,185
-69,694	-200,000	-0,004	-0,059
-68,680	-74,120	0,229	0,058
-67,665	795,630	-0,124	0,244
-66,651	170,342	0,058	0,058
-65,636	370,704	-0,091	0,131
-64,622	800,000	-0,019	0,042
-63,607	-16,500	-0,085	-0,038
-62,592	622,543	0,064	-0,115
-61,578	139,928	-0,044	-0,041
-60,563	511,624	-0,016	0,026
-59,549	800,000	-0,077	0,158
-58,534	-5,264	-1,639	-0,795
-57,519	331,722	-1,441	-1,974
-56,505	-200,000	-0,563	-4,495
-55,490	206,529	0,919	1,015
-54,476	800,000	4,866	11,433
-53,461	-200,000	19,182	320,546
-52,446	-200,000	740,985	2335,209
-51,432	573,570	1655,598	2869,317
-50,417	78,232	1671,269	1261,576
-49,403	21,315	1544,037	885,628
-48,388	15,196	1466,372	811,332
-47,373	17,936	1456,985	819,349
-46,359	16,701	1446,650	807,583
-45,344	13,392	1441,815	789,001
-44,330	13,298	1439,861	787,447
-43,315	13,377	1438,079	786,822
-42,300	13,348	1436,570	785,828
-41,286	13,349	1435,474	785,199
-40,271	13,346	1434,128	784,417
-39,257	13,322	1432,721	783,503
-38,242	13,382	1431,559	783,122
-37,227	13,374	1430,285	782,356
-36,213	13,402	1428,959	781,735
-35,198	13,348	1427,755	780,789
-34,184	13,448	1426,742	780,675
-33,169	13,383	1425,547	779,686
-32,154	13,435	1424,401	779,274
-31,140	13,417	1423,028	778,405
-30,125	13,439	1422,044	777,938
-29,111	13,410	1420,773	777,079
-28,096	13,407	1419,688	776,438
-27,082	13,367	1418,595	775,619
-26,067	13,337	1417,630	774,922
-25,052	13,380	1416,316	774,374
-24,038	13,324	1415,503	773,638
-23,023	13,296	1414,685	773,025
-22,009	13,299	1413,601	772,418
-20,994	13,286	1412,668	771,815
-19,979	13,300	1411,829	771,393
-18,965	13,297	1410,747	770,758
-17,950	13,304	1409,751	770,214
-16,936	13,258	1409,017	769,567
-15,921	13,234	1407,944	768,838
-14,906	13,221	1406,943	768,199
-13,892	13,225	1405,974	767,662
-12,877	13,191	1405,389	767,150
-11,863	13,216	1404,213	766,596
-10,848	13,239	1403,390	766,225
-9,833	13,213	1402,521	765,598
-8,819	13,142	1401,804	764,844
-7,804	13,163	1400,693	764,307
-6,790	13,141	1399,784	763,676
-5,775	13,138	1398,711	763,048
-4,760	13,170	1397,629	762,575
-3,746	13,161	1396,822	762,064
-2,731	13,163	1395,855	761,514
-1,717	13,106	1395,136	760,828
-0,702	13,117	1393,226	759,806
0,313	17,000	1309,995	732,392
1,327	33,293	703,648	431,038
2,342	50,746	123,263	82,428
3,356	0,744	16,700	8,428
4,371	-4,543	3,197	1,556
5,386	10,335	0,554	0,298
6,400	-200,000	0,075	0,351
7,415	47,775	-0,204	-0,134
8,429	-1,336	-0,282	-0,140
9,444	91,857	-0,231	-0,184
10,459	216,626	-0,247	-0,278
11,473	79,681	-0,306	-0,232
12,488	-83,411	-0,328	-0,074
13,502	120,414	-0,198	-0,173
14,517	118,023	-0,278	-0,242
15,531	398,768	-0,251	-0,373
16,546	24,466	-0,249	-0,145
17,561	84,123	-0,384	-0,296
18,575	-22,696	-0,303	-0,129
19,590	125,089	-0,233	-0,207
20,604	-30,946	-0,259	-0,103
21,619	63,201	-0,434	-0,307
22,634	106,972	-0,409	-0,343
23,648	82,485	-0,509	-0,390
24,663	46,420	-0,509	-0,332
25,677	27,563	-0,243	-0,144
26,692	-10,859	-0,326	-0,152
27,707	114,358	-0,328	-0,282
28,721	3,083	-0,555	-0,284
29,736	-6,115	-0,424	-0,204
30,750	-60,594	-0,399	-0,119
31,765	30,599	-0,288	-0,174
32,780	8,154	-0,415	-0,219
33,794	-26,182	-0,386	-0,159
34,809	62,232	-0,294	-0,207
35,823	35,307	-0,445	-0,275
36,838	97,724	-0,453	-0,367
37,853	248,386	-0,355	-0,424
38,867	20,481	-0,439	-0,250
39,882	163,980	-0,318	-0,316
40,896	217,252	-0,250	-0,282
41,911	73,821	-0,332	-0,245
42,926	76,630	-0,278	-0,208
43,940	81,315	-0,279	-0,213
44,955	340,960	-0,351	-0,484
45,969	47,717	-0,331	-0,217
46,984	217,315	-0,279	-0,314
47,999	158,322	-0,223	-0,218
49,013	38,927	-0,341	-0,214
50,028	-26,250	-0,360	-0,148
51,042	647,337	-0,226	-0,409
52,057	-6,441	-0,421	-0,202
53,071	32,018	-0,445	-0,270
54,086	2,986	-0,320	-0,163
55,101	73,983	-0,330	-0,244
56,115	-45,855	-0,449	-0,155
57,130	-120,286	-0,382	-0,045
58,144	109,816	-0,384	-0,324
59,159	92,838	-0,485	-0,385
60,174	-51,345	-0,346	-0,113
61,188	-29,204	-0,523	-0,210
62,203	26,848	-0,404	-0,237
63,217	87,106	-0,347	-0,270
64,232	472,398	-0,160	-0,255
65,247	6,217	-0,355	-0,185
66,261	63,784	-0,341	-0,241
67,276	86,257	-0,358	-0,277
68,290	238,372	-0,344	-0,402
69,305	273,256	-0,236	-0,294
70,320	-49,623	-0,333	-0,111
71,334	22,439	-0,279	-0,160
72,349	436,028	-0,145	-0,222
73,363	141,864	-0,374	-0,348
74,378	279,937	-0,357	-0,449
75,393	204,258	-0,281	-0,306
76,407	-14,097	-0,265	-0,120
77,422	140,436	-0,375	-0,348
78,436	-63,019	-0,322	-0,093
79,451	-13,913	-0,264	-0,119
80,466	370,199	-0,259	-0,370
81,480	-39,387	-0,301	-0,110
82,495	64,612	-0,290	-0,205
83,509	15,233	-0,344	-0,189
84,524	72,500	-0,322	-0,235
85,539	13,112	-0,329	-0,178
86,553	20,733	-0,259	-0,147
87,568	23,503	-0,506	-0,291
88,582	-44,634	-0,314	-0,109
89,597	277,400	-0,170	-0,213
90,611	-37,116	-0,181	-0,068
91,626	21,941	-0,272	-0,155
92,641	250,940	-0,213	-0,254
93,655	-49,402	-0,275	-0,091
94,670	38,466	-0,291	-0,182
95,684	14,305	-0,379	-0,207
96,699	124,362	-0,326	-0,288
97,714	24,220	-0,213	-0,123
98,728	0,352	-0,334	-0,167
99,743	-0,452	-0,383	-0,190
100,757	-1,539	-0,365	-0,180
101,772	21,920	-0,352	-0,200
102,787	134,546	-0,228	-0,207
103,801	192,456	-0,268	-0,283
104,816	58,915	-0,276	-0,190
105,830	3,780	-0,285	-0,145
106,845	-27,297	-0,254	-0,103
107,860	177,357	-0,153	-0,156
108,874	23,083	-0,299	-0,171
109,889	-41,398	-0,262	-0,094
110,903	43,602	-0,367	-0,235
111,918	55,826	-0,163	-0,111
112,933	-19,569	-0,262	-0,113
113,947	800,000	-0,080	-0,174
114,962	110,360	-0,273	-0,230
115,976	-6,097	-0,297	-0,142
116,991	313,911	-0,175	-0,232
118,006	6,409	-0,383	-0,198
119,020	-37,166	-0,314	-0,117
120,035	-112,198	-0,357	-0,050
121,049	336,644	-0,184	-0,251
122,064	-75,369	-0,293	-0,072
123,079	-19,480	-0,232	-0,100
124,093	-77,239	-0,280	-0,068
125,108	511,223	-0,209	-0,342
126,122	144,939	-0,241	-0,225
127,137	153,758	-0,141	-0,136
128,151	-84,560	-0,215	-0,047
129,166	-77,724	-0,282	-0,068
130,181	-21,222	-0,363	-0,155
131,195	63,449	-0,249	-0,175
132,210	11,748	-0,318	-0,170
133,224	-7,984	-0,306	-0,144
134,239	-52,070	-0,300	-0,097
135,254	-59,408	-0,268	-0,080
136,268	94,946	-0,329	-0,262
137,283	46,959	-0,232	-0,150
138,297	52,656	-0,295	-0,197
139,312	251,487	-0,283	-0,337
140,327	203,690	-0,230	-0,250
141,341	405,149	-0,157	-0,233
142,356	-17,277	-0,153	-0,067
143,370	22,526	-0,212	-0,121
144,385	193,171	-0,210	-0,222
145,400	109,972	-0,262	-0,220
146,414	78,967	-0,342	-0,256
147,429	90,137	-0,185	-0,144
148,443	38,362	-0,263	-0,163
149,458	-25,903	-0,319	-0,131
150,473	-64,104	-0,250	-0,071
151,487	234,668	-0,156	-0,180
152,502	20,754	-0,254	-0,143
153,516	-23,510	-0,321	-0,134
154,531	280,279	-0,225	-0,282
155,546	164,845	-0,168	-0,165
156,560	148,263	-0,176	-0,166
157,575	449,520	-0,124	-0,191
158,589	-95,889	-0,265	-0,049
159,604	-17,185	-0,360	-0,158
160,619	52,872	-0,205	-0,136
161,633	114,554	-0,232	-0,197
162,648	-119,111	-0,303	-0,037
163,662	-189,470	-0,190	-0,002
164,677	-76,238	-0,213	-0,052
165,692	-61,786	-0,138	0,040
166,706	-58,644	-0,244	-0,073
167,721	49,948	-0,255	-0,168
168,735	605,566	-0,164	-0,286
169,750	60,667	-0,199	-0,137
170,764	-79,514	-0,166	-0,039
171,779	22,905	-0,120	-0,068
172,794	115,942	-0,258	-0,220
173,808	-14,303	-0,308	-0,138
174,823	333,094	-0,079	-0,106
175,837	164,047	-0,300	-0,294
176,852	8,812	-0,276	-0,145
177,867	800,000	-0,088	-0,263
178,881	158,656	-0,174	-0,168
179,896	135,922	-0,209	-0,189
180,910	38,017	-0,186	-0,115
181,925	-6,324	-0,198	-0,094
182,940	46,906	-0,295	-0,191
183,954	27,096	-0,227	-0,132
184,969	57,910	-0,185	-0,126
185,983	425,382	-0,191	-0,287
186,998	131,938	-0,227	-0,203
188,013	101,765	-0,219	-0,178
189,027	-111,135	-0,217	0,031
190,042	71,480	-0,189	-0,136
191,056	-34,100	-0,304	-0,116
192,071	248,722	-0,078	-0,092
193,086	145,985	-0,206	-0,192
194,100	-15,452	-0,224	-0,099
195,115	125,266	-0,191	-0,167
196,129	128,763	-0,288	-0,255
197,144	96,450	-0,139	-0,111
198,159	-16,859	-0,284	-0,124
199,173	-51,145	-0,173	-0,056
200,188	71,503	-0,259	-0,187
201,202	-38,588	-0,229	-0,084
202,217	143,831	-0,136	-0,126
203,232	7,822	-0,249	-0,129
204,246	31,162	-0,313	-0,186
205,261	-26,245	-0,209	-0,085
206,275	56,628	-0,119	-0,080
207,290	51,243	-0,109	-0,072
208,304	-23,669	-0,127	-0,053
209,319	-28,074	-0,220	-0,088
210,334	193,567	-0,127	-0,134
211,348	800,000	-0,061	-0,137
212,363	78,807	-0,269	-0,200
213,377	156,455	-0,244	-0,234
214,392	-34,947	-0,296	-0,112
215,407	-134,745	-0,235	0,020
216,421	95,178	-0,134	-0,106
217,436	-146,923	-0,272	-0,016
218,450	-36,614	-0,197	-0,073
219,465	185,021	-0,202	-0,208
220,480	41,978	-0,089	-0,056
221,494	134,407	-0,095	-0,086
222,509	25,247	-0,202	-0,116
223,523	3,314	-0,213	-0,107
224,538	709,697	-0,079	-0,145
225,553	800,000	-0,080	-0,204
226,567	-117,840	-0,224	-0,028
227,582	9,163	-0,227	-0,119
228,596	-33,791	-0,228	-0,087
229,611	204,541	-0,122	-0,132
230,626	-34,766	-0,200	-0,075
231,640	139,250	-0,153	-0,140
232,655	-79,572	-0,269	-0,063
233,669	322,183	-0,222	-0,293
234,684	-62,406	-0,229	-0,066
235,699	-81,430	-0,098	-0,022
236,713	242,209	-0,135	-0,157
237,728	-200,000	0,005	-0,063
238,742	96,927	-0,236	-0,188
239,757	55,302	-0,183	-0,123
240,772	610,275	-0,183	-0,318
241,786	800,000	-0,077	-0,222
242,801	561,471	-0,147	-0,247
243,815	286,144	-0,097	-0,121
244,830	138,241	-0,146	-0,133
245,844	159,631	-0,203	-0,196
246,859	16,068	-0,146	-0,080
247,874	103,567	-0,233	-0,189
248,888	-200,000	-0,045	-0,150
249,903	-200,000	-0,043	-0,210
250,917	536,725	-0,158	-0,260
251,932	42,742	-0,140	-0,088
252,947	507,554	-0,073	-0,118
253,961	295,982	-0,138	-0,175
254,976	116,665	-0,231	-0,196
255,990	48,826	-0,257	-0,167
257,005	435,428	-0,117	-0,176
258,020	-14,507	-0,022	-0,010
259,034	284,080	-0,236	-0,294
260,049	126,639	-0,223	-0,195
261,063	-77,518	-0,264	-0,063
262,078	121,271	-0,177	-0,153
263,093	339,995	-0,097	-0,131
264,107	390,864	-0,095	-0,136
265,122	800,000	-0,095	-0,196
266,136	318,706	-0,136	-0,179
267,151	800,000	-0,088	-0,202
268,166	465,381	-0,075	-0,116
269,180	59,776	-0,217	-0,148
270,195	-18,862	-0,131	-0,056
271,209	64,366	-0,153	-0,106
272,224	-200,000	-0,002	-0,274
273,239	741,035	-0,092	-0,171
274,253	-65,253	-0,330	-0,091
275,268	-200,000	-0,052	-0,180
276,282	-61,971	-0,304	-0,087
277,297	-200,000	-0,002	-0,014
278,312	-139,358	-0,191	-0,014
279,326	800,000	-0,081	-0,169
280,341	55,055	-0,133	-0,088
281,355	357,535	-0,061	-0,084
282,370	51,819	-0,086	-0,057
283,384	21,785	-0,206	-0,116
284,399	324,719	-0,204	-0,270
285,414	-200,000	-0,018	-0,172
286,428	-151,655	-0,188	-0,009
287,443	-76,492	-0,198	-0,048
288,457	119,727	-0,085	-0,073
289,472	-125,826	-0,213	-0,022
290,487	329,053	-0,108	-0,144
291,501	800,000	-0,038	-0,085
292,516	196,573	-0,187	-0,197
293,530	197,268	-0,145	-0,153
294,545	-44,576	-0,063	-0,022
295,560	-92,439	-0,128	-0,025
296,574	263,178	-0,153	-0,184
297,589	198,663	-0,186	-0,196
298,603	192,397	-0,133	-0,138
299,618	154,847	-0,165	-0,156
300,633	-19,835	-0,096	-0,041
301,647	-200,000	-0,041	-0,125
302,662	-86,794	-0,104	0,022
303,676	-7,671	-0,149	-0,069
304,691	164,312	-0,138	-0,134
305,706	34,086	-0,150	-0,090
306,720	175,588	-0,140	-0,140
307,735	113,602	-0,118	-0,099
308,749	164,144	-0,069	-0,067
309,764	314,358	0,046	0,060
310,779	94,263	-0,200	-0,156
311,793	60,245	-0,089	-0,061
312,808	137,198	-0,173	-0,156
313,822	-116,491	-0,252	-0,032
314,837	-200,000	0,004	-0,240
315,852	71,286	-0,142	-0,101
316,866	173,743	-0,178	-0,176
317,881	99,455	-0,145	-0,115
318,895	116,811	-0,109	-0,092
319,910	678,681	-0,089	-0,159
320,925	800,000	0,027	-0,058
321,939	800,000	-0,081	-0,190
322,954	204,877	-0,019	0,020
323,968	-87,514	-0,161	0,033
324,983	-200,000	-0,039	-0,154
325,997	309,335	-0,092	-0,119
327,012	-104,158	-0,212	-0,033
328,027	800,000	-0,060	-0,125
329,041	68,508	-0,169	0,119
330,056	132,698	-0,147	-0,130
331,070	-85,617	-0,157	0,033
332,085	-37,434	-0,092	0,034
333,100	-49,601	-0,079	0,026
334,114	-131,900	-0,094	0,008
335,129	151,004	-0,183	-0,171
336,143	178,039	-0,247	-0,248
337,158	-151,949	-0,219	0,011
338,173	-122,509	-0,154	-0,017
339,187	-78,372	-0,024	-0,006
340,202	166,684	-0,101	-0,099
341,216	-173,374	-0,126	0,003
342,231	-124,179	-0,196	-0,021
343,246	-69,074	-0,316	-0,083
344,260	9,678	-0,163	-0,085
345,275	11,344	-0,123	-0,064
346,289	-200,000	-0,013	-0,041
347,304	800,000	-0,067	-0,198
348,319	-129,519	-0,123	-0,012
349,333	169,659	-0,177	-0,174
350,348	800,000	-0,151	-0,296
351,362	800,000	-0,003	0,008
352,377	-69,742	-0,179	-0,047
353,392	93,551	-0,156	-0,121
354,406	-108,687	-0,142	-0,021
355,421	211,154	1312,145	1417,199
356,435	162,580	1472,557	1417,690
