DTS Sentinel unit serial number:	SN410029Multiplexer serial number:	ORYXHardware model number:	OX2-SRSoftware version number:	ORYX F/W v4,00 Oryx Data Collector v3.7.2.0data status	okinstallation	B3 Nyhavnadifferential loss correction	single-endedforward channel	channel 1reverse channel	N/Adate	2023/12/01time	17:47:30forward acquisition time	300,00reverse acquisition time	0,00gamma	499,1914k internal	0,3204k external	0,3204temperature offset calibration	1,0000default loss term (dB/km)	0,3820temperature slope calibration	1,0000multiplexer offset coefficient	1,0000multiplexer slope coefficient	1,0000fibre end	0,00T internal ref (°C)	14,38T ext. ref 1 (°C)	0,41T ext. ref 2 (°C)	0,39length (m)	temperature (°C)	Stokes	anti-Stokes-744,400	800,000	-0,112	-0,248
-743,385	-200,000	0,053	0,422
-742,371	800,000	-0,067	-0,143
-741,356	-200,000	0,027	0,349
-740,342	-46,572	-0,232	-0,082
-739,327	-200,000	-0,076	0,397
-738,312	175,830	-0,146	-0,154
-737,298	800,000	-0,075	0,197
-736,283	12,975	-0,147	-0,082
-735,269	383,165	0,134	0,201
-734,254	34,906	-0,284	-0,180
-733,239	-172,111	-0,307	0,007
-732,225	800,000	-0,062	-0,194
-731,210	800,000	0,147	0,305
-730,196	-142,712	-0,219	0,015
-729,181	32,439	0,064	-0,040
-728,167	189,249	-0,102	-0,111
-727,152	-24,090	0,034	-0,015
-726,137	-200,000	0,004	-0,166
-725,123	88,650	-0,076	0,061
-724,108	-200,000	-0,020	-0,079
-723,094	-118,827	-0,069	-0,009
-722,079	-83,232	-0,185	-0,043
-721,064	-200,000	0,020	0,128
-720,050	62,453	-0,076	-0,055
-719,035	285,628	0,046	-0,061
-718,021	-32,272	-0,176	-0,071
-717,006	800,000	-0,048	-0,111
-715,991	198,794	-0,151	-0,168
-714,977	5,601	-0,081	-0,043
-713,962	-200,000	-0,031	-0,130
-712,948	-200,000	0,001	0,066
-711,933	87,402	0,052	-0,042
-710,918	-200,000	0,009	0,062
-709,904	-127,563	-0,033	0,003
-708,889	-200,000	-0,031	-0,202
-707,875	588,286	-0,028	-0,051
-706,860	143,174	0,024	-0,023
-705,845	-200,000	-0,003	-0,144
-704,831	-115,175	0,026	0,003
-703,816	-167,828	-0,159	-0,004
-702,802	82,883	-0,144	0,114
-701,787	800,000	-0,049	-0,134
-700,772	-14,817	0,050	0,023
-699,758	-56,626	-0,053	0,017
-698,743	56,722	0,151	0,106
-697,729	-117,729	-0,105	-0,014
-696,714	-71,522	-0,087	-0,023
-695,699	-126,735	0,138	-0,015
-694,685	82,437	-0,054	-0,043
-693,670	268,003	0,104	-0,132
-692,656	-128,802	-0,063	-0,006
-691,641	365,167	-0,022	0,033
-690,627	-200,000	0,013	0,043
-689,612	800,000	0,108	0,229
-688,597	174,490	0,059	0,062
-687,583	116,409	-0,027	0,024
-686,568	117,129	-0,060	-0,054
-685,554	-200,000	-0,003	-0,016
-684,539	-51,046	0,118	-0,040
-683,524	-200,000	-0,027	0,126
-682,510	677,885	0,014	-0,026
-681,495	-5,664	-0,059	0,029
-680,481	508,446	-0,006	0,010
-679,466	-200,000	-0,021	-0,158
-678,451	-200,000	0,012	-0,173
-677,437	-119,937	0,023	0,003
-676,422	-47,082	-0,061	0,021
-675,408	-31,426	-0,127	0,052
-674,393	139,549	0,112	0,107
-673,378	86,393	-0,077	0,061
-672,364	-41,556	-0,135	-0,050
-671,349	-0,350	-0,106	-0,054
-670,335	-200,000	0,023	-0,086
-669,320	28,253	-0,075	-0,046
-668,305	82,760	0,042	0,033
-667,291	-57,027	-0,143	-0,045
-666,276	49,801	0,041	0,028
-665,262	200,985	-0,033	0,036
-664,247	514,554	0,057	-0,097
-663,232	42,083	0,063	-0,041
-662,218	-200,000	-0,004	-0,044
-661,203	-11,337	-0,053	0,025
-660,189	84,144	-0,085	0,068
-659,174	-158,799	-0,145	0,006
-658,159	800,000	-0,017	-0,039
-657,145	-200,000	-0,035	-0,208
-656,130	-200,000	0,023	-0,135
-655,116	-34,150	0,182	0,072
-654,101	800,000	0,027	-0,068
-653,086	-200,000	-0,006	-0,049
-652,072	-194,508	0,092	-0,001
-651,057	-182,240	-0,118	-0,002
-650,043	-128,168	-0,057	0,006
-649,028	164,450	0,040	-0,041
-648,014	800,000	-0,054	0,134
-646,999	615,881	0,062	0,114
-645,984	-200,000	0,030	-0,153
-644,970	800,000	-0,018	-0,049
-643,955	-56,714	-0,049	-0,016
-642,941	-138,601	0,135	0,011
-641,926	-99,783	-0,133	-0,024
-640,911	-72,900	-0,079	-0,021
-639,897	-14,069	0,101	0,047
-638,882	-200,000	-0,007	-0,055
-637,868	-200,000	0,011	0,046
-636,853	-200,000	0,052	-0,185
-635,838	-118,383	-0,064	-0,008
-634,824	264,537	-0,119	-0,150
-633,809	31,510	0,133	0,083
-632,795	432,540	-0,050	-0,078
-631,780	800,000	0,040	0,084
-630,765	217,884	-0,108	-0,125
-629,751	-200,000	-0,005	0,022
-628,736	-48,393	-0,129	-0,045
-627,722	116,030	0,051	-0,046
-626,707	-200,000	0,022	0,074
-625,692	-200,000	0,007	0,148
-624,678	76,022	-0,035	0,027
-623,663	-131,469	0,027	-0,003
-622,649	4,703	-0,114	0,060
-621,634	145,505	-0,067	-0,065
-620,619	402,595	0,044	-0,066
-619,605	-102,738	-0,240	0,041
-618,590	-200,000	0,007	0,089
-617,576	-200,000	-0,025	0,110
-616,561	219,975	0,024	0,028
-615,546	-60,095	-0,191	0,059
-614,532	13,301	-0,103	-0,057
-613,517	-42,226	-0,183	0,067
-612,503	-165,872	0,168	-0,005
-611,488	-71,032	0,106	0,029
-610,474	-117,104	-0,141	0,018
-609,459	800,000	-0,049	0,125
-608,444	-4,200	-0,104	0,052
-607,430	386,816	-0,051	-0,076
-606,415	800,000	-0,032	-0,098
-605,401	174,494	0,051	0,054
-604,386	164,353	0,062	0,063
-603,371	63,463	-0,041	0,030
-602,357	800,000	0,065	0,138
-601,342	-200,000	0,016	0,174
-600,328	761,509	-0,088	-0,173
-599,313	800,000	-0,044	-0,138
-598,298	-132,131	-0,103	0,010
-597,284	-126,911	0,099	-0,010
-596,269	-57,049	0,118	0,037
-595,255	10,531	-0,102	0,056
-594,240	-200,000	-0,005	-0,125
-593,225	57,933	0,156	-0,110
-592,211	-200,000	-0,020	-0,070
-591,196	-27,741	0,070	0,029
-590,182	-55,727	0,025	0,008
-589,167	-61,073	0,090	0,027
-588,152	-146,005	-0,035	-0,002
-587,138	-126,260	-0,089	0,010
-586,123	-107,983	-0,132	-0,020
-585,109	624,436	0,046	-0,085
-584,094	106,842	0,081	0,070
-583,079	-56,424	0,176	-0,056
-582,065	-134,924	-0,081	0,007
-581,050	-200,000	0,013	0,094
-580,036	123,611	0,063	-0,057
-579,021	-106,872	-0,211	-0,033
-578,006	800,000	-0,041	-0,117
-576,992	-101,811	-0,064	-0,011
-575,977	-163,710	0,108	-0,004
-574,963	735,697	0,040	0,078
-573,948	135,997	0,056	0,053
-572,934	-200,000	0,012	0,088
-571,919	-200,000	-0,050	0,173
-570,904	-101,797	0,099	0,017
-569,890	-200,000	-0,143	-0,000
-568,875	-105,901	0,119	0,019
-567,861	62,004	-0,052	-0,037
-566,846	19,138	0,116	0,067
-565,831	50,847	-0,058	0,040
-564,817	31,419	0,047	0,029
-563,802	-200,000	0,023	-0,082
-562,788	800,000	-0,031	-0,081
-561,773	-200,000	-0,036	0,116
-560,758	-125,200	0,056	-0,006
-559,744	-200,000	0,006	0,032
-558,729	800,000	-0,021	0,057
-557,715	326,689	0,023	-0,032
-556,700	231,778	0,079	-0,094
-555,685	652,964	0,047	-0,088
-554,671	-60,035	-0,149	0,046
-553,656	29,400	0,021	-0,013
-552,642	20,821	-0,057	0,033
-551,627	142,226	-0,023	0,022
-550,612	389,936	0,085	-0,128
-549,598	244,872	-0,098	-0,119
-548,583	4,533	-0,066	-0,035
-547,569	-80,226	0,081	0,020
-546,554	-200,000	0,024	0,084
-545,539	800,000	0,012	-0,034
-544,525	316,205	-0,043	-0,059
-543,510	-200,000	-0,152	-0,000
-542,496	-24,612	0,076	0,033
-541,481	-200,000	0,008	-0,031
-540,466	93,218	0,049	-0,040
-539,452	800,000	0,035	0,085
-538,437	51,981	0,051	-0,035
-537,423	213,027	0,035	-0,040
-536,408	-34,864	0,032	0,012
-535,393	800,000	-0,041	-0,098
-534,379	19,131	-0,104	-0,060
-533,364	93,108	-0,016	0,013
-532,350	388,195	0,054	0,081
-531,335	78,789	0,040	0,031
-530,321	43,821	0,080	0,053
-529,306	800,000	0,030	0,066
-528,291	-103,368	-0,129	-0,022
-527,277	98,164	-0,125	0,103
-526,262	-92,850	0,079	-0,016
-525,248	40,665	-0,028	0,018
-524,233	800,000	-0,056	0,133
-523,218	-93,341	0,160	0,032
-522,204	423,054	0,063	-0,098
-521,189	132,606	0,025	-0,023
-520,175	-200,000	-0,033	-0,127
-519,160	708,159	0,051	0,097
-518,145	-200,000	-0,012	0,092
-517,131	229,550	-0,056	-0,066
-516,116	-121,763	-0,062	0,007
-515,102	-200,000	-0,032	0,128
-514,087	-200,000	0,014	0,050
-513,072	-53,423	0,042	-0,014
-512,058	-200,000	0,010	0,041
-511,043	800,000	0,037	-0,100
-510,029	-200,000	0,017	-0,074
-509,014	-200,000	-0,033	0,120
-507,999	-200,000	0,017	0,071
-506,985	69,339	-0,091	0,067
-505,970	45,076	0,054	0,036
-504,956	-32,702	-0,105	-0,042
-503,941	195,924	-0,094	0,103
-502,926	290,056	0,060	-0,078
-501,912	75,243	-0,040	0,030
-500,897	800,000	-0,018	-0,049
-499,883	-200,000	-0,004	0,025
-498,868	-200,000	-0,004	-0,090
-497,853	-200,000	-0,008	-0,068
-496,839	-26,343	0,146	-0,061
-495,824	-49,530	-0,066	0,023
-494,810	429,854	-0,043	0,067
-493,795	-20,624	0,079	0,035
-492,781	-200,000	0,023	-0,101
-491,766	119,566	0,024	0,021
-490,751	-117,508	-0,107	-0,014
-489,737	1,069	-0,040	-0,020
-488,722	-200,000	0,026	-0,093
-487,708	-200,000	-0,016	0,190
-486,693	800,000	0,020	-0,045
-485,678	767,319	-0,066	-0,130
-484,664	243,447	-0,074	-0,089
-483,649	-157,111	-0,104	0,004
-482,635	509,008	0,040	-0,067
-481,620	497,635	-0,006	-0,009
-480,605	-200,000	0,026	0,094
-479,591	-102,859	0,076	0,013
-478,576	430,838	0,092	0,144
-477,562	226,008	0,001	0,002
-476,547	-48,233	-0,170	-0,059
-475,532	157,172	0,045	0,045
-474,518	9,319	-0,061	-0,033
-473,503	-67,957	0,123	0,034
-472,489	246,587	0,014	-0,016
-471,474	745,802	-0,025	-0,049
-470,459	-91,384	0,023	0,005
-469,445	30,185	-0,087	-0,053
-468,430	-200,000	-0,003	-0,075
-467,416	167,555	0,029	0,030
-466,401	127,574	0,062	0,057
-465,386	657,500	-0,014	0,026
-464,372	-54,754	-0,070	-0,023
-463,357	90,539	-0,152	-0,122
-462,343	-141,941	0,074	0,005
-461,328	0,501	-0,138	-0,071
-460,313	252,193	-0,031	0,038
-459,299	-49,762	0,081	-0,027
-458,284	-200,000	-0,011	0,154
-457,270	800,000	0,013	-0,033
-456,255	-99,264	-0,134	-0,024
-455,241	-41,972	-0,077	0,028
-454,226	618,369	-0,007	0,012
-453,211	168,839	-0,057	0,059
-452,197	171,889	0,042	-0,043
-451,182	257,173	0,026	-0,032
-450,168	-162,043	0,044	-0,002
-449,153	-200,000	-0,009	0,044
-448,138	-200,000	-0,023	-0,091
-447,124	-126,842	-0,103	-0,011
-446,109	800,000	0,008	-0,020
-445,095	21,123	0,098	0,057
-444,080	80,901	-0,014	-0,011
-443,065	-200,000	-0,050	0,166
-442,051	10,379	0,084	0,046
-441,036	-163,976	-0,095	-0,003
-440,022	337,581	-0,074	-0,104
-439,007	-200,000	-0,002	-0,065
-437,992	-200,000	0,025	0,124
-436,978	-125,120	0,053	-0,006
-435,963	-60,610	-0,038	-0,012
-434,949	-200,000	-0,020	-0,078
-433,934	-34,057	0,053	0,021
-432,919	-123,973	-0,118	-0,013
-431,905	197,339	0,010	0,011
-430,890	-48,601	-0,007	0,002
-429,876	746,039	0,093	0,181
-428,861	-200,000	0,026	0,222
-427,846	109,292	-0,015	0,012
-426,832	269,031	-0,110	-0,139
-425,817	-64,567	-0,168	0,049
-424,803	-53,458	0,072	0,024
-423,788	-200,000	0,030	-0,138
-422,773	444,790	0,038	-0,060
-421,759	93,075	-0,122	-0,099
-420,744	-200,000	-0,018	0,074
-419,730	772,474	0,017	-0,033
-418,715	-200,000	-0,011	-0,158
-417,701	192,852	0,019	-0,021
-416,686	418,086	0,094	0,144
-415,671	174,376	0,035	0,036
-414,657	-200,000	0,032	-0,129
-413,642	-95,470	-0,052	0,010
-412,628	-45,166	-0,084	0,030
-411,613	212,168	0,027	0,031
-410,598	-163,717	0,056	0,002
-409,584	-72,143	-0,057	0,015
-408,569	-200,000	0,056	0,247
-407,555	-73,235	0,187	-0,049
-406,540	306,545	-0,071	-0,095
-405,525	374,064	-0,069	0,100
-404,511	-200,000	-0,018	-0,091
-403,496	685,297	-0,018	-0,034
-402,482	723,716	0,078	-0,150
-401,467	-95,007	0,114	-0,022
-400,452	-59,578	0,037	0,011
-399,438	-70,021	0,082	-0,022
-398,423	-200,000	-0,015	-0,074
-397,409	138,582	-0,130	-0,122
-396,394	-200,000	-0,003	-0,020
-395,379	-140,536	0,164	-0,012
-394,365	592,841	-0,036	-0,065
-393,350	-200,000	-0,063	0,232
-392,336	298,641	0,041	0,054
-391,321	800,000	-0,020	-0,051
-390,306	-200,000	0,002	-0,065
-389,292	-200,000	0,009	-0,091
-388,277	318,915	-0,036	-0,048
-387,263	-200,000	-0,005	0,115
-386,248	21,073	0,070	0,041
-385,233	800,000	0,035	0,074
-384,219	-200,000	-0,016	-0,108
-383,204	800,000	-0,020	-0,049
-382,190	-200,000	-0,022	-0,089
-381,175	534,631	0,021	0,035
-380,160	-155,184	0,050	0,002
-379,146	-7,455	0,152	0,073
-378,131	-200,000	0,010	0,083
-377,117	-108,494	0,034	-0,005
-376,102	156,149	-0,144	-0,142
-375,088	205,933	-0,036	0,041
-374,073	-20,842	-0,061	0,026
-373,058	-73,450	-0,073	0,019
-372,044	-200,000	-0,020	0,079
-371,029	-200,000	-0,013	-0,074
-370,015	64,814	-0,080	0,058
-369,000	115,156	0,045	0,040
-367,985	-200,000	-0,004	0,038
-366,971	-68,051	0,064	-0,018
-365,956	-12,784	-0,118	-0,055
-364,942	-65,222	-0,131	-0,038
-363,927	-106,806	-0,052	-0,008
-362,912	424,920	0,040	-0,062
-361,898	15,734	-0,193	-0,108
-360,883	-12,914	-0,136	-0,063
-359,869	-2,628	0,054	-0,027
-358,854	26,818	0,013	0,008
-357,839	142,541	-0,049	-0,046
-356,825	-33,809	0,016	0,006
-355,810	-200,000	0,032	0,104
-354,796	91,116	-0,063	0,050
-353,781	-200,000	0,015	-0,052
-352,766	800,000	-0,025	-0,063
-351,752	604,594	-0,083	-0,148
-350,737	-51,532	0,140	0,047
-349,723	709,699	-0,011	-0,020
-348,708	-35,448	0,239	0,092
-347,693	0,627	0,034	-0,017
-346,679	800,000	-0,032	-0,078
-345,664	60,268	0,064	-0,045
-344,650	-155,660	-0,070	-0,003
-343,635	-56,649	0,080	-0,025
-342,620	239,113	0,090	0,107
-341,606	-83,115	-0,112	0,026
-340,591	203,837	-0,075	-0,083
-339,577	697,041	0,056	-0,105
-338,562	-44,302	0,063	-0,022
-337,548	631,096	-0,024	-0,044
-336,533	305,173	-0,098	0,130
-335,518	9,032	0,124	0,067
-334,504	79,775	0,050	0,038
-333,489	491,491	-0,055	0,091
-332,475	71,601	-0,036	-0,026
-331,460	191,313	-0,100	-0,108
-330,445	-200,000	-0,000	-0,059
-329,431	-15,894	0,112	0,051
-328,416	193,074	0,094	0,101
-327,402	312,516	0,068	0,091
-326,387	-200,000	0,007	0,030
-325,372	109,323	0,028	0,024
-324,358	130,012	-0,092	-0,084
-323,343	-200,000	0,009	-0,146
-322,329	72,540	-0,007	-0,005
-321,314	12,585	0,076	0,042
-320,299	-146,473	-0,059	0,004
-319,285	285,907	0,084	0,108
-318,270	15,795	-0,081	-0,045
-317,256	23,643	0,039	0,023
-316,241	-9,026	-0,026	0,012
-315,226	-70,124	0,102	-0,027
-314,212	18,735	0,085	0,048
-313,197	-116,078	0,129	0,017
-312,183	800,000	-0,055	0,172
-311,168	-41,642	0,063	0,023
-310,153	800,000	0,066	0,170
-309,139	40,197	0,040	-0,026
-308,124	-58,437	0,009	0,003
-307,110	500,734	0,055	0,092
-306,095	800,000	-0,050	0,112
-305,080	137,184	0,075	-0,070
-304,066	91,666	0,072	-0,058
-303,051	800,000	0,052	-0,133
-302,037	260,231	-0,051	-0,063
-301,022	282,846	0,064	-0,082
-300,008	-200,000	-0,012	0,073
-298,993	-26,532	-0,096	0,040
-297,978	581,940	0,027	0,048
-296,964	-200,000	0,048	0,000
-295,949	-97,894	-0,122	-0,022
-294,935	37,729	-0,056	0,036
-293,920	-200,000	-0,015	0,155
-292,905	800,000	0,034	0,100
-291,891	-33,738	0,030	0,012
-290,876	800,000	0,021	-0,046
-289,862	-110,049	-0,143	-0,021
-288,847	-69,614	-0,103	-0,028
-287,832	28,353	-0,051	0,031
-286,818	760,587	0,028	0,054
-285,803	765,637	0,054	-0,105
-284,789	-200,000	-0,009	-0,145
-283,774	119,349	0,088	0,077
-282,759	229,583	-0,111	-0,129
-281,745	-1,643	-0,098	-0,049
-280,730	-200,000	-0,003	0,030
-279,716	84,748	-0,033	-0,026
-278,701	-20,078	0,030	0,013
-277,686	255,041	-0,039	0,047
-276,672	-200,000	-0,010	0,108
-275,657	-200,000	0,005	-0,079
-274,643	-45,519	-0,102	-0,036
-273,628	-131,485	-0,087	0,008
-272,613	-56,110	0,068	-0,021
-271,599	97,348	0,083	0,068
-270,584	722,840	0,113	0,216
-269,570	172,026	0,182	0,187
-268,555	-133,819	-0,071	0,006
-267,540	94,269	-0,075	0,061
-266,526	54,617	0,084	-0,058
-265,511	-200,000	-0,007	-0,034
-264,497	231,222	0,034	0,040
-263,482	180,117	-0,055	-0,057
-262,467	-200,000	0,008	-0,034
-261,453	53,408	-0,031	-0,021
-260,438	720,195	0,051	0,098
-259,424	1,598	-0,028	-0,014
-258,409	-200,000	0,028	-0,090
-257,395	176,851	0,023	-0,023
-256,380	800,000	-0,073	0,175
-255,365	129,304	0,060	0,055
-254,351	-171,740	0,041	-0,001
-253,336	-133,764	-0,154	-0,014
-252,322	-188,615	-0,041	0,000
-251,307	158,657	-0,037	-0,037
-250,292	157,304	0,045	-0,044
-249,278	-128,797	0,202	0,020
-248,263	-112,053	-0,077	-0,011
-247,249	-97,023	0,095	-0,018
-246,234	539,679	-0,023	0,039
-245,219	-200,000	0,020	-0,081
-244,205	-200,000	-0,004	-0,046
-243,190	-72,035	-0,067	0,018
-242,176	69,597	-0,055	-0,041
-241,161	76,585	0,091	0,068
-240,146	-200,000	0,009	0,100
-239,132	784,196	-0,044	0,087
-238,117	431,470	-0,041	-0,063
-237,103	81,489	-0,105	0,081
-236,088	-2,663	-0,056	0,028
-235,073	675,014	0,051	0,095
-234,059	-200,000	-0,015	-0,083
-233,044	50,649	0,074	-0,050
-232,030	200,903	-0,072	0,079
-231,015	-23,891	-0,031	-0,013
-230,000	-200,000	0,035	-0,158
-228,986	-6,434	-0,058	0,028
-227,971	556,017	0,078	-0,134
-226,957	-153,531	0,115	0,006
-225,942	-200,000	0,039	0,175
-224,927	664,403	-0,033	0,060
-223,913	379,148	-0,020	-0,029
-222,898	-49,780	0,076	0,026
-221,884	-200,000	0,005	-0,158
-220,869	124,204	0,056	0,050
-219,855	800,000	-0,033	-0,095
-218,840	164,840	-0,053	-0,053
-217,825	173,909	0,095	-0,098
-216,811	-67,293	-0,095	-0,026
-215,796	-85,550	-0,018	-0,004
-214,782	186,249	0,066	-0,070
-213,767	-119,652	-0,074	-0,009
-212,752	-148,806	0,143	-0,008
-211,738	-25,672	0,038	0,016
-210,723	-119,870	0,070	-0,008
-209,709	41,707	0,091	-0,059
-208,694	313,458	0,028	0,037
-207,679	800,000	0,015	-0,044
-206,665	678,658	-0,010	0,019
-205,650	800,000	0,045	0,121
-204,636	44,364	-0,025	-0,016
-203,621	768,713	0,046	0,089
-202,606	280,956	0,081	-0,104
-201,592	800,000	-0,035	0,103
-200,577	-4,100	0,115	-0,057
-199,563	379,689	-0,094	-0,137
-198,548	159,872	0,075	0,074
-197,533	800,000	0,036	0,072
-196,519	210,873	0,026	0,030
-195,504	340,918	-0,069	0,096
-194,490	110,852	-0,087	-0,075
-193,475	3,600	0,092	-0,048
-192,460	507,945	-0,057	-0,095
-191,446	-48,541	-0,087	-0,029
-190,431	225,595	0,028	-0,032
-189,417	-200,000	0,003	0,063
-188,402	-200,000	0,002	-0,050
-187,387	-124,811	-0,046	-0,005
-186,373	-200,000	0,031	-0,117
-185,358	-20,284	0,081	-0,035
-184,344	-65,038	-0,048	-0,014
-183,329	-200,000	-0,001	0,125
-182,315	800,000	0,017	-0,054
-181,300	-200,000	0,007	0,096
-180,285	-35,231	0,028	0,011
-179,271	87,287	0,074	-0,058
-178,256	800,000	-0,025	-0,076
-177,242	67,488	0,037	-0,027
-176,227	-104,175	0,090	0,015
-175,212	-20,721	0,065	0,028
-174,198	-27,757	0,248	-0,102
-173,183	147,407	0,016	-0,016
-172,169	-200,000	0,000	-0,010
-171,154	559,630	0,081	-0,139
-170,139	-27,609	-0,008	0,003
-169,125	800,000	0,011	0,022
-168,110	54,702	0,027	-0,019
-167,096	-104,034	-0,132	-0,022
-166,081	-200,000	0,009	0,034
-165,066	-81,392	-0,071	-0,016
-164,052	-179,931	-0,092	0,001
-163,037	-8,184	0,053	0,025
-162,023	13,255	0,083	0,045
-161,008	-31,368	0,158	-0,063
-159,993	-200,000	0,023	-0,072
-158,979	-200,000	0,024	-0,097
-157,964	242,595	0,032	0,039
-156,950	-34,366	0,008	-0,003
-155,935	70,525	-0,022	0,016
-154,920	254,450	-0,004	0,005
-153,906	-200,000	0,012	0,202
-152,891	-4,661	-0,071	-0,035
-151,877	-200,000	-0,014	0,078
-150,862	-200,000	-0,040	-0,218
-149,847	800,000	0,036	-0,078
-148,833	159,102	0,066	-0,065
-147,818	9,897	0,091	0,049
-146,804	186,607	0,097	-0,103
-145,789	-66,539	-0,023	0,006
-144,775	-166,956	0,027	0,001
-143,760	237,251	-0,066	0,078
-142,745	-33,802	-0,095	-0,037
-141,731	-48,049	0,071	0,024
-140,716	800,000	-0,014	-0,041
-139,702	4,649	0,023	-0,012
-138,687	-98,447	0,078	-0,014
-137,672	-200,000	-0,021	-0,113
-136,658	200,093	-0,026	-0,028
-135,643	-200,000	0,006	-0,082
-134,629	-171,281	-0,031	-0,001
-133,614	-200,000	-0,018	-0,076
-132,599	174,563	-0,057	0,059
-131,585	28,834	0,098	0,059
-130,570	-66,896	-0,092	-0,026
-129,556	61,071	-0,070	-0,049
-128,541	800,000	0,019	-0,058
-127,526	-200,000	0,008	0,083
-126,512	110,064	-0,045	0,039
-125,497	800,000	0,047	0,140
-124,483	-200,000	0,012	-0,041
-123,468	409,376	-0,072	0,109
-122,453	800,000	-0,061	-0,120
-121,439	-45,183	0,033	-0,011
-120,424	-200,000	-0,010	-0,052
-119,410	-200,000	0,020	-0,090
-118,395	-54,943	0,072	-0,023
-117,380	-47,595	-0,029	0,010
-116,366	-73,377	0,073	0,019
-115,351	453,196	-0,014	-0,022
-114,337	-200,000	0,001	-0,102
-113,322	28,379	-0,072	-0,043
-112,307	-49,172	0,132	0,045
-111,293	800,000	-0,015	0,040
-110,278	-200,000	-0,001	0,071
-109,264	-200,000	-0,005	-0,031
-108,249	223,567	0,026	-0,030
-107,234	-44,282	-0,035	0,012
-106,220	-51,124	-0,055	-0,018
-105,205	691,187	0,019	-0,035
-104,191	139,633	0,079	-0,074
-103,176	3,166	-0,092	0,047
-102,162	408,455	-0,038	0,057
-101,147	313,440	-0,034	0,046
-100,132	34,048	-0,100	0,062
-99,118	136,049	-0,102	0,094
-98,103	800,000	0,028	-0,065
-97,089	75,635	0,031	0,023
-96,074	55,151	0,149	-0,102
-95,059	-200,000	-0,001	0,088
-94,045	60,031	-0,118	-0,083
-93,030	503,921	-0,015	-0,025
-92,016	-200,000	-0,025	-0,082
-91,001	800,000	0,037	-0,094
-89,986	-200,000	0,000	-0,054
-88,972	-200,000	0,010	0,091
-87,957	-128,263	-0,058	0,006
-86,943	-162,690	0,208	0,007
-85,928	-158,722	-0,178	-0,007
-84,913	-149,219	0,057	0,003
-83,899	-129,374	-0,054	0,005
-82,884	-200,000	-0,003	0,041
-81,870	-200,000	0,016	-0,084
-80,855	-81,804	0,162	0,037
-79,840	-200,000	0,009	-0,049
-78,826	800,000	-0,069	0,146
-77,811	40,700	-0,175	-0,111
-76,797	-140,557	0,105	0,008
-75,782	-72,023	-0,082	-0,021
-74,767	-200,000	0,004	0,162
-73,753	-200,000	-0,006	0,054
-72,738	800,000	-0,026	0,076
-71,724	800,000	0,074	-0,198
-70,709	-45,068	-0,065	-0,023
-69,694	-14,069	0,109	0,050
-68,680	416,549	0,019	-0,030
-67,665	-200,000	0,049	-0,168
-66,651	353,680	0,058	0,082
-65,636	148,505	-0,076	0,072
-64,622	-120,710	-0,055	-0,007
-63,607	800,000	0,044	-0,101
-62,592	-200,000	0,021	0,079
-61,578	-50,365	0,054	0,018
-60,563	800,000	0,022	0,065
-59,549	523,357	-0,039	0,064
-58,534	-21,657	-1,486	-0,638
-57,519	428,350	-1,424	-2,184
-56,505	-200,000	-0,383	-4,211
-55,490	216,951	0,914	1,030
-54,476	800,000	4,917	11,482
-53,461	-200,000	18,347	293,646
-52,446	800,000	728,604	2241,844
-51,432	556,776	1643,281	2812,117
-50,417	78,575	1663,543	1256,556
-49,403	22,274	1537,202	885,919
-48,388	16,236	1460,407	812,473
-47,373	17,758	1450,361	814,165
-46,359	16,948	1440,801	804,901
-45,344	14,522	1436,034	790,650
-44,330	14,436	1433,946	789,058
-43,315	14,445	1432,465	788,255
-42,300	14,458	1430,888	787,418
-41,286	14,481	1429,577	786,774
-40,271	14,454	1428,195	785,854
-39,257	14,435	1427,074	785,117
-38,242	14,512	1425,557	784,615
-37,227	14,520	1424,392	783,981
-36,213	14,543	1423,167	783,382
-35,198	14,425	1422,256	782,292
-34,184	14,481	1421,279	781,990
-33,169	14,463	1419,887	781,109
-32,154	14,502	1418,802	780,664
-31,140	14,510	1417,469	779,936
-30,125	14,512	1416,414	779,333
-29,111	14,495	1415,294	778,608
-28,096	14,493	1414,141	777,936
-27,082	14,430	1413,046	777,003
-26,067	14,382	1412,228	776,299
-25,052	14,450	1410,817	775,811
-24,038	14,376	1410,211	775,100
-23,023	14,398	1409,098	774,559
-22,009	14,382	1407,994	773,850
-20,994	14,334	1407,337	773,235
-19,979	14,362	1406,297	772,761
-18,965	14,334	1405,211	772,003
-17,950	14,337	1404,322	771,497
-16,936	14,335	1403,375	770,937
-15,921	14,339	1402,065	770,208
-14,906	14,321	1401,206	769,618
-13,892	14,269	1400,572	769,000
-12,877	14,305	1399,648	768,629
-11,863	14,329	1398,577	768,123
-10,848	14,303	1397,836	767,564
-9,833	14,267	1396,991	766,903
-8,819	14,213	1396,132	766,150
-7,804	14,217	1395,025	765,530
-6,790	14,242	1393,952	765,029
-5,775	14,187	1393,077	764,264
-4,760	14,223	1392,100	763,865
-3,746	14,214	1391,392	763,404
-2,731	14,191	1390,489	762,773
-1,717	14,205	1389,407	762,212
-0,702	14,177	1387,843	761,195
0,313	18,037	1306,894	734,606
1,327	34,339	704,772	433,806
2,342	53,013	123,930	83,705
3,356	3,133	16,630	8,520
4,371	1,914	3,121	1,586
5,386	-20,679	0,541	0,234
6,400	-200,000	0,022	0,219
7,415	74,028	-0,179	-0,133
8,429	42,357	-0,314	-0,201
9,444	167,876	-0,367	-0,369
10,459	180,660	-0,249	-0,259
11,473	12,116	-0,325	-0,176
12,488	49,891	-0,308	-0,205
13,502	196,875	-0,192	-0,207
14,517	45,308	-0,287	-0,187
15,531	7,539	-0,433	-0,228
16,546	65,410	-0,409	-0,292
17,561	551,104	-0,286	-0,487
18,575	123,653	-0,209	-0,185
19,590	100,361	-0,293	-0,240
20,604	-43,588	-0,262	-0,093
21,619	66,687	-0,373	-0,267
22,634	87,246	-0,384	-0,299
23,648	51,378	-0,466	-0,311
24,663	15,151	-0,378	-0,209
25,677	142,447	-0,290	-0,271
26,692	142,784	-0,381	-0,357
27,707	13,822	-0,407	-0,222
28,721	281,567	-0,252	-0,319
29,736	-50,390	-0,376	-0,124
30,750	-3,048	-0,485	-0,238
31,765	64,727	-0,423	-0,301
32,780	248,344	-0,258	-0,308
33,794	95,890	-0,383	-0,308
34,809	63,206	-0,310	-0,219
35,823	-133,048	-0,342	-0,030
36,838	-18,150	-0,392	-0,172
37,853	122,100	-0,412	-0,363
38,867	46,836	-0,354	-0,232
39,882	94,018	-0,347	-0,277
40,896	3,632	-0,324	-0,166
41,911	59,158	-0,351	-0,243
42,926	-14,174	-0,360	-0,163
43,940	16,463	-0,423	-0,235
44,955	-25,630	-0,464	-0,192
45,969	221,024	-0,321	-0,364
46,984	69,732	-0,335	-0,243
47,999	199,127	-0,272	-0,294
49,013	45,589	-0,353	-0,229
50,028	45,518	-0,493	-0,320
51,042	36,583	-0,260	-0,161
52,057	71,100	-0,308	-0,225
53,071	28,339	-0,400	-0,237
54,086	142,324	-0,276	-0,258
55,101	-31,094	-0,310	-0,123
56,115	-57,196	-0,328	-0,101
57,130	209,552	-0,282	-0,311
58,144	41,503	-0,302	-0,192
59,159	85,554	-0,293	-0,226
60,174	138,995	-0,375	-0,347
61,188	24,866	-0,373	-0,217
62,203	222,569	-0,218	-0,247
63,217	-32,717	-0,339	-0,132
64,232	110,396	-0,287	-0,243
65,247	6,278	-0,418	-0,217
66,261	-18,237	-0,393	-0,172
67,276	237,292	-0,248	-0,290
68,290	73,620	-0,343	-0,252
69,305	156,144	-0,267	-0,259
70,320	103,913	-0,261	-0,216
71,334	-25,824	-0,340	-0,140
72,349	110,751	-0,289	-0,244
73,363	2,284	-0,334	-0,169
74,378	56,237	-0,238	-0,162
75,393	64,744	-0,366	-0,259
76,407	199,975	-0,213	-0,230
77,422	133,194	-0,169	-0,154
78,436	160,470	-0,275	-0,270
79,451	-45,195	-0,448	-0,155
80,466	48,971	-0,278	-0,183
81,480	64,268	-0,393	-0,277
82,495	122,103	-0,289	-0,253
83,509	16,114	-0,310	-0,171
84,524	94,029	-0,363	-0,289
85,539	-93,277	-0,335	-0,065
86,553	8,062	-0,302	-0,159
87,568	41,079	-0,289	-0,183
88,582	121,569	-0,337	-0,295
89,597	207,053	-0,302	-0,331
90,611	29,149	-0,266	-0,158
91,626	11,849	-0,238	-0,128
92,641	131,961	-0,283	-0,255
93,655	105,479	-0,324	-0,268
94,670	585,289	-0,197	-0,341
95,684	161,731	-0,195	-0,191
96,699	19,659	-0,183	-0,103
97,714	123,463	-0,307	-0,270
98,728	6,285	-0,339	-0,176
99,743	72,461	-0,133	-0,097
100,757	150,789	-0,218	-0,208
101,772	201,653	-0,270	-0,292
102,787	42,890	-0,412	-0,263
103,801	82,153	-0,297	-0,225
104,816	112,673	-0,334	-0,283
105,830	104,907	-0,244	-0,201
106,845	107,110	-0,169	-0,141
107,860	-97,369	-0,373	-0,067
108,874	327,978	-0,273	-0,368
109,889	527,877	-0,225	-0,372
110,903	162,216	-0,282	-0,277
111,918	56,306	-0,189	-0,128
112,933	-72,565	-0,308	-0,079
113,947	133,852	-0,228	-0,207
114,962	123,564	-0,202	-0,177
115,976	64,228	-0,368	-0,259
116,991	118,581	-0,257	-0,222
118,006	-9,635	-0,166	-0,077
119,020	201,850	-0,179	-0,193
120,035	-24,288	-0,186	-0,077
121,049	41,728	-0,226	-0,143
122,064	-140,552	-0,330	0,024
123,079	-84,322	-0,169	0,037
124,093	203,427	-0,202	-0,219
125,108	800,000	-0,138	-0,369
126,122	800,000	-0,191	-0,409
127,137	297,668	-0,161	-0,207
128,151	-66,835	-0,288	-0,079
129,166	197,563	-0,224	-0,239
130,181	311,088	-0,165	-0,216
131,195	-32,844	-0,311	-0,120
132,210	3,862	-0,372	-0,189
133,224	-96,409	-0,253	-0,046
134,239	-4,906	-0,206	-0,099
135,254	152,118	-0,242	-0,231
136,268	240,194	-0,157	-0,183
137,283	110,547	-0,273	-0,229
138,297	51,830	-0,290	-0,192
139,312	489,778	-0,171	-0,274
140,327	124,518	-0,177	-0,155
141,341	211,399	-0,213	-0,235
142,356	-2,394	-0,221	-0,108
143,370	41,004	-0,301	-0,189
144,385	-0,104	-0,334	-0,165
145,400	800,000	-0,097	-0,297
146,414	188,965	-0,280	-0,293
147,429	358,609	-0,158	-0,220
148,443	90,342	-0,269	-0,210
149,458	26,823	-0,199	-0,116
150,473	66,799	-0,211	-0,149
151,487	36,459	-0,235	-0,144
152,502	-162,120	-0,287	-0,010
153,516	74,382	-0,236	-0,173
154,531	73,541	-0,237	-0,173
155,546	18,538	-0,237	-0,132
156,560	154,756	-0,204	-0,195
157,575	-134,972	-0,251	-0,021
158,589	-45,955	-0,240	-0,082
159,604	395,962	-0,238	-0,347
160,619	52,948	-0,280	-0,187
161,633	74,985	-0,276	-0,203
162,648	-106,171	-0,319	-0,049
163,662	-12,102	-0,211	-0,096
164,677	116,089	-0,293	-0,250
165,692	152,337	-0,223	-0,213
166,706	325,861	-0,243	-0,325
167,721	209,699	-0,219	-0,239
168,735	201,269	-0,181	-0,194
169,750	-10,130	-0,347	-0,160
170,764	88,578	-0,176	-0,136
171,779	13,260	-0,195	-0,105
172,794	354,713	-0,150	-0,209
173,808	-44,365	-0,274	-0,095
174,823	236,279	-0,269	-0,311
175,837	588,232	-0,150	-0,259
176,852	18,262	-0,275	-0,152
177,867	51,081	-0,229	-0,151
178,881	-27,571	-0,285	-0,115
179,896	90,129	-0,229	-0,178
180,910	646,048	-0,120	-0,214
181,925	112,976	-0,228	-0,192
182,940	168,196	-0,184	-0,182
183,954	221,937	-0,187	-0,210
184,969	-98,607	-0,290	-0,051
185,983	-110,053	-0,127	-0,018
186,998	126,558	-0,168	-0,148
188,013	201,945	-0,263	-0,282
189,027	241,722	-0,147	-0,171
190,042	225,964	-0,235	-0,265
191,056	-94,910	-0,194	-0,036
192,071	-78,531	-0,280	-0,066
193,086	-64,554	-0,230	-0,064
194,100	-14,752	-0,215	-0,096
195,115	-11,862	-0,279	-0,127
196,129	117,582	-0,240	-0,206
197,144	161,447	-0,267	-0,260
198,159	15,788	-0,216	-0,118
199,173	-6,909	-0,241	-0,113
200,188	167,911	-0,148	-0,147
201,202	43,039	-0,218	-0,138
202,217	-67,302	-0,273	-0,074
203,232	289,676	-0,204	-0,258
204,246	800,000	-0,149	-0,318
205,261	533,096	-0,146	-0,241
206,275	55,963	-0,177	-0,119
207,290	117,220	-0,182	-0,155
208,304	34,842	-0,166	-0,101
209,319	-9,354	-0,276	-0,127
210,334	23,914	-0,315	-0,180
211,348	800,000	-0,167	-0,339
212,363	123,998	-0,175	-0,152
213,377	800,000	-0,120	-0,315
214,392	-63,190	-0,147	-0,042
215,407	275,641	-0,056	-0,069
216,421	62,552	-0,245	-0,170
217,436	203,762	-0,233	-0,251
218,450	618,609	-0,109	-0,190
219,465	800,000	-0,067	-0,164
220,480	158,076	-0,258	-0,249
221,494	800,000	-0,098	-0,218
222,509	69,799	-0,121	-0,086
223,523	10,896	-0,214	-0,113
224,538	150,380	-0,247	-0,232
225,553	55,671	-0,307	-0,206
226,567	254,351	-0,209	-0,248
227,582	25,800	-0,204	-0,118
228,596	113,943	-0,230	-0,194
229,611	178,281	-0,109	-0,111
230,626	-54,689	-0,160	-0,050
231,640	315,311	-0,089	-0,116
232,655	83,286	-0,119	-0,089
233,669	3,039	-0,198	-0,099
234,684	11,947	-0,228	-0,121
235,699	165,584	-0,176	-0,173
236,713	800,000	-0,083	-0,178
237,728	15,552	-0,189	-0,103
238,742	800,000	-0,057	-0,113
239,757	-69,340	-0,250	-0,066
240,772	800,000	-0,077	-0,170
241,786	159,890	-0,134	-0,129
242,801	-156,196	-0,165	0,007
243,815	-73,917	-0,182	0,045
244,830	223,517	-0,209	-0,234
245,844	179,830	-0,108	-0,109
246,859	-18,075	-0,186	-0,080
247,874	385,489	-0,130	-0,186
248,888	89,958	-0,282	-0,218
249,903	56,886	-0,141	-0,095
250,917	131,037	-0,199	-0,176
251,932	-8,606	-0,223	-0,103
252,947	-53,454	-0,076	-0,024
253,961	17,710	-0,269	-0,148
254,976	-26,785	-0,270	-0,109
255,990	471,798	-0,182	-0,284
257,005	800,000	-0,056	-0,144
258,020	16,223	-0,122	-0,066
259,034	295,811	-0,163	-0,207
260,049	103,612	-0,206	-0,167
261,063	144,239	-0,118	-0,109
262,078	62,190	-0,183	-0,126
263,093	800,000	-0,035	-0,078
264,107	0,568	-0,248	-0,122
265,122	-116,160	-0,078	-0,010
266,136	42,570	-0,081	-0,051
267,151	800,000	-0,119	-0,246
268,166	310,458	-0,167	-0,216
269,180	17,903	-0,202	-0,111
270,195	32,525	-0,175	-0,104
271,209	-53,831	-0,180	-0,056
272,224	-111,433	-0,168	0,023
273,239	197,935	-0,108	-0,115
274,253	72,024	-0,255	-0,183
275,268	8,876	-0,144	-0,075
276,282	190,265	-0,226	-0,235
277,297	182,447	-0,170	-0,173
278,312	19,888	-0,204	-0,113
279,326	-24,383	-0,143	-0,059
280,341	-2,079	-0,147	-0,071
281,355	-200,000	-0,017	-0,145
282,370	20,415	-0,249	-0,139
283,384	-91,005	-0,181	-0,035
284,399	93,234	-0,174	-0,136
285,414	19,470	-0,325	-0,180
286,428	488,596	-0,129	-0,204
287,443	-173,137	-0,108	-0,002
288,457	-35,218	-0,128	0,048
289,472	0,423	-0,153	-0,075
290,487	-61,150	-0,135	-0,039
291,501	-200,000	-0,026	-0,158
292,516	800,000	-0,090	-0,173
293,530	-101,614	-0,227	-0,038
294,545	-2,325	-0,064	-0,031
295,560	238,775	-0,074	-0,085
296,574	800,000	-0,081	-0,196
297,589	157,143	-0,174	-0,166
298,603	237,947	-0,228	-0,261
299,618	137,705	-0,180	-0,162
300,633	601,604	-0,162	-0,279
301,647	-20,327	-0,125	0,053
302,662	-3,384	-0,168	0,080
303,676	-73,081	-0,208	-0,052
304,691	471,111	-0,036	-0,055
305,706	9,263	-0,127	-0,066
306,720	78,603	-0,174	-0,128
307,735	800,000	-0,070	-0,142
308,749	-200,000	-0,016	-0,156
309,764	49,613	-0,126	-0,082
310,779	44,210	-0,260	-0,164
311,793	15,027	-0,243	-0,131
312,808	137,733	-0,111	-0,100
313,822	-101,921	-0,121	-0,020
314,837	-11,186	-0,237	-0,107
315,852	-6,037	-0,153	-0,072
316,866	-30,963	-0,073	-0,028
317,881	41,870	-0,144	-0,090
318,895	-200,000	0,021	-0,091
319,910	160,782	-0,037	-0,036
320,925	800,000	-0,120	-0,269
321,939	131,291	-0,127	-0,112
322,954	1,424	-0,132	0,065
323,968	-12,823	-0,168	-0,075
324,983	33,066	-0,187	-0,111
325,997	-166,786	-0,156	0,004
327,012	2,088	-0,147	-0,073
328,027	110,895	-0,133	-0,110
329,041	10,177	-0,139	-0,072
330,056	79,780	-0,194	-0,143
331,070	83,560	-0,116	-0,087
332,085	205,039	-0,056	0,060
333,100	800,000	-0,063	-0,172
334,114	-38,921	-0,168	-0,061
335,129	5,078	-0,176	-0,089
336,143	-120,115	-0,122	0,014
337,158	-136,292	-0,091	0,007
338,173	-80,899	-0,168	-0,038
339,187	148,813	-0,074	-0,069
340,202	32,005	-0,150	-0,089
341,216	-8,787	-0,211	-0,097
342,231	43,648	-0,270	-0,169
343,246	-74,294	-0,206	-0,051
344,260	31,489	-0,220	-0,130
345,275	120,223	-0,051	-0,044
346,289	178,201	-0,006	-0,006
347,304	333,930	0,017	-0,022
348,319	-91,657	-0,196	-0,038
349,333	-43,660	-0,205	-0,070
350,348	-126,232	-0,111	0,011
351,362	181,005	-0,133	-0,134
352,377	800,000	-0,080	-0,153
353,392	-200,000	0,006	0,074
354,406	-200,000	-0,143	0,000
355,421	209,363	1313,198	1411,878
356,435	161,128	1473,770	1412,388
