DTS Sentinel unit serial number:	SN410029Multiplexer serial number:	ORYXHardware model number:	OX2-SRSoftware version number:	ORYX F/W v4,00 Oryx Data Collector v3.7.2.0data status	okinstallation	B3 Nyhavnadifferential loss correction	single-endedforward channel	channel 1reverse channel	N/Adate	2023/12/02time	17:27:30forward acquisition time	300,00reverse acquisition time	0,00gamma	499,1914k internal	0,3199k external	0,3199temperature offset calibration	1,0000default loss term (dB/km)	0,3820temperature slope calibration	1,0000multiplexer offset coefficient	1,0000multiplexer slope coefficient	1,0000fibre end	0,00T internal ref (°C)	13,85T ext. ref 1 (°C)	-1,57T ext. ref 2 (°C)	-1,59length (m)	temperature (°C)	Stokes	anti-Stokes-744,400	529,806	-0,168	-0,290
-743,385	-200,000	-0,010	0,192
-742,371	482,424	-0,131	-0,218
-741,356	-200,000	0,030	0,397
-740,342	300,522	-0,179	-0,241
-739,327	-200,000	0,058	0,197
-738,312	442,404	-0,133	-0,213
-737,298	-200,000	0,087	0,281
-736,283	510,094	-0,154	-0,262
-735,269	-200,000	0,030	0,336
-734,254	494,829	-0,183	-0,307
-733,239	68,591	-0,194	0,144
-732,225	580,429	-0,129	-0,230
-731,210	43,337	0,078	0,052
-730,196	-0,520	0,191	-0,098
-729,181	217,014	-0,055	-0,063
-728,167	53,038	-0,124	0,086
-727,152	-96,958	0,061	-0,012
-726,137	-200,000	-0,020	-0,072
-725,123	105,365	0,048	-0,041
-724,108	-200,000	-0,014	-0,132
-723,094	160,016	-0,044	-0,044
-722,079	168,854	-0,023	-0,024
-721,064	-68,895	0,194	-0,054
-720,050	800,000	0,064	-0,182
-719,035	360,559	-0,078	-0,114
-718,021	105,363	-0,060	-0,051
-717,006	86,158	-0,084	-0,067
-715,991	800,000	-0,027	-0,086
-714,977	-133,738	-0,059	-0,005
-713,962	491,843	-0,014	0,023
-712,948	-200,000	-0,001	0,074
-711,933	800,000	-0,049	0,103
-710,918	-136,404	-0,134	-0,011
-709,904	-82,892	-0,061	-0,014
-708,889	179,885	-0,060	0,064
-707,875	-200,000	-0,030	-0,112
-706,860	77,796	0,060	-0,046
-705,845	18,262	0,026	0,015
-704,831	251,622	0,047	0,058
-703,816	233,712	0,117	0,140
-702,802	113,421	-0,088	-0,078
-701,787	-112,534	0,029	-0,004
-700,772	-200,000	-0,037	-0,282
-699,758	305,403	0,071	-0,096
-698,743	104,970	0,028	-0,024
-697,729	-158,943	0,184	0,007
-696,714	-109,276	-0,090	-0,014
-695,699	-93,762	-0,097	0,019
-694,685	166,855	-0,088	0,091
-693,670	800,000	-0,038	-0,119
-692,656	368,010	-0,065	0,096
-691,641	-45,146	0,100	-0,036
-690,627	350,907	-0,030	-0,043
-689,612	304,835	-0,042	-0,057
-688,597	-100,698	-0,087	0,015
-687,583	333,202	-0,028	0,039
-686,568	30,957	-0,067	-0,042
-685,554	766,037	0,058	-0,115
-684,539	206,387	0,107	0,121
-683,524	147,565	-0,066	0,065
-682,510	342,113	-0,039	-0,056
-681,495	-200,000	-0,020	-0,072
-680,481	-136,444	-0,137	0,011
-679,466	651,121	-0,077	-0,144
-678,451	16,063	-0,066	0,038
-677,437	140,987	0,090	0,086
-676,422	-44,607	-0,124	0,045
-675,408	170,026	-0,055	0,057
-674,393	131,694	0,009	0,009
-673,378	221,533	-0,074	-0,087
-672,364	-200,000	-0,147	-0,000
-671,349	47,282	-0,114	-0,077
-670,335	299,467	0,087	0,117
-669,320	-149,371	0,084	0,005
-668,305	-77,862	-0,152	-0,038
-667,291	-200,000	0,004	-0,053
-666,276	-75,917	-0,142	0,036
-665,262	-21,558	0,076	-0,034
-664,247	148,075	-0,122	-0,119
-663,232	25,236	0,086	-0,052
-662,218	53,828	-0,082	0,057
-661,203	88,010	0,043	0,035
-660,189	-11,994	-0,081	-0,038
-659,174	-200,000	-0,017	-0,110
-658,159	-96,133	-0,044	0,008
-657,145	-45,741	-0,121	-0,043
-656,130	-123,407	0,053	-0,006
-655,116	13,789	0,111	-0,062
-654,101	-200,000	0,008	-0,074
-653,086	120,427	-0,065	0,059
-652,072	1,600	0,023	-0,012
-651,057	222,871	-0,013	0,016
-650,043	-97,414	0,066	0,012
-649,028	-200,000	-0,058	-0,199
-648,014	-200,000	-0,004	-0,052
-646,999	-200,000	0,001	0,057
-645,984	426,254	0,068	-0,106
-644,970	-200,000	0,004	0,030
-643,955	-25,437	-0,095	-0,040
-642,941	800,000	-0,042	-0,092
-641,926	-200,000	-0,003	-0,154
-640,911	-197,013	0,047	-0,000
-639,897	213,807	-0,028	-0,032
-638,882	471,442	0,041	0,067
-637,868	33,699	0,111	-0,070
-636,853	166,410	-0,042	-0,044
-635,838	-56,873	-0,103	-0,033
-634,824	-64,414	-0,091	-0,027
-633,809	156,368	-0,084	0,084
-632,795	-14,822	-0,069	0,032
-631,780	-62,685	0,142	0,042
-630,765	95,758	0,036	-0,029
-629,751	171,868	-0,128	-0,133
-628,736	-200,000	0,032	-0,131
-627,722	-200,000	0,001	-0,030
-626,707	800,000	-0,041	0,102
-625,692	-200,000	-0,002	-0,011
-624,678	138,905	-0,089	-0,084
-623,663	-200,000	0,001	-0,031
-622,649	197,782	-0,094	-0,104
-621,634	-200,000	0,004	-0,110
-620,619	187,270	0,122	0,132
-619,605	-200,000	0,025	-0,083
-618,590	-56,963	-0,044	0,014
-617,576	54,440	-0,045	0,032
-616,561	155,272	-0,119	-0,119
-615,546	-200,000	-0,035	0,134
-614,532	311,223	-0,083	-0,114
-613,517	374,826	-0,022	0,033
-612,503	-65,752	0,093	-0,027
-611,488	-53,091	0,197	0,065
-610,474	571,572	-0,022	0,039
-609,459	-134,589	-0,111	-0,010
-608,444	-200,000	0,001	-0,099
-607,430	-50,433	-0,181	0,061
-606,415	60,663	-0,062	0,044
-605,401	800,000	0,007	-0,021
-604,386	-125,972	0,107	0,012
-603,371	-114,233	-0,086	-0,012
-602,357	-80,512	-0,092	0,022
-601,342	-200,000	0,141	0,000
-600,328	30,576	-0,143	-0,088
-599,313	113,047	-0,096	-0,084
-598,298	800,000	0,046	-0,106
-597,284	27,904	-0,103	-0,063
-596,269	-43,594	0,194	0,071
-595,255	347,339	0,092	-0,131
-594,240	118,994	0,071	0,063
-593,225	-106,402	0,048	0,008
-592,211	-71,989	-0,060	-0,016
-591,196	-200,000	-0,014	-0,092
-590,182	-38,438	-0,044	0,017
-589,167	367,911	0,075	0,109
-588,152	-200,000	0,055	0,186
-587,138	224,160	0,067	-0,079
-586,123	-200,000	-0,075	-0,325
-585,109	521,032	0,071	-0,121
-584,094	-163,065	-0,110	-0,004
-583,079	-200,000	0,036	0,182
-582,065	599,665	-0,042	0,075
-581,050	-53,457	0,057	-0,019
-580,036	-46,408	-0,081	0,029
-579,021	609,435	0,017	-0,030
-578,006	136,110	-0,013	0,013
-576,992	-200,000	0,003	-0,011
-575,977	46,287	-0,029	0,020
-574,963	800,000	0,039	0,083
-573,948	-115,447	0,059	0,008
-572,934	-61,100	-0,061	-0,019
-571,919	399,822	-0,034	-0,052
-570,904	142,437	-0,044	-0,042
-569,890	213,739	-0,058	0,067
-568,875	287,720	0,093	-0,121
-567,861	40,499	-0,043	0,028
-566,846	-200,000	0,002	0,156
-565,831	-114,571	-0,058	0,008
-564,817	800,000	-0,057	0,155
-563,802	800,000	-0,024	-0,063
-562,788	566,154	0,006	0,010
-561,773	63,591	-0,052	0,038
-560,758	-76,888	0,058	0,015
-559,744	127,590	-0,054	-0,050
-558,729	-62,442	0,097	-0,029
-557,715	-88,413	0,130	0,028
-556,700	21,479	-0,074	-0,043
-555,685	-200,000	-0,012	-0,060
-554,671	-200,000	-0,024	-0,114
-553,656	93,265	0,059	0,049
-552,642	506,067	0,041	0,069
-551,627	-91,702	-0,053	0,011
-550,612	-200,000	0,026	-0,225
-549,598	800,000	0,041	-0,097
-548,583	172,838	0,098	-0,102
-547,569	47,761	0,067	0,045
-546,554	-54,607	0,083	-0,027
-545,539	25,556	0,145	0,087
-544,525	49,211	-0,061	0,041
-543,510	619,189	-0,033	0,061
-542,496	339,211	-0,023	0,033
-541,481	123,035	0,087	-0,079
-540,466	226,604	-0,118	0,139
-539,452	800,000	-0,031	-0,096
-538,437	603,548	0,036	-0,065
-537,423	673,841	-0,021	0,040
-536,408	409,631	0,024	0,037
-535,393	265,189	-0,017	-0,021
-534,379	-200,000	-0,028	-0,159
-533,364	12,194	-0,081	-0,045
-532,350	17,142	-0,073	-0,041
-531,335	-33,796	0,069	-0,027
-530,321	96,493	0,089	0,074
-529,306	30,315	-0,101	-0,062
-528,291	-117,562	-0,115	-0,015
-527,277	443,055	0,053	-0,085
-526,262	-54,394	-0,108	-0,035
-525,248	-183,013	0,095	-0,001
-524,233	460,477	0,111	-0,178
-523,218	-86,751	0,075	0,016
-522,204	-67,398	-0,136	-0,038
-521,189	58,496	0,071	-0,050
-520,175	-200,000	0,004	-0,059
-519,160	-0,127	-0,096	0,049
-518,145	-168,122	-0,045	-0,001
-517,131	108,021	0,066	0,057
-516,116	-119,820	0,055	-0,007
-515,102	147,071	-0,030	-0,029
-514,087	31,180	-0,044	0,027
-513,072	-68,338	-0,105	-0,029
-512,058	696,944	0,072	-0,136
-511,043	87,223	0,078	0,062
-510,029	447,219	0,045	0,071
-509,014	800,000	0,029	0,076
-507,999	141,689	0,009	0,009
-506,985	103,382	0,078	0,066
-505,970	-200,000	-0,019	0,142
-504,956	-47,676	0,010	-0,003
-503,941	-25,594	-0,070	-0,030
-502,926	234,716	0,141	0,168
-501,912	-48,453	0,065	-0,022
-500,897	13,358	0,065	-0,036
-499,883	-26,727	0,041	-0,017
-498,868	-200,000	0,016	-0,164
-497,853	9,231	-0,067	0,037
-496,839	71,249	0,098	-0,073
-495,824	-200,000	0,009	-0,063
-494,810	-23,029	-0,038	-0,017
-493,795	560,768	-0,065	0,114
-492,781	455,826	-0,027	-0,044
-491,766	-200,000	-0,023	0,115
-490,751	-200,000	0,020	-0,070
-489,737	800,000	0,022	-0,048
-488,722	-200,000	0,011	0,081
-487,708	-126,880	0,126	0,013
-486,693	-41,393	-0,143	0,053
-485,678	14,764	-0,046	-0,026
-484,664	-75,383	-0,132	0,034
-483,649	-60,815	-0,096	0,029
-482,635	-51,526	0,034	0,011
-481,620	-40,700	0,140	0,052
-480,605	-200,000	-0,016	-0,094
-479,591	-136,384	0,052	-0,004
-478,576	-200,000	-0,047	-0,151
-477,562	104,727	0,015	0,013
-476,547	-200,000	-0,014	-0,136
-475,532	-200,000	0,008	0,049
-474,518	595,832	0,033	-0,059
-473,503	23,042	0,101	0,060
-472,489	542,826	0,060	0,104
-471,474	-200,000	-0,011	-0,048
-470,459	437,953	-0,016	-0,026
-469,445	324,126	-0,064	-0,088
-468,430	6,789	0,115	-0,061
-467,416	-156,699	-0,051	-0,002
-466,401	-163,610	0,142	-0,005
-465,386	-200,000	-0,007	0,061
-464,372	-20,316	-0,140	0,062
-463,357	-92,284	-0,157	0,032
-462,343	800,000	-0,065	-0,196
-461,328	438,173	0,054	-0,085
-460,313	-200,000	0,012	-0,040
-459,299	800,000	0,044	0,123
-458,284	665,075	0,032	0,059
-457,270	19,511	-0,018	-0,010
-456,255	21,936	-0,114	-0,067
-455,241	-41,819	0,075	0,027
-454,226	223,141	0,082	-0,095
-453,211	-200,000	-0,031	-0,139
-452,197	-200,000	0,040	0,133
-451,182	591,081	-0,061	0,108
-450,168	191,534	-0,023	-0,025
-449,153	800,000	-0,017	-0,038
-448,138	-114,696	-0,084	0,011
-447,124	313,733	0,028	0,038
-446,109	163,353	0,027	-0,027
-445,095	-89,545	0,055	0,011
-444,080	274,909	-0,028	0,036
-443,065	55,951	0,075	0,052
-442,051	800,000	-0,025	0,055
-441,036	136,598	-0,091	0,086
-440,022	-32,481	-0,048	-0,019
-439,007	800,000	-0,081	0,191
-437,992	288,980	0,068	0,089
-436,978	5,168	0,261	0,138
-435,963	-122,302	-0,087	-0,010
-434,949	-4,126	0,033	-0,016
-433,934	-88,909	-0,048	0,010
-432,919	-46,328	0,068	0,024
-431,905	-200,000	-0,007	0,174
-430,890	-9,166	-0,077	-0,037
-429,876	366,945	0,032	0,047
-428,861	32,008	0,103	-0,063
-427,846	-200,000	-0,018	-0,093
-426,832	-81,437	0,054	-0,013
-425,817	-46,168	-0,066	-0,023
-424,803	1,865	-0,030	-0,015
-423,788	-65,715	0,100	0,029
-422,773	800,000	0,053	0,158
-421,759	257,962	-0,066	0,082
-420,744	138,667	-0,070	0,066
-419,730	-119,785	-0,079	-0,010
-418,715	199,020	-0,097	0,107
-417,701	78,195	-0,140	0,108
-416,686	190,119	-0,071	0,077
-415,671	51,889	-0,035	0,024
-414,657	-142,035	-0,097	0,007
-413,642	780,271	-0,026	-0,052
-412,628	-102,840	-0,124	-0,021
-411,613	-200,000	0,008	0,098
-410,598	-200,000	0,062	-0,248
-409,584	-65,268	0,028	-0,008
-408,569	122,115	0,153	-0,137
-407,555	-122,122	0,144	-0,017
-406,540	199,225	0,050	-0,055
-405,525	498,439	0,029	0,048
-404,511	800,000	-0,050	-0,116
-403,496	-200,000	0,009	-0,071
-402,482	800,000	0,048	0,119
-401,467	221,721	0,019	0,022
-400,452	160,984	0,085	0,085
-399,438	13,319	0,070	0,039
-398,423	-107,875	-0,095	-0,015
-397,409	-200,000	0,018	-0,072
-396,394	51,182	0,085	-0,058
-395,379	-3,256	0,079	0,039
-394,365	-200,000	0,003	-0,141
-393,350	-159,812	0,276	-0,011
-392,336	8,554	-0,086	0,047
-391,321	73,293	-0,079	-0,059
-390,306	-200,000	-0,033	0,126
-389,292	46,844	-0,059	-0,039
-388,277	-200,000	-0,006	0,069
-387,263	81,432	0,060	-0,046
-386,248	-200,000	0,003	0,054
-385,233	800,000	0,039	0,092
-384,219	-200,000	0,021	0,070
-383,204	6,426	-0,091	-0,048
-382,190	17,002	-0,016	-0,009
-381,175	800,000	0,014	0,033
-380,160	5,595	-0,057	0,030
-379,146	213,753	-0,152	0,173
-378,131	80,303	0,130	0,100
-377,117	471,113	0,054	0,087
-376,102	77,998	-0,107	0,082
-375,088	800,000	-0,019	0,055
-374,073	697,928	0,080	0,151
-373,058	800,000	0,035	0,076
-372,044	800,000	0,036	0,086
-371,029	170,710	-0,007	0,008
-370,015	3,841	-0,093	-0,048
-369,000	-0,684	0,055	0,028
-367,985	50,625	-0,046	-0,031
-366,971	800,000	0,020	-0,056
-365,956	9,765	-0,104	-0,056
-364,942	-54,654	0,069	0,022
-363,927	-118,214	0,123	0,015
-362,912	98,188	-0,064	0,053
-361,898	517,674	-0,042	0,071
-360,883	-200,000	-0,003	0,040
-359,869	-17,905	-0,128	0,057
-358,854	5,259	0,032	0,017
-357,839	119,282	-0,151	0,134
-356,825	-200,000	-0,031	0,102
-355,810	-18,840	0,151	0,067
-354,796	-200,000	0,001	0,040
-353,781	800,000	0,063	-0,137
-352,766	440,930	0,041	-0,064
-351,752	37,138	-0,103	-0,065
-350,737	4,373	0,048	0,025
-349,723	-200,000	-0,020	0,089
-348,708	-200,000	-0,017	-0,054
-347,693	-9,805	-0,065	-0,031
-346,679	800,000	-0,067	-0,134
-345,664	-15,398	0,036	0,016
-344,650	800,000	0,026	-0,079
-343,635	760,447	0,045	0,088
-342,620	-200,000	0,000	-0,076
-341,606	-200,000	-0,012	0,100
-340,591	-200,000	-0,016	-0,101
-339,577	-200,000	-0,008	-0,049
-338,562	-28,030	-0,105	0,043
-337,548	327,413	-0,060	0,082
-336,533	800,000	0,072	0,181
-335,518	46,665	-0,094	-0,063
-334,504	-200,000	-0,003	0,065
-333,489	44,956	0,092	0,061
-332,475	376,378	0,114	-0,167
-331,460	-200,000	-0,007	-0,253
-330,445	-200,000	0,047	-0,158
-329,431	667,717	-0,038	0,070
-328,416	800,000	0,017	0,034
-327,402	-39,200	0,048	-0,018
-326,387	800,000	0,018	-0,045
-325,372	-150,598	0,027	0,001
-324,358	362,923	-0,030	-0,043
-323,343	-200,000	-0,029	-0,111
-322,329	336,129	-0,032	0,045
-321,314	582,048	-0,052	-0,092
-320,299	-61,553	0,106	0,032
-319,285	-157,147	-0,054	-0,002
-318,270	146,596	-0,054	-0,052
-317,256	-63,535	-0,031	0,009
-316,241	364,042	0,115	-0,166
-315,226	-194,482	0,108	-0,001
-314,212	132,019	0,098	0,090
-313,197	130,849	0,127	0,116
-312,183	-46,679	0,075	-0,026
-311,168	-200,000	-0,005	-0,170
-310,153	316,852	-0,120	-0,163
-309,139	-200,000	0,006	0,058
-308,124	-200,000	-0,031	0,201
-307,110	155,087	-0,038	0,037
-306,095	-17,109	0,145	0,065
-305,080	-200,000	-0,010	0,034
-304,066	-200,000	0,012	-0,090
-303,051	99,497	-0,049	0,041
-302,037	25,294	-0,152	-0,090
-301,022	-200,000	-0,007	-0,111
-300,008	44,182	0,090	0,059
-298,993	-57,071	-0,086	0,027
-297,978	-35,751	-0,101	-0,039
-296,964	-200,000	0,002	0,073
-295,949	-140,679	-0,139	-0,010
-294,935	423,015	-0,048	0,073
-293,920	96,235	0,073	-0,060
-292,905	-108,867	-0,075	-0,011
-291,891	3,977	0,102	0,053
-290,876	9,431	0,053	0,028
-289,862	-200,000	0,009	-0,033
-288,847	68,706	-0,091	-0,066
-287,832	342,179	0,027	-0,038
-286,818	-36,168	-0,135	-0,052
-285,803	14,728	0,095	0,053
-284,789	-72,795	0,080	0,021
-283,774	82,272	-0,075	-0,058
-282,759	2,372	-0,115	-0,059
-281,745	-102,320	0,091	0,015
-280,730	-200,000	-0,022	-0,123
-279,716	-107,763	-0,135	-0,021
-278,701	-200,000	0,018	0,133
-277,686	-200,000	0,053	0,202
-276,672	234,581	0,089	0,105
-275,657	-200,000	0,006	0,063
-274,643	-200,000	0,010	-0,093
-273,628	-200,000	-0,012	-0,038
-272,613	-200,000	-0,027	-0,153
-271,599	546,304	0,052	-0,090
-270,584	229,399	0,013	0,015
-269,570	436,454	-0,060	0,094
-268,555	800,000	0,022	-0,057
-267,540	-31,089	-0,094	-0,038
-266,526	88,521	0,004	-0,003
-265,511	377,563	-0,056	0,083
-264,497	-76,554	0,137	0,034
-263,482	282,320	0,031	0,040
-262,467	14,517	0,034	-0,019
-261,453	-200,000	-0,009	-0,083
-260,438	-200,000	0,009	0,051
-259,424	139,551	-0,060	0,057
-258,409	-114,736	0,122	-0,016
-257,395	-77,080	0,086	0,021
-256,380	351,618	-0,071	0,101
-255,365	-92,135	0,054	-0,011
-254,351	37,865	0,069	0,044
-253,336	800,000	0,026	-0,072
-252,322	322,926	-0,072	0,099
-251,307	57,906	0,024	-0,017
-250,292	-141,322	0,067	0,005
-249,278	-165,576	-0,071	-0,002
-248,263	-200,000	0,001	0,122
-247,249	-79,906	0,088	0,021
-246,234	77,175	0,069	-0,052
-245,219	-32,812	0,071	0,028
-244,205	800,000	-0,052	-0,114
-243,190	-71,139	0,118	0,031
-242,176	42,315	0,034	0,022
-241,161	179,255	0,138	0,145
-240,146	-200,000	-0,012	0,084
-239,132	9,558	-0,125	-0,067
-238,117	251,884	-0,034	0,042
-237,103	270,390	-0,035	0,044
-236,088	800,000	-0,048	-0,096
-235,073	-31,141	0,002	-0,001
-234,059	-139,197	0,125	-0,009
-233,044	800,000	-0,028	0,064
-232,030	-42,748	-0,103	0,037
-231,015	69,399	-0,071	-0,052
-230,000	-9,781	-0,068	0,032
-228,986	87,814	0,058	0,046
-227,971	-177,646	-0,016	0,000
-226,957	-112,525	0,021	0,003
-225,942	158,081	0,059	-0,058
-224,927	800,000	-0,047	0,141
-223,913	-144,254	-0,103	-0,007
-222,898	340,059	0,030	-0,042
-221,884	-200,000	-0,004	-0,040
-220,869	18,466	-0,073	0,041
-219,855	433,248	0,045	-0,070
-218,840	-200,000	-0,035	0,113
-217,825	-200,000	-0,001	-0,088
-216,811	-200,000	-0,013	-0,121
-215,796	800,000	-0,024	-0,049
-214,782	800,000	-0,013	0,036
-213,767	800,000	-0,020	0,052
-212,752	10,220	0,043	-0,023
-211,738	252,854	0,093	0,113
-210,723	-200,000	-0,012	0,072
-209,709	800,000	0,003	0,009
-208,694	63,032	0,108	0,077
-207,679	800,000	-0,058	-0,121
-206,665	691,808	0,073	0,137
-205,650	-200,000	0,014	-0,046
-204,636	129,138	0,021	0,020
-203,621	-36,297	-0,092	0,035
-202,606	800,000	-0,036	-0,105
-201,592	766,422	-0,022	0,043
-200,577	800,000	-0,002	-0,006
-199,563	800,000	-0,040	-0,093
-198,548	-78,410	-0,032	-0,008
-197,533	-65,918	0,063	-0,018
-196,519	477,325	-0,029	-0,048
-195,504	-77,426	-0,075	-0,019
-194,490	-200,000	0,010	-0,130
-193,475	390,644	-0,026	-0,038
-192,460	6,030	-0,043	-0,023
-191,446	263,560	0,044	-0,054
-190,431	800,000	-0,034	0,095
-189,417	143,561	-0,143	0,136
-188,402	103,745	-0,061	0,051
-187,387	534,210	0,111	-0,188
-186,373	185,449	-0,057	-0,060
-185,358	-76,048	0,012	-0,003
-184,344	800,000	-0,016	0,041
-183,329	7,378	0,108	0,057
-182,315	782,007	0,034	-0,066
-181,300	263,767	0,093	0,116
-180,285	-108,827	-0,185	-0,028
-179,271	-65,886	-0,072	-0,020
-178,256	800,000	0,029	-0,072
-177,242	14,640	0,041	0,023
-176,227	-200,000	-0,004	-0,035
-175,212	800,000	-0,010	0,024
-174,198	800,000	0,052	0,138
-173,183	-75,575	-0,092	0,023
-172,169	-42,434	0,030	0,011
-171,154	-200,000	0,014	-0,049
-170,139	36,091	0,065	-0,040
-169,125	253,489	-0,080	-0,098
-168,110	136,552	-0,099	0,092
-167,096	16,925	0,095	0,054
-166,081	-200,000	-0,005	0,057
-165,066	-200,000	-0,002	0,034
-164,052	-200,000	-0,018	0,065
-163,037	6,113	0,163	-0,086
-162,023	-200,000	-0,022	0,115
-161,008	-200,000	0,011	0,114
-159,993	-200,000	0,004	0,044
-158,979	800,000	0,014	0,041
-157,964	199,049	-0,044	-0,048
-156,950	467,869	-0,055	0,088
-155,935	76,206	0,058	0,044
-154,920	-125,884	0,113	0,012
-153,906	223,343	0,016	0,018
-152,891	-184,442	0,119	0,001
-151,877	-200,000	-0,004	-0,033
-150,862	99,704	-0,062	0,051
-149,847	-200,000	0,038	-0,205
-148,833	-200,000	0,000	-0,091
-147,818	-99,047	-0,056	0,010
-146,804	394,654	-0,014	0,020
-145,789	800,000	-0,043	-0,122
-144,775	-200,000	0,024	0,126
-143,760	56,049	0,024	0,017
-142,745	202,469	-0,028	0,031
-141,731	-200,000	0,015	0,048
-140,716	145,790	0,090	0,086
-139,702	660,503	0,078	0,143
-138,687	-200,000	-0,007	0,085
-137,672	-146,986	-0,027	0,002
-136,658	-168,288	-0,102	0,003
-135,643	-41,790	-0,136	-0,049
-134,629	-90,079	0,103	-0,021
-133,614	167,023	0,148	-0,150
-132,599	-200,000	-0,009	0,041
-131,585	283,061	-0,097	0,124
-130,570	-200,000	-0,023	0,135
-129,556	215,719	-0,061	-0,068
-128,541	99,711	0,076	-0,062
-127,526	-51,656	0,183	-0,060
-126,512	294,151	0,047	-0,062
-125,497	84,912	0,049	-0,038
-124,483	-15,875	0,041	-0,018
-123,468	-123,143	-0,120	0,013
-122,453	800,000	-0,044	0,101
-121,439	-200,000	-0,004	0,108
-120,424	-88,426	-0,117	0,025
-119,410	-200,000	0,006	-0,065
-118,395	257,882	0,065	0,080
-117,380	-200,000	-0,007	0,032
-116,366	94,048	0,061	-0,049
-115,351	-31,535	-0,063	0,025
-114,337	-200,000	0,042	0,157
-113,322	173,750	0,079	0,081
-112,307	-200,000	0,015	0,138
-111,293	-200,000	-0,005	-0,105
-110,278	-153,032	-0,063	-0,003
-109,264	-103,690	0,133	-0,022
-108,249	800,000	0,031	0,061
-107,234	-4,634	0,186	-0,091
-106,220	59,071	-0,030	0,021
-105,205	-66,443	0,116	-0,032
-104,191	18,353	0,063	-0,035
-103,176	-87,567	-0,067	-0,014
-102,162	-78,509	-0,076	0,018
-101,147	800,000	0,023	-0,049
-100,132	800,000	-0,057	-0,122
-99,118	-15,199	-0,119	-0,054
-98,103	397,810	-0,065	-0,097
-97,089	46,140	-0,096	0,063
-96,074	161,441	0,061	-0,060
-95,059	-200,000	0,012	0,040
-94,045	587,056	0,027	-0,047
-93,030	-78,429	-0,102	0,025
-92,016	364,821	-0,110	-0,157
-91,001	112,119	-0,048	0,042
-89,986	800,000	-0,013	0,028
-88,972	104,877	-0,011	0,009
-87,957	264,285	0,068	0,085
-86,943	-102,594	-0,178	-0,030
-85,928	-91,227	-0,084	0,017
-84,913	302,566	-0,095	0,125
-83,899	107,385	0,051	0,043
-82,884	113,954	-0,052	-0,045
-81,870	85,811	0,054	0,042
-80,855	-39,459	0,049	0,018
-79,840	35,962	-0,127	-0,079
-78,826	-200,000	-0,014	-0,161
-77,811	78,340	0,038	-0,029
-76,797	-200,000	0,014	-0,108
-75,782	172,516	-0,105	0,107
-74,767	-200,000	0,002	-0,048
-73,753	777,706	-0,033	0,063
-72,738	-118,022	0,121	-0,015
-71,724	193,366	-0,083	-0,089
-70,709	-31,445	-0,083	-0,033
-69,694	390,666	0,116	-0,171
-68,680	186,161	-0,029	0,031
-67,665	540,647	0,058	0,098
-66,651	342,092	0,055	0,077
-65,636	-27,474	-0,047	-0,019
-64,622	-96,275	-0,188	0,035
-63,607	-200,000	0,036	-0,211
-62,592	-140,702	0,118	-0,009
-61,578	-119,019	-0,085	-0,010
-60,563	800,000	0,016	0,047
-59,549	-200,000	-0,028	0,099
-58,534	-25,335	-1,573	-0,656
-57,519	351,252	-1,489	-2,095
-56,505	-200,000	-0,390	-4,512
-55,490	226,501	0,988	1,139
-54,476	800,000	4,971	11,355
-53,461	-200,000	18,755	312,055
-52,446	-200,000	739,339	2320,790
-51,432	573,559	1655,248	2871,086
-50,417	78,890	1670,763	1265,606
-49,403	21,864	1543,319	888,759
-48,388	15,726	1465,819	814,285
-47,373	17,861	1456,183	819,221
-46,359	16,827	1446,099	808,555
-45,344	14,006	1441,439	792,401
-44,330	13,914	1439,499	790,862
-43,315	13,896	1437,854	789,841
-42,300	13,901	1436,025	788,831
-41,286	13,929	1435,081	788,414
-40,271	13,883	1433,535	787,313
-39,257	13,887	1432,347	786,649
-38,242	13,954	1430,998	786,193
-37,227	13,987	1429,857	785,695
-36,213	13,969	1428,418	784,784
-35,198	13,929	1427,423	784,020
-34,184	13,996	1426,511	783,807
-33,169	13,919	1424,997	782,578
-32,154	13,983	1423,807	782,197
-31,140	13,925	1422,816	781,346
-30,125	13,988	1421,682	780,990
-29,111	13,980	1420,549	780,301
-28,096	13,939	1419,476	779,486
-27,082	13,892	1418,319	778,597
-26,067	13,842	1417,299	777,770
-25,052	13,933	1416,167	777,545
-24,038	13,838	1415,284	776,582
-23,023	13,828	1414,351	775,993
-22,009	13,857	1413,125	775,427
-20,994	13,859	1412,370	774,990
-19,979	13,809	1411,493	774,244
-18,965	13,821	1410,664	773,814
-17,950	13,800	1409,504	773,052
-16,936	13,804	1408,882	772,696
-15,921	13,812	1407,569	771,984
-14,906	13,796	1406,539	771,315
-13,892	13,761	1405,740	770,678
-12,877	13,746	1405,019	770,184
-11,863	13,804	1403,850	769,783
-10,848	13,819	1402,815	769,254
-9,833	13,721	1402,197	768,431
-8,819	13,718	1401,333	767,914
-7,804	13,706	1400,248	767,229
-6,790	13,727	1399,186	766,715
-5,775	13,694	1398,235	766,011
-4,760	13,689	1397,245	765,416
-3,746	13,693	1396,545	765,018
-2,731	13,712	1395,661	764,593
-1,717	13,666	1394,870	763,916
-0,702	13,671	1392,829	762,790
0,313	17,458	1310,693	735,385
1,327	33,735	705,085	433,296
2,342	51,522	123,945	83,260
3,356	3,079	16,557	8,493
4,371	-2,625	3,256	1,608
5,386	-65,182	0,670	0,190
6,400	-200,000	0,013	0,127
7,415	-51,945	-0,222	0,073
8,429	19,595	-0,283	-0,160
9,444	-12,264	-0,289	-0,133
10,459	5,187	-0,219	-0,114
11,473	52,405	-0,324	-0,218
12,488	325,176	-0,186	-0,253
13,502	64,663	-0,317	-0,226
14,517	48,631	-0,250	-0,165
15,531	2,204	-0,451	-0,230
16,546	37,060	-0,323	-0,201
17,561	6,852	-0,508	-0,266
18,575	107,824	-0,221	-0,186
19,590	152,525	-0,182	-0,176
20,604	-79,107	-0,320	-0,076
21,619	45,911	-0,528	-0,344
22,634	183,091	-0,442	-0,462
23,648	67,042	-0,511	-0,368
24,663	284,746	-0,374	-0,477
25,677	-21,201	-0,248	-0,107
26,692	86,881	-0,310	-0,242
27,707	295,191	-0,171	-0,222
28,721	-32,196	-0,455	-0,179
29,736	14,853	-0,425	-0,234
30,750	203,510	-0,437	-0,478
31,765	169,135	-0,418	-0,421
32,780	23,939	-0,329	-0,191
33,794	115,263	-0,410	-0,353
34,809	151,120	-0,278	-0,267
35,823	116,483	-0,384	-0,333
36,838	177,751	-0,320	-0,330
37,853	174,236	-0,322	-0,329
38,867	20,960	-0,331	-0,189
39,882	57,222	-0,396	-0,272
40,896	114,565	-0,266	-0,229
41,911	-26,673	-0,328	-0,135
42,926	7,583	-0,457	-0,240
43,940	25,239	-0,312	-0,182
44,955	68,774	-0,383	-0,277
45,969	100,718	-0,390	-0,319
46,984	-94,321	-0,287	-0,055
47,999	-68,356	-0,259	-0,070
49,013	138,965	-0,335	-0,310
50,028	24,176	-0,213	-0,123
51,042	29,130	-0,304	-0,182
52,057	78,183	-0,376	-0,283
53,071	96,850	-0,412	-0,332
54,086	212,535	-0,262	-0,292
55,101	20,527	-0,368	-0,209
56,115	45,966	-0,286	-0,186
57,130	231,546	-0,354	-0,410
58,144	123,127	-0,274	-0,242
59,159	82,208	-0,369	-0,282
60,174	-10,726	-0,372	-0,173
61,188	77,429	-0,231	-0,173
62,203	-14,171	-0,456	-0,206
63,217	-27,301	-0,333	-0,136
64,232	-97,343	-0,283	-0,051
65,247	57,670	-0,447	-0,308
66,261	77,773	-0,257	-0,193
67,276	-24,571	-0,306	-0,128
68,290	332,085	-0,186	-0,254
69,305	106,778	-0,214	-0,178
70,320	68,976	-0,238	-0,172
71,334	-2,554	-0,362	-0,178
72,349	86,097	-0,343	-0,265
73,363	51,831	-0,372	-0,249
74,378	66,311	-0,232	-0,166
75,393	-101,231	-0,403	-0,069
76,407	52,253	-0,379	-0,254
77,422	142,265	-0,235	-0,220
78,436	131,128	-0,315	-0,285
79,451	84,538	-0,452	-0,347
80,466	286,777	-0,206	-0,262
81,480	-22,932	-0,293	-0,124
82,495	28,747	-0,342	-0,203
83,509	44,619	-0,292	-0,188
84,524	-95,977	-0,365	-0,068
85,539	14,733	-0,365	-0,200
86,553	111,290	-0,362	-0,307
87,568	44,178	-0,267	-0,172
88,582	-28,503	-0,264	-0,107
89,597	26,490	-0,308	-0,180
90,611	127,726	-0,191	-0,171
91,626	-48,685	-0,371	-0,125
92,641	-85,217	-0,280	-0,061
93,655	11,677	-0,274	-0,148
94,670	76,517	-0,412	-0,307
95,684	52,702	-0,287	-0,192
96,699	-109,280	-0,370	-0,055
97,714	-64,858	-0,305	-0,086
98,728	-42,079	-0,254	-0,091
99,743	-68,978	-0,347	-0,093
100,757	-85,146	-0,162	-0,035
101,772	649,932	-0,170	-0,306
102,787	567,077	-0,189	-0,324
103,801	-82,455	-0,376	-0,085
104,816	-181,061	-0,375	-0,005
105,830	75,562	-0,334	-0,247
106,845	-82,281	-0,319	-0,072
107,860	32,778	-0,258	-0,156
108,874	35,648	-0,235	-0,145
109,889	15,445	-0,426	-0,234
110,903	508,586	-0,153	-0,250
111,918	-53,729	-0,294	-0,094
112,933	-132,037	-0,369	-0,033
113,947	1,898	-0,240	-0,121
114,962	79,302	-0,185	-0,139
115,976	64,162	-0,185	-0,130
116,991	19,590	-0,396	-0,223
118,006	176,787	-0,240	-0,245
119,020	-16,366	-0,274	-0,121
120,035	-105,993	-0,328	-0,051
121,049	106,208	-0,190	-0,158
122,064	16,902	-0,303	-0,168
123,079	-34,217	-0,312	-0,120
124,093	30,770	-0,229	-0,137
125,108	198,389	-0,211	-0,227
126,122	48,880	-0,244	-0,160
127,137	53,297	-0,259	-0,174
128,151	-9,192	-0,246	-0,115
129,166	-46,882	-0,376	-0,128
130,181	87,193	-0,250	-0,194
131,195	314,626	-0,238	-0,315
132,210	55,083	-0,349	-0,236
133,224	161,860	-0,190	-0,186
134,239	800,000	-0,085	-0,212
135,254	465,823	-0,184	-0,290
136,268	232,565	-0,272	-0,313
137,283	0,216	-0,138	-0,069
138,297	390,438	-0,226	-0,330
139,312	497,593	-0,109	-0,176
140,327	331,436	-0,135	-0,182
141,341	-66,776	-0,285	-0,078
142,356	713,811	-0,074	-0,137
143,370	-14,433	-0,148	-0,066
144,385	33,931	-0,268	-0,163
145,400	-60,530	-0,313	-0,092
146,414	-1,978	-0,306	-0,150
147,429	99,854	-0,261	-0,211
148,443	-20,638	-0,299	-0,128
149,458	11,457	-0,166	-0,089
150,473	-13,085	-0,178	-0,080
151,487	-21,179	-0,238	-0,101
152,502	482,966	-0,182	-0,291
153,516	51,453	-0,281	-0,186
154,531	95,695	-0,363	-0,289
155,546	74,360	-0,274	-0,201
156,560	202,313	-0,139	-0,150
157,575	-101,085	-0,207	-0,035
158,589	33,535	-0,242	-0,147
159,604	214,684	-0,212	-0,235
160,619	67,057	-0,318	-0,226
161,633	182,873	-0,193	-0,199
162,648	29,069	-0,262	-0,155
163,662	286,830	-0,257	-0,325
164,677	253,537	-0,113	-0,135
165,692	41,296	-0,225	-0,142
166,706	65,478	-0,173	-0,122
167,721	22,271	-0,269	-0,153
168,735	89,398	-0,260	-0,202
169,750	185,516	-0,227	-0,235
170,764	-3,775	-0,293	-0,142
171,779	-30,092	-0,294	-0,116
172,794	-56,408	-0,232	-0,071
173,808	-45,359	-0,193	-0,066
174,823	198,574	-0,143	-0,153
175,837	800,000	-0,124	-0,309
176,852	46,138	-0,295	-0,190
177,867	223,820	-0,184	-0,208
178,881	418,583	-0,192	-0,287
179,896	224,020	-0,107	-0,120
180,910	-13,126	-0,296	-0,133
181,925	65,869	-0,365	-0,257
182,940	166,709	-0,214	-0,212
183,954	-32,576	-0,236	-0,091
184,969	324,051	-0,171	-0,228
185,983	21,222	-0,167	-0,094
186,998	576,853	-0,138	-0,236
188,013	800,000	-0,057	-0,133
189,027	74,808	-0,344	-0,252
190,042	198,369	-0,279	-0,297
191,056	138,924	-0,221	-0,202
192,071	-146,910	-0,103	0,006
193,086	64,653	-0,184	-0,129
194,100	-40,420	-0,235	-0,085
195,115	-107,860	-0,217	-0,033
196,129	120,645	-0,022	-0,019
197,144	-6,416	-0,225	-0,106
198,159	102,214	-0,242	-0,196
199,173	220,659	-0,143	-0,160
200,188	-64,606	-0,353	-0,099
201,202	67,694	-0,231	-0,164
202,217	152,295	-0,112	-0,106
203,232	-139,839	-0,238	-0,017
204,246	105,866	-0,146	-0,120
205,261	143,662	-0,158	-0,146
206,275	394,453	-0,176	-0,255
207,290	305,206	-0,167	-0,216
208,304	800,000	-0,101	-0,213
209,319	283,551	-0,060	-0,075
210,334	800,000	-0,088	-0,235
211,348	50,343	-0,232	-0,152
212,363	223,277	-0,247	-0,277
213,377	2,358	-0,106	-0,053
214,392	67,808	-0,184	-0,130
215,407	-65,528	-0,166	-0,046
216,421	-121,364	-0,170	0,019
217,436	-11,678	-0,283	-0,129
218,450	434,111	-0,125	-0,189
219,465	137,537	-0,188	-0,171
220,480	104,864	-0,218	-0,178
221,494	582,412	-0,141	-0,241
222,509	102,598	-0,237	-0,193
223,523	40,462	-0,114	-0,071
224,538	104,480	-0,148	-0,121
225,553	800,000	-0,073	-0,188
226,567	-15,027	-0,280	-0,124
227,582	146,979	-0,219	-0,204
228,596	28,152	-0,264	-0,154
229,611	800,000	-0,050	-0,111
230,626	-137,436	-0,308	-0,024
231,640	-8,172	-0,127	-0,059
232,655	800,000	-0,043	-0,100
233,669	239,068	-0,156	-0,180
234,684	291,967	-0,171	-0,217
235,699	298,566	-0,114	-0,146
236,713	172,486	-0,123	-0,123
237,728	17,811	-0,051	0,028
238,742	124,963	-0,145	-0,127
239,757	-200,000	-0,044	-0,147
240,772	78,989	-0,203	-0,151
241,786	800,000	-0,143	-0,281
242,801	198,316	-0,201	-0,214
243,815	800,000	-0,168	-0,330
244,830	34,386	-0,159	-0,096
245,844	272,178	-0,181	-0,222
246,859	44,991	-0,233	-0,149
247,874	154,044	-0,201	-0,191
248,888	573,863	-0,066	-0,113
249,903	65,086	-0,214	-0,150
250,917	73,959	-0,106	-0,077
251,932	-64,351	-0,112	-0,031
252,947	358,488	-0,088	-0,123
253,961	123,011	-0,129	-0,111
254,976	800,000	-0,057	-0,171
255,990	399,669	-0,163	-0,237
257,005	328,237	-0,063	-0,083
258,020	406,213	-0,141	-0,207
259,034	241,069	-0,056	-0,065
260,049	110,802	-0,195	-0,163
261,063	36,152	-0,231	-0,140
262,078	19,971	-0,292	-0,163
263,093	-33,048	-0,294	-0,112
264,107	73,175	-0,231	-0,167
265,122	-125,065	-0,233	-0,024
266,136	-28,133	-0,201	-0,080
267,151	173,685	-0,198	-0,198
268,166	112,264	-0,135	-0,113
269,180	305,308	-0,166	-0,214
270,195	102,671	-0,194	-0,157
271,209	79,419	-0,244	-0,181
272,224	231,959	-0,195	-0,222
273,239	-35,232	-0,216	-0,081
274,253	50,429	-0,190	-0,124
275,268	13,306	-0,140	-0,075
276,282	105,270	-0,236	-0,192
277,297	30,497	-0,359	-0,212
278,312	-157,855	-0,126	-0,005
279,326	619,202	-0,061	-0,106
280,341	-200,000	-0,004	-0,058
281,355	116,567	-0,078	-0,066
282,370	-184,379	-0,333	0,004
283,384	-60,800	-0,083	-0,024
284,399	6,017	-0,234	-0,119
285,414	-61,326	-0,241	-0,069
286,428	217,461	-0,061	-0,067
287,443	-200,000	-0,007	-0,097
288,457	143,264	-0,195	-0,179
289,472	-47,086	-0,166	0,056
290,487	37,547	-0,215	-0,132
291,501	-33,129	-0,229	-0,087
292,516	-14,951	-0,283	-0,125
293,530	-5,081	-0,168	-0,080
294,545	-200,000	0,007	0,034
295,560	-103,017	-0,149	0,024
296,574	70,987	-0,237	-0,170
297,589	225,231	-0,224	-0,251
298,603	136,630	-0,164	-0,148
299,618	-140,741	-0,176	-0,012
300,633	188,012	-0,060	-0,062
301,647	267,912	-0,116	-0,140
302,662	-200,000	-0,045	-0,178
303,676	-33,919	-0,198	-0,075
304,691	800,000	-0,083	-0,165
305,706	144,991	-0,199	-0,183
306,720	311,456	-0,125	-0,162
307,735	800,000	-0,068	-0,140
308,749	-78,837	-0,101	0,024
309,764	9,928	-0,073	-0,038
310,779	-59,987	-0,233	-0,068
311,793	257,725	-0,117	-0,139
312,808	84,502	-0,262	-0,198
313,822	800,000	-0,077	-0,155
314,837	-119,828	-0,122	-0,014
315,852	-186,687	-0,155	-0,001
316,866	-124,738	-0,062	-0,006
317,881	-83,450	-0,083	-0,018
318,895	397,998	-0,062	-0,089
319,910	3,208	-0,256	-0,128
320,925	-2,381	-0,212	-0,102
321,939	152,963	-0,164	-0,155
322,954	61,872	-0,173	-0,119
323,968	80,438	-0,061	-0,045
324,983	-42,400	-0,115	-0,040
325,997	-147,759	-0,151	-0,009
327,012	226,603	-0,169	-0,189
328,027	112,145	-0,167	-0,139
329,041	-199,178	-0,212	0,001
330,056	149,427	-0,114	-0,106
331,070	-200,000	-0,020	-0,113
332,085	-17,976	-0,157	-0,067
333,100	139,248	-0,080	-0,072
334,114	393,740	-0,173	-0,248
335,129	454,150	-0,197	-0,301
336,143	-55,511	-0,085	0,026
337,158	117,521	-0,232	-0,196
338,173	798,133	-0,070	-0,133
339,187	270,866	-0,122	-0,148
340,202	-200,000	-0,040	-0,227
341,216	800,000	-0,103	-0,231
342,231	406,184	-0,146	-0,213
343,246	164,555	-0,137	-0,133
344,260	-3,453	-0,179	-0,085
345,275	632,073	-0,041	-0,072
346,289	117,727	-0,025	-0,021
347,304	703,037	-0,120	-0,219
348,319	168,626	-0,129	-0,127
349,333	-54,512	-0,204	-0,063
350,348	-200,000	-0,061	-0,235
351,362	-97,836	-0,171	-0,030
352,377	93,108	-0,161	-0,125
353,392	-200,000	-0,055	-0,168
354,406	-134,922	-0,173	-0,014
355,421	209,339	1312,531	1413,313
356,435	161,114	1472,997	1413,821
