DTS Sentinel unit serial number:	SN410029Multiplexer serial number:	ORYXHardware model number:	OX2-SRSoftware version number:	ORYX F/W v4,00 Oryx Data Collector v3.7.2.0data status	okinstallation	B3 Nyhavnadifferential loss correction	single-endedforward channel	channel 1reverse channel	N/Adate	2023/12/01time	02:22:30forward acquisition time	300,00reverse acquisition time	0,00gamma	499,1914k internal	0,3211k external	0,3211temperature offset calibration	1,0000default loss term (dB/km)	0,3820temperature slope calibration	1,0000multiplexer offset coefficient	1,0000multiplexer slope coefficient	1,0000fibre end	0,00T internal ref (°C)	8,63T ext. ref 1 (°C)	-6,65T ext. ref 2 (°C)	-6,78length (m)	temperature (°C)	Stokes	anti-Stokes-744,400	331,842	-0,244	-0,343
-743,385	-200,000	-0,041	0,268
-742,371	37,027	-0,139	-0,089
-741,356	-200,000	0,043	0,269
-740,342	187,934	-0,152	-0,164
-739,327	-200,000	-0,045	0,152
-738,312	712,282	-0,158	-0,306
-737,298	800,000	-0,047	0,113
-736,283	113,413	-0,101	-0,089
-735,269	-200,000	-0,017	0,306
-734,254	-6,939	-0,238	-0,117
-733,239	16,786	-0,178	0,102
-732,225	521,689	-0,119	-0,204
-731,210	601,577	0,119	0,215
-730,196	113,573	-0,082	0,073
-729,181	375,385	0,043	-0,063
-728,167	321,944	-0,100	-0,138
-727,152	188,368	0,085	0,093
-726,137	-200,000	-0,020	-0,096
-725,123	800,000	-0,094	-0,192
-724,108	6,422	0,049	0,026
-723,094	263,541	-0,121	-0,152
-722,079	-200,000	-0,028	0,130
-721,064	171,556	0,055	0,058
-720,050	-127,299	-0,150	-0,016
-719,035	36,539	-0,075	-0,048
-718,021	85,989	-0,077	-0,061
-717,006	96,916	0,041	-0,034
-715,991	193,243	-0,021	-0,023
-714,977	-200,000	0,006	-0,049
-713,962	-72,066	-0,106	0,028
-712,948	-200,000	0,038	0,128
-711,933	-200,000	-0,005	-0,099
-710,918	-116,530	0,066	0,009
-709,904	80,512	-0,103	-0,080
-708,889	-200,000	-0,022	-0,136
-707,875	105,472	0,078	-0,067
-706,860	-200,000	-0,014	-0,052
-705,845	16,496	-0,024	-0,013
-704,831	-69,968	0,107	-0,029
-703,816	-200,000	-0,021	0,235
-702,802	-200,000	0,005	0,045
-701,787	-42,927	-0,097	-0,035
-700,772	800,000	-0,027	-0,086
-699,758	656,344	0,049	0,092
-698,743	-82,952	0,045	0,010
-697,729	-73,225	0,069	0,018
-696,714	55,838	0,090	0,063
-695,699	56,623	-0,107	0,075
-694,685	-135,955	0,085	-0,007
-693,670	-23,130	-0,074	-0,032
-692,656	-200,000	-0,006	-0,027
-691,641	12,045	0,026	0,014
-690,627	-110,992	0,142	-0,021
-689,612	342,299	-0,044	-0,062
-688,597	-65,761	-0,104	-0,030
-687,583	497,217	-0,037	-0,062
-686,568	14,251	0,092	0,052
-685,554	38,323	0,055	-0,035
-684,539	105,461	-0,041	0,035
-683,524	192,187	-0,076	0,083
-682,510	-4,262	-0,148	-0,074
-681,495	82,603	-0,101	0,080
-680,481	-200,000	0,017	-0,091
-679,466	131,767	-0,053	-0,049
-678,451	-159,528	0,134	0,005
-677,437	87,843	-0,013	0,010
-676,422	-76,608	-0,027	-0,007
-675,408	68,286	0,024	0,018
-674,393	-200,000	0,009	0,116
-673,378	28,755	-0,040	0,025
-672,364	494,759	-0,114	-0,190
-671,349	83,928	-0,024	0,019
-670,335	54,939	0,093	-0,065
-669,320	348,969	-0,059	-0,085
-668,305	800,000	-0,085	-0,183
-667,291	800,000	-0,013	-0,028
-666,276	350,460	-0,108	-0,154
-665,262	-90,189	-0,049	-0,010
-664,247	89,789	-0,013	-0,011
-663,232	578,389	-0,032	0,056
-662,218	-73,075	0,038	-0,010
-661,203	55,908	0,009	-0,006
-660,189	696,497	0,041	-0,078
-659,174	187,300	-0,082	-0,088
-658,159	-200,000	-0,026	0,100
-657,145	-200,000	-0,009	-0,132
-656,130	-3,794	-0,149	-0,075
-655,116	-94,055	-0,042	0,008
-654,101	0,279	0,158	-0,081
-653,086	293,179	-0,008	0,011
-652,072	235,290	-0,047	-0,056
-651,057	-102,085	-0,197	-0,034
-650,043	800,000	-0,001	-0,002
-649,028	-120,081	0,098	0,012
-648,014	-200,000	0,009	0,045
-646,999	-28,442	-0,061	-0,025
-645,984	-126,573	-0,042	-0,004
-644,970	659,605	0,042	0,079
-643,955	122,120	-0,065	0,058
-642,941	443,691	0,088	-0,141
-641,926	-200,000	-0,019	-0,082
-640,911	-200,000	-0,004	0,098
-639,897	155,471	-0,018	0,018
-638,882	17,666	-0,032	0,018
-637,868	-139,348	-0,044	-0,003
-636,853	800,000	0,017	-0,041
-635,838	147,841	0,099	0,097
-634,824	93,065	-0,127	-0,104
-633,809	-84,308	0,044	0,010
-632,795	-200,000	0,000	0,132
-631,780	-200,000	0,003	0,069
-630,765	-124,124	-0,041	-0,005
-629,751	55,745	-0,175	-0,122
-628,736	-45,966	-0,102	0,036
-627,722	-200,000	-0,014	-0,084
-626,707	392,243	-0,057	-0,085
-625,692	800,000	0,060	-0,136
-624,678	53,734	-0,041	-0,028
-623,663	-112,251	0,171	-0,025
-622,649	-200,000	-0,001	-0,089
-621,634	86,003	-0,089	0,071
-620,619	-75,586	-0,102	-0,026
-619,605	353,420	0,014	-0,020
-618,590	101,449	0,049	0,041
-617,576	211,169	-0,059	-0,067
-616,561	-200,000	-0,001	0,082
-615,546	51,373	-0,150	0,102
-614,532	220,534	-0,152	-0,176
-613,517	252,993	-0,092	-0,113
-612,503	-80,115	0,129	0,031
-611,488	-200,000	-0,016	0,103
-610,474	-200,000	0,038	0,136
-609,459	-144,643	0,097	0,006
-608,444	82,912	0,094	-0,073
-607,430	613,478	-0,090	-0,163
-606,415	-200,000	0,008	-0,035
-605,401	-200,000	-0,004	0,082
-604,386	-73,191	0,061	0,016
-603,371	-182,738	0,152	-0,002
-602,357	-200,000	-0,044	-0,149
-601,342	-200,000	-0,001	-0,063
-600,328	-136,271	-0,123	0,010
-599,313	-159,322	0,117	-0,005
-598,298	-31,937	0,123	0,049
-597,284	272,326	0,099	-0,126
-596,269	800,000	-0,010	-0,030
-595,255	204,836	0,039	-0,043
-594,240	-5,984	-0,149	-0,073
-593,225	-129,234	-0,057	0,006
-592,211	-200,000	-0,008	-0,063
-591,196	517,645	-0,089	-0,150
-590,182	-200,000	-0,012	0,094
-589,167	201,967	0,020	-0,022
-588,152	-200,000	-0,029	-0,109
-587,138	800,000	-0,029	0,066
-586,123	389,184	-0,078	-0,116
-585,109	-200,000	-0,042	-0,136
-584,094	800,000	-0,046	-0,136
-583,079	-48,397	-0,039	-0,014
-582,065	64,005	0,083	-0,060
-581,050	254,627	0,035	0,044
-580,036	160,952	-0,075	-0,075
-579,021	174,847	-0,037	0,039
-578,006	124,410	-0,070	-0,064
-576,992	320,685	-0,003	0,004
-575,977	-68,897	-0,019	-0,005
-574,963	-74,123	0,084	-0,022
-573,948	107,110	-0,065	-0,056
-572,934	280,234	0,016	0,021
-571,919	-154,396	0,116	0,006
-570,904	-92,412	-0,110	0,022
-569,890	144,456	0,046	0,044
-568,875	-6,104	0,180	-0,088
-567,861	-72,989	0,089	0,023
-566,846	429,920	0,025	0,039
-565,831	-66,091	-0,139	-0,040
-564,817	148,058	-0,008	-0,007
-563,802	-47,391	-0,110	-0,038
-562,788	-200,000	0,004	0,024
-561,773	800,000	0,049	0,141
-560,758	263,412	0,033	-0,041
-559,744	-90,665	-0,222	0,046
-558,729	60,667	0,089	-0,063
-557,715	-54,054	0,105	-0,034
-556,700	253,210	-0,089	-0,110
-555,685	340,386	-0,067	-0,094
-554,671	160,547	-0,129	0,129
-553,656	800,000	0,041	0,084
-552,642	-148,058	0,098	0,006
-551,627	759,753	-0,020	0,039
-550,612	-115,082	-0,126	0,017
-549,598	800,000	0,066	-0,140
-548,583	-56,136	-0,048	-0,015
-547,569	-47,300	0,053	-0,019
-546,554	163,926	-0,056	0,057
-545,539	-200,000	-0,002	-0,082
-544,525	-123,176	0,120	0,014
-543,510	33,511	-0,109	0,068
-542,496	-130,948	-0,043	0,004
-541,481	-52,546	-0,042	-0,014
-540,466	131,532	0,037	0,035
-539,452	711,956	-0,035	-0,066
-538,437	-20,453	0,099	0,044
-537,423	187,642	-0,044	0,047
-536,408	77,464	0,113	-0,087
-535,393	207,576	-0,057	-0,065
-534,379	-40,891	0,129	-0,048
-533,364	-200,000	-0,025	0,125
-532,350	-14,559	-0,038	-0,018
-531,335	-200,000	0,006	-0,063
-530,321	-200,000	0,013	0,089
-529,306	188,682	-0,041	0,044
-528,291	230,917	0,005	0,006
-527,277	-200,000	-0,014	-0,122
-526,262	-200,000	0,020	-0,073
-525,248	-200,000	0,047	0,151
-524,233	428,636	-0,020	0,031
-523,218	-190,871	0,085	-0,001
-522,204	-200,000	-0,014	0,091
-521,189	-200,000	-0,014	-0,074
-520,175	-54,060	0,097	-0,032
-519,160	75,388	-0,103	0,078
-518,145	800,000	-0,061	-0,126
-517,131	258,442	0,028	-0,034
-516,116	-32,152	0,055	-0,022
-515,102	640,294	-0,054	-0,100
-514,087	106,252	0,036	0,031
-513,072	282,473	-0,051	-0,066
-512,058	-200,000	0,022	0,071
-511,043	226,791	0,068	0,079
-510,029	-165,736	0,035	-0,001
-509,014	-200,000	0,012	0,166
-507,999	-128,708	-0,066	-0,007
-506,985	129,417	0,025	0,023
-505,970	323,033	-0,055	-0,075
-504,956	-200,000	-0,022	0,074
-503,941	26,018	-0,080	-0,048
-502,926	-133,834	0,096	0,008
-501,912	-200,000	-0,001	0,013
-500,897	-200,000	-0,048	0,166
-499,883	593,931	-0,027	-0,049
-498,868	800,000	-0,049	0,142
-497,853	126,677	-0,067	0,061
-496,839	62,973	0,088	0,064
-495,824	-200,000	-0,021	0,075
-494,810	545,221	0,065	0,113
-493,795	-200,000	0,013	0,153
-492,781	20,195	-0,151	-0,087
-491,766	-200,000	0,006	0,084
-490,751	-200,000	0,023	-0,112
-489,737	135,560	-0,066	-0,062
-488,722	-114,270	0,101	0,014
-487,708	485,633	0,042	0,069
-486,693	-93,638	0,092	-0,018
-485,678	54,446	-0,041	-0,028
-484,664	760,067	-0,064	-0,125
-483,649	39,505	0,063	-0,040
-482,635	-167,817	0,125	0,003
-481,620	648,552	-0,039	0,072
-480,605	-109,725	0,265	0,040
-479,591	-200,000	-0,005	0,111
-478,576	162,078	0,063	-0,064
-477,562	-81,016	-0,063	-0,015
-476,547	185,524	-0,068	-0,072
-475,532	-43,575	-0,103	-0,037
-474,518	-200,000	-0,000	-0,066
-473,503	62,186	-0,055	-0,039
-472,489	800,000	0,022	0,052
-471,474	260,880	-0,016	-0,020
-470,459	-200,000	0,010	0,034
-469,445	266,277	-0,092	-0,116
-468,430	-33,038	-0,145	-0,057
-467,416	-15,019	0,106	0,049
-466,401	-200,000	0,017	-0,075
-465,386	57,104	0,035	0,025
-464,372	-200,000	0,004	0,042
-463,357	-192,853	-0,085	-0,001
-462,343	494,984	-0,023	-0,038
-461,328	-200,000	-0,015	0,086
-460,313	800,000	0,033	-0,084
-459,299	-69,180	-0,057	0,016
-458,284	-200,000	0,023	0,081
-457,270	346,896	-0,030	0,042
-456,255	75,493	0,111	0,084
-455,241	-44,632	-0,036	-0,013
-454,226	800,000	0,045	0,140
-453,211	506,568	0,066	-0,110
-452,197	-51,285	0,193	0,064
-451,182	18,900	-0,044	-0,025
-450,168	-200,000	-0,007	0,064
-449,153	122,296	0,112	-0,100
-448,138	118,796	-0,179	-0,159
-447,124	61,890	-0,045	0,032
-446,109	87,018	0,012	0,009
-445,095	-54,430	0,127	0,041
-444,080	546,316	0,062	0,107
-443,065	-200,000	0,056	0,208
-442,051	70,302	-0,103	0,076
-441,036	-200,000	0,026	-0,129
-440,022	-17,730	-0,082	-0,037
-439,007	-28,776	0,111	-0,046
-437,992	-99,891	-0,105	0,019
-436,978	-80,843	0,159	0,037
-435,963	-146,514	0,081	0,005
-434,949	72,373	-0,135	-0,101
-433,934	800,000	-0,030	0,072
-432,919	-1,442	-0,077	0,039
-431,905	-65,307	0,102	-0,029
-430,890	78,407	0,047	0,036
-429,876	-4,593	0,067	0,033
-428,861	-200,000	0,008	-0,091
-427,846	112,895	0,014	-0,012
-426,832	251,333	-0,065	0,079
-425,817	-200,000	-0,019	0,091
-424,803	85,389	-0,187	0,147
-423,788	36,072	0,128	0,080
-422,773	-200,000	0,003	-0,065
-421,759	-200,000	0,009	0,117
-420,744	-200,000	0,012	0,057
-419,730	-125,153	0,086	0,009
-418,715	73,203	0,019	-0,014
-417,701	91,288	-0,076	-0,061
-416,686	-142,172	0,060	-0,004
-415,671	35,908	-0,060	-0,038
-414,657	-200,000	0,012	0,119
-413,642	241,418	-0,030	0,036
-412,628	-200,000	-0,070	-0,225
-411,613	307,416	0,033	-0,045
-410,598	-200,000	0,028	-0,114
-409,584	790,829	-0,034	0,068
-408,569	-30,736	0,051	0,021
-407,555	-123,033	-0,023	0,003
-406,540	-200,000	0,007	0,054
-405,525	202,712	0,072	0,080
-404,511	214,511	-0,071	0,080
-403,496	-62,711	-0,127	0,037
-402,482	-125,074	0,228	0,025
-401,467	-32,834	0,048	0,019
-400,452	543,810	-0,043	0,073
-399,438	-117,962	0,111	0,014
-398,423	-147,551	-0,064	-0,004
-397,409	12,934	0,093	-0,051
-396,394	800,000	-0,043	-0,119
-395,379	177,169	-0,067	0,070
-394,365	-200,000	0,026	0,173
-393,350	-200,000	-0,012	0,093
-392,336	-200,000	-0,022	0,136
-391,321	1,858	-0,098	0,050
-390,306	-86,745	-0,066	-0,014
-389,292	-200,000	-0,020	-0,105
-388,277	-200,000	-0,009	-0,040
-387,263	-158,559	0,109	-0,004
-386,248	-200,000	-0,008	-0,040
-385,233	106,599	-0,027	-0,023
-384,219	-4,735	-0,045	-0,022
-383,204	49,230	-0,065	-0,044
-382,190	-159,133	-0,101	-0,004
-381,175	313,846	-0,091	0,123
-380,160	-83,623	0,075	0,017
-379,146	229,560	0,050	0,058
-378,131	-200,000	0,002	0,048
-377,117	-85,391	0,030	-0,007
-376,102	-94,326	-0,144	-0,028
-375,088	666,598	0,008	0,014
-374,073	-200,000	0,059	0,206
-373,058	800,000	0,071	0,190
-372,044	377,386	0,098	0,144
-371,029	-200,000	-0,006	0,093
-370,015	159,417	0,045	-0,045
-369,000	-3,676	-0,054	-0,027
-367,985	170,745	-0,066	-0,068
-366,971	-128,128	-0,082	0,008
-365,956	625,422	-0,097	0,176
-364,942	-110,344	0,113	0,017
-363,927	-200,000	-0,021	0,072
-362,912	800,000	0,089	0,208
-361,898	800,000	0,038	-0,099
-360,883	-119,865	-0,197	0,024
-359,869	800,000	0,031	-0,064
-358,854	36,581	-0,023	0,015
-357,839	800,000	-0,004	-0,008
-356,825	176,778	-0,052	-0,054
-355,810	-200,000	0,012	0,095
-354,796	180,022	0,097	0,102
-353,781	-35,398	-0,133	-0,052
-352,766	800,000	-0,022	-0,060
-351,752	-106,271	0,157	0,025
-350,737	-200,000	-0,007	-0,038
-349,723	-200,000	-0,008	0,073
-348,708	800,000	0,035	0,093
-347,693	761,380	-0,109	0,211
-346,679	109,462	-0,033	0,028
-345,664	245,725	0,026	-0,032
-344,650	332,252	0,077	-0,107
-343,635	173,733	0,110	0,114
-342,620	162,455	0,116	0,116
-341,606	387,078	-0,041	0,061
-340,591	-33,025	-0,101	-0,040
-339,577	-200,000	-0,007	-0,169
-338,562	92,967	-0,179	-0,144
-337,548	-200,000	-0,006	-0,110
-336,533	58,163	0,032	-0,022
-335,518	-121,183	0,155	-0,018
-334,504	259,023	0,025	-0,031
-333,489	-200,000	0,027	-0,088
-332,475	-200,000	0,002	0,081
-331,460	237,238	-0,060	0,072
-330,445	800,000	0,022	0,066
-329,431	-76,966	0,053	-0,013
-328,416	-4,958	0,057	0,028
-327,402	-1,257	0,049	0,025
-326,387	25,197	-0,018	0,011
-325,372	800,000	0,037	-0,105
-324,358	-200,000	-0,012	-0,112
-323,343	41,481	-0,108	-0,070
-322,329	-145,916	0,181	0,011
-321,314	-55,187	0,174	-0,055
-320,299	-30,901	-0,051	-0,020
-319,285	259,403	0,068	0,083
-318,270	-200,000	0,001	0,013
-317,256	366,966	-0,017	0,024
-316,241	-55,204	-0,094	0,030
-315,226	-166,932	0,034	0,001
-314,212	109,748	-0,039	-0,034
-313,197	281,182	0,055	0,070
-312,183	-102,891	0,048	0,008
-311,168	-16,148	-0,134	0,060
-310,153	-200,000	-0,012	-0,117
-309,139	-200,000	-0,017	0,061
-308,124	-200,000	-0,019	-0,101
-307,110	502,150	0,030	0,049
-306,095	-23,277	0,149	-0,063
-305,080	-83,492	0,083	-0,019
-304,066	-129,404	0,020	0,002
-303,051	-200,000	-0,001	-0,064
-302,037	457,730	-0,055	-0,088
-301,022	-200,000	0,000	0,140
-300,008	800,000	0,042	-0,115
-298,993	555,214	0,052	0,090
-297,978	9,377	0,137	-0,074
-296,964	153,085	0,039	0,038
-295,949	47,946	-0,054	-0,036
-294,935	99,910	-0,129	0,106
-293,920	164,886	0,068	0,069
-292,905	-200,000	0,017	-0,102
-291,891	-63,027	0,135	0,039
-290,876	-98,537	-0,185	0,033
-289,862	321,763	0,088	-0,120
-288,847	-180,231	-0,097	0,001
-287,832	-101,827	-0,163	-0,028
-286,818	107,167	0,188	0,159
-285,803	800,000	0,056	0,131
-284,789	-122,082	-0,090	0,010
-283,774	262,986	0,089	-0,110
-282,759	-182,772	-0,086	0,001
-281,745	-200,000	0,019	0,086
-280,730	800,000	-0,033	-0,101
-279,716	800,000	-0,042	-0,130
-278,701	-200,000	-0,002	0,048
-277,686	371,615	0,065	0,094
-276,672	800,000	-0,038	-0,098
-275,657	81,104	-0,048	0,037
-274,643	-4,488	0,084	-0,041
-273,628	800,000	0,033	-0,087
-272,613	18,321	-0,102	-0,058
-271,599	159,278	-0,023	-0,023
-270,584	-200,000	0,033	0,123
-269,570	-44,093	-0,126	0,045
-268,555	800,000	0,034	-0,096
-267,540	800,000	0,014	-0,045
-266,526	-200,000	-0,010	-0,150
-265,511	234,986	-0,089	-0,105
-264,497	-200,000	-0,000	-0,017
-263,482	-200,000	-0,002	0,072
-262,467	-110,269	-0,109	0,016
-261,453	524,703	-0,062	0,104
-260,438	800,000	0,010	-0,026
-259,424	-190,750	-0,047	0,000
-258,409	107,051	-0,111	0,094
-257,395	-72,791	0,061	0,016
-256,380	-200,000	-0,007	-0,091
-255,365	68,145	-0,021	0,015
-254,351	-200,000	-0,001	-0,018
-253,336	128,755	-0,104	-0,095
-252,322	800,000	-0,036	-0,087
-251,307	-200,000	-0,006	-0,200
-250,292	800,000	-0,044	-0,133
-249,278	309,265	-0,034	0,046
-248,263	-118,337	0,061	-0,008
-247,249	393,045	0,040	-0,060
-246,234	-6,333	-0,059	-0,028
-245,219	249,501	0,043	0,052
-244,205	180,447	0,039	-0,040
-243,190	252,507	0,068	0,083
-242,176	-200,000	0,015	-0,169
-241,161	81,362	0,043	0,033
-240,146	-128,069	0,085	0,009
-239,132	137,751	0,047	0,044
-238,117	-181,660	0,129	-0,002
-237,103	-200,000	-0,043	-0,145
-236,088	-112,807	0,090	-0,013
-235,073	230,192	-0,073	0,085
-234,059	-200,000	0,050	0,212
-233,044	-36,309	0,056	-0,021
-232,030	-200,000	-0,001	-0,020
-231,015	-200,000	0,018	-0,101
-230,000	-61,420	-0,033	-0,010
-228,986	-120,468	-0,074	-0,009
-227,971	-24,286	0,155	0,065
-226,957	92,379	0,048	-0,038
-225,942	212,417	0,039	0,044
-224,927	-151,295	-0,127	0,007
-223,913	-123,575	0,051	-0,006
-222,898	41,828	-0,175	-0,112
-221,884	800,000	0,012	0,028
-220,869	-200,000	0,016	-0,050
-219,855	21,423	0,199	-0,114
-218,840	800,000	0,050	-0,130
-217,825	1,419	0,094	-0,048
-216,811	-76,078	0,082	-0,020
-215,796	93,993	-0,076	-0,062
-214,782	800,000	-0,043	-0,103
-213,767	-200,000	-0,012	-0,077
-212,752	75,929	0,103	0,078
-211,738	5,922	0,020	0,011
-210,723	-200,000	-0,009	0,113
-209,709	-200,000	0,004	-0,036
-208,694	-39,684	0,054	-0,020
-207,679	149,538	0,100	0,097
-206,665	62,653	-0,034	0,024
-205,650	-88,157	-0,090	-0,019
-204,636	-127,394	0,099	0,010
-203,621	-200,000	-0,010	0,083
-202,606	-200,000	0,027	0,099
-201,592	-13,824	-0,081	-0,037
-200,577	364,300	-0,052	0,074
-199,563	30,776	0,091	0,055
-198,548	137,188	-0,081	-0,076
-197,533	-119,354	0,106	-0,013
-196,519	722,568	-0,026	0,049
-195,504	332,113	-0,040	-0,054
-194,490	18,358	0,049	0,028
-193,475	-39,156	-0,115	0,043
-192,460	9,852	0,083	-0,044
-191,446	800,000	-0,029	-0,064
-190,431	-200,000	0,018	0,078
-189,417	83,293	-0,006	-0,005
-188,402	800,000	-0,017	-0,044
-187,387	-177,938	-0,065	-0,001
-186,373	-200,000	-0,030	0,132
-185,358	800,000	-0,018	-0,055
-184,344	-99,638	0,121	0,021
-183,329	800,000	-0,073	-0,146
-182,315	244,691	0,027	0,033
-181,300	21,421	0,124	0,072
-180,285	-2,214	0,077	-0,038
-179,271	-176,739	-0,129	0,002
-178,256	63,318	0,025	0,018
-177,242	-200,000	0,025	0,086
-176,227	800,000	0,061	0,179
-175,212	-200,000	-0,012	-0,122
-174,198	-200,000	0,009	-0,158
-173,183	-13,985	-0,043	0,020
-172,169	-84,894	-0,051	0,011
-171,154	-200,000	-0,001	0,127
-170,139	81,639	-0,029	-0,022
-169,125	-15,195	-0,008	0,003
-168,110	122,177	0,041	0,036
-167,096	9,447	-0,084	0,045
-166,081	-49,164	-0,105	-0,035
-165,066	25,712	0,038	-0,022
-164,052	-18,157	-0,100	0,044
-163,037	771,221	0,011	-0,022
-162,023	251,087	0,029	-0,035
-161,008	-113,743	0,058	-0,008
-159,993	322,382	-0,078	0,106
-158,979	800,000	-0,043	-0,102
-157,964	-200,000	-0,026	-0,092
-156,950	35,470	-0,016	0,010
-155,935	-190,565	0,177	0,001
-154,920	-200,000	0,004	-0,085
-153,906	-161,238	-0,135	0,005
-152,891	-200,000	-0,043	0,149
-151,877	69,872	0,014	-0,010
-150,862	643,043	-0,099	-0,179
-149,847	-123,873	-0,086	0,010
-148,833	-112,740	-0,113	0,016
-147,818	800,000	0,081	0,167
-146,804	209,291	0,074	0,082
-145,789	32,355	-0,102	-0,062
-144,775	-71,537	-0,111	0,029
-143,760	311,837	-0,078	0,103
-142,745	432,728	-0,054	0,083
-141,731	-6,986	0,067	0,032
-140,716	120,973	0,049	-0,043
-139,702	-67,890	-0,073	-0,020
-138,687	-87,319	-0,003	-0,001
-137,672	-33,629	-0,099	-0,038
-136,658	267,499	0,057	-0,071
-135,643	4,401	-0,191	-0,099
-134,629	171,213	-0,106	0,108
-133,614	800,000	-0,042	0,084
-132,599	21,051	0,121	0,069
-131,585	-200,000	-0,045	0,161
-130,570	-59,077	-0,085	0,026
-129,556	-110,069	-0,039	-0,006
-128,541	302,823	-0,047	0,061
-127,526	18,602	0,075	-0,042
-126,512	52,057	0,091	-0,061
-125,497	71,596	0,064	0,047
-124,483	13,656	-0,128	0,070
-123,468	-13,268	-0,037	-0,017
-122,453	800,000	-0,029	-0,071
-121,439	-36,847	-0,096	-0,036
-120,424	130,612	-0,153	-0,139
-119,410	371,075	-0,053	0,076
-118,395	800,000	0,051	0,139
-117,380	103,982	-0,104	0,086
-116,366	-13,278	0,126	0,058
-115,351	800,000	-0,033	0,074
-114,337	800,000	-0,076	0,192
-113,322	-50,469	-0,086	-0,028
-112,307	26,076	0,058	-0,034
-111,293	-200,000	0,012	0,048
-110,278	45,738	-0,115	0,075
-109,264	-200,000	0,003	0,069
-108,249	-200,000	-0,003	0,026
-107,234	800,000	0,045	0,090
-106,220	156,697	-0,028	0,028
-105,205	-200,000	0,021	0,080
-104,191	451,806	0,103	0,161
-103,176	-200,000	0,001	0,081
-102,162	209,850	-0,063	-0,071
-101,147	438,494	-0,047	0,073
-100,132	67,788	-0,104	0,075
-99,118	-200,000	0,031	-0,123
-98,103	800,000	-0,015	0,043
-97,089	800,000	0,063	0,148
-96,074	219,908	0,156	0,176
-95,059	-145,206	-0,130	0,008
-94,045	235,635	-0,045	-0,053
-93,030	-200,000	0,006	-0,292
-92,016	530,161	0,061	-0,102
-91,001	20,539	0,133	0,076
-89,986	-200,000	0,011	-0,075
-88,972	-200,000	0,015	-0,066
-87,957	-91,778	-0,134	-0,027
-86,943	-24,050	0,035	0,015
-85,928	104,616	0,084	0,070
-84,913	126,822	0,024	0,021
-83,899	589,227	0,016	-0,028
-82,884	-200,000	-0,005	0,108
-81,870	-76,280	0,110	0,027
-80,855	636,226	-0,078	-0,141
-79,840	165,652	0,045	0,045
-78,826	-62,083	-0,138	-0,040
-77,811	-200,000	-0,044	-0,145
-76,797	545,342	0,026	-0,045
-75,782	-200,000	-0,001	-0,039
-74,767	-50,444	0,071	0,024
-73,753	464,701	-0,056	0,089
-72,738	-10,094	-0,026	0,012
-71,724	179,029	-0,109	-0,112
-70,709	-195,637	-0,069	0,000
-69,694	-14,118	-0,144	-0,065
-68,680	574,935	-0,117	-0,202
-67,665	-200,000	0,007	-0,106
-66,651	90,100	-0,098	0,077
-65,636	-200,000	-0,008	0,116
-64,622	-200,000	-0,005	-0,025
-63,607	18,519	-0,182	-0,102
-62,592	115,278	-0,067	-0,057
-61,578	126,102	-0,072	-0,065
-60,563	-163,171	-0,049	0,002
-59,549	658,928	0,053	0,097
-58,534	46,245	-2,099	-1,371
-57,519	507,636	-1,143	-1,879
-56,505	-200,000	-0,407	-4,746
-55,490	457,548	0,946	1,488
-54,476	800,000	5,518	12,193
-53,461	-200,000	22,156	342,965
-52,446	800,000	758,593	2300,794
-51,432	534,058	1651,066	2771,662
-50,417	68,904	1649,574	1194,260
-49,403	16,323	1525,351	847,137
-48,388	10,465	1449,909	777,030
-47,373	19,229	1442,176	814,725
-46,359	13,988	1430,697	783,409
-45,344	8,794	1426,929	756,689
-44,330	8,749	1425,079	755,464
-43,315	8,714	1423,147	754,246
-42,300	8,733	1421,501	753,432
-41,286	8,762	1420,259	752,882
-40,271	8,720	1418,888	751,925
-39,257	8,711	1417,719	751,234
-38,242	8,743	1416,536	750,725
-37,227	8,741	1415,600	750,191
-36,213	8,765	1414,237	749,552
-35,198	8,727	1412,991	748,684
-34,184	8,726	1412,093	748,173
-33,169	8,643	1410,889	747,118
-32,154	8,684	1409,781	746,694
-31,140	8,705	1408,572	746,121
-30,125	8,745	1407,299	745,603
-29,111	8,692	1406,192	744,738
-28,096	8,709	1405,063	744,193
-27,082	8,643	1403,999	743,291
-26,067	8,632	1402,872	742,613
-25,052	8,690	1401,617	742,190
-24,038	8,703	1400,568	741,665
-23,023	8,650	1399,936	741,053
-22,009	8,615	1398,993	740,363
-20,994	8,596	1398,014	739,726
-19,979	8,662	1396,790	739,356
-18,965	8,642	1395,872	738,751
-17,950	8,588	1394,906	737,959
-16,936	8,587	1393,991	737,442
-15,921	8,564	1393,147	736,856
-14,906	8,589	1392,128	736,405
-13,892	8,651	1391,134	736,138
-12,877	8,551	1390,679	735,405
-11,863	8,581	1389,855	735,079
-10,848	8,532	1388,721	734,225
-9,833	8,529	1387,738	733,659
-8,819	8,476	1387,092	733,043
-7,804	8,485	1386,098	732,532
-6,790	8,510	1385,033	732,055
-5,775	8,542	1383,875	731,564
-4,760	8,500	1383,074	730,916
-3,746	8,488	1382,090	730,311
-2,731	8,515	1381,262	729,969
-1,717	8,526	1380,341	729,503
-0,702	8,486	1378,643	728,393
0,313	12,474	1289,750	699,558
1,327	28,362	681,579	405,314
2,342	44,314	117,315	75,809
3,356	-0,957	16,498	8,207
4,371	4,191	3,740	1,925
5,386	10,349	1,461	0,782
6,400	800,000	0,331	0,666
7,415	-87,013	-0,080	-0,017
8,429	12,840	-0,342	-0,186
9,444	-55,614	-0,385	-0,121
10,459	42,088	-0,328	-0,209
11,473	55,719	-0,237	-0,162
12,488	-82,551	-0,255	-0,058
13,502	13,138	-0,231	-0,125
14,517	29,688	-0,352	-0,211
15,531	4,283	-0,409	-0,210
16,546	-48,046	-0,438	-0,148
17,561	55,302	-0,402	-0,274
18,575	455,768	-0,102	-0,159
19,590	160,034	-0,220	-0,216
20,604	12,394	-0,230	-0,124
21,619	33,788	-0,449	-0,275
22,634	99,619	-0,390	-0,318
23,648	-53,041	-0,490	-0,158
24,663	-33,038	-0,403	-0,156
25,677	108,792	-0,376	-0,316
26,692	252,647	-0,400	-0,481
27,707	68,844	-0,245	-0,177
28,721	120,787	-0,355	-0,311
29,736	143,927	-0,303	-0,284
30,750	-0,297	-0,425	-0,212
31,765	71,964	-0,533	-0,390
32,780	-58,682	-0,424	-0,128
33,794	-26,831	-0,252	-0,103
34,809	194,667	-0,304	-0,324
35,823	130,946	-0,396	-0,358
36,838	78,015	-0,417	-0,313
37,853	192,604	-0,282	-0,300
38,867	316,231	-0,314	-0,418
39,882	281,852	-0,171	-0,216
40,896	-20,314	-0,320	-0,138
41,911	-31,763	-0,434	-0,170
42,926	3,443	-0,383	-0,195
43,940	98,826	-0,345	-0,280
44,955	144,845	-0,439	-0,413
45,969	-54,946	-0,451	-0,142
46,984	69,952	-0,316	-0,229
47,999	279,094	-0,262	-0,329
49,013	103,120	-0,300	-0,247
50,028	36,815	-0,302	-0,187
51,042	233,457	-0,334	-0,386
52,057	128,173	-0,303	-0,271
53,071	119,687	-0,332	-0,289
54,086	86,663	-0,290	-0,224
55,101	0,229	-0,453	-0,226
56,115	57,824	-0,274	-0,188
57,130	70,058	-0,405	-0,293
58,144	45,771	-0,391	-0,253
59,159	9,334	-0,385	-0,204
60,174	219,484	-0,339	-0,381
61,188	81,007	-0,353	-0,267
62,203	30,335	-0,288	-0,172
63,217	97,971	-0,225	-0,181
64,232	-23,017	-0,382	-0,161
65,247	-54,470	-0,263	-0,083
66,261	93,777	-0,250	-0,198
67,276	-0,706	-0,394	-0,195
68,290	21,711	-0,276	-0,157
69,305	-33,129	-0,340	-0,132
70,320	218,780	-0,240	-0,269
71,334	22,395	-0,313	-0,179
72,349	23,423	-0,326	-0,187
73,363	-13,921	-0,272	-0,123
74,378	90,444	-0,276	-0,217
75,393	-68,776	-0,381	-0,102
76,407	223,072	-0,266	-0,301
77,422	91,896	-0,303	-0,239
78,436	108,547	-0,186	-0,156
79,451	46,703	-0,240	-0,156
80,466	46,190	-0,343	-0,222
81,480	-20,811	-0,354	-0,152
82,495	12,824	-0,284	-0,153
83,509	131,476	-0,293	-0,263
84,524	-21,509	-0,209	-0,089
85,539	-8,971	-0,331	-0,155
86,553	72,225	-0,401	-0,292
87,568	15,979	-0,309	-0,170
88,582	49,120	-0,339	-0,223
89,597	58,264	-0,322	-0,220
90,611	162,053	-0,315	-0,310
91,626	102,726	-0,221	-0,181
92,641	164,379	-0,250	-0,246
93,655	-16,089	-0,290	-0,129
94,670	84,681	-0,298	-0,228
95,684	-48,328	-0,422	-0,141
96,699	8,715	-0,358	-0,188
97,714	143,581	-0,155	-0,144
98,728	-49,333	-0,235	-0,078
99,743	498,978	-0,111	-0,180
100,757	-6,685	-0,320	-0,152
101,772	192,890	-0,267	-0,283
102,787	397,018	-0,223	-0,327
103,801	356,863	-0,201	-0,281
104,816	36,409	-0,175	-0,107
105,830	-26,364	-0,242	-0,099
106,845	508,655	-0,175	-0,285
107,860	14,455	-0,266	-0,145
108,874	411,873	-0,140	-0,208
109,889	261,725	-0,179	-0,217
110,903	12,562	-0,304	-0,164
111,918	7,208	-0,287	-0,149
112,933	77,478	-0,329	-0,244
113,947	27,275	-0,284	-0,166
114,962	-36,121	-0,302	-0,113
115,976	16,884	-0,198	-0,109
116,991	-54,690	-0,183	-0,058
118,006	64,340	-0,250	-0,176
119,020	244,729	-0,200	-0,236
120,035	187,318	-0,240	-0,251
121,049	58,995	-0,144	-0,098
122,064	-102,837	-0,160	-0,026
123,079	-4,359	-0,393	-0,189
124,093	191,392	-0,235	-0,247
125,108	37,519	-0,243	-0,150
126,122	27,951	-0,307	-0,180
127,137	97,448	-0,281	-0,225
128,151	-3,209	-0,351	-0,170
129,166	170,981	-0,166	-0,166
130,181	158,379	-0,274	-0,265
131,195	143,312	-0,234	-0,217
132,210	141,103	-0,251	-0,232
133,224	276,718	-0,225	-0,280
134,239	314,713	-0,211	-0,277
135,254	53,334	-0,297	-0,198
136,268	84,166	-0,206	-0,157
137,283	-8,987	-0,292	-0,136
138,297	12,357	-0,319	-0,171
139,312	437,185	-0,221	-0,336
140,327	-10,267	-0,253	-0,116
141,341	45,786	-0,225	-0,145
142,356	-18,433	-0,354	-0,154
143,370	128,666	-0,198	-0,176
144,385	-102,898	-0,366	-0,060
145,400	316,318	-0,133	-0,175
146,414	-14,145	-0,322	-0,144
147,429	219,529	-0,197	-0,220
148,443	17,579	-0,190	-0,105
149,458	129,368	-0,232	-0,206
150,473	409,955	-0,157	-0,233
151,487	30,855	-0,208	-0,124
152,502	-7,803	-0,243	-0,114
153,516	243,589	-0,223	-0,261
154,531	101,591	-0,259	-0,210
155,546	145,218	-0,222	-0,207
156,560	118,552	-0,173	-0,149
157,575	61,389	-0,154	-0,106
158,589	765,182	-0,124	-0,235
159,604	-119,586	-0,286	-0,034
160,619	-68,309	-0,291	-0,078
161,633	41,432	-0,256	-0,160
162,648	261,635	-0,129	-0,156
163,662	-120,304	-0,241	-0,028
164,677	54,393	-0,234	-0,156
165,692	-125,854	-0,225	-0,023
166,706	-0,266	-0,356	-0,175
167,721	68,097	-0,273	-0,194
168,735	402,846	-0,198	-0,290
169,750	82,304	-0,223	-0,168
170,764	-0,774	-0,046	0,023
171,779	-109,360	-0,287	-0,042
172,794	-7,794	-0,157	-0,073
173,808	54,035	-0,250	-0,166
174,823	100,655	-0,188	-0,152
175,837	133,201	-0,115	-0,103
176,852	305,080	-0,279	-0,360
177,867	-80,278	-0,277	-0,064
178,881	-43,977	-0,091	-0,032
179,896	172,188	-0,162	-0,162
180,910	-200,000	-0,159	-0,000
181,925	93,975	-0,261	-0,205
182,940	27,807	-0,175	-0,102
183,954	78,198	-0,229	-0,169
184,969	20,524	-0,154	-0,086
185,983	22,912	-0,207	-0,118
186,998	27,668	-0,166	-0,097
188,013	-38,226	-0,307	-0,112
189,027	134,746	-0,208	-0,187
190,042	270,584	-0,249	-0,304
191,056	800,000	-0,131	-0,295
192,071	10,946	-0,306	-0,162
193,086	60,012	-0,199	-0,136
194,100	-80,089	-0,279	-0,064
195,115	-144,042	-0,290	-0,019
196,129	133,627	-0,202	-0,182
197,144	7,821	-0,206	-0,106
198,159	357,893	-0,156	-0,216
199,173	-11,034	-0,216	-0,098
200,188	539,997	-0,157	-0,261
201,202	-4,359	-0,181	-0,087
202,217	-6,274	-0,137	-0,064
203,232	77,673	-0,251	-0,185
204,246	171,743	-0,155	-0,154
205,261	10,416	-0,369	-0,194
206,275	11,913	-0,205	-0,109
207,290	301,635	-0,120	-0,154
208,304	62,451	-0,172	-0,119
209,319	196,764	-0,176	-0,186
210,334	-113,380	-0,163	-0,022
211,348	324,165	-0,179	-0,238
212,363	-200,000	-0,061	-0,199
213,377	800,000	-0,060	-0,156
214,392	128,053	-0,214	-0,189
215,407	105,624	-0,218	-0,178
216,421	-97,929	-0,117	0,021
217,436	369,843	-0,164	-0,230
218,450	708,171	-0,151	-0,278
219,465	800,000	-0,079	-0,171
220,480	-76,283	-0,247	0,060
221,494	355,486	-0,085	-0,117
222,509	170,331	-0,097	-0,096
223,523	66,438	-0,196	-0,137
224,538	-93,001	-0,180	-0,034
225,553	67,690	-0,194	-0,137
226,567	35,895	-0,195	-0,119
227,582	-24,136	-0,128	-0,052
228,596	-137,425	-0,088	0,007
229,611	-127,821	-0,139	-0,014
230,626	54,536	-0,086	0,057
231,640	-82,499	-0,146	-0,032
232,655	-65,380	-0,263	-0,073
233,669	-75,059	-0,309	-0,076
234,684	-6,328	-0,217	-0,102
235,699	137,586	-0,245	-0,221
236,713	15,647	-0,102	0,055
237,728	132,297	-0,196	-0,174
238,742	-140,611	-0,142	-0,010
239,757	67,398	-0,174	-0,122
240,772	252,926	-0,113	-0,133
241,786	160,486	-0,176	-0,169
242,801	-26,486	-0,246	-0,099
243,815	333,320	-0,119	-0,159
244,830	-142,874	-0,113	-0,007
245,844	800,000	-0,073	-0,188
246,859	800,000	-0,101	-0,198
247,874	7,227	-0,144	-0,074
248,888	185,881	-0,212	-0,218
249,903	324,599	-0,136	-0,180
250,917	315,006	-0,131	-0,171
251,932	-58,036	-0,258	-0,077
252,947	0,309	-0,216	-0,106
253,961	-200,000	-0,023	-0,152
254,976	385,762	-0,168	-0,241
255,990	29,301	-0,193	-0,113
257,005	147,743	-0,073	-0,068
258,020	163,330	-0,036	0,035
259,034	-200,000	0,019	-0,188
260,049	144,265	-0,191	-0,176
261,063	16,490	-0,145	-0,079
262,078	102,800	-0,280	-0,226
263,093	551,330	-0,072	-0,120
264,107	261,649	-0,160	-0,192
265,122	800,000	-0,096	-0,202
266,136	70,647	-0,167	-0,119
267,151	24,631	-0,178	-0,101
268,166	-200,000	-0,054	-0,237
269,180	75,440	-0,168	-0,122
270,195	-25,412	-0,204	-0,083
271,209	354,997	-0,087	-0,120
272,224	-142,028	-0,270	-0,018
273,239	-69,811	-0,234	-0,061
274,253	-139,057	-0,112	0,008
275,268	800,000	-0,051	-0,123
276,282	312,763	-0,155	-0,201
277,297	-200,000	-0,068	-0,302
278,312	81,007	-0,173	-0,129
279,326	16,059	-0,119	-0,064
280,341	312,232	-0,105	-0,136
281,355	105,148	-0,142	-0,115
282,370	173,300	-0,140	-0,139
283,384	147,559	-0,138	-0,128
284,399	499,451	-0,139	-0,221
285,414	75,838	-0,117	-0,085
286,428	-137,679	-0,214	0,016
287,443	29,398	-0,055	-0,032
288,457	705,317	-0,114	-0,208
289,472	116,807	-0,160	-0,135
290,487	29,303	-0,233	-0,136
291,501	139,000	-0,147	-0,133
292,516	53,260	-0,192	-0,126
293,530	242,007	-0,211	-0,243
294,545	-51,857	-0,190	0,060
295,560	-111,910	-0,186	-0,026
296,574	-97,638	-0,211	-0,037
297,589	95,025	-0,243	-0,190
298,603	-136,135	-0,245	-0,019
299,618	96,178	-0,229	-0,180
300,633	116,587	-0,203	-0,171
301,647	137,832	-0,112	-0,100
302,662	-184,857	-0,090	-0,001
303,676	-100,453	-0,044	-0,007
304,691	-49,637	-0,234	-0,076
305,706	-64,553	-0,184	-0,051
306,720	186,951	-0,209	-0,214
307,735	-119,788	-0,207	-0,024
308,749	-23,122	-0,171	-0,070
309,764	-63,203	-0,155	-0,044
310,779	115,259	-0,124	-0,104
311,793	14,912	-0,216	-0,116
312,808	111,257	-0,226	-0,187
313,822	-11,168	-0,151	-0,068
314,837	-23,059	-0,262	-0,108
315,852	76,204	-0,241	-0,175
316,866	416,895	-0,105	-0,154
317,881	-134,692	-0,037	-0,003
318,895	37,555	-0,183	-0,111
319,910	142,913	-0,247	-0,225
320,925	800,000	-0,064	-0,154
321,939	346,531	-0,074	-0,101
322,954	-123,909	-0,187	-0,020
323,968	52,571	-0,157	-0,103
324,983	-69,827	-0,193	-0,050
325,997	78,450	-0,140	-0,102
327,012	800,000	-0,066	-0,166
328,027	-123,327	-0,143	0,015
329,041	197,348	-0,188	-0,197
330,056	194,363	-0,117	-0,121
331,070	174,534	-0,155	-0,154
332,085	204,624	-0,094	-0,100
333,100	15,365	-0,098	-0,052
334,114	12,165	-0,161	-0,085
335,129	75,909	-0,185	-0,134
336,143	-29,572	-0,073	-0,028
337,158	45,423	-0,242	-0,153
338,173	86,421	-0,116	0,088
339,187	-128,020	-0,288	-0,028
340,202	-9,954	-0,205	-0,093
341,216	-85,701	-0,226	-0,048
342,231	800,000	-0,099	-0,211
343,246	155,825	-0,106	-0,100
344,260	216,925	-0,113	-0,124
345,275	-9,748	-0,103	-0,047
346,289	136,404	-0,172	-0,154
347,304	800,000	-0,057	-0,145
348,319	470,579	-0,124	-0,192
349,333	34,676	-0,013	-0,008
350,348	-82,136	-0,126	-0,028
351,362	129,114	-0,169	-0,148
352,377	272,897	-0,106	-0,128
353,392	800,000	-0,079	-0,160
354,406	46,051	-0,097	0,061
355,421	206,389	1311,747	1398,095
356,435	158,723	1472,057	1398,541
