DTS Sentinel unit serial number:	SN410029Multiplexer serial number:	ORYXHardware model number:	OX2-SRSoftware version number:	ORYX F/W v4,00 Oryx Data Collector v3.7.2.0data status	okinstallation	B3 Nyhavnadifferential loss correction	single-endedforward channel	channel 1reverse channel	N/Adate	2023/12/04time	01:22:30forward acquisition time	300,00reverse acquisition time	0,00gamma	499,1914k internal	0,3204k external	0,3204temperature offset calibration	1,0000default loss term (dB/km)	0,3820temperature slope calibration	1,0000multiplexer offset coefficient	1,0000multiplexer slope coefficient	1,0000fibre end	0,00T internal ref (°C)	12,50T ext. ref 1 (°C)	-2,75T ext. ref 2 (°C)	-2,78length (m)	temperature (°C)	Stokes	anti-Stokes-744,400	786,083	-0,189	-0,379
-743,385	665,770	0,085	0,159
-742,371	-200,000	-0,043	-0,179
-741,356	626,465	0,061	0,112
-740,342	160,942	-0,087	-0,088
-739,327	-200,000	-0,067	0,215
-738,312	135,257	-0,190	-0,180
-737,298	-200,000	-0,032	0,325
-736,283	221,265	-0,299	-0,350
-735,269	-200,000	0,004	0,398
-734,254	800,000	-0,138	-0,338
-733,239	236,654	-0,151	0,182
-732,225	14,885	-0,149	-0,085
-731,210	800,000	0,113	0,250
-730,196	800,000	0,035	-0,072
-729,181	268,258	-0,046	0,058
-728,167	-200,000	-0,011	-0,081
-727,152	-157,892	-0,050	-0,002
-726,137	16,493	-0,156	-0,089
-725,123	-132,658	-0,160	-0,015
-724,108	800,000	0,032	-0,086
-723,094	800,000	0,041	-0,095
-722,079	22,866	-0,179	-0,106
-721,064	-60,027	-0,135	0,042
-720,050	24,069	0,083	-0,050
-719,035	453,992	0,097	-0,156
-718,021	59,215	-0,105	-0,075
-717,006	-200,000	-0,028	0,102
-715,991	34,268	-0,176	-0,111
-714,977	-200,000	-0,023	-0,127
-713,962	50,609	-0,061	-0,042
-712,948	324,969	0,020	0,028
-711,933	-200,000	-0,016	-0,078
-710,918	142,281	-0,107	0,104
-709,904	-69,278	0,029	-0,008
-708,889	-200,000	-0,019	-0,066
-707,875	496,941	0,044	-0,074
-706,860	84,506	0,090	0,072
-705,845	800,000	0,056	0,170
-704,831	800,000	0,030	0,076
-703,816	-110,788	-0,117	-0,017
-702,802	-19,153	0,063	0,028
-701,787	800,000	-0,028	0,061
-700,772	-60,260	-0,078	0,024
-699,758	800,000	-0,065	-0,137
-698,743	800,000	0,043	0,135
-697,729	68,109	-0,131	0,097
-696,714	455,349	0,054	0,087
-695,699	800,000	0,064	0,144
-694,685	-27,740	-0,096	0,040
-693,670	775,349	-0,035	0,070
-692,656	-200,000	0,029	-0,095
-691,641	684,687	-0,053	0,101
-690,627	14,958	0,149	0,084
-689,612	144,082	-0,051	0,049
-688,597	800,000	-0,099	-0,215
-687,583	232,512	-0,016	-0,019
-686,568	-12,498	-0,120	-0,057
-685,554	800,000	0,044	-0,089
-684,539	-67,505	0,114	-0,032
-683,524	-23,842	0,037	-0,016
-682,510	-200,000	0,018	0,119
-681,495	-68,065	-0,040	0,011
-680,481	-88,665	-0,163	0,035
-679,466	-149,252	-0,102	-0,006
-678,451	-125,323	0,046	0,005
-677,437	120,045	-0,098	-0,088
-676,422	-49,303	0,067	0,023
-675,408	-117,664	0,147	0,019
-674,393	735,901	-0,114	-0,222
-673,378	488,943	-0,100	-0,167
-672,364	-200,000	-0,008	-0,119
-671,349	679,161	0,047	-0,089
-670,335	800,000	-0,032	-0,090
-669,320	22,070	-0,082	-0,048
-668,305	8,237	0,080	-0,043
-667,291	330,641	0,030	0,043
-666,276	-200,000	0,012	0,064
-665,262	83,260	-0,071	-0,056
-664,247	-200,000	0,011	-0,136
-663,232	-127,210	-0,155	0,016
-662,218	168,878	0,075	-0,078
-661,203	-200,000	0,020	0,071
-660,189	-80,170	-0,055	-0,013
-659,174	-108,408	0,049	0,008
-658,159	-200,000	-0,009	-0,070
-657,145	139,433	-0,117	0,111
-656,130	442,762	-0,097	0,154
-655,116	-9,688	-0,129	0,062
-654,101	97,122	-0,062	0,051
-653,086	-11,255	-0,125	0,059
-652,072	-200,000	-0,021	-0,074
-651,057	-200,000	-0,001	-0,203
-650,043	-81,308	-0,095	0,023
-649,028	-200,000	0,016	-0,069
-648,014	-110,343	-0,088	-0,013
-646,999	739,483	0,030	-0,059
-645,984	-200,000	0,002	0,052
-644,970	-200,000	-0,031	-0,101
-643,955	-200,000	-0,011	-0,125
-642,941	-89,864	-0,144	0,030
-641,926	-69,967	0,180	0,049
-640,911	128,539	0,104	-0,095
-639,897	-200,000	0,018	-0,096
-638,882	187,412	0,094	-0,102
-637,868	29,296	-0,011	-0,007
-636,853	800,000	0,057	-0,164
-635,838	-200,000	-0,006	0,127
-634,824	800,000	-0,044	0,135
-633,809	-15,952	0,068	-0,031
-632,795	800,000	-0,040	0,099
-631,780	400,170	0,050	0,076
-630,765	800,000	0,013	-0,036
-629,751	800,000	0,046	0,100
-628,736	800,000	0,047	-0,109
-627,722	249,390	-0,054	-0,067
-626,707	-200,000	-0,006	-0,043
-625,692	-72,861	-0,055	-0,015
-624,678	-200,000	-0,006	0,037
-623,663	800,000	0,038	-0,082
-622,649	572,716	-0,026	0,046
-621,634	-148,398	-0,071	-0,004
-620,619	-69,498	0,028	0,008
-619,605	-100,336	-0,093	-0,017
-618,590	267,549	0,040	-0,050
-617,576	342,067	-0,040	0,057
-616,561	-139,062	0,010	0,001
-615,546	-200,000	-0,027	-0,099
-614,532	33,437	-0,035	0,022
-613,517	-9,118	-0,083	0,040
-612,503	-200,000	0,003	-0,048
-611,488	-124,479	-0,036	-0,004
-610,474	-200,000	-0,005	0,038
-609,459	-118,178	-0,019	-0,002
-608,444	756,633	-0,064	0,126
-607,430	256,082	-0,105	0,130
-606,415	-66,551	0,113	-0,032
-605,401	571,573	-0,096	-0,169
-604,386	-200,000	-0,006	0,069
-603,371	-70,355	0,111	0,030
-602,357	16,677	-0,059	0,034
-601,342	800,000	-0,023	0,059
-600,328	163,452	-0,050	0,051
-599,313	320,913	-0,078	-0,107
-598,298	447,914	0,015	-0,023
-597,284	657,408	0,067	0,126
-596,269	-197,992	-0,054	0,000
-595,255	120,956	0,069	-0,062
-594,240	184,748	-0,072	0,077
-593,225	-200,000	-0,011	-0,043
-592,211	645,280	-0,026	0,048
-591,196	-128,338	0,087	-0,009
-590,182	-36,833	0,173	-0,067
-589,167	40,051	0,043	-0,028
-588,152	-200,000	0,040	0,148
-587,138	66,234	-0,041	0,030
-586,123	-138,124	-0,085	-0,007
-585,109	-200,000	-0,032	-0,245
-584,094	-200,000	-0,001	0,015
-583,079	236,571	0,104	0,124
-582,065	-200,000	0,001	0,025
-581,050	100,471	0,071	0,060
-580,036	527,793	0,072	-0,123
-579,021	561,594	-0,020	0,035
-578,006	-120,059	0,074	0,009
-576,992	92,667	-0,047	-0,038
-575,977	0,398	0,098	-0,051
-574,963	163,495	-0,099	0,101
-573,948	52,050	0,043	0,030
-572,934	-200,000	0,017	-0,127
-571,919	326,799	-0,063	0,087
-570,904	-36,566	-0,076	-0,029
-569,890	180,145	0,037	0,039
-568,875	-103,582	0,113	0,019
-567,861	-200,000	-0,001	-0,031
-566,846	233,420	0,023	0,027
-565,831	-200,000	-0,004	0,095
-564,817	457,397	0,093	-0,149
-563,802	-131,782	-0,158	0,015
-562,788	-57,650	-0,086	0,027
-561,773	45,176	0,104	0,069
-560,758	-114,333	-0,063	0,009
-559,744	-29,084	0,063	0,026
-558,729	107,173	-0,100	0,086
-557,715	432,345	-0,106	0,166
-556,700	-89,496	-0,102	0,021
-555,685	75,855	0,041	-0,031
-554,671	-96,117	-0,102	0,019
-553,656	800,000	-0,015	-0,032
-552,642	800,000	-0,049	0,148
-551,627	-133,978	0,021	0,002
-550,612	-38,754	-0,084	0,032
-549,598	-5,837	-0,088	0,043
-548,583	41,351	-0,086	-0,056
-547,569	-200,000	-0,055	-0,184
-546,554	-0,724	-0,014	-0,007
-545,539	800,000	0,070	0,161
-544,525	4,584	-0,091	-0,048
-543,510	800,000	-0,016	0,032
-542,496	800,000	-0,024	-0,055
-541,481	30,881	-0,161	-0,099
-540,466	-43,809	0,117	0,042
-539,452	41,166	0,045	-0,029
-538,437	-200,000	-0,006	0,109
-537,423	82,282	0,031	-0,024
-536,408	148,281	0,084	0,082
-535,393	490,087	-0,052	-0,087
-534,379	62,305	-0,047	-0,034
-533,364	244,497	0,096	0,117
-532,350	-200,000	-0,038	0,183
-531,335	800,000	-0,024	0,058
-530,321	-200,000	-0,003	0,027
-529,306	99,043	-0,094	0,078
-528,291	149,393	-0,124	0,121
-527,277	65,428	0,034	-0,025
-526,262	-200,000	0,005	0,041
-525,248	-24,901	0,080	0,034
-524,233	181,725	-0,148	-0,157
-523,218	91,393	-0,067	0,054
-522,204	-164,784	0,028	0,001
-521,189	5,441	-0,123	-0,065
-520,175	800,000	-0,027	-0,075
-519,160	-16,489	0,033	0,015
-518,145	-155,307	0,198	0,009
-517,131	-73,870	-0,050	0,013
-516,116	800,000	-0,061	0,179
-515,102	-200,000	0,009	-0,051
-514,087	780,873	-0,032	-0,063
-513,072	-200,000	-0,010	-0,153
-512,058	-200,000	0,011	-0,073
-511,043	-120,209	0,040	-0,005
-510,029	193,983	0,059	0,064
-509,014	45,612	0,080	0,053
-507,999	12,263	0,046	-0,025
-506,985	47,952	-0,019	0,013
-505,970	-118,384	-0,024	-0,003
-504,956	-200,000	-0,004	0,069
-503,941	-200,000	-0,016	0,055
-502,926	511,966	0,062	-0,104
-501,912	50,588	0,067	-0,045
-500,897	-200,000	-0,017	-0,062
-499,883	-76,340	-0,087	-0,022
-498,868	-200,000	-0,007	-0,026
-497,853	-200,000	0,013	-0,077
-496,839	-0,216	-0,185	0,094
-495,824	-5,912	0,138	-0,068
-494,810	-57,884	-0,056	-0,018
-493,795	391,704	0,071	0,106
-492,781	-65,927	0,107	0,031
-491,766	-149,659	0,121	0,007
-490,751	162,214	-0,019	-0,019
-489,737	-75,398	-0,151	-0,038
-488,722	392,374	-0,042	0,063
-487,708	107,039	0,109	0,093
-486,693	-149,044	0,068	-0,004
-485,678	229,695	0,077	-0,091
-484,664	75,123	-0,072	-0,054
-483,649	-88,535	0,070	0,015
-482,635	-90,340	-0,131	-0,027
-481,620	148,765	-0,040	-0,039
-480,605	-33,848	0,207	0,082
-479,591	125,176	0,025	-0,023
-478,576	37,425	0,049	-0,031
-477,562	-200,000	0,015	-0,052
-476,547	-168,413	0,092	0,002
-475,532	172,540	0,047	-0,048
-474,518	180,875	0,069	-0,072
-473,503	-200,000	-0,010	-0,053
-472,489	14,665	0,032	0,018
-471,474	-169,385	0,095	-0,002
-470,459	400,050	-0,053	-0,081
-469,445	184,881	0,046	-0,049
-468,430	800,000	-0,025	0,065
-467,416	-109,972	-0,060	0,009
-466,401	-153,302	-0,044	0,002
-465,386	-200,000	0,008	-0,039
-464,372	-130,837	0,091	-0,009
-463,357	800,000	-0,035	-0,101
-462,343	178,040	-0,102	-0,107
-461,328	-200,000	0,025	-0,143
-460,313	800,000	0,023	-0,069
-459,299	800,000	0,049	0,127
-458,284	53,412	0,117	0,081
-457,270	800,000	-0,029	-0,088
-456,255	694,856	-0,020	-0,038
-455,241	-55,204	-0,105	0,034
-454,226	239,847	-0,023	-0,027
-453,211	150,060	0,037	-0,036
-452,197	629,125	0,012	-0,023
-451,182	-15,877	0,055	0,025
-450,168	-79,245	0,119	-0,029
-449,153	-156,407	-0,067	0,003
-448,138	-200,000	-0,028	-0,143
-447,124	-200,000	0,019	-0,171
-446,109	31,760	0,052	-0,032
-445,095	238,262	0,070	0,084
-444,080	15,699	0,107	0,060
-443,065	268,569	-0,062	-0,079
-442,051	107,763	0,066	-0,056
-441,036	230,191	-0,050	-0,058
-440,022	49,350	-0,143	-0,096
-439,007	-200,000	-0,007	0,074
-437,992	800,000	0,045	0,091
-436,978	274,201	0,035	0,045
-435,963	352,894	-0,088	0,125
-434,949	-200,000	-0,007	-0,037
-433,934	-61,537	-0,088	-0,026
-432,919	-154,510	-0,104	0,005
-431,905	2,646	0,088	-0,045
-430,890	82,761	-0,053	-0,042
-429,876	454,067	-0,015	0,024
-428,861	160,380	0,084	-0,085
-427,846	421,313	-0,040	-0,062
-426,832	151,712	0,039	0,039
-425,817	-60,005	0,087	0,026
-424,803	255,639	-0,036	-0,045
-423,788	-200,000	0,006	0,047
-422,773	377,723	0,099	0,146
-421,759	-88,870	0,127	0,027
-420,744	-200,000	0,009	0,048
-419,730	-33,751	-0,097	0,038
-418,715	-78,023	0,101	-0,025
-417,701	361,699	0,063	-0,091
-416,686	-200,000	0,021	0,124
-415,671	28,465	0,191	0,115
-414,657	9,067	0,095	0,051
-413,642	-34,572	0,030	-0,012
-412,628	-200,000	0,010	-0,123
-411,613	-200,000	-0,029	-0,117
-410,598	-21,624	-0,111	0,048
-409,584	138,503	0,005	-0,005
-408,569	800,000	-0,038	0,101
-407,555	800,000	0,047	0,130
-406,540	-136,078	0,157	-0,013
-405,525	800,000	0,015	0,045
-404,511	-107,157	0,023	0,004
-403,496	-31,759	-0,059	0,023
-402,482	319,983	-0,079	0,108
-401,467	252,729	-0,032	-0,040
-400,452	-157,140	-0,046	0,002
-399,438	-200,000	-0,000	-0,086
-398,423	800,000	0,031	0,073
-397,409	-200,000	-0,005	-0,047
-396,394	-200,000	0,010	-0,069
-395,379	37,163	0,155	-0,098
-394,365	464,473	0,061	-0,098
-393,350	57,042	-0,079	0,055
-392,336	-200,000	-0,018	0,060
-391,321	280,987	-0,022	0,028
-390,306	-41,412	0,050	-0,018
-389,292	-9,376	0,065	-0,031
-388,277	-65,598	0,072	0,021
-387,263	800,000	0,045	0,090
-386,248	36,407	0,034	-0,021
-385,233	462,369	0,062	0,099
-384,219	-200,000	-0,010	0,053
-383,204	-200,000	0,020	-0,091
-382,190	-36,376	-0,106	-0,041
-381,175	160,092	0,096	-0,096
-380,160	30,308	-0,052	-0,031
-379,146	-27,365	0,054	0,022
-378,131	158,178	0,033	0,033
-377,117	-104,391	0,044	-0,007
-376,102	-113,732	-0,107	-0,015
-375,088	94,909	-0,107	0,087
-374,073	-200,000	-0,021	0,096
-373,058	-100,062	0,084	-0,015
-372,044	351,539	-0,063	0,089
-371,029	-200,000	0,031	0,133
-370,015	124,777	-0,042	0,038
-369,000	408,065	-0,017	0,026
-367,985	175,847	-0,086	0,089
-366,971	127,182	-0,087	-0,079
-365,956	-2,378	0,143	0,072
-364,942	-200,000	0,006	0,075
-363,927	57,943	0,049	0,034
-362,912	-90,510	-0,091	0,019
-361,898	211,614	0,023	0,026
-360,883	415,624	-0,063	-0,096
-359,869	177,379	0,038	0,039
-358,854	94,918	-0,040	-0,033
-357,839	-66,579	0,135	0,038
-356,825	-200,000	0,011	0,089
-355,810	-70,505	-0,157	-0,042
-354,796	800,000	0,060	-0,140
-353,781	-200,000	0,014	0,077
-352,766	10,067	-0,022	0,012
-351,752	800,000	-0,022	0,043
-350,737	800,000	-0,049	0,135
-349,723	110,481	0,059	-0,051
-348,708	-181,799	-0,065	0,001
-347,693	800,000	0,086	0,203
-346,679	-107,027	-0,093	-0,015
-345,664	-28,623	0,050	0,021
-344,650	207,794	-0,064	-0,072
-343,635	-143,361	0,074	0,005
-342,620	800,000	-0,065	0,142
-341,606	-1,560	0,066	-0,033
-340,591	-84,349	-0,156	-0,035
-339,577	-29,084	-0,057	0,023
-338,562	-200,000	-0,027	-0,086
-337,548	56,383	-0,049	0,034
-336,533	-107,986	-0,046	0,007
-335,518	6,797	0,045	0,024
-334,504	133,289	0,019	0,018
-333,489	122,402	-0,042	-0,037
-332,475	-200,000	0,017	-0,058
-331,460	87,695	-0,118	-0,093
-330,445	3,817	0,048	-0,025
-329,431	-200,000	0,002	-0,020
-328,416	17,672	0,112	0,064
-327,402	359,730	0,062	0,089
-326,387	-33,835	-0,180	-0,070
-325,372	143,414	0,045	0,043
-324,358	740,271	0,014	-0,027
-323,343	184,565	-0,096	0,102
-322,329	53,145	0,070	-0,048
-321,314	-200,000	-0,034	0,162
-320,299	180,176	-0,103	-0,108
-319,285	26,105	0,085	-0,050
-318,270	589,821	0,085	-0,150
-317,256	-116,345	0,089	0,012
-316,241	-61,036	-0,085	0,025
-315,226	188,916	0,046	-0,050
-314,212	-200,000	0,005	0,055
-313,197	413,064	0,068	0,103
-312,183	115,270	-0,104	0,091
-311,168	85,390	0,009	0,007
-310,153	-59,193	-0,085	-0,026
-309,139	800,000	0,022	-0,052
-308,124	550,065	0,059	-0,101
-307,110	213,223	0,055	-0,062
-306,095	145,639	0,095	0,091
-305,080	-12,418	-0,073	-0,034
-304,066	800,000	-0,025	0,050
-303,051	-200,000	-0,056	-0,225
-302,037	8,429	-0,063	-0,034
-301,022	-174,317	0,077	0,002
-300,008	-71,730	0,064	-0,017
-298,993	-200,000	-0,012	-0,099
-297,978	79,807	-0,030	0,023
-296,964	800,000	-0,028	0,082
-295,949	42,529	-0,081	-0,052
-294,935	401,899	0,031	-0,046
-293,920	-200,000	0,022	-0,145
-292,905	534,642	-0,019	-0,032
-291,891	93,072	0,174	0,141
-290,876	-120,422	-0,142	0,017
-289,862	158,377	-0,064	0,063
-288,847	287,176	0,031	-0,040
-287,832	800,000	0,043	-0,121
-286,818	-64,366	0,181	-0,052
-285,803	-101,791	0,169	0,029
-284,789	-200,000	-0,040	0,154
-283,774	-95,641	0,077	0,015
-282,759	-200,000	-0,002	-0,008
-281,745	-200,000	-0,003	-0,073
-280,730	-149,610	-0,125	0,007
-279,716	243,838	0,010	-0,013
-278,701	800,000	0,056	-0,122
-277,686	23,678	-0,039	-0,023
-276,672	500,572	0,030	-0,050
-275,657	150,399	-0,099	0,096
-274,643	-32,323	-0,096	-0,038
-273,628	-6,761	0,111	-0,053
-272,613	-58,154	0,087	0,027
-271,599	39,495	0,147	0,094
-270,584	-200,000	-0,008	0,092
-269,570	288,971	0,012	0,015
-268,555	66,865	-0,041	-0,030
-267,540	-125,868	-0,103	-0,011
-266,526	800,000	0,020	-0,057
-265,511	800,000	-0,032	-0,093
-264,497	59,194	0,144	-0,101
-263,482	-151,815	-0,170	-0,009
-262,467	-124,179	0,093	0,010
-261,453	-200,000	0,013	0,094
-260,438	90,131	-0,034	0,027
-259,424	800,000	0,012	-0,026
-258,409	-200,000	-0,036	-0,117
-257,395	-30,172	0,096	0,039
-256,380	-123,403	0,111	-0,012
-255,365	-200,000	0,008	0,075
-254,351	88,076	0,023	-0,019
-253,336	107,758	-0,141	0,119
-252,322	-57,157	0,038	-0,012
-251,307	180,410	-0,050	-0,052
-250,292	-44,693	-0,090	0,032
-249,278	-78,377	0,159	-0,038
-248,263	665,906	-0,077	0,142
-247,249	-115,216	-0,045	-0,006
-246,234	-200,000	0,004	-0,033
-245,219	105,415	-0,134	-0,113
-244,205	-200,000	0,001	-0,305
-243,190	452,443	0,031	-0,049
-242,176	-200,000	0,028	-0,149
-241,161	-116,163	-0,077	-0,010
-240,146	18,164	0,112	0,063
-239,132	242,946	0,026	-0,031
-238,117	69,396	0,116	-0,085
-237,103	-136,694	0,083	0,007
-236,088	800,000	0,054	-0,136
-235,073	-200,000	-0,002	-0,044
-234,059	164,048	0,116	0,116
-233,044	225,954	0,080	0,093
-232,030	-77,634	-0,099	0,024
-231,015	-200,000	-0,029	0,115
-230,000	-56,199	-0,175	0,055
-228,986	24,556	0,041	-0,024
-227,971	-200,000	-0,001	-0,037
-226,957	-200,000	-0,016	-0,053
-225,942	236,287	0,102	-0,121
-224,927	800,000	-0,021	0,056
-223,913	-87,239	-0,100	-0,021
-222,898	-200,000	-0,001	-0,045
-221,884	-200,000	0,022	0,108
-220,869	364,842	0,043	0,062
-219,855	-200,000	0,015	-0,086
-218,840	764,801	0,038	0,074
-217,825	-200,000	-0,011	0,038
-216,811	417,486	0,047	0,072
-215,796	-116,140	-0,064	-0,008
-214,782	-145,439	0,055	0,003
-213,767	24,689	-0,038	-0,022
-212,752	-200,000	-0,009	0,072
-211,738	800,000	0,029	0,075
-210,723	6,621	-0,135	0,071
-209,709	-200,000	0,004	-0,048
-208,694	800,000	-0,040	-0,108
-207,679	122,518	-0,027	-0,024
-206,665	27,697	0,049	-0,029
-205,650	800,000	-0,037	0,099
-204,636	-200,000	0,006	0,076
-203,621	-200,000	-0,026	0,123
-202,606	-131,020	-0,067	-0,006
-201,592	-156,589	-0,273	-0,012
-200,577	-200,000	-0,002	0,039
-199,563	150,014	-0,008	0,007
-198,548	-200,000	0,017	0,126
-197,533	-116,487	0,122	-0,016
-196,519	-200,000	0,009	0,093
-195,504	9,076	-0,088	0,047
-194,490	-200,000	-0,048	-0,152
-193,475	-92,959	0,071	-0,014
-192,460	-200,000	0,000	-0,083
-191,446	-85,646	-0,051	0,011
-190,431	218,253	0,052	-0,059
-189,417	-181,838	-0,076	0,001
-188,402	291,162	-0,113	-0,147
-187,387	629,936	0,034	-0,061
-186,373	-200,000	0,011	0,097
-185,358	-38,828	0,105	0,039
-184,344	-200,000	0,015	-0,084
-183,329	172,507	0,141	0,145
-182,315	-200,000	0,003	-0,157
-181,300	220,786	-0,111	-0,127
-180,285	-81,694	0,070	0,016
-179,271	-69,077	0,039	-0,011
-178,256	25,435	-0,098	-0,058
-177,242	162,229	-0,074	-0,074
-176,227	-200,000	-0,013	0,049
-175,212	-83,439	-0,057	-0,013
-174,198	80,081	-0,073	0,056
-173,183	-103,156	-0,118	0,020
-172,169	-130,100	0,122	-0,012
-171,154	-142,512	-0,141	-0,010
-170,139	-200,000	0,023	0,111
-169,125	-7,937	0,124	0,059
-168,110	-200,000	0,002	0,143
-167,096	141,377	-0,077	-0,072
-166,081	579,410	0,006	-0,011
-165,066	40,766	-0,115	0,074
-164,052	51,127	-0,087	0,058
-163,037	-151,879	0,115	0,006
-162,023	173,805	0,022	-0,022
-161,008	62,580	0,076	0,054
-159,993	-72,073	0,016	-0,004
-158,979	-28,442	-0,029	0,012
-157,964	23,628	-0,137	-0,080
-156,950	-200,000	0,002	-0,027
-155,935	293,143	-0,044	0,058
-154,920	-93,752	-0,004	0,001
-153,906	329,970	-0,047	0,064
-152,891	-200,000	-0,007	-0,026
-151,877	321,267	-0,016	0,021
-150,862	43,624	-0,038	-0,025
-149,847	-200,000	0,006	0,062
-148,833	-200,000	0,003	-0,179
-147,818	-139,609	0,109	-0,008
-146,804	-200,000	0,011	0,103
-145,789	-121,944	-0,020	-0,002
-144,775	-50,983	-0,083	0,027
-143,760	-200,000	-0,005	-0,162
-142,745	681,315	-0,073	-0,136
-141,731	-127,168	-0,078	0,008
-140,716	-29,023	0,109	0,044
-139,702	240,573	-0,066	0,078
-138,687	-4,883	0,091	0,045
-137,672	-70,859	-0,103	-0,027
-136,658	800,000	0,027	-0,085
-135,643	-20,559	0,124	-0,054
-134,629	-85,631	-0,093	-0,020
-133,614	395,734	-0,015	-0,022
-132,599	264,234	-0,030	-0,037
-131,585	-200,000	-0,005	0,043
-130,570	800,000	0,055	-0,133
-129,556	800,000	-0,046	-0,133
-128,541	-200,000	0,020	-0,123
-127,526	-200,000	-0,003	-0,076
-126,512	65,848	-0,046	-0,033
-125,497	-130,932	-0,101	-0,009
-124,483	279,422	-0,063	0,080
-123,468	-200,000	0,013	0,108
-122,453	-200,000	-0,013	-0,166
-121,439	146,902	0,074	-0,071
-120,424	84,578	-0,054	0,042
-119,410	800,000	0,048	0,109
-118,395	800,000	0,034	0,082
-117,380	800,000	-0,029	-0,074
-116,366	-79,314	0,117	-0,028
-115,351	-200,000	0,012	0,072
-114,337	-0,786	-0,124	-0,062
-113,322	-152,220	-0,139	-0,007
-112,307	223,323	0,070	0,080
-111,293	-125,216	-0,057	-0,006
-110,278	800,000	0,052	0,122
-109,264	675,533	0,007	-0,014
-108,249	-200,000	-0,003	-0,031
-107,234	-151,294	-0,054	-0,003
-106,220	-200,000	0,002	0,036
-105,205	161,039	-0,087	0,086
-104,191	175,044	-0,110	0,113
-103,176	-120,465	0,103	-0,012
-102,162	-200,000	-0,004	-0,038
-101,147	317,441	-0,057	0,076
-100,132	78,965	0,116	0,088
-99,118	-141,004	-0,155	-0,011
-98,103	-140,316	0,119	0,009
-97,089	-200,000	-0,003	-0,023
-96,074	-53,260	0,095	0,031
-95,059	-188,888	0,053	0,000
-94,045	-200,000	0,002	-0,087
-93,030	250,038	0,051	0,061
-92,016	352,074	-0,078	0,110
-91,001	-60,921	-0,091	0,027
-89,986	-1,104	0,091	0,045
-88,972	187,522	0,027	0,028
-87,957	-200,000	0,036	0,161
-86,943	-88,694	0,049	-0,010
-85,928	-125,084	-0,066	0,007
-84,913	783,467	0,043	0,084
-83,899	-167,281	-0,083	-0,002
-82,884	-200,000	-0,023	0,187
-81,870	-200,000	-0,023	0,159
-80,855	80,216	0,037	0,028
-79,840	-200,000	-0,009	0,031
-78,826	-200,000	-0,002	-0,100
-77,811	-200,000	0,007	-0,099
-76,797	36,964	0,077	0,048
-75,782	-200,000	0,018	0,069
-74,767	-74,973	0,010	0,002
-73,753	-136,381	-0,047	-0,004
-72,738	89,117	-0,140	-0,110
-71,724	800,000	0,027	-0,054
-70,709	-200,000	-0,028	-0,102
-69,694	-178,884	-0,053	-0,001
-68,680	44,446	0,183	-0,118
-67,665	38,024	-0,144	0,091
-66,651	800,000	0,033	-0,067
-65,636	160,333	-0,079	-0,078
-64,622	1,380	-0,084	0,042
-63,607	800,000	0,031	-0,085
-62,592	-200,000	0,012	0,056
-61,578	129,432	0,049	0,045
-60,563	110,822	-0,065	0,056
-59,549	762,214	0,033	0,064
-58,534	-14,326	-1,732	-0,786
-57,519	409,555	-1,312	-1,971
-56,505	-200,000	-0,582	-4,604
-55,490	284,556	0,957	1,222
-54,476	800,000	4,942	11,258
-53,461	-200,000	19,923	326,383
-52,446	800,000	750,437	2322,921
-51,432	555,700	1661,858	2841,043
-50,417	75,835	1672,330	1248,915
-49,403	20,386	1545,175	880,691
-48,388	14,349	1467,600	807,101
-47,373	18,394	1457,769	821,205
-46,359	16,559	1447,073	806,356
-45,344	12,646	1442,785	785,189
-44,330	12,550	1440,900	783,675
-43,315	12,538	1439,256	782,693
-42,300	12,542	1437,508	781,727
-41,286	12,568	1436,246	781,137
-40,271	12,550	1434,909	780,290
-39,257	12,514	1433,573	779,362
-38,242	12,587	1432,446	779,064
-37,227	12,609	1431,120	778,421
-36,213	12,591	1429,979	777,682
-35,198	12,604	1428,644	776,988
-34,184	12,615	1427,833	776,565
-33,169	12,561	1426,369	775,483
-32,154	12,621	1424,985	774,983
-31,140	12,622	1424,015	774,432
-30,125	12,655	1422,772	773,882
-29,111	12,625	1421,641	773,093
-28,096	12,629	1420,517	772,471
-27,082	12,575	1419,463	771,613
-26,067	12,567	1418,398	770,966
-25,052	12,514	1417,463	770,177
-24,038	12,540	1416,400	769,688
-23,023	12,453	1415,498	768,758
-22,009	12,506	1414,423	768,394
-20,994	12,462	1413,367	767,585
-19,979	12,516	1412,540	767,356
-18,965	12,488	1411,768	766,776
-17,950	12,482	1410,699	766,138
-16,936	12,423	1410,008	765,457
-15,921	12,408	1408,947	764,777
-14,906	12,447	1407,940	764,384
-13,892	12,460	1406,794	763,793
-12,877	12,427	1406,230	763,302
-11,863	12,400	1405,316	762,650
-10,848	12,391	1404,356	762,054
-9,833	12,390	1403,390	761,496
-8,819	12,312	1402,630	760,690
-7,804	12,335	1401,558	760,184
-6,790	12,376	1400,468	759,757
-5,775	12,340	1399,720	759,151
-4,760	12,381	1398,460	758,631
-3,746	12,385	1397,431	758,062
-2,731	12,355	1396,844	757,572
-1,717	12,292	1395,994	756,789
-0,702	12,293	1394,293	755,843
0,313	16,294	1309,587	728,393
1,327	32,675	701,123	427,667
2,342	50,614	122,331	81,675
3,356	2,323	16,525	8,419
4,371	-3,803	3,339	1,632
5,386	-37,977	0,741	0,277
6,400	-200,000	0,001	0,413
7,415	-6,544	-0,215	-0,103
8,429	800,000	-0,063	-0,144
9,444	33,962	-0,288	-0,177
10,459	28,697	-0,297	-0,177
11,473	91,745	-0,274	-0,218
12,488	-71,697	-0,367	-0,096
13,502	-52,452	-0,332	-0,108
14,517	-17,466	-0,283	-0,125
15,531	66,343	-0,436	-0,313
16,546	181,599	-0,327	-0,340
17,561	130,659	-0,347	-0,314
18,575	-58,647	-0,307	-0,093
19,590	103,287	-0,151	-0,125
20,604	45,211	-0,236	-0,153
21,619	98,582	-0,483	-0,392
22,634	104,270	-0,479	-0,398
23,648	55,002	-0,449	-0,306
24,663	164,907	-0,362	-0,361
25,677	108,919	-0,307	-0,259
26,692	153,688	-0,322	-0,311
27,707	274,733	-0,281	-0,351
28,721	94,303	-0,377	-0,302
29,736	62,606	-0,434	-0,305
30,750	136,872	-0,285	-0,262
31,765	142,578	-0,331	-0,310
32,780	22,341	-0,405	-0,233
33,794	67,619	-0,319	-0,229
34,809	24,074	-0,308	-0,179
35,823	212,388	-0,266	-0,296
36,838	122,553	-0,440	-0,388
37,853	112,490	-0,423	-0,360
38,867	141,476	-0,358	-0,334
39,882	164,872	-0,241	-0,239
40,896	189,985	-0,365	-0,386
41,911	-119,144	-0,280	-0,034
42,926	100,979	-0,247	-0,202
43,940	-29,770	-0,262	-0,105
44,955	117,462	-0,426	-0,369
45,969	-35,859	-0,479	-0,182
46,984	109,285	-0,249	-0,210
47,999	10,142	-0,379	-0,202
49,013	28,798	-0,359	-0,214
50,028	369,322	-0,166	-0,238
51,042	92,967	-0,277	-0,220
52,057	141,559	-0,328	-0,306
53,071	67,572	-0,403	-0,289
54,086	-20,073	-0,362	-0,156
55,101	-70,381	-0,358	-0,095
56,115	-7,484	-0,247	-0,117
57,130	36,567	-0,247	-0,153
58,144	59,974	-0,425	-0,295
59,159	105,479	-0,326	-0,271
60,174	35,982	-0,370	-0,228
61,188	28,673	-0,451	-0,268
62,203	3,857	-0,426	-0,218
63,217	152,495	-0,334	-0,321
64,232	-8,935	-0,342	-0,160
65,247	54,981	-0,339	-0,229
66,261	92,164	-0,433	-0,342
67,276	33,962	-0,416	-0,254
68,290	-57,113	-0,409	-0,126
69,305	97,109	-0,266	-0,214
70,320	-1,367	-0,402	-0,199
71,334	-26,627	-0,263	-0,108
72,349	78,818	-0,323	-0,242
73,363	11,124	-0,326	-0,175
74,378	252,546	-0,298	-0,358
75,393	124,769	-0,251	-0,222
76,407	-13,421	-0,319	-0,145
77,422	-22,765	-0,339	-0,143
78,436	20,482	-0,355	-0,201
79,451	359,189	-0,192	-0,270
80,466	58,284	-0,370	-0,254
81,480	422,103	-0,273	-0,412
82,495	111,692	-0,257	-0,218
83,509	20,899	-0,261	-0,148
84,524	129,055	-0,304	-0,273
85,539	32,549	-0,295	-0,179
86,553	-47,986	-0,283	-0,095
87,568	44,711	-0,360	-0,232
88,582	77,362	-0,269	-0,201
89,597	193,812	-0,336	-0,357
90,611	65,845	-0,290	-0,206
91,626	-17,366	-0,348	-0,153
92,641	130,793	-0,194	-0,174
93,655	97,358	-0,291	-0,234
94,670	-54,702	-0,319	-0,100
95,684	100,841	-0,260	-0,212
96,699	100,257	-0,321	-0,261
97,714	-66,207	-0,233	-0,065
98,728	69,346	-0,213	-0,153
99,743	-44,601	-0,338	-0,118
100,757	-158,317	-0,244	-0,010
101,772	-58,741	-0,358	-0,108
102,787	122,535	-0,252	-0,221
103,801	162,693	-0,235	-0,231
104,816	6,583	-0,373	-0,194
105,830	800,000	-0,172	-0,368
106,845	81,939	-0,235	-0,178
107,860	31,278	-0,324	-0,194
108,874	10,540	-0,354	-0,188
109,889	114,824	-0,154	-0,131
110,903	-3,532	-0,280	-0,136
111,918	-22,423	-0,339	-0,143
112,933	100,725	-0,288	-0,234
113,947	400,429	-0,159	-0,235
114,962	0,295	-0,242	-0,121
115,976	33,936	-0,250	-0,152
116,991	106,122	-0,285	-0,236
118,006	-36,188	-0,331	-0,125
119,020	141,509	-0,287	-0,266
120,035	340,202	-0,158	-0,217
121,049	192,847	-0,145	-0,153
122,064	-13,596	-0,322	-0,145
123,079	24,437	-0,295	-0,170
124,093	31,280	-0,310	-0,186
125,108	133,701	-0,222	-0,201
126,122	15,512	-0,189	-0,104
127,137	116,858	-0,276	-0,236
128,151	172,764	-0,189	-0,190
129,166	-73,701	-0,175	-0,044
130,181	-48,238	-0,314	-0,105
131,195	-8,371	-0,217	-0,101
132,210	142,025	-0,346	-0,320
133,224	162,936	-0,212	-0,209
134,239	387,570	-0,259	-0,376
135,254	139,867	-0,245	-0,226
136,268	59,607	-0,272	-0,187
137,283	-146,504	-0,182	-0,011
138,297	-103,705	-0,359	-0,058
139,312	-60,430	-0,300	-0,088
140,327	54,512	-0,423	-0,284
141,341	800,000	-0,092	-0,185
142,356	-78,816	-0,152	-0,036
143,370	209,904	-0,191	-0,210
144,385	576,683	-0,160	-0,275
145,400	485,224	-0,193	-0,308
146,414	204,399	-0,202	-0,218
147,429	-31,674	-0,266	-0,104
148,443	160,400	-0,204	-0,198
149,458	-24,344	-0,330	-0,137
150,473	-75,733	-0,346	-0,085
151,487	-137,445	-0,181	-0,014
152,502	42,384	-0,334	-0,211
153,516	214,115	-0,241	-0,266
154,531	153,081	-0,219	-0,209
155,546	19,771	-0,255	-0,143
156,560	48,998	-0,197	-0,129
157,575	-49,902	-0,179	-0,059
158,589	-63,583	-0,313	-0,089
159,604	-7,334	-0,237	-0,112
160,619	82,822	-0,178	-0,135
161,633	240,210	-0,198	-0,230
162,648	11,351	-0,390	-0,208
163,662	94,722	-0,273	-0,216
164,677	-43,509	-0,232	-0,081
165,692	-7,945	-0,222	-0,104
166,706	255,445	-0,153	-0,183
167,721	251,590	-0,196	-0,233
168,735	751,012	-0,201	-0,379
169,750	192,333	-0,180	-0,189
170,764	193,097	-0,216	-0,227
171,779	800,000	-0,051	-0,107
172,794	55,912	-0,225	-0,152
173,808	1,038	-0,159	-0,079
174,823	66,417	-0,215	-0,152
175,837	769,498	-0,139	-0,265
176,852	200,073	-0,244	-0,261
177,867	73,823	-0,201	-0,146
178,881	-117,767	-0,257	-0,032
179,896	-2,711	-0,256	-0,124
180,910	166,124	-0,229	-0,226
181,925	241,782	-0,179	-0,208
182,940	138,673	-0,174	-0,159
183,954	148,853	-0,146	-0,137
184,969	232,314	-0,205	-0,235
185,983	73,311	-0,094	-0,068
186,998	155,795	-0,191	-0,183
188,013	321,082	-0,170	-0,225
189,027	271,429	-0,172	-0,211
190,042	254,243	-0,275	-0,328
191,056	44,656	-0,282	-0,180
192,071	129,752	-0,139	-0,123
193,086	170,106	-0,185	-0,184
194,100	232,220	-0,149	-0,170
195,115	353,937	-0,171	-0,237
196,129	273,378	-0,244	-0,300
197,144	-50,842	-0,241	-0,078
198,159	328,457	-0,209	-0,279
199,173	-200,000	-0,043	-0,266
200,188	194,884	-0,180	-0,190
201,202	-110,199	-0,115	0,016
202,217	44,031	-0,163	-0,103
203,232	-37,596	-0,270	-0,099
204,246	165,429	-0,298	-0,293
205,261	243,205	-0,234	-0,272
206,275	800,000	-0,118	-0,326
207,290	-101,131	-0,163	-0,027
208,304	-44,289	-0,150	-0,052
209,319	462,882	-0,137	-0,213
210,334	-200,000	-0,075	-0,259
211,348	47,795	-0,285	-0,184
212,363	58,748	-0,305	-0,207
213,377	800,000	-0,126	-0,242
214,392	-86,046	-0,193	-0,041
215,407	491,697	-0,105	-0,167
216,421	16,867	-0,235	-0,129
217,436	-21,741	-0,244	-0,103
218,450	45,907	-0,239	-0,153
219,465	-71,784	-0,294	-0,075
220,480	-48,539	-0,338	-0,112
221,494	34,195	-0,187	-0,113
222,509	-15,514	-0,076	-0,034
223,523	-124,648	-0,240	-0,025
224,538	18,364	-0,147	-0,081
225,553	-82,284	-0,287	-0,064
226,567	49,055	-0,241	-0,157
227,582	800,000	-0,122	-0,250
228,596	14,560	-0,154	-0,083
229,611	-200,000	0,012	-0,081
230,626	742,301	-0,102	-0,190
231,640	59,773	-0,201	-0,137
232,655	152,073	-0,171	-0,162
233,669	13,354	-0,342	-0,183
234,684	-20,380	-0,107	-0,045
235,699	643,778	-0,121	-0,215
236,713	-5,737	-0,141	-0,067
237,728	50,353	-0,222	-0,145
238,742	191,311	-0,154	-0,160
239,757	-78,386	-0,217	0,051
240,772	173,354	-0,267	-0,266
241,786	-10,317	-0,265	-0,121
242,801	-20,509	-0,132	-0,056
243,815	-114,648	-0,254	-0,033
244,830	-200,000	-0,060	-0,185
245,844	-69,409	-0,158	-0,042
246,859	-53,692	-0,226	-0,071
247,874	106,231	-0,194	-0,159
248,888	45,165	-0,155	-0,098
249,903	271,898	-0,146	-0,179
250,917	-70,847	-0,205	-0,053
251,932	-158,857	-0,084	0,003
252,947	143,859	-0,178	-0,164
253,961	175,454	-0,189	-0,190
254,976	-93,407	-0,205	-0,039
255,990	254,633	-0,162	-0,192
257,005	39,931	-0,308	-0,190
258,020	-2,704	-0,285	-0,137
259,034	-72,031	-0,085	0,022
260,049	800,000	-0,091	-0,202
261,063	237,524	-0,214	-0,245
262,078	191,225	-0,294	-0,306
263,093	13,115	-0,246	-0,131
264,107	358,140	-0,142	-0,196
265,122	800,000	-0,128	-0,262
266,136	130,581	-0,144	-0,128
267,151	337,600	-0,126	-0,170
268,166	230,805	-0,099	-0,112
269,180	-34,573	-0,178	-0,067
270,195	-52,194	-0,223	-0,071
271,209	312,104	-0,103	-0,133
272,224	-200,000	-0,041	-0,172
273,239	-77,493	-0,093	-0,022
274,253	-16,267	-0,247	-0,108
275,268	-63,248	-0,199	-0,056
276,282	0,591	-0,220	-0,108
277,297	177,002	-0,187	-0,188
278,312	-122,558	-0,187	-0,021
279,326	800,000	0,024	-0,065
280,341	-56,454	-0,138	-0,042
281,355	74,911	-0,157	-0,114
282,370	59,662	-0,158	-0,107
283,384	3,456	-0,241	-0,121
284,399	590,169	-0,166	-0,283
285,414	450,746	-0,139	-0,212
286,428	38,939	-0,142	-0,087
287,443	31,479	-0,073	0,043
288,457	-128,444	-0,161	-0,016
289,472	-181,338	-0,174	0,002
290,487	304,361	-0,181	-0,232
291,501	36,461	-0,223	-0,135
292,516	106,583	-0,186	-0,152
293,530	800,000	-0,020	0,059
294,545	316,702	-0,102	-0,133
295,560	-200,000	-0,081	-0,289
296,574	800,000	-0,103	-0,282
297,589	178,141	-0,111	-0,112
298,603	800,000	-0,131	-0,257
299,618	122,613	-0,052	-0,045
300,633	-41,636	-0,133	0,047
301,647	-119,189	-0,152	-0,018
302,662	311,454	-0,047	0,060
303,676	-40,116	-0,182	-0,065
304,691	322,108	-0,122	-0,161
305,706	542,252	-0,112	-0,185
306,720	242,468	-0,065	-0,075
307,735	129,004	-0,255	-0,224
308,749	59,450	-0,118	-0,080
309,764	-200,000	-0,018	-0,067
310,779	158,662	-0,031	-0,029
311,793	-50,664	-0,215	-0,069
312,808	15,002	-0,267	-0,143
313,822	-38,452	-0,304	-0,110
314,837	-182,521	-0,150	0,002
315,852	-136,022	-0,251	0,020
316,866	-106,261	-0,126	0,019
317,881	373,632	-0,028	-0,039
318,895	-61,196	-0,152	-0,044
319,910	182,763	-0,180	-0,182
320,925	409,625	-0,136	-0,198
321,939	71,784	-0,123	-0,088
322,954	-95,093	-0,114	-0,021
323,968	43,247	-0,119	-0,074
324,983	13,885	-0,105	-0,056
325,997	117,562	-0,140	-0,118
327,012	-200,000	0,014	-0,140
328,027	-125,514	-0,126	0,013
329,041	559,084	-0,113	-0,188
330,056	-77,895	-0,091	-0,021
331,070	-29,951	-0,145	-0,056
332,085	-115,975	-0,149	-0,019
333,100	-200,000	-0,019	-0,102
334,114	42,763	-0,259	-0,162
335,129	74,800	-0,232	-0,167
336,143	-135,017	-0,158	0,013
337,158	-141,588	-0,108	0,007
338,173	-121,123	-0,159	-0,018
339,187	800,000	-0,091	-0,225
340,202	-62,889	-0,254	-0,072
341,216	85,288	-0,243	-0,183
342,231	129,550	-0,153	-0,134
343,246	634,624	-0,100	-0,174
344,260	29,844	-0,109	-0,064
345,275	-200,000	-0,044	-0,133
346,289	427,021	-0,088	-0,130
347,304	92,329	-0,210	-0,162
348,319	37,373	-0,129	-0,078
349,333	-122,608	-0,194	-0,021
350,348	-72,731	-0,192	0,048
351,362	144,388	-0,155	-0,142
352,377	27,689	-0,102	-0,058
353,392	-200,000	0,031	-0,217
354,406	-60,680	-0,126	-0,036
355,421	208,769	1315,749	1412,501
356,435	160,646	1476,596	1412,971
