DTS Sentinel unit serial number:	SN410029Multiplexer serial number:	ORYXHardware model number:	OX2-SRSoftware version number:	ORYX F/W v4,00 Oryx Data Collector v3.7.2.0data status	okinstallation	B3 Nyhavnadifferential loss correction	single-endedforward channel	channel 1reverse channel	N/Adate	2023/11/29time	10:37:30forward acquisition time	300,00reverse acquisition time	0,00gamma	499,1914k internal	0,3212k external	0,3212temperature offset calibration	1,0000default loss term (dB/km)	0,3820temperature slope calibration	1,0000multiplexer offset coefficient	1,0000multiplexer slope coefficient	1,0000fibre end	0,00T internal ref (°C)	9,43T ext. ref 1 (°C)	-5,60T ext. ref 2 (°C)	-5,74length (m)	temperature (°C)	Stokes	anti-Stokes-744,400	800,000	-0,128	-0,312
-743,385	-200,000	-0,031	0,167
-742,371	238,607	-0,167	-0,202
-741,356	-200,000	0,064	0,360
-740,342	52,374	-0,203	-0,140
-739,327	800,000	-0,095	0,293
-738,312	800,000	-0,152	-0,306
-737,298	177,465	-0,114	0,121
-736,283	800,000	-0,120	-0,320
-735,269	-200,000	0,028	0,376
-734,254	136,737	-0,260	-0,246
-733,239	247,697	-0,186	0,228
-732,225	412,295	-0,135	-0,209
-731,210	800,000	0,084	0,213
-730,196	-200,000	-0,005	-0,090
-729,181	36,715	-0,043	0,028
-728,167	-200,000	0,021	-0,082
-727,152	99,886	-0,116	-0,097
-726,137	220,638	0,014	-0,016
-725,123	257,488	-0,065	-0,082
-724,108	40,048	0,036	-0,023
-723,094	63,173	-0,075	-0,054
-722,079	-200,000	0,007	0,045
-721,064	377,985	-0,060	-0,089
-720,050	-200,000	-0,005	0,062
-719,035	-42,993	0,101	-0,037
-718,021	-197,717	-0,077	0,000
-717,006	800,000	0,024	-0,077
-715,991	-38,048	-0,091	0,035
-714,977	40,917	-0,091	-0,059
-713,962	-200,000	-0,039	-0,167
-712,948	-133,154	-0,083	0,007
-711,933	-200,000	0,000	0,085
-710,918	6,282	-0,072	0,038
-709,904	90,513	-0,060	0,049
-708,889	38,542	-0,058	-0,037
-707,875	-200,000	0,009	-0,079
-706,860	14,474	-0,125	-0,070
-705,845	-200,000	0,005	0,080
-704,831	22,174	0,093	0,055
-703,816	-153,107	-0,158	-0,008
-702,802	46,621	-0,052	-0,035
-701,787	-85,227	-0,121	0,027
-700,772	376,013	-0,014	-0,021
-699,758	389,516	0,049	0,073
-698,743	123,057	0,065	0,059
-697,729	-31,934	0,116	-0,047
-696,714	338,841	0,078	0,111
-695,699	91,099	0,036	-0,029
-694,685	-200,000	-0,002	-0,077
-693,670	-200,000	0,023	-0,077
-692,656	582,895	-0,045	-0,080
-691,641	-200,000	-0,014	0,076
-690,627	-133,920	-0,058	-0,005
-689,612	800,000	-0,025	-0,071
-688,597	50,539	0,096	0,066
-687,583	-54,130	0,108	0,035
-686,568	139,007	-0,125	-0,119
-685,554	-200,000	-0,002	0,125
-684,539	-148,218	-0,108	-0,006
-683,524	64,382	0,060	0,044
-682,510	98,408	0,048	0,040
-681,495	-58,759	-0,111	-0,035
-680,481	-82,816	-0,026	-0,006
-679,466	461,404	0,012	0,019
-678,451	800,000	-0,031	0,064
-677,437	141,528	0,132	0,126
-676,422	369,751	-0,051	0,076
-675,408	-13,175	0,027	0,013
-674,393	135,604	-0,058	-0,054
-673,378	-200,000	-0,013	-0,132
-672,364	128,638	-0,058	0,053
-671,349	387,591	0,025	-0,037
-670,335	-6,569	0,283	0,139
-669,320	319,217	0,155	-0,213
-668,305	-18,120	0,013	0,006
-667,291	800,000	-0,056	0,124
-666,276	242,649	0,044	-0,053
-665,262	257,289	-0,109	-0,136
-664,247	-200,000	0,023	-0,132
-663,232	110,916	-0,073	-0,063
-662,218	57,011	0,088	0,062
-661,203	-200,000	0,009	0,069
-660,189	361,646	0,147	0,214
-659,174	83,741	-0,053	0,041
-658,159	14,743	-0,063	-0,036
-657,145	-37,448	0,058	0,022
-656,130	-200,000	-0,013	-0,065
-655,116	565,570	-0,037	0,065
-654,101	-50,948	-0,032	0,011
-653,086	0,154	-0,058	-0,030
-652,072	18,543	-0,093	-0,053
-651,057	226,612	-0,117	-0,137
-650,043	110,325	-0,066	-0,057
-649,028	-118,768	-0,118	-0,015
-648,014	-126,858	0,168	-0,018
-646,999	-146,898	0,069	0,004
-645,984	-152,354	0,052	-0,003
-644,970	-7,837	-0,059	-0,029
-643,955	511,033	-0,038	-0,064
-642,941	-200,000	0,018	-0,144
-641,926	-109,396	0,016	-0,002
-640,911	445,650	-0,010	-0,016
-639,897	-200,000	0,020	0,088
-638,882	-200,000	-0,008	0,057
-637,868	-200,000	-0,010	0,144
-636,853	-200,000	0,011	-0,164
-635,838	800,000	0,020	-0,045
-634,824	116,555	0,023	0,020
-633,809	-85,856	-0,065	-0,014
-632,795	800,000	-0,054	0,120
-631,780	-65,886	0,144	-0,041
-630,765	-200,000	-0,003	0,086
-629,751	250,360	-0,037	0,045
-628,736	800,000	-0,036	0,087
-627,722	45,354	-0,046	0,031
-626,707	-72,784	0,103	-0,027
-625,692	-0,671	0,090	0,046
-624,678	800,000	-0,024	-0,060
-623,663	37,599	0,066	0,042
-622,649	800,000	-0,070	-0,150
-621,634	800,000	-0,050	-0,133
-620,619	17,034	0,017	0,010
-619,605	-43,450	-0,085	0,031
-618,590	800,000	0,041	-0,118
-617,576	-200,000	-0,003	-0,027
-616,561	-132,722	0,002	0,000
-615,546	105,657	-0,128	-0,109
-614,532	800,000	-0,043	-0,086
-613,517	-91,392	-0,063	-0,013
-612,503	-107,421	-0,067	0,010
-611,488	-121,488	-0,011	-0,001
-610,474	800,000	0,038	0,103
-609,459	784,249	-0,023	0,047
-608,444	-200,000	0,007	-0,059
-607,430	512,885	-0,057	0,095
-606,415	-200,000	-0,031	-0,124
-605,401	532,215	0,016	-0,027
-604,386	100,242	0,116	-0,097
-603,371	-200,000	-0,020	0,072
-602,357	800,000	-0,044	-0,121
-601,342	66,517	0,038	-0,028
-600,328	800,000	-0,030	0,068
-599,313	-200,000	0,027	-0,093
-598,298	-200,000	-0,030	0,159
-597,284	132,245	0,046	-0,042
-596,269	223,494	0,059	0,069
-595,255	442,702	-0,103	-0,163
-594,240	39,182	0,068	0,044
-593,225	778,800	-0,022	0,043
-592,211	312,442	-0,021	-0,029
-591,196	745,959	0,035	0,068
-590,182	-200,000	-0,009	0,080
-589,167	17,704	-0,094	0,053
-588,152	323,430	0,018	0,025
-587,138	717,037	-0,021	0,040
-586,123	-126,143	-0,070	0,007
-585,109	800,000	0,058	-0,159
-584,094	-75,598	0,063	0,016
-583,079	800,000	-0,042	0,100
-582,065	133,086	0,058	-0,054
-581,050	128,804	0,129	-0,118
-580,036	-91,279	-0,179	-0,037
-579,021	-185,302	-0,127	-0,001
-578,006	230,604	-0,007	-0,009
-576,992	-200,000	0,010	0,045
-575,977	-200,000	0,021	-0,168
-574,963	511,747	0,049	0,083
-573,948	268,090	-0,055	-0,070
-572,934	-68,344	-0,065	-0,018
-571,919	408,161	0,102	0,156
-570,904	-120,856	-0,116	0,014
-569,890	67,956	0,033	-0,024
-568,875	92,029	-0,041	0,034
-567,861	65,001	0,078	-0,057
-566,846	-200,000	0,003	0,089
-565,831	-144,571	0,041	0,003
-564,817	800,000	-0,039	-0,085
-563,802	-200,000	-0,032	-0,151
-562,788	-10,087	0,086	-0,041
-561,773	95,318	-0,018	0,015
-560,758	-200,000	-0,003	0,024
-559,744	-66,711	0,109	0,031
-558,729	-172,338	0,066	-0,001
-557,715	353,899	-0,077	0,111
-556,700	-94,238	0,109	0,021
-555,685	-41,338	-0,133	-0,049
-554,671	353,515	0,059	0,085
-553,656	-200,000	-0,002	0,008
-552,642	761,352	0,026	0,051
-551,627	-200,000	-0,007	0,063
-550,612	137,492	0,050	-0,047
-549,598	599,280	0,039	-0,071
-548,583	-107,249	-0,079	-0,012
-547,569	800,000	-0,035	-0,083
-546,554	501,368	-0,072	0,121
-545,539	-200,000	0,049	0,267
-544,525	136,161	-0,021	0,019
-543,510	69,795	0,073	0,054
-542,496	800,000	0,029	-0,079
-541,481	56,775	0,072	0,050
-540,466	16,909	-0,099	0,056
-539,452	-200,000	-0,010	0,073
-538,437	215,550	-0,016	0,018
-537,423	800,000	-0,029	0,066
-536,408	178,163	-0,099	0,104
-535,393	800,000	-0,056	-0,152
-534,379	514,376	-0,042	-0,071
-533,364	-91,986	-0,090	0,018
-532,350	59,989	0,067	0,047
-531,335	-200,000	0,017	0,135
-530,321	-200,000	-0,014	-0,059
-529,306	-51,154	-0,144	0,048
-528,291	-200,000	-0,007	-0,047
-527,277	21,931	0,069	-0,040
-526,262	-37,029	-0,049	0,019
-525,248	-46,740	0,077	0,027
-524,233	-7,499	0,110	0,053
-523,218	-200,000	0,023	0,117
-522,204	-200,000	-0,013	0,073
-521,189	351,544	0,032	-0,046
-520,175	625,835	0,063	-0,114
-519,160	-200,000	-0,027	0,101
-518,145	61,476	-0,081	0,058
-517,131	-165,469	0,077	0,002
-516,116	-200,000	-0,030	0,119
-515,102	184,514	0,076	-0,082
-514,087	-92,179	-0,011	-0,002
-513,072	-195,328	-0,188	0,001
-512,058	-156,313	0,239	-0,011
-511,043	-200,000	0,003	0,087
-510,029	471,918	0,060	0,098
-509,014	513,734	0,028	-0,048
-507,999	-57,563	-0,112	-0,035
-506,985	288,912	-0,044	-0,058
-505,970	800,000	0,032	-0,074
-504,956	-200,000	0,005	-0,064
-503,941	800,000	0,011	-0,032
-502,926	315,826	0,045	-0,061
-501,912	-200,000	-0,019	0,117
-500,897	-4,496	-0,133	-0,066
-499,883	34,263	0,025	0,016
-498,868	269,410	-0,102	-0,129
-497,853	633,332	-0,036	-0,066
-496,839	-200,000	-0,002	-0,045
-495,824	96,803	0,124	0,102
-494,810	-9,632	0,207	0,099
-493,795	120,423	-0,042	-0,038
-492,781	-28,427	-0,051	-0,021
-491,766	449,021	-0,035	0,056
-490,751	519,332	-0,029	0,049
-489,737	215,142	0,059	0,067
-488,722	-171,437	0,199	0,005
-487,708	-200,000	0,000	0,061
-486,693	107,157	0,100	-0,085
-485,678	172,622	-0,081	-0,084
-484,664	800,000	0,023	0,070
-483,649	105,879	-0,107	-0,091
-482,635	11,807	-0,126	-0,069
-481,620	-133,346	0,089	0,008
-480,605	67,832	-0,107	0,079
-479,591	800,000	-0,038	-0,108
-478,576	-61,783	-0,084	-0,025
-477,562	3,751	-0,059	0,031
-476,547	63,562	-0,033	0,024
-475,532	-200,000	0,022	0,144
-474,518	-131,981	-0,146	0,014
-473,503	-135,856	0,139	0,012
-472,489	-200,000	-0,003	0,014
-471,474	-200,000	0,014	-0,062
-470,459	33,442	0,161	-0,100
-469,445	-63,257	-0,062	0,018
-468,430	800,000	-0,063	0,135
-467,416	-76,508	0,097	0,024
-466,401	-200,000	-0,036	0,165
-465,386	135,527	0,034	-0,032
-464,372	172,592	0,034	-0,036
-463,357	-53,967	-0,055	0,018
-462,343	-108,540	-0,075	-0,011
-461,328	36,917	0,050	-0,032
-460,313	-10,435	0,062	-0,029
-459,299	66,278	0,104	-0,075
-458,284	-200,000	-0,006	0,159
-457,270	-65,905	-0,037	0,010
-456,255	92,922	-0,025	0,020
-455,241	62,975	0,062	0,044
-454,226	-118,077	-0,053	-0,007
-453,211	6,402	-0,022	-0,012
-452,197	800,000	0,030	0,065
-451,182	-33,967	0,034	-0,013
-450,168	208,849	0,055	0,062
-449,153	122,730	0,066	-0,059
-448,138	-200,000	0,037	-0,124
-447,124	261,177	0,031	0,038
-446,109	142,630	0,087	0,083
-445,095	-74,971	0,102	0,026
-444,080	120,408	-0,094	0,083
-443,065	285,107	0,080	0,103
-442,051	-48,127	-0,102	0,035
-441,036	76,487	-0,089	-0,068
-440,022	-200,000	-0,015	-0,116
-439,007	-75,356	-0,207	-0,052
-437,992	251,304	0,036	0,044
-436,978	-43,175	0,053	-0,019
-435,963	-72,854	-0,050	-0,013
-434,949	92,853	-0,078	0,063
-433,934	800,000	0,030	-0,086
-432,919	623,297	-0,029	0,052
-431,905	76,678	0,092	-0,070
-430,890	-76,639	0,068	-0,017
-429,876	800,000	0,052	0,131
-428,861	271,738	-0,114	0,144
-427,846	-22,508	-0,014	0,006
-426,832	800,000	0,028	0,059
-425,817	-147,399	-0,139	-0,008
-424,803	586,402	0,062	-0,110
-423,788	800,000	0,041	0,091
-422,773	-112,482	0,133	-0,019
-421,759	29,065	0,095	0,058
-420,744	54,945	-0,134	0,092
-419,730	-21,872	-0,155	-0,067
-418,715	-22,726	0,054	-0,023
-417,701	-200,000	-0,023	-0,086
-416,686	571,886	0,022	-0,039
-415,671	-173,084	-0,085	-0,002
-414,657	571,359	0,040	0,070
-413,642	34,494	0,101	-0,063
-412,628	-90,347	-0,103	0,021
-411,613	165,644	-0,113	-0,115
-410,598	-8,387	0,019	0,009
-409,584	-104,328	-0,097	0,016
-408,569	-114,115	0,116	0,016
-407,555	3,622	-0,113	-0,059
-406,540	-55,261	-0,038	0,012
-405,525	77,335	-0,072	-0,055
-404,511	201,983	0,011	0,012
-403,496	800,000	0,044	-0,087
-402,482	-200,000	-0,018	-0,090
-401,467	22,370	0,078	0,046
-400,452	556,896	-0,042	0,073
-399,438	-168,656	0,158	-0,004
-398,423	-200,000	-0,011	0,165
-397,409	91,035	0,014	-0,011
-396,394	-106,062	-0,181	0,029
-395,379	-29,411	-0,030	0,012
-394,365	-200,000	-0,006	-0,055
-393,350	-37,333	0,071	0,027
-392,336	-200,000	0,012	0,075
-391,321	800,000	-0,038	-0,084
-390,306	-96,416	-0,120	-0,022
-389,292	273,390	-0,050	-0,063
-388,277	-31,334	-0,134	-0,054
-387,263	-200,000	0,011	0,086
-386,248	285,855	0,129	-0,166
-385,233	-200,000	0,002	0,014
-384,219	-99,280	0,154	-0,028
-383,204	215,228	-0,139	0,158
-382,190	162,167	0,108	0,108
-381,175	-183,401	-0,161	0,002
-380,160	-106,671	0,112	-0,018
-379,146	244,737	0,008	-0,010
-378,131	107,828	-0,072	0,061
-377,117	-200,000	-0,028	0,117
-376,102	-53,923	-0,041	-0,013
-375,088	-200,000	-0,007	-0,057
-374,073	-200,000	0,010	0,118
-373,058	68,057	0,061	0,044
-372,044	-200,000	0,016	0,100
-371,029	388,251	0,029	-0,044
-370,015	461,676	-0,077	-0,124
-369,000	87,512	-0,202	-0,160
-367,985	-200,000	0,018	-0,121
-366,971	236,324	0,054	-0,064
-365,956	57,453	-0,104	0,072
-364,942	-200,000	0,026	0,169
-363,927	424,734	-0,142	0,219
-362,912	-200,000	-0,014	-0,159
-361,898	347,855	-0,081	-0,114
-360,883	-38,094	0,082	-0,031
-359,869	15,380	-0,057	-0,032
-358,854	92,415	0,016	0,013
-357,839	-200,000	0,003	0,107
-356,825	160,160	0,013	-0,013
-355,810	155,653	-0,020	0,020
-354,796	-128,851	0,060	-0,006
-353,781	-178,524	0,062	0,001
-352,766	57,551	0,063	0,044
-351,752	21,516	-0,111	0,064
-350,737	-144,021	0,064	0,004
-349,723	-200,000	-0,010	-0,038
-348,708	0,048	0,089	-0,045
-347,693	800,000	0,048	-0,106
-346,679	-200,000	-0,029	0,133
-345,664	147,686	0,085	0,081
-344,650	547,041	0,035	0,061
-343,635	800,000	0,015	-0,032
-342,620	21,836	0,160	0,093
-341,606	-200,000	-0,004	-0,049
-340,591	376,586	-0,104	0,152
-339,577	800,000	-0,086	-0,171
-338,562	35,050	-0,177	-0,110
-337,548	171,603	0,042	-0,043
-336,533	78,553	0,136	0,104
-335,518	739,105	0,029	0,055
-334,504	42,737	0,095	-0,062
-333,489	165,982	0,061	-0,061
-332,475	-200,000	0,013	-0,112
-331,460	-26,274	-0,072	-0,030
-330,445	-200,000	-0,005	-0,032
-329,431	203,431	-0,019	-0,021
-328,416	-19,155	0,067	0,030
-327,402	-72,353	-0,058	-0,015
-326,387	422,910	-0,119	-0,182
-325,372	-35,089	-0,092	-0,036
-324,358	-23,892	-0,026	-0,011
-323,343	-35,317	0,070	0,027
-322,329	-67,692	-0,036	0,010
-321,314	-118,602	0,081	-0,010
-320,299	94,530	-0,101	0,082
-319,285	-46,066	-0,046	0,016
-318,270	-106,445	0,064	0,010
-317,256	-8,064	0,082	-0,039
-316,241	-49,833	-0,058	-0,019
-315,226	-114,486	0,030	-0,004
-314,212	-168,694	0,233	0,006
-313,197	-156,902	-0,080	-0,003
-312,183	-127,655	0,060	-0,006
-311,168	-200,000	-0,031	-0,133
-310,153	202,780	0,023	-0,025
-309,139	800,000	0,042	-0,089
-308,124	800,000	-0,037	-0,086
-307,110	34,523	0,070	-0,043
-306,095	-94,449	-0,033	0,006
-305,080	-29,740	-0,136	-0,055
-304,066	-8,121	0,076	0,036
-303,051	800,000	-0,035	-0,106
-302,037	241,153	-0,096	-0,114
-301,022	-51,184	0,114	-0,038
-300,008	800,000	-0,072	0,186
-298,993	-69,115	0,084	-0,023
-297,978	-47,473	-0,106	0,037
-296,964	441,736	-0,090	-0,141
-295,949	182,540	-0,103	-0,109
-294,935	-123,642	0,091	0,010
-293,920	-200,000	0,001	-0,005
-292,905	134,682	0,073	-0,068
-291,891	247,716	-0,035	0,043
-290,876	-200,000	0,007	0,086
-289,862	-200,000	0,018	-0,100
-288,847	-67,103	-0,073	0,020
-287,832	340,686	-0,054	0,076
-286,818	527,731	-0,046	-0,078
-285,803	-24,531	0,098	0,041
-284,789	-200,000	-0,029	0,200
-283,774	302,627	-0,074	-0,097
-282,759	-5,241	0,094	0,046
-281,745	-131,454	-0,106	-0,010
-280,730	-200,000	-0,023	-0,102
-279,716	304,573	-0,046	0,061
-278,701	-200,000	-0,022	-0,136
-277,686	-96,180	0,040	-0,007
-276,672	-200,000	0,029	-0,133
-275,657	-92,063	0,080	-0,016
-274,643	47,184	-0,014	-0,010
-273,628	-84,773	-0,086	-0,019
-272,613	55,003	-0,126	-0,086
-271,599	-200,000	-0,012	-0,097
-270,584	-105,429	0,153	0,025
-269,570	-200,000	0,025	0,116
-268,555	57,139	0,089	0,062
-267,540	72,672	0,057	-0,042
-266,526	-200,000	-0,015	-0,072
-265,511	649,438	0,031	0,057
-264,497	-200,000	-0,012	0,122
-263,482	33,733	0,072	-0,045
-262,467	32,661	0,042	0,026
-261,453	655,700	-0,049	-0,089
-260,438	-131,201	-0,115	0,011
-259,424	56,193	-0,082	-0,057
-258,409	-66,116	0,027	0,007
-257,395	197,875	0,073	-0,079
-256,380	-13,603	0,082	0,037
-255,365	298,271	0,039	0,051
-254,351	256,411	-0,074	0,090
-253,336	-23,130	0,150	-0,064
-252,322	-42,883	-0,083	-0,030
-251,307	256,719	0,068	0,083
-250,292	800,000	0,029	-0,077
-249,278	29,578	-0,043	-0,026
-248,263	262,467	0,070	-0,086
-247,249	800,000	0,047	0,147
-246,234	54,654	0,092	-0,063
-245,219	-200,000	-0,004	-0,082
-244,205	-101,901	-0,142	0,024
-243,190	210,926	0,171	-0,191
-242,176	-114,270	0,044	-0,006
-241,161	800,000	-0,033	0,102
-240,146	-200,000	0,007	-0,136
-239,132	-81,173	-0,036	-0,008
-238,117	51,841	-0,115	-0,078
-237,103	-4,060	-0,174	0,085
-236,088	-0,291	0,086	0,043
-235,073	123,615	-0,056	0,050
-234,059	-200,000	0,022	0,072
-233,044	-200,000	-0,005	0,061
-232,030	-200,000	0,033	0,156
-231,015	125,688	-0,083	-0,074
-230,000	800,000	-0,028	-0,068
-228,986	-200,000	0,009	-0,119
-227,971	92,603	0,027	-0,022
-226,957	113,298	0,097	0,084
-225,942	-139,584	0,120	-0,009
-224,927	188,251	0,073	0,078
-223,913	23,393	0,019	0,011
-222,898	-69,221	-0,135	-0,037
-221,884	195,146	-0,017	-0,018
-220,869	311,963	-0,047	-0,063
-219,855	-200,000	0,024	0,093
-218,840	-200,000	0,001	0,019
-217,825	43,027	0,117	-0,076
-216,811	800,000	-0,049	-0,115
-215,796	800,000	-0,025	-0,077
-214,782	800,000	-0,017	0,033
-213,767	-200,000	0,008	0,076
-212,752	-16,604	0,055	0,025
-211,738	48,842	0,043	0,029
-210,723	-200,000	0,001	0,111
-209,709	10,773	-0,064	-0,034
-208,694	-200,000	-0,004	-0,075
-207,679	-200,000	-0,049	0,161
-206,665	471,632	-0,083	0,133
-205,650	186,976	0,058	-0,062
-204,636	-200,000	0,030	0,170
-203,621	32,486	-0,119	0,073
-202,606	800,000	0,036	-0,090
-201,592	-200,000	-0,006	-0,061
-200,577	488,822	0,052	0,085
-199,563	-200,000	0,007	0,083
-198,548	142,701	0,181	0,171
-197,533	154,172	-0,041	0,040
-196,519	-200,000	-0,005	-0,041
-195,504	35,870	-0,140	0,087
-194,490	36,437	0,084	-0,052
-193,475	190,584	-0,063	-0,068
-192,460	411,957	-0,025	0,038
-191,446	-200,000	0,027	0,114
-190,431	41,903	-0,059	-0,038
-189,417	501,821	-0,096	0,158
-188,402	25,557	-0,113	0,067
-187,387	-200,000	-0,057	-0,188
-186,373	-200,000	0,009	-0,118
-185,358	118,212	0,022	-0,020
-184,344	-48,786	0,083	0,028
-183,329	800,000	-0,019	-0,057
-182,315	209,934	0,035	-0,039
-181,300	-200,000	-0,008	-0,047
-180,285	445,249	-0,029	-0,046
-179,271	800,000	0,103	-0,207
-178,256	-200,000	0,002	0,102
-177,242	567,071	0,085	0,146
-176,227	216,013	0,079	0,089
-175,212	-51,072	-0,112	0,037
-174,198	-200,000	-0,002	0,098
-173,183	529,284	-0,048	0,080
-172,169	-48,215	0,077	0,026
-171,154	-200,000	0,012	-0,153
-170,139	445,219	0,015	-0,023
-169,125	-1,291	0,160	-0,080
-168,110	800,000	0,047	0,120
-167,096	-72,858	0,065	0,017
-166,081	-200,000	-0,007	-0,144
-165,066	217,612	-0,007	-0,008
-164,052	800,000	-0,044	-0,091
-163,037	-168,715	0,089	-0,002
-162,023	3,917	0,138	-0,071
-161,008	76,504	0,107	0,080
-159,993	-24,300	-0,101	0,042
-158,979	-200,000	-0,007	0,084
-157,964	-29,080	0,160	-0,065
-156,950	166,902	-0,028	-0,028
-155,935	-150,154	0,034	0,002
-154,920	35,928	-0,036	-0,022
-153,906	-127,276	0,077	0,008
-152,891	-79,657	-0,092	0,022
-151,877	-200,000	0,022	-0,126
-150,862	-109,709	-0,029	0,004
-149,847	-200,000	0,014	0,110
-148,833	-200,000	-0,031	0,105
-147,818	684,524	-0,008	0,016
-146,804	611,975	-0,060	0,106
-145,789	-181,369	0,056	0,001
-144,775	373,088	-0,043	-0,063
-143,760	-200,000	-0,029	-0,091
-142,745	-29,139	-0,091	-0,037
-141,731	-121,457	0,050	0,006
-140,716	27,662	0,057	0,034
-139,702	-200,000	-0,040	0,125
-138,687	646,071	-0,083	-0,151
-137,672	76,538	-0,082	0,062
-136,658	-128,658	0,063	0,006
-135,643	520,299	0,058	-0,096
-134,629	-36,931	-0,089	0,034
-133,614	-54,886	0,098	0,031
-132,599	736,592	0,048	-0,092
-131,585	418,572	0,061	0,093
-130,570	125,297	0,097	0,087
-129,556	62,478	0,097	0,069
-128,541	-200,000	-0,015	0,082
-127,526	574,758	-0,044	0,076
-126,512	293,858	0,056	-0,072
-125,497	402,321	0,029	-0,043
-124,483	-200,000	0,011	0,078
-123,468	-121,478	-0,178	-0,021
-122,453	77,669	-0,062	-0,047
-121,439	5,251	-0,028	-0,015
-120,424	51,290	-0,050	0,034
-119,410	-136,466	0,065	0,005
-118,395	-200,000	-0,013	-0,048
-117,380	-15,265	-0,140	0,063
-116,366	134,067	-0,113	-0,104
-115,351	-200,000	0,011	-0,049
-114,337	800,000	-0,048	-0,097
-113,322	101,299	-0,057	0,047
-112,307	100,901	0,014	0,011
-111,293	58,408	-0,038	-0,026
-110,278	75,634	-0,111	0,083
-109,264	-200,000	-0,010	0,062
-108,249	800,000	-0,015	0,042
-107,234	25,237	0,030	-0,017
-106,220	112,168	-0,071	-0,061
-105,205	-135,308	0,128	0,011
-104,191	-136,985	-0,044	-0,004
-103,176	-176,612	0,061	0,001
-102,162	-200,000	-0,025	-0,108
-101,147	44,156	-0,106	-0,069
-100,132	-200,000	-0,008	-0,137
-99,118	62,621	-0,136	-0,096
-98,103	118,160	-0,050	-0,043
-97,089	-125,590	0,046	-0,005
-96,074	800,000	-0,034	-0,081
-95,059	4,045	-0,156	-0,080
-94,045	-179,761	-0,005	0,000
-93,030	-200,000	-0,006	-0,107
-92,016	-200,000	0,002	-0,153
-91,001	20,422	-0,104	-0,059
-89,986	-85,517	0,141	0,031
-88,972	-76,742	-0,015	0,004
-87,957	-27,395	-0,104	-0,043
-86,943	-200,000	-0,025	-0,100
-85,928	-53,998	-0,165	0,053
-84,913	-145,772	-0,113	-0,007
-83,899	-200,000	-0,010	0,056
-82,884	-120,138	0,124	0,015
-81,870	177,391	-0,058	0,060
-80,855	272,844	-0,034	-0,043
-79,840	-76,776	-0,149	-0,037
-78,826	-200,000	-0,025	-0,078
-77,811	101,554	-0,026	-0,022
-76,797	250,743	-0,029	-0,035
-75,782	541,897	-0,080	0,135
-74,767	331,342	0,093	0,127
-73,753	-22,881	0,086	-0,036
-72,738	-69,191	-0,160	0,043
-71,724	-200,000	-0,005	0,040
-70,709	294,247	-0,019	-0,025
-69,694	-200,000	-0,005	-0,081
-68,680	-52,037	-0,091	0,030
-67,665	-200,000	-0,016	0,141
-66,651	19,039	-0,042	-0,024
-65,636	15,236	0,043	0,024
-64,622	392,436	0,028	-0,041
-63,607	800,000	0,022	-0,050
-62,592	593,708	0,077	-0,136
-61,578	45,698	-0,077	-0,050
-60,563	-200,000	0,033	0,111
-59,549	-200,000	-0,002	0,070
-58,534	51,441	-1,989	-1,332
-57,519	487,909	-1,178	-1,904
-56,505	-200,000	-0,266	-4,490
-55,490	505,153	0,861	1,413
-54,476	800,000	5,184	11,458
-53,461	-200,000	21,664	342,785
-52,446	800,000	763,139	2342,916
-51,432	547,728	1661,302	2817,086
-50,417	71,413	1657,366	1212,452
-49,403	17,183	1530,963	854,415
-48,388	11,264	1454,949	783,422
-47,373	19,329	1446,296	817,348
-46,359	14,789	1435,334	789,584
-45,344	9,532	1431,343	762,378
-44,330	9,522	1429,511	761,323
-43,315	9,453	1427,708	760,006
-42,300	9,485	1425,955	759,191
-41,286	9,511	1424,670	758,600
-40,271	9,455	1423,427	757,642
-39,257	9,478	1422,398	757,173
-38,242	9,501	1421,029	756,524
-37,227	9,524	1420,129	756,127
-36,213	9,494	1419,003	755,354
-35,198	9,544	1417,627	754,828
-34,184	9,530	1416,744	754,262
-33,169	9,464	1415,258	753,131
-32,154	9,518	1414,486	752,940
-31,140	9,533	1412,929	752,153
-30,125	9,534	1412,043	751,655
-29,111	9,552	1410,824	751,064
-28,096	9,526	1409,639	750,280
-27,082	9,473	1408,365	749,323
-26,067	9,401	1407,664	748,585
-25,052	9,464	1406,242	748,093
-24,038	9,475	1405,478	747,710
-23,023	9,438	1404,576	747,027
-22,009	9,447	1403,478	746,455
-20,994	9,462	1402,349	745,895
-19,979	9,489	1401,495	745,535
-18,965	9,410	1400,682	744,708
-17,950	9,427	1399,528	744,143
-16,936	9,365	1398,935	743,507
-15,921	9,382	1397,738	742,923
-14,906	9,338	1396,820	742,201
-13,892	9,448	1395,763	742,122
-12,877	9,383	1395,266	741,525
-11,863	9,359	1394,335	740,889
-10,848	9,363	1393,311	740,335
-9,833	9,290	1392,491	739,533
-8,819	9,286	1391,565	738,992
-7,804	9,238	1390,855	738,365
-6,790	9,330	1389,374	737,975
-5,775	9,328	1388,404	737,420
-4,760	9,269	1387,580	736,681
-3,746	9,293	1386,675	736,281
-2,731	9,304	1385,785	735,831
-1,717	9,318	1384,711	735,294
-0,702	9,322	1383,136	734,450
0,313	13,368	1295,629	706,432
1,327	29,484	686,835	410,863
2,342	45,727	118,458	77,066
3,356	-0,550	16,491	8,224
4,371	15,608	3,524	1,947
5,386	-7,933	1,194	0,566
6,400	800,000	0,212	0,470
7,415	-93,990	-0,212	-0,041
8,429	-23,449	-0,415	-0,175
9,444	182,991	-0,226	-0,235
10,459	-85,278	-0,276	-0,060
11,473	119,703	-0,216	-0,188
12,488	23,072	-0,295	-0,170
13,502	124,227	-0,374	-0,331
14,517	-76,461	-0,242	-0,059
15,531	87,967	-0,309	-0,241
16,546	30,328	-0,415	-0,249
17,561	216,866	-0,260	-0,292
18,575	-36,890	-0,148	-0,056
19,590	117,590	-0,304	-0,263
20,604	199,061	-0,155	-0,167
21,619	71,345	-0,537	-0,392
22,634	27,509	-0,442	-0,261
23,648	84,345	-0,470	-0,362
24,663	141,272	-0,396	-0,369
25,677	24,576	-0,359	-0,209
26,692	246,948	-0,191	-0,228
27,707	-22,340	-0,324	-0,137
28,721	131,920	-0,353	-0,319
29,736	39,217	-0,411	-0,258
30,750	15,211	-0,555	-0,305
31,765	313,347	-0,301	-0,399
32,780	189,234	-0,243	-0,256
33,794	172,349	-0,348	-0,353
34,809	58,959	-0,345	-0,238
35,823	85,282	-0,369	-0,285
36,838	16,009	-0,441	-0,243
37,853	99,920	-0,354	-0,288
38,867	48,923	-0,497	-0,327
39,882	59,171	-0,273	-0,189
40,896	93,831	-0,298	-0,237
41,911	3,486	-0,359	-0,183
42,926	319,492	-0,312	-0,417
43,940	199,532	-0,288	-0,310
44,955	183,635	-0,309	-0,322
45,969	164,287	-0,308	-0,305
46,984	-45,254	-0,456	-0,158
47,999	55,775	-0,446	-0,303
49,013	-2,436	-0,314	-0,154
50,028	137,986	-0,307	-0,283
51,042	39,925	-0,351	-0,221
52,057	184,586	-0,246	-0,256
53,071	211,305	-0,329	-0,364
54,086	99,974	-0,303	-0,246
55,101	-6,402	-0,364	-0,174
56,115	-53,960	-0,275	-0,087
57,130	117,784	-0,312	-0,270
58,144	118,737	-0,424	-0,367
59,159	166,757	-0,430	-0,429
60,174	397,995	-0,246	-0,362
61,188	-18,538	-0,243	-0,106
62,203	-88,645	-0,289	-0,060
63,217	-3,946	-0,254	-0,123
64,232	-4,306	-0,300	-0,145
65,247	128,356	-0,283	-0,252
66,261	79,326	-0,251	-0,189
67,276	41,467	-0,335	-0,212
68,290	11,859	-0,332	-0,178
69,305	-19,016	-0,383	-0,166
70,320	146,413	-0,250	-0,236
71,334	79,925	-0,338	-0,254
72,349	395,166	-0,254	-0,372
73,363	27,665	-0,400	-0,236
74,378	24,102	-0,245	-0,142
75,393	0,644	-0,331	-0,165
76,407	18,092	-0,236	-0,132
77,422	57,265	-0,244	-0,166
78,436	13,586	-0,314	-0,170
79,451	-37,654	-0,224	-0,083
80,466	-83,516	-0,289	-0,064
81,480	6,835	-0,348	-0,181
82,495	800,000	-0,089	-0,257
83,509	-42,769	-0,335	-0,118
84,524	63,246	-0,209	-0,146
85,539	0,389	-0,248	-0,123
86,553	30,764	-0,256	-0,153
87,568	-121,091	-0,210	-0,024
88,582	38,794	-0,268	-0,167
89,597	55,957	-0,324	-0,220
90,611	-74,126	-0,358	-0,090
91,626	-18,849	-0,268	-0,116
92,641	-91,737	-0,260	-0,051
93,655	-15,282	-0,223	-0,099
94,670	-19,684	-0,293	-0,126
95,684	-20,921	-0,356	-0,152
96,699	-26,766	-0,305	-0,124
97,714	800,000	-0,131	-0,268
98,728	11,668	-0,264	-0,141
99,743	-34,186	-0,303	-0,116
100,757	26,256	-0,275	-0,160
101,772	-0,837	-0,281	-0,139
102,787	196,974	-0,272	-0,290
103,801	140,483	-0,246	-0,227
104,816	54,042	-0,326	-0,219
105,830	-16,694	-0,306	-0,135
106,845	-94,715	-0,381	-0,072
107,860	11,504	-0,215	-0,115
108,874	195,733	-0,216	-0,230
109,889	137,505	-0,244	-0,223
110,903	-59,714	-0,424	-0,126
111,918	-6,519	-0,298	-0,141
112,933	-119,936	-0,288	-0,034
113,947	130,207	-0,234	-0,209
114,962	401,977	-0,239	-0,352
115,976	68,126	-0,235	-0,167
116,991	75,216	-0,294	-0,216
118,006	100,148	-0,262	-0,212
119,020	-110,963	-0,288	-0,041
120,035	177,834	-0,156	-0,159
121,049	-139,535	-0,216	-0,016
122,064	-73,945	-0,303	-0,076
123,079	-76,754	-0,289	-0,070
124,093	-34,893	-0,401	-0,152
125,108	37,513	-0,331	-0,204
126,122	112,666	-0,213	-0,180
127,137	49,287	-0,270	-0,177
128,151	70,531	-0,265	-0,191
129,166	-129,799	-0,130	0,012
130,181	-5,300	-0,364	-0,174
131,195	102,875	-0,261	-0,213
132,210	92,860	-0,285	-0,224
133,224	53,093	-0,224	-0,149
134,239	-31,905	-0,336	-0,130
135,254	32,624	-0,168	-0,101
136,268	-14,557	-0,342	-0,153
137,283	219,554	-0,183	-0,205
138,297	218,629	-0,247	-0,276
139,312	28,562	-0,251	-0,148
140,327	101,553	-0,317	-0,257
141,341	112,811	-0,261	-0,220
142,356	-73,743	-0,210	-0,053
143,370	-136,381	-0,167	0,013
144,385	32,206	-0,242	-0,145
145,400	-44,324	-0,166	-0,058
146,414	161,367	-0,225	-0,220
147,429	107,777	-0,178	-0,148
148,443	329,379	-0,195	-0,261
149,458	32,646	-0,299	-0,180
150,473	57,266	-0,255	-0,173
151,487	85,220	-0,117	-0,089
152,502	-95,744	-0,210	-0,039
153,516	147,707	-0,106	-0,099
154,531	-200,000	-0,071	-0,248
155,546	19,481	-0,363	-0,202
156,560	262,280	-0,152	-0,184
157,575	63,429	-0,275	-0,192
158,589	-11,982	-0,249	-0,113
159,604	250,985	-0,184	-0,218
160,619	-4,711	-0,313	-0,150
161,633	258,759	-0,232	-0,278
162,648	-26,620	-0,200	-0,081
163,662	23,683	-0,105	-0,060
164,677	144,332	-0,260	-0,242
165,692	-38,526	-0,178	-0,065
166,706	260,659	-0,157	-0,189
167,721	202,853	-0,152	-0,163
168,735	50,425	-0,191	-0,125
169,750	11,446	-0,315	-0,167
170,764	33,809	-0,193	-0,116
171,779	-100,713	-0,217	-0,037
172,794	800,000	-0,076	-0,164
173,808	-17,478	-0,373	-0,162
174,823	131,425	-0,292	-0,261
175,837	577,309	-0,118	-0,201
176,852	-41,427	-0,257	-0,091
177,867	-125,431	-0,210	0,022
178,881	5,692	-0,189	-0,097
179,896	-176,888	-0,143	-0,002
180,910	750,277	-0,137	-0,258
181,925	-1,935	-0,183	-0,089
182,940	177,353	-0,162	-0,164
183,954	-54,360	-0,271	-0,085
184,969	121,705	-0,169	-0,146
185,983	800,000	-0,031	-0,079
186,998	-157,146	-0,143	-0,006
188,013	59,132	-0,335	-0,228
189,027	203,974	-0,143	-0,154
190,042	36,725	-0,223	-0,136
191,056	800,000	-0,119	-0,245
192,071	-34,303	-0,219	-0,083
193,086	239,231	-0,162	-0,187
194,100	182,517	-0,159	-0,163
195,115	-183,433	-0,156	-0,002
196,129	-81,724	-0,112	-0,025
197,144	-48,554	-0,164	-0,054
198,159	165,666	-0,306	-0,300
199,173	265,237	-0,241	-0,291
200,188	-10,095	-0,151	-0,069
201,202	77,507	-0,119	-0,087
202,217	-88,369	-0,186	-0,038
203,232	62,172	-0,179	-0,124
204,246	-75,194	-0,271	-0,067
205,261	65,602	-0,158	-0,111
206,275	4,676	-0,175	-0,089
207,290	143,286	-0,207	-0,191
208,304	62,926	-0,206	-0,143
209,319	167,120	-0,146	-0,144
210,334	-28,511	-0,223	-0,089
211,348	216,405	-0,172	-0,190
212,363	-12,541	-0,244	-0,110
213,377	37,330	-0,138	-0,084
214,392	273,678	-0,094	-0,116
215,407	-79,106	-0,123	0,029
216,421	7,206	-0,241	-0,124
217,436	95,879	-0,208	-0,165
218,450	165,418	-0,265	-0,259
219,465	14,776	-0,236	-0,127
220,480	59,672	-0,271	-0,185
221,494	24,500	-0,198	-0,113
222,509	-150,367	-0,205	0,011
223,523	55,528	-0,147	-0,098
224,538	-74,769	-0,264	-0,065
225,553	-89,749	-0,140	-0,028
226,567	-166,717	-0,105	0,003
227,582	30,842	-0,210	-0,124
228,596	-39,163	-0,192	-0,069
229,611	555,973	-0,089	-0,149
230,626	131,965	-0,232	-0,206
231,640	10,462	-0,263	-0,138
232,655	192,549	-0,129	-0,134
233,669	203,269	-0,055	-0,059
234,684	382,506	-0,082	-0,116
235,699	64,463	-0,106	-0,074
236,713	-95,656	-0,155	0,028
237,728	233,959	-0,219	-0,250
238,742	153,283	-0,134	-0,126
239,757	-91,989	-0,116	-0,023
240,772	93,957	-0,240	-0,188
241,786	-14,551	-0,070	-0,031
242,801	200,923	-0,100	-0,106
243,815	400,229	-0,105	-0,152
244,830	227,721	-0,090	-0,101
245,844	72,756	-0,198	-0,142
246,859	-63,547	-0,202	-0,057
247,874	170,615	-0,251	-0,248
248,888	264,182	-0,134	-0,161
249,903	45,556	-0,177	-0,113
250,917	236,402	-0,091	-0,104
251,932	-198,610	-0,087	0,000
252,947	-87,241	-0,148	-0,031
253,961	131,056	-0,171	-0,152
254,976	159,053	-0,250	-0,240
255,990	398,993	-0,068	-0,099
257,005	389,523	-0,119	-0,170
258,020	328,637	-0,104	-0,139
259,034	56,867	-0,153	-0,103
260,049	-37,081	-0,125	-0,046
261,063	125,148	-0,081	-0,070
262,078	25,617	-0,210	-0,120
263,093	330,541	-0,137	-0,183
264,107	-200,000	-0,021	-0,093
265,122	-86,031	-0,201	0,042
266,136	59,161	-0,155	-0,105
267,151	137,449	-0,150	-0,135
268,166	105,204	-0,112	-0,091
269,180	-43,711	-0,275	-0,095
270,195	194,117	-0,164	-0,171
271,209	-131,832	-0,052	-0,005
272,224	435,804	-0,059	-0,089
273,239	115,815	-0,083	-0,070
274,253	177,825	-0,133	-0,134
275,268	278,223	-0,126	-0,155
276,282	117,843	-0,229	-0,194
277,297	400,885	-0,140	-0,202
278,312	-110,476	-0,201	-0,028
279,326	-53,016	-0,189	-0,059
280,341	-90,594	-0,192	-0,038
281,355	-120,342	-0,255	0,030
282,370	32,957	-0,212	-0,126
283,384	-61,956	-0,193	-0,055
284,399	-200,000	-0,059	-0,229
285,414	160,491	-0,162	-0,155
286,428	45,435	-0,237	-0,150
287,443	-104,338	-0,129	-0,020
288,457	800,000	-0,019	-0,055
289,472	156,130	-0,147	-0,139
290,487	146,107	-0,109	-0,100
291,501	445,502	-0,118	-0,178
292,516	20,798	-0,237	-0,132
293,530	-32,420	-0,120	-0,046
294,545	-200,000	0,009	-0,207
295,560	800,000	-0,077	-0,213
296,574	115,239	-0,212	-0,178
297,589	-183,402	-0,234	0,003
298,603	217,893	-0,190	-0,209
299,618	238,671	-0,148	-0,169
300,633	444,735	-0,140	-0,211
301,647	472,302	-0,063	-0,098
302,662	560,582	-0,029	0,049
303,676	444,502	-0,086	-0,131
304,691	516,939	-0,171	-0,275
305,706	492,061	-0,197	-0,311
306,720	219,621	-0,227	-0,250
307,735	139,233	-0,205	-0,185
308,749	199,132	-0,126	-0,133
309,764	-96,501	-0,116	0,021
310,779	-92,179	-0,098	0,019
311,793	59,294	-0,148	-0,100
312,808	107,792	-0,193	-0,158
313,822	-18,339	-0,262	-0,112
314,837	98,942	-0,075	-0,059
315,852	-155,393	-0,135	-0,006
316,866	7,437	-0,181	-0,092
317,881	-200,000	-0,074	-0,235
318,895	800,000	-0,062	-0,160
319,910	38,141	-0,061	-0,037
320,925	800,000	-0,050	-0,125
321,939	800,000	-0,127	-0,252
322,954	66,272	-0,101	-0,070
323,968	226,267	-0,098	-0,109
324,983	768,013	-0,083	-0,156
325,997	-135,289	-0,244	0,020
327,012	618,250	-0,114	-0,197
328,027	119,584	-0,122	-0,104
329,041	-46,740	-0,141	-0,047
330,056	-70,818	-0,094	-0,024
331,070	-71,879	-0,165	0,042
332,085	-200,000	-0,011	0,094
333,100	144,687	-0,101	-0,092
334,114	-68,200	-0,177	-0,047
335,129	43,760	-0,209	-0,131
336,143	-200,000	0,005	-0,101
337,158	121,337	-0,188	-0,161
338,173	175,415	-0,119	-0,118
339,187	-93,025	-0,165	-0,031
340,202	-77,444	-0,134	-0,032
341,216	20,503	-0,130	-0,072
342,231	-133,362	-0,293	-0,025
343,246	111,319	-0,131	-0,108
344,260	29,924	-0,091	-0,053
345,275	704,793	-0,115	-0,208
346,289	-87,724	-0,159	-0,032
347,304	-118,641	-0,137	0,016
348,319	224,088	-0,085	-0,094
349,333	253,422	-0,125	-0,146
350,348	53,017	-0,214	-0,140
351,362	335,826	-0,124	-0,165
352,377	-200,000	-0,030	-0,145
353,392	800,000	-0,040	-0,099
354,406	302,857	-0,125	0,158
355,421	208,885	1305,834	1399,004
356,435	160,751	1465,434	1399,480
