DTS Sentinel unit serial number:	SN410029Multiplexer serial number:	ORYXHardware model number:	OX2-SRSoftware version number:	ORYX F/W v4,00 Oryx Data Collector v3.7.2.0data status	okinstallation	B3 Nyhavnadifferential loss correction	single-endedforward channel	channel 1reverse channel	N/Adate	2023/12/04time	11:57:30forward acquisition time	300,00reverse acquisition time	0,00gamma	499,1914k internal	0,3203k external	0,3203temperature offset calibration	1,0000default loss term (dB/km)	0,3820temperature slope calibration	1,0000multiplexer offset coefficient	1,0000multiplexer slope coefficient	1,0000fibre end	0,00T internal ref (°C)	14,25T ext. ref 1 (°C)	-0,15T ext. ref 2 (°C)	-0,18length (m)	temperature (°C)	Stokes	anti-Stokes-744,400	-21,492	-0,290	-0,128
-743,385	-200,000	0,062	0,254
-742,371	113,211	-0,188	-0,166
-741,356	-200,000	0,018	0,388
-740,342	137,794	-0,203	-0,193
-739,327	-200,000	0,010	0,257
-738,312	318,688	-0,219	-0,302
-737,298	215,472	-0,172	0,198
-736,283	615,385	-0,108	-0,197
-735,269	-200,000	0,050	0,270
-734,254	29,344	-0,250	-0,154
-733,239	-4,585	-0,202	0,101
-732,225	-126,987	-0,274	0,029
-731,210	783,367	0,092	0,183
-730,196	800,000	-0,034	-0,079
-729,181	800,000	-0,060	-0,181
-728,167	220,173	-0,076	-0,088
-727,152	-200,000	0,012	0,059
-726,137	490,112	-0,027	0,045
-725,123	267,053	-0,046	-0,058
-724,108	214,543	0,021	-0,024
-723,094	-200,000	0,022	-0,137
-722,079	-97,324	-0,144	-0,027
-721,064	6,359	0,067	0,036
-720,050	271,223	-0,014	-0,018
-719,035	-128,342	-0,060	0,006
-718,021	200,561	-0,078	0,088
-717,006	-91,939	-0,019	-0,004
-715,991	396,715	-0,059	-0,090
-714,977	-200,000	-0,056	-0,191
-713,962	-82,760	-0,105	-0,024
-712,948	-124,598	0,012	-0,001
-711,933	-200,000	0,007	-0,029
-710,918	-70,220	0,126	0,035
-709,904	28,057	-0,168	-0,102
-708,889	-200,000	-0,016	-0,055
-707,875	99,301	0,065	-0,055
-706,860	44,532	-0,142	-0,095
-705,845	-128,462	-0,069	-0,007
-704,831	-43,062	-0,147	-0,054
-703,816	-200,000	-0,035	-0,116
-702,802	131,770	-0,059	-0,055
-701,787	32,128	-0,110	-0,069
-700,772	-200,000	0,021	-0,108
-699,758	-63,640	-0,073	-0,022
-698,743	-64,364	0,050	-0,015
-697,729	800,000	0,020	-0,048
-696,714	323,912	0,007	0,010
-695,699	-152,256	0,036	-0,002
-694,685	-115,397	-0,185	-0,025
-693,670	-121,498	0,097	-0,012
-692,656	28,046	-0,095	0,058
-691,641	800,000	0,036	0,088
-690,627	91,453	0,150	0,122
-689,612	381,151	-0,044	0,066
-688,597	-53,468	-0,090	-0,030
-687,583	732,412	-0,091	-0,178
-686,568	-200,000	0,013	-0,088
-685,554	800,000	-0,007	-0,016
-684,539	383,268	0,048	-0,072
-683,524	-66,242	0,147	0,042
-682,510	113,008	-0,032	0,028
-681,495	57,591	0,076	0,054
-680,481	125,979	0,049	-0,045
-679,466	800,000	-0,021	-0,043
-678,451	-16,023	-0,067	-0,031
-677,437	670,157	0,049	0,093
-676,422	308,697	0,125	0,170
-675,408	377,874	-0,034	-0,050
-674,393	250,891	0,093	-0,115
-673,378	-73,237	-0,083	0,022
-672,364	-200,000	-0,014	-0,056
-671,349	-131,905	-0,083	-0,008
-670,335	-165,580	0,075	-0,002
-669,320	409,931	0,055	-0,084
-668,305	-102,087	0,096	-0,017
-667,291	-33,718	-0,046	-0,018
-666,276	-200,000	-0,042	-0,144
-665,262	-200,000	0,005	0,027
-664,247	-200,000	0,021	-0,159
-663,232	201,079	-0,062	0,069
-662,218	120,053	0,087	-0,078
-661,203	31,894	-0,075	0,047
-660,189	300,740	0,059	-0,079
-659,174	21,520	-0,051	0,030
-658,159	-114,904	-0,113	-0,015
-657,145	276,058	-0,043	0,055
-656,130	-200,000	0,023	-0,082
-655,116	572,277	-0,077	-0,137
-654,101	61,592	-0,168	-0,121
-653,086	-10,730	-0,120	0,057
-652,072	800,000	-0,041	-0,107
-651,057	567,787	0,073	-0,130
-650,043	5,794	-0,081	0,043
-649,028	-78,872	-0,054	-0,013
-648,014	242,210	0,063	0,077
-646,999	42,087	-0,117	0,077
-645,984	29,987	0,020	-0,013
-644,970	226,766	-0,045	0,053
-643,955	-200,000	-0,010	-0,034
-642,941	-43,752	-0,118	-0,043
-641,926	197,298	-0,086	-0,095
-640,911	-200,000	-0,004	0,071
-639,897	-136,484	0,072	-0,006
-638,882	-200,000	0,002	-0,015
-637,868	-5,184	0,091	0,045
-636,853	800,000	-0,069	-0,173
-635,838	295,273	-0,031	-0,041
-634,824	21,573	-0,121	-0,071
-633,809	-77,208	0,123	-0,031
-632,795	50,093	-0,077	0,052
-631,780	-175,157	0,101	-0,002
-630,765	353,528	-0,017	-0,024
-629,751	-68,971	-0,111	0,031
-628,736	-119,173	-0,089	0,011
-627,722	114,765	0,055	-0,049
-626,707	-183,902	-0,073	-0,001
-625,692	180,811	0,114	-0,122
-624,678	-200,000	-0,007	-0,130
-623,663	-200,000	-0,029	-0,116
-622,649	171,814	-0,061	-0,063
-621,634	415,770	-0,029	-0,044
-620,619	34,994	0,045	-0,028
-619,605	-200,000	0,005	0,023
-618,590	16,364	0,028	0,016
-617,576	97,791	0,051	0,042
-616,561	-200,000	-0,016	0,102
-615,546	-22,134	0,059	-0,026
-614,532	111,853	-0,104	-0,091
-613,517	-25,503	-0,049	-0,021
-612,503	38,803	-0,115	-0,074
-611,488	-200,000	0,031	0,160
-610,474	480,929	-0,033	0,055
-609,459	-200,000	-0,019	-0,068
-608,444	38,562	-0,109	-0,070
-607,430	800,000	-0,059	-0,151
-606,415	-115,139	0,040	0,005
-605,401	-200,000	0,000	0,070
-604,386	-47,745	0,056	-0,019
-603,371	-119,217	-0,070	0,009
-602,357	-200,000	0,007	-0,047
-601,342	-200,000	-0,003	0,024
-600,328	37,092	0,074	-0,047
-599,313	90,466	-0,048	-0,039
-598,298	-113,358	-0,048	0,007
-597,284	86,876	-0,141	-0,113
-596,269	-200,000	0,022	0,096
-595,255	800,000	0,011	0,034
-594,240	-200,000	0,032	-0,148
-593,225	118,208	0,045	-0,040
-592,211	-200,000	0,010	-0,056
-591,196	-200,000	-0,043	-0,157
-590,182	123,389	0,075	-0,068
-589,167	-169,355	0,090	0,002
-588,152	168,117	-0,069	-0,071
-587,138	-200,000	0,004	0,048
-586,123	800,000	-0,056	-0,116
-585,109	800,000	0,023	-0,054
-584,094	74,628	-0,120	-0,091
-583,079	-75,792	0,075	0,019
-582,065	-200,000	-0,011	0,047
-581,050	276,589	-0,045	0,058
-580,036	-103,792	0,032	0,005
-579,021	-83,992	-0,027	0,006
-578,006	147,196	-0,052	-0,051
-576,992	142,649	-0,104	-0,100
-575,977	800,000	0,027	0,084
-574,963	-116,551	0,129	-0,017
-573,948	-82,331	0,109	0,025
-572,934	65,727	0,063	0,046
-571,919	-114,821	0,024	-0,003
-570,904	800,000	-0,011	-0,028
-569,890	-200,000	-0,022	0,105
-568,875	800,000	0,020	-0,040
-567,861	800,000	0,046	0,121
-566,846	340,760	-0,029	0,042
-565,831	452,167	-0,012	-0,019
-564,817	2,971	0,034	0,018
-563,802	118,775	-0,056	0,050
-562,788	-200,000	0,013	0,052
-561,773	-62,479	0,116	0,035
-560,758	74,477	0,067	-0,051
-559,744	244,696	0,073	0,089
-558,729	185,844	-0,067	0,071
-557,715	82,947	0,045	-0,036
-556,700	193,300	0,048	-0,053
-555,685	4,423	-0,093	0,049
-554,671	-200,000	-0,006	0,089
-553,656	-38,359	-0,070	0,027
-552,642	277,319	0,051	0,065
-551,627	-107,890	0,047	-0,007
-550,612	-25,141	0,027	-0,011
-549,598	-40,293	-0,097	-0,036
-548,583	-200,000	0,016	-0,108
-547,569	4,918	0,079	-0,042
-546,554	-103,162	0,097	-0,016
-545,539	-166,686	-0,051	0,002
-544,525	258,407	-0,050	0,062
-543,510	146,612	-0,058	-0,056
-542,496	-200,000	0,002	-0,083
-541,481	-200,000	0,004	-0,055
-540,466	-200,000	0,027	-0,173
-539,452	800,000	-0,030	0,073
-538,437	-11,212	-0,070	-0,033
-537,423	-200,000	0,020	0,065
-536,408	-200,000	-0,032	-0,103
-535,393	10,937	-0,062	-0,034
-534,379	250,232	-0,055	0,068
-533,364	-200,000	-0,004	0,070
-532,350	250,547	0,081	-0,100
-531,335	33,235	-0,136	0,085
-530,321	293,775	0,037	0,049
-529,306	216,945	0,016	-0,019
-528,291	-116,817	-0,085	-0,011
-527,277	-200,000	-0,010	0,044
-526,262	81,835	-0,081	0,063
-525,248	-99,616	0,040	0,007
-524,233	-93,386	0,060	0,012
-523,218	-34,445	-0,075	0,029
-522,204	-85,104	-0,147	-0,033
-521,189	344,798	0,024	0,035
-520,175	-158,984	-0,184	-0,007
-519,160	317,075	-0,083	-0,114
-518,145	23,899	0,082	0,049
-517,131	275,795	0,036	0,046
-516,116	32,579	0,162	0,101
-515,102	-200,000	0,018	0,090
-514,087	-30,471	-0,103	-0,042
-513,072	628,523	0,047	-0,086
-512,058	-200,000	0,005	-0,125
-511,043	-200,000	0,004	0,048
-510,029	132,089	-0,001	-0,001
-509,014	-200,000	0,005	0,149
-507,999	-200,000	-0,001	0,165
-506,985	526,038	-0,077	-0,131
-505,970	337,246	-0,041	-0,058
-504,956	-92,210	-0,085	-0,017
-503,941	230,006	0,060	0,071
-502,926	373,054	0,124	0,183
-501,912	443,475	0,074	0,118
-500,897	0,513	0,122	0,063
-499,883	229,330	-0,060	0,071
-498,868	-200,000	0,034	-0,112
-497,853	-200,000	-0,022	-0,122
-496,839	-39,684	0,081	0,030
-495,824	-200,000	0,023	0,129
-494,810	80,400	-0,016	0,012
-493,795	800,000	-0,024	-0,064
-492,781	10,597	-0,040	-0,022
-491,766	1,848	-0,197	0,102
-490,751	438,046	-0,051	0,080
-489,737	94,760	-0,015	0,012
-488,722	-38,108	-0,058	0,022
-487,708	629,064	0,033	-0,061
-486,693	800,000	-0,045	-0,117
-485,678	89,977	0,075	-0,060
-484,664	-6,513	0,069	-0,033
-483,649	129,473	0,027	0,025
-482,635	-0,702	0,163	-0,083
-481,620	800,000	0,017	-0,036
-480,605	421,955	0,133	0,207
-479,591	-200,000	-0,013	0,075
-478,576	800,000	0,017	0,036
-477,562	308,199	-0,070	0,095
-476,547	764,426	-0,026	0,051
-475,532	-74,410	-0,055	0,014
-474,518	-75,076	0,080	0,021
-473,503	465,276	0,039	-0,064
-472,489	-33,935	0,074	0,029
-471,474	769,678	-0,015	0,030
-470,459	205,383	-0,077	-0,086
-469,445	722,999	-0,040	-0,076
-468,430	273,582	0,066	-0,085
-467,416	95,545	0,102	-0,083
-466,401	33,286	0,098	0,061
-465,386	-18,351	-0,129	-0,058
-464,372	-200,000	0,017	-0,058
-463,357	255,937	0,045	-0,056
-462,343	-7,084	0,006	-0,003
-461,328	-200,000	-0,003	-0,114
-460,313	-92,919	-0,106	-0,021
-459,299	423,078	0,058	-0,090
-458,284	247,300	0,090	0,109
-457,270	-200,000	0,001	0,065
-456,255	84,653	0,086	-0,067
-455,241	-200,000	0,023	0,075
-454,226	-98,278	-0,183	-0,033
-453,211	-84,964	0,098	0,022
-452,197	-65,134	0,141	-0,041
-451,182	-151,331	-0,111	-0,006
-450,168	-64,287	-0,052	0,015
-449,153	120,752	-0,050	-0,045
-448,138	143,318	0,064	0,061
-447,124	143,902	-0,030	0,029
-446,109	16,036	-0,059	-0,033
-445,095	-190,704	0,053	0,000
-444,080	79,958	0,053	-0,041
-443,065	67,869	-0,142	-0,104
-442,051	-9,147	-0,069	-0,033
-441,036	-69,763	-0,089	0,024
-440,022	-20,927	0,070	-0,030
-439,007	-115,580	-0,042	-0,006
-437,992	404,292	-0,032	0,049
-436,978	-150,043	0,072	0,004
-435,963	154,042	-0,025	-0,025
-434,949	287,737	0,032	-0,041
-433,934	567,196	-0,038	0,067
-432,919	-200,000	-0,026	0,141
-431,905	-25,991	-0,119	0,050
-430,890	-200,000	-0,004	0,142
-429,876	-200,000	-0,020	0,117
-428,861	800,000	0,026	-0,075
-427,846	284,843	-0,041	0,053
-426,832	2,807	-0,046	-0,024
-425,817	-200,000	0,011	-0,058
-424,803	-143,395	-0,111	-0,007
-423,788	-14,104	-0,142	0,066
-422,773	333,008	0,100	0,139
-421,759	800,000	0,056	0,152
-420,744	-147,417	0,039	-0,002
-419,730	-200,000	0,000	0,025
-418,715	-200,000	0,019	0,073
-417,701	109,902	0,062	-0,054
-416,686	-200,000	0,009	-0,033
-415,671	-200,000	0,006	-0,041
-414,657	-200,000	-0,016	0,079
-413,642	569,831	-0,042	0,074
-412,628	-83,241	0,120	-0,027
-411,613	800,000	-0,015	0,037
-410,598	800,000	0,020	-0,063
-409,584	263,006	0,067	-0,083
-408,569	-25,171	-0,017	-0,007
-407,555	-200,000	0,020	0,100
-406,540	-123,066	0,161	-0,018
-405,525	-102,304	0,069	-0,012
-404,511	-200,000	0,009	-0,085
-403,496	-5,359	-0,116	-0,057
-402,482	-46,458	0,118	-0,041
-401,467	449,015	-0,031	-0,048
-400,452	-20,262	0,027	0,012
-399,438	-76,311	-0,065	-0,016
-398,423	-52,793	0,037	0,012
-397,409	-200,000	-0,017	-0,068
-396,394	254,320	0,059	-0,072
-395,379	-28,784	-0,014	0,006
-394,365	-200,000	-0,014	0,124
-393,350	-94,382	0,042	0,008
-392,336	4,326	0,040	-0,021
-391,321	-15,720	0,075	-0,034
-390,306	-200,000	0,010	-0,055
-389,292	209,070	0,071	0,080
-388,277	159,997	0,071	0,071
-387,263	-106,813	-0,071	0,011
-386,248	-21,257	0,204	0,089
-385,233	800,000	-0,010	0,022
-384,219	253,376	-0,076	-0,094
-383,204	-200,000	0,005	-0,126
-382,190	242,099	-0,056	0,067
-381,175	36,930	-0,079	-0,050
-380,160	55,163	0,042	0,029
-379,146	697,696	0,015	0,029
-378,131	-113,918	0,081	-0,011
-377,117	380,918	0,010	-0,015
-376,102	72,781	0,051	-0,038
-375,088	800,000	-0,055	-0,146
-374,073	56,410	0,018	0,012
-373,058	104,500	0,043	0,036
-372,044	800,000	0,042	0,120
-371,029	-200,000	0,014	-0,072
-370,015	39,299	0,063	-0,040
-369,000	140,921	-0,073	-0,069
-367,985	190,648	-0,075	-0,081
-366,971	-96,727	0,081	0,015
-365,956	-77,370	0,029	0,007
-364,942	-200,000	0,010	0,125
-363,927	17,466	-0,103	0,058
-362,912	800,000	0,081	0,181
-361,898	-133,963	-0,076	0,007
-360,883	12,985	0,062	-0,034
-359,869	-200,000	-0,003	-0,142
-358,854	76,086	0,112	0,085
-357,839	71,274	0,064	0,048
-356,825	-200,000	0,053	0,218
-355,810	78,312	0,057	0,043
-354,796	-200,000	-0,017	-0,103
-353,781	26,856	-0,091	-0,054
-352,766	25,560	-0,118	-0,070
-351,752	-26,287	0,041	-0,017
-350,737	800,000	-0,018	0,052
-349,723	-200,000	0,009	0,113
-348,708	-200,000	0,015	0,051
-347,693	-155,992	0,149	0,007
-346,679	119,427	0,071	0,063
-345,664	-53,141	0,060	-0,019
-344,650	-200,000	0,001	0,073
-343,635	-118,540	0,133	0,017
-342,620	800,000	-0,049	0,114
-341,606	-29,475	0,107	-0,043
-340,591	270,116	-0,057	-0,072
-339,577	298,553	0,042	0,056
-338,562	-200,000	-0,034	-0,217
-337,548	702,140	-0,053	-0,100
-336,533	84,830	0,087	0,068
-335,518	-24,264	0,074	0,031
-334,504	118,000	0,124	-0,109
-333,489	38,827	-0,066	0,042
-332,475	-8,569	-0,150	-0,072
-331,460	529,442	-0,076	0,130
-330,445	-200,000	-0,008	0,057
-329,431	95,120	-0,102	0,083
-328,416	271,474	0,160	-0,202
-327,402	270,439	-0,038	-0,048
-326,387	800,000	0,020	0,064
-325,372	800,000	-0,008	-0,016
-324,358	-48,883	-0,050	0,017
-323,343	77,231	-0,119	-0,090
-322,329	800,000	0,043	0,096
-321,314	102,235	0,101	0,084
-320,299	62,829	0,088	0,063
-319,285	-200,000	0,012	-0,104
-318,270	405,670	-0,049	-0,074
-317,256	144,149	-0,039	0,037
-316,241	-28,052	-0,116	-0,048
-315,226	298,543	-0,055	-0,073
-314,212	-130,422	0,136	0,013
-313,197	32,316	-0,055	-0,034
-312,183	-200,000	-0,019	-0,167
-311,168	213,054	-0,041	0,046
-310,153	800,000	-0,054	-0,109
-309,139	800,000	-0,018	-0,055
-308,124	-200,000	-0,004	0,082
-307,110	800,000	0,043	0,092
-306,095	-200,000	0,004	0,014
-305,080	-39,043	-0,080	-0,030
-304,066	-12,018	-0,134	-0,062
-303,051	-200,000	0,014	-0,098
-302,037	-6,894	0,122	0,059
-301,022	736,107	-0,077	0,148
-300,008	-10,613	0,040	-0,019
-298,993	-200,000	-0,004	0,061
-297,978	-200,000	-0,013	0,126
-296,964	-32,091	0,055	-0,022
-295,949	800,000	0,066	-0,176
-294,935	510,771	-0,007	-0,012
-293,920	800,000	-0,029	0,074
-292,905	59,335	-0,106	0,074
-291,891	-155,814	0,084	0,004
-290,876	-200,000	0,022	-0,111
-289,862	-200,000	0,004	-0,165
-288,847	800,000	-0,047	-0,144
-287,832	612,538	-0,048	-0,087
-286,818	43,027	-0,103	-0,067
-285,803	-73,402	0,134	-0,035
-284,789	-200,000	-0,009	-0,030
-283,774	-200,000	-0,004	0,046
-282,759	-194,377	0,032	0,000
-281,745	-200,000	0,002	0,023
-280,730	-200,000	-0,004	-0,105
-279,716	800,000	-0,051	-0,154
-278,701	-123,851	0,083	-0,009
-277,686	258,484	-0,047	-0,058
-276,672	-94,830	0,129	-0,025
-275,657	5,756	0,046	-0,024
-274,643	-72,007	-0,129	-0,034
-273,628	332,667	-0,046	0,064
-272,613	47,823	-0,033	0,022
-271,599	-200,000	0,006	0,156
-270,584	800,000	-0,008	-0,022
-269,570	-64,314	0,079	0,023
-268,555	-61,318	0,049	0,015
-267,540	509,561	-0,095	-0,158
-266,526	-200,000	-0,009	-0,052
-265,511	-200,000	-0,010	-0,107
-264,497	320,794	-0,100	-0,135
-263,482	49,404	0,081	0,054
-262,467	-74,402	0,097	0,025
-261,453	179,637	0,084	-0,088
-260,438	0,420	-0,182	-0,093
-259,424	-181,887	-0,122	0,002
-258,409	459,088	0,034	0,054
-257,395	-10,165	-0,037	-0,018
-256,380	-200,000	-0,031	-0,118
-255,365	-200,000	0,000	-0,057
-254,351	-139,614	0,035	-0,003
-253,336	-200,000	0,011	-0,077
-252,322	56,109	-0,046	-0,032
-251,307	-33,414	-0,144	-0,057
-250,292	-200,000	-0,022	0,104
-249,278	-155,096	-0,111	-0,005
-248,263	-157,306	-0,101	0,004
-247,249	-200,000	-0,016	0,096
-246,234	-137,649	0,145	-0,011
-245,219	-200,000	-0,029	0,092
-244,205	-103,490	-0,167	0,028
-243,190	-41,494	0,069	0,025
-242,176	-56,632	0,044	0,014
-241,161	-200,000	0,053	0,177
-240,146	-200,000	-0,011	-0,049
-239,132	-20,606	-0,061	-0,027
-238,117	76,143	0,102	-0,077
-237,103	-138,908	0,090	0,007
-236,088	317,956	-0,050	0,068
-235,073	4,706	0,152	0,079
-234,059	-18,424	0,075	-0,033
-233,044	131,403	-0,123	-0,112
-232,030	-200,000	0,011	0,052
-231,015	524,858	0,063	-0,106
-230,000	208,781	0,019	-0,021
-228,986	225,481	0,117	0,135
-227,971	110,283	-0,080	0,069
-226,957	-200,000	0,051	0,164
-225,942	-29,558	0,136	0,055
-224,927	800,000	-0,031	0,063
-223,913	-200,000	-0,003	0,091
-222,898	348,864	0,053	-0,075
-221,884	-56,270	-0,093	0,029
-220,869	-94,876	0,114	-0,022
-219,855	-83,090	0,068	-0,015
-218,840	-44,049	0,066	0,024
-217,825	800,000	0,013	0,027
-216,811	320,854	-0,092	0,125
-215,796	120,097	-0,107	-0,095
-214,782	127,966	0,049	0,044
-213,767	800,000	-0,032	0,067
-212,752	-126,806	-0,067	0,007
-211,738	-17,839	-0,121	0,054
-210,723	-28,159	0,082	0,033
-209,709	-123,404	0,039	-0,004
-208,694	-40,635	0,129	-0,047
-207,679	120,242	0,026	-0,023
-206,665	87,983	-0,029	0,023
-205,650	-200,000	0,012	-0,047
-204,636	800,000	-0,030	-0,073
-203,621	191,909	-0,065	0,070
-202,606	-200,000	0,027	-0,170
-201,592	-74,621	0,069	0,018
-200,577	26,416	0,094	0,056
-199,563	160,567	-0,061	0,061
-198,548	109,765	-0,047	-0,040
-197,533	800,000	0,080	0,215
-196,519	-100,508	0,019	0,003
-195,504	-89,216	-0,085	0,018
-194,490	-14,301	-0,167	0,076
-193,475	15,840	0,107	-0,060
-192,460	439,185	0,026	-0,041
-191,446	-110,784	0,091	-0,013
-190,431	-17,367	0,053	0,024
-189,417	-39,471	-0,056	0,021
-188,402	-178,864	0,089	-0,001
-187,387	275,446	-0,036	-0,045
-186,373	-86,830	-0,000	0,000
-185,358	-63,862	-0,120	0,035
-184,344	-102,995	0,057	0,009
-183,329	-200,000	0,033	0,125
-182,315	-85,073	0,095	0,021
-181,300	149,309	-0,092	0,089
-180,285	-200,000	0,019	-0,092
-179,271	800,000	0,044	0,106
-178,256	304,902	0,087	0,115
-177,242	56,511	-0,110	-0,076
-176,227	261,361	0,004	-0,005
-175,212	9,131	0,090	0,048
-174,198	-200,000	0,006	-0,101
-173,183	-78,849	-0,196	0,047
-172,169	-200,000	0,003	0,109
-171,154	-200,000	0,001	0,025
-170,139	-97,382	0,022	0,004
-169,125	390,673	0,082	0,121
-168,110	-8,453	-0,089	0,042
-167,096	-200,000	-0,005	-0,017
-166,081	-200,000	0,009	-0,048
-165,066	-200,000	-0,005	0,035
-164,052	-200,000	0,010	0,052
-163,037	-200,000	-0,001	-0,046
-162,023	-136,235	0,166	0,014
-161,008	73,683	-0,051	0,038
-159,993	163,339	-0,103	-0,103
-158,979	-68,130	-0,015	-0,004
-157,964	341,688	-0,157	-0,218
-156,950	-53,951	-0,130	-0,042
-155,935	-200,000	-0,005	0,210
-154,920	-200,000	-0,001	0,092
-153,906	800,000	-0,066	0,152
-152,891	107,260	0,136	0,115
-151,877	30,263	-0,112	0,068
-150,862	328,429	-0,052	0,071
-149,847	-200,000	0,001	0,011
-148,833	246,764	0,029	-0,035
-147,818	99,041	0,008	-0,006
-146,804	-135,119	0,020	0,002
-145,789	92,115	0,100	-0,080
-144,775	187,075	0,032	-0,034
-143,760	-200,000	-0,023	0,075
-142,745	-200,000	0,014	-0,068
-141,731	-200,000	0,019	-0,094
-140,716	-144,096	0,136	0,009
-139,702	205,544	-0,124	0,137
-138,687	-119,715	0,186	0,023
-137,672	800,000	-0,029	-0,069
-136,658	800,000	0,037	0,093
-135,643	-61,385	-0,085	-0,025
-134,629	800,000	-0,073	0,157
-133,614	-93,261	0,114	-0,022
-132,599	136,093	0,041	-0,038
-131,585	800,000	0,015	0,044
-130,570	-99,807	-0,054	-0,010
-129,556	-200,000	-0,009	-0,065
-128,541	55,442	-0,099	0,068
-127,526	-114,286	0,123	-0,017
-126,512	-65,168	0,063	-0,018
-125,497	800,000	0,068	-0,165
-124,483	-131,664	-0,043	-0,004
-123,468	-200,000	-0,012	0,085
-122,453	-200,000	-0,001	-0,052
-121,439	-200,000	0,011	0,102
-120,424	304,820	-0,052	0,069
-119,410	-200,000	0,016	-0,053
-118,395	51,254	0,047	0,032
-117,380	-25,486	-0,050	-0,021
-116,366	233,427	0,032	-0,037
-115,351	576,471	0,092	-0,161
-114,337	108,731	-0,140	-0,119
-113,322	66,631	0,031	-0,022
-112,307	-105,318	0,195	0,031
-111,293	383,606	-0,011	-0,016
-110,278	-200,000	-0,000	0,048
-109,264	77,900	-0,049	0,037
-108,249	456,853	-0,068	-0,108
-107,234	-81,558	-0,041	-0,009
-106,220	-200,000	-0,002	-0,029
-105,205	-95,995	0,183	-0,034
-104,191	-31,558	0,045	0,018
-103,176	-200,000	-0,008	-0,030
-102,162	800,000	0,067	-0,162
-101,147	-148,548	-0,007	0,000
-100,132	317,612	0,097	-0,130
-99,118	-142,678	-0,155	-0,011
-98,103	800,000	0,008	-0,017
-97,089	-156,663	0,125	-0,005
-96,074	452,513	0,014	0,022
-95,059	-200,000	-0,020	0,074
-94,045	-176,815	-0,236	-0,004
-93,030	162,678	-0,100	-0,099
-92,016	-164,890	-0,098	-0,003
-91,001	16,831	-0,098	-0,055
-89,986	60,350	0,060	-0,042
-88,972	651,087	0,069	0,126
-87,957	800,000	-0,029	0,078
-86,943	-154,360	-0,009	-0,000
-85,928	426,957	0,064	-0,098
-84,913	-44,164	0,117	-0,041
-83,899	56,802	-0,058	0,040
-82,884	-21,125	0,158	0,068
-81,870	800,000	-0,066	0,149
-80,855	800,000	0,064	0,168
-79,840	-53,114	-0,103	0,033
-78,826	800,000	0,015	-0,045
-77,811	-200,000	-0,034	0,173
-76,797	178,876	-0,082	0,085
-75,782	4,569	-0,103	-0,053
-74,767	-109,179	0,053	-0,008
-73,753	800,000	-0,039	0,079
-72,738	21,186	-0,101	0,058
-71,724	-200,000	0,017	-0,119
-70,709	-200,000	0,006	-0,133
-69,694	-34,875	0,013	-0,005
-68,680	-58,205	0,058	0,018
-67,665	-200,000	0,022	0,103
-66,651	-61,760	0,096	0,028
-65,636	200,493	-0,045	-0,049
-64,622	-200,000	0,006	-0,073
-63,607	-200,000	-0,045	-0,206
-62,592	91,917	0,025	0,020
-61,578	-200,000	0,009	-0,069
-60,563	247,688	-0,100	0,120
-59,549	-200,000	0,006	0,047
-58,534	-51,017	-1,623	-0,536
-57,519	426,486	-1,351	-2,068
-56,505	-200,000	-0,448	-4,421
-55,490	187,419	0,978	1,034
-54,476	800,000	4,874	11,022
-53,461	-200,000	18,554	299,954
-52,446	800,000	733,388	2268,549
-51,432	560,980	1649,317	2831,758
-50,417	78,715	1668,622	1261,437
-49,403	22,178	1541,535	888,160
-48,388	16,121	1464,410	814,356
-47,373	17,711	1454,336	816,385
-46,359	16,904	1444,548	806,996
-45,344	14,369	1439,947	792,281
-44,330	14,292	1438,120	790,876
-43,315	14,282	1436,429	789,868
-42,300	14,352	1434,721	789,230
-41,286	14,347	1433,428	788,463
-40,271	14,342	1432,133	787,694
-39,257	14,320	1431,069	786,974
-38,242	14,333	1429,808	786,312
-37,227	14,389	1428,336	785,738
-36,213	14,371	1427,151	784,970
-35,198	14,341	1426,176	784,258
-34,184	14,393	1425,092	783,879
-33,169	14,305	1423,723	782,676
-32,154	14,353	1422,739	782,330
-31,140	14,300	1421,591	781,420
-30,125	14,350	1420,317	780,923
-29,111	14,368	1419,119	780,321
-28,096	14,330	1418,103	779,549
-27,082	14,278	1417,084	778,715
-26,067	14,275	1415,960	778,054
-25,052	14,295	1414,806	777,480
-24,038	14,310	1413,860	777,000
-23,023	14,258	1412,850	776,169
-22,009	14,282	1411,930	775,745
-20,994	14,262	1410,986	775,105
-19,979	14,269	1410,001	774,564
-18,965	14,204	1409,324	773,857
-17,950	14,164	1408,232	773,042
-16,936	14,219	1407,520	772,876
-15,921	14,170	1406,128	771,853
-14,906	14,190	1405,412	771,524
-13,892	14,227	1404,310	771,060
-12,877	14,211	1403,351	770,429
-11,863	14,174	1402,575	769,798
-10,848	14,165	1401,779	769,289
-9,833	14,177	1400,651	768,698
-8,819	14,093	1400,032	767,933
-7,804	14,110	1398,901	767,362
-6,790	14,099	1397,875	766,720
-5,775	14,067	1396,904	766,009
-4,760	14,068	1396,230	765,611
-3,746	14,079	1395,082	765,003
-2,731	14,090	1394,217	764,547
-1,717	14,072	1393,228	763,893
-0,702	14,052	1391,715	762,943
0,313	18,017	1309,678	736,276
1,327	34,507	705,639	434,839
2,342	52,978	124,101	83,829
3,356	2,747	16,616	8,493
4,371	7,247	3,249	1,709
5,386	-18,180	0,580	0,256
6,400	800,000	-0,018	0,046
7,415	-58,105	-0,372	-0,114
8,429	146,062	-0,335	-0,318
9,444	200,542	-0,292	-0,318
10,459	-27,409	-0,351	-0,144
11,473	-54,768	-0,395	-0,125
12,488	-58,423	-0,406	-0,124
13,502	-31,691	-0,461	-0,182
14,517	115,264	-0,360	-0,311
15,531	68,266	-0,351	-0,254
16,546	106,314	-0,228	-0,191
17,561	-11,313	-0,448	-0,208
18,575	438,960	-0,099	-0,153
19,590	191,636	-0,257	-0,273
20,604	-18,537	-0,258	-0,113
21,619	13,339	-0,462	-0,252
22,634	43,552	-0,425	-0,274
23,648	55,451	-0,418	-0,285
24,663	129,682	-0,305	-0,275
25,677	99,521	-0,401	-0,327
26,692	-48,758	-0,360	-0,121
27,707	-39,917	-0,451	-0,165
28,721	42,088	-0,348	-0,222
29,736	153,766	-0,396	-0,383
30,750	122,648	-0,375	-0,331
31,765	103,085	-0,428	-0,353
32,780	-8,481	-0,376	-0,177
33,794	50,963	-0,268	-0,179
34,809	20,374	-0,499	-0,283
35,823	74,459	-0,308	-0,228
36,838	64,673	-0,411	-0,292
37,853	307,094	-0,271	-0,357
38,867	89,861	-0,401	-0,315
39,882	78,275	-0,408	-0,306
40,896	72,904	-0,373	-0,274
41,911	22,599	-0,411	-0,237
42,926	108,638	-0,336	-0,283
43,940	52,630	-0,361	-0,242
44,955	181,028	-0,279	-0,289
45,969	112,804	-0,297	-0,254
46,984	160,983	-0,235	-0,231
47,999	33,513	-0,283	-0,173
49,013	45,161	-0,413	-0,268
50,028	175,662	-0,349	-0,357
51,042	-118,400	-0,410	-0,051
52,057	185,419	-0,303	-0,317
53,071	188,886	-0,313	-0,330
54,086	14,025	-0,444	-0,242
55,101	88,527	-0,319	-0,249
56,115	43,858	-0,239	-0,154
57,130	92,832	-0,257	-0,204
58,144	2,326	-0,293	-0,149
59,159	36,361	-0,469	-0,291
60,174	121,189	-0,294	-0,257
61,188	69,653	-0,255	-0,185
62,203	87,341	-0,296	-0,230
63,217	17,188	-0,303	-0,169
64,232	-69,634	-0,326	-0,087
65,247	223,820	-0,282	-0,320
66,261	190,793	-0,262	-0,277
67,276	120,728	-0,300	-0,262
68,290	7,202	-0,350	-0,183
69,305	96,435	-0,256	-0,206
70,320	28,393	-0,399	-0,236
71,334	-46,810	-0,409	-0,140
72,349	-4,539	-0,326	-0,158
73,363	41,285	-0,395	-0,251
74,378	244,456	-0,307	-0,363
75,393	114,559	-0,421	-0,360
76,407	19,423	-0,249	-0,140
77,422	94,764	-0,237	-0,189
78,436	168,920	-0,192	-0,193
79,451	174,701	-0,283	-0,288
80,466	15,847	-0,294	-0,162
81,480	-112,529	-0,151	-0,021
82,495	143,283	-0,340	-0,318
83,509	170,702	-0,210	-0,212
84,524	165,495	-0,180	-0,179
85,539	-122,841	-0,210	-0,024
86,553	-92,939	-0,231	-0,045
87,568	72,879	-0,318	-0,233
88,582	344,965	-0,178	-0,246
89,597	74,146	-0,338	-0,249
90,611	108,577	-0,287	-0,240
91,626	399,868	-0,179	-0,264
92,641	178,511	-0,182	-0,187
93,655	72,614	-0,199	-0,146
94,670	-28,339	-0,281	-0,113
95,684	-23,383	-0,351	-0,147
96,699	99,410	-0,252	-0,204
97,714	171,135	-0,279	-0,280
98,728	460,597	-0,125	-0,196
99,743	-15,841	-0,292	-0,130
100,757	20,911	-0,253	-0,143
101,772	67,469	-0,286	-0,204
102,787	307,906	-0,253	-0,332
103,801	92,969	-0,202	-0,160
104,816	150,613	-0,188	-0,179
105,830	58,323	-0,396	-0,272
106,845	216,943	-0,210	-0,234
107,860	168,699	-0,215	-0,215
108,874	141,500	-0,281	-0,261
109,889	181,496	-0,252	-0,260
110,903	24,045	-0,273	-0,157
111,918	392,037	-0,219	-0,319
112,933	800,000	-0,068	-0,140
113,947	73,806	-0,169	-0,124
114,962	-71,637	-0,127	-0,033
115,976	-63,287	-0,344	-0,099
116,991	84,602	-0,262	-0,201
118,006	21,717	-0,471	-0,268
119,020	-1,812	-0,253	-0,124
120,035	203,772	-0,114	-0,124
121,049	-105,670	-0,253	0,040
122,064	-140,376	-0,249	-0,018
123,079	40,482	-0,234	-0,147
124,093	157,280	-0,338	-0,327
125,108	279,838	-0,240	-0,300
126,122	332,765	-0,208	-0,281
127,137	-119,862	-0,305	-0,036
128,151	-139,577	-0,223	0,016
129,166	-98,281	-0,103	-0,018
130,181	62,409	-0,274	-0,191
131,195	11,409	-0,298	-0,159
132,210	53,858	-0,421	-0,282
133,224	66,923	-0,219	-0,156
134,239	800,000	-0,088	-0,251
135,254	458,501	-0,180	-0,281
136,268	33,094	-0,206	-0,125
137,283	25,518	-0,349	-0,202
138,297	161,799	-0,285	-0,279
139,312	218,258	-0,274	-0,306
140,327	134,564	-0,321	-0,291
141,341	110,203	-0,282	-0,237
142,356	43,648	-0,302	-0,193
143,370	5,163	-0,229	-0,118
144,385	-65,027	-0,237	-0,066
145,400	800,000	-0,156	-0,338
146,414	152,086	-0,225	-0,214
147,429	174,487	-0,262	-0,265
148,443	-99,951	-0,235	-0,041
149,458	55,809	-0,275	-0,186
150,473	286,228	-0,166	-0,210
151,487	800,000	-0,075	-0,210
152,502	131,174	-0,205	-0,184
153,516	-20,965	-0,322	-0,137
154,531	26,767	-0,237	-0,138
155,546	81,124	-0,309	-0,233
156,560	-200,000	-0,054	-0,306
157,575	-54,367	-0,144	-0,045
158,589	153,513	-0,148	-0,141
159,604	11,233	-0,260	-0,138
160,619	132,847	-0,241	-0,217
161,633	126,190	-0,209	-0,184
162,648	176,772	-0,141	-0,144
163,662	-87,231	-0,193	-0,040
164,677	-50,633	-0,251	-0,082
165,692	39,716	-0,222	-0,138
166,706	60,041	-0,290	-0,199
167,721	-100,888	-0,291	-0,049
168,735	139,016	-0,218	-0,200
169,750	-79,964	-0,262	-0,061
170,764	-31,955	-0,117	-0,046
171,779	81,733	-0,191	-0,144
172,794	239,484	-0,147	-0,171
173,808	600,265	-0,127	-0,220
174,823	14,428	-0,278	-0,151
175,837	-88,527	-0,252	-0,052
176,852	-9,714	-0,368	-0,170
177,867	66,226	-0,295	-0,208
178,881	134,495	-0,249	-0,225
179,896	56,509	-0,233	-0,158
180,910	265,972	-0,197	-0,239
181,925	145,305	-0,157	-0,146
182,940	-58,944	-0,255	-0,076
183,954	105,905	-0,207	-0,170
184,969	-136,170	-0,219	-0,018
185,983	139,061	-0,094	-0,086
186,998	-148,668	-0,229	-0,013
188,013	-66,962	-0,261	-0,071
189,027	268,518	-0,211	-0,257
190,042	-96,234	-0,264	-0,048
191,056	-20,818	-0,294	-0,125
192,071	800,000	-0,099	-0,216
193,086	59,573	-0,246	-0,169
194,100	29,566	-0,187	-0,110
195,115	-3,436	-0,191	-0,092
196,129	449,909	-0,182	-0,280
197,144	348,194	-0,156	-0,215
198,159	-18,875	-0,235	-0,101
199,173	61,387	-0,208	-0,143
200,188	420,446	-0,193	-0,288
201,202	800,000	-0,143	-0,312
202,217	-200,000	0,020	-0,076
203,232	310,379	-0,176	-0,229
204,246	77,115	-0,232	-0,171
205,261	-102,289	-0,268	-0,044
206,275	422,590	-0,091	-0,136
207,290	21,010	-0,119	-0,067
208,304	438,973	-0,149	-0,226
209,319	54,522	-0,273	-0,182
210,334	-13,152	-0,168	-0,076
211,348	129,691	-0,286	-0,253
212,363	684,607	-0,135	-0,246
213,377	10,097	-0,247	-0,130
214,392	373,487	-0,048	-0,068
215,407	-101,292	-0,169	-0,028
216,421	219,005	-0,115	-0,128
217,436	-38,549	-0,215	-0,078
218,450	71,076	-0,199	-0,143
219,465	116,822	-0,224	-0,191
220,480	264,731	-0,157	-0,190
221,494	129,833	-0,191	-0,170
222,509	220,985	-0,107	-0,120
223,523	-187,220	-0,259	-0,002
224,538	49,844	-0,161	-0,105
225,553	195,716	-0,186	-0,197
226,567	81,628	-0,184	-0,138
227,582	-58,467	-0,230	-0,069
228,596	143,701	-0,253	-0,233
229,611	800,000	0,026	-0,061
230,626	433,378	-0,118	-0,179
231,640	-200,000	-0,038	-0,360
232,655	182,473	-0,181	-0,185
233,669	800,000	-0,076	-0,152
234,684	171,729	-0,167	-0,166
235,699	473,094	-0,175	-0,274
236,713	239,886	-0,162	-0,187
237,728	86,123	-0,161	-0,122
238,742	26,788	-0,244	-0,142
239,757	241,665	-0,135	-0,157
240,772	-106,827	-0,172	-0,026
241,786	336,164	-0,188	-0,253
242,801	-34,705	-0,205	-0,077
243,815	-90,405	-0,192	0,038
244,830	108,975	-0,183	-0,152
245,844	158,943	-0,082	-0,079
246,859	-120,571	-0,239	-0,028
247,874	800,000	-0,061	-0,169
248,888	478,221	-0,142	-0,223
249,903	12,446	-0,146	-0,077
250,917	-158,423	-0,209	-0,008
251,932	82,743	-0,063	-0,047
252,947	800,000	-0,074	-0,142
253,961	105,416	-0,342	-0,280
254,976	-7,229	-0,196	-0,092
255,990	119,097	-0,294	-0,252
257,005	44,874	-0,237	-0,151
258,020	-153,626	-0,145	0,007
259,034	171,667	-0,105	-0,104
260,049	106,801	-0,134	-0,110
261,063	100,049	-0,205	-0,164
262,078	288,472	-0,067	-0,084
263,093	15,022	-0,157	-0,085
264,107	-55,973	-0,143	-0,044
265,122	-14,529	-0,186	-0,082
266,136	-27,366	-0,262	-0,105
267,151	782,357	-0,124	-0,236
268,166	124,245	-0,210	-0,183
269,180	79,199	-0,238	-0,176
270,195	174,528	-0,157	-0,157
271,209	-34,540	-0,209	-0,079
272,224	800,000	-0,062	-0,123
273,239	-5,519	-0,152	-0,072
274,253	-156,916	-0,325	0,013
275,268	-51,268	-0,203	-0,065
276,282	-48,189	-0,206	-0,068
277,297	55,760	-0,165	-0,110
278,312	147,703	-0,173	-0,161
279,326	-58,009	-0,108	-0,032
280,341	153,723	-0,156	-0,147
281,355	-200,000	0,001	-0,111
282,370	312,264	-0,184	-0,239
283,384	211,234	-0,199	-0,216
284,399	22,933	-0,129	-0,073
285,414	432,068	-0,103	-0,154
286,428	188,284	-0,108	-0,111
287,443	-94,570	-0,171	-0,032
288,457	343,608	-0,033	-0,045
289,472	-32,113	-0,070	-0,027
290,487	-34,294	-0,124	-0,047
291,501	150,978	-0,196	-0,184
292,516	19,719	-0,131	-0,072
293,530	112,242	-0,070	-0,058
294,545	611,445	-0,155	-0,267
295,560	800,000	-0,071	-0,147
296,574	-41,328	-0,195	-0,069
297,589	566,316	-0,111	-0,187
298,603	800,000	-0,115	-0,236
299,618	-140,992	-0,087	-0,006
300,633	464,967	-0,101	-0,156
301,647	-18,937	-0,055	-0,023
302,662	800,000	-0,069	-0,176
303,676	-117,571	-0,073	-0,009
304,691	204,850	-0,067	-0,071
305,706	534,445	-0,050	-0,082
306,720	-3,213	-0,164	-0,079
307,735	-130,986	-0,154	-0,014
308,749	151,591	-0,115	-0,108
309,764	-148,331	-0,179	-0,010
310,779	-10,804	-0,108	-0,049
311,793	-186,527	-0,117	-0,001
312,808	297,425	-0,088	-0,111
313,822	-41,679	-0,198	-0,070
314,837	102,809	-0,169	-0,136
315,852	-15,635	-0,003	0,001
316,866	68,431	-0,136	-0,096
317,881	800,000	-0,094	-0,194
318,895	5,144	-0,054	-0,027
319,910	800,000	-0,084	-0,214
320,925	1,729	-0,214	-0,106
321,939	325,393	-0,075	-0,099
322,954	800,000	-0,085	-0,213
323,968	-98,630	-0,176	0,031
324,983	-121,381	-0,157	0,018
325,997	175,893	-0,134	-0,133
327,012	800,000	-0,057	-0,161
328,027	695,336	-0,078	-0,141
329,041	-24,646	-0,121	-0,049
330,056	654,579	-0,095	-0,168
331,070	-53,181	-0,151	0,047
332,085	56,762	-0,170	-0,113
333,100	360,048	-0,060	-0,083
334,114	-82,358	-0,187	-0,042
335,129	64,577	-0,194	-0,134
336,143	207,298	-0,150	-0,161
337,158	60,611	-0,050	-0,034
338,173	214,939	-0,111	-0,121
339,187	153,375	-0,135	-0,126
340,202	-200,000	0,027	-0,111
341,216	56,809	-0,188	-0,125
342,231	-36,483	-0,143	-0,052
343,246	54,891	-0,201	-0,133
344,260	800,000	-0,130	-0,289
345,275	134,865	-0,151	-0,135
346,289	65,133	-0,078	0,054
347,304	45,079	-0,086	-0,054
348,319	800,000	-0,095	-0,187
349,333	153,707	-0,169	-0,159
350,348	113,139	-0,219	-0,182
351,362	-200,000	-0,024	-0,091
352,377	155,218	-0,098	-0,092
353,392	177,397	-0,098	-0,098
354,406	74,803	-0,178	-0,128
355,421	208,097	1315,877	1411,284
356,435	160,100	1476,770	1411,778
