DTS Sentinel unit serial number:	SN410029Multiplexer serial number:	ORYXHardware model number:	OX2-SRSoftware version number:	ORYX F/W v4,00 Oryx Data Collector v3.7.2.0data status	okinstallation	B3 Nyhavnadifferential loss correction	single-endedforward channel	channel 1reverse channel	N/Adate	2023/12/02time	02:57:30forward acquisition time	300,00reverse acquisition time	0,00gamma	499,1914k internal	0,3194k external	0,3194temperature offset calibration	1,0000default loss term (dB/km)	0,3820temperature slope calibration	1,0000multiplexer offset coefficient	1,0000multiplexer slope coefficient	1,0000fibre end	0,00T internal ref (°C)	16,66T ext. ref 1 (°C)	1,76T ext. ref 2 (°C)	1,76length (m)	temperature (°C)	Stokes	anti-Stokes-744,400	800,000	-0,129	-0,357
-743,385	800,000	0,085	0,233
-742,371	-200,000	-0,063	-0,248
-741,356	-200,000	0,035	0,317
-740,342	106,207	-0,288	-0,249
-739,327	-200,000	-0,035	0,223
-738,312	249,721	-0,194	-0,240
-737,298	-200,000	0,062	0,315
-736,283	246,374	-0,165	-0,204
-735,269	-200,000	-0,012	0,367
-734,254	71,812	-0,266	-0,201
-733,239	108,964	-0,190	0,165
-732,225	-200,000	-0,021	-0,113
-731,210	800,000	0,051	0,155
-730,196	-200,000	0,012	-0,061
-729,181	148,596	0,109	-0,108
-728,167	-74,626	0,085	-0,022
-727,152	-200,000	0,005	0,066
-726,137	2,670	-0,086	0,045
-725,123	-9,107	0,076	-0,037
-724,108	10,010	0,091	-0,050
-723,094	125,318	-0,154	-0,141
-722,079	800,000	-0,085	-0,174
-721,064	800,000	-0,043	-0,114
-720,050	31,618	0,063	0,039
-719,035	278,956	-0,029	-0,038
-718,021	-29,083	-0,100	0,042
-717,006	-200,000	-0,011	-0,119
-715,991	-51,782	-0,051	0,017
-714,977	-71,123	-0,094	-0,025
-713,962	20,678	0,082	0,048
-712,948	115,285	0,071	-0,063
-711,933	441,915	0,129	0,207
-710,918	94,246	-0,066	0,055
-709,904	42,743	0,086	-0,057
-708,889	43,185	-0,088	-0,059
-707,875	765,794	0,059	-0,116
-706,860	61,287	-0,062	-0,045
-705,845	-200,000	-0,013	0,133
-704,831	54,554	-0,042	0,030
-703,816	127,099	0,030	0,028
-702,802	60,350	-0,053	0,038
-701,787	800,000	0,070	-0,182
-700,772	800,000	0,056	-0,119
-699,758	519,631	-0,047	-0,080
-698,743	-200,000	0,007	0,191
-697,729	476,971	0,018	-0,031
-696,714	-200,000	0,021	0,101
-695,699	184,185	-0,044	-0,047
-694,685	800,000	0,058	-0,125
-693,670	44,121	-0,024	0,016
-692,656	6,108	-0,090	-0,048
-691,641	-54,601	-0,161	0,053
-690,627	-179,312	0,165	0,003
-689,612	-25,502	0,159	-0,068
-688,597	-118,961	-0,107	0,014
-687,583	-79,789	-0,098	-0,024
-686,568	176,171	0,014	0,015
-685,554	-47,155	-0,085	0,030
-684,539	312,531	0,083	-0,113
-683,524	-95,027	-0,065	0,013
-682,510	341,834	0,089	0,127
-681,495	88,243	-0,077	0,062
-680,481	-47,679	-0,127	-0,044
-679,466	-200,000	0,011	-0,230
-678,451	300,174	0,103	-0,138
-677,437	-200,000	0,000	-0,004
-676,422	-140,991	0,151	0,011
-675,408	-200,000	0,025	0,115
-674,393	-17,951	0,018	-0,008
-673,378	-108,496	-0,039	-0,006
-672,364	254,374	0,006	0,007
-671,349	-200,000	-0,018	0,098
-670,335	-70,438	0,120	0,033
-669,320	26,619	-0,058	0,035
-668,305	-200,000	-0,005	0,112
-667,291	2,437	-0,004	0,002
-666,276	-6,183	-0,047	-0,023
-665,262	-114,939	0,185	0,025
-664,247	800,000	0,032	-0,080
-663,232	-200,000	-0,006	-0,061
-662,218	-200,000	0,007	0,091
-661,203	484,618	0,021	-0,035
-660,189	-200,000	-0,005	0,073
-659,174	-61,805	-0,189	-0,057
-658,159	800,000	0,019	0,043
-657,145	-117,981	-0,068	0,009
-656,130	800,000	-0,026	0,064
-655,116	96,885	-0,046	0,038
-654,101	697,986	-0,036	-0,069
-653,086	-73,936	-0,154	0,040
-652,072	-82,745	-0,060	0,014
-651,057	-27,839	-0,120	-0,050
-650,043	-200,000	-0,027	-0,164
-649,028	767,838	0,026	-0,052
-648,014	-86,260	0,105	0,023
-646,999	350,671	0,004	0,006
-645,984	294,138	0,057	0,076
-644,970	156,965	0,035	-0,036
-643,955	-200,000	0,011	0,099
-642,941	-200,000	-0,013	-0,063
-641,926	107,449	0,054	-0,047
-640,911	-200,000	0,004	0,020
-639,897	-41,245	-0,089	-0,033
-638,882	411,494	0,061	0,094
-637,868	58,828	-0,054	-0,038
-636,853	16,570	-0,090	-0,051
-635,838	-153,630	0,046	-0,002
-634,824	800,000	0,012	0,033
-633,809	-1,086	0,026	0,014
-632,795	224,416	0,067	0,079
-631,780	800,000	-0,070	0,188
-630,765	33,074	0,095	-0,059
-629,751	-200,000	0,040	-0,166
-628,736	210,370	-0,028	-0,032
-627,722	144,102	-0,077	-0,075
-626,707	-61,164	0,080	-0,024
-625,692	8,487	-0,125	0,068
-624,678	-9,352	0,026	0,012
-623,663	67,422	-0,055	-0,040
-622,649	800,000	0,017	-0,048
-621,634	800,000	-0,031	0,074
-620,619	800,000	0,026	0,078
-619,605	244,522	0,052	0,064
-618,590	-200,000	0,029	0,140
-617,576	254,362	-0,020	-0,025
-616,561	238,617	-0,049	0,059
-615,546	-12,194	0,090	-0,043
-614,532	133,671	-0,036	-0,034
-613,517	44,932	-0,111	-0,074
-612,503	-100,500	-0,076	-0,013
-611,488	-200,000	0,014	-0,077
-610,474	-200,000	-0,005	0,087
-609,459	-30,108	-0,034	-0,014
-608,444	-200,000	0,004	0,031
-607,430	800,000	0,028	-0,059
-606,415	800,000	-0,039	-0,089
-605,401	17,974	0,081	-0,047
-604,386	-154,894	-0,116	-0,005
-603,371	-120,841	0,030	-0,004
-602,357	-200,000	0,017	0,140
-601,342	-200,000	-0,002	0,117
-600,328	1,822	-0,054	0,028
-599,313	43,305	0,085	0,056
-598,298	111,116	0,119	-0,104
-597,284	125,354	0,090	0,082
-596,269	-12,538	0,139	-0,066
-595,255	44,619	0,087	-0,058
-594,240	59,506	0,089	-0,063
-593,225	800,000	0,070	-0,202
-592,211	255,803	-0,015	0,018
-591,196	-200,000	-0,034	0,146
-590,182	-133,065	-0,110	-0,010
-589,167	-136,179	0,077	-0,006
-588,152	-106,732	-0,055	-0,009
-587,138	800,000	-0,013	0,040
-586,123	761,150	-0,080	-0,158
-585,109	159,989	0,049	0,049
-584,094	46,294	-0,045	0,030
-583,079	-200,000	0,011	0,106
-582,065	619,598	-0,051	0,092
-581,050	-122,278	-0,085	-0,010
-580,036	313,499	-0,076	-0,104
-579,021	79,056	0,043	-0,033
-578,006	140,508	-0,085	-0,082
-576,992	800,000	-0,022	-0,053
-575,977	-57,529	0,128	-0,040
-574,963	-38,291	0,097	0,037
-573,948	800,000	0,048	-0,145
-572,934	18,219	0,039	-0,022
-571,919	127,932	-0,059	0,055
-570,904	310,714	-0,091	-0,124
-569,890	14,454	-0,192	-0,108
-568,875	-200,000	-0,046	0,216
-567,861	-30,772	0,022	-0,009
-566,846	575,169	0,034	-0,061
-565,831	299,507	-0,119	-0,159
-564,817	59,921	-0,116	-0,083
-563,802	800,000	-0,051	0,116
-562,788	784,834	0,098	-0,196
-561,773	13,807	0,038	0,021
-560,758	-200,000	0,007	0,113
-559,744	141,973	-0,063	0,061
-558,729	-32,411	-0,045	-0,018
-557,715	-118,719	-0,157	-0,020
-556,700	-71,633	0,119	-0,032
-555,685	-1,580	0,084	-0,043
-554,671	-149,586	0,056	-0,003
-553,656	658,434	0,086	0,160
-552,642	-200,000	-0,004	0,033
-551,627	119,009	0,150	0,134
-550,612	647,436	0,035	0,064
-549,598	380,928	0,069	-0,103
-548,583	-200,000	-0,005	-0,087
-547,569	58,709	0,137	0,097
-546,554	138,494	0,072	-0,068
-545,539	-200,000	-0,006	0,070
-544,525	511,929	0,087	0,146
-543,510	130,382	0,103	-0,095
-542,496	800,000	0,026	-0,060
-541,481	-200,000	-0,002	0,018
-540,466	-200,000	-0,041	-0,135
-539,452	292,709	0,051	-0,067
-538,437	-200,000	-0,050	-0,173
-537,423	-200,000	-0,025	0,115
-536,408	-164,261	-0,043	0,001
-535,393	771,224	-0,111	-0,219
-534,379	96,880	-0,119	-0,098
-533,364	34,573	0,122	-0,077
-532,350	728,654	0,021	-0,041
-531,335	429,844	-0,037	0,058
-530,321	562,648	0,026	-0,046
-529,306	-35,160	-0,076	-0,030
-528,291	-48,615	0,120	-0,041
-527,277	-200,000	-0,010	-0,121
-526,262	130,256	0,052	-0,048
-525,248	93,757	0,031	-0,025
-524,233	-174,030	-0,078	0,002
-523,218	-37,623	-0,066	-0,025
-522,204	800,000	0,028	-0,059
-521,189	128,245	-0,080	-0,074
-520,175	-200,000	-0,003	-0,132
-519,160	800,000	-0,025	-0,072
-518,145	800,000	-0,007	-0,021
-517,131	-104,367	-0,078	0,013
-516,116	-200,000	-0,012	0,187
-515,102	303,258	0,039	0,052
-514,087	445,940	-0,025	-0,040
-513,072	123,624	-0,090	-0,082
-512,058	800,000	-0,021	-0,042
-511,043	331,053	-0,032	0,045
-510,029	128,315	-0,079	0,072
-509,014	56,089	0,067	0,047
-507,999	-200,000	-0,014	-0,131
-506,985	-106,382	-0,106	0,017
-505,970	-200,000	-0,031	-0,100
-504,956	257,903	0,056	-0,069
-503,941	-147,967	-0,060	0,004
-502,926	-200,000	0,007	0,086
-501,912	378,174	0,044	0,065
-500,897	-200,000	0,018	0,073
-499,883	800,000	0,030	0,082
-498,868	-171,429	0,039	-0,001
-497,853	81,965	0,127	-0,099
-496,839	-73,116	-0,112	-0,030
-495,824	-200,000	-0,017	0,077
-494,810	-200,000	0,015	0,220
-493,795	-28,675	0,108	0,045
-492,781	206,103	-0,057	-0,064
-491,766	65,519	-0,129	0,094
-490,751	413,846	0,115	-0,177
-489,737	34,153	0,015	0,010
-488,722	303,644	0,048	-0,064
-487,708	4,582	0,151	0,080
-486,693	-200,000	0,000	-0,058
-485,678	-113,943	0,023	-0,003
-484,664	602,132	-0,072	-0,129
-483,649	61,501	-0,054	-0,039
-482,635	-71,121	0,052	0,014
-481,620	246,910	0,011	0,013
-480,605	-85,188	0,124	-0,028
-479,591	800,000	0,038	0,098
-478,576	6,167	0,081	-0,043
-477,562	-200,000	-0,003	-0,056
-476,547	66,294	-0,092	0,067
-475,532	-200,000	-0,004	-0,039
-474,518	9,674	-0,048	0,026
-473,503	458,976	0,071	0,114
-472,489	141,486	0,042	-0,041
-471,474	53,753	0,119	-0,082
-470,459	55,321	-0,126	0,088
-469,445	-53,118	-0,142	-0,047
-468,430	-66,452	0,030	-0,008
-467,416	800,000	-0,022	0,045
-466,401	85,965	0,049	0,039
-465,386	777,206	0,082	0,162
-464,372	-200,000	-0,007	0,092
-463,357	-79,281	-0,060	-0,014
-462,343	305,302	-0,041	-0,056
-461,328	-163,879	-0,235	-0,008
-460,313	-107,723	0,054	-0,008
-459,299	509,924	0,023	0,039
-458,284	240,651	0,135	0,162
-457,270	-200,000	0,012	0,069
-456,255	-121,482	0,062	0,007
-455,241	213,852	0,032	-0,036
-454,226	211,880	0,044	0,050
-453,211	24,932	0,070	-0,042
-452,197	-0,899	0,080	0,041
-451,182	-200,000	-0,010	0,087
-450,168	-6,364	0,081	0,039
-449,153	563,854	-0,054	-0,095
-448,138	14,623	0,065	0,036
-447,124	126,626	0,044	-0,040
-446,109	-130,895	0,089	0,008
-445,095	231,460	0,107	0,127
-444,080	800,000	-0,017	0,047
-443,065	-200,000	0,001	-0,118
-442,051	-200,000	-0,004	0,033
-441,036	-26,456	-0,129	-0,054
-440,022	-44,133	0,043	0,015
-439,007	689,083	0,044	-0,084
-437,992	-176,083	-0,107	0,002
-436,978	-200,000	-0,017	0,118
-435,963	-200,000	0,005	-0,041
-434,949	277,236	0,042	0,055
-433,934	52,815	-0,040	-0,027
-432,919	252,090	-0,051	-0,062
-431,905	-160,921	-0,193	0,007
-430,890	292,147	-0,033	0,044
-429,876	166,647	0,042	-0,043
-428,861	558,638	0,057	-0,099
-427,846	212,655	0,018	-0,020
-426,832	522,905	0,086	-0,147
-425,817	794,597	0,034	-0,068
-424,803	-200,000	-0,020	-0,087
-423,788	-200,000	-0,015	-0,151
-422,773	800,000	0,047	0,098
-421,759	144,925	-0,065	0,063
-420,744	-200,000	-0,004	0,148
-419,730	387,060	-0,071	-0,106
-418,715	354,006	-0,042	-0,060
-417,701	-200,000	-0,026	0,146
-416,686	-200,000	-0,021	0,095
-415,671	3,160	0,019	0,010
-414,657	-200,000	0,071	0,255
-413,642	800,000	-0,019	0,054
-412,628	140,886	0,141	0,134
-411,613	764,081	-0,080	0,158
-410,598	365,585	-0,051	-0,075
-409,584	-100,006	0,148	-0,026
-408,569	566,606	0,047	-0,083
-407,555	567,249	0,022	0,039
-406,540	-180,686	0,158	-0,002
-405,525	-200,000	0,015	0,054
-404,511	-200,000	-0,037	-0,118
-403,496	800,000	0,021	0,048
-402,482	-89,292	-0,037	0,008
-401,467	248,840	-0,063	0,077
-400,452	-98,699	-0,061	-0,011
-399,438	-200,000	-0,019	0,082
-398,423	-200,000	-0,002	0,064
-397,409	-200,000	0,024	0,173
-396,394	-200,000	-0,006	-0,056
-395,379	154,908	-0,124	0,122
-394,365	397,619	0,103	0,156
-393,350	71,031	0,079	0,059
-392,336	196,475	0,105	-0,115
-391,321	278,009	0,036	0,046
-390,306	268,358	0,041	0,052
-389,292	-200,000	0,011	-0,105
-388,277	-44,917	0,055	0,019
-387,263	78,400	0,060	-0,046
-386,248	-200,000	0,003	0,124
-385,233	-86,101	0,128	-0,028
-384,219	-127,564	0,037	0,004
-383,204	-200,000	-0,013	-0,076
-382,190	-147,631	-0,216	-0,013
-381,175	-200,000	-0,005	0,027
-380,160	-200,000	-0,010	0,051
-379,146	178,739	-0,069	0,072
-378,131	335,597	0,053	0,074
-377,117	-78,832	-0,125	0,030
-376,102	274,490	0,031	-0,040
-375,088	-200,000	0,008	-0,036
-374,073	11,034	-0,028	-0,015
-373,058	376,491	0,044	0,064
-372,044	88,750	-0,079	-0,063
-371,029	-200,000	-0,019	0,073
-370,015	-82,291	-0,025	0,006
-369,000	261,193	0,098	-0,122
-367,985	267,064	-0,055	-0,070
-366,971	6,564	-0,196	-0,104
-365,956	113,163	0,019	0,016
-364,942	-200,000	0,007	0,055
-363,927	524,455	-0,069	0,117
-362,912	20,660	0,115	-0,067
-361,898	-137,721	-0,058	-0,005
-360,883	-127,448	0,023	-0,002
-359,869	780,371	-0,030	0,059
-358,854	31,370	-0,200	0,123
-357,839	-38,232	0,088	-0,033
-356,825	732,586	0,069	0,133
-355,810	-33,843	0,114	0,045
-354,796	-200,000	0,015	-0,084
-353,781	-75,014	0,192	0,049
-352,766	42,020	-0,093	0,061
-351,752	615,420	0,059	-0,106
-350,737	-42,760	0,058	0,021
-349,723	37,813	0,064	0,041
-348,708	800,000	-0,036	0,109
-347,693	-200,000	-0,002	0,143
-346,679	-200,000	0,000	-0,013
-345,664	-92,943	-0,084	-0,017
-344,650	-200,000	-0,014	-0,093
-343,635	300,190	-0,076	0,100
-342,620	-37,452	0,076	-0,029
-341,606	52,745	0,157	0,108
-340,591	-200,000	0,003	-0,168
-339,577	-200,000	0,009	-0,093
-338,562	56,560	0,107	-0,075
-337,548	24,329	-0,022	0,013
-336,533	-141,838	0,140	-0,010
-335,518	213,427	0,101	0,115
-334,504	-200,000	0,014	0,105
-333,489	329,330	-0,042	-0,059
-332,475	-200,000	0,019	-0,075
-331,460	731,905	-0,054	-0,104
-330,445	-200,000	0,003	-0,099
-329,431	742,723	0,065	-0,126
-328,416	75,426	0,094	0,071
-327,402	348,284	-0,032	0,046
-326,387	41,384	-0,109	-0,071
-325,372	-131,727	-0,050	0,005
-324,358	-200,000	0,001	0,013
-323,343	314,020	-0,089	0,121
-322,329	271,590	-0,038	-0,048
-321,314	1,367	0,081	0,042
-320,299	70,004	0,119	0,088
-319,285	82,545	-0,163	-0,127
-318,270	259,524	-0,056	0,069
-317,256	800,000	0,021	-0,055
-316,241	800,000	0,017	-0,051
-315,226	800,000	-0,028	-0,075
-314,212	800,000	-0,033	0,071
-313,197	-86,897	0,199	0,043
-312,183	283,882	0,078	0,100
-311,168	266,021	-0,065	-0,081
-310,153	187,098	0,046	-0,049
-309,139	-78,793	-0,089	-0,022
-308,124	114,461	0,039	-0,034
-307,110	-129,945	-0,054	0,005
-306,095	-200,000	-0,007	-0,119
-305,080	-200,000	-0,017	-0,090
-304,066	650,615	-0,061	0,112
-303,051	-93,565	-0,085	0,017
-302,037	4,990	0,054	0,029
-301,022	-37,790	0,008	-0,003
-300,008	46,281	0,071	-0,047
-298,993	211,940	0,072	0,081
-297,978	-200,000	-0,003	0,196
-296,964	7,185	-0,086	0,046
-295,949	13,637	-0,150	-0,083
-294,935	-200,000	0,035	-0,147
-293,920	-24,223	-0,179	-0,076
-292,905	-105,121	0,131	0,021
-291,891	185,679	0,015	0,016
-290,876	-164,182	-0,043	-0,001
-289,862	-200,000	0,011	-0,035
-288,847	22,620	-0,014	0,008
-287,832	-73,541	-0,104	0,027
-286,818	680,072	0,064	0,120
-285,803	800,000	-0,038	0,082
-284,789	800,000	0,027	0,059
-283,774	594,626	-0,046	-0,082
-282,759	154,384	-0,166	-0,164
-281,745	800,000	-0,032	-0,096
-280,730	-128,096	-0,118	-0,012
-279,716	-150,558	-0,127	-0,007
-278,701	-105,131	-0,055	0,009
-277,686	-84,628	0,038	-0,008
-276,672	183,987	-0,081	0,086
-275,657	-18,692	-0,051	0,023
-274,643	-22,928	0,021	-0,009
-273,628	130,743	-0,048	0,044
-272,613	-200,000	-0,003	0,062
-271,599	121,001	0,066	0,058
-270,584	-5,409	-0,050	-0,025
-269,570	800,000	0,021	0,050
-268,555	-200,000	0,014	0,110
-267,540	-200,000	-0,027	0,223
-266,526	-156,760	-0,105	-0,005
-265,511	111,799	-0,066	0,057
-264,497	-45,840	0,067	-0,024
-263,482	165,789	-0,056	-0,057
-262,467	152,852	0,052	0,051
-261,453	389,780	0,057	0,085
-260,438	-0,925	-0,096	-0,048
-259,424	-200,000	-0,016	0,090
-258,409	-200,000	0,004	-0,025
-257,395	284,625	-0,053	-0,069
-256,380	274,429	-0,048	-0,061
-255,365	37,703	0,077	-0,049
-254,351	294,983	0,088	0,115
-253,336	18,022	-0,108	0,061
-252,322	-143,311	-0,190	-0,013
-251,307	-53,779	0,035	0,011
-250,292	-41,097	-0,024	0,009
-249,278	-200,000	0,025	0,156
-248,263	28,353	0,068	-0,041
-247,249	241,687	-0,084	-0,100
-246,234	-157,614	-0,016	0,001
-245,219	-200,000	-0,025	0,165
-244,205	-200,000	-0,014	0,105
-243,190	388,863	-0,090	-0,134
-242,176	-90,829	0,050	0,010
-241,161	-100,156	0,115	0,020
-240,146	800,000	-0,044	0,104
-239,132	-184,459	-0,167	-0,002
-238,117	63,712	-0,122	-0,088
-237,103	-64,256	0,137	0,040
-236,088	25,411	0,089	0,053
-235,073	-2,205	0,078	0,039
-234,059	-83,721	-0,057	0,013
-233,044	388,193	0,036	0,054
-232,030	246,621	0,137	0,166
-231,015	-38,613	-0,052	-0,019
-230,000	-16,184	0,101	-0,046
-228,986	221,456	0,023	0,027
-227,971	-200,000	0,004	-0,098
-226,957	176,493	0,106	0,110
-225,942	800,000	0,027	0,075
-224,927	800,000	0,038	0,109
-223,913	-200,000	0,005	0,016
-222,898	-200,000	-0,027	-0,116
-221,884	800,000	-0,058	-0,149
-220,869	-76,818	0,128	0,032
-219,855	-78,813	-0,021	0,005
-218,840	800,000	0,030	-0,067
-217,825	800,000	-0,014	-0,032
-216,811	800,000	-0,060	-0,149
-215,796	-61,791	-0,060	-0,018
-214,782	-6,969	-0,048	0,023
-213,767	-200,000	-0,028	-0,134
-212,752	94,776	-0,062	-0,050
-211,738	-200,000	0,021	-0,081
-210,723	-200,000	0,003	-0,043
-209,709	-42,105	-0,180	-0,065
-208,694	-200,000	-0,009	-0,082
-207,679	-91,555	-0,080	-0,016
-206,665	-139,683	0,061	0,005
-205,650	-66,784	-0,069	-0,019
-204,636	-64,071	0,202	0,059
-203,621	-200,000	0,003	0,102
-202,606	1,627	-0,204	-0,105
-201,592	145,647	0,066	-0,063
-200,577	-162,147	0,054	-0,002
-199,563	5,312	0,085	0,044
-198,548	-65,981	-0,086	0,024
-197,533	319,832	-0,037	0,050
-196,519	-200,000	0,009	-0,073
-195,504	-57,258	-0,031	-0,010
-194,490	-80,964	-0,086	0,020
-193,475	227,461	0,038	-0,045
-192,460	-92,172	0,129	0,026
-191,446	555,061	-0,049	0,084
-190,431	800,000	0,016	0,034
-189,417	-68,681	0,065	0,018
-188,402	800,000	0,031	-0,080
-187,387	265,825	0,047	0,059
-186,373	800,000	-0,039	-0,112
-185,358	47,283	-0,103	-0,069
-184,344	145,839	-0,080	-0,077
-183,329	-200,000	0,026	-0,110
-182,315	712,187	-0,016	-0,030
-181,300	5,808	-0,036	0,019
-180,285	-200,000	-0,047	-0,198
-179,271	-102,203	-0,106	-0,018
-178,256	-14,524	0,152	0,069
-177,242	-105,866	0,163	0,026
-176,227	-142,349	0,217	0,015
-175,212	-200,000	-0,018	0,092
-174,198	-123,562	0,079	0,009
-173,183	-76,944	-0,083	-0,021
-172,169	54,996	0,051	-0,035
-171,154	-99,521	-0,207	-0,037
-170,139	122,196	-0,043	0,038
-169,125	35,345	0,063	-0,039
-168,110	-34,382	0,038	-0,015
-167,096	49,043	-0,154	0,103
-166,081	800,000	0,054	-0,117
-165,066	21,371	-0,087	-0,050
-164,052	-109,876	-0,205	-0,030
-163,037	166,402	0,109	0,110
-162,023	149,331	0,070	-0,067
-161,008	178,790	-0,026	-0,028
-159,993	-36,364	-0,038	0,015
-158,979	800,000	-0,021	-0,056
-157,964	10,731	-0,094	-0,051
-156,950	-200,000	0,018	-0,069
-155,935	419,750	-0,017	-0,026
-154,920	21,453	0,084	-0,048
-153,906	-2,324	0,031	0,015
-152,891	-31,475	-0,032	0,013
-151,877	-40,126	-0,125	-0,046
-150,862	71,838	0,051	-0,038
-149,847	118,342	-0,149	-0,131
-148,833	800,000	-0,011	0,029
-147,818	800,000	0,033	-0,088
-146,804	-200,000	-0,004	-0,036
-145,789	-200,000	-0,025	0,122
-144,775	89,340	-0,100	-0,079
-143,760	-10,351	-0,172	0,081
-142,745	-200,000	-0,054	-0,177
-141,731	196,451	0,071	-0,077
-140,716	27,822	-0,042	-0,025
-139,702	-200,000	0,010	-0,073
-138,687	-78,346	0,094	-0,023
-137,672	-142,541	0,145	0,010
-136,658	-111,783	-0,019	0,003
-135,643	-200,000	-0,018	0,096
-134,629	4,041	-0,041	-0,021
-133,614	-88,626	0,137	-0,029
-132,599	83,055	0,065	0,050
-131,585	169,221	-0,023	0,023
-130,570	273,782	-0,010	0,012
-129,556	373,505	-0,105	0,153
-128,541	800,000	0,009	0,021
-127,526	-109,732	-0,109	-0,016
-126,512	800,000	-0,034	0,079
-125,497	800,000	0,041	0,118
-124,483	800,000	0,051	0,120
-123,468	237,616	0,063	0,075
-122,453	94,290	-0,169	-0,136
-121,439	800,000	-0,087	-0,176
-120,424	-200,000	0,018	-0,124
-119,410	364,104	0,078	0,112
-118,395	-100,406	-0,085	-0,015
-117,380	375,452	0,073	0,106
-116,366	7,373	0,074	0,039
-115,351	65,722	0,057	-0,041
-114,337	99,184	-0,126	-0,104
-113,322	800,000	0,044	0,104
-112,307	-200,000	-0,011	0,043
-111,293	-7,066	0,128	-0,061
-110,278	-71,543	-0,074	0,020
-109,264	-200,000	-0,020	0,063
-108,249	-152,778	0,013	-0,001
-107,234	-97,935	-0,149	0,027
-106,220	-5,652	-0,093	0,045
-105,205	-18,192	0,116	0,051
-104,191	-200,000	0,024	0,184
-103,176	800,000	0,025	0,059
-102,162	-200,000	0,027	-0,085
-101,147	770,786	-0,021	0,040
-100,132	-200,000	0,020	-0,088
-99,118	69,654	-0,059	-0,043
-98,103	46,560	0,043	-0,029
-97,089	-84,120	0,069	0,015
-96,074	401,671	0,088	0,132
-95,059	-58,093	0,039	0,012
-94,045	-200,000	0,024	0,133
-93,030	-76,227	-0,096	-0,024
-92,016	-20,277	0,062	-0,027
-91,001	512,346	0,037	0,062
-89,986	138,260	-0,050	0,047
-88,972	-200,000	0,003	-0,093
-87,957	363,770	-0,078	0,112
-86,943	178,760	-0,057	-0,059
-85,928	334,908	-0,025	0,035
-84,913	139,356	-0,007	-0,007
-83,899	800,000	0,039	-0,095
-82,884	-82,085	0,066	-0,015
-81,870	-200,000	0,006	-0,028
-80,855	800,000	0,020	-0,057
-79,840	41,824	-0,091	0,058
-78,826	465,958	0,069	-0,110
-77,811	218,097	-0,031	-0,036
-76,797	-200,000	0,004	0,060
-75,782	607,897	-0,044	-0,079
-74,767	618,690	0,055	-0,099
-73,753	41,023	0,079	0,051
-72,738	-155,215	-0,039	-0,002
-71,724	-200,000	-0,022	0,088
-70,709	214,031	-0,052	-0,059
-69,694	27,876	-0,036	-0,021
-68,680	-200,000	-0,028	0,217
-67,665	81,616	-0,041	0,031
-66,651	-200,000	-0,009	0,121
-65,636	800,000	0,045	0,108
-64,622	55,537	-0,134	-0,092
-63,607	-23,722	-0,157	-0,066
-62,592	325,865	-0,040	-0,055
-61,578	85,303	0,081	0,063
-60,563	-104,157	0,053	-0,009
-59,549	-107,365	-0,066	-0,010
-58,534	-62,134	-1,383	-0,407
-57,519	326,797	-1,565	-2,134
-56,505	-200,000	-0,424	-4,313
-55,490	57,975	0,920	0,638
-54,476	800,000	4,798	11,290
-53,461	-200,000	17,149	268,196
-52,446	800,000	714,297	2177,991
-51,432	552,251	1628,652	2786,364
-50,417	81,479	1655,109	1268,651
-49,403	24,473	1529,353	895,187
-48,388	18,463	1452,902	821,511
-47,373	18,533	1442,288	815,812
-46,359	18,348	1433,188	809,751
-45,344	16,769	1428,712	799,694
-44,330	16,746	1426,677	798,415
-43,315	16,704	1425,002	797,249
-42,300	16,780	1423,176	796,556
-41,286	16,749	1422,277	795,871
-40,271	16,741	1420,795	794,973
-39,257	16,763	1419,524	794,336
-38,242	16,804	1418,115	793,710
-37,227	16,807	1416,757	792,932
-36,213	16,797	1415,633	792,222
-35,198	16,789	1414,580	791,567
-34,184	16,741	1413,639	790,783
-33,169	16,675	1412,418	789,757
-32,154	16,776	1411,242	789,545
-31,140	16,726	1410,284	788,739
-30,125	16,799	1408,877	788,266
-29,111	16,742	1407,873	787,405
-28,096	16,744	1406,810	786,790
-27,082	16,768	1405,465	786,116
-26,067	16,699	1404,610	785,284
-25,052	16,706	1403,292	784,549
-24,038	16,695	1402,238	783,879
-23,023	16,699	1401,253	783,318
-22,009	16,621	1400,396	782,441
-20,994	16,572	1399,453	781,658
-19,979	16,620	1398,609	781,378
-18,965	16,593	1397,552	780,631
-17,950	16,609	1396,626	780,157
-16,936	16,599	1395,540	779,472
-15,921	16,573	1394,485	778,733
-14,906	16,621	1393,299	778,262
-13,892	16,622	1392,676	777,889
-12,877	16,604	1391,879	777,329
-11,863	16,570	1390,921	776,607
-10,848	16,580	1389,947	776,075
-9,833	16,574	1388,985	775,480
-8,819	16,514	1388,087	774,672
-7,804	16,537	1386,990	774,136
-6,790	16,489	1386,040	773,355
-5,775	16,532	1385,137	773,017
-4,760	16,444	1384,390	772,162
-3,746	16,470	1383,513	771,762
-2,731	16,441	1382,733	771,165
-1,717	16,439	1381,813	770,614
-0,702	16,435	1379,852	769,471
0,313	20,216	1301,864	743,412
1,327	36,636	708,029	442,432
2,342	56,073	125,884	86,505
3,356	4,053	16,612	8,588
4,371	8,047	3,130	1,660
5,386	-69,761	0,480	0,129
6,400	-159,489	0,035	-0,001
7,415	15,945	-0,360	-0,200
8,429	-24,244	-0,406	-0,171
9,444	1,498	-0,350	-0,178
10,459	41,988	-0,305	-0,195
11,473	-54,612	-0,434	-0,138
12,488	106,061	-0,264	-0,221
13,502	29,584	-0,271	-0,163
14,517	8,538	-0,356	-0,189
15,531	80,201	-0,348	-0,265
16,546	132,542	-0,329	-0,300
17,561	120,952	-0,399	-0,351
18,575	-200,000	-0,020	-0,154
19,590	67,348	-0,348	-0,251
20,604	224,308	-0,113	-0,129
21,619	17,984	-0,414	-0,233
22,634	277,610	-0,400	-0,504
23,648	307,563	-0,362	-0,478
24,663	109,668	-0,404	-0,343
25,677	23,293	-0,449	-0,261
26,692	157,210	-0,200	-0,196
27,707	88,245	-0,362	-0,284
28,721	111,815	-0,438	-0,374
29,736	134,726	-0,362	-0,332
30,750	108,692	-0,307	-0,259
31,765	-36,135	-0,547	-0,208
32,780	108,974	-0,351	-0,296
33,794	111,386	-0,366	-0,312
34,809	175,548	-0,178	-0,183
35,823	-31,198	-0,346	-0,137
36,838	142,178	-0,231	-0,217
37,853	-13,760	-0,437	-0,199
38,867	39,315	-0,382	-0,242
39,882	106,958	-0,291	-0,244
40,896	117,558	-0,283	-0,246
41,911	-38,713	-0,435	-0,161
42,926	52,522	-0,414	-0,279
43,940	223,917	-0,300	-0,343
44,955	66,299	-0,430	-0,308
45,969	36,360	-0,352	-0,219
46,984	82,678	-0,373	-0,286
47,999	139,175	-0,240	-0,223
49,013	132,181	-0,235	-0,214
50,028	-15,874	-0,271	-0,121
51,042	97,339	-0,246	-0,200
52,057	26,281	-0,317	-0,187
53,071	97,317	-0,395	-0,320
54,086	173,887	-0,264	-0,269
55,101	450,353	-0,283	-0,443
56,115	355,386	-0,280	-0,394
57,130	59,178	-0,422	-0,292
58,144	-23,741	-0,409	-0,172
59,159	92,062	-0,361	-0,286
60,174	96,045	-0,412	-0,332
61,188	111,381	-0,352	-0,299
62,203	38,342	-0,354	-0,222
63,217	38,593	-0,304	-0,191
64,232	44,714	-0,385	-0,249
65,247	59,329	-0,391	-0,271
66,261	174,341	-0,327	-0,334
67,276	77,415	-0,309	-0,231
68,290	36,257	-0,342	-0,212
69,305	-92,313	-0,353	-0,069
70,320	-1,329	-0,294	-0,146
71,334	-25,731	-0,388	-0,161
72,349	213,553	-0,211	-0,236
73,363	-0,140	-0,358	-0,179
74,378	298,067	-0,305	-0,396
75,393	-19,479	-0,357	-0,155
76,407	-23,760	-0,334	-0,140
77,422	-34,960	-0,431	-0,165
78,436	85,727	-0,303	-0,235
79,451	195,887	-0,164	-0,176
80,466	56,617	-0,318	-0,217
81,480	800,000	-0,127	-0,327
82,495	101,974	-0,353	-0,290
83,509	153,518	-0,200	-0,193
84,524	63,036	-0,302	-0,213
85,539	1,777	-0,446	-0,226
86,553	138,041	-0,209	-0,193
87,568	-68,949	-0,364	-0,098
88,582	36,761	-0,334	-0,208
89,597	160,371	-0,279	-0,274
90,611	-31,744	-0,219	-0,086
91,626	148,932	-0,134	-0,127
92,641	83,134	-0,271	-0,207
93,655	21,343	-0,283	-0,162
94,670	-13,413	-0,350	-0,159
95,684	140,080	-0,325	-0,301
96,699	144,714	-0,210	-0,197
97,714	100,024	-0,243	-0,198
98,728	79,409	-0,288	-0,217
99,743	-40,711	-0,222	-0,081
100,757	205,020	-0,209	-0,229
101,772	-23,549	-0,254	-0,107
102,787	64,270	-0,302	-0,213
103,801	281,065	-0,261	-0,329
104,816	6,750	-0,359	-0,187
105,830	6,495	-0,234	-0,122
106,845	-147,580	-0,267	-0,016
107,860	77,417	-0,207	-0,155
108,874	-82,006	-0,253	-0,058
109,889	113,904	-0,260	-0,222
110,903	185,973	-0,212	-0,222
111,918	359,895	-0,176	-0,248
112,933	97,405	-0,280	-0,226
113,947	191,903	-0,230	-0,244
114,962	-122,899	-0,213	-0,024
115,976	27,903	-0,278	-0,164
116,991	51,087	-0,163	-0,108
118,006	800,000	-0,170	-0,348
119,020	155,865	-0,262	-0,253
120,035	-45,523	-0,368	-0,127
121,049	-114,563	-0,230	-0,031
122,064	196,282	-0,222	-0,238
123,079	246,794	-0,160	-0,190
124,093	-83,068	-0,299	-0,067
125,108	-34,108	-0,249	-0,096
126,122	36,021	-0,350	-0,216
127,137	14,035	-0,330	-0,180
128,151	14,755	-0,237	-0,130
129,166	339,764	-0,130	-0,178
130,181	135,245	-0,165	-0,151
131,195	-8,034	-0,267	-0,126
132,210	76,021	-0,148	-0,109
133,224	57,799	-0,337	-0,231
134,239	29,053	-0,254	-0,150
135,254	261,904	-0,116	-0,141
136,268	468,670	-0,118	-0,187
137,283	-6,320	-0,220	-0,105
138,297	204,322	-0,316	-0,344
139,312	69,698	-0,284	-0,205
140,327	-46,037	-0,276	-0,095
141,341	28,809	-0,321	-0,190
142,356	-37,922	-0,109	-0,040
143,370	-57,459	-0,254	-0,078
144,385	64,146	-0,169	-0,119
145,400	57,368	-0,278	-0,190
146,414	246,846	-0,220	-0,260
147,429	800,000	-0,064	-0,183
148,443	385,949	-0,219	-0,317
149,458	207,122	-0,208	-0,227
150,473	59,387	-0,216	-0,148
151,487	69,130	-0,187	-0,134
152,502	211,667	-0,265	-0,293
153,516	24,571	-0,339	-0,196
154,531	198,464	-0,169	-0,182
155,546	359,021	-0,189	-0,265
156,560	99,915	-0,242	-0,196
157,575	301,746	-0,166	-0,215
158,589	29,415	-0,270	-0,160
159,604	-12,212	-0,284	-0,129
160,619	290,309	-0,264	-0,336
161,633	147,570	-0,291	-0,275
162,648	242,253	-0,204	-0,239
163,662	800,000	-0,097	-0,216
164,677	-69,138	-0,150	-0,040
165,692	15,373	-0,226	-0,124
166,706	552,013	-0,137	-0,231
167,721	350,953	-0,254	-0,353
168,735	63,628	-0,255	-0,179
169,750	70,204	-0,258	-0,186
170,764	800,000	-0,066	-0,188
171,779	182,667	-0,135	-0,140
172,794	-88,312	-0,313	-0,065
173,808	800,000	-0,092	-0,244
174,823	45,032	-0,308	-0,198
175,837	447,889	-0,147	-0,227
176,852	55,606	-0,232	-0,156
177,867	76,109	-0,196	-0,144
178,881	234,693	-0,208	-0,239
179,896	-59,924	-0,257	-0,076
180,910	78,211	-0,158	-0,118
181,925	-17,177	-0,179	-0,079
182,940	360,844	-0,191	-0,268
183,954	55,275	-0,187	-0,126
184,969	-165,680	-0,166	-0,005
185,983	324,306	-0,091	-0,121
186,998	313,841	-0,123	-0,162
188,013	-11,757	-0,348	-0,159
189,027	94,768	-0,273	-0,217
190,042	75,093	-0,285	-0,209
191,056	80,589	-0,305	-0,229
192,071	97,021	-0,266	-0,213
193,086	164,493	-0,168	-0,165
194,100	-29,696	-0,287	-0,114
195,115	25,935	-0,243	-0,141
196,129	50,441	-0,302	-0,199
197,144	800,000	-0,098	-0,199
198,159	359,498	-0,111	-0,155
199,173	76,227	-0,217	-0,160
200,188	6,675	-0,268	-0,138
201,202	12,762	-0,143	-0,077
202,217	34,008	-0,124	-0,075
203,232	96,708	-0,114	-0,091
204,246	800,000	-0,077	-0,206
205,261	776,668	-0,126	-0,241
206,275	-2,663	-0,204	-0,099
207,290	318,459	-0,191	-0,253
208,304	800,000	-0,081	-0,158
209,319	-104,852	-0,236	-0,037
210,334	44,365	-0,264	-0,168
211,348	322,265	-0,120	-0,159
212,363	545,380	-0,116	-0,194
213,377	188,091	-0,146	-0,152
214,392	62,438	-0,203	-0,141
215,407	-105,004	-0,179	0,028
216,421	11,557	-0,181	-0,096
217,436	57,919	-0,106	0,072
218,450	66,691	-0,258	-0,182
219,465	183,366	-0,259	-0,267
220,480	210,089	-0,191	-0,208
221,494	347,806	-0,153	-0,210
222,509	-95,510	-0,175	-0,032
223,523	800,000	0,030	-0,070
224,538	59,108	-0,171	-0,117
225,553	211,235	-0,185	-0,203
226,567	109,683	-0,278	-0,232
227,582	204,168	-0,140	-0,151
228,596	-200,000	-0,035	-0,221
229,611	-51,223	-0,178	-0,058
230,626	614,348	-0,134	-0,235
231,640	55,902	-0,144	-0,097
232,655	-47,051	-0,190	-0,064
233,669	265,971	-0,103	-0,125
234,684	50,334	-0,169	-0,111
235,699	-200,000	-0,049	-0,155
236,713	-5,542	-0,192	-0,091
237,728	-107,868	-0,190	-0,028
238,742	8,689	-0,169	-0,088
239,757	-139,090	-0,145	-0,011
240,772	57,874	-0,217	-0,147
241,786	800,000	-0,120	-0,345
242,801	154,973	-0,154	-0,147
243,815	-2,199	-0,270	-0,131
244,830	270,568	-0,079	-0,097
245,844	-25,302	-0,054	-0,022
246,859	9,577	-0,274	-0,144
247,874	43,441	-0,247	-0,157
248,888	77,727	-0,163	-0,120
249,903	519,589	-0,099	-0,162
250,917	30,203	-0,067	-0,040
251,932	-200,000	-0,032	-0,284
252,947	136,287	-0,210	-0,190
253,961	465,989	-0,183	-0,285
254,976	384,146	-0,123	-0,176
255,990	227,842	-0,128	-0,144
257,005	75,872	-0,113	-0,083
258,020	-200,000	-0,051	-0,290
259,034	-11,808	-0,177	-0,080
260,049	481,255	-0,131	-0,207
261,063	-200,000	-0,076	-0,241
262,078	174,243	-0,161	-0,161
263,093	312,963	-0,150	-0,196
264,107	73,115	-0,161	-0,117
265,122	164,911	-0,203	-0,198
266,136	108,392	-0,120	-0,099
267,151	-86,785	-0,243	-0,051
268,166	-200,000	-0,022	-0,078
269,180	281,743	-0,173	-0,216
270,195	90,763	-0,280	-0,217
271,209	358,146	-0,148	-0,206
272,224	221,695	-0,130	-0,145
273,239	-102,821	-0,113	-0,018
274,253	-189,451	-0,159	-0,001
275,268	677,432	-0,112	-0,202
276,282	593,839	-0,136	-0,234
277,297	30,400	-0,176	-0,104
278,312	-49,556	-0,247	-0,081
279,326	800,000	-0,031	-0,092
280,341	-157,854	-0,227	0,009
281,355	456,764	-0,077	-0,119
282,370	-37,211	-0,137	-0,051
283,384	198,993	-0,080	-0,085
284,399	-141,340	-0,152	-0,011
285,414	571,558	-0,118	-0,200
286,428	-24,710	-0,160	-0,066
287,443	1,276	-0,152	-0,075
288,457	-77,470	-0,162	-0,039
289,472	462,319	-0,110	-0,170
290,487	53,338	-0,132	-0,087
291,501	165,249	-0,166	-0,163
292,516	384,012	-0,151	-0,216
293,530	106,967	-0,083	-0,068
294,545	800,000	-0,050	-0,150
295,560	50,248	-0,147	-0,096
296,574	2,375	-0,162	-0,081
297,589	284,567	-0,126	-0,157
298,603	4,961	-0,134	-0,068
299,618	-1,003	-0,272	-0,133
300,633	-79,906	-0,152	-0,035
301,647	403,407	-0,100	-0,146
302,662	-137,764	-0,175	0,013
303,676	188,572	-0,162	-0,167
304,691	28,918	-0,198	-0,116
305,706	-46,713	-0,238	-0,080
306,720	179,367	-0,154	-0,156
307,735	63,792	0,076	-0,053
308,749	157,647	-0,072	-0,069
309,764	417,399	-0,139	-0,205
310,779	753,243	-0,082	-0,154
311,793	-99,254	-0,124	-0,021
312,808	277,691	-0,043	-0,053
313,822	42,437	-0,160	-0,100
314,837	92,746	-0,121	-0,094
315,852	-170,620	-0,143	0,003
316,866	436,842	-0,060	-0,090
317,881	-109,432	-0,203	-0,029
318,895	312,801	-0,104	-0,135
319,910	10,949	-0,183	-0,096
320,925	-131,393	-0,081	-0,007
321,939	-94,674	-0,112	0,021
322,954	800,000	-0,080	-0,222
323,968	535,063	-0,102	-0,167
324,983	297,902	-0,065	-0,083
325,997	31,805	-0,229	-0,136
327,012	-145,822	-0,125	-0,008
328,027	264,691	-0,193	-0,232
329,041	22,468	-0,133	-0,075
330,056	-200,000	-0,017	-0,109
331,070	-79,905	-0,167	0,038
332,085	-105,793	-0,219	-0,034
333,100	800,000	-0,033	-0,067
334,114	157,542	-0,198	-0,189
335,129	-88,154	-0,231	-0,047
336,143	148,956	-0,056	-0,052
337,158	-45,792	-0,091	-0,031
338,173	-179,668	-0,096	-0,001
339,187	800,000	0,046	-0,129
340,202	22,356	-0,189	-0,106
341,216	-200,000	-0,035	-0,149
342,231	800,000	-0,061	-0,126
343,246	65,498	-0,120	-0,083
344,260	-200,000	-0,040	-0,130
345,275	-200,000	-0,034	-0,197
346,289	-19,816	-0,183	-0,078
347,304	106,309	-0,130	-0,106
348,319	800,000	-0,022	-0,044
349,333	617,593	-0,165	-0,287
350,348	138,390	-0,204	-0,184
351,362	-16,891	-0,122	-0,053
352,377	-16,144	-0,116	-0,051
353,392	44,029	-0,197	-0,124
354,406	-47,550	-0,199	-0,066
355,421	211,298	1313,591	1422,469
356,435	162,696	1474,229	1423,003
