DTS Sentinel unit serial number:	SN410029Multiplexer serial number:	ORYXHardware model number:	OX2-SRSoftware version number:	ORYX F/W v4,00 Oryx Data Collector v3.7.2.0data status	okinstallation	B3 Nyhavnadifferential loss correction	single-endedforward channel	channel 1reverse channel	N/Adate	2023/12/01time	18:12:30forward acquisition time	300,00reverse acquisition time	0,00gamma	499,1914k internal	0,3203k external	0,3203temperature offset calibration	1,0000default loss term (dB/km)	0,3820temperature slope calibration	1,0000multiplexer offset coefficient	1,0000multiplexer slope coefficient	1,0000fibre end	0,00T internal ref (°C)	14,67T ext. ref 1 (°C)	0,72T ext. ref 2 (°C)	0,70length (m)	temperature (°C)	Stokes	anti-Stokes-744,400	41,084	-0,164	-0,108
-743,385	-200,000	0,010	0,325
-742,371	-49,845	-0,178	-0,061
-741,356	-200,000	0,039	0,350
-740,342	585,939	-0,117	-0,209
-739,327	-200,000	-0,048	0,241
-738,312	252,831	-0,144	-0,179
-737,298	-200,000	0,033	0,309
-736,283	31,623	-0,213	-0,133
-735,269	-200,000	0,044	0,361
-734,254	271,855	-0,156	-0,200
-733,239	73,866	-0,198	0,150
-732,225	469,071	-0,097	-0,159
-731,210	717,373	0,115	0,223
-730,196	-19,095	-0,124	0,056
-729,181	89,826	-0,208	0,169
-728,167	800,000	0,034	-0,079
-727,152	187,302	0,070	-0,076
-726,137	-71,361	-0,080	-0,022
-725,123	-49,903	-0,146	0,050
-724,108	86,430	-0,081	0,065
-723,094	800,000	0,041	-0,087
-722,079	-200,000	0,039	-0,168
-721,064	668,282	0,035	0,067
-720,050	-200,000	0,018	0,107
-719,035	214,133	-0,078	-0,089
-718,021	-143,283	-0,046	-0,003
-717,006	-96,316	-0,124	-0,024
-715,991	565,745	0,063	-0,111
-714,977	-200,000	-0,085	0,000
-713,962	457,230	-0,131	-0,213
-712,948	-144,767	0,139	0,009
-711,933	-200,000	-0,033	0,127
-710,918	-135,845	-0,101	-0,009
-709,904	-200,000	0,017	-0,108
-708,889	800,000	0,011	0,036
-707,875	-200,000	0,024	-0,224
-706,860	800,000	0,050	-0,157
-705,845	319,613	0,090	-0,125
-704,831	464,024	0,050	-0,082
-703,816	-200,000	-0,012	0,059
-702,802	296,053	0,049	-0,065
-701,787	-200,000	-0,032	-0,110
-700,772	-94,533	-0,054	-0,011
-699,758	237,371	-0,055	0,066
-698,743	-200,000	-0,004	0,037
-697,729	-190,327	0,252	-0,002
-696,714	-108,733	0,048	-0,007
-695,699	-188,138	-0,132	-0,001
-694,685	-166,185	-0,125	-0,004
-693,670	-96,732	0,122	-0,023
-692,656	131,938	0,074	-0,069
-691,641	190,004	0,032	-0,034
-690,627	-15,709	-0,082	-0,038
-689,612	67,710	0,054	0,040
-688,597	800,000	-0,027	-0,083
-687,583	800,000	-0,050	-0,142
-686,568	359,773	-0,124	-0,181
-685,554	-31,977	-0,130	-0,052
-684,539	-200,000	-0,019	-0,074
-683,524	89,494	0,053	-0,043
-682,510	-165,319	-0,176	-0,005
-681,495	-200,000	0,003	-0,016
-680,481	800,000	-0,059	-0,129
-679,466	-186,062	-0,176	0,002
-678,451	-35,336	-0,242	-0,095
-677,437	800,000	-0,054	-0,155
-676,422	-185,719	0,049	-0,001
-675,408	-200,000	0,011	0,088
-674,393	-25,752	0,155	0,066
-673,378	58,815	-0,158	0,112
-672,364	-200,000	0,006	-0,118
-671,349	229,775	-0,026	0,031
-670,335	800,000	0,009	0,023
-669,320	-15,974	-0,031	-0,014
-668,305	-198,152	-0,126	-0,001
-667,291	-200,000	0,000	-0,015
-666,276	-200,000	0,001	-0,065
-665,262	15,528	0,103	0,059
-664,247	-127,879	-0,148	-0,015
-663,232	800,000	-0,028	0,071
-662,218	179,874	0,104	0,110
-661,203	99,437	0,089	0,075
-660,189	-141,049	-0,077	0,006
-659,174	-98,781	-0,105	-0,019
-658,159	363,059	-0,123	-0,180
-657,145	-200,000	-0,012	-0,103
-656,130	-119,818	-0,021	0,003
-655,116	-200,000	0,018	0,122
-654,101	800,000	-0,042	0,111
-653,086	800,000	-0,030	-0,084
-652,072	210,721	-0,069	-0,079
-651,057	91,781	-0,065	-0,053
-650,043	213,099	-0,060	0,069
-649,028	-200,000	0,017	0,118
-648,014	-200,000	-0,010	0,107
-646,999	-200,000	-0,076	0,000
-645,984	775,616	-0,050	0,100
-644,970	160,536	-0,046	-0,046
-643,955	800,000	0,013	0,035
-642,941	3,964	-0,021	0,011
-641,926	-69,579	-0,069	-0,019
-640,911	304,219	-0,066	-0,089
-639,897	45,572	-0,044	0,030
-638,882	800,000	-0,034	-0,098
-637,868	-36,351	-0,085	0,033
-636,853	123,598	0,057	-0,052
-635,838	-200,000	-0,010	-0,057
-634,824	-200,000	0,009	0,100
-633,809	-82,042	0,090	-0,021
-632,795	-17,048	0,046	-0,021
-631,780	-200,000	0,003	0,031
-630,765	-11,223	-0,072	0,034
-629,751	-200,000	0,000	-0,064
-628,736	-165,454	-0,125	0,004
-627,722	99,679	0,133	-0,111
-626,707	92,714	0,058	0,047
-625,692	173,705	0,055	-0,058
-624,678	394,534	-0,053	-0,080
-623,663	19,830	0,095	0,055
-622,649	800,000	-0,080	-0,172
-621,634	-200,000	0,019	-0,115
-620,619	-200,000	-0,008	-0,145
-619,605	-200,000	-0,011	-0,135
-618,590	-200,000	-0,013	0,082
-617,576	1,842	0,062	0,032
-616,561	-117,120	-0,121	-0,016
-615,546	800,000	-0,072	-0,144
-614,532	800,000	-0,002	-0,004
-613,517	-6,636	-0,102	-0,050
-612,503	142,951	0,141	0,136
-611,488	20,526	-0,069	-0,040
-610,474	-200,000	0,000	0,108
-609,459	-180,383	0,116	-0,002
-608,444	-136,094	0,019	0,002
-607,430	409,177	-0,039	-0,059
-606,415	1,561	-0,179	-0,093
-605,401	-42,031	0,082	-0,030
-604,386	-43,804	0,205	-0,074
-603,371	-33,490	0,049	-0,019
-602,357	-92,641	-0,144	-0,029
-601,342	-77,228	-0,013	-0,003
-600,328	-163,850	0,078	-0,003
-599,313	-200,000	0,018	0,130
-598,298	800,000	0,029	-0,079
-597,284	533,493	0,080	-0,138
-596,269	106,918	-0,085	0,073
-595,255	800,000	0,029	0,087
-594,240	-32,542	-0,021	-0,008
-593,225	535,842	-0,072	-0,123
-592,211	-87,251	-0,163	-0,036
-591,196	-200,000	0,008	-0,028
-590,182	41,327	0,066	0,043
-589,167	123,014	0,031	0,028
-588,152	31,651	-0,056	0,034
-587,138	166,292	0,051	0,053
-586,123	-200,000	-0,023	-0,074
-585,109	800,000	-0,022	-0,064
-584,094	-200,000	-0,013	0,082
-583,079	-200,000	0,006	0,047
-582,065	74,856	0,082	0,062
-581,050	-118,559	-0,079	0,010
-580,036	800,000	0,048	-0,134
-579,021	56,166	-0,102	0,071
-578,006	-50,745	-0,030	-0,010
-576,992	409,031	-0,068	-0,104
-575,977	-200,000	0,031	-0,105
-574,963	-107,882	0,081	0,013
-573,948	-200,000	0,038	0,130
-572,934	-200,000	-0,011	0,065
-571,919	722,675	-0,021	-0,041
-570,904	800,000	-0,034	0,069
-569,890	100,151	0,069	-0,057
-568,875	39,570	-0,061	-0,040
-567,861	-108,287	0,059	-0,009
-566,846	-36,871	-0,047	0,018
-565,831	97,291	-0,024	0,020
-564,817	-200,000	-0,016	-0,055
-563,802	541,577	-0,098	-0,169
-562,788	-98,894	-0,073	0,013
-561,773	436,567	0,073	-0,115
-560,758	-200,000	-0,010	-0,127
-559,744	-38,235	-0,162	0,062
-558,729	-166,582	0,045	0,001
-557,715	295,844	-0,022	-0,029
-556,700	-200,000	0,014	0,078
-555,685	268,743	-0,088	-0,111
-554,671	-200,000	-0,006	-0,044
-553,656	-200,000	0,001	-0,004
-552,642	667,152	0,069	0,130
-551,627	350,769	-0,046	0,066
-550,612	-56,562	0,030	0,010
-549,598	577,781	0,072	-0,128
-548,583	-56,304	-0,157	-0,050
-547,569	-200,000	0,006	-0,064
-546,554	-200,000	-0,045	0,145
-545,539	-200,000	0,002	0,140
-544,525	178,663	-0,030	-0,032
-543,510	-100,377	-0,042	0,007
-542,496	168,527	-0,078	-0,080
-541,481	199,987	-0,017	0,018
-540,466	296,810	0,052	-0,069
-539,452	-48,909	0,108	0,037
-538,437	-200,000	-0,006	0,144
-537,423	-200,000	-0,011	0,109
-536,408	-128,047	-0,178	0,018
-535,393	44,045	-0,028	-0,019
-534,379	202,100	-0,045	0,050
-533,364	-59,424	-0,116	-0,036
-532,350	100,032	0,069	0,057
-531,335	-68,246	0,153	-0,043
-530,321	-200,000	-0,010	0,034
-529,306	583,851	-0,011	0,019
-528,291	-67,240	-0,118	0,033
-527,277	69,238	-0,069	0,051
-526,262	-81,788	0,139	-0,032
-525,248	255,430	-0,005	-0,006
-524,233	-158,611	0,133	0,005
-523,218	93,257	0,055	-0,045
-522,204	-200,000	0,005	0,059
-521,189	204,001	-0,055	0,061
-520,175	430,713	-0,033	0,051
-519,160	-23,112	0,032	-0,014
-518,145	800,000	0,073	-0,190
-517,131	570,029	-0,071	0,125
-516,116	-200,000	0,049	0,216
-515,102	339,048	0,072	-0,101
-514,087	-137,773	-0,017	0,001
-513,072	-136,514	-0,129	-0,011
-512,058	-200,000	0,007	-0,067
-511,043	-18,126	-0,091	0,041
-510,029	82,377	0,119	0,093
-509,014	-200,000	-0,016	0,063
-507,999	11,523	0,181	0,100
-506,985	275,931	0,009	0,011
-505,970	129,424	-0,094	-0,086
-504,956	-200,000	0,017	-0,182
-503,941	-200,000	0,029	-0,099
-502,926	410,920	0,035	0,053
-501,912	-81,050	0,032	0,007
-500,897	-200,000	-0,008	-0,073
-499,883	105,274	0,042	0,036
-498,868	3,301	0,075	0,039
-497,853	-61,665	0,004	0,001
-496,839	-8,311	-0,057	0,028
-495,824	-200,000	0,001	0,051
-494,810	110,059	0,074	0,064
-493,795	686,449	0,006	0,011
-492,781	-18,100	0,156	-0,070
-491,766	-92,991	-0,195	-0,039
-490,751	245,184	-0,037	-0,045
-489,737	593,009	0,044	-0,079
-488,722	65,121	0,023	-0,017
-487,708	-49,263	0,067	-0,023
-486,693	-162,193	-0,098	-0,003
-485,678	800,000	-0,032	-0,086
-484,664	183,689	0,062	0,066
-483,649	-125,307	-0,030	0,003
-482,635	183,145	0,021	-0,022
-481,620	115,140	0,130	-0,114
-480,605	59,230	0,007	0,005
-479,591	13,022	-0,060	-0,033
-478,576	-64,809	-0,052	0,015
-477,562	162,172	-0,102	-0,103
-476,547	45,329	-0,058	0,038
-475,532	800,000	-0,028	0,057
-474,518	107,756	0,034	0,029
-473,503	800,000	0,043	-0,088
-472,489	-200,000	0,030	0,144
-471,474	174,264	-0,074	0,077
-470,459	103,994	-0,103	-0,087
-469,445	-200,000	-0,008	0,036
-468,430	66,320	0,112	-0,082
-467,416	800,000	0,045	-0,101
-466,401	-200,000	-0,022	-0,106
-465,386	25,185	0,070	0,042
-464,372	800,000	-0,057	-0,158
-463,357	340,140	-0,069	0,097
-462,343	-200,000	-0,003	-0,047
-461,328	-200,000	-0,023	-0,136
-460,313	238,211	-0,058	-0,070
-459,299	263,688	0,061	0,076
-458,284	-200,000	0,027	-0,154
-457,270	-90,650	0,089	-0,018
-456,255	37,684	-0,010	-0,006
-455,241	-41,858	0,089	-0,033
-454,226	280,310	-0,114	0,146
-453,211	800,000	0,024	0,075
-452,197	-126,122	0,184	-0,020
-451,182	-16,034	0,114	-0,052
-450,168	66,328	0,094	0,068
-449,153	-131,097	-0,094	0,009
-448,138	800,000	0,029	0,066
-447,124	-99,142	-0,152	-0,027
-446,109	67,344	-0,014	0,010
-445,095	-168,461	-0,107	-0,003
-444,080	-169,045	-0,004	-0,000
-443,065	357,664	-0,032	0,045
-442,051	250,001	0,020	0,024
-441,036	-200,000	-0,043	-0,137
-440,022	-71,114	-0,072	-0,019
-439,007	800,000	-0,031	0,065
-437,992	5,838	0,102	0,054
-436,978	-200,000	-0,014	0,150
-435,963	203,888	-0,085	-0,095
-434,949	218,384	-0,111	-0,127
-433,934	-18,497	0,151	-0,067
-432,919	800,000	-0,010	-0,028
-431,905	233,318	0,060	-0,071
-430,890	-78,396	0,130	-0,032
-429,876	-20,988	-0,149	-0,065
-428,861	163,493	0,077	0,078
-427,846	155,581	-0,095	0,094
-426,832	-38,147	-0,090	0,034
-425,817	800,000	0,024	-0,052
-424,803	-200,000	0,007	-0,143
-423,788	-52,446	0,043	0,014
-422,773	260,480	-0,069	-0,086
-421,759	64,997	0,097	0,071
-420,744	377,956	-0,100	0,147
-419,730	151,584	-0,042	0,041
-418,715	-200,000	-0,036	-0,174
-417,701	116,112	-0,113	-0,099
-416,686	-200,000	-0,000	0,019
-415,671	-36,697	0,064	0,025
-414,657	-200,000	0,015	-0,073
-413,642	-24,675	0,079	-0,033
-412,628	800,000	0,076	0,167
-411,613	-200,000	-0,026	-0,164
-410,598	-200,000	0,012	-0,048
-409,584	-50,940	-0,061	-0,020
-408,569	6,716	0,060	0,032
-407,555	-96,012	0,150	-0,028
-406,540	-114,432	0,089	-0,012
-405,525	-53,461	-0,163	-0,053
-404,511	800,000	-0,070	-0,141
-403,496	-200,000	-0,008	-0,104
-402,482	111,311	0,073	0,063
-401,467	-16,874	0,045	0,021
-400,452	-200,000	0,007	0,040
-399,438	-200,000	0,005	-0,018
-398,423	129,672	-0,034	-0,032
-397,409	56,965	0,080	0,056
-396,394	368,694	-0,096	0,139
-395,379	-30,358	0,148	-0,060
-394,365	-200,000	0,002	-0,007
-393,350	-104,796	0,028	-0,005
-392,336	-200,000	-0,004	0,014
-391,321	-2,344	-0,136	0,068
-390,306	-200,000	-0,000	0,001
-389,292	-200,000	-0,025	-0,095
-388,277	-200,000	-0,004	0,110
-387,263	-132,106	0,109	-0,010
-386,248	800,000	0,032	-0,070
-385,233	-10,951	-0,150	0,071
-384,219	-20,542	-0,062	0,027
-383,204	10,825	-0,071	-0,039
-382,190	21,242	-0,041	-0,024
-381,175	-60,887	-0,049	0,015
-380,160	-85,661	0,060	-0,013
-379,146	-109,616	0,032	0,005
-378,131	-95,513	0,056	0,011
-377,117	-142,995	-0,160	-0,011
-376,102	760,805	-0,029	-0,056
-375,088	800,000	0,010	0,030
-374,073	-200,000	-0,009	-0,074
-373,058	111,983	0,074	-0,064
-372,044	800,000	0,093	0,186
-371,029	116,191	0,068	-0,059
-370,015	61,099	0,050	-0,036
-369,000	-85,709	-0,120	-0,026
-367,985	154,435	-0,064	-0,063
-366,971	800,000	0,028	-0,071
-365,956	94,180	0,049	-0,040
-364,942	109,778	0,156	0,134
-363,927	225,521	0,041	0,048
-362,912	-124,527	-0,144	0,016
-361,898	39,766	-0,086	-0,055
-360,883	-35,639	0,099	-0,038
-359,869	800,000	-0,034	-0,069
-358,854	-151,982	0,097	-0,005
-357,839	-200,000	0,030	0,100
-356,825	79,995	0,107	0,083
-355,810	-132,435	0,175	-0,016
-354,796	188,143	0,040	-0,043
-353,781	97,082	-0,045	-0,037
-352,766	-156,065	0,070	0,003
-351,752	-85,673	-0,177	0,039
-350,737	-200,000	0,015	0,067
-349,723	-200,000	0,003	-0,085
-348,708	-200,000	-0,002	0,050
-347,693	-104,182	0,040	0,007
-346,679	800,000	0,030	-0,068
-345,664	634,081	0,033	-0,061
-344,650	407,433	-0,054	-0,081
-343,635	457,333	0,057	0,091
-342,620	-200,000	-0,008	0,094
-341,606	-125,831	0,015	-0,002
-340,591	-200,000	0,013	0,102
-339,577	-200,000	-0,014	0,148
-338,562	-200,000	0,024	-0,076
-337,548	-200,000	0,022	-0,107
-336,533	-87,319	0,039	-0,008
-335,518	-90,321	0,122	0,025
-334,504	163,088	0,042	0,042
-333,489	-200,000	0,024	0,081
-332,475	-90,571	-0,076	-0,016
-331,460	-200,000	0,013	-0,113
-330,445	-131,806	0,071	0,007
-329,431	108,364	0,128	0,110
-328,416	2,875	0,102	0,053
-327,402	-200,000	-0,053	0,000
-326,387	140,912	0,069	0,065
-325,372	-89,111	0,163	-0,034
-324,358	-41,095	-0,185	-0,068
-323,343	-163,007	-0,080	0,003
-322,329	800,000	0,037	0,084
-321,314	-200,000	0,035	0,121
-320,299	12,034	-0,074	0,041
-319,285	-146,924	-0,104	0,006
-318,270	800,000	-0,053	0,120
-317,256	-145,687	-0,097	0,006
-316,241	-200,000	0,001	0,154
-315,226	-127,378	0,079	-0,008
-314,212	800,000	-0,046	0,118
-313,197	335,745	0,039	-0,054
-312,183	-48,270	0,063	-0,021
-311,168	-200,000	-0,025	0,089
-310,153	800,000	-0,053	-0,109
-309,139	800,000	0,027	0,074
-308,124	-162,268	-0,068	0,002
-307,110	441,897	0,088	0,138
-306,095	438,088	-0,080	-0,125
-305,080	18,404	-0,064	-0,036
-304,066	-3,762	-0,071	-0,035
-303,051	800,000	-0,060	-0,175
-302,037	68,425	0,133	-0,097
-301,022	50,317	0,104	0,070
-300,008	800,000	0,041	-0,083
-298,993	383,934	0,028	0,041
-297,978	108,537	0,070	0,059
-296,964	-134,473	-0,117	0,010
-295,949	-111,169	-0,137	-0,020
-294,935	-42,209	-0,139	-0,051
-293,920	-50,359	-0,098	-0,033
-292,905	207,294	-0,014	-0,015
-291,891	800,000	0,054	0,110
-290,876	-101,722	-0,081	-0,014
-289,862	800,000	0,025	0,053
-288,847	98,123	-0,141	0,116
-287,832	29,416	0,080	0,049
-286,818	444,156	0,033	-0,053
-285,803	119,644	0,093	0,082
-284,789	30,484	-0,024	0,015
-283,774	183,310	-0,065	0,069
-282,759	97,378	0,037	-0,030
-281,745	202,708	-0,106	0,117
-280,730	-87,166	-0,076	-0,016
-279,716	-120,180	-0,100	-0,012
-278,701	166,157	0,020	-0,020
-277,686	-1,891	0,184	0,092
-276,672	182,746	-0,046	0,048
-275,657	149,441	0,068	0,066
-274,643	312,388	0,061	0,081
-273,628	-200,000	0,001	-0,152
-272,613	800,000	0,025	-0,078
-271,599	-109,105	0,037	0,006
-270,584	-35,291	-0,014	-0,005
-269,570	-58,399	0,187	0,058
-268,555	169,040	-0,109	0,111
-267,540	-5,502	0,078	-0,038
-266,526	135,985	-0,067	-0,062
-265,511	14,482	-0,111	0,062
-264,497	-3,587	0,069	0,034
-263,482	51,238	-0,024	0,016
-262,467	-200,000	0,022	0,110
-261,453	-103,692	0,064	0,011
-260,438	-34,871	-0,144	0,056
-259,424	-26,540	0,077	-0,032
-258,409	800,000	0,049	-0,127
-257,395	-64,521	0,030	-0,009
-256,380	56,825	-0,022	-0,016
-255,365	800,000	0,031	0,063
-254,351	-200,000	0,002	0,072
-253,336	135,781	-0,176	0,164
-252,322	543,401	-0,044	-0,075
-251,307	136,165	0,061	-0,057
-250,292	626,823	-0,020	-0,036
-249,278	-97,570	-0,026	-0,005
-248,263	102,158	-0,134	-0,111
-247,249	-81,652	0,053	0,012
-246,234	-200,000	-0,026	0,122
-245,219	-76,833	-0,175	-0,043
-244,205	-25,878	-0,047	-0,020
-243,190	-200,000	0,010	0,116
-242,176	-143,427	0,092	0,006
-241,161	-55,656	-0,025	-0,008
-240,146	72,412	0,080	0,059
-239,132	-70,293	0,083	0,022
-238,117	-14,736	-0,125	-0,057
-237,103	-55,814	-0,071	0,023
-236,088	-86,508	0,145	0,031
-235,073	-200,000	-0,010	-0,072
-234,059	-200,000	-0,008	0,028
-233,044	145,869	0,067	-0,064
-232,030	-200,000	-0,024	-0,107
-231,015	800,000	-0,045	-0,094
-230,000	800,000	0,019	-0,058
-228,986	-141,950	-0,113	-0,008
-227,971	276,788	-0,059	0,075
-226,957	800,000	0,076	0,175
-225,942	-200,000	0,007	0,099
-224,927	135,095	0,150	-0,138
-223,913	-200,000	-0,016	0,081
-222,898	800,000	-0,020	0,056
-221,884	-110,475	0,055	0,008
-220,869	-55,559	-0,132	0,042
-219,855	-200,000	0,005	0,124
-218,840	-42,973	0,083	0,030
-217,825	-94,815	0,069	0,013
-216,811	-168,706	-0,119	-0,003
-215,796	-17,081	0,044	-0,020
-214,782	-200,000	0,019	0,085
-213,767	211,345	-0,045	-0,050
-212,752	800,000	0,047	0,113
-211,738	800,000	0,036	0,100
-210,723	799,261	-0,027	0,053
-209,709	-18,974	-0,024	-0,011
-208,694	800,000	-0,076	0,204
-207,679	-113,925	0,065	-0,009
-206,665	-200,000	-0,002	-0,028
-205,650	-55,995	0,052	0,017
-204,636	-29,415	0,099	0,040
-203,621	12,660	0,095	-0,052
-202,606	-112,264	0,039	-0,006
-201,592	-86,456	-0,119	-0,026
-200,577	-95,403	0,058	-0,011
-199,563	46,444	0,087	0,057
-198,548	-150,686	0,128	-0,007
-197,533	783,439	0,007	-0,013
-196,519	-200,000	-0,024	-0,079
-195,504	39,604	-0,005	0,003
-194,490	138,528	-0,094	0,088
-193,475	-200,000	0,012	-0,070
-192,460	-40,979	-0,059	0,022
-191,446	42,295	-0,118	0,076
-190,431	-48,823	-0,021	0,007
-189,417	124,452	-0,056	0,050
-188,402	-152,385	0,086	0,004
-187,387	-92,781	-0,065	0,013
-186,373	800,000	0,019	0,045
-185,358	-169,595	-0,123	-0,003
-184,344	-64,047	-0,061	0,018
-183,329	-88,886	0,098	0,021
-182,315	33,094	-0,049	-0,030
-181,300	-81,519	-0,075	-0,017
-180,285	-200,000	-0,001	-0,025
-179,271	-200,000	0,022	-0,127
-178,256	-49,174	0,058	-0,020
-177,242	-134,420	0,010	-0,001
-176,227	-200,000	0,002	0,020
-175,212	117,713	0,066	0,058
-174,198	-200,000	-0,004	0,063
-173,183	-106,793	-0,100	-0,016
-172,169	-200,000	-0,016	-0,061
-171,154	-112,251	0,078	0,011
-170,139	-200,000	0,020	-0,131
-169,125	2,273	-0,063	-0,032
-168,110	-200,000	0,012	0,038
-167,096	-108,959	0,090	-0,013
-166,081	-65,858	-0,133	-0,037
-165,066	800,000	-0,037	-0,102
-164,052	5,985	0,086	-0,045
-163,037	54,692	0,153	-0,105
-162,023	-200,000	0,008	0,059
-161,008	593,469	0,044	0,078
-159,993	800,000	-0,027	0,073
-158,979	-200,000	0,024	-0,100
-157,964	-137,994	-0,153	0,012
-156,950	-200,000	0,005	0,027
-155,935	-101,429	0,113	-0,019
-154,920	24,273	0,122	0,071
-153,906	-148,053	0,242	0,014
-152,891	-42,980	0,123	0,044
-151,877	794,727	0,026	-0,050
-150,862	800,000	-0,070	-0,178
-149,847	155,784	-0,116	-0,113
-148,833	-200,000	0,035	0,122
-147,818	428,037	0,039	0,060
-146,804	800,000	0,032	-0,086
-145,789	-110,365	-0,064	-0,009
-144,775	212,263	-0,024	0,027
-143,760	-114,075	-0,078	-0,011
-142,745	800,000	-0,041	-0,100
-141,731	-15,496	-0,126	-0,057
-140,716	-54,594	0,124	-0,040
-139,702	-200,000	0,011	0,236
-138,687	-32,416	-0,184	0,072
-137,672	-200,000	-0,022	-0,102
-136,658	50,830	-0,054	0,036
-135,643	-46,904	-0,026	0,009
-134,629	-113,348	-0,058	-0,008
-133,614	468,265	0,023	0,037
-132,599	-94,337	0,073	0,014
-131,585	96,608	0,162	0,132
-130,570	-90,676	0,097	-0,020
-129,556	60,915	-0,138	0,097
-128,541	21,847	0,125	-0,072
-127,526	-200,000	-0,008	-0,037
-126,512	84,347	0,069	0,053
-125,497	570,397	-0,041	0,071
-124,483	-80,286	0,106	-0,025
-123,468	786,963	0,065	-0,126
-122,453	114,108	0,095	0,082
-121,439	131,562	-0,143	0,131
-120,424	589,173	-0,059	-0,103
-119,410	14,559	0,050	-0,028
-118,395	-200,000	-0,008	-0,036
-117,380	289,349	0,112	-0,145
-116,366	-200,000	-0,048	0,170
-115,351	-200,000	-0,021	0,121
-114,337	190,344	-0,105	-0,112
-113,322	337,888	-0,064	-0,089
-112,307	-127,520	0,102	0,010
-111,293	536,282	-0,071	-0,120
-110,278	-92,560	0,094	0,018
-109,264	-200,000	0,007	-0,073
-108,249	92,271	-0,035	-0,028
-107,234	-200,000	0,003	0,172
-106,220	191,473	0,105	-0,112
-105,205	329,398	0,064	0,088
-104,191	-200,000	0,000	0,002
-103,176	101,703	-0,011	-0,009
-102,162	357,178	0,071	-0,101
-101,147	-126,605	0,048	0,005
-100,132	546,852	-0,038	0,065
-99,118	-187,055	-0,137	-0,001
-98,103	-200,000	0,004	-0,067
-97,089	800,000	-0,008	-0,020
-96,074	442,129	-0,020	0,032
-95,059	800,000	-0,036	0,107
-94,045	-200,000	-0,016	0,112
-93,030	32,116	-0,042	0,025
-92,016	-200,000	0,007	0,044
-91,001	-200,000	-0,015	0,118
-89,986	-200,000	0,000	-0,066
-88,972	-95,514	0,058	-0,011
-87,957	275,252	-0,103	0,129
-86,943	-200,000	0,019	-0,121
-85,928	162,672	-0,053	-0,053
-84,913	437,338	-0,044	0,068
-83,899	94,119	-0,153	-0,123
-82,884	650,667	0,055	0,100
-81,870	425,589	-0,047	0,071
-80,855	-200,000	-0,002	0,094
-79,840	45,524	0,060	-0,039
-78,826	-200,000	-0,036	0,252
-77,811	410,238	-0,075	0,113
-76,797	800,000	0,009	0,025
-75,782	59,893	-0,048	0,033
-74,767	-200,000	0,027	0,108
-73,753	188,062	-0,109	0,116
-72,738	800,000	0,026	0,074
-71,724	800,000	0,021	0,054
-70,709	800,000	-0,050	0,101
-69,694	800,000	0,074	0,192
-68,680	-200,000	-0,002	0,024
-67,665	-200,000	0,001	0,083
-66,651	364,323	-0,021	0,030
-65,636	561,064	0,068	0,117
-64,622	-36,574	-0,030	-0,011
-63,607	579,785	0,051	0,089
-62,592	-200,000	-0,005	-0,063
-61,578	-200,000	0,006	0,026
-60,563	601,257	-0,017	0,030
-59,549	26,521	-0,185	0,109
-58,534	-30,472	-1,617	-0,646
-57,519	414,722	-1,436	-2,171
-56,505	-200,000	-0,321	-4,244
-55,490	116,265	0,961	0,833
-54,476	800,000	4,827	11,392
-53,461	-200,000	18,322	289,570
-52,446	800,000	727,203	2231,708
-51,432	556,082	1641,480	2808,273
-50,417	78,976	1662,540	1258,121
-49,403	22,518	1536,650	887,044
-48,388	16,532	1459,912	813,817
-47,373	17,769	1449,856	814,125
-46,359	17,119	1440,011	805,463
-45,344	14,800	1435,519	791,875
-44,330	14,732	1433,629	790,475
-43,315	14,739	1431,840	789,493
-42,300	14,763	1430,268	788,708
-41,286	14,791	1429,100	788,167
-40,271	14,722	1428,132	787,271
-39,257	14,773	1426,467	786,565
-38,242	14,796	1425,227	785,960
-37,227	14,772	1424,172	785,232
-36,213	14,817	1422,643	784,569
-35,198	14,777	1421,720	783,842
-34,184	14,782	1420,974	783,423
-33,169	14,742	1419,371	782,320
-32,154	14,842	1418,190	782,110
-31,140	14,753	1417,234	781,131
-30,125	14,823	1415,892	780,692
-29,111	14,748	1415,086	779,864
-28,096	14,752	1413,638	779,052
-27,082	14,708	1412,583	778,234
-26,067	14,732	1411,414	777,670
-25,052	14,716	1410,436	777,029
-24,038	14,626	1409,722	776,181
-23,023	14,687	1408,515	775,770
-22,009	14,673	1407,624	775,184
-20,994	14,670	1406,661	774,611
-19,979	14,650	1405,784	774,000
-18,965	14,593	1404,946	773,245
-17,950	14,610	1403,790	772,657
-16,936	14,653	1402,810	772,288
-15,921	14,644	1401,482	771,482
-14,906	14,573	1400,834	770,765
-13,892	14,609	1399,935	770,407
-12,877	14,647	1399,089	770,087
-11,863	14,629	1397,895	769,317
-10,848	14,538	1397,222	768,494
-9,833	14,556	1396,377	768,083
-8,819	14,544	1395,419	767,470
-7,804	14,531	1394,436	766,840
-6,790	14,504	1393,556	766,197
-5,775	14,512	1392,318	765,526
-4,760	14,520	1391,500	765,079
-3,746	14,481	1390,829	764,503
-2,731	14,497	1389,882	764,026
-1,717	14,453	1389,241	763,439
-0,702	14,471	1387,398	762,480
0,313	18,317	1306,147	735,566
1,327	34,453	705,184	434,422
2,342	52,939	124,267	83,923
3,356	1,690	16,618	8,435
4,371	2,981	3,077	1,575
5,386	-2,647	0,529	0,261
6,400	-200,000	0,038	0,138
7,415	74,160	-0,363	-0,269
8,429	121,890	-0,273	-0,241
9,444	488,118	-0,164	-0,266
10,459	-109,486	-0,309	-0,046
11,473	-107,272	-0,253	-0,039
12,488	176,662	-0,267	-0,274
13,502	146,030	-0,325	-0,308
14,517	-30,961	-0,316	-0,126
15,531	70,415	-0,330	-0,241
16,546	71,486	-0,316	-0,231
17,561	52,967	-0,376	-0,253
18,575	-140,827	-0,227	0,016
19,590	-72,449	-0,448	-0,116
20,604	44,261	-0,182	-0,117
21,619	127,474	-0,425	-0,381
22,634	122,788	-0,460	-0,406
23,648	367,670	-0,301	-0,430
24,663	52,485	-0,374	-0,252
25,677	87,398	-0,432	-0,337
26,692	167,804	-0,271	-0,272
27,707	41,570	-0,365	-0,233
28,721	-9,032	-0,505	-0,237
29,736	70,958	-0,477	-0,348
30,750	109,014	-0,528	-0,445
31,765	201,891	-0,327	-0,356
32,780	148,698	-0,361	-0,345
33,794	140,242	-0,288	-0,268
34,809	36,757	-0,253	-0,157
35,823	203,253	-0,342	-0,373
36,838	122,844	-0,425	-0,375
37,853	78,705	-0,446	-0,336
38,867	-8,807	-0,388	-0,183
39,882	1,745	-0,401	-0,203
40,896	-34,576	-0,319	-0,122
41,911	93,825	-0,329	-0,263
42,926	-24,006	-0,424	-0,178
43,940	138,840	-0,362	-0,335
44,955	59,975	-0,346	-0,240
45,969	267,081	-0,344	-0,425
46,984	800,000	-0,177	-0,360
47,999	147,290	-0,249	-0,236
49,013	-46,880	-0,368	-0,126
50,028	-29,016	-0,383	-0,154
51,042	204,133	-0,266	-0,291
52,057	106,015	-0,282	-0,235
53,071	12,857	-0,460	-0,250
54,086	92,132	-0,385	-0,305
55,101	59,484	-0,310	-0,215
56,115	-23,883	-0,440	-0,185
57,130	-48,761	-0,324	-0,109
58,144	17,477	-0,351	-0,196
59,159	251,351	-0,238	-0,286
60,174	99,749	-0,372	-0,303
61,188	77,770	-0,377	-0,282
62,203	-19,280	-0,353	-0,153
63,217	-116,233	-0,301	-0,039
64,232	-21,469	-0,200	-0,085
65,247	103,836	-0,324	-0,268
66,261	230,938	-0,304	-0,351
67,276	198,104	-0,236	-0,254
68,290	-17,299	-0,331	-0,146
69,305	103,862	-0,339	-0,280
70,320	-59,457	-0,323	-0,097
71,334	51,333	-0,415	-0,276
72,349	22,289	-0,376	-0,215
73,363	20,888	-0,341	-0,193
74,378	50,595	-0,430	-0,285
75,393	800,000	-0,143	-0,348
76,407	-18,173	-0,335	-0,147
77,422	-10,953	-0,239	-0,111
78,436	273,508	-0,189	-0,236
79,451	33,587	-0,369	-0,225
80,466	-73,698	-0,268	-0,068
81,480	1,773	-0,218	-0,110
82,495	260,830	-0,245	-0,298
83,509	-50,184	-0,367	-0,121
84,524	78,512	-0,200	-0,150
85,539	132,852	-0,271	-0,246
86,553	9,988	-0,299	-0,159
87,568	-151,089	-0,258	-0,013
88,582	-37,973	-0,329	-0,122
89,597	-60,430	-0,360	-0,107
90,611	-95,137	-0,199	-0,037
91,626	-106,295	-0,192	-0,030
92,641	12,881	-0,312	-0,169
93,655	217,331	-0,253	-0,283
94,670	179,644	-0,323	-0,333
95,684	-40,608	-0,252	-0,091
96,699	64,313	-0,289	-0,204
97,714	12,972	-0,256	-0,139
98,728	98,116	-0,188	-0,152
99,743	-85,747	-0,253	-0,055
100,757	678,640	-0,191	-0,350
101,772	-10,666	-0,241	-0,112
102,787	-29,042	-0,382	-0,153
103,801	23,003	-0,276	-0,158
104,816	161,098	-0,215	-0,211
105,830	-72,776	-0,204	-0,052
106,845	-39,284	-0,262	-0,096
107,860	-17,150	-0,288	-0,127
108,874	-41,875	-0,364	-0,130
109,889	-23,043	-0,312	-0,131
110,903	180,417	-0,160	-0,164
111,918	16,403	-0,203	-0,112
112,933	-19,672	-0,363	-0,157
113,947	34,365	-0,291	-0,178
114,962	119,135	-0,286	-0,248
115,976	164,396	-0,281	-0,278
116,991	12,659	-0,314	-0,169
118,006	166,443	-0,172	-0,170
119,020	111,830	-0,211	-0,178
120,035	65,370	-0,299	-0,211
121,049	-117,391	-0,171	-0,021
122,064	199,391	-0,215	-0,231
123,079	43,774	-0,268	-0,172
124,093	-45,266	-0,256	-0,088
125,108	118,156	-0,289	-0,249
126,122	234,913	-0,184	-0,213
127,137	-3,053	-0,277	-0,135
128,151	75,143	-0,132	-0,097
129,166	49,999	-0,326	-0,215
130,181	167,974	-0,222	-0,221
131,195	1,967	-0,348	-0,175
132,210	218,239	-0,220	-0,245
133,224	-89,205	-0,264	-0,054
134,239	37,795	-0,282	-0,175
135,254	287,865	-0,111	-0,140
136,268	-113,166	-0,327	-0,044
137,283	79,869	-0,167	-0,125
138,297	26,778	-0,180	-0,105
139,312	411,367	-0,104	-0,155
140,327	-38,507	-0,290	-0,106
141,341	-109,010	-0,330	-0,049
142,356	-113,808	-0,200	-0,027
143,370	-114,330	-0,197	-0,026
144,385	-74,967	-0,195	-0,048
145,400	54,510	-0,285	-0,192
146,414	122,258	-0,296	-0,259
147,429	148,164	-0,361	-0,340
148,443	254,784	-0,225	-0,269
149,458	288,315	-0,205	-0,259
150,473	-18,113	-0,260	-0,113
151,487	81,740	-0,263	-0,199
152,502	78,767	-0,173	-0,129
153,516	-1,060	-0,261	-0,128
154,531	154,130	-0,194	-0,186
155,546	-16,511	-0,341	-0,150
156,560	67,271	-0,241	-0,171
157,575	-47,202	-0,259	-0,088
158,589	-7,855	-0,301	-0,141
159,604	567,470	-0,222	-0,377
160,619	450,568	-0,163	-0,251
161,633	158,381	-0,210	-0,203
162,648	704,189	-0,127	-0,234
163,662	153,317	-0,272	-0,260
164,677	70,270	-0,281	-0,202
165,692	-179,481	-0,197	0,003
166,706	77,401	-0,228	-0,169
167,721	-176,678	-0,256	0,004
168,735	123,780	-0,254	-0,222
169,750	-102,949	-0,359	-0,059
170,764	12,845	-0,250	-0,134
171,779	-106,130	-0,224	-0,035
172,794	70,732	-0,263	-0,189
173,808	108,641	-0,185	-0,154
174,823	19,944	-0,238	-0,133
175,837	7,408	-0,213	-0,111
176,852	36,477	-0,087	-0,053
177,867	12,460	-0,288	-0,154
178,881	2,472	-0,201	-0,101
179,896	-6,426	-0,218	-0,103
180,910	-16,109	-0,315	-0,139
181,925	3,624	-0,288	-0,146
182,940	104,340	-0,219	-0,179
183,954	117,616	-0,203	-0,174
184,969	800,000	-0,081	-0,232
185,983	19,616	-0,027	0,015
186,998	41,219	-0,213	-0,133
188,013	98,936	-0,192	-0,154
189,027	48,101	-0,277	-0,180
190,042	408,807	-0,202	-0,299
191,056	262,256	-0,103	-0,125
192,071	-71,081	-0,102	-0,026
193,086	38,791	-0,229	-0,142
194,100	800,000	-0,107	-0,292
195,115	-154,042	-0,209	0,010
196,129	75,911	-0,227	-0,167
197,144	-157,573	-0,331	-0,014
198,159	30,895	-0,248	-0,147
199,173	350,075	-0,115	-0,158
200,188	-38,800	-0,148	-0,054
201,202	-89,560	-0,079	-0,016
202,217	-179,509	-0,202	-0,003
203,232	-92,500	-0,258	-0,050
204,246	28,880	-0,278	-0,163
205,261	171,617	-0,138	-0,138
206,275	-200,000	-0,078	-0,287
207,290	106,192	-0,242	-0,199
208,304	151,126	-0,180	-0,170
209,319	200,219	-0,138	-0,147
210,334	131,070	-0,289	-0,258
211,348	177,855	-0,187	-0,189
212,363	76,984	-0,208	-0,153
213,377	800,000	-0,101	-0,299
214,392	71,697	-0,231	-0,166
215,407	153,877	-0,087	-0,083
216,421	446,185	-0,154	-0,236
217,436	-200,000	-0,058	-0,213
218,450	523,585	-0,158	-0,258
219,465	571,506	-0,146	-0,247
220,480	119,181	-0,134	-0,115
221,494	21,187	-0,260	-0,146
222,509	800,000	-0,055	-0,113
223,523	102,689	-0,056	-0,045
224,538	139,788	-0,175	-0,160
225,553	218,125	-0,184	-0,204
226,567	96,843	-0,198	-0,157
227,582	139,942	-0,188	-0,172
228,596	264,871	-0,119	-0,144
229,611	-34,570	-0,087	0,033
230,626	-31,328	-0,126	-0,049
231,640	28,800	-0,087	-0,051
232,655	-12,979	-0,131	-0,059
233,669	88,547	-0,217	-0,167
234,684	-23,267	-0,145	-0,060
235,699	800,000	-0,068	-0,157
236,713	204,762	-0,066	-0,071
237,728	118,321	-0,130	-0,111
238,742	33,524	-0,231	-0,139
239,757	-56,298	-0,287	-0,088
240,772	83,516	-0,226	-0,170
241,786	-20,668	-0,224	-0,095
242,801	115,612	-0,160	-0,136
243,815	-130,029	-0,186	-0,017
244,830	-200,000	-0,019	-0,178
245,844	207,647	-0,185	-0,200
246,859	800,000	-0,124	-0,323
247,874	564,134	-0,124	-0,209
248,888	489,065	-0,111	-0,176
249,903	-67,610	-0,202	-0,054
250,917	-124,317	-0,261	-0,028
251,932	-128,479	-0,173	0,017
252,947	150,129	-0,181	-0,170
253,961	-118,673	-0,133	-0,016
254,976	-200,000	-0,060	-0,215
255,990	199,548	-0,181	-0,193
257,005	-127,050	-0,234	-0,023
258,020	392,610	-0,056	-0,080
259,034	75,622	-0,140	-0,102
260,049	133,498	-0,207	-0,185
261,063	-129,076	-0,245	-0,023
262,078	-142,570	-0,178	-0,012
263,093	-28,620	-0,281	-0,111
264,107	140,254	-0,210	-0,191
265,122	-163,663	-0,118	-0,004
266,136	-89,748	-0,129	-0,026
267,151	-8,353	-0,169	0,078
268,166	-7,007	-0,164	-0,077
269,180	-14,678	-0,195	-0,086
270,195	394,689	-0,159	-0,229
271,209	-159,241	-0,225	0,009
272,224	-74,791	-0,274	0,067
273,239	63,459	-0,162	-0,112
274,253	-71,816	-0,191	-0,049
275,268	4,232	-0,284	-0,143
276,282	64,635	-0,185	-0,129
277,297	692,061	-0,153	-0,277
278,312	800,000	-0,111	-0,241
279,326	32,248	-0,255	-0,152
280,341	-177,841	-0,193	0,003
281,355	46,119	-0,140	-0,089
282,370	105,773	-0,118	-0,096
283,384	-85,396	-0,413	-0,088
284,399	172,120	-0,277	-0,275
285,414	386,896	-0,179	-0,256
286,428	-113,583	-0,096	0,013
287,443	109,817	-0,074	-0,061
288,457	190,627	-0,135	-0,140
289,472	551,836	0,016	-0,026
290,487	70,876	-0,261	-0,186
291,501	-1,790	-0,275	-0,133
292,516	166,232	-0,196	-0,191
293,530	800,000	-0,105	-0,231
294,545	-41,638	-0,099	-0,035
295,560	-91,935	-0,234	-0,045
296,574	800,000	-0,086	-0,167
297,589	83,333	-0,173	-0,129
298,603	49,887	-0,267	-0,173
299,618	181,257	-0,158	-0,160
300,633	800,000	-0,038	-0,079
301,647	-145,846	-0,067	0,004
302,662	44,813	-0,152	-0,096
303,676	-177,458	-0,132	0,002
304,691	209,026	-0,189	-0,205
305,706	-20,524	-0,211	-0,089
306,720	288,854	-0,098	-0,123
307,735	409,851	-0,120	-0,176
308,749	56,416	-0,183	-0,122
309,764	-200,000	-0,019	-0,159
310,779	-62,620	-0,181	-0,051
311,793	140,204	-0,195	-0,177
312,808	33,717	-0,192	-0,115
313,822	106,848	-0,125	-0,102
314,837	435,660	-0,077	-0,115
315,852	-80,704	-0,188	-0,043
316,866	-46,161	0,038	-0,013
317,881	471,023	-0,073	-0,114
318,895	138,866	-0,163	-0,147
319,910	-136,977	-0,198	0,015
320,925	275,448	-0,144	-0,176
321,939	63,998	-0,211	-0,146
322,954	283,123	-0,122	-0,151
323,968	-200,000	0,011	-0,140
324,983	208,579	-0,185	-0,199
325,997	-200,000	-0,038	-0,131
327,012	-138,084	-0,148	-0,011
328,027	800,000	-0,082	-0,169
329,041	23,115	-0,130	-0,073
330,056	-32,430	-0,191	-0,073
331,070	151,775	-0,086	-0,081
332,085	-187,931	-0,152	0,001
333,100	-29,804	0,031	-0,012
334,114	23,268	-0,253	-0,142
335,129	11,889	-0,198	-0,104
336,143	800,000	-0,093	-0,194
337,158	212,990	-0,159	-0,172
338,173	-200,000	0,016	-0,059
339,187	15,606	-0,051	-0,027
340,202	187,018	-0,123	-0,126
341,216	2,605	-0,160	-0,079
342,231	-70,439	-0,083	-0,021
343,246	701,672	-0,153	-0,278
344,260	800,000	-0,029	0,068
345,275	-69,271	-0,166	0,043
346,289	273,495	-0,039	-0,047
347,304	-160,050	-0,189	-0,007
348,319	1,572	-0,092	0,045
349,333	124,149	-0,080	-0,069
350,348	164,825	-0,196	-0,190
351,362	800,000	-0,026	-0,066
352,377	24,644	-0,082	-0,046
353,392	800,000	0,055	-0,127
354,406	647,678	-0,137	-0,241
355,421	209,037	1313,798	1411,863
356,435	160,866	1474,435	1412,373
