DTS Sentinel unit serial number:	SN410029Multiplexer serial number:	ORYXHardware model number:	OX2-SRSoftware version number:	ORYX F/W v4,00 Oryx Data Collector v3.7.2.0data status	okinstallation	B3 Nyhavnadifferential loss correction	single-endedforward channel	channel 1reverse channel	N/Adate	2023/12/04time	08:17:30forward acquisition time	300,00reverse acquisition time	0,00gamma	499,1914k internal	0,3205k external	0,3205temperature offset calibration	1,0000default loss term (dB/km)	0,3820temperature slope calibration	1,0000multiplexer offset coefficient	1,0000multiplexer slope coefficient	1,0000fibre end	0,00T internal ref (°C)	12,63T ext. ref 1 (°C)	-1,70T ext. ref 2 (°C)	-1,74length (m)	temperature (°C)	Stokes	anti-Stokes-744,400	174,608	-0,226	-0,238
-743,385	-200,000	0,040	0,252
-742,371	181,473	-0,236	-0,253
-741,356	-200,000	-0,045	0,224
-740,342	31,671	-0,144	-0,090
-739,327	440,786	-0,173	0,276
-738,312	678,692	-0,182	-0,345
-737,298	800,000	-0,104	0,212
-736,283	228,010	-0,235	-0,278
-735,269	-200,000	0,063	0,353
-734,254	343,251	-0,217	-0,309
-733,239	89,675	-0,193	0,157
-732,225	514,987	0,094	-0,161
-731,210	-200,000	0,022	0,078
-730,196	230,232	-0,032	-0,038
-729,181	198,234	-0,101	0,112
-728,167	-47,301	-0,065	0,023
-727,152	183,517	-0,029	-0,031
-726,137	-128,544	-0,168	0,017
-725,123	800,000	-0,041	0,084
-724,108	111,148	-0,102	-0,089
-723,094	696,214	-0,056	-0,107
-722,079	-61,431	-0,124	0,038
-721,064	-117,109	0,057	0,007
-720,050	-200,000	-0,064	0,000
-719,035	770,887	0,031	-0,062
-718,021	144,962	-0,071	0,069
-717,006	-110,860	-0,130	-0,019
-715,991	92,401	-0,107	-0,088
-714,977	-200,000	-0,016	-0,072
-713,962	477,632	0,046	-0,076
-712,948	-18,376	-0,052	0,024
-711,933	-175,037	-0,055	0,001
-710,918	800,000	0,032	-0,065
-709,904	-200,000	-0,008	-0,057
-708,889	50,374	0,049	-0,033
-707,875	-200,000	-0,040	-0,146
-706,860	134,621	0,086	-0,081
-705,845	-69,141	0,070	0,019
-704,831	-200,000	-0,003	0,013
-703,816	641,734	-0,112	-0,208
-702,802	-200,000	0,007	-0,046
-701,787	47,824	-0,080	-0,054
-700,772	-21,586	-0,139	-0,061
-699,758	-110,917	0,105	-0,016
-698,743	-38,912	0,053	0,020
-697,729	-134,213	-0,146	-0,013
-696,714	800,000	-0,014	-0,030
-695,699	64,484	-0,149	0,109
-694,685	-134,523	-0,142	-0,012
-693,670	-34,658	0,111	-0,044
-692,656	144,105	-0,094	-0,091
-691,641	-108,886	-0,148	-0,023
-690,627	-194,741	-0,089	-0,000
-689,612	248,770	0,032	-0,040
-688,597	-200,000	-0,029	-0,128
-687,583	800,000	-0,016	-0,035
-686,568	130,672	-0,071	0,066
-685,554	666,276	-0,045	-0,085
-684,539	800,000	0,020	-0,045
-683,524	-200,000	-0,008	-0,094
-682,510	800,000	0,052	0,124
-681,495	-200,000	-0,014	-0,177
-680,481	-200,000	-0,021	-0,116
-679,466	-12,093	-0,237	-0,112
-678,451	-20,550	-0,035	0,016
-677,437	364,489	-0,052	0,076
-676,422	-200,000	-0,026	0,213
-675,408	217,833	0,151	0,174
-674,393	522,960	0,053	0,091
-673,378	-60,299	-0,142	0,044
-672,364	196,089	-0,047	-0,051
-671,349	-29,111	0,152	-0,063
-670,335	-147,344	-0,153	0,009
-669,320	-0,115	-0,118	-0,061
-668,305	99,271	0,049	-0,041
-667,291	49,601	-0,106	-0,072
-666,276	-200,000	-0,008	-0,110
-665,262	-84,674	0,014	0,003
-664,247	18,430	0,038	-0,022
-663,232	-200,000	0,005	-0,159
-662,218	627,123	0,055	0,102
-661,203	74,714	0,061	-0,046
-660,189	64,030	0,022	0,016
-659,174	-83,381	-0,074	0,017
-658,159	464,668	-0,027	-0,044
-657,145	173,385	0,087	0,091
-656,130	-200,000	0,013	-0,120
-655,116	205,609	-0,044	-0,050
-654,101	-95,317	0,102	0,020
-653,086	-200,000	0,018	0,244
-652,072	-200,000	-0,023	0,119
-651,057	722,658	-0,033	-0,064
-650,043	-200,000	0,004	0,078
-649,028	-96,056	-0,104	0,020
-648,014	-52,998	0,069	-0,023
-646,999	-116,571	-0,069	0,009
-645,984	-24,290	0,097	-0,042
-644,970	48,561	-0,046	-0,031
-643,955	800,000	0,041	0,116
-642,941	-105,382	-0,007	0,001
-641,926	-113,107	-0,139	-0,020
-640,911	182,537	0,061	0,065
-639,897	-143,845	0,036	-0,002
-638,882	9,082	0,045	0,025
-637,868	-122,256	-0,153	-0,018
-636,853	-186,843	0,152	-0,001
-635,838	-51,626	-0,048	-0,016
-634,824	-200,000	-0,001	0,086
-633,809	277,089	0,124	0,160
-632,795	-200,000	0,005	0,096
-631,780	458,112	0,038	-0,062
-630,765	800,000	0,040	0,093
-629,751	-200,000	-0,027	-0,105
-628,736	800,000	-0,011	-0,028
-627,722	-1,843	0,105	-0,053
-626,707	54,387	0,044	-0,031
-625,692	-200,000	-0,020	-0,087
-624,678	-82,888	0,116	-0,027
-623,663	-128,189	-0,172	0,018
-622,649	157,938	0,044	-0,044
-621,634	800,000	-0,043	-0,106
-620,619	-200,000	0,011	-0,060
-619,605	-61,431	0,100	0,030
-618,590	236,558	0,030	0,035
-617,576	-20,209	-0,066	0,029
-616,561	94,130	-0,066	0,054
-615,546	643,953	-0,033	-0,061
-614,532	-58,591	0,070	-0,022
-613,517	-114,755	0,040	-0,005
-612,503	-59,042	-0,055	-0,017
-611,488	142,462	0,045	0,043
-610,474	326,460	0,058	0,080
-609,459	-200,000	-0,041	-0,200
-608,444	800,000	0,044	-0,110
-607,430	-200,000	-0,021	-0,084
-606,415	-200,000	0,001	-0,116
-605,401	176,453	-0,050	0,053
-604,386	310,952	0,063	-0,085
-603,371	-133,074	-0,015	0,001
-602,357	112,808	-0,032	-0,028
-601,342	641,357	-0,044	-0,081
-600,328	-200,000	-0,000	-0,055
-599,313	-120,339	-0,121	-0,015
-598,298	119,983	0,050	0,045
-597,284	800,000	-0,028	0,084
-596,269	43,582	0,084	-0,055
-595,255	243,382	-0,076	0,093
-594,240	-200,000	0,013	0,101
-593,225	-200,000	-0,005	-0,098
-592,211	16,058	-0,086	-0,049
-591,196	302,901	-0,059	-0,079
-590,182	199,243	0,122	-0,135
-589,167	108,381	0,121	0,104
-588,152	2,478	-0,097	0,051
-587,138	800,000	-0,026	0,053
-586,123	800,000	0,006	0,020
-585,109	460,410	-0,017	0,027
-584,094	-200,000	-0,005	0,102
-583,079	515,795	-0,021	0,036
-582,065	-200,000	-0,011	0,235
-581,050	-200,000	0,043	0,178
-580,036	-141,019	0,128	0,009
-579,021	347,993	-0,031	0,044
-578,006	-200,000	0,001	-0,042
-576,992	-200,000	0,022	0,128
-575,977	283,022	0,008	-0,010
-574,963	-200,000	-0,010	0,080
-573,948	216,084	0,006	-0,007
-572,934	-200,000	-0,066	0,223
-571,919	154,390	0,047	-0,047
-570,904	633,779	0,054	-0,100
-569,890	-102,830	-0,134	0,023
-568,875	-21,902	0,068	-0,030
-567,861	-7,932	0,049	0,024
-566,846	-200,000	0,005	0,059
-565,831	800,000	0,021	-0,044
-564,817	-200,000	-0,001	-0,083
-563,802	381,861	-0,059	-0,088
-562,788	593,650	0,036	0,064
-561,773	92,903	0,041	-0,034
-560,758	-71,764	0,049	-0,013
-559,744	3,045	0,140	0,073
-558,729	170,516	-0,047	-0,049
-557,715	41,606	-0,174	-0,113
-556,700	-200,000	0,033	-0,184
-555,685	-200,000	0,001	-0,044
-554,671	-22,840	-0,047	-0,020
-553,656	259,838	0,041	-0,051
-552,642	-200,000	0,007	0,101
-551,627	322,154	0,050	0,068
-550,612	-200,000	-0,002	0,112
-549,598	-128,895	0,031	-0,003
-548,583	98,279	-0,109	0,090
-547,569	-92,750	-0,128	-0,026
-546,554	343,464	0,064	0,090
-545,539	-200,000	-0,006	-0,062
-544,525	-80,431	-0,099	-0,024
-543,510	595,303	-0,016	0,029
-542,496	-200,000	-0,024	-0,120
-541,481	-150,255	-0,101	0,006
-540,466	-200,000	0,005	0,018
-539,452	58,177	0,102	0,072
-538,437	-200,000	0,026	0,164
-537,423	-200,000	-0,024	0,079
-536,408	85,314	-0,036	0,028
-535,393	-150,607	0,101	-0,005
-534,379	9,384	-0,051	-0,028
-533,364	-98,168	-0,222	0,041
-532,350	206,787	-0,111	0,125
-531,335	-107,572	-0,019	0,003
-530,321	-35,061	0,061	0,024
-529,306	-200,000	0,021	-0,091
-528,291	1,838	-0,156	-0,081
-527,277	109,173	-0,063	0,055
-526,262	800,000	0,055	0,115
-525,248	-200,000	-0,021	0,194
-524,233	-118,172	-0,109	-0,014
-523,218	71,356	0,086	-0,065
-522,204	800,000	-0,059	0,126
-521,189	800,000	0,021	0,067
-520,175	800,000	-0,061	-0,176
-519,160	-14,470	-0,129	-0,059
-518,145	800,000	-0,034	-0,081
-517,131	291,573	0,032	0,042
-516,116	-85,268	0,170	0,038
-515,102	-7,843	-0,105	-0,051
-514,087	-200,000	0,002	-0,120
-513,072	-71,631	-0,180	-0,048
-512,058	-200,000	0,015	0,085
-511,043	-200,000	-0,044	0,156
-510,029	106,408	0,096	0,082
-509,014	-200,000	0,014	0,082
-507,999	367,138	-0,058	0,084
-506,985	787,185	0,018	-0,036
-505,970	-178,117	-0,074	0,001
-504,956	800,000	-0,014	-0,029
-503,941	375,052	-0,042	0,062
-502,926	-200,000	0,033	0,162
-501,912	100,232	0,135	0,113
-500,897	800,000	-0,110	0,252
-499,883	800,000	-0,021	-0,044
-498,868	155,530	0,087	-0,086
-497,853	-6,209	-0,118	-0,058
-496,839	599,851	-0,076	-0,136
-495,824	80,291	0,074	0,057
-494,810	-107,601	-0,151	0,023
-493,795	-73,454	0,093	-0,024
-492,781	17,868	-0,064	0,037
-491,766	624,494	0,009	-0,016
-490,751	-200,000	0,002	-0,098
-489,737	-51,062	-0,115	-0,039
-488,722	-160,469	0,125	-0,005
-487,708	800,000	0,001	0,003
-486,693	209,742	-0,030	0,034
-485,678	-200,000	0,005	0,076
-484,664	800,000	0,045	0,125
-483,649	-200,000	0,009	-0,095
-482,635	140,841	0,125	-0,118
-481,620	-144,715	-0,181	0,012
-480,605	-81,968	0,187	0,044
-479,591	591,915	-0,118	0,210
-478,576	-200,000	0,032	0,137
-477,562	178,694	0,057	-0,060
-476,547	-149,203	-0,143	0,008
-475,532	-200,000	0,013	-0,129
-474,518	-71,341	0,129	0,035
-473,503	-142,020	-0,037	0,003
-472,489	-174,390	0,049	0,001
-471,474	800,000	0,022	-0,062
-470,459	-20,370	-0,044	0,020
-469,445	-200,000	-0,005	-0,107
-468,430	800,000	0,051	-0,161
-467,416	-147,048	0,042	0,003
-466,401	185,145	-0,030	0,032
-465,386	-14,420	-0,165	0,076
-464,372	-200,000	-0,002	0,018
-463,357	-200,000	0,007	-0,110
-462,343	-200,000	0,011	-0,128
-461,328	-200,000	-0,023	0,102
-460,313	800,000	0,026	0,079
-459,299	-60,075	0,124	-0,038
-458,284	-200,000	0,008	0,120
-457,270	12,113	0,058	0,032
-456,255	-200,000	-0,002	-0,051
-455,241	409,468	-0,075	0,114
-454,226	-200,000	0,026	0,090
-453,211	800,000	-0,005	-0,014
-452,197	-200,000	0,007	0,024
-451,182	-63,253	0,063	0,019
-450,168	654,071	0,014	0,026
-449,153	-70,116	-0,089	0,024
-448,138	333,418	0,035	0,049
-447,124	-77,870	-0,132	-0,033
-446,109	-135,046	0,070	0,006
-445,095	-24,052	0,097	-0,041
-444,080	35,448	-0,066	-0,041
-443,065	316,410	-0,052	-0,071
-442,051	-200,000	-0,032	-0,239
-441,036	80,179	0,031	-0,024
-440,022	-200,000	0,022	-0,139
-439,007	64,862	0,114	-0,082
-437,992	800,000	-0,046	-0,110
-436,978	346,227	0,105	0,149
-435,963	53,032	-0,046	0,032
-434,949	170,750	-0,043	0,044
-433,934	241,491	0,033	-0,039
-432,919	41,504	0,020	0,013
-431,905	-111,032	-0,068	0,010
-430,890	-176,809	0,022	-0,000
-429,876	377,453	0,078	0,115
-428,861	-200,000	-0,002	0,136
-427,846	231,908	-0,093	0,109
-426,832	-200,000	-0,002	-0,093
-425,817	-200,000	0,029	0,111
-424,803	72,675	-0,015	-0,011
-423,788	89,888	0,138	-0,110
-422,773	-200,000	-0,043	0,159
-421,759	369,856	-0,089	0,130
-420,744	745,127	0,025	0,049
-419,730	800,000	0,048	0,103
-418,715	-200,000	0,023	-0,112
-417,701	-72,995	0,018	0,005
-416,686	283,892	0,060	0,078
-415,671	-161,467	0,083	-0,003
-414,657	336,285	-0,038	0,052
-413,642	-200,000	-0,006	0,027
-412,628	45,694	-0,087	0,057
-411,613	220,332	0,084	0,096
-410,598	-200,000	-0,002	0,119
-409,584	472,055	-0,087	0,142
-408,569	-4,937	-0,096	0,047
-407,555	-200,000	0,009	-0,066
-406,540	800,000	0,020	-0,040
-405,525	100,350	0,060	-0,050
-404,511	323,995	-0,106	0,146
-403,496	160,649	-0,123	-0,123
-402,482	29,977	0,103	0,063
-401,467	-200,000	0,014	-0,115
-400,452	-200,000	0,011	0,040
-399,438	800,000	-0,041	-0,089
-398,423	-200,000	-0,016	0,110
-397,409	800,000	0,040	-0,088
-396,394	-200,000	0,016	-0,157
-395,379	-51,355	0,165	0,055
-394,365	-95,005	0,067	0,013
-393,350	300,382	0,020	0,026
-392,336	748,045	-0,084	0,162
-391,321	422,143	0,053	0,081
-390,306	800,000	0,027	-0,075
-389,292	-170,695	0,054	0,001
-388,277	482,666	0,043	0,070
-387,263	-43,711	-0,059	-0,021
-386,248	800,000	0,038	0,086
-385,233	133,087	-0,167	0,155
-384,219	800,000	0,007	0,018
-383,204	-165,911	-0,068	-0,002
-382,190	39,452	0,068	-0,044
-381,175	408,191	0,068	0,103
-380,160	-63,914	0,022	-0,006
-379,146	-200,000	0,018	-0,065
-378,131	-200,000	-0,012	0,082
-377,117	-95,966	-0,052	0,010
-376,102	-200,000	-0,018	-0,101
-375,088	-150,772	0,064	-0,003
-374,073	-200,000	0,009	-0,035
-373,058	-112,338	-0,165	-0,023
-372,044	-129,662	0,188	-0,018
-371,029	154,847	-0,045	-0,044
-370,015	-124,188	0,146	0,016
-369,000	89,199	-0,091	0,072
-367,985	-27,639	0,051	-0,021
-366,971	-200,000	-0,030	-0,135
-365,956	-200,000	0,015	0,080
-364,942	-22,277	0,131	0,056
-363,927	83,410	0,151	0,117
-362,912	510,684	-0,115	-0,192
-361,898	234,419	-0,104	-0,123
-360,883	800,000	-0,032	-0,085
-359,869	-200,000	-0,008	-0,040
-358,854	289,465	-0,042	0,055
-357,839	102,014	0,027	0,023
-356,825	-131,217	0,187	0,018
-355,810	397,494	-0,055	-0,082
-354,796	-200,000	0,004	0,017
-353,781	800,000	0,060	-0,152
-352,766	569,807	0,082	-0,144
-351,752	255,633	0,062	-0,077
-350,737	302,898	0,106	-0,141
-349,723	22,928	-0,086	-0,051
-348,708	-124,486	0,050	-0,005
-347,693	-112,510	0,084	0,012
-346,679	-122,844	-0,167	-0,019
-345,664	283,179	0,068	0,087
-344,650	-200,000	-0,005	-0,082
-343,635	-119,617	0,171	0,021
-342,620	-200,000	0,008	0,043
-341,606	-200,000	0,034	0,160
-340,591	501,558	-0,027	0,045
-339,577	168,516	-0,021	-0,021
-338,562	-200,000	-0,021	-0,118
-337,548	800,000	-0,034	-0,099
-336,533	800,000	0,017	0,039
-335,518	800,000	0,017	0,037
-334,504	69,357	0,132	-0,097
-333,489	688,863	0,095	-0,179
-332,475	-200,000	-0,034	-0,169
-331,460	-200,000	0,012	-0,122
-330,445	-200,000	0,029	-0,111
-329,431	58,787	0,150	0,105
-328,416	-200,000	0,025	0,182
-327,402	-3,218	0,095	-0,047
-326,387	-200,000	-0,008	0,087
-325,372	25,602	0,103	0,061
-324,358	-114,496	-0,063	-0,009
-323,343	20,272	0,124	-0,071
-322,329	619,035	-0,067	0,120
-321,314	-200,000	-0,022	0,168
-320,299	800,000	-0,039	0,077
-319,285	-200,000	0,007	0,049
-318,270	57,478	0,053	0,037
-317,256	-100,356	0,074	-0,013
-316,241	-136,229	-0,025	-0,002
-315,226	120,057	0,070	-0,062
-314,212	54,275	-0,133	0,091
-313,197	485,791	-0,061	0,099
-312,183	106,442	-0,014	0,012
-311,168	448,185	-0,117	-0,185
-310,153	-130,209	0,122	0,012
-309,139	-44,346	-0,144	-0,051
-308,124	800,000	0,042	-0,083
-307,110	800,000	0,032	0,071
-306,095	48,509	-0,060	-0,040
-305,080	82,127	0,038	-0,030
-304,066	9,802	0,011	-0,006
-303,051	25,761	0,039	-0,023
-302,037	800,000	-0,023	0,047
-301,022	469,507	0,009	-0,015
-300,008	-57,383	-0,115	0,036
-298,993	800,000	-0,041	-0,082
-297,978	-200,000	-0,013	0,086
-296,964	300,438	-0,037	-0,048
-295,949	183,713	0,160	-0,169
-294,935	-87,604	-0,065	-0,014
-293,920	171,853	-0,040	0,041
-292,905	705,945	-0,027	-0,051
-291,891	317,168	0,036	0,049
-290,876	-200,000	-0,011	0,079
-289,862	-66,573	-0,103	-0,029
-288,847	15,792	-0,016	-0,009
-287,832	-62,151	-0,033	-0,010
-286,818	-200,000	0,018	-0,112
-285,803	527,139	0,059	0,100
-284,789	-200,000	-0,007	0,096
-283,774	29,522	-0,031	0,019
-282,759	800,000	-0,059	-0,123
-281,745	-200,000	-0,024	-0,091
-280,730	326,531	-0,082	-0,112
-279,716	67,104	0,013	-0,010
-278,701	800,000	0,027	0,056
-277,686	-200,000	0,008	-0,058
-276,672	-200,000	-0,010	-0,123
-275,657	127,454	0,092	0,084
-274,643	-200,000	-0,021	-0,084
-273,628	209,518	0,087	-0,097
-272,613	-54,674	-0,020	-0,006
-271,599	800,000	0,027	0,063
-270,584	-200,000	0,024	0,120
-269,570	15,967	0,027	-0,015
-268,555	-17,419	-0,051	0,023
-267,540	-163,572	-0,151	0,005
-266,526	-43,417	-0,085	-0,030
-265,511	-200,000	-0,012	-0,082
-264,497	212,070	0,040	-0,045
-263,482	44,326	-0,083	-0,054
-262,467	-17,150	0,135	-0,060
-261,453	800,000	-0,010	-0,027
-260,438	419,362	-0,091	0,139
-259,424	-62,308	-0,045	-0,013
-258,409	-96,892	0,035	0,007
-257,395	-200,000	0,009	-0,052
-256,380	391,664	0,089	-0,133
-255,365	233,240	0,066	0,077
-254,351	800,000	-0,054	-0,148
-253,336	279,729	-0,076	-0,097
-252,322	800,000	-0,045	-0,137
-251,307	81,949	0,036	0,028
-250,292	341,686	0,019	-0,027
-249,278	800,000	-0,052	0,126
-248,263	-156,378	0,213	0,009
-247,249	260,239	-0,052	-0,064
-246,234	3,431	-0,099	0,051
-245,219	92,844	-0,055	0,044
-244,205	140,397	0,050	-0,047
-243,190	800,000	-0,023	0,049
-242,176	84,621	0,028	-0,022
-241,161	-200,000	-0,007	-0,053
-240,146	323,408	-0,048	0,065
-239,132	-200,000	0,015	-0,078
-238,117	-200,000	-0,040	-0,138
-237,103	1,393	-0,044	-0,023
-236,088	41,068	0,073	0,047
-235,073	800,000	-0,017	0,035
-234,059	102,984	0,179	0,149
-233,044	64,289	0,134	0,096
-232,030	72,642	-0,056	-0,041
-231,015	28,595	-0,074	0,044
-230,000	-59,374	-0,103	0,031
-228,986	800,000	0,049	0,103
-227,971	316,357	-0,095	0,128
-226,957	800,000	-0,009	0,019
-225,942	457,973	0,030	-0,048
-224,927	77,769	0,067	-0,051
-223,913	196,558	0,042	0,045
-222,898	800,000	-0,033	0,067
-221,884	800,000	0,051	0,107
-220,869	-12,166	0,109	0,051
-219,855	-40,172	-0,038	0,014
-218,840	-200,000	-0,028	0,111
-217,825	118,958	-0,145	0,127
-216,811	-131,925	0,035	0,003
-215,796	800,000	0,069	-0,150
-214,782	-200,000	-0,010	-0,036
-213,767	-200,000	-0,013	-0,074
-212,752	211,384	0,031	-0,035
-211,738	24,459	0,071	0,041
-210,723	-63,575	0,060	0,018
-209,709	108,225	-0,008	0,007
-208,694	-200,000	0,011	-0,096
-207,679	8,051	-0,067	0,036
-206,665	203,769	-0,088	-0,097
-205,650	800,000	0,043	0,095
-204,636	-33,330	0,099	0,039
-203,621	56,971	-0,134	-0,093
-202,606	267,071	0,128	-0,160
-201,592	-200,000	0,003	-0,164
-200,577	173,025	-0,103	-0,106
-199,563	4,311	-0,029	-0,015
-198,548	532,880	-0,051	-0,086
-197,533	10,432	0,058	-0,031
-196,519	-200,000	0,015	0,111
-195,504	-132,081	-0,205	-0,019
-194,490	107,713	0,090	-0,076
-193,475	32,905	-0,061	-0,037
-192,460	82,211	-0,034	-0,026
-191,446	19,201	0,054	-0,031
-190,431	475,864	0,032	0,052
-189,417	-200,000	0,024	0,080
-188,402	287,792	-0,079	0,102
-187,387	-8,626	-0,140	-0,067
-186,373	-200,000	0,008	-0,076
-185,358	800,000	0,041	-0,110
-184,344	-9,341	-0,039	-0,018
-183,329	-200,000	0,003	0,068
-182,315	-113,721	0,097	-0,013
-181,300	94,737	0,033	-0,027
-180,285	800,000	0,067	-0,152
-179,271	178,203	-0,093	-0,096
-178,256	-63,304	-0,072	0,021
-177,242	-183,655	0,150	0,002
-176,227	320,508	0,046	0,063
-175,212	-105,240	0,113	-0,018
-174,198	800,000	-0,047	0,146
-173,183	-43,594	-0,121	-0,043
-172,169	18,521	-0,145	-0,082
-171,154	440,297	-0,044	-0,069
-170,139	61,852	0,061	0,043
-169,125	16,343	-0,078	0,043
-168,110	150,152	-0,073	0,070
-167,096	800,000	-0,072	0,161
-166,081	268,965	0,024	-0,030
-165,066	316,783	0,107	-0,144
-164,052	-8,848	-0,114	-0,054
-163,037	800,000	-0,020	0,061
-162,023	-56,095	0,072	-0,023
-161,008	280,587	0,036	-0,046
-159,993	218,582	0,009	0,010
-158,979	-200,000	0,009	-0,062
-157,964	501,851	-0,064	-0,106
-156,950	226,358	-0,051	-0,059
-155,935	-200,000	0,016	-0,082
-154,920	43,854	0,165	-0,107
-153,906	115,004	-0,093	0,080
-152,891	272,829	0,069	0,087
-151,877	84,846	0,066	-0,051
-150,862	330,615	0,059	-0,081
-149,847	-41,508	-0,015	0,005
-148,833	49,609	-0,095	0,063
-147,818	-59,428	0,110	0,033
-146,804	-200,000	0,013	0,127
-145,789	348,193	-0,062	0,087
-144,775	432,139	-0,038	-0,058
-143,760	686,328	-0,030	-0,056
-142,745	-139,836	-0,063	-0,005
-141,731	-46,683	0,060	0,021
-140,716	-200,000	-0,016	0,082
-139,702	-58,367	-0,047	0,014
-138,687	-200,000	-0,016	-0,055
-137,672	-170,646	0,063	0,002
-136,658	-12,740	-0,078	0,036
-135,643	-23,002	-0,031	-0,013
-134,629	-200,000	0,026	-0,144
-133,614	-20,241	0,084	0,037
-132,599	705,751	0,037	0,070
-131,585	175,536	-0,109	-0,112
-130,570	-169,739	0,127	-0,003
-129,556	-87,327	-0,101	-0,021
-128,541	266,314	-0,060	-0,075
-127,526	-53,027	-0,074	0,024
-126,512	-200,000	0,005	-0,040
-125,497	800,000	0,048	0,149
-124,483	-118,363	0,071	-0,009
-123,468	-93,817	-0,156	-0,030
-122,453	-112,166	-0,204	-0,029
-121,439	-169,160	0,058	-0,001
-120,424	-200,000	-0,005	0,070
-119,410	-200,000	0,027	-0,107
-118,395	-200,000	-0,021	-0,176
-117,380	-11,485	0,050	-0,023
-116,366	-200,000	-0,000	0,089
-115,351	534,236	0,044	-0,074
-114,337	-59,570	-0,133	-0,040
-113,322	-106,377	-0,138	0,022
-112,307	-200,000	-0,008	-0,067
-111,293	-25,712	0,055	0,023
-110,278	0,851	0,087	0,044
-109,264	-74,512	0,068	-0,017
-108,249	434,234	0,026	0,040
-107,234	25,767	-0,075	-0,044
-106,220	133,088	-0,048	0,044
-105,205	708,111	-0,041	-0,078
-104,191	800,000	-0,061	-0,132
-103,176	-200,000	0,014	0,064
-102,162	-200,000	-0,013	0,080
-101,147	-64,282	-0,080	-0,023
-100,132	-81,870	-0,142	-0,033
-99,118	41,827	-0,132	0,085
-98,103	116,829	-0,090	0,079
-97,089	-156,075	0,047	0,002
-96,074	392,228	0,106	0,157
-95,059	186,394	0,085	0,089
-94,045	519,250	-0,045	0,075
-93,030	-49,076	-0,152	-0,051
-92,016	395,019	0,034	0,050
-91,001	27,825	-0,039	-0,023
-89,986	-114,199	0,095	0,013
-88,972	235,171	0,032	0,037
-87,957	-40,937	0,034	0,012
-86,943	800,000	-0,050	0,151
-85,928	800,000	-0,031	-0,063
-84,913	-200,000	0,023	-0,091
-83,899	501,715	-0,016	-0,026
-82,884	-146,853	0,174	-0,010
-81,870	17,214	-0,129	0,073
-80,855	-200,000	-0,002	0,183
-79,840	-111,483	0,047	0,007
-78,826	-74,737	0,118	0,030
-77,811	-62,307	-0,040	0,012
-76,797	91,149	-0,162	0,129
-75,782	-200,000	0,002	0,052
-74,767	78,886	0,057	0,043
-73,753	381,772	0,030	0,044
-72,738	-110,666	0,026	0,004
-71,724	73,319	-0,020	0,015
-70,709	-9,312	-0,137	-0,064
-69,694	800,000	0,039	0,082
-68,680	-200,000	0,008	0,049
-67,665	179,296	-0,071	-0,073
-66,651	727,662	-0,055	-0,105
-65,636	-75,907	0,046	0,011
-64,622	-54,418	-0,076	0,024
-63,607	800,000	0,060	-0,171
-62,592	800,000	0,032	-0,094
-61,578	296,659	-0,054	-0,070
-60,563	-200,000	0,008	-0,164
-59,549	37,099	0,031	0,019
-58,534	-35,398	-1,729	-0,661
-57,519	453,180	-1,254	-1,969
-56,505	-200,000	-0,569	-4,588
-55,490	313,079	0,979	1,305
-54,476	800,000	4,882	11,077
-53,461	-200,000	19,535	325,644
-52,446	-200,000	745,681	2329,993
-51,432	564,981	1657,235	2851,733
-50,417	76,767	1670,278	1251,983
-49,403	20,589	1543,649	880,743
-48,388	14,546	1466,244	807,207
-47,373	18,249	1456,016	819,417
-46,359	16,542	1445,955	805,549
-45,344	12,774	1441,489	785,000
-44,330	12,684	1439,423	783,414
-43,315	12,694	1437,826	782,560
-42,300	12,687	1436,151	781,583
-41,286	12,723	1434,930	781,061
-40,271	12,664	1433,671	780,063
-39,257	12,654	1432,242	779,206
-38,242	12,715	1430,991	778,782
-37,227	12,744	1429,797	778,241
-36,213	12,669	1428,699	777,258
-35,198	12,712	1427,353	776,696
-34,184	12,707	1426,492	776,177
-33,169	12,706	1425,124	775,394
-32,154	12,766	1423,838	774,949
-31,140	12,751	1422,722	774,240
-30,125	12,755	1421,638	773,639
-29,111	12,733	1420,605	772,939
-28,096	12,739	1419,353	772,258
-27,082	12,654	1418,470	771,344
-26,067	12,667	1417,367	770,774
-25,052	12,708	1416,096	770,249
-24,038	12,655	1415,318	769,545
-23,023	12,667	1414,154	768,937
-22,009	12,634	1413,236	768,254
-20,994	12,634	1412,182	767,651
-19,979	12,611	1411,539	767,164
-18,965	12,603	1410,466	766,510
-17,950	12,637	1409,357	766,035
-16,936	12,612	1408,684	765,524
-15,921	12,543	1407,523	764,539
-14,906	12,573	1406,652	764,178
-13,892	12,528	1405,733	763,437
-12,877	12,606	1404,886	763,308
-11,863	12,604	1403,820	762,693
-10,848	12,524	1403,103	761,898
-9,833	12,507	1402,394	761,406
-8,819	12,467	1401,469	760,687
-7,804	12,533	1400,418	760,391
-6,790	12,468	1399,422	759,520
-5,775	12,526	1398,226	759,110
-4,760	12,508	1397,213	758,446
-3,746	12,448	1396,457	757,729
-2,731	12,506	1395,449	757,420
-1,717	12,449	1394,771	756,759
-0,702	12,456	1392,865	755,723
0,313	16,379	1309,061	728,375
1,327	32,942	701,455	428,424
2,342	51,034	122,394	81,870
3,356	2,754	16,504	8,432
4,371	21,233	3,159	1,808
5,386	-31,583	0,641	0,253
6,400	642,593	0,124	0,224
7,415	52,744	-0,333	-0,224
8,429	221,181	-0,230	-0,262
9,444	45,220	-0,388	-0,252
10,459	204,301	-0,184	-0,201
11,473	37,498	-0,307	-0,192
12,488	-19,385	-0,244	-0,106
13,502	45,563	-0,398	-0,259
14,517	-43,890	-0,396	-0,140
15,531	153,026	-0,345	-0,333
16,546	87,753	-0,364	-0,285
17,561	36,039	-0,338	-0,210
18,575	-31,858	-0,274	-0,108
19,590	-26,827	-0,243	-0,100
20,604	-75,047	-0,426	-0,107
21,619	164,756	-0,303	-0,302
22,634	202,943	-0,362	-0,395
23,648	107,414	-0,422	-0,354
24,663	28,132	-0,406	-0,241
25,677	64,380	-0,392	-0,278
26,692	39,599	-0,341	-0,215
27,707	11,001	-0,229	-0,123
28,721	-8,721	-0,439	-0,207
29,736	37,465	-0,435	-0,271
30,750	36,706	-0,430	-0,267
31,765	122,224	-0,258	-0,227
32,780	-9,310	-0,371	-0,174
33,794	-57,505	-0,347	-0,107
34,809	26,886	-0,353	-0,208
35,823	47,775	-0,356	-0,234
36,838	-22,246	-0,349	-0,149
37,853	136,387	-0,351	-0,323
38,867	50,559	-0,337	-0,224
39,882	74,103	-0,426	-0,315
40,896	105,859	-0,377	-0,314
41,911	-23,840	-0,381	-0,160
42,926	18,104	-0,356	-0,199
43,940	63,917	-0,324	-0,229
44,955	-8,593	-0,405	-0,191
45,969	21,492	-0,403	-0,230
46,984	29,256	-0,173	-0,103
47,999	87,883	-0,341	-0,265
49,013	113,356	-0,358	-0,306
50,028	35,678	-0,252	-0,155
51,042	37,188	-0,372	-0,231
52,057	117,045	-0,223	-0,193
53,071	44,886	-0,329	-0,213
54,086	-11,509	-0,343	-0,158
55,101	61,151	-0,451	-0,314
56,115	101,142	-0,287	-0,235
57,130	-22,303	-0,307	-0,130
58,144	26,999	-0,447	-0,263
59,159	95,014	-0,405	-0,324
60,174	74,267	-0,370	-0,273
61,188	116,768	-0,224	-0,194
62,203	32,110	-0,288	-0,174
63,217	665,909	-0,095	-0,173
64,232	59,897	-0,376	-0,261
65,247	-10,544	-0,405	-0,188
66,261	34,718	-0,294	-0,180
67,276	-30,426	-0,345	-0,137
68,290	58,079	-0,399	-0,274
69,305	31,280	-0,311	-0,187
70,320	-24,094	-0,224	-0,093
71,334	-74,362	-0,346	-0,087
72,349	163,475	-0,257	-0,254
73,363	146,727	-0,277	-0,261
74,378	1,492	-0,288	-0,145
75,393	-10,493	-0,310	-0,144
76,407	44,908	-0,299	-0,193
77,422	-10,570	-0,243	-0,112
78,436	212,345	-0,202	-0,224
79,451	41,741	-0,389	-0,247
80,466	108,457	-0,216	-0,181
81,480	71,295	-0,362	-0,263
82,495	-32,926	-0,308	-0,120
83,509	119,723	-0,304	-0,264
84,524	-41,676	-0,206	-0,074
85,539	66,235	-0,165	-0,117
86,553	17,297	-0,494	-0,274
87,568	38,457	-0,319	-0,199
88,582	57,200	-0,351	-0,240
89,597	136,858	-0,225	-0,206
90,611	65,409	-0,230	-0,163
91,626	107,799	-0,305	-0,254
92,641	-48,004	-0,264	-0,089
93,655	-79,037	-0,221	-0,052
94,670	75,632	-0,259	-0,192
95,684	-28,753	-0,382	-0,153
96,699	38,116	-0,216	-0,135
97,714	152,189	-0,191	-0,182
98,728	0,729	-0,152	-0,076
99,743	120,482	-0,354	-0,308
100,757	-37,537	-0,275	-0,102
101,772	43,272	-0,300	-0,192
102,787	89,667	-0,430	-0,336
103,801	7,732	-0,297	-0,155
104,816	132,199	-0,265	-0,239
105,830	2,992	-0,207	-0,105
106,845	37,562	-0,231	-0,143
107,860	-53,643	-0,227	-0,072
108,874	74,631	-0,222	-0,163
109,889	43,470	-0,391	-0,250
110,903	181,598	-0,297	-0,307
111,918	-49,035	-0,227	-0,076
112,933	92,670	-0,260	-0,205
113,947	73,802	-0,273	-0,200
114,962	-118,849	-0,216	-0,026
115,976	134,530	-0,173	-0,157
116,991	15,902	-0,307	-0,169
118,006	-167,303	-0,230	-0,006
119,020	-13,208	-0,274	-0,124
120,035	60,629	-0,279	-0,193
121,049	-136,760	-0,296	0,023
122,064	123,010	-0,219	-0,192
123,079	-60,373	-0,291	-0,086
124,093	59,154	-0,288	-0,198
125,108	21,486	-0,242	-0,137
126,122	29,211	-0,314	-0,186
127,137	192,789	-0,226	-0,239
128,151	84,304	-0,278	-0,212
129,166	100,940	-0,119	-0,096
130,181	93,293	-0,244	-0,193
131,195	-27,976	-0,129	-0,052
132,210	99,547	-0,279	-0,226
133,224	59,727	-0,235	-0,162
134,239	55,402	-0,268	-0,181
135,254	81,817	-0,235	-0,178
136,268	142,552	-0,204	-0,190
137,283	105,179	-0,252	-0,208
138,297	-35,913	-0,306	-0,115
139,312	-37,407	-0,347	-0,129
140,327	-128,890	-0,347	-0,034
141,341	-50,886	-0,234	-0,076
142,356	-53,576	-0,260	-0,083
143,370	48,803	-0,215	-0,141
144,385	-69,176	-0,160	-0,043
145,400	202,708	-0,225	-0,243
146,414	44,338	-0,416	-0,266
147,429	169,021	-0,204	-0,203
148,443	127,011	-0,296	-0,262
149,458	219,208	-0,275	-0,307
150,473	-134,286	-0,182	-0,015
151,487	26,776	-0,199	-0,116
152,502	49,177	-0,273	-0,179
153,516	111,878	-0,260	-0,219
154,531	45,306	-0,234	-0,150
155,546	275,327	-0,137	-0,169
156,560	285,847	-0,095	-0,120
157,575	198,414	-0,243	-0,259
158,589	148,314	-0,171	-0,161
159,604	5,987	-0,256	-0,132
160,619	142,003	-0,088	-0,082
161,633	10,958	-0,268	-0,142
162,648	52,967	-0,239	-0,159
163,662	313,839	-0,178	-0,233
164,677	224,326	-0,163	-0,184
165,692	76,149	-0,213	-0,157
166,706	358,244	-0,182	-0,253
167,721	-6,248	-0,426	-0,202
168,735	139,127	-0,262	-0,240
169,750	145,174	-0,271	-0,253
170,764	207,807	-0,238	-0,259
171,779	560,537	-0,118	-0,200
172,794	131,880	-0,158	-0,142
173,808	14,397	-0,221	-0,119
174,823	9,168	-0,297	-0,156
175,837	122,063	-0,320	-0,278
176,852	97,250	-0,270	-0,215
177,867	93,905	-0,135	-0,107
178,881	775,522	-0,099	-0,189
179,896	-8,318	-0,124	-0,058
180,910	-103,163	-0,313	-0,051
181,925	222,388	-0,212	-0,238
182,940	48,076	-0,313	-0,203
183,954	218,936	-0,264	-0,294
184,969	-6,780	-0,244	-0,115
185,983	-97,295	-0,240	-0,043
186,998	-37,427	-0,261	-0,096
188,013	-10,855	-0,195	-0,089
189,027	110,061	-0,218	-0,182
190,042	151,787	-0,240	-0,228
191,056	59,048	-0,175	-0,120
192,071	469,805	-0,071	-0,111
193,086	-26,690	-0,239	-0,097
194,100	399,633	-0,192	-0,280
195,115	104,620	-0,156	-0,128
196,129	-108,941	-0,253	-0,037
197,144	-4,050	-0,275	-0,132
198,159	317,969	-0,114	-0,150
199,173	800,000	-0,079	-0,167
200,188	-42,008	-0,106	-0,038
201,202	224,324	-0,126	-0,141
202,217	86,037	-0,163	-0,124
203,232	6,382	-0,220	-0,113
204,246	144,272	-0,266	-0,247
205,261	-7,875	-0,218	-0,102
206,275	-63,876	-0,238	-0,067
207,290	-150,564	-0,097	0,005
208,304	5,065	-0,127	-0,065
209,319	12,644	-0,152	-0,081
210,334	-129,607	-0,226	-0,021
211,348	-15,496	-0,210	-0,093
212,363	800,000	-0,083	-0,225
213,377	7,542	-0,164	-0,085
214,392	-83,279	-0,169	-0,037
215,407	212,931	-0,197	-0,216
216,421	-200,000	0,036	-0,123
217,436	21,338	-0,222	-0,125
218,450	268,929	-0,258	-0,314
219,465	149,053	-0,285	-0,267
220,480	14,479	-0,142	-0,077
221,494	229,446	-0,174	-0,198
222,509	-69,630	-0,116	-0,031
223,523	406,458	-0,107	-0,157
224,538	-62,852	-0,236	-0,067
225,553	27,350	-0,141	-0,082
226,567	-63,612	-0,264	-0,074
227,582	393,995	-0,193	-0,280
228,596	275,748	-0,162	-0,200
229,611	230,637	-0,122	-0,138
230,626	422,522	-0,061	-0,091
231,640	-122,014	-0,216	-0,024
232,655	183,107	-0,186	-0,190
233,669	39,379	-0,296	-0,183
234,684	800,000	-0,075	-0,225
235,699	25,450	-0,191	-0,110
236,713	800,000	-0,065	-0,142
237,728	-200,000	0,000	-0,124
238,742	399,420	-0,127	-0,185
239,757	117,313	-0,238	-0,203
240,772	32,556	-0,330	-0,197
241,786	9,025	-0,108	-0,056
242,801	59,968	-0,275	-0,188
243,815	104,087	-0,174	-0,142
244,830	-146,582	-0,257	-0,015
245,844	228,141	-0,238	-0,269
246,859	90,066	-0,182	-0,141
247,874	368,623	-0,153	-0,214
248,888	780,928	-0,050	-0,094
249,903	-200,000	-0,024	-0,194
250,917	11,637	-0,129	0,068
251,932	-23,442	-0,081	-0,033
252,947	12,115	-0,243	-0,129
253,961	-139,056	-0,229	0,017
254,976	-71,024	-0,218	-0,056
255,990	-47,783	-0,273	-0,091
257,005	-141,296	-0,238	-0,016
258,020	82,168	-0,072	-0,054
259,034	36,972	-0,093	-0,056
260,049	31,699	-0,264	-0,157
261,063	10,787	-0,194	-0,102
262,078	118,796	-0,237	-0,202
263,093	-105,669	-0,201	-0,031
264,107	104,527	-0,142	-0,116
265,122	-181,023	-0,228	-0,003
266,136	-152,900	-0,102	0,005
267,151	800,000	-0,050	-0,135
268,166	138,355	-0,215	-0,195
269,180	11,831	-0,235	-0,124
270,195	143,835	-0,175	-0,161
271,209	535,656	-0,117	-0,192
272,224	396,687	-0,045	-0,065
273,239	-79,653	-0,093	-0,021
274,253	427,535	-0,104	0,155
275,268	326,776	0,020	0,026
276,282	528,972	-0,110	-0,181
277,297	44,316	-0,222	-0,140
278,312	-119,954	-0,152	-0,018
279,326	662,163	-0,041	-0,073
280,341	-110,161	-0,215	-0,031
281,355	70,078	-0,229	-0,162
282,370	37,342	-0,165	-0,100
283,384	36,962	-0,120	-0,073
284,399	260,852	-0,153	-0,183
285,414	32,431	-0,267	-0,159
286,428	-174,594	-0,190	-0,004
287,443	-15,932	-0,168	-0,073
288,457	27,154	-0,148	-0,085
289,472	-108,473	-0,304	-0,045
290,487	59,719	-0,197	-0,134
291,501	110,761	-0,119	-0,098
292,516	159,928	-0,123	-0,118
293,530	-200,000	-0,005	-0,070
294,545	417,149	-0,051	-0,075
295,560	-150,446	-0,142	0,007
296,574	113,458	-0,103	-0,086
297,589	31,879	-0,141	-0,084
298,603	800,000	-0,064	-0,151
299,618	335,177	-0,112	-0,150
300,633	800,000	-0,139	-0,307
301,647	516,716	-0,105	-0,169
302,662	-200,000	-0,009	-0,226
303,676	398,855	-0,149	-0,215
304,691	-6,060	-0,152	-0,071
305,706	79,343	-0,185	-0,137
306,720	64,007	-0,215	-0,149
307,735	800,000	-0,056	-0,154
308,749	-200,000	-0,044	-0,178
309,764	242,510	-0,093	-0,107
310,779	333,219	-0,072	-0,096
311,793	-16,332	-0,172	-0,075
312,808	184,123	-0,037	-0,038
313,822	-51,656	-0,088	-0,028
314,837	-175,006	-0,063	-0,001
315,852	28,984	-0,109	-0,063
316,866	-65,542	-0,022	-0,006
317,881	48,132	-0,077	-0,049
318,895	53,170	-0,093	-0,061
319,910	144,610	-0,116	-0,107
320,925	-200,000	-0,014	-0,157
321,939	-200,000	-0,040	-0,136
322,954	126,817	-0,108	-0,094
323,968	-65,017	-0,266	-0,073
324,983	-122,291	-0,189	-0,021
325,997	32,594	-0,168	-0,099
327,012	192,195	-0,119	-0,123
328,027	-21,247	-0,210	-0,088
329,041	118,629	-0,196	-0,166
330,056	-21,266	-0,213	-0,089
331,070	-95,311	-0,101	-0,018
332,085	-107,859	-0,086	-0,013
333,100	-165,384	-0,194	-0,006
334,114	-200,000	0,045	-0,149
335,129	800,000	0,050	-0,151
336,143	253,389	-0,114	-0,134
337,158	-39,507	-0,210	-0,075
338,173	466,799	-0,040	-0,061
339,187	77,944	-0,080	0,058
340,202	13,482	-0,062	-0,033
341,216	-152,106	-0,088	-0,004
342,231	419,617	-0,084	-0,124
343,246	271,545	-0,155	-0,187
344,260	64,706	-0,056	0,038
345,275	800,000	-0,048	-0,124
346,289	-13,442	-0,119	-0,053
347,304	35,886	-0,181	-0,109
348,319	-12,211	-0,096	-0,043
349,333	-16,073	-0,190	-0,082
350,348	611,383	-0,035	-0,059
351,362	19,859	-0,170	-0,093
352,377	-104,120	-0,179	-0,028
353,392	-96,031	-0,037	-0,007
354,406	-168,782	-0,254	0,006
355,421	208,786	1316,172	1412,824
356,435	160,660	1477,082	1413,307
