DTS Sentinel unit serial number:	SN410029Multiplexer serial number:	ORYXHardware model number:	OX2-SRSoftware version number:	ORYX F/W v4,00 Oryx Data Collector v3.7.2.0data status	okinstallation	B3 Nyhavnadifferential loss correction	single-endedforward channel	channel 1reverse channel	N/Adate	2023/12/03time	16:52:30forward acquisition time	300,00reverse acquisition time	0,00gamma	499,1914k internal	0,3198k external	0,3198temperature offset calibration	1,0000default loss term (dB/km)	0,3820temperature slope calibration	1,0000multiplexer offset coefficient	1,0000multiplexer slope coefficient	1,0000fibre end	0,00T internal ref (°C)	15,17T ext. ref 1 (°C)	-0,31T ext. ref 2 (°C)	-0,33length (m)	temperature (°C)	Stokes	anti-Stokes-744,400	173,446	-0,281	-0,295
-743,385	-200,000	0,004	0,190
-742,371	-14,921	-0,163	-0,076
-741,356	800,000	0,156	0,364
-740,342	189,138	-0,205	-0,224
-739,327	-200,000	0,068	0,333
-738,312	800,000	-0,158	-0,409
-737,298	800,000	0,089	0,212
-736,283	353,335	-0,183	-0,265
-735,269	-200,000	0,060	0,205
-734,254	118,081	-0,170	-0,152
-733,239	-87,230	-0,135	0,030
-732,225	-139,774	0,056	0,004
-731,210	800,000	-0,065	0,198
-730,196	-200,000	0,002	-0,116
-729,181	263,517	0,100	0,127
-728,167	42,393	-0,105	-0,069
-727,152	800,000	0,062	0,143
-726,137	-200,000	0,006	-0,042
-725,123	445,787	-0,039	-0,062
-724,108	226,293	0,107	-0,126
-723,094	111,252	-0,120	-0,105
-722,079	800,000	-0,036	-0,089
-721,064	230,092	-0,118	-0,140
-720,050	-142,924	-0,070	0,005
-719,035	-0,134	-0,070	-0,036
-718,021	800,000	-0,034	-0,077
-717,006	64,962	-0,099	-0,072
-715,991	800,000	-0,004	-0,011
-714,977	56,330	-0,061	0,043
-713,962	284,230	-0,060	-0,079
-712,948	22,273	-0,110	-0,065
-711,933	400,755	0,073	0,111
-710,918	16,250	-0,036	0,020
-709,904	-117,749	-0,072	0,009
-708,889	491,641	0,037	-0,062
-707,875	800,000	-0,092	-0,220
-706,860	0,350	0,073	-0,038
-705,845	-200,000	0,003	-0,036
-704,831	164,105	-0,042	0,043
-703,816	-3,121	-0,007	0,004
-702,802	800,000	-0,033	-0,074
-701,787	-76,404	-0,091	-0,023
-700,772	-200,000	0,009	0,039
-699,758	800,000	0,034	-0,081
-698,743	97,634	0,032	-0,027
-697,729	-86,437	-0,092	-0,020
-696,714	-109,692	-0,141	0,021
-695,699	197,889	0,101	0,112
-694,685	-136,181	0,119	-0,010
-693,670	8,046	-0,071	-0,039
-692,656	-200,000	-0,052	0,252
-691,641	-200,000	-0,007	0,024
-690,627	-80,072	-0,067	0,016
-689,612	800,000	0,062	0,186
-688,597	463,766	0,035	0,057
-687,583	800,000	-0,043	-0,111
-686,568	-164,226	0,145	0,005
-685,554	-42,150	-0,143	-0,053
-684,539	-99,123	-0,056	-0,010
-683,524	-21,560	-0,052	0,023
-682,510	-116,938	0,056	0,007
-681,495	85,147	0,031	-0,024
-680,481	115,508	-0,090	-0,080
-679,466	194,778	0,076	-0,084
-678,451	-200,000	0,001	0,026
-677,437	-11,572	0,103	0,049
-676,422	440,613	0,011	0,017
-675,408	137,683	-0,084	0,080
-674,393	-118,820	-0,015	0,002
-673,378	686,125	-0,056	-0,108
-672,364	333,847	-0,066	-0,093
-671,349	800,000	-0,023	0,057
-670,335	-200,000	-0,008	0,065
-669,320	42,001	0,022	-0,015
-668,305	-150,437	0,136	-0,007
-667,291	-177,472	-0,038	-0,001
-666,276	-149,655	0,023	0,001
-665,262	-195,856	-0,090	-0,000
-664,247	-200,000	-0,001	0,027
-663,232	-51,960	0,074	0,025
-662,218	22,759	0,090	-0,053
-661,203	-200,000	-0,025	-0,111
-660,189	-200,000	-0,011	0,064
-659,174	-18,437	-0,073	-0,033
-658,159	-97,791	-0,093	0,017
-657,145	800,000	-0,047	-0,107
-656,130	-200,000	0,001	0,010
-655,116	-6,219	0,089	0,044
-654,101	21,291	0,021	-0,012
-653,086	-200,000	-0,020	-0,210
-652,072	9,005	-0,077	-0,042
-651,057	105,058	-0,140	-0,120
-650,043	785,286	-0,049	0,098
-649,028	448,224	0,076	-0,122
-648,014	-200,000	-0,002	0,025
-646,999	-117,002	0,176	-0,023
-645,984	800,000	-0,006	-0,018
-644,970	346,034	-0,078	0,111
-643,955	-100,606	-0,058	-0,010
-642,941	759,063	-0,023	-0,046
-641,926	-200,000	-0,004	0,069
-640,911	79,447	-0,072	-0,056
-639,897	115,363	0,082	-0,073
-638,882	-157,793	0,086	0,004
-637,868	-200,000	0,003	0,177
-636,853	124,901	-0,080	0,073
-635,838	800,000	-0,034	-0,094
-634,824	435,834	0,031	0,050
-633,809	-74,302	-0,015	0,004
-632,795	800,000	-0,017	0,038
-631,780	710,472	0,027	-0,052
-630,765	196,831	0,057	-0,063
-629,751	-9,542	0,043	-0,021
-628,736	35,580	-0,108	-0,069
-627,722	204,355	0,061	0,068
-626,707	-52,765	0,114	-0,038
-625,692	296,334	0,036	-0,048
-624,678	-200,000	0,010	0,053
-623,663	-1,137	-0,019	-0,010
-622,649	800,000	0,005	-0,013
-621,634	489,848	-0,065	-0,109
-620,619	-200,000	0,007	-0,121
-619,605	-200,000	-0,002	0,065
-618,590	12,325	0,054	0,030
-617,576	48,524	-0,073	-0,050
-616,561	567,100	-0,059	-0,104
-615,546	284,663	0,075	-0,098
-614,532	-200,000	-0,009	-0,069
-613,517	-200,000	0,011	0,094
-612,503	207,786	-0,050	-0,056
-611,488	-200,000	0,004	-0,043
-610,474	236,225	-0,091	0,109
-609,459	162,541	0,131	-0,133
-608,444	-72,567	-0,020	0,005
-607,430	438,719	-0,062	-0,098
-606,415	98,848	0,043	0,036
-605,401	137,390	-0,067	0,063
-604,386	-45,944	0,129	0,046
-603,371	-178,030	-0,097	-0,002
-602,357	-200,000	0,005	-0,087
-601,342	41,307	-0,023	-0,015
-600,328	235,113	0,041	0,050
-599,313	50,617	-0,155	-0,106
-598,298	9,903	0,061	-0,033
-597,284	-23,112	0,131	0,057
-596,269	-200,000	-0,005	-0,049
-595,255	-43,356	0,112	-0,041
-594,240	-200,000	-0,004	-0,051
-593,225	800,000	-0,057	-0,122
-592,211	43,931	-0,055	-0,037
-591,196	-200,000	0,001	0,049
-590,182	-78,511	-0,079	-0,019
-589,167	-200,000	0,001	0,042
-588,152	-200,000	-0,012	-0,098
-587,138	-200,000	-0,008	-0,042
-586,123	60,024	-0,085	-0,061
-585,109	800,000	-0,014	-0,038
-584,094	-200,000	-0,007	-0,082
-583,079	114,104	-0,082	0,072
-582,065	-93,580	0,275	-0,055
-581,050	177,644	-0,044	0,047
-580,036	-88,030	-0,138	0,030
-579,021	72,321	-0,101	-0,076
-578,006	55,579	-0,139	0,097
-576,992	800,000	-0,013	-0,035
-575,977	92,939	-0,034	0,028
-574,963	-175,151	0,038	0,001
-573,948	240,927	0,092	0,112
-572,934	-195,627	0,042	0,000
-571,919	153,959	-0,140	0,139
-570,904	87,041	-0,046	-0,037
-569,890	550,019	-0,029	-0,050
-568,875	281,801	0,032	0,041
-567,861	-200,000	0,001	0,067
-566,846	-94,314	-0,065	0,013
-565,831	-200,000	0,013	-0,089
-564,817	146,668	0,037	0,036
-563,802	-200,000	-0,016	-0,172
-562,788	-28,582	-0,053	-0,022
-561,773	272,375	0,017	0,022
-560,758	47,492	0,115	0,077
-559,744	39,838	0,109	0,071
-558,729	475,838	-0,047	0,078
-557,715	-200,000	-0,041	0,164
-556,700	-200,000	-0,003	0,051
-555,685	-200,000	0,000	-0,083
-554,671	-200,000	0,023	0,128
-553,656	640,441	-0,073	-0,134
-552,642	-59,019	0,112	-0,035
-551,627	-200,000	-0,045	0,170
-550,612	179,412	0,052	0,055
-549,598	-67,470	0,092	-0,026
-548,583	-69,475	0,091	-0,025
-547,569	113,707	0,077	-0,067
-546,554	50,419	-0,050	0,034
-545,539	-200,000	0,003	-0,099
-544,525	-200,000	-0,020	-0,082
-543,510	-70,646	0,056	0,015
-542,496	-73,555	0,041	-0,011
-541,481	157,308	0,097	-0,097
-540,466	800,000	-0,058	-0,128
-539,452	-200,000	0,003	0,057
-538,437	401,297	-0,107	0,163
-537,423	-200,000	0,003	0,072
-536,408	151,020	-0,103	-0,101
-535,393	-200,000	0,015	-0,049
-534,379	303,492	-0,105	-0,140
-533,364	-200,000	0,010	-0,048
-532,350	-200,000	0,039	0,179
-531,335	16,975	0,085	-0,049
-530,321	800,000	0,042	0,089
-529,306	19,163	-0,064	-0,037
-528,291	-200,000	-0,141	-0,000
-527,277	81,480	-0,109	-0,085
-526,262	500,697	0,050	0,083
-525,248	-180,030	-0,028	0,000
-524,233	87,000	0,020	0,016
-523,218	-61,413	-0,089	0,027
-522,204	-200,000	0,014	0,060
-521,189	-200,000	0,001	-0,040
-520,175	800,000	0,023	-0,056
-519,160	72,574	-0,054	-0,041
-518,145	-200,000	-0,014	-0,075
-517,131	45,716	0,028	-0,019
-516,116	800,000	0,029	0,091
-515,102	-38,506	0,060	-0,023
-514,087	800,000	0,026	-0,082
-513,072	800,000	-0,027	-0,071
-512,058	-200,000	0,048	-0,159
-511,043	-200,000	-0,020	0,076
-510,029	316,332	0,021	0,029
-509,014	-6,037	0,112	-0,055
-507,999	-41,139	-0,052	-0,019
-506,985	-40,651	0,082	0,031
-505,970	317,895	-0,066	-0,090
-504,956	524,907	-0,065	-0,111
-503,941	-200,000	-0,014	0,069
-502,926	97,346	0,104	0,086
-501,912	173,640	0,135	0,141
-500,897	44,469	-0,063	0,042
-499,883	-163,639	-0,071	-0,002
-498,868	-200,000	0,004	-0,092
-497,853	800,000	-0,051	-0,121
-496,839	-200,000	0,006	-0,197
-495,824	90,631	-0,014	0,011
-494,810	-29,256	-0,053	-0,022
-493,795	-200,000	-0,011	-0,071
-492,781	-200,000	-0,009	0,146
-491,766	442,367	0,017	0,027
-490,751	181,876	-0,045	-0,048
-489,737	-31,426	0,021	0,009
-488,722	333,200	0,035	0,049
-487,708	-72,442	-0,062	-0,017
-486,693	154,854	0,066	0,065
-485,678	519,313	0,006	0,010
-484,664	800,000	-0,034	-0,086
-483,649	703,610	-0,042	-0,080
-482,635	505,153	-0,082	0,137
-481,620	415,503	0,105	0,162
-480,605	4,330	0,073	0,038
-479,591	800,000	-0,017	-0,047
-478,576	-27,391	-0,024	-0,010
-477,562	289,226	0,019	-0,025
-476,547	-178,446	0,085	0,001
-475,532	-200,000	-0,009	0,103
-474,518	-6,931	-0,099	-0,048
-473,503	21,844	0,114	0,067
-472,489	800,000	-0,031	-0,092
-471,474	17,130	-0,049	0,028
-470,459	-38,036	0,020	0,008
-469,445	-200,000	0,006	-0,082
-468,430	-86,309	-0,043	0,009
-467,416	209,929	-0,112	0,127
-466,401	800,000	0,048	0,113
-465,386	123,252	0,041	0,037
-464,372	-122,380	0,254	-0,029
-463,357	359,354	-0,068	-0,098
-462,343	-200,000	-0,046	-0,149
-461,328	410,928	0,068	-0,105
-460,313	-200,000	0,037	0,141
-459,299	-106,791	0,093	0,015
-458,284	642,257	-0,056	0,104
-457,270	-200,000	-0,011	0,053
-456,255	800,000	-0,061	-0,141
-455,241	-200,000	0,005	0,033
-454,226	479,828	-0,077	-0,127
-453,211	348,922	0,063	-0,090
-452,197	-52,207	0,086	-0,028
-451,182	-200,000	0,003	-0,090
-450,168	520,079	-0,068	0,115
-449,153	800,000	0,022	-0,054
-448,138	452,979	-0,082	-0,131
-447,124	-200,000	-0,002	-0,011
-446,109	-30,158	0,080	0,033
-445,095	-56,769	0,133	0,042
-444,080	800,000	-0,016	0,049
-443,065	89,327	0,102	0,082
-442,051	800,000	-0,024	-0,066
-441,036	47,545	-0,062	-0,042
-440,022	55,979	-0,059	0,041
-439,007	220,487	-0,044	0,051
-437,992	13,762	0,078	-0,044
-436,978	170,163	0,095	-0,098
-435,963	402,463	-0,035	0,053
-434,949	-200,000	-0,004	0,022
-433,934	-27,926	-0,104	-0,043
-432,919	800,000	0,033	0,100
-431,905	-44,960	-0,061	0,022
-430,890	-200,000	-0,013	0,083
-429,876	330,114	-0,035	0,048
-428,861	-200,000	-0,003	0,060
-427,846	14,301	-0,083	-0,047
-426,832	113,046	0,075	-0,066
-425,817	-200,000	0,021	0,129
-424,803	22,519	-0,158	-0,093
-423,788	-53,672	0,071	-0,023
-422,773	800,000	0,045	-0,095
-421,759	-9,386	0,058	0,028
-420,744	-128,422	-0,017	0,002
-419,730	766,051	-0,037	-0,073
-418,715	660,503	0,023	-0,043
-417,701	-72,970	-0,074	0,019
-416,686	222,164	0,064	-0,075
-415,671	-200,000	0,000	-0,014
-414,657	800,000	0,018	0,036
-413,642	-3,395	-0,175	0,087
-412,628	538,493	0,036	0,061
-411,613	110,673	-0,080	-0,069
-410,598	-31,529	-0,159	-0,064
-409,584	0,264	0,152	-0,078
-408,569	-200,000	0,013	0,124
-407,555	-200,000	0,012	0,084
-406,540	473,745	-0,019	0,031
-405,525	800,000	-0,033	0,095
-404,511	-62,907	-0,208	-0,061
-403,496	159,683	0,111	-0,111
-402,482	800,000	0,022	0,061
-401,467	78,668	0,095	-0,073
-400,452	800,000	0,048	0,125
-399,438	-53,081	-0,087	-0,028
-398,423	1,004	-0,216	0,111
-397,409	-200,000	-0,003	-0,025
-396,394	-200,000	-0,015	-0,128
-395,379	3,142	-0,122	-0,063
-394,365	-134,139	0,090	0,008
-393,350	-200,000	0,031	0,158
-392,336	-40,530	0,214	0,079
-391,321	-126,290	-0,086	-0,009
-390,306	-200,000	-0,005	-0,042
-389,292	246,684	-0,028	0,034
-388,277	-200,000	0,000	0,070
-387,263	266,468	0,062	0,078
-386,248	462,547	-0,011	0,018
-385,233	21,020	0,092	-0,053
-384,219	-147,300	-0,106	0,006
-383,204	-58,253	-0,061	0,019
-382,190	-7,297	-0,114	-0,055
-381,175	131,304	0,098	0,090
-380,160	-200,000	-0,051	0,203
-379,146	288,455	-0,063	0,082
-378,131	-200,000	0,003	-0,156
-377,117	587,979	-0,067	0,118
-376,102	-148,931	-0,061	-0,003
-375,088	102,306	-0,080	0,067
-374,073	5,604	0,027	0,014
-373,058	-200,000	-0,014	0,046
-372,044	532,220	0,052	-0,089
-371,029	-3,420	0,181	0,090
-370,015	-24,340	-0,126	-0,054
-369,000	-7,105	-0,041	0,020
-367,985	167,697	-0,060	0,062
-366,971	782,201	-0,041	0,081
-365,956	-88,915	0,120	0,025
-364,942	800,000	-0,042	0,120
-363,927	-84,260	0,096	0,022
-362,912	-200,000	0,004	0,024
-361,898	-5,677	-0,092	-0,045
-360,883	-42,596	0,105	0,038
-359,869	141,136	-0,049	-0,047
-358,854	459,927	-0,030	-0,049
-357,839	800,000	0,058	0,143
-356,825	301,556	0,050	0,067
-355,810	-200,000	-0,008	0,066
-354,796	-36,084	0,106	0,041
-353,781	119,373	-0,087	0,077
-352,766	86,842	-0,014	-0,011
-351,752	-200,000	-0,010	0,050
-350,737	389,473	0,076	0,113
-349,723	-106,851	0,084	0,013
-348,708	148,723	-0,080	-0,078
-347,693	53,131	-0,058	0,040
-346,679	135,716	-0,078	-0,072
-345,664	333,309	-0,040	-0,055
-344,650	85,549	0,047	-0,037
-343,635	675,145	0,068	0,127
-342,620	-200,000	0,022	0,079
-341,606	-200,000	-0,012	0,053
-340,591	194,946	0,071	-0,078
-339,577	-98,009	-0,132	-0,024
-338,562	-110,934	0,181	0,026
-337,548	-137,454	0,197	-0,016
-336,533	-200,000	-0,005	-0,107
-335,518	-64,855	-0,092	-0,027
-334,504	800,000	0,022	0,046
-333,489	-69,513	-0,105	0,029
-332,475	-33,631	0,194	0,077
-331,460	-68,167	-0,064	0,018
-330,445	164,903	-0,089	0,090
-329,431	203,403	0,123	0,137
-328,416	48,974	-0,102	0,068
-327,402	-45,208	0,041	0,014
-326,387	426,255	-0,060	-0,093
-325,372	406,977	0,009	0,013
-324,358	5,112	0,007	-0,004
-323,343	-200,000	0,022	0,081
-322,329	800,000	0,020	0,046
-321,314	800,000	-0,059	0,138
-320,299	-200,000	0,010	0,120
-319,285	-200,000	-0,003	-0,042
-318,270	800,000	-0,013	-0,027
-317,256	-112,684	-0,055	-0,008
-316,241	269,456	-0,141	-0,178
-315,226	156,661	0,111	0,109
-314,212	244,716	0,107	0,129
-313,197	800,000	-0,020	-0,048
-312,183	86,397	-0,024	0,019
-311,168	272,996	0,064	0,081
-310,153	-31,024	-0,054	0,022
-309,139	395,155	-0,122	-0,183
-308,124	-200,000	0,004	-0,032
-307,110	-200,000	-0,008	0,067
-306,095	800,000	0,008	0,021
-305,080	800,000	0,033	-0,073
-304,066	-135,588	-0,147	0,012
-303,051	-118,646	0,042	-0,005
-302,037	550,848	-0,047	0,080
-301,022	-24,985	0,086	-0,036
-300,008	-24,278	-0,041	-0,018
-298,993	-116,899	0,122	0,016
-297,978	-200,000	-0,043	-0,189
-296,964	-2,207	-0,071	0,035
-295,949	-200,000	0,010	0,040
-294,935	-200,000	0,049	0,157
-293,920	51,669	0,101	0,068
-292,905	-33,738	-0,034	0,013
-291,891	690,221	0,065	0,122
-290,876	-198,216	0,079	0,000
-289,862	800,000	0,021	0,056
-288,847	-143,036	0,079	0,005
-287,832	313,723	0,051	-0,069
-286,818	-1,857	0,126	-0,063
-285,803	-97,720	0,101	0,018
-284,789	800,000	-0,037	0,099
-283,774	-200,000	0,005	0,037
-282,759	-51,852	0,054	0,018
-281,745	195,974	0,109	-0,119
-280,730	800,000	0,060	-0,159
-279,716	341,626	0,090	-0,127
-278,701	-32,531	0,212	0,084
-277,686	-88,897	0,191	0,040
-276,672	60,179	-0,047	-0,033
-275,657	-200,000	-0,014	0,051
-274,643	-200,000	-0,036	0,142
-273,628	334,525	-0,054	0,075
-272,613	800,000	-0,015	0,044
-271,599	-200,000	-0,006	-0,173
-270,584	800,000	-0,041	0,094
-269,570	-200,000	-0,018	-0,109
-268,555	-200,000	-0,013	-0,048
-267,540	-200,000	-0,019	-0,117
-266,526	-47,979	-0,162	-0,056
-265,511	-56,028	0,021	0,007
-264,497	205,605	0,099	0,110
-263,482	16,364	0,143	0,080
-262,467	-200,000	-0,002	0,067
-261,453	-200,000	0,048	0,216
-260,438	800,000	0,041	-0,113
-259,424	-200,000	0,010	-0,067
-258,409	181,419	0,117	-0,124
-257,395	-70,575	-0,066	-0,018
-256,380	15,242	0,092	0,052
-255,365	129,271	0,060	-0,055
-254,351	-8,069	0,079	0,038
-253,336	-200,000	-0,003	0,065
-252,322	432,362	-0,060	-0,093
-251,307	438,967	0,029	0,045
-250,292	205,358	0,020	-0,022
-249,278	-129,989	-0,067	-0,006
-248,263	203,477	-0,080	0,088
-247,249	-149,367	0,114	-0,006
-246,234	-200,000	0,011	0,117
-245,219	800,000	-0,028	-0,071
-244,205	241,903	-0,128	0,153
-243,190	-137,324	-0,046	-0,004
-242,176	302,233	0,028	-0,038
-241,161	713,108	-0,058	0,111
-240,146	431,525	-0,037	0,058
-239,132	93,703	-0,090	0,072
-238,117	-117,445	-0,032	0,004
-237,103	84,982	-0,193	-0,151
-236,088	-200,000	-0,001	-0,067
-235,073	565,736	0,031	-0,054
-234,059	15,439	0,135	-0,075
-233,044	-200,000	-0,003	0,038
-232,030	-16,605	-0,121	0,054
-231,015	318,342	-0,048	0,066
-230,000	-200,000	-0,015	-0,067
-228,986	342,990	-0,067	0,094
-227,971	-110,534	0,055	0,008
-226,957	188,312	-0,046	0,049
-225,942	800,000	-0,020	-0,042
-224,927	-54,077	0,143	-0,046
-223,913	214,581	-0,068	-0,077
-222,898	-92,249	-0,111	0,022
-221,884	101,245	0,024	-0,020
-220,869	117,905	0,039	0,035
-219,855	191,872	0,109	0,117
-218,840	-68,908	-0,114	0,031
-217,825	-200,000	-0,007	0,074
-216,811	-75,411	-0,095	-0,024
-215,796	101,131	-0,093	0,077
-214,782	-73,573	0,120	0,031
-213,767	800,000	0,009	0,025
-212,752	-108,766	-0,028	0,004
-211,738	-180,812	0,115	-0,002
-210,723	-200,000	0,028	-0,133
-209,709	223,852	-0,053	0,062
-208,694	98,883	-0,032	0,026
-207,679	123,755	-0,052	0,046
-206,665	13,426	0,078	-0,043
-205,650	800,000	0,026	-0,068
-204,636	800,000	0,028	0,072
-203,621	-11,588	-0,103	0,048
-202,606	-200,000	0,041	-0,133
-201,592	-124,452	0,068	-0,007
-200,577	55,529	0,105	0,072
-199,563	-40,384	-0,221	-0,081
-198,548	569,879	0,103	-0,179
-197,533	-200,000	0,003	-0,033
-196,519	691,165	0,046	-0,086
-195,504	656,081	0,044	-0,080
-194,490	1,810	0,086	-0,044
-193,475	-86,629	-0,152	-0,033
-192,460	-200,000	-0,005	-0,088
-191,446	249,507	0,089	-0,108
-190,431	613,233	0,065	0,117
-189,417	26,257	0,077	0,046
-188,402	-200,000	-0,005	0,052
-187,387	-200,000	-0,002	-0,162
-186,373	201,971	-0,067	0,074
-185,358	800,000	0,043	-0,100
-184,344	-200,000	-0,012	0,060
-183,329	68,295	0,092	-0,067
-182,315	78,133	0,072	0,055
-181,300	150,538	0,127	-0,123
-180,285	-21,060	-0,079	0,034
-179,271	800,000	-0,068	-0,143
-178,256	-200,000	-0,028	-0,095
-177,242	-200,000	0,003	0,057
-176,227	9,181	0,031	-0,017
-175,212	-200,000	0,044	0,198
-174,198	183,609	-0,124	0,131
-173,183	-200,000	0,023	-0,129
-172,169	-89,205	-0,163	-0,034
-171,154	129,551	-0,015	0,013
-170,139	62,580	0,053	0,038
-169,125	182,364	-0,087	-0,091
-168,110	800,000	-0,012	0,033
-167,096	157,963	0,014	-0,014
-166,081	18,238	-0,120	-0,068
-165,066	-35,389	-0,126	-0,048
-164,052	-200,000	0,005	0,110
-163,037	799,841	0,086	-0,170
-162,023	228,823	0,041	0,048
-161,008	800,000	-0,028	-0,087
-159,993	-82,255	-0,022	-0,005
-158,979	183,597	0,021	-0,022
-157,964	251,077	-0,099	-0,120
-156,950	35,661	-0,029	-0,018
-155,935	754,215	-0,030	0,059
-154,920	309,789	0,062	-0,083
-153,906	25,088	-0,085	-0,050
-152,891	97,579	-0,127	-0,104
-151,877	-92,961	-0,085	0,017
-150,862	256,715	0,043	0,052
-149,847	-200,000	-0,005	-0,029
-148,833	-200,000	-0,002	-0,067
-147,818	132,970	-0,053	0,049
-146,804	-139,362	0,131	-0,010
-145,789	-113,963	-0,144	-0,020
-144,775	133,756	0,073	0,067
-143,760	-133,946	-0,155	-0,014
-142,745	447,489	-0,081	-0,127
-141,731	159,761	-0,117	-0,116
-140,716	-200,000	-0,002	0,088
-139,702	278,100	-0,079	0,101
-138,687	765,617	-0,081	0,156
-137,672	434,960	0,038	0,059
-136,658	800,000	-0,036	-0,103
-135,643	130,420	-0,077	0,070
-134,629	800,000	0,109	-0,227
-133,614	54,999	0,061	0,042
-132,599	246,589	0,058	-0,070
-131,585	594,958	0,025	0,043
-130,570	151,966	0,074	0,072
-129,556	800,000	-0,025	-0,051
-128,541	186,225	-0,036	-0,038
-127,526	-200,000	0,010	-0,124
-126,512	-200,000	0,038	-0,131
-125,497	642,948	-0,052	-0,094
-124,483	152,773	-0,028	0,027
-123,468	-200,000	-0,005	-0,158
-122,453	28,325	-0,062	-0,037
-121,439	-33,977	-0,049	-0,019
-120,424	54,233	0,137	0,094
-119,410	5,897	-0,197	0,103
-118,395	-200,000	-0,016	0,172
-117,380	35,559	-0,095	0,059
-116,366	800,000	-0,033	0,095
-115,351	-110,420	-0,099	0,014
-114,337	-1,419	-0,048	0,024
-113,322	800,000	-0,059	0,123
-112,307	-200,000	0,020	-0,099
-111,293	-49,246	0,092	0,031
-110,278	-200,000	0,015	0,059
-109,264	-2,665	0,039	0,020
-108,249	586,103	0,072	-0,126
-107,234	297,332	-0,047	-0,061
-106,220	-106,865	0,146	-0,023
-105,205	322,185	0,031	0,042
-104,191	-200,000	-0,011	0,055
-103,176	0,796	-0,061	0,031
-102,162	208,806	0,049	-0,055
-101,147	53,258	0,061	-0,042
-100,132	42,804	-0,097	0,063
-99,118	29,708	-0,103	0,062
-98,103	-52,817	0,150	0,049
-97,089	-57,272	0,081	-0,025
-96,074	52,151	0,193	0,130
-95,059	-64,387	0,085	-0,024
-94,045	-200,000	-0,006	-0,077
-93,030	382,369	0,035	-0,052
-92,016	-200,000	-0,005	0,029
-91,001	79,492	0,147	-0,112
-89,986	-200,000	-0,000	0,022
-88,972	-200,000	0,005	0,132
-87,957	-130,453	-0,033	-0,003
-86,943	162,224	0,116	-0,115
-85,928	84,089	0,062	-0,048
-84,913	800,000	0,038	0,088
-83,899	90,653	-0,107	-0,085
-82,884	800,000	-0,054	0,124
-81,870	275,839	0,046	-0,057
-80,855	418,239	-0,063	0,095
-79,840	-103,533	0,152	-0,025
-78,826	800,000	-0,015	0,029
-77,811	32,673	0,034	-0,021
-76,797	202,199	0,050	0,055
-75,782	-200,000	0,018	0,095
-74,767	-4,943	0,036	-0,018
-73,753	282,158	0,063	-0,080
-72,738	-62,893	0,177	-0,052
-71,724	-200,000	-0,025	-0,086
-70,709	30,525	-0,031	-0,019
-69,694	68,713	0,110	0,080
-68,680	144,973	0,065	-0,062
-67,665	-168,916	0,162	-0,004
-66,651	-51,263	-0,069	-0,023
-65,636	-200,000	-0,001	-0,068
-64,622	102,039	-0,078	0,065
-63,607	54,193	-0,165	-0,112
-62,592	24,707	0,076	0,044
-61,578	-142,911	0,238	-0,016
-60,563	505,273	-0,062	0,103
-59,549	295,889	-0,080	0,104
-58,534	-72,947	-1,510	-0,390
-57,519	475,137	-1,358	-2,180
-56,505	-200,000	-0,513	-4,404
-55,490	239,511	0,923	1,091
-54,476	800,000	4,744	10,959
-53,461	-200,000	18,160	285,973
-52,446	800,000	727,183	2224,720
-51,432	555,081	1642,613	2812,721
-50,417	79,407	1664,327	1263,705
-49,403	23,043	1538,243	892,069
-48,388	16,990	1461,601	818,301
-47,373	17,908	1451,578	817,080
-46,359	17,369	1442,046	809,104
-45,344	15,313	1437,360	796,629
-44,330	15,241	1435,287	795,105
-43,315	15,254	1433,581	794,189
-42,300	15,248	1431,861	793,175
-41,286	15,277	1430,946	792,773
-40,271	15,232	1429,653	791,813
-39,257	15,215	1428,548	791,089
-38,242	15,259	1426,977	790,398
-37,227	15,288	1425,859	789,883
-36,213	15,298	1424,637	789,221
-35,198	15,280	1423,394	788,417
-34,184	15,307	1422,513	788,026
-33,169	15,257	1421,278	787,077
-32,154	15,313	1420,145	786,682
-31,140	15,323	1418,741	785,917
-30,125	15,317	1417,688	785,278
-29,111	15,296	1416,580	784,530
-28,096	15,255	1415,585	783,755
-27,082	15,213	1414,522	782,942
-26,067	15,223	1413,183	782,215
-25,052	15,193	1412,192	781,494
-24,038	15,223	1411,133	781,017
-23,023	15,198	1410,100	780,299
-22,009	15,132	1409,389	779,565
-20,994	15,165	1408,267	779,069
-19,979	15,172	1407,337	778,557
-18,965	15,074	1406,663	777,693
-17,950	15,107	1405,499	777,175
-16,936	15,102	1404,578	776,610
-15,921	15,096	1403,423	775,911
-14,906	15,115	1402,422	775,417
-13,892	15,120	1401,570	774,938
-12,877	15,105	1400,645	774,327
-11,863	15,159	1399,623	773,982
-10,848	15,080	1398,823	773,141
-9,833	15,038	1397,919	772,417
-8,819	14,962	1397,290	771,685
-7,804	14,994	1396,241	771,222
-6,790	14,981	1395,132	770,520
-5,775	15,015	1394,186	770,126
-4,760	15,026	1393,043	769,514
-3,746	15,007	1392,418	769,049
-2,731	15,033	1391,300	768,520
-1,717	15,032	1390,503	768,046
-0,702	15,016	1388,773	766,986
0,313	18,801	1308,429	740,146
1,327	35,268	707,248	438,274
2,342	54,419	124,901	85,074
3,356	5,250	16,706	8,693
4,371	12,652	3,202	1,745
5,386	-4,736	0,599	0,292
6,400	-200,000	0,057	0,192
7,415	362,654	-0,146	-0,208
8,429	-8,987	-0,188	-0,089
9,444	-2,428	-0,343	-0,170
10,459	129,428	-0,369	-0,334
11,473	37,339	-0,393	-0,246
12,488	-48,113	-0,359	-0,122
13,502	84,874	-0,403	-0,313
14,517	144,015	-0,292	-0,275
15,531	-58,304	-0,358	-0,109
16,546	22,704	-0,270	-0,156
17,561	800,000	-0,154	-0,407
18,575	-73,896	-0,206	-0,052
19,590	50,203	-0,267	-0,178
20,604	-39,183	-0,380	-0,141
21,619	27,023	-0,525	-0,311
22,634	74,446	-0,477	-0,354
23,648	66,287	-0,412	-0,295
24,663	284,773	-0,280	-0,358
25,677	82,832	-0,399	-0,306
26,692	371,444	-0,288	-0,415
27,707	32,947	-0,372	-0,227
28,721	65,397	-0,429	-0,307
29,736	99,662	-0,414	-0,338
30,750	70,114	-0,345	-0,251
31,765	31,054	-0,443	-0,268
32,780	120,737	-0,187	-0,164
33,794	60,838	-0,315	-0,220
34,809	-37,117	-0,428	-0,161
35,823	52,204	-0,291	-0,196
36,838	79,795	-0,393	-0,298
37,853	134,838	-0,425	-0,390
38,867	240,796	-0,173	-0,205
39,882	60,313	-0,329	-0,230
40,896	82,552	-0,371	-0,284
41,911	43,492	-0,356	-0,229
42,926	11,526	-0,445	-0,240
43,940	800,000	-0,143	-0,321
44,955	63,000	-0,414	-0,292
45,969	204,386	-0,326	-0,357
46,984	80,479	-0,360	-0,273
47,999	53,930	-0,227	-0,154
49,013	427,413	-0,231	-0,352
50,028	142,077	-0,206	-0,193
51,042	166,322	-0,274	-0,274
52,057	26,760	-0,416	-0,245
53,071	113,440	-0,310	-0,265
54,086	2,573	-0,375	-0,191
55,101	-29,091	-0,355	-0,143
56,115	4,808	-0,373	-0,192
57,130	-21,052	-0,478	-0,205
58,144	17,423	-0,462	-0,258
59,159	163,955	-0,454	-0,451
60,174	323,199	-0,267	-0,359
61,188	76,278	-0,306	-0,228
62,203	-79,563	-0,221	-0,052
63,217	111,947	-0,364	-0,310
64,232	25,083	-0,385	-0,224
65,247	-52,131	-0,373	-0,121
66,261	64,910	-0,404	-0,287
67,276	146,810	-0,348	-0,330
68,290	18,398	-0,241	-0,135
69,305	90,448	-0,229	-0,180
70,320	8,106	-0,377	-0,199
71,334	-5,347	-0,299	-0,144
72,349	-2,890	-0,313	-0,154
73,363	76,233	-0,411	-0,306
74,378	-83,658	-0,385	-0,086
75,393	33,204	-0,240	-0,146
76,407	13,524	-0,251	-0,137
77,422	102,685	-0,249	-0,205
78,436	114,917	-0,267	-0,229
79,451	194,570	-0,284	-0,303
80,466	-1,499	-0,249	-0,123
81,480	66,037	-0,272	-0,194
82,495	6,206	-0,279	-0,145
83,509	37,983	-0,311	-0,194
84,524	-57,392	-0,313	-0,096
85,539	-37,707	-0,247	-0,092
86,553	88,617	-0,147	-0,115
87,568	136,755	-0,278	-0,255
88,582	285,582	-0,221	-0,281
89,597	86,025	-0,286	-0,221
90,611	157,658	-0,237	-0,231
91,626	31,260	-0,088	-0,053
92,641	-19,166	-0,224	-0,097
93,655	-44,364	-0,297	-0,104
94,670	76,118	-0,244	-0,181
95,684	-200,000	-0,045	-0,322
96,699	-20,631	-0,365	-0,157
97,714	1,839	-0,251	-0,126
98,728	168,411	-0,133	-0,133
99,743	-70,718	-0,206	-0,054
100,757	7,652	-0,257	-0,135
101,772	50,708	-0,394	-0,262
102,787	91,098	-0,337	-0,265
103,801	-14,453	-0,249	-0,112
104,816	374,145	-0,162	-0,232
105,830	102,381	-0,220	-0,180
106,845	84,177	-0,287	-0,220
107,860	281,792	-0,154	-0,194
108,874	43,828	-0,355	-0,227
109,889	-6,653	-0,369	-0,176
110,903	52,004	-0,320	-0,213
111,918	187,873	-0,248	-0,260
112,933	10,038	-0,273	-0,145
113,947	116,957	-0,218	-0,188
114,962	272,883	-0,271	-0,336
115,976	-3,815	-0,279	-0,135
116,991	247,299	-0,277	-0,329
118,006	-12,328	-0,367	-0,168
119,020	38,570	-0,314	-0,196
120,035	92,679	-0,168	-0,133
121,049	-200,000	-0,034	-0,286
122,064	-5,519	-0,278	-0,133
123,079	16,906	-0,279	-0,154
124,093	213,467	-0,278	-0,308
125,108	108,834	-0,294	-0,246
126,122	175,743	-0,244	-0,248
127,137	211,118	-0,250	-0,275
128,151	368,470	-0,139	-0,198
129,166	123,509	-0,314	-0,275
130,181	101,171	-0,276	-0,225
131,195	-25,572	-0,286	-0,118
132,210	494,451	-0,197	-0,317
133,224	73,863	-0,207	-0,152
134,239	-92,264	-0,351	-0,069
135,254	409,750	-0,193	-0,287
136,268	108,537	-0,270	-0,225
137,283	411,989	-0,226	-0,337
138,297	588,336	-0,168	-0,290
139,312	34,262	-0,162	-0,098
140,327	253,225	-0,226	-0,270
141,341	99,507	-0,269	-0,217
142,356	50,131	-0,224	-0,148
143,370	-126,304	-0,213	-0,022
144,385	354,598	-0,196	-0,273
145,400	108,764	-0,209	-0,175
146,414	-108,646	-0,205	-0,030
147,429	22,644	-0,351	-0,200
148,443	62,835	-0,264	-0,184
149,458	-101,665	-0,199	-0,033
150,473	-23,815	-0,342	-0,143
151,487	-97,931	-0,304	-0,054
152,502	397,024	-0,168	-0,246
153,516	99,516	-0,274	-0,221
154,531	597,510	-0,146	-0,254
155,546	426,882	-0,105	-0,159
156,560	800,000	-0,125	-0,253
157,575	-37,593	-0,200	-0,074
158,589	23,013	-0,240	-0,137
159,604	800,000	-0,103	-0,223
160,619	113,892	-0,177	-0,151
161,633	-49,906	-0,305	-0,101
162,648	-200,000	-0,060	-0,206
163,662	142,940	-0,213	-0,198
164,677	-45,173	-0,369	-0,127
165,692	-67,024	-0,268	-0,073
166,706	320,818	-0,158	-0,210
167,721	381,310	-0,151	-0,217
168,735	89,218	-0,396	-0,307
169,750	800,000	-0,120	-0,266
170,764	-69,153	-0,340	-0,091
171,779	42,437	-0,245	-0,155
172,794	-19,313	-0,238	-0,103
173,808	134,293	-0,244	-0,221
174,823	-107,432	-0,262	-0,040
175,837	43,859	-0,176	-0,112
176,852	8,571	-0,232	-0,121
177,867	-42,963	-0,253	-0,089
178,881	-200,000	-0,007	-0,213
179,896	790,625	-0,095	-0,183
180,910	-173,156	-0,206	0,004
181,925	-52,919	-0,287	-0,092
182,940	45,386	-0,218	-0,140
183,954	192,121	-0,225	-0,237
184,969	800,000	-0,066	-0,169
185,983	65,918	-0,119	-0,084
186,998	-35,577	-0,333	-0,125
188,013	235,781	-0,125	-0,144
189,027	312,998	-0,231	-0,303
190,042	794,473	-0,090	-0,173
191,056	30,415	-0,274	-0,163
192,071	28,216	-0,250	-0,146
193,086	180,714	-0,160	-0,164
194,100	357,822	-0,158	-0,221
195,115	-61,265	-0,259	-0,075
196,129	-76,587	-0,137	-0,033
197,144	239,054	-0,152	-0,177
198,159	130,095	-0,131	-0,117
199,173	242,680	-0,149	-0,175
200,188	444,496	-0,118	-0,181
201,202	297,546	-0,110	-0,141
202,217	6,886	-0,220	-0,113
203,232	24,969	-0,189	-0,109
204,246	203,050	-0,259	-0,279
205,261	-32,227	-0,250	-0,097
206,275	242,146	-0,038	-0,044
207,290	732,016	-0,095	-0,177
208,304	482,166	-0,106	-0,168
209,319	-200,000	-0,031	-0,248
210,334	123,513	-0,143	-0,124
211,348	175,805	-0,250	-0,252
212,363	42,327	-0,305	-0,193
213,377	59,104	-0,275	-0,188
214,392	-13,234	-0,261	-0,117
215,407	-54,680	-0,190	-0,059
216,421	411,333	-0,140	-0,206
217,436	330,587	-0,150	-0,202
218,450	15,917	-0,216	-0,118
219,465	-10,305	-0,195	-0,090
220,480	77,455	-0,307	-0,227
221,494	-200,000	-0,018	-0,244
222,509	18,693	-0,197	-0,109
223,523	392,046	-0,157	-0,227
224,538	54,568	-0,194	-0,130
225,553	216,673	-0,163	-0,180
226,567	191,494	-0,143	-0,150
227,582	665,020	-0,132	-0,239
228,596	116,021	-0,236	-0,201
229,611	-122,804	-0,118	-0,013
230,626	-102,681	-0,163	-0,027
231,640	-56,203	-0,197	-0,060
232,655	127,059	-0,219	-0,192
233,669	42,439	-0,188	-0,118
234,684	52,709	-0,232	-0,153
235,699	422,593	-0,168	-0,251
236,713	281,317	-0,202	-0,251
237,728	-7,661	-0,141	-0,066
238,742	-133,657	-0,240	-0,021
239,757	-9,196	-0,287	-0,133
240,772	81,937	-0,149	-0,112
241,786	-200,000	-0,022	-0,159
242,801	-200,000	-0,016	-0,199
243,815	276,776	-0,116	-0,143
244,830	197,963	-0,202	-0,214
245,844	231,218	-0,128	-0,146
246,859	-57,088	-0,160	-0,049
247,874	140,115	-0,302	-0,276
248,888	209,868	-0,191	-0,208
249,903	752,517	-0,120	-0,226
250,917	110,752	-0,072	-0,060
251,932	-100,533	-0,208	-0,035
252,947	-45,391	-0,200	-0,068
253,961	127,444	-0,149	-0,131
254,976	5,825	-0,258	-0,132
255,990	23,878	-0,267	-0,152
257,005	386,915	-0,137	-0,197
258,020	-35,920	-0,254	-0,095
259,034	-34,107	-0,157	-0,060
260,049	800,000	-0,058	-0,157
261,063	207,128	-0,131	-0,142
262,078	314,572	-0,179	-0,234
263,093	211,946	-0,190	-0,208
264,107	177,152	-0,060	-0,061
265,122	317,686	-0,138	-0,181
266,136	800,000	-0,077	-0,211
267,151	139,481	-0,109	-0,100
268,166	46,048	-0,161	-0,103
269,180	329,959	-0,105	-0,141
270,195	244,812	-0,165	-0,193
271,209	113,309	-0,113	-0,095
272,224	212,019	-0,125	-0,137
273,239	114,664	-0,107	-0,090
274,253	-147,790	-0,165	-0,009
275,268	-126,528	-0,189	-0,019
276,282	-104,015	-0,153	-0,024
277,297	201,064	-0,127	-0,135
278,312	102,752	-0,137	-0,111
279,326	232,840	-0,181	-0,206
280,341	-200,000	-0,051	-0,165
281,355	800,000	-0,066	-0,142
282,370	-15,764	-0,213	-0,094
283,384	64,277	-0,162	-0,112
284,399	212,637	-0,130	-0,142
285,414	667,750	-0,058	-0,104
286,428	82,780	-0,086	-0,065
287,443	348,944	-0,093	-0,127
288,457	89,393	-0,131	-0,101
289,472	-10,663	-0,100	0,045
290,487	174,354	-0,167	-0,167
291,501	23,150	-0,235	-0,133
292,516	-200,000	-0,014	-0,080
293,530	800,000	-0,097	-0,225
294,545	800,000	-0,047	-0,099
295,560	13,811	-0,135	-0,072
296,574	-75,324	-0,157	-0,038
297,589	447,158	-0,080	-0,123
298,603	373,909	-0,131	-0,184
299,618	-11,501	-0,177	-0,080
300,633	-7,487	-0,177	-0,083
301,647	800,000	-0,057	-0,170
302,662	284,338	0,058	-0,072
303,676	164,442	-0,183	-0,178
304,691	181,799	-0,179	-0,182
305,706	47,530	-0,206	-0,132
306,720	18,323	-0,155	-0,085
307,735	216,547	-0,184	-0,202
308,749	50,407	-0,169	-0,110
309,764	-53,448	-0,087	-0,027
310,779	800,000	-0,064	-0,180
311,793	227,656	-0,134	-0,150
312,808	126,897	-0,136	-0,118
313,822	152,688	-0,210	-0,198
314,837	-3,575	-0,200	-0,095
315,852	-49,854	-0,080	0,026
316,866	-26,851	-0,128	-0,051
317,881	-23,493	-0,165	-0,068
318,895	147,180	-0,102	-0,094
319,910	43,490	-0,129	-0,081
320,925	-4,695	-0,268	-0,127
321,939	-103,770	-0,183	-0,029
322,954	-118,141	-0,110	-0,013
323,968	222,914	-0,090	-0,099
324,983	-166,960	-0,167	0,005
325,997	102,820	-0,058	-0,047
327,012	-72,346	-0,109	-0,028
328,027	-74,494	-0,079	-0,020
329,041	70,642	-0,175	-0,125
330,056	36,443	-0,189	-0,115
331,070	-33,401	-0,121	-0,046
332,085	-112,796	-0,125	-0,017
333,100	-42,785	-0,150	-0,052
334,114	61,545	-0,171	-0,117
335,129	-54,801	-0,165	-0,051
336,143	105,992	-0,079	-0,065
337,158	-88,988	-0,156	-0,031
338,173	-36,627	-0,107	-0,040
339,187	144,984	-0,160	-0,147
340,202	151,805	-0,114	-0,107
341,216	30,040	-0,167	-0,097
342,231	530,076	-0,056	-0,091
343,246	205,262	-0,027	-0,029
344,260	-200,000	-0,005	-0,035
345,275	15,252	-0,141	-0,076
346,289	445,405	-0,066	-0,101
347,304	-200,000	0,005	-0,029
348,319	800,000	-0,085	-0,167
349,333	539,497	-0,075	-0,123
350,348	800,000	-0,046	-0,097
351,362	800,000	-0,009	-0,019
352,377	245,222	-0,130	-0,151
353,392	340,619	-0,042	-0,056
354,406	800,000	0,011	-0,027
355,421	209,665	1314,586	1416,908
356,435	161,377	1475,305	1417,414
