DTS Sentinel unit serial number:	SN410029Multiplexer serial number:	ORYXHardware model number:	OX2-SRSoftware version number:	ORYX F/W v4,00 Oryx Data Collector v3.7.2.0data status	okinstallation	B3 Nyhavnadifferential loss correction	single-endedforward channel	channel 1reverse channel	N/Adate	2023/12/02time	05:07:30forward acquisition time	300,00reverse acquisition time	0,00gamma	499,1914k internal	0,3194k external	0,3194temperature offset calibration	1,0000default loss term (dB/km)	0,3820temperature slope calibration	1,0000multiplexer offset coefficient	1,0000multiplexer slope coefficient	1,0000fibre end	0,00T internal ref (°C)	16,33T ext. ref 1 (°C)	1,10T ext. ref 2 (°C)	1,08length (m)	temperature (°C)	Stokes	anti-Stokes-744,400	242,553	-0,297	-0,363
-743,385	-200,000	0,041	0,189
-742,371	351,196	-0,126	-0,183
-741,356	-200,000	0,012	0,318
-740,342	673,268	-0,128	-0,242
-739,327	-200,000	0,081	0,429
-738,312	164,064	-0,355	-0,365
-737,298	-200,000	0,080	0,287
-736,283	83,053	-0,338	-0,268
-735,269	-200,000	0,048	0,339
-734,254	608,238	-0,138	-0,252
-733,239	-26,631	-0,277	0,117
-732,225	96,966	-0,217	-0,181
-731,210	-200,000	0,016	0,189
-730,196	323,511	0,033	0,046
-729,181	110,376	-0,065	-0,057
-728,167	-32,415	-0,222	0,090
-727,152	-160,071	0,063	0,002
-726,137	-200,000	0,003	-0,096
-725,123	-171,904	-0,155	-0,004
-724,108	32,066	0,053	-0,033
-723,094	-114,957	-0,111	-0,015
-722,079	-200,000	-0,020	-0,160
-721,064	759,155	-0,023	-0,045
-720,050	-200,000	-0,014	-0,067
-719,035	-108,863	0,073	-0,011
-718,021	-20,301	-0,063	0,028
-717,006	-14,320	-0,025	-0,012
-715,991	-200,000	-0,033	-0,158
-714,977	800,000	0,040	-0,083
-713,962	-200,000	-0,006	-0,060
-712,948	146,049	-0,069	-0,067
-711,933	228,576	0,049	0,059
-710,918	-107,925	-0,107	0,017
-709,904	242,923	-0,096	0,117
-708,889	317,202	-0,101	-0,139
-707,875	-149,357	-0,080	-0,005
-706,860	453,990	-0,022	-0,035
-705,845	129,583	-0,076	0,071
-704,831	-92,232	0,103	0,021
-703,816	-46,293	-0,148	-0,053
-702,802	255,348	-0,025	-0,032
-701,787	800,000	-0,102	-0,288
-700,772	-18,699	-0,102	0,046
-699,758	114,798	0,159	-0,141
-698,743	-122,655	-0,126	-0,015
-697,729	-167,240	-0,060	-0,002
-696,714	-41,872	-0,013	-0,005
-695,699	-200,000	0,010	0,073
-694,685	224,333	-0,040	-0,047
-693,670	477,802	-0,035	-0,057
-692,656	-59,553	-0,118	-0,037
-691,641	-200,000	-0,001	0,029
-690,627	-200,000	0,015	0,075
-689,612	-165,664	-0,140	-0,004
-688,597	-96,587	0,093	-0,018
-687,583	140,971	0,102	0,098
-686,568	-200,000	0,003	0,083
-685,554	800,000	-0,039	0,087
-684,539	305,130	0,015	0,020
-683,524	-200,000	-0,012	0,150
-682,510	-200,000	-0,004	-0,015
-681,495	560,327	-0,029	-0,051
-680,481	60,818	0,037	-0,027
-679,466	800,000	-0,067	-0,191
-678,451	216,936	0,028	0,032
-677,437	38,630	0,110	0,071
-676,422	216,995	-0,029	0,033
-675,408	-136,510	-0,048	0,004
-674,393	-200,000	-0,013	-0,090
-673,378	141,430	-0,131	-0,126
-672,364	8,970	-0,073	-0,040
-671,349	314,773	-0,045	0,061
-670,335	-200,000	-0,039	0,133
-669,320	800,000	-0,014	0,036
-668,305	231,479	-0,037	0,044
-667,291	-33,266	0,090	0,036
-666,276	-63,200	0,081	-0,024
-665,262	197,337	0,055	0,061
-664,247	-26,531	-0,066	0,028
-663,232	722,832	-0,010	-0,020
-662,218	-139,357	-0,164	0,013
-661,203	306,403	0,019	-0,026
-660,189	69,842	-0,049	0,036
-659,174	-24,476	-0,052	-0,022
-658,159	48,557	-0,092	-0,062
-657,145	176,305	-0,097	-0,103
-656,130	-98,785	0,054	0,010
-655,116	-125,345	-0,056	-0,006
-654,101	800,000	0,022	0,046
-653,086	486,252	0,056	0,093
-652,072	-108,882	-0,142	0,022
-651,057	-104,716	-0,094	-0,016
-650,043	-200,000	0,012	0,096
-649,028	123,561	-0,058	-0,053
-648,014	184,707	-0,049	0,053
-646,999	-40,598	0,055	0,021
-645,984	-200,000	-0,009	0,090
-644,970	-168,522	-0,075	0,002
-643,955	49,862	-0,056	-0,038
-642,941	388,266	-0,080	-0,120
-641,926	-146,237	0,101	-0,006
-640,911	596,049	0,047	-0,086
-639,897	-200,000	0,004	0,082
-638,882	483,738	-0,077	-0,128
-637,868	2,303	0,041	-0,022
-636,853	115,960	-0,099	-0,088
-635,838	-85,024	-0,074	0,017
-634,824	-200,000	-0,001	0,069
-633,809	36,212	0,070	0,045
-632,795	140,767	-0,072	0,070
-631,780	-114,443	-0,072	0,010
-630,765	-26,589	0,048	0,020
-629,751	-174,950	-0,165	-0,003
-628,736	-200,000	0,038	-0,149
-627,722	0,517	-0,139	-0,072
-626,707	19,507	0,074	0,043
-625,692	800,000	-0,035	-0,097
-624,678	196,705	0,078	-0,086
-623,663	109,904	0,026	0,023
-622,649	-76,410	-0,099	-0,025
-621,634	150,668	0,012	-0,012
-620,619	-98,844	-0,145	-0,026
-619,605	15,970	0,045	0,026
-618,590	219,379	0,043	-0,050
-617,576	-13,464	0,123	-0,058
-616,561	-71,741	-0,147	-0,039
-615,546	800,000	0,040	-0,084
-614,532	91,577	0,022	-0,018
-613,517	-200,000	-0,015	-0,084
-612,503	3,044	0,109	-0,057
-611,488	564,192	0,107	0,189
-610,474	-26,085	-0,168	0,071
-609,459	-50,431	0,114	-0,039
-608,444	800,000	-0,044	-0,098
-607,430	187,170	-0,094	-0,101
-606,415	-80,844	-0,052	0,012
-605,401	24,992	0,073	0,044
-604,386	-29,910	0,098	-0,040
-603,371	-107,399	-0,146	-0,023
-602,357	-128,998	0,055	0,006
-601,342	800,000	-0,061	0,150
-600,328	-21,564	0,070	-0,031
-599,313	-87,092	-0,077	-0,017
-598,298	287,473	0,024	-0,031
-597,284	546,615	0,026	-0,045
-596,269	-200,000	-0,024	0,193
-595,255	-15,649	0,065	0,030
-594,240	-30,875	0,084	-0,034
-593,225	-200,000	-0,007	0,039
-592,211	-200,000	-0,017	-0,083
-591,196	-17,912	-0,096	-0,043
-590,182	-95,740	0,144	0,028
-589,167	108,383	-0,068	0,059
-588,152	800,000	-0,044	0,107
-587,138	159,666	-0,063	0,064
-586,123	-200,000	0,051	-0,180
-585,109	4,062	-0,093	-0,049
-584,094	122,496	0,088	-0,080
-583,079	24,025	-0,011	-0,007
-582,065	721,910	0,072	-0,140
-581,050	800,000	0,038	0,106
-580,036	-200,000	0,006	0,060
-579,021	-200,000	0,012	-0,060
-578,006	-88,399	-0,094	-0,020
-576,992	-200,000	-0,006	-0,032
-575,977	42,594	-0,063	-0,041
-574,963	541,198	-0,047	0,081
-573,948	-70,854	-0,126	0,034
-572,934	-200,000	-0,017	0,115
-571,919	51,308	-0,071	-0,049
-570,904	-120,178	-0,119	-0,015
-569,890	80,885	-0,069	-0,054
-568,875	-200,000	0,026	0,085
-567,861	781,051	0,043	0,086
-566,846	471,489	0,035	0,058
-565,831	800,000	-0,023	-0,053
-564,817	31,551	-0,056	0,035
-563,802	-200,000	0,026	-0,127
-562,788	108,036	-0,114	0,099
-561,773	-200,000	-0,042	0,149
-560,758	9,164	0,060	-0,032
-559,744	-200,000	0,037	0,133
-558,729	-200,000	-0,009	-0,121
-557,715	800,000	-0,028	0,072
-556,700	721,323	0,073	-0,141
-555,685	-200,000	0,001	-0,107
-554,671	-30,960	-0,068	-0,028
-553,656	193,953	-0,069	0,075
-552,642	-51,565	0,056	0,019
-551,627	95,617	0,032	-0,026
-550,612	-200,000	-0,016	-0,056
-549,598	-200,000	-0,002	-0,012
-548,583	-200,000	-0,003	-0,042
-547,569	225,652	-0,054	-0,063
-546,554	106,758	0,003	0,002
-545,539	156,627	-0,076	0,076
-544,525	314,844	-0,036	0,049
-543,510	122,669	0,076	-0,068
-542,496	-67,974	-0,068	-0,019
-541,481	-186,401	-0,213	0,002
-540,466	800,000	0,016	0,036
-539,452	-200,000	-0,001	0,032
-538,437	-74,227	0,136	0,035
-537,423	-200,000	0,009	-0,068
-536,408	122,989	0,106	0,096
-535,393	-59,191	-0,099	-0,031
-534,379	-200,000	0,002	0,135
-533,364	-22,503	0,057	-0,025
-532,350	-65,471	-0,055	0,016
-531,335	-200,000	0,003	0,082
-530,321	143,490	0,037	-0,035
-529,306	-156,590	-0,059	-0,003
-528,291	-200,000	-0,014	0,076
-527,277	679,449	-0,037	-0,069
-526,262	-200,000	0,024	-0,107
-525,248	52,142	-0,084	0,058
-524,233	129,767	0,038	-0,035
-523,218	307,029	0,072	0,097
-522,204	-200,000	0,001	0,046
-521,189	398,128	-0,030	0,046
-520,175	179,283	0,071	-0,075
-519,160	-44,011	0,050	-0,018
-518,145	155,751	0,044	-0,044
-517,131	136,856	0,071	-0,067
-516,116	800,000	-0,043	-0,107
-515,102	335,402	-0,048	-0,068
-514,087	701,419	0,007	-0,013
-513,072	-200,000	0,007	-0,122
-512,058	275,943	0,014	0,018
-511,043	622,865	0,084	-0,153
-510,029	746,324	-0,047	-0,091
-509,014	-200,000	-0,015	0,076
-507,999	164,117	-0,068	0,070
-506,985	168,815	-0,087	0,090
-505,970	115,702	-0,099	-0,087
-504,956	800,000	-0,022	0,064
-503,941	-63,032	-0,104	0,031
-502,926	-30,407	0,079	-0,032
-501,912	-92,481	-0,052	0,010
-500,897	-100,785	0,056	-0,010
-499,883	-37,879	0,042	-0,016
-498,868	-133,520	-0,113	-0,010
-497,853	-92,105	-0,092	0,019
-496,839	60,503	0,031	-0,022
-495,824	-123,806	0,154	-0,017
-494,810	-200,000	0,008	0,098
-493,795	147,395	0,049	-0,048
-492,781	241,756	-0,042	-0,051
-491,766	203,338	-0,054	-0,061
-490,751	720,066	0,032	-0,062
-489,737	800,000	0,028	-0,068
-488,722	-65,279	0,120	-0,035
-487,708	-58,259	0,158	-0,049
-486,693	-200,000	0,012	-0,102
-485,678	800,000	-0,027	-0,067
-484,664	291,559	-0,056	-0,074
-483,649	236,447	-0,068	-0,082
-482,635	-59,902	-0,144	-0,044
-481,620	10,925	0,052	-0,029
-480,605	800,000	-0,080	0,251
-479,591	380,574	-0,141	0,209
-478,576	-200,000	-0,014	-0,075
-477,562	-144,730	-0,113	0,007
-476,547	792,154	-0,057	0,113
-475,532	128,373	-0,049	-0,045
-474,518	-200,000	-0,001	0,022
-473,503	800,000	0,033	-0,067
-472,489	217,746	-0,015	0,018
-471,474	1,548	-0,112	0,058
-470,459	800,000	-0,045	-0,125
-469,445	-63,944	-0,191	-0,056
-468,430	67,761	0,071	-0,052
-467,416	-200,000	0,017	-0,073
-466,401	16,187	0,113	0,064
-465,386	-151,641	0,034	-0,002
-464,372	274,438	-0,105	0,134
-463,357	48,401	0,119	-0,081
-462,343	33,418	-0,074	0,046
-461,328	-200,000	0,051	-0,216
-460,313	-132,340	0,096	0,009
-459,299	222,206	0,065	0,076
-458,284	-200,000	-0,024	0,094
-457,270	800,000	0,078	0,161
-456,255	405,107	-0,048	-0,072
-455,241	561,759	-0,074	-0,129
-454,226	-200,000	0,030	0,157
-453,211	257,302	-0,027	-0,034
-452,197	518,932	0,004	-0,007
-451,182	800,000	0,060	0,149
-450,168	-149,450	-0,102	0,006
-449,153	-200,000	0,006	-0,027
-448,138	215,242	-0,039	-0,045
-447,124	37,309	-0,197	-0,125
-446,109	-200,000	-0,001	0,018
-445,095	-200,000	0,007	0,045
-444,080	76,777	0,139	0,106
-443,065	-200,000	0,002	0,069
-442,051	-200,000	-0,014	-0,056
-441,036	-64,276	-0,107	-0,031
-440,022	80,979	0,132	-0,102
-439,007	128,984	-0,035	0,032
-437,992	155,299	0,118	0,117
-436,978	-116,018	0,112	-0,015
-435,963	-44,868	0,013	-0,005
-434,949	800,000	0,021	-0,063
-433,934	-6,930	-0,078	-0,038
-432,919	-200,000	0,015	-0,129
-431,905	238,415	0,065	0,078
-430,890	337,510	-0,112	-0,158
-429,876	40,892	0,049	0,032
-428,861	-43,151	0,080	0,029
-427,846	349,650	-0,093	0,133
-426,832	-200,000	-0,004	0,051
-425,817	246,450	-0,051	-0,062
-424,803	-67,191	-0,105	-0,030
-423,788	719,952	0,032	-0,061
-422,773	111,974	0,035	-0,031
-421,759	-62,850	0,084	0,025
-420,744	800,000	0,026	0,054
-419,730	158,346	-0,041	0,041
-418,715	-24,376	-0,163	-0,069
-417,701	-110,241	-0,046	0,007
-416,686	-200,000	0,029	-0,124
-415,671	-200,000	-0,079	-0,000
-414,657	-121,890	0,087	-0,010
-413,642	88,116	0,030	-0,024
-412,628	27,138	-0,221	-0,133
-411,613	-76,502	-0,045	0,011
-410,598	7,745	-0,026	0,014
-409,584	800,000	0,067	0,180
-408,569	-84,658	0,074	-0,017
-407,555	-21,911	0,064	0,028
-406,540	-200,000	-0,035	0,163
-405,525	354,060	0,022	-0,032
-404,511	-77,666	0,077	-0,019
-403,496	-200,000	0,005	-0,143
-402,482	-200,000	-0,001	-0,130
-401,467	-153,955	0,139	-0,007
-400,452	-17,189	0,041	-0,019
-399,438	287,171	0,027	-0,035
-398,423	197,663	-0,084	0,092
-397,409	190,629	-0,148	-0,160
-396,394	-106,248	-0,115	0,018
-395,379	767,618	-0,045	-0,087
-394,365	-38,573	-0,037	-0,014
-393,350	117,229	0,092	0,081
-392,336	-200,000	-0,006	-0,019
-391,321	214,746	-0,077	0,088
-390,306	-200,000	0,014	0,061
-389,292	374,467	-0,059	0,087
-388,277	-68,323	0,056	-0,015
-387,263	-107,022	0,077	0,012
-386,248	-200,000	-0,011	0,104
-385,233	-200,000	0,004	0,160
-384,219	104,068	0,015	0,013
-383,204	-147,619	-0,111	0,007
-382,190	800,000	-0,024	-0,066
-381,175	242,304	0,063	0,076
-380,160	-200,000	0,014	-0,055
-379,146	-170,015	-0,038	0,001
-378,131	-200,000	0,053	-0,203
-377,117	510,072	0,085	-0,142
-376,102	-152,887	0,098	0,005
-375,088	446,963	0,073	-0,116
-374,073	800,000	0,021	-0,047
-373,058	188,924	0,047	0,050
-372,044	800,000	0,057	0,116
-371,029	-35,698	0,051	-0,020
-370,015	-200,000	0,003	-0,083
-369,000	-44,734	-0,120	0,043
-367,985	-46,805	0,080	0,028
-366,971	-126,728	-0,051	0,005
-365,956	-27,612	0,031	0,013
-364,942	800,000	-0,036	-0,079
-363,927	-119,424	0,106	0,013
-362,912	800,000	0,033	-0,067
-361,898	-200,000	0,030	-0,100
-360,883	241,308	-0,031	-0,037
-359,869	162,900	-0,101	0,102
-358,854	800,000	0,014	-0,031
-357,839	800,000	0,050	-0,144
-356,825	-1,965	-0,104	-0,052
-355,810	18,463	-0,105	0,060
-354,796	-200,000	-0,016	0,132
-353,781	55,246	0,064	-0,045
-352,766	-200,000	0,015	0,074
-351,752	-14,112	-0,040	0,019
-350,737	417,927	0,106	0,163
-349,723	-200,000	0,011	0,056
-348,708	-139,535	0,043	-0,003
-347,693	84,035	0,084	-0,066
-346,679	-200,000	-0,006	-0,045
-345,664	-200,000	-0,045	-0,216
-344,650	-200,000	0,015	0,074
-343,635	288,121	0,062	0,081
-342,620	370,679	0,033	-0,049
-341,606	-126,633	-0,025	0,003
-340,591	109,256	-0,060	-0,052
-339,577	-200,000	-0,044	-0,189
-338,562	595,292	0,053	-0,095
-337,548	-47,395	0,024	-0,008
-336,533	-200,000	-0,006	0,066
-335,518	-200,000	-0,050	0,213
-334,504	118,185	0,055	0,049
-333,489	151,892	0,033	-0,032
-332,475	340,925	0,022	0,032
-331,460	570,609	-0,126	-0,221
-330,445	79,593	0,039	-0,030
-329,431	-200,000	-0,029	0,159
-328,416	-117,330	0,141	-0,018
-327,402	-57,901	0,101	0,031
-326,387	124,319	0,066	0,059
-325,372	225,661	0,066	-0,077
-324,358	154,192	0,041	0,040
-323,343	-200,000	-0,035	-0,142
-322,329	800,000	-0,016	0,039
-321,314	-61,517	0,077	0,023
-320,299	169,226	0,050	0,051
-319,285	34,449	-0,143	-0,089
-318,270	122,825	-0,063	-0,057
-317,256	-200,000	-0,017	-0,113
-316,241	800,000	0,048	-0,121
-315,226	-113,477	0,050	0,007
-314,212	53,062	0,071	0,048
-313,197	29,733	0,140	0,085
-312,183	-200,000	-0,006	0,055
-311,168	-102,708	0,133	0,022
-310,153	-95,424	0,007	0,001
-309,139	-30,230	-0,098	-0,040
-308,124	800,000	0,023	0,064
-307,110	-68,537	0,180	0,050
-306,095	79,596	0,021	0,016
-305,080	-200,000	-0,007	0,156
-304,066	263,735	-0,073	0,092
-303,051	31,170	0,035	0,022
-302,037	-65,960	-0,065	-0,018
-301,022	800,000	-0,047	0,141
-300,008	19,633	0,084	-0,048
-298,993	-40,308	0,280	-0,104
-297,978	325,921	0,088	-0,121
-296,964	68,851	0,065	0,048
-295,949	-55,036	-0,049	0,016
-294,935	-176,364	0,175	-0,003
-293,920	800,000	-0,027	0,054
-292,905	-51,248	0,125	-0,042
-291,891	234,821	0,101	0,120
-290,876	-200,000	-0,005	0,146
-289,862	800,000	-0,025	0,066
-288,847	-200,000	-0,016	-0,060
-287,832	-197,161	-0,026	-0,000
-286,818	800,000	0,045	-0,092
-285,803	-200,000	-0,010	0,103
-284,789	-200,000	0,028	0,190
-283,774	-50,345	0,047	0,016
-282,759	195,352	0,098	-0,106
-281,745	311,983	-0,015	-0,020
-280,730	35,339	0,013	-0,008
-279,716	220,240	0,067	0,077
-278,701	99,616	-0,056	0,046
-277,686	-62,069	0,147	-0,044
-276,672	-61,440	0,089	0,027
-275,657	-30,330	0,029	0,012
-274,643	-200,000	-0,002	0,020
-273,628	340,540	-0,102	-0,142
-272,613	345,550	-0,084	-0,118
-271,599	-200,000	0,040	-0,209
-270,584	-136,680	0,039	0,003
-269,570	39,908	0,057	0,036
-268,555	741,405	-0,067	0,129
-267,540	-200,000	0,039	0,132
-266,526	416,598	-0,017	-0,025
-265,511	3,082	0,115	-0,060
-264,497	-188,056	-0,091	0,001
-263,482	123,390	0,198	0,178
-262,467	-200,000	0,013	0,118
-261,453	162,723	-0,088	-0,088
-260,438	76,704	0,094	0,071
-259,424	152,741	-0,178	-0,174
-258,409	800,000	0,025	0,062
-257,395	42,590	-0,139	-0,090
-256,380	-200,000	-0,001	0,063
-255,365	234,545	0,111	-0,131
-254,351	335,480	-0,079	0,110
-253,336	800,000	0,028	0,063
-252,322	-14,878	-0,116	-0,053
-251,307	18,167	-0,039	0,022
-250,292	-155,183	-0,088	-0,004
-249,278	134,525	0,077	-0,072
-248,263	74,010	0,058	-0,044
-247,249	68,179	0,123	0,090
-246,234	520,997	-0,052	-0,087
-245,219	800,000	-0,062	0,141
-244,205	69,624	-0,006	-0,005
-243,190	-200,000	-0,053	0,000
-242,176	-47,370	0,160	0,055
-241,161	200,365	0,052	0,057
-240,146	-93,763	0,064	0,012
-239,132	14,145	-0,083	-0,046
-238,117	-61,766	-0,123	-0,037
-237,103	198,342	0,015	0,016
-236,088	-200,000	0,030	0,137
-235,073	139,257	0,034	0,032
-234,059	-20,187	0,173	0,076
-233,044	-200,000	0,006	0,149
-232,030	-109,978	-0,110	-0,016
-231,015	106,253	-0,046	-0,039
-230,000	-200,000	0,004	0,054
-228,986	93,451	-0,034	0,027
-227,971	-54,130	0,118	0,038
-226,957	229,315	-0,004	0,005
-225,942	-200,000	0,007	0,058
-224,927	-57,895	-0,047	0,015
-223,913	5,927	-0,164	-0,087
-222,898	-123,692	0,015	-0,002
-221,884	-200,000	-0,024	0,124
-220,869	-200,000	-0,004	-0,127
-219,855	-200,000	-0,030	0,115
-218,840	-200,000	0,002	0,036
-217,825	54,881	0,065	-0,045
-216,811	-161,059	0,088	0,003
-215,796	5,789	0,055	-0,029
-214,782	-179,537	0,050	-0,001
-213,767	800,000	0,004	0,010
-212,752	-58,056	-0,073	-0,022
-211,738	704,298	-0,016	0,031
-210,723	-200,000	0,009	-0,070
-209,709	78,463	-0,075	-0,057
-208,694	12,288	0,041	-0,022
-207,679	-200,000	-0,006	-0,037
-206,665	-200,000	-0,027	0,120
-205,650	-200,000	-0,013	0,084
-204,636	800,000	0,054	0,110
-203,621	35,196	0,063	-0,040
-202,606	255,445	-0,013	-0,016
-201,592	1,048	-0,064	0,033
-200,577	800,000	-0,068	-0,158
-199,563	-200,000	-0,010	-0,076
-198,548	-56,188	-0,074	0,023
-197,533	689,494	-0,062	0,116
-196,519	-68,101	-0,090	0,025
-195,504	40,753	0,033	0,021
-194,490	119,862	0,119	-0,106
-193,475	728,005	0,024	0,046
-192,460	222,266	-0,089	-0,103
-191,446	-32,643	-0,086	-0,034
-190,431	800,000	0,010	0,032
-189,417	-53,314	0,012	-0,004
-188,402	-200,000	-0,019	0,102
-187,387	800,000	0,013	-0,040
-186,373	-200,000	-0,031	-0,127
-185,358	-200,000	-0,020	0,070
-184,344	-145,367	0,133	0,008
-183,329	262,756	-0,031	0,038
-182,315	800,000	-0,028	0,055
-181,300	-75,099	0,142	-0,036
-180,285	800,000	-0,049	0,099
-179,271	141,553	-0,046	0,043
-178,256	-200,000	-0,025	0,085
-177,242	-200,000	0,017	0,092
-176,227	-90,892	0,099	0,020
-175,212	9,228	0,090	0,048
-174,198	-113,578	-0,180	0,025
-173,183	-56,335	-0,129	0,041
-172,169	-200,000	0,000	-0,070
-171,154	42,666	-0,111	0,072
-170,139	-46,060	0,091	-0,032
-169,125	-27,085	0,083	0,034
-168,110	-129,992	0,079	-0,008
-167,096	248,844	-0,025	-0,031
-166,081	-200,000	0,009	0,094
-165,066	-200,000	-0,007	-0,101
-164,052	60,836	-0,026	0,018
-163,037	77,976	0,067	-0,051
-162,023	-200,000	-0,019	0,088
-161,008	-200,000	-0,016	0,069
-159,993	395,736	0,067	0,100
-158,979	800,000	-0,008	0,024
-157,964	46,249	-0,036	0,024
-156,950	16,314	0,052	-0,029
-155,935	234,148	-0,082	-0,096
-154,920	53,983	0,065	0,044
-153,906	569,752	-0,013	-0,023
-152,891	-200,000	-0,003	0,110
-151,877	-48,933	-0,057	0,019
-150,862	-5,497	0,084	-0,041
-149,847	142,932	-0,066	-0,062
-148,833	289,235	-0,048	-0,062
-147,818	-200,000	-0,010	0,083
-146,804	624,350	0,034	-0,062
-145,789	347,090	-0,040	-0,057
-144,775	-200,000	-0,008	0,078
-143,760	681,029	-0,052	-0,096
-142,745	234,510	0,036	-0,043
-141,731	-163,473	0,039	0,001
-140,716	-44,588	0,092	0,033
-139,702	-200,000	-0,005	0,088
-138,687	800,000	-0,056	0,122
-137,672	800,000	-0,023	0,046
-136,658	-200,000	-0,015	-0,050
-135,643	-200,000	-0,011	-0,072
-134,629	-77,206	-0,065	0,016
-133,614	-200,000	-0,000	0,090
-132,599	112,161	-0,119	0,103
-131,585	367,152	0,094	-0,135
-130,570	153,919	-0,034	0,033
-129,556	-200,000	-0,028	-0,091
-128,541	62,695	-0,048	-0,034
-127,526	313,952	0,074	-0,100
-126,512	-200,000	0,004	-0,034
-125,497	800,000	-0,033	-0,085
-124,483	333,584	-0,017	-0,024
-123,468	-180,854	0,038	0,001
-122,453	-200,000	-0,002	-0,163
-121,439	194,874	0,047	-0,051
-120,424	-200,000	-0,007	-0,033
-119,410	0,860	0,104	-0,053
-118,395	-200,000	-0,003	0,047
-117,380	-200,000	-0,001	0,081
-116,366	800,000	0,035	-0,073
-115,351	-95,424	-0,058	-0,011
-114,337	114,921	-0,089	-0,077
-113,322	382,465	0,084	-0,123
-112,307	-200,000	-0,002	0,120
-111,293	-84,578	0,042	0,009
-110,278	-187,530	0,007	0,000
-109,264	95,796	0,079	-0,064
-108,249	17,133	-0,150	-0,084
-107,234	-106,398	-0,155	-0,024
-106,220	756,891	-0,072	-0,140
-105,205	-5,532	-0,048	0,023
-104,191	-33,868	0,025	0,010
-103,176	-82,023	0,050	0,011
-102,162	-200,000	0,008	0,032
-101,147	-200,000	-0,008	-0,134
-100,132	-200,000	0,002	-0,040
-99,118	56,401	-0,095	0,065
-98,103	-200,000	-0,004	0,033
-97,089	7,509	0,201	-0,106
-96,074	5,043	0,130	-0,068
-95,059	800,000	0,053	0,119
-94,045	175,884	0,089	0,092
-93,030	-200,000	0,011	-0,051
-92,016	70,380	0,177	-0,130
-91,001	-139,740	0,052	-0,004
-89,986	-200,000	-0,003	0,066
-88,972	-130,223	-0,087	0,008
-87,957	28,228	-0,035	0,021
-86,943	800,000	-0,037	0,116
-85,928	-28,097	-0,103	-0,042
-84,913	-200,000	0,004	-0,067
-83,899	141,337	0,039	0,037
-82,884	277,323	0,103	0,130
-81,870	67,106	0,080	0,058
-80,855	134,102	0,072	-0,066
-79,840	49,132	0,065	-0,043
-78,826	-200,000	0,007	0,083
-77,811	596,911	-0,053	-0,093
-76,797	536,387	-0,049	-0,083
-75,782	800,000	0,013	-0,031
-74,767	28,378	-0,034	0,021
-73,753	-145,972	-0,120	0,007
-72,738	-164,477	-0,092	0,003
-71,724	277,838	0,027	-0,034
-70,709	-135,805	0,055	0,005
-69,694	-200,000	0,003	0,010
-68,680	-107,506	0,101	-0,016
-67,665	800,000	0,026	0,075
-66,651	140,140	0,129	0,121
-65,636	-200,000	0,012	-0,047
-64,622	134,364	-0,046	-0,043
-63,607	1,864	-0,111	0,057
-62,592	153,798	0,105	-0,102
-61,578	46,677	0,131	-0,086
-60,563	66,071	-0,066	0,047
-59,549	-66,867	-0,018	-0,005
-58,534	-18,053	-1,379	-0,610
-57,519	369,419	-1,574	-2,268
-56,505	-200,000	-0,525	-4,355
-55,490	132,002	0,810	0,740
-54,476	800,000	4,768	11,368
-53,461	-200,000	17,613	276,042
-52,446	800,000	718,324	2205,402
-51,432	557,929	1632,277	2804,235
-50,417	81,274	1656,832	1268,986
-49,403	24,145	1531,348	894,732
-48,388	18,167	1454,252	820,876
-47,373	18,414	1443,916	816,190
-46,359	18,110	1434,639	809,468
-45,344	16,468	1429,813	798,910
-44,330	16,367	1427,852	797,304
-43,315	16,428	1426,098	796,585
-42,300	16,438	1424,484	795,696
-41,286	16,462	1423,399	795,171
-40,271	16,423	1422,082	794,223
-39,257	16,381	1420,763	793,256
-38,242	16,474	1419,351	792,874
-37,227	16,483	1418,142	792,209
-36,213	16,458	1416,876	791,351
-35,198	16,387	1415,868	790,427
-34,184	16,430	1414,863	790,035
-33,169	16,368	1413,697	789,059
-32,154	16,444	1412,605	788,775
-31,140	16,444	1411,294	788,011
-30,125	16,433	1410,190	787,314
-29,111	16,430	1408,972	786,590
-28,096	16,434	1407,813	785,930
-27,082	16,359	1406,774	784,969
-26,067	16,382	1405,651	784,416
-25,052	16,404	1404,560	783,879
-24,038	16,383	1403,333	783,066
-23,023	16,393	1402,544	782,640
-22,009	16,342	1401,541	781,812
-20,994	16,303	1400,587	781,067
-19,979	16,302	1399,730	780,553
-18,965	16,324	1398,750	780,078
-17,950	16,281	1397,803	779,321
-16,936	16,280	1396,884	778,773
-15,921	16,300	1395,441	778,028
-14,906	16,260	1394,762	777,437
-13,892	16,294	1393,807	777,031
-12,877	16,240	1393,103	776,355
-11,863	16,272	1391,965	775,842
-10,848	16,249	1391,121	775,234
-9,833	16,233	1390,129	774,575
-8,819	16,232	1389,172	774,007
-7,804	16,168	1388,326	773,207
-6,790	16,172	1387,140	772,535
-5,775	16,172	1386,276	772,023
-4,760	16,154	1385,564	771,516
-3,746	16,145	1384,537	770,871
-2,731	16,161	1383,729	770,464
-1,717	16,132	1382,758	769,756
-0,702	16,161	1380,930	768,843
0,313	19,970	1302,253	742,602
1,327	36,392	707,535	441,578
2,342	55,825	125,630	86,235
3,356	3,364	16,555	8,520
4,371	-9,838	3,176	1,493
5,386	-34,502	0,516	0,200
6,400	-200,000	0,019	-0,081
7,415	506,415	-0,199	-0,328
8,429	119,022	-0,218	-0,191
9,444	-34,147	-0,235	-0,091
10,459	-140,899	-0,343	-0,025
11,473	50,380	-0,319	-0,213
12,488	213,214	-0,211	-0,236
13,502	34,132	-0,292	-0,180
14,517	41,304	-0,395	-0,253
15,531	-26,410	-0,345	-0,142
16,546	162,964	-0,280	-0,278
17,561	263,719	-0,334	-0,412
18,575	305,548	-0,142	-0,188
19,590	207,875	-0,255	-0,283
20,604	-23,595	-0,235	-0,099
21,619	286,418	-0,369	-0,473
22,634	101,808	-0,365	-0,301
23,648	30,467	-0,427	-0,258
24,663	27,897	-0,388	-0,231
25,677	75,873	-0,398	-0,297
26,692	131,968	-0,289	-0,263
27,707	-6,702	-0,325	-0,156
28,721	57,003	-0,354	-0,244
29,736	24,468	-0,421	-0,246
30,750	26,903	-0,461	-0,273
31,765	65,095	-0,373	-0,266
32,780	81,069	-0,334	-0,255
33,794	69,506	-0,291	-0,212
34,809	286,966	-0,245	-0,314
35,823	232,985	-0,326	-0,380
36,838	181,020	-0,342	-0,356
37,853	-39,027	-0,507	-0,188
38,867	31,138	-0,441	-0,267
39,882	-103,063	-0,482	-0,080
40,896	2,625	-0,361	-0,184
41,911	203,378	-0,252	-0,276
42,926	135,781	-0,199	-0,183
43,940	152,989	-0,314	-0,304
44,955	99,285	-0,354	-0,289
45,969	108,699	-0,359	-0,303
46,984	102,229	-0,418	-0,344
47,999	70,781	-0,231	-0,169
49,013	-59,748	-0,513	-0,154
50,028	116,548	-0,208	-0,181
51,042	43,854	-0,353	-0,228
52,057	134,735	-0,333	-0,305
53,071	158,017	-0,313	-0,306
54,086	41,242	-0,188	-0,120
55,101	200,144	-0,396	-0,430
56,115	55,102	-0,320	-0,218
57,130	74,040	-0,319	-0,236
58,144	55,831	-0,488	-0,333
59,159	-45,561	-0,345	-0,120
60,174	-37,642	-0,365	-0,137
61,188	88,417	-0,289	-0,226
62,203	21,100	-0,231	-0,132
63,217	128,054	-0,305	-0,273
64,232	2,247	-0,415	-0,211
65,247	184,364	-0,249	-0,261
66,261	78,592	-0,304	-0,229
67,276	-33,851	-0,469	-0,181
68,290	321,523	-0,163	-0,219
69,305	-57,037	-0,384	-0,119
70,320	-38,265	-0,454	-0,169
71,334	27,421	-0,328	-0,194
72,349	-65,077	-0,348	-0,098
73,363	80,324	-0,280	-0,213
74,378	-21,155	-0,431	-0,185
75,393	36,365	-0,276	-0,171
76,407	-11,463	-0,345	-0,159
77,422	34,220	-0,264	-0,162
78,436	-120,333	-0,210	-0,025
79,451	-97,441	-0,365	-0,066
80,466	46,951	-0,206	-0,135
81,480	65,265	-0,494	-0,352
82,495	214,587	-0,340	-0,380
83,509	5,631	-0,357	-0,185
84,524	4,496	-0,284	-0,146
85,539	139,158	-0,177	-0,164
86,553	23,846	-0,287	-0,166
87,568	35,768	-0,314	-0,194
88,582	-61,848	-0,225	-0,066
89,597	97,016	-0,303	-0,245
90,611	57,055	-0,194	-0,133
91,626	75,127	-0,257	-0,191
92,641	-12,124	-0,265	-0,122
93,655	-109,676	-0,271	-0,040
94,670	-4,507	-0,222	-0,108
95,684	-25,514	-0,405	-0,168
96,699	47,968	-0,378	-0,248
97,714	93,931	-0,232	-0,185
98,728	166,878	-0,164	-0,164
99,743	251,405	-0,205	-0,245
100,757	85,590	-0,298	-0,230
101,772	55,661	-0,286	-0,194
102,787	155,018	-0,334	-0,323
103,801	285,544	-0,207	-0,263
104,816	9,475	-0,306	-0,162
105,830	108,046	-0,225	-0,188
106,845	-143,758	-0,301	0,020
107,860	209,416	-0,204	-0,225
108,874	-115,764	-0,289	-0,038
109,889	-38,866	-0,282	-0,104
110,903	-79,918	-0,330	-0,077
111,918	145,902	-0,191	-0,179
112,933	11,580	-0,323	-0,173
113,947	51,711	-0,216	-0,144
114,962	10,319	-0,262	-0,140
115,976	451,619	-0,132	-0,205
116,991	-93,425	-0,321	-0,062
118,006	33,071	-0,229	-0,139
119,020	88,075	-0,255	-0,198
120,035	503,835	-0,140	-0,228
121,049	-56,316	-0,191	-0,059
122,064	56,916	-0,234	-0,159
123,079	303,094	-0,130	-0,169
124,093	460,865	-0,189	-0,296
125,108	124,700	-0,289	-0,255
126,122	23,825	-0,328	-0,189
127,137	187,716	-0,151	-0,159
128,151	134,561	-0,262	-0,238
129,166	-37,727	-0,177	-0,066
130,181	134,639	-0,187	-0,170
131,195	-4,487	-0,153	-0,074
132,210	7,700	-0,273	-0,143
133,224	-135,158	-0,254	-0,021
134,239	292,505	-0,168	-0,216
135,254	800,000	-0,098	-0,247
136,268	-0,722	-0,139	-0,069
137,283	11,562	-0,285	-0,153
138,297	76,708	-0,305	-0,226
139,312	85,975	-0,262	-0,202
140,327	65,936	-0,244	-0,173
141,341	248,404	-0,212	-0,252
142,356	-53,231	-0,334	-0,107
143,370	-75,437	-0,208	-0,052
144,385	284,337	-0,167	-0,211
145,400	49,035	-0,273	-0,179
146,414	51,308	-0,300	-0,199
147,429	43,265	-0,288	-0,184
148,443	93,513	-0,244	-0,194
149,458	374,430	-0,241	-0,345
150,473	88,773	-0,276	-0,215
151,487	-31,938	-0,211	-0,082
152,502	-8,666	-0,173	-0,081
153,516	-11,500	-0,205	-0,094
154,531	547,718	-0,119	-0,200
155,546	185,103	-0,250	-0,260
156,560	20,973	-0,222	-0,125
157,575	167,353	-0,201	-0,200
158,589	152,447	-0,321	-0,307
159,604	-24,978	-0,177	-0,073
160,619	2,472	-0,150	-0,076
161,633	339,022	-0,135	-0,184
162,648	203,801	-0,262	-0,283
163,662	800,000	-0,109	-0,212
164,677	75,877	-0,227	-0,168
165,692	-75,172	-0,286	-0,071
166,706	40,490	-0,238	-0,149
167,721	141,844	-0,146	-0,135
168,735	800,000	-0,133	-0,313
169,750	263,971	-0,174	-0,212
170,764	409,687	-0,132	-0,196
171,779	83,317	-0,207	-0,157
172,794	105,600	-0,093	-0,077
173,808	-17,171	-0,209	-0,092
174,823	-81,544	-0,330	-0,075
175,837	149,349	-0,259	-0,245
176,852	71,705	-0,269	-0,195
177,867	260,753	-0,188	-0,227
178,881	160,259	-0,257	-0,251
179,896	-3,837	-0,277	-0,134
180,910	247,214	-0,225	-0,265
181,925	-3,792	-0,203	-0,098
182,940	-46,685	-0,307	-0,104
183,954	-76,281	-0,286	-0,070
184,969	426,844	-0,185	-0,280
185,983	-13,746	-0,187	-0,084
186,998	-59,897	-0,322	-0,095
188,013	18,246	-0,287	-0,159
189,027	99,074	-0,235	-0,189
190,042	464,925	-0,118	-0,185
191,056	-55,081	-0,175	-0,055
192,071	-44,911	-0,210	-0,073
193,086	236,646	-0,090	-0,104
194,100	94,255	-0,246	-0,195
195,115	127,669	-0,214	-0,190
196,129	-152,547	-0,237	-0,012
197,144	378,224	-0,157	-0,225
198,159	59,113	-0,187	-0,128
199,173	645,553	-0,177	-0,316
200,188	-105,424	-0,157	-0,025
201,202	195,309	-0,134	-0,142
202,217	61,889	-0,306	-0,212
203,232	248,584	-0,184	-0,217
204,246	212,253	-0,178	-0,196
205,261	58,004	-0,215	-0,146
206,275	55,013	-0,183	-0,123
207,290	128,048	-0,180	-0,160
208,304	15,732	-0,162	-0,088
209,319	800,000	-0,109	-0,263
210,334	-133,691	-0,206	-0,018
211,348	173,837	-0,204	-0,205
212,363	37,615	-0,110	-0,068
213,377	179,418	-0,210	-0,214
214,392	8,618	-0,144	-0,075
215,407	18,165	-0,168	-0,093
216,421	-25,722	-0,187	-0,076
217,436	94,232	-0,229	-0,180
218,450	800,000	-0,091	-0,247
219,465	7,097	-0,316	-0,163
220,480	800,000	-0,047	-0,127
221,494	295,873	-0,123	-0,158
222,509	77,200	-0,154	-0,114
223,523	-112,378	-0,260	-0,036
224,538	-35,312	-0,310	-0,117
225,553	202,055	-0,140	-0,150
226,567	45,559	-0,320	-0,205
227,582	198,402	-0,137	-0,145
228,596	26,541	-0,154	-0,090
229,611	-35,488	-0,254	-0,095
230,626	242,380	-0,045	-0,052
231,640	128,326	-0,204	-0,181
232,655	336,113	-0,163	-0,221
233,669	105,665	-0,232	-0,190
234,684	152,508	-0,217	-0,206
235,699	191,413	-0,130	-0,136
236,713	277,011	-0,140	-0,174
237,728	-19,246	-0,129	-0,055
238,742	336,555	-0,087	-0,118
239,757	27,635	-0,206	-0,120
240,772	-82,174	-0,214	-0,048
241,786	800,000	-0,080	-0,193
242,801	-23,591	-0,102	-0,042
243,815	387,418	-0,123	-0,177
244,830	-15,871	-0,174	0,077
245,844	-89,643	-0,086	-0,017
246,859	329,837	-0,145	-0,194
247,874	65,714	-0,181	-0,127
248,888	57,008	-0,157	-0,106
249,903	50,152	-0,282	-0,184
250,917	-127,805	-0,197	-0,019
251,932	800,000	-0,013	-0,040
252,947	87,922	-0,073	-0,056
253,961	-200,000	-0,065	-0,273
254,976	226,622	-0,228	-0,257
255,990	800,000	-0,152	-0,343
257,005	-8,307	-0,164	-0,076
258,020	-19,559	-0,119	-0,051
259,034	185,489	-0,198	-0,204
260,049	13,115	-0,163	-0,087
261,063	-36,235	-0,272	-0,101
262,078	-200,000	-0,052	-0,286
263,093	-49,794	-0,134	-0,044
264,107	-200,000	-0,011	-0,103
265,122	378,250	-0,103	-0,146
266,136	800,000	-0,085	-0,226
267,151	162,305	-0,179	-0,174
268,166	100,163	-0,188	-0,151
269,180	55,621	-0,247	-0,165
270,195	-12,546	-0,247	-0,111
271,209	250,411	-0,163	-0,192
272,224	-29,729	-0,272	-0,107
273,239	-53,886	-0,080	-0,025
274,253	13,387	-0,249	-0,133
275,268	18,091	-0,122	-0,067
276,282	367,228	-0,207	-0,290
277,297	278,831	-0,039	-0,048
278,312	800,000	-0,068	-0,166
279,326	59,668	-0,238	-0,162
280,341	371,593	-0,130	-0,183
281,355	30,733	-0,171	-0,101
282,370	55,867	-0,245	-0,164
283,384	144,659	-0,178	-0,164
284,399	81,545	-0,152	-0,114
285,414	800,000	-0,085	-0,208
286,428	14,518	-0,221	-0,119
287,443	-123,888	-0,241	0,026
288,457	148,186	-0,140	-0,130
289,472	15,378	-0,262	-0,142
290,487	-128,536	-0,337	-0,033
291,501	175,237	-0,153	-0,154
292,516	87,654	-0,261	-0,200
293,530	546,418	-0,119	-0,197
294,545	426,934	-0,089	-0,133
295,560	-26,899	-0,177	-0,071
296,574	-158,412	-0,261	-0,010
297,589	-135,488	-0,176	-0,014
298,603	518,930	-0,149	-0,242
299,618	-99,611	-0,249	-0,043
300,633	-91,595	-0,187	-0,037
301,647	-200,000	-0,040	-0,178
302,662	13,732	-0,189	-0,101
303,676	-74,220	-0,202	0,050
304,691	119,090	-0,278	-0,237
305,706	-200,000	-0,034	-0,156
306,720	-200,000	-0,030	-0,171
307,735	-200,000	-0,016	-0,089
308,749	124,907	-0,225	-0,195
309,764	800,000	-0,111	-0,241
310,779	-108,054	-0,096	-0,014
311,793	-44,867	-0,179	-0,061
312,808	99,289	-0,239	-0,190
313,822	-168,540	-0,178	-0,005
314,837	-141,034	-0,130	-0,009
315,852	-5,579	-0,078	-0,037
316,866	84,414	-0,077	0,058
317,881	-48,730	-0,179	-0,059
318,895	-95,731	-0,364	-0,066
319,910	-41,310	-0,145	-0,051
320,925	396,479	-0,225	-0,326
321,939	766,750	-0,117	-0,221
322,954	53,133	-0,168	-0,110
323,968	-71,291	-0,124	-0,032
324,983	449,380	-0,056	-0,086
325,997	-181,606	-0,120	-0,002
327,012	-71,925	-0,161	-0,041
328,027	355,069	-0,144	-0,198
329,041	-77,001	-0,114	-0,027
330,056	-16,403	-0,217	-0,095
331,070	-155,893	0,038	-0,002
332,085	135,374	-0,027	0,024
333,100	46,378	-0,161	-0,103
334,114	-111,839	-0,137	0,019
335,129	-14,301	-0,178	0,079
336,143	473,531	-0,073	-0,114
337,158	104,680	-0,130	-0,106
338,173	15,934	-0,102	-0,055
339,187	97,114	-0,085	-0,067
340,202	-109,841	-0,059	-0,008
341,216	213,868	-0,145	-0,158
342,231	330,241	-0,060	-0,079
343,246	41,498	-0,169	-0,105
344,260	90,747	-0,126	-0,097
345,275	-200,000	-0,018	-0,156
346,289	6,208	-0,204	-0,104
347,304	-27,626	-0,175	-0,070
348,319	-117,399	-0,141	-0,017
349,333	3,165	-0,205	-0,102
350,348	63,182	-0,196	-0,135
351,362	800,000	-0,114	-0,240
352,377	-34,637	-0,180	-0,067
353,392	40,416	-0,118	-0,073
354,406	9,151	0,034	0,018
355,421	209,812	1314,206	1418,683
356,435	161,504	1474,888	1419,226
