DTS Sentinel unit serial number:	SN410029Multiplexer serial number:	ORYXHardware model number:	OX2-SRSoftware version number:	ORYX F/W v4,00 Oryx Data Collector v3.7.2.0data status	okinstallation	B3 Nyhavnadifferential loss correction	single-endedforward channel	channel 1reverse channel	N/Adate	2023/12/02time	07:42:30forward acquisition time	300,00reverse acquisition time	0,00gamma	499,1914k internal	0,3195k external	0,3195temperature offset calibration	1,0000default loss term (dB/km)	0,3820temperature slope calibration	1,0000multiplexer offset coefficient	1,0000multiplexer slope coefficient	1,0000fibre end	0,00T internal ref (°C)	15,61T ext. ref 1 (°C)	0,37T ext. ref 2 (°C)	0,36length (m)	temperature (°C)	Stokes	anti-Stokes-744,400	98,776	-0,144	-0,121
-743,385	-200,000	0,062	0,297
-742,371	-35,779	-0,257	-0,101
-741,356	800,000	0,117	0,312
-740,342	300,808	-0,239	-0,322
-739,327	187,090	0,224	0,244
-738,312	131,173	-0,231	-0,216
-737,298	-200,000	0,013	0,364
-736,283	587,016	-0,038	-0,069
-735,269	-200,000	0,066	0,262
-734,254	800,000	-0,076	-0,192
-733,239	800,000	-0,076	0,235
-732,225	94,323	-0,208	-0,172
-731,210	-200,000	0,029	0,214
-730,196	-36,383	0,029	-0,011
-729,181	317,583	0,046	-0,063
-728,167	311,147	-0,080	0,109
-727,152	28,445	0,061	0,038
-726,137	391,650	0,001	0,001
-725,123	-91,093	-0,052	0,011
-724,108	-189,203	-0,186	-0,002
-723,094	132,638	-0,155	-0,145
-722,079	21,939	-0,058	-0,034
-721,064	-120,711	-0,060	0,007
-720,050	-200,000	0,003	-0,033
-719,035	-5,505	0,097	-0,048
-718,021	158,331	0,119	-0,121
-717,006	187,379	-0,028	0,031
-715,991	128,200	-0,053	0,049
-714,977	-101,455	0,077	0,013
-713,962	-110,083	-0,051	-0,008
-712,948	32,757	0,117	-0,073
-711,933	202,468	-0,054	0,061
-710,918	122,452	0,013	-0,012
-709,904	52,581	-0,203	-0,141
-708,889	-7,808	-0,097	-0,047
-707,875	201,219	0,076	0,085
-706,860	32,716	-0,189	-0,119
-705,845	-200,000	-0,004	-0,104
-704,831	-200,000	0,007	-0,046
-703,816	-74,735	0,007	0,002
-702,802	-124,352	0,083	-0,009
-701,787	-32,244	-0,066	0,027
-700,772	-76,148	-0,027	-0,007
-699,758	120,995	-0,110	-0,100
-698,743	-116,252	0,031	-0,004
-697,729	754,525	0,035	0,068
-696,714	-159,110	0,125	0,005
-695,699	73,956	-0,059	-0,045
-694,685	198,442	0,056	-0,062
-693,670	32,581	0,061	-0,038
-692,656	-200,000	0,003	0,037
-691,641	800,000	0,033	-0,093
-690,627	800,000	-0,040	0,104
-689,612	-200,000	-0,039	0,000
-688,597	-200,000	-0,035	0,114
-687,583	591,256	-0,049	0,088
-686,568	-136,025	-0,060	-0,005
-685,554	43,296	-0,032	-0,021
-684,539	-47,193	0,048	0,017
-683,524	571,320	0,025	0,044
-682,510	-200,000	0,000	0,094
-681,495	-116,751	-0,134	0,018
-680,481	800,000	-0,051	-0,114
-679,466	-200,000	0,007	-0,075
-678,451	-92,452	-0,141	-0,029
-677,437	51,969	0,078	0,054
-676,422	101,461	0,095	0,081
-675,408	247,470	-0,095	0,117
-674,393	-48,893	-0,211	0,073
-673,378	800,000	-0,042	-0,123
-672,364	-200,000	0,006	-0,105
-671,349	-200,000	-0,007	-0,120
-670,335	136,365	0,103	0,097
-669,320	257,938	0,058	0,073
-668,305	-200,000	0,019	-0,095
-667,291	-9,553	-0,042	0,020
-666,276	-48,405	-0,161	-0,056
-665,262	-67,163	-0,100	-0,028
-664,247	-131,894	-0,173	-0,016
-663,232	800,000	0,046	-0,097
-662,218	320,197	0,105	0,145
-661,203	-200,000	0,008	0,116
-660,189	800,000	0,032	0,071
-659,174	-200,000	0,007	-0,049
-658,159	131,639	-0,093	-0,087
-657,145	-112,150	-0,142	-0,021
-656,130	-82,879	0,051	0,012
-655,116	56,954	-0,046	0,033
-654,101	-25,947	-0,081	0,035
-653,086	-200,000	0,004	-0,028
-652,072	800,000	-0,010	0,027
-651,057	217,045	0,139	-0,161
-650,043	695,548	-0,025	-0,047
-649,028	-56,994	-0,070	-0,022
-648,014	-200,000	0,023	0,129
-646,999	-200,000	-0,007	0,090
-645,984	39,975	-0,094	-0,061
-644,970	101,697	-0,081	0,068
-643,955	423,683	-0,046	-0,072
-642,941	-200,000	-0,013	-0,163
-641,926	-65,488	0,097	0,028
-640,911	-55,587	0,158	0,051
-639,897	-200,000	-0,006	0,024
-638,882	43,277	-0,060	-0,039
-637,868	-200,000	0,012	-0,112
-636,853	-88,183	-0,051	-0,011
-635,838	135,862	-0,023	-0,022
-634,824	535,879	-0,059	-0,103
-633,809	-200,000	0,007	-0,115
-632,795	-200,000	-0,005	-0,033
-631,780	-200,000	0,015	-0,208
-630,765	-76,542	-0,174	0,044
-629,751	800,000	0,051	-0,119
-628,736	319,561	0,019	0,026
-627,722	-200,000	0,014	0,148
-626,707	-200,000	0,012	0,123
-625,692	-31,797	-0,108	-0,044
-624,678	-87,841	0,122	-0,027
-623,663	-130,586	-0,074	0,007
-622,649	-200,000	0,016	-0,084
-621,634	188,222	-0,078	-0,084
-620,619	458,180	-0,042	-0,068
-619,605	-200,000	0,009	0,037
-618,590	800,000	-0,015	-0,036
-617,576	125,033	0,090	0,082
-616,561	-200,000	0,011	0,036
-615,546	124,125	-0,070	-0,064
-614,532	20,118	-0,115	0,067
-613,517	-98,500	0,077	-0,014
-612,503	337,411	0,074	0,104
-611,488	-110,482	-0,116	-0,017
-610,474	-2,508	0,048	0,024
-609,459	35,410	0,089	0,057
-608,444	650,144	-0,014	0,026
-607,430	800,000	-0,049	-0,132
-606,415	401,469	0,023	0,034
-605,401	-200,000	-0,005	0,053
-604,386	800,000	-0,044	-0,125
-603,371	800,000	0,036	-0,095
-602,357	89,901	0,081	0,066
-601,342	38,561	-0,097	-0,063
-600,328	-105,314	-0,131	-0,021
-599,313	189,874	-0,028	0,031
-598,298	19,415	0,137	-0,079
-597,284	-81,302	-0,051	0,012
-596,269	651,948	0,055	0,102
-595,255	-200,000	0,004	0,052
-594,240	-135,427	-0,063	-0,005
-593,225	638,795	0,077	-0,143
-592,211	800,000	0,030	0,084
-591,196	245,114	0,094	-0,115
-590,182	55,339	0,047	-0,033
-589,167	96,308	-0,053	-0,044
-588,152	151,081	0,039	0,038
-587,138	-114,858	0,137	-0,019
-586,123	-200,000	-0,027	-0,113
-585,109	-200,000	-0,015	0,056
-584,094	-200,000	0,016	-0,120
-583,079	290,157	0,038	0,050
-582,065	-200,000	0,020	-0,175
-581,050	252,838	0,095	0,118
-580,036	55,389	0,032	-0,022
-579,021	-200,000	0,004	-0,192
-578,006	-102,671	-0,118	0,020
-576,992	285,508	-0,041	0,054
-575,977	385,724	0,061	-0,091
-574,963	-148,170	-0,040	0,002
-573,948	-200,000	0,001	-0,046
-572,934	347,522	0,068	-0,097
-571,919	-66,275	-0,118	0,034
-570,904	137,201	0,045	-0,042
-569,890	-99,996	0,052	-0,009
-568,875	-200,000	-0,017	0,066
-567,861	-121,919	-0,034	-0,004
-566,846	-200,000	-0,002	0,145
-565,831	544,353	-0,069	0,119
-564,817	72,205	-0,017	0,013
-563,802	-200,000	0,003	-0,016
-562,788	216,087	-0,093	0,107
-561,773	-78,765	0,062	0,015
-560,758	327,900	-0,098	-0,136
-559,744	619,461	0,016	-0,029
-558,729	-200,000	-0,016	0,123
-557,715	717,056	-0,050	-0,096
-556,700	-92,946	-0,064	0,013
-555,685	607,902	-0,086	-0,156
-554,671	-200,000	-0,021	-0,086
-553,656	441,452	-0,035	0,055
-552,642	-168,862	0,076	0,002
-551,627	286,404	0,118	0,154
-550,612	-108,952	-0,117	0,018
-549,598	164,160	-0,061	-0,062
-548,583	709,473	0,094	-0,180
-547,569	-200,000	0,017	-0,200
-546,554	-200,000	0,011	-0,060
-545,539	67,431	-0,064	0,047
-544,525	-154,556	0,021	-0,001
-543,510	-79,353	0,113	0,027
-542,496	-53,376	-0,175	0,058
-541,481	-94,489	-0,073	0,014
-540,466	-200,000	-0,024	-0,113
-539,452	-121,470	-0,031	-0,004
-538,437	-99,076	-0,033	0,006
-537,423	2,152	0,114	0,059
-536,408	146,578	-0,072	0,070
-535,393	-20,527	0,058	-0,026
-534,379	-200,000	0,003	-0,137
-533,364	-9,479	-0,146	0,070
-532,350	380,184	-0,036	-0,054
-531,335	-200,000	0,007	0,209
-530,321	684,136	0,030	0,057
-529,306	800,000	-0,019	-0,061
-528,291	153,813	-0,060	0,060
-527,277	76,575	-0,055	-0,042
-526,262	800,000	0,025	0,052
-525,248	458,727	-0,084	-0,136
-524,233	800,000	0,032	0,066
-523,218	-14,008	-0,076	0,035
-522,204	-103,278	-0,075	0,013
-521,189	-200,000	-0,022	0,106
-520,175	89,190	0,046	-0,037
-519,160	-149,999	0,153	-0,008
-518,145	800,000	-0,020	0,058
-517,131	-125,253	0,209	-0,023
-516,116	-144,154	-0,020	-0,001
-515,102	26,268	-0,111	-0,067
-514,087	-141,579	-0,057	-0,004
-513,072	-57,863	-0,037	-0,012
-512,058	800,000	0,036	-0,089
-511,043	303,891	0,044	-0,060
-510,029	117,125	0,082	-0,073
-509,014	163,136	0,035	-0,035
-507,999	221,697	0,058	0,068
-506,985	-16,642	0,107	-0,049
-505,970	-143,904	-0,143	0,010
-504,956	559,322	-0,032	0,055
-503,941	-143,295	0,038	-0,003
-502,926	24,218	0,110	0,065
-501,912	-84,507	0,085	0,019
-500,897	-200,000	0,047	0,187
-499,883	492,143	-0,046	0,077
-498,868	-200,000	-0,033	-0,128
-497,853	800,000	0,041	0,086
-496,839	124,285	-0,085	-0,077
-495,824	44,596	0,048	0,032
-494,810	151,564	0,073	0,072
-493,795	-104,394	0,119	0,020
-492,781	38,556	-0,128	-0,082
-491,766	-200,000	-0,010	-0,042
-490,751	-200,000	0,012	-0,159
-489,737	-200,000	-0,016	-0,150
-488,722	292,231	0,077	0,101
-487,708	-200,000	0,013	0,064
-486,693	34,936	0,068	0,043
-485,678	-192,446	-0,036	-0,000
-484,664	-200,000	0,006	0,071
-483,649	-146,496	0,040	0,002
-482,635	117,441	0,067	0,060
-481,620	543,181	0,082	0,141
-480,605	800,000	-0,089	0,199
-479,591	230,088	0,060	0,071
-478,576	-82,215	0,070	-0,016
-477,562	651,441	-0,018	-0,033
-476,547	611,312	-0,073	0,133
-475,532	800,000	0,043	0,095
-474,518	778,686	0,077	-0,152
-473,503	296,710	0,107	-0,142
-472,489	800,000	-0,033	-0,078
-471,474	1,558	0,067	0,035
-470,459	-6,371	-0,078	-0,038
-469,445	-200,000	-0,001	0,047
-468,430	-119,478	-0,092	-0,011
-467,416	-151,960	-0,063	-0,003
-466,401	-88,421	0,051	-0,011
-465,386	-200,000	-0,023	0,074
-464,372	-200,000	0,000	0,036
-463,357	-23,229	-0,063	0,027
-462,343	-200,000	0,010	-0,046
-461,328	27,099	0,039	-0,023
-460,313	-200,000	0,019	0,092
-459,299	800,000	-0,067	0,196
-458,284	388,196	-0,080	0,120
-457,270	488,035	-0,157	0,259
-456,255	427,645	-0,037	0,058
-455,241	800,000	0,007	-0,020
-454,226	-200,000	0,002	-0,060
-453,211	-76,580	-0,049	-0,012
-452,197	525,030	0,086	0,147
-451,182	-18,794	-0,093	-0,042
-450,168	60,133	0,085	0,060
-449,153	800,000	-0,037	0,083
-448,138	-200,000	-0,012	-0,181
-447,124	-200,000	0,004	-0,031
-446,109	-173,754	-0,209	-0,004
-445,095	-27,715	0,087	-0,036
-444,080	88,145	0,031	-0,024
-443,065	-128,760	0,120	-0,012
-442,051	681,315	-0,052	0,098
-441,036	-200,000	-0,001	-0,045
-440,022	70,003	-0,008	0,006
-439,007	-168,917	-0,176	-0,005
-437,992	-41,042	0,206	-0,076
-436,978	161,569	-0,065	0,065
-435,963	-5,040	-0,093	-0,046
-434,949	220,014	-0,104	-0,120
-433,934	-175,146	-0,058	0,001
-432,919	-148,231	-0,061	0,004
-431,905	-80,819	-0,167	0,040
-430,890	449,594	0,035	0,056
-429,876	273,905	0,027	0,034
-428,861	-200,000	-0,001	0,020
-427,846	70,608	0,025	-0,019
-426,832	-200,000	0,007	-0,031
-425,817	-112,227	-0,109	-0,016
-424,803	519,238	-0,063	-0,107
-423,788	800,000	0,041	-0,097
-422,773	-102,107	0,097	0,017
-421,759	800,000	0,030	0,064
-420,744	-160,898	0,163	-0,006
-419,730	473,508	-0,015	-0,025
-418,715	121,300	-0,095	-0,085
-417,701	-12,050	0,129	-0,060
-416,686	-70,546	0,150	0,041
-415,671	124,321	0,093	-0,084
-414,657	-200,000	-0,002	-0,128
-413,642	800,000	-0,036	0,074
-412,628	64,258	0,080	-0,058
-411,613	-27,283	0,030	-0,012
-410,598	92,252	0,094	-0,076
-409,584	-17,745	-0,076	0,034
-408,569	-143,621	0,103	-0,007
-407,555	-43,029	-0,127	-0,046
-406,540	242,185	0,089	0,108
-405,525	-90,527	-0,115	-0,024
-404,511	323,671	-0,093	0,128
-403,496	354,173	0,029	0,041
-402,482	213,421	0,043	-0,049
-401,467	249,732	0,075	-0,092
-400,452	-134,484	-0,122	0,011
-399,438	-173,417	0,104	0,002
-398,423	800,000	0,026	0,053
-397,409	-47,983	-0,044	0,015
-396,394	598,314	-0,023	-0,041
-395,379	58,772	0,063	0,045
-394,365	-200,000	-0,007	-0,064
-393,350	51,836	0,093	-0,063
-392,336	329,267	0,087	-0,121
-391,321	-200,000	0,001	-0,104
-390,306	-151,695	0,033	0,002
-389,292	-176,033	-0,073	-0,001
-388,277	-42,108	-0,061	0,022
-387,263	800,000	0,025	0,078
-386,248	303,553	0,054	-0,073
-385,233	-200,000	0,010	-0,097
-384,219	800,000	-0,048	0,149
-383,204	-200,000	0,006	0,096
-382,190	-77,349	-0,089	-0,022
-381,175	739,045	-0,028	0,054
-380,160	157,983	0,042	0,042
-379,146	-41,869	0,117	-0,043
-378,131	305,058	0,080	-0,106
-377,117	-200,000	-0,009	0,078
-376,102	800,000	0,039	-0,097
-375,088	800,000	-0,074	-0,195
-374,073	508,500	0,067	-0,112
-373,058	267,538	0,042	-0,053
-372,044	576,561	0,040	0,070
-371,029	-87,741	0,107	0,023
-370,015	-195,627	-0,103	0,001
-369,000	-200,000	-0,014	0,118
-367,985	35,427	0,041	0,026
-366,971	-12,493	-0,163	0,076
-365,956	39,461	0,072	0,046
-364,942	53,529	0,104	-0,072
-363,927	731,243	0,049	0,095
-362,912	-10,733	0,169	-0,080
-361,898	-200,000	0,006	0,097
-360,883	-200,000	0,021	-0,187
-359,869	295,042	-0,088	-0,116
-358,854	-200,000	-0,002	-0,038
-357,839	-92,478	0,043	0,009
-356,825	-115,633	0,122	0,016
-355,810	-85,347	0,086	0,019
-354,796	-1,340	-0,049	-0,025
-353,781	-200,000	0,010	-0,123
-352,766	-85,678	-0,013	0,003
-351,752	-152,324	0,040	0,002
-350,737	-200,000	0,003	0,053
-349,723	411,276	0,091	0,140
-348,708	800,000	0,017	0,048
-347,693	122,587	0,075	0,067
-346,679	-153,932	-0,093	-0,004
-345,664	97,759	-0,112	0,092
-344,650	-72,095	0,140	0,037
-343,635	-36,402	-0,125	0,048
-342,620	-100,949	0,151	0,026
-341,606	-124,236	-0,122	-0,014
-340,591	112,037	0,005	0,004
-339,577	-163,751	-0,095	-0,003
-338,562	239,343	-0,116	-0,139
-337,548	22,112	0,127	0,074
-336,533	-200,000	0,041	0,140
-335,518	638,708	-0,011	-0,021
-334,504	416,573	0,057	0,087
-333,489	800,000	-0,064	0,141
-332,475	800,000	0,036	-0,083
-331,460	800,000	-0,048	-0,125
-330,445	-138,294	-0,089	0,007
-329,431	-119,721	-0,116	0,014
-328,416	800,000	-0,009	-0,022
-327,402	-128,326	0,016	0,002
-326,387	734,289	0,068	0,130
-325,372	800,000	-0,012	0,031
-324,358	800,000	0,046	-0,144
-323,343	800,000	-0,053	0,156
-322,329	164,749	-0,045	-0,045
-321,314	54,056	-0,063	-0,043
-320,299	291,272	0,095	0,124
-319,285	186,187	0,070	-0,075
-318,270	215,757	-0,130	-0,149
-317,256	55,131	-0,029	-0,020
-316,241	431,636	-0,015	-0,024
-315,226	170,744	-0,035	0,036
-314,212	-200,000	-0,004	-0,075
-313,197	68,879	-0,058	0,043
-312,183	800,000	0,035	0,076
-311,168	800,000	-0,023	-0,051
-310,153	659,414	0,006	0,012
-309,139	195,565	0,098	-0,107
-308,124	-200,000	-0,009	0,054
-307,110	-200,000	-0,003	-0,009
-306,095	228,431	0,014	-0,016
-305,080	-38,885	0,029	0,011
-304,066	234,451	-0,053	0,063
-303,051	-200,000	0,011	-0,103
-302,037	-52,700	0,114	-0,037
-301,022	800,000	0,055	0,163
-300,008	-200,000	-0,035	0,126
-298,993	741,923	-0,067	0,129
-297,978	-200,000	0,026	-0,111
-296,964	-60,182	0,064	-0,020
-295,949	194,554	-0,052	-0,057
-294,935	-94,161	0,082	-0,016
-293,920	-110,988	-0,029	0,004
-292,905	-87,513	0,087	-0,019
-291,891	-200,000	0,020	0,075
-290,876	800,000	0,033	-0,086
-289,862	-200,000	0,009	0,081
-288,847	-200,000	-0,011	-0,054
-287,832	622,464	0,066	-0,120
-286,818	379,956	-0,066	0,098
-285,803	-50,985	0,222	0,074
-284,789	800,000	0,026	0,072
-283,774	682,226	0,055	0,104
-282,759	-200,000	0,005	-0,086
-281,745	192,425	-0,121	-0,131
-280,730	-134,157	-0,044	-0,004
-279,716	-135,559	-0,097	0,008
-278,701	6,997	-0,076	0,040
-277,686	-200,000	-0,009	0,032
-276,672	88,232	0,109	0,087
-275,657	-200,000	-0,024	-0,134
-274,643	0,746	-0,100	-0,051
-273,628	0,070	-0,142	0,072
-272,613	660,452	-0,063	-0,116
-271,599	111,891	0,075	0,065
-270,584	372,843	0,071	0,104
-269,570	173,781	0,048	-0,049
-268,555	-144,373	0,088	-0,006
-267,540	-95,788	-0,086	0,016
-266,526	71,833	0,090	0,067
-265,511	57,838	-0,068	-0,047
-264,497	67,960	0,071	0,052
-263,482	210,488	0,028	-0,032
-262,467	-200,000	0,016	-0,081
-261,453	-200,000	0,032	-0,153
-260,438	-200,000	0,016	-0,151
-259,424	215,697	-0,040	-0,046
-258,409	4,784	-0,123	-0,064
-257,395	-200,000	-0,027	0,112
-256,380	-44,441	0,032	0,012
-255,365	14,970	-0,075	0,042
-254,351	270,259	-0,073	0,092
-253,336	-200,000	0,002	0,033
-252,322	168,913	-0,085	0,087
-251,307	-200,000	-0,017	0,130
-250,292	447,189	0,038	0,060
-249,278	-200,000	0,055	0,220
-248,263	17,798	0,098	0,056
-247,249	-19,022	-0,085	0,038
-246,234	800,000	0,037	0,075
-245,219	-200,000	-0,012	-0,058
-244,205	-200,000	-0,018	-0,096
-243,190	-86,583	-0,175	0,038
-242,176	293,169	0,079	-0,103
-241,161	172,725	0,112	0,115
-240,146	-6,830	0,158	0,076
-239,132	-75,572	0,080	-0,020
-238,117	246,679	-0,037	-0,045
-237,103	-200,000	-0,016	-0,163
-236,088	800,000	-0,044	-0,115
-235,073	-97,406	0,055	-0,010
-234,059	-200,000	-0,016	0,056
-233,044	-200,000	-0,029	0,106
-232,030	-200,000	0,002	-0,027
-231,015	800,000	-0,016	0,042
-230,000	-76,355	-0,071	-0,018
-228,986	-61,453	-0,092	-0,028
-227,971	254,368	0,023	-0,028
-226,957	-141,935	0,204	-0,014
-225,942	-151,798	0,075	0,004
-224,927	419,143	-0,109	0,167
-223,913	800,000	-0,004	-0,010
-222,898	-200,000	-0,007	0,027
-221,884	-200,000	-0,027	0,144
-220,869	272,325	0,011	-0,014
-219,855	-44,491	-0,070	0,025
-218,840	263,926	0,067	0,083
-217,825	157,208	0,049	0,048
-216,811	-200,000	0,017	-0,075
-215,796	-46,086	-0,118	0,041
-214,782	-27,042	-0,097	-0,040
-213,767	118,983	0,013	-0,011
-212,752	-200,000	-0,013	0,128
-211,738	39,401	0,104	0,067
-210,723	-47,479	-0,053	-0,018
-209,709	273,195	-0,056	-0,071
-208,694	800,000	-0,016	0,045
-207,679	-183,888	-0,149	-0,002
-206,665	263,175	0,079	0,098
-205,650	-200,000	-0,001	0,097
-204,636	-86,675	0,105	-0,023
-203,621	12,402	0,050	0,027
-202,606	800,000	-0,018	0,048
-201,592	367,113	0,036	-0,052
-200,577	299,154	0,093	-0,122
-199,563	800,000	-0,020	-0,045
-198,548	-97,220	0,049	-0,009
-197,533	800,000	0,037	0,115
-196,519	-113,821	0,089	-0,012
-195,504	-154,214	-0,105	0,005
-194,490	69,675	-0,098	-0,072
-193,475	186,279	-0,052	0,055
-192,460	28,766	-0,058	0,035
-191,446	736,628	0,074	0,143
-190,431	-164,911	-0,071	-0,002
-189,417	151,391	0,073	0,071
-188,402	800,000	-0,034	0,089
-187,387	-137,401	-0,041	-0,003
-186,373	-200,000	-0,020	-0,168
-185,358	800,000	0,048	-0,148
-184,344	-26,928	0,117	-0,048
-183,329	-55,438	-0,119	-0,038
-182,315	-21,949	0,100	-0,043
-181,300	-200,000	0,030	0,149
-180,285	-34,030	-0,171	-0,067
-179,271	-200,000	0,020	-0,128
-178,256	257,255	-0,054	-0,066
-177,242	218,615	0,033	-0,038
-176,227	-35,775	0,072	-0,028
-175,212	258,905	-0,010	0,012
-174,198	-200,000	0,003	-0,073
-173,183	-51,744	-0,026	0,009
-172,169	-22,455	0,027	0,012
-171,154	-67,271	-0,112	-0,031
-170,139	-83,667	-0,101	-0,023
-169,125	404,274	-0,040	0,060
-168,110	-70,544	-0,053	0,014
-167,096	120,458	-0,086	0,076
-166,081	-89,422	0,099	0,021
-165,066	800,000	0,038	-0,088
-164,052	-200,000	-0,034	0,124
-163,037	-94,566	0,051	-0,010
-162,023	71,765	-0,032	0,024
-161,008	176,794	0,099	-0,103
-159,993	-200,000	0,024	0,149
-158,979	800,000	-0,066	-0,141
-157,964	-44,526	-0,126	-0,045
-156,950	-200,000	-0,017	-0,066
-155,935	-200,000	-0,010	0,066
-154,920	-37,354	0,066	0,025
-153,906	575,393	0,013	0,023
-152,891	-78,677	0,046	0,011
-151,877	196,363	-0,062	0,067
-150,862	118,171	0,021	0,018
-149,847	187,945	-0,020	-0,021
-148,833	-27,554	0,089	-0,037
-147,818	417,104	0,082	0,125
-146,804	183,212	0,053	0,055
-145,789	151,833	-0,112	0,108
-144,775	800,000	0,015	-0,044
-143,760	-64,748	-0,159	-0,046
-142,745	424,290	-0,048	0,074
-141,731	189,310	-0,035	0,038
-140,716	-200,000	-0,007	0,084
-139,702	166,483	0,089	0,090
-138,687	43,083	0,039	-0,025
-137,672	-192,450	-0,058	0,000
-136,658	800,000	0,006	-0,013
-135,643	800,000	0,009	0,024
-134,629	800,000	-0,024	0,047
-133,614	-47,815	0,026	0,009
-132,599	460,264	-0,029	-0,046
-131,585	-184,550	-0,091	0,001
-130,570	-200,000	-0,008	0,160
-129,556	800,000	0,076	0,158
-128,541	-185,634	-0,143	0,001
-127,526	36,017	-0,024	-0,015
-126,512	146,815	-0,064	-0,061
-125,497	-200,000	0,011	-0,046
-124,483	101,452	-0,096	0,080
-123,468	-72,596	0,131	-0,034
-122,453	182,511	-0,089	-0,094
-121,439	-120,393	-0,051	0,006
-120,424	-200,000	-0,007	0,090
-119,410	-200,000	-0,005	0,208
-118,395	-15,732	0,027	-0,012
-117,380	64,803	0,244	0,175
-116,366	800,000	0,049	0,119
-115,351	-32,646	-0,165	-0,065
-114,337	800,000	-0,045	0,139
-113,322	800,000	0,040	-0,090
-112,307	80,188	-0,082	-0,063
-111,293	800,000	-0,010	0,031
-110,278	289,671	0,120	0,156
-109,264	-112,329	-0,151	0,021
-108,249	-11,285	-0,052	-0,024
-107,234	72,162	0,109	-0,081
-106,220	800,000	0,028	0,067
-105,205	182,861	0,088	0,092
-104,191	-65,172	0,102	-0,029
-103,176	800,000	0,023	0,046
-102,162	-200,000	-0,028	0,166
-101,147	10,997	-0,098	-0,053
-100,132	323,979	-0,130	-0,177
-99,118	46,306	-0,065	-0,042
-98,103	41,367	-0,059	0,038
-97,089	-200,000	0,001	0,106
-96,074	50,843	0,108	-0,073
-95,059	-61,866	0,126	0,037
-94,045	800,000	0,011	-0,030
-93,030	248,370	-0,113	-0,136
-92,016	800,000	-0,044	-0,090
-91,001	-200,000	0,020	0,117
-89,986	-200,000	0,022	0,092
-88,972	404,349	0,062	-0,092
-87,957	307,829	-0,019	-0,026
-86,943	438,451	0,050	-0,078
-85,928	523,852	-0,062	0,103
-84,913	4,246	-0,074	0,039
-83,899	800,000	0,020	-0,049
-82,884	800,000	0,031	0,085
-81,870	152,626	0,071	0,069
-80,855	599,215	0,049	0,087
-79,840	-139,918	-0,115	0,009
-78,826	-200,000	0,009	0,038
-77,811	-89,199	0,060	-0,012
-76,797	-140,555	-0,112	0,008
-75,782	-82,967	0,135	-0,031
-74,767	-200,000	-0,005	0,142
-73,753	-200,000	-0,014	0,046
-72,738	-200,000	-0,001	-0,034
-71,724	-65,579	-0,246	-0,070
-70,709	177,444	-0,065	-0,067
-69,694	-70,673	0,080	0,021
-68,680	-145,561	-0,028	0,002
-67,665	-31,329	-0,097	0,039
-66,651	174,821	-0,062	0,063
-65,636	-129,049	-0,085	-0,008
-64,622	253,704	0,095	-0,115
-63,607	-131,768	-0,165	-0,015
-62,592	-200,000	-0,000	-0,148
-61,578	-200,000	0,012	-0,038
-60,563	409,522	0,023	0,034
-59,549	131,209	0,012	-0,011
-58,534	-83,190	-1,617	-0,366
-57,519	298,992	-1,678	-2,196
-56,505	-200,000	-0,447	-4,619
-55,490	72,400	1,002	0,740
-54,476	800,000	4,739	11,086
-53,461	-200,000	18,001	285,468
-52,446	800,000	723,476	2230,335
-51,432	561,880	1638,475	2822,146
-50,417	80,368	1661,468	1267,615
-49,403	23,488	1535,180	893,402
-48,388	17,433	1458,757	819,641
-47,373	18,122	1448,280	817,040
-46,359	17,678	1439,017	809,658
-45,344	15,774	1434,131	797,802
-44,330	15,651	1432,187	796,104
-43,315	15,707	1430,611	795,460
-42,300	15,665	1429,020	794,345
-41,286	15,714	1427,742	793,838
-40,271	15,689	1426,510	793,002
-39,257	15,652	1425,315	792,128
-38,242	15,728	1424,040	791,749
-37,227	15,739	1422,698	791,025
-36,213	15,758	1421,368	790,345
-35,198	15,731	1420,302	789,592
-34,184	15,747	1419,320	789,089
-33,169	15,666	1418,058	787,975
-32,154	15,705	1417,283	787,696
-31,140	15,686	1415,858	786,783
-30,125	15,763	1414,558	786,392
-29,111	15,749	1413,431	785,671
-28,096	15,661	1412,448	784,680
-27,082	15,631	1411,471	783,965
-26,067	15,628	1410,240	783,237
-25,052	15,654	1409,040	782,658
-24,038	15,634	1408,118	782,023
-23,023	15,632	1406,982	781,351
-22,009	15,609	1406,126	780,738
-20,994	15,570	1405,256	780,040
-19,979	15,582	1404,256	779,509
-18,965	15,564	1403,379	778,911
-17,950	15,572	1402,417	778,383
-16,936	15,622	1401,231	777,924
-15,921	15,525	1400,150	776,843
-14,906	15,514	1399,299	776,286
-13,892	15,541	1398,164	775,754
-12,877	15,521	1397,428	775,223
-11,863	15,503	1396,603	774,648
-10,848	15,523	1395,748	774,236
-9,833	15,534	1394,629	773,636
-8,819	15,463	1393,710	772,770
-7,804	15,439	1392,819	772,133
-6,790	15,446	1391,722	771,526
-5,775	15,469	1390,764	771,072
-4,760	15,459	1389,856	770,489
-3,746	15,427	1389,190	769,941
-2,731	15,463	1388,259	769,564
-1,717	15,414	1387,508	768,888
-0,702	15,425	1385,323	767,700
0,313	19,079	1305,663	740,492
1,327	35,207	706,979	438,388
2,342	54,179	124,929	85,080
3,356	6,628	16,475	8,657
4,371	2,197	3,153	1,610
5,386	4,527	0,449	0,233
6,400	-200,000	0,001	0,085
7,415	480,367	-0,203	-0,327
8,429	-1,278	-0,299	-0,149
9,444	114,806	-0,333	-0,288
10,459	58,948	-0,326	-0,227
11,473	-41,770	-0,347	-0,125
12,488	-75,838	-0,325	-0,081
13,502	42,655	-0,323	-0,208
14,517	117,452	-0,315	-0,274
15,531	-71,368	-0,469	-0,123
16,546	173,530	-0,247	-0,253
17,561	88,154	-0,324	-0,254
18,575	190,203	-0,168	-0,179
19,590	48,866	-0,232	-0,154
20,604	28,978	-0,236	-0,142
21,619	97,399	-0,327	-0,266
22,634	38,254	-0,424	-0,266
23,648	168,702	-0,400	-0,403
24,663	-31,418	-0,329	-0,130
25,677	207,996	-0,291	-0,322
26,692	56,236	-0,271	-0,186
27,707	49,738	-0,399	-0,266
28,721	62,095	-0,412	-0,290
29,736	73,717	-0,426	-0,315
30,750	123,204	-0,422	-0,374
31,765	123,516	-0,420	-0,372
32,780	66,282	-0,432	-0,310
33,794	-10,657	-0,381	-0,177
34,809	148,269	-0,271	-0,258
35,823	46,809	-0,439	-0,287
36,838	153,010	-0,327	-0,317
37,853	27,625	-0,385	-0,229
38,867	46,808	-0,416	-0,272
39,882	109,247	-0,366	-0,310
40,896	192,692	-0,253	-0,270
41,911	86,252	-0,350	-0,272
42,926	148,407	-0,281	-0,269
43,940	86,971	-0,311	-0,243
44,955	-23,011	-0,434	-0,184
45,969	75,812	-0,458	-0,341
46,984	64,675	-0,362	-0,258
47,999	-26,247	-0,334	-0,138
49,013	148,245	-0,302	-0,288
50,028	159,851	-0,262	-0,258
51,042	51,143	-0,397	-0,265
52,057	75,839	-0,344	-0,257
53,071	24,905	-0,466	-0,272
54,086	302,977	-0,195	-0,256
55,101	82,542	-0,330	-0,252
56,115	36,218	-0,301	-0,187
57,130	76,920	-0,347	-0,259
58,144	-37,267	-0,432	-0,162
59,159	86,953	-0,360	-0,280
60,174	45,277	-0,401	-0,260
61,188	239,789	-0,349	-0,411
62,203	113,143	-0,246	-0,210
63,217	33,852	-0,305	-0,187
64,232	13,334	-0,361	-0,197
65,247	88,078	-0,249	-0,194
66,261	186,852	-0,215	-0,226
67,276	14,407	-0,419	-0,230
68,290	85,671	-0,211	-0,163
69,305	-9,119	-0,347	-0,163
70,320	-28,199	-0,241	-0,098
71,334	236,462	-0,236	-0,276
72,349	112,928	-0,281	-0,240
73,363	93,538	-0,389	-0,310
74,378	165,578	-0,297	-0,296
75,393	8,737	-0,340	-0,180
76,407	230,490	-0,321	-0,370
77,422	270,886	-0,242	-0,300
78,436	178,076	-0,257	-0,264
79,451	-112,702	-0,310	-0,043
80,466	24,345	-0,273	-0,158
81,480	48,529	-0,386	-0,254
82,495	122,738	-0,212	-0,187
83,509	126,827	-0,235	-0,210
84,524	632,425	-0,164	-0,293
85,539	-73,147	-0,289	-0,074
86,553	154,180	-0,256	-0,248
87,568	153,006	-0,182	-0,176
88,582	-85,280	-0,326	-0,071
89,597	-19,459	-0,378	-0,164
90,611	69,154	-0,314	-0,227
91,626	30,368	-0,351	-0,210
92,641	12,680	-0,317	-0,172
93,655	63,378	-0,323	-0,228
94,670	127,718	-0,332	-0,296
95,684	-39,677	-0,313	-0,114
96,699	106,993	-0,313	-0,261
97,714	51,326	-0,322	-0,214
98,728	321,972	-0,195	-0,261
99,743	0,814	-0,270	-0,136
100,757	36,197	-0,213	-0,132
101,772	800,000	-0,146	-0,286
102,787	265,439	-0,268	-0,329
103,801	139,360	-0,223	-0,206
104,816	-16,931	-0,228	-0,101
105,830	177,200	-0,192	-0,196
106,845	60,314	-0,228	-0,158
107,860	54,995	-0,234	-0,159
108,874	109,353	-0,220	-0,185
109,889	64,930	-0,420	-0,297
110,903	56,853	-0,309	-0,211
111,918	63,644	-0,231	-0,163
112,933	382,705	-0,208	-0,301
113,947	129,787	-0,249	-0,224
114,962	56,780	-0,257	-0,175
115,976	40,647	-0,310	-0,196
116,991	-77,098	-0,249	-0,060
118,006	159,897	-0,282	-0,276
119,020	218,160	-0,247	-0,278
120,035	114,230	-0,148	-0,126
121,049	11,479	-0,279	-0,150
122,064	44,027	-0,234	-0,150
123,079	99,056	-0,312	-0,253
124,093	94,053	-0,386	-0,307
125,108	69,813	-0,346	-0,250
126,122	-9,640	-0,303	-0,141
127,137	-48,443	-0,320	-0,107
128,151	308,083	-0,144	-0,189
129,166	78,276	-0,232	-0,173
130,181	-44,376	-0,257	-0,090
131,195	322,944	-0,167	-0,223
132,210	429,820	-0,176	-0,268
133,224	-46,032	-0,289	-0,099
134,239	59,331	-0,232	-0,160
135,254	127,504	-0,297	-0,264
136,268	6,132	-0,158	-0,082
137,283	159,449	-0,252	-0,246
138,297	290,046	-0,214	-0,272
139,312	83,044	-0,188	-0,143
140,327	101,203	-0,143	-0,117
141,341	-12,932	-0,311	-0,141
142,356	-60,088	-0,297	-0,088
143,370	187,367	-0,220	-0,230
144,385	-20,504	-0,231	-0,099
145,400	375,056	-0,213	-0,305
146,414	32,979	-0,239	-0,144
147,429	108,837	-0,404	-0,337
148,443	800,000	-0,126	-0,281
149,458	-43,233	-0,284	-0,100
150,473	-86,953	-0,335	-0,071
151,487	141,863	-0,330	-0,306
152,502	479,580	-0,153	-0,243
153,516	57,808	-0,135	-0,092
154,531	87,438	-0,182	-0,141
155,546	119,066	-0,256	-0,221
156,560	150,256	-0,250	-0,237
157,575	164,427	-0,152	-0,150
158,589	32,802	-0,270	-0,163
159,604	207,552	-0,213	-0,233
160,619	105,760	-0,254	-0,210
161,633	37,514	-0,293	-0,181
162,648	390,318	-0,172	-0,250
163,662	102,961	-0,185	-0,151
164,677	-24,808	-0,194	-0,080
165,692	135,565	-0,167	-0,152
166,706	65,832	-0,215	-0,152
167,721	109,939	-0,238	-0,199
168,735	47,405	-0,331	-0,215
169,750	34,563	-0,227	-0,138
170,764	30,032	-0,160	-0,095
171,779	108,217	-0,229	-0,191
172,794	-14,674	-0,189	-0,085
173,808	281,279	-0,238	-0,298
174,823	184,983	-0,284	-0,295
175,837	3,286	-0,333	-0,169
176,852	50,105	-0,127	-0,084
177,867	800,000	-0,093	-0,253
178,881	93,929	-0,189	-0,149
179,896	150,881	-0,194	-0,185
180,910	-100,203	-0,198	-0,034
181,925	-172,559	-0,332	-0,007
182,940	159,870	-0,151	-0,147
183,954	800,000	-0,146	-0,288
184,969	512,296	-0,139	-0,227
185,983	-8,322	-0,230	-0,107
186,998	188,724	-0,180	-0,188
188,013	13,110	-0,179	-0,096
189,027	166,937	-0,202	-0,200
190,042	4,523	-0,173	-0,088
191,056	114,151	-0,197	-0,167
192,071	49,507	-0,240	-0,157
193,086	370,221	-0,120	-0,171
194,100	131,318	-0,227	-0,203
195,115	170,288	-0,150	-0,150
196,129	128,869	-0,180	-0,160
197,144	257,432	-0,187	-0,224
198,159	49,387	-0,192	-0,126
199,173	299,712	-0,139	-0,179
200,188	322,579	-0,138	-0,183
201,202	800,000	-0,108	-0,246
202,217	80,924	-0,178	-0,133
203,232	177,298	-0,136	-0,138
204,246	-4,569	-0,215	-0,103
205,261	499,935	-0,119	-0,192
206,275	800,000	-0,035	-0,088
207,290	400,028	-0,145	-0,213
208,304	237,044	-0,197	-0,228
209,319	-13,443	-0,277	-0,124
210,334	360,979	-0,123	-0,173
211,348	199,673	-0,210	-0,225
212,363	40,049	-0,218	-0,136
213,377	89,706	-0,170	-0,132
214,392	130,035	-0,141	-0,125
215,407	-56,122	-0,201	-0,062
216,421	100,328	-0,199	-0,161
217,436	36,388	-0,218	-0,133
218,450	34,600	-0,252	-0,153
219,465	111,027	-0,371	-0,311
220,480	178,607	-0,258	-0,262
221,494	351,482	-0,148	-0,204
222,509	-103,829	-0,187	0,030
223,523	-17,315	-0,252	-0,110
224,538	-13,962	-0,216	-0,097
225,553	14,265	-0,166	-0,090
226,567	81,440	-0,223	-0,168
227,582	-16,824	-0,257	-0,113
228,596	497,039	-0,112	-0,180
229,611	-53,376	-0,084	0,027
230,626	-0,865	-0,170	-0,083
231,640	61,722	-0,252	-0,174
232,655	212,275	-0,197	-0,217
233,669	276,021	-0,171	-0,211
234,684	-106,594	-0,253	-0,039
235,699	23,007	-0,267	-0,152
236,713	9,778	-0,149	-0,078
237,728	-26,140	-0,246	-0,100
238,742	16,022	-0,193	-0,105
239,757	211,134	-0,073	-0,080
240,772	37,760	-0,198	-0,122
241,786	9,848	-0,293	-0,154
242,801	115,283	-0,175	-0,148
243,815	301,363	-0,097	-0,124
244,830	329,968	-0,200	-0,268
245,844	-31,422	-0,195	-0,076
246,859	-107,164	-0,161	-0,024
247,874	-126,472	-0,072	-0,007
248,888	-200,000	-0,062	-0,196
249,903	-57,688	-0,113	-0,034
250,917	271,599	-0,132	-0,162
251,932	24,574	-0,182	-0,104
252,947	106,780	-0,154	-0,127
253,961	244,768	-0,183	-0,214
254,976	-13,950	-0,246	-0,110
255,990	74,317	-0,136	-0,099
257,005	-27,555	-0,234	-0,094
258,020	107,304	-0,114	-0,094
259,034	-166,370	-0,337	-0,010
260,049	185,947	-0,189	-0,195
261,063	89,607	-0,112	-0,086
262,078	394,140	-0,146	-0,212
263,093	192,495	-0,094	-0,099
264,107	-7,795	-0,293	-0,136
265,122	-114,610	-0,199	0,026
266,136	-200,000	0,014	-0,092
267,151	-94,484	-0,081	-0,015
268,166	-12,216	-0,101	-0,046
269,180	193,533	-0,183	-0,192
270,195	221,996	-0,261	-0,291
271,209	800,000	-0,093	-0,214
272,224	38,429	-0,110	-0,068
273,239	-147,307	-0,115	0,007
274,253	-95,913	-0,227	-0,041
275,268	98,744	-0,101	-0,080
276,282	202,496	-0,133	-0,143
277,297	-58,671	-0,203	-0,061
278,312	43,391	-0,255	-0,161
279,326	-200,000	0,032	-0,263
280,341	0,401	-0,162	0,080
281,355	-200,000	-0,024	-0,108
282,370	-104,642	-0,126	-0,020
283,384	374,721	-0,209	-0,295
284,399	626,537	-0,115	-0,202
285,414	800,000	-0,140	-0,291
286,428	496,264	-0,120	-0,192
287,443	800,000	-0,008	-0,022
288,457	-82,725	-0,149	-0,033
289,472	34,476	-0,101	-0,061
290,487	244,764	-0,127	-0,147
291,501	800,000	-0,065	-0,128
292,516	35,966	-0,092	-0,056
293,530	449,779	-0,146	-0,224
294,545	78,632	-0,210	-0,155
295,560	-131,550	-0,229	-0,021
296,574	306,714	-0,038	0,050
297,589	-46,877	-0,201	0,068
298,603	60,811	-0,088	-0,060
299,618	-89,398	-0,250	0,050
300,633	142,814	-0,178	-0,164
301,647	23,531	-0,117	-0,066
302,662	262,152	-0,094	-0,112
303,676	75,315	-0,140	-0,102
304,691	-73,977	-0,079	-0,020
305,706	371,354	-0,080	-0,112
306,720	291,219	-0,180	-0,226
307,735	-61,136	-0,159	-0,046
308,749	-83,516	-0,146	-0,032
309,764	-200,000	0,001	-0,060
310,779	84,813	-0,210	-0,159
311,793	-86,368	-0,148	-0,031
312,808	-32,041	-0,204	-0,078
313,822	-172,030	-0,231	0,005
314,837	71,254	-0,083	-0,059
315,852	204,170	-0,184	-0,197
316,866	-128,284	-0,080	-0,008
317,881	-17,905	-0,234	-0,101
318,895	-28,059	-0,331	-0,131
319,910	-151,994	-0,161	0,008
320,925	16,950	-0,227	-0,124
321,939	105,042	-0,170	-0,138
322,954	-37,610	-0,241	-0,088
323,968	582,637	-0,074	-0,125
324,983	-44,689	-0,200	-0,068
325,997	229,503	-0,178	-0,201
327,012	324,931	-0,116	-0,154
328,027	486,043	-0,065	-0,102
329,041	1,169	-0,136	-0,067
330,056	-142,927	-0,266	-0,018
331,070	46,310	-0,154	-0,098
332,085	-200,000	-0,052	-0,195
333,100	188,344	-0,087	-0,090
334,114	-88,724	-0,121	-0,025
335,129	140,512	-0,121	-0,110
336,143	-99,460	-0,218	-0,037
337,158	356,323	-0,078	-0,108
338,173	-113,279	-0,157	-0,021
339,187	25,004	-0,113	0,064
340,202	135,120	-0,197	-0,176
341,216	164,058	-0,082	-0,079
342,231	-21,048	-0,256	-0,107
343,246	6,229	-0,170	-0,086
344,260	-62,984	-0,078	-0,022
345,275	-116,930	-0,137	-0,017
346,289	-63,081	-0,096	-0,027
347,304	-200,000	-0,032	-0,112
348,319	122,872	-0,211	-0,182
349,333	539,926	-0,132	-0,217
350,348	-200,000	-0,048	-0,215
351,362	800,000	-0,114	-0,226
352,377	-60,054	-0,081	-0,024
353,392	26,886	-0,284	0,163
354,406	-104,411	-0,286	-0,045
355,421	209,458	1313,839	1416,835
356,435	161,205	1474,499	1417,356
