DTS Sentinel unit serial number:	SN410029Multiplexer serial number:	ORYXHardware model number:	OX2-SRSoftware version number:	ORYX F/W v4,00 Oryx Data Collector v3.7.2.0data status	okinstallation	B3 Nyhavnadifferential loss correction	single-endedforward channel	channel 1reverse channel	N/Adate	2023/12/05time	00:07:30forward acquisition time	300,00reverse acquisition time	0,00gamma	499,1914k internal	0,3200k external	0,3200temperature offset calibration	1,0000default loss term (dB/km)	0,3820temperature slope calibration	1,0000multiplexer offset coefficient	1,0000multiplexer slope coefficient	1,0000fibre end	0,00T internal ref (°C)	13,95T ext. ref 1 (°C)	-1,31T ext. ref 2 (°C)	-1,33length (m)	temperature (°C)	Stokes	anti-Stokes-744,400	356,745	-0,133	-0,193
-743,385	-200,000	-0,048	0,274
-742,371	223,432	-0,081	-0,095
-741,356	-200,000	-0,012	0,306
-740,342	102,747	-0,188	-0,160
-739,327	800,000	0,095	0,283
-738,312	15,330	-0,331	-0,189
-737,298	-200,000	-0,028	0,397
-736,283	435,304	-0,101	-0,160
-735,269	800,000	0,092	0,278
-734,254	261,706	-0,230	-0,290
-733,239	-31,082	-0,219	0,089
-732,225	263,234	-0,195	-0,247
-731,210	-200,000	-0,053	0,219
-730,196	211,588	0,146	0,167
-729,181	-42,100	-0,081	-0,030
-728,167	-200,000	0,004	-0,146
-727,152	182,285	-0,033	-0,036
-726,137	687,359	0,041	-0,077
-725,123	-56,251	-0,123	-0,040
-724,108	800,000	-0,042	-0,128
-723,094	307,724	-0,146	-0,198
-722,079	2,491	-0,140	-0,074
-721,064	138,004	-0,143	0,136
-720,050	92,344	0,051	0,042
-719,035	800,000	0,019	-0,053
-718,021	183,864	0,067	-0,072
-717,006	297,342	-0,077	-0,103
-715,991	-200,000	-0,030	-0,152
-714,977	105,928	-0,027	-0,024
-713,962	151,574	-0,132	0,131
-712,948	-163,709	0,114	0,004
-711,933	-152,715	-0,114	0,006
-710,918	161,765	0,077	-0,079
-709,904	92,916	-0,111	-0,091
-708,889	-200,000	-0,018	0,091
-707,875	-200,000	-0,006	0,046
-706,860	-154,977	-0,090	0,004
-705,845	706,377	0,053	-0,103
-704,831	-118,593	-0,090	-0,011
-703,816	-70,669	0,030	0,008
-702,802	-126,198	-0,248	-0,027
-701,787	-155,670	-0,061	0,003
-700,772	-200,000	0,014	0,067
-699,758	800,000	-0,061	-0,125
-698,743	316,715	-0,050	0,069
-697,729	20,795	0,083	0,049
-696,714	-99,805	-0,107	-0,019
-695,699	152,595	-0,044	-0,043
-694,685	-41,031	-0,091	-0,034
-693,670	-84,535	-0,145	-0,033
-692,656	-200,000	0,005	0,026
-691,641	155,401	-0,027	-0,027
-690,627	144,981	0,171	-0,166
-689,612	85,375	0,053	0,042
-688,597	401,492	-0,071	0,109
-687,583	25,507	-0,032	0,019
-686,568	426,892	0,081	-0,127
-685,554	-9,047	0,022	0,010
-684,539	800,000	0,017	-0,048
-683,524	800,000	-0,031	0,090
-682,510	39,024	-0,116	-0,075
-681,495	-200,000	-0,019	0,085
-680,481	15,706	-0,153	-0,087
-679,466	-200,000	-0,014	-0,152
-678,451	-21,170	-0,041	0,018
-677,437	3,643	0,042	0,022
-676,422	72,673	0,074	-0,056
-675,408	355,035	-0,067	0,097
-674,393	-32,203	0,066	0,026
-673,378	-200,000	-0,015	-0,222
-672,364	279,079	-0,034	-0,044
-671,349	378,245	0,031	-0,047
-670,335	-180,005	0,098	-0,001
-669,320	-200,000	0,009	-0,070
-668,305	-85,699	-0,073	0,016
-667,291	-200,000	0,014	0,097
-666,276	-130,977	-0,167	0,016
-665,262	341,693	-0,071	-0,102
-664,247	197,744	-0,006	0,007
-663,232	549,495	-0,055	0,095
-662,218	-200,000	0,024	0,080
-661,203	800,000	0,010	-0,030
-660,189	-59,590	0,100	0,031
-659,174	-163,781	-0,143	-0,005
-658,159	800,000	0,016	-0,045
-657,145	800,000	0,018	-0,054
-656,130	121,020	0,017	0,015
-655,116	148,918	-0,077	0,076
-654,101	-200,000	0,006	0,089
-653,086	800,000	0,039	-0,080
-652,072	238,282	-0,032	0,039
-651,057	-200,000	-0,004	-0,044
-650,043	301,032	-0,083	-0,111
-649,028	-200,000	-0,001	-0,053
-648,014	-132,069	-0,115	0,011
-646,999	-200,000	0,004	-0,034
-645,984	800,000	0,079	-0,161
-644,970	-200,000	-0,002	-0,062
-643,955	605,333	0,036	0,065
-642,941	-200,000	-0,040	0,139
-641,926	800,000	0,026	0,067
-640,911	-13,122	0,139	-0,065
-639,897	-200,000	0,004	-0,024
-638,882	-134,380	0,085	0,007
-637,868	718,082	0,082	-0,159
-636,853	0,755	-0,141	-0,073
-635,838	712,332	0,036	-0,068
-634,824	-112,687	-0,066	0,009
-633,809	-100,074	0,083	-0,015
-632,795	-200,000	0,027	-0,091
-631,780	213,023	0,038	0,044
-630,765	3,497	-0,050	-0,026
-629,751	-165,945	-0,088	-0,003
-628,736	-4,215	-0,182	0,091
-627,722	-98,202	-0,106	0,020
-626,707	20,811	0,120	-0,070
-625,692	444,473	-0,065	0,103
-624,678	132,715	0,078	0,073
-623,663	91,216	-0,125	-0,101
-622,649	375,002	0,013	0,019
-621,634	-80,433	0,023	-0,006
-620,619	-42,779	-0,083	-0,030
-619,605	134,300	-0,009	0,008
-618,590	800,000	-0,017	-0,048
-617,576	147,051	0,061	0,060
-616,561	209,496	0,059	0,067
-615,546	236,224	0,054	-0,064
-614,532	163,970	-0,129	-0,131
-613,517	217,609	-0,129	-0,149
-612,503	23,400	-0,052	-0,031
-611,488	203,770	0,059	0,066
-610,474	-200,000	0,009	0,067
-609,459	67,308	0,111	0,082
-608,444	91,357	-0,077	0,063
-607,430	464,945	-0,053	-0,086
-606,415	-200,000	-0,029	-0,108
-605,401	-200,000	-0,013	-0,069
-604,386	96,389	0,039	0,032
-603,371	-200,000	0,051	0,167
-602,357	70,700	-0,008	-0,006
-601,342	187,879	0,036	0,039
-600,328	296,432	-0,102	-0,135
-599,313	-57,028	0,081	-0,026
-598,298	800,000	0,026	0,053
-597,284	9,063	0,048	0,026
-596,269	-95,718	0,220	-0,042
-595,255	596,353	-0,022	-0,040
-594,240	67,210	-0,033	0,024
-593,225	75,841	-0,136	-0,104
-592,211	751,674	-0,052	-0,102
-591,196	-200,000	0,004	0,070
-590,182	138,596	-0,081	0,077
-589,167	318,796	0,068	0,093
-588,152	-18,627	-0,016	0,007
-587,138	-111,815	-0,014	0,002
-586,123	800,000	-0,056	-0,119
-585,109	619,114	-0,060	-0,109
-584,094	-34,491	0,153	-0,060
-583,079	290,838	0,064	0,084
-582,065	137,296	-0,066	-0,062
-581,050	-200,000	0,028	0,121
-580,036	466,123	-0,050	0,081
-579,021	752,971	-0,065	-0,127
-578,006	59,216	-0,119	-0,085
-576,992	-68,439	0,147	0,041
-575,977	-200,000	-0,021	0,077
-574,963	800,000	0,047	0,113
-573,948	-200,000	0,029	0,140
-572,934	-71,417	0,021	0,006
-571,919	-200,000	-0,011	0,037
-570,904	45,282	-0,062	-0,041
-569,890	-97,253	-0,054	0,010
-568,875	274,519	0,027	-0,034
-567,861	-200,000	-0,008	0,039
-566,846	-136,071	-0,053	-0,004
-565,831	-76,936	-0,094	-0,023
-564,817	-200,000	0,002	-0,110
-563,802	149,787	0,072	-0,071
-562,788	117,666	-0,062	-0,055
-561,773	57,487	-0,057	-0,040
-560,758	149,987	0,088	-0,086
-559,744	17,706	0,027	-0,016
-558,729	48,968	0,102	-0,069
-557,715	800,000	-0,019	-0,059
-556,700	102,012	0,097	-0,082
-555,685	681,418	-0,060	0,113
-554,671	-69,198	0,091	-0,025
-553,656	-139,611	0,085	0,006
-552,642	370,135	0,045	-0,065
-551,627	-200,000	-0,014	0,157
-550,612	-60,272	-0,172	0,053
-549,598	166,848	-0,043	-0,044
-548,583	-200,000	-0,021	-0,109
-547,569	-200,000	0,001	-0,011
-546,554	50,470	-0,033	-0,023
-545,539	-51,749	-0,022	-0,007
-544,525	-63,140	-0,185	-0,055
-543,510	800,000	-0,050	-0,150
-542,496	800,000	-0,057	-0,126
-541,481	226,575	0,018	0,021
-540,466	6,817	-0,097	-0,052
-539,452	64,253	0,101	0,073
-538,437	62,889	-0,069	0,049
-537,423	517,692	0,038	-0,065
-536,408	-200,000	-0,003	-0,256
-535,393	131,810	-0,083	-0,077
-534,379	-160,891	-0,148	0,006
-533,364	33,937	-0,029	0,018
-532,350	-52,356	0,109	-0,036
-531,335	556,834	-0,024	-0,042
-530,321	133,739	0,029	0,027
-529,306	188,459	0,076	-0,082
-528,291	103,804	0,101	-0,086
-527,277	-200,000	-0,006	-0,020
-526,262	800,000	-0,042	-0,121
-525,248	88,101	0,050	-0,040
-524,233	30,630	0,165	0,102
-523,218	-200,000	0,011	0,136
-522,204	800,000	-0,051	0,125
-521,189	248,279	0,022	-0,027
-520,175	-30,137	0,079	-0,032
-519,160	800,000	-0,020	-0,056
-518,145	52,868	-0,068	0,047
-517,131	-200,000	0,001	-0,061
-516,116	10,843	0,067	0,037
-515,102	-140,677	0,041	0,003
-514,087	-200,000	0,002	0,164
-513,072	297,916	-0,043	-0,058
-512,058	77,473	0,068	0,052
-511,043	800,000	-0,041	-0,103
-510,029	800,000	0,036	0,113
-509,014	56,323	-0,122	0,085
-507,999	-200,000	-0,001	-0,019
-506,985	0,949	-0,137	-0,071
-505,970	800,000	-0,016	0,049
-504,956	-135,737	-0,155	0,013
-503,941	800,000	0,030	0,070
-502,926	-200,000	-0,001	-0,011
-501,912	-49,420	0,049	-0,017
-500,897	800,000	0,015	-0,040
-499,883	-149,702	-0,133	-0,007
-498,868	800,000	-0,021	-0,048
-497,853	800,000	0,037	-0,087
-496,839	-40,856	-0,102	-0,038
-495,824	160,977	-0,044	0,044
-494,810	219,375	0,091	0,105
-493,795	63,238	-0,121	0,087
-492,781	-200,000	0,020	-0,110
-491,766	222,213	0,147	-0,171
-490,751	-169,331	-0,182	0,005
-489,737	-200,000	0,008	0,110
-488,722	800,000	0,020	0,055
-487,708	800,000	-0,034	0,075
-486,693	-138,801	0,092	0,007
-485,678	-200,000	0,005	-0,101
-484,664	114,940	-0,054	-0,048
-483,649	-125,388	-0,076	0,008
-482,635	-200,000	0,002	-0,019
-481,620	726,227	0,039	0,075
-480,605	-124,825	-0,024	-0,003
-479,591	-200,000	0,013	0,058
-478,576	800,000	-0,041	-0,096
-477,562	747,519	-0,025	-0,049
-476,547	120,799	0,047	0,043
-475,532	-123,548	0,143	0,016
-474,518	800,000	0,054	0,137
-473,503	227,165	0,085	-0,099
-472,489	-194,310	-0,159	-0,001
-471,474	-95,925	0,110	0,021
-470,459	800,000	-0,035	-0,093
-469,445	-200,000	0,026	-0,112
-468,430	220,238	-0,068	0,079
-467,416	-200,000	-0,018	-0,079
-466,401	10,141	0,090	-0,049
-465,386	-200,000	-0,000	-0,004
-464,372	-71,271	-0,034	0,009
-463,357	112,572	-0,028	0,025
-462,343	800,000	-0,034	-0,076
-461,328	687,062	-0,058	-0,110
-460,313	-124,138	0,157	0,017
-459,299	393,199	-0,053	0,079
-458,284	-171,708	0,076	-0,002
-457,270	-200,000	0,001	0,041
-456,255	148,957	-0,068	0,066
-455,241	307,090	-0,036	-0,048
-454,226	800,000	-0,042	-0,116
-453,211	166,856	0,035	-0,036
-452,197	537,754	0,029	-0,050
-451,182	-6,307	0,125	0,061
-450,168	312,685	0,012	0,016
-449,153	800,000	0,056	-0,160
-448,138	-200,000	-0,006	-0,120
-447,124	70,074	0,071	0,053
-446,109	23,176	-0,056	0,033
-445,095	80,245	0,026	0,020
-444,080	-38,396	0,083	0,031
-443,065	800,000	-0,047	0,115
-442,051	31,852	0,040	-0,025
-441,036	3,700	-0,164	-0,086
-440,022	800,000	0,055	-0,132
-439,007	-48,217	-0,134	0,046
-437,992	-200,000	0,018	0,120
-436,978	112,779	-0,061	0,053
-435,963	89,116	-0,080	0,064
-434,949	-200,000	0,007	-0,028
-433,934	-134,547	-0,156	0,013
-432,919	129,871	0,041	0,038
-431,905	352,932	0,024	-0,034
-430,890	-81,917	0,158	-0,037
-429,876	-148,675	-0,138	0,008
-428,861	22,117	0,135	0,079
-427,846	392,671	-0,092	0,137
-426,832	-200,000	-0,004	-0,077
-425,817	800,000	0,048	0,114
-424,803	194,544	-0,126	-0,138
-423,788	373,573	-0,031	0,045
-422,773	-49,385	-0,152	0,052
-421,759	-37,013	0,110	0,042
-420,744	-200,000	-0,003	0,060
-419,730	-113,749	0,138	-0,019
-418,715	46,157	-0,064	-0,042
-417,701	-200,000	-0,012	-0,078
-416,686	42,581	0,137	0,090
-415,671	-200,000	0,042	0,137
-414,657	524,459	0,048	0,081
-413,642	-200,000	-0,041	0,196
-412,628	-55,426	0,005	0,002
-411,613	-42,098	-0,049	-0,018
-410,598	-87,034	-0,114	0,025
-409,584	-200,000	-0,028	-0,133
-408,569	-159,746	0,238	-0,009
-407,555	-173,076	0,068	0,001
-406,540	-200,000	0,001	0,035
-405,525	238,346	-0,057	-0,068
-404,511	-24,396	0,070	-0,030
-403,496	-200,000	-0,006	-0,086
-402,482	-200,000	0,023	0,079
-401,467	-107,670	-0,064	0,010
-400,452	432,036	0,039	0,061
-399,438	320,709	0,073	-0,099
-398,423	-155,338	-0,176	-0,008
-397,409	800,000	0,073	-0,162
-396,394	-200,000	0,015	-0,089
-395,379	-200,000	-0,002	0,117
-394,365	0,866	0,068	0,035
-393,350	511,446	0,070	0,118
-392,336	-163,798	-0,076	0,003
-391,321	558,271	-0,055	0,095
-390,306	10,260	-0,081	-0,044
-389,292	-155,188	0,095	-0,004
-388,277	-200,000	-0,009	-0,048
-387,263	100,940	0,122	0,102
-386,248	-56,961	0,079	0,025
-385,233	800,000	-0,057	0,131
-384,219	370,561	0,104	-0,152
-383,204	-109,861	0,021	-0,003
-382,190	72,455	-0,099	0,074
-381,175	-200,000	0,002	0,027
-380,160	166,999	-0,032	-0,032
-379,146	800,000	0,035	0,072
-378,131	-200,000	0,026	0,133
-377,117	-15,295	0,071	0,032
-376,102	158,452	-0,081	0,080
-375,088	96,711	-0,033	-0,027
-374,073	-200,000	0,001	-0,028
-373,058	80,970	-0,131	0,101
-372,044	54,154	0,091	0,063
-371,029	-85,897	0,082	0,018
-370,015	4,485	-0,236	-0,124
-369,000	-200,000	-0,011	-0,118
-367,985	247,613	0,074	-0,089
-366,971	-200,000	0,019	-0,084
-365,956	76,545	0,057	-0,043
-364,942	800,000	0,044	0,119
-363,927	26,529	-0,044	0,026
-362,912	-200,000	0,012	0,071
-361,898	-200,000	-0,000	0,133
-360,883	-17,786	-0,088	-0,039
-359,869	800,000	-0,028	0,081
-358,854	71,805	0,108	0,081
-357,839	203,950	0,067	0,075
-356,825	-200,000	-0,041	0,152
-355,810	-200,000	0,022	0,114
-354,796	-200,000	0,013	-0,102
-353,781	800,000	-0,021	-0,053
-352,766	38,037	0,118	0,075
-351,752	2,516	-0,013	-0,007
-350,737	3,011	0,130	0,068
-349,723	355,314	-0,046	0,066
-348,708	216,572	-0,041	-0,047
-347,693	-29,367	0,024	-0,010
-346,679	56,254	0,081	0,056
-345,664	216,331	-0,041	0,047
-344,650	-200,000	0,006	0,046
-343,635	211,533	-0,069	0,078
-342,620	161,710	0,094	0,095
-341,606	-200,000	-0,001	-0,023
-340,591	551,022	-0,067	-0,116
-339,577	204,822	-0,078	-0,087
-338,562	-69,160	-0,147	-0,040
-337,548	80,661	0,033	-0,025
-336,533	-108,610	0,072	-0,011
-335,518	800,000	0,039	-0,085
-334,504	-86,576	0,135	-0,029
-333,489	-55,443	0,109	0,035
-332,475	-200,000	0,008	-0,056
-331,460	-93,792	0,079	0,015
-330,445	800,000	0,016	-0,045
-329,431	106,124	-0,164	0,139
-328,416	66,579	0,045	-0,033
-327,402	800,000	0,072	0,151
-326,387	-123,224	-0,076	0,009
-325,372	-75,767	0,139	-0,035
-324,358	-200,000	-0,007	-0,061
-323,343	14,045	-0,063	-0,035
-322,329	-135,547	0,083	-0,007
-321,314	-200,000	0,003	0,048
-320,299	-200,000	0,014	0,087
-319,285	46,157	0,104	-0,069
-318,270	800,000	0,030	0,094
-317,256	-157,492	0,101	0,004
-316,241	-200,000	-0,013	-0,063
-315,226	570,576	-0,053	0,092
-314,212	-139,109	0,153	0,012
-313,197	215,940	-0,091	0,103
-312,183	-78,580	0,139	0,034
-311,168	-86,019	-0,106	0,023
-310,153	146,068	0,131	-0,126
-309,139	-56,716	-0,132	0,041
-308,124	-200,000	-0,034	0,152
-307,110	320,773	-0,064	0,087
-306,095	196,744	0,135	0,147
-305,080	-64,318	0,019	0,005
-304,066	-147,345	-0,020	-0,001
-303,051	-127,962	0,081	-0,008
-302,037	800,000	-0,070	-0,139
-301,022	261,844	-0,004	-0,005
-300,008	-200,000	0,002	0,066
-298,993	-200,000	0,025	0,142
-297,978	800,000	0,033	0,078
-296,964	222,724	-0,047	-0,054
-295,949	-189,730	0,077	0,001
-294,935	78,679	-0,090	-0,069
-293,920	404,047	0,028	-0,043
-292,905	-200,000	0,010	0,084
-291,891	436,440	-0,008	-0,012
-290,876	-17,553	-0,085	-0,038
-289,862	-200,000	-0,005	-0,087
-288,847	724,019	0,062	-0,118
-287,832	460,252	-0,097	-0,154
-286,818	291,436	-0,027	-0,036
-285,803	181,345	0,009	-0,010
-284,789	475,670	0,011	0,018
-283,774	388,236	0,041	0,061
-282,759	800,000	-0,032	0,076
-281,745	201,368	0,078	-0,086
-280,730	83,575	0,040	-0,032
-279,716	-200,000	0,006	0,116
-278,701	800,000	0,063	-0,140
-277,686	294,779	0,081	0,105
-276,672	514,481	0,052	0,087
-275,657	-200,000	0,019	-0,136
-274,643	-200,000	-0,016	-0,053
-273,628	-19,042	-0,032	0,014
-272,613	250,823	-0,033	0,040
-271,599	-200,000	0,020	0,071
-270,584	800,000	0,052	0,144
-269,570	187,513	-0,101	0,107
-268,555	14,704	-0,070	-0,039
-267,540	-200,000	0,016	0,059
-266,526	-200,000	0,008	-0,102
-265,511	-143,346	-0,023	-0,002
-264,497	800,000	0,056	-0,116
-263,482	-200,000	0,017	0,105
-262,467	159,758	0,055	0,055
-261,453	-200,000	-0,021	0,067
-260,438	-5,715	0,036	-0,017
-259,424	-200,000	0,007	0,073
-258,409	-24,123	-0,081	0,035
-257,395	52,695	0,073	-0,050
-256,380	-26,340	-0,104	0,043
-255,365	101,945	-0,040	0,033
-254,351	-200,000	0,016	0,050
-253,336	-200,000	0,001	0,048
-252,322	-200,000	0,001	-0,009
-251,307	16,801	0,026	-0,015
-250,292	-194,444	-0,131	-0,001
-249,278	138,726	0,109	0,102
-248,263	207,676	-0,072	0,080
-247,249	4,704	-0,101	-0,053
-246,234	-9,719	-0,061	0,029
-245,219	-104,615	0,033	-0,005
-244,205	-163,102	0,089	-0,003
-243,190	363,170	-0,014	0,020
-242,176	-168,344	0,079	-0,002
-241,161	-200,000	-0,018	0,085
-240,146	-200,000	0,040	0,199
-239,132	58,227	-0,068	0,047
-238,117	800,000	0,032	-0,079
-237,103	-103,583	-0,111	0,018
-236,088	630,157	0,048	0,088
-235,073	800,000	-0,017	0,052
-234,059	-84,138	-0,033	-0,007
-233,044	484,030	-0,052	0,085
-232,030	-35,735	0,094	0,036
-231,015	-59,456	-0,092	-0,028
-230,000	-145,607	-0,012	-0,001
-228,986	-200,000	0,006	0,065
-227,971	389,945	0,022	-0,032
-226,957	36,798	-0,015	0,009
-225,942	-74,260	0,158	0,040
-224,927	-0,977	0,068	0,034
-223,913	-200,000	-0,014	0,055
-222,898	27,929	-0,084	-0,050
-221,884	-200,000	-0,030	0,096
-220,869	-200,000	0,000	-0,103
-219,855	-200,000	0,026	0,084
-218,840	-132,903	0,203	0,018
-217,825	-200,000	-0,057	-0,242
-216,811	398,505	-0,050	-0,075
-215,796	-200,000	-0,001	-0,038
-214,782	-200,000	0,006	-0,073
-213,767	149,494	0,043	0,041
-212,752	25,984	0,098	0,058
-211,738	-91,391	-0,060	0,012
-210,723	19,387	0,127	0,072
-209,709	800,000	0,038	-0,080
-208,694	432,371	0,055	-0,085
-207,679	-200,000	-0,007	0,117
-206,665	-200,000	0,005	0,066
-205,650	-43,065	-0,117	0,042
-204,636	47,761	0,057	0,038
-203,621	436,241	-0,093	0,145
-202,606	759,901	-0,056	-0,109
-201,592	52,641	-0,067	-0,045
-200,577	104,946	-0,032	-0,027
-199,563	800,000	-0,084	-0,169
-198,548	-200,000	-0,012	-0,055
-197,533	343,494	0,049	0,068
-196,519	393,908	-0,027	-0,041
-195,504	106,245	-0,034	0,029
-194,490	800,000	-0,061	-0,169
-193,475	800,000	0,053	-0,157
-192,460	387,192	-0,099	0,145
-191,446	800,000	0,102	-0,235
-190,431	800,000	0,023	0,069
-189,417	-73,730	0,113	0,029
-188,402	-200,000	-0,033	-0,153
-187,387	253,910	-0,134	-0,163
-186,373	52,702	-0,093	-0,063
-185,358	233,489	0,075	-0,088
-184,344	800,000	0,037	0,081
-183,329	-200,000	0,032	0,110
-182,315	-200,000	0,008	0,037
-181,300	18,536	0,048	-0,027
-180,285	45,028	-0,119	0,078
-179,271	-57,908	-0,041	-0,013
-178,256	-107,335	0,109	-0,017
-177,242	256,266	0,006	0,007
-176,227	19,714	0,015	0,008
-175,212	130,151	0,052	0,047
-174,198	100,602	-0,070	-0,057
-173,183	-36,056	-0,052	0,020
-172,169	-200,000	0,004	-0,046
-171,154	84,556	-0,153	0,119
-170,139	-200,000	-0,005	0,043
-169,125	84,172	-0,093	0,072
-168,110	-200,000	-0,045	-0,163
-167,096	-200,000	-0,006	-0,088
-166,081	488,074	0,013	0,022
-165,066	194,551	-0,080	-0,087
-164,052	-200,000	0,018	-0,085
-163,037	-200,000	0,007	-0,060
-162,023	800,000	-0,031	0,083
-161,008	-200,000	0,054	0,238
-159,993	800,000	0,062	-0,160
-158,979	-200,000	0,019	-0,115
-157,964	800,000	-0,032	-0,073
-156,950	-200,000	0,013	-0,090
-155,935	682,146	0,073	0,136
-154,920	99,525	0,037	0,030
-153,906	720,327	0,028	-0,053
-152,891	278,775	-0,067	-0,085
-151,877	28,213	-0,047	-0,028
-150,862	32,797	0,086	-0,053
-149,847	-46,956	-0,059	0,020
-148,833	-200,000	0,037	0,186
-147,818	-200,000	-0,005	0,147
-146,804	-200,000	-0,017	0,090
-145,789	287,136	-0,069	-0,089
-144,775	-200,000	0,011	-0,035
-143,760	306,851	-0,005	0,007
-142,745	-17,751	0,157	0,070
-141,731	-72,147	0,154	-0,040
-140,716	-156,109	0,141	-0,006
-139,702	418,258	0,043	0,066
-138,687	-200,000	0,023	-0,085
-137,672	-200,000	-0,012	0,038
-136,658	29,278	-0,063	-0,038
-135,643	-174,790	0,114	0,002
-134,629	-48,535	-0,155	-0,053
-133,614	-200,000	0,003	0,044
-132,599	800,000	-0,008	-0,017
-131,585	-200,000	0,022	0,098
-130,570	195,639	-0,065	0,070
-129,556	281,003	-0,090	-0,115
-128,541	-75,241	-0,028	0,007
-127,526	800,000	0,015	0,046
-126,512	50,826	-0,106	-0,071
-125,497	228,383	0,067	0,078
-124,483	245,090	-0,030	-0,036
-123,468	173,896	0,090	0,092
-122,453	473,476	0,066	0,106
-121,439	360,968	-0,066	-0,094
-120,424	70,185	0,039	0,029
-119,410	-98,594	-0,101	-0,018
-118,395	-148,971	0,203	-0,011
-117,380	-26,265	0,027	-0,011
-116,366	800,000	0,007	-0,015
-115,351	-60,652	-0,115	0,034
-114,337	110,831	0,112	0,096
-113,322	288,845	0,024	-0,031
-112,307	-200,000	0,024	-0,078
-111,293	312,532	0,083	-0,111
-110,278	144,327	0,150	0,142
-109,264	-174,851	-0,092	0,002
-108,249	-112,971	-0,063	0,009
-107,234	800,000	0,027	-0,080
-106,220	-200,000	-0,007	-0,059
-105,205	-200,000	-0,018	0,138
-104,191	-200,000	0,004	-0,100
-103,176	535,827	0,017	-0,029
-102,162	292,149	0,127	-0,165
-101,147	-126,795	-0,132	-0,014
-100,132	-96,904	-0,048	-0,009
-99,118	800,000	-0,033	-0,092
-98,103	-200,000	0,019	-0,060
-97,089	201,627	0,077	0,084
-96,074	231,540	0,106	0,123
-95,059	-36,862	-0,028	0,011
-94,045	-200,000	0,020	-0,070
-93,030	129,692	-0,156	-0,141
-92,016	53,502	-0,088	-0,060
-91,001	-39,179	0,089	0,033
-89,986	-130,514	0,164	-0,016
-88,972	436,579	0,028	0,044
-87,957	88,919	-0,083	0,066
-86,943	353,268	0,039	0,056
-85,928	-4,034	-0,110	0,054
-84,913	616,500	-0,052	-0,092
-83,899	-200,000	0,019	0,080
-82,884	-128,699	-0,120	0,012
-81,870	800,000	0,063	0,166
-80,855	190,061	0,060	-0,064
-79,840	-200,000	-0,007	-0,097
-78,826	-1,718	0,095	0,047
-77,811	72,020	-0,134	-0,098
-76,797	-29,022	0,190	-0,077
-75,782	-128,121	0,137	0,014
-74,767	-200,000	-0,001	-0,150
-73,753	4,409	0,131	0,068
-72,738	-200,000	0,004	0,039
-71,724	39,577	0,098	0,062
-70,709	-73,337	0,046	-0,012
-69,694	-200,000	-0,021	-0,072
-68,680	-132,507	0,154	-0,014
-67,665	39,669	0,041	0,026
-66,651	19,920	0,024	-0,014
-65,636	531,401	0,082	0,137
-64,622	7,321	-0,075	-0,040
-63,607	-200,000	0,002	0,017
-62,592	348,236	0,011	-0,015
-61,578	343,574	-0,083	-0,115
-60,563	226,343	-0,058	0,067
-59,549	47,426	0,103	0,068
-58,534	-44,571	-1,618	-0,570
-57,519	326,264	-1,411	-1,918
-56,505	-200,000	-0,609	-4,623
-55,490	150,557	1,057	1,017
-54,476	800,000	4,905	11,394
-53,461	-200,000	18,969	309,826
-52,446	-200,000	737,981	2315,109
-51,432	574,309	1654,819	2870,727
-50,417	79,172	1671,447	1267,069
-49,403	21,935	1544,280	889,330
-48,388	15,807	1466,815	814,915
-47,373	17,799	1456,903	819,008
-46,359	16,872	1446,992	808,955
-45,344	14,080	1442,359	792,954
-44,330	14,039	1440,523	791,715
-43,315	14,006	1438,844	790,606
-42,300	14,058	1436,980	789,797
-41,286	14,060	1435,927	789,198
-40,271	14,056	1434,408	788,311
-39,257	14,031	1433,512	787,668
-38,242	14,060	1432,100	787,000
-37,227	14,040	1430,955	786,245
-36,213	14,094	1429,368	785,600
-35,198	14,006	1428,712	784,786
-34,184	14,093	1427,456	784,479
-33,169	13,995	1426,276	783,334
-32,154	14,131	1425,014	783,257
-31,140	14,075	1423,762	782,273
-30,125	14,101	1422,584	781,718
-29,111	14,044	1421,539	780,841
-28,096	14,035	1420,465	780,177
-27,082	14,010	1419,407	779,446
-26,067	14,017	1418,282	778,832
-25,052	13,982	1417,176	778,031
-24,038	13,961	1416,319	777,431
-23,023	13,933	1415,458	776,794
-22,009	13,965	1414,062	776,148
-20,994	13,901	1413,599	775,561
-19,979	13,907	1412,519	774,966
-18,965	13,881	1411,478	774,242
-17,950	13,932	1410,572	773,953
-16,936	13,950	1409,571	773,458
-15,921	13,896	1408,510	772,594
-14,906	13,882	1407,859	772,141
-13,892	13,904	1406,775	771,618
-12,877	13,898	1405,955	771,109
-11,863	13,911	1404,896	770,559
-10,848	13,894	1404,087	770,005
-9,833	13,822	1403,198	769,150
-8,819	13,841	1402,265	768,695
-7,804	13,772	1401,580	767,970
-6,790	13,805	1400,374	767,432
-5,775	13,776	1399,375	766,718
-4,760	13,804	1398,413	766,291
-3,746	13,775	1397,543	765,648
-2,731	13,799	1396,701	765,272
-1,717	13,786	1395,840	764,708
-0,702	13,717	1394,226	763,475
0,313	17,596	1311,791	736,317
1,327	33,806	706,235	433,998
2,342	52,001	124,019	83,466
3,356	-0,976	16,846	8,408
4,371	1,550	3,255	1,652
5,386	47,736	0,468	0,309
6,400	-200,000	0,035	0,264
7,415	57,380	-0,280	-0,193
8,429	147,375	-0,174	-0,166
9,444	-111,410	-0,266	-0,038
10,459	144,481	-0,272	-0,257
11,473	54,968	-0,279	-0,190
12,488	259,930	-0,200	-0,245
13,502	-36,842	-0,335	-0,127
14,517	24,442	-0,286	-0,167
15,531	175,319	-0,201	-0,206
16,546	28,860	-0,354	-0,212
17,561	418,905	-0,253	-0,384
18,575	-107,305	-0,232	-0,036
19,590	226,179	-0,222	-0,255
20,604	800,000	-0,101	-0,199
21,619	416,805	-0,266	-0,403
22,634	81,452	-0,583	-0,445
23,648	44,227	-0,489	-0,316
24,663	239,258	-0,336	-0,396
25,677	81,965	-0,294	-0,225
26,692	73,889	-0,374	-0,276
27,707	83,794	-0,280	-0,215
28,721	-41,988	-0,461	-0,166
29,736	70,123	-0,342	-0,249
30,750	-5,242	-0,437	-0,211
31,765	66,291	-0,354	-0,254
32,780	-0,323	-0,416	-0,208
33,794	94,939	-0,176	-0,141
34,809	73,951	-0,278	-0,206
35,823	147,117	-0,371	-0,352
36,838	299,917	-0,285	-0,372
37,853	48,019	-0,434	-0,286
38,867	62,365	-0,492	-0,346
39,882	-20,942	-0,291	-0,125
40,896	20,955	-0,375	-0,214
41,911	143,860	-0,240	-0,226
42,926	-2,491	-0,341	-0,168
43,940	79,698	-0,340	-0,257
44,955	130,286	-0,386	-0,349
45,969	11,659	-0,397	-0,214
46,984	83,732	-0,216	-0,166
47,999	-5,782	-0,332	-0,160
49,013	72,531	-0,430	-0,316
50,028	-56,420	-0,451	-0,140
51,042	126,321	-0,361	-0,322
52,057	28,711	-0,362	-0,215
53,071	223,725	-0,276	-0,314
54,086	285,450	-0,219	-0,279
55,101	121,479	-0,328	-0,288
56,115	57,660	-0,311	-0,214
57,130	121,347	-0,288	-0,253
58,144	171,502	-0,269	-0,272
59,159	-5,019	-0,507	-0,245
60,174	82,711	-0,448	-0,343
61,188	8,645	-0,353	-0,186
62,203	101,725	-0,317	-0,260
63,217	89,017	-0,245	-0,192
64,232	85,223	-0,380	-0,293
65,247	-21,435	-0,429	-0,184
66,261	22,832	-0,297	-0,171
67,276	-37,699	-0,404	-0,151
68,290	56,201	-0,369	-0,252
69,305	-60,869	-0,359	-0,106
70,320	2,363	-0,379	-0,192
71,334	57,291	-0,306	-0,210
72,349	160,181	-0,312	-0,306
73,363	33,672	-0,350	-0,214
74,378	196,008	-0,251	-0,269
75,393	163,529	-0,310	-0,307
76,407	-7,041	-0,435	-0,207
77,422	13,811	-0,226	-0,123
78,436	97,334	-0,303	-0,245
79,451	10,053	-0,276	-0,147
80,466	20,745	-0,390	-0,222
81,480	76,831	-0,225	-0,168
82,495	46,088	-0,292	-0,189
83,509	280,250	-0,192	-0,242
84,524	-166,383	-0,268	-0,008
85,539	302,962	-0,221	-0,289
86,553	154,013	-0,262	-0,252
87,568	-65,875	-0,248	-0,069
88,582	211,336	-0,283	-0,313
89,597	154,651	-0,361	-0,349
90,611	23,192	-0,339	-0,195
91,626	87,800	-0,255	-0,198
92,641	279,397	-0,144	-0,181
93,655	76,835	-0,260	-0,193
94,670	-85,628	-0,395	-0,085
95,684	106,974	-0,273	-0,228
96,699	-18,385	-0,279	-0,122
97,714	-17,799	-0,299	-0,131
98,728	-96,595	-0,259	-0,047
99,743	278,605	-0,242	-0,303
100,757	-48,016	-0,346	-0,117
101,772	168,606	-0,250	-0,251
102,787	202,840	-0,317	-0,344
103,801	152,878	-0,329	-0,315
104,816	154,327	-0,210	-0,203
105,830	88,923	-0,266	-0,207
106,845	49,548	-0,238	-0,157
107,860	106,808	-0,221	-0,184
108,874	198,931	-0,285	-0,306
109,889	123,060	-0,274	-0,241
110,903	21,623	-0,296	-0,169
111,918	764,821	-0,130	-0,249
112,933	43,375	-0,353	-0,226
113,947	-133,582	-0,151	0,013
114,962	547,894	-0,105	-0,178
115,976	-106,316	-0,269	-0,042
116,991	75,961	-0,363	-0,268
118,006	-48,595	-0,415	-0,139
119,020	370,382	-0,241	-0,343
120,035	133,215	-0,258	-0,234
121,049	23,336	-0,281	-0,161
122,064	37,069	-0,291	-0,180
123,079	141,018	-0,272	-0,252
124,093	127,577	-0,286	-0,255
125,108	-31,156	-0,172	-0,067
126,122	87,671	-0,199	-0,154
127,137	212,352	-0,199	-0,220
128,151	102,241	-0,218	-0,178
129,166	-107,418	-0,206	-0,031
130,181	123,017	-0,172	-0,151
131,195	188,219	-0,256	-0,268
132,210	78,091	-0,316	-0,236
133,224	256,208	-0,127	-0,153
134,239	171,396	-0,217	-0,218
135,254	26,159	-0,120	-0,070
136,268	439,969	-0,191	-0,293
137,283	-85,471	-0,242	-0,052
138,297	144,393	-0,281	-0,263
139,312	-42,822	-0,366	-0,129
140,327	353,228	-0,212	-0,295
141,341	-28,556	-0,363	-0,145
142,356	-163,140	-0,178	-0,006
143,370	145,887	-0,173	-0,162
144,385	151,345	-0,309	-0,294
145,400	91,313	-0,116	-0,091
146,414	61,343	-0,227	-0,158
147,429	85,858	-0,253	-0,194
148,443	-37,611	-0,308	-0,114
149,458	-63,881	-0,227	-0,064
150,473	-0,544	-0,251	-0,124
151,487	-69,316	-0,327	-0,087
152,502	-92,721	-0,279	-0,054
153,516	96,014	-0,304	-0,243
154,531	175,616	-0,160	-0,162
155,546	680,795	-0,102	-0,187
156,560	175,395	-0,158	-0,160
157,575	40,171	-0,254	-0,159
158,589	127,746	-0,238	-0,211
159,604	-26,019	-0,394	-0,161
160,619	227,248	-0,190	-0,216
161,633	121,782	-0,259	-0,225
162,648	221,750	-0,214	-0,241
163,662	427,526	-0,093	-0,141
164,677	466,793	-0,202	-0,317
165,692	51,651	-0,159	-0,105
166,706	124,494	-0,122	-0,107
167,721	-71,096	-0,287	-0,075
168,735	-71,595	-0,256	-0,066
169,750	-29,491	-0,308	-0,122
170,764	180,852	-0,191	-0,196
171,779	49,140	-0,254	-0,166
172,794	-148,645	-0,181	0,010
173,808	-35,906	-0,245	-0,092
174,823	127,525	-0,213	-0,189
175,837	51,581	-0,241	-0,159
176,852	275,653	-0,211	-0,261
177,867	203,799	-0,123	-0,133
178,881	205,665	-0,157	-0,170
179,896	-176,397	-0,292	-0,005
180,910	650,264	-0,133	-0,239
181,925	347,393	-0,155	-0,214
182,940	197,497	-0,276	-0,294
183,954	23,739	-0,231	-0,132
184,969	-78,433	-0,284	-0,067
185,983	-52,660	-0,163	0,052
186,998	20,692	-0,193	-0,108
188,013	72,563	-0,186	-0,135
189,027	383,896	-0,176	-0,253
190,042	33,751	-0,303	-0,183
191,056	350,026	-0,174	-0,240
192,071	302,643	-0,104	-0,134
193,086	435,003	-0,160	-0,242
194,100	270,171	-0,131	-0,161
195,115	800,000	-0,126	-0,249
196,129	580,115	-0,127	-0,217
197,144	-91,733	-0,168	0,033
198,159	800,000	-0,181	-0,420
199,173	82,739	-0,107	-0,081
200,188	-14,959	-0,226	-0,100
201,202	315,913	-0,147	-0,193
202,217	-19,167	-0,229	-0,098
203,232	34,692	-0,130	-0,079
204,246	-45,589	-0,287	-0,098
205,261	281,767	-0,131	-0,164
206,275	53,291	-0,261	-0,174
207,290	370,957	-0,140	-0,197
208,304	162,939	-0,173	-0,169
209,319	-18,272	-0,097	-0,042
210,334	-200,000	-0,035	-0,304
211,348	32,700	-0,215	-0,129
212,363	39,322	-0,288	-0,179
213,377	-6,381	-0,247	-0,117
214,392	8,748	-0,144	-0,075
215,407	6,633	-0,142	-0,073
216,421	7,481	-0,045	-0,023
217,436	800,000	-0,116	-0,229
218,450	800,000	-0,108	-0,228
219,465	118,647	-0,238	-0,204
220,480	781,339	-0,113	-0,215
221,494	800,000	-0,113	-0,235
222,509	93,178	-0,159	-0,125
223,523	51,356	-0,144	-0,095
224,538	218,127	-0,086	-0,096
225,553	315,873	-0,206	-0,270
226,567	243,204	-0,144	-0,168
227,582	89,886	-0,284	-0,220
228,596	507,405	-0,085	-0,137
229,611	-9,380	-0,255	-0,118
230,626	800,000	-0,059	-0,145
231,640	318,502	-0,109	-0,144
232,655	-21,257	-0,273	-0,115
233,669	-21,876	-0,268	-0,113
234,684	790,046	-0,136	-0,261
235,699	145,595	-0,144	-0,134
236,713	19,279	-0,235	-0,131
237,728	215,953	-0,087	-0,096
238,742	197,869	-0,193	-0,205
239,757	370,770	-0,138	-0,194
240,772	283,745	-0,163	-0,204
241,786	240,592	-0,177	-0,205
242,801	-54,352	-0,061	-0,019
243,815	410,612	-0,146	-0,215
244,830	-200,000	-0,054	-0,204
245,844	759,941	-0,159	-0,299
246,859	206,009	-0,177	-0,191
247,874	106,554	-0,199	-0,163
248,888	-21,052	-0,260	-0,110
249,903	167,429	-0,116	-0,114
250,917	431,672	-0,120	-0,181
251,932	-22,344	-0,176	-0,073
252,947	-20,350	-0,345	-0,147
253,961	135,853	-0,164	-0,148
254,976	-97,122	-0,136	-0,024
255,990	127,136	-0,128	-0,112
257,005	103,493	-0,149	-0,121
258,020	-149,107	-0,230	-0,013
259,034	13,916	-0,162	-0,087
260,049	-54,356	-0,157	0,049
261,063	800,000	-0,044	-0,087
262,078	-146,098	-0,211	-0,013
263,093	736,886	-0,160	-0,298
264,107	800,000	-0,064	-0,189
265,122	99,367	-0,170	-0,136
266,136	50,455	-0,175	-0,114
267,151	44,853	-0,142	-0,090
268,166	800,000	-0,062	-0,150
269,180	51,163	-0,200	-0,131
270,195	142,146	-0,175	-0,160
271,209	94,857	-0,213	-0,167
272,224	-17,624	-0,220	-0,095
273,239	116,823	-0,083	-0,070
274,253	-91,059	-0,123	0,024
275,268	-111,899	-0,213	-0,029
276,282	-62,607	-0,176	-0,050
277,297	85,545	-0,198	-0,150
278,312	646,656	-0,095	-0,168
279,326	411,854	-0,062	-0,091
280,341	76,611	-0,142	-0,104
281,355	705,521	-0,072	0,132
282,370	31,230	-0,133	-0,078
283,384	-57,109	-0,159	-0,048
284,399	374,541	-0,134	-0,189
285,414	319,381	-0,130	-0,171
286,428	624,626	-0,142	-0,248
287,443	598,608	-0,047	-0,081
288,457	-97,378	0,040	0,007
289,472	23,163	-0,096	-0,054
290,487	-75,451	-0,283	-0,069
291,501	214,852	-0,187	-0,205
292,516	-19,972	-0,184	-0,078
293,530	-153,807	-0,156	0,007
294,545	-86,740	-0,229	-0,048
295,560	-76,189	-0,265	-0,064
296,574	166,788	-0,113	-0,111
297,589	31,796	-0,207	-0,123
298,603	-2,473	-0,148	-0,071
299,618	12,028	-0,212	-0,112
300,633	-200,000	-0,099	-0,312
301,647	789,269	-0,092	-0,175
302,662	-50,556	-0,191	-0,062
303,676	334,402	-0,084	-0,113
304,691	-113,532	-0,174	0,023
305,706	-147,044	-0,193	-0,011
306,720	184,260	-0,139	-0,142
307,735	86,366	-0,136	-0,103
308,749	-131,490	-0,209	0,019
309,764	-77,753	-0,072	-0,017
310,779	160,949	-0,095	-0,092
311,793	-129,910	-0,222	-0,021
312,808	-137,432	-0,158	-0,012
313,822	-128,936	-0,162	-0,015
314,837	321,005	-0,115	-0,151
315,852	210,780	-0,068	-0,073
316,866	205,883	-0,283	-0,304
317,881	175,421	-0,161	-0,161
318,895	264,092	-0,125	-0,150
319,910	-46,815	-0,183	-0,061
320,925	80,132	-0,175	-0,129
321,939	29,046	-0,193	-0,113
322,954	-200,000	-0,051	-0,164
323,968	0,811	-0,104	-0,051
324,983	-9,377	-0,161	0,074
325,997	-12,755	-0,210	-0,094
327,012	122,107	-0,172	-0,148
328,027	-75,400	-0,251	-0,061
329,041	-163,904	-0,204	-0,006
330,056	800,000	-0,124	-0,245
331,070	-200,000	-0,019	0,087
332,085	-2,520	-0,100	-0,048
333,100	800,000	-0,050	-0,106
334,114	-200,000	-0,017	-0,146
335,129	-84,727	-0,207	-0,044
336,143	-85,416	-0,165	0,035
337,158	139,330	-0,075	-0,068
338,173	-30,047	-0,225	-0,088
339,187	800,000	-0,060	-0,128
340,202	-46,215	-0,098	-0,033
341,216	800,000	0,052	-0,119
342,231	124,122	-0,086	-0,074
343,246	62,721	-0,209	-0,143
344,260	66,648	-0,091	-0,063
345,275	-200,000	0,002	0,066
346,289	-80,828	-0,207	-0,047
347,304	132,298	-0,155	-0,137
348,319	93,710	-0,091	-0,071
349,333	52,599	-0,182	-0,119
350,348	-47,858	-0,138	-0,046
351,362	646,464	-0,093	-0,163
352,377	317,427	-0,058	-0,075
353,392	286,301	-0,097	-0,121
354,406	-48,295	-0,203	-0,067
355,421	210,350	1316,233	1419,818
356,435	161,927	1477,154	1420,308
