DTS Sentinel unit serial number:	SN410029Multiplexer serial number:	ORYXHardware model number:	OX2-SRSoftware version number:	ORYX F/W v4,00 Oryx Data Collector v3.7.2.0data status	okinstallation	B3 Nyhavnadifferential loss correction	single-endedforward channel	channel 1reverse channel	N/Adate	2023/11/28time	19:37:30forward acquisition time	300,00reverse acquisition time	0,00gamma	499,1914k internal	0,3193k external	0,3193temperature offset calibration	1,0000default loss term (dB/km)	0,3820temperature slope calibration	1,0000multiplexer offset coefficient	1,0000multiplexer slope coefficient	1,0000fibre end	0,00T internal ref (°C)	7,68T ext. ref 1 (°C)	-6,88T ext. ref 2 (°C)	-7,03length (m)	temperature (°C)	Stokes	anti-Stokes-744,400	217,308	-0,218	-0,254
-743,385	-200,000	-0,052	0,229
-742,371	545,069	-0,160	-0,279
-741,356	-200,000	-0,035	0,241
-740,342	211,619	-0,180	-0,207
-739,327	-200,000	-0,026	0,202
-738,312	164,497	-0,289	-0,297
-737,298	800,000	-0,108	0,265
-736,283	266,372	-0,269	-0,343
-735,269	-200,000	0,043	0,303
-734,254	374,849	-0,203	-0,302
-733,239	-74,216	-0,242	0,063
-732,225	-200,000	0,032	-0,194
-731,210	659,259	0,117	0,220
-730,196	-50,216	-0,065	-0,022
-729,181	-103,892	-0,098	-0,016
-728,167	82,239	-0,075	-0,059
-727,152	34,791	-0,067	-0,042
-726,137	-43,827	-0,074	-0,027
-725,123	46,570	-0,068	0,046
-724,108	-200,000	-0,051	-0,170
-723,094	-100,711	-0,082	0,015
-722,079	800,000	-0,023	0,050
-721,064	-200,000	-0,036	-0,119
-720,050	227,332	-0,102	0,121
-719,035	27,445	0,050	0,031
-718,021	-104,719	-0,161	-0,027
-717,006	-65,608	-0,182	-0,053
-715,991	-200,000	0,012	0,079
-714,977	123,963	-0,148	-0,136
-713,962	163,368	-0,135	-0,138
-712,948	101,943	0,066	0,056
-711,933	242,332	0,015	-0,019
-710,918	64,527	0,031	-0,023
-709,904	800,000	0,026	-0,075
-708,889	117,309	0,015	0,014
-707,875	46,024	-0,110	-0,074
-706,860	800,000	-0,027	-0,060
-705,845	59,491	0,091	0,065
-704,831	-33,333	-0,035	-0,014
-703,816	365,010	-0,101	0,148
-702,802	-110,018	-0,046	0,007
-701,787	-140,600	-0,043	0,003
-700,772	37,338	-0,074	0,048
-699,758	763,478	-0,055	-0,109
-698,743	303,020	-0,001	-0,002
-697,729	800,000	0,023	0,067
-696,714	523,384	-0,041	-0,070
-695,699	86,791	-0,049	-0,040
-694,685	-200,000	-0,018	-0,115
-693,670	-20,093	-0,117	-0,052
-692,656	-133,810	-0,074	-0,007
-691,641	230,894	0,036	0,043
-690,627	-200,000	-0,012	-0,143
-689,612	217,060	-0,106	-0,123
-688,597	-60,367	-0,171	-0,053
-687,583	80,870	-0,154	-0,121
-686,568	-200,000	-0,017	-0,160
-685,554	-29,302	-0,114	0,047
-684,539	800,000	-0,037	-0,106
-683,524	-200,000	-0,011	0,050
-682,510	61,793	-0,035	0,026
-681,495	-24,473	-0,091	-0,039
-680,481	-200,000	0,007	-0,066
-679,466	-95,099	-0,134	-0,026
-678,451	-172,156	0,131	0,003
-677,437	183,374	-0,047	-0,050
-676,422	-102,369	0,071	-0,012
-675,408	-200,000	-0,016	-0,097
-674,393	588,538	-0,081	0,146
-673,378	-71,851	-0,168	0,045
-672,364	269,092	0,016	0,020
-671,349	-200,000	-0,035	-0,115
-670,335	206,129	0,110	-0,125
-669,320	-112,131	0,042	0,006
-668,305	107,131	0,009	0,008
-667,291	-200,000	-0,011	-0,096
-666,276	120,797	-0,063	-0,057
-665,262	-200,000	0,017	-0,064
-664,247	-86,447	0,082	0,018
-663,232	-200,000	0,005	0,052
-662,218	-12,028	0,036	-0,017
-661,203	-200,000	-0,005	-0,036
-660,189	297,619	-0,032	0,043
-659,174	13,800	-0,143	0,080
-658,159	10,378	0,030	-0,017
-657,145	168,739	0,021	-0,022
-656,130	759,707	-0,042	-0,083
-655,116	-200,000	0,003	0,064
-654,101	-128,641	0,228	-0,023
-653,086	800,000	-0,007	0,016
-652,072	-200,000	0,001	-0,006
-651,057	192,476	-0,130	-0,143
-650,043	-105,821	-0,112	0,018
-649,028	-200,000	0,010	-0,180
-648,014	800,000	-0,009	-0,024
-646,999	800,000	-0,019	0,049
-645,984	71,709	0,063	-0,048
-644,970	251,609	-0,111	-0,138
-643,955	110,957	-0,076	-0,067
-642,941	800,000	0,019	-0,047
-641,926	-4,365	-0,017	-0,008
-640,911	43,718	0,105	-0,070
-639,897	-45,397	-0,109	0,039
-638,882	-104,259	0,168	0,028
-637,868	-104,601	0,098	-0,016
-636,853	-148,919	0,088	0,005
-635,838	-200,000	-0,019	-0,086
-634,824	-66,258	-0,090	-0,026
-633,809	155,131	-0,072	0,072
-632,795	-37,647	0,068	0,026
-631,780	-29,132	-0,047	0,020
-630,765	179,890	0,009	-0,009
-629,751	-48,613	-0,133	-0,046
-628,736	-200,000	0,015	-0,192
-627,722	143,635	-0,065	0,063
-626,707	618,610	0,000	-0,001
-625,692	-200,000	0,021	-0,069
-624,678	-200,000	-0,005	0,040
-623,663	49,365	0,058	0,039
-622,649	159,647	-0,026	0,027
-621,634	-15,941	-0,121	-0,056
-620,619	355,777	-0,051	-0,074
-619,605	-200,000	-0,026	-0,211
-618,590	663,964	-0,042	-0,079
-617,576	360,617	-0,027	0,039
-616,561	-200,000	0,001	0,054
-615,546	800,000	0,019	-0,041
-614,532	-200,000	-0,002	-0,120
-613,517	-70,747	-0,162	-0,044
-612,503	-74,680	0,077	-0,020
-611,488	-46,066	-0,062	0,022
-610,474	-126,729	0,127	-0,013
-609,459	68,883	-0,032	-0,024
-608,444	-18,383	0,106	0,048
-607,430	539,123	-0,061	-0,106
-606,415	-200,000	-0,009	-0,086
-605,401	218,001	0,099	0,115
-604,386	12,159	0,180	0,100
-603,371	25,733	0,074	-0,045
-602,357	30,307	0,045	0,028
-601,342	-156,870	-0,119	-0,005
-600,328	-76,152	-0,109	-0,028
-599,313	-63,621	0,078	0,023
-598,298	149,126	-0,065	-0,064
-597,284	-200,000	0,030	-0,127
-596,269	-200,000	0,000	-0,020
-595,255	-151,242	-0,081	-0,004
-594,240	-8,796	-0,105	0,051
-593,225	362,876	0,041	0,060
-592,211	-200,000	0,011	-0,149
-591,196	-17,215	-0,097	0,044
-590,182	290,621	-0,078	-0,103
-589,167	-200,000	-0,020	0,074
-588,152	335,777	0,064	0,090
-587,138	315,776	-0,075	-0,102
-586,123	-34,550	0,126	0,050
-585,109	117,917	-0,095	-0,084
-584,094	321,515	-0,055	-0,076
-583,079	4,749	0,059	0,032
-582,065	276,891	0,059	0,076
-581,050	283,299	0,045	0,059
-580,036	459,891	-0,041	-0,066
-579,021	52,488	-0,045	-0,031
-578,006	266,128	-0,073	-0,093
-576,992	800,000	0,028	0,078
-575,977	-90,955	-0,100	0,021
-574,963	-31,387	-0,140	-0,057
-573,948	-161,929	-0,075	0,003
-572,934	800,000	-0,037	0,083
-571,919	-200,000	-0,027	-0,104
-570,904	278,955	0,090	-0,116
-569,890	800,000	-0,061	-0,127
-568,875	192,045	0,056	0,061
-567,861	-200,000	-0,011	-0,079
-566,846	191,194	0,038	0,041
-565,831	-200,000	0,003	0,016
-564,817	-189,811	-0,132	0,001
-563,802	800,000	-0,019	0,043
-562,788	620,203	-0,078	-0,143
-561,773	-41,771	0,084	0,031
-560,758	-200,000	0,005	0,130
-559,744	-200,000	0,028	0,136
-558,729	800,000	-0,023	0,065
-557,715	56,383	-0,081	0,057
-556,700	-200,000	0,004	0,075
-555,685	70,644	-0,119	-0,089
-554,671	-33,415	0,056	-0,022
-553,656	538,999	-0,085	0,147
-552,642	-127,199	0,101	0,011
-551,627	480,978	0,070	0,116
-550,612	-21,842	-0,151	0,066
-549,598	-200,000	-0,012	-0,089
-548,583	-200,000	0,015	-0,095
-547,569	63,518	0,055	-0,040
-546,554	800,000	0,013	-0,028
-545,539	696,653	-0,023	-0,044
-544,525	570,194	-0,050	0,089
-543,510	-55,436	-0,050	-0,016
-542,496	-108,424	-0,128	-0,020
-541,481	385,705	0,041	-0,062
-540,466	-200,000	-0,015	0,133
-539,452	86,847	0,066	-0,052
-538,437	800,000	-0,070	0,154
-537,423	75,325	-0,035	0,027
-536,408	354,767	-0,062	-0,089
-535,393	-200,000	-0,007	-0,202
-534,379	-54,617	-0,163	0,053
-533,364	21,616	-0,003	0,002
-532,350	800,000	-0,013	0,036
-531,335	43,615	0,075	-0,050
-530,321	28,105	0,063	0,038
-529,306	-118,935	-0,104	0,013
-528,291	-96,184	-0,066	0,013
-527,277	11,436	0,078	-0,043
-526,262	128,069	0,102	0,094
-525,248	-89,598	0,020	0,004
-524,233	-200,000	-0,007	0,124
-523,218	108,321	0,076	0,066
-522,204	253,414	-0,039	0,048
-521,189	279,851	-0,036	-0,047
-520,175	54,870	-0,067	-0,047
-519,160	291,489	0,040	-0,053
-518,145	204,890	0,134	-0,150
-517,131	-200,000	0,006	-0,034
-516,116	-60,605	-0,106	0,032
-515,102	-200,000	0,001	-0,013
-514,087	-200,000	0,023	-0,151
-513,072	-200,000	0,032	-0,204
-512,058	253,517	-0,039	-0,048
-511,043	-55,779	0,084	0,027
-510,029	800,000	-0,034	0,104
-509,014	-20,754	0,086	0,038
-507,999	176,840	-0,103	0,108
-506,985	-200,000	0,006	0,034
-505,970	-1,423	0,039	0,020
-504,956	152,221	-0,136	-0,134
-503,941	-200,000	-0,037	-0,157
-502,926	-154,844	-0,175	-0,008
-501,912	58,223	0,043	0,030
-500,897	1,767	0,076	-0,039
-499,883	-66,559	-0,083	0,024
-498,868	430,169	-0,045	0,071
-497,853	-32,455	-0,184	0,074
-496,839	19,089	-0,065	0,038
-495,824	355,790	0,078	0,113
-494,810	254,390	0,048	0,060
-493,795	800,000	0,041	0,087
-492,781	-175,048	-0,065	0,001
-491,766	-134,915	-0,043	-0,004
-490,751	219,311	-0,016	-0,019
-489,737	-139,649	0,064	-0,005
-488,722	159,697	0,057	0,058
-487,708	421,280	-0,078	0,121
-486,693	-172,696	-0,087	0,002
-485,678	142,083	0,018	0,017
-484,664	800,000	-0,011	-0,022
-483,649	-200,000	-0,007	0,049
-482,635	-200,000	0,001	0,045
-481,620	91,472	0,050	-0,040
-480,605	755,974	0,041	0,081
-479,591	-200,000	0,017	-0,078
-478,576	-68,788	-0,085	0,023
-477,562	800,000	0,061	-0,160
-476,547	-200,000	0,010	-0,097
-475,532	-200,000	0,016	-0,055
-474,518	14,125	0,012	-0,007
-473,503	-90,347	-0,076	0,016
-472,489	-200,000	-0,044	-0,191
-471,474	-200,000	0,014	-0,059
-470,459	-135,134	-0,116	0,010
-469,445	-200,000	-0,049	-0,187
-468,430	771,874	-0,037	-0,072
-467,416	162,430	0,105	0,106
-466,401	332,603	0,040	0,056
-465,386	306,025	0,054	0,072
-464,372	62,656	-0,033	-0,024
-463,357	46,356	0,007	-0,005
-462,343	579,349	0,024	-0,042
-461,328	-6,115	-0,071	-0,035
-460,313	546,914	-0,015	-0,027
-459,299	-200,000	-0,003	-0,021
-458,284	462,178	0,049	0,079
-457,270	100,440	-0,124	0,104
-456,255	800,000	0,016	0,034
-455,241	-33,058	-0,026	-0,010
-454,226	594,735	-0,074	-0,133
-453,211	-200,000	-0,003	-0,068
-452,197	328,603	0,026	-0,036
-451,182	209,122	-0,039	0,044
-450,168	-110,667	0,050	0,007
-449,153	3,633	0,060	0,031
-448,138	569,364	-0,053	-0,093
-447,124	800,000	-0,017	-0,053
-446,109	257,810	-0,033	-0,041
-445,095	28,731	0,143	-0,087
-444,080	100,487	0,073	-0,061
-443,065	-200,000	-0,002	0,023
-442,051	-54,276	-0,079	-0,026
-441,036	73,247	0,107	-0,081
-440,022	184,088	0,037	0,039
-439,007	-107,512	0,062	0,010
-437,992	800,000	0,034	0,080
-436,978	-200,000	0,005	0,026
-435,963	-200,000	-0,002	0,022
-434,949	2,141	-0,061	-0,032
-433,934	-200,000	0,022	-0,172
-432,919	-200,000	-0,008	-0,083
-431,905	97,409	0,106	0,088
-430,890	-200,000	-0,010	0,091
-429,876	84,847	0,109	0,086
-428,861	-115,510	0,103	-0,014
-427,846	146,528	-0,111	-0,108
-426,832	-72,560	-0,038	0,010
-425,817	800,000	0,011	0,024
-424,803	-139,720	0,072	-0,005
-423,788	800,000	-0,022	0,046
-422,773	259,975	-0,085	-0,107
-421,759	-200,000	-0,002	0,024
-420,744	-200,000	-0,053	-0,172
-419,730	800,000	0,013	-0,035
-418,715	-58,708	-0,107	-0,033
-417,701	725,060	0,061	0,117
-416,686	-161,339	0,122	-0,004
-415,671	-200,000	-0,030	0,199
-414,657	173,219	0,009	0,009
-413,642	116,947	-0,029	-0,026
-412,628	-200,000	-0,008	-0,104
-411,613	496,175	0,062	0,103
-410,598	-200,000	-0,002	-0,027
-409,584	7,034	0,133	-0,071
-408,569	136,640	0,055	-0,051
-407,555	-200,000	0,010	0,056
-406,540	800,000	0,020	0,057
-405,525	205,360	-0,051	0,057
-404,511	-43,940	0,077	-0,028
-403,496	-20,951	0,103	0,045
-402,482	-200,000	-0,014	0,135
-401,467	-200,000	0,005	0,193
-400,452	364,522	-0,051	0,074
-399,438	-200,000	-0,001	0,016
-398,423	-22,155	0,199	-0,086
-397,409	800,000	-0,033	-0,091
-396,394	152,740	0,102	-0,100
-395,379	136,033	-0,103	0,096
-394,365	12,917	0,095	0,053
-393,350	48,865	0,152	0,102
-392,336	800,000	0,049	0,133
-391,321	-51,886	-0,126	0,042
-390,306	107,429	0,098	0,084
-389,292	800,000	0,068	0,191
-388,277	76,893	-0,070	-0,053
-387,263	204,327	0,089	-0,099
-386,248	201,343	0,050	0,055
-385,233	-91,187	0,165	0,034
-384,219	700,959	-0,097	-0,184
-383,204	96,125	0,046	-0,038
-382,190	-200,000	-0,019	-0,070
-381,175	-200,000	-0,001	-0,047
-380,160	91,132	0,045	0,036
-379,146	568,620	-0,056	0,097
-378,131	22,629	0,121	0,071
-377,117	-180,270	0,146	0,002
-376,102	-200,000	0,010	-0,071
-375,088	-123,368	-0,075	-0,009
-374,073	464,627	0,095	-0,154
-373,058	189,025	-0,067	-0,072
-372,044	-42,075	0,085	0,031
-371,029	272,583	-0,061	-0,077
-370,015	-200,000	-0,020	-0,098
-369,000	-10,158	0,035	0,017
-367,985	160,245	0,060	-0,061
-366,971	-84,373	0,116	0,026
-365,956	-31,180	-0,152	-0,061
-364,942	115,519	-0,069	0,061
-363,927	469,078	-0,044	0,072
-362,912	-200,000	0,011	0,132
-361,898	-200,000	-0,009	0,127
-360,883	12,573	-0,092	0,051
-359,869	-200,000	0,005	0,068
-358,854	-153,686	0,042	-0,002
-357,839	181,441	-0,130	0,138
-356,825	267,461	0,100	0,126
-355,810	399,701	-0,059	0,088
-354,796	-200,000	0,032	0,111
-353,781	-80,448	0,061	0,014
-352,766	50,950	-0,043	0,029
-351,752	185,995	0,082	0,087
-350,737	333,014	0,097	0,134
-349,723	-19,600	0,137	0,060
-348,708	89,999	-0,043	-0,034
-347,693	328,482	0,058	-0,081
-346,679	-200,000	0,002	-0,091
-345,664	800,000	-0,018	0,051
-344,650	431,832	0,021	-0,033
-343,635	638,170	0,020	-0,037
-342,620	-125,832	0,050	-0,005
-341,606	702,914	0,048	-0,091
-340,591	-112,518	0,171	-0,024
-339,577	105,906	0,078	-0,067
-338,562	-200,000	-0,020	-0,275
-337,548	373,247	0,037	-0,054
-336,533	-88,794	-0,138	0,029
-335,518	68,349	0,098	0,072
-334,504	-45,044	-0,097	0,034
-333,489	115,682	-0,065	-0,057
-332,475	197,331	-0,020	-0,022
-331,460	-155,500	0,105	-0,005
-330,445	41,958	0,028	-0,018
-329,431	95,779	-0,023	-0,019
-328,416	-6,973	0,040	-0,019
-327,402	-136,293	0,137	0,011
-326,387	349,485	-0,046	0,066
-325,372	-200,000	0,029	0,092
-324,358	30,045	-0,081	-0,049
-323,343	-60,101	-0,133	-0,040
-322,329	-153,947	0,074	0,004
-321,314	-200,000	-0,002	-0,020
-320,299	677,727	-0,091	-0,171
-319,285	-64,862	-0,211	0,061
-318,270	-200,000	0,004	0,069
-317,256	85,326	-0,010	0,008
-316,241	-200,000	-0,000	-0,078
-315,226	-200,000	0,024	-0,125
-314,212	148,723	0,120	0,116
-313,197	-200,000	-0,000	0,128
-312,183	-199,782	0,064	-0,000
-311,168	-200,000	0,001	-0,034
-310,153	-200,000	-0,001	-0,004
-309,139	39,046	-0,073	-0,047
-308,124	-200,000	-0,029	0,123
-307,110	800,000	0,049	0,106
-306,095	-200,000	0,002	0,076
-305,080	-200,000	0,040	-0,165
-304,066	68,702	-0,073	-0,054
-303,051	-200,000	0,009	-0,089
-302,037	-200,000	0,012	-0,121
-301,022	29,651	0,058	0,035
-300,008	-109,374	0,042	0,006
-298,993	8,034	-0,098	0,052
-297,978	800,000	0,017	0,034
-296,964	-75,778	0,075	-0,019
-295,949	-200,000	0,012	-0,110
-294,935	10,741	0,137	-0,075
-293,920	-200,000	-0,028	-0,129
-292,905	800,000	0,019	0,052
-291,891	34,201	0,036	0,023
-290,876	131,668	-0,054	0,050
-289,862	-200,000	-0,007	-0,072
-288,847	-200,000	-0,023	-0,129
-287,832	105,984	0,031	0,026
-286,818	-57,648	-0,052	0,016
-285,803	800,000	0,029	0,085
-284,789	181,511	-0,076	0,080
-283,774	73,015	0,063	0,047
-282,759	-200,000	0,004	-0,059
-281,745	265,552	-0,009	0,012
-280,730	401,601	0,015	0,022
-279,716	159,658	0,032	-0,031
-278,701	-200,000	0,019	0,095
-277,686	800,000	0,059	0,168
-276,672	-200,000	0,048	0,168
-275,657	-200,000	0,004	-0,019
-274,643	-200,000	0,017	-0,148
-273,628	606,641	-0,075	0,134
-272,613	800,000	0,054	0,120
-271,599	137,852	-0,070	0,066
-270,584	-64,267	0,201	0,058
-269,570	-200,000	0,001	0,119
-268,555	352,420	0,061	0,086
-267,540	56,870	-0,085	-0,059
-266,526	800,000	-0,053	-0,145
-265,511	406,658	-0,076	-0,114
-264,497	85,893	0,095	-0,075
-263,482	89,322	0,011	0,009
-262,467	660,420	0,037	0,068
-261,453	-200,000	0,019	0,085
-260,438	-200,000	0,000	0,011
-259,424	-145,385	-0,017	0,001
-258,409	-11,363	-0,094	-0,044
-257,395	154,793	0,104	-0,103
-256,380	-200,000	-0,023	0,138
-255,365	177,058	-0,066	0,069
-254,351	800,000	0,029	-0,059
-253,336	-65,948	-0,108	-0,031
-252,322	78,439	-0,123	0,094
-251,307	-112,132	0,078	-0,011
-250,292	82,227	-0,153	-0,119
-249,278	-200,000	-0,010	0,033
-248,263	47,799	0,054	0,036
-247,249	68,975	-0,029	0,021
-246,234	800,000	0,041	-0,083
-245,219	800,000	-0,022	-0,064
-244,205	-87,085	0,059	-0,013
-243,190	800,000	-0,072	-0,150
-242,176	-44,540	-0,109	0,039
-241,161	146,940	0,068	0,065
-240,146	800,000	0,069	0,212
-239,132	-200,000	0,000	0,069
-238,117	274,921	-0,069	-0,088
-237,103	476,536	-0,078	-0,127
-236,088	130,611	-0,090	0,082
-235,073	-200,000	-0,009	-0,054
-234,059	515,658	-0,021	-0,035
-233,044	-45,575	0,020	-0,007
-232,030	71,441	-0,043	-0,032
-231,015	-121,787	-0,085	0,010
-230,000	800,000	0,053	-0,129
-228,986	172,654	0,030	-0,031
-227,971	-200,000	0,005	-0,090
-226,957	800,000	0,032	-0,079
-225,942	72,830	0,047	0,035
-224,927	173,356	-0,037	0,038
-223,913	-91,212	0,039	-0,008
-222,898	338,938	0,024	-0,033
-221,884	-200,000	0,012	-0,121
-220,869	-200,000	0,030	0,102
-219,855	-121,238	-0,117	0,014
-218,840	800,000	0,048	0,123
-217,825	181,502	0,063	0,066
-216,811	-108,563	-0,088	-0,013
-215,796	17,718	-0,025	0,014
-214,782	106,492	-0,040	0,034
-213,767	-200,000	0,005	-0,069
-212,752	300,545	-0,078	0,103
-211,738	-200,000	0,021	0,079
-210,723	80,303	-0,060	-0,046
-209,709	609,978	-0,036	-0,064
-208,694	800,000	-0,007	0,020
-207,679	123,067	0,074	0,066
-206,665	-200,000	-0,024	0,144
-205,650	426,315	0,078	0,120
-204,636	-200,000	-0,028	0,132
-203,621	-200,000	0,049	0,186
-202,606	-23,414	-0,022	0,010
-201,592	-12,998	-0,167	-0,077
-200,577	6,171	-0,038	0,020
-199,563	-115,249	0,131	0,017
-198,548	141,407	-0,052	0,049
-197,533	-94,641	0,137	-0,026
-196,519	215,663	-0,047	0,053
-195,504	522,530	-0,098	-0,165
-194,490	-200,000	0,034	-0,145
-193,475	-167,704	-0,038	0,001
-192,460	628,904	0,059	-0,106
-191,446	800,000	0,021	0,046
-190,431	-43,680	-0,060	0,021
-189,417	129,963	-0,029	0,027
-188,402	-200,000	0,041	0,160
-187,387	800,000	-0,067	0,152
-186,373	-200,000	0,006	-0,092
-185,358	800,000	-0,027	0,074
-184,344	800,000	-0,036	0,097
-183,329	800,000	-0,041	0,094
-182,315	24,317	-0,087	0,051
-181,300	605,569	-0,014	-0,025
-180,285	-43,138	-0,023	-0,008
-179,271	-200,000	0,030	-0,114
-178,256	-165,457	-0,124	-0,004
-177,242	800,000	0,042	-0,099
-176,227	239,809	0,176	0,209
-175,212	-34,188	0,071	0,028
-174,198	308,723	0,098	0,131
-173,183	111,960	0,159	-0,137
-172,169	785,494	-0,032	-0,062
-171,154	-30,264	0,051	0,021
-170,139	17,118	0,123	0,069
-169,125	-116,079	0,052	0,007
-168,110	-200,000	-0,012	0,087
-167,096	-200,000	0,017	0,063
-166,081	368,221	-0,055	0,079
-165,066	43,781	-0,108	-0,071
-164,052	374,865	-0,045	0,065
-163,037	-200,000	-0,011	0,057
-162,023	800,000	-0,034	-0,097
-161,008	-126,755	0,175	-0,018
-159,993	800,000	0,021	-0,056
-158,979	-200,000	0,011	-0,078
-157,964	800,000	0,006	-0,016
-156,950	115,779	-0,096	0,084
-155,935	-26,337	0,066	0,028
-154,920	73,655	0,110	0,082
-153,906	262,628	-0,079	-0,097
-152,891	800,000	0,035	0,085
-151,877	800,000	0,027	-0,067
-150,862	-144,783	-0,104	-0,007
-149,847	528,755	-0,057	-0,095
-148,833	-50,701	-0,100	-0,033
-147,818	-142,898	0,157	-0,011
-146,804	0,865	0,030	0,015
-145,789	-200,000	0,011	0,084
-144,775	-200,000	0,010	-0,237
-143,760	-200,000	0,007	-0,114
-142,745	-75,931	-0,084	-0,021
-141,731	-200,000	0,005	-0,039
-140,716	52,510	-0,050	-0,034
-139,702	-8,344	-0,056	0,027
-138,687	158,380	0,019	0,019
-137,672	148,831	-0,047	-0,046
-136,658	-18,901	0,146	-0,064
-135,643	293,096	0,051	-0,067
-134,629	-52,547	-0,017	0,005
-133,614	-200,000	-0,005	-0,024
-132,599	800,000	0,039	0,083
-131,585	-200,000	0,029	0,163
-130,570	91,672	0,083	0,066
-129,556	-200,000	-0,025	-0,095
-128,541	542,097	0,008	-0,013
-127,526	-200,000	0,001	-0,142
-126,512	-36,503	0,074	0,028
-125,497	-200,000	-0,044	0,172
-124,483	15,511	0,053	0,030
-123,468	200,613	0,049	0,053
-122,453	41,987	-0,071	-0,046
-121,439	-200,000	-0,017	-0,098
-120,424	-8,696	0,208	-0,099
-119,410	-200,000	0,033	0,111
-118,395	256,689	0,052	0,064
-117,380	170,958	0,022	-0,023
-116,366	-200,000	-0,004	0,116
-115,351	-200,000	-0,011	0,130
-114,337	61,669	-0,107	-0,075
-113,322	424,331	-0,039	-0,060
-112,307	-89,233	0,073	0,015
-111,293	800,000	0,027	-0,073
-110,278	800,000	-0,054	0,136
-109,264	39,790	0,033	-0,021
-108,249	-23,292	0,090	-0,038
-107,234	253,752	-0,048	-0,059
-106,220	800,000	-0,026	-0,068
-105,205	-17,278	0,157	0,070
-104,191	538,209	-0,034	-0,057
-103,176	-107,900	0,138	0,021
-102,162	-21,684	-0,062	-0,027
-101,147	46,317	0,022	-0,014
-100,132	72,421	-0,154	-0,114
-99,118	100,135	0,075	0,062
-98,103	206,469	0,035	-0,039
-97,089	484,447	0,054	0,088
-96,074	191,905	0,086	0,092
-95,059	-77,890	-0,130	0,032
-94,045	-141,036	0,058	-0,004
-93,030	-200,000	0,003	-0,073
-92,016	-116,967	-0,099	0,013
-91,001	-113,092	-0,059	0,008
-89,986	-200,000	0,019	0,076
-88,972	-8,773	0,054	0,025
-87,957	-149,862	0,186	-0,010
-86,943	-52,780	-0,094	-0,031
-85,928	137,556	-0,103	-0,095
-84,913	-77,076	0,063	-0,016
-83,899	-136,727	0,033	0,003
-82,884	-106,042	-0,112	-0,018
-81,870	800,000	0,040	0,090
-80,855	213,545	0,128	0,144
-79,840	389,551	0,020	0,030
-78,826	-115,421	-0,053	0,007
-77,811	564,557	-0,047	-0,082
-76,797	-200,000	0,033	-0,122
-75,782	288,267	-0,029	0,037
-74,767	170,128	-0,100	0,102
-73,753	740,559	-0,031	0,059
-72,738	-200,000	0,012	-0,125
-71,724	800,000	0,041	-0,107
-70,709	620,805	-0,066	-0,119
-69,694	-87,066	-0,130	0,028
-68,680	-200,000	-0,045	-0,165
-67,665	522,213	-0,046	0,077
-66,651	751,693	-0,053	0,103
-65,636	102,420	-0,057	-0,047
-64,622	-98,902	-0,048	-0,009
-63,607	42,628	0,069	0,044
-62,592	108,017	-0,060	0,051
-61,578	-57,078	0,052	-0,016
-60,563	245,278	-0,082	0,098
-59,549	-200,000	-0,023	0,152
-58,534	70,045	-2,246	-1,644
-57,519	560,456	-1,078	-1,856
-56,505	-200,000	-0,338	-4,270
-55,490	800,000	0,956	1,913
-54,476	800,000	5,280	11,370
-53,461	-200,000	22,560	347,195
-52,446	800,000	756,709	2283,240
-51,432	520,269	1639,115	2737,522
-50,417	66,084	1628,877	1171,618
-49,403	15,260	1472,117	816,970
-48,388	9,538	1375,082	736,814
-47,373	19,674	1364,833	777,390
-46,359	13,311	1352,607	741,766
-45,344	7,813	1348,458	714,672
-44,330	7,737	1346,736	713,389
-43,315	7,718	1344,950	712,329
-42,300	7,748	1343,311	711,566
-41,286	7,828	1341,853	711,126
-40,271	7,766	1340,906	710,317
-39,257	7,728	1339,973	709,626
-38,242	7,790	1339,001	709,362
-37,227	7,807	1337,722	708,732
-36,213	7,777	1336,602	707,975
-35,198	7,815	1335,615	707,594
-34,184	7,817	1334,653	707,067
-33,169	7,745	1333,301	705,999
-32,154	7,788	1332,440	705,709
-31,140	7,718	1331,245	704,736
-30,125	7,808	1330,231	704,570
-29,111	7,764	1329,158	703,780
-28,096	7,797	1328,051	703,309
-27,082	7,723	1326,961	702,379
-26,067	7,700	1325,929	701,699
-25,052	7,732	1324,996	701,321
-24,038	7,777	1324,188	701,067
-23,023	7,739	1323,340	700,420
-22,009	7,755	1322,132	699,824
-20,994	7,720	1321,398	699,252
-19,979	7,713	1320,690	698,820
-18,965	7,640	1319,809	698,004
-17,950	7,648	1318,739	697,447
-16,936	7,608	1318,068	696,886
-15,921	7,614	1317,061	696,351
-14,906	7,616	1316,192	695,876
-13,892	7,667	1315,129	695,509
-12,877	7,623	1314,335	694,868
-11,863	7,587	1313,812	694,406
-10,848	7,588	1312,795	693,844
-9,833	7,540	1312,005	693,188
-8,819	7,528	1311,150	692,656
-7,804	7,512	1310,577	692,253
-6,790	7,508	1309,432	691,606
-5,775	7,500	1308,579	691,095
-4,760	7,526	1307,516	690,616
-3,746	7,538	1306,642	690,181
-2,731	7,602	1305,773	689,975
-1,717	7,476	1305,286	689,142
-0,702	7,507	1303,563	688,338
0,313	11,486	1218,123	660,412
1,327	27,104	640,639	380,467
2,342	41,988	109,944	70,622
3,356	0,193	15,640	7,884
4,371	-6,983	3,693	1,772
5,386	-6,931	1,481	0,711
6,400	531,083	0,362	0,608
7,415	289,078	-0,193	-0,248
8,429	33,890	-0,324	-0,200
9,444	56,414	-0,406	-0,279
10,459	800,000	-0,086	-0,190
11,473	-61,376	-0,299	-0,089
12,488	-78,905	-0,246	-0,059
13,502	173,621	-0,164	-0,168
14,517	-77,537	-0,426	-0,104
15,531	-63,435	-0,391	-0,113
16,546	59,016	-0,254	-0,177
17,561	-24,019	-0,350	-0,148
18,575	457,770	-0,128	0,202
19,590	-22,540	-0,263	-0,112
20,604	-88,485	-0,251	-0,053
21,619	66,902	-0,406	-0,292
22,634	40,151	-0,519	-0,330
23,648	198,286	-0,247	-0,268
24,663	182,490	-0,339	-0,354
25,677	84,897	-0,156	-0,121
26,692	68,894	-0,182	-0,132
27,707	-69,596	-0,384	-0,103
28,721	2,468	-0,329	-0,168
29,736	250,780	-0,330	-0,398
30,750	170,595	-0,281	-0,285
31,765	325,669	-0,310	-0,420
32,780	60,454	-0,338	-0,236
33,794	2,113	-0,248	-0,126
34,809	83,571	-0,290	-0,223
35,823	27,239	-0,322	-0,191
36,838	70,706	-0,307	-0,224
37,853	176,978	-0,321	-0,331
38,867	165,301	-0,292	-0,292
39,882	149,783	-0,151	-0,145
40,896	182,543	-0,204	-0,213
41,911	64,254	-0,372	-0,265
42,926	227,388	-0,169	-0,194
43,940	-14,408	-0,350	-0,159
44,955	23,267	-0,368	-0,213
45,969	39,919	-0,339	-0,215
46,984	188,511	-0,185	-0,196
47,999	-47,238	-0,356	-0,122
49,013	-34,253	-0,314	-0,121
50,028	99,606	-0,266	-0,218
51,042	-16,766	-0,442	-0,196
52,057	144,905	-0,362	-0,342
53,071	272,403	-0,191	-0,238
54,086	-100,534	-0,382	-0,066
55,101	-27,332	-0,311	-0,127
56,115	-0,304	-0,296	-0,148
57,130	285,076	-0,229	-0,291
58,144	84,496	-0,368	-0,284
59,159	347,353	-0,207	-0,289
60,174	71,074	-0,338	-0,247
61,188	32,893	-0,330	-0,201
62,203	-59,934	-0,283	-0,085
63,217	800,000	-0,098	-0,266
64,232	163,138	-0,296	-0,294
65,247	138,493	-0,284	-0,263
66,261	61,988	-0,273	-0,192
67,276	364,727	-0,279	-0,397
68,290	164,319	-0,293	-0,291
69,305	-149,260	-0,277	-0,015
70,320	-54,229	-0,182	-0,058
71,334	-15,845	-0,270	-0,121
72,349	159,165	-0,230	-0,225
73,363	46,203	-0,226	-0,147
74,378	16,744	-0,442	-0,245
75,393	-56,352	-0,403	-0,126
76,407	401,834	-0,208	-0,309
77,422	100,187	-0,179	-0,147
78,436	-44,408	-0,245	-0,086
79,451	-91,594	-0,284	-0,056
80,466	-25,681	-0,290	-0,120
81,480	226,787	-0,128	-0,147
82,495	109,756	-0,251	-0,212
83,509	240,504	-0,201	-0,236
84,524	-57,060	-0,360	-0,111
85,539	-25,039	-0,394	-0,164
86,553	-68,612	-0,344	-0,093
87,568	13,475	-0,323	-0,176
88,582	-158,142	-0,223	0,009
89,597	-38,812	-0,361	-0,133
90,611	180,993	-0,300	-0,310
91,626	-80,988	-0,263	-0,061
92,641	479,154	-0,034	-0,055
93,655	-34,726	-0,254	-0,097
94,670	26,032	-0,244	-0,143
95,684	163,670	-0,268	-0,266
96,699	93,396	-0,208	-0,165
97,714	35,313	-0,221	-0,136
98,728	107,515	-0,217	-0,182
99,743	46,473	-0,181	-0,118
100,757	-42,966	-0,320	-0,113
101,772	-107,168	-0,292	-0,045
102,787	30,788	-0,390	-0,234
103,801	-2,219	-0,292	-0,144
104,816	45,894	-0,209	-0,135
105,830	34,615	-0,229	-0,140
106,845	162,115	-0,216	-0,212
107,860	-32,427	-0,246	-0,096
108,874	24,894	-0,293	-0,170
109,889	-187,709	-0,217	-0,002
110,903	-3,940	-0,204	-0,099
111,918	-38,571	-0,306	-0,113
112,933	-183,349	-0,165	-0,002
113,947	-150,649	-0,097	-0,005
114,962	12,117	-0,342	-0,184
115,976	-66,711	-0,262	-0,072
116,991	78,494	-0,142	-0,106
118,006	-11,554	-0,169	-0,078
119,020	140,674	-0,132	-0,122
120,035	800,000	-0,102	-0,295
121,049	11,677	-0,182	-0,098
122,064	-72,615	-0,286	0,074
123,079	81,370	-0,236	-0,179
124,093	752,283	-0,087	-0,167
125,108	121,059	-0,256	-0,224
126,122	165,343	-0,155	-0,153
127,137	800,000	-0,105	-0,244
128,151	-54,660	-0,194	-0,061
129,166	142,703	-0,112	-0,105
130,181	32,042	-0,275	-0,166
131,195	112,787	-0,298	-0,253
132,210	800,000	-0,134	-0,296
133,224	3,862	-0,306	-0,156
134,239	-6,246	-0,298	-0,142
135,254	-59,586	-0,227	-0,068
136,268	208,812	-0,141	-0,155
137,283	85,030	-0,197	-0,152
138,297	17,756	-0,340	-0,189
139,312	59,522	-0,246	-0,170
140,327	659,085	-0,184	-0,333
141,341	48,230	-0,253	-0,165
142,356	7,110	-0,271	-0,141
143,370	-34,412	-0,198	-0,076
144,385	154,236	-0,175	-0,168
145,400	86,175	-0,169	-0,130
146,414	432,090	-0,131	-0,200
147,429	117,257	-0,244	-0,210
148,443	191,603	-0,214	-0,226
149,458	118,146	-0,113	-0,097
150,473	-81,982	-0,208	-0,047
151,487	-61,182	-0,289	-0,085
152,502	413,477	-0,192	-0,286
153,516	8,199	-0,191	-0,100
154,531	-3,537	-0,225	-0,109
155,546	45,689	-0,195	-0,126
156,560	-74,086	-0,227	-0,057
157,575	-15,310	-0,309	-0,138
158,589	334,658	-0,102	-0,139
159,604	716,044	-0,120	-0,225
160,619	75,301	-0,221	-0,163
161,633	-17,202	-0,331	-0,145
162,648	-56,641	-0,113	-0,035
163,662	642,467	-0,097	-0,174
164,677	250,775	-0,133	-0,158
165,692	551,098	-0,137	-0,230
166,706	25,212	-0,206	-0,119
167,721	95,227	-0,213	-0,169
168,735	134,745	-0,268	-0,243
169,750	115,064	-0,207	-0,177
170,764	365,943	-0,136	-0,192
171,779	17,348	-0,205	-0,113
172,794	-132,492	-0,215	0,019
173,808	-19,513	-0,189	-0,081
174,823	116,347	-0,179	-0,153
175,837	703,265	-0,143	-0,264
176,852	627,116	-0,123	-0,219
177,867	-152,917	-0,280	0,014
178,881	246,125	-0,090	-0,106
179,896	-200,000	-0,081	-0,337
180,910	21,466	-0,232	-0,131
181,925	-31,898	-0,274	-0,107
182,940	85,007	-0,156	-0,119
183,954	145,381	-0,268	-0,250
184,969	-200,000	-0,040	-0,137
185,983	-10,742	-0,221	-0,102
186,998	51,713	-0,194	-0,129
188,013	230,755	-0,196	-0,224
189,027	160,499	-0,220	-0,215
190,042	-6,015	-0,290	-0,138
191,056	423,318	-0,162	-0,244
192,071	280,869	-0,133	-0,166
193,086	236,433	-0,087	-0,101
194,100	304,568	-0,140	-0,182
195,115	12,252	-0,238	-0,127
196,129	201,887	-0,165	-0,178
197,144	89,798	-0,280	-0,218
198,159	-130,897	-0,229	-0,021
199,173	358,532	-0,171	-0,239
200,188	225,621	-0,096	-0,108
201,202	-158,097	-0,290	0,012
202,217	99,184	-0,159	-0,128
203,232	29,579	-0,177	-0,104
204,246	438,567	-0,123	-0,188
205,261	10,511	-0,221	-0,117
206,275	44,827	-0,271	-0,173
207,290	-74,026	-0,113	-0,028
208,304	563,211	-0,130	-0,220
209,319	331,814	-0,091	-0,122
210,334	151,684	-0,204	-0,194
211,348	60,203	-0,222	-0,153
212,363	-200,000	-0,036	-0,180
213,377	-147,508	-0,299	0,017
214,392	-16,396	-0,091	-0,040
215,407	-200,000	-0,016	-0,224
216,421	-46,466	-0,204	-0,069
217,436	447,706	-0,138	-0,213
218,450	-33,422	-0,250	-0,096
219,465	120,747	-0,069	-0,060
220,480	-9,695	-0,164	-0,076
221,494	-39,896	-0,123	-0,045
222,509	-28,718	-0,083	-0,033
223,523	46,996	-0,141	-0,091
224,538	-27,054	-0,169	-0,068
225,553	-88,034	-0,225	-0,047
226,567	210,117	-0,133	-0,146
227,582	284,197	-0,167	-0,210
228,596	-189,907	-0,046	-0,000
229,611	-59,007	-0,074	-0,022
230,626	158,544	-0,091	-0,087
231,640	14,053	-0,181	-0,098
232,655	-67,777	-0,096	-0,026
233,669	288,139	-0,133	-0,167
234,684	80,137	-0,197	-0,147
235,699	-15,418	-0,131	-0,058
236,713	67,091	-0,065	0,046
237,728	93,936	-0,169	-0,133
238,742	135,295	-0,086	0,078
239,757	229,810	-0,141	-0,160
240,772	-66,154	-0,158	-0,043
241,786	19,960	-0,187	-0,104
242,801	101,821	-0,166	-0,134
243,815	800,000	-0,022	-0,050
244,830	-56,566	-0,161	-0,049
245,844	71,428	-0,199	-0,144
246,859	120,082	-0,207	-0,178
247,874	-1,989	-0,175	-0,085
248,888	-88,169	-0,206	-0,043
249,903	-104,620	-0,138	-0,022
250,917	99,005	-0,250	-0,200
251,932	203,822	-0,126	-0,135
252,947	-102,252	-0,149	-0,025
253,961	387,767	-0,119	-0,172
254,976	-37,337	-0,238	-0,088
255,990	168,741	-0,181	-0,179
257,005	35,546	-0,218	-0,133
258,020	481,741	-0,119	-0,188
259,034	162,603	-0,083	-0,081
260,049	247,953	-0,181	-0,213
261,063	500,788	-0,095	-0,152
262,078	-72,649	-0,123	-0,031
263,093	-154,040	-0,158	0,007
264,107	250,626	-0,109	-0,129
265,122	800,000	-0,028	-0,072
266,136	167,678	-0,145	-0,143
267,151	-200,000	-0,059	-0,241
268,166	142,298	-0,167	-0,154
269,180	29,267	-0,193	-0,113
270,195	-61,275	-0,240	0,069
271,209	246,233	-0,109	-0,127
272,224	54,721	0,013	-0,009
273,239	-51,518	-0,187	-0,060
274,253	57,359	-0,086	0,058
275,268	-200,000	-0,071	0,000
276,282	69,060	-0,200	-0,142
277,297	446,873	-0,209	-0,319
278,312	-18,503	-0,264	-0,113
279,326	-120,564	-0,216	-0,025
280,341	-148,019	-0,149	0,008
281,355	263,072	-0,180	-0,217
282,370	76,322	-0,162	-0,119
283,384	53,021	-0,176	-0,116
284,399	125,114	-0,231	-0,201
285,414	800,000	-0,097	-0,268
286,428	-200,000	-0,020	-0,136
287,443	-33,521	-0,129	-0,049
288,457	-88,227	-0,192	-0,039
289,472	7,636	-0,097	-0,050
290,487	796,073	-0,051	-0,099
291,501	-200,000	-0,028	-0,091
292,516	-98,197	-0,211	-0,037
293,530	539,782	-0,110	-0,182
294,545	108,567	-0,115	-0,095
295,560	175,037	-0,024	0,024
296,574	-140,947	-0,142	-0,010
297,589	800,000	-0,099	-0,250
298,603	25,388	-0,189	-0,108
299,618	380,245	-0,161	-0,229
300,633	-83,045	-0,179	-0,039
301,647	-29,373	-0,280	-0,110
302,662	184,557	-0,144	-0,148
303,676	224,009	-0,130	-0,145
304,691	800,000	-0,019	-0,039
305,706	800,000	-0,100	-0,196
306,720	-12,390	-0,272	-0,122
307,735	76,058	-0,116	-0,084
308,749	-71,528	-0,106	-0,027
309,764	62,349	-0,040	0,028
310,779	276,283	-0,088	-0,108
311,793	243,292	-0,055	-0,064
312,808	-53,252	-0,181	-0,057
313,822	800,000	-0,074	-0,148
314,837	256,530	-0,019	0,023
315,852	210,181	-0,043	-0,047
316,866	-68,949	-0,237	-0,063
317,881	-200,000	-0,053	0,000
318,895	108,230	-0,146	-0,120
319,910	-33,356	-0,198	-0,075
320,925	-142,368	-0,148	0,010
321,939	800,000	-0,083	-0,194
322,954	198,414	-0,050	-0,053
323,968	-200,000	-0,033	-0,175
324,983	41,233	-0,114	0,071
325,997	-200,000	-0,030	-0,107
327,012	-17,839	-0,110	-0,047
328,027	-110,227	-0,149	-0,021
329,041	-83,702	-0,085	0,019
330,056	64,177	-0,100	-0,069
331,070	-20,344	-0,049	-0,021
332,085	-138,042	-0,097	-0,007
333,100	542,576	-0,145	-0,239
334,114	5,677	-0,144	-0,073
335,129	-118,837	-0,198	0,024
336,143	117,435	-0,163	-0,138
337,158	800,000	-0,081	-0,165
338,173	-11,273	-0,178	-0,080
339,187	-200,000	-0,036	-0,129
340,202	82,477	-0,112	-0,083
341,216	-59,944	-0,309	-0,090
342,231	119,457	-0,083	-0,071
343,246	-123,250	-0,093	-0,010
344,260	-64,233	-0,076	-0,021
345,275	177,668	-0,094	-0,095
346,289	-200,000	-0,006	-0,141
347,304	134,347	-0,122	-0,109
348,319	59,236	-0,175	-0,119
349,333	800,000	-0,036	-0,091
350,348	-200,000	-0,012	-0,151
351,362	800,000	-0,003	0,006
352,377	-65,226	-0,030	0,008
353,392	-9,520	-0,175	-0,080
354,406	55,055	-0,041	-0,027
355,421	202,606	1306,053	1388,331
356,435	155,659	1465,663	1388,795
