DTS Sentinel unit serial number:	SN410029Multiplexer serial number:	ORYXHardware model number:	OX2-SRSoftware version number:	ORYX F/W v4,00 Oryx Data Collector v3.7.2.0data status	okinstallation	B3 Nyhavnadifferential loss correction	single-endedforward channel	channel 1reverse channel	N/Adate	2023/12/03time	18:52:30forward acquisition time	300,00reverse acquisition time	0,00gamma	499,1914k internal	0,3198k external	0,3198temperature offset calibration	1,0000default loss term (dB/km)	0,3820temperature slope calibration	1,0000multiplexer offset coefficient	1,0000multiplexer slope coefficient	1,0000fibre end	0,00T internal ref (°C)	14,43T ext. ref 1 (°C)	-0,90T ext. ref 2 (°C)	-0,92length (m)	temperature (°C)	Stokes	anti-Stokes-744,400	56,411	-0,215	-0,152
-743,385	-200,000	0,013	0,281
-742,371	17,528	-0,252	-0,145
-741,356	-200,000	0,017	0,340
-740,342	106,033	-0,229	-0,198
-739,327	-200,000	-0,067	0,289
-738,312	22,346	-0,373	-0,221
-737,298	-200,000	-0,007	0,305
-736,283	372,790	-0,122	-0,182
-735,269	-200,000	0,038	0,342
-734,254	65,928	-0,245	-0,181
-733,239	264,112	-0,141	0,179
-732,225	-200,000	-0,083	-0,285
-731,210	205,353	-0,065	0,074
-730,196	-188,222	-0,064	-0,001
-729,181	800,000	-0,088	-0,243
-728,167	-164,247	-0,215	-0,007
-727,152	-200,000	-0,006	-0,029
-726,137	72,361	-0,123	-0,093
-725,123	-99,969	-0,110	-0,020
-724,108	-6,728	-0,108	-0,053
-723,094	525,406	-0,035	-0,061
-722,079	800,000	-0,039	-0,090
-721,064	-113,234	-0,070	0,010
-720,050	488,055	-0,015	-0,025
-719,035	-50,292	-0,077	0,026
-718,021	-57,544	-0,131	-0,042
-717,006	318,132	0,045	-0,062
-715,991	-72,638	-0,228	-0,061
-714,977	-200,000	0,015	-0,115
-713,962	187,670	-0,080	-0,087
-712,948	-128,679	0,034	0,003
-711,933	100,384	-0,059	0,050
-710,918	748,480	-0,080	-0,158
-709,904	-200,000	0,045	-0,160
-708,889	-200,000	0,006	-0,200
-707,875	-200,000	0,010	0,083
-706,860	-114,543	0,073	-0,010
-705,845	-200,000	-0,013	0,045
-704,831	-200,000	0,017	0,137
-703,816	-200,000	-0,019	0,105
-702,802	-146,771	-0,065	0,004
-701,787	299,191	-0,168	-0,225
-700,772	-200,000	-0,016	-0,067
-699,758	-163,264	0,078	0,003
-698,743	-200,000	0,013	0,151
-697,729	800,000	0,041	0,084
-696,714	105,754	0,078	0,067
-695,699	-200,000	-0,023	-0,095
-694,685	106,509	-0,022	0,019
-693,670	800,000	-0,023	0,051
-692,656	-200,000	0,011	0,037
-691,641	8,801	0,042	-0,023
-690,627	-58,003	0,179	0,056
-689,612	-200,000	0,006	0,076
-688,597	229,101	-0,107	-0,127
-687,583	21,587	-0,090	0,053
-686,568	-200,000	0,012	-0,054
-685,554	660,399	-0,080	-0,151
-684,539	-200,000	0,013	-0,067
-683,524	663,934	0,046	-0,087
-682,510	340,326	0,108	0,154
-681,495	580,533	0,037	-0,066
-680,481	-200,000	0,065	-0,251
-679,466	356,452	0,019	0,027
-678,451	109,686	-0,106	-0,092
-677,437	800,000	0,025	0,066
-676,422	-28,404	-0,086	0,036
-675,408	291,294	0,070	-0,092
-674,393	399,428	-0,049	0,075
-673,378	-74,947	0,175	-0,045
-672,364	-79,672	-0,103	-0,025
-671,349	-200,000	-0,014	0,062
-670,335	315,471	0,030	-0,041
-669,320	-200,000	-0,014	0,056
-668,305	-74,390	0,039	-0,010
-667,291	444,426	-0,038	-0,061
-666,276	800,000	-0,010	-0,032
-665,262	82,453	-0,019	-0,015
-664,247	-14,243	-0,194	0,090
-663,232	-134,008	0,065	-0,006
-662,218	200,882	-0,112	0,125
-661,203	-200,000	-0,025	0,092
-660,189	-20,960	-0,092	0,041
-659,174	63,153	-0,091	0,066
-658,159	716,994	-0,083	-0,160
-657,145	800,000	-0,052	-0,152
-656,130	44,248	-0,037	-0,025
-655,116	381,756	-0,064	0,096
-654,101	-200,000	0,004	-0,043
-653,086	39,331	-0,071	0,046
-652,072	-200,000	-0,017	0,075
-651,057	213,258	-0,067	-0,077
-650,043	800,000	-0,053	-0,115
-649,028	508,310	0,012	-0,020
-648,014	-145,135	-0,247	0,016
-646,999	-134,284	0,129	0,011
-645,984	111,189	0,044	-0,038
-644,970	-200,000	0,013	-0,081
-643,955	305,851	-0,068	-0,092
-642,941	42,938	-0,066	-0,044
-641,926	-200,000	-0,022	-0,117
-640,911	89,317	0,041	-0,033
-639,897	112,611	0,104	-0,091
-638,882	-200,000	-0,004	0,073
-637,868	-200,000	0,016	0,118
-636,853	188,062	0,033	0,036
-635,838	23,634	0,086	-0,051
-634,824	20,353	-0,144	-0,084
-633,809	800,000	-0,036	0,080
-632,795	-200,000	0,007	-0,090
-631,780	800,000	-0,059	-0,145
-630,765	90,537	-0,097	-0,079
-629,751	-87,541	0,085	0,018
-628,736	674,324	-0,075	0,142
-627,722	-147,839	-0,122	0,007
-626,707	-200,000	-0,014	-0,102
-625,692	675,041	0,042	0,079
-624,678	237,128	0,036	-0,044
-623,663	-109,317	-0,019	-0,003
-622,649	243,253	0,073	-0,089
-621,634	-200,000	-0,012	-0,155
-620,619	-13,710	-0,079	0,037
-619,605	-89,691	0,101	-0,021
-618,590	-200,000	-0,006	-0,062
-617,576	-75,687	0,063	-0,016
-616,561	0,976	-0,064	0,033
-615,546	-89,657	0,074	-0,016
-614,532	225,661	-0,047	-0,056
-613,517	124,580	-0,095	-0,086
-612,503	151,275	0,067	-0,067
-611,488	800,000	-0,027	-0,057
-610,474	497,881	0,020	0,034
-609,459	199,633	0,066	0,073
-608,444	800,000	-0,068	0,146
-607,430	-200,000	0,011	-0,147
-606,415	713,842	0,075	-0,146
-605,401	-22,902	-0,167	0,072
-604,386	350,431	-0,076	-0,110
-603,371	444,153	0,051	0,081
-602,357	630,610	-0,091	0,167
-601,342	-86,955	0,061	0,013
-600,328	131,535	-0,020	-0,019
-599,313	-127,237	-0,128	-0,013
-598,298	-117,386	-0,144	-0,019
-597,284	-200,000	-0,005	0,053
-596,269	-200,000	0,021	0,082
-595,255	-1,111	0,143	-0,073
-594,240	599,780	0,005	0,010
-593,225	-31,987	-0,077	0,031
-592,211	661,447	-0,041	0,076
-591,196	-50,394	0,044	0,015
-590,182	297,183	0,048	0,063
-589,167	-94,264	-0,062	0,012
-588,152	-26,367	0,115	-0,048
-587,138	-97,447	-0,040	0,007
-586,123	31,012	-0,074	-0,046
-585,109	-48,026	-0,028	-0,010
-584,094	-200,000	-0,031	-0,158
-583,079	11,867	0,083	-0,046
-582,065	238,374	-0,076	0,091
-581,050	4,966	-0,016	-0,009
-580,036	378,584	0,061	0,091
-579,021	-0,448	-0,069	-0,035
-578,006	-151,240	-0,032	0,002
-576,992	83,310	-0,081	0,064
-575,977	-109,050	-0,005	-0,001
-574,963	-61,931	0,055	-0,017
-573,948	800,000	0,024	0,057
-572,934	180,681	-0,058	-0,061
-571,919	-200,000	-0,042	-0,142
-570,904	800,000	0,024	-0,059
-569,890	-35,265	0,030	-0,012
-568,875	-200,000	0,005	-0,021
-567,861	274,244	-0,011	-0,014
-566,846	224,631	-0,056	0,066
-565,831	480,545	0,059	0,098
-564,817	-44,666	-0,133	0,048
-563,802	-200,000	-0,026	-0,092
-562,788	-27,746	-0,074	0,031
-561,773	-200,000	0,009	-0,123
-560,758	96,032	-0,173	-0,143
-559,744	-200,000	-0,016	0,111
-558,729	453,469	0,094	-0,151
-557,715	524,663	0,028	-0,047
-556,700	40,003	-0,126	0,081
-555,685	800,000	0,032	-0,098
-554,671	-163,079	-0,021	-0,001
-553,656	-108,657	-0,138	0,021
-552,642	-200,000	-0,003	-0,038
-551,627	208,843	-0,127	-0,144
-550,612	800,000	0,073	-0,163
-549,598	6,014	0,009	0,005
-548,583	25,515	0,015	0,009
-547,569	115,234	-0,035	0,031
-546,554	-120,720	0,036	-0,004
-545,539	93,868	0,051	0,042
-544,525	450,152	0,096	0,153
-543,510	-200,000	-0,006	0,117
-542,496	263,782	0,029	-0,036
-541,481	675,582	-0,066	-0,125
-540,466	63,797	0,051	-0,037
-539,452	-69,970	-0,063	0,017
-538,437	337,487	-0,055	-0,078
-537,423	25,996	0,124	0,075
-536,408	-5,624	-0,096	-0,047
-535,393	800,000	-0,077	-0,155
-534,379	268,796	-0,057	0,073
-533,364	367,560	0,057	0,083
-532,350	-58,436	-0,043	0,013
-531,335	-200,000	-0,008	-0,061
-530,321	44,180	-0,057	0,038
-529,306	800,000	0,024	0,057
-528,291	800,000	-0,061	0,160
-527,277	448,896	0,061	-0,097
-526,262	-200,000	-0,019	0,064
-525,248	-119,276	0,059	-0,007
-524,233	800,000	0,030	-0,080
-523,218	-200,000	-0,022	0,077
-522,204	-200,000	-0,030	-0,099
-521,189	-27,269	-0,145	-0,061
-520,175	110,160	-0,115	-0,100
-519,160	800,000	0,018	0,037
-518,145	-200,000	-0,015	-0,106
-517,131	800,000	0,046	0,095
-516,116	-200,000	-0,009	0,096
-515,102	635,897	0,043	-0,080
-514,087	-39,637	-0,258	-0,097
-513,072	-61,191	0,019	-0,006
-512,058	313,768	0,024	-0,033
-511,043	153,970	0,101	-0,100
-510,029	38,965	0,075	-0,048
-509,014	-200,000	-0,018	0,059
-507,999	27,758	0,009	-0,005
-506,985	-200,000	-0,037	-0,132
-505,970	159,960	0,083	0,083
-504,956	196,398	0,028	0,031
-503,941	800,000	-0,015	-0,047
-502,926	183,846	0,031	-0,033
-501,912	176,973	0,119	0,125
-500,897	55,692	0,107	0,075
-499,883	66,328	0,113	0,083
-498,868	-145,842	-0,059	0,004
-497,853	45,859	-0,045	-0,030
-496,839	15,603	0,121	-0,068
-495,824	-200,000	-0,037	-0,141
-494,810	-141,577	0,038	-0,003
-493,795	-19,517	-0,090	-0,040
-492,781	35,504	-0,047	-0,029
-491,766	148,560	0,080	-0,078
-490,751	-200,000	0,015	-0,097
-489,737	800,000	-0,039	-0,095
-488,722	1,148	0,068	-0,035
-487,708	210,003	-0,068	0,077
-486,693	15,842	0,047	0,027
-485,678	-200,000	-0,015	0,133
-484,664	-137,460	-0,061	0,005
-483,649	-200,000	0,012	-0,057
-482,635	-42,917	-0,130	-0,047
-481,620	186,387	-0,019	0,020
-480,605	-33,364	-0,014	0,006
-479,591	-63,739	-0,063	-0,018
-478,576	-79,315	-0,124	-0,030
-477,562	5,078	-0,081	0,043
-476,547	94,924	-0,047	0,039
-475,532	-200,000	0,001	-0,072
-474,518	-200,000	-0,022	0,111
-473,503	131,235	-0,074	0,068
-472,489	145,299	0,083	0,080
-471,474	-200,000	0,014	-0,064
-470,459	-150,600	0,049	-0,003
-469,445	42,983	-0,026	-0,017
-468,430	-200,000	-0,003	0,077
-467,416	-125,223	0,031	0,003
-466,401	180,252	0,039	-0,041
-465,386	4,236	0,052	-0,027
-464,372	253,025	-0,062	0,077
-463,357	402,807	0,020	-0,031
-462,343	-200,000	0,009	-0,068
-461,328	-200,000	0,006	0,034
-460,313	-200,000	0,025	0,116
-459,299	45,651	0,041	0,027
-458,284	68,569	0,067	0,050
-457,270	-62,682	0,052	-0,016
-456,255	-125,069	0,104	-0,011
-455,241	226,083	0,073	0,085
-454,226	232,352	0,060	0,071
-453,211	21,957	-0,062	0,036
-452,197	11,256	0,218	0,120
-451,182	462,841	0,049	0,079
-450,168	800,000	-0,028	0,078
-449,153	-39,203	0,056	-0,021
-448,138	800,000	0,023	-0,054
-447,124	390,804	-0,032	-0,048
-446,109	-50,299	-0,028	0,009
-445,095	350,168	0,098	0,140
-444,080	-60,616	0,113	-0,034
-443,065	-200,000	-0,010	0,199
-442,051	-200,000	0,011	-0,072
-441,036	666,628	0,050	-0,093
-440,022	-200,000	-0,058	-0,207
-439,007	-200,000	0,011	-0,044
-437,992	299,962	0,029	-0,038
-436,978	376,812	0,040	0,060
-435,963	196,024	0,079	0,086
-434,949	-133,920	-0,054	-0,005
-433,934	122,309	-0,053	-0,048
-432,919	33,334	-0,019	-0,012
-431,905	422,912	-0,097	-0,151
-430,890	149,997	0,047	0,046
-429,876	585,539	-0,016	0,029
-428,861	8,822	0,117	0,063
-427,846	530,170	-0,028	0,047
-426,832	129,190	-0,108	0,099
-425,817	625,614	-0,078	0,142
-424,803	800,000	-0,022	-0,053
-423,788	-3,146	0,023	-0,011
-422,773	-200,000	0,005	0,100
-421,759	-200,000	0,004	0,058
-420,744	800,000	0,025	0,078
-419,730	508,263	0,024	0,040
-418,715	387,010	-0,077	0,115
-417,701	112,298	-0,073	-0,064
-416,686	278,209	0,055	-0,071
-415,671	-19,803	-0,091	-0,040
-414,657	-198,004	0,084	0,000
-413,642	800,000	-0,071	0,147
-412,628	275,515	0,031	-0,039
-411,613	-24,431	0,063	0,027
-410,598	-146,829	-0,021	-0,001
-409,584	-187,871	-0,146	-0,001
-408,569	289,155	0,023	0,030
-407,555	-83,402	0,087	0,020
-406,540	-31,985	-0,094	-0,038
-405,525	-200,000	-0,006	-0,032
-404,511	18,447	-0,163	-0,093
-403,496	-86,710	-0,104	-0,023
-402,482	-74,703	0,061	-0,016
-401,467	800,000	0,065	0,138
-400,452	-200,000	0,001	0,049
-399,438	17,835	0,091	-0,052
-398,423	33,145	-0,075	0,046
-397,409	-200,000	0,037	-0,143
-396,394	-200,000	0,002	0,056
-395,379	-200,000	-0,012	0,100
-394,365	352,593	0,102	0,145
-393,350	29,781	0,109	0,067
-392,336	423,500	-0,005	-0,008
-391,321	-200,000	-0,028	0,124
-390,306	800,000	-0,013	0,037
-389,292	52,899	-0,141	-0,097
-388,277	800,000	-0,008	0,024
-387,263	-126,020	0,115	-0,012
-386,248	4,158	0,126	0,066
-385,233	-50,714	0,163	0,055
-384,219	-200,000	-0,018	-0,078
-383,204	-134,211	-0,029	0,003
-382,190	-200,000	-0,009	-0,076
-381,175	-47,330	-0,045	0,016
-380,160	-105,813	0,099	-0,016
-379,146	-95,298	-0,036	-0,007
-378,131	-163,356	0,051	-0,002
-377,117	800,000	-0,069	0,206
-376,102	299,310	-0,060	0,080
-375,088	800,000	-0,048	0,103
-374,073	800,000	-0,030	0,071
-373,058	10,607	0,087	0,048
-372,044	97,645	0,053	0,044
-371,029	-99,923	0,027	-0,005
-370,015	277,481	0,110	0,141
-369,000	156,883	0,099	0,098
-367,985	194,945	-0,076	-0,083
-366,971	-200,000	-0,023	-0,179
-365,956	54,340	0,123	-0,085
-364,942	157,809	0,082	0,082
-363,927	-200,000	0,015	0,136
-362,912	-53,575	-0,135	0,044
-361,898	-134,947	0,166	0,014
-360,883	717,855	0,099	-0,189
-359,869	384,946	0,072	-0,107
-358,854	-200,000	0,014	0,086
-357,839	548,985	0,068	-0,117
-356,825	428,458	0,118	0,184
-355,810	357,274	0,084	0,120
-354,796	-200,000	0,008	-0,051
-353,781	177,794	-0,108	-0,113
-352,766	-200,000	-0,003	-0,059
-351,752	-115,706	0,109	-0,014
-350,737	-200,000	-0,003	-0,026
-349,723	800,000	0,046	0,092
-348,708	800,000	0,042	0,132
-347,693	110,142	0,082	0,070
-346,679	65,335	-0,092	-0,067
-345,664	-200,000	0,022	-0,071
-344,650	192,148	-0,036	0,039
-343,635	-200,000	-0,034	0,119
-342,620	-40,780	0,151	0,056
-341,606	110,014	0,049	0,042
-340,591	78,914	-0,072	0,055
-339,577	800,000	-0,017	-0,045
-338,562	-200,000	-0,009	-0,094
-337,548	57,968	0,026	-0,018
-336,533	61,836	0,049	0,035
-335,518	-128,856	0,115	0,011
-334,504	82,612	-0,111	0,087
-333,489	-200,000	0,014	0,063
-332,475	140,215	0,090	-0,085
-331,460	-25,619	-0,080	-0,034
-330,445	800,000	0,070	-0,153
-329,431	351,544	0,106	-0,150
-328,416	-200,000	0,010	0,163
-327,402	800,000	-0,055	0,149
-326,387	60,474	-0,117	-0,083
-325,372	800,000	-0,042	-0,095
-324,358	-200,000	0,008	0,033
-323,343	-66,450	-0,054	0,015
-322,329	203,793	0,028	0,031
-321,314	218,323	0,017	0,019
-320,299	-108,959	0,116	-0,018
-319,285	800,000	0,028	-0,067
-318,270	-200,000	-0,004	-0,124
-317,256	-200,000	-0,010	0,094
-316,241	-200,000	0,019	0,124
-315,226	435,479	-0,076	0,119
-314,212	132,172	0,105	-0,097
-313,197	800,000	-0,014	0,029
-312,183	190,028	-0,086	0,093
-311,168	800,000	0,037	-0,099
-310,153	76,848	-0,050	-0,038
-309,139	-57,419	0,046	-0,014
-308,124	800,000	-0,057	-0,140
-307,110	-29,251	0,078	0,032
-306,095	239,751	0,091	0,109
-305,080	800,000	-0,018	0,035
-304,066	-200,000	-0,025	0,086
-303,051	-200,000	-0,030	-0,223
-302,037	-200,000	-0,003	-0,099
-301,022	142,183	0,027	0,026
-300,008	197,141	-0,063	0,069
-298,993	-200,000	0,010	-0,058
-297,978	800,000	0,033	0,067
-296,964	-200,000	-0,010	-0,047
-295,949	-200,000	-0,005	-0,025
-294,935	95,052	0,027	-0,022
-293,920	-26,301	-0,032	0,013
-292,905	800,000	-0,029	-0,060
-291,891	-160,986	-0,081	0,003
-290,876	800,000	0,037	-0,099
-289,862	-185,828	0,183	0,002
-288,847	-51,015	-0,099	-0,033
-287,832	-117,358	-0,038	0,005
-286,818	800,000	-0,043	0,126
-285,803	138,998	0,073	-0,069
-284,789	450,038	0,060	0,096
-283,774	800,000	0,032	0,079
-282,759	255,231	0,025	-0,030
-281,745	242,422	-0,053	0,064
-280,730	488,132	-0,038	-0,063
-279,716	-200,000	-0,008	-0,036
-278,701	-200,000	0,008	-0,060
-277,686	-96,027	0,015	-0,003
-276,672	-82,630	0,143	0,033
-275,657	-200,000	0,017	0,076
-274,643	615,032	0,043	0,077
-273,628	-146,315	0,072	-0,004
-272,613	50,327	0,079	-0,053
-271,599	800,000	0,052	0,109
-270,584	-200,000	-0,040	0,163
-269,570	401,831	0,096	0,145
-268,555	-4,571	-0,071	-0,035
-267,540	800,000	-0,021	-0,048
-266,526	484,938	0,074	0,121
-265,511	-67,700	-0,134	0,037
-264,497	-200,000	0,005	-0,037
-263,482	-200,000	-0,028	0,094
-262,467	-101,014	-0,095	-0,017
-261,453	455,711	-0,025	0,040
-260,438	-29,647	0,048	-0,019
-259,424	-200,000	0,001	0,068
-258,409	331,452	-0,122	-0,168
-257,395	-67,598	0,131	-0,037
-256,380	800,000	0,031	0,062
-255,365	-73,712	-0,031	-0,008
-254,351	263,722	0,042	-0,053
-253,336	-200,000	0,012	-0,038
-252,322	-114,692	-0,117	-0,016
-251,307	143,460	-0,075	-0,072
-250,292	800,000	-0,039	-0,098
-249,278	-26,127	0,045	-0,019
-248,263	400,572	0,080	0,120
-247,249	184,738	-0,046	0,049
-246,234	69,607	-0,072	-0,053
-245,219	264,736	-0,054	-0,067
-244,205	3,089	0,090	-0,046
-243,190	124,445	-0,121	0,109
-242,176	-20,739	-0,042	0,018
-241,161	180,389	0,106	-0,111
-240,146	74,734	-0,113	0,085
-239,132	289,165	0,038	-0,049
-238,117	-64,439	-0,158	-0,046
-237,103	93,243	-0,148	-0,119
-236,088	-10,101	-0,115	0,054
-235,073	-92,764	0,054	-0,011
-234,059	-100,523	0,015	-0,003
-233,044	-200,000	-0,002	0,011
-232,030	-200,000	-0,010	-0,053
-231,015	800,000	0,050	-0,154
-230,000	800,000	0,072	-0,146
-228,986	-200,000	0,022	0,151
-227,971	-200,000	-0,017	0,068
-226,957	800,000	0,049	-0,101
-225,942	-200,000	0,005	0,031
-224,927	-200,000	0,005	0,045
-223,913	-200,000	-0,016	-0,070
-222,898	-60,512	-0,197	-0,059
-221,884	140,106	0,129	0,122
-220,869	-142,701	-0,025	0,002
-219,855	800,000	0,025	-0,060
-218,840	800,000	-0,010	-0,029
-217,825	-200,000	-0,005	0,071
-216,811	-156,819	0,061	-0,003
-215,796	-200,000	-0,007	-0,072
-214,782	-79,042	-0,134	-0,032
-213,767	-200,000	-0,024	0,115
-212,752	494,504	0,046	0,076
-211,738	-82,814	0,097	0,022
-210,723	-200,000	0,005	0,037
-209,709	654,269	-0,045	0,082
-208,694	800,000	-0,011	-0,029
-207,679	-65,110	0,026	0,007
-206,665	-200,000	-0,009	0,116
-205,650	-77,638	0,080	0,020
-204,636	172,713	-0,076	-0,078
-203,621	64,256	-0,002	0,002
-202,606	-77,969	-0,104	0,025
-201,592	101,302	0,036	-0,029
-200,577	-60,427	0,020	-0,006
-199,563	499,320	0,019	-0,032
-198,548	68,917	0,059	0,043
-197,533	-94,516	0,084	0,016
-196,519	800,000	-0,049	-0,115
-195,504	-112,081	-0,118	-0,017
-194,490	-200,000	-0,004	-0,092
-193,475	-60,497	-0,097	-0,029
-192,460	800,000	-0,054	-0,122
-191,446	-1,113	0,043	0,022
-190,431	58,688	0,068	-0,047
-189,417	233,890	0,084	0,099
-188,402	-200,000	0,004	-0,163
-187,387	-60,532	-0,056	-0,017
-186,373	225,382	-0,049	-0,056
-185,358	-13,662	-0,126	-0,058
-184,344	-200,000	0,026	0,110
-183,329	108,536	0,075	-0,064
-182,315	135,629	-0,040	-0,037
-181,300	87,528	0,016	0,013
-180,285	128,285	-0,067	-0,061
-179,271	-132,250	-0,260	-0,024
-178,256	148,570	0,032	0,031
-177,242	58,989	0,063	0,044
-176,227	165,439	0,112	-0,112
-175,212	-77,712	0,174	0,043
-174,198	800,000	0,026	0,063
-173,183	-52,911	0,039	0,013
-172,169	346,064	-0,093	0,130
-171,154	149,484	-0,058	0,056
-170,139	-37,573	0,109	-0,041
-169,125	186,040	0,125	0,133
-168,110	-13,792	0,117	0,054
-167,096	43,432	0,112	0,073
-166,081	-181,492	-0,130	-0,002
-165,066	-200,000	0,031	-0,137
-164,052	800,000	-0,028	-0,068
-163,037	152,203	0,118	-0,115
-162,023	800,000	0,011	0,026
-161,008	-200,000	0,003	0,033
-159,993	-54,588	0,165	-0,053
-158,979	-29,785	-0,096	0,039
-157,964	-42,731	-0,077	0,028
-156,950	13,580	-0,090	-0,049
-155,935	123,499	0,039	0,035
-154,920	29,388	-0,095	0,057
-153,906	68,471	-0,096	0,070
-152,891	67,863	-0,054	0,039
-151,877	-200,000	-0,019	-0,138
-150,862	413,092	-0,049	-0,075
-149,847	-200,000	0,011	-0,108
-148,833	-200,000	-0,018	-0,067
-147,818	-7,228	0,071	0,034
-146,804	235,877	-0,069	0,082
-145,789	-200,000	-0,004	0,088
-144,775	151,318	-0,046	-0,045
-143,760	-200,000	0,021	-0,107
-142,745	-200,000	0,009	-0,119
-141,731	-102,342	0,179	-0,030
-140,716	-121,301	0,151	-0,018
-139,702	-99,944	-0,099	0,017
-138,687	-200,000	0,012	0,087
-137,672	110,842	0,089	-0,076
-136,658	36,163	-0,094	-0,059
-135,643	-146,886	-0,127	0,008
-134,629	-23,748	0,079	-0,034
-133,614	-85,487	-0,072	-0,016
-132,599	-56,580	0,223	-0,070
-131,585	-200,000	-0,013	0,072
-130,570	68,768	-0,144	-0,105
-129,556	-3,837	0,143	-0,070
-128,541	-200,000	0,015	-0,060
-127,526	800,000	0,059	0,129
-126,512	-200,000	0,022	0,108
-125,497	142,475	0,101	0,095
-124,483	455,881	0,041	0,065
-123,468	36,711	0,047	0,030
-122,453	-135,647	-0,133	0,011
-121,439	-162,481	-0,170	-0,006
-120,424	673,824	-0,041	-0,076
-119,410	-130,564	-0,094	-0,009
-118,395	-200,000	0,004	-0,018
-117,380	800,000	0,012	0,031
-116,366	-24,694	-0,047	0,020
-115,351	-141,891	-0,033	-0,002
-114,337	800,000	0,021	-0,065
-113,322	-133,894	0,034	0,003
-112,307	-200,000	0,017	0,139
-111,293	-200,000	0,012	0,070
-110,278	-200,000	-0,008	0,049
-109,264	200,278	0,068	0,074
-108,249	55,857	-0,182	0,125
-107,234	-76,352	0,078	-0,019
-106,220	-75,950	-0,004	-0,001
-105,205	800,000	-0,047	0,135
-104,191	193,498	-0,079	0,084
-103,176	-78,836	0,097	-0,023
-102,162	323,164	0,046	-0,062
-101,147	-200,000	-0,001	0,037
-100,132	432,986	0,044	-0,068
-99,118	530,608	0,041	-0,069
-98,103	-200,000	-0,009	0,105
-97,089	10,679	-0,113	-0,061
-96,074	800,000	-0,044	0,101
-95,059	-75,332	0,017	0,004
-94,045	800,000	0,012	-0,025
-93,030	512,553	0,054	-0,090
-92,016	800,000	0,024	0,053
-91,001	98,696	0,059	-0,048
-89,986	-125,753	0,037	0,004
-88,972	-28,232	-0,058	0,024
-87,957	-36,265	0,036	0,014
-86,943	393,828	0,025	0,036
-85,928	-105,010	-0,190	0,031
-84,913	31,985	0,062	0,038
-83,899	-75,427	0,106	-0,027
-82,884	1,952	0,020	-0,010
-81,870	800,000	-0,024	0,061
-80,855	-126,749	-0,084	-0,009
-79,840	-200,000	0,003	0,133
-78,826	-115,850	-0,118	0,015
-77,811	-200,000	-0,000	-0,061
-76,797	112,781	-0,116	0,100
-75,782	-200,000	0,032	0,100
-74,767	348,888	-0,018	0,025
-73,753	-200,000	-0,022	0,121
-72,738	480,417	-0,038	-0,061
-71,724	-106,368	0,118	0,018
-70,709	-92,636	-0,137	-0,027
-69,694	-84,425	-0,096	0,021
-68,680	-200,000	0,015	-0,103
-67,665	-126,691	-0,039	0,004
-66,651	108,131	0,080	0,067
-65,636	-26,277	0,068	0,028
-64,622	212,488	-0,074	0,083
-63,607	228,944	-0,047	0,055
-62,592	800,000	-0,052	0,122
-61,578	-49,625	0,044	-0,015
-60,563	476,270	-0,024	0,039
-59,549	-111,332	-0,073	0,010
-58,534	-9,269	-1,443	-0,681
-57,519	363,875	-1,483	-2,120
-56,505	-200,000	-0,515	-4,424
-55,490	169,559	1,106	1,121
-54,476	800,000	4,816	11,101
-53,461	-200,000	18,551	297,985
-52,446	800,000	732,246	2263,080
-51,432	560,710	1648,618	2834,454
-50,417	78,862	1668,138	1263,801
-49,403	22,368	1541,102	890,272
-48,388	16,323	1464,108	816,445
-47,373	17,814	1453,836	817,883
-46,359	16,982	1444,513	808,618
-45,344	14,547	1439,612	794,193
-44,330	14,505	1437,820	792,971
-43,315	14,560	1435,888	792,135
-42,300	14,514	1434,276	790,998
-41,286	14,539	1433,408	790,603
-40,271	14,517	1431,917	789,645
-39,257	14,528	1430,719	789,008
-38,242	14,530	1429,279	788,189
-37,227	14,553	1428,077	787,607
-36,213	14,549	1426,975	786,948
-35,198	14,558	1425,547	786,173
-34,184	14,555	1424,867	785,750
-33,169	14,544	1423,414	784,867
-32,154	14,537	1422,583	784,346
-31,140	14,547	1420,988	783,481
-30,125	14,516	1420,129	782,831
-29,111	14,534	1418,810	782,159
-28,096	14,490	1417,781	781,353
-27,082	14,477	1416,647	780,635
-26,067	14,463	1415,676	780,004
-25,052	14,442	1414,747	779,361
-24,038	14,421	1413,728	778,671
-23,023	14,442	1412,515	778,068
-22,009	14,436	1411,549	777,477
-20,994	14,452	1410,743	777,080
-19,979	14,471	1409,540	776,474
-18,965	14,431	1408,657	775,768
-17,950	14,368	1408,025	775,096
-16,936	14,394	1406,931	774,585
-15,921	14,382	1405,545	773,732
-14,906	14,375	1404,836	773,282
-13,892	14,370	1404,062	772,799
-12,877	14,343	1403,036	772,079
-11,863	14,348	1402,211	771,618
-10,848	14,360	1401,269	771,124
-9,833	14,331	1400,461	770,515
-8,819	14,322	1399,443	769,883
-7,804	14,272	1398,633	769,174
-6,790	14,282	1397,475	768,551
-5,775	14,280	1396,446	767,948
-4,760	14,279	1395,540	767,416
-3,746	14,280	1394,806	766,986
-2,731	14,287	1393,978	766,532
-1,717	14,243	1393,003	765,759
-0,702	14,253	1391,137	764,749
0,313	18,046	1309,726	737,585
1,327	34,396	705,958	435,463
2,342	52,985	124,164	84,006
3,356	1,264	16,634	8,433
4,371	3,619	3,215	1,655
5,386	-23,861	0,561	0,237
6,400	800,000	0,055	0,140
7,415	189,416	-0,154	-0,164
8,429	252,809	-0,232	-0,281
9,444	67,460	-0,369	-0,266
10,459	-54,850	-0,258	-0,082
11,473	-28,812	-0,317	-0,128
12,488	-82,179	-0,216	0,049
13,502	223,337	-0,252	-0,288
14,517	-133,483	-0,385	-0,034
15,531	83,944	-0,388	-0,299
16,546	232,700	-0,239	-0,278
17,561	155,279	-0,396	-0,386
18,575	-49,313	-0,284	-0,095
19,590	126,126	-0,262	-0,235
20,604	-54,797	-0,272	-0,086
21,619	108,263	-0,323	-0,272
22,634	55,659	-0,479	-0,328
23,648	70,166	-0,398	-0,290
24,663	45,916	-0,433	-0,283
25,677	7,581	-0,343	-0,181
26,692	660,851	-0,208	-0,380
27,707	22,828	-0,497	-0,287
28,721	121,696	-0,352	-0,310
29,736	27,883	-0,388	-0,230
30,750	32,673	-0,391	-0,238
31,765	80,568	-0,346	-0,263
32,780	258,765	-0,311	-0,380
33,794	325,473	-0,167	-0,225
34,809	97,448	-0,392	-0,318
35,823	46,735	-0,356	-0,233
36,838	77,641	-0,337	-0,253
37,853	70,713	-0,513	-0,374
38,867	76,081	-0,439	-0,328
39,882	57,023	-0,296	-0,203
40,896	18,941	-0,280	-0,158
41,911	1,771	-0,504	-0,255
42,926	-12,610	-0,255	-0,117
43,940	13,016	-0,422	-0,230
44,955	53,957	-0,379	-0,256
45,969	137,366	-0,365	-0,337
46,984	86,270	-0,291	-0,226
47,999	61,896	-0,392	-0,275
49,013	-24,021	-0,330	-0,139
50,028	80,310	-0,372	-0,282
51,042	148,181	-0,250	-0,238
52,057	157,758	-0,256	-0,251
53,071	101,416	-0,406	-0,333
54,086	40,523	-0,520	-0,329
55,101	425,086	-0,205	-0,312
56,115	200,352	-0,338	-0,367
57,130	-107,970	-0,303	-0,046
58,144	328,518	-0,286	-0,388
59,159	52,786	-0,427	-0,287
60,174	250,764	-0,300	-0,360
61,188	67,752	-0,381	-0,274
62,203	77,813	-0,286	-0,214
63,217	63,723	-0,343	-0,242
64,232	43,162	-0,377	-0,242
65,247	58,990	-0,416	-0,288
66,261	36,171	-0,342	-0,212
67,276	98,495	-0,456	-0,370
68,290	-32,624	-0,376	-0,147
69,305	-27,074	-0,435	-0,178
70,320	-57,880	-0,283	-0,086
71,334	134,232	-0,357	-0,326
72,349	187,089	-0,229	-0,240
73,363	-90,471	-0,387	-0,078
74,378	-2,698	-0,238	-0,117
75,393	-22,450	-0,305	-0,129
76,407	290,099	-0,191	-0,245
77,422	135,600	-0,259	-0,237
78,436	-17,940	-0,317	-0,139
79,451	175,200	-0,272	-0,277
80,466	257,586	-0,219	-0,265
81,480	-44,551	-0,391	-0,137
82,495	-139,387	-0,315	-0,023
83,509	-53,763	-0,341	-0,109
84,524	-51,377	-0,266	-0,087
85,539	156,602	-0,169	-0,165
86,553	-89,003	-0,273	-0,056
87,568	75,230	-0,287	-0,212
88,582	-84,556	-0,431	-0,095
89,597	211,272	-0,281	-0,311
90,611	13,603	-0,175	-0,095
91,626	-55,050	-0,173	0,054
92,641	28,654	-0,385	-0,229
93,655	74,858	-0,235	-0,173
94,670	-77,177	-0,325	-0,079
95,684	63,110	-0,272	-0,191
96,699	103,483	-0,204	-0,168
97,714	-36,406	-0,360	-0,136
98,728	247,283	-0,218	-0,259
99,743	325,919	-0,241	-0,325
100,757	-26,542	-0,261	-0,107
101,772	184,708	-0,256	-0,267
102,787	118,114	-0,201	-0,174
103,801	38,584	-0,381	-0,238
104,816	-93,727	-0,334	-0,064
105,830	75,016	-0,272	-0,201
106,845	86,151	-0,353	-0,273
107,860	-23,028	-0,237	-0,100
108,874	-12,510	-0,311	-0,142
109,889	-50,123	-0,343	-0,113
110,903	-25,314	-0,348	-0,144
111,918	552,613	-0,163	-0,275
112,933	158,085	-0,207	-0,201
113,947	98,491	-0,184	-0,149
114,962	-71,140	-0,277	-0,072
115,976	190,249	-0,257	-0,271
116,991	51,793	-0,343	-0,228
118,006	-128,075	-0,336	-0,033
119,020	35,763	-0,323	-0,198
120,035	213,148	-0,187	-0,207
121,049	12,946	-0,235	-0,127
122,064	9,991	-0,217	-0,115
123,079	143,459	-0,254	-0,237
124,093	178,736	-0,214	-0,219
125,108	342,085	-0,200	-0,275
126,122	-58,470	-0,210	-0,064
127,137	1,943	-0,254	-0,128
128,151	252,663	-0,186	-0,222
129,166	201,832	-0,157	-0,170
130,181	11,856	-0,327	-0,175
131,195	182,594	-0,248	-0,256
132,210	3,310	-0,363	-0,185
133,224	159,842	-0,317	-0,309
134,239	31,851	-0,193	-0,116
135,254	237,191	-0,183	-0,213
136,268	203,365	-0,260	-0,282
137,283	124,640	-0,294	-0,259
138,297	81,551	-0,334	-0,253
139,312	204,561	-0,228	-0,248
140,327	23,787	-0,318	-0,183
141,341	17,949	-0,229	-0,127
142,356	129,402	-0,150	-0,134
143,370	225,193	-0,179	-0,203
144,385	266,467	-0,163	-0,200
145,400	44,333	-0,354	-0,227
146,414	335,269	-0,202	-0,275
147,429	-3,299	-0,276	-0,134
148,443	607,421	-0,175	-0,306
149,458	363,766	-0,190	-0,268
150,473	-23,434	-0,290	-0,121
151,487	77,070	-0,248	-0,184
152,502	101,160	-0,262	-0,213
153,516	80,183	-0,335	-0,252
154,531	149,630	-0,172	-0,163
155,546	90,539	-0,290	-0,227
156,560	25,526	-0,327	-0,190
157,575	64,692	-0,284	-0,200
158,589	578,194	-0,121	-0,207
159,604	208,214	-0,188	-0,206
160,619	185,016	-0,170	-0,176
161,633	183,868	-0,192	-0,199
162,648	2,137	-0,281	-0,141
163,662	-1,196	-0,169	-0,083
164,677	-112,257	-0,238	-0,033
165,692	48,097	-0,297	-0,194
166,706	-81,740	-0,168	-0,038
167,721	105,820	-0,292	-0,241
168,735	111,101	-0,251	-0,211
169,750	395,379	-0,153	-0,223
170,764	-154,983	-0,221	-0,010
171,779	-54,947	-0,296	-0,093
172,794	-88,621	-0,294	-0,061
173,808	44,815	-0,182	-0,117
174,823	105,984	-0,235	-0,194
175,837	250,975	-0,212	-0,251
176,852	-37,958	-0,231	-0,085
177,867	-12,369	-0,221	-0,100
178,881	76,290	-0,127	-0,094
179,896	24,362	-0,144	-0,083
180,910	379,442	-0,205	-0,293
181,925	474,398	-0,181	-0,286
182,940	204,736	-0,275	-0,298
183,954	117,246	-0,203	-0,174
184,969	150,623	-0,214	-0,203
185,983	579,031	-0,114	-0,195
186,998	644,318	-0,095	-0,170
188,013	141,090	-0,148	-0,136
189,027	139,745	-0,245	-0,225
190,042	274,689	-0,189	-0,234
191,056	-10,829	-0,236	-0,108
192,071	-31,707	-0,204	-0,079
193,086	-35,272	-0,224	-0,085
194,100	-200,000	-0,061	-0,202
195,115	-66,898	-0,126	0,035
196,129	8,034	-0,192	-0,100
197,144	96,378	-0,239	-0,191
198,159	45,568	-0,163	-0,105
199,173	56,543	-0,105	-0,071
200,188	0,679	-0,124	-0,062
201,202	276,349	-0,084	-0,104
202,217	800,000	-0,072	-0,215
203,232	42,172	-0,216	-0,136
204,246	405,653	-0,144	-0,212
205,261	155,201	-0,214	-0,205
206,275	86,599	-0,154	-0,118
207,290	-153,919	-0,265	0,012
208,304	472,895	-0,094	-0,148
209,319	-29,013	-0,177	-0,070
210,334	75,497	-0,175	-0,128
211,348	58,743	-0,241	-0,165
212,363	-67,022	-0,224	-0,061
213,377	-12,763	-0,321	-0,145
214,392	-200,000	-0,043	-0,186
215,407	342,838	-0,080	-0,109
216,421	240,544	-0,122	-0,141
217,436	184,869	-0,212	-0,219
218,450	304,248	-0,194	-0,251
219,465	92,939	-0,303	-0,237
220,480	111,780	-0,180	-0,151
221,494	-200,000	0,017	-0,074
222,509	-54,204	-0,180	-0,056
223,523	-58,310	-0,187	-0,056
224,538	25,475	-0,242	-0,139
225,553	237,337	-0,137	-0,158
226,567	-16,528	-0,220	0,096
227,582	800,000	-0,060	-0,132
228,596	67,812	-0,159	-0,113
229,611	44,697	-0,120	-0,077
230,626	-200,000	-0,028	-0,144
231,640	46,316	-0,242	-0,155
232,655	44,962	-0,254	-0,162
233,669	117,084	-0,146	-0,124
234,684	89,145	-0,133	-0,102
235,699	124,175	-0,108	-0,094
236,713	142,566	-0,097	-0,090
237,728	-50,554	-0,178	-0,058
238,742	136,384	-0,155	-0,140
239,757	65,587	-0,246	-0,173
240,772	217,638	-0,174	-0,193
241,786	-57,924	-0,187	-0,056
242,801	-89,188	-0,166	-0,034
243,815	-46,877	-0,210	-0,071
244,830	14,292	-0,132	-0,071
245,844	42,583	-0,169	-0,107
246,859	103,102	-0,262	-0,213
247,874	70,825	-0,115	-0,082
248,888	153,162	-0,164	-0,156
249,903	28,394	-0,201	-0,117
250,917	-200,000	-0,050	-0,189
251,932	-19,464	-0,201	-0,086
252,947	-40,393	-0,152	-0,054
253,961	155,178	-0,204	-0,195
254,976	-101,433	-0,165	-0,028
255,990	8,649	-0,187	-0,097
257,005	53,630	-0,143	-0,095
258,020	2,802	-0,166	-0,083
259,034	-200,000	-0,044	-0,248
260,049	118,227	-0,174	-0,148
261,063	512,457	-0,134	-0,216
262,078	288,464	-0,121	-0,152
263,093	44,678	-0,225	-0,143
264,107	800,000	-0,105	-0,217
265,122	217,494	-0,178	-0,197
266,136	-161,200	-0,139	0,005
267,151	71,832	-0,316	-0,227
268,166	-200,000	-0,054	-0,196
269,180	214,246	-0,180	-0,198
270,195	-142,397	-0,155	-0,010
271,209	-15,720	-0,231	-0,102
272,224	800,000	-0,085	-0,195
273,239	401,490	-0,081	-0,119
274,253	-95,528	-0,047	-0,009
275,268	68,783	-0,141	-0,100
276,282	38,980	-0,215	-0,132
277,297	409,893	-0,099	-0,146
278,312	344,723	-0,112	-0,152
279,326	-87,998	-0,223	-0,046
280,341	360,547	-0,109	-0,151
281,355	-39,497	-0,135	-0,048
282,370	177,134	-0,149	-0,150
283,384	800,000	-0,085	-0,216
284,399	363,328	-0,167	-0,233
285,414	11,733	-0,215	-0,114
286,428	12,439	-0,070	-0,037
287,443	-146,780	-0,227	0,013
288,457	37,658	-0,086	0,053
289,472	-200,000	-0,022	-0,105
290,487	800,000	-0,077	-0,174
291,501	246,329	-0,222	-0,259
292,516	125,296	-0,132	-0,115
293,530	186,107	-0,173	-0,177
294,545	263,621	-0,178	-0,214
295,560	-23,219	-0,208	-0,086
296,574	-63,212	-0,126	0,035
297,589	29,346	-0,258	-0,151
298,603	148,559	-0,081	-0,076
299,618	800,000	-0,141	-0,305
300,633	48,647	-0,291	-0,188
301,647	800,000	-0,060	-0,145
302,662	384,526	-0,080	-0,115
303,676	-56,008	-0,177	-0,054
304,691	-66,657	-0,123	-0,033
305,706	425,329	-0,141	-0,210
306,720	-200,000	-0,041	-0,125
307,735	-45,255	-0,156	-0,053
308,749	111,051	-0,093	-0,077
309,764	800,000	-0,060	-0,125
310,779	-99,769	-0,119	-0,020
311,793	208,593	-0,194	-0,210
312,808	29,936	-0,250	-0,146
313,822	67,542	-0,214	-0,150
314,837	324,439	-0,157	-0,207
315,852	-13,945	-0,109	-0,048
316,866	-200,000	0,018	0,093
317,881	-8,871	-0,194	-0,089
318,895	-157,509	-0,236	0,010
319,910	-109,455	-0,272	-0,039
320,925	-31,734	-0,147	-0,057
321,939	240,978	-0,179	-0,206
322,954	51,059	-0,164	-0,107
323,968	10,391	-0,120	-0,063
324,983	274,346	-0,102	-0,124
325,997	-148,736	-0,171	0,009
327,012	64,048	-0,102	-0,070
328,027	234,280	-0,123	-0,140
329,041	43,875	-0,245	-0,154
330,056	-102,800	-0,078	-0,013
331,070	-10,519	-0,126	-0,057
332,085	-152,253	-0,148	0,007
333,100	-0,448	-0,171	-0,083
334,114	-200,000	-0,060	-0,182
335,129	29,872	-0,187	-0,109
336,143	121,143	-0,129	-0,110
337,158	-49,322	-0,198	-0,065
338,173	137,205	-0,122	-0,110
339,187	296,874	-0,078	-0,099
340,202	-200,000	-0,017	-0,066
341,216	-129,047	-0,241	-0,023
342,231	800,000	-0,083	-0,164
343,246	800,000	-0,084	-0,193
344,260	-200,000	-0,052	-0,163
345,275	757,486	-0,074	-0,139
346,289	88,251	-0,051	-0,039
347,304	492,573	-0,090	-0,143
348,319	-37,164	-0,103	-0,038
349,333	417,716	-0,141	-0,208
350,348	196,901	-0,148	-0,156
351,362	94,973	-0,143	-0,111
352,377	-52,281	-0,070	-0,022
353,392	83,001	-0,142	-0,106
354,406	91,985	-0,146	-0,113
355,421	208,621	1315,797	1415,009
356,435	160,528	1476,673	1415,510
