DTS Sentinel unit serial number:	SN410029Multiplexer serial number:	ORYXHardware model number:	OX2-SRSoftware version number:	ORYX F/W v4,00 Oryx Data Collector v3.7.2.0data status	okinstallation	B3 Nyhavnadifferential loss correction	single-endedforward channel	channel 1reverse channel	N/Adate	2023/12/05time	00:17:30forward acquisition time	300,00reverse acquisition time	0,00gamma	499,1914k internal	0,3200k external	0,3200temperature offset calibration	1,0000default loss term (dB/km)	0,3820temperature slope calibration	1,0000multiplexer offset coefficient	1,0000multiplexer slope coefficient	1,0000fibre end	0,00T internal ref (°C)	13,90T ext. ref 1 (°C)	-1,32T ext. ref 2 (°C)	-1,35length (m)	temperature (°C)	Stokes	anti-Stokes-744,400	174,079	-0,178	-0,188
-743,385	-200,000	0,016	0,234
-742,371	269,318	-0,218	-0,279
-741,356	386,520	0,198	0,299
-740,342	4,521	-0,184	-0,098
-739,327	-200,000	0,009	0,260
-738,312	63,362	-0,227	-0,165
-737,298	-200,000	0,021	0,273
-736,283	800,000	-0,078	-0,223
-735,269	-200,000	-0,080	0,278
-734,254	425,148	-0,224	-0,352
-733,239	18,155	-0,222	0,129
-732,225	143,504	-0,146	-0,141
-731,210	-13,800	0,177	0,083
-730,196	48,199	-0,089	-0,060
-729,181	800,000	0,037	0,086
-728,167	568,608	-0,014	0,025
-727,152	-50,606	0,173	-0,059
-726,137	184,630	0,025	-0,027
-725,123	-154,496	-0,136	-0,007
-724,108	449,638	-0,127	-0,205
-723,094	-200,000	-0,018	-0,101
-722,079	108,794	-0,104	-0,091
-721,064	800,000	-0,011	-0,023
-720,050	98,727	0,142	0,119
-719,035	-174,414	-0,070	-0,001
-718,021	-52,821	-0,026	0,009
-717,006	800,000	-0,054	-0,144
-715,991	-200,000	0,034	-0,230
-714,977	379,054	-0,070	-0,104
-713,962	-123,432	-0,131	0,015
-712,948	-97,969	0,059	0,011
-711,933	-84,793	-0,120	0,027
-710,918	-200,000	-0,029	0,098
-709,904	-200,000	-0,033	-0,120
-708,889	224,641	-0,072	-0,084
-707,875	43,811	-0,039	0,026
-706,860	-34,839	-0,078	0,031
-705,845	316,686	-0,030	0,042
-704,831	-161,794	0,090	-0,003
-703,816	-200,000	0,025	-0,106
-702,802	-45,095	0,016	-0,006
-701,787	-161,330	-0,028	0,001
-700,772	433,422	0,037	0,058
-699,758	-53,386	-0,075	0,025
-698,743	-200,000	-0,010	0,098
-697,729	-137,948	0,072	-0,006
-696,714	-63,534	0,064	-0,019
-695,699	60,482	-0,057	-0,041
-694,685	216,870	-0,008	0,010
-693,670	-21,140	-0,177	-0,078
-692,656	-200,000	-0,024	-0,137
-691,641	119,606	0,035	-0,032
-690,627	124,213	0,143	0,130
-689,612	127,910	-0,114	-0,105
-688,597	207,112	-0,153	-0,174
-687,583	13,657	-0,095	-0,053
-686,568	800,000	-0,043	-0,104
-685,554	-200,000	-0,042	0,144
-684,539	-200,000	-0,001	-0,043
-683,524	800,000	-0,018	0,046
-682,510	420,284	0,049	0,077
-681,495	44,117	-0,061	0,040
-680,481	800,000	-0,047	-0,115
-679,466	-200,000	-0,024	-0,176
-678,451	-200,000	0,046	-0,153
-677,437	580,649	-0,018	-0,033
-676,422	-200,000	-0,000	0,018
-675,408	388,222	0,079	-0,119
-674,393	-60,948	0,041	-0,013
-673,378	-148,271	-0,049	-0,003
-672,364	-200,000	-0,008	-0,096
-671,349	232,184	-0,087	0,104
-670,335	80,899	0,063	0,049
-669,320	800,000	-0,022	0,055
-668,305	151,899	0,109	0,108
-667,291	51,687	-0,096	0,066
-666,276	-200,000	-0,021	-0,077
-665,262	179,381	-0,100	-0,106
-664,247	-58,834	0,055	0,017
-663,232	242,644	-0,038	-0,047
-662,218	-200,000	0,008	0,065
-661,203	-200,000	0,010	0,086
-660,189	-103,096	-0,247	0,042
-659,174	-51,816	-0,049	-0,016
-658,159	276,391	-0,117	-0,151
-657,145	171,810	-0,076	-0,079
-656,130	-138,100	-0,033	-0,003
-655,116	101,340	-0,139	0,117
-654,101	-114,720	0,148	0,020
-653,086	-200,000	0,009	0,033
-652,072	-70,407	-0,170	-0,046
-651,057	280,646	0,034	-0,044
-650,043	124,610	-0,184	-0,168
-649,028	-200,000	-0,053	-0,171
-648,014	33,833	0,115	0,073
-646,999	37,269	-0,086	-0,055
-645,984	-200,000	-0,032	-0,119
-644,970	-110,021	-0,208	-0,031
-643,955	-200,000	0,006	0,037
-642,941	-119,147	-0,206	0,026
-641,926	213,607	-0,031	0,035
-640,911	60,146	0,039	0,028
-639,897	224,483	-0,050	-0,059
-638,882	-60,116	-0,077	-0,024
-637,868	-36,597	0,091	0,035
-636,853	-200,000	-0,025	-0,137
-635,838	105,120	-0,057	-0,049
-634,824	-128,054	-0,077	-0,008
-633,809	16,882	0,059	0,034
-632,795	-200,000	-0,034	0,123
-631,780	-129,919	-0,091	-0,009
-630,765	131,629	-0,123	-0,115
-629,751	800,000	0,026	-0,070
-628,736	-31,831	-0,083	-0,034
-627,722	11,079	-0,038	-0,021
-626,707	-135,883	0,014	-0,001
-625,692	-75,435	-0,130	-0,033
-624,678	-138,817	0,105	-0,008
-623,663	60,086	-0,093	0,066
-622,649	-145,973	-0,127	0,008
-621,634	42,726	0,056	0,037
-620,619	109,351	-0,050	-0,044
-619,605	-91,268	-0,053	-0,011
-618,590	-99,986	0,070	-0,013
-617,576	85,941	0,120	0,095
-616,561	119,466	-0,098	-0,088
-615,546	542,380	-0,062	-0,107
-614,532	-62,468	-0,115	0,034
-613,517	254,536	-0,053	-0,065
-612,503	190,971	0,127	-0,139
-611,488	198,889	0,056	0,062
-610,474	-15,312	-0,138	0,064
-609,459	-200,000	-0,009	-0,069
-608,444	79,105	-0,056	-0,043
-607,430	-14,068	-0,081	-0,038
-606,415	800,000	-0,075	0,157
-605,401	-200,000	0,003	0,096
-604,386	-132,103	0,062	-0,006
-603,371	-56,850	0,126	-0,040
-602,357	208,149	-0,051	-0,057
-601,342	-77,374	0,024	-0,006
-600,328	-48,114	0,035	0,012
-599,313	272,471	-0,068	-0,087
-598,298	-94,911	-0,020	0,004
-597,284	32,788	-0,102	0,064
-596,269	800,000	0,055	0,161
-595,255	-31,886	0,041	0,017
-594,240	589,460	-0,115	-0,205
-593,225	-200,000	0,015	0,108
-592,211	-200,000	-0,009	-0,090
-591,196	338,641	0,063	-0,089
-590,182	196,780	0,073	-0,081
-589,167	-200,000	0,015	-0,085
-588,152	-71,125	0,025	0,007
-587,138	800,000	-0,041	-0,110
-586,123	-156,940	-0,076	0,003
-585,109	-51,246	-0,054	-0,018
-584,094	-87,492	0,150	0,033
-583,079	-125,613	0,141	0,015
-582,065	441,543	0,024	0,039
-581,050	256,678	0,115	0,143
-580,036	-200,000	-0,028	-0,135
-579,021	-200,000	0,016	-0,072
-578,006	-80,466	-0,220	0,053
-576,992	-94,388	0,055	0,011
-575,977	-155,613	-0,051	0,002
-574,963	46,464	-0,044	-0,029
-573,948	-200,000	-0,001	0,058
-572,934	-200,000	0,001	-0,110
-571,919	-200,000	-0,001	-0,038
-570,904	800,000	0,018	0,058
-569,890	800,000	0,007	-0,014
-568,875	-182,341	0,048	0,001
-567,861	489,785	0,067	0,112
-566,846	289,629	0,034	-0,045
-565,831	54,625	0,055	0,038
-564,817	-12,402	-0,075	0,035
-563,802	-100,962	0,068	-0,012
-562,788	-159,372	0,005	0,000
-561,773	800,000	0,014	0,041
-560,758	-82,051	0,096	0,023
-559,744	-21,087	0,108	0,047
-558,729	-200,000	-0,023	-0,167
-557,715	-103,447	-0,052	-0,009
-556,700	161,605	0,112	-0,113
-555,685	-200,000	0,013	-0,067
-554,671	800,000	0,024	0,063
-553,656	413,970	-0,063	0,098
-552,642	331,331	-0,038	0,053
-551,627	-17,605	-0,012	0,005
-550,612	-149,356	-0,103	0,006
-549,598	427,033	0,058	-0,090
-548,583	800,000	-0,092	-0,198
-547,569	-200,000	-0,003	0,032
-546,554	-200,000	0,008	0,164
-545,539	-10,107	-0,055	-0,026
-544,525	-58,081	0,023	0,007
-543,510	67,971	-0,025	-0,019
-542,496	-200,000	-0,028	-0,100
-541,481	-200,000	-0,016	0,098
-540,466	-200,000	0,004	0,039
-539,452	200,907	0,033	0,037
-538,437	99,447	0,064	0,053
-537,423	-200,000	0,004	0,025
-536,408	229,739	0,076	0,090
-535,393	-200,000	0,007	-0,087
-534,379	-200,000	0,006	-0,085
-533,364	-200,000	0,015	-0,120
-532,350	7,965	-0,082	0,044
-531,335	-200,000	-0,001	0,101
-530,321	203,247	-0,058	0,065
-529,306	800,000	-0,028	-0,066
-528,291	-137,747	0,076	-0,006
-527,277	-200,000	-0,020	-0,118
-526,262	-200,000	0,007	0,095
-525,248	800,000	0,082	0,181
-524,233	-200,000	0,021	0,124
-523,218	-64,020	0,136	0,040
-522,204	-138,757	0,037	0,003
-521,189	131,042	0,035	0,032
-520,175	90,732	-0,037	-0,030
-519,160	157,419	-0,090	-0,090
-518,145	-200,000	-0,014	0,089
-517,131	-66,047	0,124	-0,035
-516,116	800,000	0,026	-0,069
-515,102	-53,241	-0,113	-0,037
-514,087	-200,000	-0,001	-0,015
-513,072	800,000	-0,048	-0,108
-512,058	-37,456	-0,200	0,076
-511,043	-32,902	-0,034	-0,014
-510,029	20,370	-0,033	0,019
-509,014	-200,000	0,012	0,065
-507,999	-77,905	-0,115	0,028
-506,985	207,816	0,100	-0,113
-505,970	-96,499	0,065	-0,012
-504,956	58,124	0,087	-0,061
-503,941	800,000	0,043	-0,096
-502,926	800,000	0,037	0,087
-501,912	800,000	0,027	0,072
-500,897	-36,324	-0,126	0,049
-499,883	-58,025	-0,049	0,015
-498,868	96,718	-0,056	-0,046
-497,853	-11,735	-0,132	0,062
-496,839	92,178	-0,108	-0,088
-495,824	236,746	0,113	-0,136
-494,810	507,715	-0,095	0,160
-493,795	231,126	0,087	0,103
-492,781	109,219	-0,046	0,039
-491,766	104,272	-0,078	-0,066
-490,751	-24,903	-0,165	-0,070
-489,737	67,519	-0,070	0,052
-488,722	-74,063	0,112	-0,029
-487,708	-45,104	0,135	0,048
-486,693	382,796	-0,045	0,066
-485,678	-127,670	0,067	0,007
-484,664	142,688	0,066	0,063
-483,649	121,011	-0,070	-0,063
-482,635	43,004	0,060	0,039
-481,620	480,350	0,083	0,135
-480,605	-200,000	-0,017	0,054
-479,591	-50,175	0,027	0,009
-478,576	-82,601	0,024	-0,005
-477,562	-200,000	-0,018	-0,068
-476,547	755,407	-0,019	-0,037
-475,532	-46,357	-0,027	-0,010
-474,518	-43,892	-0,092	-0,033
-473,503	800,000	0,013	0,037
-472,489	676,979	-0,043	0,080
-471,474	800,000	0,031	0,084
-470,459	-200,000	-0,035	-0,166
-469,445	50,928	-0,146	-0,099
-468,430	-200,000	0,002	-0,075
-467,416	-200,000	-0,012	-0,144
-466,401	-83,037	-0,112	-0,026
-465,386	-200,000	-0,011	0,047
-464,372	800,000	0,035	-0,090
-463,357	-200,000	-0,000	0,003
-462,343	277,808	-0,103	-0,132
-461,328	55,814	-0,051	0,035
-460,313	-200,000	-0,017	-0,168
-459,299	-108,585	0,046	-0,007
-458,284	-200,000	0,002	-0,032
-457,270	16,022	0,131	-0,074
-456,255	-200,000	-0,002	-0,010
-455,241	23,259	-0,117	-0,069
-454,226	-40,502	-0,099	0,037
-453,211	-104,468	-0,126	0,021
-452,197	-0,405	0,068	-0,035
-451,182	147,912	0,086	0,083
-450,168	800,000	0,016	0,036
-449,153	469,051	0,072	-0,116
-448,138	-144,888	-0,093	-0,006
-447,124	-146,348	-0,054	-0,003
-446,109	59,255	0,042	-0,029
-445,095	51,181	-0,082	0,056
-444,080	475,376	0,044	0,072
-443,065	151,262	0,044	0,043
-442,051	800,000	-0,014	0,039
-441,036	54,058	-0,107	-0,074
-440,022	-200,000	-0,025	0,104
-439,007	-200,000	-0,005	-0,088
-437,992	800,000	-0,016	-0,035
-436,978	5,958	0,014	-0,008
-435,963	-146,984	0,152	0,009
-434,949	762,731	-0,060	-0,118
-433,934	72,995	0,101	-0,076
-432,919	800,000	-0,040	-0,100
-431,905	-12,508	-0,145	0,068
-430,890	-64,880	-0,096	-0,028
-429,876	-47,808	0,114	0,039
-428,861	-93,901	0,075	0,015
-427,846	-200,000	0,004	0,022
-426,832	537,235	0,041	-0,070
-425,817	-200,000	-0,014	-0,084
-424,803	-200,000	-0,001	0,073
-423,788	264,384	0,055	0,069
-422,773	71,700	0,092	-0,069
-421,759	545,756	0,048	0,083
-420,744	800,000	0,062	-0,127
-419,730	-200,000	-0,019	-0,083
-418,715	-154,913	0,033	-0,002
-417,701	9,184	-0,187	-0,101
-416,686	-69,966	0,191	0,052
-415,671	520,263	0,087	0,147
-414,657	-200,000	0,001	0,114
-413,642	-200,000	-0,005	0,134
-412,628	631,521	0,026	0,047
-411,613	-98,993	0,050	0,009
-410,598	-91,421	0,135	-0,027
-409,584	32,003	0,090	0,055
-408,569	-48,734	-0,044	0,015
-407,555	-2,362	-0,048	-0,024
-406,540	-71,970	-0,073	-0,019
-405,525	800,000	0,045	0,112
-404,511	135,381	-0,022	-0,021
-403,496	-43,506	-0,086	-0,031
-402,482	242,250	-0,091	0,109
-401,467	369,598	-0,014	0,020
-400,452	800,000	0,055	0,150
-399,438	-39,488	-0,125	0,047
-398,423	-68,369	0,085	0,024
-397,409	-200,000	-0,032	0,129
-396,394	-15,237	-0,054	-0,025
-395,379	-200,000	0,004	-0,094
-394,365	160,173	-0,042	-0,042
-393,350	-74,341	0,124	0,032
-392,336	159,884	-0,023	0,023
-391,321	151,270	-0,048	0,047
-390,306	-200,000	0,021	-0,177
-389,292	12,031	-0,050	0,027
-388,277	-200,000	-0,028	0,118
-387,263	800,000	0,028	0,078
-386,248	-80,177	0,114	0,027
-385,233	-23,171	0,118	0,051
-384,219	273,604	-0,052	-0,066
-383,204	800,000	0,028	0,058
-382,190	-200,000	-0,019	-0,145
-381,175	6,887	-0,024	-0,013
-380,160	67,956	-0,097	-0,071
-379,146	-32,104	0,045	0,018
-378,131	-58,535	0,211	-0,065
-377,117	157,703	-0,057	0,056
-376,102	-200,000	-0,021	-0,116
-375,088	10,981	-0,055	0,030
-374,073	603,579	0,017	0,030
-373,058	-200,000	0,001	0,049
-372,044	72,781	0,094	0,070
-371,029	-0,685	-0,107	0,054
-370,015	-109,958	-0,126	-0,019
-369,000	6,400	-0,090	-0,048
-367,985	-200,000	0,030	0,131
-366,971	-21,821	0,080	0,035
-365,956	-99,761	-0,197	0,035
-364,942	142,252	0,076	0,072
-363,927	-96,630	-0,110	-0,021
-362,912	551,658	-0,046	-0,079
-361,898	8,630	-0,164	0,088
-360,883	77,510	-0,062	0,047
-359,869	85,727	0,065	0,051
-358,854	-11,486	-0,077	-0,036
-357,839	-7,095	-0,106	0,051
-356,825	-109,222	0,173	-0,026
-355,810	2,095	0,100	0,051
-354,796	-200,000	0,020	-0,110
-353,781	-100,283	0,085	-0,015
-352,766	274,146	0,046	-0,058
-351,752	-69,895	0,064	0,017
-350,737	167,866	0,099	-0,101
-349,723	800,000	0,043	0,130
-348,708	-200,000	0,011	0,087
-347,693	800,000	-0,025	-0,053
-346,679	627,456	-0,040	-0,073
-345,664	-200,000	0,047	-0,155
-344,650	144,174	-0,059	-0,057
-343,635	800,000	-0,030	0,068
-342,620	271,754	0,092	0,117
-341,606	350,550	0,049	-0,070
-340,591	13,087	-0,068	-0,038
-339,577	49,496	-0,155	-0,105
-338,562	788,505	-0,043	-0,084
-337,548	-14,080	-0,045	-0,021
-336,533	-12,887	0,011	-0,005
-335,518	6,802	0,047	-0,025
-334,504	285,445	0,085	-0,110
-333,489	-200,000	0,003	0,044
-332,475	77,987	-0,082	0,063
-331,460	88,986	0,031	0,025
-330,445	84,941	0,063	0,049
-329,431	465,057	0,035	-0,056
-328,416	-62,848	-0,043	0,013
-327,402	800,000	0,027	0,083
-326,387	780,311	0,078	0,153
-325,372	101,037	0,031	0,025
-324,358	-83,696	0,060	-0,014
-323,343	46,750	-0,084	0,056
-322,329	125,110	0,040	-0,036
-321,314	-200,000	0,033	0,132
-320,299	-89,299	0,162	-0,034
-319,285	18,206	0,140	0,080
-318,270	296,348	0,117	-0,154
-317,256	-200,000	-0,013	-0,197
-316,241	47,032	0,056	0,037
-315,226	182,571	-0,094	0,099
-314,212	-200,000	0,022	-0,119
-313,197	800,000	0,011	0,025
-312,183	-172,107	0,021	0,000
-311,168	-2,737	-0,086	-0,043
-310,153	10,709	-0,111	-0,060
-309,139	800,000	-0,031	-0,069
-308,124	192,656	0,119	0,129
-307,110	800,000	0,046	0,114
-306,095	-3,288	0,151	0,075
-305,080	800,000	0,013	-0,034
-304,066	-200,000	0,008	-0,089
-303,051	-110,340	0,062	-0,009
-302,037	-200,000	0,002	-0,028
-301,022	-200,000	0,011	0,043
-300,008	-146,360	0,141	0,009
-298,993	-200,000	0,008	-0,024
-297,978	475,729	0,077	0,124
-296,964	439,655	-0,056	0,088
-295,949	130,057	0,011	-0,010
-294,935	114,750	-0,079	-0,068
-293,920	107,801	0,190	-0,162
-292,905	-28,185	-0,172	0,071
-291,891	-54,544	0,142	0,046
-290,876	-124,384	0,097	0,011
-289,862	-200,000	0,016	-0,071
-288,847	-200,000	0,005	-0,103
-287,832	-200,000	-0,015	0,055
-286,818	-200,000	-0,003	0,083
-285,803	46,381	-0,069	0,045
-284,789	287,127	0,114	-0,148
-283,774	-200,000	-0,014	0,088
-282,759	-40,472	-0,091	-0,034
-281,745	-200,000	0,011	-0,106
-280,730	-4,164	0,100	0,049
-279,716	8,922	-0,079	-0,042
-278,701	216,874	0,065	-0,074
-277,686	-159,251	0,045	-0,002
-276,672	-65,488	0,111	0,032
-275,657	44,432	0,051	0,033
-274,643	424,661	-0,072	-0,111
-273,628	-26,715	-0,041	-0,017
-272,613	-129,871	0,038	0,004
-271,599	800,000	0,026	-0,067
-270,584	58,504	-0,003	0,002
-269,570	-200,000	0,069	0,296
-268,555	267,831	0,051	0,063
-267,540	72,038	-0,080	-0,059
-266,526	2,728	0,071	0,037
-265,511	800,000	0,022	0,068
-264,497	-44,214	-0,094	-0,034
-263,482	-200,000	0,042	0,136
-262,467	251,794	0,079	0,096
-261,453	-17,409	-0,151	0,068
-260,438	-200,000	0,013	-0,101
-259,424	-200,000	-0,012	-0,102
-258,409	-135,385	0,048	-0,004
-257,395	-70,822	0,021	0,006
-256,380	-200,000	-0,002	0,098
-255,365	270,773	0,080	0,100
-254,351	-200,000	-0,013	0,151
-253,336	25,984	-0,067	-0,040
-252,322	-200,000	-0,008	0,127
-251,307	-43,879	-0,026	-0,009
-250,292	161,662	0,021	-0,021
-249,278	370,708	-0,099	0,144
-248,263	-200,000	-0,031	0,152
-247,249	800,000	0,038	0,113
-246,234	135,691	0,058	-0,054
-245,219	26,871	0,162	0,096
-244,205	226,669	-0,058	-0,068
-243,190	41,855	0,049	0,032
-242,176	-59,313	0,153	0,047
-241,161	-3,305	-0,054	0,027
-240,146	-200,000	-0,032	0,112
-239,132	130,844	-0,018	-0,016
-238,117	-143,586	-0,056	0,004
-237,103	-52,501	-0,087	0,028
-236,088	-200,000	0,001	0,062
-235,073	540,939	0,040	-0,069
-234,059	76,059	0,034	-0,026
-233,044	-200,000	0,001	0,165
-232,030	-136,439	0,132	0,011
-231,015	328,364	-0,093	0,127
-230,000	610,980	-0,040	-0,071
-228,986	454,805	0,055	-0,088
-227,971	-64,898	-0,047	0,013
-226,957	-27,998	0,100	0,041
-225,942	269,216	-0,039	0,049
-224,927	85,006	0,037	-0,029
-223,913	-135,129	-0,006	0,001
-222,898	-105,184	-0,134	0,022
-221,884	220,561	0,022	-0,026
-220,869	-200,000	0,028	-0,153
-219,855	76,273	-0,083	-0,062
-218,840	189,438	0,076	0,081
-217,825	800,000	0,037	-0,092
-216,811	523,430	-0,011	0,018
-215,796	800,000	-0,006	-0,018
-214,782	-200,000	0,018	-0,116
-213,767	-33,426	0,015	0,006
-212,752	-200,000	-0,027	0,142
-211,738	800,000	0,031	0,069
-210,723	59,273	0,124	-0,087
-209,709	-79,606	-0,070	0,017
-208,694	-200,000	0,011	-0,074
-207,679	-200,000	-0,008	0,089
-206,665	36,173	0,045	0,028
-205,650	155,369	0,043	0,042
-204,636	209,635	0,041	-0,046
-203,621	-20,250	-0,047	0,021
-202,606	82,500	-0,140	0,108
-201,592	1,531	0,025	-0,013
-200,577	-200,000	-0,006	-0,075
-199,563	515,527	0,034	0,057
-198,548	-142,964	-0,028	0,002
-197,533	436,248	-0,036	0,057
-196,519	-68,388	0,057	-0,016
-195,504	-74,336	-0,084	0,021
-194,490	800,000	-0,055	-0,154
-193,475	-65,911	0,149	0,042
-192,460	800,000	0,035	-0,088
-191,446	-53,923	0,118	-0,038
-190,431	-117,542	0,071	0,009
-189,417	86,294	0,050	0,039
-188,402	255,281	-0,033	0,040
-187,387	-29,148	-0,101	0,041
-186,373	72,464	0,071	0,052
-185,358	150,677	-0,087	0,084
-184,344	-66,093	0,203	0,057
-183,329	59,460	0,127	-0,089
-182,315	31,189	0,108	0,066
-181,300	190,072	-0,006	0,007
-180,285	-120,701	-0,100	-0,012
-179,271	186,252	-0,054	0,057
-178,256	-71,261	-0,071	-0,019
-177,242	288,161	0,020	0,026
-176,227	115,528	-0,050	0,043
-175,212	473,484	0,050	0,081
-174,198	335,271	-0,086	0,119
-173,183	312,035	-0,047	-0,063
-172,169	427,233	-0,076	-0,117
-171,154	195,024	-0,070	-0,075
-170,139	413,445	0,035	-0,054
-169,125	-200,000	-0,015	-0,082
-168,110	-74,842	-0,049	0,012
-167,096	-200,000	-0,030	0,136
-166,081	-36,872	0,027	-0,010
-165,066	158,778	-0,109	-0,108
-164,052	192,364	-0,045	-0,048
-163,037	56,178	-0,143	-0,099
-162,023	-167,103	0,135	-0,004
-161,008	-143,531	-0,026	0,002
-159,993	-200,000	-0,004	-0,051
-158,979	165,273	-0,069	-0,069
-157,964	6,544	0,114	-0,060
-156,950	46,394	0,085	-0,056
-155,935	327,925	-0,082	-0,112
-154,920	150,925	0,008	0,008
-153,906	217,079	0,099	0,113
-152,891	-200,000	0,018	-0,191
-151,877	-200,000	-0,017	-0,089
-150,862	616,908	-0,016	-0,028
-149,847	119,935	-0,115	-0,101
-148,833	162,965	-0,101	0,101
-147,818	377,704	0,025	0,036
-146,804	49,237	0,090	-0,060
-145,789	102,485	0,153	-0,127
-144,775	58,438	-0,100	0,069
-143,760	-200,000	-0,037	-0,118
-142,745	800,000	-0,012	0,026
-141,731	-168,499	-0,136	-0,004
-140,716	222,632	-0,040	-0,046
-139,702	-200,000	-0,004	-0,014
-138,687	54,982	0,066	0,045
-137,672	-64,853	-0,010	0,003
-136,658	-200,000	0,009	-0,055
-135,643	-69,686	-0,038	-0,010
-134,629	85,612	0,061	-0,048
-133,614	237,544	0,035	-0,042
-132,599	233,234	0,074	0,086
-131,585	-200,000	-0,008	0,141
-130,570	-13,050	0,030	-0,014
-129,556	-114,285	-0,070	-0,009
-128,541	91,974	0,073	0,058
-127,526	-86,044	-0,096	-0,021
-126,512	273,616	0,093	0,117
-125,497	-200,000	0,022	0,121
-124,483	-58,292	-0,074	0,023
-123,468	-200,000	-0,039	-0,145
-122,453	82,917	-0,091	-0,070
-121,439	800,000	0,055	-0,111
-120,424	-77,692	-0,037	0,009
-119,410	-200,000	0,015	0,089
-118,395	-200,000	0,002	0,063
-117,380	58,747	0,070	0,049
-116,366	-200,000	0,017	0,056
-115,351	117,825	0,076	0,066
-114,337	-61,094	-0,136	0,040
-113,322	-140,008	0,125	0,009
-112,307	-199,419	0,096	-0,000
-111,293	360,707	-0,062	0,089
-110,278	-200,000	0,017	-0,081
-109,264	389,706	-0,063	-0,093
-108,249	-200,000	0,011	0,176
-107,234	-200,000	-0,047	-0,174
-106,220	57,686	-0,076	-0,053
-105,205	-18,041	0,136	-0,060
-104,191	-200,000	0,001	-0,016
-103,176	776,991	0,013	-0,025
-102,162	-2,617	-0,173	-0,086
-101,147	-15,902	-0,085	0,038
-100,132	-200,000	-0,012	-0,096
-99,118	28,476	0,094	-0,056
-98,103	87,849	-0,119	0,094
-97,089	22,458	0,232	0,134
-96,074	532,681	-0,026	0,044
-95,059	-200,000	-0,009	-0,115
-94,045	-200,000	0,034	0,160
-93,030	409,139	-0,044	-0,067
-92,016	-162,763	-0,128	-0,004
-91,001	270,877	-0,060	0,075
-89,986	256,128	0,076	0,092
-88,972	800,000	-0,009	-0,022
-87,957	-200,000	0,014	0,048
-86,943	316,694	-0,009	-0,012
-85,928	-24,594	-0,036	-0,015
-84,913	131,015	0,048	-0,044
-83,899	-200,000	0,026	-0,101
-82,884	-200,000	0,000	-0,105
-81,870	178,593	0,049	0,050
-80,855	270,260	0,038	0,047
-79,840	-142,483	-0,057	-0,004
-78,826	-200,000	0,000	0,013
-77,811	-200,000	-0,009	0,119
-76,797	120,334	-0,033	0,029
-75,782	-9,872	-0,083	0,039
-74,767	800,000	0,032	-0,081
-73,753	-200,000	-0,007	0,055
-72,738	502,739	-0,063	-0,104
-71,724	102,017	0,109	-0,090
-70,709	407,939	0,059	0,089
-69,694	-185,647	0,195	0,002
-68,680	-95,983	0,060	-0,011
-67,665	674,758	0,010	-0,019
-66,651	245,287	-0,056	-0,066
-65,636	-129,426	-0,108	0,010
-64,622	-177,210	-0,103	0,002
-63,607	-200,000	-0,009	-0,041
-62,592	-200,000	0,015	-0,089
-61,578	36,826	-0,113	-0,070
-60,563	157,833	0,072	-0,070
-59,549	-200,000	-0,030	0,121
-58,534	-36,271	-1,542	-0,586
-57,519	345,227	-1,384	-1,930
-56,505	-200,000	-0,678	-4,513
-55,490	236,219	0,930	1,092
-54,476	800,000	4,927	11,482
-53,461	-200,000	18,762	311,595
-52,446	-200,000	738,525	2320,008
-51,432	574,364	1655,293	2871,443
-50,417	79,118	1671,648	1266,849
-49,403	21,891	1544,604	889,222
-48,388	15,759	1467,145	814,804
-47,373	17,873	1457,113	819,419
-46,359	16,884	1447,310	809,128
-45,344	14,054	1442,670	792,940
-44,330	13,994	1440,571	791,468
-43,315	13,966	1438,963	790,421
-42,300	13,969	1437,390	789,536
-41,286	14,041	1435,912	789,039
-40,271	13,958	1434,880	788,045
-39,257	13,961	1433,396	787,213
-38,242	14,024	1432,152	786,799
-37,227	14,015	1430,972	786,073
-36,213	14,010	1429,785	785,370
-35,198	14,027	1428,536	784,734
-34,184	14,036	1427,715	784,292
-33,169	14,035	1426,143	783,395
-32,154	13,996	1425,342	782,736
-31,140	13,983	1424,061	781,939
-30,125	14,054	1422,856	781,586
-29,111	13,974	1421,778	780,582
-28,096	13,997	1420,454	779,935
-27,082	13,942	1419,409	779,070
-26,067	13,959	1418,529	778,637
-25,052	13,935	1417,280	777,805
-24,038	13,912	1416,374	777,170
-23,023	13,919	1415,442	776,660
-22,009	13,885	1414,444	775,921
-20,994	13,903	1413,310	775,352
-19,979	13,872	1412,709	774,846
-18,965	13,847	1411,733	774,166
-17,950	13,825	1410,966	773,611
-16,936	13,885	1409,648	773,139
-15,921	13,822	1408,730	772,308
-14,906	13,830	1407,834	771,826
-13,892	13,837	1406,912	771,323
-12,877	13,845	1405,964	770,809
-11,863	13,828	1405,059	770,202
-10,848	13,820	1404,128	769,624
-9,833	13,836	1403,325	769,225
-8,819	13,738	1402,505	768,293
-7,804	13,762	1401,600	767,877
-6,790	13,802	1400,283	767,309
-5,775	13,733	1399,463	766,512
-4,760	13,754	1398,447	766,020
-3,746	13,721	1397,725	765,444
-2,731	13,785	1396,532	765,056
-1,717	13,733	1395,937	764,458
-0,702	13,725	1394,001	763,331
0,313	17,510	1311,631	735,799
1,327	33,720	705,891	433,555
2,342	51,702	123,948	83,294
3,356	4,986	16,542	8,587
4,371	8,750	3,292	1,750
5,386	12,510	0,631	0,343
6,400	-200,000	0,060	0,224
7,415	5,232	-0,323	-0,168
8,429	154,857	-0,309	-0,301
9,444	-25,208	-0,448	-0,187
10,459	108,919	-0,276	-0,233
11,473	39,599	-0,272	-0,172
12,488	18,580	-0,262	-0,148
13,502	-49,372	-0,269	-0,090
14,517	28,309	-0,315	-0,188
15,531	-15,418	-0,408	-0,183
16,546	77,296	-0,393	-0,295
17,561	11,529	-0,399	-0,216
18,575	-123,302	-0,193	-0,022
19,590	-14,863	-0,275	-0,124
20,604	-110,660	-0,338	0,049
21,619	95,418	-0,453	-0,364
22,634	81,651	-0,465	-0,355
23,648	46,161	-0,492	-0,321
24,663	81,227	-0,383	-0,292
25,677	195,865	-0,292	-0,314
26,692	-58,448	-0,255	-0,078
27,707	-57,598	-0,497	-0,153
28,721	17,169	-0,363	-0,203
29,736	8,212	-0,384	-0,203
30,750	115,451	-0,443	-0,382
31,765	41,796	-0,423	-0,270
32,780	119,410	-0,396	-0,346
33,794	-14,660	-0,506	-0,229
34,809	-41,899	-0,438	-0,158
35,823	35,174	-0,357	-0,220
36,838	199,911	-0,259	-0,281
37,853	102,890	-0,374	-0,309
38,867	-17,724	-0,370	-0,163
39,882	-13,186	-0,371	-0,170
40,896	39,886	-0,389	-0,246
41,911	-38,050	-0,359	-0,134
42,926	-77,308	-0,327	-0,080
43,940	15,680	-0,393	-0,217
44,955	-90,507	-0,451	-0,091
45,969	8,879	-0,372	-0,197
46,984	133,119	-0,299	-0,272
47,999	-61,629	-0,313	-0,092
49,013	-4,313	-0,455	-0,221
50,028	105,756	-0,274	-0,228
51,042	115,783	-0,301	-0,259
52,057	-16,096	-0,407	-0,182
53,071	130,445	-0,248	-0,224
54,086	43,005	-0,296	-0,190
55,101	433,014	-0,251	-0,385
56,115	71,876	-0,353	-0,258
57,130	15,468	-0,395	-0,218
58,144	-30,826	-0,373	-0,148
59,159	94,322	-0,358	-0,286
60,174	206,765	-0,264	-0,290
61,188	188,570	-0,256	-0,270
62,203	70,224	-0,299	-0,217
63,217	510,668	-0,181	-0,297
64,232	6,724	-0,242	-0,126
65,247	123,782	-0,408	-0,361
66,261	217,195	-0,265	-0,297
67,276	204,685	-0,246	-0,269
68,290	191,198	-0,345	-0,366
69,305	37,791	-0,293	-0,182
70,320	427,601	-0,169	-0,257
71,334	4,621	-0,390	-0,201
72,349	24,965	-0,364	-0,212
73,363	59,446	-0,404	-0,280
74,378	225,632	-0,295	-0,337
75,393	212,251	-0,299	-0,332
76,407	0,989	-0,278	-0,140
77,422	-26,917	-0,324	-0,132
78,436	-60,637	-0,292	-0,086
79,451	126,434	-0,284	-0,253
80,466	800,000	-0,071	-0,154
81,480	30,125	-0,341	-0,204
82,495	47,339	-0,284	-0,186
83,509	-53,885	-0,332	-0,106
84,524	98,871	-0,268	-0,218
85,539	63,899	-0,295	-0,208
86,553	45,256	-0,341	-0,221
87,568	32,346	-0,403	-0,244
88,582	-92,400	-0,261	-0,051
89,597	107,074	-0,366	-0,306
90,611	-13,496	-0,259	-0,118
91,626	302,967	-0,208	-0,271
92,641	-84,884	-0,221	-0,048
93,655	39,953	-0,299	-0,188
94,670	37,080	-0,290	-0,180
95,684	155,216	-0,237	-0,229
96,699	220,929	-0,354	-0,400
97,714	219,360	-0,235	-0,265
98,728	31,449	-0,266	-0,160
99,743	101,867	-0,277	-0,226
100,757	-35,685	-0,264	-0,100
101,772	127,875	-0,241	-0,215
102,787	238,623	-0,117	-0,136
103,801	-71,911	-0,222	-0,058
104,816	17,375	-0,314	-0,174
105,830	800,000	-0,089	-0,223
106,845	209,464	-0,340	-0,374
107,860	461,570	-0,162	-0,254
108,874	331,158	-0,230	-0,312
109,889	48,930	-0,237	-0,155
110,903	39,227	-0,288	-0,180
111,918	143,858	-0,182	-0,170
112,933	-45,731	-0,333	-0,115
113,947	-50,677	-0,287	-0,094
114,962	-121,425	-0,266	0,031
115,976	156,261	-0,163	-0,158
116,991	34,793	-0,294	-0,180
118,006	-5,386	-0,238	-0,114
119,020	45,308	-0,395	-0,255
120,035	215,107	-0,179	-0,199
121,049	-34,865	-0,354	-0,135
122,064	-67,139	-0,215	-0,059
123,079	-99,341	-0,282	-0,049
124,093	0,225	-0,312	-0,155
125,108	232,416	-0,286	-0,329
126,122	87,437	-0,227	-0,176
127,137	-58,230	-0,277	-0,084
128,151	126,473	-0,161	-0,142
129,166	-157,093	-0,246	-0,010
130,181	14,680	-0,342	-0,187
131,195	-82,309	-0,314	-0,071
132,210	-0,763	-0,424	-0,209
133,224	142,718	-0,259	-0,241
134,239	21,158	-0,326	-0,185
135,254	120,348	-0,188	-0,164
136,268	359,951	-0,123	-0,173
137,283	94,120	-0,230	-0,183
138,297	184,936	-0,268	-0,278
139,312	198,134	-0,310	-0,331
140,327	-76,871	-0,281	-0,068
141,341	-131,031	-0,125	-0,011
142,356	601,143	-0,072	-0,126
143,370	38,111	-0,314	-0,195
144,385	316,237	-0,153	-0,202
145,400	201,268	-0,264	-0,284
146,414	92,797	-0,270	-0,213
147,429	-8,538	-0,279	-0,130
148,443	135,351	-0,223	-0,203
149,458	-56,853	-0,316	-0,097
150,473	-81,058	-0,242	-0,056
151,487	227,554	-0,150	-0,171
152,502	-29,605	-0,232	-0,092
153,516	50,014	-0,299	-0,196
154,531	212,188	-0,174	-0,192
155,546	126,926	-0,279	-0,247
156,560	128,330	-0,140	-0,124
157,575	8,321	-0,339	-0,178
158,589	187,147	-0,214	-0,223
159,604	-87,614	-0,271	-0,057
160,619	800,000	-0,117	-0,242
161,633	234,972	-0,271	-0,312
162,648	294,882	-0,239	-0,306
163,662	120,157	-0,197	-0,171
164,677	350,619	-0,105	-0,145
165,692	48,295	-0,214	-0,139
166,706	-21,012	-0,187	-0,080
167,721	24,253	-0,295	-0,170
168,735	-14,063	-0,321	-0,144
169,750	-57,980	-0,280	-0,085
170,764	318,897	-0,199	-0,264
171,779	120,723	-0,149	-0,129
172,794	8,284	-0,260	-0,136
173,808	123,828	-0,244	-0,214
174,823	-8,175	-0,240	-0,112
175,837	130,785	-0,383	-0,343
176,852	127,658	-0,141	-0,124
177,867	-20,284	-0,266	-0,114
178,881	644,478	-0,104	-0,187
179,896	59,823	-0,131	-0,090
180,910	-6,381	-0,202	-0,096
181,925	167,842	-0,197	-0,195
182,940	321,223	-0,116	-0,154
183,954	203,053	-0,182	-0,196
184,969	-179,142	-0,217	-0,003
185,983	149,537	-0,194	-0,183
186,998	211,877	-0,177	-0,195
188,013	324,743	-0,192	-0,256
189,027	130,417	-0,164	-0,147
190,042	180,853	-0,254	-0,260
191,056	184,165	-0,146	-0,151
192,071	177,383	-0,209	-0,212
193,086	194,364	-0,171	-0,181
194,100	-60,956	-0,361	-0,106
195,115	-26,702	-0,243	-0,098
196,129	-68,486	-0,224	-0,060
197,144	51,272	-0,274	-0,181
198,159	132,110	-0,207	-0,185
199,173	35,424	-0,231	-0,141
200,188	44,771	-0,136	-0,087
201,202	-74,382	-0,321	-0,080
202,217	-25,122	-0,298	-0,122
203,232	154,501	-0,117	-0,112
204,246	246,687	-0,213	-0,250
205,261	172,463	-0,172	-0,172
206,275	-73,070	-0,243	-0,062
207,290	-2,523	-0,245	-0,119
208,304	165,490	-0,185	-0,182
209,319	-45,118	-0,205	-0,070
210,334	13,962	-0,317	-0,171
211,348	213,704	-0,202	-0,223
212,363	56,861	-0,250	-0,169
213,377	127,212	-0,312	-0,275
214,392	-10,469	-0,180	-0,083
215,407	413,254	-0,153	-0,227
216,421	231,338	-0,140	-0,159
217,436	59,162	-0,212	-0,145
218,450	-18,721	-0,193	-0,083
219,465	35,749	-0,196	-0,119
220,480	344,135	-0,245	-0,334
221,494	-25,019	-0,161	-0,066
222,509	-1,863	-0,172	-0,084
223,523	-52,090	-0,138	-0,044
224,538	-82,121	-0,186	-0,042
225,553	452,860	-0,149	-0,229
226,567	-0,719	-0,227	-0,111
227,582	800,000	-0,098	-0,231
228,596	9,433	-0,224	-0,117
229,611	-34,796	-0,075	0,028
230,626	19,300	-0,186	-0,103
231,640	0,135	-0,242	-0,119
232,655	-27,171	-0,273	-0,110
233,669	23,913	-0,093	-0,053
234,684	128,453	-0,184	-0,162
235,699	190,408	-0,131	-0,137
236,713	8,249	-0,258	0,134
237,728	470,094	-0,182	-0,284
238,742	45,163	-0,167	-0,107
239,757	-4,268	-0,218	-0,104
240,772	194,940	-0,230	-0,242
241,786	134,740	-0,193	-0,174
242,801	-98,313	-0,239	-0,042
243,815	-102,291	-0,141	-0,023
244,830	306,233	-0,074	-0,096
245,844	-37,403	-0,233	-0,086
246,859	47,356	-0,134	-0,087
247,874	162,601	-0,204	-0,198
248,888	9,062	-0,193	-0,100
249,903	191,650	-0,160	-0,167
250,917	-25,752	-0,203	-0,083
251,932	-200,000	-0,097	0,000
252,947	-55,247	-0,184	-0,057
253,961	140,141	-0,203	-0,185
254,976	1,915	-0,227	-0,113
255,990	166,907	-0,222	-0,218
257,005	-90,421	-0,246	-0,049
258,020	-16,523	-0,200	-0,087
259,034	161,185	-0,208	-0,201
260,049	128,207	-0,241	-0,212
261,063	231,262	-0,127	-0,144
262,078	130,381	-0,245	-0,217
263,093	30,009	-0,278	-0,164
264,107	-200,000	-0,013	0,052
265,122	26,077	-0,126	-0,072
266,136	55,238	-0,145	-0,097
267,151	55,368	-0,193	-0,129
268,166	157,384	-0,188	-0,180
269,180	106,405	-0,230	-0,188
270,195	132,491	-0,216	-0,192
271,209	263,185	-0,119	-0,143
272,224	-200,000	-0,096	-0,297
273,239	536,397	-0,127	-0,210
274,253	170,394	-0,112	-0,111
275,268	88,709	-0,171	-0,131
276,282	-137,357	-0,132	-0,010
277,297	387,968	-0,178	-0,256
278,312	497,030	-0,131	-0,209
279,326	800,000	-0,070	-0,145
280,341	43,638	-0,162	-0,102
281,355	131,272	-0,145	-0,129
282,370	-90,011	-0,207	0,041
283,384	169,113	-0,154	-0,152
284,399	-18,096	-0,132	-0,057
285,414	72,508	-0,143	-0,102
286,428	-53,185	-0,212	-0,067
287,443	-20,204	-0,216	-0,091
288,457	-140,957	-0,154	-0,011
289,472	-119,761	-0,230	-0,027
290,487	12,197	-0,113	-0,060
291,501	31,484	-0,254	-0,151
292,516	-115,993	-0,182	0,023
293,530	-200,000	-0,010	-0,217
294,545	-137,365	-0,160	0,012
295,560	800,000	-0,049	-0,122
296,574	273,078	-0,142	-0,174
297,589	-124,635	-0,209	-0,022
298,603	-113,008	-0,217	0,029
299,618	17,438	-0,289	-0,158
300,633	88,831	-0,248	-0,190
301,647	231,436	-0,103	-0,117
302,662	-168,815	-0,159	-0,004
303,676	-103,844	-0,165	-0,026
304,691	-200,000	-0,038	-0,138
305,706	437,802	-0,153	-0,231
306,720	403,106	-0,106	-0,154
307,735	-17,770	-0,046	0,020
308,749	-31,409	-0,154	-0,059
309,764	-95,048	-0,111	0,020
310,779	72,962	-0,094	0,068
311,793	-0,872	-0,095	-0,046
312,808	464,777	-0,160	-0,248
313,822	93,662	-0,170	-0,132
314,837	146,627	-0,132	-0,122
315,852	126,067	-0,081	-0,071
316,866	547,253	-0,071	-0,117
317,881	32,877	-0,204	-0,121
318,895	-108,171	-0,222	-0,033
319,910	464,817	-0,096	-0,148
320,925	-123,445	-0,276	0,030
321,939	1,314	-0,204	-0,100
322,954	-108,104	-0,087	0,013
323,968	-9,714	-0,227	-0,103
324,983	66,866	-0,026	-0,018
325,997	70,267	-0,125	-0,088
327,012	-39,849	-0,052	-0,018
328,027	217,353	-0,118	-0,130
329,041	186,935	-0,152	-0,156
330,056	-70,334	-0,230	-0,060
331,070	254,371	-0,091	-0,107
332,085	0,146	-0,121	-0,059
333,100	-200,000	-0,013	-0,146
334,114	124,132	-0,127	-0,110
335,129	681,567	-0,072	-0,129
336,143	800,000	-0,029	0,060
337,158	427,064	-0,015	0,023
338,173	259,469	-0,076	-0,090
339,187	800,000	-0,037	-0,106
340,202	-160,892	-0,160	0,006
341,216	32,428	-0,189	-0,112
342,231	93,272	-0,161	-0,125
343,246	-75,704	-0,119	-0,029
344,260	55,629	-0,139	-0,092
345,275	304,986	-0,129	-0,165
346,289	-111,396	-0,173	-0,024
347,304	105,771	-0,150	-0,122
348,319	91,929	-0,227	-0,175
349,333	17,294	-0,251	-0,136
350,348	-200,000	-0,034	-0,104
351,362	609,891	-0,165	-0,285
352,377	284,348	-0,055	-0,068
353,392	641,147	-0,065	-0,114
354,406	295,076	-0,115	-0,144
355,421	208,293	1316,962	1414,245
356,435	160,265	1477,953	1414,729
