DTS Sentinel unit serial number:	SN410029Multiplexer serial number:	ORYXHardware model number:	OX2-SRSoftware version number:	ORYX F/W v4,00 Oryx Data Collector v3.7.2.0data status	okinstallation	B3 Nyhavnadifferential loss correction	single-endedforward channel	channel 1reverse channel	N/Adate	2023/11/30time	05:02:30forward acquisition time	300,00reverse acquisition time	0,00gamma	499,1914k internal	0,3211k external	0,3211temperature offset calibration	1,0000default loss term (dB/km)	0,3820temperature slope calibration	1,0000multiplexer offset coefficient	1,0000multiplexer slope coefficient	1,0000fibre end	0,00T internal ref (°C)	10,16T ext. ref 1 (°C)	-5,17T ext. ref 2 (°C)	-5,26length (m)	temperature (°C)	Stokes	anti-Stokes-744,400	165,435	-0,171	-0,175
-743,385	-200,000	0,025	0,197
-742,371	118,407	-0,182	-0,163
-741,356	-200,000	0,032	0,192
-740,342	188,349	-0,080	-0,086
-739,327	-200,000	-0,009	0,379
-738,312	96,462	-0,273	-0,226
-737,298	-200,000	-0,048	0,346
-736,283	800,000	-0,074	-0,235
-735,269	-200,000	0,058	0,255
-734,254	69,643	-0,248	-0,185
-733,239	-127,599	-0,237	0,025
-732,225	-200,000	0,042	-0,208
-731,210	-200,000	0,015	0,111
-730,196	-200,000	0,008	-0,073
-729,181	-200,000	-0,002	0,016
-728,167	121,406	-0,080	-0,072
-727,152	316,416	-0,051	0,071
-726,137	-200,000	0,015	-0,131
-725,123	187,676	0,064	-0,069
-724,108	800,000	0,008	-0,021
-723,094	-200,000	-0,004	-0,063
-722,079	-200,000	-0,006	-0,114
-721,064	-29,886	-0,096	-0,039
-720,050	-63,251	0,050	0,015
-719,035	2,420	-0,026	-0,014
-718,021	235,646	-0,037	0,044
-717,006	-200,000	-0,010	-0,122
-715,991	92,403	0,091	-0,075
-714,977	-200,000	-0,015	-0,095
-713,962	665,898	-0,036	-0,068
-712,948	-200,000	-0,021	0,147
-711,933	-145,590	-0,143	0,009
-710,918	-35,785	-0,129	0,050
-709,904	-61,423	-0,146	-0,044
-708,889	86,211	-0,044	0,035
-707,875	-100,487	-0,069	0,012
-706,860	800,000	-0,019	-0,051
-705,845	-200,000	-0,002	0,089
-704,831	-8,955	0,101	-0,049
-703,816	-200,000	-0,000	0,066
-702,802	-200,000	-0,025	0,188
-701,787	-0,031	-0,090	0,046
-700,772	181,513	-0,062	0,066
-699,758	-136,273	-0,068	0,006
-698,743	198,967	0,017	-0,019
-697,729	15,669	-0,090	-0,051
-696,714	450,308	0,103	0,165
-695,699	28,180	-0,114	-0,069
-694,685	-200,000	0,000	-0,115
-693,670	800,000	-0,029	-0,069
-692,656	64,962	0,033	0,024
-691,641	-49,330	-0,150	-0,052
-690,627	-200,000	0,002	-0,038
-689,612	178,561	-0,087	-0,092
-688,597	800,000	-0,041	0,083
-687,583	-200,000	-0,008	-0,082
-686,568	800,000	0,018	-0,056
-685,554	689,403	-0,027	-0,051
-684,539	6,448	0,106	0,057
-683,524	-200,000	-0,007	0,096
-682,510	-200,000	-0,000	0,061
-681,495	48,206	-0,068	-0,046
-680,481	800,000	-0,060	-0,169
-679,466	-160,997	0,150	0,006
-678,451	106,836	0,060	0,051
-677,437	506,263	-0,031	0,053
-676,422	237,726	-0,076	0,091
-675,408	355,855	-0,032	-0,046
-674,393	800,000	-0,017	0,046
-673,378	132,143	-0,084	-0,078
-672,364	800,000	0,012	-0,036
-671,349	-200,000	-0,009	-0,033
-670,335	-105,456	-0,160	-0,026
-669,320	3,978	0,116	0,061
-668,305	78,304	0,076	-0,059
-667,291	231,321	-0,051	0,061
-666,276	577,706	-0,038	-0,068
-665,262	800,000	-0,023	0,070
-664,247	-134,717	-0,058	0,005
-663,232	38,554	-0,044	0,028
-662,218	170,904	0,125	-0,130
-661,203	800,000	0,013	-0,031
-660,189	800,000	-0,037	0,096
-659,174	345,183	-0,082	0,117
-658,159	-90,702	0,010	-0,002
-657,145	107,072	-0,072	-0,062
-656,130	-200,000	-0,025	-0,081
-655,116	-69,739	-0,049	0,013
-654,101	800,000	0,078	0,206
-653,086	-39,025	-0,045	0,017
-652,072	-200,000	0,021	0,078
-651,057	-200,000	-0,013	-0,090
-650,043	224,719	0,078	-0,092
-649,028	315,345	-0,057	0,078
-648,014	120,072	-0,068	0,061
-646,999	-200,000	0,039	0,133
-645,984	-75,811	-0,066	-0,017
-644,970	242,908	0,061	0,074
-643,955	219,277	-0,095	-0,110
-642,941	-200,000	-0,014	0,066
-641,926	-57,615	0,049	0,015
-640,911	-200,000	0,014	0,126
-639,897	-22,554	0,048	-0,021
-638,882	800,000	-0,039	-0,121
-637,868	50,196	-0,082	-0,056
-636,853	513,365	0,033	-0,057
-635,838	-37,981	0,115	-0,044
-634,824	237,470	-0,086	0,103
-633,809	-200,000	0,012	-0,137
-632,795	298,470	0,016	0,022
-631,780	530,457	-0,049	0,083
-630,765	233,733	-0,072	0,086
-629,751	-26,925	-0,154	-0,065
-628,736	115,657	-0,133	-0,117
-627,722	-53,874	-0,101	-0,033
-626,707	800,000	-0,038	0,107
-625,692	476,234	-0,147	0,241
-624,678	-200,000	0,003	0,028
-623,663	-200,000	-0,011	-0,085
-622,649	800,000	-0,028	-0,074
-621,634	-13,824	-0,198	-0,092
-620,619	-88,503	0,136	0,029
-619,605	-200,000	0,005	-0,074
-618,590	-9,255	-0,086	0,041
-617,576	-25,910	0,085	0,036
-616,561	381,939	-0,020	-0,029
-615,546	-62,990	-0,108	0,032
-614,532	800,000	0,045	-0,116
-613,517	-37,643	-0,067	-0,026
-612,503	70,126	0,098	0,073
-611,488	35,774	0,031	-0,019
-610,474	-101,690	0,104	0,018
-609,459	147,577	0,071	-0,069
-608,444	39,435	-0,065	-0,042
-607,430	648,951	0,063	-0,117
-606,415	-112,435	-0,115	0,016
-605,401	-90,876	0,063	0,013
-604,386	800,000	-0,045	-0,121
-603,371	17,213	0,055	-0,031
-602,357	-22,268	0,120	-0,052
-601,342	-58,844	-0,196	-0,061
-600,328	800,000	-0,055	0,140
-599,313	800,000	-0,023	-0,062
-598,298	-140,139	0,111	0,008
-597,284	144,059	-0,136	-0,131
-596,269	800,000	-0,019	-0,047
-595,255	-200,000	-0,011	-0,090
-594,240	-93,427	-0,132	0,026
-593,225	-200,000	0,012	0,041
-592,211	-200,000	0,020	-0,138
-591,196	800,000	-0,010	-0,023
-590,182	-129,899	0,126	-0,012
-589,167	12,433	0,053	0,029
-588,152	524,558	-0,026	0,044
-587,138	-17,988	0,032	-0,014
-586,123	-200,000	0,018	-0,077
-585,109	-1,287	0,037	0,019
-584,094	335,989	0,087	-0,122
-583,079	5,078	-0,048	0,025
-582,065	348,887	-0,033	0,047
-581,050	-125,404	0,114	0,012
-580,036	765,039	-0,028	-0,055
-579,021	87,706	0,082	-0,065
-578,006	53,751	-0,122	-0,084
-576,992	-49,813	0,070	0,024
-575,977	-112,200	0,146	-0,021
-574,963	-122,813	0,106	-0,012
-573,948	323,226	-0,075	0,104
-572,934	-200,000	-0,005	0,045
-571,919	800,000	-0,044	-0,112
-570,904	-200,000	-0,011	0,058
-569,890	-200,000	-0,009	-0,047
-568,875	296,681	0,023	0,031
-567,861	-200,000	0,024	-0,095
-566,846	-33,302	0,049	-0,020
-565,831	-142,026	0,081	-0,006
-564,817	108,572	-0,128	-0,110
-563,802	-200,000	-0,008	-0,148
-562,788	137,295	0,054	-0,051
-561,773	165,026	0,035	-0,036
-560,758	-200,000	0,012	-0,072
-559,744	-121,571	0,044	-0,005
-558,729	800,000	-0,036	0,114
-557,715	-51,913	0,176	0,059
-556,700	-120,744	-0,043	-0,005
-555,685	-145,601	-0,127	0,008
-554,671	-96,477	0,033	-0,006
-553,656	-200,000	0,051	-0,174
-552,642	-28,507	0,074	0,030
-551,627	800,000	0,027	-0,074
-550,612	21,985	-0,116	-0,068
-549,598	-176,204	-0,060	-0,001
-548,583	587,688	0,027	-0,048
-547,569	385,960	-0,056	0,084
-546,554	-200,000	0,014	0,101
-545,539	-88,490	0,041	0,009
-544,525	-143,156	-0,129	0,009
-543,510	-112,010	-0,112	0,016
-542,496	-66,061	-0,061	-0,017
-541,481	800,000	0,023	-0,052
-540,466	141,969	0,067	-0,063
-539,452	32,656	0,206	0,128
-538,437	800,000	0,031	0,068
-537,423	800,000	0,083	0,166
-536,408	800,000	0,047	0,116
-535,393	198,235	-0,063	-0,069
-534,379	-200,000	0,029	-0,225
-533,364	603,602	0,043	-0,076
-532,350	-200,000	-0,004	0,069
-531,335	216,992	0,112	-0,129
-530,321	800,000	-0,037	-0,087
-529,306	206,476	0,051	0,057
-528,291	-80,846	-0,049	-0,012
-527,277	5,825	-0,034	-0,018
-526,262	692,318	-0,050	0,096
-525,248	-74,796	0,084	0,022
-524,233	800,000	0,027	0,069
-523,218	51,286	-0,082	0,056
-522,204	761,379	-0,032	0,062
-521,189	498,651	-0,103	0,172
-520,175	-59,965	-0,108	-0,033
-519,160	221,513	-0,065	-0,076
-518,145	800,000	-0,032	0,084
-517,131	-200,000	0,001	0,149
-516,116	-68,234	0,149	0,041
-515,102	121,676	-0,013	-0,011
-514,087	73,141	0,049	-0,036
-513,072	-200,000	-0,003	-0,109
-512,058	-54,719	-0,051	0,017
-511,043	-175,145	0,182	0,004
-510,029	-63,834	0,061	-0,018
-509,014	-123,063	-0,027	0,003
-507,999	-66,130	0,109	-0,031
-506,985	420,434	-0,102	-0,158
-505,970	-9,058	-0,145	-0,069
-504,956	-200,000	-0,043	-0,138
-503,941	11,560	0,205	0,112
-502,926	781,214	0,019	0,038
-501,912	-29,499	0,065	0,027
-500,897	-84,115	-0,074	0,017
-499,883	-137,777	-0,209	0,017
-498,868	703,102	-0,073	-0,139
-497,853	-47,398	0,106	0,037
-496,839	-162,175	-0,028	-0,001
-495,824	457,818	0,024	-0,038
-494,810	-200,000	0,021	-0,147
-493,795	-200,000	0,010	-0,079
-492,781	589,592	0,064	0,113
-491,766	-200,000	0,015	0,102
-490,751	-76,427	0,022	0,006
-489,737	-133,490	0,141	0,013
-488,722	800,000	-0,012	0,026
-487,708	2,629	-0,091	0,047
-486,693	800,000	-0,034	-0,092
-485,678	800,000	0,048	-0,107
-484,664	-172,378	-0,045	-0,001
-483,649	-200,000	0,005	-0,122
-482,635	-17,473	-0,104	-0,047
-481,620	-200,000	-0,003	-0,030
-480,605	800,000	-0,026	0,065
-479,591	224,189	-0,116	0,135
-478,576	166,482	0,082	-0,084
-477,562	50,433	-0,102	-0,069
-476,547	-19,741	0,062	-0,028
-475,532	456,681	-0,078	0,125
-474,518	-107,613	0,143	-0,022
-473,503	-95,777	-0,120	0,023
-472,489	800,000	0,052	0,119
-471,474	244,112	0,171	0,206
-470,459	537,704	-0,040	-0,068
-469,445	-14,062	-0,072	-0,033
-468,430	-112,244	-0,086	-0,012
-467,416	-200,000	0,038	0,147
-466,401	594,875	0,036	0,065
-465,386	-123,660	-0,032	-0,004
-464,372	63,631	0,042	0,030
-463,357	-200,000	0,022	0,111
-462,343	33,803	-0,139	-0,086
-461,328	101,726	0,042	0,035
-460,313	330,347	-0,088	0,122
-459,299	0,578	-0,010	-0,005
-458,284	-79,908	0,049	-0,012
-457,270	-130,613	-0,127	0,012
-456,255	-200,000	-0,027	-0,114
-455,241	-133,895	-0,095	0,008
-454,226	423,958	0,039	0,060
-453,211	-40,392	0,133	-0,049
-452,197	317,391	-0,073	0,099
-451,182	16,781	0,025	0,014
-450,168	-140,602	0,073	0,005
-449,153	-30,973	-0,049	-0,020
-448,138	19,166	0,034	0,020
-447,124	-200,000	-0,013	0,121
-446,109	15,673	0,032	-0,018
-445,095	187,113	0,068	0,072
-444,080	657,834	0,048	0,089
-443,065	35,640	-0,093	-0,058
-442,051	-94,363	-0,022	-0,004
-441,036	12,010	-0,142	-0,078
-440,022	-101,165	-0,135	0,023
-439,007	-56,156	0,050	0,016
-437,992	800,000	0,033	-0,094
-436,978	16,127	0,038	0,022
-435,963	-200,000	-0,021	0,154
-434,949	36,785	0,120	-0,076
-433,934	-200,000	0,014	-0,095
-432,919	-45,263	0,068	0,024
-431,905	68,889	-0,083	0,061
-430,890	409,307	0,059	-0,090
-429,876	207,531	0,049	0,055
-428,861	-200,000	0,025	0,085
-427,846	-73,731	-0,076	0,020
-426,832	15,044	0,065	0,036
-425,817	800,000	-0,016	-0,032
-424,803	-25,927	-0,113	-0,047
-423,788	94,301	0,028	0,023
-422,773	-135,004	0,173	-0,015
-421,759	21,398	-0,148	-0,086
-420,744	-200,000	-0,002	0,066
-419,730	700,180	-0,033	-0,062
-418,715	-65,163	-0,200	0,057
-417,701	-13,903	-0,044	-0,020
-416,686	-74,186	-0,072	-0,019
-415,671	-102,386	0,017	0,003
-414,657	230,213	-0,100	0,117
-413,642	225,145	0,090	0,105
-412,628	342,779	-0,068	-0,095
-411,613	800,000	-0,048	-0,132
-410,598	174,591	-0,069	-0,072
-409,584	-84,473	-0,067	0,015
-408,569	674,181	0,066	-0,123
-407,555	-3,168	0,102	0,051
-406,540	-26,333	0,043	0,018
-405,525	800,000	0,045	-0,091
-404,511	800,000	-0,007	0,015
-403,496	-90,467	-0,195	-0,040
-402,482	-11,484	0,031	0,015
-401,467	40,658	0,095	0,061
-400,452	525,315	0,050	0,085
-399,438	-7,339	-0,013	-0,006
-398,423	-200,000	0,051	-0,203
-397,409	210,138	0,009	-0,010
-396,394	122,592	0,034	0,031
-395,379	-55,937	0,144	0,046
-394,365	86,191	0,115	0,091
-393,350	-200,000	0,036	0,148
-392,336	325,957	-0,042	-0,058
-391,321	800,000	-0,026	-0,060
-390,306	250,232	0,085	-0,104
-389,292	-65,076	0,051	0,015
-388,277	312,036	-0,050	-0,068
-387,263	269,316	0,105	-0,133
-386,248	-119,616	-0,120	-0,015
-385,233	-200,000	0,006	0,061
-384,219	12,004	-0,054	-0,029
-383,204	440,009	-0,049	-0,077
-382,190	315,403	-0,042	0,057
-381,175	-171,083	0,092	-0,002
-380,160	174,368	0,084	-0,087
-379,146	165,001	0,050	-0,050
-378,131	193,568	-0,020	-0,022
-377,117	288,295	0,030	0,039
-376,102	-200,000	0,009	-0,077
-375,088	385,797	0,056	0,082
-374,073	-69,250	0,046	-0,012
-373,058	208,612	0,137	0,154
-372,044	-200,000	-0,045	0,195
-371,029	-200,000	0,014	0,092
-370,015	523,757	0,048	0,081
-369,000	-200,000	0,004	0,055
-367,985	30,239	-0,199	0,121
-366,971	56,046	-0,110	-0,076
-365,956	137,542	0,043	0,040
-364,942	-120,630	0,113	-0,014
-363,927	166,723	0,136	0,138
-362,912	-200,000	-0,002	-0,032
-361,898	800,000	-0,012	-0,030
-360,883	301,417	-0,097	-0,128
-359,869	371,502	0,060	-0,087
-358,854	92,609	-0,017	-0,014
-357,839	-200,000	0,010	0,057
-356,825	800,000	0,041	0,108
-355,810	-48,062	-0,033	0,011
-354,796	10,459	-0,071	-0,039
-353,781	800,000	0,021	0,057
-352,766	269,599	-0,066	-0,083
-351,752	-55,698	0,043	-0,014
-350,737	800,000	0,026	0,066
-349,723	23,218	0,120	0,070
-348,708	311,321	0,064	-0,086
-347,693	-75,549	-0,149	0,038
-346,679	-200,000	-0,023	0,190
-345,664	-47,853	0,053	0,018
-344,650	-21,534	-0,070	0,030
-343,635	32,309	-0,054	-0,033
-342,620	-63,795	0,073	0,021
-341,606	-37,939	0,189	0,071
-340,591	-119,511	-0,068	-0,008
-339,577	800,000	0,016	-0,037
-338,562	167,811	0,045	-0,046
-337,548	613,681	0,057	-0,103
-336,533	800,000	-0,104	0,210
-335,518	693,662	0,075	0,141
-334,504	55,299	-0,107	-0,074
-333,489	1,807	-0,101	-0,052
-332,475	800,000	-0,049	-0,150
-331,460	172,832	-0,005	-0,005
-330,445	-77,398	0,063	0,016
-329,431	-200,000	0,006	-0,059
-328,416	-74,890	0,063	-0,016
-327,402	-112,877	0,061	0,009
-326,387	222,876	-0,048	-0,055
-325,372	300,807	-0,011	-0,014
-324,358	205,500	0,008	-0,009
-323,343	-135,453	-0,127	-0,011
-322,329	22,196	0,129	0,075
-321,314	-200,000	-0,000	0,117
-320,299	-200,000	0,004	-0,019
-319,285	140,007	0,032	0,030
-318,270	-200,000	-0,008	-0,046
-317,256	156,853	0,050	0,049
-316,241	35,977	-0,038	-0,024
-315,226	10,894	-0,080	-0,044
-314,212	-200,000	0,022	0,100
-313,197	468,447	0,003	-0,005
-312,183	-200,000	-0,032	0,138
-311,168	800,000	0,058	-0,177
-310,153	-116,996	-0,130	0,017
-309,139	800,000	0,046	-0,122
-308,124	-200,000	-0,003	-0,076
-307,110	-200,000	-0,017	0,085
-306,095	-161,330	0,212	-0,008
-305,080	-80,854	-0,113	-0,026
-304,066	-200,000	-0,034	-0,158
-303,051	-40,124	0,040	-0,015
-302,037	5,056	-0,105	0,055
-301,022	247,364	0,023	0,028
-300,008	152,400	0,065	0,063
-298,993	-200,000	-0,002	0,091
-297,978	-200,000	0,012	-0,098
-296,964	-38,946	0,167	-0,062
-295,949	800,000	-0,022	-0,069
-294,935	800,000	0,029	0,089
-293,920	800,000	0,045	-0,113
-292,905	-76,818	0,108	0,027
-291,891	800,000	0,065	0,177
-290,876	267,135	0,024	0,030
-289,862	24,866	-0,115	-0,068
-288,847	528,267	0,032	-0,054
-287,832	-200,000	-0,005	-0,020
-286,818	72,499	0,043	0,032
-285,803	-200,000	-0,010	0,153
-284,789	55,231	0,080	0,055
-283,774	258,042	0,067	0,082
-282,759	460,648	-0,022	-0,036
-281,745	323,861	-0,047	-0,064
-280,730	-67,730	-0,101	0,028
-279,716	98,432	0,045	0,037
-278,701	-100,853	-0,101	0,018
-277,686	303,794	0,031	-0,041
-276,672	-28,898	0,049	-0,020
-275,657	334,608	-0,113	0,156
-274,643	-2,643	0,102	-0,051
-273,628	-135,405	-0,226	0,019
-272,613	-85,344	0,094	-0,021
-271,599	16,040	0,051	0,028
-270,584	800,000	0,019	0,049
-269,570	359,080	0,088	0,126
-268,555	60,722	0,118	0,083
-267,540	-99,829	-0,094	-0,017
-266,526	-67,962	-0,181	0,050
-265,511	378,411	-0,016	-0,024
-264,497	4,881	-0,126	0,065
-263,482	190,247	0,108	-0,115
-262,467	-200,000	-0,066	-0,231
-261,453	-200,000	0,008	-0,079
-260,438	-77,100	-0,134	-0,033
-259,424	127,038	-0,041	0,037
-258,409	46,361	-0,143	0,094
-257,395	800,000	-0,038	0,103
-256,380	-120,695	0,199	0,024
-255,365	-131,312	0,162	0,015
-254,351	-14,283	-0,106	-0,048
-253,336	513,352	0,086	-0,143
-252,322	260,158	-0,110	-0,136
-251,307	178,012	0,031	0,032
-250,292	-200,000	-0,001	0,085
-249,278	50,121	-0,037	-0,025
-248,263	81,427	0,087	-0,067
-247,249	316,201	-0,024	0,033
-246,234	-89,003	-0,081	0,017
-245,219	-200,000	0,025	-0,217
-244,205	111,009	-0,108	-0,092
-243,190	114,782	-0,115	-0,099
-242,176	128,032	0,087	-0,079
-241,161	762,250	0,071	0,137
-240,146	-75,436	0,016	0,004
-239,132	-171,763	-0,065	0,001
-238,117	177,772	-0,072	0,075
-237,103	800,000	0,035	-0,085
-236,088	543,873	0,082	-0,139
-235,073	173,361	-0,113	0,116
-234,059	24,103	-0,074	0,044
-233,044	139,664	-0,027	0,025
-232,030	-108,673	0,104	0,016
-231,015	800,000	-0,037	0,114
-230,000	800,000	-0,025	0,074
-228,986	-81,511	0,046	0,011
-227,971	84,949	0,142	0,111
-226,957	-116,548	0,067	-0,009
-225,942	-64,215	-0,177	-0,051
-224,927	-118,950	-0,072	-0,009
-223,913	800,000	-0,039	-0,119
-222,898	642,036	0,045	-0,082
-221,884	-200,000	-0,020	-0,120
-220,869	-123,358	-0,049	-0,006
-219,855	331,415	0,072	0,098
-218,840	86,080	0,137	0,107
-217,825	23,304	-0,041	0,024
-216,811	-173,301	-0,086	0,002
-215,796	30,760	-0,097	-0,059
-214,782	800,000	-0,019	0,045
-213,767	-174,142	0,078	-0,002
-212,752	-200,000	-0,014	-0,046
-211,738	526,389	0,045	-0,075
-210,723	581,503	0,071	-0,124
-209,709	800,000	0,013	0,026
-208,694	89,377	0,032	-0,026
-207,679	114,192	-0,155	-0,134
-206,665	-200,000	-0,017	-0,102
-205,650	69,566	0,043	0,031
-204,636	-200,000	0,018	-0,115
-203,621	-200,000	-0,018	0,138
-202,606	-200,000	-0,016	0,062
-201,592	-90,032	0,092	-0,019
-200,577	38,176	-0,052	-0,033
-199,563	-200,000	-0,014	-0,109
-198,548	413,263	0,070	0,106
-197,533	-200,000	0,033	0,165
-196,519	771,233	-0,080	0,155
-195,504	544,420	0,044	-0,075
-194,490	800,000	0,053	-0,115
-193,475	730,337	-0,060	-0,115
-192,460	800,000	-0,048	0,119
-191,446	234,820	0,027	0,031
-190,431	183,689	-0,029	0,030
-189,417	800,000	0,067	0,136
-188,402	12,386	-0,002	-0,001
-187,387	176,364	-0,083	-0,085
-186,373	390,062	-0,046	-0,068
-185,358	-200,000	0,006	-0,092
-184,344	664,195	0,039	0,072
-183,329	-200,000	-0,001	-0,111
-182,315	-48,107	0,086	0,029
-181,300	105,792	0,044	0,037
-180,285	-200,000	0,002	-0,024
-179,271	-177,432	0,080	-0,001
-178,256	117,905	-0,049	0,043
-177,242	99,807	0,079	0,065
-176,227	800,000	0,034	0,090
-175,212	71,002	0,115	0,084
-174,198	-112,510	-0,054	0,008
-173,183	800,000	-0,015	-0,042
-172,169	71,988	-0,111	-0,082
-171,154	254,593	-0,068	0,083
-170,139	106,938	0,124	0,105
-169,125	14,965	0,050	-0,028
-168,110	176,217	-0,034	-0,036
-167,096	33,637	0,168	0,103
-166,081	-200,000	0,008	0,057
-165,066	103,773	0,127	-0,106
-164,052	138,527	-0,069	-0,064
-163,037	800,000	-0,086	0,194
-162,023	-141,260	0,140	-0,010
-161,008	257,424	0,045	-0,055
-159,993	800,000	-0,028	0,064
-158,979	-34,716	-0,055	-0,021
-157,964	-200,000	-0,015	0,087
-156,950	-200,000	-0,014	0,098
-155,935	657,663	0,011	-0,021
-154,920	-169,283	-0,095	-0,002
-153,906	16,060	-0,028	-0,015
-152,891	216,359	0,070	0,078
-151,877	-200,000	0,017	0,176
-150,862	800,000	0,018	-0,055
-149,847	159,551	-0,038	0,038
-148,833	193,439	-0,111	0,119
-147,818	-12,732	0,109	0,050
-146,804	-200,000	-0,013	0,100
-145,789	800,000	-0,084	0,181
-144,775	-95,874	-0,049	0,009
-143,760	255,772	0,095	-0,115
-142,745	-200,000	-0,014	-0,065
-141,731	129,724	-0,020	-0,018
-140,716	-51,231	0,087	0,029
-139,702	-80,846	0,065	-0,015
-138,687	434,792	0,060	-0,093
-137,672	800,000	0,031	0,062
-136,658	297,288	0,071	0,093
-135,643	-200,000	0,023	0,090
-134,629	800,000	0,028	-0,081
-133,614	-111,158	-0,057	-0,008
-132,599	-152,254	0,141	-0,007
-131,585	-142,036	0,118	0,008
-130,570	-200,000	0,010	0,064
-129,556	-200,000	-0,037	-0,136
-128,541	-200,000	-0,007	0,027
-127,526	-200,000	0,006	-0,103
-126,512	303,564	-0,059	0,077
-125,497	-138,463	0,085	0,007
-124,483	-200,000	-0,004	0,078
-123,468	-75,914	-0,109	0,027
-122,453	800,000	0,041	-0,089
-121,439	61,526	0,079	0,056
-120,424	-74,314	-0,066	-0,017
-119,410	-200,000	0,011	0,112
-118,395	-200,000	0,020	0,130
-117,380	-200,000	0,017	0,150
-116,366	73,665	-0,095	0,071
-115,351	417,152	-0,042	-0,063
-114,337	-200,000	-0,011	-0,092
-113,322	-51,489	0,044	-0,015
-112,307	-200,000	0,002	-0,011
-111,293	444,398	0,049	0,077
-110,278	-41,392	0,084	0,030
-109,264	161,406	0,074	0,074
-108,249	-200,000	0,013	0,101
-107,234	-200,000	0,019	-0,134
-106,220	-194,186	0,108	-0,001
-105,205	800,000	0,024	0,057
-104,191	-200,000	-0,008	-0,091
-103,176	800,000	0,038	0,104
-102,162	357,238	0,046	-0,065
-101,147	16,176	0,049	-0,027
-100,132	609,881	0,009	-0,016
-99,118	-200,000	0,029	-0,168
-98,103	-200,000	0,012	-0,124
-97,089	-78,715	-0,166	-0,040
-96,074	-43,728	-0,048	0,017
-95,059	311,843	-0,111	0,148
-94,045	-12,376	-0,079	-0,036
-93,030	556,401	-0,068	-0,116
-92,016	120,764	0,062	0,054
-91,001	-200,000	-0,012	0,061
-89,986	-57,301	-0,102	0,031
-88,972	188,102	0,066	0,070
-87,957	217,762	0,037	0,041
-86,943	-60,836	0,177	-0,053
-85,928	-200,000	-0,036	-0,156
-84,913	274,643	0,075	-0,094
-83,899	800,000	0,029	0,069
-82,884	359,185	0,066	0,093
-81,870	-200,000	0,019	0,113
-80,855	545,149	0,025	-0,043
-79,840	589,559	-0,057	-0,100
-78,826	-170,357	0,017	0,000
-77,811	105,343	-0,095	-0,080
-76,797	800,000	-0,048	0,115
-75,782	-118,035	0,052	0,007
-74,767	-34,637	0,075	0,029
-73,753	-200,000	-0,036	0,178
-72,738	14,788	-0,082	0,045
-71,724	-37,597	-0,119	0,045
-70,709	-74,535	-0,110	-0,028
-69,694	800,000	0,012	0,024
-68,680	83,171	0,014	0,011
-67,665	185,830	-0,053	0,056
-66,651	-2,056	0,040	-0,020
-65,636	152,354	-0,027	0,026
-64,622	707,201	0,029	-0,054
-63,607	-152,010	-0,053	-0,003
-62,592	-130,978	0,049	-0,005
-61,578	800,000	-0,063	-0,150
-60,563	800,000	0,038	-0,089
-59,549	605,964	-0,072	0,127
-58,534	30,382	-1,979	-1,191
-57,519	559,692	-1,183	-2,025
-56,505	-200,000	-0,406	-4,422
-55,490	591,474	0,842	1,474
-54,476	800,000	5,043	11,104
-53,461	-200,000	21,313	340,121
-52,446	800,000	759,524	2357,561
-51,432	559,228	1662,199	2843,336
-50,417	73,615	1661,557	1227,160
-49,403	18,080	1534,955	861,481
-48,388	11,980	1458,459	789,043
-47,373	19,349	1449,456	819,500
-46,359	15,438	1438,830	794,864
-45,344	10,273	1434,603	767,906
-44,330	10,196	1432,748	766,515
-43,315	10,202	1430,938	765,541
-42,300	10,232	1429,182	764,718
-41,286	10,250	1427,757	764,007
-40,271	10,191	1426,776	763,174
-39,257	10,183	1425,514	762,428
-38,242	10,284	1424,509	762,343
-37,227	10,204	1423,322	761,295
-36,213	10,243	1421,967	760,726
-35,198	10,259	1420,774	760,135
-34,184	10,301	1419,859	759,813
-33,169	10,214	1418,639	758,719
-32,154	10,257	1417,562	758,314
-31,140	10,281	1416,180	757,658
-30,125	10,282	1415,033	757,021
-29,111	10,253	1414,038	756,319
-28,096	10,203	1413,009	755,505
-27,082	10,171	1411,651	754,598
-26,067	10,202	1410,883	754,306
-25,052	10,223	1409,546	753,657
-24,038	10,174	1408,649	752,919
-23,023	10,146	1407,799	752,306
-22,009	10,196	1406,563	751,848
-20,994	10,182	1405,638	751,257
-19,979	10,221	1404,868	750,998
-18,965	10,161	1403,798	750,117
-17,950	10,121	1402,880	749,412
-16,936	10,147	1402,067	749,069
-15,921	10,060	1401,271	748,206
-14,906	10,103	1400,142	747,776
-13,892	10,168	1399,146	747,517
-12,877	10,108	1398,542	746,885
-11,863	10,097	1397,696	746,353
-10,848	10,068	1396,705	745,659
-9,833	10,053	1395,771	745,059
-8,819	10,031	1394,951	744,492
-7,804	10,020	1394,092	743,953
-6,790	10,039	1392,911	743,379
-5,775	10,008	1391,998	742,719
-4,760	10,056	1390,848	742,299
-3,746	10,001	1389,842	741,480
-2,731	10,005	1389,151	741,097
-1,717	10,007	1388,089	740,514
-0,702	10,012	1386,286	739,542
0,313	14,054	1299,336	711,646
1,327	30,229	690,079	414,617
2,342	47,017	119,379	78,183
3,356	0,591	16,451	8,270
4,371	7,735	3,530	1,859
5,386	-9,254	1,025	0,481
6,400	-200,000	0,102	0,486
7,415	245,865	-0,140	-0,167
8,429	52,804	-0,230	-0,154
9,444	43,924	-0,377	-0,243
10,459	14,822	-0,359	-0,197
11,473	193,663	-0,286	-0,305
12,488	-90,828	-0,317	-0,064
13,502	124,223	-0,290	-0,257
14,517	4,922	-0,251	-0,130
15,531	16,587	-0,348	-0,193
16,546	-21,094	-0,427	-0,183
17,561	65,912	-0,422	-0,301
18,575	800,000	-0,060	-0,128
19,590	-9,339	-0,316	-0,148
20,604	77,891	-0,269	-0,201
21,619	157,894	-0,347	-0,339
22,634	-6,610	-0,605	-0,289
23,648	18,790	-0,409	-0,230
24,663	114,920	-0,400	-0,343
25,677	77,032	-0,306	-0,228
26,692	244,798	-0,195	-0,232
27,707	361,292	-0,255	-0,361
28,721	-31,358	-0,540	-0,213
29,736	87,498	-0,446	-0,347
30,750	12,940	-0,533	-0,289
31,765	-11,808	-0,519	-0,239
32,780	11,695	-0,334	-0,180
33,794	-60,061	-0,355	-0,106
34,809	215,396	-0,266	-0,298
35,823	1,690	-0,378	-0,191
36,838	-15,052	-0,383	-0,172
37,853	27,339	-0,447	-0,264
38,867	91,579	-0,314	-0,248
39,882	-7,904	-0,405	-0,191
40,896	70,718	-0,360	-0,261
41,911	126,250	-0,302	-0,269
42,926	194,413	-0,223	-0,238
43,940	1,044	-0,341	-0,171
44,955	25,230	-0,362	-0,211
45,969	43,924	-0,483	-0,310
46,984	149,944	-0,260	-0,247
47,999	487,678	-0,215	-0,346
49,013	314,141	-0,178	-0,235
50,028	61,721	-0,295	-0,206
51,042	129,989	-0,280	-0,252
52,057	800,000	-0,135	-0,297
53,071	87,148	-0,318	-0,247
54,086	152,771	-0,335	-0,321
55,101	49,240	-0,292	-0,192
56,115	133,243	-0,271	-0,246
57,130	105,742	-0,345	-0,286
58,144	-8,973	-0,424	-0,198
59,159	69,729	-0,470	-0,340
60,174	66,237	-0,350	-0,249
61,188	108,482	-0,339	-0,284
62,203	279,185	-0,290	-0,364
63,217	127,585	-0,325	-0,290
64,232	7,754	-0,383	-0,201
65,247	12,800	-0,424	-0,229
66,261	37,620	-0,353	-0,219
67,276	-65,748	-0,255	-0,071
68,290	25,351	-0,369	-0,214
69,305	34,565	-0,339	-0,207
70,320	85,640	-0,290	-0,223
71,334	-68,797	-0,390	-0,105
72,349	-55,605	-0,401	-0,125
73,363	98,879	-0,271	-0,219
74,378	373,991	-0,223	-0,319
75,393	64,448	-0,345	-0,243
76,407	69,628	-0,391	-0,282
77,422	-5,229	-0,271	-0,130
78,436	-7,386	-0,352	-0,166
79,451	-48,065	-0,199	-0,067
80,466	-64,530	-0,397	-0,112
81,480	236,892	-0,283	-0,329
82,495	537,866	-0,250	-0,417
83,509	47,993	-0,315	-0,206
84,524	-66,862	-0,228	0,063
85,539	-37,187	-0,290	-0,108
86,553	184,936	-0,218	-0,226
87,568	-125,242	-0,332	-0,035
88,582	37,894	-0,307	-0,191
89,597	34,212	-0,261	-0,159
90,611	49,625	-0,269	-0,177
91,626	107,787	-0,257	-0,214
92,641	23,423	-0,210	-0,121
93,655	9,226	-0,413	-0,218
94,670	-3,230	-0,351	-0,171
95,684	60,463	-0,248	-0,172
96,699	-14,569	-0,440	-0,197
97,714	173,616	-0,179	-0,181
98,728	112,122	-0,171	-0,145
99,743	-72,180	-0,272	-0,070
100,757	116,056	-0,221	-0,189
101,772	800,000	-0,163	-0,345
102,787	72,142	-0,291	-0,212
103,801	42,116	-0,253	-0,161
104,816	24,415	-0,268	-0,154
105,830	-0,596	-0,329	-0,163
106,845	-32,998	-0,199	-0,077
107,860	188,944	-0,157	-0,165
108,874	40,583	-0,185	-0,116
109,889	65,477	-0,314	-0,222
110,903	120,226	-0,279	-0,242
111,918	12,092	-0,202	-0,108
112,933	41,277	-0,259	-0,163
113,947	2,488	-0,315	-0,159
114,962	-157,852	-0,240	0,010
115,976	116,575	-0,186	-0,159
116,991	176,805	-0,309	-0,314
118,006	28,928	-0,205	-0,121
119,020	148,524	-0,156	-0,148
120,035	38,373	-0,286	-0,178
121,049	-125,903	-0,248	0,026
122,064	92,410	-0,320	-0,251
123,079	11,098	-0,322	-0,171
124,093	458,511	-0,190	-0,297
125,108	143,331	-0,365	-0,339
126,122	-9,752	-0,218	-0,101
127,137	-24,569	-0,232	-0,096
128,151	-27,455	-0,297	-0,120
129,166	-88,201	-0,362	-0,075
130,181	16,855	-0,252	-0,139
131,195	-5,327	-0,336	-0,160
132,210	-120,439	-0,272	-0,032
133,224	168,006	-0,252	-0,250
134,239	45,921	-0,245	-0,158
135,254	145,352	-0,160	-0,149
136,268	151,557	-0,234	-0,223
137,283	124,170	-0,199	-0,174
138,297	441,251	-0,268	-0,410
139,312	-55,728	-0,364	-0,113
140,327	59,302	-0,232	-0,159
141,341	-22,183	-0,277	-0,116
142,356	1,623	-0,165	-0,083
143,370	60,220	-0,159	-0,109
144,385	-143,912	-0,259	-0,017
145,400	62,151	-0,297	-0,206
146,414	-29,596	-0,271	-0,107
147,429	164,591	-0,249	-0,245
148,443	135,797	-0,231	-0,210
149,458	520,927	-0,124	-0,203
150,473	-26,483	-0,257	-0,104
151,487	-184,968	-0,339	-0,004
152,502	127,456	-0,287	-0,254
153,516	11,389	-0,320	-0,170
154,531	62,547	-0,157	-0,109
155,546	-51,601	-0,267	-0,086
156,560	-40,805	-0,311	-0,111
157,575	-126,359	-0,322	-0,033
158,589	328,443	-0,238	-0,319
159,604	253,636	-0,119	-0,142
160,619	596,072	-0,144	-0,250
161,633	459,689	-0,152	-0,237
162,648	3,751	-0,262	-0,133
163,662	126,578	-0,051	-0,045
164,677	126,054	-0,212	-0,187
165,692	-79,589	-0,254	-0,059
166,706	199,351	-0,159	-0,169
167,721	229,698	-0,158	-0,179
168,735	199,245	-0,114	-0,121
169,750	-0,844	-0,227	-0,111
170,764	18,602	-0,239	-0,133
171,779	225,789	-0,200	-0,225
172,794	800,000	-0,056	-0,124
173,808	157,802	-0,154	-0,149
174,823	733,241	-0,087	-0,162
175,837	45,448	-0,272	-0,174
176,852	25,232	-0,229	-0,132
177,867	-19,658	-0,312	-0,133
178,881	-27,034	-0,273	-0,110
179,896	-43,401	-0,273	-0,095
180,910	282,357	-0,217	-0,271
181,925	316,923	-0,305	-0,401
182,940	128,126	-0,180	-0,159
183,954	37,204	-0,291	-0,179
184,969	398,912	-0,110	-0,161
185,983	-31,797	-0,193	-0,075
186,998	-29,035	-0,135	-0,053
188,013	-48,793	-0,165	-0,055
189,027	389,706	-0,218	-0,315
190,042	137,153	-0,358	-0,325
191,056	-75,195	-0,203	-0,050
192,071	-200,000	-0,029	-0,125
193,086	455,605	-0,137	-0,211
194,100	-18,187	-0,215	-0,093
195,115	-10,450	-0,294	-0,135
196,129	57,188	-0,289	-0,195
197,144	39,471	-0,210	-0,130
198,159	499,162	-0,126	-0,203
199,173	146,515	-0,204	-0,190
200,188	685,462	-0,069	-0,126
201,202	370,087	-0,080	-0,113
202,217	-121,404	-0,236	-0,027
203,232	414,618	-0,159	-0,235
204,246	27,251	-0,169	-0,098
205,261	-22,477	-0,173	-0,072
206,275	8,206	-0,229	-0,119
207,290	-17,640	-0,154	-0,067
208,304	87,072	-0,037	-0,028
209,319	-65,709	-0,149	-0,041
210,334	-141,787	-0,130	0,009
211,348	-105,517	-0,170	-0,026
212,363	146,408	-0,238	-0,222
213,377	15,479	-0,165	-0,089
214,392	198,525	-0,163	-0,173
215,407	353,037	-0,179	-0,247
216,421	18,336	-0,149	-0,082
217,436	149,977	-0,242	-0,227
218,450	373,237	-0,087	-0,123
219,465	532,325	-0,135	-0,222
220,480	48,021	-0,240	-0,155
221,494	249,141	-0,179	-0,210
222,509	516,577	-0,075	-0,122
223,523	-171,950	-0,195	0,004
224,538	-123,110	-0,210	0,023
225,553	-12,333	-0,292	-0,132
226,567	110,128	-0,166	-0,138
227,582	314,818	-0,153	-0,199
228,596	57,335	-0,185	-0,124
229,611	-47,339	-0,131	0,044
230,626	55,957	-0,204	-0,136
231,640	30,025	-0,234	-0,138
232,655	6,687	-0,188	-0,096
233,669	395,072	-0,122	-0,176
234,684	601,315	-0,090	-0,156
235,699	-4,937	-0,231	-0,110
236,713	800,000	-0,077	-0,149
237,728	293,534	-0,155	-0,196
238,742	9,434	-0,185	0,097
239,757	28,779	-0,128	-0,075
240,772	30,252	-0,344	-0,202
241,786	-19,359	-0,146	-0,062
242,801	-60,594	-0,170	-0,050
243,815	49,731	-0,174	-0,113
244,830	-7,575	-0,220	-0,102
245,844	4,952	-0,111	-0,056
246,859	-102,478	-0,291	0,048
247,874	389,119	-0,115	-0,165
248,888	445,613	-0,109	-0,165
249,903	800,000	-0,080	-0,167
250,917	269,745	-0,122	-0,148
251,932	220,927	-0,202	-0,224
252,947	-5,890	-0,198	-0,093
253,961	767,875	-0,103	-0,194
254,976	-200,000	-0,122	-0,394
255,990	131,883	-0,234	-0,207
257,005	621,684	-0,097	-0,168
258,020	50,925	-0,333	-0,217
259,034	-14,258	-0,222	-0,098
260,049	297,280	-0,089	-0,113
261,063	-145,595	-0,150	0,009
262,078	800,000	-0,125	-0,285
263,093	244,272	-0,177	-0,206
264,107	647,659	-0,083	-0,146
265,122	64,639	-0,127	-0,088
266,136	373,423	-0,166	-0,234
267,151	-143,629	-0,165	0,011
268,166	-26,691	-0,245	-0,098
269,180	-100,673	-0,191	-0,032
270,195	-9,938	-0,208	-0,095
271,209	-200,000	-0,032	-0,323
272,224	24,056	-0,175	-0,099
273,239	-36,671	-0,186	-0,069
274,253	185,650	-0,175	-0,179
275,268	351,881	-0,150	-0,205
276,282	128,073	-0,134	-0,118
277,297	314,915	-0,093	-0,122
278,312	-200,000	-0,065	-0,228
279,326	-200,000	0,042	-0,148
280,341	200,431	-0,124	-0,131
281,355	133,238	-0,189	-0,168
282,370	-38,698	-0,189	-0,068
283,384	98,076	-0,155	-0,122
284,399	163,231	-0,067	-0,065
285,414	-28,771	-0,149	0,059
286,428	-69,713	-0,247	-0,064
287,443	92,141	-0,175	-0,135
288,457	800,000	-0,084	-0,177
289,472	-12,823	-0,163	-0,073
290,487	102,720	-0,177	-0,143
291,501	800,000	-0,080	-0,191
292,516	17,754	-0,209	-0,114
293,530	50,786	-0,182	-0,118
294,545	153,897	-0,047	0,044
295,560	-200,000	-0,008	-0,111
296,574	-149,952	-0,115	-0,006
297,589	3,334	-0,117	-0,058
298,603	23,372	-0,319	-0,180
299,618	800,000	-0,064	-0,171
300,633	-65,188	-0,149	-0,041
301,647	134,926	-0,200	-0,179
302,662	510,593	-0,086	-0,138
303,676	-53,441	-0,138	-0,043
304,691	-127,965	-0,174	0,017
305,706	14,568	-0,186	-0,100
306,720	-95,965	-0,172	-0,031
307,735	194,340	-0,191	-0,199
308,749	800,000	-0,053	-0,125
309,764	-200,000	0,008	0,045
310,779	618,916	-0,051	-0,088
311,793	356,306	-0,184	-0,252
312,808	-189,451	-0,156	-0,001
313,822	191,302	-0,183	-0,189
314,837	679,245	-0,031	-0,055
315,852	-58,102	-0,084	0,025
316,866	800,000	-0,045	-0,117
317,881	-200,000	0,001	0,028
318,895	164,418	-0,130	-0,126
319,910	791,784	-0,106	-0,201
320,925	582,074	-0,078	-0,132
321,939	-6,599	-0,233	-0,109
322,954	144,664	-0,070	-0,064
323,968	800,000	-0,057	-0,163
324,983	-178,049	-0,151	-0,002
325,997	217,009	-0,109	-0,120
327,012	27,236	-0,231	-0,133
328,027	-30,354	-0,138	-0,053
329,041	-61,762	-0,177	-0,050
330,056	120,478	-0,134	-0,114
331,070	17,198	-0,106	-0,057
332,085	79,543	-0,138	0,102
333,100	-55,846	-0,205	-0,062
334,114	-86,153	-0,248	-0,052
335,129	407,456	-0,121	-0,176
336,143	245,560	-0,124	-0,143
337,158	800,000	-0,013	-0,029
338,173	-158,648	-0,088	0,003
339,187	133,644	-0,192	-0,170
340,202	56,516	-0,176	-0,117
341,216	-200,000	-0,049	-0,180
342,231	-22,654	-0,146	-0,060
343,246	-111,087	-0,192	-0,027
344,260	-200,000	0,005	-0,213
345,275	-200,000	-0,019	-0,103
346,289	88,143	-0,157	-0,119
347,304	800,000	-0,071	-0,149
348,319	-22,032	-0,064	0,026
349,333	216,287	-0,127	-0,139
350,348	238,786	-0,115	-0,131
351,362	-200,000	-0,035	-0,202
352,377	800,000	-0,074	-0,176
353,392	28,822	-0,034	-0,020
354,406	-39,025	-0,016	0,006
355,421	207,364	1310,269	1399,630
356,435	159,521	1470,407	1400,112
