DTS Sentinel unit serial number:	SN410029Multiplexer serial number:	ORYXHardware model number:	OX2-SRSoftware version number:	ORYX F/W v4,00 Oryx Data Collector v3.7.2.0data status	okinstallation	B3 Nyhavnadifferential loss correction	single-endedforward channel	channel 1reverse channel	N/Adate	2023/12/04time	01:12:30forward acquisition time	300,00reverse acquisition time	0,00gamma	499,1914k internal	0,3204k external	0,3204temperature offset calibration	1,0000default loss term (dB/km)	0,3820temperature slope calibration	1,0000multiplexer offset coefficient	1,0000multiplexer slope coefficient	1,0000fibre end	0,00T internal ref (°C)	12,51T ext. ref 1 (°C)	-2,71T ext. ref 2 (°C)	-2,75length (m)	temperature (°C)	Stokes	anti-Stokes-744,400	220,483	-0,246	-0,287
-743,385	800,000	0,067	0,179
-742,371	-200,000	0,020	-0,199
-741,356	-200,000	-0,055	0,439
-740,342	71,721	-0,309	-0,233
-739,327	800,000	-0,082	0,258
-738,312	800,000	-0,122	-0,362
-737,298	-200,000	0,000	0,136
-736,283	-200,000	-0,061	-0,261
-735,269	-200,000	-0,000	0,244
-734,254	185,727	-0,201	-0,218
-733,239	-88,507	-0,214	0,046
-732,225	44,973	-0,107	-0,072
-731,210	382,191	0,062	0,093
-730,196	-0,116	-0,088	-0,045
-729,181	444,513	-0,016	-0,026
-728,167	-137,289	0,152	0,012
-727,152	-54,385	0,034	-0,011
-726,137	-200,000	0,008	-0,065
-725,123	228,023	-0,039	-0,046
-724,108	298,357	0,011	0,015
-723,094	0,413	-0,173	-0,089
-722,079	-200,000	0,007	-0,146
-721,064	110,725	0,081	-0,071
-720,050	-113,343	-0,123	0,017
-719,035	54,691	-0,026	-0,018
-718,021	-69,085	-0,079	-0,022
-717,006	800,000	-0,033	-0,096
-715,991	-36,186	-0,092	-0,036
-714,977	-37,050	-0,156	-0,060
-713,962	-200,000	0,031	-0,108
-712,948	-114,355	-0,165	0,023
-711,933	-200,000	-0,010	0,080
-710,918	-200,000	-0,018	-0,095
-709,904	777,407	-0,064	-0,127
-708,889	-200,000	-0,000	-0,098
-707,875	-102,023	-0,085	-0,015
-706,860	-13,440	-0,128	0,060
-705,845	-200,000	0,020	0,093
-704,831	-200,000	0,010	0,089
-703,816	-200,000	0,010	0,058
-702,802	-105,277	0,041	0,007
-701,787	800,000	0,030	-0,069
-700,772	800,000	-0,006	-0,018
-699,758	130,671	-0,054	-0,050
-698,743	-200,000	-0,010	0,088
-697,729	68,686	0,032	0,024
-696,714	92,362	-0,031	-0,025
-695,699	390,343	-0,091	0,137
-694,685	431,317	0,061	-0,097
-693,670	-200,000	-0,040	-0,159
-692,656	-200,000	-0,030	-0,156
-691,641	-200,000	0,082	0,000
-690,627	117,583	0,099	0,089
-689,612	146,143	-0,067	0,065
-688,597	-20,382	0,079	0,035
-687,583	-115,987	-0,128	0,017
-686,568	88,392	-0,052	-0,042
-685,554	-145,166	-0,096	-0,006
-684,539	-62,878	0,066	-0,020
-683,524	-112,725	-0,122	0,017
-682,510	63,896	-0,120	0,087
-681,495	-45,422	-0,130	-0,046
-680,481	87,453	-0,082	-0,066
-679,466	237,620	-0,060	-0,073
-678,451	-200,000	0,037	-0,132
-677,437	-200,000	-0,006	-0,042
-676,422	515,128	0,027	-0,046
-675,408	-52,582	0,066	-0,022
-674,393	168,584	-0,097	-0,100
-673,378	-200,000	0,013	-0,084
-672,364	572,090	-0,122	-0,215
-671,349	165,713	0,057	0,058
-670,335	-200,000	0,029	-0,251
-669,320	-200,000	0,008	-0,048
-668,305	64,705	0,075	-0,055
-667,291	-73,374	-0,102	-0,027
-666,276	576,385	0,007	-0,013
-665,262	-23,686	-0,047	-0,020
-664,247	800,000	0,074	-0,196
-663,232	406,256	-0,051	-0,078
-662,218	-87,184	-0,117	0,026
-661,203	177,512	0,041	-0,043
-660,189	-200,000	-0,006	0,070
-659,174	376,310	0,011	-0,016
-658,159	-76,557	-0,072	-0,018
-657,145	-23,225	-0,065	0,028
-656,130	-115,137	-0,084	0,011
-655,116	23,253	0,136	-0,081
-654,101	7,178	0,068	0,037
-653,086	24,702	-0,084	0,050
-652,072	-53,765	0,072	-0,024
-651,057	67,704	-0,110	-0,081
-650,043	35,614	-0,024	0,015
-649,028	800,000	-0,008	-0,020
-648,014	-60,788	0,084	-0,026
-646,999	-48,541	0,045	-0,015
-645,984	-9,607	0,057	0,027
-644,970	-200,000	-0,026	-0,088
-643,955	27,573	-0,044	0,026
-642,941	478,476	-0,072	-0,119
-641,926	-145,262	-0,012	0,001
-640,911	-200,000	0,023	-0,203
-639,897	-200,000	0,010	-0,089
-638,882	-69,966	-0,116	-0,032
-637,868	353,055	-0,064	0,092
-636,853	800,000	-0,114	-0,247
-635,838	203,162	-0,032	-0,035
-634,824	-200,000	0,018	-0,089
-633,809	248,765	-0,040	-0,050
-632,795	76,872	-0,140	0,108
-631,780	-24,027	-0,068	0,029
-630,765	800,000	-0,014	0,030
-629,751	-200,000	0,005	0,025
-628,736	-200,000	0,006	-0,038
-627,722	-200,000	0,002	-0,115
-626,707	150,320	0,089	0,088
-625,692	95,898	0,132	0,109
-624,678	13,673	-0,075	-0,042
-623,663	-200,000	0,005	-0,055
-622,649	56,197	-0,198	-0,139
-621,634	-88,628	-0,107	0,023
-620,619	-200,000	-0,007	0,112
-619,605	119,532	-0,083	0,074
-618,590	-123,409	-0,046	-0,005
-617,576	-200,000	0,022	0,079
-616,561	12,883	-0,087	-0,049
-615,546	-150,974	0,133	0,007
-614,532	48,071	-0,222	-0,150
-613,517	-118,020	-0,042	-0,005
-612,503	764,737	-0,025	0,050
-611,488	241,712	-0,079	-0,096
-610,474	-38,131	-0,128	0,049
-609,459	-94,917	-0,119	-0,023
-608,444	32,745	-0,088	-0,055
-607,430	156,531	-0,074	-0,074
-606,415	800,000	0,023	-0,071
-605,401	-200,000	0,027	-0,147
-604,386	19,147	0,045	-0,026
-603,371	-99,616	-0,024	0,004
-602,357	800,000	0,038	0,115
-601,342	800,000	0,045	0,095
-600,328	49,670	-0,084	-0,057
-599,313	800,000	-0,016	-0,048
-598,298	-15,222	0,029	0,013
-597,284	-54,778	-0,025	0,008
-596,269	97,731	0,033	0,028
-595,255	523,072	-0,016	0,027
-594,240	-200,000	-0,020	-0,134
-593,225	-155,478	-0,102	-0,005
-592,211	-200,000	0,013	0,050
-591,196	-180,419	-0,110	0,002
-590,182	50,266	-0,108	0,074
-589,167	800,000	0,039	0,124
-588,152	-130,627	0,050	-0,005
-587,138	758,219	-0,012	-0,024
-586,123	-200,000	-0,002	0,047
-585,109	-153,838	-0,080	-0,004
-584,094	675,600	0,038	0,071
-583,079	323,324	0,054	0,075
-582,065	-141,777	-0,111	0,008
-581,050	76,713	0,006	-0,005
-580,036	800,000	-0,035	0,071
-579,021	443,784	0,023	-0,036
-578,006	-200,000	0,014	-0,074
-576,992	242,965	-0,047	-0,057
-575,977	203,290	-0,055	0,061
-574,963	358,918	-0,034	-0,050
-573,948	-67,767	0,108	0,030
-572,934	-200,000	-0,021	-0,138
-571,919	-200,000	0,011	-0,065
-570,904	800,000	-0,028	-0,086
-569,890	316,991	0,051	0,070
-568,875	208,266	-0,121	-0,136
-567,861	-29,995	0,146	0,060
-566,846	-200,000	0,005	-0,056
-565,831	203,609	-0,055	0,062
-564,817	-200,000	-0,000	-0,024
-563,802	800,000	-0,005	0,014
-562,788	-200,000	0,071	-0,233
-561,773	613,671	-0,044	-0,080
-560,758	207,570	-0,075	0,085
-559,744	-200,000	0,007	-0,050
-558,729	-200,000	-0,016	0,054
-557,715	-200,000	-0,010	-0,074
-556,700	800,000	-0,033	-0,090
-555,685	-200,000	-0,008	-0,113
-554,671	800,000	0,058	-0,123
-553,656	48,762	0,074	-0,050
-552,642	-200,000	0,037	0,181
-551,627	-76,906	-0,074	-0,019
-550,612	-200,000	0,004	-0,052
-549,598	130,713	-0,031	-0,029
-548,583	800,000	-0,028	-0,063
-547,569	-95,086	0,043	-0,008
-546,554	171,531	0,053	0,055
-545,539	-41,420	0,064	-0,024
-544,525	63,720	-0,080	0,058
-543,510	-19,347	0,057	0,025
-542,496	-17,604	-0,036	-0,016
-541,481	432,282	0,064	0,100
-540,466	-66,927	0,020	0,006
-539,452	-189,884	0,073	-0,001
-538,437	-106,947	-0,038	0,006
-537,423	339,706	-0,031	0,043
-536,408	800,000	0,020	0,055
-535,393	39,072	-0,090	-0,058
-534,379	244,605	0,025	-0,030
-533,364	383,754	-0,063	0,094
-532,350	26,610	-0,077	-0,046
-531,335	176,733	0,082	-0,086
-530,321	-200,000	-0,005	0,018
-529,306	157,559	0,030	0,030
-528,291	-154,623	0,110	-0,005
-527,277	118,841	-0,057	-0,050
-526,262	708,195	-0,037	-0,071
-525,248	-67,511	0,104	-0,029
-524,233	-200,000	0,018	-0,060
-523,218	-4,817	0,041	0,020
-522,204	-113,211	-0,038	-0,005
-521,189	-4,588	-0,086	0,042
-520,175	-200,000	0,046	-0,160
-519,160	800,000	0,037	-0,111
-518,145	39,415	0,024	0,016
-517,131	237,548	0,065	0,077
-516,116	-61,650	0,057	-0,017
-515,102	0,810	0,010	-0,005
-514,087	-200,000	-0,020	0,073
-513,072	-200,000	-0,015	0,048
-512,058	-40,263	0,042	0,016
-511,043	-139,708	-0,062	-0,005
-510,029	472,998	0,050	-0,081
-509,014	93,251	-0,084	0,068
-507,999	278,902	-0,111	0,142
-506,985	397,587	-0,065	0,098
-505,970	-129,497	-0,123	-0,012
-504,956	-200,000	-0,001	-0,162
-503,941	-17,443	0,057	0,026
-502,926	-155,510	-0,093	-0,004
-501,912	317,043	-0,121	-0,165
-500,897	334,216	-0,072	-0,101
-499,883	-200,000	-0,051	-0,164
-498,868	-200,000	-0,039	-0,134
-497,853	-152,394	0,060	-0,003
-496,839	-200,000	-0,001	0,128
-495,824	-200,000	0,002	0,028
-494,810	800,000	0,026	0,061
-493,795	800,000	0,037	0,076
-492,781	38,087	-0,103	0,066
-491,766	-75,875	-0,131	-0,033
-490,751	-22,423	-0,058	-0,025
-489,737	800,000	0,034	-0,102
-488,722	23,532	-0,173	-0,102
-487,708	-200,000	-0,011	-0,087
-486,693	-121,483	-0,105	-0,012
-485,678	407,878	0,053	0,081
-484,664	-19,517	-0,178	-0,079
-483,649	341,945	0,045	0,064
-482,635	174,135	-0,092	-0,096
-481,620	80,955	0,097	0,075
-480,605	800,000	0,017	0,051
-479,591	800,000	-0,019	0,043
-478,576	-10,394	-0,103	0,049
-477,562	372,669	-0,098	0,144
-476,547	166,811	0,084	-0,086
-475,532	322,771	0,062	-0,086
-474,518	-97,758	0,082	-0,015
-473,503	583,198	-0,024	0,042
-472,489	-177,551	0,210	-0,004
-471,474	-90,573	0,026	0,005
-470,459	70,659	-0,068	-0,051
-469,445	35,647	0,060	-0,038
-468,430	24,170	0,092	-0,054
-467,416	-200,000	-0,028	-0,163
-466,401	-171,212	0,097	-0,002
-465,386	-200,000	0,019	0,092
-464,372	-0,674	-0,079	-0,040
-463,357	272,817	0,058	-0,074
-462,343	226,506	0,039	-0,045
-461,328	800,000	0,050	-0,123
-460,313	-200,000	-0,017	0,076
-459,299	-28,907	0,115	0,047
-458,284	-11,234	-0,070	0,033
-457,270	-200,000	0,025	-0,139
-456,255	-154,264	-0,080	-0,004
-455,241	-82,734	0,017	0,004
-454,226	-2,775	-0,023	0,012
-453,211	77,004	-0,012	-0,009
-452,197	-13,465	-0,059	-0,027
-451,182	84,382	-0,033	0,026
-450,168	-26,368	-0,073	0,031
-449,153	238,546	0,137	-0,164
-448,138	-113,129	0,066	0,009
-447,124	67,051	-0,110	-0,080
-446,109	267,674	-0,013	0,016
-445,095	800,000	0,020	-0,051
-444,080	-164,870	-0,053	0,002
-443,065	-116,202	-0,095	-0,013
-442,051	52,464	0,135	-0,093
-441,036	800,000	-0,049	0,138
-440,022	148,602	0,068	0,066
-439,007	72,146	0,110	-0,082
-437,992	-145,273	0,145	0,009
-436,978	111,104	0,156	-0,135
-435,963	60,399	-0,055	-0,039
-434,949	57,704	-0,136	0,095
-433,934	-95,581	-0,131	0,025
-432,919	-200,000	-0,043	-0,238
-431,905	20,970	-0,037	-0,021
-430,890	-200,000	0,042	0,134
-429,876	-158,715	-0,047	0,002
-428,861	-200,000	-0,005	-0,085
-427,846	-4,917	-0,114	-0,056
-426,832	-200,000	-0,008	0,049
-425,817	-200,000	0,018	-0,103
-424,803	253,957	0,113	-0,139
-423,788	-200,000	0,019	-0,071
-422,773	712,528	0,022	0,041
-421,759	800,000	-0,033	0,072
-420,744	-74,714	0,065	0,017
-419,730	-79,277	0,024	0,006
-418,715	46,817	-0,159	-0,106
-417,701	800,000	-0,034	-0,085
-416,686	800,000	-0,030	0,072
-415,671	602,714	0,089	0,160
-414,657	89,491	0,087	0,069
-413,642	-100,707	-0,041	-0,007
-412,628	800,000	-0,049	-0,123
-411,613	391,171	-0,045	-0,067
-410,598	-56,159	-0,095	0,030
-409,584	-200,000	-0,013	0,164
-408,569	-200,000	0,005	0,119
-407,555	-2,077	0,081	0,040
-406,540	800,000	0,027	0,057
-405,525	117,679	0,119	-0,105
-404,511	-200,000	0,010	-0,082
-403,496	176,852	0,121	-0,126
-402,482	770,278	-0,057	-0,111
-401,467	-200,000	-0,008	0,113
-400,452	282,411	0,111	0,143
-399,438	-200,000	0,050	-0,175
-398,423	-161,447	0,164	-0,006
-397,409	800,000	-0,052	-0,107
-396,394	800,000	0,048	0,104
-395,379	800,000	0,051	0,110
-394,365	526,918	-0,044	0,075
-393,350	-17,734	0,117	0,052
-392,336	-200,000	0,020	0,112
-391,321	800,000	0,031	-0,081
-390,306	75,131	-0,093	-0,070
-389,292	-92,376	-0,079	-0,016
-388,277	-200,000	-0,010	0,065
-387,263	592,684	-0,070	0,125
-386,248	140,857	0,039	-0,037
-385,233	711,211	0,063	0,121
-384,219	800,000	-0,072	0,151
-383,204	-200,000	-0,037	0,169
-382,190	-74,176	-0,134	0,034
-381,175	-200,000	0,002	-0,113
-380,160	-74,575	0,172	0,044
-379,146	283,732	-0,106	0,137
-378,131	61,542	0,084	0,060
-377,117	50,014	0,079	-0,054
-376,102	-200,000	-0,051	-0,177
-375,088	423,079	-0,033	-0,051
-374,073	216,452	-0,035	0,040
-373,058	52,870	0,129	0,088
-372,044	84,331	0,125	-0,098
-371,029	-145,713	-0,015	0,001
-370,015	-176,291	0,060	-0,001
-369,000	800,000	-0,025	0,057
-367,985	800,000	-0,010	0,030
-366,971	9,387	0,055	-0,030
-365,956	-200,000	-0,011	-0,070
-364,942	-49,126	0,114	0,039
-363,927	-71,313	0,074	-0,020
-362,912	132,197	-0,037	0,034
-361,898	800,000	-0,042	-0,101
-360,883	61,505	-0,079	-0,057
-359,869	117,820	0,020	-0,018
-358,854	-200,000	0,094	0,000
-357,839	-200,000	0,002	0,041
-356,825	-83,299	0,091	-0,021
-355,810	29,099	-0,067	-0,041
-354,796	-109,327	0,033	-0,005
-353,781	32,082	-0,054	-0,033
-352,766	336,205	-0,047	-0,065
-351,752	84,601	0,086	-0,067
-350,737	-106,633	0,033	0,005
-349,723	105,005	0,087	0,074
-348,708	-93,878	-0,052	0,010
-347,693	652,551	-0,051	-0,095
-346,679	-200,000	-0,010	-0,066
-345,664	-30,579	0,178	-0,072
-344,650	-200,000	0,022	0,160
-343,635	-200,000	-0,010	0,082
-342,620	-200,000	-0,012	0,091
-341,606	695,249	-0,071	0,134
-340,591	502,127	-0,003	-0,004
-339,577	-99,364	0,077	0,014
-338,562	-90,240	-0,081	-0,017
-337,548	-200,000	0,004	0,069
-336,533	15,663	0,029	0,016
-335,518	-200,000	0,020	0,065
-334,504	-12,559	0,143	0,066
-333,489	80,641	-0,052	-0,040
-332,475	-200,000	0,006	-0,061
-331,460	-200,000	-0,012	-0,099
-330,445	-155,848	0,047	0,002
-329,431	647,200	-0,023	0,042
-328,416	-200,000	0,013	0,085
-327,402	-200,000	-0,007	0,060
-326,387	122,343	0,094	0,084
-325,372	-122,307	-0,111	-0,013
-324,358	-48,214	-0,127	-0,043
-323,343	-114,340	0,147	0,020
-322,329	-200,000	-0,016	0,106
-321,314	630,068	0,083	0,151
-320,299	319,290	0,075	-0,102
-319,285	-65,503	0,097	0,028
-318,270	-32,761	0,054	-0,022
-317,256	-200,000	-0,004	-0,047
-316,241	63,519	0,011	-0,008
-315,226	67,698	0,027	0,020
-314,212	-62,428	0,029	0,009
-313,197	-78,080	0,108	-0,026
-312,183	238,744	0,140	-0,166
-311,168	-109,645	-0,077	0,011
-310,153	-200,000	0,003	-0,018
-309,139	-172,342	-0,043	0,001
-308,124	-200,000	0,006	0,036
-307,110	176,403	-0,033	0,034
-306,095	-144,580	-0,096	0,006
-305,080	-42,871	0,154	-0,056
-304,066	-164,123	-0,135	-0,004
-303,051	-200,000	0,011	0,056
-302,037	-77,002	0,134	-0,033
-301,022	51,846	-0,145	0,099
-300,008	800,000	0,048	0,104
-298,993	800,000	0,021	0,066
-297,978	-192,399	0,027	0,000
-296,964	779,098	-0,059	-0,116
-295,949	4,567	0,056	0,029
-294,935	123,385	0,064	-0,057
-293,920	-182,591	0,046	-0,001
-292,905	218,225	0,050	0,057
-291,891	-49,743	0,059	0,020
-290,876	-179,861	0,072	0,001
-289,862	800,000	0,014	0,040
-288,847	135,277	-0,088	0,081
-287,832	-200,000	0,010	0,061
-286,818	-108,025	0,037	0,006
-285,803	104,867	-0,094	0,079
-284,789	46,251	0,049	-0,033
-283,774	-200,000	-0,018	0,093
-282,759	89,669	-0,024	0,019
-281,745	70,320	-0,083	-0,061
-280,730	691,778	0,007	-0,013
-279,716	-200,000	-0,016	-0,117
-278,701	-200,000	-0,009	-0,055
-277,686	74,850	0,063	-0,047
-276,672	-153,387	-0,044	0,002
-275,657	776,317	-0,019	-0,038
-274,643	-40,559	-0,063	-0,023
-273,628	800,000	-0,057	0,123
-272,613	-87,451	-0,136	0,029
-271,599	-200,000	-0,011	0,055
-270,584	556,159	0,044	0,076
-269,570	-86,344	0,114	-0,025
-268,555	800,000	0,034	0,094
-267,540	43,819	-0,103	0,067
-266,526	-63,393	-0,066	-0,019
-265,511	574,583	-0,034	-0,060
-264,497	-139,502	0,050	-0,004
-263,482	189,165	-0,024	-0,026
-262,467	-153,816	-0,153	0,007
-261,453	142,455	0,105	0,100
-260,438	-200,000	0,007	-0,103
-259,424	468,207	0,037	-0,059
-258,409	-13,970	0,174	0,080
-257,395	-160,833	-0,147	-0,005
-256,380	205,362	-0,053	-0,058
-255,365	536,083	0,100	0,170
-254,351	-141,926	-0,080	-0,006
-253,336	-200,000	0,009	0,030
-252,322	461,878	-0,086	0,137
-251,307	-41,868	0,111	-0,040
-250,292	-151,410	-0,160	-0,008
-249,278	-200,000	-0,000	0,093
-248,263	-61,617	-0,103	0,031
-247,249	-102,891	0,109	-0,018
-246,234	-200,000	0,007	0,048
-245,219	800,000	-0,027	-0,055
-244,205	-200,000	-0,001	-0,051
-243,190	119,677	0,056	-0,049
-242,176	230,436	0,069	0,080
-241,161	328,266	0,099	0,136
-240,146	590,727	-0,049	0,087
-239,132	-32,985	-0,168	-0,066
-238,117	172,610	0,074	-0,076
-237,103	-17,249	-0,060	-0,027
-236,088	264,828	-0,035	0,044
-235,073	-64,738	0,166	-0,048
-234,059	-200,000	0,006	0,179
-233,044	134,958	0,028	0,026
-232,030	60,147	0,114	-0,080
-231,015	-94,465	0,177	0,034
-230,000	-88,219	-0,108	0,023
-228,986	-143,385	-0,060	-0,004
-227,971	-164,906	0,083	0,003
-226,957	-200,000	0,014	0,058
-225,942	-34,013	0,159	0,062
-224,927	11,354	0,131	0,071
-223,913	-50,270	-0,082	-0,028
-222,898	-100,401	-0,106	0,019
-221,884	91,814	0,054	-0,043
-220,869	-200,000	0,000	0,061
-219,855	-180,430	-0,023	-0,000
-218,840	81,142	-0,123	0,094
-217,825	153,407	-0,079	0,077
-216,811	-134,339	0,096	-0,008
-215,796	66,369	0,063	0,046
-214,782	436,559	-0,050	0,078
-213,767	660,410	-0,069	0,126
-212,752	800,000	-0,029	-0,068
-211,738	800,000	0,019	-0,042
-210,723	246,024	-0,039	0,047
-209,709	317,190	-0,093	-0,126
-208,694	761,824	0,010	0,019
-207,679	-91,783	0,085	0,017
-206,665	482,984	-0,075	-0,121
-205,650	73,886	0,135	0,100
-204,636	800,000	0,023	-0,048
-203,621	800,000	0,016	-0,032
-202,606	-200,000	-0,015	-0,140
-201,592	-50,541	0,101	0,034
-200,577	-200,000	0,013	-0,042
-199,563	0,913	-0,058	0,030
-198,548	-200,000	0,007	0,195
-197,533	-200,000	0,042	0,136
-196,519	-80,042	0,164	0,039
-195,504	23,735	-0,051	-0,030
-194,490	800,000	-0,029	-0,087
-193,475	-71,111	0,043	-0,011
-192,460	77,401	0,115	-0,087
-191,446	-76,302	-0,048	0,012
-190,431	-200,000	0,012	-0,109
-189,417	-200,000	-0,001	0,060
-188,402	-200,000	0,010	0,070
-187,387	-200,000	0,021	0,134
-186,373	291,842	-0,114	0,147
-185,358	234,954	-0,066	0,077
-184,344	-108,462	-0,010	-0,002
-183,329	429,280	-0,032	-0,050
-182,315	-200,000	-0,019	0,184
-181,300	-162,068	0,050	-0,002
-180,285	334,850	0,086	-0,119
-179,271	-200,000	0,000	-0,010
-178,256	-108,730	0,093	0,014
-177,242	364,660	0,041	0,058
-176,227	-57,204	0,076	-0,023
-175,212	-56,640	-0,054	-0,017
-174,198	-200,000	0,006	0,059
-173,183	-200,000	0,014	-0,093
-172,169	-200,000	0,007	-0,126
-171,154	-119,123	-0,043	-0,005
-170,139	250,929	0,020	-0,024
-169,125	435,906	0,043	-0,067
-168,110	-176,897	0,139	0,002
-167,096	170,936	0,040	-0,040
-166,081	800,000	-0,027	0,060
-165,066	-55,553	0,104	0,033
-164,052	97,560	-0,029	0,024
-163,037	800,000	0,056	0,176
-162,023	678,964	0,092	0,171
-161,008	-200,000	-0,019	-0,072
-159,993	-49,934	-0,081	0,027
-158,979	-8,936	0,092	0,044
-157,964	-8,488	-0,036	-0,017
-156,950	-35,402	-0,037	0,014
-155,935	-49,074	0,109	0,037
-154,920	800,000	-0,068	0,159
-153,906	492,502	0,018	0,029
-152,891	-96,590	-0,151	0,028
-151,877	74,438	-0,125	-0,094
-150,862	-200,000	-0,015	-0,086
-149,847	-90,300	-0,014	-0,003
-148,833	250,960	-0,099	-0,119
-147,818	776,793	-0,019	0,038
-146,804	-27,956	-0,062	0,025
-145,789	-200,000	-0,053	0,183
-144,775	-104,482	-0,003	0,000
-143,760	102,582	-0,140	-0,116
-142,745	102,408	0,054	-0,045
-141,731	157,924	0,051	0,051
-140,716	365,156	0,029	0,041
-139,702	800,000	-0,017	0,050
-138,687	800,000	0,044	-0,096
-137,672	-200,000	-0,002	-0,054
-136,658	25,492	-0,127	0,075
-135,643	-200,000	-0,005	0,062
-134,629	434,630	0,042	-0,065
-133,614	-35,647	0,041	-0,016
-132,599	256,900	0,035	0,042
-131,585	-200,000	-0,012	-0,042
-130,570	297,733	0,013	-0,017
-129,556	-102,319	0,100	0,017
-128,541	-166,193	-0,180	-0,005
-127,526	500,656	-0,021	-0,034
-126,512	210,125	0,057	-0,064
-125,497	-62,859	0,138	0,040
-124,483	-24,659	-0,179	0,075
-123,468	-200,000	-0,006	0,028
-122,453	51,383	-0,094	-0,063
-121,439	800,000	-0,059	-0,123
-120,424	74,906	-0,039	-0,029
-119,410	-200,000	0,019	0,080
-118,395	800,000	-0,033	-0,078
-117,380	-46,924	0,047	0,016
-116,366	-38,858	-0,054	0,020
-115,351	657,953	-0,081	0,148
-114,337	-200,000	0,017	-0,135
-113,322	-93,981	0,022	-0,004
-112,307	800,000	0,018	-0,038
-111,293	119,017	0,014	0,013
-110,278	108,033	0,024	-0,021
-109,264	-118,495	0,090	0,011
-108,249	-89,494	0,100	0,021
-107,234	288,941	-0,026	-0,033
-106,220	-157,176	0,166	0,007
-105,205	-132,519	-0,097	-0,009
-104,191	143,928	-0,020	0,019
-103,176	-46,350	0,072	-0,025
-102,162	211,656	0,051	0,057
-101,147	-131,019	-0,086	-0,008
-100,132	-200,000	0,022	-0,127
-99,118	-13,232	-0,087	0,040
-98,103	-185,330	0,141	0,002
-97,089	800,000	0,046	0,105
-96,074	114,527	-0,001	0,001
-95,059	800,000	-0,047	0,139
-94,045	18,666	-0,013	-0,008
-93,030	-104,793	-0,092	-0,015
-92,016	35,737	-0,044	0,027
-91,001	-200,000	-0,015	0,075
-89,986	-13,411	-0,055	-0,025
-88,972	-48,794	-0,056	-0,019
-87,957	314,015	-0,080	0,106
-86,943	-32,145	-0,190	-0,075
-85,928	800,000	0,054	-0,147
-84,913	800,000	-0,028	-0,081
-83,899	-200,000	0,024	0,088
-82,884	-200,000	0,010	0,139
-81,870	-200,000	-0,015	0,058
-80,855	-60,380	0,155	0,046
-79,840	5,370	-0,210	0,110
-78,826	38,799	0,013	-0,008
-77,811	-18,352	-0,067	-0,030
-76,797	44,827	-0,058	0,037
-75,782	800,000	-0,045	0,099
-74,767	290,774	-0,028	-0,036
-73,753	438,754	0,083	-0,129
-72,738	408,894	0,051	0,077
-71,724	159,678	-0,086	-0,084
-70,709	737,230	-0,065	-0,125
-69,694	724,171	-0,121	-0,228
-68,680	-58,787	0,092	-0,028
-67,665	-105,924	-0,083	0,013
-66,651	-200,000	0,023	-0,103
-65,636	141,692	-0,115	0,108
-64,622	800,000	0,027	-0,057
-63,607	-200,000	-0,017	-0,079
-62,592	-200,000	0,011	-0,062
-61,578	800,000	-0,009	-0,018
-60,563	194,954	0,110	0,118
-59,549	386,618	0,048	0,070
-58,534	25,300	-1,713	-1,005
-57,519	372,394	-1,366	-1,969
-56,505	-200,000	-0,642	-4,708
-55,490	168,650	1,031	1,040
-54,476	800,000	4,959	11,468
-53,461	-200,000	19,948	326,000
-52,446	800,000	749,528	2323,192
-51,432	556,750	1661,075	2842,435
-50,417	76,033	1672,059	1249,974
-49,403	20,386	1545,096	880,818
-48,388	14,352	1467,414	807,171
-47,373	18,232	1457,475	820,424
-46,359	16,467	1447,073	806,075
-45,344	12,595	1442,606	785,005
-44,330	12,516	1440,611	783,508
-43,315	12,558	1438,814	782,703
-42,300	12,574	1437,154	781,842
-41,286	12,541	1436,046	781,054
-40,271	12,551	1434,592	780,281
-39,257	12,576	1433,225	779,624
-38,242	12,594	1431,959	778,992
-37,227	12,572	1430,973	778,318
-36,213	12,596	1429,546	777,623
-35,198	12,602	1428,367	776,980
-34,184	12,638	1427,513	776,656
-33,169	12,573	1426,167	775,584
-32,154	12,644	1425,028	775,274
-31,140	12,622	1423,450	774,280
-30,125	12,621	1422,530	773,741
-29,111	12,553	1421,677	772,926
-28,096	12,606	1420,405	772,455
-27,082	12,495	1419,463	771,386
-26,067	12,576	1418,327	771,121
-25,052	12,542	1417,248	770,346
-24,038	12,568	1416,155	769,842
-23,023	12,509	1415,189	769,008
-22,009	12,531	1413,971	768,421
-20,994	12,528	1413,140	767,922
-19,979	12,514	1412,201	767,316
-18,965	12,451	1411,466	766,591
-17,950	12,448	1410,408	765,972
-16,936	12,487	1409,450	765,606
-15,921	12,492	1408,415	765,034
-14,906	12,421	1407,638	764,250
-13,892	12,455	1406,667	763,853
-12,877	12,422	1405,793	763,194
-11,863	12,443	1404,918	762,785
-10,848	12,413	1403,831	762,024
-9,833	12,394	1403,168	761,547
-8,819	12,342	1402,432	760,874
-7,804	12,381	1401,396	760,466
-6,790	12,366	1400,419	759,836
-5,775	12,386	1399,207	759,241
-4,760	12,327	1398,439	758,517
-3,746	12,325	1397,285	757,853
-2,731	12,311	1396,621	757,399
-1,717	12,299	1395,719	756,821
-0,702	12,261	1393,974	755,670
0,313	16,250	1309,324	728,203
1,327	32,733	701,038	427,833
2,342	50,612	122,367	81,714
3,356	4,081	16,521	8,516
4,371	4,381	3,311	1,710
5,386	-32,416	0,561	0,220
6,400	-200,000	0,033	0,334
7,415	33,399	-0,233	-0,143
8,429	60,626	-0,381	-0,266
9,444	198,846	-0,221	-0,239
10,459	-69,997	-0,281	-0,075
11,473	131,188	-0,261	-0,237
12,488	149,137	-0,193	-0,185
13,502	69,077	-0,344	-0,249
14,517	55,188	-0,308	-0,210
15,531	190,758	-0,250	-0,266
16,546	48,566	-0,322	-0,212
17,561	333,860	-0,236	-0,323
18,575	-102,556	-0,205	-0,034
19,590	-14,105	-0,247	-0,112
20,604	-103,442	-0,239	-0,039
21,619	58,345	-0,470	-0,325
22,634	172,979	-0,380	-0,386
23,648	76,418	-0,515	-0,385
24,663	2,641	-0,396	-0,202
25,677	63,707	-0,407	-0,288
26,692	122,145	-0,321	-0,282
27,707	118,049	-0,267	-0,232
28,721	156,874	-0,343	-0,334
29,736	-22,781	-0,556	-0,236
30,750	-37,863	-0,416	-0,155
31,765	103,339	-0,314	-0,260
32,780	24,477	-0,283	-0,164
33,794	136,437	-0,204	-0,187
34,809	185,880	-0,297	-0,312
35,823	42,363	-0,354	-0,226
36,838	231,557	-0,312	-0,361
37,853	287,765	-0,319	-0,408
38,867	134,094	-0,366	-0,334
39,882	106,749	-0,233	-0,194
40,896	281,485	-0,286	-0,361
41,911	45,117	-0,488	-0,316
42,926	800,000	-0,129	-0,324
43,940	165,562	-0,283	-0,282
44,955	181,000	-0,340	-0,352
45,969	228,822	-0,402	-0,462
46,984	84,848	-0,279	-0,215
47,999	116,035	-0,291	-0,251
49,013	175,995	-0,270	-0,276
50,028	272,357	-0,315	-0,392
51,042	46,833	-0,269	-0,176
52,057	56,025	-0,250	-0,171
53,071	49,052	-0,231	-0,153
54,086	68,310	-0,317	-0,228
55,101	89,314	-0,248	-0,194
56,115	223,377	-0,426	-0,485
57,130	44,679	-0,366	-0,237
58,144	45,857	-0,294	-0,191
59,159	-49,721	-0,409	-0,136
60,174	39,604	-0,395	-0,248
61,188	239,414	-0,289	-0,339
62,203	2,012	-0,209	-0,106
63,217	37,827	-0,305	-0,190
64,232	-18,860	-0,355	-0,155
65,247	-3,140	-0,299	-0,146
66,261	379,719	-0,235	-0,339
67,276	143,778	-0,296	-0,277
68,290	29,867	-0,343	-0,205
69,305	2,856	-0,317	-0,161
70,320	299,341	-0,178	-0,230
71,334	177,925	-0,270	-0,277
72,349	19,579	-0,295	-0,166
73,363	-12,064	-0,373	-0,171
74,378	20,626	-0,328	-0,186
75,393	32,784	-0,303	-0,184
76,407	35,607	-0,313	-0,192
77,422	45,504	-0,366	-0,237
78,436	271,058	-0,216	-0,268
79,451	194,994	-0,259	-0,276
80,466	800,000	-0,138	-0,273
81,480	329,922	-0,292	-0,395
82,495	31,020	-0,352	-0,211
83,509	67,646	-0,333	-0,239
84,524	-40,822	-0,294	-0,106
85,539	80,106	-0,201	-0,151
86,553	45,469	-0,282	-0,183
87,568	32,912	-0,489	-0,297
88,582	114,339	-0,263	-0,224
89,597	89,514	-0,320	-0,251
90,611	243,100	-0,164	-0,193
91,626	456,164	-0,149	-0,232
92,641	-91,714	-0,328	-0,065
93,655	97,748	-0,245	-0,197
94,670	-28,794	-0,287	-0,115
95,684	88,899	-0,303	-0,237
96,699	177,948	-0,189	-0,193
97,714	5,322	-0,306	-0,158
98,728	26,233	-0,377	-0,220
99,743	-88,443	-0,215	-0,045
100,757	-20,085	-0,281	-0,121
101,772	-69,710	-0,386	-0,103
102,787	319,116	-0,228	-0,303
103,801	153,754	-0,300	-0,288
104,816	54,741	-0,288	-0,195
105,830	111,049	-0,164	-0,138
106,845	107,053	-0,261	-0,217
107,860	63,648	-0,242	-0,170
108,874	258,218	-0,208	-0,251
109,889	-24,931	-0,327	-0,135
110,903	12,412	-0,256	-0,138
111,918	-24,054	-0,391	-0,163
112,933	113,889	-0,180	-0,153
113,947	45,567	-0,162	-0,104
114,962	44,646	-0,293	-0,188
115,976	-3,278	-0,285	-0,139
116,991	-27,240	-0,318	-0,129
118,006	800,000	-0,091	-0,274
119,020	87,186	-0,238	-0,184
120,035	-22,434	-0,226	-0,095
121,049	283,860	-0,117	-0,147
122,064	-112,246	-0,242	-0,034
123,079	-26,419	-0,267	-0,109
124,093	29,405	-0,292	-0,173
125,108	328,341	-0,170	-0,229
126,122	92,274	-0,307	-0,242
127,137	-72,000	-0,232	-0,060
128,151	800,000	-0,111	-0,320
129,166	130,396	-0,244	-0,218
130,181	24,375	-0,234	-0,135
131,195	-10,778	-0,280	-0,129
132,210	-47,234	-0,289	-0,098
133,224	104,909	-0,230	-0,189
134,239	227,267	-0,193	-0,220
135,254	33,242	-0,266	-0,161
136,268	-23,037	-0,254	-0,107
137,283	157,206	-0,190	-0,183
138,297	130,980	-0,304	-0,273
139,312	285,426	-0,144	-0,182
140,327	-2,901	-0,281	-0,137
141,341	37,328	-0,159	-0,098
142,356	-69,582	-0,115	-0,031
143,370	63,154	-0,241	-0,168
144,385	-51,433	-0,198	-0,064
145,400	33,184	-0,297	-0,180
146,414	-69,010	-0,339	-0,090
147,429	15,724	-0,154	-0,084
148,443	-44,299	-0,336	-0,117
149,458	111,922	-0,293	-0,247
150,473	52,096	-0,158	-0,105
151,487	119,759	-0,257	-0,223
152,502	-52,716	-0,273	-0,087
153,516	85,829	-0,235	-0,180
154,531	77,913	-0,202	-0,150
155,546	212,672	-0,181	-0,199
156,560	145,646	-0,214	-0,200
157,575	49,415	-0,191	-0,125
158,589	182,725	-0,195	-0,201
159,604	194,403	-0,154	-0,163
160,619	39,497	-0,250	-0,156
161,633	-4,523	-0,270	-0,130
162,648	-120,220	-0,256	0,030
163,662	579,650	-0,148	-0,253
164,677	-24,573	-0,213	-0,088
165,692	-108,182	-0,224	-0,033
166,706	38,007	-0,288	-0,178
167,721	11,901	-0,277	-0,148
168,735	237,617	-0,153	-0,177
169,750	-76,262	-0,281	-0,068
170,764	-93,948	-0,200	-0,038
171,779	-75,951	-0,149	0,036
172,794	58,493	-0,236	-0,161
173,808	617,452	-0,200	-0,351
174,823	33,682	-0,259	-0,157
175,837	50,822	-0,237	-0,156
176,852	416,382	-0,213	-0,317
177,867	55,443	-0,390	-0,263
178,881	168,038	-0,163	-0,161
179,896	153,067	-0,199	-0,190
180,910	-130,831	-0,244	-0,023
181,925	104,435	-0,218	-0,179
182,940	623,777	-0,186	-0,328
183,954	177,786	-0,126	-0,128
184,969	359,535	-0,135	-0,189
185,983	-24,336	-0,259	-0,107
186,998	221,047	-0,106	-0,119
188,013	427,607	-0,124	-0,187
189,027	182,255	-0,183	-0,188
190,042	-61,207	-0,291	-0,085
191,056	77,085	-0,227	-0,168
192,071	156,883	-0,255	-0,245
193,086	-39,139	-0,320	-0,116
194,100	-200,000	-0,040	-0,183
195,115	172,355	-0,204	-0,204
196,129	30,970	-0,228	-0,136
197,144	800,000	-0,104	-0,208
198,159	-50,361	-0,143	-0,047
199,173	-84,048	-0,217	-0,047
200,188	187,403	-0,184	-0,191
201,202	310,991	-0,154	-0,201
202,217	110,558	-0,175	-0,146
203,232	582,640	-0,111	-0,190
204,246	207,983	-0,244	-0,265
205,261	788,802	-0,089	-0,171
206,275	162,810	-0,252	-0,246
207,290	-12,489	-0,181	-0,082
208,304	199,440	-0,153	-0,163
209,319	-113,877	-0,273	-0,036
210,334	186,205	-0,178	-0,184
211,348	-4,043	-0,230	-0,110
212,363	800,000	0,016	-0,042
213,377	82,662	-0,144	-0,108
214,392	800,000	-0,126	-0,280
215,407	-66,866	-0,135	-0,037
216,421	127,507	-0,179	-0,158
217,436	45,429	-0,217	-0,139
218,450	231,566	-0,104	-0,118
219,465	-60,817	-0,182	-0,053
220,480	-52,189	-0,191	-0,061
221,494	-49,268	-0,116	-0,038
222,509	-76,480	-0,156	-0,038
223,523	24,912	-0,136	-0,078
224,538	-5,073	-0,135	-0,064
225,553	326,551	-0,132	-0,176
226,567	103,420	-0,108	-0,088
227,582	-16,591	-0,241	-0,105
228,596	-68,940	-0,205	-0,054
229,611	228,536	-0,187	-0,211
230,626	800,000	-0,084	-0,194
231,640	-143,937	-0,181	0,012
232,655	400,852	-0,149	-0,217
233,669	37,690	-0,268	-0,165
234,684	332,626	-0,222	-0,298
235,699	-136,751	-0,175	-0,014
236,713	61,425	-0,153	-0,105
237,728	-112,883	-0,164	0,022
238,742	-44,729	-0,218	-0,075
239,757	-200,000	-0,037	-0,218
240,772	-60,564	-0,280	-0,082
241,786	76,901	-0,356	-0,261
242,801	37,108	-0,148	-0,091
243,815	-66,375	-0,231	-0,063
244,830	18,270	-0,243	-0,134
245,844	193,387	-0,089	-0,093
246,859	93,788	-0,218	-0,171
247,874	-57,499	-0,240	-0,072
248,888	800,000	-0,090	-0,244
249,903	2,141	-0,130	-0,065
250,917	375,658	-0,086	-0,121
251,932	215,468	-0,110	-0,121
252,947	-83,650	-0,160	-0,035
253,961	191,403	-0,198	-0,206
254,976	-25,363	-0,277	-0,113
255,990	220,619	-0,160	-0,178
257,005	52,543	-0,213	-0,141
258,020	41,640	-0,214	-0,134
259,034	-44,219	-0,143	-0,049
260,049	-38,535	-0,229	-0,083
261,063	109,584	-0,099	-0,082
262,078	404,709	-0,123	-0,179
263,093	-200,000	-0,045	-0,185
264,107	211,649	-0,128	-0,140
265,122	258,082	-0,163	-0,194
266,136	800,000	-0,032	-0,093
267,151	-200,000	-0,047	-0,164
268,166	364,527	-0,116	-0,162
269,180	143,934	-0,184	-0,170
270,195	7,200	-0,215	-0,111
271,209	170,824	-0,245	-0,243
272,224	39,530	-0,140	-0,086
273,239	-39,304	-0,200	-0,072
274,253	112,186	-0,074	-0,062
275,268	-200,000	-0,023	-0,161
276,282	-100,806	-0,203	-0,034
277,297	33,039	-0,240	-0,143
278,312	81,352	-0,201	-0,150
279,326	38,980	-0,256	-0,157
280,341	61,997	-0,133	-0,092
281,355	87,849	-0,085	-0,065
282,370	-158,429	-0,104	0,004
283,384	-93,903	-0,186	-0,035
284,399	762,391	-0,092	-0,172
285,414	178,315	-0,187	-0,188
286,428	14,793	-0,277	-0,149
287,443	-177,489	-0,217	-0,004
288,457	49,513	-0,158	-0,102
289,472	34,336	-0,226	-0,136
290,487	251,920	-0,189	-0,222
291,501	-73,907	-0,254	-0,063
292,516	32,542	-0,183	-0,109
293,530	800,000	-0,055	-0,124
294,545	-132,078	-0,043	-0,004
295,560	149,912	-0,107	-0,100
296,574	245,048	-0,100	-0,116
297,589	242,923	-0,163	-0,188
298,603	289,419	-0,047	-0,059
299,618	152,195	-0,191	-0,180
300,633	50,909	-0,125	-0,081
301,647	145,424	-0,087	-0,080
302,662	86,726	-0,125	-0,095
303,676	-38,585	-0,075	0,027
304,691	152,262	-0,201	-0,189
305,706	220,061	-0,157	-0,174
306,720	-200,000	-0,043	-0,136
307,735	184,317	-0,153	-0,157
308,749	-2,529	-0,081	-0,039
309,764	-187,463	-0,107	0,001
310,779	-105,076	-0,153	-0,024
311,793	26,289	-0,184	-0,105
312,808	-200,000	0,020	-0,145
313,822	150,028	-0,074	-0,069
314,837	297,637	-0,079	-0,100
315,852	-57,419	0,012	0,004
316,866	-7,949	-0,082	-0,038
317,881	41,769	-0,156	-0,097
318,895	-63,660	-0,242	-0,068
319,910	49,281	-0,220	-0,142
320,925	75,902	-0,169	-0,123
321,939	345,918	-0,084	-0,114
322,954	6,262	-0,169	-0,086
323,968	225,019	-0,047	-0,052
324,983	321,357	-0,059	-0,077
325,997	72,730	-0,215	-0,154
327,012	800,000	-0,072	-0,191
328,027	-200,000	-0,008	-0,102
329,041	213,754	-0,133	-0,145
330,056	268,991	-0,085	-0,103
331,070	-34,502	-0,096	-0,036
332,085	-168,378	-0,204	0,005
333,100	-22,083	-0,047	0,020
334,114	126,502	-0,204	-0,177
335,129	162,655	-0,207	-0,200
336,143	800,000	-0,080	-0,157
337,158	800,000	-0,083	-0,191
338,173	-136,746	-0,180	-0,014
339,187	38,060	-0,167	-0,102
340,202	736,266	-0,049	-0,091
341,216	800,000	-0,080	-0,194
342,231	112,614	-0,128	-0,106
343,246	-129,645	-0,243	-0,023
344,260	800,000	-0,044	-0,115
345,275	147,762	-0,112	-0,104
346,289	-90,799	-0,121	-0,024
347,304	194,904	-0,117	-0,122
348,319	109,087	-0,157	-0,129
349,333	192,516	-0,211	-0,218
350,348	38,228	-0,197	-0,120
351,362	-84,081	-0,218	-0,047
352,377	-200,000	-0,008	-0,199
353,392	-80,616	-0,219	-0,050
354,406	-135,910	-0,056	-0,004
355,421	209,150	1313,782	1411,822
356,435	160,957	1474,377	1412,291
