DTS Sentinel unit serial number:	SN410029Multiplexer serial number:	ORYXHardware model number:	OX2-SRSoftware version number:	ORYX F/W v4,00 Oryx Data Collector v3.7.2.0data status	okinstallation	B3 Nyhavnadifferential loss correction	single-endedforward channel	channel 1reverse channel	N/Adate	2023/11/29time	00:17:30forward acquisition time	300,00reverse acquisition time	0,00gamma	499,1914k internal	0,3212k external	0,3212temperature offset calibration	1,0000default loss term (dB/km)	0,3820temperature slope calibration	1,0000multiplexer offset coefficient	1,0000multiplexer slope coefficient	1,0000fibre end	0,00T internal ref (°C)	9,06T ext. ref 1 (°C)	-5,17T ext. ref 2 (°C)	-5,32length (m)	temperature (°C)	Stokes	anti-Stokes-744,400	283,352	-0,237	-0,309
-743,385	-200,000	0,008	0,211
-742,371	81,564	-0,169	-0,132
-741,356	-200,000	0,025	0,298
-740,342	225,024	-0,281	-0,330
-739,327	-200,000	0,001	0,206
-738,312	759,911	-0,197	-0,389
-737,298	-200,000	-0,027	0,250
-736,283	471,218	-0,135	-0,221
-735,269	-200,000	-0,064	0,241
-734,254	396,151	-0,235	-0,356
-733,239	161,650	-0,145	0,147
-732,225	-37,897	-0,163	-0,063
-731,210	602,873	0,050	0,091
-730,196	-36,174	0,093	0,036
-729,181	599,915	-0,075	0,135
-728,167	-23,030	-0,101	0,044
-727,152	-200,000	0,030	0,136
-726,137	800,000	-0,025	-0,068
-725,123	-200,000	0,034	-0,146
-724,108	29,181	-0,078	-0,048
-723,094	-200,000	0,028	-0,120
-722,079	-200,000	-0,011	-0,104
-721,064	-86,762	0,130	-0,029
-720,050	-25,130	-0,127	0,054
-719,035	-200,000	0,001	-0,046
-718,021	-200,000	0,012	-0,087
-717,006	315,899	-0,040	-0,055
-715,991	77,594	-0,073	-0,056
-714,977	800,000	-0,018	0,044
-713,962	162,295	0,096	0,097
-712,948	223,910	-0,105	0,123
-711,933	140,968	0,139	-0,133
-710,918	339,597	-0,040	0,057
-709,904	272,280	0,024	0,031
-708,889	333,135	-0,075	-0,105
-707,875	128,914	-0,145	-0,134
-706,860	800,000	-0,017	0,035
-705,845	-31,498	-0,065	0,026
-704,831	119,706	-0,096	0,086
-703,816	-51,839	0,080	-0,027
-702,802	-116,351	0,217	0,029
-701,787	189,352	-0,046	0,050
-700,772	800,000	0,023	-0,048
-699,758	749,239	-0,023	-0,046
-698,743	670,495	0,063	0,119
-697,729	-200,000	0,002	0,064
-696,714	80,595	-0,081	-0,063
-695,699	-200,000	-0,013	-0,132
-694,685	174,010	0,057	-0,059
-693,670	-151,140	-0,137	-0,007
-692,656	74,574	0,216	-0,164
-691,641	800,000	-0,037	0,085
-690,627	-4,004	-0,040	0,020
-689,612	-22,135	0,050	0,022
-688,597	-34,677	-0,088	-0,035
-687,583	-47,943	-0,122	0,042
-686,568	185,457	-0,068	-0,073
-685,554	-200,000	-0,002	-0,146
-684,539	484,675	-0,056	-0,092
-683,524	143,899	0,121	-0,117
-682,510	-200,000	-0,015	0,064
-681,495	643,359	-0,047	0,087
-680,481	800,000	-0,040	-0,094
-679,466	-200,000	0,010	-0,198
-678,451	800,000	0,035	-0,097
-677,437	37,337	0,089	-0,057
-676,422	-25,147	0,141	-0,060
-675,408	-75,825	0,095	0,024
-674,393	19,904	-0,114	0,067
-673,378	-200,000	-0,001	0,011
-672,364	-200,000	-0,000	0,087
-671,349	-200,000	0,054	-0,187
-670,335	588,595	-0,052	-0,094
-669,320	800,000	-0,053	-0,131
-668,305	177,479	0,042	-0,045
-667,291	800,000	-0,048	-0,112
-666,276	180,179	0,059	-0,062
-665,262	-120,724	-0,098	0,012
-664,247	465,966	0,038	-0,062
-663,232	673,893	0,021	-0,039
-662,218	800,000	-0,031	0,077
-661,203	125,706	0,112	0,103
-660,189	-107,098	-0,159	0,025
-659,174	791,787	0,061	-0,121
-658,159	31,857	0,132	-0,082
-657,145	-200,000	-0,023	0,104
-656,130	-128,616	0,032	-0,003
-655,116	-200,000	0,003	0,044
-654,101	38,879	-0,043	-0,028
-653,086	46,411	0,059	0,039
-652,072	-200,000	0,010	-0,088
-651,057	-42,596	-0,148	0,054
-650,043	-200,000	0,012	-0,082
-649,028	800,000	-0,017	-0,037
-648,014	-200,000	-0,034	0,149
-646,999	-45,567	0,014	0,005
-645,984	114,804	-0,013	0,011
-644,970	-200,000	-0,020	-0,093
-643,955	-200,000	-0,010	-0,115
-642,941	800,000	-0,050	-0,130
-641,926	109,443	0,168	-0,145
-640,911	-200,000	0,033	0,160
-639,897	800,000	-0,026	0,076
-638,882	-86,578	0,028	0,006
-637,868	-79,365	0,111	0,027
-636,853	-98,017	-0,123	-0,023
-635,838	-29,398	-0,043	-0,018
-634,824	-13,411	-0,118	0,055
-633,809	-200,000	-0,009	0,082
-632,795	125,295	-0,143	0,131
-631,780	800,000	0,055	-0,123
-630,765	800,000	-0,017	0,036
-629,751	-200,000	0,023	0,119
-628,736	-26,587	0,115	-0,048
-627,722	-76,342	-0,148	0,037
-626,707	-21,532	0,155	-0,068
-625,692	75,869	0,002	0,002
-624,678	-16,848	0,044	-0,020
-623,663	-200,000	0,003	-0,157
-622,649	229,823	-0,043	-0,050
-621,634	200,054	-0,071	-0,079
-620,619	-13,586	0,131	-0,061
-619,605	56,296	0,067	0,047
-618,590	379,290	0,024	-0,035
-617,576	123,737	0,033	-0,030
-616,561	-103,571	-0,089	-0,015
-615,546	-77,450	-0,203	-0,051
-614,532	26,501	0,244	-0,147
-613,517	-200,000	-0,011	0,079
-612,503	-200,000	0,009	-0,058
-611,488	800,000	0,029	0,084
-610,474	-200,000	-0,005	0,120
-609,459	-200,000	0,014	-0,145
-608,444	-154,799	0,052	-0,002
-607,430	221,199	-0,179	-0,207
-606,415	-200,000	0,006	-0,126
-605,401	-72,253	0,092	-0,025
-604,386	800,000	0,028	0,087
-603,371	79,089	0,110	-0,085
-602,357	248,195	-0,054	0,065
-601,342	-28,894	-0,047	0,019
-600,328	-91,828	-0,073	-0,015
-599,313	-30,246	-0,073	0,030
-598,298	198,078	0,086	0,095
-597,284	-200,000	0,157	-0,000
-596,269	-10,030	0,043	-0,021
-595,255	-117,757	-0,191	0,024
-594,240	178,340	-0,093	0,098
-593,225	-31,775	0,092	-0,037
-592,211	-86,347	0,042	0,009
-591,196	189,810	0,066	-0,071
-590,182	3,005	-0,036	-0,019
-589,167	800,000	0,023	-0,052
-588,152	482,614	-0,050	-0,083
-587,138	-151,311	0,025	-0,001
-586,123	-200,000	0,009	-0,053
-585,109	-143,042	-0,055	-0,004
-584,094	800,000	-0,030	-0,070
-583,079	800,000	0,060	0,133
-582,065	-200,000	-0,026	0,098
-581,050	-200,000	-0,012	-0,098
-580,036	-75,844	0,083	0,021
-579,021	-171,936	-0,061	-0,001
-578,006	800,000	0,031	-0,066
-576,992	98,314	-0,056	0,047
-575,977	-200,000	-0,023	-0,081
-574,963	290,818	0,083	-0,109
-573,948	-200,000	-0,007	0,077
-572,934	-200,000	0,010	0,104
-571,919	62,168	0,063	0,046
-570,904	34,261	-0,111	0,069
-569,890	23,983	-0,180	-0,107
-568,875	800,000	0,008	-0,017
-567,861	800,000	0,043	0,099
-566,846	800,000	-0,031	-0,093
-565,831	800,000	0,018	-0,040
-564,817	800,000	0,091	0,185
-563,802	162,354	-0,098	-0,099
-562,788	800,000	-0,074	-0,179
-561,773	42,099	0,127	-0,083
-560,758	-89,781	-0,180	0,038
-559,744	-49,707	0,155	0,053
-558,729	800,000	0,031	0,063
-557,715	440,831	-0,078	-0,124
-556,700	769,830	0,013	-0,026
-555,685	-200,000	-0,018	-0,075
-554,671	-139,048	0,144	-0,011
-553,656	-200,000	0,006	0,142
-552,642	424,831	0,009	-0,015
-551,627	491,867	-0,030	0,050
-550,612	-124,792	0,087	-0,010
-549,598	30,240	-0,062	-0,038
-548,583	92,332	-0,110	-0,090
-547,569	73,966	-0,027	-0,020
-546,554	-148,594	0,178	-0,010
-545,539	-92,362	0,049	-0,010
-544,525	70,431	-0,099	-0,074
-543,510	-200,000	0,008	-0,194
-542,496	233,290	0,078	0,093
-541,481	-73,850	0,038	0,010
-540,466	76,470	0,041	-0,031
-539,452	85,410	-0,014	0,011
-538,437	161,698	0,075	0,076
-537,423	82,419	-0,082	0,064
-536,408	-152,890	-0,043	0,002
-535,393	368,761	-0,077	-0,113
-534,379	-139,837	-0,131	-0,010
-533,364	-82,702	-0,085	-0,020
-532,350	80,824	0,112	0,086
-531,335	-25,029	0,058	0,025
-530,321	33,821	-0,028	0,018
-529,306	800,000	0,010	-0,020
-528,291	-200,000	0,004	0,023
-527,277	-121,193	-0,151	0,018
-526,262	-200,000	-0,004	0,051
-525,248	97,118	-0,083	-0,069
-524,233	800,000	-0,027	-0,084
-523,218	-179,857	0,091	-0,001
-522,204	180,438	0,041	0,043
-521,189	0,794	-0,129	-0,066
-520,175	36,137	0,037	0,023
-519,160	163,572	-0,095	-0,096
-518,145	-40,155	0,156	-0,058
-517,131	168,564	-0,092	0,094
-516,116	68,342	-0,015	-0,011
-515,102	117,649	0,066	0,059
-514,087	-178,505	0,093	0,002
-513,072	-5,222	0,098	-0,048
-512,058	-156,694	-0,107	-0,005
-511,043	-108,604	-0,028	-0,004
-510,029	-12,521	0,085	0,040
-509,014	541,122	0,071	0,121
-507,999	386,965	-0,058	0,086
-506,985	110,886	-0,142	-0,122
-505,970	-200,000	0,007	-0,048
-504,956	-200,000	0,015	0,070
-503,941	174,450	-0,044	0,045
-502,926	-200,000	0,026	0,118
-501,912	-91,481	-0,061	0,012
-500,897	800,000	0,031	-0,092
-499,883	-4,166	0,034	-0,017
-498,868	-141,895	-0,215	-0,015
-497,853	41,195	-0,127	-0,082
-496,839	428,144	-0,021	-0,033
-495,824	800,000	-0,019	-0,056
-494,810	-17,479	0,106	-0,047
-493,795	-200,000	-0,004	-0,051
-492,781	-200,000	0,003	0,051
-491,766	800,000	0,048	-0,100
-490,751	-60,265	-0,101	0,031
-489,737	-200,000	0,005	-0,072
-488,722	-61,407	0,115	-0,034
-487,708	35,213	0,030	0,019
-486,693	-59,691	0,207	0,063
-485,678	-200,000	-0,012	0,117
-484,664	-172,510	-0,114	0,003
-483,649	134,117	-0,063	-0,059
-482,635	-200,000	0,030	-0,106
-481,620	-200,000	-0,017	0,099
-480,605	280,405	-0,042	-0,054
-479,591	-200,000	0,055	0,213
-478,576	-200,000	0,028	0,109
-477,562	800,000	0,031	-0,085
-476,547	675,599	-0,052	-0,097
-475,532	163,995	0,080	0,081
-474,518	140,112	0,048	0,046
-473,503	10,117	0,052	0,028
-472,489	-48,934	0,123	0,042
-471,474	41,713	0,036	0,023
-470,459	800,000	-0,009	-0,028
-469,445	115,986	-0,025	0,022
-468,430	121,982	-0,035	0,031
-467,416	-62,128	0,056	0,017
-466,401	-167,860	0,167	-0,005
-465,386	495,180	-0,041	0,067
-464,372	-200,000	0,012	0,149
-463,357	800,000	0,024	-0,071
-462,343	-200,000	-0,018	-0,064
-461,328	163,525	-0,131	-0,133
-460,313	-82,625	0,118	0,027
-459,299	800,000	0,016	0,048
-458,284	-38,856	0,092	0,035
-457,270	275,287	-0,081	0,103
-456,255	329,316	0,046	-0,064
-455,241	-58,847	0,060	0,018
-454,226	-87,397	-0,048	0,010
-453,211	454,728	-0,030	0,048
-452,197	19,584	0,060	-0,034
-451,182	44,759	0,017	0,011
-450,168	-56,617	0,088	-0,028
-449,153	118,677	-0,048	-0,042
-448,138	-200,000	-0,002	-0,014
-447,124	-8,157	-0,203	0,098
-446,109	-106,005	-0,108	0,017
-445,095	-200,000	0,007	0,045
-444,080	275,746	0,090	0,115
-443,065	110,662	-0,131	0,113
-442,051	-200,000	0,002	-0,093
-441,036	30,152	0,039	0,024
-440,022	670,185	-0,025	0,047
-439,007	-200,000	-0,030	0,169
-437,992	339,659	-0,015	-0,021
-436,978	-200,000	-0,002	0,043
-435,963	800,000	0,054	0,116
-434,949	16,853	-0,050	0,028
-433,934	-200,000	0,002	-0,134
-432,919	800,000	-0,077	-0,193
-431,905	-12,248	-0,100	0,047
-430,890	403,083	-0,092	0,139
-429,876	-134,368	0,112	-0,010
-428,861	-102,751	0,200	-0,034
-427,846	-126,890	-0,029	0,003
-426,832	56,563	-0,043	-0,030
-425,817	-142,832	0,027	0,002
-424,803	295,786	-0,106	-0,140
-423,788	-44,085	0,023	0,008
-422,773	-102,798	0,119	-0,020
-421,759	-138,312	-0,052	-0,004
-420,744	800,000	0,011	0,034
-419,730	-34,928	0,128	0,050
-418,715	-169,903	0,146	-0,004
-417,701	-200,000	0,016	-0,174
-416,686	-95,980	0,111	-0,021
-415,671	86,123	0,042	-0,033
-414,657	-119,653	0,031	0,004
-413,642	-66,977	-0,118	0,033
-412,628	-127,030	-0,074	0,008
-411,613	-72,333	-0,058	0,015
-410,598	-29,402	0,007	-0,003
-409,584	-76,961	0,040	-0,010
-408,569	-200,000	-0,029	0,130
-407,555	-200,000	0,009	-0,132
-406,540	342,259	0,102	-0,143
-405,525	65,078	-0,169	0,122
-404,511	-26,908	-0,137	-0,057
-403,496	-80,344	0,038	-0,009
-402,482	55,377	-0,045	0,031
-401,467	-39,356	-0,188	0,070
-400,452	7,687	-0,027	0,014
-399,438	78,154	-0,058	0,044
-398,423	117,143	-0,081	0,071
-397,409	-98,155	-0,112	-0,020
-396,394	391,995	-0,023	-0,035
-395,379	98,176	0,057	0,047
-394,365	800,000	0,023	0,059
-393,350	479,162	0,064	0,104
-392,336	800,000	0,021	0,062
-391,321	104,140	0,034	-0,028
-390,306	-200,000	0,016	0,053
-389,292	152,603	-0,056	-0,055
-388,277	402,985	0,040	0,060
-387,263	427,175	0,070	-0,108
-386,248	267,690	0,064	0,081
-385,233	-118,555	-0,136	0,017
-384,219	-200,000	-0,027	-0,111
-383,204	-40,272	0,075	-0,028
-382,190	-67,655	-0,127	-0,035
-381,175	-142,092	-0,067	-0,005
-380,160	-200,000	0,017	0,136
-379,146	-122,030	0,096	-0,011
-378,131	-200,000	0,008	0,146
-377,117	-200,000	-0,002	-0,046
-376,102	6,656	0,073	-0,039
-375,088	154,613	-0,054	-0,053
-374,073	328,697	-0,123	-0,170
-373,058	144,858	0,068	0,065
-372,044	800,000	-0,074	0,173
-371,029	235,602	0,075	-0,088
-370,015	-200,000	-0,024	-0,098
-369,000	800,000	-0,043	-0,088
-367,985	-200,000	0,028	-0,177
-366,971	800,000	-0,017	-0,036
-365,956	36,493	-0,028	-0,017
-364,942	642,466	-0,002	-0,003
-363,927	-102,315	-0,075	0,013
-362,912	76,058	0,112	0,084
-361,898	28,785	0,096	-0,058
-360,883	-200,000	0,026	-0,181
-359,869	-76,580	-0,169	-0,042
-358,854	-50,146	-0,034	0,011
-357,839	625,848	-0,054	-0,097
-356,825	-200,000	-0,002	-0,011
-355,810	-94,182	0,221	0,043
-354,796	615,166	-0,116	-0,208
-353,781	18,741	0,052	0,029
-352,766	-101,040	-0,150	0,026
-351,752	-200,000	0,046	0,155
-350,737	-200,000	0,036	0,132
-349,723	-200,000	-0,037	0,181
-348,708	1,181	0,100	-0,051
-347,693	-200,000	0,023	-0,086
-346,679	111,209	-0,135	-0,116
-345,664	-200,000	-0,006	-0,162
-344,650	-200,000	-0,028	0,145
-343,635	156,526	0,114	0,113
-342,620	30,837	0,140	0,086
-341,606	109,119	-0,094	-0,080
-340,591	800,000	-0,053	0,121
-339,577	-54,975	-0,098	0,031
-338,562	-64,767	0,033	0,009
-337,548	204,892	-0,048	0,053
-336,533	1,465	0,044	0,023
-335,518	-200,000	-0,011	-0,037
-334,504	800,000	-0,028	0,063
-333,489	-61,171	0,098	-0,029
-332,475	-67,100	-0,056	0,016
-331,460	-200,000	0,003	0,043
-330,445	-55,942	-0,070	0,022
-329,431	-106,890	0,209	0,033
-328,416	800,000	0,035	0,081
-327,402	800,000	-0,023	-0,054
-326,387	-118,473	-0,057	0,007
-325,372	-200,000	0,013	-0,066
-324,358	93,187	-0,025	0,020
-323,343	135,587	0,063	-0,058
-322,329	295,468	0,112	0,147
-321,314	-200,000	-0,018	0,084
-320,299	257,523	0,064	0,079
-319,285	737,664	0,127	0,243
-318,270	800,000	-0,009	0,026
-317,256	800,000	-0,060	-0,178
-316,241	-200,000	0,026	0,117
-315,226	-200,000	0,015	-0,071
-314,212	96,111	0,074	0,061
-313,197	-52,332	0,118	0,039
-312,183	-116,643	-0,034	0,004
-311,168	-21,799	-0,077	-0,033
-310,153	129,176	0,062	-0,056
-309,139	-200,000	0,006	-0,164
-308,124	-104,233	0,164	0,027
-307,110	26,556	-0,017	-0,010
-306,095	147,454	0,095	0,091
-305,080	-179,992	-0,102	0,002
-304,066	127,725	-0,093	-0,084
-303,051	269,796	0,033	0,041
-302,037	351,672	0,072	-0,101
-301,022	-200,000	0,004	0,115
-300,008	-200,000	0,005	0,027
-298,993	800,000	0,062	0,154
-297,978	-200,000	-0,009	-0,076
-296,964	-168,703	-0,131	-0,003
-295,949	-144,751	-0,078	-0,005
-294,935	800,000	0,024	-0,071
-293,920	-77,281	0,097	0,024
-292,905	-169,260	0,109	0,003
-291,891	641,016	0,124	-0,226
-290,876	496,247	-0,002	-0,003
-289,862	131,031	-0,048	-0,044
-288,847	-135,862	0,063	-0,005
-287,832	-111,252	-0,056	0,008
-286,818	659,317	-0,058	-0,106
-285,803	-200,000	-0,013	0,052
-284,789	-200,000	0,016	0,135
-283,774	800,000	0,051	0,154
-282,759	417,267	-0,051	0,077
-281,745	34,242	-0,019	-0,012
-280,730	293,163	-0,031	-0,040
-279,716	536,661	-0,017	-0,029
-278,701	-35,307	-0,094	-0,036
-277,686	800,000	-0,030	0,078
-276,672	500,857	-0,095	0,157
-275,657	-9,974	-0,094	0,044
-274,643	-120,786	-0,063	0,007
-273,628	800,000	-0,034	-0,067
-272,613	800,000	0,016	-0,035
-271,599	141,205	-0,095	0,089
-270,584	89,461	-0,058	-0,046
-269,570	658,308	0,055	0,101
-268,555	-40,138	0,030	0,011
-267,540	800,000	0,033	0,078
-266,526	453,708	-0,069	-0,109
-265,511	-63,143	-0,159	-0,046
-264,497	291,753	-0,049	-0,064
-263,482	-11,261	0,096	0,045
-262,467	-49,117	0,081	-0,028
-261,453	150,102	0,138	0,133
-260,438	-93,486	-0,129	0,025
-259,424	-200,000	0,114	0,000
-258,409	-200,000	-0,040	-0,134
-257,395	134,605	0,043	-0,040
-256,380	-46,713	0,116	0,040
-255,365	238,370	-0,043	0,051
-254,351	512,775	-0,058	-0,096
-253,336	-200,000	0,014	0,077
-252,322	-200,000	-0,017	0,145
-251,307	435,646	0,055	-0,085
-250,292	-124,724	0,062	-0,007
-249,278	-200,000	-0,001	0,117
-248,263	-200,000	-0,015	0,126
-247,249	-145,721	-0,051	0,003
-246,234	-132,624	-0,107	-0,010
-245,219	31,518	0,113	-0,069
-244,205	229,137	0,108	-0,125
-243,190	-13,309	-0,051	-0,024
-242,176	-200,000	0,013	0,085
-241,161	-124,459	0,092	-0,010
-240,146	800,000	-0,018	-0,048
-239,132	17,529	0,050	0,028
-238,117	6,286	0,059	-0,031
-237,103	-31,218	-0,106	0,042
-236,088	-200,000	-0,008	0,044
-235,073	-200,000	0,011	-0,059
-234,059	800,000	-0,043	0,112
-233,044	-200,000	-0,002	0,114
-232,030	-200,000	-0,048	-0,151
-231,015	-146,322	-0,089	0,005
-230,000	-41,917	0,119	-0,043
-228,986	-58,803	-0,069	0,021
-227,971	-57,769	0,038	0,012
-226,957	-12,608	0,042	-0,020
-225,942	485,961	-0,024	-0,039
-224,927	800,000	0,068	0,136
-223,913	-145,380	-0,034	-0,002
-222,898	-200,000	-0,020	-0,173
-221,884	26,042	-0,024	-0,014
-220,869	-50,730	0,056	-0,019
-219,855	405,781	0,024	-0,036
-218,840	278,612	-0,065	-0,082
-217,825	178,795	0,062	-0,064
-216,811	111,631	0,038	-0,032
-215,796	800,000	-0,018	-0,046
-214,782	-200,000	0,006	0,038
-213,767	-200,000	0,003	0,089
-212,752	-200,000	-0,003	0,023
-211,738	-48,431	0,039	-0,013
-210,723	470,731	0,047	0,075
-209,709	-44,949	-0,108	-0,038
-208,694	204,424	-0,082	-0,090
-207,679	106,704	-0,003	0,002
-206,665	-9,446	-0,028	-0,013
-205,650	-96,050	0,092	0,017
-204,636	659,867	-0,016	-0,029
-203,621	-63,814	0,113	-0,033
-202,606	437,769	-0,094	-0,146
-201,592	800,000	0,028	-0,059
-200,577	176,370	-0,075	-0,077
-199,563	464,882	0,059	0,095
-198,548	368,793	0,053	0,076
-197,533	141,527	-0,015	0,014
-196,519	-98,191	-0,092	-0,017
-195,504	800,000	0,051	0,109
-194,490	-200,000	-0,030	0,119
-193,475	212,882	0,053	-0,059
-192,460	170,557	-0,071	-0,073
-191,446	567,533	0,090	0,156
-190,431	-152,660	0,073	0,004
-189,417	222,025	-0,020	-0,023
-188,402	-200,000	-0,024	0,109
-187,387	22,188	-0,077	-0,045
-186,373	72,731	-0,162	-0,120
-185,358	179,015	0,049	-0,050
-184,344	50,820	-0,025	-0,017
-183,329	-200,000	0,010	0,112
-182,315	430,743	0,057	0,087
-181,300	24,376	0,124	-0,072
-180,285	-200,000	0,006	-0,096
-179,271	425,411	0,083	-0,128
-178,256	-7,617	-0,030	-0,014
-177,242	-200,000	-0,013	0,065
-176,227	-46,574	0,054	0,019
-175,212	-64,082	0,070	0,020
-174,198	-200,000	0,002	-0,094
-173,183	-200,000	-0,042	-0,240
-172,169	-200,000	0,000	-0,023
-171,154	297,428	0,022	-0,029
-170,139	-200,000	0,001	-0,016
-169,125	-200,000	-0,017	0,092
-168,110	536,247	0,079	0,133
-167,096	-188,313	-0,173	0,002
-166,081	-97,686	0,046	0,008
-165,066	67,821	-0,014	0,010
-164,052	-50,093	0,039	-0,013
-163,037	800,000	-0,022	0,054
-162,023	218,819	-0,055	0,063
-161,008	62,588	-0,083	-0,058
-159,993	116,872	-0,038	0,033
-158,979	-76,129	0,078	0,019
-157,964	209,419	-0,111	0,123
-156,950	682,819	0,037	0,069
-155,935	13,392	0,078	-0,043
-154,920	717,580	-0,008	0,015
-153,906	-200,000	-0,012	0,080
-152,891	101,568	-0,082	-0,068
-151,877	-116,450	0,058	-0,008
-150,862	582,174	-0,092	-0,160
-149,847	-97,341	-0,108	-0,020
-148,833	-200,000	0,003	-0,050
-147,818	-200,000	-0,008	-0,069
-146,804	-200,000	-0,026	0,101
-145,789	-200,000	0,006	0,055
-144,775	800,000	0,070	-0,208
-143,760	163,592	-0,064	-0,064
-142,745	-4,441	0,039	-0,019
-141,731	141,584	0,007	0,007
-140,716	-58,773	-0,060	0,018
-139,702	-56,132	-0,053	-0,017
-138,687	-77,856	-0,057	-0,014
-137,672	800,000	0,021	-0,048
-136,658	74,384	-0,039	-0,029
-135,643	-200,000	0,020	-0,078
-134,629	-200,000	0,015	-0,057
-133,614	-200,000	-0,000	-0,025
-132,599	-102,579	0,092	0,015
-131,585	13,863	0,100	-0,055
-130,570	213,636	-0,063	-0,070
-129,556	-13,299	-0,148	-0,068
-128,541	-200,000	-0,025	-0,079
-127,526	-44,216	-0,049	0,017
-126,512	367,214	0,057	-0,082
-125,497	-122,570	0,182	0,021
-124,483	257,316	0,039	-0,047
-123,468	31,469	0,021	0,013
-122,453	73,848	-0,069	-0,051
-121,439	800,000	0,028	-0,086
-120,424	214,388	0,025	-0,028
-119,410	-200,000	-0,025	-0,078
-118,395	-116,425	-0,089	0,011
-117,380	43,408	0,058	0,038
-116,366	800,000	0,041	-0,098
-115,351	-61,279	-0,136	0,040
-114,337	525,899	0,039	-0,066
-113,322	341,786	-0,027	-0,037
-112,307	10,069	0,135	-0,072
-111,293	123,437	0,065	-0,057
-110,278	36,567	0,013	0,008
-109,264	-54,622	-0,066	0,021
-108,249	-112,936	-0,033	0,005
-107,234	-117,866	-0,088	0,011
-106,220	800,000	-0,049	-0,136
-105,205	-180,807	0,142	0,002
-104,191	281,706	0,108	-0,137
-103,176	800,000	0,056	0,118
-102,162	-4,388	0,055	0,027
-101,147	-200,000	0,015	0,164
-100,132	-143,608	-0,041	0,003
-99,118	800,000	0,027	-0,063
-98,103	392,397	-0,066	-0,098
-97,089	138,148	-0,083	0,077
-96,074	-81,981	0,058	0,013
-95,059	-200,000	-0,013	-0,119
-94,045	730,653	-0,053	-0,100
-93,030	75,984	-0,084	-0,063
-92,016	-200,000	0,013	-0,187
-91,001	-83,240	-0,132	0,030
-89,986	-200,000	0,014	-0,062
-88,972	-126,852	0,125	-0,013
-87,957	-103,020	0,116	0,019
-86,943	-200,000	0,038	-0,158
-85,928	761,452	-0,029	-0,056
-84,913	-200,000	0,005	0,150
-83,899	694,290	0,030	0,056
-82,884	-200,000	-0,000	0,024
-81,870	488,414	-0,046	0,074
-80,855	33,331	0,093	0,057
-79,840	1,080	0,032	0,016
-78,826	-40,177	0,107	-0,039
-77,811	40,959	-0,129	-0,082
-76,797	-21,826	0,058	-0,025
-75,782	-200,000	-0,003	-0,035
-74,767	-200,000	0,014	-0,085
-73,753	17,974	-0,206	0,115
-72,738	149,676	-0,071	0,068
-71,724	69,655	-0,016	-0,012
-70,709	-32,507	-0,170	-0,066
-69,694	-200,000	-0,011	-0,060
-68,680	58,776	-0,145	-0,100
-67,665	-30,766	0,080	-0,032
-66,651	697,005	0,080	0,149
-65,636	-200,000	0,007	0,071
-64,622	-200,000	-0,002	0,044
-63,607	464,197	-0,043	-0,069
-62,592	-88,906	0,103	-0,021
-61,578	357,049	0,044	-0,062
-60,563	-165,983	0,083	-0,002
-59,549	800,000	-0,083	0,168
-58,534	58,197	-1,991	-1,375
-57,519	546,026	-1,187	-2,011
-56,505	-200,000	-0,272	-4,330
-55,490	532,021	0,992	1,663
-54,476	800,000	5,089	11,208
-53,461	-200,000	21,716	337,550
-52,446	800,000	759,928	2303,693
-51,432	535,703	1654,378	2779,766
-50,417	69,568	1651,445	1198,592
-49,403	16,710	1526,000	849,160
-48,388	10,827	1450,289	778,712
-47,373	19,054	1441,975	813,498
-46,359	14,274	1430,770	784,539
-45,344	9,170	1426,885	758,192
-44,330	9,148	1425,027	757,070
-43,315	9,114	1422,990	755,797
-42,300	9,100	1421,611	754,966
-41,286	9,173	1419,998	754,428
-40,271	9,097	1419,080	753,551
-39,257	9,065	1418,015	752,802
-38,242	9,152	1416,587	752,424
-37,227	9,101	1415,635	751,648
-36,213	9,131	1414,379	751,094
-35,198	9,186	1412,783	750,474
-34,184	9,196	1412,144	750,154
-33,169	9,080	1410,753	748,841
-32,154	9,127	1409,977	748,621
-31,140	9,133	1408,470	747,818
-30,125	9,194	1407,345	747,478
-29,111	9,190	1406,020	746,725
-28,096	9,101	1404,983	745,728
-27,082	9,082	1403,994	745,082
-26,067	9,072	1402,760	744,352
-25,052	9,076	1401,839	743,854
-24,038	9,098	1400,774	743,361
-23,023	9,097	1399,917	742,872
-22,009	9,118	1398,833	742,366
-20,994	9,104	1397,847	741,749
-19,979	9,111	1396,823	741,207
-18,965	9,097	1395,779	740,561
-17,950	9,074	1394,813	739,909
-16,936	9,025	1394,155	739,303
-15,921	9,003	1393,175	738,656
-14,906	8,997	1392,293	738,127
-13,892	9,050	1391,152	737,739
-12,877	9,066	1390,360	737,366
-11,863	9,026	1389,848	736,879
-10,848	8,980	1388,836	736,099
-9,833	8,911	1387,844	735,226
-8,819	8,893	1386,798	734,560
-7,804	8,905	1386,071	734,202
-6,790	8,901	1384,862	733,514
-5,775	8,916	1383,920	733,056
-4,760	8,954	1383,087	732,760
-3,746	8,972	1381,911	732,191
-2,731	8,953	1381,239	731,719
-1,717	8,929	1380,348	731,109
-0,702	8,941	1378,651	730,232
0,313	12,859	1290,817	701,546
1,327	28,746	682,884	406,809
2,342	44,680	117,657	76,142
3,356	0,749	16,382	8,240
4,371	5,631	3,740	1,942
5,386	-3,862	1,228	0,599
6,400	-200,000	0,113	0,492
7,415	-158,971	-0,226	-0,009
8,429	93,301	-0,228	-0,181
9,444	26,848	-0,318	-0,187
10,459	15,508	-0,196	-0,108
11,473	195,565	-0,211	-0,226
12,488	67,634	-0,296	-0,213
13,502	-23,536	-0,158	-0,066
14,517	68,946	-0,204	-0,147
15,531	-7,792	-0,479	-0,227
16,546	372,226	-0,235	-0,337
17,561	160,492	-0,272	-0,268
18,575	800,000	-0,050	-0,128
19,590	194,497	-0,153	-0,164
20,604	19,820	-0,369	-0,209
21,619	99,251	-0,384	-0,312
22,634	72,774	-0,424	-0,311
23,648	19,549	-0,393	-0,222
24,663	313,011	-0,274	-0,364
25,677	35,216	-0,278	-0,171
26,692	-78,183	-0,393	-0,094
27,707	69,273	-0,374	-0,270
28,721	150,332	-0,308	-0,294
29,736	33,889	-0,495	-0,303
30,750	201,724	-0,291	-0,315
31,765	63,691	-0,386	-0,273
32,780	15,505	-0,435	-0,240
33,794	106,581	-0,302	-0,251
34,809	133,384	-0,321	-0,292
35,823	-24,764	-0,339	-0,141
36,838	162,852	-0,263	-0,260
37,853	32,814	-0,401	-0,244
38,867	800,000	-0,103	-0,242
39,882	105,850	-0,363	-0,302
40,896	4,521	-0,299	-0,153
41,911	118,251	-0,280	-0,242
42,926	-103,763	-0,233	-0,038
43,940	17,105	-0,350	-0,194
44,955	0,530	-0,424	-0,212
45,969	137,671	-0,320	-0,295
46,984	240,409	-0,196	-0,230
47,999	144,612	-0,241	-0,227
49,013	-13,201	-0,372	-0,169
50,028	77,709	-0,360	-0,269
51,042	45,627	-0,375	-0,243
52,057	34,104	-0,304	-0,185
53,071	201,010	-0,289	-0,313
54,086	137,143	-0,343	-0,315
55,101	-93,406	-0,419	-0,081
56,115	158,147	-0,195	-0,190
57,130	10,857	-0,436	-0,233
58,144	155,877	-0,298	-0,289
59,159	106,556	-0,338	-0,281
60,174	32,475	-0,385	-0,233
61,188	0,422	-0,339	-0,169
62,203	317,367	-0,309	-0,410
63,217	13,651	-0,387	-0,210
64,232	65,361	-0,428	-0,303
65,247	127,440	-0,371	-0,330
66,261	9,949	-0,463	-0,246
67,276	16,486	-0,414	-0,229
68,290	-152,087	-0,194	0,010
69,305	91,818	-0,277	-0,218
70,320	126,231	-0,119	-0,105
71,334	37,332	-0,293	-0,181
72,349	-33,688	-0,204	-0,078
73,363	82,160	-0,380	-0,288
74,378	3,927	-0,267	-0,137
75,393	-88,013	-0,342	-0,071
76,407	213,609	-0,230	-0,255
77,422	211,735	-0,244	-0,270
78,436	237,536	-0,191	-0,222
79,451	311,458	-0,238	-0,314
80,466	-40,833	-0,408	-0,147
81,480	73,557	-0,352	-0,258
82,495	39,807	-0,383	-0,240
83,509	-3,953	-0,270	-0,131
84,524	269,259	-0,124	-0,153
85,539	211,680	-0,273	-0,301
86,553	373,274	-0,199	-0,284
87,568	2,361	-0,251	-0,127
88,582	71,847	-0,320	-0,232
89,597	132,949	-0,259	-0,234
90,611	-106,650	-0,232	-0,036
91,626	712,621	-0,150	-0,279
92,641	-52,454	-0,220	-0,071
93,655	-25,785	-0,269	-0,110
94,670	287,961	-0,183	-0,232
95,684	-12,828	-0,277	-0,126
96,699	167,320	-0,173	-0,172
97,714	26,173	-0,219	-0,128
98,728	261,856	-0,142	-0,172
99,743	273,608	-0,154	-0,191
100,757	76,700	-0,304	-0,225
101,772	170,505	-0,210	-0,210
102,787	118,548	-0,212	-0,183
103,801	94,456	-0,195	-0,155
104,816	189,288	-0,106	-0,111
105,830	85,652	-0,356	-0,273
106,845	-137,352	-0,288	-0,022
107,860	96,434	-0,211	-0,168
108,874	7,826	-0,321	-0,167
109,889	202,339	-0,164	-0,177
110,903	8,985	-0,258	-0,135
111,918	34,132	-0,363	-0,220
112,933	-72,507	-0,198	-0,051
113,947	-57,063	-0,235	-0,072
114,962	30,967	-0,275	-0,164
115,976	376,274	-0,108	-0,154
116,991	99,794	-0,207	-0,167
118,006	-72,918	-0,225	-0,057
119,020	130,931	-0,290	-0,259
120,035	252,121	-0,140	-0,167
121,049	381,402	-0,125	-0,179
122,064	9,858	-0,276	-0,145
123,079	-12,925	-0,287	-0,130
124,093	-2,411	-0,271	-0,132
125,108	31,549	-0,345	-0,206
126,122	189,292	-0,208	-0,218
127,137	6,456	-0,184	-0,095
128,151	88,717	-0,222	-0,172
129,166	-69,835	-0,213	-0,056
130,181	170,724	-0,290	-0,289
131,195	98,133	-0,324	-0,260
132,210	340,986	-0,202	-0,275
133,224	800,000	-0,091	-0,195
134,239	670,104	-0,134	-0,243
135,254	201,120	-0,165	-0,177
136,268	353,261	-0,087	-0,120
137,283	-93,473	-0,297	-0,057
138,297	63,509	-0,304	-0,212
139,312	94,691	-0,223	-0,176
140,327	113,729	-0,213	-0,180
141,341	-63,107	-0,225	-0,064
142,356	-22,515	-0,214	-0,090
143,370	-101,029	-0,180	0,030
144,385	-77,147	-0,340	-0,082
145,400	160,495	-0,258	-0,251
146,414	88,710	-0,230	-0,178
147,429	107,038	-0,287	-0,237
148,443	5,402	-0,255	-0,131
149,458	-1,451	-0,166	-0,081
150,473	196,298	-0,138	-0,146
151,487	24,251	-0,308	-0,176
152,502	7,181	-0,265	-0,137
153,516	208,220	-0,210	-0,229
154,531	75,989	-0,184	-0,135
155,546	800,000	-0,077	-0,183
156,560	800,000	-0,053	-0,128
157,575	133,565	-0,175	-0,157
158,589	446,365	-0,150	-0,230
159,604	388,827	-0,184	-0,265
160,619	-90,061	-0,177	-0,035
161,633	31,706	-0,330	-0,197
162,648	-16,688	-0,223	-0,098
163,662	-179,127	-0,270	0,004
164,677	-56,964	-0,127	-0,039
165,692	66,998	-0,188	-0,133
166,706	30,643	-0,216	-0,128
167,721	124,461	-0,218	-0,191
168,735	-200,000	-0,123	-0,392
169,750	76,487	-0,228	-0,168
170,764	-36,759	-0,147	-0,054
171,779	200,270	-0,155	-0,166
172,794	82,359	-0,253	-0,190
173,808	186,125	-0,329	-0,340
174,823	-18,822	-0,255	-0,110
175,837	82,285	-0,366	-0,275
176,852	217,278	-0,175	-0,194
177,867	-34,381	-0,255	-0,097
178,881	103,993	-0,218	-0,178
179,896	673,427	-0,058	-0,104
180,910	218,791	-0,168	-0,187
181,925	176,676	-0,264	-0,267
182,940	275,760	-0,147	-0,182
183,954	800,000	-0,057	-0,152
184,969	80,094	-0,120	-0,089
185,983	-77,730	-0,212	-0,051
186,998	264,024	-0,127	-0,154
188,013	594,011	-0,158	-0,272
189,027	-65,789	-0,246	-0,068
190,042	162,053	-0,242	-0,236
191,056	800,000	-0,142	-0,311
192,071	136,514	-0,133	-0,120
193,086	-200,000	-0,022	-0,096
194,100	-104,113	-0,155	-0,025
195,115	-86,893	-0,240	-0,050
196,129	243,892	-0,197	-0,229
197,144	27,691	-0,253	-0,147
198,159	136,421	-0,232	-0,210
199,173	-200,000	0,012	-0,062
200,188	-75,381	-0,136	0,033
201,202	14,575	-0,234	-0,126
202,217	83,128	-0,242	-0,182
203,232	461,312	-0,165	-0,255
204,246	53,119	-0,287	-0,190
205,261	76,059	-0,138	-0,101
206,275	-8,939	-0,178	-0,082
207,290	226,388	-0,224	-0,252
208,304	-179,012	-0,106	0,002
209,319	37,257	-0,101	-0,062
210,334	12,489	-0,238	-0,126
211,348	83,576	-0,216	-0,163
212,363	165,398	-0,192	-0,187
213,377	489,650	-0,149	-0,236
214,392	695,385	-0,149	-0,272
215,407	-6,648	-0,164	-0,077
216,421	212,478	-0,199	-0,217
217,436	225,733	-0,144	-0,162
218,450	137,573	-0,132	-0,120
219,465	149,717	-0,220	-0,207
220,480	481,803	-0,157	-0,247
221,494	-89,578	-0,094	-0,019
222,509	292,848	-0,145	-0,183
223,523	87,600	-0,258	-0,197
224,538	77,058	-0,239	-0,176
225,553	566,820	-0,121	-0,204
226,567	286,122	-0,188	-0,234
227,582	4,491	-0,218	-0,110
228,596	800,000	-0,075	-0,215
229,611	36,948	-0,171	-0,104
230,626	220,027	-0,137	-0,152
231,640	-33,606	-0,210	-0,080
232,655	175,808	-0,195	-0,195
233,669	216,057	-0,183	-0,201
234,684	800,000	-0,122	-0,302
235,699	-200,000	-0,001	-0,130
236,713	-44,917	-0,234	-0,080
237,728	-41,906	-0,192	-0,068
238,742	800,000	-0,027	-0,057
239,757	-12,788	-0,272	-0,122
240,772	-10,766	-0,238	-0,108
241,786	40,917	-0,174	-0,108
242,801	402,405	-0,154	-0,225
243,815	-200,000	-0,043	-0,144
244,830	154,624	-0,134	-0,128
245,844	368,498	-0,137	-0,191
246,859	62,494	-0,247	-0,170
247,874	134,204	-0,250	-0,223
248,888	22,945	-0,198	-0,112
249,903	-51,258	-0,240	-0,077
250,917	-93,278	-0,242	-0,046
251,932	331,778	-0,044	-0,059
252,947	10,048	-0,160	-0,083
253,961	800,000	-0,050	-0,153
254,976	504,356	-0,236	-0,378
255,990	431,559	-0,175	-0,262
257,005	-125,111	-0,180	0,019
258,020	545,712	-0,062	-0,103
259,034	130,592	-0,177	-0,157
260,049	50,120	-0,264	-0,172
261,063	-0,448	-0,206	-0,100
262,078	50,759	-0,159	-0,103
263,093	38,792	-0,127	-0,078
264,107	261,412	-0,122	-0,146
265,122	365,571	-0,088	-0,122
266,136	64,167	-0,079	-0,055
267,151	-118,741	-0,206	-0,025
268,166	800,000	-0,113	-0,223
269,180	317,945	-0,124	-0,162
270,195	51,961	-0,083	-0,054
271,209	623,908	-0,155	-0,269
272,224	729,443	-0,109	-0,201
273,239	79,262	-0,117	-0,087
274,253	396,010	-0,092	-0,133
275,268	288,160	-0,182	-0,227
276,282	9,937	-0,170	-0,088
277,297	99,215	-0,163	-0,129
278,312	68,101	-0,159	-0,112
279,326	-86,227	-0,170	-0,036
280,341	-200,000	0,004	-0,029
281,355	800,000	0,025	-0,062
282,370	136,884	-0,177	-0,159
283,384	-86,677	-0,314	-0,066
284,399	-41,849	-0,205	-0,072
285,414	170,071	-0,123	0,121
286,428	-128,292	-0,137	0,013
287,443	800,000	-0,033	-0,097
288,457	180,269	-0,075	0,076
289,472	148,581	-0,262	-0,244
290,487	-122,400	-0,240	-0,027
291,501	-74,768	-0,212	0,052
292,516	335,006	-0,151	-0,202
293,530	-146,066	-0,262	-0,016
294,545	328,924	-0,034	-0,044
295,560	-84,348	-0,245	-0,053
296,574	800,000	-0,085	-0,224
297,589	-98,893	-0,172	-0,030
298,603	341,911	-0,152	-0,204
299,618	529,899	-0,140	-0,228
300,633	-42,309	-0,057	-0,020
301,647	108,278	-0,120	-0,098
302,662	-49,222	-0,188	-0,061
303,676	8,988	-0,184	-0,095
304,691	-94,067	-0,069	-0,013
305,706	221,127	-0,186	-0,205
306,720	-37,546	-0,254	-0,092
307,735	-63,206	-0,203	-0,057
308,749	-38,317	-0,142	-0,051
309,764	-200,000	-0,012	-0,045
310,779	504,100	-0,137	-0,219
311,793	-200,000	-0,053	-0,178
312,808	135,007	-0,149	-0,133
313,822	8,610	-0,179	-0,092
314,837	-24,906	-0,138	-0,056
315,852	326,498	-0,097	-0,128
316,866	360,575	-0,106	-0,146
317,881	800,000	-0,056	-0,137
318,895	800,000	-0,093	-0,213
319,910	608,423	-0,077	-0,133
320,925	32,427	-0,196	-0,116
321,939	-76,467	-0,099	-0,024
322,954	14,297	-0,151	-0,081
323,968	71,564	-0,201	-0,143
324,983	800,000	-0,113	-0,225
325,997	-91,559	-0,234	-0,045
327,012	254,605	-0,135	-0,159
328,027	409,653	-0,077	-0,112
329,041	-86,529	-0,185	-0,039
330,056	-114,833	-0,083	0,011
331,070	800,000	0,021	-0,061
332,085	-109,250	0,015	0,002
333,100	70,247	-0,061	-0,043
334,114	800,000	-0,073	-0,139
335,129	332,512	-0,120	-0,160
336,143	549,212	-0,085	-0,139
337,158	-170,622	-0,105	-0,002
338,173	231,816	-0,072	-0,081
339,187	76,785	-0,184	-0,133
340,202	17,791	-0,216	-0,117
341,216	0,798	-0,108	-0,053
342,231	224,543	-0,138	-0,153
343,246	110,030	-0,159	-0,131
344,260	-200,000	-0,010	-0,210
345,275	-130,026	-0,186	0,017
346,289	-200,000	-0,043	-0,195
347,304	191,304	-0,122	-0,126
348,319	-22,091	-0,293	-0,121
349,333	-79,599	-0,276	-0,063
350,348	-29,112	-0,133	-0,052
351,362	14,659	-0,006	-0,003
352,377	254,318	0,052	-0,061
353,392	-20,446	-0,094	0,039
354,406	134,371	-0,163	-0,145
355,421	208,153	1305,809	1396,610
356,435	160,157	1465,411	1397,085
