DTS Sentinel unit serial number:	SN410029Multiplexer serial number:	ORYXHardware model number:	OX2-SRSoftware version number:	ORYX F/W v4,00 Oryx Data Collector v3.7.2.0data status	okinstallation	B3 Nyhavnadifferential loss correction	single-endedforward channel	channel 1reverse channel	N/Adate	2023/12/03time	08:42:30forward acquisition time	300,00reverse acquisition time	0,00gamma	499,1914k internal	0,3200k external	0,3200temperature offset calibration	1,0000default loss term (dB/km)	0,3820temperature slope calibration	1,0000multiplexer offset coefficient	1,0000multiplexer slope coefficient	1,0000fibre end	0,00T internal ref (°C)	13,33T ext. ref 1 (°C)	-1,65T ext. ref 2 (°C)	-1,66length (m)	temperature (°C)	Stokes	anti-Stokes-744,400	339,322	-0,250	-0,355
-743,385	-200,000	-0,027	0,287
-742,371	366,593	-0,148	-0,218
-741,356	-200,000	0,043	0,317
-740,342	-118,357	-0,244	-0,031
-739,327	769,264	-0,169	0,337
-738,312	187,652	-0,249	-0,270
-737,298	-200,000	-0,020	0,287
-736,283	752,489	-0,099	-0,196
-735,269	800,000	-0,092	0,276
-734,254	94,658	-0,235	-0,194
-733,239	84,522	-0,080	0,063
-732,225	800,000	-0,080	-0,214
-731,210	-200,000	0,019	0,106
-730,196	104,273	0,096	0,082
-729,181	575,336	0,090	0,160
-728,167	-76,545	-0,148	0,038
-727,152	-128,072	-0,104	0,011
-726,137	-78,594	-0,052	0,013
-725,123	121,826	-0,092	0,083
-724,108	3,184	-0,079	-0,042
-723,094	800,000	-0,024	-0,050
-722,079	-200,000	-0,023	-0,138
-721,064	800,000	-0,031	-0,070
-720,050	-118,145	-0,011	0,001
-719,035	-49,819	-0,083	0,029
-718,021	-200,000	-0,021	-0,086
-717,006	-200,000	-0,006	0,123
-715,991	-167,289	-0,194	-0,006
-714,977	218,773	-0,020	0,023
-713,962	174,633	0,004	0,004
-712,948	-200,000	-0,016	-0,057
-711,933	-200,000	-0,016	0,168
-710,918	133,242	0,064	0,060
-709,904	11,134	-0,044	0,024
-708,889	800,000	-0,031	-0,073
-707,875	-30,433	-0,091	0,037
-706,860	-133,108	-0,096	-0,009
-705,845	800,000	-0,049	0,112
-704,831	106,933	-0,032	0,028
-703,816	321,902	-0,025	0,034
-702,802	-200,000	0,011	0,108
-701,787	456,931	-0,024	0,039
-700,772	152,254	0,051	-0,051
-699,758	-39,630	0,074	0,028
-698,743	-106,428	-0,055	0,009
-697,729	194,894	-0,037	-0,040
-696,714	-200,000	-0,005	-0,088
-695,699	-93,907	-0,101	0,020
-694,685	220,341	-0,043	0,050
-693,670	160,619	-0,123	0,125
-692,656	-69,522	0,088	-0,024
-691,641	-200,000	-0,024	0,135
-690,627	800,000	0,023	0,064
-689,612	427,936	-0,047	0,074
-688,597	-46,164	-0,075	0,027
-687,583	132,667	-0,012	-0,011
-686,568	-200,000	0,016	-0,117
-685,554	-200,000	-0,002	-0,261
-684,539	800,000	0,032	0,088
-683,524	19,182	-0,081	-0,047
-682,510	-25,160	-0,191	0,082
-681,495	-200,000	-0,009	0,031
-680,481	70,358	0,040	-0,030
-679,466	-126,489	-0,057	-0,006
-678,451	-146,258	-0,051	-0,003
-677,437	-200,000	-0,017	-0,129
-676,422	225,594	0,054	0,063
-675,408	193,761	0,043	-0,047
-674,393	290,485	-0,062	0,081
-673,378	-130,039	-0,058	-0,006
-672,364	-87,530	-0,066	-0,014
-671,349	-108,422	-0,116	-0,018
-670,335	-164,773	-0,110	-0,004
-669,320	-28,746	0,051	0,021
-668,305	-200,000	-0,016	0,094
-667,291	-89,040	0,154	-0,033
-666,276	-162,165	-0,092	0,003
-665,262	56,422	-0,028	-0,019
-664,247	-80,920	0,058	-0,014
-663,232	85,794	-0,056	-0,044
-662,218	-200,000	-0,011	0,082
-661,203	318,838	-0,041	0,056
-660,189	-200,000	0,011	0,074
-659,174	800,000	-0,014	-0,034
-658,159	-200,000	0,017	-0,060
-657,145	566,142	0,016	-0,028
-656,130	14,598	0,100	-0,056
-655,116	-124,937	0,046	0,005
-654,101	-93,687	-0,063	-0,012
-653,086	-12,436	-0,048	-0,023
-652,072	164,078	-0,054	-0,055
-651,057	-200,000	-0,026	-0,178
-650,043	-36,495	0,100	-0,039
-649,028	800,000	-0,010	-0,025
-648,014	-200,000	0,002	0,037
-646,999	-150,685	0,085	0,005
-645,984	84,810	-0,061	-0,049
-644,970	795,115	-0,037	0,075
-643,955	201,858	0,052	0,058
-642,941	798,376	-0,052	0,105
-641,926	604,496	0,032	-0,057
-640,911	-169,189	0,060	-0,002
-639,897	6,922	-0,225	0,121
-638,882	-108,953	-0,060	0,009
-637,868	800,000	-0,006	0,014
-636,853	800,000	0,017	0,034
-635,838	151,855	-0,129	-0,127
-634,824	-17,536	0,056	-0,025
-633,809	364,597	0,026	-0,038
-632,795	428,890	0,068	0,107
-631,780	238,945	-0,050	0,061
-630,765	43,054	0,095	0,062
-629,751	-106,237	-0,146	-0,023
-628,736	-200,000	0,022	-0,079
-627,722	129,384	-0,090	-0,083
-626,707	-200,000	0,033	-0,113
-625,692	-2,371	0,132	0,067
-624,678	-41,415	0,042	0,016
-623,663	-200,000	-0,003	0,023
-622,649	154,767	-0,119	-0,118
-621,634	-37,075	-0,138	-0,053
-620,619	-200,000	-0,111	0,000
-619,605	-200,000	-0,014	-0,047
-618,590	-200,000	0,021	-0,152
-617,576	-200,000	-0,017	-0,085
-616,561	-200,000	-0,008	-0,077
-615,546	-200,000	-0,005	-0,107
-614,532	24,859	0,080	-0,048
-613,517	-144,156	-0,130	0,009
-612,503	315,748	0,038	-0,052
-611,488	-200,000	0,004	0,041
-610,474	800,000	0,036	-0,112
-609,459	-200,000	0,017	0,134
-608,444	182,375	-0,107	-0,114
-607,430	-200,000	0,022	-0,092
-606,415	-200,000	-0,011	0,096
-605,401	136,826	-0,026	0,024
-604,386	260,499	-0,115	-0,144
-603,371	-130,563	0,076	-0,007
-602,357	-86,930	0,014	-0,003
-601,342	95,168	0,095	-0,078
-600,328	-37,142	-0,221	-0,085
-599,313	-200,000	-0,024	0,108
-598,298	800,000	0,033	-0,103
-597,284	276,402	-0,027	0,034
-596,269	-156,434	0,016	0,001
-595,255	-200,000	-0,020	0,146
-594,240	186,025	-0,019	-0,020
-593,225	-200,000	-0,000	-0,096
-592,211	800,000	-0,072	-0,202
-591,196	39,096	-0,047	0,030
-590,182	-200,000	0,014	0,051
-589,167	800,000	-0,067	0,176
-588,152	444,841	-0,046	-0,074
-587,138	-200,000	0,003	-0,102
-586,123	-144,409	0,076	0,005
-585,109	-25,471	-0,059	-0,025
-584,094	164,838	0,102	-0,104
-583,079	59,716	0,129	0,092
-582,065	-200,000	0,024	0,173
-581,050	-200,000	-0,013	0,118
-580,036	-26,477	-0,104	-0,044
-579,021	-200,000	-0,000	0,009
-578,006	-200,000	-0,018	-0,110
-576,992	800,000	0,033	-0,086
-575,977	-145,379	0,055	-0,004
-574,963	-64,228	0,092	0,027
-573,948	537,731	-0,048	-0,083
-572,934	260,088	0,046	-0,058
-571,919	179,359	-0,035	-0,037
-570,904	479,102	0,024	-0,039
-569,890	-39,544	0,189	0,071
-568,875	-200,000	-0,010	0,100
-567,861	-200,000	0,007	0,032
-566,846	-108,796	-0,094	0,014
-565,831	-200,000	-0,001	0,068
-564,817	293,111	0,003	-0,004
-563,802	-200,000	-0,005	0,047
-562,788	800,000	-0,087	-0,192
-561,773	-105,062	-0,044	-0,007
-560,758	53,263	0,161	0,111
-559,744	-111,324	-0,098	-0,014
-558,729	313,480	0,043	-0,059
-557,715	-200,000	-0,026	0,108
-556,700	167,536	0,104	-0,107
-555,685	483,890	0,026	-0,042
-554,671	-73,358	0,135	0,035
-553,656	800,000	0,017	0,052
-552,642	-15,608	-0,051	-0,023
-551,627	480,197	-0,110	0,181
-550,612	-200,000	0,039	0,154
-549,598	800,000	-0,049	-0,105
-548,583	800,000	-0,037	-0,102
-547,569	254,799	0,035	-0,043
-546,554	800,000	-0,024	0,069
-545,539	46,823	0,099	-0,066
-544,525	-200,000	0,025	0,083
-543,510	-200,000	0,019	-0,096
-542,496	13,768	-0,141	-0,079
-541,481	-200,000	-0,001	-0,114
-540,466	-142,455	0,165	-0,012
-539,452	132,302	-0,043	-0,040
-538,437	-200,000	0,004	0,018
-537,423	388,295	0,051	0,076
-536,408	-112,925	0,099	-0,014
-535,393	-134,193	-0,104	-0,009
-534,379	-83,483	0,087	0,020
-533,364	434,306	-0,015	0,023
-532,350	-46,207	-0,044	0,015
-531,335	429,609	-0,038	0,059
-530,321	331,907	-0,070	0,098
-529,306	712,318	0,064	0,123
-528,291	-173,517	-0,074	-0,002
-527,277	73,586	-0,151	0,114
-526,262	506,364	-0,044	0,074
-525,248	800,000	0,052	-0,151
-524,233	-81,556	0,120	0,028
-523,218	-155,439	-0,034	0,002
-522,204	152,559	-0,038	-0,038
-521,189	4,492	-0,047	-0,025
-520,175	6,231	-0,043	0,023
-519,160	388,563	-0,042	0,063
-518,145	800,000	0,058	0,151
-517,131	-76,387	0,124	0,031
-516,116	142,161	-0,128	0,123
-515,102	-200,000	0,004	-0,079
-514,087	497,058	0,032	0,053
-513,072	-130,509	-0,077	-0,007
-512,058	-5,333	-0,064	-0,031
-511,043	-157,821	0,122	0,005
-510,029	-200,000	0,000	0,016
-509,014	800,000	0,044	0,093
-507,999	388,960	0,046	0,069
-506,985	-200,000	0,001	0,120
-505,970	664,572	0,039	-0,073
-504,956	135,656	-0,042	0,039
-503,941	-38,481	0,154	0,058
-502,926	35,279	-0,046	0,029
-501,912	186,309	-0,038	0,041
-500,897	134,895	-0,012	0,011
-499,883	-152,019	-0,068	0,004
-498,868	800,000	0,037	0,085
-497,853	-200,000	-0,008	0,047
-496,839	-200,000	0,009	0,135
-495,824	800,000	0,020	0,056
-494,810	-101,615	0,064	0,011
-493,795	800,000	0,026	0,077
-492,781	-25,756	0,074	-0,031
-491,766	28,831	-0,084	-0,051
-490,751	84,703	-0,090	-0,071
-489,737	-200,000	-0,008	0,037
-488,722	-200,000	-0,009	-0,151
-487,708	50,162	-0,036	0,024
-486,693	-200,000	-0,030	0,102
-485,678	-56,502	0,115	0,037
-484,664	103,745	-0,092	-0,077
-483,649	-200,000	-0,017	-0,213
-482,635	-149,648	0,071	-0,004
-481,620	-153,257	0,071	0,004
-480,605	84,999	-0,050	0,039
-479,591	264,173	0,049	0,062
-478,576	-200,000	0,027	-0,135
-477,562	0,850	-0,098	-0,050
-476,547	-128,368	0,023	0,002
-475,532	13,729	-0,093	0,052
-474,518	800,000	-0,052	-0,141
-473,503	-44,233	0,041	0,015
-472,489	-200,000	-0,016	0,070
-471,474	-16,589	-0,094	-0,042
-470,459	-200,000	-0,009	-0,054
-469,445	800,000	0,086	0,180
-468,430	86,202	-0,041	-0,032
-467,416	800,000	0,020	0,049
-466,401	-137,057	0,075	0,006
-465,386	197,071	0,090	0,098
-464,372	-173,656	0,049	0,001
-463,357	-172,553	0,066	0,001
-462,343	737,383	0,015	-0,030
-461,328	-200,000	0,011	-0,081
-460,313	-200,000	0,006	0,029
-459,299	18,882	-0,010	-0,006
-458,284	74,490	0,092	0,069
-457,270	-74,666	-0,065	0,017
-456,255	-33,054	-0,077	-0,031
-455,241	-200,000	-0,018	0,128
-454,226	800,000	0,025	0,060
-453,211	-135,726	-0,087	-0,007
-452,197	-27,543	0,142	0,059
-451,182	-200,000	-0,016	0,263
-450,168	162,803	0,092	0,093
-449,153	-50,220	-0,203	-0,069
-448,138	206,896	0,014	0,016
-447,124	1,466	-0,119	0,062
-446,109	233,542	-0,106	0,125
-445,095	800,000	0,021	0,049
-444,080	555,162	0,042	0,073
-443,065	-56,955	-0,105	0,033
-442,051	-200,000	0,018	0,226
-441,036	256,075	-0,134	-0,165
-440,022	-171,507	-0,132	-0,003
-439,007	-79,452	0,044	0,011
-437,992	-107,935	0,115	-0,018
-436,978	575,405	-0,090	-0,159
-435,963	-64,297	-0,036	0,011
-434,949	800,000	-0,010	0,022
-433,934	-169,148	-0,093	-0,002
-432,919	-31,420	0,097	0,039
-431,905	800,000	-0,009	-0,020
-430,890	800,000	0,074	-0,197
-429,876	-200,000	-0,018	0,089
-428,861	-14,369	0,071	-0,033
-427,846	-200,000	0,036	0,116
-426,832	800,000	-0,013	0,033
-425,817	468,473	-0,023	-0,038
-424,803	166,190	-0,053	0,054
-423,788	800,000	-0,031	-0,066
-422,773	-113,227	0,118	0,016
-421,759	159,593	-0,021	-0,021
-420,744	192,840	-0,055	0,060
-419,730	-29,402	0,079	-0,032
-418,715	63,538	-0,056	0,040
-417,701	543,942	-0,041	-0,071
-416,686	61,783	0,069	-0,049
-415,671	351,288	0,036	-0,052
-414,657	146,839	-0,054	-0,052
-413,642	32,176	0,076	-0,047
-412,628	382,963	0,050	-0,075
-411,613	84,236	0,057	-0,044
-410,598	-102,012	0,032	-0,005
-409,584	450,903	0,037	0,060
-408,569	61,268	0,048	0,035
-407,555	-200,000	-0,013	0,091
-406,540	46,166	-0,074	-0,049
-405,525	-200,000	0,008	-0,044
-404,511	-200,000	-0,003	-0,018
-403,496	273,051	-0,148	-0,189
-402,482	-200,000	0,001	0,010
-401,467	-108,060	0,044	0,007
-400,452	800,000	0,038	-0,084
-399,438	644,665	-0,073	0,134
-398,423	-200,000	-0,032	-0,122
-397,409	-200,000	0,041	-0,154
-396,394	-200,000	0,045	-0,185
-395,379	239,258	-0,036	0,044
-394,365	29,585	0,041	0,025
-393,350	-9,201	-0,030	-0,015
-392,336	-200,000	-0,007	-0,059
-391,321	-134,479	-0,016	-0,001
-390,306	-200,000	0,005	-0,171
-389,292	327,377	-0,051	-0,070
-388,277	-78,688	-0,026	-0,006
-387,263	30,714	-0,057	-0,035
-386,248	47,356	0,042	-0,028
-385,233	101,787	0,016	-0,013
-384,219	355,184	-0,095	-0,136
-383,204	-200,000	0,022	0,074
-382,190	318,266	0,052	-0,071
-381,175	800,000	0,020	-0,040
-380,160	-82,337	0,117	0,027
-379,146	-173,699	0,106	-0,002
-378,131	-200,000	-0,009	-0,047
-377,117	-64,352	-0,055	-0,016
-376,102	35,443	-0,187	0,117
-375,088	148,201	-0,084	-0,082
-374,073	79,781	-0,111	-0,085
-373,058	-72,983	0,086	-0,022
-372,044	59,856	0,088	0,062
-371,029	-200,000	-0,024	0,088
-370,015	-68,456	-0,066	-0,018
-369,000	800,000	-0,022	-0,052
-367,985	-44,108	0,064	-0,023
-366,971	-149,367	0,082	0,005
-365,956	516,212	-0,040	0,068
-364,942	-200,000	-0,009	0,116
-363,927	-42,931	0,127	-0,046
-362,912	-23,503	0,046	0,020
-361,898	207,972	0,077	-0,086
-360,883	-128,517	-0,165	0,017
-359,869	187,705	0,116	-0,124
-358,854	-44,578	-0,076	-0,027
-357,839	172,431	0,078	0,081
-356,825	-91,569	0,124	-0,025
-355,810	423,022	0,034	-0,052
-354,796	288,939	-0,044	-0,057
-353,781	800,000	-0,026	-0,077
-352,766	157,945	0,070	-0,070
-351,752	-90,290	-0,051	-0,011
-350,737	-54,043	-0,042	0,014
-349,723	223,884	0,070	-0,081
-348,708	800,000	-0,048	0,132
-347,693	-200,000	0,041	0,234
-346,679	232,637	0,037	-0,043
-345,664	58,498	-0,088	0,062
-344,650	-200,000	-0,009	-0,035
-343,635	293,727	-0,056	0,073
-342,620	-83,641	0,066	0,015
-341,606	14,177	-0,105	-0,058
-340,591	282,385	-0,052	-0,067
-339,577	800,000	0,007	-0,018
-338,562	142,336	-0,048	-0,046
-337,548	23,661	-0,146	0,086
-336,533	639,097	0,012	-0,023
-335,518	-91,122	-0,113	-0,023
-334,504	-21,443	0,140	-0,061
-333,489	-15,726	0,100	0,046
-332,475	800,000	-0,052	-0,132
-331,460	-200,000	-0,025	-0,081
-330,445	-146,121	0,077	0,005
-329,431	-200,000	0,005	0,054
-328,416	44,739	0,060	0,040
-327,402	11,822	0,130	0,071
-326,387	-200,000	0,005	-0,195
-325,372	-200,000	-0,001	0,033
-324,358	-200,000	-0,007	-0,067
-323,343	-200,000	-0,007	-0,060
-322,329	-173,576	-0,126	0,003
-321,314	58,137	0,090	0,063
-320,299	-4,504	-0,113	0,056
-319,285	120,963	-0,036	0,032
-318,270	471,685	-0,022	-0,036
-317,256	274,709	0,055	-0,070
-316,241	-200,000	-0,021	0,099
-315,226	59,780	0,088	-0,062
-314,212	-200,000	-0,021	0,114
-313,197	17,123	0,030	-0,017
-312,183	-200,000	-0,011	0,039
-311,168	117,178	-0,054	0,047
-310,153	38,471	-0,019	-0,012
-309,139	343,513	-0,124	-0,175
-308,124	136,580	-0,041	0,038
-307,110	-200,000	-0,007	-0,057
-306,095	-200,000	0,003	0,094
-305,080	-56,821	-0,094	0,030
-304,066	167,891	0,089	0,091
-303,051	800,000	-0,011	-0,023
-302,037	182,316	0,072	0,076
-301,022	57,582	0,054	-0,038
-300,008	607,404	-0,025	0,045
-298,993	189,443	0,062	0,067
-297,978	74,588	-0,044	-0,033
-296,964	653,178	0,008	0,014
-295,949	48,166	0,097	-0,065
-294,935	800,000	-0,045	0,100
-293,920	-134,767	0,037	0,003
-292,905	-200,000	0,011	-0,072
-291,891	-200,000	0,021	-0,085
-290,876	316,308	-0,041	-0,055
-289,862	48,164	-0,098	-0,065
-288,847	-200,000	-0,004	-0,041
-287,832	-200,000	-0,004	0,037
-286,818	-200,000	0,007	0,085
-285,803	800,000	0,028	0,061
-284,789	-156,557	0,113	-0,005
-283,774	64,505	-0,005	0,004
-282,759	-200,000	-0,035	-0,125
-281,745	-63,648	0,174	-0,051
-280,730	800,000	0,025	0,077
-279,716	158,804	0,127	-0,126
-278,701	-200,000	-0,000	-0,003
-277,686	-200,000	-0,020	0,107
-276,672	55,259	0,053	0,036
-275,657	-200,000	0,054	0,194
-274,643	-169,360	0,044	-0,001
-273,628	-67,655	-0,130	-0,036
-272,613	800,000	0,033	-0,086
-271,599	218,238	0,062	-0,070
-270,584	-172,013	0,050	-0,001
-269,570	51,114	0,031	-0,021
-268,555	-120,561	0,107	0,013
-267,540	641,678	-0,022	-0,040
-266,526	-200,000	0,012	-0,102
-265,511	343,402	0,023	-0,032
-264,497	155,160	-0,063	-0,062
-263,482	-200,000	-0,005	-0,054
-262,467	-60,670	0,092	0,028
-261,453	-182,980	-0,039	0,000
-260,438	-108,645	-0,109	0,017
-259,424	64,998	-0,179	0,129
-258,409	33,456	0,062	-0,038
-257,395	-200,000	-0,013	-0,052
-256,380	557,618	0,024	0,042
-255,365	418,864	-0,066	0,101
-254,351	-200,000	-0,020	0,107
-253,336	682,965	-0,058	-0,108
-252,322	-52,351	-0,030	0,010
-251,307	-7,193	0,093	-0,045
-250,292	38,270	-0,012	-0,008
-249,278	-142,911	0,028	0,002
-248,263	-71,585	0,100	0,027
-247,249	515,243	0,039	0,066
-246,234	-62,610	-0,068	-0,020
-245,219	800,000	0,059	-0,119
-244,205	-137,761	-0,038	-0,003
-243,190	-200,000	-0,009	-0,136
-242,176	-98,759	-0,092	-0,016
-241,161	-200,000	-0,019	0,121
-240,146	-41,616	0,166	0,060
-239,132	-200,000	0,022	-0,072
-238,117	10,335	0,040	-0,022
-237,103	-135,523	0,075	0,006
-236,088	-200,000	0,019	-0,082
-235,073	176,973	0,106	-0,110
-234,059	98,827	0,079	0,065
-233,044	800,000	-0,046	0,092
-232,030	313,179	-0,039	0,052
-231,015	-200,000	-0,006	-0,033
-230,000	-200,000	0,006	-0,080
-228,986	-15,986	-0,096	-0,043
-227,971	40,408	0,126	-0,081
-226,957	388,490	-0,071	-0,105
-225,942	-151,043	0,116	0,006
-224,927	-90,146	0,030	0,006
-223,913	186,760	-0,039	-0,042
-222,898	800,000	0,012	0,034
-221,884	-138,742	0,081	-0,006
-220,869	-200,000	-0,021	0,223
-219,855	800,000	-0,022	-0,063
-218,840	-200,000	-0,020	0,094
-217,825	390,355	-0,037	0,055
-216,811	420,055	-0,071	0,108
-215,796	42,834	-0,114	0,074
-214,782	383,269	-0,065	-0,095
-213,767	800,000	-0,055	0,151
-212,752	-200,000	0,033	0,124
-211,738	-140,447	0,094	-0,007
-210,723	800,000	-0,029	0,062
-209,709	-200,000	-0,002	-0,046
-208,694	800,000	-0,083	0,180
-207,679	95,101	-0,084	-0,068
-206,665	-150,348	0,143	0,008
-205,650	59,485	0,044	0,031
-204,636	-189,446	0,100	-0,001
-203,621	-200,000	0,001	0,195
-202,606	8,453	0,053	-0,028
-201,592	-45,905	-0,102	-0,036
-200,577	-14,968	0,086	0,039
-199,563	-200,000	0,002	-0,094
-198,548	-123,410	0,165	0,019
-197,533	39,777	0,086	0,055
-196,519	273,905	-0,055	-0,070
-195,504	131,474	-0,056	0,052
-194,490	-200,000	-0,006	-0,083
-193,475	137,565	-0,089	0,083
-192,460	-200,000	-0,037	-0,142
-191,446	800,000	0,030	0,077
-190,431	-131,270	0,237	0,022
-189,417	225,971	0,027	0,031
-188,402	154,971	-0,088	0,086
-187,387	417,610	0,084	-0,128
-186,373	-168,831	-0,060	-0,002
-185,358	278,869	0,058	-0,074
-184,344	300,634	-0,036	0,048
-183,329	17,851	-0,127	-0,072
-182,315	88,967	0,034	0,027
-181,300	58,105	0,117	-0,081
-180,285	183,939	-0,058	-0,061
-179,271	-127,003	0,062	-0,006
-178,256	-45,551	-0,055	0,019
-177,242	126,266	-0,034	-0,030
-176,227	410,495	-0,024	0,036
-175,212	-72,246	-0,070	0,018
-174,198	-54,564	-0,027	-0,009
-173,183	-6,825	-0,086	0,041
-172,169	155,967	-0,022	-0,022
-171,154	-66,392	0,119	-0,033
-170,139	4,209	0,113	0,059
-169,125	263,368	0,029	-0,035
-168,110	559,452	0,018	0,032
-167,096	800,000	0,036	-0,085
-166,081	-135,126	-0,066	0,006
-165,066	36,314	0,017	-0,011
-164,052	-9,247	-0,054	-0,026
-163,037	-200,000	-0,013	0,071
-162,023	96,706	-0,058	0,047
-161,008	443,640	-0,097	0,152
-159,993	11,690	0,086	0,047
-158,979	-104,658	-0,043	0,007
-157,964	4,353	-0,118	0,061
-156,950	800,000	-0,050	-0,112
-155,935	-200,000	-0,011	0,045
-154,920	-200,000	0,004	0,040
-153,906	358,220	0,140	0,200
-152,891	-93,794	0,033	-0,006
-151,877	396,440	-0,015	0,023
-150,862	141,814	-0,118	-0,111
-149,847	-200,000	0,016	-0,067
-148,833	-200,000	-0,005	-0,037
-147,818	-200,000	-0,007	-0,064
-146,804	-112,048	-0,048	-0,007
-145,789	-59,807	0,048	0,014
-144,775	-200,000	0,004	-0,089
-143,760	277,643	0,077	-0,097
-142,745	-75,524	-0,070	-0,018
-141,731	227,119	0,076	0,088
-140,716	-88,479	-0,059	0,012
-139,702	4,556	0,080	0,042
-138,687	91,953	-0,053	0,043
-137,672	-29,143	-0,034	-0,014
-136,658	-155,834	0,091	-0,004
-135,643	426,769	-0,028	-0,042
-134,629	-9,022	0,071	-0,034
-133,614	800,000	-0,029	-0,091
-132,599	190,997	0,057	-0,061
-131,585	-200,000	0,017	-0,104
-130,570	-19,305	0,026	0,011
-129,556	-57,039	0,090	-0,028
-128,541	-72,726	-0,056	0,015
-127,526	-139,326	0,064	-0,005
-126,512	752,234	-0,062	-0,119
-125,497	154,957	0,071	-0,069
-124,483	-83,229	-0,077	0,017
-123,468	-200,000	0,041	-0,150
-122,453	348,910	-0,066	-0,092
-121,439	332,622	-0,054	-0,074
-120,424	189,742	-0,068	-0,073
-119,410	27,827	-0,065	0,039
-118,395	800,000	0,063	0,126
-117,380	-160,040	-0,112	0,004
-116,366	314,349	-0,083	0,111
-115,351	800,000	0,061	0,144
-114,337	-13,731	-0,076	0,035
-113,322	-49,229	0,157	-0,053
-112,307	-200,000	-0,008	0,144
-111,293	-200,000	0,003	0,017
-110,278	178,436	0,023	-0,024
-109,264	42,602	-0,119	0,076
-108,249	19,055	-0,023	-0,013
-107,234	-80,334	0,034	-0,008
-106,220	60,322	-0,037	0,026
-105,205	30,358	-0,038	0,023
-104,191	-200,000	0,027	0,119
-103,176	163,627	-0,084	0,084
-102,162	-200,000	-0,027	-0,124
-101,147	800,000	0,018	-0,048
-100,132	130,786	0,049	0,045
-99,118	-26,962	0,037	0,015
-98,103	-200,000	0,000	-0,057
-97,089	-200,000	0,001	-0,035
-96,074	85,472	0,046	0,036
-95,059	-200,000	0,009	0,047
-94,045	-15,135	-0,105	-0,047
-93,030	240,244	-0,094	-0,111
-92,016	-200,000	-0,019	-0,073
-91,001	-186,960	-0,028	-0,000
-89,986	800,000	-0,027	0,064
-88,972	-200,000	0,020	0,080
-87,957	96,201	-0,036	-0,029
-86,943	-177,496	0,169	0,003
-85,928	-200,000	-0,004	-0,064
-84,913	21,413	0,040	-0,023
-83,899	133,029	0,079	0,073
-82,884	-200,000	-0,002	0,029
-81,870	-200,000	0,045	0,142
-80,855	251,367	-0,045	0,055
-79,840	-200,000	-0,001	0,046
-78,826	-103,785	-0,171	0,028
-77,811	22,622	0,076	-0,044
-76,797	800,000	-0,032	0,095
-75,782	442,308	0,018	0,027
-74,767	-47,706	0,093	-0,032
-73,753	-200,000	0,018	0,063
-72,738	163,863	0,009	-0,009
-71,724	800,000	-0,017	-0,042
-70,709	474,804	0,023	-0,037
-69,694	234,792	-0,039	0,045
-68,680	117,592	-0,011	0,009
-67,665	800,000	0,050	0,111
-66,651	800,000	-0,023	-0,053
-65,636	449,579	0,025	0,040
-64,622	-200,000	0,011	-0,052
-63,607	800,000	0,086	-0,195
-62,592	-119,076	-0,077	0,009
-61,578	-200,000	-0,009	-0,034
-60,563	29,806	0,129	-0,078
-59,549	-200,000	0,011	-0,055
-58,534	-23,790	-1,645	-0,695
-57,519	443,358	-1,333	-2,076
-56,505	-200,000	-0,614	-4,322
-55,490	198,062	1,138	1,234
-54,476	800,000	4,862	11,141
-53,461	-200,000	19,331	319,699
-52,446	-200,000	739,941	2335,024
-51,432	574,058	1655,364	2870,764
-50,417	78,438	1671,149	1262,923
-49,403	21,324	1544,132	886,003
-48,388	15,218	1466,219	811,601
-47,373	17,939	1456,772	819,495
-46,359	16,721	1446,559	807,875
-45,344	13,471	1441,780	789,603
-44,330	13,369	1440,063	788,144
-43,315	13,341	1438,466	787,102
-42,300	13,371	1436,528	786,154
-41,286	13,416	1435,420	785,734
-40,271	13,395	1433,832	784,732
-39,257	13,375	1432,694	783,981
-38,242	13,412	1431,392	783,416
-37,227	13,381	1430,352	782,668
-36,213	13,420	1428,718	781,928
-35,198	13,423	1427,767	781,391
-34,184	13,487	1426,746	781,103
-33,169	13,423	1425,402	780,033
-32,154	13,462	1424,308	779,590
-31,140	13,437	1423,224	778,848
-30,125	13,456	1421,962	778,216
-29,111	13,508	1420,854	777,822
-28,096	13,408	1419,752	776,717
-27,082	13,360	1418,802	775,940
-26,067	13,366	1417,457	775,199
-25,052	13,389	1416,575	774,798
-24,038	13,349	1415,422	773,946
-23,023	13,303	1414,601	773,249
-22,009	13,378	1413,359	772,894
-20,994	13,346	1412,651	772,328
-19,979	13,286	1411,798	771,545
-18,965	13,302	1410,760	771,023
-17,950	13,277	1409,877	770,393
-16,936	13,305	1408,943	769,986
-15,921	13,269	1407,756	769,139
-14,906	13,264	1406,989	768,661
-13,892	13,271	1406,143	768,202
-12,877	13,293	1405,119	767,718
-11,863	13,307	1403,987	767,133
-10,848	13,255	1403,340	766,508
-9,833	13,240	1402,476	765,933
-8,819	13,201	1401,633	765,264
-7,804	13,180	1400,646	764,595
-6,790	13,193	1399,680	764,099
-5,775	13,181	1398,620	763,431
-4,760	13,156	1397,849	762,863
-3,746	13,164	1396,797	762,297
-2,731	13,163	1395,852	761,749
-1,717	13,145	1395,090	761,218
-0,702	13,124	1393,224	760,070
0,313	16,996	1310,184	732,703
1,327	33,232	704,155	431,343
2,342	51,199	123,375	82,707
3,356	2,191	16,628	8,475
4,371	8,141	3,197	1,693
5,386	-29,445	0,665	0,268
6,400	332,954	0,165	0,226
7,415	58,642	-0,334	-0,232
8,429	78,394	-0,300	-0,226
9,444	68,144	-0,245	-0,177
10,459	48,929	-0,364	-0,241
11,473	-12,155	-0,382	-0,176
12,488	139,298	-0,117	-0,109
13,502	42,831	-0,361	-0,232
14,517	-16,932	-0,377	-0,168
15,531	127,413	-0,335	-0,301
16,546	117,148	-0,373	-0,324
17,561	26,312	-0,298	-0,175
18,575	-62,341	-0,250	-0,073
19,590	720,536	-0,137	-0,259
20,604	56,653	-0,228	-0,157
21,619	120,408	-0,379	-0,333
22,634	151,142	-0,318	-0,306
23,648	81,376	-0,476	-0,363
24,663	49,281	-0,398	-0,264
25,677	139,714	-0,315	-0,293
26,692	89,853	-0,415	-0,327
27,707	42,863	-0,316	-0,203
28,721	-38,133	-0,255	-0,095
29,736	-24,545	-0,356	-0,149
30,750	193,762	-0,348	-0,372
31,765	32,628	-0,440	-0,268
32,780	40,304	-0,309	-0,196
33,794	-40,218	-0,351	-0,128
34,809	18,261	-0,427	-0,240
35,823	92,138	-0,384	-0,305
36,838	40,168	-0,412	-0,261
37,853	43,094	-0,496	-0,319
38,867	165,065	-0,349	-0,348
39,882	14,870	-0,295	-0,162
40,896	0,057	-0,362	-0,181
41,911	116,053	-0,318	-0,275
42,926	343,093	-0,211	-0,292
43,940	134,697	-0,448	-0,410
44,955	36,238	-0,408	-0,253
45,969	339,168	-0,324	-0,446
46,984	190,024	-0,180	-0,190
47,999	36,011	-0,310	-0,192
49,013	-127,181	-0,329	-0,034
50,028	52,188	-0,356	-0,238
51,042	228,235	-0,270	-0,310
52,057	72,124	-0,294	-0,215
53,071	-5,863	-0,366	-0,176
54,086	19,884	-0,346	-0,196
55,101	13,250	-0,318	-0,173
56,115	36,365	-0,460	-0,285
57,130	-31,598	-0,303	-0,119
58,144	99,930	-0,384	-0,313
59,159	348,442	-0,254	-0,354
60,174	103,548	-0,383	-0,316
61,188	-44,320	-0,333	-0,117
62,203	68,402	-0,484	-0,349
63,217	76,164	-0,306	-0,228
64,232	96,602	-0,272	-0,219
65,247	-70,320	-0,424	-0,112
66,261	5,981	-0,350	-0,182
67,276	-12,395	-0,343	-0,157
68,290	69,898	-0,215	-0,156
69,305	119,362	-0,377	-0,328
70,320	224,164	-0,290	-0,330
71,334	-3,372	-0,371	-0,181
72,349	3,786	-0,404	-0,207
73,363	-38,101	-0,399	-0,148
74,378	-1,912	-0,415	-0,205
75,393	-115,135	-0,405	-0,053
76,407	25,874	-0,208	-0,122
77,422	98,500	-0,271	-0,219
78,436	-0,264	-0,311	-0,155
79,451	28,842	-0,253	-0,150
80,466	73,469	-0,309	-0,227
81,480	91,880	-0,326	-0,258
82,495	109,056	-0,217	-0,182
83,509	-85,779	-0,304	-0,066
84,524	10,429	-0,207	-0,111
85,539	81,464	-0,344	-0,261
86,553	6,921	-0,301	-0,157
87,568	131,604	-0,318	-0,288
88,582	55,810	-0,278	-0,189
89,597	74,512	-0,337	-0,249
90,611	106,516	-0,198	-0,165
91,626	-9,001	-0,302	-0,141
92,641	650,410	-0,131	-0,236
93,655	-33,440	-0,420	-0,162
94,670	-26,298	-0,450	-0,184
95,684	86,714	-0,273	-0,211
96,699	278,129	-0,168	-0,211
97,714	141,628	-0,251	-0,234
98,728	136,255	-0,351	-0,321
99,743	86,172	-0,285	-0,220
100,757	32,869	-0,194	-0,118
101,772	-62,649	-0,332	-0,096
102,787	32,944	-0,372	-0,225
103,801	247,594	-0,261	-0,310
104,816	-66,003	-0,345	-0,096
105,830	32,040	-0,265	-0,160
106,845	80,411	-0,177	-0,134
107,860	183,746	-0,156	-0,162
108,874	78,425	-0,187	-0,140
109,889	302,833	-0,130	-0,169
110,903	67,804	-0,195	-0,140
111,918	74,992	-0,331	-0,244
112,933	59,728	-0,276	-0,190
113,947	3,668	-0,206	-0,105
114,962	127,221	-0,223	-0,198
115,976	-125,803	-0,291	0,030
116,991	37,462	-0,177	-0,110
118,006	37,606	-0,275	-0,170
119,020	101,628	-0,360	-0,294
120,035	80,914	-0,163	-0,123
121,049	-155,525	-0,123	-0,005
122,064	106,987	-0,274	-0,227
123,079	111,391	-0,300	-0,253
124,093	234,896	-0,114	-0,132
125,108	59,183	-0,271	-0,187
126,122	21,861	-0,319	-0,182
127,137	112,993	-0,133	-0,113
128,151	10,673	-0,192	-0,102
129,166	182,298	-0,224	-0,231
130,181	61,517	-0,322	-0,224
131,195	101,971	-0,253	-0,207
132,210	119,180	-0,441	-0,381
133,224	66,381	-0,187	-0,133
134,239	-55,902	-0,250	-0,077
135,254	-10,737	-0,240	-0,111
136,268	153,960	-0,173	-0,166
137,283	317,407	-0,189	-0,251
138,297	91,482	-0,311	-0,245
139,312	800,000	-0,138	-0,272
140,327	183,510	-0,208	-0,216
141,341	-64,223	-0,230	-0,065
142,356	250,557	-0,125	-0,148
143,370	-18,833	-0,313	-0,135
144,385	-24,739	-0,319	-0,132
145,400	42,661	-0,199	-0,127
146,414	157,097	-0,221	-0,214
147,429	456,145	-0,150	-0,234
148,443	417,983	-0,219	-0,328
149,458	206,231	-0,168	-0,183
150,473	187,496	-0,174	-0,182
151,487	95,971	-0,231	-0,184
152,502	-65,513	-0,280	-0,078
153,516	308,538	-0,192	-0,251
154,531	23,575	-0,329	-0,189
155,546	116,084	-0,162	-0,139
156,560	391,575	-0,112	-0,162
157,575	271,575	-0,173	-0,214
158,589	-200,000	-0,059	-0,208
159,604	282,263	-0,172	-0,216
160,619	32,157	-0,242	-0,145
161,633	51,624	-0,344	-0,228
162,648	87,509	-0,321	-0,248
163,662	123,287	-0,181	-0,158
164,677	493,335	-0,094	-0,150
165,692	260,898	-0,138	-0,167
166,706	-135,711	-0,194	0,016
167,721	201,777	-0,162	-0,175
168,735	240,502	-0,182	-0,212
169,750	-113,181	-0,396	-0,054
170,764	194,188	-0,099	-0,105
171,779	57,346	-0,148	-0,100
172,794	285,430	-0,127	-0,160
173,808	59,637	-0,261	-0,179
174,823	199,899	-0,226	-0,242
175,837	140,895	-0,226	-0,208
176,852	198,533	-0,243	-0,260
177,867	-175,726	-0,209	0,004
178,881	57,599	-0,228	-0,155
179,896	56,219	-0,176	-0,119
180,910	41,254	-0,176	-0,111
181,925	472,123	-0,163	-0,256
182,940	84,292	-0,229	-0,174
183,954	3,852	-0,200	-0,101
184,969	-185,175	-0,189	-0,002
185,983	62,300	-0,222	-0,154
186,998	91,680	-0,202	-0,158
188,013	271,472	-0,117	-0,143
189,027	170,312	-0,269	-0,268
190,042	118,869	-0,212	-0,183
191,056	220,231	-0,269	-0,300
192,071	16,529	-0,216	-0,119
193,086	121,349	-0,190	-0,165
194,100	-93,563	-0,272	-0,052
195,115	800,000	-0,099	-0,232
196,129	8,184	-0,244	-0,127
197,144	-158,349	-0,309	-0,012
198,159	-44,843	-0,284	-0,098
199,173	104,984	-0,134	-0,110
200,188	800,000	-0,078	-0,159
201,202	21,011	-0,219	-0,123
202,217	-154,997	-0,170	-0,008
203,232	103,739	-0,195	-0,159
204,246	61,194	-0,403	-0,278
205,261	-58,857	-0,175	-0,052
206,275	29,716	-0,257	-0,152
207,290	105,302	-0,158	-0,129
208,304	-41,543	-0,088	-0,031
209,319	46,518	-0,080	-0,052
210,334	309,145	-0,122	-0,159
211,348	388,174	-0,140	-0,202
212,363	188,357	-0,183	-0,190
213,377	37,324	-0,212	-0,130
214,392	176,032	-0,124	-0,125
215,407	55,310	-0,177	-0,119
216,421	61,364	-0,182	-0,126
217,436	-17,190	-0,221	-0,096
218,450	23,466	-0,216	-0,123
219,465	-30,001	-0,365	-0,143
220,480	-57,113	-0,231	-0,070
221,494	90,790	-0,154	-0,120
222,509	79,812	-0,203	-0,151
223,523	255,783	-0,094	-0,112
224,538	57,776	-0,247	-0,168
225,553	44,349	-0,268	-0,170
226,567	592,678	-0,165	-0,283
227,582	13,668	-0,218	-0,117
228,596	522,763	-0,080	-0,130
229,611	-200,000	-0,017	-0,120
230,626	45,831	-0,287	-0,184
231,640	197,071	-0,132	-0,140
232,655	54,907	-0,194	-0,130
233,669	213,533	-0,283	-0,311
234,684	21,147	-0,261	-0,147
235,699	-39,415	-0,169	-0,061
236,713	-174,747	-0,132	-0,003
237,728	180,769	-0,172	-0,176
238,742	-57,239	-0,146	-0,044
239,757	-200,000	-0,049	-0,306
240,772	112,962	-0,222	-0,186
241,786	23,479	-0,338	-0,192
242,801	-15,244	-0,166	-0,073
243,815	379,176	-0,049	-0,069
244,830	-145,051	-0,070	-0,004
245,844	-68,775	-0,294	-0,078
246,859	-69,412	-0,265	-0,070
247,874	112,319	-0,175	-0,146
248,888	-148,008	-0,106	-0,006
249,903	800,000	-0,061	-0,139
250,917	684,968	-0,137	-0,249
251,932	-56,984	-0,164	-0,050
252,947	-106,383	-0,146	0,022
253,961	441,100	-0,150	-0,228
254,976	-31,571	-0,221	-0,085
255,990	6,174	-0,241	-0,123
257,005	145,883	-0,104	-0,097
258,020	448,445	-0,081	-0,123
259,034	-200,000	-0,028	-0,136
260,049	-75,884	-0,135	-0,033
261,063	-31,260	-0,162	-0,063
262,078	82,665	-0,314	-0,235
263,093	6,898	-0,119	-0,061
264,107	-200,000	-0,036	-0,195
265,122	-200,000	-0,059	-0,187
266,136	-48,504	-0,144	-0,048
267,151	-138,134	-0,205	-0,015
268,166	16,054	-0,061	-0,033
269,180	40,116	-0,187	-0,116
270,195	136,439	-0,183	-0,165
271,209	-165,315	-0,190	-0,006
272,224	124,855	-0,124	-0,108
273,239	626,925	-0,030	-0,053
274,253	764,947	-0,071	-0,134
275,268	270,627	-0,145	-0,176
276,282	-200,000	-0,064	-0,275
277,297	-200,000	-0,009	-0,052
278,312	95,634	-0,124	-0,098
279,326	-30,298	-0,190	-0,074
280,341	-136,133	-0,068	0,005
281,355	324,770	-0,139	-0,184
282,370	800,000	-0,074	-0,160
283,384	-200,000	-0,085	-0,261
284,399	51,964	-0,160	-0,105
285,414	-136,132	-0,170	0,014
286,428	246,166	-0,102	-0,119
287,443	-105,106	-0,094	0,015
288,457	301,890	-0,060	-0,077
289,472	-122,954	-0,194	-0,021
290,487	172,882	-0,105	-0,104
291,501	-200,000	0,005	-0,196
292,516	357,646	-0,149	-0,206
293,530	-200,000	-0,008	-0,035
294,545	-69,914	-0,087	-0,023
295,560	131,979	-0,079	0,070
296,574	68,618	-0,187	-0,132
297,589	392,877	-0,169	-0,243
298,603	-12,411	-0,194	-0,087
299,618	342,710	-0,130	-0,175
300,633	627,465	-0,083	-0,146
301,647	248,494	-0,049	-0,057
302,662	-15,947	-0,221	-0,096
303,676	-200,000	0,015	0,069
304,691	396,962	-0,127	-0,183
305,706	9,389	-0,174	-0,091
306,720	-157,171	-0,259	-0,011
307,735	215,260	-0,175	-0,192
308,749	567,012	-0,026	-0,043
309,764	-200,000	-0,029	-0,101
310,779	-179,453	-0,150	-0,002
311,793	258,633	-0,061	-0,072
312,808	207,091	-0,198	-0,213
313,822	235,907	-0,130	-0,148
314,837	-44,102	-0,134	-0,046
315,852	541,423	-0,063	-0,103
316,866	-200,000	-0,006	-0,147
317,881	50,413	-0,245	-0,159
318,895	-62,340	-0,238	-0,068
319,910	-43,944	-0,230	-0,079
320,925	-39,451	-0,216	-0,077
321,939	5,235	-0,065	-0,033
322,954	129,620	-0,092	-0,081
323,968	-115,901	-0,187	-0,024
324,983	-200,000	0,015	-0,142
325,997	232,041	-0,230	-0,260
327,012	-128,143	-0,197	-0,019
328,027	104,586	-0,169	-0,136
329,041	60,932	-0,138	-0,094
330,056	-67,073	-0,117	-0,031
331,070	-57,150	-0,201	-0,060
332,085	-95,684	-0,170	0,031
333,100	69,234	-0,137	-0,096
334,114	-64,377	-0,120	-0,033
335,129	383,461	-0,103	-0,147
336,143	-83,695	-0,175	-0,038
337,158	-200,000	-0,024	0,084
338,173	-200,000	-0,016	-0,076
339,187	153,657	-0,132	-0,124
340,202	-97,473	-0,156	-0,028
341,216	-25,613	-0,149	0,060
342,231	33,757	-0,222	-0,133
343,246	48,183	-0,130	-0,083
344,260	-200,000	-0,046	-0,270
345,275	-200,000	0,012	-0,083
346,289	800,000	-0,086	-0,246
347,304	202,247	-0,129	-0,137
348,319	-75,112	-0,237	-0,058
349,333	-135,071	-0,260	-0,021
350,348	-18,225	-0,242	-0,103
351,362	-86,632	-0,232	-0,048
352,377	0,867	-0,065	-0,032
353,392	48,910	-0,108	-0,070
354,406	146,919	-0,159	-0,146
355,421	209,695	1313,228	1414,394
356,435	161,397	1473,780	1414,882
