DTS Sentinel unit serial number:	SN410029Multiplexer serial number:	ORYXHardware model number:	OX2-SRSoftware version number:	ORYX F/W v4,00 Oryx Data Collector v3.7.2.0data status	okinstallation	B3 Nyhavnadifferential loss correction	single-endedforward channel	channel 1reverse channel	N/Adate	2023/12/05time	08:17:30forward acquisition time	300,00reverse acquisition time	0,00gamma	499,1914k internal	0,3200k external	0,3200temperature offset calibration	1,0000default loss term (dB/km)	0,3820temperature slope calibration	1,0000multiplexer offset coefficient	1,0000multiplexer slope coefficient	1,0000fibre end	0,00T internal ref (°C)	13,34T ext. ref 1 (°C)	-2,03T ext. ref 2 (°C)	-2,11length (m)	temperature (°C)	Stokes	anti-Stokes-744,400	350,852	-0,217	-0,313
-743,385	283,715	-0,161	0,211
-742,371	190,869	-0,134	-0,147
-741,356	-200,000	-0,040	0,179
-740,342	150,342	-0,134	-0,133
-739,327	-200,000	0,021	0,307
-738,312	441,340	-0,194	-0,310
-737,298	-200,000	-0,080	0,318
-736,283	800,000	-0,073	-0,223
-735,269	-200,000	-0,029	0,326
-734,254	387,373	-0,164	-0,248
-733,239	125,650	-0,151	0,139
-732,225	107,135	-0,136	-0,118
-731,210	800,000	-0,041	0,122
-730,196	435,771	-0,068	-0,108
-729,181	8,289	-0,057	0,031
-728,167	-200,000	-0,013	0,104
-727,152	116,514	-0,058	0,052
-726,137	-116,010	-0,211	-0,028
-725,123	-200,000	0,026	-0,165
-724,108	19,760	-0,141	-0,082
-723,094	-200,000	-0,004	-0,079
-722,079	87,031	-0,076	-0,061
-721,064	-50,584	0,019	-0,006
-720,050	26,704	0,164	0,099
-719,035	-200,000	-0,016	0,067
-718,021	95,155	-0,068	-0,056
-717,006	-80,895	-0,039	0,009
-715,991	79,974	-0,165	-0,129
-714,977	22,197	0,087	-0,051
-713,962	-200,000	-0,023	0,129
-712,948	-2,834	-0,059	-0,030
-711,933	296,895	0,120	0,160
-710,918	95,866	-0,110	-0,091
-709,904	800,000	-0,030	-0,081
-708,889	165,391	-0,101	-0,103
-707,875	39,929	-0,084	0,055
-706,860	-117,730	-0,046	-0,006
-705,845	171,538	0,086	-0,090
-704,831	410,470	-0,034	0,053
-703,816	-89,237	-0,209	-0,044
-702,802	259,422	-0,028	-0,035
-701,787	-106,597	-0,076	0,012
-700,772	516,076	-0,015	-0,026
-699,758	-200,000	-0,016	-0,093
-698,743	165,183	-0,040	0,041
-697,729	800,000	-0,032	0,082
-696,714	800,000	-0,034	-0,094
-695,699	300,529	0,054	0,073
-694,685	-47,917	-0,087	0,030
-693,670	-87,281	-0,023	0,005
-692,656	1,047	-0,056	-0,029
-691,641	-200,000	0,014	-0,187
-690,627	-200,000	0,006	0,117
-689,612	-121,677	0,109	0,013
-688,597	32,054	-0,080	0,050
-687,583	-138,137	0,104	0,008
-686,568	800,000	-0,040	-0,096
-685,554	121,523	-0,053	-0,048
-684,539	557,780	0,064	-0,113
-683,524	24,909	-0,047	0,028
-682,510	-29,012	0,125	-0,052
-681,495	800,000	-0,020	0,054
-680,481	800,000	-0,056	-0,128
-679,466	-200,000	0,043	-0,166
-678,451	-200,000	0,003	-0,015
-677,437	142,030	0,041	-0,039
-676,422	-200,000	0,066	0,000
-675,408	153,872	0,032	0,032
-674,393	800,000	0,049	-0,114
-673,378	-200,000	0,018	-0,086
-672,364	459,519	-0,081	-0,132
-671,349	234,186	-0,026	-0,031
-670,335	47,344	0,040	-0,027
-669,320	-152,957	0,111	0,006
-668,305	-54,771	0,104	-0,034
-667,291	-200,000	-0,013	0,137
-666,276	-44,891	-0,050	-0,018
-665,262	-200,000	-0,015	-0,103
-664,247	25,444	-0,076	0,046
-663,232	-82,372	-0,073	0,017
-662,218	78,711	-0,051	0,039
-661,203	410,429	-0,032	0,049
-660,189	-38,207	-0,128	0,049
-659,174	-200,000	0,004	-0,034
-658,159	-200,000	-0,015	-0,139
-657,145	335,385	0,059	-0,083
-656,130	197,834	0,057	0,064
-655,116	800,000	0,051	-0,137
-654,101	-174,545	0,026	-0,001
-653,086	24,885	-0,093	-0,056
-652,072	175,980	-0,135	-0,143
-651,057	155,532	0,108	-0,108
-650,043	609,775	-0,036	-0,066
-649,028	-118,429	0,032	-0,004
-648,014	-165,122	0,127	0,004
-646,999	117,405	0,162	-0,145
-645,984	451,869	0,015	-0,023
-644,970	800,000	0,079	0,160
-643,955	-110,408	-0,085	-0,013
-642,941	92,259	-0,099	-0,081
-641,926	-107,054	0,080	0,013
-640,911	-29,290	0,122	-0,051
-639,897	-27,646	0,136	-0,057
-638,882	-91,782	-0,085	-0,017
-637,868	-200,000	0,003	0,031
-636,853	49,868	-0,105	-0,071
-635,838	-190,486	-0,129	0,001
-634,824	228,380	-0,074	-0,088
-633,809	-200,000	-0,001	-0,037
-632,795	8,260	0,103	0,056
-631,780	0,777	-0,073	0,038
-630,765	5,353	-0,051	0,027
-629,751	103,484	0,115	-0,098
-628,736	20,049	-0,145	-0,084
-627,722	-150,650	-0,018	0,001
-626,707	-200,000	0,000	0,006
-625,692	58,456	0,054	-0,039
-624,678	177,263	0,110	0,116
-623,663	145,645	0,033	-0,032
-622,649	106,769	0,134	-0,115
-621,634	-148,233	0,195	-0,011
-620,619	-200,000	-0,009	-0,043
-619,605	-154,644	-0,085	0,004
-618,590	426,593	0,107	0,168
-617,576	512,886	-0,020	0,033
-616,561	-200,000	0,012	-0,095
-615,546	-101,566	0,020	-0,004
-614,532	300,286	-0,066	-0,089
-613,517	-49,060	-0,064	-0,022
-612,503	69,690	-0,082	-0,061
-611,488	-167,922	0,019	-0,001
-610,474	21,271	0,048	0,028
-609,459	66,072	0,068	-0,050
-608,444	-200,000	0,012	-0,083
-607,430	-200,000	-0,018	-0,112
-606,415	-200,000	0,005	-0,082
-605,401	92,867	-0,034	-0,028
-604,386	-107,750	0,079	0,012
-603,371	800,000	-0,071	0,213
-602,357	-29,680	0,031	0,013
-601,342	-13,221	-0,071	-0,033
-600,328	800,000	-0,038	-0,082
-599,313	-200,000	-0,008	-0,057
-598,298	-89,166	0,056	-0,012
-597,284	-87,683	0,036	0,008
-596,269	-68,380	-0,038	-0,011
-595,255	-200,000	0,003	0,011
-594,240	800,000	0,046	-0,129
-593,225	800,000	-0,020	-0,053
-592,211	-200,000	0,033	0,122
-591,196	90,408	-0,094	0,076
-590,182	-109,034	0,009	-0,001
-589,167	-176,443	0,047	-0,001
-588,152	-149,778	-0,103	-0,006
-587,138	107,820	-0,058	0,050
-586,123	-58,529	-0,029	-0,009
-585,109	-200,000	-0,024	-0,143
-584,094	266,599	-0,095	-0,120
-583,079	-42,243	0,090	0,033
-582,065	536,154	0,096	0,165
-581,050	-159,079	0,099	-0,004
-580,036	800,000	-0,015	0,042
-579,021	-165,461	-0,101	0,003
-578,006	406,599	0,077	-0,118
-576,992	453,703	0,018	-0,029
-575,977	-200,000	0,007	0,086
-574,963	-34,633	-0,076	-0,030
-573,948	800,000	-0,045	-0,102
-572,934	174,631	-0,034	-0,036
-571,919	588,643	-0,033	-0,059
-570,904	163,779	-0,192	-0,195
-569,890	-200,000	0,002	0,030
-568,875	-14,727	-0,145	0,067
-567,861	-53,525	-0,026	-0,008
-566,846	56,689	0,120	0,085
-565,831	-200,000	0,010	-0,037
-564,817	322,510	-0,033	0,046
-563,802	50,280	-0,089	-0,061
-562,788	-114,036	-0,208	0,029
-561,773	156,261	0,086	-0,086
-560,758	323,415	0,023	-0,032
-559,744	-200,000	0,009	0,125
-558,729	800,000	-0,036	0,082
-557,715	-49,725	-0,101	0,034
-556,700	561,774	0,033	0,058
-555,685	-41,932	-0,014	-0,005
-554,671	437,786	0,091	0,144
-553,656	314,039	0,019	0,026
-552,642	-200,000	0,000	-0,051
-551,627	-200,000	-0,003	0,042
-550,612	-200,000	0,003	0,102
-549,598	-200,000	-0,015	-0,108
-548,583	-40,970	0,130	0,048
-547,569	256,735	0,072	-0,090
-546,554	375,741	-0,068	0,101
-545,539	-126,943	0,120	0,013
-544,525	-19,196	-0,150	-0,067
-543,510	-26,212	-0,081	0,034
-542,496	769,735	0,030	-0,059
-541,481	-32,282	-0,178	0,071
-540,466	235,862	0,088	0,105
-539,452	-116,709	-0,095	0,013
-538,437	-200,000	0,011	-0,131
-537,423	-120,232	0,098	0,012
-536,408	-200,000	0,006	-0,052
-535,393	-143,830	-0,127	0,009
-534,379	656,211	-0,067	-0,126
-533,364	-169,306	0,099	0,003
-532,350	189,851	0,040	0,043
-531,335	-66,834	-0,051	-0,014
-530,321	-200,000	0,009	0,065
-529,306	-200,000	-0,015	-0,161
-528,291	-200,000	-0,007	-0,196
-527,277	108,180	0,009	-0,007
-526,262	800,000	-0,045	-0,116
-525,248	35,330	0,058	0,037
-524,233	258,038	0,073	-0,091
-523,218	-104,989	-0,063	0,010
-522,204	521,216	-0,058	0,099
-521,189	15,839	-0,089	-0,051
-520,175	-7,277	-0,079	0,039
-519,160	800,000	0,034	0,107
-518,145	50,780	0,101	-0,069
-517,131	25,830	0,131	0,079
-516,116	480,999	0,055	-0,090
-515,102	-16,319	-0,087	-0,040
-514,087	-45,967	-0,118	-0,042
-513,072	690,712	0,073	-0,139
-512,058	800,000	-0,036	-0,088
-511,043	-71,475	-0,028	0,008
-510,029	800,000	0,019	0,056
-509,014	75,700	-0,118	0,090
-507,999	66,553	0,104	0,076
-506,985	-200,000	-0,014	-0,062
-505,970	379,404	-0,086	-0,128
-504,956	247,605	-0,056	0,068
-503,941	210,103	-0,075	0,085
-502,926	-162,020	0,106	-0,004
-501,912	66,295	0,093	0,068
-500,897	47,235	-0,022	0,015
-499,883	648,002	-0,063	-0,117
-498,868	-86,622	-0,114	0,025
-497,853	-169,873	0,069	0,002
-496,839	-200,000	-0,140	0,000
-495,824	264,554	0,069	0,087
-494,810	800,000	0,046	0,111
-493,795	65,428	-0,095	0,069
-492,781	-200,000	0,016	-0,092
-491,766	111,490	-0,098	-0,085
-490,751	-200,000	-0,013	0,077
-489,737	154,084	-0,116	-0,115
-488,722	257,474	0,021	-0,026
-487,708	48,077	0,053	0,036
-486,693	800,000	0,056	0,140
-485,678	-200,000	-0,005	0,113
-484,664	74,420	-0,151	-0,114
-483,649	-107,003	-0,053	0,008
-482,635	-200,000	0,021	-0,107
-481,620	-68,072	0,181	-0,050
-480,605	-200,000	-0,006	0,022
-479,591	-200,000	-0,016	0,118
-478,576	800,000	0,062	-0,179
-477,562	-200,000	-0,021	-0,096
-476,547	800,000	-0,039	-0,091
-475,532	-200,000	-0,017	-0,110
-474,518	-11,715	0,045	-0,021
-473,503	152,267	-0,058	0,057
-472,489	-71,984	0,041	0,011
-471,474	-200,000	0,001	-0,016
-470,459	-200,000	0,005	-0,034
-469,445	740,780	-0,038	-0,074
-468,430	-200,000	0,013	0,056
-467,416	800,000	-0,019	0,042
-466,401	-118,482	0,106	-0,013
-465,386	-200,000	-0,002	-0,030
-464,372	800,000	-0,022	-0,066
-463,357	-200,000	-0,016	-0,052
-462,343	-200,000	-0,015	-0,067
-461,328	9,340	0,016	-0,009
-460,313	-81,312	0,137	-0,032
-459,299	-32,409	0,169	-0,067
-458,284	584,403	-0,055	-0,098
-457,270	18,974	-0,095	-0,054
-456,255	-176,424	0,082	0,001
-455,241	-160,390	-0,182	-0,007
-454,226	-0,537	0,027	0,014
-453,211	79,530	0,093	0,072
-452,197	-78,904	-0,138	-0,033
-451,182	-49,461	-0,131	-0,045
-450,168	41,430	0,076	0,049
-449,153	-200,000	0,002	-0,082
-448,138	-109,417	-0,054	0,008
-447,124	-125,248	-0,152	0,017
-446,109	-200,000	0,022	0,086
-445,095	-79,262	0,067	-0,016
-444,080	223,619	0,089	0,103
-443,065	-200,000	-0,028	0,089
-442,051	-26,959	0,118	-0,049
-441,036	-152,027	0,128	-0,007
-440,022	-121,160	-0,148	-0,018
-439,007	-200,000	-0,002	-0,058
-437,992	-21,466	-0,101	0,044
-436,978	-78,343	0,091	0,022
-435,963	266,481	0,039	0,049
-434,949	-28,367	0,077	0,032
-433,934	-200,000	-0,022	0,097
-432,919	-102,780	-0,106	-0,018
-431,905	717,503	0,066	-0,126
-430,890	45,742	0,049	0,033
-429,876	629,366	0,100	-0,182
-428,861	288,874	0,029	0,038
-427,846	-31,222	-0,147	0,059
-426,832	141,532	0,036	-0,034
-425,817	-200,000	-0,002	0,043
-424,803	-200,000	-0,011	-0,037
-423,788	22,168	0,101	0,059
-422,773	-200,000	0,001	-0,068
-421,759	274,481	0,069	0,087
-420,744	664,609	0,023	0,042
-419,730	-200,000	0,027	0,092
-418,715	358,468	0,031	-0,045
-417,701	214,737	-0,090	-0,103
-416,686	800,000	0,028	-0,079
-415,671	-200,000	-0,015	0,106
-414,657	629,428	-0,006	0,011
-413,642	800,000	-0,014	0,044
-412,628	-23,116	-0,091	0,039
-411,613	-88,682	-0,069	-0,015
-410,598	-200,000	-0,009	0,042
-409,584	19,468	0,078	0,045
-408,569	800,000	-0,073	0,160
-407,555	800,000	0,035	-0,069
-406,540	156,163	-0,099	-0,098
-405,525	-39,150	-0,175	0,066
-404,511	-7,470	0,041	-0,020
-403,496	27,459	-0,081	0,049
-402,482	-53,206	0,058	-0,019
-401,467	-200,000	0,049	-0,156
-400,452	-38,062	0,142	0,054
-399,438	498,809	-0,024	0,040
-398,423	27,283	-0,071	-0,042
-397,409	287,447	-0,067	-0,087
-396,394	-75,438	0,089	0,023
-395,379	-200,000	-0,006	0,074
-394,365	-200,000	0,002	-0,019
-393,350	-200,000	0,059	0,266
-392,336	800,000	0,056	0,127
-391,321	-200,000	-0,024	0,153
-390,306	-71,650	-0,094	-0,025
-389,292	-143,762	-0,154	-0,010
-388,277	26,792	-0,059	-0,035
-387,263	-21,001	0,173	0,076
-386,248	778,253	-0,048	0,094
-385,233	-133,347	-0,095	-0,008
-384,219	160,745	-0,038	-0,038
-383,204	158,443	-0,056	0,056
-382,190	-76,833	-0,101	-0,025
-381,175	181,330	0,032	0,034
-380,160	771,052	0,021	-0,040
-379,146	-35,681	-0,123	0,048
-378,131	44,722	0,032	-0,021
-377,117	800,000	0,061	0,166
-376,102	800,000	0,043	0,099
-375,088	-1,125	-0,076	-0,038
-374,073	-22,780	0,081	-0,035
-373,058	-200,000	-0,002	0,020
-372,044	3,650	0,063	0,033
-371,029	49,777	0,032	0,021
-370,015	-80,748	0,127	0,030
-369,000	7,289	0,101	0,054
-367,985	-100,907	0,121	0,021
-366,971	-200,000	-0,021	-0,072
-365,956	551,521	0,018	-0,032
-364,942	800,000	0,024	-0,072
-363,927	-91,036	0,117	0,024
-362,912	-200,000	0,012	0,095
-361,898	406,493	-0,083	0,125
-360,883	800,000	-0,016	0,048
-359,869	194,515	-0,037	0,040
-358,854	-200,000	-0,012	-0,098
-357,839	-153,343	0,031	0,002
-356,825	-54,198	0,058	0,019
-355,810	800,000	0,050	0,116
-354,796	187,030	-0,080	-0,086
-353,781	34,461	-0,146	-0,091
-352,766	784,441	-0,034	-0,067
-351,752	-45,409	0,083	0,029
-350,737	-200,000	-0,000	0,063
-349,723	154,954	0,015	-0,015
-348,708	-200,000	0,010	-0,143
-347,693	436,657	0,055	-0,086
-346,679	334,520	-0,065	0,091
-345,664	800,000	-0,038	0,109
-344,650	151,979	0,067	-0,066
-343,635	211,197	-0,013	0,014
-342,620	92,043	0,108	0,087
-341,606	-86,312	-0,021	0,005
-340,591	-93,939	-0,031	-0,006
-339,577	-52,160	-0,027	-0,009
-338,562	300,744	-0,020	-0,027
-337,548	292,302	-0,004	0,006
-336,533	-149,060	-0,101	0,006
-335,518	800,000	0,023	-0,065
-334,504	-200,000	0,030	0,197
-333,489	-200,000	-0,028	0,094
-332,475	800,000	-0,042	0,094
-331,460	-0,297	-0,008	0,004
-330,445	258,690	0,137	0,169
-329,431	-200,000	0,006	0,073
-328,416	-38,625	0,095	0,036
-327,402	800,000	-0,057	0,115
-326,387	-200,000	0,042	0,141
-325,372	266,074	0,049	-0,061
-324,358	-12,599	-0,080	-0,037
-323,343	148,695	0,064	-0,062
-322,329	261,657	-0,026	-0,033
-321,314	557,533	-0,054	0,094
-320,299	165,541	-0,054	-0,055
-319,285	310,067	0,091	-0,122
-318,270	-200,000	0,001	-0,036
-317,256	-49,960	-0,032	-0,011
-316,241	-23,965	-0,046	-0,020
-315,226	471,946	0,059	0,095
-314,212	66,681	0,070	0,051
-313,197	-113,682	-0,130	0,018
-312,183	-166,497	0,033	0,001
-311,168	32,995	0,055	-0,034
-310,153	-200,000	0,018	-0,083
-309,139	-110,616	-0,063	0,009
-308,124	-109,110	0,047	-0,007
-307,110	-158,306	0,082	0,003
-306,095	5,388	-0,041	0,022
-305,080	51,389	-0,053	0,036
-304,066	800,000	0,029	-0,089
-303,051	252,096	0,067	0,081
-302,037	-200,000	-0,028	-0,128
-301,022	800,000	-0,024	0,067
-300,008	-6,026	0,036	0,017
-298,993	800,000	0,046	0,141
-297,978	38,906	-0,099	-0,063
-296,964	155,785	0,038	-0,038
-295,949	107,536	-0,196	-0,166
-294,935	-200,000	-0,008	0,045
-293,920	-81,035	0,137	0,032
-292,905	-78,896	0,134	0,032
-291,891	800,000	-0,049	0,123
-290,876	370,079	-0,013	-0,019
-289,862	109,647	0,037	0,032
-288,847	800,000	-0,012	0,033
-287,832	303,971	0,089	-0,119
-286,818	-111,119	0,109	-0,016
-285,803	11,536	0,052	0,028
-284,789	688,917	-0,049	0,091
-283,774	800,000	-0,027	0,076
-282,759	-117,859	-0,118	-0,015
-281,745	345,607	0,044	-0,061
-280,730	800,000	-0,031	0,069
-279,716	121,310	0,007	-0,006
-278,701	-167,448	0,120	0,003
-277,686	-29,821	0,063	0,025
-276,672	667,625	0,007	0,012
-275,657	190,231	0,044	-0,047
-274,643	432,995	0,084	-0,130
-273,628	-200,000	0,009	-0,109
-272,613	-10,924	-0,164	-0,077
-271,599	-200,000	-0,002	0,090
-270,584	-200,000	0,013	-0,077
-269,570	800,000	-0,102	0,209
-268,555	164,400	-0,012	-0,012
-267,540	-155,650	-0,163	-0,007
-266,526	458,500	-0,058	-0,092
-265,511	-82,949	-0,100	0,023
-264,497	34,875	-0,062	0,038
-263,482	-8,735	0,066	-0,032
-262,467	-82,667	-0,089	-0,021
-261,453	800,000	0,057	-0,135
-260,438	-15,808	-0,189	-0,086
-259,424	-75,136	-0,165	0,042
-258,409	-200,000	-0,012	-0,077
-257,395	-135,064	-0,009	0,001
-256,380	90,759	0,184	0,147
-255,365	-32,613	0,072	-0,028
-254,351	489,816	0,006	-0,010
-253,336	800,000	0,037	0,087
-252,322	800,000	-0,018	-0,054
-251,307	-200,000	0,022	-0,095
-250,292	437,146	0,093	0,146
-249,278	800,000	0,030	0,083
-248,263	-148,907	0,204	0,012
-247,249	257,394	-0,055	-0,067
-246,234	-200,000	-0,030	-0,148
-245,219	382,482	-0,036	-0,053
-244,205	226,093	0,029	0,033
-243,190	-200,000	-0,009	0,035
-242,176	27,756	0,158	-0,095
-241,161	-69,903	0,077	-0,021
-240,146	-200,000	0,013	0,086
-239,132	64,205	0,069	-0,050
-238,117	800,000	-0,033	-0,102
-237,103	561,901	0,074	-0,129
-236,088	-67,846	-0,062	-0,017
-235,073	-117,726	0,041	0,005
-234,059	800,000	0,052	-0,145
-233,044	-200,000	0,008	0,144
-232,030	-200,000	-0,037	0,239
-231,015	-200,000	0,013	-0,077
-230,000	723,296	0,030	0,058
-228,986	800,000	0,016	0,036
-227,971	-141,845	0,041	-0,003
-226,957	800,000	-0,020	0,057
-225,942	800,000	0,037	0,079
-224,927	391,264	-0,067	0,100
-223,913	-62,040	0,121	-0,036
-222,898	46,965	-0,022	0,015
-221,884	-200,000	-0,019	0,123
-220,869	-70,660	0,109	-0,029
-219,855	190,783	0,037	0,040
-218,840	-200,000	-0,008	-0,025
-217,825	-200,000	0,003	-0,016
-216,811	-200,000	0,000	0,128
-215,796	10,120	-0,071	-0,038
-214,782	775,157	0,013	-0,025
-213,767	800,000	-0,017	-0,045
-212,752	-200,000	0,026	-0,094
-211,738	-200,000	0,010	0,180
-210,723	-116,803	-0,088	0,011
-209,709	36,196	-0,116	-0,073
-208,694	-52,246	-0,089	-0,029
-207,679	-200,000	0,001	0,050
-206,665	-130,614	0,107	0,010
-205,650	-200,000	-0,006	-0,121
-204,636	-14,187	-0,082	-0,038
-203,621	10,274	0,052	0,028
-202,606	694,148	0,024	-0,045
-201,592	-200,000	0,013	-0,097
-200,577	800,000	-0,000	-0,001
-199,563	-200,000	-0,006	-0,068
-198,548	-37,714	-0,100	0,038
-197,533	-200,000	-0,018	0,234
-196,519	609,233	-0,023	0,040
-195,504	-22,050	-0,054	-0,023
-194,490	-93,620	-0,066	0,013
-193,475	-200,000	0,010	0,055
-192,460	114,673	0,092	-0,079
-191,446	800,000	-0,028	0,081
-190,431	80,589	0,151	0,116
-189,417	800,000	-0,038	-0,092
-188,402	528,759	-0,060	-0,101
-187,387	124,716	-0,044	0,039
-186,373	92,022	0,068	0,054
-185,358	-200,000	-0,019	-0,068
-184,344	20,394	0,110	0,063
-183,329	800,000	0,033	0,078
-182,315	800,000	0,035	0,083
-181,300	-200,000	0,011	-0,052
-180,285	-4,542	-0,078	-0,038
-179,271	800,000	-0,076	-0,168
-178,256	-176,998	-0,092	0,002
-177,242	-95,553	0,078	0,015
-176,227	-13,379	0,036	0,016
-175,212	-200,000	-0,014	-0,126
-174,198	-200,000	0,031	-0,148
-173,183	76,941	-0,106	0,080
-172,169	90,744	-0,118	-0,094
-171,154	-118,217	0,087	0,011
-170,139	21,704	0,029	-0,017
-169,125	517,907	0,093	0,155
-168,110	-200,000	0,036	0,127
-167,096	-78,658	0,114	-0,028
-166,081	364,828	-0,037	0,053
-165,066	-191,666	-0,080	0,001
-164,052	20,741	0,125	-0,072
-163,037	800,000	-0,058	-0,124
-162,023	-108,004	0,134	-0,021
-161,008	-200,000	-0,008	0,196
-159,993	800,000	-0,013	0,030
-158,979	650,228	0,045	-0,082
-157,964	-200,000	-0,029	0,147
-156,950	32,114	-0,046	-0,028
-155,935	-200,000	0,001	0,022
-154,920	-200,000	-0,007	0,035
-153,906	-139,089	0,024	-0,002
-152,891	-145,981	-0,101	-0,006
-151,877	-27,949	-0,086	-0,035
-150,862	-185,877	0,116	0,001
-149,847	-200,000	-0,032	-0,146
-148,833	330,840	0,058	-0,079
-147,818	800,000	-0,091	0,194
-146,804	76,045	0,089	0,067
-145,789	-53,069	-0,014	0,004
-144,775	800,000	-0,064	0,200
-143,760	129,399	-0,102	0,093
-142,745	343,709	-0,056	0,078
-141,731	-188,879	0,178	0,001
-140,716	9,930	-0,087	0,047
-139,702	489,349	-0,071	0,116
-138,687	-78,100	0,121	0,029
-137,672	20,289	0,095	-0,054
-136,658	-200,000	0,003	0,114
-135,643	1,414	0,079	0,040
-134,629	102,954	-0,059	-0,049
-133,614	-77,879	-0,014	0,003
-132,599	-200,000	-0,007	-0,101
-131,585	-156,817	-0,056	-0,002
-130,570	729,779	0,097	0,185
-129,556	-189,650	-0,080	0,001
-128,541	-15,655	0,047	-0,021
-127,526	-36,438	-0,037	0,014
-126,512	123,821	0,112	0,099
-125,497	-200,000	0,005	0,128
-124,483	128,847	-0,111	0,101
-123,468	-87,206	0,068	0,015
-122,453	-200,000	0,026	0,145
-121,439	713,617	0,053	-0,099
-120,424	288,660	-0,125	-0,161
-119,410	139,407	-0,059	-0,055
-118,395	800,000	-0,037	-0,093
-117,380	-128,745	-0,077	-0,008
-116,366	-200,000	0,033	0,115
-115,351	123,212	-0,109	0,097
-114,337	-0,474	-0,062	-0,031
-113,322	-200,000	0,022	-0,196
-112,307	-200,000	-0,009	0,045
-111,293	236,522	0,036	-0,042
-110,278	470,381	-0,030	0,049
-109,264	495,424	-0,116	0,190
-108,249	800,000	-0,004	0,008
-107,234	800,000	-0,021	-0,057
-106,220	-200,000	0,035	-0,161
-105,205	138,390	-0,070	-0,066
-104,191	-122,441	0,220	0,025
-103,176	408,989	0,039	0,058
-102,162	-95,684	-0,079	-0,015
-101,147	-200,000	0,019	-0,120
-100,132	22,510	-0,113	-0,066
-99,118	53,898	-0,053	-0,036
-98,103	-200,000	-0,010	0,036
-97,089	-7,966	-0,009	0,005
-96,074	368,652	-0,028	0,041
-95,059	213,449	0,142	-0,159
-94,045	-105,026	0,152	0,024
-93,030	463,539	0,059	0,094
-92,016	800,000	-0,068	-0,187
-91,001	153,853	0,076	-0,074
-89,986	800,000	-0,023	0,057
-88,972	-29,685	-0,042	0,017
-87,957	259,644	0,087	0,106
-86,943	594,326	0,044	-0,078
-85,928	-200,000	-0,010	-0,034
-84,913	400,569	0,069	0,104
-83,899	-104,396	-0,141	-0,023
-82,884	-46,743	0,198	-0,068
-81,870	-8,826	0,057	0,027
-80,855	-88,496	-0,091	0,019
-79,840	-42,994	0,104	0,037
-78,826	67,242	-0,078	0,057
-77,811	35,408	-0,057	-0,035
-76,797	-200,000	-0,015	0,065
-75,782	-5,867	-0,065	0,031
-74,767	262,898	0,036	0,045
-73,753	800,000	0,056	0,171
-72,738	-200,000	0,009	-0,031
-71,724	800,000	0,053	0,123
-70,709	37,853	-0,101	-0,064
-69,694	-33,094	-0,050	-0,019
-68,680	800,000	0,035	-0,087
-67,665	-71,540	-0,185	0,049
-66,651	76,407	-0,057	-0,043
-65,636	-200,000	-0,002	0,080
-64,622	800,000	0,037	0,094
-63,607	-200,000	0,011	-0,197
-62,592	160,458	0,064	0,063
-61,578	-154,249	0,035	0,002
-60,563	521,350	-0,049	0,082
-59,549	800,000	0,044	0,094
-58,534	-18,723	-1,659	-0,729
-57,519	379,086	-1,376	-2,001
-56,505	-200,000	-0,528	-4,682
-55,490	193,834	0,916	0,983
-54,476	800,000	4,925	11,636
-53,461	-200,000	19,265	320,961
-52,446	-200,000	741,657	2335,799
-51,432	572,622	1657,021	2871,226
-50,417	78,218	1672,580	1263,085
-49,403	21,328	1545,465	886,931
-48,388	15,199	1468,302	812,789
-47,373	17,955	1458,210	820,509
-46,359	16,636	1448,265	808,549
-45,344	13,465	1443,633	790,713
-44,330	13,378	1441,604	789,155
-43,315	13,393	1440,094	788,368
-42,300	13,424	1438,171	787,435
-41,286	13,392	1436,932	786,572
-40,271	13,360	1435,549	785,630
-39,257	13,327	1434,650	784,949
-38,242	13,429	1433,187	784,603
-37,227	13,442	1431,808	783,881
-36,213	13,414	1430,753	783,139
-35,198	13,408	1429,426	782,353
-34,184	13,480	1428,490	782,149
-33,169	13,409	1427,115	781,030
-32,154	13,457	1426,130	780,688
-31,140	13,435	1424,887	779,873
-30,125	13,473	1423,878	779,470
-29,111	13,486	1422,382	778,678
-28,096	13,446	1421,385	777,913
-27,082	13,352	1420,466	776,937
-26,067	13,405	1419,153	776,436
-25,052	13,433	1418,045	775,931
-24,038	13,354	1417,079	775,000
-23,023	13,304	1416,293	774,303
-22,009	13,359	1415,055	773,858
-20,994	13,284	1414,142	772,974
-19,979	13,345	1413,489	772,870
-18,965	13,275	1412,593	772,023
-17,950	13,311	1411,382	771,499
-16,936	13,314	1410,396	770,943
-15,921	13,292	1409,415	770,276
-14,906	13,281	1408,636	769,766
-13,892	13,294	1407,471	769,161
-12,877	13,319	1406,614	768,778
-11,863	13,275	1405,728	768,055
-10,848	13,293	1404,886	767,651
-9,833	13,233	1404,190	766,961
-8,819	13,241	1403,165	766,408
-7,804	13,213	1402,340	765,796
-6,790	13,222	1401,342	765,265
-5,775	13,227	1400,058	764,552
-4,760	13,201	1399,043	763,848
-3,746	13,185	1398,412	763,397
-2,731	13,220	1397,524	763,048
-1,717	13,169	1396,657	762,306
-0,702	13,122	1394,915	761,107
0,313	16,892	1311,340	733,015
1,327	33,115	703,863	430,964
2,342	51,219	123,232	82,631
3,356	2,270	16,611	8,472
4,371	3,609	3,288	1,692
5,386	25,076	0,530	0,311
6,400	-200,000	0,043	0,229
7,415	-50,865	-0,432	-0,143
8,429	310,626	-0,165	-0,219
9,444	60,611	-0,336	-0,235
10,459	43,193	-0,237	-0,153
11,473	-13,413	-0,428	-0,196
12,488	197,260	-0,191	-0,207
13,502	-43,133	-0,429	-0,153
14,517	344,161	-0,243	-0,338
15,531	-5,818	-0,433	-0,209
16,546	25,651	-0,324	-0,190
17,561	48,026	-0,503	-0,332
18,575	54,991	-0,178	-0,121
19,590	347,813	-0,182	-0,255
20,604	-46,646	-0,290	-0,100
21,619	33,506	-0,464	-0,284
22,634	82,996	-0,540	-0,415
23,648	73,031	-0,420	-0,310
24,663	47,045	-0,395	-0,259
25,677	107,871	-0,315	-0,265
26,692	36,312	-0,335	-0,208
27,707	68,165	-0,395	-0,285
28,721	-8,455	-0,351	-0,166
29,736	277,122	-0,196	-0,246
30,750	107,490	-0,395	-0,332
31,765	123,101	-0,410	-0,363
32,780	-4,966	-0,427	-0,207
33,794	9,661	-0,400	-0,213
34,809	81,276	-0,326	-0,249
35,823	-2,083	-0,262	-0,129
36,838	60,325	-0,338	-0,236
37,853	176,667	-0,318	-0,326
38,867	112,638	-0,419	-0,358
39,882	182,400	-0,331	-0,344
40,896	102,596	-0,372	-0,307
41,911	14,012	-0,303	-0,166
42,926	800,000	-0,143	-0,287
43,940	219,148	-0,253	-0,285
44,955	173,027	-0,294	-0,299
45,969	70,181	-0,375	-0,273
46,984	124,109	-0,373	-0,330
47,999	4,243	-0,240	-0,123
49,013	84,043	-0,402	-0,309
50,028	146,404	-0,318	-0,301
51,042	423,154	-0,191	-0,290
52,057	77,558	-0,336	-0,251
53,071	303,044	-0,261	-0,341
54,086	143,469	-0,250	-0,235
55,101	338,457	-0,254	-0,349
56,115	1,111	-0,322	-0,162
57,130	45,872	-0,344	-0,224
58,144	-6,709	-0,454	-0,217
59,159	6,664	-0,414	-0,216
60,174	-29,825	-0,445	-0,178
61,188	-24,297	-0,228	-0,095
62,203	-8,217	-0,367	-0,173
63,217	141,338	-0,280	-0,261
64,232	16,786	-0,454	-0,252
65,247	-35,943	-0,351	-0,133
66,261	193,037	-0,288	-0,306
67,276	24,266	-0,324	-0,188
68,290	13,232	-0,280	-0,152
69,305	117,112	-0,320	-0,277
70,320	-43,492	-0,396	-0,140
71,334	39,999	-0,313	-0,197
72,349	-18,935	-0,288	-0,125
73,363	-38,246	-0,373	-0,138
74,378	96,837	-0,329	-0,265
75,393	-24,635	-0,297	-0,124
76,407	192,950	-0,232	-0,247
77,422	4,757	-0,200	-0,103
78,436	120,459	-0,257	-0,225
79,451	12,706	-0,395	-0,214
80,466	-7,382	-0,409	-0,194
81,480	79,179	-0,210	-0,158
82,495	-26,149	-0,301	-0,124
83,509	6,615	-0,314	-0,164
84,524	433,507	-0,198	-0,303
85,539	192,079	-0,201	-0,213
86,553	28,152	-0,261	-0,155
87,568	136,127	-0,227	-0,208
88,582	89,052	-0,180	-0,140
89,597	114,643	-0,246	-0,210
90,611	40,699	-0,218	-0,138
91,626	31,949	-0,156	-0,094
92,641	136,962	-0,159	-0,146
93,655	44,826	-0,269	-0,173
94,670	-63,264	-0,420	-0,121
95,684	33,359	-0,461	-0,281
96,699	-42,665	-0,332	-0,118
97,714	-45,721	-0,307	-0,106
98,728	18,409	-0,290	-0,162
99,743	99,269	-0,374	-0,303
100,757	28,583	-0,352	-0,209
101,772	-41,888	-0,151	-0,054
102,787	35,429	-0,220	-0,135
103,801	-31,472	-0,307	-0,120
104,816	261,075	-0,130	-0,158
105,830	12,152	-0,330	-0,178
106,845	11,889	-0,233	-0,125
107,860	-85,709	-0,292	-0,063
108,874	-31,218	-0,245	-0,096
109,889	63,067	-0,259	-0,182
110,903	16,163	-0,367	-0,202
111,918	-159,994	-0,268	-0,010
112,933	70,033	-0,209	-0,151
113,947	170,166	-0,235	-0,236
114,962	-66,938	-0,273	-0,075
115,976	126,997	-0,219	-0,195
116,991	210,496	-0,279	-0,307
118,006	199,886	-0,213	-0,229
119,020	-37,669	-0,257	-0,095
120,035	32,670	-0,328	-0,198
121,049	104,362	-0,201	-0,165
122,064	48,638	-0,387	-0,254
123,079	200,635	-0,185	-0,199
124,093	50,953	-0,312	-0,206
125,108	666,364	-0,137	-0,250
126,122	472,361	-0,147	-0,233
127,137	14,768	-0,276	-0,151
128,151	112,433	-0,250	-0,212
129,166	40,301	-0,323	-0,203
130,181	6,533	-0,331	-0,172
131,195	183,959	-0,153	-0,159
132,210	160,292	-0,263	-0,257
133,224	-34,229	-0,331	-0,127
134,239	45,609	-0,174	-0,113
135,254	-190,446	-0,218	-0,002
136,268	53,769	-0,266	-0,178
137,283	127,248	-0,301	-0,267
138,297	800,000	-0,107	-0,215
139,312	287,525	-0,269	-0,341
140,327	187,312	-0,257	-0,269
141,341	143,320	-0,167	-0,156
142,356	-98,192	-0,265	-0,047
143,370	-42,367	-0,136	-0,048
144,385	-90,295	-0,352	-0,071
145,400	800,000	-0,117	-0,257
146,414	103,709	-0,315	-0,259
147,429	159,299	-0,336	-0,327
148,443	158,533	-0,269	-0,261
149,458	147,687	-0,239	-0,225
150,473	771,386	-0,173	-0,330
151,487	62,386	-0,262	-0,183
152,502	53,386	-0,190	-0,127
153,516	234,860	-0,190	-0,219
154,531	133,026	-0,296	-0,267
155,546	8,604	-0,235	-0,123
156,560	-65,561	-0,200	-0,056
157,575	16,063	-0,165	-0,090
158,589	-23,473	-0,241	-0,101
159,604	-54,105	-0,319	-0,101
160,619	-5,099	-0,340	-0,163
161,633	50,198	-0,348	-0,229
162,648	77,915	-0,277	-0,206
163,662	40,557	-0,272	-0,170
164,677	134,586	-0,162	-0,147
165,692	-80,089	-0,304	-0,071
166,706	20,664	-0,303	-0,171
167,721	-200,000	-0,167	-0,000
168,735	232,081	-0,271	-0,311
169,750	19,858	-0,382	-0,214
170,764	14,313	-0,294	-0,160
171,779	378,431	-0,124	-0,178
172,794	-131,335	-0,230	-0,021
173,808	-9,027	-0,199	-0,093
174,823	16,775	-0,361	-0,198
175,837	82,259	-0,172	-0,130
176,852	255,550	-0,207	-0,248
177,867	81,373	-0,238	-0,179
178,881	137,016	-0,182	-0,166
179,896	-99,405	-0,310	-0,054
180,910	129,574	-0,191	-0,170
181,925	260,143	-0,226	-0,272
182,940	134,033	-0,045	-0,041
183,954	387,041	-0,274	-0,395
184,969	10,975	-0,287	-0,152
185,983	232,653	-0,121	-0,139
186,998	-64,907	-0,127	-0,036
188,013	139,067	-0,210	-0,193
189,027	105,808	-0,300	-0,247
190,042	66,775	-0,210	-0,149
191,056	79,942	-0,226	-0,169
192,071	800,000	-0,123	-0,240
193,086	36,914	-0,178	-0,109
194,100	-107,695	-0,143	-0,021
195,115	163,587	-0,275	-0,270
196,129	185,677	-0,318	-0,329
197,144	67,047	-0,211	-0,149
198,159	363,487	-0,112	-0,157
199,173	92,564	-0,173	-0,136
200,188	-28,028	-0,137	0,055
201,202	159,587	-0,160	-0,155
202,217	-12,675	-0,307	-0,139
203,232	333,602	-0,140	-0,189
204,246	495,495	-0,113	-0,181
205,261	-7,304	-0,323	-0,152
206,275	-200,000	-0,047	-0,222
207,290	35,876	-0,253	-0,155
208,304	703,640	-0,082	-0,152
209,319	-96,030	-0,156	-0,029
210,334	-37,914	-0,273	-0,100
211,348	270,713	-0,249	-0,305
212,363	800,000	-0,108	-0,253
213,377	20,885	-0,152	-0,085
214,392	100,231	-0,140	-0,113
215,407	67,788	-0,322	-0,229
216,421	95,852	-0,118	-0,093
217,436	112,592	-0,169	-0,142
218,450	395,928	-0,173	-0,251
219,465	-20,468	-0,301	-0,128
220,480	111,858	-0,226	-0,189
221,494	-200,000	-0,072	-0,254
222,509	120,875	-0,219	-0,189
223,523	-75,618	-0,206	-0,050
224,538	626,434	-0,076	-0,134
225,553	328,920	-0,196	-0,262
226,567	800,000	-0,077	-0,165
227,582	343,397	-0,134	-0,183
228,596	462,898	-0,153	-0,237
229,611	-200,000	-0,025	-0,315
230,626	82,982	-0,172	-0,130
231,640	11,176	-0,237	-0,125
232,655	78,066	-0,203	-0,150
233,669	543,326	-0,137	-0,228
234,684	-143,523	-0,255	-0,017
235,699	-200,000	-0,092	-0,283
236,713	15,345	-0,196	-0,107
237,728	45,294	-0,144	-0,092
238,742	144,248	-0,207	-0,192
239,757	115,044	-0,235	-0,199
240,772	699,013	-0,144	-0,264
241,786	-100,397	-0,159	-0,027
242,801	86,061	-0,121	-0,092
243,815	-200,000	-0,065	-0,263
244,830	800,000	-0,053	-0,133
245,844	-103,315	-0,135	0,022
246,859	259,566	-0,173	-0,207
247,874	102,047	-0,300	-0,243
248,888	-9,511	-0,241	-0,111
249,903	774,517	-0,102	-0,193
250,917	-86,299	-0,176	-0,037
251,932	229,709	-0,120	-0,136
252,947	159,817	-0,130	-0,126
253,961	59,749	-0,225	-0,154
254,976	800,000	-0,066	-0,132
255,990	-200,000	-0,042	-0,246
257,005	68,326	-0,127	0,090
258,020	140,407	-0,240	-0,219
259,034	-159,324	-0,261	0,010
260,049	303,911	-0,197	-0,254
261,063	214,700	-0,119	-0,130
262,078	473,025	-0,131	-0,205
263,093	197,985	-0,149	-0,157
264,107	-1,017	-0,238	-0,116
265,122	117,466	-0,079	-0,067
266,136	-152,588	-0,080	0,004
267,151	155,487	-0,096	-0,092
268,166	-47,288	-0,242	-0,081
269,180	66,841	-0,246	-0,173
270,195	117,802	-0,150	-0,128
271,209	391,416	-0,086	-0,123
272,224	-70,316	-0,188	-0,049
273,239	800,000	-0,066	-0,174
274,253	-35,833	-0,169	-0,063
275,268	-100,956	-0,192	-0,032
276,282	800,000	-0,074	-0,176
277,297	-200,000	0,006	-0,234
278,312	74,295	-0,207	-0,150
279,326	18,520	-0,243	-0,134
280,341	130,611	-0,128	-0,113
281,355	323,717	-0,091	-0,120
282,370	74,899	-0,219	-0,159
283,384	244,794	-0,241	-0,280
284,399	271,791	-0,218	-0,266
285,414	-200,000	0,021	-0,256
286,428	701,566	-0,073	-0,133
287,443	142,450	-0,145	-0,133
288,457	314,620	-0,105	-0,137
289,472	-152,946	-0,223	0,011
290,487	-182,600	-0,151	-0,002
291,501	41,235	-0,152	-0,095
292,516	-142,210	-0,207	-0,014
293,530	-115,391	-0,167	-0,021
294,545	800,000	-0,034	0,097
295,560	134,433	-0,083	-0,074
296,574	42,871	-0,088	-0,055
297,589	201,847	-0,134	-0,143
298,603	30,719	-0,165	-0,097
299,618	-96,791	-0,316	-0,057
300,633	208,319	-0,079	-0,085
301,647	67,680	-0,168	-0,118
302,662	-192,244	-0,155	-0,001
303,676	5,590	-0,195	-0,099
304,691	-56,774	-0,231	-0,070
305,706	99,657	-0,163	-0,130
306,720	-16,760	-0,180	-0,078
307,735	-83,540	-0,244	-0,053
308,749	226,375	-0,071	-0,079
309,764	-139,799	-0,160	-0,012
310,779	380,588	-0,154	-0,219
311,793	111,700	-0,236	-0,196
312,808	46,058	-0,213	-0,136
313,822	149,638	-0,167	-0,155
314,837	246,974	-0,094	-0,110
315,852	-78,761	-0,162	0,038
316,866	-26,881	-0,043	-0,017
317,881	208,630	-0,086	-0,093
318,895	199,039	-0,150	-0,159
319,910	259,864	-0,124	-0,148
320,925	25,909	-0,145	-0,083
321,939	61,642	-0,203	-0,139
322,954	-20,753	-0,157	-0,066
323,968	104,364	0,076	-0,061
324,983	-200,000	0,002	-0,160
325,997	-79,096	-0,113	-0,026
327,012	-107,143	-0,191	0,029
328,027	-3,815	-0,238	-0,113
329,041	800,000	-0,084	-0,167
330,056	33,329	-0,005	-0,003
331,070	98,403	-0,055	0,043
332,085	782,733	-0,089	-0,169
333,100	-82,011	-0,198	-0,044
334,114	158,542	-0,136	-0,130
335,129	121,146	-0,152	-0,130
336,143	37,967	-0,197	-0,120
337,158	165,059	-0,099	-0,096
338,173	-200,000	-0,018	-0,065
339,187	40,180	-0,111	-0,068
340,202	-27,966	-0,151	-0,060
341,216	-37,241	-0,296	-0,108
342,231	159,428	-0,109	-0,105
343,246	-35,161	-0,138	-0,051
344,260	-122,516	-0,118	-0,013
345,275	282,501	-0,076	-0,094
346,289	144,143	-0,040	-0,037
347,304	-30,033	-0,239	-0,093
348,319	-56,110	-0,115	-0,035
349,333	165,132	-0,055	-0,053
350,348	-7,520	-0,270	-0,125
351,362	183,500	-0,129	-0,131
352,377	33,653	-0,076	-0,045
353,392	32,270	-0,087	0,051
354,406	456,496	-0,140	-0,215
355,421	210,846	1313,726	1418,640
356,435	162,332	1474,320	1419,122
