DTS Sentinel unit serial number:	SN410029Multiplexer serial number:	ORYXHardware model number:	OX2-SRSoftware version number:	ORYX F/W v4,00 Oryx Data Collector v3.7.2.0data status	okinstallation	B3 Nyhavnadifferential loss correction	single-endedforward channel	channel 1reverse channel	N/Adate	2023/12/01time	13:02:30forward acquisition time	300,00reverse acquisition time	0,00gamma	499,1914k internal	0,3213k external	0,3213temperature offset calibration	1,0000default loss term (dB/km)	0,3820temperature slope calibration	1,0000multiplexer offset coefficient	1,0000multiplexer slope coefficient	1,0000fibre end	0,00T internal ref (°C)	9,15T ext. ref 1 (°C)	-4,81T ext. ref 2 (°C)	-4,92length (m)	temperature (°C)	Stokes	anti-Stokes-744,400	256,336	-0,163	-0,203
-743,385	-200,000	0,038	0,236
-742,371	-200,000	-0,078	-0,277
-741,356	800,000	0,130	0,322
-740,342	-200,000	-0,047	-0,191
-739,327	-200,000	-0,019	0,227
-738,312	-86,977	-0,295	-0,065
-737,298	800,000	-0,069	0,220
-736,283	108,806	-0,164	-0,142
-735,269	-200,000	-0,081	0,475
-734,254	800,000	-0,078	-0,223
-733,239	-26,081	-0,156	0,066
-732,225	141,450	-0,167	-0,160
-731,210	53,194	0,100	0,070
-730,196	-130,532	-0,075	-0,007
-729,181	532,550	-0,049	0,085
-728,167	-109,430	-0,188	-0,028
-727,152	148,155	-0,055	-0,053
-726,137	800,000	0,025	0,075
-725,123	-66,216	-0,097	0,028
-724,108	-83,643	-0,110	0,025
-723,094	137,352	-0,071	0,068
-722,079	-200,000	0,015	-0,103
-721,064	800,000	0,032	-0,064
-720,050	-82,231	-0,094	0,022
-719,035	428,941	0,011	-0,017
-718,021	-115,054	-0,158	-0,022
-717,006	-11,186	-0,099	-0,047
-715,991	-200,000	0,028	-0,106
-714,977	-67,597	-0,158	-0,045
-713,962	-200,000	0,012	0,124
-712,948	-76,931	0,061	-0,015
-711,933	800,000	0,008	0,018
-710,918	-59,203	0,047	-0,015
-709,904	609,245	-0,082	-0,148
-708,889	-46,982	-0,087	0,031
-707,875	159,753	-0,068	0,069
-706,860	800,000	0,020	-0,041
-705,845	237,471	0,032	0,038
-704,831	193,967	0,135	-0,148
-703,816	719,611	-0,061	-0,118
-702,802	-139,933	0,032	-0,002
-701,787	-42,271	0,108	-0,040
-700,772	800,000	0,056	0,160
-699,758	0,744	-0,024	-0,013
-698,743	-150,568	-0,083	0,005
-697,729	-70,563	-0,123	-0,033
-696,714	-18,612	0,051	-0,023
-695,699	214,362	0,077	-0,088
-694,685	-126,546	-0,033	0,004
-693,670	202,617	-0,063	-0,070
-692,656	480,322	-0,040	0,066
-691,641	-96,996	0,034	0,006
-690,627	231,247	0,100	0,119
-689,612	160,969	-0,029	-0,029
-688,597	-66,305	-0,096	-0,027
-687,583	406,779	-0,050	-0,077
-686,568	-200,000	-0,029	-0,104
-685,554	82,504	-0,124	-0,097
-684,539	800,000	0,015	0,030
-683,524	-200,000	-0,011	-0,042
-682,510	-107,313	0,047	0,007
-681,495	-200,000	-0,008	-0,082
-680,481	-43,168	-0,183	-0,067
-679,466	-109,499	-0,062	-0,009
-678,451	-23,990	-0,041	-0,018
-677,437	-59,504	-0,103	0,032
-676,422	168,679	0,044	-0,046
-675,408	-66,886	0,110	0,031
-674,393	288,375	-0,019	-0,025
-673,378	110,689	-0,143	-0,124
-672,364	-76,347	-0,133	-0,034
-671,349	60,450	-0,050	-0,036
-670,335	197,915	0,066	0,073
-669,320	-96,903	-0,104	0,020
-668,305	800,000	-0,049	-0,124
-667,291	374,714	-0,039	-0,058
-666,276	-101,937	-0,049	-0,008
-665,262	19,564	-0,089	-0,052
-664,247	-200,000	-0,001	-0,082
-663,232	-200,000	0,000	-0,021
-662,218	-200,000	-0,007	0,104
-661,203	-154,746	-0,066	0,003
-660,189	165,001	0,040	-0,041
-659,174	20,391	-0,099	-0,057
-658,159	-69,637	-0,063	0,017
-657,145	64,824	-0,105	0,076
-656,130	156,649	0,017	-0,017
-655,116	464,132	0,068	-0,110
-654,101	388,091	-0,068	0,102
-653,086	-200,000	-0,002	0,140
-652,072	672,443	-0,064	-0,120
-651,057	800,000	-0,022	-0,051
-650,043	-200,000	-0,021	-0,142
-649,028	-200,000	0,003	-0,009
-648,014	800,000	0,024	0,078
-646,999	540,456	0,026	0,045
-645,984	92,056	-0,028	0,023
-644,970	532,704	-0,058	-0,099
-643,955	-200,000	-0,000	-0,039
-642,941	-52,472	-0,056	0,019
-641,926	800,000	-0,054	0,120
-640,911	-99,107	0,056	-0,010
-639,897	121,359	0,048	-0,044
-638,882	233,682	0,050	0,060
-637,868	181,102	-0,029	0,030
-636,853	390,165	-0,080	-0,120
-635,838	93,782	0,071	0,058
-634,824	190,558	0,066	-0,072
-633,809	800,000	0,044	-0,098
-632,795	-84,852	0,110	-0,025
-631,780	215,424	0,014	-0,016
-630,765	17,292	0,033	0,019
-629,751	-59,189	-0,105	0,032
-628,736	-200,000	-0,014	0,048
-627,722	-200,000	0,013	-0,084
-626,707	-136,843	-0,140	-0,011
-625,692	170,909	0,153	0,159
-624,678	-27,693	0,119	0,050
-623,663	-113,751	-0,106	0,015
-622,649	117,632	-0,073	0,065
-621,634	-42,941	-0,103	-0,037
-620,619	-200,000	0,024	-0,168
-619,605	-18,914	0,115	0,051
-618,590	71,301	0,124	0,093
-617,576	-11,792	-0,053	0,025
-616,561	800,000	-0,029	0,069
-615,546	-112,775	-0,022	0,003
-614,532	532,615	0,071	-0,122
-613,517	-200,000	-0,010	-0,057
-612,503	32,566	-0,005	-0,003
-611,488	-77,642	0,021	-0,005
-610,474	-143,263	0,159	0,011
-609,459	-139,755	0,012	-0,001
-608,444	25,968	-0,041	-0,025
-607,430	143,396	0,109	-0,104
-606,415	77,088	-0,126	-0,096
-605,401	-2,566	0,021	0,011
-604,386	-200,000	-0,030	0,149
-603,371	-200,000	0,014	0,080
-602,357	-200,000	-0,026	0,131
-601,342	-55,527	0,020	0,007
-600,328	-72,285	-0,153	-0,040
-599,313	-200,000	0,007	0,090
-598,298	-200,000	-0,031	-0,104
-597,284	227,408	0,079	0,092
-596,269	-200,000	0,018	0,096
-595,255	-200,000	-0,010	0,061
-594,240	-43,280	0,046	0,017
-593,225	-200,000	-0,015	-0,087
-592,211	49,255	-0,024	0,016
-591,196	47,592	0,005	-0,003
-590,182	-90,092	0,156	-0,032
-589,167	136,253	0,033	0,031
-588,152	19,742	-0,072	0,041
-587,138	395,568	-0,006	-0,010
-586,123	4,560	-0,085	-0,045
-585,109	255,552	-0,095	0,117
-584,094	-200,000	-0,004	-0,119
-583,079	-200,000	-0,012	-0,115
-582,065	-40,118	0,049	0,018
-581,050	-43,033	0,046	-0,017
-580,036	-200,000	-0,008	-0,072
-579,021	-200,000	0,033	0,179
-578,006	-200,000	0,010	-0,102
-576,992	-78,971	-0,030	-0,007
-575,977	554,247	0,063	0,109
-574,963	92,278	-0,062	-0,050
-573,948	800,000	-0,021	0,049
-572,934	720,455	-0,042	0,081
-571,919	121,217	-0,102	-0,091
-570,904	800,000	-0,010	-0,025
-569,890	-200,000	-0,041	-0,148
-568,875	-200,000	0,012	-0,061
-567,861	-200,000	0,039	0,160
-566,846	-74,886	-0,075	-0,019
-565,831	-97,017	0,015	-0,003
-564,817	101,466	0,018	-0,015
-563,802	294,765	0,124	-0,164
-562,788	376,391	0,052	-0,077
-561,773	-73,879	-0,003	-0,001
-560,758	-94,912	0,002	-0,000
-559,744	-200,000	-0,004	-0,040
-558,729	383,381	-0,068	-0,101
-557,715	-200,000	0,025	-0,098
-556,700	698,068	-0,063	-0,120
-555,685	-200,000	0,030	-0,136
-554,671	-113,360	0,059	-0,008
-553,656	-200,000	0,018	-0,057
-552,642	-200,000	-0,021	0,087
-551,627	-44,788	-0,144	0,051
-550,612	-6,342	0,101	0,050
-549,598	-200,000	-0,013	-0,126
-548,583	133,145	0,036	-0,033
-547,569	131,737	-0,117	-0,108
-546,554	-200,000	0,001	-0,095
-545,539	54,993	0,086	-0,059
-544,525	-200,000	-0,036	0,183
-543,510	800,000	0,024	-0,054
-542,496	30,407	-0,164	-0,100
-541,481	800,000	-0,026	-0,064
-540,466	-110,340	0,083	0,012
-539,452	-4,048	0,046	-0,023
-538,437	-35,414	0,111	-0,043
-537,423	-118,713	0,099	0,012
-536,408	25,450	0,091	-0,054
-535,393	322,600	-0,070	-0,096
-534,379	112,527	-0,110	-0,095
-533,364	-54,230	0,051	0,017
-532,350	370,967	-0,069	-0,101
-531,335	77,002	0,089	-0,068
-530,321	511,523	-0,080	0,134
-529,306	-200,000	-0,004	0,122
-528,291	-19,072	0,066	-0,029
-527,277	800,000	-0,048	-0,149
-526,262	-200,000	0,008	-0,114
-525,248	-34,834	-0,028	0,011
-524,233	-200,000	-0,029	-0,207
-523,218	313,483	-0,049	0,066
-522,204	64,281	-0,022	-0,016
-521,189	-200,000	-0,005	-0,034
-520,175	606,790	-0,084	0,150
-519,160	250,874	0,094	-0,115
-518,145	26,649	-0,087	0,052
-517,131	55,366	-0,080	-0,055
-516,116	5,337	-0,108	0,057
-515,102	-21,307	-0,157	-0,069
-514,087	-200,000	-0,019	-0,060
-513,072	74,603	-0,143	-0,108
-512,058	-200,000	0,015	-0,055
-511,043	43,411	0,072	0,047
-510,029	-200,000	0,063	0,239
-509,014	-64,973	-0,132	0,038
-507,999	-2,877	0,086	-0,043
-506,985	-1,529	-0,015	-0,008
-505,970	469,013	0,088	0,143
-504,956	-200,000	-0,023	-0,081
-503,941	800,000	-0,016	0,045
-502,926	131,113	0,100	-0,092
-501,912	-36,329	-0,102	0,039
-500,897	-200,000	-0,006	-0,150
-499,883	800,000	0,061	0,159
-498,868	44,831	-0,092	-0,061
-497,853	431,139	0,027	0,043
-496,839	242,033	-0,038	0,046
-495,824	133,459	0,019	-0,017
-494,810	800,000	0,033	-0,087
-493,795	-52,740	-0,149	-0,049
-492,781	800,000	0,041	0,126
-491,766	-119,718	-0,047	0,006
-490,751	204,469	-0,080	0,089
-489,737	-137,105	0,083	0,007
-488,722	-185,058	0,121	-0,001
-487,708	18,130	0,078	-0,044
-486,693	800,000	-0,046	0,095
-485,678	5,789	-0,099	0,052
-484,664	-200,000	0,015	-0,089
-483,649	4,660	-0,092	-0,048
-482,635	-200,000	-0,021	0,160
-481,620	75,557	0,021	-0,016
-480,605	39,983	-0,099	0,063
-479,591	-200,000	-0,001	0,170
-478,576	77,830	-0,131	0,100
-477,562	34,810	-0,126	-0,079
-476,547	217,662	-0,086	0,098
-475,532	-124,721	0,033	0,004
-474,518	-32,683	-0,128	-0,051
-473,503	270,967	0,065	0,083
-472,489	-200,000	0,004	0,079
-471,474	322,521	-0,047	-0,064
-470,459	800,000	0,039	-0,095
-469,445	-22,277	-0,036	-0,016
-468,430	-162,854	0,166	0,006
-467,416	-200,000	0,011	0,055
-466,401	800,000	-0,070	0,143
-465,386	170,697	-0,042	-0,043
-464,372	-167,822	0,007	0,000
-463,357	800,000	0,027	-0,063
-462,343	175,330	-0,079	-0,082
-461,328	-200,000	0,009	-0,033
-460,313	-65,354	-0,108	-0,031
-459,299	-200,000	0,003	-0,059
-458,284	-200,000	-0,006	0,139
-457,270	-148,953	0,034	0,002
-456,255	-57,159	-0,037	-0,012
-455,241	171,415	0,057	0,058
-454,226	15,117	0,019	-0,011
-453,211	150,603	0,044	0,043
-452,197	800,000	-0,018	0,035
-451,182	131,347	0,070	0,065
-450,168	-18,332	0,053	0,024
-449,153	800,000	0,011	0,025
-448,138	-200,000	0,007	-0,061
-447,124	798,416	-0,062	-0,123
-446,109	198,189	0,037	-0,040
-445,095	108,875	0,031	0,026
-444,080	-40,350	0,152	0,056
-443,065	129,807	-0,041	0,037
-442,051	800,000	-0,029	-0,089
-441,036	-200,000	-0,034	-0,107
-440,022	97,255	-0,057	-0,047
-439,007	-146,234	0,083	0,005
-437,992	-134,804	0,094	-0,008
-436,978	-200,000	0,018	0,124
-435,963	-200,000	0,001	0,006
-434,949	48,819	-0,078	0,052
-433,934	800,000	0,004	0,010
-432,919	800,000	-0,046	0,141
-431,905	67,871	-0,107	-0,078
-430,890	12,351	-0,037	-0,020
-429,876	664,098	-0,041	0,076
-428,861	36,782	0,024	0,015
-427,846	-106,551	-0,040	-0,006
-426,832	-200,000	0,024	-0,078
-425,817	75,379	0,100	-0,076
-424,803	-110,217	0,071	-0,010
-423,788	151,179	0,014	-0,014
-422,773	71,510	0,062	-0,046
-421,759	-42,224	0,117	0,042
-420,744	-200,000	-0,025	-0,116
-419,730	255,631	-0,017	-0,021
-418,715	-200,000	-0,000	-0,142
-417,701	221,235	-0,099	0,114
-416,686	-13,051	0,060	0,028
-415,671	635,127	0,045	0,082
-414,657	800,000	0,062	0,135
-413,642	-70,712	0,049	0,013
-412,628	671,126	-0,045	0,083
-411,613	382,132	-0,030	-0,045
-410,598	-200,000	0,009	-0,161
-409,584	-200,000	-0,007	-0,052
-408,569	245,868	0,080	0,096
-407,555	800,000	-0,046	0,119
-406,540	-38,436	0,077	-0,029
-405,525	-200,000	0,005	-0,116
-404,511	-200,000	0,005	-0,096
-403,496	-200,000	-0,041	0,143
-402,482	-46,576	0,146	0,051
-401,467	-200,000	-0,002	-0,096
-400,452	-200,000	-0,010	-0,035
-399,438	-104,537	-0,024	0,004
-398,423	-200,000	0,004	-0,150
-397,409	309,807	-0,043	0,058
-396,394	-200,000	-0,037	0,163
-395,379	131,217	0,073	0,067
-394,365	565,736	-0,012	0,021
-393,350	50,975	-0,119	0,081
-392,336	-200,000	-0,006	-0,075
-391,321	-35,287	-0,088	-0,034
-390,306	108,025	0,032	0,027
-389,292	102,983	0,045	-0,038
-388,277	655,411	-0,036	-0,067
-387,263	-4,256	-0,074	-0,036
-386,248	-81,406	0,178	-0,042
-385,233	154,616	0,038	-0,037
-384,219	-200,000	-0,007	0,119
-383,204	800,000	0,089	0,192
-382,190	800,000	0,017	-0,052
-381,175	71,634	-0,117	-0,086
-380,160	-200,000	-0,011	0,124
-379,146	-200,000	0,022	0,143
-378,131	800,000	-0,015	-0,038
-377,117	15,348	0,035	-0,019
-376,102	-31,385	-0,116	0,046
-375,088	36,071	0,022	0,014
-374,073	-200,000	-0,038	-0,146
-373,058	173,403	0,133	0,137
-372,044	352,919	-0,075	0,107
-371,029	800,000	-0,057	0,176
-370,015	179,417	0,016	-0,016
-369,000	135,818	0,069	-0,064
-367,985	-200,000	0,015	0,143
-366,971	106,380	-0,038	0,032
-365,956	-8,582	0,051	0,024
-364,942	294,189	0,087	0,114
-363,927	502,209	0,049	0,082
-362,912	-200,000	-0,036	0,152
-361,898	12,013	0,127	0,069
-360,883	800,000	-0,035	-0,099
-359,869	-82,466	0,070	-0,016
-358,854	-57,255	-0,013	-0,004
-357,839	20,210	0,050	0,029
-356,825	800,000	0,091	0,190
-355,810	-100,557	-0,057	0,010
-354,796	-200,000	0,006	-0,087
-353,781	9,448	-0,113	-0,061
-352,766	555,634	0,070	0,121
-351,752	-200,000	-0,004	0,033
-350,737	214,574	0,086	0,097
-349,723	15,929	-0,071	0,040
-348,708	-200,000	0,009	0,098
-347,693	48,620	-0,089	0,059
-346,679	-112,987	0,053	-0,007
-345,664	157,307	-0,068	0,067
-344,650	-155,964	0,176	0,008
-343,635	4,363	0,109	-0,057
-342,620	800,000	0,018	0,035
-341,606	-188,699	0,066	-0,001
-340,591	81,764	-0,084	0,064
-339,577	-200,000	-0,026	-0,124
-338,562	-124,376	-0,093	-0,010
-337,548	800,000	-0,062	-0,132
-336,533	17,282	0,096	-0,054
-335,518	273,497	0,093	0,117
-334,504	69,656	0,057	-0,042
-333,489	-200,000	-0,013	0,068
-332,475	759,483	-0,039	-0,077
-331,460	40,900	-0,041	0,026
-330,445	-200,000	0,021	-0,081
-329,431	33,464	0,061	0,038
-328,416	376,336	0,003	-0,004
-327,402	567,795	0,025	-0,044
-326,387	-200,000	-0,013	-0,140
-325,372	-150,714	-0,085	-0,005
-324,358	-200,000	-0,023	0,147
-323,343	340,520	-0,056	-0,078
-322,329	258,680	-0,040	0,049
-321,314	800,000	-0,060	0,163
-320,299	158,399	0,041	0,041
-319,285	-200,000	-0,005	0,044
-318,270	72,405	-0,181	0,134
-317,256	301,880	-0,041	-0,054
-316,241	473,365	0,017	-0,028
-315,226	-200,000	0,009	0,088
-314,212	800,000	0,024	-0,051
-313,197	-151,683	0,102	0,005
-312,183	444,372	0,016	-0,024
-311,168	800,000	0,053	-0,134
-310,153	-116,834	-0,091	-0,012
-309,139	800,000	0,045	-0,129
-308,124	75,899	0,025	-0,019
-307,110	193,383	0,035	0,037
-306,095	440,959	-0,053	0,083
-305,080	253,409	0,059	-0,072
-304,066	-28,074	-0,080	0,033
-303,051	-200,000	-0,040	-0,132
-302,037	-97,405	-0,145	-0,027
-301,022	80,061	0,037	0,028
-300,008	106,469	-0,145	0,123
-298,993	75,980	0,099	-0,074
-297,978	-200,000	-0,011	0,124
-296,964	5,693	0,020	0,010
-295,949	-103,498	-0,068	0,011
-294,935	12,550	-0,030	0,016
-293,920	-70,954	0,131	-0,035
-292,905	-114,369	0,207	-0,028
-291,891	169,061	0,085	0,087
-290,876	800,000	0,009	-0,019
-289,862	-200,000	0,012	-0,054
-288,847	-200,000	0,012	-0,207
-287,832	120,008	-0,026	-0,023
-286,818	80,017	0,013	-0,010
-285,803	-3,062	0,185	0,092
-284,789	374,103	-0,021	-0,030
-283,774	759,351	0,043	0,082
-282,759	-170,901	0,055	-0,001
-281,745	161,563	-0,032	-0,032
-280,730	276,914	0,063	0,080
-279,716	-69,942	-0,083	0,022
-278,701	-200,000	-0,023	0,097
-277,686	-94,510	0,096	-0,018
-276,672	159,364	0,042	0,041
-275,657	800,000	0,067	-0,141
-274,643	800,000	0,027	-0,062
-273,628	800,000	0,025	0,056
-272,613	800,000	0,011	0,022
-271,599	-49,596	-0,103	0,035
-270,584	211,633	0,066	-0,073
-269,570	574,648	-0,007	0,012
-268,555	-148,922	-0,126	0,007
-267,540	-23,036	0,123	-0,053
-266,526	151,951	-0,023	-0,022
-265,511	115,433	0,087	-0,075
-264,497	-60,655	-0,057	-0,017
-263,482	109,625	0,117	0,100
-262,467	338,017	-0,085	0,118
-261,453	478,731	-0,058	0,093
-260,438	-110,670	-0,129	0,019
-259,424	542,407	-0,056	-0,095
-258,409	-200,000	0,012	-0,050
-257,395	-80,491	-0,099	-0,023
-256,380	-200,000	-0,004	0,035
-255,365	-122,097	0,135	-0,016
-254,351	87,055	-0,115	-0,090
-253,336	257,081	-0,030	-0,037
-252,322	87,140	-0,114	-0,089
-251,307	-49,230	-0,046	-0,016
-250,292	-200,000	-0,005	-0,034
-249,278	-200,000	0,014	-0,152
-248,263	-200,000	0,028	0,143
-247,249	320,627	0,029	0,040
-246,234	-200,000	0,025	-0,151
-245,219	-140,627	0,081	0,006
-244,205	-200,000	-0,016	-0,101
-243,190	-200,000	-0,015	-0,061
-242,176	-71,679	0,119	0,031
-241,161	800,000	-0,016	0,041
-240,146	41,306	0,133	0,085
-239,132	20,929	0,067	0,039
-238,117	0,391	-0,093	-0,047
-237,103	-200,000	0,012	0,106
-236,088	-200,000	-0,019	-0,089
-235,073	139,251	-0,033	-0,031
-234,059	-141,947	0,159	0,011
-233,044	-200,000	-0,014	-0,066
-232,030	-65,547	0,136	0,038
-231,015	323,808	0,049	-0,066
-230,000	59,098	-0,050	-0,035
-228,986	800,000	0,008	-0,022
-227,971	800,000	0,027	0,077
-226,957	363,092	0,088	0,125
-225,942	180,041	-0,122	0,127
-224,927	-185,490	-0,058	0,001
-223,913	800,000	-0,038	0,081
-222,898	-200,000	0,002	-0,028
-221,884	-107,063	0,103	0,016
-220,869	-200,000	0,011	0,111
-219,855	800,000	0,039	0,099
-218,840	-77,697	-0,056	-0,014
-217,825	-200,000	-0,023	-0,097
-216,811	191,498	-0,055	-0,059
-215,796	214,843	0,040	-0,045
-214,782	47,245	0,085	-0,056
-213,767	-47,784	-0,132	0,045
-212,752	-56,628	0,125	0,039
-211,738	-200,000	0,000	0,015
-210,723	183,573	-0,088	-0,092
-209,709	84,625	-0,081	0,063
-208,694	-63,005	-0,164	0,048
-207,679	472,267	-0,059	-0,095
-206,665	133,485	0,061	-0,056
-205,650	-200,000	0,000	-0,021
-204,636	-1,208	0,152	-0,076
-203,621	800,000	-0,021	0,045
-202,606	118,227	-0,084	0,074
-201,592	169,305	0,058	0,059
-200,577	207,697	0,088	0,098
-199,563	81,781	-0,059	0,045
-198,548	800,000	0,085	0,205
-197,533	800,000	0,053	0,128
-196,519	521,672	0,015	-0,025
-195,504	173,023	-0,035	0,035
-194,490	92,265	-0,156	-0,124
-193,475	52,090	-0,096	-0,065
-192,460	452,829	-0,069	-0,108
-191,446	437,389	0,053	-0,082
-190,431	5,655	0,033	0,017
-189,417	-200,000	-0,001	-0,057
-188,402	15,184	0,074	0,041
-187,387	113,813	-0,021	-0,018
-186,373	-200,000	-0,002	-0,035
-185,358	800,000	0,008	-0,022
-184,344	538,042	0,022	0,036
-183,329	269,740	-0,081	0,101
-182,315	-76,918	0,117	0,029
-181,300	-4,688	0,018	-0,009
-180,285	-200,000	0,020	-0,083
-179,271	624,205	-0,069	-0,123
-178,256	-198,651	-0,065	-0,000
-177,242	-43,497	0,059	0,021
-176,227	800,000	0,052	-0,108
-175,212	-200,000	-0,004	-0,073
-174,198	23,661	-0,129	-0,075
-173,183	-200,000	0,002	-0,126
-172,169	-200,000	-0,021	0,069
-171,154	-111,660	0,119	-0,017
-170,139	-98,968	0,057	-0,010
-169,125	-195,673	-0,104	0,001
-168,110	-200,000	-0,006	0,023
-167,096	601,694	-0,025	-0,043
-166,081	-88,864	0,020	0,004
-165,066	-200,000	-0,012	-0,066
-164,052	-188,544	-0,067	-0,001
-163,037	-73,414	-0,113	0,029
-162,023	-139,844	0,132	-0,010
-161,008	-4,931	-0,098	0,048
-159,993	800,000	-0,007	0,017
-158,979	-200,000	-0,010	-0,070
-157,964	-121,487	-0,020	0,002
-156,950	-86,331	-0,060	0,013
-155,935	435,696	-0,057	0,088
-154,920	-200,000	-0,010	-0,072
-153,906	800,000	0,026	-0,066
-152,891	63,846	0,029	0,021
-151,877	404,160	-0,111	-0,166
-150,862	-59,898	-0,093	-0,028
-149,847	-67,808	0,048	0,013
-148,833	312,177	-0,014	-0,019
-147,818	169,699	0,035	0,036
-146,804	800,000	-0,031	0,073
-145,789	800,000	0,039	0,104
-144,775	-8,429	-0,037	0,018
-143,760	279,025	-0,074	-0,094
-142,745	-28,260	-0,155	0,063
-141,731	136,738	0,028	-0,026
-140,716	-98,395	0,096	-0,017
-139,702	23,762	0,047	0,028
-138,687	286,318	0,025	-0,032
-137,672	-200,000	0,011	-0,038
-136,658	-200,000	-0,005	0,017
-135,643	598,861	-0,058	-0,103
-134,629	5,237	-0,051	-0,027
-133,614	-200,000	0,001	-0,004
-132,599	122,542	0,157	0,139
-131,585	49,045	0,080	-0,053
-130,570	382,061	-0,130	0,189
-129,556	-200,000	0,033	0,146
-128,541	-92,715	-0,253	-0,050
-127,526	-200,000	0,021	0,107
-126,512	-200,000	0,035	0,137
-125,497	-200,000	-0,015	-0,270
-124,483	-139,876	0,076	0,006
-123,468	-120,093	-0,043	-0,005
-122,453	-200,000	-0,033	-0,123
-121,439	800,000	-0,008	-0,024
-120,424	-200,000	-0,041	0,145
-119,410	360,365	-0,022	-0,031
-118,395	612,981	0,006	-0,011
-117,380	64,467	0,020	0,014
-116,366	149,692	-0,050	-0,048
-115,351	-200,000	0,010	0,090
-114,337	109,041	0,047	0,039
-113,322	174,185	-0,067	-0,068
-112,307	-200,000	0,002	-0,045
-111,293	-200,000	0,026	0,082
-110,278	149,487	0,140	0,134
-109,264	226,263	-0,045	0,052
-108,249	-200,000	0,000	-0,041
-107,234	90,086	-0,043	-0,034
-106,220	800,000	-0,021	0,058
-105,205	-197,222	0,091	0,000
-104,191	-19,438	0,214	-0,093
-103,176	160,481	0,076	-0,075
-102,162	-167,100	-0,008	-0,000
-101,147	401,661	-0,027	-0,039
-100,132	526,249	-0,080	-0,134
-99,118	-200,000	-0,026	-0,122
-98,103	77,611	0,080	0,060
-97,089	268,896	-0,064	0,079
-96,074	69,762	-0,096	0,070
-95,059	-50,341	-0,134	0,044
-94,045	-16,750	0,080	0,035
-93,030	800,000	-0,037	0,079
-92,016	-62,024	-0,096	-0,028
-91,001	424,991	-0,033	-0,050
-89,986	800,000	0,041	0,103
-88,972	766,423	0,045	0,087
-87,957	-150,400	0,029	-0,002
-86,943	800,000	-0,041	0,089
-85,928	586,706	-0,040	-0,070
-84,913	-200,000	0,064	-0,209
-83,899	-58,892	-0,132	-0,040
-82,884	-200,000	0,026	0,146
-81,870	20,625	0,096	0,055
-80,855	-73,403	0,034	-0,009
-79,840	200,726	-0,021	-0,022
-78,826	-3,932	-0,107	-0,052
-77,811	245,691	-0,038	-0,046
-76,797	-200,000	-0,000	0,040
-75,782	365,613	-0,095	0,135
-74,767	-11,996	0,091	0,042
-73,753	800,000	0,010	0,030
-72,738	-200,000	0,004	0,053
-71,724	759,363	-0,029	-0,055
-70,709	800,000	0,084	-0,212
-69,694	0,519	-0,055	-0,028
-68,680	-43,892	0,128	-0,045
-67,665	-129,806	0,072	0,007
-66,651	800,000	0,057	0,173
-65,636	-112,809	-0,128	-0,018
-64,622	-64,712	-0,097	-0,028
-63,607	-116,657	0,095	0,012
-62,592	75,007	0,094	-0,070
-61,578	-200,000	0,001	0,027
-60,563	-200,000	0,022	0,182
-59,549	315,517	-0,087	0,116
-58,534	59,053	-2,020	-1,400
-57,519	465,619	-1,219	-1,932
-56,505	-200,000	-0,385	-4,525
-55,490	664,001	0,827	1,512
-54,476	800,000	5,126	11,309
-53,461	-200,000	21,971	342,087
-52,446	800,000	762,803	2314,732
-51,432	536,535	1659,474	2789,286
-50,417	69,997	1656,862	1204,366
-49,403	16,845	1530,870	852,302
-48,388	11,024	1454,926	781,925
-47,373	19,177	1447,058	816,716
-46,359	14,391	1435,587	787,507
-45,344	9,275	1431,817	761,092
-44,330	9,234	1429,715	759,751
-43,315	9,175	1428,096	758,578
-42,300	9,205	1426,246	757,710
-41,286	9,230	1424,929	757,096
-40,271	9,173	1423,881	756,239
-39,257	9,236	1422,533	755,793
-38,242	9,262	1421,380	755,274
-37,227	9,213	1420,500	754,543
-36,213	9,295	1419,009	754,106
-35,198	9,161	1418,196	753,014
-34,184	9,300	1417,062	753,035
-33,169	9,166	1415,541	751,566
-32,154	9,183	1414,693	751,169
-31,140	9,188	1413,255	750,399
-30,125	9,249	1412,112	750,047
-29,111	9,203	1410,962	749,192
-28,096	9,225	1409,824	748,662
-27,082	9,179	1408,459	747,690
-26,067	9,146	1407,635	747,071
-25,052	9,170	1406,522	746,561
-24,038	9,241	1405,367	746,249
-23,023	9,167	1404,626	745,481
-22,009	9,132	1403,526	744,703
-20,994	9,193	1402,548	744,441
-19,979	9,155	1401,775	743,824
-18,965	9,131	1400,656	743,091
-17,950	9,155	1399,652	742,638
-16,936	9,106	1398,834	741,945
-15,921	9,059	1397,980	741,248
-14,906	9,120	1396,974	740,966
-13,892	9,151	1395,841	740,479
-12,877	9,123	1395,143	739,952
-11,863	9,135	1394,405	739,587
-10,848	9,061	1393,329	738,643
-9,833	9,044	1392,556	738,123
-8,819	9,014	1391,528	737,413
-7,804	8,984	1390,833	736,874
-6,790	8,985	1389,664	736,232
-5,775	9,004	1388,495	735,670
-4,760	9,077	1387,588	735,497
-3,746	9,035	1386,658	734,782
-2,731	9,046	1385,788	734,344
-1,717	9,001	1384,980	733,676
-0,702	9,012	1383,197	732,756
0,313	12,990	1295,023	704,192
1,327	28,904	685,548	408,630
2,342	45,200	118,292	76,727
3,356	1,764	16,658	8,433
4,371	-3,015	3,839	1,882
5,386	-0,650	1,292	0,643
6,400	800,000	0,190	0,538
7,415	-36,443	-0,180	0,068
8,429	121,316	-0,229	-0,200
9,444	-74,156	-0,373	-0,094
10,459	140,971	-0,183	-0,171
11,473	24,840	-0,329	-0,191
12,488	271,101	-0,178	-0,221
13,502	-104,362	-0,378	-0,061
14,517	-88,639	-0,262	-0,054
15,531	-9,636	-0,373	-0,175
16,546	24,693	-0,295	-0,172
17,561	315,565	-0,179	-0,239
18,575	63,555	-0,248	-0,175
19,590	97,514	-0,259	-0,209
20,604	-36,223	-0,213	-0,080
21,619	96,284	-0,301	-0,242
22,634	9,999	-0,474	-0,252
23,648	76,022	-0,395	-0,294
24,663	267,544	-0,267	-0,329
25,677	331,437	-0,257	-0,350
26,692	-48,049	-0,358	-0,121
27,707	-68,231	-0,422	-0,115
28,721	-8,791	-0,332	-0,156
29,736	87,285	-0,424	-0,329
30,750	23,064	-0,461	-0,266
31,765	69,961	-0,415	-0,301
32,780	106,234	-0,364	-0,303
33,794	11,725	-0,315	-0,169
34,809	56,783	-0,344	-0,235
35,823	111,400	-0,336	-0,285
36,838	-4,053	-0,511	-0,248
37,853	27,926	-0,280	-0,166
38,867	-39,541	-0,348	-0,127
39,882	247,789	-0,254	-0,302
40,896	10,896	-0,338	-0,181
41,911	-6,049	-0,324	-0,155
42,926	46,394	-0,413	-0,269
43,940	120,974	-0,331	-0,289
44,955	235,394	-0,276	-0,321
45,969	272,726	-0,284	-0,352
46,984	85,261	-0,263	-0,202
47,999	14,796	-0,297	-0,162
49,013	130,401	-0,436	-0,392
50,028	1,307	-0,296	-0,149
51,042	76,866	-0,201	-0,150
52,057	211,426	-0,253	-0,280
53,071	-12,596	-0,373	-0,170
54,086	417,314	-0,192	-0,288
55,101	139,733	-0,246	-0,227
56,115	-75,668	-0,442	-0,109
57,130	-81,704	-0,416	-0,095
58,144	134,393	-0,348	-0,317
59,159	213,177	-0,379	-0,420
60,174	66,041	-0,352	-0,250
61,188	148,594	-0,261	-0,247
62,203	-112,408	-0,267	-0,037
63,217	-5,169	-0,260	-0,125
64,232	-12,028	-0,266	-0,122
65,247	92,005	-0,242	-0,191
66,261	-1,045	-0,362	-0,179
67,276	11,965	-0,455	-0,244
68,290	-93,571	-0,289	-0,056
69,305	-0,222	-0,288	-0,143
70,320	-107,142	-0,208	-0,032
71,334	-39,613	-0,467	-0,170
72,349	5,839	-0,314	-0,162
73,363	70,340	-0,336	-0,243
74,378	13,090	-0,187	-0,101
75,393	-9,189	-0,338	-0,158
76,407	87,052	-0,205	-0,158
77,422	62,947	-0,243	-0,170
78,436	87,269	-0,219	-0,169
79,451	13,300	-0,303	-0,164
80,466	85,177	-0,322	-0,247
81,480	-38,756	-0,401	-0,147
82,495	53,848	-0,330	-0,222
83,509	179,406	-0,194	-0,199
84,524	-29,202	-0,318	-0,127
85,539	71,826	-0,135	-0,098
86,553	706,312	-0,125	-0,232
87,568	31,154	-0,289	-0,173
88,582	-31,701	-0,242	-0,095
89,597	233,590	-0,152	-0,176
90,611	77,492	-0,241	-0,179
91,626	-5,249	-0,404	-0,193
92,641	-0,759	-0,204	-0,101
93,655	-119,869	-0,349	-0,042
94,670	94,442	-0,329	-0,261
95,684	16,243	-0,277	-0,152
96,699	-23,122	-0,337	-0,141
97,714	218,977	-0,261	-0,292
98,728	92,864	-0,226	-0,178
99,743	-117,722	-0,258	-0,032
100,757	7,355	-0,222	-0,115
101,772	-13,352	-0,361	-0,163
102,787	-4,113	-0,291	-0,141
103,801	232,410	-0,227	-0,261
104,816	233,819	-0,278	-0,320
105,830	-33,149	-0,321	-0,124
106,845	186,062	-0,187	-0,194
107,860	45,480	-0,218	-0,140
108,874	85,736	-0,237	-0,181
109,889	97,432	-0,290	-0,232
110,903	280,912	-0,147	-0,184
111,918	159,642	-0,275	-0,267
112,933	-118,391	-0,219	0,027
113,947	218,227	-0,138	-0,154
114,962	-107,506	-0,336	-0,051
115,976	264,755	-0,232	-0,283
116,991	94,535	-0,325	-0,258
118,006	160,979	-0,099	-0,097
119,020	-21,146	-0,233	-0,099
120,035	-142,828	-0,254	-0,017
121,049	190,778	-0,166	-0,174
122,064	-96,845	-0,375	-0,068
123,079	187,767	-0,140	-0,146
124,093	-44,684	-0,324	-0,112
125,108	74,957	-0,241	-0,177
126,122	139,837	-0,294	-0,270
127,137	-41,524	-0,263	-0,094
128,151	-34,175	-0,227	-0,086
129,166	800,000	-0,107	-0,209
130,181	38,610	-0,220	-0,137
131,195	33,897	-0,247	-0,150
132,210	67,600	-0,246	-0,175
133,224	7,500	-0,277	-0,144
134,239	132,752	-0,229	-0,206
135,254	65,362	-0,273	-0,192
136,268	-78,929	-0,165	-0,039
137,283	150,524	-0,175	-0,166
138,297	-84,667	-0,363	-0,079
139,312	151,725	-0,163	-0,155
140,327	650,829	-0,176	-0,316
141,341	321,720	-0,185	-0,246
142,356	53,943	-0,235	-0,157
143,370	325,316	-0,189	-0,252
144,385	3,634	-0,359	-0,182
145,400	121,858	-0,241	-0,209
146,414	-70,827	-0,217	-0,057
147,429	-78,563	-0,243	-0,057
148,443	-174,018	-0,350	0,007
149,458	-147,160	-0,285	-0,017
150,473	-7,601	-0,180	-0,084
151,487	-11,175	-0,272	-0,124
152,502	56,656	-0,214	-0,144
153,516	99,681	-0,237	-0,191
154,531	87,107	-0,266	-0,204
155,546	218,842	-0,146	-0,162
156,560	3,109	-0,151	-0,076
157,575	9,724	-0,258	-0,136
158,589	75,988	-0,306	-0,225
159,604	-107,323	-0,199	-0,030
160,619	113,750	-0,248	-0,210
161,633	85,760	-0,234	-0,178
162,648	4,172	-0,224	-0,114
163,662	-106,630	-0,240	-0,037
164,677	-64,221	-0,264	-0,074
165,692	156,420	-0,192	-0,184
166,706	214,831	-0,227	-0,251
167,721	501,067	-0,199	-0,321
168,735	143,520	-0,226	-0,209
169,750	514,284	-0,175	-0,285
170,764	-71,460	-0,321	-0,083
171,779	-55,365	-0,222	-0,069
172,794	67,999	-0,237	-0,168
173,808	316,068	-0,165	-0,217
174,823	800,000	-0,116	-0,230
175,837	-14,226	-0,254	-0,113
176,852	66,942	-0,239	-0,169
177,867	96,350	-0,223	-0,177
178,881	181,385	-0,155	-0,159
179,896	21,954	-0,139	-0,078
180,910	377,776	-0,137	-0,195
181,925	173,059	-0,291	-0,291
182,940	215,804	-0,140	-0,154
183,954	435,933	-0,131	-0,198
184,969	282,253	-0,199	-0,248
185,983	106,959	-0,203	-0,168
186,998	289,420	-0,132	-0,166
188,013	800,000	-0,054	-0,125
189,027	96,380	-0,179	-0,142
190,042	63,068	-0,251	-0,174
191,056	-200,000	-0,012	-0,117
192,071	171,680	-0,166	-0,165
193,086	-26,238	-0,259	-0,105
194,100	32,412	-0,124	-0,074
195,115	25,890	-0,139	-0,080
196,129	-16,689	-0,256	-0,112
197,144	156,678	-0,201	-0,192
198,159	30,589	-0,296	-0,175
199,173	800,000	-0,073	-0,171
200,188	36,737	-0,234	-0,143
201,202	177,912	-0,232	-0,234
202,217	411,297	-0,166	-0,244
203,232	-93,846	-0,256	-0,048
204,246	263,246	-0,129	-0,155
205,261	547,719	-0,152	-0,252
206,275	240,829	-0,135	-0,157
207,290	-88,189	-0,200	-0,041
208,304	-104,505	-0,057	-0,009
209,319	-54,586	-0,135	-0,042
210,334	800,000	-0,073	-0,192
211,348	-21,857	-0,212	-0,089
212,363	156,304	-0,267	-0,255
213,377	44,169	-0,116	-0,073
214,392	-42,123	-0,227	-0,080
215,407	800,000	-0,087	-0,256
216,421	-190,850	-0,180	0,001
217,436	145,363	-0,239	-0,221
218,450	-61,929	-0,158	-0,045
219,465	12,474	-0,178	-0,094
220,480	-55,898	-0,185	-0,057
221,494	-11,676	-0,143	0,065
222,509	800,000	-0,087	-0,200
223,523	-62,597	-0,209	-0,059
224,538	83,834	-0,060	-0,045
225,553	-8,522	-0,248	-0,115
226,567	13,282	-0,290	-0,155
227,582	738,418	-0,118	-0,221
228,596	102,745	-0,131	-0,106
229,611	-17,922	-0,134	-0,058
230,626	164,507	-0,186	-0,182
231,640	800,000	-0,147	-0,302
232,655	-77,596	-0,172	0,041
233,669	158,053	-0,277	-0,266
234,684	43,700	-0,243	-0,153
235,699	-37,036	-0,117	-0,043
236,713	-200,000	-0,080	-0,259
237,728	492,557	-0,134	-0,213
238,742	-30,139	-0,297	-0,116
239,757	629,418	-0,186	-0,326
240,772	212,910	-0,100	-0,109
241,786	146,844	-0,214	-0,199
242,801	82,292	-0,152	-0,114
243,815	-53,284	-0,194	0,061
244,830	249,303	-0,170	-0,199
245,844	-19,578	-0,121	0,051
246,859	500,139	-0,169	-0,270
247,874	181,362	-0,131	-0,133
248,888	55,608	-0,110	-0,074
249,903	-3,262	-0,064	-0,031
250,917	-55,800	-0,191	0,058
251,932	-27,567	-0,196	-0,078
252,947	-45,600	-0,234	-0,079
253,961	-4,000	-0,298	-0,142
254,976	40,685	-0,278	-0,172
255,990	800,000	-0,081	-0,172
257,005	100,018	-0,077	-0,061
258,020	-200,000	0,050	-0,186
259,034	35,756	-0,088	-0,053
260,049	-65,168	-0,132	-0,036
261,063	-121,483	-0,182	-0,021
262,078	-200,000	-0,021	-0,186
263,093	81,566	-0,193	-0,143
264,107	-80,416	-0,374	-0,085
265,122	-42,421	-0,064	0,022
266,136	-95,769	-0,179	-0,033
267,151	24,681	-0,212	-0,121
268,166	-85,410	-0,218	-0,046
269,180	234,660	-0,154	-0,175
270,195	-155,835	-0,078	-0,003
271,209	220,867	-0,126	-0,140
272,224	514,667	-0,117	-0,189
273,239	-110,290	-0,092	0,013
274,253	2,115	-0,211	-0,104
275,268	200,396	-0,127	-0,134
276,282	-87,697	-0,083	-0,017
277,297	51,130	-0,281	-0,183
278,312	698,511	-0,090	-0,163
279,326	-17,479	-0,107	-0,046
280,341	-51,501	-0,203	-0,065
281,355	-51,193	-0,141	0,045
282,370	-43,455	-0,143	-0,050
283,384	77,977	-0,240	-0,176
284,399	52,304	-0,189	-0,124
285,414	445,601	-0,144	-0,218
286,428	-200,000	-0,041	-0,150
287,443	-200,000	-0,012	-0,062
288,457	519,167	-0,068	-0,110
289,472	131,333	-0,101	-0,089
290,487	800,000	-0,069	-0,175
291,501	800,000	-0,065	-0,158
292,516	-200,000	-0,032	-0,146
293,530	306,483	-0,136	-0,175
294,545	107,348	-0,188	-0,154
295,560	-64,610	-0,151	-0,042
296,574	147,307	-0,086	-0,080
297,589	-5,218	-0,270	-0,127
298,603	91,224	-0,167	-0,129
299,618	215,692	-0,188	-0,205
300,633	-97,335	-0,198	-0,035
301,647	-200,000	-0,016	-0,097
302,662	518,365	-0,075	-0,122
303,676	-8,276	-0,211	-0,097
304,691	35,759	-0,087	-0,052
305,706	200,735	-0,214	-0,226
306,720	-3,782	-0,153	-0,073
307,735	479,613	-0,066	-0,102
308,749	311,396	-0,066	-0,085
309,764	-200,000	0,000	-0,087
310,779	536,282	-0,014	0,022
311,793	65,815	-0,182	-0,126
312,808	94,124	-0,260	-0,202
313,822	330,635	-0,069	-0,091
314,837	-33,522	-0,159	-0,060
315,852	-15,695	-0,153	0,067
316,866	260,022	-0,040	0,048
317,881	-47,438	-0,169	-0,056
318,895	108,804	-0,190	-0,156
319,910	150,983	-0,121	-0,113
320,925	82,690	-0,116	-0,087
321,939	-88,732	-0,165	-0,033
322,954	504,724	-0,100	-0,159
323,968	-93,851	-0,087	-0,016
324,983	76,947	-0,116	-0,084
325,997	68,797	-0,220	-0,155
327,012	227,666	-0,175	-0,195
328,027	-200,000	-0,051	-0,169
329,041	800,000	-0,093	-0,190
330,056	245,799	-0,157	-0,181
331,070	111,983	-0,173	-0,143
332,085	137,894	-0,201	-0,180
333,100	-47,921	-0,197	0,065
334,114	42,248	-0,196	-0,122
335,129	562,504	-0,069	-0,114
336,143	-52,318	-0,078	0,025
337,158	-14,496	-0,140	-0,061
338,173	-26,922	-0,113	-0,045
339,187	-149,525	-0,124	-0,007
340,202	148,615	-0,097	-0,090
341,216	-82,361	-0,161	0,035
342,231	-87,372	-0,231	-0,047
343,246	451,922	-0,048	-0,073
344,260	-108,010	-0,151	-0,022
345,275	-149,281	-0,162	-0,009
346,289	16,616	-0,060	-0,033
347,304	-56,889	-0,130	-0,039
348,319	175,417	-0,076	0,076
349,333	-108,410	-0,025	-0,004
350,348	14,634	-0,148	-0,079
351,362	179,522	-0,079	-0,079
352,377	192,877	-0,073	-0,075
353,392	-125,342	-0,137	-0,014
354,406	64,001	-0,082	-0,056
355,421	207,592	1311,592	1400,690
356,435	159,698	1471,891	1401,144
