DTS Sentinel unit serial number:	SN410029Multiplexer serial number:	ORYXHardware model number:	OX2-SRSoftware version number:	ORYX F/W v4,00 Oryx Data Collector v3.7.2.0data status	okinstallation	B3 Nyhavnadifferential loss correction	single-endedforward channel	channel 1reverse channel	N/Adate	2023/12/03time	11:42:30forward acquisition time	300,00reverse acquisition time	0,00gamma	499,1914k internal	0,3200k external	0,3200temperature offset calibration	1,0000default loss term (dB/km)	0,3820temperature slope calibration	1,0000multiplexer offset coefficient	1,0000multiplexer slope coefficient	1,0000fibre end	0,00T internal ref (°C)	13,59T ext. ref 1 (°C)	-0,97T ext. ref 2 (°C)	-0,98length (m)	temperature (°C)	Stokes	anti-Stokes-744,400	25,738	-0,322	-0,195
-743,385	-200,000	0,056	0,221
-742,371	800,000	-0,074	-0,223
-741,356	-200,000	-0,018	0,332
-740,342	8,339	-0,190	-0,104
-739,327	-200,000	-0,042	0,433
-738,312	679,301	-0,115	-0,218
-737,298	-200,000	-0,010	0,157
-736,283	800,000	-0,056	-0,114
-735,269	800,000	0,064	0,197
-734,254	222,965	-0,146	-0,171
-733,239	-43,891	-0,169	-0,061
-732,225	173,215	-0,170	-0,178
-731,210	78,239	0,085	0,066
-730,196	-200,000	0,001	-0,136
-729,181	-200,000	0,006	-0,075
-728,167	34,719	-0,135	0,085
-727,152	-118,063	-0,032	0,004
-726,137	-114,867	-0,052	0,007
-725,123	185,914	0,091	-0,098
-724,108	47,431	-0,039	-0,027
-723,094	-37,926	-0,090	-0,035
-722,079	217,446	-0,074	-0,086
-721,064	-1,509	0,042	-0,022
-720,050	89,149	0,129	0,104
-719,035	364,767	0,070	-0,102
-718,021	-200,000	0,003	-0,099
-717,006	800,000	0,056	-0,154
-715,991	-200,000	-0,016	0,076
-714,977	-142,839	-0,111	0,008
-713,962	-120,328	-0,095	0,012
-712,948	800,000	0,014	0,042
-711,933	800,000	-0,009	0,029
-710,918	-200,000	-0,009	0,063
-709,904	-151,158	-0,114	-0,006
-708,889	-105,444	0,081	0,013
-707,875	-83,792	-0,131	-0,030
-706,860	14,415	-0,107	-0,061
-705,845	248,138	0,074	0,091
-704,831	391,551	-0,042	0,064
-703,816	93,451	0,095	-0,078
-702,802	29,339	-0,090	-0,056
-701,787	189,906	-0,050	-0,055
-700,772	800,000	-0,040	-0,088
-699,758	541,530	-0,042	-0,073
-698,743	0,829	0,034	-0,017
-697,729	-200,000	-0,025	0,113
-696,714	123,373	-0,012	0,011
-695,699	49,796	0,100	0,069
-694,685	-122,432	-0,180	0,021
-693,670	-146,564	-0,138	0,009
-692,656	-200,000	-0,021	0,101
-691,641	-200,000	-0,025	0,159
-690,627	-180,297	-0,115	-0,002
-689,612	606,482	-0,037	-0,068
-688,597	130,146	0,044	0,041
-687,583	-109,428	-0,159	0,024
-686,568	707,563	-0,115	-0,221
-685,554	53,583	-0,122	-0,085
-684,539	38,579	0,096	0,062
-683,524	-200,000	-0,000	0,015
-682,510	-200,000	-0,004	0,061
-681,495	-200,000	-0,040	0,159
-680,481	-124,580	-0,102	-0,011
-679,466	84,004	-0,026	-0,020
-678,451	-88,760	-0,127	-0,027
-677,437	232,102	0,038	-0,046
-676,422	800,000	-0,011	-0,035
-675,408	-39,111	-0,047	-0,018
-674,393	-149,470	0,118	-0,007
-673,378	-118,945	-0,115	-0,014
-672,364	59,402	-0,079	-0,057
-671,349	-200,000	0,004	0,017
-670,335	800,000	-0,049	-0,118
-669,320	800,000	-0,014	-0,035
-668,305	16,239	0,108	0,062
-667,291	-200,000	-0,017	0,098
-666,276	510,643	-0,075	-0,126
-665,262	-138,496	0,022	-0,002
-664,247	-200,000	-0,014	0,073
-663,232	200,379	-0,024	0,027
-662,218	59,494	-0,091	0,065
-661,203	-200,000	0,016	0,054
-660,189	-200,000	-0,012	-0,121
-659,174	-200,000	-0,006	-0,076
-658,159	167,345	-0,038	-0,039
-657,145	-71,443	-0,065	0,017
-656,130	-130,815	-0,058	-0,006
-655,116	61,050	0,099	-0,071
-654,101	57,079	-0,096	-0,067
-653,086	-56,866	-0,136	0,043
-652,072	152,085	0,099	0,098
-651,057	-134,926	0,081	0,007
-650,043	-155,377	-0,034	-0,002
-649,028	-133,674	0,201	-0,018
-648,014	-200,000	-0,007	0,108
-646,999	357,834	0,050	0,072
-645,984	-200,000	-0,006	-0,085
-644,970	49,238	-0,106	-0,072
-643,955	-200,000	0,028	-0,093
-642,941	9,319	-0,093	0,051
-641,926	-200,000	0,005	-0,052
-640,911	547,252	0,022	0,038
-639,897	-122,335	0,155	0,018
-638,882	34,839	0,007	-0,005
-637,868	-126,040	-0,149	-0,016
-636,853	-200,000	-0,009	-0,093
-635,838	-200,000	0,019	-0,074
-634,824	-41,169	-0,021	-0,008
-633,809	137,386	-0,012	0,011
-632,795	-90,479	-0,166	-0,035
-631,780	217,103	0,097	0,112
-630,765	800,000	0,044	0,101
-629,751	-64,283	-0,072	-0,021
-628,736	-43,620	0,061	-0,022
-627,722	-160,511	0,171	0,007
-626,707	-79,543	0,090	-0,022
-625,692	-200,000	0,002	-0,011
-624,678	-200,000	-0,003	0,109
-623,663	30,110	-0,105	0,065
-622,649	-89,814	-0,020	-0,004
-621,634	270,978	-0,127	-0,162
-620,619	-24,774	0,158	0,068
-619,605	-110,626	-0,078	0,012
-618,590	206,628	-0,073	0,082
-617,576	-81,134	-0,054	-0,013
-616,561	-99,153	0,107	0,019
-615,546	800,000	0,026	-0,068
-614,532	800,000	-0,001	0,002
-613,517	800,000	0,017	-0,045
-612,503	177,682	0,100	0,105
-611,488	164,108	0,055	0,056
-610,474	-119,707	-0,065	-0,008
-609,459	255,875	0,074	0,092
-608,444	31,792	-0,055	-0,034
-607,430	-59,812	-0,140	0,043
-606,415	-200,000	-0,027	-0,118
-605,401	800,000	-0,028	0,068
-604,386	192,121	0,074	-0,081
-603,371	-200,000	-0,033	-0,156
-602,357	-200,000	-0,009	0,058
-601,342	-0,978	-0,065	-0,033
-600,328	544,628	-0,047	-0,081
-599,313	68,642	-0,047	-0,035
-598,298	-58,234	-0,093	0,029
-597,284	128,493	0,083	0,077
-596,269	799,653	0,052	-0,105
-595,255	-200,000	-0,023	-0,080
-594,240	32,370	-0,082	0,051
-593,225	188,954	-0,054	-0,058
-592,211	700,345	-0,036	-0,068
-591,196	224,413	0,058	0,068
-590,182	372,204	0,033	0,048
-589,167	800,000	0,057	0,115
-588,152	800,000	-0,003	-0,010
-587,138	722,997	-0,094	-0,182
-586,123	800,000	-0,001	0,003
-585,109	214,664	-0,063	0,072
-584,094	-27,980	-0,071	0,029
-583,079	19,416	0,112	0,065
-582,065	94,059	0,074	-0,061
-581,050	800,000	-0,044	0,127
-580,036	52,268	0,100	-0,069
-579,021	-113,738	-0,096	0,013
-578,006	371,743	-0,045	-0,066
-576,992	-67,425	-0,113	-0,032
-575,977	210,203	0,057	0,065
-574,963	23,730	0,018	-0,011
-573,948	-200,000	0,029	0,191
-572,934	-200,000	0,021	-0,153
-571,919	-33,263	-0,107	-0,042
-570,904	800,000	0,051	-0,126
-569,890	-124,974	0,107	0,012
-568,875	800,000	0,056	-0,140
-567,861	276,523	-0,054	0,070
-566,846	312,992	-0,048	-0,065
-565,831	-95,933	-0,055	-0,010
-564,817	-72,378	-0,063	0,017
-563,802	50,677	0,113	-0,077
-562,788	515,658	0,080	-0,136
-561,773	1,817	-0,017	-0,009
-560,758	321,317	0,044	0,060
-559,744	588,676	0,039	-0,069
-558,729	58,268	-0,097	0,069
-557,715	800,000	-0,015	-0,030
-556,700	376,321	-0,022	-0,032
-555,685	659,334	-0,098	-0,183
-554,671	800,000	0,033	-0,065
-553,656	-35,361	-0,133	0,052
-552,642	-200,000	0,040	0,133
-551,627	-81,993	-0,045	0,011
-550,612	49,494	-0,091	0,061
-549,598	126,288	-0,142	0,130
-548,583	27,805	-0,182	-0,110
-547,569	800,000	0,003	0,008
-546,554	800,000	-0,029	0,086
-545,539	-77,350	0,097	0,024
-544,525	-200,000	-0,004	0,166
-543,510	733,304	-0,066	0,129
-542,496	800,000	-0,035	-0,092
-541,481	-38,675	-0,082	0,031
-540,466	86,468	0,060	0,048
-539,452	800,000	0,039	-0,121
-538,437	73,701	0,050	-0,037
-537,423	-8,712	0,025	-0,012
-536,408	62,441	0,065	-0,047
-535,393	800,000	-0,011	-0,029
-534,379	-120,496	0,174	0,021
-533,364	-8,527	-0,098	0,047
-532,350	-200,000	0,017	0,240
-531,335	56,885	-0,040	-0,028
-530,321	-17,693	0,042	-0,019
-529,306	577,652	-0,049	-0,086
-528,291	6,531	0,009	0,005
-527,277	-200,000	-0,023	-0,108
-526,262	765,127	-0,043	-0,085
-525,248	800,000	0,051	0,122
-524,233	25,072	0,106	-0,064
-523,218	-200,000	-0,016	0,113
-522,204	779,910	-0,062	-0,124
-521,189	315,731	-0,095	-0,129
-520,175	309,163	0,014	0,019
-519,160	800,000	0,064	0,175
-518,145	-200,000	-0,011	-0,189
-517,131	566,008	0,047	0,082
-516,116	339,669	0,037	0,053
-515,102	800,000	-0,034	0,103
-514,087	224,486	0,052	0,061
-513,072	111,416	-0,147	0,128
-512,058	36,617	-0,047	0,030
-511,043	395,752	0,052	0,078
-510,029	-34,833	-0,123	-0,048
-509,014	-200,000	0,028	0,179
-507,999	325,491	-0,094	0,130
-506,985	-12,530	-0,010	-0,005
-505,970	3,448	0,063	0,033
-504,956	79,494	-0,011	0,008
-503,941	-200,000	0,018	0,065
-502,926	213,244	-0,037	-0,043
-501,912	-200,000	0,028	0,092
-500,897	-200,000	-0,016	0,090
-499,883	-27,228	0,157	-0,066
-498,868	488,413	-0,035	-0,058
-497,853	-103,797	-0,109	-0,018
-496,839	397,155	0,091	-0,137
-495,824	462,080	-0,002	0,003
-494,810	236,808	-0,020	-0,023
-493,795	99,881	-0,081	0,067
-492,781	-14,723	0,046	0,021
-491,766	600,114	0,040	0,073
-490,751	154,511	-0,070	-0,069
-489,737	20,488	0,067	-0,039
-488,722	-58,589	-0,077	0,024
-487,708	341,872	0,067	0,094
-486,693	-200,000	0,011	0,036
-485,678	-156,183	0,043	-0,002
-484,664	-63,134	-0,128	-0,038
-483,649	107,554	0,069	-0,059
-482,635	40,495	-0,077	-0,050
-481,620	-200,000	-0,006	-0,079
-480,605	-0,339	0,107	0,054
-479,591	634,621	0,024	0,044
-478,576	-83,678	-0,025	-0,006
-477,562	-90,477	0,086	-0,018
-476,547	-200,000	0,039	-0,141
-475,532	800,000	0,029	0,070
-474,518	-49,940	-0,048	0,016
-473,503	101,971	-0,048	0,040
-472,489	-200,000	0,015	0,214
-471,474	30,416	-0,103	-0,063
-470,459	291,902	-0,018	0,023
-469,445	800,000	-0,017	-0,038
-468,430	606,030	-0,034	-0,062
-467,416	-200,000	-0,002	-0,006
-466,401	345,264	-0,085	0,121
-465,386	94,737	0,062	-0,051
-464,372	-200,000	0,002	0,041
-463,357	800,000	-0,004	-0,012
-462,343	800,000	-0,046	0,115
-461,328	186,767	-0,021	0,023
-460,313	164,121	-0,018	-0,018
-459,299	-101,327	0,047	0,008
-458,284	140,183	0,055	-0,052
-457,270	507,521	-0,051	0,085
-456,255	153,192	-0,065	0,064
-455,241	800,000	-0,013	0,027
-454,226	-64,036	-0,186	-0,054
-453,211	546,154	-0,045	0,078
-452,197	42,636	0,074	-0,048
-451,182	168,336	0,105	0,108
-450,168	362,937	-0,035	0,051
-449,153	-200,000	-0,001	0,003
-448,138	-80,984	-0,033	0,008
-447,124	-83,319	-0,048	-0,011
-446,109	800,000	-0,014	0,041
-445,095	-114,566	0,127	-0,017
-444,080	800,000	0,074	0,176
-443,065	-200,000	0,001	0,103
-442,051	18,629	0,049	-0,028
-441,036	133,400	-0,103	0,095
-440,022	-199,835	0,147	-0,001
-439,007	800,000	-0,037	0,101
-437,992	660,180	0,081	0,151
-436,978	-200,000	0,010	0,034
-435,963	800,000	0,023	0,060
-434,949	306,294	0,029	0,039
-433,934	-85,468	-0,103	-0,023
-432,919	-200,000	0,031	-0,128
-431,905	118,953	-0,081	-0,072
-430,890	101,424	0,029	-0,024
-429,876	-200,000	0,007	0,180
-428,861	301,516	-0,015	-0,019
-427,846	-8,486	-0,057	-0,027
-426,832	-200,000	-0,010	-0,081
-425,817	90,258	0,012	0,009
-424,803	-200,000	-0,009	0,048
-423,788	35,304	0,126	0,079
-422,773	-108,459	0,080	-0,012
-421,759	800,000	0,018	0,043
-420,744	89,751	-0,154	0,123
-419,730	633,675	-0,079	0,145
-418,715	-92,471	0,062	0,012
-417,701	-37,300	0,124	0,048
-416,686	-175,349	0,099	-0,002
-415,671	60,408	-0,109	-0,077
-414,657	200,608	0,056	0,061
-413,642	800,000	-0,018	0,052
-412,628	353,320	-0,013	0,018
-411,613	-40,225	-0,158	-0,059
-410,598	25,456	-0,053	-0,032
-409,584	-7,178	0,143	-0,069
-408,569	748,670	-0,033	0,064
-407,555	106,446	-0,034	0,029
-406,540	-150,986	0,117	-0,006
-405,525	-38,454	-0,071	0,027
-404,511	4,293	-0,097	0,051
-403,496	-8,203	0,106	-0,051
-402,482	-100,046	-0,045	0,008
-401,467	-90,569	0,178	-0,037
-400,452	-72,394	0,145	0,038
-399,438	800,000	0,055	-0,122
-398,423	-25,681	0,101	0,042
-397,409	-191,012	-0,160	-0,001
-396,394	373,167	-0,088	0,129
-395,379	-200,000	-0,020	0,074
-394,365	-200,000	-0,009	0,059
-393,350	620,971	-0,084	0,153
-392,336	800,000	0,057	0,132
-391,321	441,750	-0,067	-0,106
-390,306	208,541	-0,104	-0,116
-389,292	800,000	-0,015	-0,032
-388,277	-200,000	-0,002	0,131
-387,263	-9,422	0,128	0,061
-386,248	18,756	0,092	0,053
-385,233	98,931	0,062	0,052
-384,219	213,089	-0,041	-0,046
-383,204	104,792	0,055	0,046
-382,190	-200,000	0,020	-0,076
-381,175	373,972	0,017	-0,025
-380,160	160,573	0,050	-0,050
-379,146	-200,000	0,002	-0,111
-378,131	-200,000	-0,026	-0,088
-377,117	160,032	0,152	-0,152
-376,102	360,679	-0,035	-0,050
-375,088	306,985	0,031	-0,041
-374,073	25,004	0,080	0,048
-373,058	-148,974	-0,065	0,004
-372,044	269,959	-0,051	-0,064
-371,029	-130,427	0,044	-0,004
-370,015	-25,999	-0,108	-0,045
-369,000	-72,715	-0,028	-0,007
-367,985	773,049	-0,082	-0,161
-366,971	53,294	-0,064	0,044
-365,956	-109,964	0,068	0,010
-364,942	91,392	0,067	-0,054
-363,927	-200,000	0,004	0,181
-362,912	310,431	-0,058	0,078
-361,898	800,000	0,027	0,058
-360,883	-138,341	-0,090	-0,007
-359,869	278,789	-0,038	-0,048
-358,854	70,640	0,060	-0,044
-357,839	-8,543	0,073	0,035
-356,825	-200,000	0,034	0,112
-355,810	161,182	0,061	0,061
-354,796	34,725	-0,126	-0,079
-353,781	-4,948	-0,129	0,063
-352,766	278,567	0,071	-0,091
-351,752	163,837	-0,102	-0,103
-350,737	-24,405	0,163	-0,069
-349,723	-34,933	0,065	-0,025
-348,708	180,051	-0,043	-0,045
-347,693	-97,586	-0,114	-0,021
-346,679	-200,000	-0,007	-0,029
-345,664	0,390	0,064	0,032
-344,650	355,052	0,094	-0,134
-343,635	78,465	0,088	0,067
-342,620	-35,115	-0,025	0,010
-341,606	-101,189	-0,031	0,005
-340,591	308,327	-0,034	0,045
-339,577	-108,479	-0,054	0,008
-338,562	211,803	-0,045	0,051
-337,548	-62,875	0,084	0,025
-336,533	503,333	-0,025	0,041
-335,518	-96,225	0,101	0,019
-334,504	-10,266	-0,123	-0,058
-333,489	49,435	-0,041	0,028
-332,475	-7,323	-0,084	-0,040
-331,460	15,429	0,144	-0,080
-330,445	-106,096	0,051	-0,008
-329,431	800,000	-0,036	-0,075
-328,416	-101,420	0,111	-0,019
-327,402	-200,000	-0,024	0,100
-326,387	-200,000	0,008	0,072
-325,372	96,384	0,064	-0,053
-324,358	-20,898	-0,109	0,048
-323,343	161,422	-0,044	-0,044
-322,329	-200,000	0,013	0,068
-321,314	507,790	0,085	0,142
-320,299	-200,000	-0,025	0,085
-319,285	18,305	-0,140	-0,080
-318,270	-119,608	-0,072	-0,009
-317,256	-20,030	-0,031	-0,014
-316,241	150,883	-0,180	-0,175
-315,226	800,000	-0,019	-0,044
-314,212	-79,844	0,167	-0,040
-313,197	416,984	0,114	0,174
-312,183	-117,816	0,158	0,020
-311,168	110,715	-0,039	-0,033
-310,153	-75,208	-0,147	0,037
-309,139	261,674	-0,020	-0,025
-308,124	800,000	0,059	-0,185
-307,110	-78,166	0,045	-0,011
-306,095	-100,613	0,028	0,005
-305,080	-155,267	0,088	0,004
-304,066	-109,163	-0,142	0,021
-303,051	-200,000	-0,040	-0,171
-302,037	-11,945	0,165	-0,077
-301,022	-200,000	-0,022	0,077
-300,008	-26,276	0,117	0,049
-298,993	480,742	0,027	0,044
-297,978	47,852	0,117	0,078
-296,964	365,995	0,030	-0,043
-295,949	195,020	-0,025	-0,028
-294,935	-200,000	0,025	0,108
-293,920	69,577	0,061	-0,045
-292,905	-200,000	0,033	0,113
-291,891	-115,574	0,080	0,011
-290,876	-200,000	-0,031	0,120
-289,862	800,000	0,037	0,110
-288,847	800,000	-0,039	-0,101
-287,832	-200,000	-0,003	-0,088
-286,818	-200,000	-0,014	-0,058
-285,803	-59,249	-0,064	0,019
-284,789	-39,312	-0,009	-0,003
-283,774	101,811	0,095	0,079
-282,759	-200,000	-0,019	-0,068
-281,745	-200,000	-0,014	-0,125
-280,730	-145,276	0,094	0,006
-279,716	-143,065	-0,056	0,004
-278,701	-97,130	0,034	0,006
-277,686	-12,596	-0,124	0,057
-276,672	-200,000	0,014	-0,051
-275,657	-200,000	0,002	-0,142
-274,643	-74,122	0,033	0,008
-273,628	129,248	-0,090	0,082
-272,613	259,146	-0,011	-0,013
-271,599	-31,478	0,081	-0,032
-270,584	169,658	-0,052	0,053
-269,570	-28,210	-0,087	0,036
-268,555	-86,530	-0,120	-0,026
-267,540	490,870	-0,050	-0,082
-266,526	-49,959	0,034	-0,012
-265,511	-200,000	-0,000	-0,023
-264,497	800,000	0,034	0,092
-263,482	646,885	0,076	-0,138
-262,467	110,735	-0,046	0,040
-261,453	106,026	-0,054	0,045
-260,438	13,974	0,017	-0,009
-259,424	800,000	-0,023	0,047
-258,409	-86,678	-0,051	-0,011
-257,395	1,531	0,108	0,055
-256,380	157,355	-0,086	-0,085
-255,365	800,000	-0,064	0,140
-254,351	-200,000	0,009	-0,037
-253,336	184,281	0,097	-0,103
-252,322	-200,000	-0,013	-0,146
-251,307	117,530	-0,076	-0,067
-250,292	342,061	-0,156	-0,219
-249,278	85,487	0,080	0,063
-248,263	-200,000	0,026	0,158
-247,249	-14,202	-0,031	0,014
-246,234	-200,000	-0,003	0,037
-245,219	800,000	-0,084	-0,192
-244,205	-200,000	0,016	-0,058
-243,190	-63,897	0,112	-0,032
-242,176	43,312	0,115	0,075
-241,161	-200,000	0,012	-0,071
-240,146	123,495	0,013	-0,011
-239,132	-200,000	-0,027	-0,142
-238,117	624,734	-0,034	-0,061
-237,103	114,825	-0,032	0,028
-236,088	-138,599	-0,084	-0,006
-235,073	-12,283	-0,049	-0,023
-234,059	72,993	0,185	0,138
-233,044	203,488	0,145	0,160
-232,030	-93,498	0,055	-0,011
-231,015	-15,966	-0,069	-0,031
-230,000	134,903	0,074	-0,068
-228,986	-47,798	-0,120	-0,041
-227,971	-200,000	0,030	-0,109
-226,957	100,350	0,064	-0,053
-225,942	23,305	0,159	0,093
-224,927	357,308	-0,019	-0,028
-223,913	462,884	-0,045	-0,071
-222,898	239,128	-0,038	-0,045
-221,884	102,677	-0,062	0,051
-220,869	800,000	-0,046	0,125
-219,855	118,848	-0,016	-0,014
-218,840	402,478	0,102	0,154
-217,825	-200,000	-0,005	-0,017
-216,811	-200,000	0,026	-0,101
-215,796	-93,829	0,111	0,022
-214,782	9,792	0,202	-0,109
-213,767	-85,592	-0,061	0,013
-212,752	-44,501	-0,128	0,045
-211,738	-200,000	-0,007	-0,027
-210,723	-25,925	0,074	0,031
-209,709	418,762	-0,098	-0,150
-208,694	-178,491	-0,196	0,003
-207,679	73,219	-0,062	-0,046
-206,665	-130,333	-0,061	0,006
-205,650	-200,000	-0,010	0,110
-204,636	-37,971	0,190	0,072
-203,621	-200,000	0,032	0,207
-202,606	208,990	-0,020	-0,022
-201,592	490,457	-0,019	0,031
-200,577	-1,502	-0,108	0,054
-199,563	800,000	0,028	-0,073
-198,548	707,173	0,098	0,185
-197,533	-18,140	0,077	-0,034
-196,519	10,557	-0,154	-0,083
-195,504	245,812	0,030	-0,036
-194,490	-3,199	-0,080	-0,039
-193,475	-6,751	0,039	0,019
-192,460	-82,645	0,049	-0,011
-191,446	120,177	0,042	0,037
-190,431	259,974	0,091	0,113
-189,417	75,488	0,044	0,033
-188,402	-200,000	-0,009	-0,060
-187,387	630,979	-0,054	-0,098
-186,373	587,543	0,056	0,098
-185,358	-63,982	-0,033	0,009
-184,344	9,289	0,109	0,058
-183,329	-200,000	-0,022	0,090
-182,315	734,006	0,045	-0,085
-181,300	-10,766	-0,027	0,013
-180,285	800,000	-0,041	-0,094
-179,271	65,113	-0,090	-0,065
-178,256	800,000	0,050	-0,118
-177,242	-200,000	-0,017	-0,152
-176,227	-148,765	0,045	-0,003
-175,212	197,708	-0,051	0,055
-174,198	-200,000	-0,003	-0,023
-173,183	-82,160	-0,058	0,013
-172,169	297,835	-0,044	-0,058
-171,154	373,713	0,022	0,031
-170,139	105,106	0,072	-0,061
-169,125	9,899	-0,054	-0,029
-168,110	800,000	0,039	0,093
-167,096	39,890	0,071	-0,045
-166,081	-200,000	0,036	-0,140
-165,066	-83,456	-0,133	0,030
-164,052	490,396	0,019	-0,031
-163,037	-200,000	-0,006	-0,071
-162,023	129,330	0,043	0,039
-161,008	-200,000	0,018	-0,092
-159,993	258,944	0,160	-0,196
-158,979	43,579	-0,037	-0,024
-157,964	473,433	-0,050	-0,081
-156,950	-200,000	-0,031	-0,184
-155,935	-167,912	0,076	0,002
-154,920	-200,000	0,001	0,081
-153,906	-200,000	0,016	-0,056
-152,891	800,000	-0,056	-0,150
-151,877	-189,965	0,017	0,000
-150,862	509,290	0,048	-0,080
-149,847	-10,597	-0,079	-0,037
-148,833	284,388	-0,048	0,062
-147,818	-85,311	-0,047	0,010
-146,804	-157,415	-0,097	-0,004
-145,789	-50,230	0,146	-0,049
-144,775	800,000	-0,036	-0,097
-143,760	280,722	-0,110	-0,140
-142,745	409,152	-0,066	0,099
-141,731	60,498	-0,088	0,062
-140,716	89,636	0,142	-0,112
-139,702	-200,000	-0,008	-0,065
-138,687	353,063	-0,010	0,014
-137,672	-154,232	0,123	-0,006
-136,658	-200,000	-0,003	0,063
-135,643	-200,000	-0,003	-0,020
-134,629	800,000	0,039	-0,115
-133,614	-150,477	0,094	-0,005
-132,599	-200,000	-0,002	-0,025
-131,585	90,339	-0,031	0,025
-130,570	800,000	-0,045	0,096
-129,556	-200,000	0,026	0,123
-128,541	800,000	-0,009	-0,027
-127,526	-117,290	0,091	-0,012
-126,512	106,066	0,044	0,037
-125,497	-200,000	-0,017	0,096
-124,483	2,875	-0,138	-0,071
-123,468	468,071	0,056	0,089
-122,453	644,486	-0,033	-0,059
-121,439	-15,858	-0,161	-0,072
-120,424	104,747	0,056	0,047
-119,410	-200,000	0,026	-0,106
-118,395	-105,805	0,071	0,011
-117,380	318,766	0,089	0,119
-116,366	1,177	-0,125	-0,064
-115,351	-196,945	-0,115	-0,001
-114,337	130,709	-0,041	0,037
-113,322	800,000	0,014	0,037
-112,307	-60,933	0,060	0,018
-111,293	56,128	0,115	0,079
-110,278	-200,000	-0,001	0,116
-109,264	56,815	0,156	0,107
-108,249	-63,800	-0,100	-0,029
-107,234	31,065	-0,051	0,031
-106,220	-172,604	-0,048	-0,001
-105,205	605,908	0,013	0,024
-104,191	178,457	0,082	0,085
-103,176	-34,028	0,062	-0,024
-102,162	547,600	-0,032	-0,055
-101,147	800,000	-0,015	-0,034
-100,132	-200,000	0,045	-0,164
-99,118	-10,148	-0,132	-0,062
-98,103	295,257	0,050	-0,065
-97,089	-111,524	0,120	-0,017
-96,074	-85,513	0,101	0,022
-95,059	-200,000	0,033	0,146
-94,045	800,000	-0,021	-0,043
-93,030	-70,740	-0,122	0,032
-92,016	83,172	0,008	-0,006
-91,001	132,081	0,110	0,101
-89,986	-38,038	-0,031	0,012
-88,972	800,000	0,036	0,075
-87,957	397,972	0,059	0,088
-86,943	800,000	0,056	-0,129
-85,928	27,939	-0,129	-0,077
-84,913	780,410	-0,062	0,122
-83,899	281,739	0,054	0,069
-82,884	-165,690	0,123	0,004
-81,870	254,345	0,067	0,081
-80,855	354,349	-0,041	0,057
-79,840	-164,723	-0,096	-0,003
-78,826	-200,000	-0,008	-0,047
-77,811	-200,000	0,017	0,056
-76,797	232,120	0,041	-0,048
-75,782	-200,000	0,001	0,045
-74,767	233,778	0,046	-0,054
-73,753	-200,000	0,015	0,068
-72,738	800,000	-0,013	0,035
-71,724	800,000	-0,031	-0,076
-70,709	88,914	-0,106	-0,083
-69,694	47,025	-0,061	-0,040
-68,680	473,845	-0,036	-0,058
-67,665	231,799	0,126	-0,146
-66,651	-200,000	-0,018	0,207
-65,636	385,501	-0,066	0,096
-64,622	800,000	-0,094	-0,202
-63,607	-19,264	-0,142	-0,062
-62,592	800,000	-0,057	-0,123
-61,578	-200,000	0,013	0,043
-60,563	151,781	-0,045	0,043
-59,549	-200,000	-0,043	0,160
-58,534	-6,859	-1,524	-0,731
-57,519	460,816	-1,336	-2,116
-56,505	-200,000	-0,592	-4,637
-55,490	326,691	1,003	1,365
-54,476	800,000	4,757	11,004
-53,461	-200,000	19,042	316,398
-52,446	-200,000	739,418	2331,568
-51,432	576,339	1654,644	2873,958
-50,417	78,783	1670,628	1264,246
-49,403	21,590	1543,446	886,930
-48,388	15,471	1465,857	812,603
-47,373	17,894	1455,989	818,805
-46,359	16,769	1446,188	807,870
-45,344	13,734	1441,388	790,623
-44,330	13,679	1439,304	789,183
-43,315	13,629	1437,663	788,015
-42,300	13,654	1436,171	787,284
-41,286	13,698	1434,799	786,710
-40,271	13,621	1433,463	785,579
-39,257	13,624	1432,324	784,938
-38,242	13,699	1430,970	784,520
-37,227	13,689	1429,690	783,742
-36,213	13,696	1428,507	783,094
-35,198	13,656	1427,352	782,243
-34,184	13,737	1426,443	782,094
-33,169	13,640	1425,177	780,913
-32,154	13,701	1423,973	780,507
-31,140	13,750	1422,632	779,974
-30,125	13,721	1421,544	779,211
-29,111	13,729	1420,411	778,595
-28,096	13,705	1419,216	777,798
-27,082	13,603	1418,244	776,754
-26,067	13,645	1417,048	776,266
-25,052	13,577	1416,115	775,401
-24,038	13,575	1415,196	774,861
-23,023	13,599	1414,053	774,315
-22,009	13,593	1413,062	773,713
-20,994	13,557	1412,303	773,100
-19,979	13,573	1411,348	772,619
-18,965	13,579	1410,397	772,095
-17,950	13,547	1409,502	771,428
-16,936	13,577	1408,418	770,941
-15,921	13,558	1407,349	770,240
-14,906	13,504	1406,584	769,537
-13,892	13,541	1405,550	769,115
-12,877	13,544	1404,749	768,660
-11,863	13,571	1403,781	768,224
-10,848	13,545	1402,806	767,537
-9,833	13,491	1402,001	766,815
-8,819	13,413	1401,340	766,060
-7,804	13,453	1400,099	765,539
-6,790	13,419	1399,296	764,913
-5,775	13,413	1398,336	764,326
-4,760	13,492	1397,042	763,956
-3,746	13,441	1396,356	763,317
-2,731	13,432	1395,479	762,763
-1,717	13,410	1394,495	762,094
-0,702	13,409	1392,675	761,064
0,313	17,188	1310,288	733,568
1,327	33,419	704,219	431,795
2,342	51,121	123,436	82,713
3,356	-0,060	16,785	8,428
4,371	-3,701	3,337	1,634
5,386	-19,970	0,520	0,226
6,400	800,000	-0,121	0,266
7,415	105,803	-0,198	-0,166
8,429	46,486	-0,251	-0,164
9,444	-25,504	-0,461	-0,192
10,459	-141,634	-0,308	-0,022
11,473	-137,070	-0,378	-0,030
12,488	64,103	-0,221	-0,157
13,502	-29,983	-0,355	-0,142
14,517	6,150	-0,304	-0,159
15,531	-15,995	-0,530	-0,237
16,546	106,350	-0,226	-0,189
17,561	121,944	-0,335	-0,295
18,575	-77,884	-0,290	-0,070
19,590	3,441	-0,244	-0,125
20,604	-91,908	-0,358	-0,071
21,619	101,202	-0,432	-0,355
22,634	153,402	-0,367	-0,355
23,648	86,268	-0,455	-0,354
24,663	244,754	-0,368	-0,437
25,677	65,819	-0,413	-0,295
26,692	-2,753	-0,370	-0,182
27,707	-0,833	-0,386	-0,192
28,721	142,057	-0,353	-0,331
29,736	105,902	-0,484	-0,405
30,750	-24,148	-0,463	-0,194
31,765	-19,089	-0,472	-0,206
32,780	144,237	-0,393	-0,371
33,794	180,635	-0,253	-0,262
34,809	99,054	-0,366	-0,298
35,823	95,333	-0,401	-0,322
36,838	136,286	-0,459	-0,423
37,853	211,309	-0,351	-0,390
38,867	660,324	-0,234	-0,427
39,882	78,006	-0,303	-0,228
40,896	151,582	-0,310	-0,298
41,911	133,005	-0,335	-0,305
42,926	200,576	-0,224	-0,243
43,940	35,159	-0,448	-0,276
44,955	25,941	-0,457	-0,268
45,969	160,349	-0,389	-0,383
46,984	131,559	-0,297	-0,269
47,999	423,090	-0,138	-0,210
49,013	120,096	-0,276	-0,241
50,028	48,535	-0,277	-0,182
51,042	158,758	-0,284	-0,278
52,057	234,758	-0,357	-0,415
53,071	149,454	-0,320	-0,306
54,086	36,799	-0,387	-0,240
55,101	159,134	-0,235	-0,230
56,115	-176,015	-0,366	-0,007
57,130	-42,066	-0,350	-0,126
58,144	181,408	-0,246	-0,255
59,159	45,879	-0,347	-0,225
60,174	294,563	-0,259	-0,334
61,188	43,161	-0,367	-0,235
62,203	68,843	-0,322	-0,232
63,217	305,597	-0,283	-0,372
64,232	-31,468	-0,488	-0,192
65,247	208,734	-0,291	-0,321
66,261	83,046	-0,356	-0,272
67,276	106,626	-0,350	-0,292
68,290	-3,997	-0,389	-0,189
69,305	49,136	-0,245	-0,162
70,320	299,188	-0,189	-0,246
71,334	102,211	-0,244	-0,200
72,349	60,894	-0,385	-0,268
73,363	-41,872	-0,385	-0,138
74,378	79,388	-0,267	-0,201
75,393	-41,347	-0,317	-0,114
76,407	-55,829	-0,294	-0,092
77,422	-7,156	-0,264	-0,125
78,436	82,666	-0,295	-0,225
79,451	-10,149	-0,304	-0,141
80,466	221,471	-0,269	-0,304
81,480	-38,835	-0,370	-0,136
82,495	-1,478	-0,431	-0,213
83,509	11,181	-0,310	-0,166
84,524	-59,961	-0,227	-0,068
85,539	537,032	-0,191	-0,320
86,553	190,982	-0,258	-0,273
87,568	87,500	-0,276	-0,214
88,582	34,315	-0,327	-0,200
89,597	669,541	-0,150	-0,273
90,611	332,350	-0,271	-0,369
91,626	46,590	-0,179	-0,117
92,641	3,120	-0,251	-0,128
93,655	27,784	-0,338	-0,200
94,670	-41,598	-0,357	-0,128
95,684	159,742	-0,287	-0,281
96,699	-3,656	-0,329	-0,160
97,714	128,415	-0,179	-0,160
98,728	-31,893	-0,365	-0,143
99,743	-104,565	-0,360	-0,058
100,757	29,742	-0,249	-0,149
101,772	145,742	-0,239	-0,225
102,787	12,524	-0,235	-0,127
103,801	-60,003	-0,210	-0,063
104,816	8,359	-0,287	-0,151
105,830	278,469	-0,227	-0,284
106,845	27,040	-0,249	-0,146
107,860	153,427	-0,245	-0,235
108,874	96,732	-0,303	-0,243
109,889	12,564	-0,442	-0,238
110,903	779,825	-0,136	-0,261
111,918	44,236	-0,378	-0,243
112,933	-52,500	-0,288	-0,093
113,947	-43,450	-0,277	-0,098
114,962	-2,242	-0,225	-0,110
115,976	28,234	-0,256	-0,151
116,991	227,944	-0,278	-0,318
118,006	222,163	-0,289	-0,327
119,020	191,499	-0,308	-0,326
120,035	569,156	-0,150	-0,256
121,049	16,781	-0,218	-0,121
122,064	195,006	-0,224	-0,239
123,079	-108,977	-0,243	0,036
124,093	110,542	-0,229	-0,192
125,108	156,659	-0,247	-0,239
126,122	403,222	-0,218	-0,322
127,137	29,360	-0,244	-0,145
128,151	-10,933	-0,208	-0,096
129,166	-89,975	-0,259	-0,052
130,181	280,636	-0,210	-0,263
131,195	95,732	-0,252	-0,201
132,210	-57,270	-0,252	-0,077
133,224	168,055	-0,326	-0,325
134,239	148,277	-0,206	-0,195
135,254	153,006	-0,178	-0,170
136,268	91,035	-0,170	-0,133
137,283	-115,587	-0,281	-0,036
138,297	158,660	-0,333	-0,323
139,312	389,783	-0,205	-0,298
140,327	288,558	-0,150	-0,191
141,341	37,063	-0,276	-0,170
142,356	-200,000	-0,000	-0,196
143,370	-19,274	-0,261	-0,113
144,385	376,939	-0,207	-0,296
145,400	25,826	-0,325	-0,189
146,414	-89,226	-0,353	-0,072
147,429	800,000	-0,054	-0,139
148,443	78,018	-0,226	-0,168
149,458	44,032	-0,209	-0,134
150,473	69,232	-0,222	-0,160
151,487	133,483	-0,227	-0,205
152,502	214,732	-0,186	-0,206
153,516	223,195	-0,247	-0,279
154,531	45,833	-0,252	-0,163
155,546	4,341	-0,228	-0,116
156,560	39,778	-0,204	-0,128
157,575	64,736	-0,273	-0,192
158,589	-108,147	-0,222	-0,033
159,604	-21,370	-0,265	-0,113
160,619	254,752	-0,275	-0,329
161,633	247,243	-0,251	-0,296
162,648	184,463	-0,199	-0,206
163,662	63,433	-0,166	-0,116
164,677	-97,565	-0,245	-0,044
165,692	297,330	-0,127	-0,163
166,706	188,351	-0,191	-0,200
167,721	-63,676	-0,267	-0,076
168,735	15,329	-0,245	-0,134
169,750	67,800	-0,263	-0,187
170,764	783,077	-0,132	-0,253
171,779	698,640	-0,099	-0,182
172,794	-95,904	-0,283	-0,052
173,808	800,000	-0,176	-0,367
174,823	52,345	-0,274	-0,182
175,837	175,136	-0,253	-0,256
176,852	545,890	-0,197	-0,329
177,867	293,961	-0,244	-0,311
178,881	24,997	-0,288	-0,166
179,896	-51,024	-0,284	-0,092
180,910	23,696	-0,229	-0,131
181,925	83,252	-0,313	-0,237
182,940	133,526	-0,258	-0,233
183,954	57,351	-0,227	-0,154
184,969	284,229	-0,142	-0,179
185,983	-121,239	-0,238	-0,027
186,998	52,717	-0,215	-0,143
188,013	38,143	-0,184	-0,114
189,027	-69,012	-0,347	-0,092
190,042	30,937	-0,161	-0,096
191,056	35,395	-0,279	-0,170
192,071	-7,368	-0,207	-0,097
193,086	71,591	-0,199	-0,144
194,100	-66,199	-0,072	0,020
195,115	242,101	-0,212	-0,247
196,129	1,435	-0,269	-0,134
197,144	49,297	-0,226	-0,148
198,159	-31,604	-0,288	-0,112
199,173	-119,839	-0,175	0,021
200,188	-1,400	-0,149	-0,073
201,202	132,283	-0,124	-0,111
202,217	-29,869	-0,178	-0,070
203,232	16,044	-0,239	-0,131
204,246	351,237	-0,161	-0,222
205,261	-200,000	-0,015	-0,109
206,275	800,000	-0,139	-0,296
207,290	-52,083	-0,257	-0,082
208,304	-72,515	-0,171	-0,044
209,319	-57,378	-0,130	-0,039
210,334	-14,838	-0,060	-0,027
211,348	142,106	-0,200	-0,185
212,363	-62,662	-0,240	-0,069
213,377	39,769	-0,252	-0,157
214,392	121,917	-0,192	-0,166
215,407	-122,286	-0,123	-0,014
216,421	-71,273	-0,228	-0,059
217,436	101,463	-0,200	-0,162
218,450	103,372	-0,227	-0,185
219,465	-47,153	-0,178	-0,060
220,480	72,371	-0,206	-0,149
221,494	267,283	-0,096	-0,117
222,509	88,788	-0,119	-0,092
223,523	35,850	-0,259	-0,158
224,538	284,704	-0,127	-0,159
225,553	67,894	-0,209	-0,148
226,567	445,445	-0,122	-0,187
227,582	258,729	-0,091	-0,109
228,596	94,691	-0,142	-0,112
229,611	-49,507	-0,207	-0,068
230,626	398,026	-0,123	-0,179
231,640	800,000	-0,066	-0,187
232,655	40,824	-0,151	-0,095
233,669	149,225	-0,273	-0,256
234,684	8,312	-0,219	-0,114
235,699	-28,680	-0,147	-0,058
236,713	171,240	-0,153	-0,152
237,728	-77,925	-0,263	-0,063
238,742	247,138	-0,219	-0,256
239,757	164,190	-0,184	-0,180
240,772	-95,081	-0,159	-0,030
241,786	126,963	-0,185	-0,162
242,801	257,077	-0,179	-0,214
243,815	114,042	-0,166	-0,140
244,830	-200,000	-0,001	-0,201
245,844	118,364	-0,160	-0,137
246,859	-176,765	-0,161	-0,003
247,874	138,845	-0,204	-0,185
248,888	800,000	-0,082	-0,169
249,903	50,892	-0,185	-0,121
250,917	23,263	-0,118	-0,067
251,932	800,000	-0,090	-0,228
252,947	-40,651	-0,084	-0,030
253,961	54,197	-0,269	-0,179
254,976	-37,288	-0,279	-0,103
255,990	104,959	-0,197	-0,161
257,005	128,698	-0,155	-0,137
258,020	-13,897	-0,158	0,070
259,034	8,359	-0,195	-0,101
260,049	-111,007	-0,100	-0,014
261,063	42,607	-0,187	-0,118
262,078	15,014	-0,161	-0,087
263,093	109,009	-0,180	-0,149
264,107	260,431	-0,117	-0,140
265,122	-46,924	-0,187	-0,063
266,136	275,947	-0,109	-0,134
267,151	174,514	-0,157	-0,157
268,166	769,047	-0,118	-0,223
269,180	-10,541	-0,242	-0,110
270,195	318,974	-0,128	-0,169
271,209	45,114	-0,180	-0,115
272,224	298,355	-0,118	-0,150
273,239	60,707	-0,152	-0,104
274,253	-62,883	-0,127	0,036
275,268	800,000	-0,056	-0,166
276,282	-164,810	-0,180	-0,005
277,297	178,267	-0,118	-0,119
278,312	-169,929	-0,215	0,005
279,326	-200,000	-0,014	-0,111
280,341	800,000	-0,069	-0,170
281,355	-45,550	-0,133	-0,045
282,370	-44,851	-0,197	-0,068
283,384	-36,354	-0,178	-0,066
284,399	228,414	-0,263	-0,296
285,414	-82,646	-0,159	-0,035
286,428	41,936	-0,142	-0,089
287,443	-107,805	-0,219	-0,033
288,457	-98,001	-0,201	-0,035
289,472	-15,748	-0,253	-0,111
290,487	171,899	-0,163	-0,162
291,501	-17,657	-0,200	-0,086
292,516	222,701	-0,184	-0,205
293,530	51,221	-0,111	-0,072
294,545	800,000	-0,067	-0,155
295,560	-110,307	-0,186	0,026
296,574	128,419	-0,072	-0,063
297,589	-18,541	-0,210	-0,090
298,603	800,000	-0,043	-0,103
299,618	-24,383	-0,206	-0,084
300,633	-125,612	-0,128	-0,013
301,647	-91,904	-0,155	-0,030
302,662	-22,495	-0,104	-0,043
303,676	460,005	-0,152	-0,235
304,691	43,626	-0,164	-0,103
305,706	312,819	-0,108	-0,140
306,720	-200,000	-0,065	-0,215
307,735	-113,940	-0,121	-0,016
308,749	-76,943	-0,132	-0,032
309,764	186,656	-0,050	-0,051
310,779	11,348	-0,154	-0,081
311,793	164,679	-0,168	-0,163
312,808	56,398	-0,200	-0,133
313,822	359,236	-0,091	-0,126
314,837	339,628	-0,063	0,085
315,852	-82,420	-0,264	-0,059
316,866	-22,138	0,057	-0,024
317,881	6,166	-0,204	-0,104
318,895	0,136	-0,185	-0,090
319,910	56,276	-0,157	-0,105
320,925	76,729	-0,132	-0,096
321,939	-200,000	-0,043	-0,142
322,954	-35,884	-0,228	-0,085
323,968	221,944	-0,047	-0,052
324,983	-34,236	-0,217	-0,082
325,997	515,627	-0,088	-0,143
327,012	446,551	-0,093	-0,141
328,027	782,602	-0,124	-0,234
329,041	75,692	-0,172	-0,125
330,056	-146,128	-0,096	-0,006
331,070	188,902	-0,109	0,112
332,085	-181,554	-0,068	0,001
333,100	800,000	-0,057	-0,130
334,114	800,000	-0,012	-0,037
335,129	534,772	-0,076	-0,124
336,143	44,091	-0,222	-0,140
337,158	65,533	-0,169	-0,118
338,173	-4,311	-0,069	-0,032
339,187	680,388	-0,126	-0,227
340,202	57,830	-0,141	-0,094
341,216	147,656	-0,167	-0,154
342,231	149,598	-0,080	-0,075
343,246	99,594	-0,142	-0,113
344,260	50,117	-0,159	-0,103
345,275	-122,745	-0,232	-0,025
346,289	164,744	0,022	-0,021
347,304	-137,969	-0,064	-0,005
348,319	-63,825	-0,153	-0,043
349,333	-137,337	-0,123	-0,009
350,348	-157,799	-0,160	0,006
351,362	30,048	-0,123	-0,072
352,377	-43,698	-0,241	-0,083
353,392	82,640	-0,158	-0,118
354,406	-68,637	-0,073	0,019
355,421	208,695	1315,211	1413,443
356,435	160,592	1475,988	1413,932
