DTS Sentinel unit serial number:	SN410029Multiplexer serial number:	ORYXHardware model number:	OX2-SRSoftware version number:	ORYX F/W v4,00 Oryx Data Collector v3.7.2.0data status	okinstallation	B3 Nyhavnadifferential loss correction	single-endedforward channel	channel 1reverse channel	N/Adate	2023/12/03time	18:27:30forward acquisition time	300,00reverse acquisition time	0,00gamma	499,1914k internal	0,3198k external	0,3198temperature offset calibration	1,0000default loss term (dB/km)	0,3820temperature slope calibration	1,0000multiplexer offset coefficient	1,0000multiplexer slope coefficient	1,0000fibre end	0,00T internal ref (°C)	14,57T ext. ref 1 (°C)	-0,72T ext. ref 2 (°C)	-0,75length (m)	temperature (°C)	Stokes	anti-Stokes-744,400	244,683	-0,172	-0,211
-743,385	-200,000	0,033	0,222
-742,371	800,000	-0,117	-0,262
-741,356	-200,000	0,007	0,211
-740,342	281,920	-0,152	-0,199
-739,327	-200,000	-0,025	0,380
-738,312	40,854	-0,251	-0,165
-737,298	-200,000	-0,019	0,396
-736,283	800,000	-0,095	-0,287
-735,269	-200,000	0,042	0,269
-734,254	170,911	-0,165	-0,172
-733,239	48,069	-0,228	0,155
-732,225	800,000	-0,087	-0,243
-731,210	743,464	0,021	0,042
-730,196	-200,000	-0,008	0,097
-729,181	17,276	-0,041	-0,024
-728,167	-158,596	-0,061	0,003
-727,152	51,793	0,109	-0,075
-726,137	-28,479	-0,028	-0,012
-725,123	-85,304	-0,157	-0,035
-724,108	475,269	0,028	-0,047
-723,094	440,301	-0,070	-0,112
-722,079	328,307	0,028	-0,039
-721,064	800,000	-0,036	-0,110
-720,050	237,282	-0,095	-0,114
-719,035	-200,000	0,013	0,090
-718,021	-200,000	-0,015	-0,061
-717,006	-14,053	-0,177	-0,083
-715,991	669,199	-0,055	-0,104
-714,977	717,424	-0,091	-0,177
-713,962	800,000	-0,025	-0,073
-712,948	-200,000	-0,005	0,074
-711,933	-200,000	-0,108	0,000
-710,918	694,866	-0,043	0,082
-709,904	-200,000	0,005	-0,114
-708,889	195,716	-0,190	-0,211
-707,875	133,197	-0,064	-0,060
-706,860	-121,069	0,162	0,019
-705,845	-21,896	-0,109	-0,048
-704,831	599,236	0,039	-0,070
-703,816	96,235	-0,093	-0,077
-702,802	122,558	0,129	-0,118
-701,787	-113,966	-0,135	-0,019
-700,772	435,382	0,117	-0,185
-699,758	3,803	0,023	0,012
-698,743	695,811	0,114	0,218
-697,729	-56,432	-0,025	0,008
-696,714	-107,310	0,042	-0,007
-695,699	440,695	0,036	-0,058
-694,685	-37,949	-0,097	-0,037
-693,670	-123,656	-0,111	-0,013
-692,656	-98,944	0,030	-0,006
-691,641	197,087	-0,022	-0,024
-690,627	2,764	0,050	-0,026
-689,612	177,742	-0,041	0,043
-688,597	-200,000	0,006	0,184
-687,583	-42,864	-0,028	0,010
-686,568	-200,000	-0,005	-0,106
-685,554	-200,000	-0,012	-0,051
-684,539	-51,727	0,080	0,027
-683,524	-102,944	-0,023	0,004
-682,510	27,506	0,105	0,064
-681,495	-96,756	-0,098	0,019
-680,481	356,673	0,046	0,067
-679,466	-27,352	-0,099	0,042
-678,451	1,814	-0,036	-0,019
-677,437	-200,000	0,019	-0,091
-676,422	-162,979	0,117	0,004
-675,408	4,812	0,092	0,049
-674,393	-134,346	-0,044	-0,004
-673,378	-56,574	-0,028	-0,009
-672,364	581,925	-0,042	-0,075
-671,349	395,248	-0,038	-0,058
-670,335	-200,000	0,004	-0,099
-669,320	800,000	0,030	-0,074
-668,305	-200,000	0,000	0,136
-667,291	-63,427	-0,096	0,028
-666,276	196,803	0,061	-0,068
-665,262	-110,152	0,006	-0,001
-664,247	-89,569	-0,016	0,003
-663,232	800,000	-0,032	0,096
-662,218	-132,949	0,152	0,014
-661,203	-200,000	-0,008	0,133
-660,189	454,066	-0,030	-0,049
-659,174	-126,032	-0,147	-0,016
-658,159	113,066	-0,191	-0,168
-657,145	-200,000	0,000	-0,183
-656,130	434,714	0,017	-0,027
-655,116	338,162	-0,073	-0,104
-654,101	-200,000	-0,005	0,116
-653,086	-103,774	-0,106	-0,018
-652,072	308,285	0,043	-0,059
-651,057	-142,458	-0,164	-0,012
-650,043	800,000	-0,049	-0,104
-649,028	-149,298	-0,077	0,004
-648,014	800,000	0,017	0,035
-646,999	127,233	0,076	0,070
-645,984	-34,375	0,051	-0,020
-644,970	-127,877	-0,158	0,016
-643,955	325,831	0,029	0,041
-642,941	-70,177	0,058	0,016
-641,926	800,000	-0,016	0,038
-640,911	316,573	0,045	0,062
-639,897	-200,000	0,003	0,087
-638,882	368,911	0,067	0,099
-637,868	626,749	-0,017	0,032
-636,853	53,575	-0,156	-0,108
-635,838	-45,055	-0,059	0,021
-634,824	638,961	-0,028	-0,052
-633,809	800,000	-0,036	0,078
-632,795	87,880	0,100	0,080
-631,780	-200,000	0,010	0,045
-630,765	800,000	-0,021	0,066
-629,751	783,599	-0,027	-0,054
-628,736	800,000	-0,034	0,070
-627,722	800,000	0,011	-0,027
-626,707	800,000	-0,025	0,065
-625,692	-67,497	0,126	-0,036
-624,678	50,809	0,129	-0,089
-623,663	-71,295	-0,073	-0,020
-622,649	71,874	-0,105	-0,079
-621,634	-28,413	-0,076	-0,032
-620,619	-200,000	0,000	0,044
-619,605	188,738	-0,090	0,098
-618,590	-200,000	0,001	0,087
-617,576	502,243	0,022	-0,037
-616,561	184,895	-0,072	-0,077
-615,546	-77,428	-0,073	0,018
-614,532	-88,174	-0,174	-0,038
-613,517	800,000	-0,020	-0,042
-612,503	617,613	0,036	0,066
-611,488	15,198	0,090	0,051
-610,474	30,475	0,112	0,069
-609,459	-150,982	-0,156	0,008
-608,444	-200,000	-0,011	-0,048
-607,430	-47,448	-0,092	-0,032
-606,415	-200,000	0,017	-0,168
-605,401	-157,933	0,107	0,004
-604,386	648,485	-0,088	-0,163
-603,371	162,513	0,059	0,060
-602,357	-200,000	0,024	-0,092
-601,342	276,634	-0,055	-0,070
-600,328	141,759	-0,064	-0,062
-599,313	-49,880	-0,036	0,012
-598,298	108,664	-0,139	-0,121
-597,284	800,000	-0,033	0,098
-596,269	-200,000	-0,002	0,029
-595,255	168,344	-0,042	-0,043
-594,240	-200,000	-0,009	-0,133
-593,225	-56,212	-0,059	0,019
-592,211	20,120	-0,012	0,007
-591,196	-132,289	-0,080	-0,007
-590,182	275,702	-0,068	0,088
-589,167	-108,135	0,085	0,013
-588,152	230,049	-0,047	-0,056
-587,138	93,102	0,063	0,052
-586,123	-114,586	0,034	-0,005
-585,109	452,450	-0,042	-0,068
-584,094	16,705	-0,021	-0,012
-583,079	44,577	0,097	-0,064
-582,065	91,549	0,047	0,038
-581,050	-200,000	-0,001	-0,103
-580,036	-200,000	-0,015	0,080
-579,021	-200,000	-0,006	-0,027
-578,006	563,731	0,055	-0,097
-576,992	499,811	-0,053	-0,088
-575,977	800,000	-0,053	-0,106
-574,963	3,519	0,086	0,045
-573,948	-24,046	-0,040	-0,017
-572,934	162,102	0,091	-0,092
-571,919	-200,000	-0,001	-0,021
-570,904	-90,137	-0,102	-0,021
-569,890	-200,000	-0,013	-0,060
-568,875	465,966	-0,068	-0,110
-567,861	-129,031	0,030	0,003
-566,846	-119,609	0,168	0,021
-565,831	800,000	0,039	0,081
-564,817	-200,000	0,007	-0,126
-563,802	-200,000	0,013	0,069
-562,788	158,090	-0,080	-0,080
-561,773	185,004	0,075	0,081
-560,758	146,056	0,054	0,053
-559,744	-200,000	0,027	0,100
-558,729	-37,086	-0,079	-0,030
-557,715	-94,631	-0,083	0,016
-556,700	-200,000	-0,001	-0,057
-555,685	60,700	-0,067	-0,048
-554,671	-21,380	0,069	0,030
-553,656	-159,532	0,046	-0,002
-552,642	-11,146	0,065	-0,031
-551,627	-200,000	0,002	0,049
-550,612	-52,301	-0,043	0,014
-549,598	-200,000	0,004	0,039
-548,583	-30,836	0,045	0,018
-547,569	-14,894	-0,126	-0,058
-546,554	226,967	0,033	-0,039
-545,539	-38,185	0,048	-0,018
-544,525	-184,303	-0,080	0,001
-543,510	-98,361	-0,127	0,023
-542,496	-88,636	-0,063	0,013
-541,481	237,458	-0,090	-0,108
-540,466	-54,108	0,222	-0,072
-539,452	-200,000	-0,032	-0,156
-538,437	-3,820	0,097	-0,048
-537,423	83,298	0,086	0,068
-536,408	-200,000	0,005	0,061
-535,393	800,000	-0,036	-0,096
-534,379	451,680	-0,077	-0,123
-533,364	-107,382	-0,064	-0,010
-532,350	227,425	0,060	0,071
-531,335	430,054	-0,032	0,050
-530,321	-62,518	0,113	-0,034
-529,306	800,000	0,062	0,181
-528,291	-134,244	-0,187	-0,016
-527,277	731,742	-0,083	-0,161
-526,262	281,443	-0,065	-0,084
-525,248	638,997	0,051	-0,094
-524,233	64,672	0,055	-0,040
-523,218	-200,000	0,003	0,015
-522,204	711,201	-0,027	-0,052
-521,189	800,000	-0,034	-0,068
-520,175	179,428	-0,015	-0,016
-519,160	-36,039	0,172	-0,067
-518,145	98,884	0,070	-0,058
-517,131	142,018	0,151	0,145
-516,116	84,190	0,085	-0,067
-515,102	187,648	-0,075	-0,080
-514,087	4,178	-0,114	0,060
-513,072	43,936	-0,060	0,040
-512,058	-200,000	0,004	-0,037
-511,043	-166,154	0,091	0,003
-510,029	800,000	-0,036	-0,086
-509,014	-85,285	0,099	-0,022
-507,999	112,483	-0,064	0,056
-506,985	795,544	0,051	-0,102
-505,970	97,548	0,101	-0,084
-504,956	800,000	-0,053	0,121
-503,941	-200,000	-0,046	-0,163
-502,926	-16,293	-0,112	-0,051
-501,912	-119,873	0,081	0,010
-500,897	66,183	0,033	-0,024
-499,883	-22,323	0,076	-0,033
-498,868	-200,000	-0,016	0,075
-497,853	-200,000	0,012	0,099
-496,839	-22,276	0,158	-0,069
-495,824	522,391	-0,030	0,050
-494,810	519,984	-0,054	-0,092
-493,795	-6,288	0,031	0,015
-492,781	-2,236	-0,035	-0,018
-491,766	33,184	0,041	-0,026
-490,751	-200,000	-0,027	-0,185
-489,737	800,000	0,070	-0,188
-488,722	65,634	0,039	-0,028
-487,708	23,069	0,018	0,010
-486,693	800,000	-0,007	0,017
-485,678	747,840	0,066	-0,129
-484,664	161,651	0,086	-0,086
-483,649	-117,335	-0,014	-0,002
-482,635	-27,925	-0,066	0,027
-481,620	-200,000	-0,018	-0,067
-480,605	23,745	0,112	0,066
-479,591	-87,961	0,077	-0,017
-478,576	-67,088	-0,145	-0,041
-477,562	432,748	0,002	0,003
-476,547	800,000	-0,016	0,044
-475,532	-40,517	-0,066	0,025
-474,518	138,181	0,080	0,076
-473,503	-64,439	0,145	0,042
-472,489	800,000	-0,029	-0,068
-471,474	168,357	-0,021	-0,021
-470,459	-86,079	-0,081	-0,018
-469,445	-200,000	0,015	-0,082
-468,430	800,000	0,044	-0,128
-467,416	157,403	0,044	0,044
-466,401	126,300	-0,054	0,049
-465,386	-200,000	-0,041	0,196
-464,372	-34,161	0,042	-0,016
-463,357	800,000	0,021	0,044
-462,343	558,745	-0,033	0,057
-461,328	160,109	-0,078	-0,079
-460,313	-200,000	-0,015	-0,062
-459,299	-200,000	0,009	0,056
-458,284	-200,000	0,013	-0,118
-457,270	188,979	-0,047	-0,050
-456,255	254,608	0,069	-0,086
-455,241	800,000	-0,021	0,048
-454,226	-200,000	-0,002	-0,089
-453,211	-10,573	0,273	-0,130
-452,197	-104,131	0,046	0,008
-451,182	114,375	-0,053	0,046
-450,168	51,739	0,107	0,073
-449,153	800,000	0,016	0,041
-448,138	800,000	-0,066	-0,170
-447,124	-160,396	-0,124	0,005
-446,109	185,518	0,072	-0,077
-445,095	608,527	-0,069	0,124
-444,080	800,000	-0,009	0,024
-443,065	663,023	-0,039	0,073
-442,051	-200,000	-0,035	-0,134
-441,036	0,498	-0,054	-0,028
-440,022	-102,703	0,091	-0,015
-439,007	299,409	0,070	-0,093
-437,992	-68,906	0,082	0,023
-436,978	-107,956	0,164	-0,025
-435,963	-200,000	-0,007	0,032
-434,949	-148,686	-0,087	-0,005
-433,934	43,215	0,072	-0,047
-432,919	-154,170	-0,080	-0,004
-431,905	14,062	-0,108	0,060
-430,890	330,510	-0,036	-0,051
-429,876	-24,284	0,234	0,100
-428,861	-200,000	-0,018	0,090
-427,846	-48,295	0,093	0,032
-426,832	-200,000	-0,013	-0,134
-425,817	-24,598	-0,140	-0,059
-424,803	41,443	-0,073	0,047
-423,788	-150,722	-0,079	0,004
-422,773	-65,921	0,098	-0,028
-421,759	-148,637	-0,011	-0,001
-420,744	-200,000	0,025	0,114
-419,730	-22,126	-0,072	0,031
-418,715	-84,634	0,083	-0,019
-417,701	304,376	-0,051	0,068
-416,686	279,501	0,089	0,114
-415,671	-200,000	0,011	0,054
-414,657	-200,000	0,009	0,057
-413,642	152,370	0,076	0,075
-412,628	401,541	0,063	0,095
-411,613	800,000	0,005	0,011
-410,598	-45,084	0,105	-0,037
-409,584	800,000	-0,059	0,139
-408,569	-58,487	0,129	-0,040
-407,555	-133,319	0,085	0,008
-406,540	-124,791	-0,101	-0,011
-405,525	-73,489	-0,152	-0,040
-404,511	39,268	0,017	-0,011
-403,496	-200,000	0,002	0,018
-402,482	449,149	0,078	-0,123
-401,467	338,020	-0,082	0,115
-400,452	175,085	0,052	0,054
-399,438	-101,967	-0,033	0,006
-398,423	-200,000	-0,022	0,072
-397,409	428,004	-0,057	-0,089
-396,394	800,000	-0,043	-0,087
-395,379	-200,000	-0,012	0,044
-394,365	184,991	0,094	0,100
-393,350	-200,000	0,011	0,131
-392,336	153,882	-0,020	0,020
-391,321	142,851	-0,043	-0,041
-390,306	23,464	-0,074	-0,044
-389,292	-6,272	-0,135	-0,066
-388,277	-200,000	-0,059	0,203
-387,263	141,626	0,093	0,088
-386,248	-16,911	-0,003	0,001
-385,233	6,223	0,100	-0,053
-384,219	-200,000	-0,018	-0,092
-383,204	144,169	0,023	0,022
-382,190	-30,673	-0,076	-0,031
-381,175	10,417	-0,110	0,060
-380,160	800,000	0,012	-0,037
-379,146	-200,000	0,004	0,103
-378,131	-200,000	-0,015	0,149
-377,117	-86,682	0,109	0,024
-376,102	232,125	0,037	0,044
-375,088	-41,691	-0,036	-0,013
-374,073	-68,232	-0,020	0,005
-373,058	-76,131	-0,088	0,022
-372,044	-200,000	0,028	0,132
-371,029	127,491	0,108	0,099
-370,015	20,249	-0,036	-0,021
-369,000	620,844	0,052	-0,094
-367,985	800,000	-0,063	-0,134
-366,971	800,000	-0,049	-0,113
-365,956	-200,000	-0,008	-0,084
-364,942	-200,000	0,000	-0,084
-363,927	-200,000	-0,023	0,103
-362,912	-200,000	-0,016	0,067
-361,898	-200,000	0,006	-0,100
-360,883	-200,000	-0,010	-0,081
-359,869	-72,346	-0,038	0,010
-358,854	-200,000	0,027	-0,179
-357,839	-123,746	0,157	0,018
-356,825	-200,000	0,021	-0,154
-355,810	163,157	-0,041	-0,041
-354,796	54,282	0,113	-0,078
-353,781	-27,208	-0,122	-0,051
-352,766	800,000	-0,042	-0,120
-351,752	-200,000	0,031	0,154
-350,737	-200,000	-0,013	0,178
-349,723	-200,000	-0,015	0,062
-348,708	-200,000	0,007	0,080
-347,693	48,649	0,044	-0,029
-346,679	116,570	-0,092	-0,081
-345,664	6,645	-0,071	-0,038
-344,650	800,000	0,019	-0,055
-343,635	-200,000	-0,006	0,022
-342,620	-149,008	0,134	0,008
-341,606	-23,525	-0,045	-0,019
-340,591	-133,023	0,067	0,006
-339,577	342,683	-0,041	0,058
-338,562	-10,888	0,049	-0,023
-337,548	-200,000	0,001	-0,008
-336,533	118,103	0,101	0,089
-335,518	-41,587	0,158	0,058
-334,504	800,000	0,027	0,061
-333,489	-90,550	0,016	0,003
-332,475	-82,716	-0,111	0,026
-331,460	403,957	-0,049	-0,074
-330,445	137,543	0,086	-0,081
-329,431	-43,517	0,150	-0,054
-328,416	461,074	0,121	0,195
-327,402	-200,000	0,002	0,169
-326,387	347,450	0,020	-0,028
-325,372	282,239	-0,080	0,103
-324,358	-200,000	-0,006	0,073
-323,343	35,865	-0,037	0,023
-322,329	216,826	0,046	-0,053
-321,314	800,000	-0,008	0,018
-320,299	-116,834	-0,146	0,019
-319,285	54,088	0,045	0,031
-318,270	148,099	-0,030	0,029
-317,256	-200,000	-0,012	-0,170
-316,241	-200,000	-0,038	-0,138
-315,226	-80,712	-0,151	-0,036
-314,212	-200,000	0,011	0,061
-313,197	-118,943	-0,073	-0,009
-312,183	210,869	-0,081	0,092
-311,168	155,409	0,017	-0,017
-310,153	-91,377	-0,115	-0,023
-309,139	-200,000	-0,002	-0,031
-308,124	667,156	0,016	-0,030
-307,110	75,128	-0,058	-0,044
-306,095	48,101	0,010	0,007
-305,080	26,799	0,084	0,050
-304,066	-73,613	-0,096	0,025
-303,051	306,216	-0,083	-0,111
-302,037	641,213	0,053	-0,097
-301,022	-200,000	0,001	0,031
-300,008	-200,000	0,021	0,089
-298,993	72,805	-0,062	0,046
-297,978	349,375	-0,066	0,094
-296,964	-200,000	-0,077	0,000
-295,949	376,234	-0,078	-0,114
-294,935	-29,199	0,019	-0,008
-293,920	582,049	-0,038	0,067
-292,905	-75,673	0,170	-0,043
-291,891	-4,428	-0,186	0,092
-290,876	182,602	-0,008	-0,008
-289,862	54,756	-0,109	-0,075
-288,847	-95,391	0,011	0,002
-287,832	-200,000	0,007	0,024
-286,818	33,530	-0,022	0,014
-285,803	-200,000	-0,013	0,113
-284,789	-200,000	0,005	0,032
-283,774	260,463	-0,096	0,119
-282,759	-200,000	0,024	0,112
-281,745	-71,212	-0,117	-0,031
-280,730	-109,386	-0,125	-0,019
-279,716	-24,074	0,080	0,034
-278,701	800,000	-0,048	-0,104
-277,686	-92,092	0,151	0,030
-276,672	-200,000	0,009	0,057
-275,657	-200,000	0,008	-0,122
-274,643	28,758	-0,119	0,072
-273,628	-116,019	-0,024	0,003
-272,613	-83,320	0,104	0,024
-271,599	-200,000	0,001	0,184
-270,584	-200,000	-0,005	0,042
-269,570	122,112	0,016	0,014
-268,555	-200,000	0,034	0,112
-267,540	-24,277	-0,172	0,073
-266,526	100,664	-0,133	-0,110
-265,511	-94,811	-0,152	-0,029
-264,497	486,973	0,010	-0,017
-263,482	110,138	-0,036	0,031
-262,467	-113,410	0,025	0,003
-261,453	156,755	-0,090	0,089
-260,438	800,000	-0,049	0,125
-259,424	800,000	0,045	-0,129
-258,409	800,000	-0,036	-0,075
-257,395	481,719	0,024	0,038
-256,380	370,935	-0,091	-0,133
-255,365	-5,334	0,110	0,054
-254,351	158,199	0,062	0,062
-253,336	118,109	0,076	0,067
-252,322	800,000	-0,037	0,085
-251,307	321,130	0,071	0,097
-250,292	800,000	0,055	-0,126
-249,278	-0,565	0,141	-0,071
-248,263	-70,814	-0,195	0,052
-247,249	-24,547	0,055	-0,023
-246,234	-31,601	0,024	-0,010
-245,219	182,130	-0,039	-0,041
-244,205	84,063	0,003	0,002
-243,190	260,192	-0,110	-0,136
-242,176	90,260	-0,043	-0,034
-241,161	752,621	0,016	0,031
-240,146	87,183	-0,030	0,023
-239,132	227,896	0,024	0,028
-238,117	-157,701	-0,102	0,004
-237,103	3,745	-0,092	0,048
-236,088	38,481	0,128	-0,081
-235,073	-43,894	0,085	-0,030
-234,059	-140,438	0,085	0,006
-233,044	205,812	-0,039	0,044
-232,030	294,617	-0,090	-0,118
-231,015	-200,000	0,001	0,080
-230,000	-200,000	0,023	-0,165
-228,986	-29,951	0,175	0,071
-227,971	43,472	0,037	-0,024
-226,957	35,345	0,049	-0,031
-225,942	-200,000	0,015	0,080
-224,927	-62,367	-0,038	0,011
-223,913	27,738	-0,161	-0,096
-222,898	126,277	0,129	-0,116
-221,884	210,828	-0,059	-0,066
-220,869	124,260	0,074	-0,066
-219,855	-200,000	0,014	0,096
-218,840	-172,343	0,118	0,003
-217,825	570,347	0,115	0,200
-216,811	69,490	0,007	-0,005
-215,796	-41,204	-0,127	0,047
-214,782	273,018	0,051	0,064
-213,767	28,783	0,137	-0,083
-212,752	206,821	0,073	0,081
-211,738	-200,000	-0,025	0,111
-210,723	-52,628	0,073	0,024
-209,709	-22,403	-0,044	0,019
-208,694	-200,000	-0,048	-0,167
-207,679	532,300	-0,040	0,068
-206,665	800,000	-0,041	0,084
-205,650	276,852	-0,029	0,037
-204,636	-200,000	0,021	0,157
-203,621	-200,000	-0,043	0,144
-202,606	-200,000	-0,015	-0,079
-201,592	800,000	-0,050	-0,127
-200,577	-113,176	-0,045	0,006
-199,563	4,950	0,044	0,023
-198,548	-81,790	0,066	-0,015
-197,533	-95,320	0,099	0,019
-196,519	-200,000	-0,045	0,168
-195,504	-200,000	0,004	0,014
-194,490	82,925	-0,050	-0,039
-193,475	-18,872	0,025	0,011
-192,460	64,367	0,066	-0,047
-191,446	800,000	0,021	0,064
-190,431	277,455	0,038	0,049
-189,417	-200,000	-0,001	0,084
-188,402	-200,000	-0,023	0,089
-187,387	105,500	0,061	-0,051
-186,373	800,000	-0,025	0,054
-185,358	-19,718	0,063	-0,028
-184,344	-102,365	0,093	0,016
-183,329	-200,000	0,027	0,096
-182,315	115,732	-0,086	0,075
-181,300	-119,048	0,115	0,014
-180,285	-67,210	0,171	0,048
-179,271	-200,000	0,009	-0,121
-178,256	138,778	-0,044	-0,041
-177,242	800,000	0,085	0,178
-176,227	131,440	-0,013	0,012
-175,212	-106,267	0,069	-0,011
-174,198	-200,000	-0,007	0,069
-173,183	619,717	-0,049	-0,087
-172,169	712,257	-0,037	-0,071
-171,154	335,579	-0,053	-0,074
-170,139	288,925	0,033	0,043
-169,125	-200,000	0,004	0,115
-168,110	800,000	0,078	0,177
-167,096	-200,000	-0,018	0,088
-166,081	463,651	0,015	-0,024
-165,066	800,000	0,021	-0,045
-164,052	-24,889	0,105	-0,044
-163,037	-141,137	0,075	-0,005
-162,023	800,000	0,030	-0,084
-161,008	380,625	0,030	0,044
-159,993	230,185	-0,062	0,073
-158,979	61,849	-0,093	0,066
-157,964	-200,000	0,007	-0,022
-156,950	-114,379	-0,152	0,021
-155,935	-200,000	-0,032	-0,133
-154,920	473,604	0,060	0,096
-153,906	-33,503	0,049	0,019
-152,891	-39,701	0,020	-0,007
-151,877	56,326	-0,065	-0,045
-150,862	29,295	0,053	0,032
-149,847	-74,237	-0,079	0,020
-148,833	800,000	-0,007	-0,017
-147,818	-131,736	0,144	0,013
-146,804	51,848	-0,075	0,050
-145,789	-52,567	-0,197	-0,064
-144,775	-200,000	0,005	-0,027
-143,760	-200,000	0,019	-0,141
-142,745	-41,387	-0,105	0,038
-141,731	191,116	0,046	-0,049
-140,716	83,283	0,104	0,081
-139,702	-13,237	0,130	0,060
-138,687	800,000	0,025	-0,074
-137,672	-200,000	0,008	-0,044
-136,658	800,000	-0,021	0,056
-135,643	800,000	-0,054	-0,106
-134,629	386,324	-0,060	0,088
-133,614	-200,000	-0,022	0,085
-132,599	-99,918	0,070	0,012
-131,585	137,019	0,049	0,045
-130,570	39,703	0,079	-0,050
-129,556	-200,000	-0,042	-0,285
-128,541	800,000	0,030	-0,080
-127,526	587,449	-0,049	-0,085
-126,512	-94,166	0,083	-0,016
-125,497	-94,584	0,110	0,021
-124,483	-157,766	-0,118	-0,005
-123,468	14,010	-0,096	0,053
-122,453	94,352	0,036	-0,029
-121,439	-43,343	-0,041	-0,015
-120,424	800,000	-0,045	0,096
-119,410	210,364	0,127	-0,142
-118,395	296,032	-0,037	-0,048
-117,380	-86,194	-0,058	-0,012
-116,366	-53,162	0,088	-0,029
-115,351	613,204	0,070	-0,126
-114,337	800,000	-0,023	-0,054
-113,322	800,000	0,030	-0,080
-112,307	-200,000	0,003	-0,039
-111,293	30,635	-0,078	0,047
-110,278	517,586	-0,023	-0,038
-109,264	66,323	-0,055	-0,040
-108,249	251,603	-0,087	0,105
-107,234	-200,000	0,004	-0,081
-106,220	-53,074	-0,152	0,049
-105,205	800,000	0,027	-0,084
-104,191	-200,000	0,032	0,140
-103,176	-200,000	-0,004	-0,076
-102,162	57,192	-0,157	-0,108
-101,147	-200,000	-0,016	0,060
-100,132	-113,081	0,064	0,009
-99,118	143,361	0,012	0,011
-98,103	-94,068	-0,089	-0,017
-97,089	-200,000	0,010	0,047
-96,074	-57,888	-0,070	0,022
-95,059	-39,643	-0,038	-0,014
-94,045	103,008	-0,068	0,057
-93,030	-200,000	0,015	-0,102
-92,016	-135,882	0,036	-0,003
-91,001	-119,524	-0,075	-0,009
-89,986	-188,201	0,166	0,001
-88,972	32,418	-0,090	-0,055
-87,957	-88,002	-0,113	0,024
-86,943	-200,000	0,002	-0,043
-85,928	34,795	-0,113	-0,070
-84,913	-13,043	-0,115	0,053
-83,899	-29,521	-0,051	-0,021
-82,884	146,146	0,067	-0,064
-81,870	-200,000	0,036	0,140
-80,855	790,474	0,047	-0,091
-79,840	70,522	-0,065	0,048
-78,826	-200,000	-0,011	-0,058
-77,811	83,158	0,125	-0,096
-76,797	99,401	-0,107	-0,088
-75,782	-38,967	0,082	-0,030
-74,767	142,804	0,026	-0,024
-73,753	-200,000	-0,007	0,234
-72,738	-1,244	-0,096	-0,048
-71,724	-95,509	-0,040	0,008
-70,709	19,497	-0,027	-0,016
-69,694	29,115	-0,178	-0,107
-68,680	-37,295	0,137	0,052
-67,665	60,408	0,052	0,036
-66,651	56,147	0,049	0,034
-65,636	-200,000	0,009	0,069
-64,622	800,000	0,028	0,065
-63,607	-200,000	0,019	-0,231
-62,592	129,243	-0,120	-0,108
-61,578	9,243	0,143	0,076
-60,563	800,000	-0,029	-0,078
-59,549	-200,000	-0,005	0,094
-58,534	-48,198	-1,557	-0,530
-57,519	378,915	-1,384	-2,014
-56,505	-200,000	-0,592	-4,462
-55,490	241,703	0,997	1,183
-54,476	800,000	4,774	11,136
-53,461	-200,000	18,472	295,119
-52,446	800,000	730,596	2253,667
-51,432	559,674	1647,019	2829,170
-50,417	78,952	1667,188	1263,347
-49,403	22,459	1540,673	890,357
-48,388	16,428	1463,655	816,583
-47,373	17,809	1453,529	817,560
-46,359	17,072	1443,836	808,548
-45,344	14,751	1439,016	794,718
-44,330	14,636	1437,314	793,200
-43,315	14,630	1435,815	792,311
-42,300	14,666	1434,177	791,548
-41,286	14,675	1432,925	790,870
-40,271	14,662	1431,609	790,050
-39,257	14,661	1430,129	789,196
-38,242	14,638	1429,054	788,461
-37,227	14,693	1427,821	788,010
-36,213	14,684	1426,422	787,166
-35,198	14,679	1425,347	786,515
-34,184	14,724	1424,415	786,184
-33,169	14,655	1422,979	785,034
-32,154	14,708	1422,011	784,719
-31,140	14,687	1420,702	783,869
-30,125	14,694	1419,748	783,340
-29,111	14,707	1418,431	782,647
-28,096	14,678	1417,191	781,792
-27,082	14,600	1416,313	780,913
-26,067	14,587	1415,176	780,193
-25,052	14,633	1414,221	779,851
-24,038	14,541	1413,262	778,857
-23,023	14,572	1412,085	778,324
-22,009	14,596	1411,133	777,881
-20,994	14,563	1410,292	777,231
-19,979	14,545	1409,469	776,662
-18,965	14,527	1408,572	776,053
-17,950	14,507	1407,454	775,315
-16,936	14,497	1406,523	774,725
-15,921	14,470	1405,480	773,994
-14,906	14,522	1404,582	773,712
-13,892	14,520	1403,670	773,166
-12,877	14,494	1402,903	772,596
-11,863	14,502	1401,943	772,072
-10,848	14,505	1400,903	771,484
-9,833	14,472	1400,100	770,858
-8,819	14,419	1399,184	770,074
-7,804	14,439	1398,172	769,580
-6,790	14,396	1397,335	768,890
-5,775	14,467	1396,084	768,500
-4,760	14,440	1395,295	767,909
-3,746	14,395	1394,509	767,237
-2,731	14,425	1393,652	766,877
-1,717	14,403	1392,725	766,235
-0,702	14,361	1391,001	765,059
0,313	18,242	1309,448	738,168
1,327	34,653	705,953	435,984
2,342	53,334	124,354	84,259
3,356	3,274	16,588	8,521
4,371	10,278	3,135	1,683
5,386	-14,975	0,604	0,273
6,400	-200,000	0,018	0,174
7,415	258,756	-0,165	-0,201
8,429	52,647	-0,335	-0,226
9,444	188,487	-0,242	-0,256
10,459	38,758	-0,268	-0,169
11,473	-30,311	-0,316	-0,126
12,488	-22,077	-0,196	-0,084
13,502	79,569	-0,281	-0,213
14,517	48,782	-0,281	-0,186
15,531	87,962	-0,439	-0,344
16,546	133,961	-0,405	-0,371
17,561	519,962	-0,284	-0,473
18,575	-35,284	-0,252	-0,096
19,590	191,233	-0,270	-0,288
20,604	136,847	-0,177	-0,164
21,619	99,096	-0,352	-0,287
22,634	109,528	-0,431	-0,365
23,648	95,412	-0,452	-0,364
24,663	48,799	-0,486	-0,322
25,677	93,824	-0,262	-0,209
26,692	8,248	-0,376	-0,199
27,707	-60,107	-0,507	-0,152
28,721	16,570	-0,334	-0,186
29,736	-78,047	-0,438	-0,106
30,750	264,587	-0,291	-0,358
31,765	112,637	-0,452	-0,386
32,780	156,315	-0,334	-0,326
33,794	19,237	-0,441	-0,249
34,809	-57,093	-0,394	-0,122
35,823	41,350	-0,356	-0,227
36,838	231,433	-0,358	-0,415
37,853	74,822	-0,317	-0,235
38,867	70,974	-0,360	-0,263
39,882	239,426	-0,275	-0,323
40,896	-21,740	-0,411	-0,176
41,911	55,893	-0,296	-0,203
42,926	12,750	-0,414	-0,225
43,940	256,165	-0,249	-0,301
44,955	76,148	-0,378	-0,282
45,969	59,472	-0,302	-0,210
46,984	-39,728	-0,322	-0,118
47,999	160,286	-0,319	-0,314
49,013	2,669	-0,392	-0,200
50,028	17,621	-0,255	-0,142
51,042	30,372	-0,460	-0,276
52,057	201,787	-0,329	-0,358
53,071	11,366	-0,343	-0,185
54,086	20,016	-0,443	-0,251
55,101	31,599	-0,404	-0,244
56,115	112,369	-0,375	-0,319
57,130	4,266	-0,477	-0,245
58,144	59,781	-0,391	-0,272
59,159	92,601	-0,297	-0,236
60,174	-39,805	-0,332	-0,121
61,188	-65,073	-0,482	-0,136
62,203	198,903	-0,289	-0,312
63,217	-17,273	-0,422	-0,186
64,232	148,996	-0,297	-0,283
65,247	-97,934	-0,346	-0,062
66,261	-0,064	-0,352	-0,176
67,276	24,750	-0,381	-0,222
68,290	58,437	-0,255	-0,176
69,305	313,564	-0,248	-0,329
70,320	17,922	-0,246	-0,138
71,334	56,653	-0,327	-0,224
72,349	3,669	-0,339	-0,173
73,363	206,279	-0,411	-0,451
74,378	238,233	-0,292	-0,342
75,393	150,741	-0,294	-0,281
76,407	-0,473	-0,285	-0,142
77,422	3,637	-0,295	-0,151
78,436	105,875	-0,305	-0,254
79,451	-97,454	-0,387	-0,070
80,466	3,860	-0,260	-0,133
81,480	114,082	-0,279	-0,239
82,495	-99,872	-0,365	-0,064
83,509	-9,597	-0,295	-0,138
84,524	-133,792	-0,152	-0,013
85,539	217,651	-0,150	-0,169
86,553	509,688	-0,149	-0,244
87,568	-47,298	-0,325	-0,111
88,582	24,652	-0,323	-0,187
89,597	56,393	-0,252	-0,172
90,611	106,104	-0,284	-0,236
91,626	108,236	-0,192	-0,161
92,641	56,641	-0,222	-0,152
93,655	-42,225	-0,199	-0,071
94,670	110,348	-0,317	-0,268
95,684	2,472	-0,327	-0,166
96,699	-3,420	-0,263	-0,128
97,714	20,543	-0,297	-0,168
98,728	30,681	-0,390	-0,234
99,743	124,613	-0,257	-0,227
100,757	-34,235	-0,335	-0,128
101,772	74,779	-0,279	-0,206
102,787	16,478	-0,219	-0,121
103,801	74,435	-0,274	-0,202
104,816	28,866	-0,375	-0,222
105,830	14,499	-0,297	-0,162
106,845	95,772	-0,298	-0,239
107,860	-102,501	-0,283	-0,047
108,874	-37,110	-0,366	-0,137
109,889	404,920	-0,190	-0,282
110,903	345,297	-0,147	-0,204
111,918	146,531	-0,146	-0,138
112,933	11,478	-0,262	-0,140
113,947	49,633	-0,248	-0,163
114,962	-10,297	-0,187	-0,086
115,976	680,744	-0,163	-0,299
116,991	44,158	-0,257	-0,165
118,006	18,713	-0,349	-0,195
119,020	13,232	-0,406	-0,220
120,035	-134,205	-0,244	-0,021
121,049	71,166	-0,198	-0,144
122,064	-177,970	-0,220	0,004
123,079	47,294	-0,331	-0,216
124,093	204,592	-0,211	-0,229
125,108	51,104	-0,267	-0,177
126,122	-56,111	-0,213	-0,066
127,137	172,689	-0,168	-0,169
128,151	8,106	-0,335	-0,176
129,166	800,000	-0,115	-0,225
130,181	48,382	-0,248	-0,163
131,195	-69,611	-0,337	-0,090
132,210	135,575	-0,261	-0,238
133,224	1,601	-0,246	-0,123
134,239	-75,389	-0,162	-0,040
135,254	-147,740	-0,226	0,013
136,268	189,666	-0,250	-0,263
137,283	-26,445	-0,278	-0,113
138,297	118,526	-0,278	-0,240
139,312	352,567	-0,182	-0,253
140,327	239,940	-0,275	-0,321
141,341	82,696	-0,227	-0,172
142,356	452,122	-0,210	-0,326
143,370	-9,909	-0,216	-0,100
144,385	59,375	-0,262	-0,180
145,400	11,099	-0,237	-0,126
146,414	237,488	-0,270	-0,313
147,429	-2,366	-0,397	-0,194
148,443	40,076	-0,268	-0,168
149,458	478,728	-0,189	-0,300
150,473	7,918	-0,177	-0,092
151,487	50,825	-0,237	-0,156
152,502	122,886	-0,249	-0,218
153,516	30,660	-0,254	-0,151
154,531	254,162	-0,281	-0,337
155,546	119,059	-0,121	-0,104
156,560	800,000	-0,177	-0,387
157,575	-3,133	-0,217	-0,106
158,589	86,074	-0,285	-0,219
159,604	215,269	-0,257	-0,285
160,619	431,515	-0,175	-0,265
161,633	167,623	-0,255	-0,253
162,648	82,472	-0,380	-0,288
163,662	88,407	-0,231	-0,179
164,677	146,511	-0,263	-0,247
165,692	-76,602	-0,255	-0,062
166,706	-117,047	-0,316	-0,040
167,721	65,355	-0,250	-0,176
168,735	-49,565	-0,224	-0,074
169,750	-42,079	-0,241	-0,085
170,764	191,569	-0,190	-0,200
171,779	-110,470	-0,407	-0,058
172,794	264,390	-0,139	-0,169
173,808	-70,106	-0,224	-0,059
174,823	31,018	-0,206	-0,123
175,837	213,326	-0,174	-0,192
176,852	17,873	-0,246	-0,136
177,867	-95,080	-0,281	-0,052
178,881	66,721	-0,239	-0,169
179,896	188,412	-0,218	-0,228
180,910	-129,571	-0,222	-0,021
181,925	128,376	-0,256	-0,228
182,940	61,214	-0,296	-0,205
183,954	67,635	-0,266	-0,189
184,969	228,943	-0,163	-0,186
185,983	-84,416	-0,262	-0,057
186,998	74,708	-0,237	-0,173
188,013	219,120	-0,216	-0,241
189,027	130,931	-0,277	-0,247
190,042	-83,461	-0,203	-0,045
191,056	94,758	-0,230	-0,182
192,071	46,779	-0,177	-0,115
193,086	9,645	-0,176	-0,093
194,100	149,702	-0,126	-0,119
195,115	47,851	-0,287	-0,186
196,129	60,407	-0,252	-0,173
197,144	238,342	-0,233	-0,270
198,159	14,154	-0,276	-0,149
199,173	-114,597	-0,165	-0,022
200,188	18,619	-0,229	-0,127
201,202	502,774	-0,112	-0,180
202,217	117,258	-0,225	-0,193
203,232	247,837	-0,152	-0,180
204,246	320,580	-0,169	-0,225
205,261	-19,902	-0,242	-0,103
206,275	694,843	-0,120	-0,220
207,290	134,222	-0,168	-0,151
208,304	231,561	-0,102	-0,116
209,319	201,875	-0,127	-0,136
210,334	42,908	-0,211	-0,134
211,348	-11,668	-0,256	-0,116
212,363	276,805	-0,113	-0,140
213,377	159,657	-0,240	-0,233
214,392	-31,265	-0,126	0,049
215,407	-200,000	-0,045	-0,233
216,421	-192,992	-0,276	-0,002
217,436	126,332	-0,244	-0,214
218,450	267,585	-0,167	-0,204
219,465	-16,621	-0,246	-0,108
220,480	9,147	-0,269	-0,141
221,494	66,007	-0,178	-0,125
222,509	-168,863	-0,243	0,006
223,523	80,512	-0,166	-0,124
224,538	800,000	-0,050	-0,111
225,553	-200,000	-0,044	-0,216
226,567	2,511	-0,264	-0,132
227,582	140,204	-0,244	-0,224
228,596	-49,010	-0,225	-0,074
229,611	-15,583	-0,224	-0,099
230,626	-102,599	-0,161	0,026
231,640	-89,952	-0,178	0,036
232,655	28,629	-0,189	-0,111
233,669	24,447	-0,285	-0,163
234,684	308,276	-0,226	-0,293
235,699	132,957	-0,127	-0,114
236,713	63,418	-0,100	-0,069
237,728	195,628	-0,158	-0,167
238,742	-141,177	-0,140	0,010
239,757	70,080	-0,295	-0,211
240,772	102,271	-0,242	-0,196
241,786	-25,032	-0,295	-0,121
242,801	-200,000	-0,025	-0,106
243,815	672,869	-0,161	-0,290
244,830	-200,000	0,009	-0,084
245,844	-134,087	-0,260	0,022
246,859	-177,650	-0,167	-0,003
247,874	83,243	-0,258	-0,195
248,888	800,000	-0,085	-0,201
249,903	108,243	-0,251	-0,208
250,917	744,827	-0,089	-0,168
251,932	-16,319	-0,234	-0,103
252,947	14,279	-0,172	-0,092
253,961	409,593	-0,197	-0,290
254,976	33,342	-0,196	-0,118
255,990	-60,634	-0,176	-0,051
257,005	-36,811	-0,224	-0,083
258,020	-50,283	-0,125	-0,041
259,034	-2,007	-0,037	0,018
260,049	334,967	-0,130	-0,175
261,063	72,816	-0,168	-0,121
262,078	35,597	-0,144	-0,087
263,093	800,000	-0,073	-0,153
264,107	123,587	-0,194	-0,168
265,122	9,392	-0,141	-0,074
266,136	-98,639	-0,267	-0,047
267,151	-2,131	-0,229	-0,111
268,166	38,250	-0,175	-0,108
269,180	-54,087	-0,288	-0,090
270,195	7,967	-0,285	-0,147
271,209	172,129	-0,220	-0,219
272,224	-72,902	-0,208	-0,052
273,239	276,396	-0,050	0,061
274,253	-121,511	-0,155	0,018
275,268	395,557	-0,086	-0,124
276,282	147,076	-0,226	-0,211
277,297	800,000	-0,071	-0,141
278,312	-27,064	-0,300	-0,120
279,326	13,793	-0,165	-0,089
280,341	-99,012	-0,234	-0,041
281,355	-21,930	-0,138	-0,058
282,370	-121,195	-0,240	-0,027
283,384	5,711	-0,179	-0,091
284,399	147,381	-0,231	-0,215
285,414	-22,739	-0,201	-0,084
286,428	33,725	-0,165	-0,099
287,443	292,027	-0,048	-0,060
288,457	446,496	-0,013	-0,020
289,472	2,981	-0,069	-0,035
290,487	43,637	-0,224	-0,141
291,501	293,189	-0,188	-0,237
292,516	102,416	-0,242	-0,195
293,530	12,585	-0,210	-0,111
294,545	-119,747	-0,158	-0,019
295,560	-125,304	-0,078	-0,008
296,574	800,000	0,035	0,100
297,589	-6,109	-0,106	-0,050
298,603	67,462	-0,127	-0,089
299,618	63,744	-0,205	-0,142
300,633	401,594	-0,048	-0,070
301,647	-117,756	-0,135	-0,017
302,662	-32,213	-0,153	-0,059
303,676	-52,721	-0,073	-0,023
304,691	260,238	-0,146	-0,175
305,706	37,178	-0,144	-0,088
306,720	-36,195	-0,229	-0,085
307,735	407,229	-0,093	-0,135
308,749	226,700	-0,120	-0,134
309,764	356,645	-0,052	-0,072
310,779	153,987	-0,059	-0,056
311,793	-144,604	-0,151	-0,009
312,808	11,335	-0,230	-0,121
313,822	11,940	-0,115	-0,061
314,837	70,980	-0,251	-0,179
315,852	54,814	-0,161	-0,107
316,866	28,439	-0,157	0,091
317,881	800,000	-0,078	-0,217
318,895	662,263	-0,159	-0,284
319,910	800,000	-0,063	-0,138
320,925	637,818	-0,170	-0,299
321,939	83,986	-0,147	-0,110
322,954	800,000	-0,023	-0,054
323,968	444,006	-0,062	0,094
324,983	800,000	-0,077	-0,151
325,997	494,597	-0,088	-0,139
327,012	66,033	-0,183	-0,128
328,027	218,606	-0,119	-0,131
329,041	180,146	-0,012	-0,012
330,056	234,605	-0,086	-0,097
331,070	500,301	-0,152	-0,243
332,085	137,207	-0,115	0,104
333,100	-50,846	-0,167	-0,054
334,114	-200,000	-0,042	-0,180
335,129	67,824	-0,235	-0,165
336,143	-200,000	-0,041	-0,137
337,158	-119,105	-0,152	-0,018
338,173	-200,000	-0,035	-0,166
339,187	-13,505	-0,172	-0,077
340,202	298,465	-0,145	-0,183
341,216	148,933	-0,155	-0,144
342,231	30,328	-0,204	-0,119
343,246	-116,012	-0,167	-0,021
344,260	-65,201	-0,184	-0,051
345,275	33,379	-0,120	-0,071
346,289	96,698	-0,105	-0,083
347,304	496,550	-0,068	0,107
348,319	-39,414	-0,186	-0,067
349,333	800,000	-0,050	-0,118
350,348	161,847	-0,147	-0,141
351,362	-197,355	-0,292	0,001
352,377	98,586	-0,092	-0,073
353,392	800,000	-0,049	-0,096
354,406	15,582	-0,248	-0,134
355,421	208,598	1315,358	1414,255
356,435	160,505	1476,203	1414,763
