DTS Sentinel unit serial number:	SN410029Multiplexer serial number:	ORYXHardware model number:	OX2-SRSoftware version number:	ORYX F/W v4,00 Oryx Data Collector v3.7.2.0data status	okinstallation	B3 Nyhavnadifferential loss correction	single-endedforward channel	channel 1reverse channel	N/Adate	2023/12/01time	02:57:30forward acquisition time	300,00reverse acquisition time	0,00gamma	499,1914k internal	0,3212k external	0,3212temperature offset calibration	1,0000default loss term (dB/km)	0,3820temperature slope calibration	1,0000multiplexer offset coefficient	1,0000multiplexer slope coefficient	1,0000fibre end	0,00T internal ref (°C)	8,47T ext. ref 1 (°C)	-6,62T ext. ref 2 (°C)	-6,76length (m)	temperature (°C)	Stokes	anti-Stokes-744,400	560,584	-0,149	-0,261
-743,385	-200,000	-0,015	0,200
-742,371	240,661	-0,138	-0,167
-741,356	495,733	-0,118	0,198
-740,342	107,186	-0,152	-0,131
-739,327	-200,000	0,049	0,230
-738,312	121,864	-0,240	-0,217
-737,298	-200,000	-0,047	0,344
-736,283	428,036	-0,153	-0,240
-735,269	-200,000	-0,041	0,291
-734,254	2,453	-0,191	-0,100
-733,239	62,389	-0,170	0,123
-732,225	800,000	-0,120	-0,304
-731,210	-151,285	-0,077	0,004
-730,196	-200,000	0,002	0,024
-729,181	-200,000	0,004	-0,042
-728,167	-200,000	0,010	-0,048
-727,152	800,000	0,008	-0,021
-726,137	-200,000	-0,017	-0,063
-725,123	111,843	-0,021	0,018
-724,108	-96,039	-0,112	-0,021
-723,094	-101,908	0,074	-0,013
-722,079	312,610	-0,069	0,093
-721,064	131,715	0,028	-0,026
-720,050	-9,173	-0,104	0,050
-719,035	50,014	0,155	-0,106
-718,021	519,286	0,033	-0,057
-717,006	51,894	-0,184	-0,127
-715,991	-3,082	-0,153	-0,077
-714,977	-89,961	-0,155	-0,032
-713,962	-200,000	-0,005	-0,053
-712,948	12,154	0,056	-0,031
-711,933	-49,358	-0,132	0,045
-710,918	4,110	0,097	0,051
-709,904	-185,753	-0,191	0,002
-708,889	-147,826	0,134	0,008
-707,875	800,000	-0,035	-0,105
-706,860	-143,194	0,033	0,002
-705,845	157,178	0,084	0,084
-704,831	-141,249	-0,091	0,007
-703,816	800,000	0,075	-0,163
-702,802	-200,000	0,000	-0,058
-701,787	-200,000	0,000	-0,111
-700,772	-116,357	-0,169	-0,022
-699,758	-159,147	-0,163	0,007
-698,743	56,441	0,055	0,039
-697,729	449,045	0,032	-0,052
-696,714	-41,912	0,080	0,029
-695,699	-200,000	-0,040	-0,154
-694,685	-200,000	-0,023	-0,096
-693,670	212,939	-0,038	-0,043
-692,656	24,014	-0,003	0,002
-691,641	800,000	0,038	0,099
-690,627	-58,450	-0,165	-0,052
-689,612	163,541	0,026	0,027
-688,597	409,334	0,042	-0,064
-687,583	515,215	-0,078	-0,132
-686,568	96,862	-0,019	-0,015
-685,554	452,821	0,050	-0,080
-684,539	-200,000	0,002	0,011
-683,524	-200,000	-0,018	-0,112
-682,510	4,945	0,113	-0,060
-681,495	-200,000	0,012	-0,045
-680,481	-200,000	-0,120	-0,000
-679,466	800,000	-0,047	0,115
-678,451	800,000	0,022	0,045
-677,437	-200,000	-0,004	0,123
-676,422	-17,699	-0,058	0,026
-675,408	273,503	0,074	0,095
-674,393	-24,821	-0,060	-0,026
-673,378	51,878	-0,078	-0,054
-672,364	84,854	-0,052	-0,041
-671,349	713,291	-0,033	-0,063
-670,335	71,064	0,144	-0,108
-669,320	-200,000	-0,015	-0,049
-668,305	129,295	-0,020	-0,019
-667,291	598,732	0,020	0,036
-666,276	-200,000	0,002	0,023
-665,262	130,326	-0,060	-0,056
-664,247	313,601	-0,031	0,042
-663,232	-200,000	-0,044	0,156
-662,218	56,732	0,065	0,046
-661,203	800,000	-0,063	0,131
-660,189	141,999	0,095	0,091
-659,174	103,883	0,066	-0,056
-658,159	-95,042	-0,117	0,023
-657,145	414,545	-0,044	-0,068
-656,130	-200,000	-0,025	-0,106
-655,116	-118,936	-0,049	-0,006
-654,101	50,939	0,120	0,082
-653,086	-200,000	-0,010	-0,107
-652,072	-200,000	0,026	-0,130
-651,057	200,981	-0,091	0,101
-650,043	-46,710	-0,067	-0,024
-649,028	800,000	-0,028	0,072
-648,014	-200,000	-0,022	-0,087
-646,999	-110,386	0,097	0,014
-645,984	-85,181	-0,053	-0,012
-644,970	800,000	0,050	0,115
-643,955	10,071	-0,140	-0,077
-642,941	227,707	-0,035	0,042
-641,926	106,445	-0,059	0,050
-640,911	800,000	0,034	-0,068
-639,897	-131,899	0,078	0,007
-638,882	112,392	-0,057	-0,049
-637,868	800,000	0,028	0,076
-636,853	-141,615	-0,109	-0,008
-635,838	-200,000	-0,027	-0,214
-634,824	-200,000	-0,029	-0,112
-633,809	-6,267	-0,164	0,080
-632,795	-55,233	0,097	0,031
-631,780	-200,000	-0,010	0,092
-630,765	405,204	-0,048	-0,073
-629,751	72,692	-0,210	-0,158
-628,736	-159,503	-0,084	0,003
-627,722	-176,200	0,070	-0,001
-626,707	159,017	-0,077	-0,077
-625,692	-200,000	0,024	0,115
-624,678	101,921	-0,073	0,062
-623,663	-5,629	-0,195	0,096
-622,649	-200,000	-0,023	-0,079
-621,634	2,851	0,024	0,012
-620,619	-49,963	-0,143	-0,049
-619,605	-200,000	-0,029	0,146
-618,590	468,354	0,068	-0,111
-617,576	195,746	-0,021	-0,023
-616,561	800,000	-0,016	0,039
-615,546	800,000	0,018	-0,038
-614,532	-84,197	-0,023	-0,005
-613,517	-67,639	-0,025	-0,007
-612,503	-105,235	0,087	0,014
-611,488	-67,434	-0,060	-0,017
-610,474	27,543	0,114	-0,069
-609,459	18,542	-0,072	0,042
-608,444	185,569	0,084	0,090
-607,430	-123,264	-0,040	-0,005
-606,415	-200,000	-0,004	0,025
-605,401	-140,795	-0,038	-0,003
-604,386	-122,061	0,059	-0,007
-603,371	-200,000	0,011	-0,043
-602,357	-15,304	0,018	-0,008
-601,342	13,755	0,029	-0,016
-600,328	-200,000	0,016	-0,190
-599,313	12,916	-0,073	0,041
-598,298	51,594	-0,131	-0,089
-597,284	-77,910	0,095	0,024
-596,269	-200,000	-0,004	0,056
-595,255	-200,000	0,042	0,182
-594,240	88,879	0,073	-0,059
-593,225	24,854	-0,071	0,042
-592,211	800,000	-0,027	0,080
-591,196	154,989	-0,045	-0,045
-590,182	-163,034	0,103	0,004
-589,167	390,118	-0,031	-0,047
-588,152	22,432	-0,094	-0,055
-587,138	800,000	-0,039	-0,120
-586,123	-53,234	-0,228	-0,075
-585,109	-141,832	0,023	0,002
-584,094	-200,000	0,004	-0,034
-583,079	800,000	0,014	0,032
-582,065	460,194	-0,089	-0,144
-581,050	-200,000	0,018	0,064
-580,036	-135,947	-0,137	-0,011
-579,021	117,115	-0,037	0,033
-578,006	-97,563	0,102	-0,019
-576,992	-41,151	-0,067	-0,025
-575,977	-200,000	-0,004	0,036
-574,963	-200,000	0,011	0,047
-573,948	449,708	-0,025	-0,040
-572,934	-60,143	-0,107	-0,033
-571,919	-119,491	-0,188	-0,023
-570,904	-53,303	-0,109	0,036
-569,890	-11,995	0,056	0,026
-568,875	420,492	0,039	-0,061
-567,861	-200,000	-0,008	-0,057
-566,846	-37,955	0,055	0,021
-565,831	-93,110	0,047	0,009
-564,817	800,000	-0,056	-0,154
-563,802	-200,000	-0,027	-0,108
-562,788	205,659	0,114	-0,128
-561,773	6,527	-0,125	-0,067
-560,758	-3,087	0,075	0,037
-559,744	35,632	0,067	-0,042
-558,729	-84,494	-0,079	-0,018
-557,715	-200,000	-0,004	-0,133
-556,700	-116,000	-0,046	0,006
-555,685	-200,000	0,018	-0,101
-554,671	-200,000	-0,015	-0,061
-553,656	-200,000	-0,063	0,244
-552,642	144,117	0,083	0,079
-551,627	-200,000	0,019	-0,070
-550,612	405,049	-0,081	-0,123
-549,598	-126,897	-0,018	0,002
-548,583	292,291	-0,061	0,080
-547,569	-200,000	0,004	-0,112
-546,554	-98,292	0,072	0,013
-545,539	-20,669	0,186	0,082
-544,525	218,870	-0,019	-0,022
-543,510	800,000	-0,021	-0,049
-542,496	800,000	-0,041	-0,084
-541,481	-64,081	-0,058	0,017
-540,466	800,000	0,031	-0,071
-539,452	-122,907	0,195	-0,022
-538,437	800,000	0,044	-0,096
-537,423	-98,018	-0,104	0,019
-536,408	-144,455	0,140	0,009
-535,393	-18,205	-0,167	-0,075
-534,379	50,040	-0,063	0,043
-533,364	312,704	0,047	0,064
-532,350	534,515	0,078	-0,133
-531,335	-200,000	0,007	-0,072
-530,321	91,055	-0,020	-0,016
-529,306	132,138	-0,067	0,062
-528,291	-120,158	-0,140	0,017
-527,277	282,079	0,025	0,032
-526,262	-200,000	-0,015	-0,104
-525,248	-57,604	0,090	0,028
-524,233	163,450	0,043	-0,043
-523,218	29,573	0,096	0,059
-522,204	66,979	0,019	0,014
-521,189	-47,181	-0,017	-0,006
-520,175	278,932	-0,027	-0,035
-519,160	-59,523	0,080	-0,024
-518,145	-51,047	0,048	-0,016
-517,131	-92,193	0,041	0,008
-516,116	-48,868	0,103	-0,035
-515,102	-69,197	0,101	-0,028
-514,087	-200,000	-0,010	-0,168
-513,072	800,000	-0,046	-0,095
-512,058	800,000	-0,046	-0,130
-511,043	-200,000	0,002	0,078
-510,029	50,885	0,081	-0,055
-509,014	108,903	0,031	-0,027
-507,999	52,715	0,122	0,083
-506,985	65,748	-0,061	-0,044
-505,970	-200,000	0,017	0,077
-504,956	-200,000	-0,018	0,087
-503,941	-200,000	0,014	0,101
-502,926	-131,233	0,195	0,018
-501,912	123,424	0,086	0,078
-500,897	162,914	0,040	0,041
-499,883	356,712	-0,062	-0,089
-498,868	374,290	0,075	-0,110
-497,853	800,000	0,008	0,017
-496,839	18,264	0,042	-0,024
-495,824	71,658	0,057	0,043
-494,810	143,578	0,121	0,116
-493,795	800,000	-0,058	0,140
-492,781	107,814	-0,120	0,102
-491,766	800,000	-0,020	0,052
-490,751	661,115	-0,100	-0,186
-489,737	165,712	0,064	-0,065
-488,722	-92,521	0,126	0,025
-487,708	315,998	-0,064	0,087
-486,693	-200,000	0,008	-0,049
-485,678	-103,666	0,084	0,014
-484,664	-200,000	0,038	-0,128
-483,649	-56,502	-0,046	-0,014
-482,635	112,559	-0,063	0,055
-481,620	-85,847	-0,189	0,042
-480,605	-88,909	0,041	-0,009
-479,591	800,000	0,074	0,168
-478,576	-189,297	-0,140	0,001
-477,562	75,299	-0,033	0,025
-476,547	-200,000	-0,011	-0,060
-475,532	-143,331	-0,061	0,004
-474,518	303,855	0,032	0,042
-473,503	104,625	0,022	0,018
-472,489	-144,718	-0,134	0,009
-471,474	-5,098	-0,076	0,037
-470,459	800,000	0,014	-0,034
-469,445	-49,154	0,111	-0,038
-468,430	-94,781	-0,180	-0,035
-467,416	4,648	-0,083	0,044
-466,401	-190,697	0,049	-0,000
-465,386	-200,000	-0,004	0,018
-464,372	22,491	-0,043	-0,025
-463,357	-200,000	0,014	0,061
-462,343	131,663	-0,028	0,026
-461,328	142,656	-0,088	-0,084
-460,313	91,142	0,108	0,087
-459,299	-200,000	-0,030	-0,114
-458,284	257,549	-0,031	-0,038
-457,270	800,000	0,083	-0,182
-456,255	323,403	0,031	-0,042
-455,241	-200,000	0,004	0,071
-454,226	32,597	-0,105	-0,065
-453,211	-71,682	0,087	-0,023
-452,197	-86,538	0,064	-0,014
-451,182	800,000	0,065	-0,134
-450,168	104,181	0,088	0,074
-449,153	455,648	-0,018	0,029
-448,138	638,246	0,003	-0,006
-447,124	700,463	-0,016	0,031
-446,109	287,561	-0,095	0,123
-445,095	-27,434	-0,102	-0,042
-444,080	-8,058	0,093	-0,045
-443,065	277,530	0,050	0,063
-442,051	-22,084	0,136	0,059
-441,036	280,407	0,072	0,093
-440,022	-17,157	0,048	-0,022
-439,007	800,000	0,113	0,229
-437,992	14,421	0,084	0,047
-436,978	703,689	0,026	0,049
-435,963	-107,837	-0,048	-0,007
-434,949	132,090	-0,079	-0,073
-433,934	-91,903	-0,042	0,008
-432,919	-128,608	-0,175	-0,017
-431,905	18,751	0,117	0,067
-430,890	135,625	-0,044	0,041
-429,876	489,800	-0,046	0,076
-428,861	-136,078	-0,115	0,010
-427,846	-200,000	-0,002	-0,014
-426,832	27,559	-0,196	-0,118
-425,817	628,632	-0,028	0,051
-424,803	-200,000	-0,015	-0,128
-423,788	198,310	-0,120	0,131
-422,773	-139,052	0,081	0,006
-421,759	-200,000	0,027	0,088
-420,744	-200,000	-0,003	0,104
-419,730	167,173	-0,118	-0,120
-418,715	109,724	0,079	-0,068
-417,701	179,265	-0,056	0,058
-416,686	149,371	0,048	0,046
-415,671	46,017	-0,050	0,033
-414,657	-2,709	0,163	0,081
-413,642	61,012	0,074	-0,052
-412,628	98,421	-0,028	-0,023
-411,613	-200,000	-0,002	0,021
-410,598	38,043	-0,134	-0,085
-409,584	105,662	-0,095	0,080
-408,569	-98,187	0,071	0,013
-407,555	-79,246	0,089	-0,022
-406,540	-200,000	-0,012	0,061
-405,525	-47,473	0,109	-0,038
-404,511	-50,448	-0,126	-0,042
-403,496	-146,097	0,149	0,009
-402,482	-200,000	0,007	-0,040
-401,467	-80,590	-0,060	-0,014
-400,452	-200,000	0,028	0,108
-399,438	-29,335	0,076	0,031
-398,423	-177,716	-0,032	-0,001
-397,409	-200,000	0,008	-0,088
-396,394	-200,000	0,017	0,090
-395,379	47,477	0,045	-0,030
-394,365	-101,151	0,072	0,013
-393,350	181,550	0,086	0,091
-392,336	800,000	-0,027	-0,075
-391,321	-117,789	-0,138	0,018
-390,306	800,000	0,040	0,096
-389,292	158,860	0,064	0,064
-388,277	-200,000	-0,007	-0,072
-387,263	-31,949	-0,038	-0,015
-386,248	31,627	0,112	0,068
-385,233	13,821	0,030	0,017
-384,219	-181,577	-0,088	-0,001
-383,204	-200,000	0,034	-0,129
-382,190	36,811	0,074	0,047
-381,175	110,373	0,085	-0,073
-380,160	501,442	0,046	-0,077
-379,146	800,000	-0,031	-0,063
-378,131	76,509	-0,081	0,061
-377,117	234,612	-0,068	-0,080
-376,102	659,272	-0,073	-0,136
-375,088	800,000	0,041	-0,088
-374,073	-200,000	-0,144	0,000
-373,058	170,019	0,050	0,051
-372,044	138,300	0,092	0,087
-371,029	259,631	-0,102	-0,126
-370,015	-126,885	0,056	-0,006
-369,000	115,516	0,099	-0,086
-367,985	454,815	0,073	-0,117
-366,971	-175,323	0,083	0,002
-365,956	-200,000	-0,038	0,126
-364,942	-200,000	0,012	0,166
-363,927	-135,889	0,068	0,006
-362,912	-200,000	-0,002	-0,055
-361,898	-200,000	-0,003	-0,081
-360,883	16,526	0,037	-0,021
-359,869	-76,371	0,065	0,016
-358,854	-63,389	0,051	0,015
-357,839	-200,000	0,012	-0,175
-356,825	-49,450	0,076	-0,026
-355,810	-200,000	-0,009	0,143
-354,796	-55,262	0,110	0,035
-353,781	119,636	0,074	-0,066
-352,766	5,530	0,032	0,017
-351,752	800,000	-0,019	0,052
-350,737	-148,146	0,092	-0,005
-349,723	800,000	-0,061	0,121
-348,708	-21,140	0,074	-0,032
-347,693	-200,000	-0,002	0,106
-346,679	567,701	-0,027	0,047
-345,664	-200,000	0,007	0,060
-344,650	-114,656	0,005	0,001
-343,635	44,459	0,093	0,061
-342,620	178,749	0,055	0,058
-341,606	208,091	-0,061	0,068
-340,591	264,109	0,036	-0,045
-339,577	-104,741	-0,135	-0,022
-338,562	800,000	-0,060	0,121
-337,548	-149,219	0,142	0,008
-336,533	-200,000	0,037	0,136
-335,518	149,539	-0,025	0,024
-334,504	251,536	-0,093	0,113
-333,489	9,629	-0,053	0,029
-332,475	237,982	0,091	-0,107
-331,460	-200,000	-0,004	0,033
-330,445	800,000	-0,011	-0,029
-329,431	0,497	0,184	0,094
-328,416	-200,000	-0,004	-0,050
-327,402	479,414	-0,085	-0,137
-326,387	-200,000	0,012	0,038
-325,372	-200,000	0,020	-0,150
-324,358	800,000	-0,035	-0,076
-323,343	-22,089	0,065	-0,028
-322,329	37,227	0,071	0,045
-321,314	-166,701	-0,056	-0,002
-320,299	223,568	-0,117	0,135
-319,285	95,842	-0,047	-0,038
-318,270	63,912	0,054	0,039
-317,256	-141,932	-0,025	0,002
-316,241	747,047	0,067	0,130
-315,226	-200,000	0,033	0,138
-314,212	-200,000	-0,027	0,122
-313,197	-72,196	0,121	0,032
-312,183	800,000	0,019	-0,053
-311,168	800,000	0,012	-0,025
-310,153	183,054	-0,070	-0,074
-309,139	11,890	-0,078	0,043
-308,124	246,650	-0,046	-0,056
-307,110	-200,000	0,033	0,160
-306,095	88,534	0,119	0,094
-305,080	800,000	0,014	0,033
-304,066	-105,598	-0,140	-0,022
-303,051	516,166	0,083	0,139
-302,037	5,042	-0,078	-0,041
-301,022	800,000	0,034	0,096
-300,008	-134,913	-0,109	0,009
-298,993	-200,000	0,038	0,154
-297,978	800,000	0,039	0,088
-296,964	-200,000	-0,015	0,125
-295,949	-200,000	-0,020	-0,111
-294,935	800,000	-0,033	-0,069
-293,920	237,299	0,030	-0,035
-292,905	-60,567	-0,115	0,035
-291,891	378,465	0,068	0,100
-290,876	58,864	0,029	-0,020
-289,862	-116,968	0,107	0,014
-288,847	258,670	-0,022	0,027
-287,832	-200,000	0,011	-0,100
-286,818	-200,000	-0,014	0,124
-285,803	800,000	-0,043	0,099
-284,789	-31,020	0,027	-0,011
-283,774	-200,000	0,018	0,162
-282,759	-200,000	-0,019	0,131
-281,745	-137,593	-0,126	-0,010
-280,730	-200,000	0,057	0,000
-279,716	-71,589	-0,059	0,016
-278,701	-200,000	-0,001	0,159
-277,686	-41,995	0,021	-0,007
-276,672	-200,000	-0,005	-0,063
-275,657	800,000	-0,035	-0,087
-274,643	-20,079	0,081	0,035
-273,628	55,114	-0,150	-0,103
-272,613	127,704	0,031	-0,028
-271,599	151,802	0,035	0,034
-270,584	74,287	0,077	0,058
-269,570	-112,556	0,103	-0,015
-268,555	619,785	0,029	-0,052
-267,540	-28,751	-0,156	0,064
-266,526	777,325	-0,053	-0,104
-265,511	166,432	-0,035	0,035
-264,497	20,533	0,135	-0,077
-263,482	-45,962	-0,070	0,024
-262,467	-200,000	-0,013	-0,064
-261,453	800,000	0,017	0,054
-260,438	800,000	-0,048	-0,119
-259,424	30,982	-0,155	0,094
-258,409	183,602	0,028	0,029
-257,395	-200,000	-0,009	0,038
-256,380	110,403	0,109	-0,094
-255,365	-97,297	0,082	0,015
-254,351	17,303	0,078	-0,044
-253,336	132,861	-0,060	-0,055
-252,322	-200,000	-0,076	-0,247
-251,307	296,933	-0,039	-0,052
-250,292	-200,000	0,017	0,064
-249,278	128,907	0,027	-0,024
-248,263	261,585	0,084	0,103
-247,249	-200,000	0,002	0,132
-246,234	-152,614	-0,177	-0,009
-245,219	-27,683	-0,110	0,045
-244,205	-88,251	-0,105	0,022
-243,190	-17,235	0,134	-0,060
-242,176	93,374	0,107	0,086
-241,161	337,784	-0,043	-0,060
-240,146	-200,000	0,001	0,032
-239,132	14,314	-0,082	-0,045
-238,117	800,000	-0,021	-0,045
-237,103	430,286	-0,015	0,023
-236,088	86,624	0,065	-0,051
-235,073	800,000	-0,044	0,101
-234,059	-86,191	0,094	-0,021
-233,044	-200,000	-0,002	0,134
-232,030	5,729	0,051	-0,027
-231,015	20,888	0,107	0,062
-230,000	173,529	-0,031	0,032
-228,986	-90,969	-0,068	-0,014
-227,971	-200,000	0,021	-0,169
-226,957	230,531	-0,045	0,053
-225,942	-200,000	-0,012	0,147
-224,927	243,004	-0,024	-0,029
-223,913	356,620	-0,153	-0,217
-222,898	800,000	0,058	-0,156
-221,884	211,774	0,053	-0,060
-220,869	800,000	-0,047	0,126
-219,855	-200,000	-0,016	-0,125
-218,840	-200,000	0,043	0,162
-217,825	-200,000	0,025	0,123
-216,811	246,558	-0,025	0,030
-215,796	-200,000	-0,017	-0,096
-214,782	-200,000	0,010	-0,041
-213,767	-200,000	-0,017	0,078
-212,752	-200,000	0,020	0,088
-211,738	39,898	0,092	0,059
-210,723	800,000	0,003	0,008
-209,709	28,374	0,081	0,048
-208,694	46,643	-0,093	0,061
-207,679	63,981	0,175	-0,125
-206,665	-122,725	-0,072	0,008
-205,650	382,868	0,044	-0,065
-204,636	-200,000	-0,008	0,095
-203,621	-140,256	0,116	-0,009
-202,606	-200,000	-0,000	-0,032
-201,592	-127,809	-0,034	-0,003
-200,577	-3,477	0,178	0,087
-199,563	800,000	0,001	-0,003
-198,548	-38,125	-0,122	0,046
-197,533	800,000	0,038	-0,090
-196,519	-34,104	0,102	-0,039
-195,504	66,912	-0,033	-0,024
-194,490	-115,174	0,090	-0,012
-193,475	334,131	-0,132	-0,182
-192,460	-200,000	-0,016	-0,061
-191,446	277,618	0,075	-0,095
-190,431	-200,000	0,001	-0,062
-189,417	-200,000	0,032	0,189
-188,402	800,000	0,033	-0,098
-187,387	800,000	-0,011	0,033
-186,373	162,697	-0,087	0,087
-185,358	-49,074	0,030	-0,010
-184,344	-200,000	0,005	0,116
-183,329	-141,557	0,073	-0,005
-182,315	-200,000	-0,005	-0,077
-181,300	379,482	0,081	-0,118
-180,285	160,087	0,108	-0,107
-179,271	-200,000	-0,042	-0,265
-178,256	156,128	0,094	0,092
-177,242	800,000	-0,027	0,079
-176,227	69,315	0,029	0,021
-175,212	-200,000	0,006	0,071
-174,198	-200,000	-0,043	-0,150
-173,183	-126,832	-0,142	0,015
-172,169	-56,411	-0,089	0,028
-171,154	511,465	-0,063	-0,104
-170,139	-200,000	-0,006	-0,096
-169,125	-0,619	0,123	0,062
-168,110	-200,000	0,049	0,187
-167,096	92,027	-0,114	0,091
-166,081	107,694	0,047	-0,040
-165,066	-67,423	-0,019	-0,005
-164,052	-68,850	-0,086	-0,023
-163,037	-30,636	0,071	-0,028
-162,023	226,195	-0,012	-0,014
-161,008	-81,722	0,149	-0,034
-159,993	144,034	-0,088	-0,083
-158,979	-155,642	-0,138	-0,006
-157,964	-200,000	0,011	0,037
-156,950	-166,104	-0,073	0,002
-155,935	729,005	-0,023	0,043
-154,920	-200,000	-0,012	0,077
-153,906	800,000	0,056	-0,138
-152,891	294,603	0,056	0,073
-151,877	-144,539	-0,165	0,011
-150,862	148,446	-0,109	0,105
-149,847	546,952	0,069	-0,118
-148,833	-200,000	0,018	-0,072
-147,818	107,235	0,105	0,088
-146,804	482,622	-0,039	-0,063
-145,789	368,027	0,025	-0,036
-144,775	800,000	-0,022	0,054
-143,760	460,258	-0,055	0,087
-142,745	-34,057	0,131	-0,051
-141,731	0,908	0,095	0,048
-140,716	800,000	-0,043	0,126
-139,702	800,000	0,062	0,131
-138,687	-114,078	-0,096	0,013
-137,672	-39,887	-0,021	-0,008
-136,658	27,072	-0,089	0,053
-135,643	-101,581	-0,130	-0,022
-134,629	800,000	-0,028	0,062
-133,614	245,630	0,110	0,131
-132,599	800,000	-0,038	-0,107
-131,585	-66,446	0,041	-0,011
-130,570	800,000	-0,042	0,099
-129,556	360,322	0,088	-0,125
-128,541	590,551	-0,047	-0,082
-127,526	-94,766	-0,146	0,028
-126,512	-92,220	0,128	0,025
-125,497	-51,327	-0,066	-0,022
-124,483	104,840	-0,154	0,129
-123,468	-146,472	-0,122	-0,007
-122,453	-66,715	-0,131	-0,036
-121,439	197,530	-0,083	-0,090
-120,424	-160,891	-0,053	0,002
-119,410	-59,515	0,056	-0,017
-118,395	66,815	0,108	0,078
-117,380	164,518	-0,067	0,067
-116,366	-130,718	-0,069	0,006
-115,351	-200,000	0,021	-0,081
-114,337	-200,000	0,070	-0,221
-113,322	-200,000	-0,006	-0,097
-112,307	781,275	0,029	0,057
-111,293	-200,000	0,018	0,151
-110,278	436,376	-0,039	0,060
-109,264	114,267	-0,074	0,064
-108,249	113,633	-0,078	-0,067
-107,234	59,526	-0,184	-0,128
-106,220	-200,000	0,007	-0,113
-105,205	61,761	0,044	0,031
-104,191	188,836	-0,075	0,080
-103,176	-94,678	0,035	-0,007
-102,162	-200,000	-0,008	-0,048
-101,147	-200,000	-0,007	0,033
-100,132	-200,000	-0,007	-0,061
-99,118	-16,294	0,072	0,032
-98,103	34,801	-0,127	0,078
-97,089	-62,415	-0,051	0,015
-96,074	-120,389	0,097	0,012
-95,059	-137,876	-0,057	-0,004
-94,045	302,404	-0,075	-0,099
-93,030	-200,000	0,033	-0,127
-92,016	221,880	-0,087	-0,099
-91,001	648,815	-0,050	-0,091
-89,986	-155,462	0,067	-0,003
-88,972	432,124	0,052	0,080
-87,957	-128,349	-0,035	0,003
-86,943	294,530	0,018	0,023
-85,928	800,000	-0,060	-0,135
-84,913	800,000	0,072	-0,144
-83,899	800,000	-0,028	0,085
-82,884	-88,354	0,183	0,038
-81,870	-200,000	0,005	0,057
-80,855	509,197	0,063	0,103
-79,840	-142,863	-0,062	-0,004
-78,826	-200,000	-0,008	-0,127
-77,811	79,885	0,044	-0,034
-76,797	-200,000	-0,006	0,085
-75,782	-87,324	-0,097	0,021
-74,767	114,524	0,089	-0,076
-73,753	-58,568	0,062	-0,019
-72,738	548,086	0,057	0,096
-71,724	800,000	0,037	0,076
-70,709	83,596	-0,005	0,004
-69,694	88,599	-0,066	-0,052
-68,680	-123,594	0,120	-0,013
-67,665	-6,194	0,095	0,046
-66,651	222,059	-0,101	-0,115
-65,636	-200,000	0,024	0,132
-64,622	748,330	-0,033	-0,064
-63,607	800,000	-0,024	0,048
-62,592	-200,000	0,042	-0,137
-61,578	213,673	-0,044	0,049
-60,563	-53,003	0,055	-0,018
-59,549	273,552	-0,009	-0,012
-58,534	55,129	-2,097	-1,428
-57,519	516,059	-1,135	-1,878
-56,505	-200,000	-0,423	-4,567
-55,490	518,169	0,922	1,529
-54,476	800,000	5,466	12,015
-53,461	-200,000	22,314	344,915
-52,446	800,000	758,523	2304,798
-51,432	536,768	1648,843	2773,035
-50,417	68,882	1647,545	1192,412
-49,403	16,192	1523,552	845,283
-48,388	10,306	1449,022	775,611
-47,373	19,288	1441,276	814,311
-46,359	13,786	1430,015	781,903
-45,344	8,660	1425,912	755,339
-44,330	8,604	1423,916	753,987
-43,315	8,535	1422,230	752,739
-42,300	8,549	1420,278	751,740
-41,286	8,650	1419,103	751,568
-40,271	8,588	1417,820	750,567
-39,257	8,549	1416,665	749,739
-38,242	8,624	1415,458	749,428
-37,227	8,580	1414,630	748,752
-36,213	8,578	1413,266	747,991
-35,198	8,574	1411,951	747,244
-34,184	8,592	1411,008	746,802
-33,169	8,531	1409,614	745,748
-32,154	8,550	1408,786	745,369
-31,140	8,530	1407,489	744,557
-30,125	8,587	1406,168	744,097
-29,111	8,562	1405,129	743,401
-28,096	8,521	1404,020	742,593
-27,082	8,508	1402,805	741,859
-26,067	8,424	1401,828	740,921
-25,052	8,481	1400,745	740,585
-24,038	8,501	1399,746	740,120
-23,023	8,482	1399,041	739,629
-22,009	8,507	1397,760	739,043
-20,994	8,470	1396,555	738,201
-19,979	8,485	1395,821	737,856
-18,965	8,430	1394,956	737,113
-17,950	8,427	1393,830	736,476
-16,936	8,440	1393,053	736,094
-15,921	8,401	1392,049	735,356
-14,906	8,437	1391,021	734,950
-13,892	8,455	1389,981	734,455
-12,877	8,431	1389,405	734,011
-11,863	8,392	1388,596	733,375
-10,848	8,402	1387,695	732,913
-9,833	8,371	1386,773	732,257
-8,819	8,376	1385,799	731,734
-7,804	8,324	1384,901	730,994
-6,790	8,302	1383,829	730,299
-5,775	8,357	1382,818	729,987
-4,760	8,348	1382,124	729,550
-3,746	8,384	1380,913	729,049
-2,731	8,395	1380,001	728,586
-1,717	8,321	1379,277	727,838
-0,702	8,358	1377,499	727,040
0,313	12,310	1288,533	698,040
1,327	28,159	680,021	403,847
2,342	43,651	117,087	75,396
3,356	0,521	16,535	8,305
4,371	0,082	3,839	1,922
5,386	4,944	1,291	0,667
6,400	800,000	0,201	0,588
7,415	-31,445	-0,266	-0,105
8,429	-42,255	-0,334	-0,119
9,444	98,013	-0,254	-0,206
10,459	-1,251	-0,371	-0,184
11,473	29,072	-0,219	-0,131
12,488	-5,031	-0,233	-0,113
13,502	27,434	-0,351	-0,207
14,517	-51,384	-0,425	-0,139
15,531	29,738	-0,505	-0,302
16,546	65,706	-0,185	-0,132
17,561	800,000	-0,214	-0,435
18,575	216,292	-0,130	-0,145
19,590	663,200	-0,146	-0,266
20,604	-81,961	-0,221	-0,050
21,619	36,814	-0,436	-0,271
22,634	144,576	-0,387	-0,364
23,648	162,407	-0,342	-0,337
24,663	125,905	-0,324	-0,288
25,677	53,555	-0,343	-0,231
26,692	211,609	-0,296	-0,328
27,707	24,093	-0,305	-0,177
28,721	28,453	-0,399	-0,237
29,736	91,721	-0,334	-0,264
30,750	87,661	-0,469	-0,365
31,765	158,796	-0,376	-0,367
32,780	88,512	-0,431	-0,337
33,794	36,887	-0,380	-0,236
34,809	40,716	-0,447	-0,283
35,823	136,508	-0,310	-0,285
36,838	-36,159	-0,524	-0,198
37,853	308,825	-0,270	-0,355
38,867	148,105	-0,398	-0,378
39,882	-35,015	-0,407	-0,155
40,896	123,673	-0,316	-0,279
41,911	36,823	-0,296	-0,184
42,926	-52,538	-0,391	-0,126
43,940	65,163	-0,409	-0,290
44,955	91,558	-0,351	-0,277
45,969	62,653	-0,420	-0,295
46,984	-5,263	-0,268	-0,129
47,999	180,669	-0,244	-0,252
49,013	36,060	-0,362	-0,223
50,028	239,811	-0,237	-0,277
51,042	84,783	-0,360	-0,276
52,057	38,508	-0,240	-0,150
53,071	230,931	-0,248	-0,285
54,086	31,558	-0,312	-0,188
55,101	204,225	-0,230	-0,251
56,115	30,944	-0,319	-0,192
57,130	-49,118	-0,322	-0,108
58,144	163,015	-0,233	-0,230
59,159	4,804	-0,364	-0,187
60,174	454,328	-0,239	-0,372
61,188	115,459	-0,336	-0,288
62,203	94,327	-0,268	-0,213
63,217	-86,005	-0,353	-0,076
64,232	-88,624	-0,374	-0,077
65,247	40,216	-0,368	-0,231
66,261	62,894	-0,357	-0,250
67,276	38,627	-0,372	-0,232
68,290	24,279	-0,431	-0,249
69,305	134,045	-0,242	-0,220
70,320	52,624	-0,331	-0,221
71,334	-16,320	-0,313	-0,139
72,349	18,283	-0,262	-0,146
73,363	-3,162	-0,418	-0,204
74,378	20,830	-0,376	-0,213
75,393	36,126	-0,288	-0,177
76,407	171,381	-0,193	-0,194
77,422	128,051	-0,205	-0,182
78,436	7,720	-0,381	-0,199
79,451	22,788	-0,257	-0,147
80,466	17,440	-0,315	-0,175
81,480	45,499	-0,330	-0,213
82,495	32,789	-0,218	-0,132
83,509	-32,043	-0,191	-0,075
84,524	-78,270	-0,203	-0,048
85,539	114,166	-0,280	-0,239
86,553	39,251	-0,244	-0,152
87,568	222,358	-0,219	-0,247
88,582	154,458	-0,227	-0,218
89,597	106,601	-0,322	-0,267
90,611	174,069	-0,202	-0,204
91,626	0,730	-0,330	-0,165
92,641	77,903	-0,236	-0,176
93,655	-200,000	-0,007	-0,209
94,670	83,482	-0,317	-0,241
95,684	259,521	-0,190	-0,229
96,699	48,028	-0,283	-0,185
97,714	68,841	-0,189	-0,136
98,728	-13,396	-0,399	-0,180
99,743	156,848	-0,291	-0,282
100,757	45,802	-0,282	-0,182
101,772	-32,259	-0,251	-0,097
102,787	51,798	-0,220	-0,146
103,801	303,664	-0,286	-0,372
104,816	483,729	-0,212	-0,339
105,830	104,198	-0,228	-0,187
106,845	-76,684	-0,260	-0,063
107,860	99,366	-0,247	-0,199
108,874	7,364	-0,349	-0,182
109,889	93,293	-0,273	-0,216
110,903	184,596	-0,198	-0,205
111,918	122,356	-0,224	-0,196
112,933	169,523	-0,153	-0,153
113,947	-119,135	-0,298	-0,036
114,962	-95,045	-0,199	-0,037
115,976	159,026	-0,171	-0,166
116,991	336,686	-0,179	-0,243
118,006	31,875	-0,284	-0,170
119,020	160,141	-0,187	-0,182
120,035	-18,313	-0,183	-0,079
121,049	50,034	-0,107	-0,070
122,064	493,138	-0,106	-0,170
123,079	-2,887	-0,311	-0,151
124,093	239,235	-0,179	-0,208
125,108	16,486	-0,263	-0,145
126,122	68,282	-0,247	-0,176
127,137	128,745	-0,216	-0,192
128,151	85,230	-0,170	-0,130
129,166	-73,513	-0,222	-0,056
130,181	-0,786	-0,204	-0,101
131,195	124,288	-0,270	-0,237
132,210	2,183	-0,300	-0,151
133,224	197,399	-0,172	-0,183
134,239	297,022	-0,163	-0,209
135,254	-55,823	-0,176	-0,055
136,268	-9,292	-0,269	-0,125
137,283	85,889	-0,198	-0,152
138,297	62,704	-0,249	-0,174
139,312	185,373	-0,173	-0,179
140,327	48,624	-0,205	-0,133
141,341	25,530	-0,279	-0,161
142,356	11,188	-0,278	-0,148
143,370	16,473	-0,266	-0,146
144,385	113,484	-0,260	-0,220
145,400	118,708	-0,215	-0,185
146,414	85,856	-0,326	-0,249
147,429	46,638	-0,248	-0,160
148,443	-75,108	-0,291	-0,072
149,458	144,487	-0,172	-0,160
150,473	323,086	-0,168	-0,224
151,487	666,887	-0,172	-0,310
152,502	205,239	-0,261	-0,282
153,516	800,000	-0,195	-0,397
154,531	179,287	-0,238	-0,242
155,546	-3,476	-0,235	-0,113
156,560	98,202	-0,341	-0,273
157,575	-80,391	-0,217	-0,050
158,589	83,004	-0,324	-0,245
159,604	135,704	-0,213	-0,193
160,619	20,282	-0,181	-0,102
161,633	-24,040	-0,193	-0,080
162,648	402,601	-0,163	-0,238
163,662	-119,311	-0,191	-0,023
164,677	142,451	-0,238	-0,220
165,692	-48,602	-0,228	-0,076
166,706	231,164	-0,181	-0,206
167,721	-1,835	-0,320	-0,156
168,735	-25,952	-0,325	-0,132
169,750	-102,861	-0,321	-0,053
170,764	800,000	-0,114	-0,248
171,779	24,036	-0,224	-0,128
172,794	57,287	-0,232	-0,157
173,808	-200,000	0,011	-0,191
174,823	169,931	-0,242	-0,240
175,837	572,525	-0,196	-0,333
176,852	-9,228	-0,172	-0,080
177,867	-24,903	-0,332	-0,136
178,881	187,039	-0,113	-0,117
179,896	-39,721	-0,315	-0,114
180,910	-57,457	-0,156	0,047
181,925	-7,375	-0,228	-0,107
182,940	73,483	-0,223	-0,162
183,954	214,561	-0,172	-0,190
184,969	-34,233	-0,217	-0,082
185,983	-23,334	-0,335	-0,139
186,998	10,013	-0,248	-0,130
188,013	18,405	-0,174	-0,096
189,027	800,000	-0,091	-0,209
190,042	-92,263	-0,210	-0,041
191,056	456,554	-0,076	-0,117
192,071	151,585	-0,142	-0,134
193,086	800,000	-0,099	-0,194
194,100	59,648	-0,284	-0,194
195,115	216,479	-0,178	-0,197
196,129	148,339	-0,180	-0,169
197,144	-23,822	-0,273	-0,113
198,159	-81,515	-0,197	-0,045
199,173	7,789	-0,151	-0,078
200,188	318,248	-0,107	-0,140
201,202	-86,396	-0,090	-0,019
202,217	-43,596	-0,286	-0,099
203,232	33,070	-0,198	-0,119
204,246	14,090	-0,360	-0,194
205,261	-88,142	-0,188	-0,039
206,275	-68,048	-0,188	-0,050
207,290	-67,723	-0,166	-0,045
208,304	628,874	-0,153	-0,269
209,319	151,099	-0,142	-0,134
210,334	-72,029	-0,208	-0,053
211,348	-23,196	-0,199	-0,083
212,363	55,045	-0,254	-0,170
213,377	259,603	-0,156	-0,187
214,392	214,964	-0,107	-0,117
215,407	204,659	-0,154	-0,165
216,421	-148,530	-0,153	0,009
217,436	-7,836	-0,217	-0,101
218,450	-23,286	-0,320	-0,132
219,465	-33,237	-0,249	-0,095
220,480	418,257	-0,160	-0,237
221,494	80,913	-0,175	-0,131
222,509	-158,639	-0,022	-0,001
223,523	168,029	-0,259	-0,255
224,538	188,727	-0,243	-0,252
225,553	-62,912	-0,156	-0,044
226,567	333,456	-0,138	-0,185
227,582	50,166	-0,216	-0,141
228,596	-67,122	-0,211	-0,057
229,611	-43,976	-0,169	-0,058
230,626	-21,712	-0,253	-0,106
231,640	-85,009	-0,160	-0,034
232,655	121,463	-0,146	-0,126
233,669	58,551	-0,279	-0,189
234,684	-21,274	-0,139	-0,058
235,699	-134,761	-0,203	0,017
236,713	443,187	-0,024	-0,037
237,728	-34,391	-0,205	-0,077
238,742	-117,445	-0,228	-0,028
239,757	338,392	-0,205	-0,276
240,772	17,042	-0,232	-0,127
241,786	691,162	-0,112	-0,204
242,801	264,730	-0,186	-0,224
243,815	-39,826	-0,209	-0,075
244,830	21,000	-0,141	-0,079
245,844	135,153	-0,080	-0,072
246,859	-12,797	-0,264	-0,118
247,874	800,000	-0,100	-0,208
248,888	478,354	-0,193	-0,303
249,903	17,391	-0,216	-0,118
250,917	5,426	-0,029	-0,015
251,932	56,572	-0,111	-0,074
252,947	186,694	-0,075	-0,077
253,961	298,004	-0,190	-0,242
254,976	55,951	-0,184	-0,123
255,990	260,280	-0,193	-0,231
257,005	-200,000	0,010	-0,193
258,020	76,757	-0,210	-0,154
259,034	-76,189	-0,034	-0,008
260,049	82,542	-0,243	-0,181
261,063	84,783	-0,269	-0,203
262,078	297,336	-0,156	-0,198
263,093	-52,159	-0,109	0,035
264,107	74,833	-0,208	-0,151
265,122	348,515	-0,076	-0,104
266,136	-21,412	-0,165	-0,069
267,151	-144,287	-0,084	0,005
268,166	800,000	-0,052	-0,111
269,180	11,104	-0,264	-0,139
270,195	352,990	-0,177	-0,242
271,209	-91,827	-0,197	-0,038
272,224	413,208	-0,185	-0,272
273,239	-61,777	-0,302	-0,087
274,253	-3,919	-0,078	-0,037
275,268	-99,537	-0,108	-0,019
276,282	-37,431	-0,235	-0,086
277,297	43,869	-0,142	-0,089
278,312	-200,000	0,009	-0,106
279,326	60,665	-0,117	0,080
280,341	105,198	-0,053	-0,043
281,355	13,700	-0,122	-0,065
282,370	32,931	-0,240	-0,143
283,384	153,724	-0,209	-0,197
284,399	-4,681	-0,189	-0,089
285,414	124,254	-0,154	-0,133
286,428	93,248	-0,196	-0,153
287,443	-19,354	-0,176	0,075
288,457	158,633	-0,175	-0,167
289,472	283,466	-0,104	-0,128
290,487	323,033	-0,174	-0,229
291,501	800,000	-0,080	-0,203
292,516	284,153	-0,149	-0,184
293,530	-200,000	0,008	-0,124
294,545	374,100	-0,060	-0,084
295,560	19,671	-0,102	-0,056
296,574	-170,529	-0,122	-0,003
297,589	-103,737	-0,297	0,047
298,603	258,013	-0,194	-0,229
299,618	233,813	-0,076	-0,086
300,633	688,404	-0,039	0,071
301,647	800,000	-0,077	-0,171
302,662	220,036	-0,070	-0,078
303,676	645,863	-0,100	-0,176
304,691	25,621	-0,075	-0,043
305,706	-11,100	-0,116	-0,052
306,720	-112,156	-0,127	0,017
307,735	91,871	-0,059	0,045
308,749	-21,952	-0,141	-0,059
309,764	-200,000	-0,040	-0,169
310,779	106,754	-0,095	-0,077
311,793	-112,544	-0,255	-0,035
312,808	800,000	-0,050	-0,106
313,822	108,247	-0,240	-0,196
314,837	-61,300	-0,242	-0,069
315,852	800,000	0,024	-0,058
316,866	-151,377	-0,216	-0,011
317,881	147,639	-0,151	-0,139
318,895	-0,893	-0,036	0,017
319,910	253,300	-0,121	-0,142
320,925	47,991	-0,152	-0,097
321,939	120,079	-0,160	-0,136
322,954	-200,000	-0,010	-0,186
323,968	-184,227	-0,156	-0,002
324,983	16,657	-0,081	0,044
325,997	800,000	-0,065	-0,130
327,012	540,927	-0,051	-0,084
328,027	-102,815	-0,176	0,028
329,041	-68,494	-0,192	-0,051
330,056	219,763	-0,129	-0,141
331,070	-9,471	-0,191	-0,087
332,085	216,766	-0,122	-0,133
333,100	435,537	-0,096	-0,143
334,114	56,770	-0,140	-0,094
335,129	39,630	-0,207	-0,127
336,143	-23,025	-0,095	-0,039
337,158	180,887	-0,106	0,106
338,173	-100,003	-0,144	-0,024
339,187	633,750	-0,090	-0,157
340,202	-8,411	-0,157	-0,072
341,216	487,010	-0,059	-0,092
342,231	269,017	-0,096	-0,115
343,246	62,405	-0,071	-0,048
344,260	-116,779	-0,249	0,031
345,275	688,862	-0,087	-0,156
346,289	-200,000	-0,007	-0,158
347,304	-153,583	-0,148	0,007
348,319	67,160	-0,175	-0,122
349,333	-121,192	-0,120	-0,014
350,348	58,751	-0,141	-0,094
351,362	132,105	-0,164	-0,145
352,377	-200,000	-0,057	-0,201
353,392	-175,158	-0,138	0,003
354,406	687,981	-0,066	0,118
355,421	207,648	1311,020	1400,819
356,435	159,751	1471,227	1401,276
