DTS Sentinel unit serial number:	SN410029Multiplexer serial number:	ORYXHardware model number:	OX2-SRSoftware version number:	ORYX F/W v4,00 Oryx Data Collector v3.7.2.0data status	okinstallation	B3 Nyhavnadifferential loss correction	single-endedforward channel	channel 1reverse channel	N/Adate	2023/12/02time	14:52:30forward acquisition time	300,00reverse acquisition time	0,00gamma	499,1914k internal	0,3198k external	0,3198temperature offset calibration	1,0000default loss term (dB/km)	0,3820temperature slope calibration	1,0000multiplexer offset coefficient	1,0000multiplexer slope coefficient	1,0000fibre end	0,00T internal ref (°C)	14,87T ext. ref 1 (°C)	-0,44T ext. ref 2 (°C)	-0,44length (m)	temperature (°C)	Stokes	anti-Stokes-744,400	43,014	-0,230	-0,153
-743,385	726,771	-0,122	0,239
-742,371	314,194	-0,147	-0,202
-741,356	-200,000	0,058	0,278
-740,342	243,637	-0,197	-0,241
-739,327	-200,000	0,003	0,211
-738,312	207,617	-0,247	-0,281
-737,298	-200,000	0,049	0,184
-736,283	149,875	-0,236	-0,233
-735,269	-200,000	-0,027	0,337
-734,254	476,436	-0,174	-0,288
-733,239	72,672	-0,178	0,135
-732,225	237,534	-0,179	-0,216
-731,210	-37,440	0,194	0,075
-730,196	-200,000	0,004	-0,017
-729,181	-200,000	-0,009	0,076
-728,167	277,519	-0,071	0,092
-727,152	359,901	-0,033	-0,048
-726,137	-70,181	-0,144	0,039
-725,123	-113,945	-0,228	0,032
-724,108	-200,000	-0,003	-0,049
-723,094	163,628	-0,117	-0,120
-722,079	596,844	-0,028	-0,051
-721,064	-20,693	0,018	-0,008
-720,050	800,000	0,027	-0,076
-719,035	50,185	0,121	-0,083
-718,021	-83,864	-0,063	-0,015
-717,006	-44,794	-0,039	-0,014
-715,991	234,042	-0,045	-0,054
-714,977	373,165	-0,110	-0,163
-713,962	141,215	0,087	-0,083
-712,948	68,025	0,085	-0,063
-711,933	-51,977	0,032	-0,011
-710,918	-200,000	0,008	0,090
-709,904	-126,151	-0,224	-0,024
-708,889	-200,000	-0,001	-0,091
-707,875	-18,176	-0,172	-0,078
-706,860	10,832	-0,085	-0,047
-705,845	-92,668	-0,070	-0,014
-704,831	186,086	0,070	0,076
-703,816	641,627	0,036	0,068
-702,802	-100,740	-0,066	0,012
-701,787	-113,664	-0,116	0,016
-700,772	-200,000	0,028	0,114
-699,758	800,000	-0,065	0,135
-698,743	-200,000	0,028	0,101
-697,729	507,879	0,105	0,178
-696,714	-200,000	0,005	-0,064
-695,699	-200,000	-0,034	-0,161
-694,685	-154,786	-0,085	0,004
-693,670	800,000	0,043	-0,118
-692,656	86,572	-0,037	0,029
-691,641	800,000	-0,010	-0,024
-690,627	428,776	-0,027	0,043
-689,612	-200,000	0,000	-0,039
-688,597	800,000	-0,006	0,013
-687,583	-10,553	-0,083	-0,040
-686,568	33,513	-0,068	0,043
-685,554	93,356	-0,123	-0,101
-684,539	-200,000	0,022	-0,079
-683,524	260,394	0,069	-0,087
-682,510	-77,148	0,125	-0,031
-681,495	639,525	-0,069	-0,128
-680,481	551,586	0,075	-0,132
-679,466	-200,000	0,005	0,035
-678,451	-13,132	0,053	0,025
-677,437	800,000	0,015	0,044
-676,422	-200,000	-0,024	0,079
-675,408	126,245	-0,050	-0,046
-674,393	140,248	0,047	0,045
-673,378	-165,097	-0,057	-0,002
-672,364	-7,433	-0,093	0,046
-671,349	-95,388	-0,132	-0,025
-670,335	-102,046	-0,067	0,012
-669,320	-97,194	-0,037	-0,007
-668,305	292,995	-0,061	0,081
-667,291	536,071	-0,068	-0,118
-666,276	158,619	-0,029	-0,029
-665,262	-200,000	0,004	-0,113
-664,247	151,547	-0,087	0,086
-663,232	-48,495	0,070	-0,024
-662,218	35,945	-0,081	0,052
-661,203	-200,000	0,018	-0,124
-660,189	800,000	-0,044	0,091
-659,174	-127,963	-0,152	-0,016
-658,159	491,005	0,023	-0,038
-657,145	167,633	-0,045	-0,047
-656,130	232,844	-0,042	0,051
-655,116	84,104	0,067	0,053
-654,101	-147,348	0,039	-0,002
-653,086	-44,443	0,051	0,018
-652,072	-75,708	0,057	0,015
-651,057	37,086	-0,027	0,018
-650,043	-200,000	0,005	-0,166
-649,028	-17,691	-0,108	-0,049
-648,014	258,162	0,038	-0,048
-646,999	47,432	0,067	0,045
-645,984	147,623	-0,047	-0,046
-644,970	83,734	0,103	0,081
-643,955	154,030	0,051	0,051
-642,941	120,085	0,058	-0,052
-641,926	387,900	0,072	0,108
-640,911	-200,000	-0,033	-0,134
-639,897	199,131	-0,056	-0,062
-638,882	46,892	0,042	0,029
-637,868	-200,000	0,006	0,166
-636,853	-68,344	-0,079	0,022
-635,838	-89,197	-0,140	-0,030
-634,824	71,574	-0,145	-0,109
-633,809	44,764	-0,048	0,032
-632,795	70,971	0,053	-0,040
-631,780	112,073	0,084	-0,073
-630,765	-68,953	-0,055	0,015
-629,751	-71,701	-0,090	-0,024
-628,736	-139,564	-0,136	-0,010
-627,722	-200,000	0,020	0,078
-626,707	-125,336	0,047	0,005
-625,692	-195,343	0,042	0,000
-624,678	-89,323	-0,056	-0,012
-623,663	-200,000	0,019	-0,076
-622,649	800,000	-0,066	-0,135
-621,634	18,824	-0,098	-0,057
-620,619	202,146	-0,067	0,075
-619,605	-38,781	-0,162	0,062
-618,590	200,239	0,158	0,176
-617,576	312,992	-0,047	-0,064
-616,561	-47,503	-0,055	0,019
-615,546	-200,000	0,014	-0,053
-614,532	-200,000	-0,015	-0,145
-613,517	84,610	-0,047	0,037
-612,503	104,932	0,067	-0,058
-611,488	800,000	0,025	0,066
-610,474	262,297	0,089	-0,112
-609,459	423,757	0,050	-0,079
-608,444	111,192	-0,085	-0,074
-607,430	128,945	-0,059	-0,055
-606,415	-200,000	0,034	-0,126
-605,401	125,136	0,041	-0,038
-604,386	-200,000	0,049	0,181
-603,371	-200,000	0,003	0,073
-602,357	-123,691	-0,145	-0,016
-601,342	242,401	0,033	0,040
-600,328	164,904	-0,033	0,034
-599,313	152,295	-0,084	-0,083
-598,298	-123,332	0,093	0,011
-597,284	-100,636	0,088	-0,016
-596,269	-142,739	0,089	0,006
-595,255	800,000	-0,012	0,037
-594,240	-200,000	0,015	-0,187
-593,225	-188,836	-0,177	0,002
-592,211	-200,000	-0,012	-0,070
-591,196	-61,740	0,037	-0,011
-590,182	-101,759	0,088	0,015
-589,167	-200,000	-0,003	-0,143
-588,152	-200,000	0,015	-0,134
-587,138	145,595	0,034	-0,033
-586,123	-200,000	-0,014	-0,055
-585,109	-200,000	0,002	-0,055
-584,094	106,144	0,124	-0,106
-583,079	-98,721	0,050	0,009
-582,065	57,454	0,030	-0,021
-581,050	-60,316	0,042	0,013
-580,036	800,000	0,044	-0,098
-579,021	-25,858	-0,080	-0,034
-578,006	-152,152	0,022	-0,001
-576,992	-200,000	0,010	0,034
-575,977	76,301	0,065	0,049
-574,963	-200,000	0,023	0,083
-573,948	-68,557	-0,156	0,043
-572,934	800,000	-0,028	-0,085
-571,919	-95,779	-0,190	0,036
-570,904	17,381	0,085	-0,049
-569,890	-200,000	0,014	0,168
-568,875	-99,830	0,075	0,013
-567,861	-133,754	0,102	-0,009
-566,846	-60,537	0,069	0,021
-565,831	19,187	-0,040	0,023
-564,817	-200,000	0,003	-0,049
-563,802	38,409	-0,093	-0,060
-562,788	178,776	-0,044	-0,046
-561,773	-200,000	0,002	0,108
-560,758	-200,000	-0,002	0,138
-559,744	-200,000	0,025	0,128
-558,729	800,000	-0,054	0,147
-557,715	-69,309	-0,167	-0,046
-556,700	434,649	-0,101	-0,159
-555,685	256,717	-0,053	0,066
-554,671	287,400	0,065	0,086
-553,656	-103,691	0,027	-0,005
-552,642	24,811	0,089	0,053
-551,627	795,301	-0,058	0,116
-550,612	113,938	-0,044	0,039
-549,598	72,304	0,034	-0,026
-548,583	-200,000	-0,024	-0,159
-547,569	161,363	0,038	-0,039
-546,554	-200,000	0,009	0,057
-545,539	18,407	-0,047	0,027
-544,525	-19,654	0,106	-0,047
-543,510	657,139	-0,069	-0,128
-542,496	-200,000	-0,025	-0,081
-541,481	492,237	0,066	0,110
-540,466	-200,000	-0,011	-0,047
-539,452	31,828	0,058	-0,036
-538,437	105,895	0,030	-0,026
-537,423	281,633	-0,010	-0,012
-536,408	-74,865	-0,205	0,053
-535,393	800,000	-0,037	0,101
-534,379	-141,086	0,071	0,005
-533,364	800,000	-0,054	0,139
-532,350	-109,497	0,138	-0,021
-531,335	-200,000	0,049	0,180
-530,321	395,063	-0,032	0,048
-529,306	174,045	-0,065	-0,068
-528,291	125,001	0,167	-0,152
-527,277	74,290	-0,089	-0,067
-526,262	8,638	0,056	0,030
-525,248	-36,501	0,006	-0,002
-524,233	800,000	0,046	0,120
-523,218	96,024	-0,085	0,070
-522,204	366,856	-0,047	-0,069
-521,189	134,042	0,074	0,069
-520,175	34,187	-0,014	-0,009
-519,160	-200,000	0,009	-0,138
-518,145	800,000	0,035	-0,104
-517,131	196,150	0,029	0,032
-516,116	-12,367	-0,087	0,041
-515,102	800,000	0,090	0,187
-514,087	48,146	-0,019	0,013
-513,072	800,000	-0,011	-0,029
-512,058	-68,935	-0,099	-0,027
-511,043	-200,000	0,022	0,129
-510,029	279,433	-0,098	-0,126
-509,014	-48,695	0,024	-0,008
-507,999	-157,660	0,071	-0,003
-506,985	-21,663	0,020	0,009
-505,970	-69,194	-0,196	-0,054
-504,956	407,575	0,044	-0,067
-503,941	-200,000	-0,002	0,056
-502,926	-132,719	0,085	-0,008
-501,912	113,227	0,054	0,047
-500,897	-80,448	0,141	-0,034
-499,883	-86,483	0,091	-0,020
-498,868	800,000	0,041	-0,084
-497,853	321,688	0,027	-0,037
-496,839	800,000	-0,068	-0,161
-495,824	-200,000	0,011	0,091
-494,810	354,611	-0,063	0,091
-493,795	-200,000	-0,036	0,125
-492,781	-200,000	0,001	-0,055
-491,766	244,094	0,081	-0,098
-490,751	709,500	0,063	-0,121
-489,737	737,345	0,020	-0,039
-488,722	0,408	0,155	0,079
-487,708	-171,932	-0,075	-0,002
-486,693	-200,000	-0,026	0,103
-485,678	133,970	0,043	0,040
-484,664	144,730	0,057	-0,055
-483,649	-200,000	0,036	-0,222
-482,635	471,130	0,039	-0,063
-481,620	-153,311	0,144	-0,007
-480,605	800,000	0,012	-0,028
-479,591	137,706	0,108	0,102
-478,576	166,123	-0,051	0,052
-477,562	363,383	-0,038	0,056
-476,547	506,185	0,042	-0,070
-475,532	-14,649	0,065	-0,030
-474,518	-21,425	0,148	-0,065
-473,503	45,744	-0,010	-0,007
-472,489	-200,000	0,012	0,164
-471,474	-200,000	-0,007	0,038
-470,459	-105,143	-0,066	0,011
-469,445	216,690	-0,071	0,082
-468,430	483,421	0,017	0,029
-467,416	20,082	0,071	-0,041
-466,401	-18,764	0,012	0,006
-465,386	-56,619	0,062	0,020
-464,372	800,000	0,033	0,083
-463,357	75,080	-0,060	0,045
-462,343	235,279	-0,060	0,072
-461,328	-200,000	-0,004	-0,096
-460,313	-200,000	0,007	0,124
-459,299	149,069	-0,075	0,073
-458,284	730,930	0,041	0,079
-457,270	386,340	-0,006	0,009
-456,255	-200,000	0,017	0,060
-455,241	-81,354	-0,241	-0,057
-454,226	-126,185	-0,166	0,018
-453,211	-200,000	-0,007	-0,037
-452,197	529,572	-0,037	-0,063
-451,182	735,560	-0,009	-0,018
-450,168	800,000	0,032	0,086
-449,153	-6,432	-0,150	0,073
-448,138	800,000	0,045	0,112
-447,124	800,000	-0,057	0,135
-446,109	76,767	0,122	-0,093
-445,095	800,000	-0,023	0,061
-444,080	-200,000	-0,031	0,118
-443,065	-200,000	-0,014	0,081
-442,051	590,379	-0,079	-0,141
-441,036	10,975	-0,083	-0,046
-440,022	-23,275	0,113	-0,049
-439,007	-200,000	-0,004	-0,075
-437,992	107,005	-0,019	0,016
-436,978	800,000	0,026	-0,077
-435,963	194,296	-0,040	0,044
-434,949	619,478	-0,034	0,061
-433,934	800,000	0,062	-0,169
-432,919	-125,736	-0,109	0,012
-431,905	-77,025	-0,128	0,032
-430,890	800,000	0,035	-0,097
-429,876	800,000	0,076	0,220
-428,861	-93,932	0,117	0,023
-427,846	-200,000	0,034	0,161
-426,832	-35,536	-0,192	-0,075
-425,817	131,173	0,049	0,045
-424,803	-200,000	-0,010	0,142
-423,788	-200,000	0,009	0,088
-422,773	800,000	0,086	0,208
-421,759	800,000	-0,023	-0,060
-420,744	81,748	0,049	-0,038
-419,730	42,079	-0,102	-0,067
-418,715	-15,656	0,094	-0,043
-417,701	155,767	0,037	-0,037
-416,686	-13,530	-0,019	0,009
-415,671	522,457	-0,072	0,122
-414,657	-200,000	0,000	-0,004
-413,642	-200,000	0,006	0,057
-412,628	461,224	0,038	-0,062
-411,613	53,806	-0,071	-0,049
-410,598	800,000	0,043	0,111
-409,584	154,863	-0,042	-0,042
-408,569	-125,673	0,116	0,012
-407,555	-125,142	0,090	0,010
-406,540	314,250	0,053	-0,072
-405,525	-200,000	0,009	0,028
-404,511	800,000	-0,010	0,021
-403,496	-33,315	-0,111	-0,044
-402,482	-110,126	0,184	-0,027
-401,467	-145,908	0,137	-0,009
-400,452	-83,870	0,145	-0,033
-399,438	385,893	0,065	0,097
-398,423	-200,000	-0,026	0,130
-397,409	-129,357	-0,015	-0,001
-396,394	55,036	-0,097	-0,067
-395,379	165,503	-0,090	-0,091
-394,365	800,000	0,050	0,099
-393,350	15,406	0,045	0,025
-392,336	235,816	-0,040	-0,048
-391,321	-80,595	-0,088	-0,021
-390,306	296,522	0,065	0,085
-389,292	336,157	-0,073	-0,102
-388,277	-200,000	-0,012	0,165
-387,263	195,887	0,029	0,032
-386,248	-200,000	0,026	-0,111
-385,233	226,226	-0,048	-0,056
-384,219	-88,282	-0,054	0,012
-383,204	571,963	0,040	-0,070
-382,190	-200,000	0,002	0,014
-381,175	532,504	0,101	0,172
-380,160	44,105	0,033	-0,022
-379,146	5,436	0,088	0,046
-378,131	167,175	-0,050	-0,051
-377,117	190,710	-0,028	-0,030
-376,102	-200,000	0,037	-0,119
-375,088	284,195	-0,011	0,014
-374,073	-49,902	-0,116	-0,039
-373,058	800,000	-0,048	0,115
-372,044	274,437	-0,039	-0,049
-371,029	-29,238	-0,115	0,047
-370,015	12,415	-0,054	-0,030
-369,000	-41,907	-0,082	-0,030
-367,985	130,711	-0,067	0,062
-366,971	454,161	0,014	-0,022
-365,956	-54,511	-0,075	0,024
-364,942	84,333	0,109	0,086
-363,927	-95,365	0,106	-0,020
-362,912	-200,000	0,005	0,063
-361,898	200,123	0,033	0,037
-360,883	74,556	-0,039	-0,030
-359,869	351,139	-0,105	-0,150
-358,854	-32,369	0,152	0,061
-357,839	99,068	0,038	-0,031
-356,825	-116,613	0,168	0,022
-355,810	-68,487	0,064	0,018
-354,796	-200,000	-0,019	0,067
-353,781	-200,000	0,002	-0,008
-352,766	-200,000	-0,006	-0,044
-351,752	9,407	-0,105	0,057
-350,737	246,298	0,036	0,043
-349,723	-172,580	0,200	-0,004
-348,708	99,149	-0,109	0,090
-347,693	-200,000	-0,001	0,116
-346,679	-31,807	-0,111	-0,044
-345,664	169,844	-0,060	-0,062
-344,650	242,726	0,026	-0,031
-343,635	424,090	-0,058	0,090
-342,620	-73,741	-0,035	-0,009
-341,606	-62,083	0,128	-0,038
-340,591	437,224	0,026	0,041
-339,577	-70,549	0,044	-0,012
-338,562	249,207	0,151	-0,184
-337,548	-84,432	0,075	0,017
-336,533	99,077	0,093	0,077
-335,518	-62,147	0,152	0,045
-334,504	800,000	0,039	0,109
-333,489	-81,308	-0,060	0,014
-332,475	634,214	0,033	0,060
-331,460	-200,000	-0,000	0,120
-330,445	335,644	0,037	-0,051
-329,431	-13,767	-0,081	0,037
-328,416	-200,000	-0,028	-0,090
-327,402	66,946	-0,053	0,039
-326,387	-200,000	-0,034	-0,116
-325,372	74,016	-0,038	0,029
-324,358	112,176	-0,106	-0,092
-323,343	-16,581	0,146	-0,066
-322,329	-200,000	0,005	0,072
-321,314	312,665	0,042	0,057
-320,299	18,320	0,043	0,024
-319,285	565,206	0,064	-0,111
-318,270	194,055	-0,099	0,108
-317,256	-200,000	0,033	-0,107
-316,241	44,235	-0,111	-0,073
-315,226	396,576	-0,020	0,031
-314,212	445,382	-0,081	0,128
-313,197	800,000	-0,020	0,047
-312,183	-56,050	0,217	0,069
-311,168	271,673	-0,018	-0,022
-310,153	-135,005	0,019	-0,002
-309,139	-200,000	-0,015	-0,087
-308,124	267,880	-0,052	-0,065
-307,110	800,000	0,036	0,089
-306,095	368,792	0,042	0,062
-305,080	-4,248	0,121	0,060
-304,066	46,737	-0,110	-0,073
-303,051	-86,525	-0,088	0,019
-302,037	-42,775	0,072	0,026
-301,022	364,132	-0,067	0,096
-300,008	190,417	-0,069	0,075
-298,993	-4,284	-0,054	0,027
-297,978	-200,000	-0,010	-0,040
-296,964	-20,478	-0,113	0,049
-295,949	-22,412	0,173	-0,075
-294,935	800,000	0,016	0,035
-293,920	-72,692	-0,045	0,012
-292,905	800,000	0,030	-0,086
-291,891	-200,000	-0,009	-0,044
-290,876	-200,000	-0,001	0,041
-289,862	320,495	0,080	-0,109
-288,847	-41,328	-0,072	-0,026
-287,832	123,625	-0,165	-0,148
-286,818	382,563	-0,020	-0,029
-285,803	-55,471	0,111	0,035
-284,789	569,506	-0,004	0,007
-283,774	-200,000	-0,005	0,081
-282,759	734,073	-0,061	0,117
-281,745	-200,000	0,001	0,139
-280,730	800,000	0,037	0,079
-279,716	-106,147	0,046	0,007
-278,701	191,512	0,107	-0,116
-277,686	-44,088	0,085	0,030
-276,672	113,935	0,074	0,064
-275,657	-200,000	-0,008	-0,039
-274,643	-200,000	0,000	0,055
-273,628	-61,646	-0,149	-0,044
-272,613	-11,357	0,098	-0,046
-271,599	-200,000	0,007	0,023
-270,584	-189,936	0,070	0,001
-269,570	117,247	-0,081	-0,071
-268,555	-200,000	-0,019	-0,129
-267,540	123,713	-0,040	0,036
-266,526	800,000	-0,012	-0,033
-265,511	391,864	0,059	0,088
-264,497	-168,759	-0,102	0,003
-263,482	-182,038	0,121	-0,002
-262,467	-200,000	0,016	0,207
-261,453	-126,805	-0,209	0,022
-260,438	54,157	-0,067	-0,046
-259,424	-132,218	-0,068	0,006
-258,409	-200,000	0,026	-0,171
-257,395	-200,000	0,010	0,133
-256,380	-60,781	0,063	-0,019
-255,365	162,628	-0,107	0,108
-254,351	-200,000	0,013	0,137
-253,336	-200,000	0,017	-0,081
-252,322	286,361	-0,047	-0,061
-251,307	-200,000	-0,005	-0,045
-250,292	-109,573	0,092	0,014
-249,278	-115,920	-0,048	0,006
-248,263	744,027	0,060	0,115
-247,249	-200,000	-0,035	-0,149
-246,234	388,833	-0,045	0,066
-245,219	116,659	0,076	-0,066
-244,205	276,802	0,019	0,025
-243,190	-200,000	0,028	0,103
-242,176	118,411	0,156	0,138
-241,161	30,006	-0,031	0,019
-240,146	-200,000	0,005	0,039
-239,132	86,107	-0,110	-0,086
-238,117	-200,000	0,001	0,013
-237,103	-16,457	-0,075	0,034
-236,088	119,526	-0,074	-0,066
-235,073	36,139	-0,091	0,057
-234,059	-23,165	0,065	-0,028
-233,044	-200,000	-0,043	-0,168
-232,030	-200,000	0,003	-0,106
-231,015	-67,579	0,113	0,031
-230,000	0,145	-0,077	-0,039
-228,986	-200,000	0,009	0,058
-227,971	47,136	-0,108	0,072
-226,957	-62,621	0,083	-0,024
-225,942	800,000	-0,087	-0,187
-224,927	270,629	0,104	-0,131
-223,913	46,832	-0,086	-0,057
-222,898	800,000	-0,063	-0,179
-221,884	-65,178	0,054	0,016
-220,869	467,355	0,076	-0,122
-219,855	-200,000	0,039	0,194
-218,840	169,718	-0,075	0,077
-217,825	96,853	-0,040	0,033
-216,811	150,259	-0,051	0,050
-215,796	-80,193	-0,106	0,025
-214,782	-147,102	-0,124	-0,007
-213,767	263,811	0,040	-0,050
-212,752	-200,000	0,021	-0,110
-211,738	-42,508	-0,139	-0,050
-210,723	152,211	-0,008	0,008
-209,709	-169,177	0,112	-0,003
-208,694	226,182	0,011	-0,013
-207,679	800,000	-0,023	-0,067
-206,665	566,791	-0,008	-0,014
-205,650	-200,000	-0,025	-0,119
-204,636	800,000	-0,017	-0,039
-203,621	765,183	-0,023	0,044
-202,606	-15,754	-0,133	0,060
-201,592	-200,000	-0,018	-0,111
-200,577	-200,000	0,001	-0,194
-199,563	-65,262	-0,026	0,007
-198,548	-171,059	0,056	0,001
-197,533	-200,000	-0,006	0,035
-196,519	397,297	0,112	0,168
-195,504	-200,000	-0,014	0,052
-194,490	-200,000	0,012	-0,086
-193,475	-19,025	-0,035	0,015
-192,460	773,554	0,014	0,028
-191,446	-200,000	-0,019	0,103
-190,431	-200,000	0,010	-0,037
-189,417	277,373	0,071	0,091
-188,402	800,000	-0,047	0,113
-187,387	77,558	-0,108	-0,082
-186,373	-57,998	-0,091	0,028
-185,358	-191,610	0,079	0,001
-184,344	-146,043	0,124	0,008
-183,329	800,000	0,045	-0,119
-182,315	156,404	0,073	-0,072
-181,300	-52,637	-0,038	-0,013
-180,285	281,105	0,085	-0,109
-179,271	-200,000	0,030	-0,125
-178,256	-150,240	0,054	0,003
-177,242	800,000	0,064	0,129
-176,227	354,109	-0,039	0,056
-175,212	-45,414	0,074	0,026
-174,198	-146,593	0,059	0,004
-173,183	-139,158	-0,029	0,002
-172,169	-200,000	-0,030	-0,125
-171,154	800,000	0,057	-0,151
-170,139	103,724	-0,058	-0,049
-169,125	-150,755	-0,022	0,001
-168,110	-60,233	0,085	-0,026
-167,096	-200,000	-0,010	0,094
-166,081	388,254	-0,106	0,156
-165,066	-96,984	-0,106	-0,020
-164,052	-91,885	-0,075	-0,015
-163,037	156,291	-0,086	-0,084
-162,023	-133,651	0,049	-0,004
-161,008	800,000	0,058	-0,174
-159,993	-119,258	-0,076	-0,009
-158,979	-22,815	0,046	0,020
-157,964	-200,000	-0,013	-0,184
-156,950	-109,575	-0,084	-0,013
-155,935	-200,000	-0,006	-0,164
-154,920	4,104	0,099	0,051
-153,906	-76,425	0,092	0,023
-152,891	800,000	0,038	0,089
-151,877	408,976	-0,058	-0,088
-150,862	-200,000	0,003	-0,021
-149,847	56,034	-0,032	0,022
-148,833	-22,871	-0,110	0,047
-147,818	-17,523	0,071	0,031
-146,804	-200,000	-0,052	0,193
-145,789	800,000	0,016	-0,038
-144,775	800,000	-0,056	0,114
-143,760	284,843	-0,084	-0,108
-142,745	687,093	0,061	-0,113
-141,731	-35,351	0,095	0,037
-140,716	800,000	-0,022	0,055
-139,702	330,059	0,040	0,056
-138,687	707,275	-0,029	0,055
-137,672	-1,489	0,048	0,024
-136,658	800,000	0,034	0,102
-135,643	800,000	0,017	0,035
-134,629	-43,528	-0,137	-0,049
-133,614	442,946	0,016	-0,024
-132,599	-200,000	-0,025	0,131
-131,585	668,829	-0,032	0,059
-130,570	437,037	0,073	-0,113
-129,556	195,970	0,055	-0,059
-128,541	-200,000	-0,026	-0,144
-127,526	-63,658	-0,066	-0,019
-126,512	129,821	0,074	0,067
-125,497	64,735	0,061	-0,044
-124,483	-70,501	0,094	0,025
-123,468	-50,352	0,103	-0,034
-122,453	-114,030	-0,109	-0,015
-121,439	-152,911	-0,022	0,001
-120,424	112,566	0,037	-0,032
-119,410	182,974	-0,069	0,073
-118,395	70,495	-0,089	-0,065
-117,380	-200,000	-0,025	0,201
-116,366	-75,942	0,146	-0,036
-115,351	-66,160	-0,029	0,008
-114,337	-137,053	-0,081	-0,006
-113,322	-200,000	-0,009	-0,114
-112,307	130,448	0,049	0,044
-111,293	586,441	-0,050	0,088
-110,278	18,217	0,154	0,087
-109,264	-200,000	-0,007	-0,074
-108,249	800,000	-0,040	0,093
-107,234	79,363	0,074	-0,056
-106,220	800,000	-0,035	-0,087
-105,205	799,990	-0,011	0,022
-104,191	294,876	-0,032	0,041
-103,176	-84,966	0,117	0,026
-102,162	-43,374	-0,079	-0,028
-101,147	-122,782	0,105	-0,012
-100,132	-91,159	-0,132	-0,027
-99,118	-0,703	-0,038	-0,019
-98,103	127,755	-0,084	-0,076
-97,089	-200,000	-0,018	0,099
-96,074	261,582	0,073	0,090
-95,059	-53,929	0,093	-0,030
-94,045	-134,389	-0,115	0,010
-93,030	146,615	0,062	0,059
-92,016	47,304	0,035	0,023
-91,001	40,484	-0,069	-0,044
-89,986	-107,931	0,050	0,008
-88,972	4,920	-0,040	-0,021
-87,957	-200,000	-0,014	0,050
-86,943	800,000	0,037	0,078
-85,928	793,612	-0,070	-0,136
-84,913	-104,764	0,051	-0,008
-83,899	-200,000	0,037	-0,129
-82,884	-200,000	-0,012	0,046
-81,870	-200,000	-0,018	0,063
-80,855	-200,000	-0,009	-0,135
-79,840	-124,026	0,125	0,014
-78,826	800,000	0,032	-0,089
-77,811	800,000	-0,070	-0,162
-76,797	800,000	0,013	-0,025
-75,782	800,000	-0,020	-0,045
-74,767	-44,904	-0,090	0,032
-73,753	-200,000	-0,016	0,117
-72,738	-125,846	-0,068	0,007
-71,724	-105,612	-0,084	0,013
-70,709	247,504	0,003	-0,003
-69,694	-94,175	-0,053	0,010
-68,680	-123,004	0,146	0,016
-67,665	-103,207	-0,098	-0,016
-66,651	741,505	0,082	0,157
-65,636	-200,000	-0,000	-0,093
-64,622	788,688	-0,045	0,088
-63,607	178,404	-0,144	-0,149
-62,592	-49,518	-0,100	-0,034
-61,578	484,470	-0,096	0,156
-60,563	-25,037	-0,050	-0,021
-59,549	-200,000	-0,028	0,109
-58,534	-41,042	-1,537	-0,560
-57,519	390,358	-1,496	-2,207
-56,505	-200,000	-0,452	-4,382
-55,490	169,001	0,893	0,904
-54,476	800,000	4,801	11,269
-53,461	-200,000	18,291	289,806
-52,446	800,000	728,185	2237,901
-51,432	558,648	1644,099	2822,575
-50,417	79,231	1665,373	1263,615
-49,403	22,758	1539,051	891,097
-48,388	16,730	1462,097	817,324
-47,373	17,864	1452,194	817,224
-46,359	17,213	1442,535	808,639
-45,344	15,025	1437,846	795,525
-44,330	14,927	1435,954	793,983
-43,315	14,938	1434,077	792,965
-42,300	14,935	1432,713	792,166
-41,286	15,008	1431,270	791,680
-40,271	14,933	1430,275	790,742
-39,257	14,944	1428,771	789,930
-38,242	14,990	1427,413	789,366
-37,227	15,000	1426,347	788,798
-36,213	14,991	1425,019	787,986
-35,198	14,972	1423,951	787,275
-34,184	14,995	1422,983	786,819
-33,169	14,936	1421,666	785,781
-32,154	14,950	1420,588	785,220
-31,140	14,958	1419,560	784,656
-30,125	14,982	1418,306	784,043
-29,111	14,996	1417,299	783,522
-28,096	14,998	1415,962	782,762
-27,082	14,885	1414,919	781,622
-26,067	14,913	1413,867	781,143
-25,052	14,897	1412,819	780,460
-24,038	14,884	1411,794	779,799
-23,023	14,900	1410,708	779,245
-22,009	14,864	1409,853	778,571
-20,994	14,834	1409,091	777,981
-19,979	14,874	1407,937	777,501
-18,965	14,875	1407,049	776,985
-17,950	14,826	1406,144	776,222
-16,936	14,888	1405,070	775,888
-15,921	14,758	1404,066	774,699
-14,906	14,771	1403,110	774,198
-13,892	14,814	1402,222	773,878
-12,877	14,804	1401,427	773,362
-11,863	14,807	1400,326	772,739
-10,848	14,779	1399,501	772,121
-9,833	14,793	1398,637	771,681
-8,819	14,719	1397,894	770,894
-7,804	14,704	1396,848	770,218
-6,790	14,708	1395,755	769,604
-5,775	14,681	1394,535	768,777
-4,760	14,752	1393,627	768,572
-3,746	14,714	1392,995	768,020
-2,731	14,678	1392,301	767,441
-1,717	14,714	1391,321	767,037
-0,702	14,648	1389,532	765,714
0,313	18,439	1308,456	738,595
1,327	34,694	706,469	436,476
2,342	53,064	124,580	84,321
3,356	4,352	16,559	8,567
4,371	17,596	3,156	1,772
5,386	30,376	0,478	0,288
6,400	-200,000	-0,007	0,162
7,415	10,623	-0,293	-0,158
8,429	27,607	-0,366	-0,218
9,444	85,737	-0,257	-0,200
10,459	84,451	-0,293	-0,227
11,473	64,529	-0,311	-0,222
12,488	189,311	-0,223	-0,237
13,502	-63,200	-0,335	-0,097
14,517	-120,634	-0,425	-0,050
15,531	85,848	-0,260	-0,202
16,546	11,450	-0,361	-0,195
17,561	185,094	-0,386	-0,405
18,575	-56,229	-0,239	-0,075
19,590	-125,159	-0,190	-0,020
20,604	371,597	-0,146	-0,210
21,619	-29,539	-0,402	-0,162
22,634	74,529	-0,421	-0,313
23,648	68,702	-0,420	-0,304
24,663	76,832	-0,434	-0,326
25,677	36,741	-0,345	-0,215
26,692	15,758	-0,374	-0,208
27,707	122,313	-0,303	-0,267
28,721	36,799	-0,386	-0,241
29,736	120,316	-0,488	-0,428
30,750	133,593	-0,405	-0,370
31,765	60,313	-0,375	-0,261
32,780	250,683	-0,243	-0,292
33,794	162,694	-0,368	-0,365
34,809	-55,725	-0,377	-0,118
35,823	37,266	-0,308	-0,193
36,838	33,189	-0,411	-0,251
37,853	34,704	-0,441	-0,272
38,867	136,535	-0,279	-0,257
39,882	56,496	-0,421	-0,289
40,896	46,766	-0,215	-0,141
41,911	62,603	-0,264	-0,186
42,926	19,786	-0,396	-0,224
43,940	-30,170	-0,349	-0,139
44,955	45,336	-0,456	-0,296
45,969	-29,595	-0,433	-0,174
46,984	115,274	-0,272	-0,234
47,999	97,419	-0,280	-0,227
49,013	59,540	-0,269	-0,187
50,028	241,172	-0,278	-0,328
51,042	85,552	-0,308	-0,238
52,057	276,298	-0,348	-0,437
53,071	124,691	-0,307	-0,273
54,086	490,167	-0,134	-0,217
55,101	32,493	-0,380	-0,231
56,115	-45,477	-0,344	-0,119
57,130	44,923	-0,367	-0,238
58,144	7,124	-0,422	-0,221
59,159	3,890	-0,472	-0,242
60,174	63,843	-0,316	-0,224
61,188	54,423	-0,280	-0,189
62,203	135,298	-0,241	-0,221
63,217	103,807	-0,371	-0,307
64,232	103,059	-0,285	-0,235
65,247	115,095	-0,309	-0,265
66,261	64,562	-0,336	-0,238
67,276	131,897	-0,426	-0,386
68,290	145,459	-0,396	-0,374
69,305	117,644	-0,304	-0,263
70,320	-25,857	-0,292	-0,120
71,334	160,726	-0,191	-0,188
72,349	90,109	-0,493	-0,388
73,363	80,469	-0,210	-0,159
74,378	90,369	-0,372	-0,293
75,393	118,027	-0,270	-0,234
76,407	27,036	-0,341	-0,201
77,422	-21,505	-0,216	-0,092
78,436	-20,414	-0,267	-0,115
79,451	100,565	-0,250	-0,204
80,466	58,146	-0,300	-0,206
81,480	-16,617	-0,420	-0,186
82,495	11,623	-0,307	-0,165
83,509	280,980	-0,184	-0,232
84,524	135,476	-0,281	-0,257
85,539	-48,960	-0,208	-0,070
86,553	-48,212	-0,236	-0,080
87,568	128,673	-0,297	-0,266
88,582	64,571	-0,269	-0,190
89,597	-54,413	-0,401	-0,127
90,611	89,529	-0,235	-0,184
91,626	128,848	-0,156	-0,140
92,641	-22,224	-0,257	-0,109
93,655	9,740	-0,229	-0,122
94,670	800,000	-0,073	-0,150
95,684	-48,734	-0,372	-0,125
96,699	-1,009	-0,283	-0,140
97,714	-67,021	-0,400	-0,110
98,728	-21,035	-0,339	-0,145
99,743	138,289	-0,207	-0,190
100,757	-2,607	-0,243	-0,119
101,772	-26,066	-0,399	-0,164
102,787	-93,677	-0,301	-0,058
103,801	471,173	-0,085	-0,135
104,816	118,260	-0,231	-0,200
105,830	108,633	-0,188	-0,158
106,845	90,247	-0,183	-0,143
107,860	-142,421	-0,276	-0,019
108,874	-38,953	-0,301	-0,111
109,889	-39,524	-0,320	-0,117
110,903	99,525	-0,224	-0,182
111,918	63,289	-0,288	-0,202
112,933	-102,996	-0,256	-0,042
113,947	-45,725	-0,300	-0,103
114,962	-57,362	-0,239	0,073
115,976	4,056	-0,351	-0,180
116,991	184,552	-0,251	-0,261
118,006	-1,407	-0,298	-0,147
119,020	-33,583	-0,267	-0,103
120,035	320,666	-0,193	-0,258
121,049	-31,561	-0,290	-0,114
122,064	12,127	-0,279	-0,150
123,079	122,861	-0,333	-0,292
124,093	45,910	-0,290	-0,188
125,108	139,345	-0,254	-0,234
126,122	185,380	-0,189	-0,197
127,137	182,195	-0,268	-0,277
128,151	-200,000	-0,059	-0,205
129,166	124,476	-0,274	-0,242
130,181	20,388	-0,283	-0,160
131,195	-47,733	-0,239	-0,081
132,210	10,552	-0,154	-0,082
133,224	58,197	-0,199	-0,136
134,239	236,350	-0,215	-0,249
135,254	113,165	-0,163	-0,138
136,268	110,198	-0,223	-0,188
137,283	-141,681	-0,308	-0,021
138,297	95,175	-0,274	-0,218
139,312	-75,526	-0,404	-0,100
140,327	146,634	-0,161	-0,152
141,341	-13,845	-0,195	-0,088
142,356	106,801	-0,202	-0,168
143,370	-62,163	-0,281	-0,081
144,385	500,343	-0,200	-0,323
145,400	221,526	-0,230	-0,259
146,414	394,223	-0,137	-0,200
147,429	19,046	-0,283	-0,158
148,443	59,517	-0,181	-0,124
149,458	-178,144	-0,174	-0,003
150,473	-47,389	-0,263	-0,089
151,487	194,202	-0,199	-0,211
152,502	411,251	-0,176	-0,262
153,516	-137,353	-0,289	-0,023
154,531	-8,148	-0,378	-0,177
155,546	-85,617	-0,220	-0,047
156,560	98,931	-0,169	-0,137
157,575	-108,777	-0,257	-0,038
158,589	576,669	-0,129	-0,220
159,604	167,021	-0,284	-0,282
160,619	212,352	-0,243	-0,267
161,633	70,479	-0,312	-0,225
162,648	134,457	-0,144	-0,130
163,662	-158,132	-0,196	0,008
164,677	-120,773	-0,206	-0,024
165,692	-1,192	-0,328	-0,161
166,706	250,871	-0,193	-0,229
167,721	96,137	-0,287	-0,229
168,735	430,675	-0,162	-0,246
169,750	-63,205	-0,126	-0,036
170,764	241,414	-0,144	-0,168
171,779	-26,395	-0,053	-0,022
172,794	-98,342	-0,203	-0,036
173,808	117,171	-0,272	-0,233
174,823	98,287	-0,269	-0,216
175,837	-50,234	-0,255	-0,084
176,852	-200,000	-0,066	-0,212
177,867	16,235	-0,211	-0,116
178,881	646,114	-0,060	-0,108
179,896	77,566	-0,205	-0,152
180,910	20,685	-0,189	-0,106
181,925	-200,000	-0,044	-0,186
182,940	17,457	-0,357	-0,197
183,954	208,806	-0,128	-0,140
184,969	38,449	-0,205	-0,127
185,983	-123,046	-0,272	-0,030
186,998	330,993	-0,117	-0,157
188,013	-49,798	-0,178	-0,059
189,027	-13,579	-0,190	-0,086
190,042	65,135	-0,243	-0,171
191,056	375,632	-0,159	-0,227
192,071	42,600	-0,173	-0,110
193,086	-3,178	-0,326	-0,158
194,100	-83,178	-0,222	-0,049
195,115	34,529	-0,240	-0,145
196,129	549,506	-0,187	-0,314
197,144	142,582	-0,268	-0,248
198,159	82,088	-0,200	-0,151
199,173	82,890	-0,167	-0,127
200,188	157,681	-0,216	-0,208
201,202	37,009	-0,148	0,091
202,217	26,745	-0,164	-0,096
203,232	342,970	-0,138	-0,188
204,246	68,526	-0,297	-0,212
205,261	-77,351	-0,226	-0,054
206,275	310,706	-0,064	-0,084
207,290	82,825	-0,059	-0,045
208,304	598,249	-0,110	-0,190
209,319	-76,082	-0,207	-0,050
210,334	-27,570	-0,174	-0,070
211,348	22,437	-0,213	-0,121
212,363	326,859	-0,127	-0,170
213,377	-130,732	-0,241	-0,022
214,392	89,722	-0,156	-0,121
215,407	-86,995	-0,190	-0,040
216,421	382,949	-0,135	-0,193
217,436	318,035	-0,081	-0,106
218,450	186,732	-0,204	-0,212
219,465	191,699	-0,249	-0,261
220,480	237,241	-0,151	-0,175
221,494	386,747	-0,099	-0,142
222,509	600,055	-0,136	-0,236
223,523	-110,398	-0,098	-0,014
224,538	-19,188	-0,297	-0,128
225,553	89,263	-0,169	-0,131
226,567	39,451	-0,269	-0,167
227,582	800,000	-0,071	-0,159
228,596	61,135	-0,231	-0,159
229,611	50,099	-0,209	-0,137
230,626	-17,243	-0,246	-0,107
231,640	257,050	-0,079	-0,095
232,655	8,390	-0,208	-0,108
233,669	-36,570	-0,286	-0,106
234,684	-200,000	-0,061	-0,224
235,699	-52,718	-0,155	-0,049
236,713	-189,326	-0,299	-0,002
237,728	-60,219	-0,216	-0,063
238,742	-134,837	-0,108	0,009
239,757	26,418	-0,104	-0,060
240,772	-9,123	-0,298	-0,138
241,786	15,349	-0,311	-0,169
242,801	150,374	-0,177	-0,167
243,815	36,648	-0,107	-0,065
244,830	-9,309	-0,159	-0,073
245,844	100,991	-0,133	-0,107
246,859	-32,633	-0,189	-0,073
247,874	88,391	-0,266	-0,205
248,888	366,193	-0,111	-0,155
249,903	84,821	-0,210	-0,159
250,917	123,352	-0,176	-0,153
251,932	-26,806	-0,154	-0,062
252,947	-109,636	-0,229	-0,033
253,961	-110,132	0,030	0,004
254,976	99,082	-0,200	-0,160
255,990	-29,105	-0,222	-0,088
257,005	9,249	-0,145	-0,076
258,020	3,024	-0,222	-0,111
259,034	-99,059	-0,163	-0,028
260,049	-100,891	-0,093	-0,016
261,063	-200,000	-0,018	-0,095
262,078	800,000	-0,144	-0,284
263,093	-89,636	-0,203	-0,041
264,107	-141,164	-0,086	-0,006
265,122	104,890	-0,183	-0,149
266,136	-200,000	-0,014	-0,172
267,151	-200,000	-0,307	-0,001
268,166	-172,950	-0,249	0,005
269,180	180,171	-0,155	-0,158
270,195	64,781	-0,214	-0,149
271,209	108,966	-0,087	-0,072
272,224	-200,000	-0,081	-0,252
273,239	-200,000	0,023	-0,109
274,253	227,921	-0,186	-0,209
275,268	800,000	-0,067	-0,148
276,282	444,572	-0,140	-0,213
277,297	-200,000	-0,058	-0,247
278,312	-23,898	-0,239	-0,099
279,326	753,933	-0,095	-0,177
280,341	-200,000	-0,042	-0,133
281,355	689,576	-0,098	-0,177
282,370	11,877	-0,136	-0,072
283,384	222,147	-0,045	-0,050
284,399	371,247	-0,180	-0,252
285,414	-6,111	-0,192	-0,090
286,428	351,296	-0,123	-0,169
287,443	12,083	-0,090	-0,048
288,457	-67,504	-0,268	0,072
289,472	49,277	-0,095	-0,061
290,487	-39,353	-0,180	-0,065
291,501	49,181	-0,192	-0,124
292,516	-38,086	-0,130	-0,047
293,530	193,637	-0,140	-0,147
294,545	-67,330	-0,083	0,022
295,560	800,000	-0,049	-0,133
296,574	-73,099	-0,196	-0,049
297,589	-36,380	-0,087	0,032
298,603	445,635	-0,076	-0,115
299,618	67,427	-0,151	-0,106
300,633	245,798	-0,132	-0,154
301,647	97,164	-0,118	-0,094
302,662	229,019	-0,179	-0,201
303,676	76,230	-0,128	-0,093
304,691	116,226	-0,177	-0,150
305,706	-61,937	-0,227	-0,065
306,720	800,000	-0,097	-0,190
307,735	167,523	-0,146	-0,143
308,749	583,151	-0,070	-0,119
309,764	211,003	-0,108	-0,117
310,779	275,791	-0,124	-0,152
311,793	221,407	-0,060	-0,067
312,808	204,783	-0,121	-0,129
313,822	127,239	-0,195	-0,170
314,837	319,192	-0,095	-0,124
315,852	229,914	-0,019	-0,021
316,866	800,000	-0,031	-0,087
317,881	800,000	-0,087	-0,172
318,895	83,146	-0,160	-0,120
319,910	800,000	-0,048	-0,141
320,925	189,154	-0,114	-0,117
321,939	-1,988	-0,153	-0,074
322,954	-43,581	-0,158	-0,055
323,968	248,389	-0,132	-0,154
324,983	-200,000	0,015	-0,078
325,997	557,605	-0,103	-0,171
327,012	445,836	-0,081	-0,123
328,027	-145,397	-0,147	-0,009
329,041	512,432	-0,089	-0,143
330,056	800,000	-0,090	-0,192
331,070	-200,000	0,013	-0,062
332,085	278,478	-0,031	-0,038
333,100	-200,000	0,027	-0,229
334,114	180,247	-0,109	-0,110
335,129	-200,000	-0,057	-0,253
336,143	-134,540	-0,195	-0,016
337,158	-200,000	-0,016	-0,124
338,173	-99,689	-0,054	-0,009
339,187	83,463	-0,152	0,114
340,202	-125,353	-0,180	-0,019
341,216	-81,057	-0,087	0,020
342,231	-83,303	-0,234	-0,051
343,246	-7,078	-0,128	-0,060
344,260	-123,715	-0,118	-0,013
345,275	-84,398	-0,147	-0,032
346,289	165,308	-0,164	0,159
347,304	800,000	-0,054	0,140
348,319	278,290	-0,168	-0,206
349,333	128,153	-0,108	-0,095
350,348	-200,000	-0,038	-0,147
351,362	-84,534	-0,165	0,036
352,377	-200,000	0,004	-0,109
353,392	432,391	-0,101	-0,151
354,406	-39,085	-0,090	-0,032
355,421	209,059	1314,258	1414,729
356,435	160,888	1474,935	1415,237
