DTS Sentinel unit serial number:	SN410029Multiplexer serial number:	ORYXHardware model number:	OX2-SRSoftware version number:	ORYX F/W v4,00 Oryx Data Collector v3.7.2.0data status	okinstallation	B3 Nyhavnadifferential loss correction	single-endedforward channel	channel 1reverse channel	N/Adate	2023/12/02time	23:12:30forward acquisition time	300,00reverse acquisition time	0,00gamma	499,1914k internal	0,3201k external	0,3201temperature offset calibration	1,0000default loss term (dB/km)	0,3820temperature slope calibration	1,0000multiplexer offset coefficient	1,0000multiplexer slope coefficient	1,0000fibre end	0,00T internal ref (°C)	13,25T ext. ref 1 (°C)	-1,75T ext. ref 2 (°C)	-1,79length (m)	temperature (°C)	Stokes	anti-Stokes-744,400	800,000	-0,190	-0,387
-743,385	800,000	-0,061	0,188
-742,371	441,227	-0,188	-0,300
-741,356	-200,000	-0,065	0,214
-740,342	460,848	-0,159	-0,258
-739,327	-200,000	0,000	0,322
-738,312	46,673	-0,240	-0,162
-737,298	553,365	-0,090	0,158
-736,283	88,365	-0,275	-0,222
-735,269	-200,000	0,096	0,344
-734,254	144,904	-0,213	-0,207
-733,239	-16,664	-0,191	0,088
-732,225	800,000	-0,078	-0,231
-731,210	675,000	0,149	0,283
-730,196	18,886	-0,074	0,043
-729,181	-58,212	-0,066	-0,021
-728,167	-200,000	-0,009	-0,054
-727,152	399,626	-0,069	0,105
-726,137	-197,576	-0,065	0,000
-725,123	230,909	-0,098	-0,117
-724,108	80,116	-0,162	-0,127
-723,094	-200,000	-0,026	-0,170
-722,079	189,700	0,014	-0,015
-721,064	800,000	-0,023	-0,050
-720,050	686,609	0,020	-0,039
-719,035	49,668	0,040	0,027
-718,021	83,982	-0,126	0,100
-717,006	-31,660	-0,115	-0,047
-715,991	427,425	-0,044	-0,070
-714,977	-70,193	0,050	-0,014
-713,962	-18,807	-0,240	-0,108
-712,948	8,226	0,169	-0,092
-711,933	-25,838	0,003	-0,001
-710,918	-26,034	-0,061	-0,026
-709,904	411,995	-0,078	-0,121
-708,889	-21,239	-0,064	-0,028
-707,875	-50,682	0,015	-0,005
-706,860	-200,000	-0,019	0,101
-705,845	263,990	-0,062	-0,079
-704,831	-200,000	0,016	0,077
-703,816	-200,000	0,005	-0,044
-702,802	223,109	-0,071	-0,083
-701,787	-120,896	-0,104	-0,013
-700,772	-200,000	0,017	-0,071
-699,758	286,562	0,018	-0,023
-698,743	-50,167	-0,075	0,026
-697,729	252,258	-0,050	-0,061
-696,714	-200,000	0,016	0,081
-695,699	108,737	-0,029	-0,026
-694,685	68,786	-0,074	0,055
-693,670	-200,000	-0,007	-0,106
-692,656	800,000	0,024	-0,048
-691,641	-17,894	0,071	-0,032
-690,627	389,683	0,002	-0,004
-689,612	330,750	-0,067	-0,093
-688,597	457,375	-0,026	-0,041
-687,583	282,818	0,096	-0,125
-686,568	-27,738	-0,121	-0,051
-685,554	-200,000	0,031	-0,137
-684,539	800,000	0,043	-0,092
-683,524	-200,000	-0,007	-0,038
-682,510	-200,000	0,032	0,120
-681,495	-13,284	0,061	-0,028
-680,481	156,430	-0,089	-0,089
-679,466	357,875	-0,047	-0,069
-678,451	-123,891	-0,063	0,007
-677,437	800,000	0,030	-0,082
-676,422	23,580	-0,142	-0,085
-675,408	543,745	-0,083	0,144
-674,393	-200,000	0,044	0,175
-673,378	-8,148	-0,114	-0,055
-672,364	-200,000	0,001	0,055
-671,349	324,456	-0,071	-0,099
-670,335	165,928	0,077	0,079
-669,320	-200,000	0,024	0,140
-668,305	-152,369	0,036	0,002
-667,291	800,000	0,013	-0,026
-666,276	54,097	-0,153	0,106
-665,262	-200,000	0,003	0,017
-664,247	536,769	-0,053	-0,091
-663,232	-200,000	-0,020	-0,101
-662,218	800,000	0,058	0,124
-661,203	3,658	-0,017	0,009
-660,189	2,399	-0,053	0,028
-659,174	188,904	-0,082	-0,089
-658,159	-173,932	-0,155	-0,003
-657,145	-32,723	-0,100	0,040
-656,130	-0,637	-0,082	-0,042
-655,116	800,000	0,062	0,139
-654,101	-200,000	0,031	0,124
-653,086	168,073	0,034	-0,035
-652,072	97,065	0,101	0,084
-651,057	-59,476	-0,079	-0,024
-650,043	-72,253	0,091	0,024
-649,028	-200,000	0,010	0,043
-648,014	29,824	0,108	-0,066
-646,999	-125,082	-0,164	-0,018
-645,984	128,828	0,086	0,080
-644,970	6,914	-0,158	-0,085
-643,955	49,146	0,114	-0,078
-642,941	187,641	0,032	0,034
-641,926	800,000	-0,014	0,030
-640,911	-154,858	-0,073	0,003
-639,897	-200,000	-0,042	0,137
-638,882	-89,342	0,114	0,024
-637,868	-200,000	-0,006	-0,082
-636,853	-86,600	-0,107	0,023
-635,838	800,000	0,004	-0,013
-634,824	3,109	0,063	0,033
-633,809	242,137	0,058	0,070
-632,795	800,000	-0,028	0,066
-631,780	-76,885	-0,106	-0,027
-630,765	8,864	-0,072	-0,039
-629,751	-103,578	0,031	0,005
-628,736	46,784	-0,141	-0,095
-627,722	-150,905	-0,098	-0,005
-626,707	-135,395	0,083	0,007
-625,692	119,645	0,054	0,048
-624,678	800,000	-0,011	0,034
-623,663	411,098	-0,074	-0,114
-622,649	-93,179	0,145	0,029
-621,634	176,579	-0,058	-0,061
-620,619	800,000	0,035	-0,084
-619,605	-118,870	-0,116	0,015
-618,590	12,413	0,040	0,022
-617,576	-90,177	-0,042	-0,009
-616,561	-200,000	-0,009	0,160
-615,546	23,426	-0,119	0,071
-614,532	-79,504	-0,077	-0,019
-613,517	124,442	0,115	-0,105
-612,503	-200,000	0,011	-0,094
-611,488	-200,000	0,001	0,063
-610,474	-200,000	0,001	-0,056
-609,459	342,864	-0,015	0,021
-608,444	8,437	-0,035	-0,019
-607,430	-200,000	0,006	-0,047
-606,415	-36,680	-0,061	-0,024
-605,401	-200,000	-0,014	-0,125
-604,386	366,541	0,042	-0,061
-603,371	139,355	-0,071	0,068
-602,357	-200,000	0,017	-0,075
-601,342	-46,086	-0,049	-0,018
-600,328	-19,015	-0,107	0,048
-599,313	-113,598	-0,089	-0,012
-598,298	-94,469	0,043	0,008
-597,284	-200,000	0,025	0,111
-596,269	416,456	0,047	0,073
-595,255	-82,883	0,054	0,013
-594,240	172,923	-0,071	0,074
-593,225	-200,000	-0,011	-0,119
-592,211	412,988	-0,033	-0,052
-591,196	-53,452	-0,089	0,029
-590,182	-200,000	-0,005	-0,136
-589,167	-31,516	-0,043	0,017
-588,152	58,892	0,073	0,052
-587,138	800,000	0,044	-0,118
-586,123	-104,971	-0,036	-0,006
-585,109	614,698	-0,099	-0,181
-584,094	403,280	0,039	-0,060
-583,079	666,825	-0,039	0,073
-582,065	-200,000	-0,008	-0,039
-581,050	800,000	0,017	-0,042
-580,036	-125,186	0,086	0,009
-579,021	-200,000	-0,004	-0,054
-578,006	-200,000	-0,009	0,093
-576,992	468,056	0,062	0,101
-575,977	-105,676	0,072	-0,012
-574,963	5,485	0,143	0,076
-573,948	800,000	-0,048	0,099
-572,934	179,891	-0,043	-0,045
-571,919	59,663	0,022	0,016
-570,904	195,362	-0,075	-0,082
-569,890	489,613	-0,070	-0,115
-568,875	122,316	0,067	-0,060
-567,861	-51,619	0,038	-0,013
-566,846	115,951	0,049	-0,043
-565,831	141,180	0,071	-0,068
-564,817	-84,052	-0,112	-0,025
-563,802	-113,511	0,120	-0,017
-562,788	-200,000	0,001	-0,062
-561,773	431,091	-0,029	0,046
-560,758	62,110	0,070	0,051
-559,744	800,000	-0,039	0,083
-558,729	-200,000	-0,014	0,102
-557,715	-122,262	0,068	0,008
-556,700	-200,000	0,004	0,090
-555,685	-200,000	0,007	0,095
-554,671	411,548	0,097	-0,150
-553,656	270,482	-0,086	0,110
-552,642	1,794	-0,080	-0,042
-551,627	494,858	0,063	0,105
-550,612	103,907	-0,067	-0,057
-549,598	588,379	-0,049	-0,087
-548,583	363,975	0,035	0,051
-547,569	-63,404	0,069	-0,020
-546,554	800,000	-0,018	-0,043
-545,539	260,898	0,011	-0,014
-544,525	-18,983	-0,127	0,057
-543,510	800,000	0,084	-0,211
-542,496	800,000	-0,026	-0,069
-541,481	-200,000	-0,018	-0,163
-540,466	-200,000	0,002	-0,059
-539,452	-200,000	0,006	0,104
-538,437	-200,000	-0,014	0,152
-537,423	207,026	0,059	-0,066
-536,408	800,000	0,043	-0,105
-535,393	15,774	-0,131	0,074
-534,379	-29,514	-0,138	0,057
-533,364	637,716	0,049	-0,091
-532,350	-60,204	0,106	0,032
-531,335	-200,000	0,017	0,088
-530,321	-153,545	-0,104	-0,005
-529,306	-168,949	-0,149	-0,004
-528,291	-200,000	0,009	0,230
-527,277	377,976	-0,080	-0,118
-526,262	87,102	-0,205	0,163
-525,248	-200,000	-0,030	-0,124
-524,233	-3,134	0,011	0,006
-523,218	-152,756	-0,104	-0,005
-522,204	-200,000	0,010	0,150
-521,189	800,000	-0,033	0,082
-520,175	-200,000	0,011	-0,073
-519,160	544,324	-0,011	-0,018
-518,145	387,178	-0,039	-0,059
-517,131	-39,114	0,160	0,060
-516,116	251,958	0,099	0,121
-515,102	-57,275	0,108	0,034
-514,087	277,200	-0,032	-0,041
-513,072	-71,585	-0,079	0,021
-512,058	800,000	-0,014	-0,042
-511,043	166,858	-0,061	0,062
-510,029	-71,237	0,165	-0,044
-509,014	405,996	0,066	0,100
-507,999	-39,240	-0,048	-0,018
-506,985	22,652	-0,089	-0,053
-505,970	69,726	-0,145	-0,107
-504,956	-200,000	0,028	-0,096
-503,941	-200,000	-0,018	-0,098
-502,926	800,000	-0,048	0,139
-501,912	155,482	-0,093	0,093
-500,897	-155,987	0,059	0,003
-499,883	800,000	-0,024	-0,062
-498,868	383,562	0,065	-0,096
-497,853	-200,000	-0,006	0,044
-496,839	-109,723	-0,077	-0,011
-495,824	306,866	0,087	0,116
-494,810	-88,682	0,113	0,024
-493,795	-131,017	-0,129	0,012
-492,781	44,355	0,108	0,071
-491,766	257,856	-0,052	-0,065
-490,751	-81,909	0,182	-0,043
-489,737	-5,331	0,034	-0,017
-488,722	96,735	-0,110	0,091
-487,708	-178,070	0,052	-0,001
-486,693	-63,050	0,042	0,012
-485,678	442,607	-0,086	-0,137
-484,664	-200,000	-0,007	0,038
-483,649	36,644	0,021	0,013
-482,635	-200,000	-0,012	-0,047
-481,620	-200,000	0,001	0,015
-480,605	142,089	0,043	0,041
-479,591	117,276	0,053	-0,047
-478,576	-200,000	0,002	0,014
-477,562	459,041	0,049	-0,078
-476,547	-200,000	-0,008	-0,111
-475,532	-200,000	0,018	-0,062
-474,518	301,219	-0,052	0,069
-473,503	16,504	-0,053	0,030
-472,489	800,000	0,103	-0,218
-471,474	800,000	0,029	0,071
-470,459	-200,000	-0,028	0,112
-469,445	705,257	-0,058	0,111
-468,430	-200,000	0,005	0,077
-467,416	619,557	0,024	0,043
-466,401	255,139	0,040	-0,049
-465,386	800,000	-0,017	0,043
-464,372	-66,762	-0,120	0,034
-463,357	-156,753	0,104	-0,005
-462,343	-200,000	-0,004	-0,025
-461,328	-49,841	-0,033	-0,011
-460,313	725,543	-0,073	0,140
-459,299	-105,942	0,081	0,013
-458,284	-131,917	-0,018	0,002
-457,270	-91,150	0,087	-0,018
-456,255	-128,728	-0,095	-0,010
-455,241	89,497	0,047	0,037
-454,226	-200,000	-0,027	-0,087
-453,211	-200,000	0,004	0,029
-452,197	-99,054	-0,039	0,007
-451,182	800,000	0,048	0,111
-450,168	-13,208	0,010	-0,005
-449,153	381,737	-0,035	0,052
-448,138	-93,442	-0,053	0,010
-447,124	800,000	-0,008	0,020
-446,109	-82,568	0,108	0,025
-445,095	223,189	0,005	0,006
-444,080	38,129	0,103	0,066
-443,065	-200,000	0,003	0,013
-442,051	-200,000	-0,028	-0,124
-441,036	-74,706	-0,051	0,013
-440,022	584,166	-0,050	0,088
-439,007	-101,864	-0,180	-0,031
-437,992	-46,120	0,032	-0,011
-436,978	-72,135	0,225	0,059
-435,963	115,024	-0,030	-0,026
-434,949	95,102	0,060	0,049
-433,934	96,489	0,110	-0,091
-432,919	800,000	-0,022	0,043
-431,905	-200,000	-0,001	-0,056
-430,890	-98,650	-0,063	-0,011
-429,876	800,000	0,061	0,176
-428,861	-200,000	-0,000	0,005
-427,846	800,000	0,029	-0,068
-426,832	441,839	-0,072	-0,113
-425,817	19,186	-0,226	-0,130
-424,803	800,000	-0,061	-0,136
-423,788	571,745	0,093	-0,164
-422,773	0,151	-0,051	-0,026
-421,759	235,274	0,029	-0,035
-420,744	-87,808	-0,058	0,013
-419,730	30,692	-0,117	0,072
-418,715	-30,317	0,023	-0,009
-417,701	-61,824	-0,054	0,016
-416,686	-144,384	0,061	-0,004
-415,671	-200,000	0,016	-0,172
-414,657	-65,401	0,051	-0,015
-413,642	800,000	-0,005	0,017
-412,628	37,669	-0,096	-0,061
-411,613	800,000	-0,040	-0,100
-410,598	800,000	-0,009	-0,027
-409,584	193,094	0,105	0,114
-408,569	270,945	0,137	0,173
-407,555	768,422	0,021	-0,042
-406,540	-200,000	-0,021	0,120
-405,525	-51,255	-0,108	0,036
-404,511	-200,000	0,018	-0,058
-403,496	117,151	-0,028	-0,024
-402,482	9,140	0,103	0,056
-401,467	35,953	0,060	0,038
-400,452	40,125	0,096	-0,062
-399,438	-39,340	0,037	-0,014
-398,423	299,367	-0,041	0,054
-397,409	-2,846	0,030	0,015
-396,394	-173,982	-0,084	-0,002
-395,379	-34,685	0,058	0,023
-394,365	747,431	-0,007	0,014
-393,350	-200,000	0,012	0,192
-392,336	-200,000	-0,033	-0,139
-391,321	752,912	-0,018	-0,035
-390,306	291,500	0,052	-0,068
-389,292	167,698	-0,047	0,048
-388,277	431,618	0,124	0,193
-387,263	-200,000	-0,003	-0,036
-386,248	-32,076	-0,100	-0,040
-385,233	62,849	-0,018	-0,013
-384,219	800,000	0,041	0,121
-383,204	-29,671	0,061	-0,025
-382,190	-112,571	0,075	0,011
-381,175	-200,000	0,009	-0,034
-380,160	800,000	0,066	-0,165
-379,146	32,641	0,060	0,037
-378,131	176,455	-0,037	-0,039
-377,117	-200,000	0,021	-0,119
-376,102	-176,314	-0,195	0,004
-375,088	175,545	0,078	0,081
-374,073	-200,000	0,002	-0,024
-373,058	94,575	0,041	-0,034
-372,044	800,000	0,016	0,045
-371,029	-200,000	-0,017	-0,072
-370,015	-51,729	-0,032	-0,011
-369,000	-78,199	-0,049	0,012
-367,985	-200,000	-0,012	-0,052
-366,971	54,912	-0,007	-0,005
-365,956	80,159	0,080	0,062
-364,942	26,114	-0,045	-0,027
-363,927	245,769	0,024	0,030
-362,912	800,000	0,030	0,067
-361,898	-107,849	-0,050	-0,008
-360,883	-47,006	0,055	0,019
-359,869	22,772	-0,090	0,053
-358,854	-86,170	-0,091	-0,020
-357,839	-162,621	0,172	-0,006
-356,825	14,226	-0,098	0,054
-355,810	303,986	-0,051	-0,068
-354,796	-114,975	-0,063	0,008
-353,781	-170,985	0,032	-0,001
-352,766	-93,960	-0,120	-0,023
-351,752	800,000	-0,026	-0,056
-350,737	566,074	0,044	0,077
-349,723	292,350	0,105	0,138
-348,708	80,323	-0,037	0,029
-347,693	-200,000	-0,005	-0,095
-346,679	-48,368	-0,141	0,048
-345,664	-12,073	-0,144	0,067
-344,650	0,473	0,072	-0,037
-343,635	-200,000	-0,023	0,103
-342,620	-200,000	0,021	0,105
-341,606	13,137	0,118	0,065
-340,591	281,206	0,074	0,095
-339,577	-200,000	0,002	-0,100
-338,562	102,028	-0,103	0,086
-337,548	180,118	-0,038	-0,040
-336,533	139,317	0,089	0,084
-335,518	-200,000	-0,022	0,135
-334,504	420,192	-0,041	-0,063
-333,489	510,549	-0,006	0,009
-332,475	439,216	-0,033	-0,052
-331,460	-200,000	-0,017	-0,097
-330,445	179,077	0,027	-0,028
-329,431	-200,000	0,003	0,058
-328,416	-169,640	0,116	-0,003
-327,402	331,614	0,085	-0,117
-326,387	-77,778	-0,047	-0,012
-325,372	-200,000	-0,005	-0,120
-324,358	800,000	-0,066	-0,150
-323,343	388,005	-0,043	0,064
-322,329	-200,000	-0,031	0,113
-321,314	-135,925	0,060	0,005
-320,299	-78,010	0,035	0,008
-319,285	800,000	0,025	-0,058
-318,270	50,441	-0,110	-0,074
-317,256	-66,484	-0,098	-0,028
-316,241	-103,336	-0,040	-0,007
-315,226	132,757	-0,076	0,071
-314,212	244,994	-0,039	0,046
-313,197	144,552	0,077	0,074
-312,183	-200,000	-0,035	0,112
-311,168	113,885	-0,095	0,082
-310,153	800,000	0,027	-0,061
-309,139	467,723	0,046	-0,074
-308,124	-200,000	0,007	0,023
-307,110	-46,388	0,187	-0,065
-306,095	-200,000	-0,028	-0,126
-305,080	800,000	-0,022	-0,064
-304,066	-200,000	-0,029	0,142
-303,051	263,862	0,103	0,128
-302,037	-32,256	0,063	0,025
-301,022	-171,089	-0,072	0,002
-300,008	7,469	0,074	0,039
-298,993	-200,000	0,013	0,139
-297,978	141,133	0,083	0,079
-296,964	-90,196	-0,082	0,017
-295,949	234,094	-0,052	-0,061
-294,935	103,926	-0,056	-0,047
-293,920	244,110	-0,144	-0,173
-292,905	-115,565	0,081	-0,011
-291,891	-129,698	0,087	-0,008
-290,876	337,543	0,047	0,066
-289,862	489,514	0,055	0,091
-288,847	-200,000	-0,023	-0,107
-287,832	-200,000	0,050	-0,201
-286,818	61,585	0,026	-0,018
-285,803	-23,711	-0,061	-0,026
-284,789	78,793	0,114	0,087
-283,774	-31,079	0,164	-0,066
-282,759	121,734	-0,097	-0,087
-281,745	137,166	0,162	-0,152
-280,730	-26,752	-0,064	-0,026
-279,716	340,861	0,028	-0,039
-278,701	-200,000	0,019	0,224
-277,686	259,280	0,064	0,079
-276,672	44,747	0,038	0,025
-275,657	-76,548	-0,097	0,024
-274,643	113,216	0,073	-0,063
-273,628	238,059	-0,088	-0,104
-272,613	114,303	-0,063	0,055
-271,599	-174,231	0,109	-0,002
-270,584	-147,865	-0,061	0,004
-269,570	-200,000	0,008	-0,032
-268,555	240,027	0,036	-0,043
-267,540	-200,000	-0,034	-0,122
-266,526	-200,000	0,008	-0,030
-265,511	-63,503	-0,040	-0,012
-264,497	-200,000	0,035	-0,159
-263,482	58,455	0,093	0,065
-262,467	-200,000	0,005	-0,162
-261,453	-148,597	0,020	0,001
-260,438	158,139	-0,070	-0,069
-259,424	-200,000	-0,028	-0,112
-258,409	117,347	-0,038	-0,033
-257,395	185,476	0,013	0,014
-256,380	800,000	0,035	0,081
-255,365	-148,399	0,156	-0,009
-254,351	-200,000	-0,007	0,041
-253,336	800,000	-0,032	0,064
-252,322	200,647	-0,072	-0,079
-251,307	-200,000	-0,002	-0,047
-250,292	-200,000	0,040	0,137
-249,278	800,000	0,031	0,063
-248,263	800,000	0,043	0,098
-247,249	-200,000	0,028	0,104
-246,234	696,121	0,039	-0,074
-245,219	104,137	-0,072	0,060
-244,205	-165,396	-0,148	0,005
-243,190	-63,009	-0,056	-0,016
-242,176	117,638	0,068	-0,060
-241,161	-200,000	0,068	-0,214
-240,146	-200,000	-0,016	0,192
-239,132	-95,074	-0,131	0,025
-238,117	800,000	-0,068	-0,177
-237,103	47,781	0,061	-0,040
-236,088	-200,000	0,003	-0,116
-235,073	-200,000	0,004	-0,063
-234,059	800,000	-0,066	-0,136
-233,044	-6,319	-0,061	0,030
-232,030	-200,000	0,032	0,105
-231,015	-75,056	0,059	0,015
-230,000	125,267	-0,125	-0,113
-228,986	-100,603	0,059	0,010
-227,971	-185,617	0,114	-0,001
-226,957	-200,000	-0,010	0,167
-225,942	656,615	-0,066	-0,122
-224,927	800,000	0,046	0,131
-223,913	-44,167	0,083	0,029
-222,898	-74,539	0,018	-0,004
-221,884	800,000	0,076	-0,209
-220,869	474,936	0,044	-0,071
-219,855	800,000	0,070	0,139
-218,840	-200,000	0,004	0,087
-217,825	-53,115	0,088	-0,029
-216,811	-184,774	-0,199	-0,002
-215,796	-200,000	-0,013	-0,084
-214,782	350,443	-0,040	0,056
-213,767	-141,972	0,131	0,009
-212,752	406,278	-0,061	0,092
-211,738	-5,846	-0,128	0,062
-210,723	-63,726	0,119	-0,034
-209,709	5,756	0,067	0,035
-208,694	121,645	-0,094	-0,083
-207,679	-200,000	-0,008	0,050
-206,665	269,748	-0,056	0,070
-205,650	49,121	0,084	-0,056
-204,636	-87,173	0,029	0,006
-203,621	112,435	0,077	-0,066
-202,606	-60,443	-0,102	-0,031
-201,592	386,393	0,057	-0,084
-200,577	-200,000	-0,005	-0,068
-199,563	-48,396	0,017	-0,006
-198,548	-94,746	0,087	0,017
-197,533	800,000	-0,026	0,066
-196,519	800,000	0,048	-0,095
-195,504	800,000	0,030	-0,089
-194,490	-4,935	-0,047	-0,023
-193,475	-200,000	-0,015	0,082
-192,460	800,000	-0,012	0,037
-191,446	-200,000	0,013	-0,055
-190,431	-102,688	-0,062	-0,010
-189,417	41,427	-0,056	0,036
-188,402	800,000	-0,023	-0,059
-187,387	-99,221	0,104	0,018
-186,373	-26,181	-0,088	-0,036
-185,358	-200,000	-0,025	-0,099
-184,344	-200,000	-0,013	0,071
-183,329	800,000	0,029	0,062
-182,315	-200,000	0,052	0,166
-181,300	62,687	-0,039	0,027
-180,285	117,330	-0,042	-0,037
-179,271	-200,000	-0,003	-0,064
-178,256	281,859	-0,082	0,104
-177,242	50,972	0,142	0,095
-176,227	-59,571	-0,092	0,028
-175,212	-143,847	0,123	-0,008
-174,198	-178,326	0,175	-0,003
-173,183	203,154	-0,076	0,084
-172,169	-200,000	-0,030	0,111
-171,154	-93,769	-0,082	-0,016
-170,139	-168,870	0,081	0,002
-169,125	-131,108	-0,153	-0,014
-168,110	-150,089	0,091	0,005
-167,096	201,901	0,067	-0,073
-166,081	43,474	-0,085	0,055
-165,066	-200,000	0,029	0,099
-164,052	800,000	0,023	-0,048
-163,037	-200,000	-0,030	0,116
-162,023	-200,000	0,031	0,171
-161,008	-140,086	0,089	0,007
-159,993	180,768	0,058	-0,060
-158,979	280,547	0,073	0,093
-157,964	262,355	0,077	0,095
-156,950	-78,210	-0,130	0,032
-155,935	34,633	0,093	-0,058
-154,920	-200,000	0,024	0,112
-153,906	-200,000	0,003	-0,051
-152,891	187,450	0,073	0,077
-151,877	-200,000	-0,024	-0,134
-150,862	800,000	0,044	-0,101
-149,847	61,620	-0,107	-0,076
-148,833	-200,000	0,023	0,189
-147,818	54,361	-0,052	-0,036
-146,804	-200,000	-0,003	0,018
-145,789	307,542	0,081	-0,107
-144,775	800,000	-0,069	-0,157
-143,760	-200,000	-0,003	0,063
-142,745	-59,705	-0,033	-0,010
-141,731	-200,000	0,012	-0,057
-140,716	800,000	0,011	-0,026
-139,702	470,899	0,032	0,052
-138,687	800,000	0,048	-0,104
-137,672	-200,000	0,003	0,080
-136,658	800,000	-0,037	0,077
-135,643	800,000	0,030	-0,069
-134,629	68,344	-0,047	0,034
-133,614	795,130	-0,042	-0,083
-132,599	-19,130	0,097	-0,043
-131,585	-60,870	-0,014	-0,004
-130,570	-200,000	-0,019	-0,078
-129,556	800,000	-0,041	0,090
-128,541	-138,064	-0,121	0,009
-127,526	-200,000	-0,028	-0,141
-126,512	-69,593	-0,034	0,009
-125,497	-39,617	0,048	-0,018
-124,483	-200,000	-0,007	0,041
-123,468	-200,000	0,007	0,034
-122,453	-71,967	-0,067	-0,018
-121,439	588,274	-0,047	-0,083
-120,424	81,816	-0,067	-0,051
-119,410	-108,251	0,142	-0,022
-118,395	-33,851	-0,054	0,021
-117,380	318,566	-0,074	0,100
-116,366	-200,000	0,008	0,076
-115,351	16,889	-0,014	0,008
-114,337	-200,000	-0,134	-0,000
-113,322	800,000	-0,018	-0,055
-112,307	800,000	0,040	-0,103
-111,293	-110,341	-0,023	0,003
-110,278	255,198	0,080	0,097
-109,264	800,000	-0,038	0,100
-108,249	800,000	-0,046	-0,137
-107,234	800,000	-0,037	-0,110
-106,220	-103,144	-0,069	0,012
-105,205	-200,000	-0,001	0,013
-104,191	-100,948	0,074	0,013
-103,176	800,000	0,025	0,068
-102,162	-140,111	0,134	-0,010
-101,147	95,147	-0,075	-0,061
-100,132	149,352	0,067	-0,065
-99,118	389,595	-0,026	0,039
-98,103	800,000	-0,055	0,120
-97,089	14,126	-0,041	0,023
-96,074	406,414	-0,050	0,075
-95,059	84,103	-0,021	0,016
-94,045	-75,618	0,034	0,009
-93,030	181,263	-0,052	-0,054
-92,016	213,872	0,039	-0,044
-91,001	-49,196	0,055	0,019
-89,986	-94,287	-0,119	0,023
-88,972	800,000	0,065	-0,156
-87,957	-105,442	0,091	0,014
-86,943	85,457	0,071	-0,055
-85,928	221,643	-0,156	-0,178
-84,913	-2,966	0,124	-0,061
-83,899	-68,485	0,128	0,035
-82,884	394,699	-0,064	0,094
-81,870	-35,473	0,114	-0,044
-80,855	46,149	0,027	-0,018
-79,840	101,317	-0,031	-0,026
-78,826	236,351	-0,087	-0,102
-77,811	-200,000	0,002	-0,021
-76,797	24,044	0,143	-0,083
-75,782	-112,186	0,052	0,007
-74,767	-50,468	0,101	0,034
-73,753	195,846	0,011	0,012
-72,738	-200,000	-0,006	0,052
-71,724	204,141	-0,028	-0,031
-70,709	-200,000	-0,017	0,062
-69,694	-200,000	0,001	0,036
-68,680	-60,949	0,074	0,022
-67,665	23,917	0,083	-0,049
-66,651	-138,849	0,076	0,006
-65,636	522,011	-0,034	-0,056
-64,622	357,080	-0,024	0,034
-63,607	-119,266	0,080	-0,010
-62,592	685,545	-0,059	-0,109
-61,578	271,252	0,053	-0,066
-60,563	-62,718	0,097	-0,028
-59,549	334,607	-0,034	0,047
-58,534	-43,531	-1,730	-0,615
-57,519	311,950	-1,397	-1,861
-56,505	-200,000	-0,481	-4,530
-55,490	177,684	1,009	1,043
-54,476	800,000	4,968	11,517
-53,461	-200,000	19,263	320,794
-52,446	-200,000	741,633	2334,509
-51,432	572,388	1656,171	2867,883
-50,417	78,083	1670,934	1260,534
-49,403	21,245	1544,051	885,260
-48,388	15,102	1466,517	810,936
-47,373	17,985	1456,677	819,393
-46,359	16,622	1446,633	807,174
-45,344	13,324	1442,054	788,787
-44,330	13,283	1440,116	787,500
-43,315	13,294	1438,337	786,551
-42,300	13,297	1436,425	785,487
-41,286	13,292	1435,354	784,846
-40,271	13,282	1434,018	784,038
-39,257	13,276	1432,807	783,313
-38,242	13,273	1431,631	782,624
-37,227	13,342	1430,216	782,150
-36,213	13,304	1429,179	781,370
-35,198	13,355	1427,555	780,693
-34,184	13,366	1426,749	780,274
-33,169	13,323	1425,357	779,280
-32,154	13,356	1424,703	779,048
-31,140	13,360	1423,045	778,129
-30,125	13,372	1422,142	777,661
-29,111	13,412	1420,811	777,090
-28,096	13,388	1419,808	776,398
-27,082	13,257	1418,840	775,221
-26,067	13,289	1417,598	774,663
-25,052	13,286	1416,496	774,014
-24,038	13,260	1415,589	773,366
-23,023	13,265	1414,427	772,725
-22,009	13,216	1413,651	772,040
-20,994	13,214	1412,815	771,540
-19,979	13,278	1411,661	771,180
-18,965	13,195	1410,962	770,380
-17,950	13,226	1409,748	769,832
-16,936	13,224	1408,939	769,349
-15,921	13,200	1407,726	768,543
-14,906	13,202	1406,902	768,072
-13,892	13,200	1406,162	767,628
-12,877	13,193	1405,121	766,999
-11,863	13,212	1404,201	766,555
-10,848	13,194	1403,393	765,998
-9,833	13,135	1402,567	765,243
-8,819	13,096	1401,772	764,599
-7,804	13,098	1400,961	764,131
-6,790	13,090	1399,573	763,307
-5,775	13,087	1398,591	762,728
-4,760	13,065	1397,702	762,110
-3,746	13,105	1396,583	761,657
-2,731	13,044	1396,035	761,044
-1,717	13,050	1395,044	760,500
-0,702	13,037	1393,278	759,449
0,313	17,027	1310,050	732,522
1,327	33,541	703,412	431,452
2,342	51,769	123,165	82,762
3,356	2,446	16,677	8,512
4,371	3,886	3,297	1,698
5,386	14,051	0,652	0,358
6,400	-200,000	0,098	0,312
7,415	-22,848	-0,281	-0,119
8,429	141,090	-0,222	-0,208
9,444	94,628	-0,316	-0,254
10,459	182,001	-0,247	-0,258
11,473	-12,396	-0,350	-0,161
12,488	302,726	-0,120	-0,157
13,502	-20,859	-0,414	-0,179
14,517	-89,988	-0,331	-0,068
15,531	96,455	-0,326	-0,263
16,546	72,504	-0,279	-0,205
17,561	87,271	-0,330	-0,258
18,575	123,010	-0,170	-0,151
19,590	151,105	-0,218	-0,210
20,604	16,009	-0,303	-0,168
21,619	-4,569	-0,411	-0,200
22,634	152,115	-0,384	-0,370
23,648	166,912	-0,434	-0,435
24,663	10,927	-0,352	-0,189
25,677	83,332	-0,252	-0,194
26,692	132,369	-0,268	-0,244
27,707	109,107	-0,298	-0,252
28,721	-14,968	-0,412	-0,186
29,736	173,919	-0,242	-0,247
30,750	177,692	-0,330	-0,340
31,765	69,644	-0,467	-0,339
32,780	62,620	-0,351	-0,247
33,794	183,861	-0,259	-0,271
34,809	174,255	-0,377	-0,385
35,823	24,467	-0,329	-0,192
36,838	-94,842	-0,261	-0,049
37,853	184,852	-0,217	-0,227
38,867	53,452	-0,364	-0,246
39,882	147,905	-0,381	-0,362
40,896	-8,573	-0,356	-0,168
41,911	184,842	-0,307	-0,322
42,926	5,458	-0,358	-0,186
43,940	59,158	-0,489	-0,339
44,955	81,340	-0,453	-0,345
45,969	193,180	-0,269	-0,287
46,984	-20,889	-0,350	-0,151
47,999	-13,185	-0,383	-0,175
49,013	76,492	-0,242	-0,180
50,028	39,040	-0,344	-0,216
51,042	76,082	-0,413	-0,307
52,057	101,654	-0,332	-0,272
53,071	166,708	-0,291	-0,291
54,086	92,898	-0,160	-0,127
55,101	36,197	-0,414	-0,256
56,115	-4,363	-0,356	-0,173
57,130	83,625	-0,294	-0,226
58,144	-7,651	-0,497	-0,236
59,159	100,179	-0,354	-0,289
60,174	-7,911	-0,323	-0,153
61,188	26,878	-0,403	-0,237
62,203	-28,293	-0,348	-0,141
63,217	54,743	-0,299	-0,203
64,232	-95,232	-0,433	-0,081
65,247	36,546	-0,368	-0,228
66,261	41,406	-0,393	-0,250
67,276	4,707	-0,310	-0,159
68,290	800,000	-0,174	-0,363
69,305	165,755	-0,360	-0,359
70,320	15,421	-0,335	-0,184
71,334	44,007	-0,321	-0,207
72,349	-21,755	-0,355	-0,151
73,363	5,409	-0,314	-0,162
74,378	13,435	-0,471	-0,256
75,393	31,732	-0,297	-0,179
76,407	317,393	-0,219	-0,292
77,422	-111,024	-0,328	-0,047
78,436	111,700	-0,309	-0,262
79,451	52,300	-0,354	-0,237
80,466	14,916	-0,307	-0,168
81,480	-4,827	-0,262	-0,126
82,495	53,728	-0,299	-0,201
83,509	68,397	-0,232	-0,167
84,524	182,342	-0,257	-0,267
85,539	95,707	-0,191	-0,153
86,553	386,905	-0,192	-0,280
87,568	10,632	-0,319	-0,171
88,582	51,827	-0,463	-0,309
89,597	243,005	-0,288	-0,339
90,611	-20,478	-0,306	-0,132
91,626	34,106	-0,344	-0,210
92,641	370,465	-0,170	-0,242
93,655	236,440	-0,326	-0,380
94,670	265,715	-0,243	-0,298
95,684	11,818	-0,354	-0,190
96,699	87,354	-0,249	-0,193
97,714	-46,406	-0,153	-0,053
98,728	-71,340	-0,371	-0,097
99,743	92,048	-0,268	-0,211
100,757	57,036	-0,259	-0,177
101,772	136,203	-0,289	-0,264
102,787	18,293	-0,236	-0,132
103,801	33,246	-0,361	-0,219
104,816	13,846	-0,230	-0,125
105,830	10,802	-0,391	-0,209
106,845	-36,234	-0,276	-0,104
107,860	-66,876	-0,183	-0,050
108,874	3,540	-0,307	-0,156
109,889	213,822	-0,148	-0,164
110,903	58,487	-0,315	-0,216
111,918	335,209	-0,273	-0,372
112,933	232,949	-0,146	-0,168
113,947	32,330	-0,312	-0,188
114,962	77,726	-0,286	-0,213
115,976	-10,954	-0,306	-0,141
116,991	-178,968	-0,295	-0,005
118,006	-30,801	-0,234	-0,092
119,020	-24,825	-0,211	-0,087
120,035	-26,262	-0,171	-0,070
121,049	-167,174	-0,350	-0,010
122,064	55,387	-0,215	-0,145
123,079	13,799	-0,264	-0,143
124,093	196,417	-0,223	-0,237
125,108	-25,773	-0,348	-0,143
126,122	-28,468	-0,328	-0,132
127,137	748,011	-0,098	-0,185
128,151	3,744	-0,224	-0,114
129,166	-7,716	-0,185	-0,087
130,181	109,621	-0,253	-0,212
131,195	-22,562	-0,265	-0,112
132,210	145,338	-0,312	-0,292
133,224	-55,177	-0,397	-0,124
134,239	580,591	-0,204	-0,352
135,254	6,208	-0,178	-0,092
136,268	-75,344	-0,242	-0,060
137,283	-79,189	-0,195	-0,046
138,297	91,734	-0,235	-0,185
139,312	80,000	-0,315	-0,236
140,327	1,973	-0,351	-0,177
141,341	288,959	-0,191	-0,243
142,356	800,000	-0,113	-0,264
143,370	75,755	-0,295	-0,217
144,385	-75,254	-0,299	-0,074
145,400	89,277	-0,207	-0,161
146,414	388,208	-0,240	-0,348
147,429	106,834	-0,268	-0,222
148,443	11,967	-0,338	-0,181
149,458	-16,289	-0,273	-0,121
150,473	159,498	-0,160	-0,156
151,487	1,883	-0,216	-0,108
152,502	152,399	-0,232	-0,221
153,516	180,586	-0,198	-0,203
154,531	53,811	-0,274	-0,184
155,546	-26,594	-0,237	-0,096
156,560	66,724	-0,194	-0,137
157,575	-59,150	-0,134	-0,040
158,589	362,806	-0,156	-0,219
159,604	196,983	-0,251	-0,267
160,619	75,829	-0,276	-0,204
161,633	-41,246	-0,338	-0,121
162,648	-200,000	-0,047	-0,245
163,662	128,967	-0,269	-0,239
164,677	38,523	-0,218	-0,135
165,692	-1,627	-0,335	-0,164
166,706	800,000	-0,108	-0,216
167,721	-23,696	-0,213	-0,089
168,735	171,495	-0,246	-0,246
169,750	32,458	-0,348	-0,209
170,764	575,185	-0,117	-0,200
171,779	165,999	-0,177	-0,175
172,794	-13,067	-0,185	-0,084
173,808	-55,898	-0,266	-0,082
174,823	558,539	-0,132	-0,223
175,837	-16,719	-0,295	-0,129
176,852	201,069	-0,199	-0,214
177,867	101,333	-0,195	-0,158
178,881	468,814	-0,129	-0,203
179,896	-97,916	-0,256	-0,046
180,910	47,064	-0,163	-0,106
181,925	-57,388	-0,286	-0,087
182,940	155,685	-0,220	-0,211
183,954	-34,722	-0,212	-0,080
184,969	-125,822	-0,185	-0,019
185,983	-158,574	-0,203	-0,008
186,998	89,318	-0,110	-0,085
188,013	192,353	-0,189	-0,198
189,027	-123,082	-0,343	-0,038
190,042	-30,469	-0,230	-0,090
191,056	49,935	-0,169	-0,111
192,071	4,029	-0,238	-0,121
193,086	253,220	-0,174	-0,207
194,100	-71,707	-0,123	0,032
195,115	206,699	-0,103	-0,112
196,129	49,278	-0,268	-0,175
197,144	101,498	-0,186	-0,151
198,159	45,301	-0,160	-0,103
199,173	-66,085	-0,228	-0,063
200,188	37,587	-0,261	-0,161
201,202	-18,300	-0,147	-0,063
202,217	258,700	-0,199	-0,238
203,232	87,154	-0,252	-0,193
204,246	-32,778	-0,333	-0,128
205,261	30,018	-0,242	-0,143
206,275	-7,871	-0,216	-0,101
207,290	29,060	-0,144	-0,085
208,304	331,673	-0,102	-0,136
209,319	178,651	-0,178	-0,181
210,334	-51,210	-0,177	-0,057
211,348	496,468	-0,178	-0,285
212,363	-61,822	-0,334	-0,096
213,377	30,212	-0,241	-0,143
214,392	429,963	-0,161	-0,243
215,407	601,888	-0,118	-0,205
216,421	-24,679	-0,248	-0,102
217,436	85,567	-0,289	-0,220
218,450	234,893	-0,146	-0,168
219,465	36,381	-0,202	-0,124
220,480	162,757	-0,237	-0,231
221,494	-200,000	-0,038	-0,168
222,509	-1,449	-0,159	-0,078
223,523	355,486	-0,139	-0,193
224,538	79,850	-0,076	-0,056
225,553	126,204	-0,119	-0,104
226,567	199,137	-0,254	-0,270
227,582	800,000	-0,036	-0,084
228,596	800,000	-0,076	-0,151
229,611	152,058	-0,083	-0,079
230,626	-42,743	-0,145	0,051
231,640	288,829	-0,101	-0,127
232,655	-176,358	-0,183	0,003
233,669	125,350	-0,197	-0,172
234,684	378,155	-0,169	-0,240
235,699	98,939	-0,193	-0,154
236,713	151,815	-0,132	-0,125
237,728	-25,330	-0,194	0,079
238,742	142,393	-0,097	-0,089
239,757	21,979	-0,186	-0,105
240,772	800,000	-0,077	-0,189
241,786	182,789	-0,150	-0,153
242,801	7,867	-0,182	-0,094
243,815	308,154	-0,136	-0,176
244,830	11,692	-0,150	-0,079
245,844	-45,784	-0,137	-0,047
246,859	48,515	-0,190	-0,123
247,874	80,458	-0,183	-0,136
248,888	61,831	-0,279	-0,192
249,903	-55,212	-0,204	-0,063
250,917	-29,264	-0,133	-0,052
251,932	733,092	-0,088	-0,163
252,947	13,589	-0,202	-0,108
253,961	21,928	-0,279	-0,157
254,976	74,963	-0,235	-0,171
255,990	270,723	-0,247	-0,301
257,005	-15,395	-0,301	-0,133
258,020	54,190	-0,204	-0,135
259,034	287,031	-0,128	-0,160
260,049	-200,000	-0,012	-0,161
261,063	12,186	-0,225	-0,119
262,078	115,218	-0,155	-0,131
263,093	-44,151	-0,120	-0,041
264,107	-17,673	-0,188	-0,081
265,122	-200,000	-0,045	-0,201
266,136	319,276	-0,126	-0,165
267,151	72,264	-0,119	-0,086
268,166	643,048	-0,095	-0,168
269,180	-102,567	-0,262	-0,043
270,195	563,371	-0,056	-0,095
271,209	800,000	-0,095	-0,198
272,224	42,005	-0,173	-0,108
273,239	237,734	-0,150	-0,172
274,253	56,898	-0,177	-0,119
275,268	65,101	-0,163	-0,114
276,282	55,654	-0,207	-0,138
277,297	14,750	-0,228	-0,123
278,312	324,975	-0,106	-0,140
279,326	164,695	-0,114	-0,111
280,341	209,884	-0,067	-0,073
281,355	290,395	-0,137	-0,173
282,370	112,000	-0,110	-0,091
283,384	98,690	-0,172	-0,137
284,399	63,468	-0,245	-0,169
285,414	69,975	-0,107	-0,076
286,428	-28,572	-0,141	-0,056
287,443	14,090	-0,059	-0,032
288,457	232,210	-0,130	-0,147
289,472	354,321	-0,130	-0,179
290,487	1,122	-0,322	-0,159
291,501	-166,912	-0,194	0,005
292,516	99,280	-0,183	-0,146
293,530	-200,000	0,020	-0,182
294,545	800,000	-0,079	-0,193
295,560	-70,128	-0,035	-0,009
296,574	529,148	-0,098	-0,160
297,589	421,040	-0,048	-0,071
298,603	-59,955	-0,188	-0,055
299,618	-104,348	-0,133	-0,021
300,633	-3,937	-0,244	-0,116
301,647	-200,000	0,015	-0,326
302,662	157,410	-0,113	-0,107
303,676	253,582	-0,109	-0,128
304,691	-49,918	-0,206	-0,067
305,706	46,579	-0,186	-0,119
306,720	145,532	-0,192	-0,177
307,735	174,341	-0,141	-0,141
308,749	-178,441	-0,122	0,002
309,764	-35,965	-0,112	-0,042
310,779	800,000	-0,070	-0,167
311,793	-73,405	-0,105	-0,026
312,808	172,272	-0,157	-0,155
313,822	-7,718	0,036	-0,017
314,837	800,000	-0,073	-0,155
315,852	169,755	-0,195	-0,192
316,866	98,496	-0,167	-0,133
317,881	-107,727	-0,142	0,021
318,895	-13,466	-0,155	-0,069
319,910	-19,361	-0,135	-0,057
320,925	-200,000	-0,015	-0,174
321,939	-69,689	-0,075	-0,020
322,954	11,340	-0,151	-0,079
323,968	68,860	-0,179	-0,126
324,983	-126,847	-0,277	-0,028
325,997	-40,161	-0,161	-0,057
327,012	-200,000	0,005	-0,033
328,027	81,197	-0,126	-0,093
329,041	800,000	-0,060	-0,173
330,056	249,650	-0,065	0,075
331,070	17,854	-0,179	0,098
332,085	-139,485	-0,072	-0,005
333,100	-77,225	-0,278	-0,066
334,114	-186,390	-0,156	0,002
335,129	6,313	-0,129	-0,065
336,143	10,346	-0,165	-0,086
337,158	-3,688	-0,133	-0,063
338,173	-159,582	-0,109	0,004
339,187	42,499	-0,166	-0,103
340,202	20,894	-0,100	-0,056
341,216	393,238	-0,102	-0,147
342,231	-79,850	-0,195	-0,045
343,246	-136,216	-0,114	-0,009
344,260	-102,227	-0,026	0,004
345,275	-200,000	-0,026	-0,122
346,289	-137,845	-0,186	-0,014
347,304	149,959	-0,130	-0,121
348,319	2,791	-0,225	-0,112
349,333	-200,000	-0,068	-0,248
350,348	-188,793	-0,158	0,001
351,362	201,121	0,019	0,021
352,377	800,000	-0,035	-0,088
353,392	800,000	-0,066	-0,176
354,406	13,362	-0,142	-0,075
355,421	211,398	1311,158	1416,839
356,435	162,779	1471,456	1417,338
