DTS Sentinel unit serial number:	SN410029Multiplexer serial number:	ORYXHardware model number:	OX2-SRSoftware version number:	ORYX F/W v4,00 Oryx Data Collector v3.7.2.0data status	okinstallation	B3 Nyhavnadifferential loss correction	single-endedforward channel	channel 1reverse channel	N/Adate	2023/11/29time	19:57:30forward acquisition time	300,00reverse acquisition time	0,00gamma	499,1914k internal	0,3210k external	0,3210temperature offset calibration	1,0000default loss term (dB/km)	0,3820temperature slope calibration	1,0000multiplexer offset coefficient	1,0000multiplexer slope coefficient	1,0000fibre end	0,00T internal ref (°C)	10,88T ext. ref 1 (°C)	-4,24T ext. ref 2 (°C)	-4,35length (m)	temperature (°C)	Stokes	anti-Stokes-744,400	800,000	-0,115	-0,305
-743,385	-200,000	-0,004	0,324
-742,371	495,046	-0,117	-0,195
-741,356	-200,000	0,077	0,347
-740,342	165,117	-0,170	-0,174
-739,327	25,417	0,207	0,125
-738,312	40,081	-0,270	-0,175
-737,298	800,000	0,111	0,271
-736,283	217,628	-0,202	-0,233
-735,269	-200,000	0,072	0,364
-734,254	374,763	-0,129	-0,191
-733,239	69,491	-0,210	0,156
-732,225	686,806	-0,106	-0,202
-731,210	20,309	0,040	0,023
-730,196	716,855	-0,060	-0,117
-729,181	800,000	-0,019	-0,039
-728,167	57,362	-0,138	-0,097
-727,152	131,937	0,102	0,095
-726,137	-104,696	-0,109	0,018
-725,123	800,000	-0,048	-0,108
-724,108	-75,263	-0,051	-0,013
-723,094	-110,225	-0,113	0,017
-722,079	800,000	-0,014	-0,031
-721,064	533,122	-0,044	0,076
-720,050	430,708	0,002	-0,004
-719,035	-200,000	-0,010	0,048
-718,021	800,000	0,027	-0,074
-717,006	50,988	-0,090	-0,062
-715,991	-200,000	-0,003	-0,187
-714,977	314,222	-0,075	-0,102
-713,962	153,338	0,081	-0,081
-712,948	54,122	-0,064	-0,045
-711,933	49,041	0,092	0,063
-710,918	139,390	-0,053	0,050
-709,904	-84,745	-0,075	-0,017
-708,889	-169,489	-0,103	-0,003
-707,875	-59,878	-0,133	0,041
-706,860	-71,012	0,069	-0,019
-705,845	-200,000	-0,000	0,069
-704,831	800,000	0,060	0,123
-703,816	800,000	-0,057	0,135
-702,802	132,084	0,089	-0,083
-701,787	66,935	-0,102	-0,075
-700,772	451,981	0,026	0,041
-699,758	-53,598	-0,073	-0,024
-698,743	-89,007	-0,103	0,022
-697,729	154,248	0,013	-0,013
-696,714	-200,000	0,067	-0,266
-695,699	57,068	-0,082	0,058
-694,685	193,813	-0,057	-0,063
-693,670	-121,507	0,083	-0,010
-692,656	12,567	-0,107	-0,060
-691,641	-200,000	-0,006	0,095
-690,627	19,951	0,029	0,017
-689,612	329,081	-0,049	-0,068
-688,597	-64,711	-0,066	0,019
-687,583	-200,000	-0,016	-0,054
-686,568	53,951	0,060	0,042
-685,554	-171,436	-0,057	-0,001
-684,539	-89,529	0,057	-0,012
-683,524	-200,000	-0,023	-0,114
-682,510	423,682	0,074	-0,115
-681,495	-0,805	-0,103	-0,053
-680,481	38,796	-0,026	0,017
-679,466	-66,265	-0,086	-0,025
-678,451	-200,000	0,011	-0,044
-677,437	197,738	0,047	-0,052
-676,422	-175,814	-0,053	0,001
-675,408	-200,000	0,077	0,000
-674,393	160,633	-0,085	0,086
-673,378	-200,000	-0,016	-0,052
-672,364	664,612	-0,051	0,095
-671,349	-102,827	-0,177	-0,030
-670,335	-200,000	0,101	-0,000
-669,320	-31,967	-0,052	-0,021
-668,305	800,000	0,043	0,102
-667,291	293,347	-0,027	0,035
-666,276	-200,000	0,016	-0,159
-665,262	-62,451	-0,155	-0,046
-664,247	-200,000	0,064	-0,224
-663,232	104,159	0,002	-0,002
-662,218	-67,518	-0,032	-0,009
-661,203	615,501	-0,018	0,033
-660,189	-200,000	0,005	-0,065
-659,174	800,000	0,024	0,076
-658,159	-200,000	0,001	-0,338
-657,145	-200,000	-0,006	-0,073
-656,130	-47,405	-0,055	0,019
-655,116	268,857	-0,064	-0,082
-654,101	192,048	-0,042	0,046
-653,086	166,806	0,113	-0,116
-652,072	544,115	-0,061	-0,105
-651,057	-101,862	-0,120	0,021
-650,043	-34,526	-0,215	-0,085
-649,028	115,022	-0,015	0,013
-648,014	-71,472	0,043	0,011
-646,999	-126,745	-0,040	0,004
-645,984	-139,050	-0,138	0,011
-644,970	4,103	-0,088	-0,046
-643,955	32,081	-0,087	-0,054
-642,941	-200,000	-0,003	-0,103
-641,926	-61,170	0,069	-0,021
-640,911	-76,215	0,033	-0,008
-639,897	89,602	0,099	0,080
-638,882	-86,844	-0,079	0,017
-637,868	-200,000	-0,033	0,150
-636,853	-41,936	-0,076	-0,028
-635,838	-200,000	0,005	-0,075
-634,824	800,000	0,049	-0,137
-633,809	-200,000	-0,025	-0,105
-632,795	-44,299	0,108	-0,039
-631,780	-200,000	-0,001	0,136
-630,765	-200,000	0,031	-0,112
-629,751	-50,772	-0,072	-0,024
-628,736	-120,942	0,069	0,008
-627,722	-79,960	-0,087	-0,021
-626,707	-177,693	0,105	0,002
-625,692	-24,657	0,039	-0,017
-624,678	-27,105	-0,039	0,016
-623,663	800,000	0,070	0,166
-622,649	-34,542	-0,098	0,039
-621,634	-200,000	0,018	-0,099
-620,619	800,000	-0,029	0,085
-619,605	-200,000	-0,037	0,124
-618,590	361,734	-0,056	-0,081
-617,576	169,821	-0,121	-0,125
-616,561	-15,946	-0,075	0,034
-615,546	57,920	-0,233	-0,164
-614,532	310,565	-0,086	-0,117
-613,517	-200,000	-0,016	0,091
-612,503	-91,550	0,125	0,026
-611,488	-4,458	-0,049	-0,024
-610,474	-80,022	0,121	-0,029
-609,459	-84,388	-0,111	0,025
-608,444	-200,000	0,006	0,160
-607,430	229,355	-0,015	-0,018
-606,415	-21,833	-0,121	0,053
-605,401	28,898	0,092	-0,056
-604,386	-44,134	0,085	0,031
-603,371	342,306	0,068	0,096
-602,357	-58,880	-0,120	0,037
-601,342	189,843	0,068	-0,074
-600,328	-101,978	-0,153	0,026
-599,313	-83,405	-0,066	-0,015
-598,298	-200,000	0,024	-0,110
-597,284	-45,160	0,102	-0,036
-596,269	-200,000	-0,019	-0,104
-595,255	-200,000	-0,020	0,084
-594,240	-49,211	0,066	-0,023
-593,225	172,083	-0,054	-0,056
-592,211	-200,000	0,025	0,091
-591,196	-25,076	-0,027	-0,012
-590,182	800,000	0,047	-0,140
-589,167	77,776	0,114	0,088
-588,152	342,822	-0,078	0,110
-587,138	538,271	-0,056	-0,097
-586,123	800,000	0,029	0,070
-585,109	240,790	-0,045	-0,054
-584,094	-120,708	-0,074	0,009
-583,079	-200,000	0,018	0,153
-582,065	-63,202	0,076	0,022
-581,050	-135,050	0,069	-0,006
-580,036	130,663	-0,138	0,127
-579,021	199,280	-0,026	-0,029
-578,006	-87,877	0,117	0,025
-576,992	-127,707	-0,045	-0,005
-575,977	-200,000	-0,003	-0,062
-574,963	-75,418	0,032	-0,008
-573,948	-105,648	0,143	-0,023
-572,934	800,000	0,052	-0,134
-571,919	666,633	0,024	0,045
-570,904	800,000	0,028	0,065
-569,890	800,000	-0,031	-0,064
-568,875	-85,575	0,085	0,019
-567,861	565,880	0,017	-0,029
-566,846	-200,000	-0,035	0,153
-565,831	406,438	-0,034	-0,052
-564,817	-26,079	-0,068	-0,029
-563,802	-200,000	-0,015	-0,059
-562,788	255,186	-0,065	-0,081
-561,773	800,000	-0,037	0,081
-560,758	-200,000	0,018	-0,078
-559,744	-200,000	-0,015	0,059
-558,729	71,208	-0,074	0,055
-557,715	-35,077	-0,135	-0,053
-556,700	268,193	-0,054	-0,069
-555,685	26,161	0,143	-0,086
-554,671	-131,866	-0,089	0,008
-553,656	521,141	-0,053	0,089
-552,642	800,000	0,020	0,062
-551,627	121,986	-0,070	-0,063
-550,612	24,061	0,040	-0,024
-549,598	-138,830	-0,209	-0,016
-548,583	-115,049	0,081	-0,011
-547,569	64,600	0,149	-0,108
-546,554	800,000	-0,048	0,118
-545,539	-200,000	-0,017	0,102
-544,525	-97,439	0,105	-0,020
-543,510	-64,488	0,096	-0,028
-542,496	388,515	0,080	0,120
-541,481	42,931	-0,130	-0,085
-540,466	348,819	-0,012	0,016
-539,452	742,181	0,020	0,039
-538,437	46,912	0,090	0,060
-537,423	-200,000	-0,020	-0,123
-536,408	-200,000	0,028	-0,172
-535,393	67,950	-0,049	-0,036
-534,379	-200,000	0,002	-0,148
-533,364	-200,000	-0,020	-0,120
-532,350	800,000	0,065	0,134
-531,335	800,000	0,067	-0,154
-530,321	-2,097	0,176	0,088
-529,306	136,492	0,017	-0,016
-528,291	-200,000	0,007	-0,156
-527,277	197,479	0,048	-0,053
-526,262	-200,000	0,006	-0,020
-525,248	484,437	-0,009	0,014
-524,233	800,000	0,005	-0,011
-523,218	-200,000	-0,008	-0,076
-522,204	457,584	0,076	0,123
-521,189	-200,000	0,020	-0,183
-520,175	296,995	0,038	-0,050
-519,160	-200,000	-0,013	0,087
-518,145	800,000	-0,067	0,147
-517,131	-40,334	0,106	-0,040
-516,116	386,622	-0,058	0,087
-515,102	-119,130	0,041	0,005
-514,087	-154,506	0,095	-0,005
-513,072	-115,325	-0,120	-0,016
-512,058	111,662	-0,096	-0,084
-511,043	-72,965	0,068	-0,018
-510,029	50,464	0,021	-0,014
-509,014	800,000	0,060	0,133
-507,999	-51,993	0,115	0,038
-506,985	214,020	-0,081	0,093
-505,970	-85,704	-0,061	-0,014
-504,956	-200,000	0,029	-0,110
-503,941	-62,507	-0,107	-0,032
-502,926	62,096	0,090	0,064
-501,912	103,793	0,029	0,024
-500,897	-143,156	0,134	-0,009
-499,883	93,830	-0,071	0,057
-498,868	-133,908	0,066	-0,006
-497,853	18,350	-0,121	-0,069
-496,839	-56,998	0,079	0,025
-495,824	-13,308	0,077	0,036
-494,810	263,233	0,126	0,158
-493,795	-90,879	-0,096	-0,020
-492,781	-200,000	-0,003	0,027
-491,766	800,000	0,052	-0,121
-490,751	62,211	0,118	-0,085
-489,737	20,787	-0,076	-0,044
-488,722	-109,641	0,112	0,017
-487,708	-56,018	-0,074	0,023
-486,693	301,377	0,044	-0,059
-485,678	-61,054	-0,163	0,049
-484,664	800,000	-0,049	-0,118
-483,649	321,190	0,017	-0,024
-482,635	-200,000	0,017	-0,074
-481,620	-84,548	0,141	-0,032
-480,605	-69,730	-0,145	-0,040
-479,591	-150,572	-0,039	0,002
-478,576	800,000	-0,036	-0,089
-477,562	-200,000	-0,071	-0,338
-476,547	38,814	-0,070	0,045
-475,532	443,806	0,034	0,053
-474,518	442,294	-0,056	0,089
-473,503	-2,137	0,108	0,054
-472,489	-200,000	-0,017	0,119
-471,474	-125,682	-0,006	0,001
-470,459	22,245	-0,070	-0,041
-469,445	103,373	-0,013	0,011
-468,430	452,843	-0,059	0,094
-467,416	37,032	0,061	0,039
-466,401	800,000	0,048	0,110
-465,386	5,144	0,089	0,047
-464,372	27,885	-0,097	0,059
-463,357	150,861	-0,073	-0,072
-462,343	-46,387	0,101	-0,035
-461,328	-121,515	-0,191	-0,023
-460,313	534,775	-0,076	0,130
-459,299	-85,659	0,137	-0,030
-458,284	-12,184	0,162	-0,076
-457,270	-25,330	-0,052	0,022
-456,255	-11,200	0,061	0,029
-455,241	84,295	-0,079	-0,062
-454,226	-41,772	-0,099	-0,036
-453,211	-63,565	0,015	-0,004
-452,197	-200,000	0,065	0,000
-451,182	114,330	-0,052	-0,046
-450,168	25,878	0,068	-0,040
-449,153	275,913	-0,053	-0,067
-448,138	-130,437	-0,082	-0,008
-447,124	800,000	0,017	-0,037
-446,109	-200,000	-0,030	0,129
-445,095	10,588	0,092	0,050
-444,080	-76,421	0,052	-0,013
-443,065	800,000	0,065	-0,135
-442,051	-200,000	0,030	0,150
-441,036	-200,000	-0,027	-0,153
-440,022	800,000	0,038	-0,098
-439,007	-200,000	-0,004	0,085
-437,992	-200,000	-0,014	0,055
-436,978	-65,442	0,085	0,024
-435,963	-60,994	0,045	-0,014
-434,949	-163,145	-0,050	-0,002
-433,934	181,753	-0,050	0,052
-432,919	17,126	-0,018	0,010
-431,905	98,909	-0,034	0,028
-430,890	800,000	0,046	0,110
-429,876	411,928	0,024	0,036
-428,861	129,544	-0,029	0,027
-427,846	-200,000	0,007	0,046
-426,832	717,846	-0,013	0,025
-425,817	-200,000	0,026	-0,233
-424,803	-59,784	-0,047	-0,014
-423,788	144,542	0,087	0,084
-422,773	663,880	0,050	0,093
-421,759	-28,030	0,064	-0,027
-420,744	18,497	0,074	0,042
-419,730	-200,000	0,012	0,085
-418,715	800,000	0,043	0,115
-417,701	-200,000	-0,007	-0,038
-416,686	-200,000	0,007	0,113
-415,671	800,000	-0,028	0,069
-414,657	-22,913	0,114	0,049
-413,642	-200,000	-0,002	0,087
-412,628	-200,000	-0,016	-0,076
-411,613	-149,652	0,094	-0,005
-410,598	-200,000	-0,024	-0,147
-409,584	665,452	0,041	-0,076
-408,569	800,000	-0,056	0,168
-407,555	-200,000	0,019	0,101
-406,540	354,097	0,088	0,126
-405,525	-23,160	-0,126	-0,054
-404,511	800,000	-0,018	-0,037
-403,496	-33,389	-0,115	0,045
-402,482	5,659	0,068	0,036
-401,467	449,762	-0,088	0,139
-400,452	-81,537	0,065	0,015
-399,438	-88,835	0,134	0,028
-398,423	294,414	0,096	0,126
-397,409	212,125	-0,071	-0,080
-396,394	800,000	-0,013	0,031
-395,379	800,000	-0,008	0,024
-394,365	125,473	0,032	0,029
-393,350	155,059	-0,074	-0,072
-392,336	800,000	-0,042	0,086
-391,321	-115,082	-0,149	-0,020
-390,306	229,418	-0,068	-0,080
-389,292	800,000	-0,023	-0,062
-388,277	-81,020	0,034	0,008
-387,263	2,063	-0,059	0,030
-386,248	800,000	-0,021	0,057
-385,233	-30,107	0,116	0,047
-384,219	-200,000	-0,002	0,024
-383,204	800,000	-0,075	-0,149
-382,190	-200,000	-0,003	-0,064
-381,175	-68,293	0,119	0,033
-380,160	423,741	0,126	0,195
-379,146	-200,000	0,006	0,089
-378,131	28,105	0,140	0,084
-377,117	191,614	-0,090	-0,097
-376,102	72,169	-0,075	-0,056
-375,088	56,051	0,093	-0,065
-374,073	800,000	0,014	-0,030
-373,058	135,337	0,013	0,012
-372,044	30,575	-0,022	-0,014
-371,029	132,875	0,092	0,085
-370,015	11,695	-0,023	0,012
-369,000	333,907	-0,074	-0,102
-367,985	611,105	0,054	0,097
-366,971	-200,000	-0,017	0,063
-365,956	800,000	0,075	-0,172
-364,942	0,224	-0,052	-0,027
-363,927	223,666	0,022	0,026
-362,912	-112,048	-0,084	0,012
-361,898	89,640	-0,081	0,064
-360,883	-3,683	0,014	-0,007
-359,869	-58,702	-0,104	0,032
-358,854	800,000	0,034	0,088
-357,839	800,000	-0,006	-0,015
-356,825	24,739	0,057	-0,034
-355,810	-144,091	0,060	0,004
-354,796	-200,000	-0,013	-0,065
-353,781	800,000	0,060	-0,156
-352,766	189,854	-0,110	-0,118
-351,752	63,148	0,034	0,024
-350,737	184,061	-0,027	-0,028
-349,723	79,730	-0,047	-0,036
-348,708	800,000	-0,065	0,134
-347,693	-122,656	-0,174	-0,020
-346,679	-164,929	-0,105	-0,003
-345,664	-166,720	-0,044	-0,001
-344,650	-200,000	0,002	-0,104
-343,635	-2,638	0,066	0,033
-342,620	-70,160	0,046	-0,012
-341,606	-182,466	0,081	-0,001
-340,591	-75,117	0,137	-0,035
-339,577	161,277	-0,158	-0,158
-338,562	543,171	0,037	-0,063
-337,548	410,219	-0,045	-0,069
-336,533	-110,206	-0,053	0,008
-335,518	3,358	0,049	0,026
-334,504	800,000	-0,114	0,295
-333,489	-52,880	0,116	0,038
-332,475	-26,726	-0,031	0,013
-331,460	-16,949	-0,031	-0,014
-330,445	102,844	0,076	0,064
-329,431	-127,459	0,046	0,005
-328,416	-29,509	-0,072	-0,029
-327,402	195,351	0,029	0,032
-326,387	10,776	-0,056	-0,031
-325,372	-81,751	0,084	-0,019
-324,358	-13,712	-0,171	-0,079
-323,343	-2,629	-0,039	-0,019
-322,329	-20,027	0,175	0,077
-321,314	-200,000	0,030	0,128
-320,299	-98,473	0,162	0,029
-319,285	-119,712	-0,052	-0,006
-318,270	800,000	-0,024	-0,063
-317,256	81,082	-0,117	-0,090
-316,241	184,684	0,036	-0,038
-315,226	800,000	0,046	0,107
-314,212	-106,781	0,055	-0,009
-313,197	800,000	-0,022	0,065
-312,183	18,648	0,146	-0,083
-311,168	800,000	-0,033	-0,071
-310,153	116,259	-0,089	-0,077
-309,139	17,834	-0,052	-0,030
-308,124	558,105	-0,055	0,095
-307,110	15,241	0,022	0,012
-306,095	103,022	0,058	-0,049
-305,080	651,414	0,009	0,016
-304,066	217,334	0,025	-0,028
-303,051	-95,334	-0,101	-0,019
-302,037	-75,512	0,077	0,020
-301,022	-179,232	0,100	0,002
-300,008	333,182	0,095	0,131
-298,993	167,562	0,118	0,120
-297,978	296,578	-0,038	-0,050
-296,964	546,744	-0,048	-0,082
-295,949	800,000	-0,080	-0,161
-294,935	681,124	-0,071	-0,133
-293,920	91,192	-0,066	-0,053
-292,905	-200,000	-0,003	-0,058
-291,891	800,000	0,012	-0,035
-290,876	-120,303	0,040	-0,005
-289,862	171,340	0,015	-0,015
-288,847	800,000	0,052	0,112
-287,832	800,000	-0,052	0,111
-286,818	675,152	-0,061	-0,114
-285,803	-200,000	0,017	-0,071
-284,789	-139,390	0,118	0,009
-283,774	-116,325	-0,029	0,004
-282,759	582,216	-0,036	0,064
-281,745	-89,970	0,028	-0,006
-280,730	800,000	-0,042	-0,105
-279,716	800,000	-0,023	0,065
-278,701	-200,000	0,008	0,093
-277,686	163,414	0,068	0,068
-276,672	-94,424	0,150	-0,029
-275,657	628,679	-0,096	0,174
-274,643	9,515	-0,168	0,091
-273,628	-200,000	-0,029	-0,103
-272,613	800,000	-0,050	0,137
-271,599	6,918	-0,040	0,021
-270,584	-55,219	0,067	0,021
-269,570	-200,000	-0,007	0,049
-268,555	-85,822	-0,092	-0,020
-267,540	-68,760	0,003	-0,001
-266,526	-103,011	-0,037	-0,006
-265,511	-179,828	-0,126	-0,002
-264,497	83,251	-0,045	-0,035
-263,482	-98,816	0,128	-0,023
-262,467	188,112	-0,070	0,075
-261,453	-61,604	0,069	-0,020
-260,438	283,265	-0,123	0,157
-259,424	-81,891	-0,075	-0,017
-258,409	-200,000	-0,039	-0,139
-257,395	-107,933	-0,027	-0,004
-256,380	-106,342	-0,101	-0,016
-255,365	-125,571	0,294	0,031
-254,351	-128,968	-0,134	-0,013
-253,336	-160,137	-0,092	-0,004
-252,322	-36,328	0,047	-0,018
-251,307	193,818	-0,111	-0,119
-250,292	-200,000	0,011	-0,041
-249,278	444,596	0,060	0,094
-248,263	-106,465	0,072	0,011
-247,249	700,331	0,042	0,080
-246,234	-39,473	0,069	-0,026
-245,219	338,850	0,071	0,098
-244,205	32,357	-0,051	-0,031
-243,190	189,938	-0,072	-0,077
-242,176	199,461	0,041	-0,044
-241,161	-80,883	0,167	-0,039
-240,146	-200,000	-0,026	0,131
-239,132	578,285	0,005	0,009
-238,117	-96,724	-0,097	-0,018
-237,103	180,279	-0,011	-0,012
-236,088	102,232	0,020	-0,017
-235,073	39,525	-0,024	0,015
-234,059	35,292	0,063	-0,039
-233,044	102,839	0,116	-0,096
-232,030	54,735	-0,099	-0,068
-231,015	-200,000	0,011	-0,057
-230,000	247,742	0,101	-0,122
-228,986	148,042	0,103	0,099
-227,971	-121,790	0,091	-0,011
-226,957	-90,509	-0,086	-0,018
-225,942	189,964	0,071	-0,076
-224,927	122,502	0,051	0,045
-223,913	202,054	-0,014	-0,015
-222,898	4,168	-0,095	-0,049
-221,884	-200,000	0,000	-0,007
-220,869	-183,234	0,094	0,001
-219,855	-116,521	0,126	0,016
-218,840	16,435	0,006	-0,003
-217,825	-36,940	-0,064	-0,024
-216,811	-29,019	-0,037	0,015
-215,796	800,000	0,038	-0,106
-214,782	99,216	-0,059	-0,049
-213,767	239,728	0,010	0,011
-212,752	-200,000	-0,019	0,063
-211,738	-200,000	0,017	-0,126
-210,723	-32,709	-0,081	0,032
-209,709	-200,000	0,015	-0,128
-208,694	-200,000	0,004	0,096
-207,679	-109,936	-0,050	0,007
-206,665	800,000	0,018	0,054
-205,650	-200,000	0,005	-0,033
-204,636	-136,546	0,125	0,010
-203,621	33,788	-0,057	0,035
-202,606	51,239	-0,123	-0,083
-201,592	-19,050	0,038	0,017
-200,577	-46,900	-0,113	-0,039
-199,563	179,931	-0,100	-0,104
-198,548	-200,000	0,013	0,043
-197,533	-200,000	0,011	0,185
-196,519	228,894	0,080	0,093
-195,504	-200,000	-0,010	0,099
-194,490	116,629	-0,138	-0,121
-193,475	-200,000	0,011	0,048
-192,460	-200,000	-0,002	-0,116
-191,446	-101,761	0,064	-0,011
-190,431	-105,285	0,091	-0,015
-189,417	97,567	-0,058	0,047
-188,402	-49,465	0,042	0,014
-187,387	-200,000	0,033	0,111
-186,373	-57,052	-0,049	-0,015
-185,358	-200,000	0,009	-0,045
-184,344	271,192	-0,034	0,042
-183,329	-200,000	0,015	0,094
-182,315	177,906	-0,101	0,105
-181,300	113,021	-0,077	-0,066
-180,285	-200,000	-0,006	0,114
-179,271	51,679	-0,152	-0,103
-178,256	52,587	-0,081	-0,055
-177,242	-6,396	0,126	-0,061
-176,227	123,595	-0,033	0,029
-175,212	800,000	0,025	0,068
-174,198	365,496	-0,004	0,006
-173,183	39,668	0,055	0,035
-172,169	272,492	-0,020	-0,025
-171,154	-55,114	0,083	0,026
-170,139	323,912	0,021	-0,028
-169,125	47,483	0,110	-0,072
-168,110	-200,000	-0,015	0,050
-167,096	-48,492	0,101	0,034
-166,081	-118,230	0,061	-0,008
-165,066	475,532	-0,041	0,065
-164,052	35,975	-0,108	0,067
-163,037	326,805	-0,041	-0,056
-162,023	350,158	0,044	0,061
-161,008	-172,330	0,036	0,001
-159,993	-200,000	-0,030	0,170
-158,979	-25,343	-0,152	-0,063
-157,964	-157,782	-0,012	0,000
-156,950	92,173	-0,063	0,050
-155,935	-17,018	0,170	0,076
-154,920	245,958	0,131	-0,157
-153,906	-200,000	-0,017	-0,070
-152,891	-200,000	0,040	0,126
-151,877	800,000	-0,015	0,040
-150,862	800,000	0,042	-0,120
-149,847	-200,000	0,004	-0,073
-148,833	123,522	-0,054	-0,048
-147,818	14,242	0,094	-0,052
-146,804	356,613	-0,089	0,126
-145,789	42,715	-0,078	0,050
-144,775	-100,559	0,005	0,001
-143,760	154,079	0,054	-0,052
-142,745	-200,000	0,022	-0,140
-141,731	178,853	-0,025	-0,026
-140,716	-200,000	0,012	-0,113
-139,702	-200,000	-0,001	-0,158
-138,687	13,856	0,169	0,093
-137,672	-200,000	-0,020	0,112
-136,658	800,000	-0,052	-0,139
-135,643	253,490	0,029	-0,035
-134,629	384,621	0,097	-0,143
-133,614	15,617	-0,044	-0,024
-132,599	198,267	-0,076	0,082
-131,585	372,646	0,056	0,080
-130,570	-151,831	-0,115	0,006
-129,556	-200,000	0,026	-0,118
-128,541	-200,000	-0,032	0,117
-127,526	19,492	-0,131	-0,075
-126,512	-200,000	0,053	-0,181
-125,497	-32,774	0,213	0,083
-124,483	-200,000	0,006	0,165
-123,468	72,496	0,002	0,002
-122,453	-125,706	0,077	-0,008
-121,439	80,030	0,093	-0,071
-120,424	30,731	-0,129	0,078
-119,410	54,161	0,023	0,016
-118,395	42,452	0,159	0,102
-117,380	-200,000	0,017	0,077
-116,366	169,298	0,016	-0,016
-115,351	403,389	-0,053	-0,080
-114,337	-84,341	-0,119	0,026
-113,322	38,976	-0,046	0,029
-112,307	-126,968	0,139	0,014
-111,293	800,000	-0,059	0,141
-110,278	171,328	0,029	0,029
-109,264	40,992	0,136	0,087
-108,249	39,962	0,023	-0,015
-107,234	-55,129	-0,031	-0,010
-106,220	-200,000	-0,027	0,087
-105,205	-200,000	-0,008	-0,024
-104,191	98,306	-0,109	-0,089
-103,176	-129,735	0,008	-0,001
-102,162	800,000	0,050	0,105
-101,147	-200,000	-0,057	-0,186
-100,132	-91,848	-0,140	-0,028
-99,118	571,077	-0,049	-0,085
-98,103	735,216	-0,056	-0,107
-97,089	196,439	0,034	0,036
-96,074	-200,000	-0,017	0,086
-95,059	58,742	0,049	-0,034
-94,045	478,388	0,053	-0,085
-93,030	29,791	-0,127	-0,077
-92,016	103,329	-0,063	-0,052
-91,001	-94,055	0,056	0,011
-89,986	-200,000	-0,014	0,115
-88,972	101,169	-0,067	0,055
-87,957	146,900	0,069	-0,066
-86,943	365,573	-0,030	-0,043
-85,928	-200,000	0,006	-0,052
-84,913	800,000	0,035	-0,103
-83,899	-200,000	-0,006	0,026
-82,884	347,413	0,051	0,071
-81,870	421,577	-0,039	-0,059
-80,855	-200,000	0,001	0,062
-79,840	448,636	-0,078	-0,122
-78,826	-200,000	-0,008	0,051
-77,811	550,794	-0,042	0,072
-76,797	800,000	0,025	0,059
-75,782	-2,358	-0,046	0,023
-74,767	149,249	0,119	0,114
-73,753	-200,000	0,017	0,163
-72,738	-200,000	-0,020	-0,098
-71,724	-34,638	0,046	-0,018
-70,709	196,784	-0,126	-0,136
-69,694	-37,405	0,201	-0,076
-68,680	-200,000	0,023	0,132
-67,665	65,739	-0,083	-0,059
-66,651	-100,297	0,129	-0,022
-65,636	800,000	-0,031	0,069
-64,622	-200,000	0,032	0,114
-63,607	257,321	-0,072	0,088
-62,592	-20,706	-0,071	-0,031
-61,578	29,680	-0,034	0,020
-60,563	-40,849	-0,051	0,019
-59,549	-47,506	0,109	0,037
-58,534	29,354	-1,856	-1,111
-57,519	506,862	-1,275	-2,097
-56,505	-200,000	-0,422	-4,399
-55,490	554,798	0,807	1,376
-54,476	800,000	5,095	11,167
-53,461	-200,000	20,999	329,625
-52,446	800,000	757,606	2323,647
-51,432	549,654	1662,483	2825,050
-50,417	73,484	1664,060	1228,776
-49,403	18,769	1537,273	866,586
-48,388	12,723	1460,141	793,837
-47,373	19,032	1450,878	819,080
-46,359	15,880	1440,150	797,983
-45,344	10,993	1436,052	772,394
-44,330	10,970	1434,111	771,209
-43,315	10,941	1432,037	769,924
-42,300	10,929	1430,574	769,050
-41,286	10,931	1429,266	768,327
-40,271	10,890	1428,095	767,472
-39,257	10,887	1426,840	766,751
-38,242	10,994	1425,564	766,543
-37,227	10,941	1424,534	765,708
-36,213	10,959	1423,306	765,103
-35,198	10,926	1422,243	764,345
-34,184	11,004	1421,333	764,194
-33,169	10,981	1419,891	763,281
-32,154	10,993	1418,972	762,813
-31,140	11,045	1417,593	762,285
-30,125	11,004	1416,652	761,554
-29,111	10,970	1415,648	760,827
-28,096	10,969	1414,284	760,057
-27,082	10,912	1413,050	759,097
-26,067	10,914	1412,178	758,607
-25,052	10,934	1410,999	758,038
-24,038	10,933	1410,170	757,557
-23,023	10,949	1408,963	756,954
-22,009	10,922	1407,972	756,267
-20,994	10,856	1407,058	755,438
-19,979	10,892	1406,192	755,107
-18,965	10,872	1405,140	754,421
-17,950	10,854	1404,311	753,860
-16,936	10,806	1403,504	753,175
-15,921	10,834	1402,599	752,789
-14,906	10,811	1401,440	752,030
-13,892	10,810	1400,560	751,523
-12,877	10,859	1399,619	751,219
-11,863	10,788	1399,084	750,572
-10,848	10,819	1397,914	750,055
-9,833	10,750	1397,077	749,260
-8,819	10,709	1396,379	748,663
-7,804	10,713	1395,528	748,197
-6,790	10,775	1394,311	747,799
-5,775	10,725	1393,563	747,141
-4,760	10,728	1392,488	746,549
-3,746	10,769	1391,185	746,007
-2,731	10,706	1390,641	745,397
-1,717	10,664	1389,935	744,793
-0,702	10,710	1387,939	743,909
0,313	14,827	1301,497	716,419
1,327	31,193	693,012	418,705
2,342	48,791	120,120	79,374
3,356	2,606	16,453	8,385
4,371	-3,228	3,472	1,701
5,386	-22,188	0,985	0,420
6,400	-200,000	0,047	0,502
7,415	-120,864	-0,241	-0,028
8,429	32,147	-0,223	-0,135
9,444	114,119	-0,306	-0,262
10,459	40,875	-0,302	-0,192
11,473	13,748	-0,348	-0,190
12,488	151,938	-0,243	-0,233
13,502	65,652	-0,199	-0,142
14,517	18,579	-0,289	-0,162
15,531	139,257	-0,350	-0,325
16,546	185,312	-0,298	-0,312
17,561	24,633	-0,369	-0,214
18,575	-101,060	-0,181	-0,031
19,590	485,961	-0,079	-0,127
20,604	34,156	-0,204	-0,125
21,619	-1,094	-0,459	-0,228
22,634	87,412	-0,418	-0,326
23,648	-20,908	-0,375	-0,161
24,663	267,874	-0,272	-0,336
25,677	127,671	-0,341	-0,305
26,692	5,220	-0,420	-0,217
27,707	22,539	-0,342	-0,197
28,721	140,070	-0,408	-0,379
29,736	343,246	-0,307	-0,424
30,750	80,233	-0,330	-0,250
31,765	170,383	-0,334	-0,337
32,780	13,048	-0,394	-0,214
33,794	215,059	-0,271	-0,303
34,809	18,171	-0,320	-0,179
35,823	173,073	-0,242	-0,245
36,838	-5,109	-0,383	-0,185
37,853	-29,687	-0,357	-0,143
38,867	44,493	-0,348	-0,224
39,882	20,437	-0,310	-0,176
40,896	-59,437	-0,243	-0,073
41,911	590,770	-0,201	-0,350
42,926	87,982	-0,236	-0,184
43,940	125,654	-0,361	-0,320
44,955	259,679	-0,299	-0,364
45,969	44,565	-0,337	-0,217
46,984	84,395	-0,308	-0,236
47,999	-22,682	-0,375	-0,158
49,013	143,658	-0,253	-0,237
50,028	148,514	-0,260	-0,247
51,042	38,993	-0,355	-0,223
52,057	40,487	-0,372	-0,235
53,071	159,013	-0,289	-0,283
54,086	27,026	-0,361	-0,212
55,101	5,199	-0,307	-0,158
56,115	-9,646	-0,312	-0,146
57,130	-65,301	-0,388	-0,109
58,144	-11,212	-0,417	-0,192
59,159	99,531	-0,366	-0,297
60,174	352,864	-0,232	-0,324
61,188	64,374	-0,385	-0,272
62,203	-41,499	-0,284	-0,102
63,217	-96,365	-0,372	-0,069
64,232	102,341	-0,296	-0,243
65,247	-13,394	-0,359	-0,163
66,261	15,828	-0,330	-0,182
67,276	88,723	-0,413	-0,322
68,290	359,210	-0,149	-0,209
69,305	91,624	-0,323	-0,255
70,320	0,237	-0,380	-0,189
71,334	202,522	-0,251	-0,272
72,349	-104,337	-0,429	-0,069
73,363	-11,544	-0,474	-0,218
74,378	54,917	-0,355	-0,240
75,393	682,941	-0,125	-0,229
76,407	192,515	-0,268	-0,284
77,422	-4,673	-0,334	-0,161
78,436	147,143	-0,160	-0,151
79,451	96,279	-0,357	-0,286
80,466	234,761	-0,132	-0,152
81,480	70,494	-0,252	-0,182
82,495	-23,962	-0,440	-0,184
83,509	-123,852	-0,272	-0,030
84,524	-3,075	-0,198	-0,097
85,539	492,409	-0,086	-0,139
86,553	5,818	-0,396	-0,205
87,568	50,643	-0,338	-0,224
88,582	-43,060	-0,306	-0,108
89,597	119,515	-0,356	-0,308
90,611	291,721	-0,200	-0,256
91,626	60,035	-0,335	-0,231
92,641	42,572	-0,320	-0,204
93,655	115,298	-0,171	-0,146
94,670	118,415	-0,253	-0,219
95,684	24,098	-0,342	-0,197
96,699	539,114	-0,168	-0,280
97,714	126,799	-0,272	-0,241
98,728	16,903	-0,227	-0,126
99,743	315,551	-0,260	-0,344
100,757	74,374	-0,221	-0,162
101,772	55,561	-0,281	-0,190
102,787	800,000	-0,162	-0,480
103,801	126,895	-0,232	-0,206
104,816	112,698	-0,203	-0,171
105,830	246,021	-0,231	-0,272
106,845	94,793	-0,166	-0,132
107,860	-35,768	-0,299	-0,113
108,874	385,408	-0,142	-0,205
109,889	53,541	-0,307	-0,206
110,903	341,129	-0,209	-0,286
111,918	-18,722	-0,256	-0,111
112,933	2,025	-0,254	-0,128
113,947	47,361	-0,192	-0,125
114,962	216,847	-0,164	-0,183
115,976	-77,508	-0,212	-0,051
116,991	270,538	-0,161	-0,198
118,006	114,039	-0,298	-0,253
119,020	196,557	-0,158	-0,168
120,035	125,374	-0,243	-0,214
121,049	63,413	-0,217	-0,152
122,064	246,389	-0,195	-0,230
123,079	66,397	-0,335	-0,237
124,093	41,901	-0,389	-0,246
125,108	278,246	-0,217	-0,270
126,122	94,719	-0,272	-0,216
127,137	638,537	-0,106	-0,189
128,151	1,414	-0,231	-0,115
129,166	504,691	-0,097	-0,158
130,181	154,311	-0,203	-0,195
131,195	30,227	-0,294	-0,175
132,210	552,636	-0,215	-0,362
133,224	-23,828	-0,384	-0,160
134,239	-99,089	-0,249	-0,044
135,254	331,909	-0,268	-0,361
136,268	41,667	-0,284	-0,179
137,283	-14,427	-0,261	-0,117
138,297	52,233	-0,399	-0,265
139,312	436,071	-0,214	-0,326
140,327	242,612	-0,244	-0,285
141,341	140,620	-0,219	-0,201
142,356	26,358	-0,179	-0,104
143,370	-200,000	-0,236	0,000
144,385	117,159	-0,236	-0,202
145,400	193,065	-0,155	-0,164
146,414	23,856	-0,202	-0,116
147,429	-2,620	-0,336	-0,163
148,443	306,722	-0,257	-0,334
149,458	148,248	-0,214	-0,201
150,473	136,304	-0,275	-0,250
151,487	-24,496	-0,252	-0,104
152,502	211,896	-0,313	-0,343
153,516	15,343	-0,334	-0,182
154,531	283,017	-0,176	-0,221
155,546	78,530	-0,176	-0,131
156,560	-129,778	-0,305	0,029
157,575	-88,132	-0,175	-0,036
158,589	187,294	-0,162	-0,168
159,604	254,300	-0,085	-0,101
160,619	-114,137	-0,223	-0,030
161,633	-101,175	-0,302	-0,051
162,648	57,179	-0,351	-0,238
163,662	-37,013	-0,304	-0,113
164,677	-27,352	-0,242	-0,097
165,692	106,952	-0,209	-0,173
166,706	151,529	-0,098	-0,093
167,721	292,966	-0,226	-0,287
168,735	198,401	-0,202	-0,215
169,750	14,268	-0,185	-0,100
170,764	104,760	-0,096	-0,078
171,779	75,678	-0,255	-0,187
172,794	215,526	-0,207	-0,229
173,808	189,939	-0,254	-0,265
174,823	329,200	-0,219	-0,293
175,837	52,307	-0,267	-0,177
176,852	-29,496	-0,202	-0,080
177,867	-54,554	-0,250	-0,078
178,881	241,419	-0,198	-0,230
179,896	428,390	-0,123	-0,185
180,910	-2,734	-0,287	-0,139
181,925	-137,400	-0,185	-0,014
182,940	-165,560	-0,257	0,008
183,954	86,124	-0,224	-0,171
184,969	800,000	-0,078	-0,234
185,983	290,024	-0,116	-0,146
186,998	107,126	-0,210	-0,173
188,013	88,872	-0,130	-0,100
189,027	52,115	-0,193	-0,127
190,042	127,036	-0,234	-0,206
191,056	72,941	-0,202	-0,146
192,071	82,285	-0,105	-0,079
193,086	317,958	-0,144	-0,190
194,100	572,664	-0,158	-0,268
195,115	-63,334	-0,204	-0,058
196,129	178,348	-0,182	-0,185
197,144	-39,071	-0,248	-0,090
198,159	368,601	-0,170	-0,239
199,173	83,654	-0,196	-0,148
200,188	340,991	-0,082	-0,111
201,202	395,951	-0,133	-0,194
202,217	145,452	-0,083	-0,077
203,232	137,895	-0,197	-0,179
204,246	102,020	-0,262	-0,212
205,261	76,317	-0,268	-0,196
206,275	56,574	-0,208	-0,140
207,290	247,896	-0,163	-0,192
208,304	-42,741	-0,166	-0,058
209,319	-21,663	-0,222	-0,093
210,334	-123,478	-0,229	-0,025
211,348	-29,315	-0,235	-0,093
212,363	415,085	-0,140	-0,208
213,377	86,692	-0,187	-0,143
214,392	-141,690	-0,080	-0,005
215,407	-11,979	-0,098	-0,044
216,421	-48,496	-0,168	-0,056
217,436	50,535	-0,136	-0,089
218,450	205,280	-0,189	-0,203
219,465	302,298	-0,256	-0,329
220,480	468,313	-0,184	-0,287
221,494	168,790	-0,179	-0,177
222,509	100,740	-0,118	-0,095
223,523	17,072	-0,281	-0,154
224,538	-66,249	-0,281	-0,077
225,553	800,000	-0,110	-0,270
226,567	19,901	-0,226	-0,126
227,582	131,725	-0,238	-0,212
228,596	2,679	-0,220	-0,110
229,611	105,089	-0,223	-0,182
230,626	-12,515	-0,201	0,090
231,640	-91,085	-0,285	-0,056
232,655	122,718	-0,145	-0,125
233,669	129,572	-0,206	-0,182
234,684	254,617	-0,162	-0,192
235,699	192,109	-0,113	-0,117
236,713	-116,720	-0,242	-0,030
237,728	-200,000	-0,091	-0,295
238,742	33,053	-0,187	-0,112
239,757	-2,678	-0,246	-0,118
240,772	30,028	-0,140	-0,082
241,786	368,617	-0,164	-0,230
242,801	-27,773	-0,390	-0,155
243,815	-7,954	-0,168	-0,078
244,830	241,317	-0,065	-0,076
245,844	10,726	-0,256	-0,135
246,859	129,177	-0,204	-0,180
247,874	154,338	-0,284	-0,270
248,888	-158,087	-0,178	-0,007
249,903	171,287	-0,147	-0,146
250,917	726,433	-0,060	-0,112
251,932	-132,911	-0,199	0,017
252,947	800,000	-0,071	-0,189
253,961	380,479	-0,183	-0,259
254,976	59,812	-0,211	-0,144
255,990	-58,345	-0,322	-0,096
257,005	-10,756	-0,130	-0,059
258,020	13,914	-0,183	-0,098
259,034	-97,463	-0,185	-0,033
260,049	176,168	-0,125	-0,126
261,063	736,636	-0,056	-0,104
262,078	19,460	-0,154	-0,085
263,093	-45,546	-0,188	-0,064
264,107	230,610	-0,073	-0,083
265,122	120,422	-0,131	-0,112
266,136	800,000	-0,087	-0,215
267,151	800,000	-0,061	-0,122
268,166	779,579	-0,095	-0,181
269,180	35,777	-0,207	-0,125
270,195	94,361	-0,257	-0,201
271,209	104,971	-0,160	-0,130
272,224	43,330	-0,196	-0,123
273,239	-173,718	-0,136	0,003
274,253	101,329	-0,191	-0,153
275,268	-14,433	-0,162	-0,071
276,282	254,988	-0,196	-0,232
277,297	-37,122	-0,257	-0,094
278,312	-120,550	-0,248	-0,029
279,326	-51,733	-0,153	-0,049
280,341	-73,509	-0,239	-0,060
281,355	435,931	-0,144	-0,217
282,370	110,721	-0,062	-0,052
283,384	-200,000	-0,014	-0,091
284,399	-200,000	-0,066	-0,229
285,414	-140,076	-0,129	0,009
286,428	-8,735	-0,214	-0,099
287,443	261,094	-0,074	-0,089
288,457	29,245	-0,228	-0,133
289,472	436,719	-0,101	-0,151
290,487	176,137	-0,142	-0,142
291,501	241,422	-0,107	-0,123
292,516	-34,895	-0,195	-0,073
293,530	-200,000	-0,015	-0,135
294,545	62,651	-0,112	-0,077
295,560	-200,000	-0,031	-0,100
296,574	4,324	-0,175	-0,088
297,589	-200,000	-0,062	-0,205
298,603	288,622	-0,089	-0,111
299,618	189,244	-0,127	-0,131
300,633	-154,823	-0,057	0,003
301,647	667,272	-0,082	-0,146
302,662	35,703	-0,118	-0,071
303,676	258,960	-0,074	-0,087
304,691	-77,391	-0,209	-0,049
305,706	19,131	-0,246	-0,135
306,720	-200,000	-0,032	-0,097
307,735	29,303	-0,063	0,037
308,749	375,429	-0,081	-0,114
309,764	-200,000	0,001	-0,109
310,779	22,311	-0,161	-0,090
311,793	-21,650	-0,239	-0,100
312,808	118,865	-0,138	-0,117
313,822	-169,575	-0,171	-0,004
314,837	217,780	-0,114	-0,125
315,852	136,723	-0,177	-0,159
316,866	800,000	-0,031	0,061
317,881	800,000	-0,029	-0,066
318,895	-138,169	-0,214	0,016
319,910	175,711	-0,180	-0,179
320,925	-133,957	-0,119	-0,010
321,939	-3,888	-0,175	-0,083
322,954	279,683	-0,064	-0,078
323,968	-200,000	-0,077	-0,261
324,983	-200,000	0,003	-0,061
325,997	292,734	-0,205	-0,257
327,012	139,298	-0,172	-0,155
328,027	249,761	-0,138	-0,161
329,041	60,133	-0,180	-0,122
330,056	-53,200	-0,156	-0,049
331,070	16,888	-0,219	-0,119
332,085	-62,467	-0,133	0,038
333,100	62,912	-0,145	0,099
334,114	-22,957	-0,134	-0,055
335,129	800,000	0,060	-0,144
336,143	-93,187	-0,108	-0,020
337,158	-82,169	-0,133	-0,029
338,173	68,093	-0,014	-0,010
339,187	800,000	-0,080	-0,188
340,202	-113,944	-0,146	0,019
341,216	-1,700	-0,116	-0,056
342,231	-150,410	-0,174	0,009
343,246	-148,800	-0,096	-0,005
344,260	200,551	-0,066	-0,069
345,275	800,000	-0,051	-0,146
346,289	357,623	-0,076	-0,104
347,304	133,194	-0,065	-0,058
348,319	-22,358	-0,069	0,029
349,333	161,667	-0,205	-0,196
350,348	-62,676	-0,092	-0,026
351,362	-122,391	-0,196	-0,022
352,377	24,967	-0,048	-0,027
353,392	92,781	-0,105	-0,081
354,406	-65,143	-0,083	-0,023
355,421	206,664	1309,604	1397,296
356,435	158,949	1469,685	1397,783
