DTS Sentinel unit serial number:	SN410029Multiplexer serial number:	ORYXHardware model number:	OX2-SRSoftware version number:	ORYX F/W v4,00 Oryx Data Collector v3.7.2.0data status	okinstallation	B3 Nyhavnadifferential loss correction	single-endedforward channel	channel 1reverse channel	N/Adate	2023/11/30time	02:32:30forward acquisition time	300,00reverse acquisition time	0,00gamma	499,1914k internal	0,3210k external	0,3210temperature offset calibration	1,0000default loss term (dB/km)	0,3820temperature slope calibration	1,0000multiplexer offset coefficient	1,0000multiplexer slope coefficient	1,0000fibre end	0,00T internal ref (°C)	10,40T ext. ref 1 (°C)	-5,33T ext. ref 2 (°C)	-5,47length (m)	temperature (°C)	Stokes	anti-Stokes-744,400	75,868	-0,246	-0,188
-743,385	-200,000	0,101	0,362
-742,371	800,000	-0,095	-0,258
-741,356	264,241	0,183	0,232
-740,342	231,802	-0,140	-0,167
-739,327	-200,000	0,025	0,311
-738,312	178,551	-0,242	-0,257
-737,298	-200,000	-0,021	0,292
-736,283	281,883	-0,170	-0,222
-735,269	-200,000	-0,013	0,127
-734,254	32,794	-0,181	-0,114
-733,239	55,622	-0,166	0,116
-732,225	523,889	-0,078	-0,133
-731,210	-200,000	0,031	0,131
-730,196	101,263	0,038	-0,032
-729,181	467,715	-0,015	0,025
-728,167	800,000	0,001	0,003
-727,152	800,000	0,039	0,089
-726,137	171,333	-0,080	-0,083
-725,123	49,874	0,021	-0,015
-724,108	-122,998	-0,079	-0,009
-723,094	-200,000	-0,005	0,080
-722,079	230,112	-0,086	-0,103
-721,064	-140,240	0,102	0,008
-720,050	608,710	-0,029	0,053
-719,035	393,504	0,104	-0,157
-718,021	-86,613	-0,065	0,014
-717,006	241,066	-0,056	-0,068
-715,991	-85,910	-0,168	-0,037
-714,977	-158,973	-0,121	-0,005
-713,962	-200,000	0,008	-0,036
-712,948	466,826	0,056	0,091
-711,933	-200,000	0,017	0,113
-710,918	-200,000	0,007	0,056
-709,904	-91,576	-0,074	0,015
-708,889	-200,000	-0,036	-0,170
-707,875	496,223	-0,120	-0,201
-706,860	697,842	-0,048	0,091
-705,845	223,486	-0,079	-0,092
-704,831	-187,710	0,043	0,000
-703,816	28,974	0,089	0,054
-702,802	-169,294	0,015	0,000
-701,787	-87,262	0,102	0,022
-700,772	-32,318	-0,031	-0,012
-699,758	800,000	0,040	-0,109
-698,743	800,000	0,037	-0,098
-697,729	122,337	-0,019	0,017
-696,714	-111,917	0,085	-0,012
-695,699	66,000	-0,052	-0,038
-694,685	14,881	-0,098	-0,055
-693,670	123,317	-0,154	-0,139
-692,656	84,612	-0,069	-0,055
-691,641	83,738	0,047	-0,037
-690,627	800,000	0,083	-0,179
-689,612	290,398	0,071	-0,093
-688,597	213,904	-0,049	-0,056
-687,583	-200,000	-0,021	-0,131
-686,568	104,271	-0,084	-0,072
-685,554	110,254	-0,054	0,047
-684,539	-200,000	-0,004	-0,036
-683,524	-132,622	0,096	0,009
-682,510	154,446	-0,082	0,082
-681,495	-200,000	0,027	0,090
-680,481	-200,000	-0,003	-0,032
-679,466	-127,138	-0,027	0,003
-678,451	204,894	-0,144	-0,161
-677,437	-200,000	0,019	-0,073
-676,422	-108,173	0,092	-0,014
-675,408	-173,663	-0,160	-0,003
-674,393	219,776	-0,022	0,025
-673,378	-13,945	-0,110	-0,051
-672,364	-76,872	-0,067	0,017
-671,349	-59,573	-0,025	0,008
-670,335	97,858	0,032	0,026
-669,320	707,751	-0,045	0,086
-668,305	208,298	-0,102	-0,116
-667,291	800,000	0,039	-0,120
-666,276	800,000	0,030	-0,087
-665,262	-200,000	-0,044	-0,197
-664,247	710,231	-0,035	0,068
-663,232	800,000	-0,033	-0,069
-662,218	-200,000	-0,012	-0,161
-661,203	-200,000	0,008	0,107
-660,189	385,017	0,090	0,134
-659,174	274,337	-0,061	-0,078
-658,159	-200,000	0,027	-0,090
-657,145	86,464	0,072	0,057
-656,130	-176,859	0,129	-0,002
-655,116	-200,000	-0,007	-0,039
-654,101	186,602	-0,024	0,026
-653,086	110,969	-0,098	0,085
-652,072	712,866	-0,038	-0,073
-651,057	-200,000	-0,029	-0,099
-650,043	5,421	0,039	-0,021
-649,028	-200,000	-0,001	-0,008
-648,014	800,000	0,035	0,101
-646,999	204,482	0,098	0,110
-645,984	81,919	0,057	0,044
-644,970	55,029	-0,063	0,044
-643,955	-7,305	-0,044	0,021
-642,941	800,000	0,012	-0,030
-641,926	800,000	0,033	0,093
-640,911	-122,255	-0,041	0,005
-639,897	-200,000	0,017	-0,063
-638,882	284,817	-0,061	-0,079
-637,868	-162,559	0,024	0,001
-636,853	-200,000	0,001	-0,050
-635,838	-123,228	-0,014	-0,002
-634,824	-200,000	-0,029	-0,101
-633,809	100,252	0,067	-0,056
-632,795	-200,000	-0,003	-0,064
-631,780	309,159	-0,043	0,058
-630,765	-200,000	0,001	-0,037
-629,751	-200,000	-0,026	-0,112
-628,736	800,000	-0,002	0,005
-627,722	-28,082	0,154	0,064
-626,707	-64,404	0,085	-0,025
-625,692	-65,983	0,134	0,038
-624,678	128,545	-0,064	0,059
-623,663	120,042	-0,150	0,135
-622,649	511,998	0,044	-0,074
-621,634	800,000	-0,041	-0,086
-620,619	-200,000	-0,020	-0,076
-619,605	-200,000	0,013	-0,061
-618,590	95,705	0,053	0,043
-617,576	414,692	-0,034	0,053
-616,561	800,000	-0,047	-0,131
-615,546	16,983	-0,098	-0,056
-614,532	-200,000	-0,013	-0,131
-613,517	244,953	-0,053	-0,065
-612,503	-200,000	0,001	-0,034
-611,488	161,410	0,073	0,074
-610,474	-39,200	0,115	-0,043
-609,459	800,000	0,040	0,093
-608,444	91,576	-0,081	0,066
-607,430	270,274	0,008	0,011
-606,415	-26,445	0,068	-0,029
-605,401	495,462	0,026	0,043
-604,386	-85,389	0,040	-0,009
-603,371	-46,913	0,121	0,043
-602,357	161,746	0,068	0,068
-601,342	-200,000	-0,030	-0,104
-600,328	-61,674	-0,123	-0,037
-599,313	-122,254	-0,010	-0,001
-598,298	628,953	-0,094	0,173
-597,284	-200,000	0,018	0,079
-596,269	542,157	0,045	0,078
-595,255	800,000	0,050	0,120
-594,240	-200,000	0,007	0,099
-593,225	800,000	-0,038	-0,115
-592,211	317,652	0,009	-0,012
-591,196	167,147	-0,095	0,097
-590,182	297,779	0,026	0,035
-589,167	-200,000	-0,006	-0,046
-588,152	-200,000	-0,039	0,143
-587,138	16,068	0,078	0,044
-586,123	86,719	-0,126	-0,100
-585,109	37,050	-0,014	0,009
-584,094	-139,375	-0,116	0,009
-583,079	-128,064	0,155	-0,016
-582,065	676,712	0,043	0,081
-581,050	6,868	-0,061	-0,032
-580,036	45,452	0,086	0,057
-579,021	800,000	0,058	-0,154
-578,006	800,000	0,045	0,126
-576,992	62,494	-0,083	-0,060
-575,977	-200,000	0,009	-0,064
-574,963	-68,319	0,113	0,032
-573,948	669,791	0,023	0,044
-572,934	-200,000	-0,021	0,163
-571,919	340,334	-0,049	0,069
-570,904	-51,584	-0,110	-0,037
-569,890	67,907	-0,079	0,058
-568,875	-200,000	-0,010	0,065
-567,861	800,000	-0,027	0,071
-566,846	-19,553	0,063	0,028
-565,831	-67,339	-0,063	-0,018
-564,817	-200,000	-0,016	-0,092
-563,802	800,000	-0,023	0,061
-562,788	792,260	-0,067	-0,133
-561,773	-39,784	0,011	-0,004
-560,758	215,435	-0,035	-0,040
-559,744	800,000	0,048	0,123
-558,729	-174,832	-0,102	0,002
-557,715	144,563	-0,045	-0,043
-556,700	-132,532	0,063	0,006
-555,685	-200,000	-0,021	-0,072
-554,671	277,250	-0,131	-0,168
-553,656	431,013	0,045	-0,071
-552,642	41,567	-0,089	-0,058
-551,627	153,313	0,095	0,094
-550,612	-7,855	-0,138	-0,067
-549,598	-200,000	-0,025	-0,193
-548,583	800,000	-0,022	-0,058
-547,569	800,000	0,025	-0,072
-546,554	146,668	0,097	0,094
-545,539	-200,000	0,031	0,153
-544,525	644,385	0,058	0,106
-543,510	131,966	-0,032	0,029
-542,496	266,346	0,028	-0,036
-541,481	800,000	0,060	0,121
-540,466	482,374	-0,036	-0,059
-539,452	47,904	-0,034	-0,023
-538,437	-200,000	0,040	0,182
-537,423	212,222	-0,041	-0,046
-536,408	695,670	0,048	0,092
-535,393	101,827	-0,035	-0,030
-534,379	101,837	-0,064	0,054
-533,364	144,786	0,078	0,075
-532,350	585,127	0,052	0,092
-531,335	712,201	0,052	0,099
-530,321	-200,000	-0,021	0,079
-529,306	524,360	-0,042	-0,072
-528,291	-31,748	-0,140	0,056
-527,277	-200,000	-0,022	-0,179
-526,262	-200,000	-0,002	-0,079
-525,248	-109,258	-0,083	0,013
-524,233	741,119	0,032	-0,062
-523,218	114,353	-0,031	0,027
-522,204	278,113	-0,016	-0,021
-521,189	800,000	-0,009	-0,028
-520,175	-72,520	-0,117	0,031
-519,160	-200,000	-0,030	-0,223
-518,145	-200,000	-0,005	0,115
-517,131	482,480	-0,106	0,173
-516,116	-103,646	-0,119	0,020
-515,102	-200,000	0,018	-0,061
-514,087	-54,670	-0,004	0,001
-513,072	-119,426	0,103	0,013
-512,058	50,149	0,024	-0,016
-511,043	-129,295	-0,028	0,003
-510,029	23,937	0,059	-0,035
-509,014	800,000	0,010	-0,031
-507,999	-101,144	0,194	0,034
-506,985	454,336	0,049	0,078
-505,970	8,864	-0,043	-0,023
-504,956	681,082	-0,062	-0,117
-503,941	800,000	-0,040	-0,098
-502,926	-54,025	0,204	-0,066
-501,912	-200,000	-0,013	-0,154
-500,897	679,534	-0,034	0,064
-499,883	62,361	-0,007	0,005
-498,868	-159,600	0,107	0,004
-497,853	293,828	0,074	-0,097
-496,839	53,867	-0,080	-0,055
-495,824	231,908	0,044	0,051
-494,810	632,395	0,091	0,166
-493,795	-200,000	0,005	0,092
-492,781	-76,919	-0,085	0,021
-491,766	330,129	-0,051	0,071
-490,751	-200,000	0,041	-0,210
-489,737	-136,299	0,082	0,007
-488,722	-200,000	0,025	0,123
-487,708	324,187	-0,089	0,123
-486,693	32,386	-0,163	0,101
-485,678	-200,000	-0,041	0,000
-484,664	274,228	0,051	0,065
-483,649	-185,773	0,141	0,001
-482,635	-36,559	0,184	-0,071
-481,620	151,975	0,043	0,042
-480,605	85,503	0,066	0,052
-479,591	800,000	-0,035	0,094
-478,576	800,000	-0,023	-0,057
-477,562	97,108	-0,079	-0,065
-476,547	-71,036	-0,116	-0,031
-475,532	648,429	-0,042	-0,078
-474,518	-92,933	-0,079	0,016
-473,503	-32,610	0,155	0,062
-472,489	-200,000	-0,024	0,102
-471,474	800,000	0,051	0,105
-470,459	-200,000	-0,009	-0,068
-469,445	394,972	0,054	0,081
-468,430	40,696	0,047	-0,031
-467,416	-200,000	0,009	0,055
-466,401	800,000	-0,044	-0,118
-465,386	-200,000	-0,004	0,053
-464,372	-88,363	-0,041	0,009
-463,357	666,981	0,021	-0,039
-462,343	-112,152	-0,068	-0,010
-461,328	-77,517	0,036	0,009
-460,313	430,372	-0,037	-0,058
-459,299	426,937	0,102	0,158
-458,284	-53,672	0,017	-0,006
-457,270	83,715	-0,145	0,114
-456,255	-76,965	0,025	-0,006
-455,241	800,000	-0,044	-0,095
-454,226	800,000	-0,022	-0,061
-453,211	-200,000	0,015	-0,145
-452,197	4,671	-0,043	-0,022
-451,182	-58,526	-0,044	-0,014
-450,168	-52,509	-0,051	0,017
-449,153	-200,000	-0,002	-0,061
-448,138	-109,959	0,100	0,015
-447,124	51,910	0,030	0,020
-446,109	-200,000	-0,034	-0,161
-445,095	87,043	-0,068	0,054
-444,080	-4,040	0,054	0,027
-443,065	800,000	0,034	0,068
-442,051	-200,000	-0,009	-0,046
-441,036	167,784	-0,146	-0,149
-440,022	800,000	-0,014	0,030
-439,007	-122,109	-0,179	0,021
-437,992	-200,000	0,012	0,051
-436,978	385,716	0,033	0,049
-435,963	-53,679	0,033	0,011
-434,949	491,769	0,034	0,056
-433,934	46,231	-0,107	0,071
-432,919	243,750	-0,076	-0,092
-431,905	-200,000	-0,013	-0,079
-430,890	6,654	0,157	-0,083
-429,876	800,000	0,053	0,118
-428,861	-147,678	0,047	0,003
-427,846	-47,403	-0,110	-0,038
-426,832	-1,404	0,119	0,060
-425,817	-200,000	-0,005	-0,074
-424,803	267,388	0,018	-0,023
-423,788	76,541	0,024	-0,019
-422,773	-200,000	-0,018	0,073
-421,759	-200,000	-0,010	0,059
-420,744	309,552	-0,029	0,039
-419,730	-12,774	0,062	-0,029
-418,715	-119,424	0,048	-0,006
-417,701	303,716	-0,058	-0,077
-416,686	322,774	0,017	0,024
-415,671	167,570	-0,026	0,027
-414,657	-28,443	0,043	-0,018
-413,642	23,874	-0,072	-0,042
-412,628	-200,000	-0,030	-0,126
-411,613	292,972	0,033	-0,043
-410,598	-124,944	-0,045	-0,005
-409,584	-200,000	-0,005	-0,038
-408,569	-200,000	0,034	-0,139
-407,555	32,132	-0,124	-0,076
-406,540	-200,000	0,007	-0,121
-405,525	208,728	-0,064	-0,072
-404,511	22,996	0,050	-0,029
-403,496	-200,000	0,018	0,063
-402,482	-34,333	-0,140	0,055
-401,467	800,000	0,011	-0,035
-400,452	-200,000	-0,003	0,045
-399,438	32,041	0,096	-0,059
-398,423	440,533	0,047	-0,074
-397,409	800,000	0,063	-0,126
-396,394	217,038	-0,047	0,054
-395,379	-200,000	0,014	-0,063
-394,365	-14,443	0,165	0,076
-393,350	800,000	0,022	0,054
-392,336	-200,000	-0,011	0,052
-391,321	219,272	-0,021	-0,024
-390,306	-144,588	-0,284	-0,019
-389,292	2,820	0,120	-0,062
-388,277	-200,000	-0,000	-0,055
-387,263	120,210	-0,029	-0,025
-386,248	-200,000	-0,000	0,062
-385,233	-200,000	0,011	0,077
-384,219	800,000	0,011	0,030
-383,204	-200,000	0,000	-0,174
-382,190	-200,000	-0,000	-0,045
-381,175	706,090	-0,009	-0,017
-380,160	44,033	0,081	0,053
-379,146	-96,412	0,129	-0,024
-378,131	619,513	0,004	0,007
-377,117	434,047	0,028	-0,043
-376,102	-40,823	-0,030	0,011
-375,088	211,017	-0,067	-0,076
-374,073	129,689	0,048	-0,044
-373,058	-147,117	0,093	0,006
-372,044	782,465	0,067	-0,131
-371,029	-200,000	0,005	0,047
-370,015	49,405	0,025	0,017
-369,000	-200,000	0,026	-0,102
-367,985	-200,000	-0,004	0,016
-366,971	13,024	-0,100	0,055
-365,956	707,750	0,049	0,093
-364,942	-200,000	-0,026	0,135
-363,927	792,211	0,051	0,102
-362,912	162,634	-0,169	0,170
-361,898	212,023	-0,074	-0,083
-360,883	-96,563	-0,059	-0,011
-359,869	260,530	-0,103	-0,127
-358,854	-39,372	0,116	0,043
-357,839	-200,000	-0,002	0,130
-356,825	-128,518	0,145	0,015
-355,810	-200,000	0,007	-0,159
-354,796	-21,737	0,048	-0,021
-353,781	800,000	0,016	0,039
-352,766	15,696	-0,022	-0,012
-351,752	-200,000	0,012	-0,091
-350,737	502,612	0,037	0,062
-349,723	-32,576	0,075	-0,030
-348,708	-200,000	0,005	-0,080
-347,693	403,986	-0,081	0,122
-346,679	749,801	-0,008	-0,015
-345,664	-136,935	0,135	0,011
-344,650	-77,514	0,034	-0,008
-343,635	36,192	0,015	0,010
-342,620	-172,273	0,138	0,003
-341,606	-92,232	0,153	-0,030
-340,591	800,000	0,033	-0,095
-339,577	-1,170	-0,059	0,030
-338,562	-26,366	0,069	-0,029
-337,548	311,601	0,027	-0,036
-336,533	-2,609	0,083	-0,041
-335,518	407,412	0,047	0,072
-334,504	3,254	-0,140	0,072
-333,489	-200,000	-0,042	-0,146
-332,475	-91,089	-0,056	-0,011
-331,460	162,375	-0,146	-0,146
-330,445	99,178	0,106	-0,088
-329,431	-200,000	-0,023	0,141
-328,416	-52,355	0,065	-0,021
-327,402	462,906	-0,020	0,032
-326,387	-200,000	-0,009	0,129
-325,372	-47,933	-0,032	-0,011
-324,358	30,379	0,095	-0,058
-323,343	398,899	-0,051	0,076
-322,329	-200,000	0,038	0,121
-321,314	774,326	0,038	-0,073
-320,299	-200,000	-0,004	0,038
-319,285	-200,000	0,008	0,099
-318,270	-200,000	-0,007	-0,086
-317,256	212,445	0,116	-0,131
-316,241	598,801	-0,018	0,032
-315,226	38,791	-0,076	0,048
-314,212	117,213	-0,060	0,053
-313,197	-200,000	-0,021	0,074
-312,183	800,000	0,025	0,054
-311,168	46,643	0,132	-0,087
-310,153	-157,221	-0,129	0,005
-309,139	-100,361	-0,101	-0,018
-308,124	172,207	-0,129	0,133
-307,110	182,923	0,104	0,110
-306,095	-200,000	0,011	0,233
-305,080	-200,000	0,000	0,057
-304,066	800,000	0,048	0,138
-303,051	109,801	-0,051	-0,044
-302,037	-90,800	-0,110	-0,022
-301,022	50,315	-0,071	-0,048
-300,008	140,868	0,074	0,070
-298,993	-7,987	0,013	-0,006
-297,978	800,000	-0,104	0,254
-296,964	-200,000	0,003	-0,080
-295,949	108,611	-0,055	-0,047
-294,935	-200,000	0,005	0,043
-293,920	-200,000	-0,020	0,100
-292,905	381,323	0,066	-0,097
-291,891	-184,765	0,161	0,002
-290,876	-112,067	0,089	-0,013
-289,862	396,462	-0,038	0,056
-288,847	72,889	-0,021	-0,016
-287,832	-65,155	-0,095	0,027
-286,818	555,532	0,097	-0,167
-285,803	-136,629	0,094	0,008
-284,789	266,204	-0,096	0,119
-283,774	119,738	0,059	-0,052
-282,759	-22,111	-0,156	0,067
-281,745	-200,000	-0,021	-0,070
-280,730	97,056	-0,043	0,035
-279,716	-157,835	-0,087	0,004
-278,701	39,683	0,090	0,057
-277,686	-200,000	0,037	-0,164
-276,672	-200,000	0,024	0,133
-275,657	191,306	0,079	-0,084
-274,643	-200,000	0,000	-0,170
-273,628	-200,000	-0,021	0,136
-272,613	-75,370	0,034	-0,008
-271,599	424,715	0,067	0,103
-270,584	203,734	0,129	0,142
-269,570	-200,000	0,011	0,174
-268,555	269,725	0,045	0,057
-267,540	-46,868	-0,045	-0,016
-266,526	-200,000	-0,011	-0,084
-265,511	-200,000	0,015	-0,101
-264,497	223,925	0,087	-0,100
-263,482	800,000	-0,025	0,067
-262,467	-200,000	-0,012	-0,057
-261,453	561,994	0,034	0,059
-260,438	50,716	-0,075	-0,050
-259,424	-200,000	0,025	-0,107
-258,409	-143,721	0,085	-0,006
-257,395	301,637	0,067	0,089
-256,380	90,306	0,049	0,039
-255,365	-200,000	0,001	0,089
-254,351	198,150	0,016	-0,018
-253,336	-194,895	-0,252	-0,001
-252,322	594,119	0,007	-0,013
-251,307	162,039	-0,118	-0,118
-250,292	-200,000	0,038	0,139
-249,278	383,501	0,134	0,197
-248,263	419,214	0,025	0,039
-247,249	115,235	-0,085	-0,074
-246,234	505,101	-0,016	-0,027
-245,219	800,000	-0,022	-0,044
-244,205	-122,032	-0,017	0,002
-243,190	-200,000	-0,017	-0,081
-242,176	-38,502	-0,048	0,018
-241,161	424,289	0,050	0,077
-240,146	-200,000	-0,005	0,046
-239,132	800,000	-0,046	-0,131
-238,117	-200,000	0,009	-0,111
-237,103	52,461	-0,030	-0,020
-236,088	163,001	-0,105	0,105
-235,073	421,468	0,043	-0,066
-234,059	16,387	-0,029	0,016
-233,044	-108,472	-0,097	-0,015
-232,030	72,708	0,138	0,102
-231,015	389,979	-0,018	0,026
-230,000	27,492	-0,068	-0,041
-228,986	800,000	0,043	-0,098
-227,971	-161,678	0,132	0,005
-226,957	43,496	0,080	0,052
-225,942	-129,327	-0,148	0,014
-224,927	327,189	0,009	0,012
-223,913	-27,663	0,157	-0,065
-222,898	-111,123	0,039	0,006
-221,884	-200,000	-0,017	-0,163
-220,869	800,000	-0,037	-0,077
-219,855	151,751	0,012	-0,012
-218,840	-159,225	-0,059	-0,002
-217,825	-200,000	0,004	0,046
-216,811	375,089	0,079	-0,115
-215,796	800,000	-0,044	-0,111
-214,782	672,764	-0,070	-0,129
-213,767	264,255	-0,050	-0,062
-212,752	-140,900	-0,100	0,007
-211,738	479,285	-0,092	0,149
-210,723	-34,122	-0,085	0,033
-209,709	-200,000	-0,035	-0,120
-208,694	800,000	-0,030	-0,063
-207,679	800,000	0,038	-0,119
-206,665	496,484	0,082	-0,135
-205,650	429,105	0,075	0,115
-204,636	800,000	0,069	0,137
-203,621	-61,603	-0,021	0,006
-202,606	315,813	0,031	-0,041
-201,592	173,287	-0,092	-0,094
-200,577	-153,696	-0,145	0,007
-199,563	-200,000	0,012	0,059
-198,548	-159,063	0,119	0,005
-197,533	-5,631	-0,103	-0,050
-196,519	-200,000	-0,014	0,143
-195,504	594,157	0,115	-0,203
-194,490	-200,000	-0,037	-0,120
-193,475	44,475	0,047	0,031
-192,460	800,000	0,043	0,112
-191,446	-15,435	0,173	0,078
-190,431	9,700	0,022	-0,012
-189,417	-27,104	-0,011	0,005
-188,402	-139,324	-0,197	-0,015
-187,387	-28,557	-0,050	-0,020
-186,373	-140,449	0,122	0,009
-185,358	-25,606	-0,091	-0,038
-184,344	175,885	0,104	0,107
-183,329	-100,994	-0,106	0,018
-182,315	267,130	-0,013	0,016
-181,300	161,568	-0,031	-0,031
-180,285	85,393	0,063	0,049
-179,271	-200,000	0,014	-0,138
-178,256	-200,000	0,002	-0,122
-177,242	-200,000	0,004	0,104
-176,227	-63,210	0,080	-0,023
-175,212	51,794	0,026	-0,018
-174,198	-67,239	-0,108	-0,030
-173,183	670,113	-0,029	-0,053
-172,169	-12,728	0,230	-0,106
-171,154	-70,474	-0,015	-0,004
-170,139	-177,888	0,191	-0,003
-169,125	-200,000	-0,012	0,083
-168,110	-200,000	-0,000	0,055
-167,096	-62,965	-0,157	-0,046
-166,081	-73,772	-0,209	-0,053
-165,066	-200,000	0,010	-0,060
-164,052	-65,415	-0,060	0,017
-163,037	131,887	0,051	0,047
-162,023	27,578	0,049	0,029
-161,008	-200,000	-0,011	0,085
-159,993	-169,605	0,135	0,003
-158,979	90,366	-0,180	-0,142
-157,964	29,045	-0,046	-0,027
-156,950	189,810	-0,056	0,060
-155,935	800,000	0,013	-0,027
-154,920	82,811	0,006	0,004
-153,906	800,000	-0,072	0,178
-152,891	-200,000	0,005	0,036
-151,877	9,356	-0,114	-0,061
-150,862	244,885	0,019	0,023
-149,847	-200,000	0,047	-0,197
-148,833	37,962	0,054	0,034
-147,818	48,875	0,068	0,045
-146,804	100,537	-0,065	0,053
-145,789	-96,415	0,099	0,018
-144,775	193,750	0,049	0,053
-143,760	-200,000	0,031	-0,111
-142,745	800,000	-0,100	-0,286
-141,731	-120,690	0,043	0,005
-140,716	-200,000	-0,013	-0,047
-139,702	372,937	0,034	-0,049
-138,687	-8,730	0,017	0,008
-137,672	-49,482	0,074	0,025
-136,658	-38,381	0,149	-0,056
-135,643	184,269	-0,135	-0,141
-134,629	-188,315	0,116	-0,001
-133,614	783,577	0,071	0,139
-132,599	800,000	0,074	0,177
-131,585	-107,612	0,034	-0,005
-130,570	390,752	-0,072	-0,107
-129,556	46,110	0,044	-0,029
-128,541	30,467	-0,149	-0,090
-127,526	-200,000	-0,011	-0,069
-126,512	-19,950	0,084	-0,037
-125,497	501,781	0,050	-0,083
-124,483	-29,548	0,077	0,031
-123,468	289,898	0,067	0,086
-122,453	-200,000	-0,003	-0,034
-121,439	-17,452	-0,038	-0,017
-120,424	-65,629	-0,041	-0,012
-119,410	-133,227	-0,081	-0,007
-118,395	41,436	0,132	0,085
-117,380	-14,093	-0,073	0,033
-116,366	800,000	-0,035	0,105
-115,351	-44,915	0,077	-0,027
-114,337	135,416	-0,068	-0,063
-113,322	487,087	0,030	0,049
-112,307	-52,025	0,065	0,021
-111,293	-137,755	0,016	-0,001
-110,278	151,686	0,123	0,119
-109,264	-200,000	-0,006	0,085
-108,249	511,206	-0,079	-0,130
-107,234	-200,000	0,040	-0,256
-106,220	-113,548	-0,034	0,005
-105,205	245,903	-0,040	0,048
-104,191	42,960	-0,070	-0,045
-103,176	46,170	-0,100	-0,065
-102,162	16,824	-0,116	0,065
-101,147	-200,000	0,013	0,104
-100,132	-54,422	-0,037	-0,012
-99,118	755,247	-0,034	0,065
-98,103	326,539	-0,037	-0,050
-97,089	-200,000	0,000	0,085
-96,074	431,347	-0,036	0,055
-95,059	-200,000	0,008	-0,081
-94,045	-200,000	-0,008	-0,076
-93,030	373,655	-0,102	-0,148
-92,016	-200,000	-0,049	-0,180
-91,001	-200,000	0,011	-0,067
-89,986	-38,871	-0,103	0,038
-88,972	-200,000	-0,023	0,129
-87,957	-23,046	0,074	-0,031
-86,943	56,899	-0,151	0,104
-85,928	-200,000	-0,001	-0,043
-84,913	-40,357	0,090	-0,033
-83,899	800,000	-0,035	0,082
-82,884	-5,528	-0,061	0,029
-81,870	800,000	0,041	0,092
-80,855	800,000	0,039	-0,096
-79,840	10,940	-0,160	-0,086
-78,826	36,989	0,026	0,016
-77,811	108,091	0,054	0,045
-76,797	-41,318	-0,034	0,012
-75,782	165,221	-0,053	0,053
-74,767	-34,110	-0,088	-0,034
-73,753	800,000	-0,051	0,160
-72,738	-16,732	-0,195	0,087
-71,724	211,109	0,026	-0,029
-70,709	800,000	0,022	0,044
-69,694	-82,084	-0,150	0,034
-68,680	353,790	-0,047	-0,066
-67,665	-199,867	-0,084	0,000
-66,651	-153,163	-0,050	0,002
-65,636	233,471	-0,081	0,094
-64,622	-0,366	0,049	0,024
-63,607	-200,000	-0,028	-0,103
-62,592	29,839	0,089	-0,054
-61,578	-200,000	0,042	0,170
-60,563	-31,491	0,084	0,033
-59,549	-200,000	-0,012	-0,045
-58,534	34,127	-2,053	-1,261
-57,519	353,542	-1,467	-2,063
-56,505	-200,000	-0,291	-4,392
-55,490	622,535	0,869	1,552
-54,476	800,000	5,068	11,237
-53,461	-200,000	21,126	336,401
-52,446	800,000	758,237	2345,409
-51,432	555,929	1661,638	2836,350
-50,417	73,567	1662,273	1227,768
-49,403	18,233	1535,630	862,864
-48,388	12,206	1458,931	790,603
-47,373	19,186	1449,710	819,083
-46,359	15,556	1439,110	795,791
-45,344	10,493	1434,913	769,321
-44,330	10,434	1433,061	768,016
-43,315	10,348	1431,298	766,632
-42,300	10,462	1429,195	766,017
-41,286	10,466	1428,226	765,488
-40,271	10,451	1426,921	764,688
-39,257	10,423	1425,771	763,906
-38,242	10,481	1424,627	763,539
-37,227	10,482	1423,374	762,840
-36,213	10,441	1422,237	762,006
-35,198	10,461	1421,112	761,470
-34,184	10,509	1420,240	761,200
-33,169	10,442	1418,815	760,089
-32,154	10,521	1417,731	759,852
-31,140	10,497	1416,481	759,038
-30,125	10,546	1415,315	758,611
-29,111	10,499	1414,545	757,949
-28,096	10,497	1412,916	757,038
-27,082	10,426	1412,033	756,200
-26,067	10,393	1410,951	755,438
-25,052	10,446	1409,737	755,005
-24,038	10,468	1408,880	754,618
-23,023	10,383	1408,294	753,876
-22,009	10,413	1407,038	753,313
-20,994	10,432	1405,884	752,758
-19,979	10,415	1405,000	752,171
-18,965	10,367	1404,128	751,452
-17,950	10,388	1403,293	751,072
-16,936	10,358	1402,504	750,483
-15,921	10,339	1401,370	749,758
-14,906	10,322	1400,590	749,232
-13,892	10,391	1399,285	748,825
-12,877	10,334	1398,780	748,258
-11,863	10,378	1397,849	747,936
-10,848	10,275	1397,099	747,027
-9,833	10,312	1395,964	746,563
-8,819	10,276	1395,221	745,967
-7,804	10,246	1394,327	745,319
-6,790	10,225	1393,489	744,748
-5,775	10,250	1392,344	744,218
-4,760	10,289	1391,071	743,691
-3,746	10,244	1390,294	743,037
-2,731	10,277	1389,457	742,715
-1,717	10,248	1388,628	742,105
-0,702	10,243	1386,777	741,066
0,313	14,153	1299,986	712,616
1,327	30,213	691,009	415,251
2,342	47,264	119,685	78,498
3,356	1,815	16,464	8,346
4,371	5,163	3,539	1,834
5,386	34,188	0,827	0,507
6,400	-200,000	0,171	0,537
7,415	20,247	-0,153	-0,087
8,429	115,473	-0,251	-0,216
9,444	62,427	-0,332	-0,233
10,459	-152,090	-0,269	-0,014
11,473	97,550	-0,191	-0,154
12,488	33,683	-0,232	-0,142
13,502	0,693	-0,407	-0,205
14,517	-71,110	-0,382	-0,101
15,531	95,880	-0,386	-0,311
16,546	141,759	-0,274	-0,256
17,561	90,103	-0,437	-0,344
18,575	103,872	-0,109	-0,091
19,590	800,000	-0,103	-0,284
20,604	579,325	-0,158	-0,273
21,619	69,559	-0,339	-0,245
22,634	62,536	-0,484	-0,340
23,648	113,677	-0,378	-0,323
24,663	103,302	-0,302	-0,249
25,677	95,266	-0,324	-0,260
26,692	115,935	-0,293	-0,252
27,707	104,837	-0,426	-0,354
28,721	-18,914	-0,476	-0,208
29,736	40,248	-0,515	-0,325
30,750	95,206	-0,398	-0,319
31,765	93,512	-0,309	-0,246
32,780	111,715	-0,324	-0,275
33,794	80,672	-0,335	-0,254
34,809	25,864	-0,383	-0,224
35,823	76,102	-0,334	-0,248
36,838	105,958	-0,347	-0,289
37,853	136,302	-0,349	-0,320
38,867	4,002	-0,414	-0,212
39,882	123,905	-0,299	-0,264
40,896	85,607	-0,382	-0,295
41,911	40,848	-0,275	-0,174
42,926	86,242	-0,342	-0,265
43,940	380,635	-0,304	-0,440
44,955	60,441	-0,415	-0,288
45,969	226,927	-0,335	-0,383
46,984	131,114	-0,293	-0,265
47,999	4,843	-0,301	-0,155
49,013	44,906	-0,261	-0,169
50,028	9,979	-0,400	-0,213
51,042	170,610	-0,332	-0,334
52,057	118,048	-0,288	-0,250
53,071	-33,623	-0,370	-0,143
54,086	42,113	-0,186	-0,118
55,101	-86,021	-0,354	-0,076
56,115	-20,314	-0,242	-0,104
57,130	-48,652	-0,379	-0,127
58,144	254,979	-0,206	-0,248
59,159	-13,559	-0,430	-0,195
60,174	153,022	-0,347	-0,333
61,188	-27,523	-0,444	-0,180
62,203	-39,251	-0,295	-0,108
63,217	147,940	-0,308	-0,291
64,232	-64,649	-0,324	-0,092
65,247	2,824	-0,227	-0,115
66,261	70,701	-0,314	-0,228
67,276	-35,688	-0,409	-0,155
68,290	220,646	-0,210	-0,237
69,305	55,312	-0,325	-0,220
70,320	162,988	-0,189	-0,186
71,334	-117,096	-0,290	-0,037
72,349	202,925	-0,324	-0,352
73,363	81,500	-0,401	-0,304
74,378	123,637	-0,301	-0,265
75,393	-62,439	-0,245	-0,071
76,407	187,166	-0,284	-0,297
77,422	344,319	-0,176	-0,242
78,436	30,395	-0,370	-0,221
79,451	91,888	-0,352	-0,278
80,466	17,001	-0,394	-0,218
81,480	158,140	-0,307	-0,299
82,495	88,104	-0,253	-0,197
83,509	-28,682	-0,244	-0,098
84,524	-99,461	-0,396	-0,069
85,539	-4,175	-0,352	-0,170
86,553	-82,514	-0,287	-0,065
87,568	130,461	-0,330	-0,296
88,582	-29,834	-0,374	-0,148
89,597	13,648	-0,228	-0,123
90,611	10,419	-0,319	-0,169
91,626	280,452	-0,165	-0,207
92,641	-79,492	-0,267	-0,063
93,655	19,500	-0,319	-0,179
94,670	15,946	-0,301	-0,165
95,684	185,091	-0,295	-0,306
96,699	110,952	-0,319	-0,268
97,714	7,313	-0,188	-0,098
98,728	3,193	-0,237	-0,120
99,743	67,073	-0,219	-0,156
100,757	26,127	-0,194	-0,113
101,772	206,367	-0,235	-0,256
102,787	3,918	-0,477	-0,243
103,801	30,201	-0,374	-0,223
104,816	111,340	-0,291	-0,245
105,830	21,553	-0,282	-0,160
106,845	87,451	-0,240	-0,185
107,860	50,140	-0,301	-0,198
108,874	45,498	-0,375	-0,241
109,889	218,512	-0,281	-0,314
110,903	-34,111	-0,350	-0,134
111,918	-98,116	-0,287	-0,051
112,933	207,194	-0,196	-0,214
113,947	116,045	-0,222	-0,190
114,962	2,822	-0,261	-0,132
115,976	48,320	-0,339	-0,221
116,991	152,325	-0,319	-0,304
118,006	-156,340	-0,235	-0,010
119,020	265,998	-0,194	-0,237
120,035	117,534	-0,169	-0,145
121,049	-1,986	-0,430	-0,210
122,064	-84,701	-0,210	-0,046
123,079	75,988	-0,185	-0,136
124,093	120,471	-0,254	-0,220
125,108	154,593	-0,244	-0,234
126,122	47,149	-0,362	-0,235
127,137	-95,104	-0,399	-0,075
128,151	-47,595	-0,202	-0,068
129,166	-5,910	-0,234	-0,111
130,181	481,149	-0,129	-0,205
131,195	367,941	-0,196	-0,277
132,210	129,990	-0,318	-0,284
133,224	-43,995	-0,235	-0,082
134,239	131,381	-0,272	-0,243
135,254	252,778	-0,182	-0,216
136,268	559,950	-0,137	-0,231
137,283	623,903	-0,143	-0,252
138,297	-4,682	-0,270	-0,130
139,312	17,069	-0,233	-0,129
140,327	108,602	-0,332	-0,276
141,341	182,576	-0,200	-0,206
142,356	-122,442	-0,251	-0,028
143,370	778,205	-0,089	-0,170
144,385	29,757	-0,324	-0,192
145,400	23,313	-0,243	-0,138
146,414	-55,139	-0,344	-0,107
147,429	-61,241	-0,403	-0,118
148,443	204,503	-0,171	-0,185
149,458	219,177	-0,134	-0,150
150,473	167,681	-0,257	-0,255
151,487	-69,116	-0,065	-0,017
152,502	800,000	-0,074	-0,206
153,516	131,297	-0,199	-0,178
154,531	4,640	-0,307	-0,156
155,546	43,906	-0,181	-0,115
156,560	57,673	-0,210	-0,143
157,575	-116,481	-0,236	-0,030
158,589	170,163	-0,076	-0,076
159,604	353,518	-0,204	-0,283
160,619	269,740	-0,182	-0,223
161,633	-5,577	-0,222	-0,106
162,648	-1,385	-0,314	-0,154
163,662	-14,372	-0,200	-0,089
164,677	115,472	-0,197	-0,168
165,692	581,183	-0,163	-0,278
166,706	29,144	-0,287	-0,169
167,721	-32,297	-0,324	-0,125
168,735	-4,088	-0,285	-0,137
169,750	140,705	-0,175	-0,161
170,764	116,276	-0,282	-0,240
171,779	-96,708	-0,141	-0,026
172,794	196,041	-0,231	-0,245
173,808	13,408	-0,368	-0,198
174,823	170,032	-0,231	-0,230
175,837	153,213	-0,106	-0,101
176,852	2,350	-0,258	-0,129
177,867	278,120	-0,175	-0,217
178,881	800,000	-0,124	-0,263
179,896	225,822	-0,272	-0,307
180,910	57,519	-0,297	-0,202
181,925	162,670	-0,135	-0,132
182,940	112,441	-0,224	-0,188
183,954	80,485	-0,250	-0,186
184,969	800,000	-0,085	-0,192
185,983	92,642	-0,218	-0,170
186,998	99,528	-0,230	-0,185
188,013	229,731	-0,198	-0,224
189,027	27,233	-0,251	-0,146
190,042	-200,000	-0,042	-0,179
191,056	48,756	-0,286	-0,186
192,071	-48,051	-0,233	-0,078
193,086	-84,339	-0,286	-0,062
194,100	-37,100	-0,165	-0,061
195,115	370,589	-0,219	-0,309
196,129	94,521	-0,141	-0,111
197,144	143,844	-0,194	-0,179
198,159	-47,121	-0,368	-0,124
199,173	11,514	-0,208	-0,110
200,188	94,568	-0,176	-0,139
201,202	-200,000	0,013	-0,127
202,217	404,317	-0,224	-0,328
203,232	30,069	-0,224	-0,132
204,246	74,721	-0,206	-0,150
205,261	-12,166	-0,292	-0,132
206,275	27,395	-0,221	-0,129
207,290	-200,000	-0,054	-0,208
208,304	80,033	-0,097	-0,072
209,319	395,297	-0,126	-0,182
210,334	-86,676	-0,298	-0,063
211,348	191,237	-0,205	-0,214
212,363	-81,257	-0,337	-0,076
213,377	143,503	-0,127	-0,117
214,392	800,000	-0,097	-0,268
215,407	-68,335	-0,189	-0,050
216,421	131,831	-0,190	-0,169
217,436	-56,373	-0,140	-0,043
218,450	34,864	-0,233	-0,141
219,465	91,395	-0,167	-0,130
220,480	-60,550	-0,182	0,053
221,494	7,017	-0,089	-0,046
222,509	13,536	-0,175	-0,094
223,523	71,346	-0,172	-0,124
224,538	-44,051	-0,252	-0,087
225,553	55,213	-0,163	-0,109
226,567	-33,735	-0,283	-0,108
227,582	679,107	-0,151	-0,273
228,596	77,170	-0,263	-0,193
229,611	-188,245	-0,184	0,002
230,626	-142,430	-0,257	-0,017
231,640	254,276	-0,194	-0,230
232,655	-21,590	-0,173	-0,073
233,669	321,445	-0,159	-0,210
234,684	252,604	-0,108	-0,127
235,699	-98,617	-0,128	0,022
236,713	-200,000	0,020	-0,278
237,728	800,000	-0,091	-0,178
238,742	-15,864	-0,168	-0,073
239,757	-62,898	-0,320	-0,091
240,772	157,825	-0,133	-0,127
241,786	-29,972	-0,286	-0,112
242,801	800,000	-0,061	-0,142
243,815	31,983	-0,080	0,047
244,830	221,518	-0,105	-0,117
245,844	-28,818	-0,269	-0,106
246,859	-200,000	-0,024	-0,238
247,874	584,735	-0,205	-0,350
248,888	128,859	-0,145	-0,127
249,903	-200,000	-0,090	-0,316
250,917	25,745	-0,154	-0,088
251,932	208,609	-0,176	-0,191
252,947	117,243	-0,064	-0,054
253,961	64,873	-0,244	-0,170
254,976	151,529	-0,139	-0,131
255,990	174,475	-0,158	-0,158
257,005	53,201	-0,229	-0,151
258,020	180,933	-0,152	-0,154
259,034	347,699	-0,099	-0,135
260,049	-77,107	-0,135	0,032
261,063	46,246	-0,183	-0,117
262,078	243,620	-0,266	-0,308
263,093	800,000	-0,131	-0,272
264,107	629,952	-0,084	-0,147
265,122	242,990	-0,106	-0,122
266,136	51,860	-0,145	-0,095
267,151	169,392	-0,143	-0,141
268,166	-41,121	-0,228	-0,081
269,180	20,292	-0,159	-0,088
270,195	-38,866	-0,168	-0,061
271,209	728,366	-0,055	-0,102
272,224	-200,000	-0,027	-0,133
273,239	544,165	-0,065	-0,108
274,253	214,337	-0,222	-0,243
275,268	-46,763	-0,252	-0,085
276,282	11,548	-0,131	-0,069
277,297	498,927	-0,089	-0,142
278,312	-200,000	-0,021	-0,098
279,326	800,000	-0,036	-0,106
280,341	24,246	-0,195	-0,111
281,355	636,530	-0,106	-0,187
282,370	54,846	-0,150	-0,099
283,384	-38,384	-0,268	-0,097
284,399	782,066	-0,081	-0,154
285,414	191,985	-0,130	-0,135
286,428	800,000	0,042	-0,112
287,443	800,000	-0,075	-0,155
288,457	-101,623	-0,157	-0,026
289,472	-85,711	-0,145	-0,031
290,487	5,487	-0,191	-0,096
291,501	224,263	-0,155	-0,173
292,516	-200,000	0,001	-0,128
293,530	-179,455	-0,120	-0,002
294,545	-152,144	-0,096	0,005
295,560	124,690	-0,104	-0,090
296,574	-3,172	-0,276	-0,132
297,589	205,155	-0,134	-0,143
298,603	500,251	-0,213	-0,339
299,618	51,489	-0,160	-0,105
300,633	-200,000	-0,048	-0,291
301,647	2,990	-0,248	-0,123
302,662	-131,306	-0,158	-0,014
303,676	46,375	-0,162	0,103
304,691	-42,024	-0,159	-0,056
305,706	171,822	-0,252	-0,249
306,720	136,510	-0,113	-0,101
307,735	800,000	-0,101	-0,238
308,749	77,961	-0,080	-0,059
309,764	59,124	-0,215	-0,145
310,779	60,969	-0,130	-0,088
311,793	-90,939	-0,137	-0,027
312,808	-85,745	-0,233	-0,049
313,822	57,749	-0,281	-0,189
314,837	11,023	-0,184	-0,096
315,852	18,981	-0,169	-0,093
316,866	-90,144	-0,209	-0,041
317,881	-68,987	-0,209	-0,055
318,895	-11,671	-0,180	-0,081
319,910	152,274	-0,232	-0,218
320,925	39,603	-0,156	-0,096
321,939	75,533	-0,168	-0,122
322,954	66,192	-0,137	-0,096
323,968	6,192	-0,078	-0,040
324,983	-100,748	-0,046	0,008
325,997	469,163	-0,091	-0,141
327,012	-76,107	-0,281	-0,068
328,027	82,367	-0,135	-0,100
329,041	229,507	-0,133	-0,150
330,056	-200,000	0,033	-0,134
331,070	641,797	0,036	-0,063
332,085	-77,722	-0,066	0,016
333,100	-115,243	-0,178	0,023
334,114	96,031	-0,228	-0,178
335,129	800,000	-0,079	-0,179
336,143	226,393	-0,132	-0,147
337,158	-111,225	-0,186	0,026
338,173	225,346	-0,056	-0,062
339,187	280,570	-0,029	-0,036
340,202	-200,000	0,017	-0,098
341,216	324,209	-0,058	-0,076
342,231	9,890	-0,138	-0,071
343,246	116,013	-0,143	-0,120
344,260	494,704	-0,126	-0,199
345,275	35,399	-0,186	-0,112
346,289	-101,787	-0,088	0,014
347,304	-4,136	-0,124	-0,058
348,319	145,778	-0,194	-0,178
349,333	122,358	-0,170	-0,146
350,348	358,025	-0,146	-0,200
351,362	-78,399	-0,081	0,019
352,377	13,265	-0,224	-0,118
353,392	-200,000	-0,050	-0,154
354,406	6,932	-0,128	-0,065
355,421	206,705	1310,701	1398,463
356,435	158,977	1470,922	1398,938
