DTS Sentinel unit serial number:	SN410029Multiplexer serial number:	ORYXHardware model number:	OX2-SRSoftware version number:	ORYX F/W v4,00 Oryx Data Collector v3.7.2.0data status	okinstallation	B3 Nyhavnadifferential loss correction	single-endedforward channel	channel 1reverse channel	N/Adate	2023/11/29time	18:12:30forward acquisition time	300,00reverse acquisition time	0,00gamma	499,1914k internal	0,3209k external	0,3209temperature offset calibration	1,0000default loss term (dB/km)	0,3820temperature slope calibration	1,0000multiplexer offset coefficient	1,0000multiplexer slope coefficient	1,0000fibre end	0,00T internal ref (°C)	11,18T ext. ref 1 (°C)	-4,03T ext. ref 2 (°C)	-4,12length (m)	temperature (°C)	Stokes	anti-Stokes-744,400	640,881	-0,146	-0,271
-743,385	-200,000	-0,076	0,279
-742,371	162,912	-0,235	-0,240
-741,356	800,000	-0,152	0,392
-740,342	800,000	-0,099	-0,261
-739,327	-200,000	-0,017	0,266
-738,312	525,821	-0,147	-0,251
-737,298	-200,000	-0,060	0,316
-736,283	800,000	-0,073	-0,231
-735,269	650,920	0,166	0,309
-734,254	122,822	-0,271	-0,246
-733,239	539,356	-0,095	0,164
-732,225	800,000	-0,049	-0,157
-731,210	-200,000	0,002	0,094
-730,196	365,782	0,112	-0,164
-729,181	800,000	0,037	0,117
-728,167	-104,648	-0,078	0,013
-727,152	45,612	0,123	-0,082
-726,137	-200,000	0,031	-0,146
-725,123	-64,296	-0,239	-0,070
-724,108	-113,478	-0,087	-0,012
-723,094	-200,000	0,002	-0,143
-722,079	-87,704	-0,180	-0,039
-721,064	151,118	0,048	0,047
-720,050	-51,438	0,028	0,009
-719,035	75,341	-0,137	-0,105
-718,021	-200,000	-0,002	-0,143
-717,006	-200,000	-0,016	-0,198
-715,991	-23,887	-0,141	-0,061
-714,977	-66,171	0,073	-0,021
-713,962	-68,115	-0,057	-0,016
-712,948	-28,664	0,031	-0,013
-711,933	-200,000	-0,012	0,058
-710,918	332,526	-0,023	0,033
-709,904	269,005	-0,056	-0,071
-708,889	156,824	-0,057	-0,057
-707,875	-88,325	-0,101	0,022
-706,860	-131,622	-0,092	-0,009
-705,845	88,180	0,027	0,021
-704,831	-50,402	0,094	0,032
-703,816	-200,000	0,033	0,121
-702,802	37,626	0,071	-0,046
-701,787	-142,477	-0,158	-0,011
-700,772	732,023	-0,094	-0,182
-699,758	800,000	0,037	-0,116
-698,743	543,471	0,098	0,171
-697,729	-188,412	-0,067	0,001
-696,714	-200,000	0,006	0,128
-695,699	-4,537	-0,041	-0,020
-694,685	-139,506	-0,118	-0,009
-693,670	784,480	0,056	-0,113
-692,656	-200,000	0,036	-0,180
-691,641	42,806	-0,074	-0,048
-690,627	-200,000	-0,001	0,127
-689,612	149,071	-0,073	-0,072
-688,597	-200,000	-0,021	-0,108
-687,583	549,438	-0,065	-0,113
-686,568	34,434	-0,093	-0,059
-685,554	-200,000	-0,024	-0,121
-684,539	800,000	-0,085	-0,197
-683,524	-45,073	-0,083	-0,030
-682,510	-22,929	0,086	0,037
-681,495	-106,917	-0,070	0,011
-680,481	800,000	-0,017	0,049
-679,466	-21,295	-0,193	-0,085
-678,451	502,443	0,133	-0,224
-677,437	-200,000	-0,029	-0,102
-676,422	419,310	-0,054	0,084
-675,408	-0,495	0,109	0,056
-674,393	-149,000	-0,109	-0,006
-673,378	38,998	-0,052	0,034
-672,364	-200,000	-0,040	-0,149
-671,349	800,000	-0,040	0,085
-670,335	800,000	-0,037	0,079
-669,320	1,509	0,078	0,041
-668,305	-57,240	0,136	0,043
-667,291	-184,618	-0,071	0,001
-666,276	213,963	0,031	0,036
-665,262	266,943	-0,047	0,060
-664,247	800,000	-0,026	-0,068
-663,232	-49,583	-0,061	0,021
-662,218	-200,000	0,007	0,037
-661,203	-200,000	0,009	0,052
-660,189	114,917	-0,035	-0,031
-659,174	-82,536	-0,105	-0,024
-658,159	-11,022	0,043	0,020
-657,145	78,170	-0,069	-0,053
-656,130	-161,318	0,175	-0,006
-655,116	-4,718	0,107	-0,053
-654,101	-119,881	0,107	0,013
-653,086	61,615	-0,175	0,126
-652,072	-40,429	-0,076	-0,028
-651,057	51,833	-0,107	-0,074
-650,043	-98,353	-0,092	-0,017
-649,028	8,945	0,037	-0,020
-648,014	-47,828	0,085	-0,029
-646,999	-43,249	0,108	-0,039
-645,984	-147,937	-0,057	0,003
-644,970	14,546	0,064	0,036
-643,955	-148,982	-0,090	-0,005
-642,941	134,880	-0,077	-0,072
-641,926	-50,880	-0,102	0,034
-640,911	215,282	-0,099	0,113
-639,897	33,135	0,244	0,153
-638,882	800,000	-0,028	0,075
-637,868	-200,000	-0,002	0,034
-636,853	240,777	0,105	-0,127
-635,838	-200,000	-0,031	-0,207
-634,824	800,000	-0,016	0,048
-633,809	634,649	0,040	-0,074
-632,795	-101,082	-0,138	-0,024
-631,780	89,699	-0,066	0,053
-630,765	90,010	-0,052	-0,042
-629,751	130,041	-0,079	-0,073
-628,736	-200,000	-0,012	-0,097
-627,722	21,322	0,081	-0,047
-626,707	-200,000	-0,020	0,193
-625,692	-16,283	0,168	-0,077
-624,678	-200,000	0,026	-0,088
-623,663	-26,809	-0,074	0,031
-622,649	36,930	-0,046	-0,030
-621,634	-200,000	-0,022	-0,076
-620,619	154,697	-0,111	0,111
-619,605	15,669	0,085	0,048
-618,590	158,290	-0,067	-0,067
-617,576	-74,086	0,198	-0,051
-616,561	1,577	-0,216	0,112
-615,546	-200,000	0,038	0,165
-614,532	-200,000	-0,021	-0,094
-613,517	60,128	-0,098	0,069
-612,503	269,165	-0,080	-0,101
-611,488	-104,151	-0,065	0,011
-610,474	70,933	-0,038	-0,029
-609,459	-200,000	-0,015	-0,138
-608,444	413,156	0,049	0,075
-607,430	32,824	-0,026	0,016
-606,415	-59,529	-0,032	0,010
-605,401	-3,243	0,065	0,032
-604,386	347,879	0,045	-0,064
-603,371	-6,819	0,003	0,001
-602,357	800,000	0,055	0,142
-601,342	600,957	-0,044	0,079
-600,328	458,833	-0,044	-0,070
-599,313	-31,873	-0,074	-0,030
-598,298	-200,000	-0,002	-0,072
-597,284	-92,296	-0,123	-0,025
-596,269	81,368	0,016	0,013
-595,255	48,539	0,043	-0,029
-594,240	104,680	0,040	-0,034
-593,225	-4,463	-0,089	-0,044
-592,211	800,000	-0,087	-0,186
-591,196	536,788	0,010	-0,016
-590,182	-200,000	-0,017	-0,104
-589,167	222,124	0,064	-0,074
-588,152	-122,971	0,040	-0,005
-587,138	207,702	0,049	0,056
-586,123	59,893	0,046	-0,033
-585,109	305,607	-0,066	0,089
-584,094	-21,841	0,013	-0,006
-583,079	-11,715	0,074	-0,035
-582,065	69,984	0,072	0,053
-581,050	66,078	0,156	-0,114
-580,036	800,000	-0,043	-0,103
-579,021	-27,671	0,098	-0,041
-578,006	-13,526	-0,090	-0,042
-576,992	87,471	0,080	-0,064
-575,977	-119,785	-0,196	0,024
-574,963	15,378	0,075	0,042
-573,948	135,156	0,066	0,062
-572,934	-200,000	0,015	0,094
-571,919	-53,829	-0,080	-0,026
-570,904	79,315	-0,061	-0,047
-569,890	800,000	-0,016	-0,042
-568,875	516,097	0,060	-0,101
-567,861	378,236	-0,058	-0,086
-566,846	800,000	-0,009	-0,020
-565,831	-200,000	-0,015	-0,104
-564,817	164,654	-0,019	-0,019
-563,802	253,251	0,044	0,054
-562,788	-200,000	-0,002	-0,035
-561,773	-200,000	0,011	-0,100
-560,758	800,000	0,026	-0,069
-559,744	-200,000	0,012	0,070
-558,729	-200,000	0,005	0,248
-557,715	-200,000	-0,005	-0,097
-556,700	800,000	-0,037	-0,094
-555,685	-188,704	0,106	0,001
-554,671	215,353	0,094	-0,107
-553,656	-200,000	-0,016	0,165
-552,642	728,685	0,013	0,025
-551,627	-200,000	-0,049	0,171
-550,612	-140,772	0,208	0,015
-549,598	-10,960	-0,209	-0,099
-548,583	-200,000	0,024	-0,103
-547,569	-54,470	0,112	-0,036
-546,554	-19,143	-0,037	0,016
-545,539	-200,000	0,002	0,043
-544,525	-109,496	0,053	0,008
-543,510	-50,744	-0,034	0,012
-542,496	3,004	-0,141	-0,074
-541,481	-200,000	-0,018	-0,069
-540,466	121,684	-0,077	-0,069
-539,452	-200,000	0,002	0,121
-538,437	-134,969	-0,129	-0,011
-537,423	800,000	0,032	-0,099
-536,408	331,761	0,025	0,034
-535,393	-163,128	0,090	0,003
-534,379	158,480	-0,077	0,077
-533,364	358,548	-0,094	-0,135
-532,350	-179,718	0,144	0,002
-531,335	301,688	-0,015	-0,020
-530,321	214,217	0,090	0,103
-529,306	-200,000	-0,011	-0,043
-528,291	-200,000	-0,004	-0,072
-527,277	-200,000	0,030	-0,125
-526,262	738,903	-0,009	-0,017
-525,248	-84,853	0,019	-0,004
-524,233	-200,000	0,006	0,077
-523,218	613,977	0,101	0,183
-522,204	-17,672	-0,082	-0,037
-521,189	-200,000	-0,023	-0,086
-520,175	70,056	-0,098	0,073
-519,160	395,915	-0,014	-0,022
-518,145	144,083	-0,054	-0,052
-517,131	234,743	0,024	0,029
-516,116	47,840	-0,014	0,009
-515,102	-61,687	-0,038	0,011
-514,087	-200,000	-0,026	-0,133
-513,072	-136,176	-0,098	-0,008
-512,058	-65,192	0,061	-0,018
-511,043	79,879	0,099	-0,076
-510,029	800,000	0,063	0,199
-509,014	186,082	-0,010	-0,010
-507,999	269,204	0,061	0,077
-506,985	-178,136	-0,036	-0,001
-505,970	-195,379	0,048	0,000
-504,956	527,627	-0,034	0,058
-503,941	-200,000	-0,005	-0,037
-502,926	253,336	0,094	0,116
-501,912	-23,924	0,135	-0,058
-500,897	-73,794	-0,143	-0,037
-499,883	800,000	-0,024	-0,059
-498,868	-200,000	-0,006	0,046
-497,853	-200,000	-0,020	-0,103
-496,839	86,214	0,075	0,059
-495,824	348,795	0,062	0,088
-494,810	111,434	0,050	0,044
-493,795	213,988	0,038	-0,043
-492,781	-200,000	0,023	-0,163
-491,766	800,000	-0,019	-0,058
-490,751	195,308	0,049	0,053
-489,737	187,523	-0,051	0,055
-488,722	800,000	-0,078	0,192
-487,708	534,098	0,076	-0,130
-486,693	-200,000	-0,007	-0,108
-485,678	-40,205	-0,070	0,026
-484,664	381,483	0,058	-0,086
-483,649	413,511	0,056	-0,086
-482,635	-200,000	0,006	-0,040
-481,620	800,000	0,050	-0,123
-480,605	800,000	-0,121	0,262
-479,591	91,076	0,078	-0,063
-478,576	-200,000	-0,008	0,111
-477,562	395,720	0,032	-0,048
-476,547	-175,062	-0,064	0,001
-475,532	800,000	0,022	0,060
-474,518	357,257	0,026	-0,038
-473,503	168,706	0,068	0,069
-472,489	210,804	-0,049	0,056
-471,474	-41,359	-0,013	0,005
-470,459	26,468	-0,117	0,070
-469,445	557,357	0,048	-0,084
-468,430	62,009	0,085	-0,061
-467,416	800,000	-0,012	0,039
-466,401	-39,421	0,072	-0,027
-465,386	-200,000	0,013	0,115
-464,372	223,780	-0,023	0,027
-463,357	-200,000	0,023	-0,159
-462,343	-200,000	-0,032	-0,195
-461,328	-47,260	-0,056	-0,020
-460,313	559,645	0,066	-0,115
-459,299	-50,391	0,059	-0,020
-458,284	-12,131	0,045	0,021
-457,270	467,284	-0,058	0,094
-456,255	-200,000	-0,008	0,060
-455,241	-200,000	0,028	0,114
-454,226	621,549	0,009	-0,016
-453,211	245,724	-0,030	0,036
-452,197	-98,364	0,267	-0,049
-451,182	38,841	-0,081	-0,052
-450,168	-48,452	0,045	0,016
-449,153	257,837	0,061	0,075
-448,138	-200,000	-0,019	0,075
-447,124	-104,061	0,219	-0,036
-446,109	-200,000	0,022	0,095
-445,095	-200,000	-0,081	0,290
-444,080	800,000	0,055	0,157
-443,065	146,434	-0,095	0,092
-442,051	244,483	-0,072	-0,087
-441,036	-143,961	0,056	-0,004
-440,022	149,663	0,063	-0,061
-439,007	-131,760	0,133	0,012
-437,992	-200,000	0,039	0,160
-436,978	-200,000	-0,001	0,130
-435,963	-200,000	0,026	0,128
-434,949	-152,677	-0,051	-0,003
-433,934	800,000	0,019	-0,058
-432,919	86,427	-0,108	-0,086
-431,905	281,058	-0,011	0,015
-430,890	141,826	-0,023	0,022
-429,876	249,404	0,134	0,163
-428,861	37,666	0,095	0,060
-427,846	-109,092	0,170	-0,026
-426,832	-84,245	0,022	0,005
-425,817	-200,000	0,015	0,074
-424,803	800,000	-0,037	0,086
-423,788	46,952	0,047	-0,031
-422,773	-200,000	0,007	-0,070
-421,759	-11,940	0,124	0,058
-420,744	297,685	-0,058	-0,077
-419,730	-200,000	-0,028	-0,101
-418,715	-200,000	0,005	-0,023
-417,701	-152,396	0,052	-0,003
-416,686	-21,415	-0,087	0,038
-415,671	-200,000	-0,004	-0,024
-414,657	93,597	-0,058	0,047
-413,642	544,110	-0,029	0,049
-412,628	151,521	0,052	-0,051
-411,613	-200,000	-0,006	-0,064
-410,598	-200,000	-0,003	-0,108
-409,584	-200,000	-0,022	0,119
-408,569	167,714	-0,049	0,050
-407,555	427,996	0,035	0,055
-406,540	-200,000	-0,017	-0,088
-405,525	326,091	-0,059	-0,081
-404,511	-200,000	-0,011	-0,061
-403,496	-143,014	-0,085	0,006
-402,482	-102,313	0,071	0,012
-401,467	45,263	-0,107	-0,070
-400,452	-70,514	0,035	0,010
-399,438	-200,000	-0,018	-0,109
-398,423	384,739	-0,037	-0,055
-397,409	10,378	-0,048	0,026
-396,394	133,019	0,048	-0,044
-395,379	-200,000	0,006	-0,097
-394,365	34,776	-0,040	-0,025
-393,350	132,273	-0,122	0,112
-392,336	-200,000	0,007	0,102
-391,321	55,519	0,086	-0,059
-390,306	-200,000	0,022	0,082
-389,292	800,000	0,035	-0,103
-388,277	800,000	-0,010	-0,028
-387,263	-200,000	0,036	-0,120
-386,248	-200,000	-0,026	0,101
-385,233	-85,856	-0,156	0,034
-384,219	669,331	0,007	0,013
-383,204	223,832	0,098	-0,114
-382,190	-200,000	-0,008	-0,084
-381,175	46,996	0,016	-0,010
-380,160	-166,296	-0,118	0,003
-379,146	800,000	0,034	-0,080
-378,131	-58,391	-0,081	0,025
-377,117	-200,000	-0,009	0,066
-376,102	217,136	-0,070	-0,080
-375,088	195,263	0,054	-0,059
-374,073	-200,000	0,011	-0,058
-373,058	-200,000	0,004	-0,102
-372,044	749,801	0,060	-0,117
-371,029	2,738	0,061	-0,032
-370,015	-43,481	-0,019	-0,007
-369,000	139,515	0,002	0,002
-367,985	103,986	-0,110	-0,093
-366,971	800,000	0,056	0,138
-365,956	199,523	0,097	-0,106
-364,942	-137,430	-0,045	-0,004
-363,927	444,763	0,063	-0,099
-362,912	48,540	-0,115	0,077
-361,898	-123,683	0,179	-0,020
-360,883	-200,000	0,013	-0,073
-359,869	-200,000	-0,005	-0,049
-358,854	180,454	-0,172	0,181
-357,839	249,530	0,017	0,021
-356,825	-12,925	-0,036	-0,016
-355,810	-44,507	0,066	-0,024
-354,796	-101,030	-0,123	-0,021
-353,781	359,555	-0,069	-0,098
-352,766	-200,000	0,025	-0,157
-351,752	192,325	-0,029	0,032
-350,737	67,691	0,042	-0,031
-349,723	-200,000	-0,065	0,221
-348,708	-200,000	-0,009	-0,085
-347,693	393,205	-0,084	-0,125
-346,679	475,991	-0,033	-0,054
-345,664	800,000	0,045	0,092
-344,650	45,109	0,098	0,064
-343,635	-95,236	0,052	0,010
-342,620	49,051	0,069	0,046
-341,606	369,982	-0,047	-0,068
-340,591	-138,225	-0,131	-0,010
-339,577	293,297	-0,036	-0,047
-338,562	-200,000	0,023	0,072
-337,548	71,287	0,077	0,057
-336,533	800,000	0,040	0,082
-335,518	-200,000	-0,005	0,038
-334,504	251,844	0,141	-0,172
-333,489	-200,000	-0,017	-0,131
-332,475	-75,959	-0,111	-0,028
-331,460	-200,000	-0,003	0,067
-330,445	-176,900	-0,022	-0,000
-329,431	159,797	-0,094	0,093
-328,416	-200,000	0,017	0,177
-327,402	-128,534	0,080	0,008
-326,387	-158,308	-0,221	0,009
-325,372	-47,227	-0,070	0,024
-324,358	47,418	-0,037	-0,025
-323,343	800,000	0,014	-0,037
-322,329	-148,107	0,164	-0,010
-321,314	-82,564	0,051	0,012
-320,299	-111,922	0,016	0,002
-319,285	-200,000	-0,007	-0,084
-318,270	243,275	-0,067	0,080
-317,256	-30,399	-0,074	0,030
-316,241	478,945	-0,058	-0,094
-315,226	-200,000	-0,002	0,036
-314,212	-21,268	0,042	-0,018
-313,197	109,650	-0,080	-0,068
-312,183	344,537	0,047	-0,066
-311,168	800,000	0,031	-0,088
-310,153	81,271	-0,049	0,038
-309,139	-200,000	0,007	-0,028
-308,124	307,609	0,117	0,155
-307,110	605,504	-0,025	-0,044
-306,095	-200,000	-0,008	-0,036
-305,080	43,268	-0,042	0,028
-304,066	-200,000	-0,015	-0,063
-303,051	303,452	0,078	-0,103
-302,037	-90,341	-0,027	-0,005
-301,022	-77,997	0,079	0,019
-300,008	51,057	0,038	0,026
-298,993	762,250	-0,032	-0,063
-297,978	95,456	0,071	0,058
-296,964	-117,850	-0,089	-0,011
-295,949	-200,000	-0,028	-0,116
-294,935	-42,368	0,118	0,043
-293,920	73,112	0,123	-0,091
-292,905	800,000	0,023	-0,065
-291,891	199,861	-0,069	0,076
-290,876	78,892	-0,096	0,073
-289,862	102,427	-0,042	0,035
-288,847	-127,119	0,090	0,009
-287,832	-118,829	-0,073	-0,009
-286,818	122,928	-0,037	-0,033
-285,803	728,635	0,071	0,136
-284,789	800,000	-0,041	0,096
-283,774	403,864	-0,049	-0,074
-282,759	729,161	-0,024	-0,046
-281,745	-200,000	-0,009	-0,095
-280,730	156,713	-0,086	-0,085
-279,716	-200,000	-0,002	0,053
-278,701	-200,000	0,003	0,086
-277,686	417,638	0,057	0,088
-276,672	-105,393	-0,031	-0,005
-275,657	2,386	0,110	0,057
-274,643	-111,615	-0,116	0,017
-273,628	36,983	-0,050	-0,032
-272,613	-200,000	0,002	-0,035
-271,599	374,521	-0,023	0,034
-270,584	800,000	0,048	-0,145
-269,570	-115,200	-0,081	0,011
-268,555	33,610	-0,058	-0,036
-267,540	384,168	0,087	-0,128
-266,526	-51,249	-0,132	0,044
-265,511	-200,000	0,044	-0,169
-264,497	275,592	0,077	-0,097
-263,482	160,713	0,088	-0,088
-262,467	415,560	-0,029	0,045
-261,453	77,974	0,085	0,064
-260,438	222,620	0,034	-0,039
-259,424	37,445	-0,161	-0,101
-258,409	-55,194	-0,064	0,020
-257,395	63,115	0,047	-0,034
-256,380	468,346	0,050	0,081
-255,365	101,578	0,067	-0,056
-254,351	-180,210	-0,035	-0,001
-253,336	179,535	0,057	-0,059
-252,322	-78,635	0,084	0,020
-251,307	-28,721	-0,140	-0,057
-250,292	114,794	0,039	-0,034
-249,278	-200,000	0,014	-0,098
-248,263	-200,000	-0,022	0,115
-247,249	-200,000	-0,015	-0,068
-246,234	288,322	-0,063	0,082
-245,219	-16,828	-0,077	-0,035
-244,205	-200,000	0,021	0,081
-243,190	202,320	0,069	-0,076
-242,176	315,868	0,107	0,144
-241,161	800,000	-0,026	0,053
-240,146	800,000	-0,065	0,178
-239,132	43,214	-0,060	-0,039
-238,117	-123,121	-0,033	-0,004
-237,103	135,637	-0,087	-0,081
-236,088	52,076	-0,056	0,038
-235,073	101,851	0,103	0,085
-234,059	235,592	0,049	0,058
-233,044	-124,392	0,064	0,007
-232,030	-12,174	0,103	0,048
-231,015	-200,000	0,019	0,108
-230,000	-200,000	-0,015	0,083
-228,986	-200,000	-0,028	0,126
-227,971	-200,000	-0,004	0,025
-226,957	800,000	0,069	0,157
-225,942	767,265	-0,034	-0,065
-224,927	29,246	0,075	0,045
-223,913	337,845	-0,024	-0,033
-222,898	800,000	0,049	0,103
-221,884	-200,000	-0,006	-0,083
-220,869	-200,000	0,016	-0,082
-219,855	-0,812	-0,082	0,041
-218,840	-122,471	0,110	-0,013
-217,825	-200,000	0,008	0,073
-216,811	-76,573	-0,046	-0,012
-215,796	512,219	0,030	-0,049
-214,782	284,085	-0,032	0,042
-213,767	-200,000	-0,046	0,165
-212,752	800,000	0,025	0,074
-211,738	-51,770	0,085	-0,028
-210,723	-200,000	-0,043	0,245
-209,709	-55,476	-0,157	0,050
-208,694	267,803	0,063	-0,078
-207,679	-4,375	-0,130	0,064
-206,665	65,412	0,183	0,131
-205,650	169,750	0,108	0,110
-204,636	-200,000	-0,064	0,243
-203,621	-198,240	-0,126	-0,001
-202,606	29,444	0,135	-0,081
-201,592	-12,392	-0,188	0,087
-200,577	48,465	-0,082	-0,054
-199,563	-200,000	0,009	0,128
-198,548	-189,967	0,146	-0,001
-197,533	-200,000	-0,027	0,128
-196,519	203,325	-0,095	0,104
-195,504	10,522	0,090	-0,049
-194,490	-200,000	-0,029	-0,094
-193,475	800,000	0,004	-0,011
-192,460	108,563	-0,068	0,058
-191,446	580,979	-0,030	0,052
-190,431	-135,817	-0,029	-0,002
-189,417	-200,000	0,034	-0,137
-188,402	164,937	0,063	-0,063
-187,387	-111,395	-0,204	-0,029
-186,373	800,000	0,034	0,084
-185,358	-200,000	0,025	-0,141
-184,344	-126,157	0,050	0,005
-183,329	-48,260	-0,073	-0,025
-182,315	-200,000	-0,010	0,064
-181,300	63,257	0,085	0,060
-180,285	160,245	-0,229	-0,227
-179,271	391,242	-0,017	-0,025
-178,256	-56,450	-0,129	0,040
-177,242	-200,000	0,001	-0,015
-176,227	104,127	-0,045	-0,037
-175,212	7,188	-0,091	0,048
-174,198	-59,881	-0,080	0,024
-173,183	230,713	-0,056	-0,065
-172,169	152,964	0,064	0,062
-171,154	287,955	0,079	-0,102
-170,139	-200,000	0,001	0,037
-169,125	290,429	0,072	0,092
-168,110	544,165	0,074	0,126
-167,096	-200,000	-0,017	-0,131
-166,081	431,728	-0,064	0,099
-165,066	159,410	-0,073	0,072
-164,052	767,321	0,025	-0,048
-163,037	-200,000	0,005	0,019
-162,023	-200,000	0,014	0,209
-161,008	800,000	0,079	0,166
-159,993	-112,819	0,038	-0,005
-158,979	-86,743	0,026	0,006
-157,964	515,440	0,029	0,049
-156,950	504,193	0,024	0,040
-155,935	-60,963	0,064	-0,019
-154,920	-141,639	-0,106	0,007
-153,906	341,402	0,072	-0,101
-152,891	32,515	0,097	0,059
-151,877	21,963	-0,056	-0,032
-150,862	800,000	0,052	-0,145
-149,847	800,000	0,007	0,014
-148,833	-200,000	-0,004	-0,017
-147,818	-200,000	-0,005	0,065
-146,804	-200,000	0,044	0,241
-145,789	-200,000	0,009	-0,089
-144,775	-102,806	-0,189	-0,032
-143,760	-200,000	-0,006	0,125
-142,745	101,262	-0,127	-0,105
-141,731	616,074	0,042	-0,074
-140,716	-42,781	-0,080	-0,029
-139,702	548,918	0,037	0,062
-138,687	197,888	0,052	0,056
-137,672	800,000	-0,037	0,091
-136,658	-32,163	-0,084	0,033
-135,643	21,443	0,036	0,020
-134,629	-75,145	0,069	-0,017
-133,614	-200,000	0,021	0,087
-132,599	-200,000	0,007	-0,147
-131,585	56,121	-0,049	0,034
-130,570	652,678	0,035	-0,063
-129,556	137,184	-0,060	-0,055
-128,541	257,375	-0,118	-0,144
-127,526	-27,644	-0,142	-0,058
-126,512	800,000	0,066	0,161
-125,497	800,000	-0,073	0,166
-124,483	-118,947	0,035	-0,004
-123,468	-153,232	-0,154	0,008
-122,453	356,852	-0,069	-0,097
-121,439	118,494	0,088	-0,077
-120,424	-67,850	0,095	-0,026
-119,410	-97,657	0,124	0,023
-118,395	-44,903	0,065	-0,023
-117,380	-107,318	-0,094	0,015
-116,366	800,000	0,041	-0,084
-115,351	126,949	-0,139	-0,124
-114,337	800,000	-0,086	-0,173
-113,322	166,459	0,047	-0,047
-112,307	-34,791	0,140	0,054
-111,293	-200,000	0,045	0,160
-110,278	-103,463	-0,059	0,010
-109,264	9,985	0,042	-0,023
-108,249	-114,767	-0,134	-0,018
-107,234	-139,995	0,156	0,012
-106,220	389,329	-0,069	0,101
-105,205	-110,728	0,098	0,014
-104,191	-200,000	0,035	0,177
-103,176	-200,000	-0,001	0,120
-102,162	755,667	-0,032	-0,061
-101,147	75,735	-0,082	0,061
-100,132	114,870	-0,043	0,037
-99,118	-200,000	-0,018	0,090
-98,103	-200,000	-0,019	-0,068
-97,089	76,495	-0,132	0,099
-96,074	-200,000	-0,013	0,055
-95,059	91,546	0,132	0,105
-94,045	542,455	-0,117	0,198
-93,030	-200,000	-0,005	0,108
-92,016	70,169	0,034	-0,025
-91,001	-22,774	0,063	-0,027
-89,986	800,000	-0,008	-0,021
-88,972	-37,168	-0,031	0,012
-87,957	-68,782	-0,146	0,040
-86,943	-200,000	-0,006	0,156
-85,928	166,994	0,053	0,054
-84,913	288,139	-0,096	-0,123
-83,899	-33,307	0,055	0,021
-82,884	-200,000	0,017	-0,095
-81,870	-11,470	-0,132	0,061
-80,855	-200,000	0,000	0,021
-79,840	59,611	0,063	-0,044
-78,826	76,627	-0,113	-0,085
-77,811	-135,834	-0,096	0,008
-76,797	-200,000	0,018	0,087
-75,782	-18,329	0,121	0,053
-74,767	32,268	0,088	0,053
-73,753	476,193	-0,011	-0,017
-72,738	582,214	0,080	-0,139
-71,724	-53,750	-0,101	0,033
-70,709	-200,000	-0,002	-0,098
-69,694	-46,680	-0,057	0,020
-68,680	427,049	0,051	-0,078
-67,665	51,959	0,053	0,035
-66,651	112,325	0,058	0,050
-65,636	800,000	0,024	0,053
-64,622	800,000	-0,040	0,108
-63,607	-5,958	-0,187	0,090
-62,592	-200,000	-0,021	-0,143
-61,578	800,000	-0,054	-0,112
-60,563	224,173	-0,006	0,006
-59,549	273,203	-0,064	0,080
-58,534	33,083	-1,854	-1,133
-57,519	527,580	-1,245	-2,081
-56,505	-200,000	-0,410	-4,432
-55,490	424,403	0,974	1,485
-54,476	800,000	5,071	11,150
-53,461	-200,000	20,737	328,443
-52,446	800,000	754,873	2318,180
-51,432	550,905	1660,331	2824,227
-50,417	73,780	1664,171	1230,469
-49,403	19,007	1537,201	867,823
-48,388	13,026	1459,930	795,259
-47,373	18,910	1450,690	818,455
-46,359	15,966	1440,273	798,527
-45,344	11,295	1435,746	773,731
-44,330	11,249	1433,889	772,483
-43,315	11,203	1432,175	771,311
-42,300	11,191	1430,391	770,263
-41,286	11,277	1428,903	769,839
-40,271	11,229	1427,815	768,991
-39,257	11,177	1426,821	768,179
-38,242	11,248	1425,356	767,697
-37,227	11,275	1424,041	767,085
-36,213	11,227	1423,089	766,318
-35,198	11,261	1421,926	765,819
-34,184	11,298	1421,122	765,533
-33,169	11,255	1419,465	764,408
-32,154	11,309	1418,464	764,092
-31,140	11,323	1417,301	763,498
-30,125	11,340	1416,123	762,916
-29,111	11,297	1415,083	762,124
-28,096	11,259	1414,124	761,396
-27,082	11,228	1412,888	760,555
-26,067	11,229	1411,644	759,861
-25,052	11,206	1410,883	759,312
-24,038	11,248	1409,787	758,892
-23,023	11,224	1408,846	758,242
-22,009	11,213	1407,822	757,610
-20,994	11,187	1406,792	756,904
-19,979	11,178	1405,874	756,335
-18,965	11,178	1404,972	755,820
-17,950	11,166	1404,097	755,263
-16,936	11,151	1403,340	754,759
-15,921	11,062	1402,270	753,737
-14,906	11,102	1401,308	753,375
-13,892	11,097	1400,554	752,916
-12,877	11,118	1399,645	752,499
-11,863	11,130	1398,459	751,886
-10,848	11,114	1397,699	751,371
-9,833	11,076	1396,788	750,676
-8,819	11,025	1396,000	749,986
-7,804	11,016	1395,187	749,477
-6,790	11,032	1394,065	748,922
-5,775	11,049	1393,027	748,410
-4,760	11,062	1392,172	747,985
-3,746	11,112	1390,967	747,536
-2,731	11,038	1390,501	746,916
-1,717	10,999	1389,651	746,250
-0,702	11,031	1387,588	745,259
0,313	14,986	1301,727	717,289
1,327	31,196	693,611	419,109
2,342	48,593	120,245	79,388
3,356	-0,648	16,555	8,257
4,371	14,486	3,338	1,833
5,386	24,502	0,925	0,539
6,400	-200,000	0,098	0,353
7,415	-62,588	-0,321	-0,093
8,429	40,302	-0,396	-0,251
9,444	33,355	-0,340	-0,208
10,459	8,181	-0,246	-0,130
11,473	40,388	-0,260	-0,165
12,488	-51,318	-0,308	-0,101
13,502	-75,632	-0,432	-0,107
14,517	-6,343	-0,244	-0,117
15,531	-21,622	-0,443	-0,190
16,546	148,957	-0,254	-0,242
17,561	49,923	-0,391	-0,260
18,575	-69,548	-0,178	-0,048
19,590	187,321	-0,201	-0,212
20,604	108,522	-0,246	-0,207
21,619	81,181	-0,436	-0,331
22,634	32,338	-0,566	-0,343
23,648	110,638	-0,358	-0,304
24,663	234,541	-0,276	-0,321
25,677	75,561	-0,422	-0,313
26,692	-39,180	-0,331	-0,122
27,707	-49,020	-0,338	-0,113
28,721	-0,228	-0,317	-0,158
29,736	139,261	-0,363	-0,336
30,750	275,986	-0,305	-0,382
31,765	19,749	-0,457	-0,259
32,780	60,423	-0,398	-0,277
33,794	112,309	-0,393	-0,334
34,809	13,805	-0,508	-0,277
35,823	124,178	-0,342	-0,303
36,838	84,344	-0,433	-0,333
37,853	179,182	-0,268	-0,276
38,867	121,129	-0,417	-0,365
39,882	116,507	-0,326	-0,281
40,896	92,848	-0,241	-0,192
41,911	73,399	-0,442	-0,325
42,926	180,346	-0,374	-0,386
43,940	114,776	-0,389	-0,334
44,955	45,985	-0,343	-0,223
45,969	-16,553	-0,250	-0,111
46,984	14,794	-0,418	-0,229
47,999	43,178	-0,257	-0,165
49,013	30,003	-0,363	-0,217
50,028	-5,360	-0,363	-0,175
51,042	55,909	-0,308	-0,210
52,057	99,763	-0,375	-0,305
53,071	177,703	-0,290	-0,297
54,086	201,232	-0,251	-0,271
55,101	62,795	-0,449	-0,315
56,115	245,990	-0,286	-0,339
57,130	-32,136	-0,343	-0,134
58,144	113,833	-0,358	-0,305
59,159	-67,374	-0,408	-0,112
60,174	43,787	-0,351	-0,225
61,188	6,902	-0,357	-0,186
62,203	30,841	-0,270	-0,162
63,217	29,608	-0,309	-0,184
64,232	14,337	-0,378	-0,206
65,247	38,260	-0,390	-0,243
66,261	158,829	-0,329	-0,321
67,276	62,196	-0,406	-0,284
68,290	124,965	-0,188	-0,166
69,305	-21,815	-0,393	-0,167
70,320	66,633	-0,292	-0,208
71,334	-45,813	-0,387	-0,133
72,349	16,367	-0,243	-0,134
73,363	5,341	-0,334	-0,172
74,378	1,488	-0,410	-0,206
75,393	140,481	-0,206	-0,191
76,407	68,721	-0,262	-0,188
77,422	-18,500	-0,281	-0,122
78,436	-92,346	-0,272	-0,053
79,451	-55,228	-0,426	-0,134
80,466	210,235	-0,195	-0,214
81,480	46,999	-0,357	-0,232
82,495	239,883	-0,298	-0,348
83,509	-145,362	-0,452	-0,028
84,524	121,796	-0,234	-0,204
85,539	-88,158	-0,279	-0,058
86,553	390,951	-0,208	-0,303
87,568	180,847	-0,300	-0,309
88,582	255,454	-0,307	-0,370
89,597	312,525	-0,145	-0,192
90,611	-65,302	-0,376	-0,105
91,626	34,154	-0,258	-0,157
92,641	-25,485	-0,199	-0,082
93,655	111,514	-0,301	-0,254
94,670	167,350	-0,359	-0,357
95,684	320,483	-0,233	-0,310
96,699	74,697	-0,241	-0,177
97,714	19,332	-0,297	-0,167
98,728	-137,693	-0,209	-0,016
99,743	-97,095	-0,299	-0,054
100,757	8,569	-0,277	-0,145
101,772	4,831	-0,328	-0,168
102,787	162,346	-0,282	-0,277
103,801	229,157	-0,252	-0,287
104,816	11,023	-0,308	-0,164
105,830	74,186	-0,229	-0,168
106,845	18,311	-0,164	-0,091
107,860	50,287	-0,319	-0,210
108,874	130,381	-0,310	-0,277
109,889	197,450	-0,200	-0,214
110,903	80,021	-0,345	-0,259
111,918	-53,572	-0,180	-0,057
112,933	241,225	-0,137	-0,161
113,947	8,345	-0,167	-0,088
114,962	-11,789	-0,225	-0,103
115,976	121,655	-0,225	-0,196
116,991	245,274	-0,150	-0,177
118,006	399,186	-0,163	-0,240
119,020	67,655	-0,334	-0,238
120,035	-50,091	-0,307	-0,101
121,049	-114,140	-0,257	-0,034
122,064	-60,710	-0,245	-0,072
123,079	-18,902	-0,377	-0,163
124,093	-71,683	-0,290	-0,075
125,108	169,980	-0,214	-0,214
126,122	42,776	-0,285	-0,181
127,137	-35,898	-0,173	-0,065
128,151	-52,761	-0,182	-0,058
129,166	-86,581	-0,369	-0,078
130,181	27,489	-0,258	-0,151
131,195	203,196	-0,225	-0,243
132,210	47,041	-0,262	-0,169
133,224	16,828	-0,363	-0,200
134,239	41,982	-0,199	-0,126
135,254	100,387	-0,153	-0,123
136,268	126,801	-0,259	-0,229
137,283	68,653	-0,259	-0,185
138,297	308,164	-0,208	-0,272
139,312	159,139	-0,215	-0,208
140,327	179,412	-0,236	-0,241
141,341	22,054	-0,240	-0,136
142,356	-200,000	-0,090	-0,276
143,370	408,044	-0,236	-0,349
144,385	286,801	-0,204	-0,257
145,400	7,225	-0,269	-0,140
146,414	17,375	-0,289	-0,159
147,429	160,812	-0,234	-0,228
148,443	-2,282	-0,281	-0,137
149,458	-20,531	-0,304	-0,130
150,473	105,777	-0,198	-0,163
151,487	-43,111	-0,178	-0,062
152,502	57,035	-0,313	-0,212
153,516	303,193	-0,176	-0,228
154,531	80,121	-0,274	-0,205
155,546	168,586	-0,249	-0,247
156,560	192,956	-0,157	-0,166
157,575	-101,794	-0,292	-0,049
158,589	-41,721	-0,134	-0,048
159,604	-79,462	-0,179	-0,042
160,619	-109,611	-0,259	-0,038
161,633	-118,819	-0,197	-0,024
162,648	79,411	-0,206	-0,153
163,662	217,387	-0,172	-0,191
164,677	5,282	-0,216	-0,111
165,692	238,545	-0,203	-0,236
166,706	-101,611	-0,287	-0,048
167,721	150,519	-0,244	-0,231
168,735	16,940	-0,346	-0,190
169,750	69,387	-0,247	-0,176
170,764	200,564	-0,248	-0,265
171,779	170,480	-0,191	-0,190
172,794	91,111	-0,236	-0,184
173,808	154,326	-0,257	-0,245
174,823	168,352	-0,310	-0,307
175,837	274,638	-0,251	-0,309
176,852	16,988	-0,265	-0,146
177,867	742,171	-0,118	-0,221
178,881	269,117	-0,196	-0,239
179,896	46,498	-0,174	-0,112
180,910	88,581	-0,167	-0,129
181,925	119,784	-0,217	-0,187
182,940	221,374	-0,104	-0,116
183,954	-20,224	-0,280	-0,119
184,969	-94,434	-0,244	-0,046
185,983	-3,515	-0,109	-0,053
186,998	25,023	-0,169	-0,097
188,013	-63,361	-0,316	-0,090
189,027	36,550	-0,224	-0,137
190,042	-19,554	-0,282	-0,121
191,056	-150,848	-0,346	-0,018
192,071	69,231	-0,214	-0,153
193,086	74,063	-0,141	-0,103
194,100	-136,975	-0,135	0,011
195,115	42,536	-0,215	-0,135
196,129	65,079	-0,265	-0,185
197,144	58,892	-0,168	-0,114
198,159	-76,370	-0,217	-0,053
199,173	-44,446	-0,176	-0,061
200,188	-19,435	-0,141	-0,060
201,202	-118,851	-0,171	-0,021
202,217	-1,800	-0,048	-0,023
203,232	-17,228	-0,200	-0,087
204,246	96,652	-0,167	-0,132
205,261	171,387	-0,152	-0,152
206,275	-43,982	-0,267	-0,093
207,290	800,000	-0,063	-0,128
208,304	-63,012	-0,209	-0,060
209,319	116,745	-0,202	-0,171
210,334	525,090	-0,142	-0,232
211,348	493,887	-0,188	-0,300
212,363	-8,718	-0,180	-0,084
213,377	594,021	-0,133	-0,228
214,392	98,151	-0,130	-0,103
215,407	-34,244	-0,323	-0,122
216,421	319,244	-0,084	-0,110
217,436	247,632	-0,092	-0,108
218,450	296,928	-0,128	-0,163
219,465	110,598	-0,189	-0,157
220,480	800,000	-0,129	-0,291
221,494	448,898	-0,128	-0,195
222,509	-20,639	-0,203	-0,086
223,523	53,025	-0,240	-0,159
224,538	-106,489	-0,191	0,029
225,553	396,287	-0,184	-0,266
226,567	196,855	-0,193	-0,204
227,582	-200,000	0,017	-0,182
228,596	133,898	-0,132	-0,118
229,611	-170,980	-0,194	0,004
230,626	163,943	-0,108	-0,105
231,640	233,563	-0,186	-0,212
232,655	108,945	-0,176	-0,146
233,669	43,359	-0,189	-0,119
234,684	515,962	-0,156	-0,254
235,699	751,987	-0,090	-0,169
236,713	-146,539	-0,141	0,008
237,728	23,359	-0,193	-0,110
238,742	63,683	-0,128	-0,089
239,757	76,953	-0,175	-0,128
240,772	22,941	-0,156	-0,088
241,786	121,767	-0,200	-0,172
242,801	663,434	-0,087	-0,155
243,815	-200,000	-0,044	-0,171
244,830	193,181	-0,162	-0,169
245,844	364,344	-0,128	-0,179
246,859	140,552	-0,086	-0,078
247,874	302,998	-0,146	-0,187
248,888	24,119	-0,224	-0,127
249,903	512,559	-0,155	-0,250
250,917	-200,000	0,030	-0,266
251,932	128,522	-0,122	-0,107
252,947	-114,911	-0,074	-0,010
253,961	800,000	-0,059	-0,160
254,976	110,746	-0,210	-0,175
255,990	-3,120	-0,248	-0,119
257,005	13,861	-0,227	-0,121
258,020	186,585	-0,116	-0,120
259,034	-175,730	-0,115	0,002
260,049	730,720	-0,108	-0,200
261,063	237,950	-0,170	-0,195
262,078	-18,449	-0,308	-0,132
263,093	42,377	-0,180	-0,113
264,107	-62,083	-0,311	-0,089
265,122	55,365	-0,088	-0,059
266,136	490,942	-0,092	-0,145
267,151	-200,000	-0,057	-0,190
268,166	327,281	-0,145	-0,192
269,180	-48,436	-0,194	-0,064
270,195	527,750	-0,153	-0,250
271,209	4,784	-0,126	-0,064
272,224	-30,142	-0,242	-0,094
273,239	67,188	-0,105	-0,074
274,253	235,556	-0,142	-0,162
275,268	-200,000	-0,058	-0,295
276,282	-13,521	-0,158	-0,070
277,297	800,000	-0,079	-0,207
278,312	248,330	-0,063	-0,073
279,326	183,482	-0,148	-0,150
280,341	148,142	-0,189	-0,175
281,355	-5,436	-0,147	-0,069
282,370	103,206	-0,105	-0,085
283,384	48,079	-0,240	-0,154
284,399	397,992	-0,143	-0,206
285,414	43,421	-0,174	-0,109
286,428	375,635	-0,195	-0,275
287,443	800,000	-0,077	-0,164
288,457	5,668	-0,131	-0,066
289,472	-70,196	-0,256	-0,066
290,487	16,615	-0,164	-0,089
291,501	35,719	-0,262	-0,158
292,516	-11,114	-0,264	-0,120
293,530	-25,244	-0,164	-0,067
294,545	-144,684	-0,134	0,008
295,560	-200,000	-0,025	-0,185
296,574	-73,329	-0,193	-0,048
297,589	-92,380	-0,240	-0,046
298,603	-200,000	-0,065	-0,354
299,618	223,774	-0,203	-0,226
300,633	166,038	-0,162	-0,158
301,647	-21,183	-0,182	-0,076
302,662	301,529	-0,117	-0,150
303,676	-52,348	-0,166	-0,053
304,691	-200,000	-0,002	0,012
305,706	572,452	-0,104	-0,175
306,720	437,829	-0,137	-0,206
307,735	7,513	-0,170	-0,087
308,749	800,000	-0,048	-0,129
309,764	-76,275	-0,267	0,064
310,779	43,066	-0,086	0,054
311,793	683,701	-0,062	-0,112
312,808	-191,294	-0,182	0,001
313,822	-168,004	-0,289	0,008
314,837	-29,363	-0,218	0,085
315,852	800,000	-0,026	-0,054
316,866	-54,480	-0,098	-0,030
317,881	-56,287	-0,265	-0,080
318,895	-68,001	-0,160	-0,043
319,910	-78,757	-0,143	0,033
320,925	57,980	-0,158	-0,106
321,939	281,709	-0,177	-0,217
322,954	-52,403	-0,061	-0,019
323,968	-104,091	-0,130	-0,021
324,983	-19,340	-0,129	-0,055
325,997	-2,606	-0,128	-0,061
327,012	17,815	-0,209	-0,114
328,027	132,091	-0,171	-0,151
329,041	-24,345	-0,178	-0,073
330,056	800,000	-0,084	-0,182
331,070	412,314	-0,027	-0,040
332,085	-124,373	-0,206	-0,022
333,100	-200,000	0,034	-0,235
334,114	171,155	-0,170	-0,168
335,129	156,303	-0,188	-0,178
336,143	-72,638	-0,202	-0,051
337,158	326,289	-0,132	-0,174
338,173	201,523	-0,039	-0,041
339,187	-74,924	-0,132	0,032
340,202	3,229	-0,184	0,092
341,216	-194,524	-0,255	0,001
342,231	-53,279	-0,152	-0,047
343,246	-200,000	0,003	-0,060
344,260	-200,000	-0,029	-0,189
345,275	144,965	-0,100	-0,092
346,289	-78,299	-0,144	-0,034
347,304	800,000	-0,086	-0,205
348,319	-78,656	-0,132	-0,031
349,333	-108,591	-0,251	-0,036
350,348	350,684	-0,170	-0,231
351,362	800,000	-0,075	-0,165
352,377	-123,108	-0,141	0,015
353,392	200,857	-0,144	-0,152
354,406	-81,709	-0,159	0,035
355,421	207,827	1308,180	1399,407
356,435	159,890	1468,096	1399,898
