DTS Sentinel unit serial number:	SN410029Multiplexer serial number:	ORYXHardware model number:	OX2-SRSoftware version number:	ORYX F/W v4,00 Oryx Data Collector v3.7.2.0data status	okinstallation	B3 Nyhavnadifferential loss correction	single-endedforward channel	channel 1reverse channel	N/Adate	2023/11/29time	03:17:30forward acquisition time	300,00reverse acquisition time	0,00gamma	499,1914k internal	0,3211k external	0,3211temperature offset calibration	1,0000default loss term (dB/km)	0,3820temperature slope calibration	1,0000multiplexer offset coefficient	1,0000multiplexer slope coefficient	1,0000fibre end	0,00T internal ref (°C)	9,53T ext. ref 1 (°C)	-5,83T ext. ref 2 (°C)	-5,97length (m)	temperature (°C)	Stokes	anti-Stokes-744,400	800,000	-0,127	-0,343
-743,385	800,000	0,034	0,097
-742,371	-10,555	-0,168	-0,080
-741,356	-200,000	0,006	0,419
-740,342	800,000	0,039	-0,113
-739,327	507,698	-0,124	0,210
-738,312	82,095	-0,278	-0,218
-737,298	-200,000	-0,042	0,307
-736,283	108,449	-0,210	-0,182
-735,269	-200,000	0,048	0,223
-734,254	175,615	-0,161	-0,169
-733,239	31,623	-0,262	0,163
-732,225	-200,000	-0,013	-0,233
-731,210	746,132	0,089	0,175
-730,196	350,821	-0,019	-0,028
-729,181	-115,592	-0,099	0,013
-728,167	612,155	-0,097	-0,177
-727,152	800,000	0,045	0,129
-726,137	-188,359	-0,096	0,001
-725,123	-112,277	-0,153	0,022
-724,108	56,843	0,044	-0,031
-723,094	-101,555	0,061	0,011
-722,079	216,591	-0,096	-0,111
-721,064	800,000	-0,037	-0,078
-720,050	-11,534	0,109	-0,052
-719,035	209,259	-0,042	-0,048
-718,021	-56,176	-0,084	-0,027
-717,006	-170,267	-0,128	-0,003
-715,991	-200,000	-0,002	-0,158
-714,977	-136,085	-0,038	0,003
-713,962	14,137	0,170	-0,096
-712,948	19,916	-0,137	-0,080
-711,933	299,265	-0,040	0,054
-710,918	439,694	-0,031	-0,049
-709,904	100,619	-0,141	-0,119
-708,889	800,000	-0,032	-0,076
-707,875	32,135	-0,045	0,028
-706,860	800,000	0,044	0,103
-705,845	-21,250	0,110	-0,049
-704,831	800,000	-0,027	0,074
-703,816	-99,944	-0,102	-0,018
-702,802	-118,893	0,130	-0,016
-701,787	82,773	-0,041	0,032
-700,772	178,903	-0,050	-0,053
-699,758	800,000	-0,083	-0,225
-698,743	640,752	-0,038	-0,071
-697,729	800,000	0,023	0,065
-696,714	154,586	-0,079	0,078
-695,699	498,169	0,040	0,067
-694,685	800,000	-0,040	-0,084
-693,670	-79,687	-0,024	-0,006
-692,656	800,000	0,023	-0,068
-691,641	-200,000	-0,010	0,111
-690,627	-200,000	0,030	0,186
-689,612	-61,520	0,001	0,000
-688,597	-159,798	-0,110	-0,004
-687,583	-22,089	-0,122	0,053
-686,568	-200,000	0,007	0,091
-685,554	452,480	-0,040	-0,064
-684,539	-200,000	0,037	-0,130
-683,524	31,991	0,175	-0,109
-682,510	-93,879	-0,101	-0,020
-681,495	155,391	0,020	0,020
-680,481	213,080	-0,161	-0,184
-679,466	-200,000	0,010	0,040
-678,451	77,814	-0,027	0,021
-677,437	195,747	0,007	0,007
-676,422	-200,000	-0,008	-0,030
-675,408	-135,596	0,031	-0,003
-674,393	-200,000	0,007	-0,073
-673,378	-3,536	-0,207	-0,104
-672,364	34,906	-0,042	-0,027
-671,349	7,832	0,113	0,061
-670,335	-200,000	-0,002	0,058
-669,320	91,417	0,133	0,108
-668,305	30,920	-0,070	-0,043
-667,291	362,240	-0,089	0,130
-666,276	131,579	-0,019	-0,018
-665,262	16,815	-0,095	-0,054
-664,247	54,887	-0,074	0,051
-663,232	-136,286	0,064	-0,005
-662,218	-123,133	0,050	0,006
-661,203	-200,000	-0,010	0,055
-660,189	-200,000	-0,032	-0,104
-659,174	284,305	0,061	-0,079
-658,159	80,870	-0,131	0,102
-657,145	508,809	0,009	-0,015
-656,130	-9,722	-0,103	-0,049
-655,116	154,824	-0,079	0,078
-654,101	132,833	0,084	0,079
-653,086	-51,578	-0,098	0,033
-652,072	-200,000	-0,005	-0,035
-651,057	-100,338	-0,088	-0,016
-650,043	-200,000	-0,013	-0,068
-649,028	91,442	0,026	0,021
-648,014	-106,764	-0,046	-0,007
-646,999	-44,683	0,051	0,018
-645,984	-200,000	-0,009	-0,050
-644,970	509,620	-0,108	-0,182
-643,955	-200,000	0,010	-0,220
-642,941	-194,178	-0,247	-0,001
-641,926	-200,000	0,027	-0,107
-640,911	32,797	0,041	-0,025
-639,897	362,775	0,072	0,105
-638,882	633,023	-0,025	0,047
-637,868	51,244	-0,099	-0,068
-636,853	317,787	-0,026	0,035
-635,838	-9,666	-0,048	0,023
-634,824	79,551	-0,080	-0,062
-633,809	-35,526	-0,112	0,044
-632,795	-200,000	0,027	0,139
-631,780	-200,000	-0,002	0,077
-630,765	16,779	0,049	-0,028
-629,751	280,159	0,083	-0,108
-628,736	490,826	-0,088	-0,146
-627,722	-93,288	0,049	0,010
-626,707	-200,000	0,022	-0,157
-625,692	352,078	0,114	0,163
-624,678	8,191	0,024	-0,013
-623,663	-30,914	-0,042	0,017
-622,649	-89,352	-0,089	-0,019
-621,634	3,714	-0,056	-0,030
-620,619	-150,579	-0,151	0,008
-619,605	344,634	-0,013	0,019
-618,590	-181,261	0,102	-0,001
-617,576	35,821	-0,012	-0,008
-616,561	247,073	-0,036	0,044
-615,546	122,390	-0,120	-0,108
-614,532	314,488	-0,062	-0,084
-613,517	-200,000	0,011	-0,068
-612,503	188,998	0,062	-0,067
-611,488	800,000	0,064	0,128
-610,474	-200,000	-0,010	-0,126
-609,459	-50,406	-0,026	0,009
-608,444	-113,280	-0,145	0,020
-607,430	395,630	0,024	0,036
-606,415	57,102	0,102	-0,072
-605,401	-200,000	0,007	0,105
-604,386	800,000	-0,061	0,167
-603,371	156,079	0,144	0,143
-602,357	333,242	0,071	0,100
-601,342	800,000	0,020	0,057
-600,328	800,000	0,096	0,196
-599,313	-200,000	0,004	-0,124
-598,298	252,617	0,063	-0,077
-597,284	-128,189	0,042	0,004
-596,269	-200,000	-0,008	0,032
-595,255	739,761	-0,012	0,023
-594,240	27,255	-0,021	0,013
-593,225	680,748	0,068	-0,128
-592,211	800,000	-0,022	0,058
-591,196	-200,000	-0,014	-0,139
-590,182	800,000	0,066	0,147
-589,167	800,000	-0,013	-0,035
-588,152	-114,831	-0,067	0,009
-587,138	80,388	-0,074	-0,057
-586,123	91,198	0,080	-0,065
-585,109	164,727	-0,040	-0,041
-584,094	-200,000	-0,036	0,138
-583,079	-10,979	-0,204	0,097
-582,065	-200,000	0,027	-0,129
-581,050	279,818	-0,057	-0,073
-580,036	-200,000	-0,027	0,139
-579,021	26,298	0,146	-0,088
-578,006	561,992	0,023	0,040
-576,992	128,327	-0,070	-0,064
-575,977	-82,889	-0,087	0,020
-574,963	800,000	0,053	0,123
-573,948	391,763	0,054	0,082
-572,934	-200,000	0,037	0,148
-571,919	-101,802	-0,099	0,017
-570,904	-127,265	0,104	-0,011
-569,890	342,550	-0,031	-0,044
-568,875	-200,000	-0,039	-0,130
-567,861	522,117	0,108	-0,183
-566,846	-200,000	-0,040	0,269
-565,831	24,124	-0,111	0,066
-564,817	800,000	-0,030	0,093
-563,802	-42,848	0,046	-0,017
-562,788	-93,131	-0,177	0,035
-561,773	-115,451	0,156	0,021
-560,758	566,204	-0,075	0,131
-559,744	-200,000	-0,000	0,027
-558,729	-116,758	-0,061	0,008
-557,715	-200,000	-0,014	-0,158
-556,700	-79,029	-0,146	-0,035
-555,685	389,235	0,031	-0,046
-554,671	38,426	-0,052	0,033
-553,656	-200,000	0,007	-0,043
-552,642	-89,886	0,019	-0,004
-551,627	-200,000	0,026	0,116
-550,612	102,764	-0,037	-0,031
-549,598	151,282	-0,029	-0,028
-548,583	-200,000	0,012	-0,123
-547,569	-200,000	0,026	-0,082
-546,554	-200,000	0,007	0,072
-545,539	-200,000	-0,006	0,024
-544,525	-114,073	0,046	-0,006
-543,510	440,780	-0,026	0,042
-542,496	-76,454	0,021	-0,005
-541,481	758,877	-0,069	-0,135
-540,466	-200,000	0,006	-0,062
-539,452	87,117	0,102	0,081
-538,437	53,637	0,081	0,056
-537,423	-200,000	-0,012	0,091
-536,408	213,189	-0,021	0,024
-535,393	195,209	-0,041	-0,045
-534,379	-35,111	-0,026	-0,010
-533,364	-113,381	-0,072	0,010
-532,350	368,542	0,123	0,180
-531,335	75,625	-0,034	0,026
-530,321	100,309	0,093	0,078
-529,306	-61,003	-0,009	0,003
-528,291	-68,219	-0,107	-0,030
-527,277	224,445	0,085	-0,098
-526,262	-141,957	-0,124	0,009
-525,248	581,603	-0,031	0,056
-524,233	13,836	0,083	0,046
-523,218	-77,379	0,101	0,025
-522,204	-200,000	0,001	0,014
-521,189	-11,964	-0,097	-0,046
-520,175	800,000	-0,020	-0,042
-519,160	-200,000	0,001	-0,122
-518,145	20,945	0,034	-0,020
-517,131	284,242	0,107	0,139
-516,116	800,000	0,008	-0,016
-515,102	-200,000	-0,007	-0,037
-514,087	-200,000	-0,000	0,010
-513,072	800,000	-0,084	-0,191
-512,058	111,262	-0,038	-0,033
-511,043	-200,000	-0,013	0,060
-510,029	-131,420	0,042	0,004
-509,014	-13,014	-0,041	-0,019
-507,999	-200,000	0,029	0,096
-506,985	-200,000	-0,002	-0,021
-505,970	23,855	-0,086	-0,051
-504,956	-11,971	-0,097	0,046
-503,941	32,161	0,026	-0,016
-502,926	-102,228	0,034	-0,006
-501,912	-20,251	0,105	0,046
-500,897	192,108	0,040	0,043
-499,883	40,117	0,109	-0,070
-498,868	-117,221	-0,145	0,019
-497,853	88,778	-0,081	-0,065
-496,839	270,575	0,065	0,083
-495,824	-82,572	-0,076	0,018
-494,810	800,000	0,060	0,135
-493,795	131,119	0,139	0,129
-492,781	99,863	-0,049	0,041
-491,766	504,788	-0,090	-0,149
-490,751	-200,000	0,014	0,150
-489,737	-24,738	-0,080	-0,034
-488,722	673,376	0,104	-0,195
-487,708	-52,644	-0,104	0,034
-486,693	-27,499	0,064	0,026
-485,678	121,107	0,025	0,022
-484,664	800,000	-0,008	-0,020
-483,649	629,748	-0,049	-0,090
-482,635	800,000	-0,033	-0,088
-481,620	434,102	-0,045	0,071
-480,605	800,000	0,020	0,043
-479,591	725,669	-0,039	0,075
-478,576	-73,831	-0,049	0,013
-477,562	-78,962	0,114	0,028
-476,547	210,646	-0,084	-0,095
-475,532	-200,000	0,006	-0,079
-474,518	414,421	0,065	0,099
-473,503	-32,681	-0,132	-0,052
-472,489	-200,000	-0,010	-0,147
-471,474	722,814	-0,049	0,095
-470,459	-2,030	-0,107	-0,054
-469,445	-83,362	-0,105	0,024
-468,430	-76,991	0,114	0,028
-467,416	40,879	0,092	0,059
-466,401	-200,000	-0,023	0,082
-465,386	-117,839	0,142	0,018
-464,372	240,934	-0,085	0,102
-463,357	51,137	0,021	-0,014
-462,343	726,029	-0,053	0,103
-461,328	800,000	0,056	-0,142
-460,313	800,000	-0,028	-0,077
-459,299	184,614	0,129	0,137
-458,284	61,622	0,067	-0,048
-457,270	-14,531	-0,080	-0,037
-456,255	-200,000	-0,001	0,024
-455,241	800,000	-0,019	-0,040
-454,226	-92,722	0,111	0,022
-453,211	46,150	0,044	0,029
-452,197	305,200	-0,056	0,075
-451,182	145,459	-0,021	0,021
-450,168	800,000	0,029	0,072
-449,153	-18,451	-0,098	-0,044
-448,138	-26,287	-0,049	-0,020
-447,124	-200,000	-0,009	-0,074
-446,109	-23,900	-0,016	-0,007
-445,095	562,117	0,036	0,063
-444,080	-200,000	-0,013	-0,131
-443,065	92,832	0,106	0,086
-442,051	-0,611	-0,071	-0,036
-441,036	-52,043	0,072	-0,024
-440,022	238,841	-0,026	-0,031
-439,007	-7,664	0,097	0,047
-437,992	-200,000	-0,030	0,197
-436,978	174,483	-0,018	0,019
-435,963	28,932	0,105	-0,063
-434,949	800,000	-0,021	0,043
-433,934	265,118	0,018	0,022
-432,919	-25,083	-0,210	-0,089
-431,905	-85,171	0,078	0,017
-430,890	34,679	0,062	-0,039
-429,876	-200,000	0,001	0,004
-428,861	106,861	0,136	0,115
-427,846	-48,653	-0,114	0,039
-426,832	-37,883	-0,074	0,028
-425,817	110,232	-0,108	0,093
-424,803	394,476	-0,032	0,049
-423,788	-200,000	0,014	0,073
-422,773	397,495	-0,063	0,094
-421,759	-200,000	-0,001	-0,098
-420,744	-161,796	-0,141	-0,005
-419,730	-99,374	-0,052	0,009
-418,715	63,339	0,030	0,021
-417,701	106,674	-0,107	-0,091
-416,686	800,000	0,041	-0,104
-415,671	89,699	0,070	0,056
-414,657	-200,000	-0,012	0,079
-413,642	219,330	-0,066	-0,076
-412,628	-200,000	-0,020	0,092
-411,613	-200,000	0,002	0,048
-410,598	-200,000	-0,009	0,080
-409,584	-200,000	0,016	0,130
-408,569	523,563	0,090	0,152
-407,555	-46,409	-0,184	-0,064
-406,540	411,780	0,025	0,038
-405,525	262,398	0,050	0,062
-404,511	-54,994	0,070	0,022
-403,496	-200,000	0,009	-0,037
-402,482	88,660	0,050	0,040
-401,467	799,032	0,046	0,091
-400,452	-200,000	0,007	0,048
-399,438	369,195	-0,057	0,083
-398,423	-148,386	-0,113	0,007
-397,409	-200,000	-0,004	-0,016
-396,394	-109,451	-0,083	-0,012
-395,379	-200,000	0,011	-0,039
-394,365	311,400	0,074	0,099
-393,350	800,000	-0,046	0,105
-392,336	605,631	0,038	-0,069
-391,321	143,272	0,089	-0,085
-390,306	800,000	-0,040	-0,087
-389,292	-95,510	-0,052	0,010
-388,277	-200,000	0,002	-0,086
-387,263	214,656	-0,073	-0,083
-386,248	18,280	0,123	-0,070
-385,233	-200,000	0,018	-0,077
-384,219	800,000	0,043	0,094
-383,204	-29,604	0,071	0,029
-382,190	800,000	0,048	0,140
-381,175	230,395	-0,084	0,098
-380,160	-140,259	-0,178	0,013
-379,146	-40,154	0,043	0,016
-378,131	-32,676	0,047	0,019
-377,117	-200,000	0,015	0,051
-376,102	-167,836	-0,119	0,003
-375,088	-116,516	0,050	0,006
-374,073	30,360	0,076	0,046
-373,058	-200,000	0,017	0,079
-372,044	61,578	0,069	-0,049
-371,029	-200,000	-0,022	0,097
-370,015	119,269	-0,072	-0,064
-369,000	-200,000	-0,007	-0,113
-367,985	178,240	-0,031	-0,032
-366,971	86,409	-0,044	0,035
-365,956	443,045	0,082	-0,129
-364,942	-6,284	0,102	0,050
-363,927	-200,000	0,001	-0,013
-362,912	-79,332	0,180	-0,043
-361,898	800,000	-0,051	-0,141
-360,883	-200,000	-0,008	-0,101
-359,869	800,000	0,046	0,136
-358,854	137,413	-0,072	-0,067
-357,839	-124,413	0,092	-0,010
-356,825	442,230	0,039	-0,062
-355,810	-200,000	0,005	-0,019
-354,796	366,692	0,066	-0,096
-353,781	-200,000	-0,004	0,092
-352,766	-140,259	0,082	0,006
-351,752	141,652	0,093	-0,088
-350,737	-200,000	-0,019	0,126
-349,723	214,126	0,053	0,060
-348,708	582,443	-0,059	-0,103
-347,693	726,951	-0,078	-0,150
-346,679	-18,455	0,089	-0,040
-345,664	255,234	-0,019	-0,023
-344,650	800,000	0,027	0,080
-343,635	-173,157	0,113	0,002
-342,620	230,518	0,080	-0,094
-341,606	211,376	0,073	-0,082
-340,591	-60,881	-0,176	0,053
-339,577	-16,969	-0,091	-0,041
-338,562	-200,000	-0,004	-0,027
-337,548	334,789	-0,100	-0,139
-336,533	113,099	0,104	-0,090
-335,518	-136,110	0,159	-0,013
-334,504	-145,623	-0,156	-0,010
-333,489	132,183	-0,026	-0,024
-332,475	-42,382	0,060	-0,022
-331,460	122,063	0,059	-0,052
-330,445	-200,000	-0,003	-0,117
-329,431	470,512	0,055	0,089
-328,416	800,000	0,078	0,167
-327,402	800,000	0,051	0,152
-326,387	800,000	0,062	0,128
-325,372	235,235	-0,057	-0,068
-324,358	-200,000	-0,007	-0,138
-323,343	-200,000	-0,005	-0,126
-322,329	-144,272	0,067	0,004
-321,314	61,889	0,101	0,071
-320,299	624,114	-0,080	0,145
-319,285	-1,027	0,028	-0,014
-318,270	-73,226	-0,117	0,030
-317,256	127,022	0,035	-0,032
-316,241	90,649	0,109	-0,087
-315,226	-65,656	0,124	0,035
-314,212	-67,246	-0,044	-0,012
-313,197	800,000	-0,032	0,069
-312,183	57,474	-0,074	-0,052
-311,168	286,534	-0,070	-0,090
-310,153	-200,000	-0,034	0,196
-309,139	-59,264	-0,082	-0,025
-308,124	243,003	0,030	0,036
-307,110	-90,041	0,096	0,020
-306,095	800,000	0,040	-0,113
-305,080	402,968	-0,111	0,166
-304,066	-36,822	0,017	-0,007
-303,051	530,892	-0,094	-0,158
-302,037	-37,219	-0,100	0,038
-301,022	-200,000	0,022	-0,125
-300,008	264,744	0,097	0,121
-298,993	-200,000	-0,000	0,138
-297,978	-200,000	-0,000	0,031
-296,964	-130,000	0,133	0,013
-295,949	-90,541	-0,156	0,032
-294,935	177,795	-0,096	-0,100
-293,920	-200,000	0,004	0,109
-292,905	800,000	-0,052	0,119
-291,891	-200,000	0,011	0,189
-290,876	35,413	-0,018	-0,011
-289,862	-162,851	-0,126	0,004
-288,847	-67,205	0,067	-0,019
-287,832	153,380	-0,069	0,067
-286,818	407,814	-0,031	0,046
-285,803	-94,190	0,119	-0,023
-284,789	203,276	0,124	0,137
-283,774	132,861	-0,037	0,034
-282,759	-14,473	-0,063	-0,029
-281,745	-200,000	-0,010	-0,074
-280,730	-200,000	-0,073	-0,238
-279,716	129,594	0,133	-0,121
-278,701	-123,337	-0,049	-0,005
-277,686	-127,232	0,105	-0,011
-276,672	-200,000	-0,004	0,068
-275,657	19,774	0,058	-0,033
-274,643	-120,688	-0,166	0,020
-273,628	-200,000	-0,013	-0,073
-272,613	48,295	0,038	0,025
-271,599	1,826	0,048	0,024
-270,584	-200,000	0,001	-0,109
-269,570	-50,702	0,054	-0,018
-268,555	-200,000	-0,026	-0,135
-267,540	140,373	0,115	-0,108
-266,526	-16,517	-0,058	-0,026
-265,511	-200,000	-0,006	0,024
-264,497	800,000	0,046	0,109
-263,482	416,049	0,068	-0,103
-262,467	-33,961	0,156	0,061
-261,453	-102,398	0,051	-0,009
-260,438	496,826	0,047	-0,077
-259,424	143,043	0,100	-0,095
-258,409	-200,000	-0,125	-0,000
-257,395	800,000	0,079	0,195
-256,380	-200,000	0,003	-0,129
-255,365	-200,000	0,025	-0,104
-254,351	61,480	-0,079	0,056
-253,336	15,430	0,138	0,077
-252,322	181,614	0,062	0,065
-251,307	-200,000	0,010	-0,044
-250,292	-141,999	-0,059	0,004
-249,278	-118,513	0,181	0,023
-248,263	-200,000	0,027	0,101
-247,249	70,870	0,101	-0,074
-246,234	-200,000	0,002	0,024
-245,219	-87,109	-0,062	-0,013
-244,205	-200,000	0,014	-0,133
-243,190	69,384	0,078	-0,057
-242,176	-200,000	-0,032	0,120
-241,161	800,000	0,029	0,079
-240,146	234,540	0,041	-0,048
-239,132	-54,805	-0,025	0,008
-238,117	322,024	0,046	-0,062
-237,103	85,420	0,091	-0,071
-236,088	207,376	-0,087	-0,097
-235,073	800,000	0,036	0,089
-234,059	800,000	0,038	0,098
-233,044	-200,000	0,016	0,081
-232,030	-89,388	-0,070	-0,015
-231,015	-200,000	-0,010	-0,129
-230,000	-200,000	0,002	0,039
-228,986	681,298	-0,065	-0,121
-227,971	-122,879	0,070	0,008
-226,957	27,242	-0,118	0,070
-225,942	-14,453	-0,074	-0,034
-224,927	-33,543	0,036	-0,014
-223,913	109,958	-0,101	-0,086
-222,898	49,964	-0,064	-0,043
-221,884	244,350	-0,045	0,054
-220,869	-200,000	-0,011	0,000
-219,855	800,000	0,052	-0,123
-218,840	-200,000	-0,009	0,070
-217,825	-200,000	-0,010	-0,050
-216,811	694,942	-0,095	-0,177
-215,796	-200,000	-0,011	-0,066
-214,782	-200,000	-0,002	0,031
-213,767	8,242	0,147	0,078
-212,752	-130,486	0,174	-0,017
-211,738	50,376	-0,119	0,080
-210,723	-39,321	-0,033	0,012
-209,709	800,000	-0,026	-0,053
-208,694	-200,000	0,030	-0,129
-207,679	364,482	-0,080	0,114
-206,665	-25,114	-0,115	-0,048
-205,650	186,062	-0,087	0,092
-204,636	-200,000	-0,015	0,110
-203,621	789,242	0,061	-0,119
-202,606	-2,869	-0,088	-0,044
-201,592	114,181	-0,124	0,107
-200,577	-112,412	-0,077	0,011
-199,563	51,411	0,135	-0,091
-198,548	86,795	-0,030	-0,023
-197,533	340,252	0,075	0,104
-196,519	136,445	0,043	0,040
-195,504	257,056	0,007	0,008
-194,490	47,353	0,048	-0,032
-193,475	-126,957	0,003	-0,000
-192,460	-152,271	-0,065	-0,003
-191,446	255,962	-0,060	-0,073
-190,431	551,634	0,061	0,104
-189,417	-70,397	-0,057	0,015
-188,402	-60,784	0,082	0,024
-187,387	-73,674	-0,114	-0,029
-186,373	-200,000	0,015	0,086
-185,358	-106,737	0,077	-0,012
-184,344	37,424	0,031	0,019
-183,329	-140,550	-0,057	0,004
-182,315	113,150	0,040	0,034
-181,300	-200,000	0,033	0,118
-180,285	-138,568	-0,118	-0,009
-179,271	-90,258	0,069	0,014
-178,256	-200,000	0,009	0,103
-177,242	-71,826	0,205	-0,054
-176,227	89,153	-0,074	-0,058
-175,212	222,089	-0,086	0,099
-174,198	-200,000	-0,019	-0,101
-173,183	252,382	0,050	-0,061
-172,169	101,980	0,086	0,071
-171,154	800,000	0,019	0,041
-170,139	227,565	0,054	0,062
-169,125	694,182	0,020	-0,038
-168,110	696,434	-0,066	-0,123
-167,096	800,000	0,022	-0,062
-166,081	212,569	-0,085	-0,095
-165,066	509,173	-0,008	0,013
-164,052	93,109	-0,064	0,051
-163,037	-40,858	0,054	-0,020
-162,023	-21,762	-0,082	-0,035
-161,008	-200,000	0,025	-0,081
-159,993	10,134	0,133	-0,071
-158,979	800,000	0,081	-0,200
-157,964	-200,000	-0,000	-0,192
-156,950	-200,000	0,013	-0,070
-155,935	137,161	-0,049	0,046
-154,920	-200,000	0,006	0,070
-153,906	198,145	-0,018	0,020
-152,891	800,000	0,044	-0,095
-151,877	-50,063	-0,069	-0,023
-150,862	75,051	-0,092	0,069
-149,847	-200,000	0,015	-0,089
-148,833	-200,000	0,005	0,042
-147,818	41,684	-0,054	0,035
-146,804	800,000	0,016	-0,032
-145,789	-200,000	-0,019	0,092
-144,775	-35,457	-0,030	-0,012
-143,760	-200,000	-0,026	-0,101
-142,745	800,000	-0,094	-0,281
-141,731	107,771	-0,071	0,060
-140,716	-75,602	0,030	-0,008
-139,702	-47,681	0,109	0,037
-138,687	-200,000	0,002	0,089
-137,672	-200,000	0,024	-0,080
-136,658	217,432	0,022	0,025
-135,643	49,649	-0,071	-0,047
-134,629	-200,000	0,004	0,029
-133,614	52,429	-0,087	-0,059
-132,599	281,168	-0,064	0,081
-131,585	-112,902	0,010	-0,001
-130,570	-200,000	-0,002	-0,045
-129,556	-31,751	-0,065	-0,025
-128,541	-20,735	-0,062	0,027
-127,526	-200,000	0,007	-0,058
-126,512	384,420	0,040	0,059
-125,497	-200,000	-0,009	0,104
-124,483	-74,281	0,190	0,048
-123,468	-64,993	-0,072	-0,021
-122,453	17,409	-0,022	0,012
-121,439	3,066	-0,073	0,038
-120,424	800,000	-0,018	-0,043
-119,410	95,327	0,125	0,101
-118,395	228,305	0,121	0,139
-117,380	-24,573	0,080	-0,033
-116,366	394,479	-0,095	-0,141
-115,351	-106,695	0,038	0,006
-114,337	-142,579	0,037	0,003
-113,322	202,837	0,126	-0,138
-112,307	800,000	-0,009	0,024
-111,293	-145,057	0,027	0,002
-110,278	276,439	0,042	-0,053
-109,264	-11,422	-0,092	0,043
-108,249	800,000	-0,045	0,127
-107,234	-200,000	-0,012	-0,107
-106,220	-138,890	-0,156	0,012
-105,205	163,365	0,080	0,079
-104,191	-200,000	0,008	-0,150
-103,176	109,158	-0,160	0,136
-102,162	485,516	0,067	0,108
-101,147	143,732	-0,037	0,035
-100,132	800,000	-0,045	-0,115
-99,118	-156,137	0,039	0,002
-98,103	296,504	-0,047	0,061
-97,089	311,808	0,038	-0,050
-96,074	84,973	0,077	0,060
-95,059	-200,000	-0,004	0,066
-94,045	-35,172	-0,056	-0,022
-93,030	-200,000	-0,013	-0,063
-92,016	-28,613	-0,090	-0,037
-91,001	59,686	0,063	-0,044
-89,986	75,636	0,032	-0,024
-88,972	262,241	0,103	0,127
-87,957	37,364	-0,029	-0,018
-86,943	153,246	-0,078	-0,075
-85,928	-200,000	-0,048	-0,160
-84,913	-200,000	0,019	-0,171
-83,899	-25,388	-0,069	-0,029
-82,884	268,232	0,123	-0,152
-81,870	252,055	-0,045	-0,054
-80,855	-128,277	0,034	0,003
-79,840	-51,678	-0,161	-0,053
-78,826	-115,787	-0,166	-0,022
-77,811	-151,326	-0,143	-0,007
-76,797	-200,000	-0,011	-0,083
-75,782	146,494	0,063	0,060
-74,767	120,539	-0,057	0,050
-73,753	508,118	-0,066	-0,109
-72,738	7,643	-0,006	-0,003
-71,724	2,529	-0,082	-0,042
-70,709	296,504	-0,035	0,045
-69,694	251,638	0,092	0,110
-68,680	-200,000	-0,003	0,093
-67,665	-16,936	0,025	0,011
-66,651	-129,195	0,081	0,008
-65,636	-200,000	0,023	0,079
-64,622	-200,000	-0,002	-0,055
-63,607	-200,000	-0,029	-0,164
-62,592	-200,000	-0,012	-0,156
-61,578	-60,393	-0,039	-0,012
-60,563	-39,539	0,096	0,035
-59,549	31,383	-0,052	0,031
-58,534	44,710	-2,059	-1,334
-57,519	547,784	-1,139	-1,932
-56,505	-200,000	-0,308	-4,227
-55,490	561,456	0,954	1,635
-54,476	800,000	5,119	11,013
-53,461	-200,000	21,545	343,537
-52,446	800,000	763,271	2347,521
-51,432	548,565	1661,920	2820,686
-50,417	71,612	1657,605	1213,985
-49,403	17,353	1530,885	855,477
-48,388	11,367	1455,081	784,213
-47,373	19,351	1446,647	817,884
-46,359	14,823	1435,724	790,181
-45,344	9,677	1431,472	763,351
-44,330	9,555	1429,800	761,851
-43,315	9,553	1427,838	760,765
-42,300	9,593	1426,070	759,983
-41,286	9,616	1424,860	759,416
-40,271	9,576	1423,602	758,525
-39,257	9,563	1422,511	757,854
-38,242	9,622	1421,461	757,543
-37,227	9,589	1420,298	756,739
-36,213	9,609	1418,911	756,064
-35,198	9,622	1417,646	755,420
-34,184	9,641	1416,778	755,018
-33,169	9,572	1415,355	753,905
-32,154	9,581	1414,422	753,421
-31,140	9,570	1413,288	752,736
-30,125	9,652	1412,065	752,438
-29,111	9,667	1410,876	751,843
-28,096	9,595	1409,473	750,729
-27,082	9,561	1408,471	750,004
-26,067	9,549	1407,660	749,488
-25,052	9,561	1406,575	748,940
-24,038	9,588	1405,408	748,414
-23,023	9,566	1404,657	747,882
-22,009	9,574	1403,508	747,278
-20,994	9,600	1402,421	746,787
-19,979	9,552	1401,581	746,088
-18,965	9,534	1400,599	745,453
-17,950	9,561	1399,744	745,093
-16,936	9,475	1398,815	744,169
-15,921	9,448	1397,910	743,531
-14,906	9,505	1396,913	743,237
-13,892	9,524	1395,851	742,732
-12,877	9,445	1395,452	742,124
-11,863	9,473	1394,443	741,688
-10,848	9,421	1393,424	740,874
-9,833	9,424	1392,664	740,455
-8,819	9,366	1391,659	739,622
-7,804	9,437	1390,668	739,396
-6,790	9,405	1389,632	738,667
-5,775	9,347	1388,852	737,956
-4,760	9,365	1387,842	737,470
-3,746	9,386	1386,805	736,991
-2,731	9,420	1386,019	736,699
-1,717	9,364	1385,294	736,026
-0,702	9,359	1383,406	734,972
0,313	13,321	1295,749	706,497
1,327	29,358	686,562	410,534
2,342	45,342	118,588	77,026
3,356	-1,167	16,480	8,187
4,371	-16,007	3,651	1,631
5,386	-31,845	1,147	0,451
6,400	800,000	0,187	0,515
7,415	113,444	-0,240	-0,205
8,429	63,062	-0,303	-0,214
9,444	-87,793	-0,454	-0,096
10,459	-4,626	-0,414	-0,201
11,473	22,548	-0,345	-0,198
12,488	106,943	-0,242	-0,202
13,502	-8,895	-0,345	-0,162
14,517	-39,541	-0,484	-0,178
15,531	87,301	-0,352	-0,274
16,546	-21,335	-0,362	-0,155
17,561	21,364	-0,354	-0,202
18,575	-100,680	-0,173	-0,030
19,590	221,885	-0,263	-0,298
20,604	-111,656	-0,319	0,045
21,619	18,015	-0,495	-0,277
22,634	120,913	-0,347	-0,304
23,648	32,149	-0,498	-0,301
24,663	231,975	-0,330	-0,382
25,677	2,056	-0,388	-0,197
26,692	417,163	-0,231	-0,348
27,707	-9,200	-0,414	-0,194
28,721	102,340	-0,307	-0,252
29,736	118,684	-0,415	-0,360
30,750	1,557	-0,461	-0,233
31,765	72,003	-0,349	-0,255
32,780	56,040	-0,381	-0,260
33,794	111,426	-0,360	-0,305
34,809	17,167	-0,284	-0,158
35,823	129,785	-0,375	-0,338
36,838	91,272	-0,389	-0,307
37,853	144,251	-0,328	-0,308
38,867	246,380	-0,330	-0,392
39,882	-0,962	-0,368	-0,182
40,896	-58,509	-0,382	-0,116
41,911	38,064	-0,324	-0,202
42,926	103,081	-0,393	-0,323
43,940	-3,786	-0,498	-0,242
44,955	16,130	-0,383	-0,212
45,969	93,393	-0,268	-0,213
46,984	-0,450	-0,380	-0,189
47,999	49,052	-0,255	-0,168
49,013	78,276	-0,325	-0,243
50,028	62,436	-0,291	-0,204
51,042	11,800	-0,381	-0,205
52,057	-33,877	-0,391	-0,150
53,071	67,661	-0,433	-0,310
54,086	38,178	-0,373	-0,233
55,101	-6,734	-0,307	-0,146
56,115	-19,646	-0,208	-0,090
57,130	1,353	-0,399	-0,201
58,144	222,839	-0,295	-0,334
59,159	-5,169	-0,272	-0,131
60,174	0,585	-0,428	-0,214
61,188	48,714	-0,307	-0,202
62,203	-81,908	-0,257	-0,058
63,217	127,714	-0,226	-0,201
64,232	92,849	-0,314	-0,248
65,247	62,629	-0,287	-0,201
66,261	47,031	-0,362	-0,236
67,276	1,411	-0,441	-0,222
68,290	35,052	-0,377	-0,231
69,305	-104,018	-0,349	-0,056
70,320	-60,354	-0,283	-0,084
71,334	121,545	-0,218	-0,191
72,349	63,522	-0,292	-0,205
73,363	45,354	-0,427	-0,276
74,378	47,151	-0,398	-0,259
75,393	85,457	-0,222	-0,171
76,407	800,000	-0,064	-0,151
77,422	-19,981	-0,248	-0,107
78,436	-126,872	-0,270	0,028
79,451	160,534	-0,436	-0,426
80,466	-80,666	-0,336	-0,078
81,480	147,019	-0,309	-0,291
82,495	135,915	-0,247	-0,225
83,509	196,789	-0,186	-0,199
84,524	-80,554	-0,343	-0,079
85,539	215,663	-0,161	-0,179
86,553	120,563	-0,386	-0,336
87,568	284,667	-0,201	-0,254
88,582	74,865	-0,372	-0,274
89,597	59,410	-0,329	-0,226
90,611	423,032	-0,153	-0,230
91,626	-83,652	-0,376	-0,083
92,641	-8,382	-0,176	-0,083
93,655	-98,709	-0,273	-0,048
94,670	20,355	-0,176	-0,099
95,684	137,243	-0,302	-0,277
96,699	8,402	-0,278	-0,146
97,714	107,938	-0,174	-0,145
98,728	-19,617	-0,225	-0,097
99,743	36,611	-0,248	-0,153
100,757	-102,531	-0,267	-0,044
101,772	-69,552	-0,234	-0,062
102,787	252,992	-0,253	-0,303
103,801	75,209	-0,246	-0,181
104,816	30,169	-0,193	-0,115
105,830	191,871	-0,180	-0,189
106,845	-31,013	-0,280	-0,110
107,860	161,723	-0,282	-0,277
108,874	185,674	-0,154	-0,160
109,889	86,693	-0,342	-0,264
110,903	84,023	-0,273	-0,208
111,918	20,380	-0,270	-0,152
112,933	13,782	-0,265	-0,143
113,947	5,386	-0,260	-0,134
114,962	-55,179	-0,208	0,065
115,976	270,622	-0,218	-0,268
116,991	80,065	-0,200	-0,150
118,006	56,601	-0,401	-0,272
119,020	143,531	-0,249	-0,232
120,035	63,363	-0,216	-0,151
121,049	-106,859	-0,115	-0,018
122,064	576,381	-0,140	-0,240
123,079	-200,000	-0,103	-0,373
124,093	-46,794	-0,369	-0,125
125,108	79,945	-0,270	-0,203
126,122	20,608	-0,251	-0,141
127,137	113,997	-0,308	-0,261
128,151	-119,411	-0,300	-0,036
129,166	73,362	-0,227	-0,166
130,181	147,369	-0,262	-0,246
131,195	-12,056	-0,223	-0,101
132,210	78,813	-0,223	-0,166
133,224	394,998	-0,150	-0,218
134,239	98,771	-0,121	-0,098
135,254	63,825	-0,142	-0,099
136,268	-104,940	-0,360	-0,057
137,283	12,533	-0,216	-0,116
138,297	246,503	-0,281	-0,330
139,312	290,314	-0,150	-0,190
140,327	-41,594	-0,203	-0,072
141,341	492,619	-0,130	-0,209
142,356	230,677	-0,177	-0,202
143,370	59,224	-0,268	-0,184
144,385	-141,317	-0,297	0,021
145,400	164,831	-0,188	-0,185
146,414	180,853	-0,191	-0,195
147,429	159,454	-0,255	-0,247
148,443	43,359	-0,287	-0,182
149,458	-66,579	-0,230	-0,063
150,473	77,643	-0,177	-0,131
151,487	424,787	-0,140	-0,210
152,502	-31,353	-0,217	-0,085
153,516	91,858	-0,279	-0,218
154,531	180,894	-0,286	-0,292
155,546	171,475	-0,179	-0,179
156,560	105,315	-0,188	-0,154
157,575	159,194	-0,223	-0,215
158,589	148,568	-0,255	-0,240
159,604	129,440	-0,207	-0,184
160,619	-3,944	-0,280	-0,135
161,633	114,942	-0,309	-0,263
162,648	-6,373	-0,179	-0,085
163,662	-100,053	-0,260	-0,045
164,677	8,673	-0,247	-0,129
165,692	97,182	-0,192	-0,153
166,706	197,258	-0,193	-0,205
167,721	37,552	-0,269	-0,166
168,735	192,422	-0,229	-0,240
169,750	800,000	-0,134	-0,273
170,764	41,176	-0,193	-0,121
171,779	62,116	-0,200	-0,138
172,794	800,000	-0,104	-0,251
173,808	178,729	-0,150	-0,152
174,823	164,222	-0,240	-0,235
175,837	-0,789	-0,293	-0,144
176,852	476,106	-0,093	-0,146
177,867	-200,000	-0,028	-0,186
178,881	67,593	-0,228	-0,162
179,896	-160,240	-0,219	-0,008
180,910	-22,505	-0,230	-0,096
181,925	-3,833	-0,296	-0,142
182,940	132,062	-0,298	-0,267
183,954	800,000	-0,125	-0,313
184,969	-42,461	-0,217	-0,076
185,983	-26,727	-0,176	-0,071
186,998	-36,124	-0,247	-0,092
188,013	-73,409	-0,312	-0,078
189,027	255,517	-0,113	-0,135
190,042	-36,087	-0,221	-0,082
191,056	104,257	-0,271	-0,221
192,071	-160,714	-0,235	-0,008
193,086	-63,091	-0,200	-0,057
194,100	408,356	-0,069	-0,101
195,115	71,350	-0,182	-0,131
196,129	800,000	-0,132	-0,294
197,144	177,399	-0,208	-0,210
198,159	77,461	-0,172	-0,127
199,173	-23,380	-0,198	-0,082
200,188	38,716	-0,197	-0,121
201,202	-61,264	-0,138	-0,040
202,217	25,763	-0,279	-0,161
203,232	10,741	-0,266	-0,140
204,246	467,632	-0,136	-0,211
205,261	800,000	-0,141	-0,276
206,275	18,180	-0,272	-0,150
207,290	127,138	-0,155	-0,136
208,304	11,447	-0,163	0,086
209,319	249,647	-0,146	-0,172
210,334	94,496	-0,243	-0,191
211,348	-22,463	-0,187	-0,078
212,363	4,446	-0,228	-0,115
213,377	181,959	-0,172	-0,175
214,392	32,737	0,054	0,032
215,407	-200,000	0,012	-0,118
216,421	-60,238	-0,177	-0,052
217,436	-42,766	-0,224	-0,079
218,450	224,035	-0,158	-0,177
219,465	-118,604	-0,277	-0,033
220,480	171,063	-0,160	-0,159
221,494	312,624	-0,196	-0,256
222,509	-122,932	-0,110	-0,012
223,523	295,843	-0,266	-0,338
224,538	95,066	-0,215	-0,170
225,553	-19,926	-0,182	-0,077
226,567	66,578	-0,164	-0,115
227,582	-46,225	-0,267	-0,090
228,596	182,460	-0,135	-0,138
229,611	-28,715	-0,197	-0,078
230,626	-100,280	-0,234	-0,040
231,640	28,337	-0,090	0,052
232,655	51,123	-0,312	-0,204
233,669	505,486	-0,116	-0,186
234,684	-200,000	-0,070	-0,226
235,699	-125,355	-0,182	-0,019
236,713	800,000	-0,093	-0,194
237,728	29,381	-0,063	-0,037
238,742	523,215	-0,104	-0,170
239,757	-200,000	0,047	-0,269
240,772	488,060	-0,204	-0,323
241,786	52,502	-0,275	-0,181
242,801	-145,264	-0,222	-0,014
243,815	-25,864	-0,059	0,024
244,830	-32,482	-0,118	0,045
245,844	98,359	-0,170	-0,135
246,859	370,589	-0,107	-0,151
247,874	33,185	-0,260	-0,155
248,888	-111,620	-0,190	-0,026
249,903	-200,000	-0,003	-0,204
250,917	4,760	-0,092	-0,047
251,932	48,585	-0,046	0,030
252,947	110,892	-0,204	-0,170
253,961	800,000	-0,081	-0,190
254,976	238,418	-0,171	-0,196
255,990	148,805	-0,262	-0,244
257,005	184,757	-0,182	-0,186
258,020	-43,592	-0,199	-0,069
259,034	113,849	-0,180	-0,151
260,049	-55,226	-0,148	-0,045
261,063	0,351	-0,215	-0,106
262,078	-5,092	-0,203	-0,096
263,093	81,784	-0,206	-0,154
264,107	79,050	-0,215	-0,158
265,122	157,630	-0,141	-0,135
266,136	23,940	-0,183	-0,104
267,151	41,405	-0,230	-0,143
268,166	32,883	-0,141	-0,084
269,180	145,866	-0,185	-0,171
270,195	133,398	-0,191	-0,170
271,209	231,027	-0,117	-0,133
272,224	-37,701	-0,261	-0,095
273,239	51,776	-0,151	-0,099
274,253	332,516	-0,145	-0,194
275,268	-23,961	-0,189	-0,077
276,282	-31,840	-0,289	-0,111
277,297	800,000	-0,089	-0,208
278,312	-27,713	-0,215	-0,086
279,326	-2,925	-0,186	-0,089
280,341	-94,289	-0,222	0,041
281,355	54,355	-0,129	0,086
282,370	149,164	-0,150	-0,140
283,384	206,056	-0,179	-0,192
284,399	97,005	-0,234	-0,184
285,414	150,084	-0,093	-0,087
286,428	264,203	-0,172	-0,206
287,443	-185,717	-0,136	-0,001
288,457	784,327	-0,100	-0,189
289,472	-10,564	-0,099	0,045
290,487	13,883	-0,191	-0,102
291,501	-113,865	-0,183	-0,024
292,516	-125,433	-0,170	-0,018
293,530	-161,086	-0,221	0,008
294,545	123,666	-0,061	-0,053
295,560	18,989	-0,222	-0,122
296,574	10,631	-0,063	0,033
297,589	-108,708	-0,236	-0,034
298,603	505,750	-0,111	-0,177
299,618	-34,646	-0,117	-0,044
300,633	-2,642	-0,125	-0,060
301,647	-68,323	-0,169	-0,045
302,662	-200,000	-0,064	-0,201
303,676	-142,636	-0,191	0,013
304,691	-116,882	-0,160	0,020
305,706	-86,295	-0,219	-0,046
306,720	84,370	-0,091	0,069
307,735	-153,047	-0,220	-0,010
308,749	-33,348	-0,032	0,012
309,764	800,000	-0,053	-0,149
310,779	26,981	-0,080	0,046
311,793	44,536	-0,190	-0,120
312,808	246,977	-0,081	-0,094
313,822	409,341	-0,149	-0,217
314,837	36,960	-0,083	-0,050
315,852	-200,000	-0,035	-0,122
316,866	-7,883	-0,074	-0,034
317,881	12,791	-0,148	0,078
318,895	-21,414	-0,210	-0,087
319,910	800,000	-0,090	-0,187
320,925	101,712	-0,131	-0,105
321,939	121,243	-0,131	-0,111
322,954	-167,327	-0,100	-0,003
323,968	44,505	-0,197	-0,124
324,983	241,786	-0,129	-0,148
325,997	-6,805	-0,114	-0,053
327,012	-200,000	-0,000	0,099
328,027	83,155	-0,197	-0,147
329,041	800,000	-0,068	-0,167
330,056	-74,788	-0,062	0,015
331,070	-86,323	-0,053	0,011
332,085	-90,683	-0,086	0,017
333,100	-46,186	-0,175	-0,059
334,114	163,739	-0,033	-0,032
335,129	-3,226	-0,168	-0,080
336,143	39,698	-0,102	-0,063
337,158	-200,000	-0,016	-0,121
338,173	-30,676	-0,145	-0,056
339,187	-91,491	-0,061	0,012
340,202	-72,523	-0,135	-0,034
341,216	111,647	-0,185	-0,153
342,231	-115,710	-0,131	-0,017
343,246	456,019	-0,077	-0,117
344,260	-152,672	-0,078	-0,004
345,275	104,386	-0,130	-0,104
346,289	-200,000	-0,031	-0,109
347,304	137,102	-0,154	-0,138
348,319	-200,000	0,014	-0,078
349,333	208,792	-0,061	-0,065
350,348	-69,632	-0,171	-0,045
351,362	-200,000	-0,058	-0,253
352,377	57,982	-0,069	-0,046
353,392	29,402	-0,138	-0,080
354,406	-125,975	-0,156	0,016
355,421	207,464	1307,345	1396,738
356,435	159,600	1467,140	1397,224
