DTS Sentinel unit serial number:	SN410029Multiplexer serial number:	ORYXHardware model number:	OX2-SRSoftware version number:	ORYX F/W v4,00 Oryx Data Collector v3.7.2.0data status	okinstallation	B3 Nyhavnadifferential loss correction	single-endedforward channel	channel 1reverse channel	N/Adate	2023/12/01time	13:37:30forward acquisition time	300,00reverse acquisition time	0,00gamma	499,1914k internal	0,3214k external	0,3214temperature offset calibration	1,0000default loss term (dB/km)	0,3820temperature slope calibration	1,0000multiplexer offset coefficient	1,0000multiplexer slope coefficient	1,0000fibre end	0,00T internal ref (°C)	9,71T ext. ref 1 (°C)	-3,76T ext. ref 2 (°C)	-3,82length (m)	temperature (°C)	Stokes	anti-Stokes-744,400	-200,000	-0,007	-0,272
-743,385	-200,000	0,007	0,232
-742,371	-200,000	-0,095	-0,344
-741,356	-200,000	-0,049	0,324
-740,342	139,326	-0,115	-0,110
-739,327	324,959	-0,175	0,243
-738,312	305,164	-0,168	-0,227
-737,298	800,000	-0,114	0,293
-736,283	397,312	-0,079	-0,120
-735,269	-200,000	-0,000	0,306
-734,254	608,780	-0,188	-0,341
-733,239	-162,599	-0,231	0,008
-732,225	-6,810	-0,179	-0,088
-731,210	81,349	0,159	0,124
-730,196	-200,000	-0,039	-0,137
-729,181	800,000	-0,038	-0,084
-728,167	-200,000	-0,016	-0,082
-727,152	-20,557	0,045	-0,020
-726,137	-77,843	-0,154	-0,038
-725,123	-112,186	-0,086	-0,012
-724,108	-200,000	-0,034	-0,169
-723,094	310,821	-0,053	0,073
-722,079	25,076	-0,058	-0,035
-721,064	-37,235	-0,115	-0,044
-720,050	90,718	-0,138	0,112
-719,035	-123,423	-0,042	0,005
-718,021	-200,000	0,004	-0,072
-717,006	151,230	-0,087	-0,086
-715,991	73,810	-0,155	-0,118
-714,977	-95,857	0,023	-0,004
-713,962	95,821	0,058	-0,048
-712,948	-159,925	0,105	0,004
-711,933	526,685	0,034	-0,057
-710,918	166,178	0,054	0,056
-709,904	195,815	0,089	-0,098
-708,889	-78,774	-0,078	-0,019
-707,875	555,316	0,067	-0,117
-706,860	8,946	-0,112	-0,061
-705,845	-80,302	0,116	-0,028
-704,831	-200,000	-0,006	0,067
-703,816	62,424	-0,059	-0,043
-702,802	800,000	-0,042	0,115
-701,787	-97,431	-0,094	-0,018
-700,772	-200,000	-0,017	-0,081
-699,758	-38,233	-0,091	-0,035
-698,743	785,576	0,045	0,089
-697,729	-25,989	0,082	0,035
-696,714	-200,000	0,010	0,140
-695,699	-200,000	-0,015	-0,100
-694,685	-200,000	-0,048	0,157
-693,670	169,270	-0,142	-0,147
-692,656	-0,421	-0,092	0,047
-691,641	704,883	-0,018	0,035
-690,627	-200,000	-0,053	0,203
-689,612	-200,000	0,015	0,060
-688,597	800,000	0,051	-0,111
-687,583	-200,000	-0,039	-0,170
-686,568	-46,114	0,019	-0,007
-685,554	321,026	0,110	-0,152
-684,539	800,000	-0,014	0,035
-683,524	19,095	-0,124	0,072
-682,510	-103,360	0,136	-0,023
-681,495	-200,000	-0,042	-0,170
-680,481	18,854	-0,065	-0,038
-679,466	628,419	-0,048	0,087
-678,451	134,690	-0,069	0,065
-677,437	10,939	-0,012	0,007
-676,422	-200,000	0,005	0,066
-675,408	473,950	0,037	0,060
-674,393	-113,036	-0,144	-0,020
-673,378	-200,000	-0,019	-0,119
-672,364	-200,000	0,022	-0,080
-671,349	-39,958	-0,125	-0,047
-670,335	-175,830	0,061	0,001
-669,320	38,316	0,034	0,022
-668,305	473,900	0,046	0,074
-667,291	-200,000	-0,005	-0,124
-666,276	800,000	-0,064	-0,160
-665,262	473,206	-0,081	-0,133
-664,247	-28,630	-0,045	0,019
-663,232	800,000	-0,003	-0,008
-662,218	-200,000	0,011	0,098
-661,203	82,859	-0,094	0,073
-660,189	-200,000	0,016	0,078
-659,174	800,000	-0,060	-0,122
-658,159	-78,176	-0,043	-0,011
-657,145	757,336	0,058	-0,115
-656,130	345,147	-0,031	-0,044
-655,116	71,336	-0,107	-0,080
-654,101	-124,946	0,117	-0,013
-653,086	722,490	0,053	0,101
-652,072	-35,524	-0,174	0,068
-651,057	51,576	-0,046	0,031
-650,043	388,973	-0,084	0,127
-649,028	-200,000	-0,007	0,037
-648,014	303,499	-0,095	0,128
-646,999	-200,000	0,021	0,157
-645,984	633,754	-0,030	-0,055
-644,970	760,085	-0,013	-0,025
-643,955	-142,121	-0,140	-0,010
-642,941	209,154	-0,072	-0,082
-641,926	-200,000	0,034	-0,109
-640,911	-103,140	0,142	0,024
-639,897	-86,181	0,028	-0,006
-638,882	104,766	-0,048	-0,041
-637,868	532,816	0,049	-0,085
-636,853	800,000	-0,032	-0,092
-635,838	-85,815	-0,127	-0,028
-634,824	190,261	0,037	-0,040
-633,809	-8,163	0,133	-0,064
-632,795	-200,000	-0,005	0,182
-631,780	-144,374	-0,076	0,005
-630,765	-199,432	0,100	0,000
-629,751	-5,156	-0,084	0,041
-628,736	283,423	-0,048	-0,063
-627,722	551,538	-0,018	0,032
-626,707	800,000	0,031	-0,067
-625,692	-92,570	0,133	-0,027
-624,678	82,944	-0,056	0,044
-623,663	-124,735	0,090	-0,010
-622,649	592,991	-0,041	0,073
-621,634	-200,000	0,006	0,053
-620,619	800,000	-0,056	-0,175
-619,605	-106,474	0,087	0,014
-618,590	-200,000	0,031	0,160
-617,576	-9,810	0,156	-0,075
-616,561	-200,000	0,012	0,064
-615,546	-8,457	-0,089	-0,043
-614,532	-62,531	-0,072	-0,021
-613,517	-51,377	0,146	0,049
-612,503	-200,000	-0,007	-0,129
-611,488	-200,000	-0,000	-0,021
-610,474	37,837	0,043	0,028
-609,459	-200,000	-0,013	-0,082
-608,444	-48,309	-0,139	0,048
-607,430	-22,265	-0,116	0,050
-606,415	-30,087	-0,092	0,038
-605,401	800,000	-0,008	-0,017
-604,386	800,000	0,033	-0,088
-603,371	254,847	0,027	-0,033
-602,357	242,550	-0,029	0,034
-601,342	-20,417	-0,107	0,047
-600,328	75,087	-0,030	-0,023
-599,313	-101,483	-0,064	0,011
-598,298	-32,064	-0,088	-0,035
-597,284	662,832	0,072	0,134
-596,269	-6,854	-0,032	-0,016
-595,255	800,000	0,045	-0,113
-594,240	-187,222	-0,120	-0,001
-593,225	800,000	0,028	-0,080
-592,211	208,894	0,123	0,139
-591,196	-97,273	-0,079	0,015
-590,182	21,241	0,049	-0,029
-589,167	-200,000	0,001	-0,046
-588,152	311,463	-0,038	-0,052
-587,138	761,273	0,043	0,084
-586,123	-200,000	-0,006	0,021
-585,109	711,680	-0,052	-0,099
-584,094	77,526	-0,056	-0,043
-583,079	-200,000	-0,004	0,052
-582,065	800,000	-0,027	0,070
-581,050	107,791	-0,062	0,053
-580,036	84,785	-0,170	-0,134
-579,021	-61,382	-0,062	-0,019
-578,006	800,000	0,047	-0,107
-576,992	-200,000	-0,001	-0,164
-575,977	4,963	0,094	-0,050
-574,963	214,449	-0,150	0,171
-573,948	-48,037	0,102	0,035
-572,934	306,666	0,057	-0,076
-571,919	22,037	-0,145	-0,085
-570,904	800,000	0,056	-0,159
-569,890	35,418	-0,022	-0,014
-568,875	-200,000	-0,006	-0,157
-567,861	293,997	0,108	0,143
-566,846	800,000	0,030	-0,062
-565,831	-200,000	-0,013	0,114
-564,817	18,265	-0,095	-0,054
-563,802	468,119	0,108	-0,175
-562,788	52,449	-0,005	0,004
-561,773	-74,781	-0,135	-0,035
-560,758	38,338	-0,113	0,072
-559,744	-116,182	0,145	0,019
-558,729	99,693	-0,066	-0,055
-557,715	30,032	-0,067	-0,041
-556,700	-69,685	-0,063	0,017
-555,685	504,693	0,029	-0,049
-554,671	-200,000	0,051	-0,170
-553,656	-200,000	0,016	-0,075
-552,642	158,219	0,029	-0,029
-551,627	-59,089	-0,084	-0,026
-550,612	-109,682	-0,093	0,014
-549,598	-103,497	-0,057	-0,009
-548,583	200,611	0,061	-0,068
-547,569	70,514	0,064	-0,047
-546,554	800,000	0,040	0,089
-545,539	-110,096	0,084	0,012
-544,525	-200,000	0,014	-0,132
-543,510	191,900	-0,091	-0,098
-542,496	-36,373	-0,095	-0,037
-541,481	-161,647	-0,082	0,003
-540,466	730,495	-0,060	-0,115
-539,452	-74,462	0,134	-0,034
-538,437	800,000	0,047	0,100
-537,423	800,000	-0,021	0,045
-536,408	46,883	0,071	-0,048
-535,393	-87,718	-0,143	-0,031
-534,379	-200,000	0,005	-0,113
-533,364	-61,316	0,003	-0,001
-532,350	161,326	0,089	-0,089
-531,335	-135,729	0,049	0,004
-530,321	-77,037	-0,099	0,025
-529,306	-17,326	0,037	-0,016
-528,291	44,462	-0,082	-0,054
-527,277	-48,034	0,010	-0,003
-526,262	49,627	-0,135	0,091
-525,248	-200,000	0,006	0,076
-524,233	225,896	0,086	0,100
-523,218	-24,692	0,031	-0,013
-522,204	-126,839	0,059	0,006
-521,189	176,314	-0,108	-0,113
-520,175	-200,000	0,008	-0,048
-519,160	230,882	0,081	0,095
-518,145	800,000	0,039	-0,086
-517,131	147,380	0,087	0,084
-516,116	-200,000	0,013	0,158
-515,102	28,939	0,125	0,076
-514,087	-99,949	0,159	-0,028
-513,072	-47,963	-0,005	0,002
-512,058	800,000	0,089	-0,181
-511,043	-200,000	-0,034	-0,132
-510,029	-200,000	0,011	0,096
-509,014	114,967	0,111	0,097
-507,999	665,242	0,027	-0,050
-506,985	-91,668	-0,094	0,019
-505,970	57,933	-0,025	-0,017
-504,956	203,667	0,109	-0,121
-503,941	-200,000	0,011	0,066
-502,926	-200,000	-0,045	0,145
-501,912	134,663	0,099	-0,092
-500,897	346,936	0,035	0,049
-499,883	800,000	0,050	0,133
-498,868	-140,132	-0,089	0,007
-497,853	800,000	0,010	-0,029
-496,839	120,046	-0,030	0,027
-495,824	7,822	0,022	0,012
-494,810	-200,000	0,043	0,157
-493,795	-171,729	-0,133	-0,003
-492,781	-200,000	0,000	0,102
-491,766	-95,614	0,091	0,017
-490,751	-32,740	-0,071	-0,028
-489,737	124,261	-0,070	-0,063
-488,722	268,014	-0,008	-0,010
-487,708	384,782	0,110	0,164
-486,693	-45,119	0,121	0,043
-485,678	-200,000	-0,037	0,141
-484,664	-200,000	-0,040	-0,145
-483,649	-200,000	0,009	-0,178
-482,635	10,379	0,062	-0,034
-481,620	-145,184	0,106	0,007
-480,605	-200,000	-0,014	0,168
-479,591	2,392	-0,052	-0,027
-478,576	-1,588	0,092	0,046
-477,562	319,048	-0,067	0,092
-476,547	-200,000	-0,007	-0,049
-475,532	92,187	-0,175	0,141
-474,518	375,215	0,091	0,133
-473,503	559,376	-0,018	0,030
-472,489	354,197	-0,081	0,116
-471,474	-26,203	-0,109	0,046
-470,459	-3,564	0,089	-0,044
-469,445	-7,167	-0,041	0,020
-468,430	-134,840	-0,046	-0,004
-467,416	-200,000	-0,002	-0,117
-466,401	416,254	0,022	0,034
-465,386	160,233	0,219	0,219
-464,372	800,000	-0,036	0,078
-463,357	-75,890	-0,091	-0,023
-462,343	259,203	-0,055	-0,068
-461,328	100,868	0,041	0,034
-460,313	-134,164	0,066	0,006
-459,299	-134,203	-0,050	0,004
-458,284	-149,817	0,165	-0,009
-457,270	252,771	-0,167	0,204
-456,255	506,939	0,021	-0,035
-455,241	-22,775	-0,081	-0,035
-454,226	548,326	0,038	-0,065
-453,211	83,301	0,049	-0,038
-452,197	-200,000	0,003	0,044
-451,182	-52,090	0,037	0,012
-450,168	216,435	0,097	0,110
-449,153	-200,000	-0,025	0,114
-448,138	-36,401	-0,065	-0,025
-447,124	-158,655	-0,089	-0,004
-446,109	-81,253	0,023	0,005
-445,095	-200,000	0,002	0,036
-444,080	-200,000	0,015	-0,063
-443,065	89,972	-0,029	-0,023
-442,051	631,585	-0,024	-0,044
-441,036	-60,511	-0,030	-0,009
-440,022	-200,000	-0,005	-0,042
-439,007	-181,119	0,067	0,001
-437,992	-36,049	-0,008	0,003
-436,978	-32,885	0,118	0,047
-435,963	800,000	-0,040	0,089
-434,949	58,008	-0,034	-0,024
-433,934	-200,000	-0,030	-0,184
-432,919	-200,000	-0,022	0,154
-431,905	-170,830	0,079	-0,002
-430,890	-117,777	-0,035	-0,004
-429,876	24,170	-0,076	0,045
-428,861	-200,000	-0,022	-0,088
-427,846	-112,015	-0,126	-0,018
-426,832	-200,000	-0,015	0,055
-425,817	-37,149	-0,086	0,033
-424,803	57,957	0,067	0,047
-423,788	-200,000	0,012	-0,085
-422,773	-50,372	0,069	0,023
-421,759	538,668	-0,069	0,118
-420,744	95,745	-0,008	0,006
-419,730	225,831	-0,050	-0,058
-418,715	800,000	-0,059	-0,144
-417,701	-18,713	-0,092	0,041
-416,686	-200,000	-0,021	0,104
-415,671	800,000	0,064	0,143
-414,657	528,921	0,069	0,117
-413,642	-44,151	-0,090	0,032
-412,628	-57,289	0,076	-0,024
-411,613	139,898	-0,062	-0,058
-410,598	46,388	-0,107	0,071
-409,584	343,645	0,056	-0,078
-408,569	-200,000	0,007	-0,071
-407,555	-26,564	0,102	0,042
-406,540	-200,000	0,012	-0,046
-405,525	-200,000	-0,004	-0,066
-404,511	800,000	-0,049	-0,113
-403,496	116,401	-0,137	-0,120
-402,482	-135,802	-0,042	0,004
-401,467	-96,666	0,031	0,006
-400,452	587,229	-0,037	-0,065
-399,438	39,514	-0,053	0,034
-398,423	-83,667	0,058	-0,013
-397,409	800,000	0,050	-0,142
-396,394	800,000	0,039	-0,101
-395,379	-200,000	-0,023	-0,085
-394,365	111,370	0,031	0,026
-393,350	-174,836	0,146	-0,003
-392,336	-116,042	-0,141	0,019
-391,321	-20,586	-0,044	-0,019
-390,306	-99,285	-0,094	-0,017
-389,292	800,000	-0,039	-0,092
-388,277	-62,895	-0,091	0,027
-387,263	-133,085	0,068	-0,006
-386,248	-124,901	-0,067	-0,007
-385,233	117,348	0,039	0,034
-384,219	-200,000	-0,027	0,115
-383,204	443,866	-0,069	-0,109
-382,190	-178,750	-0,090	-0,001
-381,175	-46,708	0,126	0,044
-380,160	176,494	0,096	0,100
-379,146	263,903	0,099	0,123
-378,131	800,000	0,040	0,117
-377,117	-123,632	-0,129	0,014
-376,102	-113,915	0,023	-0,003
-375,088	-200,000	-0,030	-0,157
-374,073	800,000	-0,028	0,086
-373,058	138,689	0,086	0,080
-372,044	-90,581	0,126	0,026
-371,029	-83,296	-0,042	-0,009
-370,015	760,277	0,020	-0,039
-369,000	65,546	-0,135	-0,097
-367,985	454,474	0,044	-0,070
-366,971	-118,590	0,111	0,014
-365,956	608,784	-0,013	-0,023
-364,942	-79,785	-0,084	-0,020
-363,927	58,107	0,030	-0,021
-362,912	357,919	-0,066	0,094
-361,898	-200,000	0,022	0,083
-360,883	276,191	0,013	0,016
-359,869	800,000	0,064	-0,185
-358,854	-103,516	-0,126	0,021
-357,839	-149,407	0,059	0,003
-356,825	117,117	0,142	0,125
-355,810	178,878	0,109	-0,114
-354,796	405,584	-0,078	-0,118
-353,781	-200,000	-0,008	-0,041
-352,766	-15,513	-0,110	-0,050
-351,752	-96,956	0,067	0,012
-350,737	165,872	0,050	0,051
-349,723	800,000	0,029	-0,061
-348,708	46,452	-0,105	-0,069
-347,693	-200,000	-0,018	-0,218
-346,679	154,267	-0,098	-0,096
-345,664	162,431	-0,024	-0,024
-344,650	800,000	-0,044	-0,107
-343,635	166,260	0,047	0,047
-342,620	-105,127	-0,172	-0,028
-341,606	132,227	0,052	0,048
-340,591	800,000	0,019	0,046
-339,577	105,460	-0,033	0,028
-338,562	-105,386	0,051	0,008
-337,548	87,089	-0,106	-0,084
-336,533	457,637	-0,110	0,175
-335,518	-200,000	-0,014	0,061
-334,504	579,251	-0,080	0,139
-333,489	101,610	-0,045	-0,038
-332,475	-89,726	-0,039	0,008
-331,460	450,600	-0,031	-0,049
-330,445	-67,984	0,209	-0,058
-329,431	10,445	0,136	-0,073
-328,416	-200,000	-0,009	-0,033
-327,402	-66,470	0,128	0,036
-326,387	-136,896	0,074	0,006
-325,372	800,000	-0,051	-0,109
-324,358	44,470	0,102	-0,067
-323,343	-34,232	0,084	-0,033
-322,329	-118,214	0,124	-0,016
-321,314	-147,431	-0,065	0,004
-320,299	-200,000	-0,009	0,116
-319,285	78,328	-0,046	0,035
-318,270	173,464	-0,122	-0,125
-317,256	-126,626	-0,037	0,004
-316,241	57,827	0,080	-0,056
-315,226	-66,758	0,105	-0,029
-314,212	4,235	0,186	0,097
-313,197	501,191	0,048	0,079
-312,183	-200,000	-0,001	0,057
-311,168	434,404	-0,049	-0,076
-310,153	800,000	-0,041	-0,091
-309,139	-200,000	-0,003	0,115
-308,124	-56,971	-0,104	-0,032
-307,110	-200,000	-0,012	0,068
-306,095	800,000	0,087	0,175
-305,080	-200,000	0,001	-0,054
-304,066	-200,000	-0,020	-0,089
-303,051	778,794	0,057	0,111
-302,037	579,085	-0,073	-0,128
-301,022	-200,000	0,016	-0,120
-300,008	-36,453	0,140	0,053
-298,993	86,882	0,079	-0,062
-297,978	43,541	0,122	0,079
-296,964	-200,000	-0,025	-0,159
-295,949	-89,577	0,061	0,013
-294,935	180,692	0,020	-0,021
-293,920	800,000	-0,044	-0,092
-292,905	-125,205	0,065	0,007
-291,891	-200,000	-0,030	0,124
-290,876	75,741	-0,027	0,020
-289,862	-132,901	0,131	-0,012
-288,847	-200,000	0,003	-0,048
-287,832	800,000	0,027	-0,086
-286,818	78,312	0,037	-0,028
-285,803	-200,000	0,002	-0,091
-284,789	800,000	-0,041	-0,082
-283,774	44,721	-0,055	0,036
-282,759	278,505	-0,036	-0,046
-281,745	330,799	-0,083	0,114
-280,730	-83,073	-0,028	-0,006
-279,716	510,812	-0,042	-0,069
-278,701	-200,000	-0,002	0,018
-277,686	-177,630	0,125	-0,002
-276,672	-200,000	0,003	0,041
-275,657	-200,000	-0,014	0,064
-274,643	-140,726	-0,169	-0,012
-273,628	-200,000	-0,014	-0,076
-272,613	174,833	0,087	-0,090
-271,599	800,000	0,024	-0,050
-270,584	800,000	-0,017	0,045
-269,570	190,442	0,034	-0,036
-268,555	-0,876	0,070	0,035
-267,540	322,081	-0,047	0,063
-266,526	341,972	0,017	-0,024
-265,511	-200,000	-0,015	0,093
-264,497	74,502	0,116	0,087
-263,482	-200,000	-0,009	0,082
-262,467	800,000	0,025	-0,051
-261,453	-76,108	0,066	0,017
-260,438	93,232	-0,160	0,128
-259,424	63,356	-0,082	-0,058
-258,409	-80,562	0,053	-0,012
-257,395	195,880	-0,059	-0,064
-256,380	-200,000	0,017	0,112
-255,365	0,018	-0,017	0,008
-254,351	-200,000	0,001	0,182
-253,336	-200,000	0,012	-0,047
-252,322	-70,547	-0,034	-0,009
-251,307	800,000	-0,033	0,077
-250,292	215,538	0,063	0,071
-249,278	65,252	0,047	-0,034
-248,263	-70,053	0,043	0,012
-247,249	20,612	-0,114	-0,065
-246,234	800,000	-0,018	-0,040
-245,219	-200,000	-0,011	-0,035
-244,205	-26,756	0,068	-0,028
-243,190	24,968	0,054	-0,032
-242,176	52,003	-0,044	0,030
-241,161	-25,337	0,077	0,032
-240,146	-39,332	-0,123	0,046
-239,132	380,939	-0,007	0,011
-238,117	-80,126	-0,104	0,025
-237,103	185,232	0,043	-0,045
-236,088	218,902	0,094	-0,107
-235,073	800,000	0,047	0,113
-234,059	-165,623	-0,166	-0,005
-233,044	-43,580	0,036	-0,013
-232,030	-129,793	0,028	-0,003
-231,015	-2,189	0,073	-0,036
-230,000	-68,858	-0,014	-0,004
-228,986	-97,130	-0,105	-0,019
-227,971	-200,000	0,012	0,164
-226,957	799,205	-0,058	0,114
-225,942	626,048	-0,056	0,100
-224,927	439,322	0,025	-0,038
-223,913	94,029	-0,070	-0,056
-222,898	214,603	-0,055	-0,062
-221,884	175,288	-0,041	-0,042
-220,869	-50,116	0,049	-0,016
-219,855	-198,973	0,077	0,000
-218,840	-200,000	-0,006	0,075
-217,825	800,000	0,038	0,086
-216,811	248,883	-0,026	-0,031
-215,796	-49,118	0,018	-0,006
-214,782	800,000	0,012	-0,024
-213,767	-35,481	-0,080	0,031
-212,752	71,879	0,064	0,047
-211,738	262,773	-0,032	0,040
-210,723	96,682	-0,088	-0,071
-209,709	-116,582	-0,173	-0,022
-208,694	-30,850	-0,113	-0,045
-207,679	35,096	-0,036	-0,022
-206,665	44,098	0,131	0,085
-205,650	-51,548	-0,071	0,023
-204,636	5,087	0,142	-0,074
-203,621	-110,978	-0,076	0,011
-202,606	-60,801	-0,060	-0,018
-201,592	-200,000	-0,012	0,059
-200,577	-143,121	-0,153	-0,010
-199,563	179,915	0,100	-0,104
-198,548	-200,000	0,004	-0,050
-197,533	800,000	-0,005	-0,012
-196,519	-30,783	0,132	-0,053
-195,504	386,783	0,054	-0,080
-194,490	61,689	-0,103	-0,072
-193,475	-200,000	-0,016	0,098
-192,460	-173,321	-0,044	-0,001
-191,446	564,309	-0,033	-0,057
-190,431	103,683	-0,099	0,082
-189,417	356,146	0,103	0,146
-188,402	-90,788	-0,022	-0,004
-187,387	-72,574	-0,103	-0,027
-186,373	-200,000	0,008	-0,041
-185,358	-152,502	0,058	0,003
-184,344	800,000	0,041	-0,107
-183,329	-71,738	0,147	0,039
-182,315	-200,000	0,018	0,145
-181,300	800,000	0,020	-0,057
-180,285	800,000	-0,013	-0,032
-179,271	-200,000	-0,033	-0,113
-178,256	-200,000	0,004	-0,015
-177,242	-51,315	0,241	0,079
-176,227	-200,000	0,004	0,026
-175,212	-186,915	0,139	-0,001
-174,198	201,037	0,024	0,027
-173,183	-93,363	-0,117	0,023
-172,169	-200,000	0,025	0,085
-171,154	-8,651	0,159	0,076
-170,139	424,691	0,103	0,157
-169,125	129,692	0,103	0,094
-168,110	-200,000	0,061	0,229
-167,096	33,902	-0,088	0,054
-166,081	-87,608	0,052	-0,011
-165,066	160,490	-0,075	-0,075
-164,052	677,121	-0,022	-0,040
-163,037	209,140	0,040	-0,045
-162,023	85,964	0,098	0,076
-161,008	-123,304	0,059	0,007
-159,993	556,502	0,044	-0,076
-158,979	-103,585	0,025	-0,004
-157,964	-200,000	0,004	-0,030
-156,950	460,364	0,067	0,106
-155,935	-200,000	-0,046	0,179
-154,920	-200,000	0,061	0,239
-153,906	-182,295	0,054	0,001
-152,891	-111,387	-0,155	-0,022
-151,877	188,830	-0,020	-0,021
-150,862	374,223	-0,036	0,051
-149,847	-200,000	0,000	0,057
-148,833	35,623	0,095	0,059
-147,818	34,506	0,101	-0,062
-146,804	800,000	-0,011	-0,027
-145,789	-200,000	-0,036	0,140
-144,775	278,094	-0,068	0,086
-143,760	47,604	-0,134	-0,088
-142,745	-200,000	0,028	0,120
-141,731	78,974	-0,077	0,058
-140,716	-38,414	-0,030	-0,011
-139,702	573,321	0,088	0,153
-138,687	-4,078	0,100	-0,049
-137,672	-65,904	-0,176	0,049
-136,658	284,145	-0,044	-0,056
-135,643	-200,000	-0,015	-0,072
-134,629	800,000	-0,017	0,047
-133,614	48,443	0,172	-0,114
-132,599	6,171	0,150	0,078
-131,585	-20,174	-0,061	0,026
-130,570	-200,000	0,013	-0,089
-129,556	-200,000	0,004	-0,069
-128,541	-159,623	-0,096	-0,004
-127,526	800,000	0,026	0,059
-126,512	159,679	-0,072	-0,071
-125,497	-32,192	0,187	0,074
-124,483	390,271	0,094	0,138
-123,468	-140,018	-0,077	0,006
-122,453	22,590	0,067	0,039
-121,439	-19,823	-0,124	-0,054
-120,424	800,000	0,038	-0,116
-119,410	-200,000	0,004	0,030
-118,395	69,243	0,079	0,057
-117,380	-151,543	0,030	0,002
-116,366	-200,000	-0,004	0,019
-115,351	383,703	0,037	-0,054
-114,337	59,054	0,046	0,032
-113,322	800,000	0,027	-0,084
-112,307	-200,000	0,001	0,033
-111,293	-115,224	-0,072	0,010
-110,278	-200,000	-0,008	0,144
-109,264	455,434	-0,034	-0,054
-108,249	-200,000	-0,012	-0,056
-107,234	133,917	0,079	-0,072
-106,220	-38,918	0,166	-0,061
-105,205	749,570	0,020	-0,038
-104,191	-49,366	0,061	-0,020
-103,176	-94,820	0,084	-0,016
-102,162	190,491	-0,014	-0,015
-101,147	-8,140	-0,086	-0,041
-100,132	-200,000	-0,002	0,068
-99,118	511,948	-0,041	0,068
-98,103	-200,000	-0,015	0,050
-97,089	75,962	0,100	-0,074
-96,074	-200,000	-0,016	0,098
-95,059	82,066	-0,030	-0,023
-94,045	69,495	-0,069	-0,050
-93,030	21,281	-0,107	0,061
-92,016	800,000	0,048	-0,114
-91,001	-41,235	-0,051	0,018
-89,986	-24,893	-0,131	0,054
-88,972	258,509	0,119	0,145
-87,957	659,487	0,062	0,113
-86,943	-170,489	0,133	-0,003
-85,928	800,000	-0,041	-0,081
-84,913	-31,262	0,150	0,059
-83,899	-96,097	-0,140	0,026
-82,884	-172,132	-0,075	0,002
-81,870	-152,064	0,158	0,008
-80,855	485,868	-0,069	-0,111
-79,840	-200,000	-0,008	-0,151
-78,826	-200,000	-0,011	-0,118
-77,811	800,000	-0,048	-0,112
-76,797	370,723	-0,077	-0,111
-75,782	162,974	-0,037	-0,037
-74,767	108,787	0,084	0,071
-73,753	-49,005	0,178	-0,060
-72,738	-92,620	0,060	0,012
-71,724	164,695	0,044	-0,044
-70,709	106,998	0,083	0,070
-69,694	41,358	-0,084	0,054
-68,680	293,858	0,128	0,165
-67,665	-200,000	-0,014	-0,051
-66,651	-200,000	-0,003	0,211
-65,636	800,000	0,058	0,157
-64,622	308,442	-0,045	-0,060
-63,607	66,381	0,037	-0,027
-62,592	-58,823	0,076	0,023
-61,578	40,733	-0,076	-0,048
-60,563	179,207	0,081	0,084
-59,549	-200,000	0,032	0,104
-58,534	24,428	-1,971	-1,147
-57,519	464,131	-1,107	-1,752
-56,505	-200,000	-0,500	-4,511
-55,490	684,176	0,870	1,609
-54,476	800,000	5,096	11,317
-53,461	-200,000	21,547	344,043
-52,446	800,000	763,467	2360,402
-51,432	556,441	1665,181	2839,801
-50,417	72,738	1662,175	1221,893
-49,403	17,589	1535,863	858,621
-48,388	11,515	1459,749	786,679
-47,373	19,484	1451,048	820,208
-46,359	15,053	1440,279	793,018
-45,344	9,856	1435,857	765,801
-44,330	9,769	1434,121	764,430
-43,315	9,709	1432,342	763,167
-42,300	9,766	1430,415	762,379
-41,286	9,796	1429,292	761,893
-40,271	9,738	1428,033	760,918
-39,257	9,748	1426,871	760,315
-38,242	9,764	1425,700	759,736
-37,227	9,765	1424,539	759,089
-36,213	9,790	1423,088	758,405
-35,198	9,771	1422,124	757,774
-34,184	9,857	1420,838	757,464
-33,169	9,777	1419,718	756,459
-32,154	9,761	1418,721	755,821
-31,140	9,743	1417,387	754,995
-30,125	9,824	1416,334	754,787
-29,111	9,801	1415,374	754,138
-28,096	9,774	1414,068	753,287
-27,082	9,758	1412,788	752,498
-26,067	9,739	1411,678	751,788
-25,052	9,792	1410,651	751,459
-24,038	9,767	1409,777	750,848
-23,023	9,745	1408,733	750,158
-22,009	9,736	1407,674	749,521
-20,994	9,717	1406,618	748,843
-19,979	9,764	1405,720	748,553
-18,965	9,737	1404,913	747,967
-17,950	9,682	1404,105	747,251
-16,936	9,669	1403,341	746,755
-15,921	9,623	1402,210	745,909
-14,906	9,659	1401,186	745,502
-13,892	9,663	1400,344	745,045
-12,877	9,677	1399,412	744,583
-11,863	9,661	1398,752	744,127
-10,848	9,633	1397,744	743,433
-9,833	9,607	1396,891	742,829
-8,819	9,599	1395,969	742,274
-7,804	9,514	1395,350	741,519
-6,790	9,567	1394,131	741,087
-5,775	9,576	1393,021	740,510
-4,760	9,547	1391,991	739,797
-3,746	9,522	1391,338	739,306
-2,731	9,558	1390,402	738,946
-1,717	9,596	1389,135	738,420
-0,702	9,582	1387,740	737,581
0,313	13,686	1300,071	709,736
1,327	29,957	689,831	413,435
2,342	46,579	119,446	77,979
3,356	1,167	16,529	8,332
4,371	10,719	3,565	1,910
5,386	24,354	0,978	0,568
6,400	714,831	0,294	0,551
7,415	-23,937	-0,208	-0,087
8,429	39,743	-0,265	-0,167
9,444	117,650	-0,307	-0,266
10,459	-18,381	-0,296	-0,130
11,473	-169,611	-0,394	-0,010
12,488	-158,188	-0,143	0,006
13,502	395,169	-0,114	-0,167
14,517	216,459	-0,219	-0,245
15,531	93,707	-0,295	-0,235
16,546	6,450	-0,420	-0,219
17,561	263,148	-0,266	-0,326
18,575	-25,885	-0,287	0,118
19,590	91,143	-0,218	-0,172
20,604	-44,866	-0,396	-0,138
21,619	-129,820	-0,453	-0,043
22,634	25,828	-0,365	-0,213
23,648	257,903	-0,373	-0,453
24,663	63,302	-0,492	-0,346
25,677	103,642	-0,378	-0,312
26,692	-66,521	-0,375	-0,104
27,707	-22,538	-0,309	-0,131
28,721	112,632	-0,370	-0,315
29,736	53,342	-0,445	-0,299
30,750	131,109	-0,422	-0,381
31,765	52,072	-0,385	-0,258
32,780	297,675	-0,244	-0,316
33,794	28,259	-0,296	-0,176
34,809	62,956	-0,345	-0,242
35,823	-14,725	-0,474	-0,213
36,838	109,036	-0,440	-0,370
37,853	78,133	-0,364	-0,273
38,867	11,608	-0,378	-0,203
39,882	167,846	-0,186	-0,186
40,896	51,124	-0,296	-0,197
41,911	84,618	-0,324	-0,249
42,926	-28,722	-0,465	-0,187
43,940	148,126	-0,277	-0,263
44,955	-12,704	-0,506	-0,231
45,969	92,275	-0,304	-0,241
46,984	331,624	-0,191	-0,259
47,999	-200,000	-0,096	-0,305
49,013	49,234	-0,348	-0,229
50,028	18,030	-0,353	-0,197
51,042	98,594	-0,402	-0,325
52,057	144,853	-0,406	-0,381
53,071	25,343	-0,314	-0,183
54,086	-3,522	-0,428	-0,208
55,101	-132,018	-0,354	0,032
56,115	-57,357	-0,359	-0,110
57,130	4,891	-0,353	-0,181
58,144	-31,388	-0,418	-0,164
59,159	25,346	-0,451	-0,262
60,174	180,467	-0,317	-0,327
61,188	1,857	-0,338	-0,170
62,203	9,643	-0,299	-0,158
63,217	68,146	-0,318	-0,228
64,232	313,613	-0,203	-0,268
65,247	16,785	-0,327	-0,181
66,261	64,420	-0,381	-0,268
67,276	137,378	-0,351	-0,322
68,290	101,659	-0,332	-0,271
69,305	73,183	-0,300	-0,220
70,320	-16,309	-0,286	-0,127
71,334	152,233	-0,293	-0,280
72,349	431,675	-0,179	-0,273
73,363	-46,624	-0,415	-0,142
74,378	-25,471	-0,270	-0,111
75,393	77,561	-0,400	-0,298
76,407	14,999	-0,298	-0,163
77,422	4,746	-0,339	-0,174
78,436	-73,567	-0,227	-0,058
79,451	42,701	-0,277	-0,176
80,466	32,177	-0,259	-0,156
81,480	-38,079	-0,458	-0,169
82,495	152,928	-0,264	-0,252
83,509	652,868	-0,175	-0,316
84,524	78,800	-0,260	-0,194
85,539	50,857	-0,154	-0,102
86,553	13,536	-0,213	-0,115
87,568	123,680	-0,288	-0,253
88,582	71,976	-0,374	-0,272
89,597	2,761	-0,485	-0,245
90,611	-17,316	-0,394	-0,173
91,626	75,766	-0,347	-0,256
92,641	800,000	-0,158	-0,309
93,655	197,065	-0,228	-0,243
94,670	150,289	-0,193	-0,183
95,684	24,293	-0,300	-0,173
96,699	-45,384	-0,335	-0,115
97,714	62,979	-0,255	-0,178
98,728	222,477	-0,183	-0,206
99,743	71,581	-0,247	-0,179
100,757	-66,750	-0,449	-0,123
101,772	-22,014	-0,221	-0,094
102,787	249,161	-0,268	-0,318
103,801	5,234	-0,301	-0,155
104,816	-59,064	-0,249	-0,075
105,830	28,818	-0,221	-0,131
106,845	-132,126	-0,311	-0,028
107,860	149,827	-0,152	-0,144
108,874	31,450	-0,307	-0,184
109,889	282,777	-0,165	-0,207
110,903	139,354	-0,182	-0,168
111,918	-35,353	-0,306	-0,116
112,933	237,903	-0,249	-0,289
113,947	-4,889	-0,256	-0,123
114,962	-98,406	-0,234	0,041
115,976	104,019	-0,167	-0,137
116,991	68,167	-0,290	-0,207
118,006	171,165	-0,227	-0,227
119,020	171,249	-0,236	-0,236
120,035	301,250	-0,136	-0,175
121,049	-44,380	-0,306	-0,106
122,064	-124,676	-0,229	-0,024
123,079	36,121	-0,330	-0,202
124,093	-55,142	-0,322	-0,100
125,108	246,152	-0,185	-0,218
126,122	-25,682	-0,286	-0,117
127,137	119,979	-0,205	-0,177
128,151	-12,721	-0,228	-0,103
129,166	-84,189	-0,209	-0,046
130,181	34,573	-0,124	-0,076
131,195	187,240	-0,170	-0,177
132,210	33,259	-0,198	-0,119
133,224	245,760	-0,250	-0,294
134,239	15,498	-0,171	-0,093
135,254	241,678	-0,116	-0,135
136,268	23,651	-0,289	-0,165
137,283	-47,241	-0,265	-0,090
138,297	378,311	-0,171	-0,244
139,312	19,180	-0,290	-0,162
140,327	113,106	-0,254	-0,215
141,341	154,602	-0,298	-0,285
142,356	-46,411	-0,209	-0,071
143,370	-42,203	-0,148	-0,053
144,385	208,187	-0,240	-0,261
145,400	149,271	-0,262	-0,247
146,414	110,199	-0,236	-0,197
147,429	38,479	-0,307	-0,190
148,443	197,017	-0,177	-0,188
149,458	-97,644	-0,158	-0,028
150,473	201,266	-0,130	-0,139
151,487	173,082	-0,254	-0,255
152,502	20,692	-0,310	-0,174
153,516	49,628	-0,342	-0,224
154,531	302,121	-0,206	-0,265
155,546	1,452	-0,275	-0,137
156,560	128,910	-0,243	-0,216
157,575	87,875	-0,243	-0,187
158,589	101,640	-0,190	-0,154
159,604	37,442	-0,205	-0,126
160,619	-163,845	-0,256	-0,008
161,633	52,779	-0,311	-0,206
162,648	-17,954	-0,318	-0,138
163,662	-19,977	-0,168	-0,072
164,677	-14,006	-0,260	-0,116
165,692	-18,829	-0,326	-0,141
166,706	101,971	-0,306	-0,248
167,721	7,263	-0,224	-0,116
168,735	-8,033	-0,363	-0,169
169,750	191,473	-0,171	-0,179
170,764	-84,609	-0,224	-0,049
171,779	137,115	-0,108	-0,098
172,794	196,166	-0,254	-0,269
173,808	-155,499	-0,249	-0,011
174,823	227,765	-0,159	-0,180
175,837	-31,606	-0,307	-0,119
176,852	-5,759	-0,235	-0,111
177,867	-96,465	-0,241	0,044
178,881	-48,332	-0,177	-0,059
179,896	117,097	-0,251	-0,214
180,910	262,645	-0,249	-0,301
181,925	157,348	-0,214	-0,205
182,940	261,790	-0,197	-0,237
183,954	37,135	-0,275	-0,168
184,969	237,382	-0,175	-0,201
185,983	59,570	-0,210	-0,143
186,998	18,170	-0,242	-0,134
188,013	140,555	-0,131	-0,120
189,027	175,676	-0,327	-0,329
190,042	3,031	-0,343	-0,172
191,056	99,482	-0,274	-0,219
192,071	-32,036	-0,227	-0,088
193,086	95,028	-0,129	-0,102
194,100	800,000	-0,063	-0,151
195,115	-144,836	-0,248	-0,016
196,129	33,158	-0,183	-0,110
197,144	114,201	-0,278	-0,235
198,159	-135,624	-0,212	-0,017
199,173	79,543	-0,148	-0,110
200,188	-6,491	-0,165	-0,078
201,202	369,154	-0,132	-0,185
202,217	-57,899	-0,222	-0,067
203,232	124,024	-0,249	-0,216
204,246	272,001	-0,137	-0,168
205,261	442,471	-0,144	-0,220
206,275	-53,192	-0,256	-0,081
207,290	-46,009	-0,104	-0,035
208,304	-17,436	-0,179	-0,078
209,319	84,631	-0,201	-0,152
210,334	177,113	-0,207	-0,209
211,348	-60,852	-0,281	-0,082
212,363	41,672	-0,243	-0,152
213,377	-34,483	-0,271	-0,102
214,392	144,826	-0,108	0,100
215,407	459,662	-0,106	-0,163
216,421	404,716	-0,117	-0,171
217,436	800,000	-0,094	-0,240
218,450	95,535	-0,205	-0,161
219,465	-24,144	-0,220	-0,090
220,480	800,000	-0,083	-0,184
221,494	116,586	-0,192	-0,163
222,509	64,811	-0,126	-0,088
223,523	87,534	-0,158	-0,121
224,538	63,112	-0,224	-0,155
225,553	291,571	-0,252	-0,318
226,567	-60,967	-0,321	-0,093
227,582	-100,069	-0,316	-0,054
228,596	80,030	-0,179	-0,133
229,611	800,000	-0,055	-0,107
230,626	-141,457	-0,181	0,012
231,640	143,206	-0,189	-0,174
232,655	59,112	-0,204	-0,139
233,669	405,473	-0,130	-0,190
234,684	451,397	-0,159	-0,243
235,699	800,000	-0,041	-0,086
236,713	43,437	-0,190	-0,120
237,728	-52,822	-0,126	-0,040
238,742	215,192	-0,172	-0,189
239,757	139,881	-0,192	-0,174
240,772	41,976	-0,164	-0,103
241,786	-50,494	-0,198	-0,064
242,801	5,346	-0,159	-0,081
243,815	-23,721	-0,185	-0,076
244,830	-70,565	-0,274	-0,071
245,844	-200,000	-0,006	-0,055
246,859	114,746	-0,152	-0,128
247,874	-200,000	-0,064	-0,304
248,888	-11,598	-0,254	-0,115
249,903	-125,568	-0,210	-0,022
250,917	92,307	-0,154	-0,120
251,932	800,000	-0,094	-0,277
252,947	294,616	-0,174	-0,220
253,961	121,790	-0,248	-0,213
254,976	36,181	-0,164	-0,099
255,990	-19,754	-0,171	-0,073
257,005	143,141	-0,106	-0,098
258,020	-78,213	-0,077	0,018
259,034	103,989	-0,129	-0,105
260,049	-86,231	-0,113	-0,024
261,063	701,844	-0,073	-0,133
262,078	-105,250	-0,223	0,035
263,093	-39,799	-0,157	-0,056
264,107	9,198	-0,282	-0,146
265,122	-88,757	-0,111	-0,023
266,136	45,532	-0,174	-0,110
267,151	-129,035	-0,250	-0,024
268,166	-197,049	-0,040	-0,000
269,180	26,801	-0,234	-0,135
270,195	-64,701	-0,110	-0,030
271,209	318,214	-0,184	-0,241
272,224	-12,021	-0,147	-0,066
273,239	-67,971	-0,239	0,064
274,253	-140,479	-0,069	0,005
275,268	48,730	-0,235	-0,151
276,282	104,368	-0,170	-0,138
277,297	-26,462	-0,169	-0,068
278,312	-80,886	-0,348	-0,079
279,326	118,610	-0,083	-0,070
280,341	26,973	-0,136	-0,078
281,355	392,087	-0,107	-0,154
282,370	-189,387	-0,188	-0,001
283,384	92,480	-0,086	-0,067
284,399	108,414	-0,143	-0,117
285,414	-200,000	-0,037	-0,133
286,428	-55,502	-0,081	-0,025
287,443	-118,291	-0,131	-0,016
288,457	-71,740	-0,222	-0,056
289,472	373,579	-0,132	-0,185
290,487	21,695	-0,137	-0,076
291,501	106,856	-0,176	-0,144
292,516	292,476	-0,094	-0,118
293,530	-200,000	0,005	-0,114
294,545	72,194	-0,103	-0,073
295,560	-78,233	-0,228	-0,053
296,574	29,711	-0,162	-0,094
297,589	199,817	-0,213	-0,224
298,603	25,704	-0,155	-0,088
299,618	758,821	-0,104	-0,194
300,633	96,951	-0,201	-0,158
301,647	-183,727	-0,107	-0,001
302,662	-68,689	-0,078	0,021
303,676	-51,943	-0,036	-0,011
304,691	5,971	-0,149	-0,076
305,706	192,016	-0,122	-0,126
306,720	-35,351	-0,184	-0,068
307,735	800,000	-0,091	-0,182
308,749	-32,262	-0,145	0,055
309,764	226,586	-0,109	-0,122
310,779	404,746	-0,084	-0,121
311,793	7,693	-0,173	-0,088
312,808	-77,500	-0,288	-0,068
313,822	3,291	-0,055	0,027
314,837	52,016	-0,163	-0,106
315,852	394,244	-0,058	-0,083
316,866	7,847	-0,146	-0,075
317,881	-57,949	-0,166	-0,049
318,895	156,376	-0,186	-0,176
319,910	341,385	-0,125	-0,168
320,925	257,249	-0,073	-0,086
321,939	551,655	-0,118	-0,195
322,954	-200,000	-0,020	-0,172
323,968	-40,747	-0,053	-0,019
324,983	-136,571	-0,180	-0,014
325,997	120,630	-0,152	-0,129
327,012	13,036	-0,084	-0,044
328,027	-22,293	-0,139	-0,057
329,041	728,863	-0,093	-0,170
330,056	800,000	-0,052	-0,113
331,070	800,000	-0,018	-0,045
332,085	-154,513	-0,118	-0,005
333,100	-87,791	-0,169	-0,035
334,114	-56,297	-0,138	-0,042
335,129	-200,000	0,014	-0,064
336,143	-200,000	-0,050	-0,217
337,158	-200,000	-0,030	-0,143
338,173	110,120	0,015	0,012
339,187	405,475	-0,095	-0,138
340,202	24,780	-0,151	-0,085
341,216	-46,287	-0,186	-0,062
342,231	-55,286	-0,195	-0,060
343,246	173,906	-0,223	-0,220
344,260	-200,000	-0,010	-0,038
345,275	-88,559	-0,109	-0,022
346,289	271,019	-0,084	-0,102
347,304	-17,387	-0,181	-0,077
348,319	-157,414	-0,213	0,009
349,333	800,000	-0,099	-0,252
350,348	800,000	-0,100	-0,218
351,362	-165,721	-0,226	-0,007
352,377	800,000	0,023	0,051
353,392	-182,062	-0,134	-0,002
354,406	-42,423	-0,185	-0,064
355,421	208,307	1312,349	1403,271
356,435	160,278	1472,751	1403,736
