DTS Sentinel unit serial number:	SN410029Multiplexer serial number:	ORYXHardware model number:	OX2-SRSoftware version number:	ORYX F/W v4,00 Oryx Data Collector v3.7.2.0data status	okinstallation	B3 Nyhavnadifferential loss correction	single-endedforward channel	channel 1reverse channel	N/Adate	2023/11/29time	05:32:30forward acquisition time	300,00reverse acquisition time	0,00gamma	499,1914k internal	0,3211k external	0,3211temperature offset calibration	1,0000default loss term (dB/km)	0,3820temperature slope calibration	1,0000multiplexer offset coefficient	1,0000multiplexer slope coefficient	1,0000fibre end	0,00T internal ref (°C)	9,08T ext. ref 1 (°C)	-6,32T ext. ref 2 (°C)	-6,46length (m)	temperature (°C)	Stokes	anti-Stokes-744,400	206,775	-0,132	-0,150
-743,385	-200,000	0,042	0,305
-742,371	146,470	-0,188	-0,184
-741,356	-200,000	0,059	0,372
-740,342	181,205	-0,212	-0,226
-739,327	-200,000	0,056	0,229
-738,312	32,225	-0,238	-0,148
-737,298	800,000	0,109	0,264
-736,283	151,225	-0,142	-0,140
-735,269	-200,000	-0,036	0,231
-734,254	149,090	-0,234	-0,230
-733,239	62,542	-0,187	0,135
-732,225	211,586	-0,133	-0,151
-731,210	102,464	0,103	0,087
-730,196	-82,443	0,072	0,017
-729,181	800,000	-0,048	-0,120
-728,167	-200,000	-0,019	-0,065
-727,152	-200,000	-0,050	-0,168
-726,137	-64,062	-0,029	0,009
-725,123	17,038	-0,089	-0,051
-724,108	-2,261	-0,262	-0,133
-723,094	34,753	-0,091	-0,058
-722,079	-200,000	0,005	-0,025
-721,064	-200,000	0,010	-0,074
-720,050	492,875	0,034	-0,056
-719,035	192,047	-0,061	0,067
-718,021	-200,000	0,042	-0,182
-717,006	-200,000	0,024	-0,088
-715,991	117,351	-0,071	-0,063
-714,977	-200,000	0,047	0,277
-713,962	33,785	0,022	-0,014
-712,948	206,363	-0,096	0,108
-711,933	-61,001	0,040	-0,012
-710,918	-108,016	-0,093	-0,014
-709,904	215,347	-0,047	-0,054
-708,889	130,280	-0,086	0,080
-707,875	-200,000	0,057	-0,239
-706,860	5,177	-0,078	-0,041
-705,845	-200,000	0,015	-0,070
-704,831	145,567	-0,120	0,116
-703,816	150,377	0,083	0,082
-702,802	-43,448	-0,018	0,007
-701,787	-38,221	-0,091	-0,035
-700,772	65,483	0,031	0,023
-699,758	-65,603	0,055	-0,016
-698,743	-55,163	0,068	-0,022
-697,729	100,049	-0,047	0,039
-696,714	-200,000	-0,020	0,078
-695,699	800,000	0,040	-0,081
-694,685	93,072	0,072	0,059
-693,670	-200,000	0,025	-0,098
-692,656	-200,000	-0,005	-0,062
-691,641	-93,880	0,062	0,012
-690,627	520,851	0,072	-0,122
-689,612	-200,000	-0,003	-0,027
-688,597	-125,429	-0,074	0,008
-687,583	4,534	-0,198	-0,105
-686,568	-200,000	-0,021	-0,110
-685,554	-89,441	0,028	-0,006
-684,539	-20,006	-0,130	-0,058
-683,524	137,398	0,064	-0,061
-682,510	217,689	0,103	-0,119
-681,495	-131,083	-0,107	0,010
-680,481	43,117	-0,142	0,094
-679,466	-200,000	0,002	-0,107
-678,451	800,000	0,024	-0,056
-677,437	-13,359	0,106	0,049
-676,422	268,909	0,077	0,098
-675,408	646,393	-0,079	0,146
-674,393	-200,000	0,013	-0,053
-673,378	-92,769	-0,075	-0,015
-672,364	111,362	-0,108	0,094
-671,349	50,849	0,064	0,044
-670,335	192,965	0,107	0,116
-669,320	578,552	0,050	0,089
-668,305	-23,254	-0,102	0,044
-667,291	-62,806	-0,051	-0,015
-666,276	57,692	-0,089	-0,063
-665,262	-93,485	-0,077	-0,015
-664,247	-44,810	-0,057	-0,021
-663,232	-57,899	0,053	0,017
-662,218	111,140	0,140	0,122
-661,203	112,779	0,073	0,063
-660,189	-174,366	0,099	0,002
-659,174	-200,000	0,020	-0,131
-658,159	-200,000	-0,044	0,154
-657,145	-200,000	-0,027	0,115
-656,130	36,354	0,017	-0,011
-655,116	-200,000	0,034	0,121
-654,101	-114,996	-0,036	0,005
-653,086	-153,116	0,178	0,009
-652,072	32,683	-0,208	0,130
-651,057	-119,018	-0,137	0,017
-650,043	-200,000	-0,008	0,090
-649,028	-30,298	0,090	-0,037
-648,014	354,715	0,065	-0,094
-646,999	41,114	-0,067	0,043
-645,984	31,688	0,072	-0,044
-644,970	-200,000	0,003	-0,054
-643,955	-200,000	0,009	-0,048
-642,941	-200,000	-0,042	-0,142
-641,926	800,000	-0,076	-0,182
-640,911	118,832	0,032	-0,028
-639,897	-52,061	-0,059	-0,020
-638,882	-14,109	0,087	-0,040
-637,868	-68,451	-0,125	-0,035
-636,853	145,806	-0,110	-0,106
-635,838	800,000	-0,016	-0,033
-634,824	18,745	-0,225	0,129
-633,809	-81,696	0,177	-0,041
-632,795	-200,000	-0,011	0,114
-631,780	-200,000	0,017	-0,071
-630,765	-74,033	-0,057	0,015
-629,751	-200,000	-0,018	0,080
-628,736	-36,418	0,085	0,033
-627,722	-200,000	-0,046	-0,158
-626,707	-66,194	0,088	0,025
-625,692	44,934	0,068	0,045
-624,678	149,448	0,009	0,009
-623,663	7,621	0,035	0,019
-622,649	624,259	-0,030	0,055
-621,634	-200,000	0,020	-0,070
-620,619	800,000	-0,024	-0,049
-619,605	403,303	-0,057	-0,087
-618,590	800,000	0,018	-0,056
-617,576	-200,000	-0,020	-0,102
-616,561	49,414	0,067	-0,045
-615,546	-48,834	-0,072	0,025
-614,532	-32,630	-0,033	0,013
-613,517	-111,628	-0,048	-0,007
-612,503	254,045	0,082	0,101
-611,488	-55,242	0,069	-0,022
-610,474	575,020	-0,097	0,171
-609,459	559,959	0,049	0,086
-608,444	20,031	-0,214	-0,124
-607,430	91,412	-0,049	0,039
-606,415	-109,299	-0,096	0,015
-605,401	145,924	0,070	-0,067
-604,386	-64,935	-0,068	-0,020
-603,371	497,145	-0,057	0,095
-602,357	-200,000	-0,006	0,039
-601,342	-120,033	-0,098	-0,012
-600,328	6,501	-0,069	0,037
-599,313	800,000	0,013	0,040
-598,298	159,769	0,074	-0,075
-597,284	-16,590	-0,153	-0,070
-596,269	-0,803	-0,082	0,042
-595,255	30,150	0,078	-0,048
-594,240	-45,004	0,032	0,012
-593,225	14,479	-0,102	-0,057
-592,211	800,000	-0,009	-0,028
-591,196	303,278	0,065	0,087
-590,182	5,554	0,138	0,073
-589,167	-64,235	0,115	0,034
-588,152	505,001	-0,056	-0,094
-587,138	97,530	0,027	-0,022
-586,123	652,497	-0,083	-0,154
-585,109	-200,000	0,015	-0,053
-584,094	-56,297	0,091	0,029
-583,079	101,589	-0,076	-0,064
-582,065	184,807	-0,110	0,118
-581,050	191,338	0,045	-0,049
-580,036	369,547	-0,027	0,040
-579,021	-8,771	0,130	-0,062
-578,006	14,608	0,089	-0,050
-576,992	406,511	0,016	-0,025
-575,977	319,661	0,043	0,059
-574,963	122,294	0,085	0,076
-573,948	-200,000	-0,078	-0,000
-572,934	-200,000	0,004	0,032
-571,919	-129,863	-0,156	-0,015
-570,904	179,917	0,054	-0,057
-569,890	-32,571	0,072	0,029
-568,875	-200,000	0,004	0,075
-567,861	800,000	0,050	0,118
-566,846	-200,000	0,041	-0,132
-565,831	337,046	-0,028	0,039
-564,817	-27,882	0,061	0,025
-563,802	-140,989	-0,120	0,009
-562,788	-144,101	-0,048	0,003
-561,773	-158,426	-0,063	-0,003
-560,758	91,093	0,062	0,050
-559,744	-151,379	-0,127	0,007
-558,729	800,000	0,036	-0,084
-557,715	-200,000	-0,020	-0,159
-556,700	800,000	-0,041	-0,109
-555,685	-200,000	-0,007	-0,037
-554,671	28,271	0,076	0,046
-553,656	25,028	0,076	-0,045
-552,642	-85,461	0,155	0,035
-551,627	58,545	-0,069	0,049
-550,612	116,674	-0,066	-0,058
-549,598	144,597	0,056	-0,054
-548,583	-200,000	-0,014	0,060
-547,569	-51,942	0,135	0,045
-546,554	65,809	-0,038	-0,027
-545,539	-200,000	0,009	0,086
-544,525	189,752	0,046	-0,049
-543,510	-125,450	-0,159	-0,017
-542,496	40,068	0,060	-0,039
-541,481	800,000	-0,022	-0,063
-540,466	-200,000	-0,004	-0,037
-539,452	42,120	0,084	-0,055
-538,437	42,538	0,068	0,044
-537,423	-200,000	-0,003	0,111
-536,408	266,379	-0,110	-0,138
-535,393	800,000	0,055	-0,143
-534,379	800,000	0,037	0,086
-533,364	629,114	-0,068	-0,125
-532,350	-200,000	0,014	0,111
-531,335	11,214	0,085	-0,046
-530,321	104,924	0,035	-0,030
-529,306	-200,000	-0,021	-0,117
-528,291	-98,879	-0,085	0,015
-527,277	-200,000	0,010	-0,127
-526,262	14,282	0,040	-0,022
-525,248	-83,877	-0,086	-0,020
-524,233	-76,389	0,021	-0,005
-523,218	136,137	0,135	-0,127
-522,204	-50,246	0,089	-0,030
-521,189	-200,000	0,011	-0,051
-520,175	-200,000	-0,011	-0,052
-519,160	-47,133	-0,118	0,041
-518,145	50,752	0,091	-0,062
-517,131	50,382	0,082	0,056
-516,116	263,683	0,024	-0,031
-515,102	93,766	-0,105	-0,086
-514,087	-143,638	-0,070	0,005
-513,072	800,000	0,036	-0,080
-512,058	-34,117	-0,049	0,019
-511,043	-6,688	0,016	0,008
-510,029	124,091	0,039	0,036
-509,014	-193,488	0,072	-0,000
-507,999	437,168	0,015	0,024
-506,985	246,007	-0,076	-0,092
-505,970	293,524	-0,012	-0,015
-504,956	531,471	-0,111	-0,190
-503,941	-200,000	0,024	0,136
-502,926	800,000	-0,090	0,221
-501,912	-69,089	-0,055	-0,015
-500,897	325,505	-0,046	0,063
-499,883	-21,182	0,056	0,024
-498,868	251,612	0,005	0,007
-497,853	-171,022	-0,132	-0,003
-496,839	-8,775	0,224	0,107
-495,824	26,005	0,142	0,085
-494,810	106,089	-0,063	0,053
-493,795	800,000	-0,019	0,048
-492,781	106,136	0,045	0,038
-491,766	-200,000	-0,022	0,126
-490,751	28,852	-0,092	0,056
-489,737	606,311	0,037	0,066
-488,722	76,098	-0,077	-0,059
-487,708	186,264	0,008	-0,008
-486,693	135,795	0,066	0,062
-485,678	800,000	-0,037	0,078
-484,664	-51,271	-0,039	0,013
-483,649	-200,000	-0,016	-0,088
-482,635	-200,000	-0,007	-0,021
-481,620	800,000	-0,040	0,098
-480,605	152,075	0,078	0,076
-479,591	-200,000	-0,005	-0,038
-478,576	-163,181	-0,038	0,001
-477,562	-200,000	0,003	0,019
-476,547	800,000	0,027	-0,061
-475,532	-16,272	-0,087	0,039
-474,518	-16,607	0,028	-0,013
-473,503	-78,769	0,145	-0,035
-472,489	-200,000	0,012	0,069
-471,474	81,864	-0,098	-0,076
-470,459	-64,740	0,039	-0,011
-469,445	-87,566	-0,081	-0,018
-468,430	163,567	-0,166	-0,167
-467,416	29,865	0,146	-0,089
-466,401	-200,000	0,011	0,071
-465,386	77,653	0,046	0,035
-464,372	-200,000	0,002	-0,080
-463,357	-33,224	0,087	0,034
-462,343	389,628	-0,085	-0,126
-461,328	-200,000	-0,000	-0,052
-460,313	92,564	-0,039	-0,032
-459,299	136,587	0,065	0,061
-458,284	-200,000	0,035	0,144
-457,270	800,000	-0,038	0,085
-456,255	-65,596	-0,099	-0,028
-455,241	264,038	-0,050	-0,062
-454,226	-28,342	-0,045	-0,018
-453,211	152,828	0,017	-0,016
-452,197	-130,711	0,057	-0,005
-451,182	-200,000	0,004	0,036
-450,168	131,186	-0,049	-0,045
-449,153	25,771	0,101	0,060
-448,138	-200,000	0,008	-0,058
-447,124	102,760	0,088	-0,073
-446,109	672,826	0,045	0,084
-445,095	66,961	-0,034	0,025
-444,080	-141,684	0,129	-0,009
-443,065	217,139	0,016	0,019
-442,051	800,000	-0,024	-0,049
-441,036	800,000	-0,055	-0,114
-440,022	255,311	-0,039	-0,048
-439,007	800,000	0,040	-0,091
-437,992	-34,983	0,156	-0,061
-436,978	1,209	0,069	0,035
-435,963	33,849	-0,083	-0,052
-434,949	-53,144	0,066	-0,022
-433,934	-200,000	-0,011	-0,050
-432,919	800,000	-0,090	-0,204
-431,905	800,000	-0,018	-0,045
-430,890	-200,000	-0,004	-0,088
-429,876	-38,624	0,049	-0,018
-428,861	-200,000	0,001	-0,004
-427,846	800,000	-0,021	-0,053
-426,832	62,071	-0,064	-0,045
-425,817	-36,028	-0,112	0,043
-424,803	2,341	-0,085	-0,044
-423,788	773,154	-0,049	-0,096
-422,773	331,261	0,070	0,097
-421,759	-200,000	0,052	0,210
-420,744	800,000	-0,021	0,049
-419,730	800,000	0,072	0,162
-418,715	-63,866	-0,083	-0,024
-417,701	94,342	-0,059	-0,048
-416,686	53,678	0,023	-0,016
-415,671	-3,748	-0,073	0,036
-414,657	242,730	0,062	0,075
-413,642	-74,250	-0,078	-0,020
-412,628	800,000	0,020	-0,051
-411,613	-111,011	0,045	-0,006
-410,598	465,335	-0,068	-0,110
-409,584	800,000	0,034	-0,070
-408,569	800,000	0,013	-0,033
-407,555	-135,646	-0,103	0,009
-406,540	800,000	-0,065	0,142
-405,525	40,262	-0,143	-0,092
-404,511	-200,000	-0,022	-0,120
-403,496	-122,200	0,069	-0,008
-402,482	-99,698	0,105	-0,019
-401,467	65,780	0,067	0,049
-400,452	-184,816	0,110	-0,001
-399,438	269,199	-0,134	0,169
-398,423	-200,000	0,000	0,016
-397,409	292,752	-0,080	-0,105
-396,394	-200,000	-0,012	-0,080
-395,379	-200,000	0,004	-0,019
-394,365	105,479	-0,127	0,107
-393,350	353,677	0,066	0,093
-392,336	-200,000	0,017	0,152
-391,321	-126,228	0,133	0,014
-390,306	-169,439	-0,062	0,002
-389,292	-200,000	0,001	0,087
-388,277	800,000	0,004	0,014
-387,263	295,519	0,021	0,027
-386,248	146,075	0,154	0,147
-385,233	-200,000	-0,007	-0,073
-384,219	19,059	-0,050	0,029
-383,204	68,851	-0,073	-0,054
-382,190	33,947	0,067	-0,042
-381,175	-200,000	0,023	-0,144
-380,160	335,893	0,050	0,069
-379,146	-145,677	0,028	-0,002
-378,131	-200,000	0,000	0,102
-377,117	114,090	-0,037	-0,032
-376,102	-200,000	-0,001	-0,047
-375,088	-200,000	-0,018	-0,228
-374,073	800,000	0,030	-0,082
-373,058	-200,000	0,026	0,083
-372,044	174,194	0,111	0,115
-371,029	-200,000	-0,023	0,170
-370,015	-92,958	-0,073	0,014
-369,000	311,922	-0,120	-0,162
-367,985	-200,000	-0,016	0,107
-366,971	33,056	-0,092	0,057
-365,956	3,934	-0,007	0,004
-364,942	-200,000	0,007	0,101
-363,927	-200,000	-0,051	0,194
-362,912	85,142	-0,118	0,092
-361,898	-200,000	-0,072	0,284
-360,883	742,826	-0,045	-0,086
-359,869	164,905	-0,073	0,074
-358,854	17,356	0,148	0,083
-357,839	800,000	0,045	0,116
-356,825	283,963	0,096	0,124
-355,810	-200,000	-0,005	0,016
-354,796	-20,858	0,028	0,012
-353,781	457,953	-0,036	0,057
-352,766	-133,658	-0,131	-0,012
-351,752	514,559	-0,025	-0,042
-350,737	-104,585	-0,047	0,008
-349,723	73,884	-0,067	-0,050
-348,708	800,000	0,048	0,131
-347,693	127,242	0,033	-0,030
-346,679	78,484	0,028	0,021
-345,664	-200,000	0,003	-0,036
-344,650	245,394	0,040	-0,048
-343,635	-200,000	-0,002	-0,076
-342,620	135,193	0,088	0,082
-341,606	-29,065	-0,082	-0,033
-340,591	-71,578	-0,029	-0,008
-339,577	-76,888	-0,087	-0,022
-338,562	-16,878	0,013	-0,006
-337,548	210,656	0,068	0,077
-336,533	-14,884	0,103	0,047
-335,518	-146,525	0,086	0,005
-334,504	241,393	0,060	0,072
-333,489	147,135	-0,046	0,045
-332,475	-200,000	0,012	-0,042
-331,460	-200,000	0,014	-0,097
-330,445	145,094	0,074	-0,070
-329,431	800,000	-0,062	0,140
-328,416	-200,000	-0,007	0,134
-327,402	800,000	-0,024	0,071
-326,387	-200,000	-0,033	0,113
-325,372	-200,000	-0,004	0,103
-324,358	-61,940	-0,036	-0,011
-323,343	-200,000	0,021	-0,155
-322,329	800,000	0,023	0,056
-321,314	39,476	-0,021	0,014
-320,299	-91,039	-0,139	0,028
-319,285	-14,660	0,198	0,090
-318,270	-135,274	0,149	-0,013
-317,256	-6,019	-0,047	0,023
-316,241	310,759	0,116	0,155
-315,226	42,421	-0,111	0,072
-314,212	800,000	0,055	-0,111
-313,197	175,160	0,188	0,194
-312,183	-200,000	-0,004	-0,027
-311,168	-163,257	-0,131	0,004
-310,153	59,573	-0,117	0,082
-309,139	-4,448	-0,079	-0,039
-308,124	-200,000	-0,019	0,088
-307,110	-200,000	0,009	0,093
-306,095	-200,000	-0,007	0,068
-305,080	-139,388	0,051	0,004
-304,066	719,170	-0,022	0,041
-303,051	-142,277	-0,038	-0,003
-302,037	-136,668	0,089	-0,007
-301,022	-200,000	0,014	0,057
-300,008	107,334	0,060	0,051
-298,993	800,000	-0,013	0,033
-297,978	235,511	0,033	0,039
-296,964	-92,805	-0,052	0,010
-295,949	-200,000	-0,020	-0,075
-294,935	800,000	-0,022	-0,054
-293,920	-62,824	0,067	-0,020
-292,905	147,736	-0,048	-0,046
-291,891	63,150	0,100	-0,071
-290,876	-200,000	-0,011	0,041
-289,862	800,000	0,036	0,075
-288,847	-92,750	-0,109	0,021
-287,832	-99,483	0,074	-0,013
-286,818	-8,381	-0,221	-0,105
-285,803	-200,000	-0,012	0,051
-284,789	116,289	0,072	0,062
-283,774	-85,182	-0,037	-0,008
-282,759	-54,338	-0,038	-0,012
-281,745	-28,941	-0,130	0,053
-280,730	70,852	-0,112	-0,083
-279,716	59,895	0,023	-0,016
-278,701	124,637	0,128	0,115
-277,686	-200,000	0,021	0,079
-276,672	237,404	0,103	0,122
-275,657	-55,775	0,073	-0,023
-274,643	499,804	-0,085	0,141
-273,628	34,454	-0,028	0,017
-272,613	-200,000	-0,023	-0,107
-271,599	-77,620	0,075	0,018
-270,584	627,149	-0,036	0,066
-269,570	-39,275	0,098	0,036
-268,555	-105,718	0,137	-0,022
-267,540	-200,000	0,026	-0,100
-266,526	174,859	-0,127	-0,131
-265,511	-2,290	0,122	-0,061
-264,497	61,852	0,076	0,054
-263,482	800,000	-0,026	-0,059
-262,467	800,000	0,047	0,108
-261,453	-87,110	-0,106	0,023
-260,438	698,740	-0,066	-0,125
-259,424	-200,000	0,036	-0,126
-258,409	751,776	0,026	0,050
-257,395	-200,000	-0,006	-0,085
-256,380	414,320	-0,037	-0,057
-255,365	322,854	0,051	0,070
-254,351	800,000	-0,069	0,176
-253,336	-200,000	0,084	0,000
-252,322	800,000	-0,082	-0,196
-251,307	-200,000	-0,000	-0,093
-250,292	-62,918	-0,030	0,009
-249,278	-89,333	0,104	0,022
-248,263	800,000	-0,045	0,140
-247,249	-200,000	0,001	0,023
-246,234	-200,000	-0,005	0,051
-245,219	61,745	-0,083	0,059
-244,205	-200,000	0,006	-0,120
-243,190	-200,000	-0,005	-0,090
-242,176	-200,000	0,031	0,178
-241,161	-5,832	0,158	0,076
-240,146	-93,098	-0,091	0,018
-239,132	210,663	-0,049	0,055
-238,117	-99,021	-0,191	-0,034
-237,103	-73,290	-0,056	-0,014
-236,088	-200,000	0,000	-0,094
-235,073	42,266	0,022	-0,014
-234,059	238,615	0,046	0,054
-233,044	475,130	-0,064	0,104
-232,030	-200,000	0,019	-0,084
-231,015	70,248	-0,064	-0,047
-230,000	-148,084	-0,024	0,001
-228,986	-101,869	0,079	-0,013
-227,971	262,020	-0,030	0,038
-226,957	542,716	0,048	-0,082
-225,942	94,092	0,097	-0,078
-224,927	167,124	0,072	-0,072
-223,913	184,324	0,093	-0,098
-222,898	-72,312	0,124	-0,032
-221,884	231,220	0,041	-0,048
-220,869	192,523	0,105	-0,112
-219,855	-200,000	-0,008	-0,081
-218,840	-16,032	0,137	-0,062
-217,825	-200,000	0,000	-0,068
-216,811	800,000	-0,034	0,070
-215,796	-200,000	-0,024	-0,086
-214,782	-200,000	-0,043	0,138
-213,767	800,000	0,030	0,090
-212,752	-79,921	0,140	-0,033
-211,738	729,235	0,027	0,052
-210,723	15,630	-0,014	-0,008
-209,709	453,011	-0,063	0,100
-208,694	-33,995	-0,093	-0,036
-207,679	140,412	-0,106	-0,099
-206,665	800,000	0,036	0,092
-205,650	-200,000	0,014	-0,137
-204,636	-49,661	0,062	-0,021
-203,621	416,096	-0,058	0,088
-202,606	800,000	0,034	-0,073
-201,592	800,000	-0,049	-0,114
-200,577	158,390	0,058	-0,057
-199,563	-200,000	-0,016	-0,087
-198,548	800,000	0,035	0,071
-197,533	100,286	0,033	-0,027
-196,519	-35,125	-0,190	0,073
-195,504	18,298	0,044	-0,025
-194,490	435,216	-0,075	-0,116
-193,475	-200,000	0,027	-0,117
-192,460	108,052	-0,023	0,020
-191,446	-117,491	0,132	0,017
-190,431	-200,000	-0,023	-0,119
-189,417	-36,792	-0,129	-0,049
-188,402	-200,000	0,000	-0,038
-187,387	256,759	-0,082	-0,101
-186,373	-200,000	-0,014	0,081
-185,358	17,812	0,077	0,043
-184,344	232,863	-0,026	0,031
-183,329	399,641	0,130	0,194
-182,315	800,000	0,059	0,174
-181,300	30,687	-0,093	-0,056
-180,285	114,761	0,092	-0,079
-179,271	25,845	0,093	-0,055
-178,256	162,326	0,061	0,061
-177,242	-104,233	0,044	0,007
-176,227	-144,323	-0,023	0,002
-175,212	-200,000	0,006	-0,034
-174,198	-115,049	0,054	-0,007
-173,183	213,800	0,068	-0,077
-172,169	102,374	0,015	0,012
-171,154	-3,566	0,142	0,070
-170,139	119,682	-0,071	0,063
-169,125	61,267	-0,027	-0,019
-168,110	-200,000	0,009	0,069
-167,096	-200,000	0,008	0,056
-166,081	338,687	-0,093	-0,129
-165,066	-200,000	-0,001	-0,074
-164,052	1,435	-0,146	0,074
-163,037	-200,000	-0,007	0,079
-162,023	93,760	0,081	-0,065
-161,008	293,977	-0,089	-0,116
-159,993	130,103	0,060	0,055
-158,979	-200,000	-0,001	0,029
-157,964	-59,069	0,055	0,017
-156,950	-69,377	-0,105	0,028
-155,935	171,320	0,094	-0,096
-154,920	-200,000	0,008	-0,063
-153,906	-200,000	-0,019	0,093
-152,891	499,560	-0,109	0,178
-151,877	380,638	0,054	-0,079
-150,862	-200,000	0,004	0,071
-149,847	11,880	-0,098	0,053
-148,833	53,201	0,059	0,040
-147,818	157,105	0,108	0,105
-146,804	-13,218	0,068	-0,031
-145,789	-200,000	0,002	-0,054
-144,775	502,510	-0,115	-0,188
-143,760	-96,882	-0,033	-0,006
-142,745	-200,000	0,024	-0,078
-141,731	800,000	0,052	-0,132
-140,716	-200,000	0,049	0,154
-139,702	-16,272	0,122	0,055
-138,687	-45,436	-0,094	-0,033
-137,672	443,665	-0,068	0,105
-136,658	-95,122	-0,069	0,013
-135,643	-81,758	0,123	0,028
-134,629	-200,000	-0,011	0,074
-133,614	-200,000	0,011	-0,079
-132,599	156,615	0,082	0,080
-131,585	-200,000	0,004	-0,113
-130,570	76,180	-0,063	0,047
-129,556	-200,000	-0,021	0,155
-128,541	65,810	-0,167	-0,120
-127,526	800,000	-0,049	0,115
-126,512	-118,399	0,064	-0,008
-125,497	-9,315	0,069	-0,032
-124,483	-6,207	-0,045	0,021
-123,468	22,667	-0,027	-0,016
-122,453	51,194	-0,066	0,044
-121,439	-49,381	-0,043	0,014
-120,424	84,905	0,030	0,023
-119,410	595,854	0,036	-0,063
-118,395	668,551	0,066	0,121
-117,380	11,887	0,072	0,039
-116,366	-200,000	-0,017	-0,103
-115,351	161,295	0,030	-0,029
-114,337	-181,231	0,045	0,001
-113,322	-200,000	-0,000	0,090
-112,307	58,427	0,141	0,097
-111,293	21,906	-0,106	-0,061
-110,278	372,088	0,025	-0,036
-109,264	-87,457	-0,066	0,014
-108,249	-83,903	-0,145	0,032
-107,234	57,236	0,107	0,073
-106,220	-200,000	-0,012	-0,060
-105,205	206,444	0,040	-0,044
-104,191	82,359	0,026	-0,020
-103,176	195,814	0,099	0,106
-102,162	-3,395	0,033	0,016
-101,147	303,407	0,070	-0,092
-100,132	106,125	-0,024	-0,020
-99,118	59,341	-0,077	-0,054
-98,103	-20,254	0,102	-0,044
-97,089	800,000	0,025	-0,065
-96,074	319,411	0,073	-0,098
-95,059	250,226	-0,016	0,019
-94,045	-33,585	0,106	0,041
-93,030	-124,935	0,194	0,021
-92,016	-178,657	-0,063	-0,001
-91,001	212,361	0,017	0,019
-89,986	17,877	-0,016	0,009
-88,972	-48,391	-0,047	0,016
-87,957	246,783	0,039	0,046
-86,943	-200,000	-0,002	0,062
-85,928	800,000	-0,036	-0,110
-84,913	40,930	-0,102	-0,065
-83,899	800,000	-0,008	-0,022
-82,884	338,453	-0,046	0,063
-81,870	154,419	-0,004	0,004
-80,855	-200,000	0,049	0,213
-79,840	-200,000	-0,017	-0,119
-78,826	-200,000	0,006	0,020
-77,811	-144,891	-0,042	0,003
-76,797	800,000	0,025	-0,057
-75,782	-200,000	-0,012	0,083
-74,767	41,865	0,142	0,090
-73,753	-168,890	-0,030	-0,001
-72,738	800,000	0,044	-0,105
-71,724	800,000	-0,026	0,071
-70,709	28,868	0,046	-0,028
-69,694	138,572	-0,106	0,098
-68,680	800,000	0,007	-0,019
-67,665	-123,474	0,101	-0,011
-66,651	574,195	0,056	0,097
-65,636	-165,402	-0,124	0,004
-64,622	800,000	-0,070	-0,145
-63,607	800,000	-0,090	-0,195
-62,592	208,251	0,002	0,002
-61,578	140,005	0,107	0,100
-60,563	-200,000	0,016	-0,107
-59,549	-200,000	0,012	0,154
-58,534	53,826	-2,016	-1,365
-57,519	649,673	-1,096	-1,988
-56,505	-200,000	-0,224	-4,344
-55,490	800,000	0,759	1,510
-54,476	800,000	5,193	11,300
-53,461	-200,000	21,846	337,588
-52,446	800,000	760,258	2303,576
-51,432	535,635	1654,224	2780,053
-50,417	69,667	1651,331	1199,310
-49,403	16,795	1525,983	849,787
-48,388	10,916	1450,495	779,446
-47,373	18,991	1442,445	813,667
-46,359	14,248	1431,373	784,939
-45,344	9,181	1427,358	758,682
-44,330	9,148	1425,389	757,448
-43,315	9,135	1423,528	756,371
-42,300	9,132	1421,930	755,478
-41,286	9,172	1420,722	754,993
-40,271	9,121	1419,409	754,024
-39,257	9,109	1418,247	753,320
-38,242	9,149	1417,065	752,852
-37,227	9,151	1416,162	752,351
-36,213	9,161	1414,609	751,545
-35,198	9,178	1413,393	750,948
-34,184	9,204	1412,351	750,489
-33,169	9,141	1410,973	749,430
-32,154	9,175	1410,130	749,113
-31,140	9,180	1408,898	748,450
-30,125	9,205	1407,847	747,981
-29,111	9,158	1406,495	747,013
-28,096	9,154	1405,492	746,429
-27,082	9,107	1404,271	745,534
-26,067	9,092	1403,142	744,833
-25,052	9,154	1401,985	744,482
-24,038	9,135	1401,192	743,939
-23,023	9,151	1400,323	743,525
-22,009	9,116	1399,253	742,762
-20,994	9,098	1398,261	742,125
-19,979	9,128	1397,253	741,697
-18,965	9,079	1396,385	740,982
-17,950	9,029	1395,528	740,263
-16,936	9,066	1394,537	739,880
-15,921	8,950	1393,720	738,881
-14,906	8,974	1392,793	738,471
-13,892	9,074	1391,532	738,238
-12,877	9,071	1390,820	737,814
-11,863	9,010	1390,177	737,161
-10,848	9,024	1388,995	736,573
-9,833	8,941	1388,297	735,787
-8,819	8,914	1387,386	735,154
-7,804	8,906	1386,581	734,659
-6,790	8,932	1385,584	734,223
-5,775	8,980	1384,142	733,651
-4,760	8,960	1383,487	733,183
-3,746	8,982	1382,482	732,719
-2,731	8,959	1381,663	732,153
-1,717	8,947	1380,731	731,574
-0,702	8,959	1378,849	730,603
0,313	12,875	1290,806	701,781
1,327	28,712	682,718	406,734
2,342	44,929	117,543	76,181
3,356	0,529	16,384	8,231
4,371	12,906	3,600	1,957
5,386	27,576	1,214	0,718
6,400	800,000	0,272	0,564
7,415	241,317	-0,192	-0,227
8,429	93,664	-0,302	-0,241
9,444	144,815	-0,344	-0,324
10,459	63,837	-0,252	-0,178
11,473	307,371	-0,192	-0,253
12,488	12,361	-0,289	-0,157
13,502	24,463	-0,332	-0,193
14,517	-9,046	-0,272	-0,128
15,531	-41,266	-0,440	-0,159
16,546	-0,918	-0,218	-0,108
17,561	127,974	-0,397	-0,355
18,575	-117,560	-0,214	-0,027
19,590	166,743	-0,196	-0,196
20,604	11,388	-0,293	-0,157
21,619	242,643	-0,430	-0,508
22,634	219,869	-0,423	-0,478
23,648	152,913	-0,406	-0,391
24,663	-64,940	-0,490	-0,138
25,677	79,294	-0,322	-0,243
26,692	2,297	-0,317	-0,161
27,707	-10,769	-0,382	-0,177
28,721	71,941	-0,372	-0,272
29,736	250,518	-0,230	-0,275
30,750	79,325	-0,272	-0,205
31,765	63,281	-0,358	-0,252
32,780	83,245	-0,405	-0,310
33,794	71,896	-0,341	-0,249
34,809	40,616	-0,411	-0,260
35,823	147,678	-0,347	-0,329
36,838	-13,073	-0,440	-0,200
37,853	31,657	-0,443	-0,268
38,867	-21,864	-0,313	-0,133
39,882	-42,417	-0,372	-0,133
40,896	25,491	-0,316	-0,184
41,911	19,637	-0,279	-0,157
42,926	43,435	-0,454	-0,291
43,940	72,919	-0,332	-0,243
44,955	-23,410	-0,330	-0,139
45,969	19,204	-0,448	-0,252
46,984	-16,748	-0,445	-0,197
47,999	118,725	-0,298	-0,259
49,013	144,470	-0,237	-0,223
50,028	-17,130	-0,346	-0,153
51,042	140,369	-0,279	-0,259
52,057	206,972	-0,351	-0,385
53,071	375,534	-0,182	-0,261
54,086	153,889	-0,332	-0,320
55,101	23,658	-0,349	-0,201
56,115	-54,256	-0,301	-0,095
57,130	44,779	-0,288	-0,186
58,144	92,592	-0,350	-0,277
59,159	-24,421	-0,414	-0,172
60,174	13,717	-0,445	-0,242
61,188	209,734	-0,258	-0,284
62,203	-1,683	-0,367	-0,181
63,217	22,661	-0,229	-0,131
64,232	59,856	-0,275	-0,190
65,247	37,253	-0,450	-0,279
66,261	-30,215	-0,464	-0,184
67,276	-123,556	-0,414	-0,046
68,290	91,022	-0,335	-0,263
69,305	26,325	-0,231	-0,135
70,320	42,322	-0,272	-0,173
71,334	110,011	-0,265	-0,223
72,349	140,322	-0,295	-0,272
73,363	4,342	-0,412	-0,211
74,378	98,376	-0,334	-0,269
75,393	35,791	-0,380	-0,233
76,407	114,002	-0,321	-0,273
77,422	328,017	-0,203	-0,273
78,436	-11,473	-0,212	-0,097
79,451	-39,980	-0,332	-0,121
80,466	103,784	-0,336	-0,276
81,480	-20,214	-0,382	-0,164
82,495	36,483	-0,521	-0,321
83,509	6,163	-0,240	-0,124
84,524	47,813	-0,268	-0,175
85,539	-91,226	-0,204	-0,040
86,553	193,529	-0,330	-0,350
87,568	50,256	-0,265	-0,175
88,582	-21,556	-0,205	-0,087
89,597	-200,000	-0,061	-0,188
90,611	-66,893	-0,268	-0,074
91,626	318,876	-0,137	-0,182
92,641	84,803	-0,148	-0,113
93,655	-97,703	-0,249	-0,045
94,670	77,462	-0,385	-0,286
95,684	81,683	-0,287	-0,217
96,699	116,435	-0,272	-0,233
97,714	150,836	-0,253	-0,240
98,728	336,429	-0,157	-0,214
99,743	-143,440	-0,233	-0,015
100,757	-19,212	-0,319	-0,138
101,772	475,720	-0,185	-0,293
102,787	-6,375	-0,435	-0,206
103,801	-83,074	-0,465	-0,104
104,816	28,024	-0,182	-0,107
105,830	120,113	-0,247	-0,214
106,845	-114,754	-0,435	-0,057
107,860	-164,750	-0,311	0,010
108,874	146,900	-0,296	-0,279
109,889	1,800	-0,279	-0,140
110,903	-104,701	-0,337	-0,054
111,918	98,533	-0,271	-0,218
112,933	88,963	-0,166	-0,129
113,947	-56,737	-0,229	-0,070
114,962	65,544	-0,174	-0,123
115,976	-13,537	-0,333	-0,150
116,991	14,260	-0,248	-0,135
118,006	-48,788	-0,370	-0,123
119,020	133,306	-0,093	-0,084
120,035	-59,685	-0,243	0,072
121,049	-35,204	-0,183	-0,069
122,064	193,190	-0,169	-0,179
123,079	15,753	-0,245	-0,134
124,093	89,896	-0,179	-0,140
125,108	-3,544	-0,252	-0,122
126,122	-64,749	-0,299	-0,084
127,137	-8,853	-0,220	-0,102
128,151	525,659	-0,166	-0,274
129,166	83,862	-0,177	-0,135
130,181	45,984	-0,167	-0,108
131,195	11,453	-0,317	-0,169
132,210	154,617	-0,204	-0,196
133,224	418,957	-0,186	-0,278
134,239	-21,109	-0,129	-0,055
135,254	366,732	-0,124	-0,175
136,268	800,000	-0,058	-0,162
137,283	-43,403	-0,253	-0,089
138,297	-33,132	-0,233	-0,090
139,312	167,189	-0,220	-0,218
140,327	66,041	-0,243	-0,171
141,341	-21,963	-0,287	-0,121
142,356	-95,230	-0,263	-0,049
143,370	139,226	-0,161	-0,148
144,385	130,580	-0,318	-0,284
145,400	65,257	-0,298	-0,210
146,414	91,165	-0,240	-0,188
147,429	271,812	-0,198	-0,244
148,443	800,000	-0,154	-0,302
149,458	38,241	-0,147	-0,091
150,473	156,807	-0,024	-0,023
151,487	-41,842	-0,331	-0,117
152,502	99,376	-0,335	-0,270
153,516	265,125	-0,157	-0,191
154,531	-177,236	-0,160	0,003
155,546	26,621	-0,222	-0,129
156,560	-62,697	-0,313	-0,090
157,575	-139,661	-0,163	-0,012
158,589	90,361	-0,141	0,110
159,604	152,694	-0,213	-0,203
160,619	634,891	-0,169	-0,300
161,633	34,817	-0,191	-0,116
162,648	-54,229	-0,264	-0,083
163,662	-33,229	-0,229	-0,088
164,677	800,000	-0,125	-0,304
165,692	-92,616	-0,304	-0,059
166,706	-19,589	-0,221	-0,095
167,721	151,894	-0,207	-0,196
168,735	11,030	-0,284	-0,151
169,750	-169,163	-0,215	-0,005
170,764	-30,978	-0,180	-0,070
171,779	-77,368	-0,175	-0,042
172,794	-187,982	-0,223	-0,002
173,808	-108,598	-0,183	-0,027
174,823	155,604	-0,174	-0,167
175,837	-11,206	-0,370	-0,169
176,852	-43,086	-0,310	-0,109
177,867	-119,297	-0,220	-0,026
178,881	202,668	-0,170	-0,182
179,896	280,297	-0,175	-0,217
180,910	225,283	-0,191	-0,215
181,925	-124,949	-0,143	-0,015
182,940	472,831	-0,127	-0,200
183,954	195,136	-0,217	-0,229
184,969	358,709	-0,124	-0,172
185,983	-59,969	-0,245	-0,072
186,998	800,000	-0,088	-0,219
188,013	104,244	-0,101	-0,083
189,027	0,190	-0,213	-0,105
190,042	57,109	-0,237	-0,160
191,056	73,915	-0,251	-0,182
192,071	-42,936	-0,148	-0,052
193,086	28,355	-0,311	-0,182
194,100	24,370	-0,199	-0,114
195,115	-96,766	-0,172	-0,031
196,129	-4,773	-0,229	-0,109
197,144	-41,366	-0,335	-0,119
198,159	10,789	-0,315	-0,166
199,173	364,204	-0,130	-0,182
200,188	-99,570	-0,148	0,026
201,202	-59,907	-0,166	-0,049
202,217	-73,565	-0,246	-0,062
203,232	389,934	-0,178	-0,257
204,246	643,018	-0,116	-0,205
205,261	112,915	-0,225	-0,189
206,275	-78,976	-0,309	-0,072
207,290	23,147	-0,180	-0,102
208,304	111,478	-0,204	-0,170
209,319	159,848	-0,185	-0,179
210,334	33,980	-0,294	-0,177
211,348	550,520	-0,107	-0,179
212,363	42,919	-0,148	-0,093
213,377	94,045	-0,201	-0,157
214,392	-9,590	-0,184	-0,084
215,407	-19,095	-0,121	-0,052
216,421	199,420	-0,121	-0,129
217,436	249,960	-0,128	-0,151
218,450	-47,381	-0,170	-0,057
219,465	38,581	-0,324	-0,200
220,480	-20,438	-0,258	-0,109
221,494	73,204	-0,156	-0,113
222,509	800,000	-0,060	-0,168
223,523	-22,426	-0,186	-0,078
224,538	339,185	-0,142	-0,192
225,553	190,989	-0,232	-0,241
226,567	71,793	-0,197	-0,141
227,582	17,711	-0,211	-0,116
228,596	-5,724	-0,128	-0,060
229,611	190,890	-0,150	-0,156
230,626	-135,472	-0,151	0,012
231,640	-35,103	-0,269	-0,101
232,655	392,440	-0,120	-0,173
233,669	188,396	-0,250	-0,259
234,684	47,751	-0,185	-0,119
235,699	413,710	-0,188	-0,277
236,713	800,000	-0,039	-0,078
237,728	800,000	-0,056	-0,113
238,742	-53,170	-0,205	-0,065
239,757	217,735	-0,168	-0,185
240,772	800,000	-0,070	-0,192
241,786	335,814	-0,158	-0,212
242,801	227,207	-0,137	-0,154
243,815	207,667	-0,137	-0,148
244,830	117,481	-0,147	-0,124
245,844	131,439	-0,175	-0,155
246,859	218,175	-0,170	-0,187
247,874	43,712	-0,223	-0,140
248,888	800,000	-0,113	-0,232
249,903	163,799	-0,187	-0,182
250,917	-15,071	-0,164	-0,072
251,932	5,081	-0,120	0,061
252,947	44,385	-0,236	-0,149
253,961	145,712	-0,181	-0,168
254,976	34,038	-0,207	-0,124
255,990	800,000	-0,088	-0,259
257,005	110,025	-0,147	-0,122
258,020	26,781	-0,187	-0,108
259,034	-115,183	-0,224	-0,029
260,049	11,855	-0,136	-0,072
261,063	80,882	-0,164	-0,122
262,078	132,757	-0,148	-0,132
263,093	-32,095	-0,230	-0,088
264,107	6,341	-0,227	-0,116
265,122	120,247	-0,111	-0,095
266,136	24,112	-0,205	-0,116
267,151	128,234	-0,083	-0,073
268,166	207,150	-0,150	-0,162
269,180	107,001	-0,112	-0,092
270,195	26,735	-0,315	-0,181
271,209	800,000	-0,121	-0,266
272,224	41,278	-0,062	-0,039
273,239	-125,349	-0,074	0,008
274,253	18,529	-0,107	-0,059
275,268	86,827	-0,134	-0,102
276,282	153,500	-0,166	-0,156
277,297	-2,705	-0,212	-0,102
278,312	40,036	-0,183	-0,113
279,326	-35,374	-0,175	-0,065
280,341	261,631	-0,168	-0,201
281,355	-131,693	-0,164	-0,015
282,370	213,310	-0,191	-0,208
283,384	14,819	-0,178	-0,095
284,399	-48,834	-0,092	-0,030
285,414	-200,000	-0,014	-0,200
286,428	31,660	-0,169	-0,100
287,443	616,729	-0,066	-0,114
288,457	-84,757	-0,131	-0,028
289,472	412,111	-0,043	-0,063
290,487	294,730	-0,187	-0,236
291,501	53,207	-0,229	-0,150
292,516	44,989	-0,141	-0,089
293,530	-55,438	-0,078	0,024
294,545	800,000	-0,099	-0,209
295,560	10,042	-0,064	-0,033
296,574	193,731	-0,147	-0,153
297,589	395,635	-0,146	-0,210
298,603	46,724	-0,242	-0,154
299,618	113,891	-0,276	-0,230
300,633	152,638	-0,086	-0,081
301,647	108,334	-0,133	-0,109
302,662	-42,386	-0,216	-0,075
303,676	154,261	-0,086	-0,081
304,691	192,517	-0,143	-0,148
305,706	-200,000	-0,070	-0,228
306,720	243,157	-0,153	-0,177
307,735	5,671	-0,251	-0,127
308,749	-101,001	-0,168	-0,028
309,764	-170,406	-0,162	-0,004
310,779	224,702	-0,063	-0,070
311,793	41,429	-0,121	-0,075
312,808	-42,612	-0,141	-0,049
313,822	-1,119	-0,109	-0,053
314,837	-196,927	-0,075	-0,000
315,852	296,296	-0,145	-0,182
316,866	-177,334	-0,091	0,002
317,881	93,662	-0,157	-0,122
318,895	150,499	-0,125	-0,116
319,910	109,602	-0,169	-0,139
320,925	51,982	-0,242	-0,158
321,939	800,000	-0,115	-0,307
322,954	408,269	-0,156	-0,227
323,968	-200,000	-0,008	-0,126
324,983	171,746	-0,148	-0,146
325,997	39,641	-0,260	-0,160
327,012	-200,000	-0,043	-0,144
328,027	-21,191	-0,189	-0,079
329,041	12,470	-0,078	-0,041
330,056	16,864	-0,113	0,061
331,070	800,000	-0,043	-0,113
332,085	-90,863	-0,246	-0,048
333,100	12,614	-0,164	-0,086
334,114	-42,879	-0,204	-0,071
335,129	-200,000	-0,048	-0,191
336,143	-99,758	-0,158	-0,027
337,158	-200,000	0,004	-0,025
338,173	688,906	-0,044	-0,080
339,187	-150,798	-0,120	-0,006
340,202	-97,165	-0,059	-0,010
341,216	55,804	-0,091	-0,061
342,231	-48,338	-0,103	0,034
343,246	399,298	-0,061	-0,088
344,260	-135,739	-0,106	0,009
345,275	124,429	-0,091	0,078
346,289	-200,000	-0,017	0,056
347,304	-14,346	-0,127	-0,056
348,319	-200,000	-0,026	-0,155
349,333	800,000	-0,112	-0,225
350,348	-103,785	-0,132	-0,021
351,362	260,667	-0,066	-0,078
352,377	0,487	-0,124	-0,061
353,392	55,830	-0,046	-0,031
354,406	393,716	-0,100	-0,143
355,421	207,182	1306,646	1394,923
356,435	159,372	1466,342	1395,398
