DTS Sentinel unit serial number:	SN410029Multiplexer serial number:	ORYXHardware model number:	OX2-SRSoftware version number:	ORYX F/W v4,00 Oryx Data Collector v3.7.2.0data status	okinstallation	B3 Nyhavnadifferential loss correction	single-endedforward channel	channel 1reverse channel	N/Adate	2023/12/05time	09:07:30forward acquisition time	300,00reverse acquisition time	0,00gamma	499,1914k internal	0,3194k external	0,3194temperature offset calibration	1,0000default loss term (dB/km)	0,3820temperature slope calibration	1,0000multiplexer offset coefficient	1,0000multiplexer slope coefficient	1,0000fibre end	0,00T internal ref (°C)	11,99T ext. ref 1 (°C)	-4,05T ext. ref 2 (°C)	-4,30length (m)	temperature (°C)	Stokes	anti-Stokes-744,400	800,000	-0,065	-0,133
-743,385	270,159	-0,100	0,128
-742,371	332,505	0,029	-0,041
-741,356	800,000	-0,119	0,296
-740,342	-61,770	-0,048	0,015
-739,327	434,623	-0,146	0,232
-738,312	-56,550	-0,206	-0,066
-737,298	270,644	-0,096	0,123
-736,283	-106,225	-0,090	-0,015
-735,269	134,048	-0,058	0,054
-734,254	57,333	-0,223	-0,159
-733,239	-130,689	-0,354	0,034
-732,225	264,720	-0,032	-0,041
-731,210	-2,769	0,069	0,035
-730,196	257,056	-0,008	0,010
-729,181	-26,062	0,017	0,007
-728,167	-200,000	-0,017	-0,146
-727,152	-25,420	0,118	0,051
-726,137	29,955	-0,123	0,076
-725,123	-57,948	0,084	0,027
-724,108	35,429	-0,099	-0,063
-723,094	-139,211	-0,161	0,012
-722,079	293,622	-0,115	-0,153
-721,064	165,908	-0,110	-0,113
-720,050	512,446	-0,039	0,066
-719,035	-149,449	0,154	0,009
-718,021	800,000	0,017	-0,053
-717,006	-118,942	-0,080	-0,010
-715,991	-200,000	-0,056	-0,196
-714,977	800,000	-0,068	-0,171
-713,962	781,740	-0,024	-0,049
-712,948	800,000	-0,008	0,027
-711,933	-6,187	0,078	-0,039
-710,918	6,007	-0,162	0,087
-709,904	72,992	-0,119	-0,090
-708,889	304,979	-0,055	-0,074
-707,875	627,455	-0,079	-0,146
-706,860	-112,880	-0,026	0,004
-705,845	-17,965	0,088	-0,040
-704,831	-135,926	0,019	0,002
-703,816	211,862	0,061	-0,070
-702,802	3,128	-0,020	0,011
-701,787	-200,000	-0,009	0,074
-700,772	-93,056	-0,034	0,007
-699,758	6,479	-0,036	-0,019
-698,743	-200,000	0,009	0,097
-697,729	611,682	-0,048	0,088
-696,714	613,918	0,050	0,092
-695,699	27,101	-0,100	0,061
-694,685	-103,128	0,110	-0,019
-693,670	78,467	0,024	0,019
-692,656	-27,410	0,036	0,015
-691,641	91,381	0,121	0,099
-690,627	356,388	-0,043	0,063
-689,612	-200,000	-0,006	0,055
-688,597	-30,839	-0,082	-0,033
-687,583	57,824	-0,090	-0,064
-686,568	266,063	-0,066	-0,084
-685,554	800,000	0,025	-0,051
-684,539	-66,289	0,113	-0,032
-683,524	194,029	-0,068	0,075
-682,510	52,036	-0,165	-0,114
-681,495	42,404	-0,129	0,085
-680,481	-4,701	-0,077	-0,039
-679,466	113,706	-0,013	-0,011
-678,451	477,361	-0,005	-0,008
-677,437	126,389	0,067	0,062
-676,422	-5,456	-0,074	0,037
-675,408	800,000	-0,045	0,129
-674,393	134,259	-0,079	0,074
-673,378	-200,000	-0,004	-0,015
-672,364	120,545	-0,098	-0,089
-671,349	9,799	-0,089	-0,049
-670,335	766,497	-0,042	-0,084
-669,320	-64,720	-0,101	0,029
-668,305	800,000	0,055	-0,131
-667,291	-200,000	0,021	-0,069
-666,276	-200,000	-0,018	-0,085
-665,262	338,478	-0,066	-0,093
-664,247	800,000	-0,067	-0,175
-663,232	-200,000	0,009	-0,078
-662,218	-200,000	-0,012	0,050
-661,203	800,000	-0,046	0,094
-660,189	-200,000	0,018	-0,150
-659,174	-200,000	0,024	0,089
-658,159	-200,000	-0,004	-0,027
-657,145	-25,523	-0,145	-0,062
-656,130	233,471	-0,035	-0,041
-655,116	236,116	0,065	-0,079
-654,101	800,000	0,044	-0,090
-653,086	-200,000	0,017	0,149
-652,072	800,000	-0,036	-0,075
-651,057	-200,000	-0,022	-0,106
-650,043	-200,000	-0,010	0,118
-649,028	-200,000	-0,024	-0,149
-648,014	-200,000	-0,043	-0,157
-646,999	-73,444	0,104	0,027
-645,984	-200,000	-0,001	-0,027
-644,970	800,000	0,026	0,081
-643,955	-147,582	-0,025	0,002
-642,941	-51,060	0,093	-0,032
-641,926	90,797	-0,038	-0,031
-640,911	-200,000	0,008	-0,064
-639,897	-49,523	0,095	0,033
-638,882	-200,000	0,001	0,083
-637,868	133,092	0,034	-0,032
-636,853	-200,000	0,002	-0,073
-635,838	-200,000	-0,004	-0,146
-634,824	-15,394	-0,094	-0,044
-633,809	-200,000	-0,000	0,034
-632,795	-200,000	-0,020	-0,138
-631,780	279,215	0,028	0,037
-630,765	800,000	-0,057	0,121
-629,751	237,952	-0,045	0,054
-628,736	215,588	-0,052	0,060
-627,722	388,412	0,037	0,055
-626,707	185,656	0,093	0,101
-625,692	212,802	0,123	0,141
-624,678	-46,845	0,029	-0,010
-623,663	88,849	-0,078	-0,063
-622,649	-200,000	-0,029	0,000
-621,634	126,042	0,090	0,083
-620,619	-200,000	0,004	0,032
-619,605	-139,494	0,058	-0,004
-618,590	161,182	-0,055	-0,055
-617,576	800,000	-0,013	-0,038
-616,561	228,309	0,021	-0,025
-615,546	800,000	-0,044	0,095
-614,532	-200,000	-0,037	0,137
-613,517	-51,793	0,052	-0,018
-612,503	104,172	0,038	-0,032
-611,488	-200,000	0,001	0,046
-610,474	800,000	-0,033	0,092
-609,459	270,445	0,097	-0,123
-608,444	158,688	-0,174	-0,176
-607,430	617,533	0,039	-0,072
-606,415	-200,000	0,013	-0,042
-605,401	-17,857	-0,037	-0,017
-604,386	-127,435	0,053	-0,006
-603,371	-200,000	0,001	-0,075
-602,357	36,928	-0,045	0,029
-601,342	24,905	-0,101	-0,061
-600,328	28,487	-0,061	0,037
-599,313	-50,210	0,061	0,021
-598,298	86,747	-0,073	-0,058
-597,284	-156,778	0,108	-0,005
-596,269	42,608	-0,105	0,069
-595,255	364,641	-0,047	-0,069
-594,240	226,496	-0,064	-0,075
-593,225	85,343	-0,103	0,082
-592,211	282,202	-0,048	-0,063
-591,196	85,719	0,112	-0,090
-590,182	277,836	-0,101	-0,131
-589,167	800,000	0,040	0,080
-588,152	-63,826	-0,091	0,027
-587,138	107,005	0,033	-0,029
-586,123	69,873	-0,082	0,061
-585,109	-130,524	-0,144	-0,014
-584,094	-107,962	-0,046	-0,007
-583,079	50,558	0,061	0,042
-582,065	19,301	0,146	-0,085
-581,050	23,745	0,079	0,047
-580,036	-200,000	-0,013	-0,096
-579,021	0,546	0,144	0,074
-578,006	184,979	-0,039	-0,042
-576,992	-200,000	-0,000	-0,109
-575,977	67,371	-0,011	0,008
-574,963	26,071	0,145	0,087
-573,948	-142,166	0,033	0,002
-572,934	-200,000	0,005	-0,048
-571,919	187,936	-0,149	-0,162
-570,904	-36,477	0,066	-0,025
-569,890	-124,512	0,104	-0,012
-568,875	-126,386	-0,111	-0,012
-567,861	800,000	0,019	0,051
-566,846	-34,508	-0,113	-0,044
-565,831	-70,879	-0,219	0,059
-564,817	-200,000	-0,012	-0,112
-563,802	-19,847	-0,186	-0,083
-562,788	-200,000	0,016	0,094
-561,773	-89,069	-0,033	-0,007
-560,758	177,319	0,080	0,084
-559,744	-168,460	-0,045	-0,001
-558,729	800,000	-0,065	-0,140
-557,715	-50,505	-0,042	0,014
-556,700	-200,000	-0,009	0,054
-555,685	-148,687	-0,075	-0,004
-554,671	-132,567	-0,068	-0,006
-553,656	-200,000	0,019	0,082
-552,642	-84,291	0,129	0,029
-551,627	-200,000	0,009	-0,058
-550,612	-200,000	0,000	0,060
-549,598	-200,000	-0,005	0,020
-548,583	800,000	-0,023	-0,072
-547,569	-200,000	0,010	-0,100
-546,554	800,000	-0,019	0,039
-545,539	273,664	0,099	0,127
-544,525	800,000	0,049	0,109
-543,510	-200,000	-0,016	0,091
-542,496	210,820	-0,069	-0,078
-541,481	-165,058	-0,115	0,004
-540,466	-80,391	-0,079	0,019
-539,452	117,347	-0,043	-0,039
-538,437	800,000	-0,016	0,033
-537,423	723,914	0,025	-0,048
-536,408	-200,000	0,029	0,144
-535,393	-77,979	0,029	-0,007
-534,379	-200,000	0,003	-0,074
-533,364	784,020	-0,075	-0,149
-532,350	-200,000	0,003	-0,064
-531,335	800,000	-0,008	0,017
-530,321	-200,000	-0,004	0,023
-529,306	-112,077	-0,085	0,012
-528,291	800,000	-0,078	-0,224
-527,277	-145,531	-0,127	-0,008
-526,262	-200,000	0,015	-0,097
-525,248	800,000	0,054	0,171
-524,233	459,575	-0,093	0,150
-523,218	37,102	0,014	0,009
-522,204	-0,662	0,054	0,028
-521,189	89,106	0,073	0,059
-520,175	-200,000	-0,006	-0,040
-519,160	315,363	0,026	-0,035
-518,145	246,226	-0,031	-0,038
-517,131	-101,284	-0,065	-0,011
-516,116	-60,385	0,072	0,022
-515,102	82,626	0,033	0,026
-514,087	5,422	-0,146	-0,077
-513,072	-21,618	0,056	-0,025
-512,058	68,839	-0,071	-0,052
-511,043	329,086	0,033	0,046
-510,029	-200,000	-0,012	-0,111
-509,014	-200,000	-0,027	0,099
-507,999	15,616	-0,074	-0,042
-506,985	-62,550	-0,120	-0,036
-505,970	-200,000	0,020	-0,112
-504,956	-137,803	-0,040	-0,003
-503,941	274,386	-0,037	-0,047
-502,926	-200,000	-0,004	-0,149
-501,912	800,000	0,068	-0,148
-500,897	137,188	-0,057	-0,054
-499,883	315,021	0,046	0,062
-498,868	91,507	0,137	0,111
-497,853	800,000	-0,014	-0,038
-496,839	-11,180	0,037	0,018
-495,824	775,154	-0,003	-0,007
-494,810	33,083	-0,087	-0,054
-493,795	-200,000	-0,036	-0,176
-492,781	32,303	0,017	-0,011
-491,766	196,269	-0,070	-0,077
-490,751	92,362	-0,106	-0,086
-489,737	117,846	-0,050	0,045
-488,722	-200,000	0,021	-0,181
-487,708	-107,973	0,054	-0,008
-486,693	135,185	0,085	0,080
-485,678	-28,930	0,048	0,020
-484,664	-200,000	-0,010	0,052
-483,649	141,226	0,073	-0,070
-482,635	-55,681	0,061	-0,020
-481,620	-74,374	0,170	0,044
-480,605	-151,630	-0,211	-0,011
-479,591	-200,000	-0,012	-0,051
-478,576	-94,912	0,102	-0,020
-477,562	123,011	0,026	-0,024
-476,547	286,991	0,083	-0,108
-475,532	276,706	-0,095	-0,122
-474,518	800,000	-0,026	0,067
-473,503	387,733	0,023	0,034
-472,489	800,000	0,012	-0,035
-471,474	279,815	-0,015	0,020
-470,459	-75,619	0,077	0,020
-469,445	166,915	-0,059	0,061
-468,430	723,675	0,044	0,085
-467,416	174,218	0,030	0,031
-466,401	-93,655	0,084	-0,017
-465,386	445,394	0,084	0,134
-464,372	777,805	-0,065	0,128
-463,357	128,305	-0,117	-0,108
-462,343	131,302	-0,039	-0,036
-461,328	382,277	-0,072	0,107
-460,313	-72,040	0,048	-0,013
-459,299	24,894	-0,103	-0,061
-458,284	-200,000	0,023	-0,097
-457,270	-81,508	-0,062	-0,015
-456,255	-13,808	-0,161	-0,075
-455,241	800,000	0,011	-0,029
-454,226	258,696	-0,045	0,056
-453,211	-200,000	-0,001	0,013
-452,197	-76,594	0,090	0,023
-451,182	-53,761	0,025	-0,008
-450,168	-200,000	-0,003	-0,021
-449,153	50,718	-0,113	0,077
-448,138	-200,000	-0,035	-0,159
-447,124	800,000	0,043	-0,086
-446,109	53,699	0,010	0,007
-445,095	-200,000	0,017	0,076
-444,080	595,445	0,110	0,197
-443,065	84,514	-0,134	-0,105
-442,051	800,000	-0,044	-0,119
-441,036	721,101	-0,028	0,054
-440,022	217,973	-0,039	-0,045
-439,007	88,964	0,107	0,085
-437,992	787,334	-0,034	-0,068
-436,978	3,955	-0,091	-0,048
-435,963	-176,133	0,074	0,001
-434,949	63,855	0,082	0,060
-433,934	-200,000	-0,036	-0,120
-432,919	800,000	-0,014	-0,044
-431,905	-152,251	0,050	0,003
-430,890	169,352	0,066	-0,068
-429,876	-200,000	0,013	0,045
-428,861	708,777	0,023	0,043
-427,846	85,769	-0,003	0,002
-426,832	14,077	-0,167	0,094
-425,817	-160,327	-0,030	0,001
-424,803	154,979	0,025	0,024
-423,788	83,173	-0,115	0,090
-422,773	707,700	0,056	0,107
-421,759	-200,000	0,029	0,244
-420,744	-200,000	-0,032	-0,133
-419,730	-200,000	-0,022	-0,092
-418,715	-200,000	0,009	-0,046
-417,701	-81,997	0,116	-0,027
-416,686	257,377	-0,095	0,118
-415,671	183,073	0,119	0,127
-414,657	-200,000	0,001	0,151
-413,642	-200,000	-0,008	0,134
-412,628	80,649	0,076	0,059
-411,613	800,000	-0,047	-0,129
-410,598	107,737	0,133	0,114
-409,584	431,288	0,065	-0,102
-408,569	-83,188	-0,118	0,027
-407,555	56,363	0,017	-0,012
-406,540	-200,000	-0,073	0,000
-405,525	23,349	0,021	-0,012
-404,511	263,646	-0,056	-0,071
-403,496	-53,569	-0,073	-0,024
-402,482	138,723	0,038	0,036
-401,467	513,069	-0,050	0,084
-400,452	105,330	0,080	-0,068
-399,438	800,000	0,052	0,115
-398,423	-125,424	-0,159	-0,017
-397,409	-174,805	-0,025	0,001
-396,394	441,802	0,034	0,054
-395,379	-47,152	0,126	0,044
-394,365	-156,014	-0,094	0,004
-393,350	-200,000	0,028	0,127
-392,336	-200,000	-0,008	0,139
-391,321	488,400	0,064	-0,105
-390,306	-125,777	-0,063	0,007
-389,292	800,000	-0,041	-0,126
-388,277	274,614	-0,104	0,133
-387,263	-37,913	0,140	0,053
-386,248	189,885	-0,053	-0,057
-385,233	800,000	-0,010	0,030
-384,219	273,274	-0,012	-0,015
-383,204	439,092	0,013	-0,021
-382,190	-200,000	0,019	-0,099
-381,175	-200,000	-0,004	-0,053
-380,160	800,000	-0,028	0,057
-379,146	-129,126	-0,117	-0,012
-378,131	-54,262	0,096	0,031
-377,117	-56,983	-0,087	0,027
-376,102	-4,067	0,049	-0,024
-375,088	-57,394	-0,141	-0,044
-374,073	128,794	-0,033	-0,031
-373,058	800,000	0,009	-0,028
-372,044	81,111	0,125	-0,097
-371,029	-69,021	-0,058	-0,016
-370,015	249,409	-0,056	-0,069
-369,000	229,431	-0,074	-0,087
-367,985	-200,000	0,007	-0,054
-366,971	-200,000	-0,024	-0,081
-365,956	112,779	-0,043	-0,037
-364,942	-108,030	0,083	0,013
-363,927	137,907	0,015	0,014
-362,912	-177,731	0,161	-0,003
-361,898	-200,000	0,007	0,035
-360,883	-100,564	0,106	0,019
-359,869	-2,880	-0,102	-0,051
-358,854	501,370	-0,078	-0,130
-357,839	203,304	0,075	0,083
-356,825	619,295	0,080	0,145
-355,810	-200,000	0,023	0,074
-354,796	77,998	-0,077	-0,059
-353,781	-200,000	-0,007	-0,145
-352,766	-200,000	0,001	0,015
-351,752	800,000	0,063	0,139
-350,737	131,858	0,072	0,066
-349,723	-200,000	0,023	0,082
-348,708	80,960	0,143	0,111
-347,693	495,007	-0,051	-0,085
-346,679	-200,000	-0,003	0,093
-345,664	-59,520	-0,123	0,038
-344,650	-98,725	0,078	-0,014
-343,635	351,412	0,023	0,033
-342,620	30,907	0,148	0,091
-341,606	93,704	0,005	-0,004
-340,591	-78,050	-0,161	0,039
-339,577	265,410	-0,075	-0,094
-338,562	-112,199	-0,106	-0,015
-337,548	800,000	-0,029	-0,060
-336,533	800,000	-0,048	0,147
-335,518	-200,000	-0,013	-0,060
-334,504	-200,000	0,005	-0,019
-333,489	800,000	-0,015	0,031
-332,475	800,000	-0,019	-0,059
-331,460	8,024	-0,113	0,060
-330,445	267,520	0,019	-0,024
-329,431	-200,000	0,010	0,045
-328,416	-79,680	0,074	0,018
-327,402	31,290	0,061	0,037
-326,387	-200,000	-0,017	0,060
-325,372	-133,849	-0,098	-0,009
-324,358	309,351	0,052	0,070
-323,343	275,632	0,095	-0,121
-322,329	800,000	-0,045	0,096
-321,314	-200,000	0,021	0,081
-320,299	2,672	0,117	-0,061
-319,285	128,251	0,052	0,048
-318,270	-200,000	-0,040	-0,143
-317,256	-200,000	-0,038	-0,124
-316,241	-59,855	0,043	0,013
-315,226	322,210	0,098	0,133
-314,212	15,988	0,070	0,040
-313,197	-54,868	0,071	-0,023
-312,183	27,072	-0,163	0,098
-311,168	-200,000	-0,008	-0,083
-310,153	709,483	0,044	-0,084
-309,139	800,000	0,086	-0,214
-308,124	-120,523	-0,021	0,003
-307,110	-38,555	0,126	0,047
-306,095	46,192	-0,062	0,041
-305,080	-144,560	0,154	-0,010
-304,066	640,309	-0,071	-0,131
-303,051	-200,000	0,008	-0,046
-302,037	13,222	0,051	-0,028
-301,022	71,634	-0,130	-0,097
-300,008	62,564	0,112	0,080
-298,993	-200,000	0,005	0,082
-297,978	255,786	0,060	0,073
-296,964	-200,000	0,014	0,084
-295,949	-88,957	-0,090	0,019
-294,935	-200,000	0,010	-0,042
-293,920	800,000	0,062	0,124
-292,905	105,725	0,141	-0,119
-291,891	-16,051	0,041	0,018
-290,876	281,456	-0,045	0,058
-289,862	24,827	0,018	-0,011
-288,847	-65,880	-0,037	0,011
-287,832	785,326	-0,020	0,040
-286,818	800,000	0,017	-0,035
-285,803	-95,075	0,077	0,015
-284,789	5,242	0,035	0,018
-283,774	-195,539	0,163	0,001
-282,759	26,772	-0,105	-0,063
-281,745	-200,000	0,033	-0,109
-280,730	143,342	0,091	0,087
-279,716	-200,000	-0,016	0,094
-278,701	100,563	0,086	0,072
-277,686	800,000	-0,016	0,038
-276,672	245,880	0,041	0,049
-275,657	800,000	0,027	-0,059
-274,643	4,334	-0,090	0,047
-273,628	-19,769	-0,124	0,055
-272,613	79,717	-0,096	-0,074
-271,599	-72,840	0,103	0,027
-270,584	-49,448	0,171	0,058
-269,570	205,414	-0,009	-0,010
-268,555	800,000	-0,010	-0,028
-267,540	-42,382	-0,122	-0,044
-266,526	-112,052	0,074	-0,011
-265,511	-66,824	-0,084	-0,024
-264,497	-200,000	-0,016	-0,084
-263,482	406,371	-0,004	-0,006
-262,467	114,479	-0,023	-0,020
-261,453	369,551	0,079	0,115
-260,438	-200,000	0,002	-0,122
-259,424	800,000	0,067	-0,151
-258,409	-200,000	-0,002	-0,055
-257,395	-118,122	0,076	-0,010
-256,380	369,112	0,075	0,109
-255,365	-73,509	-0,074	0,019
-254,351	800,000	0,017	-0,045
-253,336	191,707	-0,062	-0,067
-252,322	548,505	0,011	0,019
-251,307	-103,081	0,083	0,014
-250,292	800,000	-0,016	-0,039
-249,278	-10,749	0,062	-0,029
-248,263	-113,318	0,121	0,017
-247,249	-62,139	0,151	0,045
-246,234	756,568	0,039	0,076
-245,219	-200,000	-0,023	0,101
-244,205	496,168	-0,032	-0,053
-243,190	-17,166	0,101	-0,045
-242,176	-73,055	0,135	0,035
-241,161	628,347	-0,009	0,016
-240,146	-200,000	0,037	0,193
-239,132	622,172	-0,051	0,093
-238,117	-64,443	-0,143	0,041
-237,103	-200,000	0,018	0,085
-236,088	-200,000	-0,002	0,019
-235,073	132,050	0,039	-0,036
-234,059	800,000	0,049	0,110
-233,044	-200,000	-0,003	0,204
-232,030	429,134	-0,026	0,040
-231,015	-40,791	-0,057	0,021
-230,000	-200,000	-0,007	-0,050
-228,986	35,714	0,025	-0,015
-227,971	800,000	-0,032	-0,094
-226,957	202,741	0,030	0,034
-225,942	-155,865	0,058	-0,003
-224,927	53,794	-0,047	0,032
-223,913	-121,011	0,077	0,009
-222,898	800,000	-0,059	-0,133
-221,884	3,234	0,139	-0,072
-220,869	2,307	0,044	0,023
-219,855	-9,483	-0,066	0,031
-218,840	209,411	0,068	-0,076
-217,825	220,761	-0,040	-0,045
-216,811	-94,693	0,058	0,011
-215,796	-156,429	-0,148	-0,006
-214,782	800,000	-0,065	0,131
-213,767	-84,536	0,068	0,015
-212,752	22,793	0,030	0,018
-211,738	69,865	-0,129	0,095
-210,723	-6,369	0,080	0,039
-209,709	-167,736	-0,117	0,003
-208,694	-200,000	0,021	-0,068
-207,679	800,000	-0,095	0,197
-206,665	84,971	0,049	-0,038
-205,650	-62,559	-0,084	-0,025
-204,636	-26,738	-0,044	-0,018
-203,621	148,834	0,097	0,094
-202,606	-200,000	-0,008	-0,071
-201,592	-200,000	0,028	-0,093
-200,577	-200,000	-0,008	0,077
-199,563	800,000	0,050	-0,132
-198,548	-200,000	-0,005	-0,024
-197,533	40,279	-0,096	0,062
-196,519	800,000	0,030	0,073
-195,504	-29,068	-0,158	-0,064
-194,490	-200,000	-0,002	-0,093
-193,475	83,882	0,056	0,044
-192,460	18,310	-0,009	-0,005
-191,446	-21,427	0,068	-0,029
-190,431	57,548	0,015	0,011
-189,417	800,000	-0,041	0,106
-188,402	17,118	0,030	-0,017
-187,387	800,000	-0,004	0,007
-186,373	222,611	0,042	-0,049
-185,358	-200,000	-0,008	-0,099
-184,344	-67,371	0,071	0,020
-183,329	228,202	0,083	0,097
-182,315	-200,000	0,005	0,073
-181,300	559,523	-0,058	-0,101
-180,285	800,000	0,013	0,025
-179,271	800,000	-0,009	0,019
-178,256	773,389	-0,055	-0,107
-177,242	-200,000	0,006	0,093
-176,227	-200,000	0,012	0,148
-175,212	-200,000	0,011	0,172
-174,198	228,421	0,068	-0,079
-173,183	-45,462	0,077	-0,027
-172,169	-103,212	-0,136	0,023
-171,154	800,000	0,037	0,092
-170,139	800,000	0,026	0,078
-169,125	-54,927	-0,075	-0,024
-168,110	-20,559	0,071	-0,031
-167,096	-109,310	-0,076	0,011
-166,081	159,752	0,024	0,024
-165,066	800,000	0,048	0,106
-164,052	412,153	0,008	0,012
-163,037	-200,000	-0,003	-0,020
-162,023	88,935	0,041	-0,032
-161,008	260,391	0,043	0,053
-159,993	-8,453	0,016	0,008
-158,979	-200,000	-0,012	0,085
-157,964	-200,000	0,010	-0,121
-156,950	-200,000	-0,005	0,102
-155,935	-200,000	-0,007	-0,123
-154,920	145,139	0,022	-0,021
-153,906	95,620	0,032	-0,026
-152,891	-100,093	-0,019	0,003
-151,877	-200,000	-0,034	-0,117
-150,862	-200,000	0,004	-0,090
-149,847	-200,000	0,014	-0,266
-148,833	7,439	0,152	-0,081
-147,818	800,000	0,031	0,096
-146,804	-200,000	0,001	0,041
-145,789	21,646	-0,134	-0,077
-144,775	-200,000	0,037	-0,122
-143,760	14,279	0,161	0,089
-142,745	-22,061	-0,133	-0,057
-141,731	294,313	0,053	-0,069
-140,716	195,533	0,072	0,078
-139,702	415,220	0,015	-0,023
-138,687	-193,351	0,019	0,000
-137,672	-154,102	-0,146	-0,007
-136,658	800,000	0,041	0,113
-135,643	222,102	0,052	0,060
-134,629	-200,000	0,005	-0,103
-133,614	452,744	0,022	0,034
-132,599	394,777	-0,052	0,077
-131,585	76,544	-0,042	0,032
-130,570	27,850	-0,119	-0,071
-129,556	202,623	0,042	-0,046
-128,541	-83,073	-0,143	0,033
-127,526	248,385	0,056	-0,068
-126,512	-64,091	0,110	-0,032
-125,497	-200,000	0,028	-0,127
-124,483	7,053	0,120	-0,064
-123,468	-200,000	-0,017	-0,101
-122,453	97,441	-0,023	0,019
-121,439	800,000	0,019	-0,049
-120,424	-102,137	0,020	0,003
-119,410	800,000	-0,064	-0,195
-118,395	-27,577	0,165	0,068
-117,380	8,669	0,074	0,040
-116,366	125,472	-0,021	0,019
-115,351	-185,662	0,066	-0,001
-114,337	-55,164	-0,027	0,009
-113,322	184,403	-0,029	-0,030
-112,307	11,523	0,054	0,029
-111,293	15,418	0,236	0,131
-110,278	800,000	0,030	0,066
-109,264	-23,336	-0,218	-0,093
-108,249	-51,104	0,060	0,020
-107,234	181,995	0,063	-0,066
-106,220	53,826	-0,062	0,043
-105,205	231,158	0,086	0,100
-104,191	584,339	0,112	0,196
-103,176	-200,000	0,078	-0,000
-102,162	-200,000	-0,015	0,079
-101,147	545,565	-0,101	-0,172
-100,132	-26,395	-0,056	-0,023
-99,118	45,211	-0,048	0,032
-98,103	-200,000	-0,005	0,075
-97,089	-200,000	-0,031	0,183
-96,074	67,012	0,081	-0,059
-95,059	23,462	-0,117	0,068
-94,045	92,760	-0,061	-0,049
-93,030	29,020	-0,034	-0,020
-92,016	346,851	-0,032	0,045
-91,001	-44,563	-0,052	0,019
-89,986	-200,000	0,007	-0,039
-88,972	-200,000	-0,009	-0,044
-87,957	-105,015	0,113	0,018
-86,943	-40,536	-0,053	-0,019
-85,928	-72,130	0,143	-0,037
-84,913	496,321	0,018	-0,030
-83,899	152,885	0,078	-0,076
-82,884	800,000	0,041	0,086
-81,870	56,194	-0,118	0,081
-80,855	-3,153	-0,010	-0,005
-79,840	82,105	0,043	0,033
-78,826	62,488	-0,126	-0,089
-77,811	25,031	0,091	0,054
-76,797	-153,184	-0,058	-0,003
-75,782	-200,000	0,008	0,029
-74,767	800,000	0,030	-0,074
-73,753	42,778	0,040	0,026
-72,738	327,595	0,047	-0,064
-71,724	293,092	-0,129	-0,167
-70,709	-21,072	-0,115	-0,050
-69,694	165,158	0,054	0,054
-68,680	755,597	0,012	-0,024
-67,665	145,860	-0,020	0,019
-66,651	274,840	0,048	-0,060
-65,636	131,928	-0,054	0,049
-64,622	-35,864	-0,069	0,026
-63,607	236,689	0,074	0,087
-62,592	152,885	-0,151	-0,147
-61,578	800,000	-0,035	-0,087
-60,563	800,000	-0,023	-0,056
-59,549	-87,414	0,128	0,027
-58,534	15,555	-2,055	-1,143
-57,519	800,000	-0,622	-1,428
-56,505	-200,000	-0,912	-4,828
-55,490	248,787	0,863	1,039
-54,476	800,000	5,339	11,696
-53,461	-200,000	20,382	328,587
-52,446	800,000	755,306	2319,957
-51,432	544,925	1664,163	2832,031
-50,417	74,329	1671,488	1244,758
-49,403	19,820	1544,622	880,446
-48,388	13,819	1467,721	807,294
-47,373	18,155	1458,102	823,012
-46,359	16,120	1447,191	807,032
-45,344	12,128	1443,087	785,509
-44,330	12,073	1441,132	784,150
-43,315	12,075	1439,293	783,129
-42,300	12,082	1437,698	782,265
-41,286	12,076	1436,382	781,487
-40,271	12,008	1435,145	780,455
-39,257	12,031	1434,039	779,933
-38,242	12,041	1432,655	779,198
-37,227	12,077	1431,390	778,652
-36,213	12,070	1429,998	777,832
-35,198	12,039	1429,113	777,171
-34,184	12,101	1427,983	776,820
-33,169	12,060	1426,708	775,900
-32,154	12,109	1425,354	775,365
-31,140	12,095	1424,413	774,760
-30,125	12,122	1422,940	774,054
-29,111	12,111	1421,778	773,338
-28,096	12,090	1420,749	772,648
-27,082	12,057	1419,664	771,874
-26,067	12,009	1418,655	771,064
-25,052	12,028	1417,741	770,630
-24,038	12,036	1416,649	770,040
-23,023	12,024	1415,676	769,426
-22,009	12,049	1414,478	768,864
-20,994	11,950	1413,894	768,047
-19,979	11,970	1412,832	767,536
-18,965	11,973	1411,786	766,952
-17,950	11,974	1410,892	766,436
-16,936	11,956	1410,242	765,972
-15,921	11,929	1409,086	765,183
-14,906	11,954	1408,158	764,769
-13,892	11,975	1406,993	764,204
-12,877	11,879	1406,611	763,514
-11,863	11,912	1405,456	763,011
-10,848	11,897	1404,492	762,389
-9,833	11,864	1403,575	761,707
-8,819	11,860	1402,890	761,284
-7,804	11,828	1402,012	760,630
-6,790	11,868	1400,828	760,143
-5,775	11,887	1399,829	759,662
-4,760	11,858	1398,814	758,946
-3,746	11,803	1398,076	758,258
-2,731	11,831	1397,165	757,864
-1,717	11,805	1396,303	757,243
-0,702	11,806	1394,605	756,298
0,313	15,897	1308,664	728,609
1,327	32,182	698,082	426,124
2,342	49,345	121,404	80,837
3,356	1,266	16,565	8,409
4,371	9,181	3,200	1,710
5,386	-32,292	0,743	0,293
6,400	800,000	0,110	0,218
7,415	357,923	-0,097	-0,137
8,429	60,754	-0,339	-0,238
9,444	105,221	-0,256	-0,214
10,459	-64,981	-0,378	-0,107
11,473	4,908	-0,329	-0,171
12,488	-21,075	-0,271	-0,117
13,502	-16,156	-0,296	-0,133
14,517	-42,067	-0,335	-0,121
15,531	146,305	-0,179	-0,170
16,546	74,717	-0,379	-0,282
17,561	27,632	-0,402	-0,239
18,575	-120,925	-0,178	-0,021
19,590	399,750	-0,142	-0,211
20,604	122,836	-0,308	-0,273
21,619	125,956	-0,438	-0,392
22,634	1,624	-0,522	-0,265
23,648	277,516	-0,291	-0,368
24,663	29,165	-0,369	-0,221
25,677	-69,485	-0,351	-0,094
26,692	120,264	-0,323	-0,284
27,707	130,024	-0,308	-0,278
28,721	144,878	-0,358	-0,339
29,736	128,981	-0,326	-0,295
30,750	138,380	-0,327	-0,304
31,765	107,013	-0,433	-0,364
32,780	32,849	-0,534	-0,326
33,794	147,928	-0,286	-0,272
34,809	29,149	-0,376	-0,225
35,823	37,202	-0,344	-0,215
36,838	800,000	-0,157	-0,321
37,853	3,258	-0,507	-0,260
38,867	107,517	-0,288	-0,242
39,882	-24,150	-0,427	-0,179
40,896	141,617	-0,347	-0,325
41,911	5,885	-0,367	-0,191
42,926	112,187	-0,357	-0,305
43,940	39,074	-0,359	-0,226
44,955	47,946	-0,455	-0,300
45,969	35,676	-0,380	-0,235
46,984	208,498	-0,266	-0,294
47,999	-26,437	-0,428	-0,176
49,013	0,364	-0,346	-0,174
50,028	165,346	-0,298	-0,297
51,042	-50,926	-0,292	-0,096
52,057	60,844	-0,300	-0,210
53,071	-20,957	-0,396	-0,170
54,086	136,698	-0,334	-0,308
55,101	166,607	-0,220	-0,220
56,115	59,509	-0,438	-0,304
57,130	-68,471	-0,302	-0,082
58,144	-2,140	-0,398	-0,197
59,159	50,467	-0,297	-0,198
60,174	124,057	-0,362	-0,320
61,188	51,211	-0,292	-0,195
62,203	33,689	-0,277	-0,170
63,217	-2,340	-0,314	-0,155
64,232	727,198	-0,104	-0,197
65,247	169,772	-0,245	-0,247
66,261	35,932	-0,310	-0,192
67,276	265,000	-0,299	-0,369
68,290	228,441	-0,268	-0,308
69,305	100,117	-0,304	-0,248
70,320	7,240	-0,333	-0,175
71,334	32,558	-0,370	-0,225
72,349	430,510	-0,168	-0,257
73,363	109,596	-0,364	-0,307
74,378	77,451	-0,358	-0,268
75,393	292,766	-0,267	-0,343
76,407	54,149	-0,246	-0,166
77,422	-6,579	-0,200	-0,096
78,436	228,257	-0,246	-0,282
79,451	45,407	-0,356	-0,231
80,466	0,892	-0,281	-0,142
81,480	-182,461	-0,253	0,003
82,495	-64,882	-0,329	-0,093
83,509	0,582	-0,183	-0,092
84,524	-14,185	-0,340	-0,154
85,539	-50,418	-0,316	-0,104
86,553	36,204	-0,305	-0,189
87,568	-1,945	-0,232	-0,114
88,582	39,021	-0,323	-0,203
89,597	64,789	-0,285	-0,202
90,611	182,738	-0,236	-0,245
91,626	286,473	-0,248	-0,316
92,641	476,186	-0,107	-0,170
93,655	55,520	-0,251	-0,171
94,670	99,454	-0,309	-0,251
95,684	150,495	-0,259	-0,247
96,699	94,604	-0,320	-0,256
97,714	39,956	-0,211	-0,133
98,728	360,202	-0,227	-0,321
99,743	-22,601	-0,306	-0,130
100,757	-34,439	-0,271	-0,104
101,772	101,667	-0,281	-0,230
102,787	332,541	-0,230	-0,313
103,801	137,721	-0,275	-0,253
104,816	185,898	-0,253	-0,265
105,830	100,549	-0,261	-0,213
106,845	-19,449	-0,287	-0,125
107,860	-21,473	-0,158	-0,068
108,874	49,388	-0,299	-0,197
109,889	25,610	-0,192	-0,112
110,903	75,040	-0,290	-0,215
111,918	-116,788	-0,347	-0,044
112,933	182,749	-0,208	-0,216
113,947	-50,377	-0,237	-0,078
114,962	171,705	-0,153	-0,155
115,976	19,304	-0,302	-0,170
116,991	220,997	-0,207	-0,234
118,006	103,494	-0,252	-0,207
119,020	335,193	-0,178	-0,243
120,035	105,436	-0,317	-0,263
121,049	53,429	-0,230	-0,155
122,064	-100,214	-0,359	-0,062
123,079	-32,331	-0,340	-0,132
124,093	77,222	-0,224	-0,167
125,108	-93,675	-0,227	-0,044
126,122	-15,743	-0,236	-0,105
127,137	192,765	-0,210	-0,223
128,151	-6,946	-0,283	-0,134
129,166	800,000	-0,107	-0,256
130,181	142,661	-0,226	-0,211
131,195	272,089	-0,154	-0,191
132,210	222,502	-0,279	-0,316
133,224	80,883	-0,248	-0,187
134,239	-42,168	-0,363	-0,130
135,254	-30,074	-0,121	0,048
136,268	-26,888	-0,255	-0,104
137,283	-66,445	-0,422	-0,117
138,297	108,154	-0,236	-0,197
139,312	187,066	-0,196	-0,204
140,327	-40,498	-0,307	-0,111
141,341	-27,146	-0,246	-0,100
142,356	137,494	-0,267	-0,245
143,370	27,660	-0,143	-0,084
144,385	64,749	-0,246	-0,174
145,400	800,000	-0,123	-0,242
146,414	20,146	-0,209	-0,118
147,429	83,596	-0,201	-0,153
148,443	84,377	-0,250	-0,192
149,458	115,190	-0,207	-0,177
150,473	-10,247	-0,111	-0,051
151,487	1,394	-0,248	-0,124
152,502	52,074	-0,263	-0,175
153,516	101,922	-0,312	-0,254
154,531	-18,128	-0,328	-0,143
155,546	244,883	-0,226	-0,266
156,560	-25,388	-0,342	-0,141
157,575	18,267	-0,165	-0,092
158,589	-26,593	-0,240	-0,098
159,604	364,200	-0,193	-0,272
160,619	-14,649	-0,242	-0,108
161,633	175,691	-0,259	-0,263
162,648	-2,009	-0,268	-0,131
163,662	44,992	-0,222	-0,143
164,677	124,695	-0,133	-0,117
165,692	153,061	-0,188	-0,180
166,706	221,977	-0,306	-0,344
167,721	3,385	-0,300	-0,152
168,735	166,403	-0,218	-0,216
169,750	-110,024	-0,241	-0,035
170,764	56,519	-0,134	-0,091
171,779	205,851	-0,190	-0,207
172,794	268,063	-0,138	-0,169
173,808	111,737	-0,241	-0,203
174,823	21,930	-0,203	-0,115
175,837	168,174	-0,233	-0,232
176,852	24,030	-0,296	-0,170
177,867	-21,125	-0,181	-0,077
178,881	11,813	-0,216	-0,115
179,896	800,000	-0,140	-0,277
180,910	352,268	-0,156	-0,216
181,925	149,802	-0,217	-0,205
182,940	62,205	-0,173	-0,120
183,954	207,233	-0,197	-0,215
184,969	800,000	-0,092	-0,248
185,983	634,702	-0,171	-0,304
186,998	16,924	-0,121	-0,067
188,013	283,526	-0,154	-0,194
189,027	209,546	-0,127	-0,139
190,042	224,652	-0,248	-0,280
191,056	497,148	-0,192	-0,310
192,071	146,725	-0,140	-0,131
193,086	-135,184	-0,265	-0,022
194,100	-200,000	-0,039	-0,281
195,115	-112,411	-0,101	-0,014
196,129	178,078	-0,220	-0,224
197,144	31,129	-0,237	-0,142
198,159	75,575	-0,253	-0,186
199,173	242,624	-0,128	-0,149
200,188	73,349	-0,126	-0,092
201,202	339,348	-0,103	-0,140
202,217	338,089	-0,129	-0,175
203,232	116,090	-0,148	-0,126
204,246	607,473	-0,139	-0,242
205,261	321,343	-0,215	-0,286
206,275	307,571	-0,141	-0,184
207,290	800,000	-0,079	-0,203
208,304	739,369	-0,077	-0,145
209,319	-63,699	-0,311	-0,088
210,334	181,498	-0,173	-0,178
211,348	-112,613	-0,101	0,014
212,363	260,023	-0,138	-0,166
213,377	800,000	-0,123	-0,237
214,392	-20,821	-0,250	-0,106
215,407	-17,545	-0,246	-0,107
216,421	800,000	-0,109	-0,279
217,436	800,000	-0,058	-0,165
218,450	800,000	-0,092	-0,236
219,465	53,486	-0,261	-0,174
220,480	718,256	-0,167	-0,309
221,494	44,735	-0,203	-0,129
222,509	110,999	-0,132	-0,110
223,523	205,145	-0,183	-0,198
224,538	72,473	-0,274	-0,198
225,553	-3,768	-0,211	-0,102
226,567	32,150	-0,226	-0,135
227,582	463,249	-0,134	-0,209
228,596	-11,812	-0,211	-0,096
229,611	544,154	-0,115	-0,192
230,626	136,839	-0,193	-0,176
231,640	327,050	-0,157	-0,210
232,655	166,856	-0,260	-0,257
233,669	304,072	-0,129	-0,167
234,684	64,509	-0,189	-0,132
235,699	800,000	-0,064	-0,124
236,713	-67,453	-0,129	0,035
237,728	-198,850	-0,214	-0,001
238,742	-101,556	-0,188	-0,031
239,757	176,489	-0,256	-0,259
240,772	-193,869	-0,113	-0,001
241,786	-47,176	-0,184	-0,062
242,801	159,797	-0,169	-0,164
243,815	-92,379	-0,116	-0,022
244,830	222,624	-0,103	-0,116
245,844	64,692	-0,276	-0,193
246,859	191,850	-0,156	-0,164
247,874	-122,223	-0,110	0,012
248,888	332,909	-0,184	-0,247
249,903	121,053	-0,218	-0,188
250,917	106,834	-0,143	-0,117
251,932	495,234	-0,103	-0,165
252,947	-79,261	-0,262	-0,061
253,961	-148,472	-0,142	-0,008
254,976	22,547	-0,235	-0,133
255,990	-36,176	-0,317	-0,118
257,005	-23,200	-0,161	-0,067
258,020	-108,564	-0,130	-0,019
259,034	-100,491	-0,062	0,011
260,049	-7,352	-0,163	-0,076
261,063	-45,204	-0,197	-0,068
262,078	245,222	-0,184	-0,215
263,093	463,619	-0,097	-0,151
264,107	-70,236	-0,177	-0,046
265,122	-140,128	-0,126	-0,009
266,136	-89,071	-0,100	-0,020
267,151	36,737	-0,232	-0,142
268,166	-119,140	-0,251	-0,030
269,180	-16,519	-0,167	-0,073
270,195	727,794	-0,152	-0,281
271,209	-4,084	-0,208	-0,099
272,224	260,272	-0,171	-0,205
273,239	-65,787	-0,117	0,032
274,253	362,867	-0,127	-0,176
275,268	-135,081	-0,130	0,011
276,282	-89,284	-0,262	-0,053
277,297	219,860	-0,139	-0,154
278,312	-11,804	-0,256	-0,116
279,326	28,574	-0,072	-0,042
280,341	-42,436	-0,134	0,047
281,355	168,170	-0,128	-0,127
282,370	70,522	-0,191	-0,137
283,384	168,024	-0,166	-0,163
284,399	-43,224	-0,176	-0,061
285,414	22,846	-0,161	-0,091
286,428	116,822	-0,167	-0,142
287,443	36,195	-0,041	0,025
288,457	-81,098	-0,261	-0,059
289,472	265,961	-0,070	-0,085
290,487	-56,663	-0,268	0,081
291,501	566,760	-0,111	-0,187
292,516	39,809	-0,221	-0,137
293,530	388,862	-0,109	-0,156
294,545	189,799	-0,093	-0,096
295,560	593,707	-0,109	-0,188
296,574	251,932	0,046	-0,055
297,589	800,000	-0,112	-0,215
298,603	357,680	-0,139	-0,192
299,618	94,176	-0,101	0,079
300,633	311,465	-0,030	-0,039
301,647	51,283	-0,166	-0,109
302,662	-154,286	-0,079	0,004
303,676	585,421	-0,051	-0,087
304,691	370,363	-0,063	-0,088
305,706	212,373	-0,180	-0,196
306,720	15,428	-0,175	-0,095
307,735	-102,368	-0,146	-0,024
308,749	70,882	0,012	0,009
309,764	-96,505	-0,107	-0,019
310,779	164,641	-0,115	-0,112
311,793	-78,611	-0,143	-0,034
312,808	146,147	-0,125	-0,116
313,822	399,158	-0,183	-0,266
314,837	-17,220	-0,221	-0,096
315,852	45,426	-0,156	-0,099
316,866	-45,721	-0,109	0,037
317,881	-22,466	-0,130	-0,054
318,895	-153,431	-0,105	0,005
319,910	-200,000	-0,039	-0,143
320,925	-2,682	-0,130	-0,063
321,939	52,537	-0,100	-0,066
322,954	-123,047	-0,093	0,010
323,968	-143,446	-0,143	-0,009
324,983	262,667	-0,119	-0,142
325,997	15,231	-0,159	-0,086
327,012	-200,000	-0,039	-0,168
328,027	547,994	-0,086	-0,142
329,041	320,088	-0,131	-0,172
330,056	-34,795	-0,228	-0,086
331,070	113,819	-0,150	-0,126
332,085	284,486	-0,125	-0,155
333,100	-111,644	-0,171	-0,024
334,114	179,485	-0,136	-0,137
335,129	238,309	-0,140	-0,160
336,143	168,705	-0,031	-0,030
337,158	429,423	-0,021	-0,031
338,173	194,778	-0,108	0,113
339,187	-200,000	0,003	0,101
340,202	197,200	-0,142	-0,149
341,216	29,810	-0,175	-0,103
342,231	311,712	-0,085	-0,110
343,246	243,947	-0,101	-0,116
344,260	-45,992	-0,144	0,048
345,275	-118,360	-0,065	0,008
346,289	224,293	-0,085	0,094
347,304	461,612	-0,075	-0,116
348,319	-5,121	-0,221	-0,104
349,333	161,815	-0,133	-0,128
350,348	293,987	-0,138	-0,174
351,362	164,521	-0,141	-0,137
352,377	374,649	-0,109	-0,153
353,392	162,598	-0,140	-0,135
354,406	-182,491	-0,034	-0,000
355,421	209,240	1312,430	1415,122
356,435	161,029	1472,614	1415,353
