DTS Sentinel unit serial number:	SN410029Multiplexer serial number:	ORYXHardware model number:	OX2-SRSoftware version number:	ORYX F/W v4,00 Oryx Data Collector v3.7.2.0data status	okinstallation	B3 Nyhavnadifferential loss correction	single-endedforward channel	channel 1reverse channel	N/Adate	2023/11/30time	02:02:30forward acquisition time	300,00reverse acquisition time	0,00gamma	499,1914k internal	0,3210k external	0,3210temperature offset calibration	1,0000default loss term (dB/km)	0,3820temperature slope calibration	1,0000multiplexer offset coefficient	1,0000multiplexer slope coefficient	1,0000fibre end	0,00T internal ref (°C)	10,52T ext. ref 1 (°C)	-5,12T ext. ref 2 (°C)	-5,25length (m)	temperature (°C)	Stokes	anti-Stokes-744,400	88,688	-0,131	-0,106
-743,385	-200,000	0,012	0,354
-742,371	71,102	-0,154	-0,116
-741,356	-200,000	0,016	0,315
-740,342	82,280	-0,278	-0,218
-739,327	-200,000	-0,051	0,259
-738,312	110,917	-0,286	-0,250
-737,298	440,702	0,093	0,148
-736,283	800,000	-0,123	-0,280
-735,269	800,000	-0,110	0,348
-734,254	60,905	-0,221	-0,159
-733,239	-32,683	-0,269	0,108
-732,225	524,716	-0,148	-0,253
-731,210	-200,000	-0,005	0,183
-730,196	-200,000	-0,012	-0,056
-729,181	102,502	0,056	0,047
-728,167	492,291	-0,020	0,034
-727,152	-200,000	0,008	0,073
-726,137	303,576	-0,121	-0,163
-725,123	-200,000	-0,013	-0,124
-724,108	-85,394	0,023	-0,005
-723,094	196,506	-0,063	-0,070
-722,079	-200,000	-0,057	-0,197
-721,064	-61,365	0,077	-0,023
-720,050	263,138	-0,025	0,032
-719,035	235,720	-0,034	-0,041
-718,021	240,287	-0,036	-0,044
-717,006	800,000	-0,048	-0,101
-715,991	-34,774	-0,121	-0,048
-714,977	-102,073	-0,165	0,029
-713,962	455,298	-0,054	-0,086
-712,948	68,874	-0,059	0,044
-711,933	175,173	0,072	0,076
-710,918	38,036	0,071	0,046
-709,904	169,586	-0,164	-0,170
-708,889	-12,248	-0,069	-0,033
-707,875	140,149	-0,131	-0,125
-706,860	282,428	-0,066	0,086
-705,845	160,165	0,054	-0,054
-704,831	337,196	0,030	-0,043
-703,816	-200,000	0,016	-0,076
-702,802	153,151	0,066	-0,066
-701,787	-181,451	-0,291	0,004
-700,772	67,890	-0,102	0,076
-699,758	800,000	0,021	0,064
-698,743	-72,784	-0,069	0,018
-697,729	205,775	0,151	0,170
-696,714	2,555	-0,038	-0,020
-695,699	-162,243	-0,107	0,004
-694,685	800,000	-0,021	0,064
-693,670	252,679	-0,038	0,047
-692,656	-37,167	0,126	0,049
-691,641	-200,000	-0,005	-0,053
-690,627	291,351	-0,028	0,037
-689,612	40,110	0,054	-0,035
-688,597	-93,669	-0,143	0,028
-687,583	-25,633	-0,036	0,015
-686,568	800,000	-0,030	0,088
-685,554	-200,000	0,052	-0,185
-684,539	-122,669	-0,069	0,008
-683,524	491,051	0,071	0,118
-682,510	484,566	-0,031	0,051
-681,495	800,000	-0,021	0,054
-680,481	-87,742	-0,161	0,035
-679,466	514,071	-0,042	0,071
-678,451	-200,000	0,016	-0,172
-677,437	214,503	0,074	-0,085
-676,422	-38,783	-0,060	-0,023
-675,408	-200,000	0,015	-0,074
-674,393	-200,000	0,008	-0,086
-673,378	800,000	0,027	-0,058
-672,364	5,733	-0,124	-0,066
-671,349	-200,000	-0,001	-0,012
-670,335	18,230	0,099	-0,057
-669,320	800,000	-0,076	0,167
-668,305	192,640	-0,073	0,080
-667,291	800,000	0,043	-0,091
-666,276	200,298	-0,075	-0,084
-665,262	-145,333	-0,037	-0,002
-664,247	800,000	0,042	0,113
-663,232	-27,271	0,033	-0,014
-662,218	-200,000	-0,005	-0,040
-661,203	800,000	-0,052	0,132
-660,189	800,000	0,075	0,155
-659,174	-200,000	0,002	-0,021
-658,159	-8,032	-0,097	-0,047
-657,145	-200,000	-0,011	0,065
-656,130	-134,779	-0,121	0,011
-655,116	-84,220	0,062	0,014
-654,101	-200,000	0,001	0,039
-653,086	-200,000	0,046	-0,164
-652,072	-131,702	-0,117	0,011
-651,057	100,258	-0,034	-0,028
-650,043	45,487	-0,085	-0,056
-649,028	-200,000	0,004	-0,057
-648,014	78,647	0,087	-0,067
-646,999	-200,000	0,013	-0,158
-645,984	69,287	0,015	-0,011
-644,970	352,486	0,049	-0,070
-643,955	688,304	-0,028	-0,054
-642,941	-158,457	0,102	-0,004
-641,926	-200,000	-0,003	0,036
-640,911	-21,617	-0,103	0,045
-639,897	-175,359	0,093	-0,002
-638,882	-200,000	0,020	0,070
-637,868	84,587	0,110	-0,087
-636,853	62,478	0,107	-0,077
-635,838	-21,244	-0,146	-0,064
-634,824	604,189	0,018	0,033
-633,809	800,000	0,010	-0,032
-632,795	-200,000	0,000	0,005
-631,780	-200,000	-0,003	0,137
-630,765	-185,326	-0,162	0,002
-629,751	108,946	0,124	-0,107
-628,736	-200,000	0,012	-0,190
-627,722	302,334	0,033	-0,044
-626,707	-200,000	0,025	0,196
-625,692	-69,495	0,117	0,032
-624,678	-200,000	0,034	0,144
-623,663	46,023	-0,066	0,044
-622,649	75,899	-0,067	-0,051
-621,634	800,000	-0,021	-0,045
-620,619	-122,980	-0,070	-0,008
-619,605	-51,371	0,082	0,027
-618,590	266,025	-0,069	0,088
-617,576	8,457	0,175	0,095
-616,561	586,139	-0,023	-0,041
-615,546	-127,537	0,051	0,005
-614,532	-84,522	0,078	0,018
-613,517	800,000	0,051	-0,129
-612,503	62,514	0,056	0,040
-611,488	26,607	0,068	0,041
-610,474	-200,000	0,017	-0,090
-609,459	800,000	-0,012	-0,029
-608,444	23,780	0,073	0,043
-607,430	13,194	-0,070	-0,039
-606,415	-200,000	-0,000	-0,081
-605,401	217,828	-0,083	-0,096
-604,386	-200,000	-0,004	-0,013
-603,371	-200,000	-0,007	-0,061
-602,357	-77,287	-0,012	-0,003
-601,342	800,000	-0,035	0,077
-600,328	-66,281	0,065	0,018
-599,313	404,754	-0,083	0,127
-598,298	-200,000	-0,006	-0,105
-597,284	434,144	0,037	0,058
-596,269	800,000	0,008	-0,023
-595,255	376,707	0,003	-0,005
-594,240	355,114	-0,042	0,060
-593,225	6,289	0,102	-0,054
-592,211	75,398	0,057	-0,043
-591,196	-200,000	-0,005	0,066
-590,182	-200,000	0,024	0,114
-589,167	-150,575	-0,049	-0,003
-588,152	8,903	0,074	-0,040
-587,138	-170,867	0,123	-0,003
-586,123	-142,895	-0,123	-0,009
-585,109	83,770	0,028	-0,022
-584,094	-95,440	0,123	-0,024
-583,079	-99,466	-0,024	0,004
-582,065	341,503	-0,066	0,093
-581,050	-172,723	0,047	-0,001
-580,036	800,000	0,048	0,107
-579,021	-200,000	0,010	-0,061
-578,006	269,245	-0,055	-0,069
-576,992	-153,507	-0,072	-0,004
-575,977	-200,000	-0,006	-0,081
-574,963	372,175	-0,048	0,071
-573,948	-74,897	-0,139	-0,036
-572,934	-58,306	0,102	-0,032
-571,919	-200,000	-0,016	-0,086
-570,904	-71,185	-0,082	0,022
-569,890	567,170	0,041	-0,072
-568,875	-170,001	0,019	0,000
-567,861	311,100	0,081	0,110
-566,846	-200,000	0,026	0,084
-565,831	-200,000	0,001	0,175
-564,817	257,116	-0,126	-0,157
-563,802	-200,000	-0,129	-0,000
-562,788	800,000	-0,016	-0,050
-561,773	-117,026	0,009	0,001
-560,758	800,000	0,055	0,128
-559,744	429,566	0,027	0,042
-558,729	354,899	-0,007	0,010
-557,715	694,058	-0,043	0,081
-556,700	-200,000	-0,006	0,030
-555,685	-200,000	-0,003	0,037
-554,671	225,648	-0,028	-0,033
-553,656	-200,000	-0,002	-0,084
-552,642	-200,000	-0,026	-0,112
-551,627	-52,412	0,047	0,016
-550,612	-132,140	-0,038	0,003
-549,598	33,656	-0,172	-0,107
-548,583	800,000	-0,029	-0,078
-547,569	-200,000	-0,006	0,102
-546,554	48,601	0,070	0,047
-545,539	272,776	0,022	-0,028
-544,525	800,000	0,061	0,128
-543,510	-94,239	-0,032	0,006
-542,496	-200,000	-0,031	-0,130
-541,481	47,128	0,022	-0,015
-540,466	211,360	-0,065	0,073
-539,452	57,676	0,102	-0,072
-538,437	-49,755	0,124	0,042
-537,423	-200,000	-0,005	0,071
-536,408	-37,249	0,044	0,017
-535,393	238,145	-0,030	0,035
-534,379	800,000	-0,014	-0,035
-533,364	-131,465	0,071	0,007
-532,350	-106,273	0,131	-0,021
-531,335	379,583	0,067	0,100
-530,321	30,680	-0,087	0,054
-529,306	800,000	0,022	-0,070
-528,291	78,642	-0,082	0,063
-527,277	194,016	-0,067	-0,073
-526,262	-105,345	0,116	-0,019
-525,248	436,365	-0,077	-0,120
-524,233	-68,031	0,075	0,021
-523,218	-74,880	0,082	0,021
-522,204	800,000	-0,025	-0,078
-521,189	-200,000	-0,011	-0,070
-520,175	-7,170	-0,100	-0,048
-519,160	508,717	0,072	-0,120
-518,145	-113,405	-0,150	-0,021
-517,131	136,713	0,059	0,055
-516,116	800,000	0,051	0,160
-515,102	-113,803	0,130	0,018
-514,087	800,000	-0,022	-0,060
-513,072	97,671	-0,124	-0,102
-512,058	-4,996	0,061	-0,030
-511,043	401,910	0,061	0,092
-510,029	-200,000	0,028	0,144
-509,014	-76,448	0,147	-0,037
-507,999	320,674	0,024	-0,034
-506,985	-62,429	-0,066	-0,020
-505,970	800,000	-0,026	-0,062
-504,956	-200,000	0,004	-0,040
-503,941	-63,329	-0,091	0,027
-502,926	800,000	-0,037	0,075
-501,912	586,742	0,078	0,139
-500,897	639,839	0,010	0,019
-499,883	496,702	-0,062	-0,102
-498,868	230,875	-0,078	-0,092
-497,853	-119,922	-0,028	0,003
-496,839	800,000	-0,029	0,071
-495,824	-200,000	-0,009	-0,119
-494,810	43,075	-0,031	-0,020
-493,795	800,000	0,062	0,146
-492,781	-200,000	-0,001	-0,048
-491,766	800,000	-0,085	-0,201
-490,751	400,597	-0,024	-0,036
-489,737	-200,000	0,018	0,089
-488,722	295,193	0,012	0,016
-487,708	-191,543	0,098	0,001
-486,693	800,000	0,049	0,138
-485,678	800,000	0,013	0,037
-484,664	-200,000	-0,010	-0,034
-483,649	-152,200	-0,122	-0,006
-482,635	214,368	-0,082	-0,093
-481,620	-149,781	-0,042	-0,002
-480,605	-185,318	0,163	0,002
-479,591	800,000	0,022	0,056
-478,576	-200,000	0,022	0,082
-477,562	-200,000	-0,137	-0,000
-476,547	90,217	-0,102	-0,082
-475,532	105,719	-0,010	-0,008
-474,518	191,698	0,084	-0,091
-473,503	79,620	-0,058	0,044
-472,489	24,255	0,039	0,023
-471,474	154,411	-0,082	0,081
-470,459	-96,909	-0,122	0,023
-469,445	-73,460	0,106	0,027
-468,430	-178,863	0,158	0,003
-467,416	-81,942	-0,048	-0,011
-466,401	-200,000	-0,006	-0,064
-465,386	23,602	-0,100	0,059
-464,372	231,006	0,061	-0,072
-463,357	800,000	-0,067	-0,152
-462,343	135,306	-0,100	-0,093
-461,328	90,615	0,025	-0,020
-460,313	80,825	0,115	-0,089
-459,299	-200,000	-0,012	-0,059
-458,284	-43,951	0,126	-0,045
-457,270	222,738	-0,063	0,072
-456,255	-200,000	0,052	-0,211
-455,241	-200,000	0,011	-0,046
-454,226	245,314	0,018	-0,022
-453,211	88,816	-0,043	-0,034
-452,197	-200,000	-0,000	0,005
-451,182	-200,000	-0,014	-0,119
-450,168	104,460	0,028	-0,024
-449,153	-152,539	0,099	0,005
-448,138	183,982	-0,058	-0,061
-447,124	-38,595	0,060	-0,023
-446,109	182,216	-0,088	-0,094
-445,095	125,823	0,129	0,117
-444,080	-200,000	-0,002	0,158
-443,065	-102,647	-0,097	-0,016
-442,051	800,000	0,035	0,074
-441,036	800,000	-0,032	-0,075
-440,022	741,209	0,033	0,063
-439,007	-40,495	0,059	0,022
-437,992	-200,000	0,017	0,207
-436,978	93,196	-0,115	0,093
-435,963	-135,722	0,109	-0,009
-434,949	-38,554	0,113	-0,043
-433,934	123,368	-0,054	-0,048
-432,919	475,832	-0,066	-0,107
-431,905	376,045	-0,024	0,035
-430,890	800,000	-0,032	-0,064
-429,876	-51,373	0,051	-0,017
-428,861	-8,711	0,044	0,021
-427,846	-111,585	-0,080	-0,012
-426,832	69,968	0,093	-0,069
-425,817	160,995	0,077	-0,077
-424,803	-162,166	0,134	-0,005
-423,788	-200,000	0,002	-0,007
-422,773	-13,452	-0,061	0,028
-421,759	800,000	0,041	0,113
-420,744	697,270	-0,052	-0,098
-419,730	174,206	-0,070	-0,072
-418,715	-83,409	-0,090	-0,021
-417,701	-200,000	-0,030	-0,149
-416,686	130,885	-0,103	-0,095
-415,671	116,060	0,083	0,072
-414,657	86,975	0,078	-0,062
-413,642	18,876	-0,081	0,046
-412,628	-200,000	0,029	-0,145
-411,613	-159,223	-0,125	-0,005
-410,598	45,835	-0,091	-0,060
-409,584	-132,478	0,100	0,009
-408,569	117,577	0,115	0,101
-407,555	-14,954	0,172	0,079
-406,540	-200,000	-0,015	0,073
-405,525	9,949	-0,167	-0,091
-404,511	-80,895	0,074	-0,017
-403,496	-94,377	-0,142	-0,028
-402,482	-156,024	0,108	-0,005
-401,467	-200,000	0,020	-0,110
-400,452	145,305	0,042	-0,041
-399,438	800,000	0,078	-0,156
-398,423	800,000	-0,022	-0,060
-397,409	142,644	-0,134	-0,127
-396,394	25,335	-0,172	-0,102
-395,379	-121,152	0,148	0,018
-394,365	-87,744	0,138	0,030
-393,350	32,815	-0,051	-0,031
-392,336	-190,098	0,064	-0,000
-391,321	-141,398	0,013	-0,001
-390,306	-48,999	-0,098	0,034
-389,292	-200,000	0,010	-0,072
-388,277	-105,374	0,122	-0,020
-387,263	-11,523	0,017	-0,008
-386,248	30,118	0,201	0,122
-385,233	57,228	0,047	0,033
-384,219	-4,873	0,084	-0,041
-383,204	-153,197	-0,105	-0,005
-382,190	195,501	0,061	-0,066
-381,175	-200,000	0,004	0,085
-380,160	-200,000	0,013	-0,112
-379,146	459,770	0,049	0,078
-378,131	-1,857	0,072	0,036
-377,117	-41,772	-0,032	-0,012
-376,102	707,603	-0,059	-0,111
-375,088	-200,000	-0,041	-0,131
-374,073	-87,956	-0,202	0,043
-373,058	-141,607	0,102	-0,007
-372,044	-32,583	0,116	0,046
-371,029	468,808	-0,060	0,097
-370,015	800,000	0,036	0,086
-369,000	-150,644	0,091	0,005
-367,985	-14,029	-0,079	-0,036
-366,971	272,838	-0,030	-0,038
-365,956	800,000	-0,061	-0,139
-364,942	-200,000	-0,026	-0,085
-363,927	-122,055	0,012	-0,001
-362,912	124,573	-0,065	-0,059
-361,898	81,792	-0,060	0,046
-360,883	122,703	-0,136	-0,122
-359,869	-78,445	-0,091	-0,022
-358,854	-147,513	-0,029	-0,002
-357,839	137,307	-0,046	0,043
-356,825	800,000	-0,051	0,132
-355,810	-200,000	-0,001	-0,131
-354,796	-132,936	0,042	-0,004
-353,781	-155,830	-0,103	-0,005
-352,766	-33,149	-0,110	-0,043
-351,752	459,165	-0,044	-0,070
-350,737	800,000	0,006	-0,018
-349,723	-136,199	-0,118	0,010
-348,708	21,038	0,073	0,042
-347,693	-93,540	0,026	0,005
-346,679	127,714	-0,073	-0,067
-345,664	-41,988	-0,022	-0,008
-344,650	83,416	-0,054	0,042
-343,635	-62,547	0,131	0,039
-342,620	58,851	-0,057	0,040
-341,606	177,816	0,078	0,081
-340,591	-200,000	0,006	-0,125
-339,577	143,333	0,069	0,066
-338,562	-59,966	0,044	0,013
-337,548	-200,000	-0,005	0,106
-336,533	770,506	0,024	-0,047
-335,518	-114,879	0,131	-0,018
-334,504	-108,788	-0,074	0,011
-333,489	-200,000	-0,069	0,221
-332,475	-200,000	-0,027	-0,132
-331,460	89,973	-0,060	-0,048
-330,445	-200,000	-0,015	0,089
-329,431	49,843	0,086	0,058
-328,416	-200,000	-0,041	0,138
-327,402	-108,215	0,129	0,020
-326,387	-87,774	-0,091	0,019
-325,372	-47,172	-0,128	-0,044
-324,358	-130,503	-0,081	0,008
-323,343	18,835	-0,087	-0,050
-322,329	249,253	0,084	0,102
-321,314	-200,000	-0,004	0,012
-320,299	-200,000	0,019	0,113
-319,285	-200,000	-0,034	0,106
-318,270	584,278	0,032	-0,056
-317,256	-25,970	0,168	0,070
-316,241	800,000	-0,037	-0,107
-315,226	-200,000	0,000	0,042
-314,212	800,000	-0,063	0,175
-313,197	-200,000	-0,003	0,101
-312,183	6,840	0,069	-0,037
-311,168	-108,313	0,034	0,005
-310,153	-142,097	-0,076	0,005
-309,139	800,000	0,040	0,113
-308,124	152,833	0,096	-0,093
-307,110	-45,221	-0,074	0,026
-306,095	156,054	0,035	0,035
-305,080	748,347	0,054	0,104
-304,066	-200,000	-0,006	0,229
-303,051	152,576	-0,099	-0,097
-302,037	800,000	0,032	-0,095
-301,022	800,000	0,008	0,018
-300,008	20,881	-0,025	0,014
-298,993	486,925	-0,049	0,080
-297,978	599,759	-0,081	0,144
-296,964	5,260	0,028	-0,015
-295,949	25,922	-0,057	-0,034
-294,935	10,588	0,108	-0,058
-293,920	542,372	-0,043	-0,073
-292,905	183,187	-0,057	0,060
-291,891	-141,360	0,049	0,003
-290,876	-135,945	-0,161	-0,013
-289,862	175,502	-0,034	0,035
-288,847	29,367	-0,103	-0,062
-287,832	800,000	-0,009	-0,029
-286,818	-112,695	0,104	0,015
-285,803	-200,000	-0,001	0,139
-284,789	800,000	-0,067	0,195
-283,774	337,978	0,062	0,087
-282,759	-71,154	-0,159	-0,042
-281,745	239,342	-0,106	-0,125
-280,730	192,751	-0,092	-0,099
-279,716	4,628	0,066	-0,034
-278,701	144,939	0,012	-0,012
-277,686	142,513	-0,115	0,109
-276,672	-41,446	0,034	0,012
-275,657	173,947	-0,072	0,074
-274,643	800,000	-0,069	-0,142
-273,628	35,958	0,047	-0,029
-272,613	800,000	-0,011	0,027
-271,599	800,000	0,047	-0,112
-270,584	-200,000	-0,021	0,159
-269,570	800,000	-0,027	0,058
-268,555	7,387	0,106	0,056
-267,540	-7,678	0,079	-0,038
-266,526	218,075	-0,120	-0,137
-265,511	-200,000	-0,001	-0,027
-264,497	-200,000	0,004	0,194
-263,482	54,507	0,097	-0,066
-262,467	-40,378	0,148	-0,054
-261,453	2,875	-0,061	0,031
-260,438	-64,517	-0,085	-0,024
-259,424	530,756	0,052	0,088
-258,409	800,000	-0,017	-0,043
-257,395	-200,000	0,007	0,117
-256,380	49,285	-0,072	0,048
-255,365	-200,000	-0,000	-0,012
-254,351	-200,000	-0,002	0,100
-253,336	209,630	0,068	-0,076
-252,322	475,775	-0,023	-0,038
-251,307	211,572	-0,075	0,084
-250,292	-113,873	0,037	-0,005
-249,278	-72,393	0,042	-0,011
-248,263	-200,000	0,023	0,105
-247,249	716,621	-0,022	-0,042
-246,234	-200,000	0,021	-0,113
-245,219	800,000	-0,050	-0,100
-244,205	800,000	0,005	-0,014
-243,190	-200,000	0,001	0,062
-242,176	-64,937	0,162	0,046
-241,161	200,764	0,030	0,033
-240,146	-200,000	0,025	0,168
-239,132	800,000	0,036	-0,082
-238,117	-200,000	-0,006	-0,029
-237,103	-200,000	0,031	-0,119
-236,088	162,713	-0,045	-0,044
-235,073	-200,000	0,018	0,092
-234,059	99,560	0,112	-0,092
-233,044	-31,188	-0,129	0,052
-232,030	159,611	-0,096	-0,096
-231,015	334,729	-0,055	-0,076
-230,000	800,000	0,048	0,140
-228,986	-76,777	0,050	-0,012
-227,971	-200,000	0,018	0,094
-226,957	-200,000	0,035	0,207
-225,942	-200,000	0,029	0,093
-224,927	800,000	0,023	0,057
-223,913	512,189	0,135	-0,224
-222,898	244,007	-0,068	-0,081
-221,884	372,107	0,140	-0,202
-220,869	-200,000	-0,015	0,148
-219,855	316,019	-0,059	0,079
-218,840	800,000	-0,069	0,166
-217,825	-13,780	0,181	0,083
-216,811	258,083	-0,059	0,072
-215,796	-70,408	-0,140	-0,037
-214,782	-2,529	-0,079	-0,039
-213,767	-171,142	0,172	0,004
-212,752	800,000	-0,064	0,146
-211,738	800,000	-0,017	0,038
-210,723	-3,397	0,130	0,064
-209,709	345,688	0,033	-0,046
-208,694	-38,844	-0,105	-0,039
-207,679	-16,467	-0,068	-0,031
-206,665	-200,000	-0,016	0,097
-205,650	-42,814	-0,110	-0,040
-204,636	-75,746	0,124	0,031
-203,621	800,000	0,027	0,072
-202,606	800,000	-0,033	-0,078
-201,592	800,000	-0,047	-0,137
-200,577	-131,434	-0,113	0,011
-199,563	-200,000	0,040	-0,135
-198,548	182,245	0,047	0,049
-197,533	96,891	-0,065	0,053
-196,519	71,658	0,120	0,088
-195,504	-136,511	-0,112	0,009
-194,490	250,355	-0,058	0,070
-193,475	577,105	0,013	-0,023
-192,460	-200,000	0,020	0,122
-191,446	-200,000	-0,007	-0,027
-190,431	134,423	0,065	-0,060
-189,417	126,601	-0,084	-0,075
-188,402	-200,000	-0,013	-0,068
-187,387	-130,399	-0,086	0,008
-186,373	-177,921	0,064	-0,001
-185,358	87,972	-0,031	0,025
-184,344	800,000	0,043	0,119
-183,329	-130,688	0,086	0,008
-182,315	-200,000	0,018	-0,063
-181,300	-200,000	-0,006	0,093
-180,285	-188,028	0,106	-0,001
-179,271	506,824	-0,115	0,190
-178,256	282,478	-0,065	0,083
-177,242	-200,000	0,001	0,033
-176,227	-200,000	-0,001	0,067
-175,212	254,627	0,030	0,036
-174,198	800,000	0,022	-0,066
-173,183	-200,000	0,011	-0,149
-172,169	33,922	0,018	0,011
-171,154	-52,671	-0,051	-0,017
-170,139	509,749	-0,041	-0,068
-169,125	18,580	-0,094	0,053
-168,110	248,051	0,048	-0,057
-167,096	9,344	-0,086	0,046
-166,081	5,065	0,026	0,014
-165,066	-200,000	-0,007	0,025
-164,052	93,264	-0,103	-0,082
-163,037	-152,953	0,036	-0,002
-162,023	281,304	-0,026	0,033
-161,008	240,816	-0,092	0,109
-159,993	-43,574	0,131	0,047
-158,979	298,491	0,119	-0,156
-157,964	84,092	-0,010	0,007
-156,950	-200,000	0,003	0,023
-155,935	68,208	0,018	-0,013
-154,920	-34,228	-0,031	0,012
-153,906	88,340	0,033	-0,026
-152,891	756,823	-0,046	0,088
-151,877	559,601	0,036	0,061
-150,862	84,132	-0,031	-0,024
-149,847	-185,857	-0,008	0,000
-148,833	800,000	-0,060	0,180
-147,818	163,193	0,041	0,041
-146,804	216,370	0,086	-0,096
-145,789	-200,000	-0,008	-0,029
-144,775	-24,262	0,088	0,037
-143,760	161,546	-0,148	-0,147
-142,745	101,613	0,063	-0,052
-141,731	80,686	-0,088	-0,067
-140,716	6,716	0,128	-0,067
-139,702	800,000	0,059	0,129
-138,687	252,440	0,128	0,155
-137,672	106,884	-0,096	-0,080
-136,658	800,000	-0,055	-0,147
-135,643	-200,000	0,002	-0,071
-134,629	-15,177	0,082	0,037
-133,614	240,917	0,069	-0,081
-132,599	1,197	-0,033	-0,016
-131,585	9,863	-0,081	0,044
-130,570	164,302	-0,046	-0,046
-129,556	800,000	0,047	-0,123
-128,541	14,763	-0,063	-0,035
-127,526	-200,000	-0,009	0,046
-126,512	707,389	0,074	0,138
-125,497	-200,000	0,012	-0,066
-124,483	-80,133	-0,145	-0,034
-123,468	63,085	-0,073	0,052
-122,453	-200,000	0,041	-0,158
-121,439	-200,000	-0,012	-0,083
-120,424	-33,231	-0,100	0,039
-119,410	-127,006	-0,093	0,010
-118,395	800,000	-0,027	0,075
-117,380	-200,000	0,034	0,137
-116,366	9,436	-0,175	0,093
-115,351	-161,077	-0,131	0,005
-114,337	15,916	-0,202	-0,112
-113,322	-151,496	0,029	-0,001
-112,307	290,665	-0,030	-0,038
-111,293	118,107	0,048	0,042
-110,278	-200,000	0,007	0,120
-109,264	180,306	-0,019	0,019
-108,249	-119,497	-0,225	-0,027
-107,234	281,704	-0,083	0,105
-106,220	573,110	-0,020	0,034
-105,205	-200,000	-0,009	0,069
-104,191	800,000	-0,072	0,193
-103,176	-88,119	-0,117	-0,025
-102,162	-45,626	-0,085	0,030
-101,147	-10,496	-0,127	0,059
-100,132	94,813	0,054	-0,043
-99,118	138,275	-0,100	-0,093
-98,103	-200,000	0,039	0,145
-97,089	160,657	0,021	0,020
-96,074	32,877	0,061	-0,038
-95,059	-78,564	-0,132	0,032
-94,045	148,699	0,058	0,055
-93,030	375,649	-0,136	-0,197
-92,016	-37,510	-0,070	0,026
-91,001	89,933	-0,125	-0,099
-89,986	-68,783	0,055	0,015
-88,972	229,006	-0,075	0,087
-87,957	487,365	0,125	0,202
-86,943	418,984	-0,034	-0,052
-85,928	-35,230	-0,253	-0,097
-84,913	-145,146	-0,104	-0,007
-83,899	800,000	0,009	-0,027
-82,884	267,510	0,062	0,076
-81,870	-200,000	-0,033	0,116
-80,855	-29,834	-0,085	0,034
-79,840	8,110	-0,107	0,057
-78,826	-60,118	0,057	0,017
-77,811	-29,449	-0,073	-0,029
-76,797	223,666	0,047	0,053
-75,782	-40,481	-0,051	-0,019
-74,767	21,426	0,121	0,069
-73,753	12,157	0,079	0,043
-72,738	-144,508	0,069	0,004
-71,724	13,792	-0,079	-0,043
-70,709	323,947	-0,040	0,054
-69,694	-70,086	0,071	-0,019
-68,680	800,000	0,041	-0,090
-67,665	-27,856	0,209	0,085
-66,651	-96,864	0,075	0,014
-65,636	-86,602	-0,063	-0,014
-64,622	356,472	0,061	-0,086
-63,607	800,000	0,037	0,080
-62,592	-199,077	0,051	-0,000
-61,578	42,473	-0,054	-0,035
-60,563	104,930	0,061	0,051
-59,549	800,000	-0,070	0,157
-58,534	39,598	-1,864	-1,178
-57,519	413,573	-1,309	-1,973
-56,505	-200,000	-0,342	-4,444
-55,490	517,777	0,911	1,511
-54,476	800,000	5,031	11,128
-53,461	-200,000	20,989	334,341
-52,446	800,000	758,467	2338,292
-51,432	553,424	1661,774	2831,608
-50,417	73,469	1662,944	1227,851
-49,403	18,400	1536,028	863,994
-48,388	12,371	1459,216	791,611
-47,373	19,159	1450,054	819,201
-46,359	15,639	1439,641	796,533
-45,344	10,673	1435,051	770,310
-44,330	10,595	1433,345	768,993
-43,315	10,573	1431,328	767,775
-42,300	10,605	1429,657	767,001
-41,286	10,549	1428,743	766,213
-40,271	10,556	1427,344	765,464
-39,257	10,562	1426,032	764,757
-38,242	10,603	1425,154	764,452
-37,227	10,639	1423,826	763,877
-36,213	10,627	1422,639	763,156
-35,198	10,631	1421,412	762,486
-34,184	10,650	1420,691	762,159
-33,169	10,570	1419,257	760,984
-32,154	10,624	1418,333	760,712
-31,140	10,633	1417,020	760,018
-30,125	10,624	1415,970	759,385
-29,111	10,643	1414,576	758,696
-28,096	10,587	1413,771	757,971
-27,082	10,558	1412,571	757,162
-26,067	10,550	1411,402	756,468
-25,052	10,556	1410,381	755,915
-24,038	10,589	1409,351	755,491
-23,023	10,565	1408,380	754,826
-22,009	10,591	1407,109	754,236
-20,994	10,559	1406,059	753,496
-19,979	10,533	1405,554	753,073
-18,965	10,511	1404,571	752,414
-17,950	10,503	1403,479	751,761
-16,936	10,474	1403,005	751,343
-15,921	10,438	1401,966	750,587
-14,906	10,439	1400,915	749,999
-13,892	10,476	1399,803	749,547
-12,877	10,465	1399,029	749,054
-11,863	10,454	1398,324	748,592
-10,848	10,451	1397,365	748,036
-9,833	10,396	1396,415	747,242
-8,819	10,385	1395,658	746,760
-7,804	10,347	1394,696	746,037
-6,790	10,364	1393,840	745,628
-5,775	10,395	1392,575	745,068
-4,760	10,394	1391,572	744,494
-3,746	10,400	1390,669	744,009
-2,731	10,351	1389,987	743,387
-1,717	10,366	1389,158	742,987
-0,702	10,347	1387,450	741,957
0,313	14,430	1300,223	713,988
1,327	30,753	691,106	416,553
2,342	47,393	119,840	78,654
3,356	1,389	16,449	8,316
4,371	10,168	3,537	1,892
5,386	15,477	0,927	0,512
6,400	563,092	0,259	0,445
7,415	64,120	-0,208	-0,148
8,429	98,881	-0,359	-0,292
9,444	20,370	-0,299	-0,170
10,459	-98,016	-0,311	-0,056
11,473	-119,695	-0,426	-0,051
12,488	-7,467	-0,231	-0,110
13,502	-101,147	-0,292	0,050
14,517	96,007	-0,268	-0,216
15,531	120,449	-0,299	-0,262
16,546	89,970	-0,322	-0,253
17,561	73,081	-0,406	-0,299
18,575	-122,431	-0,180	-0,020
19,590	-20,533	-0,323	-0,139
20,604	-108,102	-0,300	-0,045
21,619	30,330	-0,479	-0,288
22,634	36,384	-0,516	-0,320
23,648	63,970	-0,384	-0,272
24,663	0,359	-0,450	-0,226
25,677	68,598	-0,367	-0,265
26,692	-42,325	-0,336	-0,120
27,707	72,681	-0,246	-0,181
28,721	-16,326	-0,503	-0,224
29,736	22,099	-0,368	-0,211
30,750	156,130	-0,394	-0,382
31,765	124,206	-0,413	-0,365
32,780	237,751	-0,298	-0,348
33,794	-6,332	-0,390	-0,186
34,809	142,399	-0,325	-0,304
35,823	-20,644	-0,411	-0,177
36,838	55,794	-0,514	-0,350
37,853	-2,979	-0,350	-0,171
38,867	44,848	-0,341	-0,221
39,882	114,480	-0,328	-0,281
40,896	-17,935	-0,321	-0,141
41,911	-15,056	-0,362	-0,162
42,926	16,092	-0,424	-0,234
43,940	35,124	-0,363	-0,223
44,955	6,493	-0,410	-0,213
45,969	-8,924	-0,399	-0,187
46,984	-40,827	-0,322	-0,116
47,999	-10,128	-0,347	-0,161
49,013	53,224	-0,309	-0,208
50,028	70,793	-0,274	-0,199
51,042	96,746	-0,281	-0,226
52,057	74,009	-0,400	-0,294
53,071	269,541	-0,251	-0,311
54,086	196,733	-0,322	-0,345
55,101	109,336	-0,249	-0,209
56,115	153,680	-0,228	-0,219
57,130	58,001	-0,317	-0,218
58,144	74,561	-0,362	-0,267
59,159	39,373	-0,432	-0,271
60,174	32,560	-0,417	-0,252
61,188	-47,781	-0,345	-0,117
62,203	480,885	-0,232	-0,371
63,217	14,461	-0,290	-0,158
64,232	-12,629	-0,314	-0,143
65,247	54,276	-0,246	-0,166
66,261	77,920	-0,399	-0,298
67,276	87,247	-0,406	-0,315
68,290	290,571	-0,279	-0,357
69,305	98,859	-0,300	-0,242
70,320	227,673	-0,270	-0,308
71,334	50,269	-0,286	-0,189
72,349	-18,993	-0,390	-0,169
73,363	-9,480	-0,332	-0,155
74,378	195,824	-0,230	-0,246
75,393	125,377	-0,308	-0,272
76,407	78,427	-0,341	-0,255
77,422	7,992	-0,288	-0,151
78,436	-85,139	-0,335	-0,073
79,451	-57,077	-0,397	-0,122
80,466	-101,055	-0,457	-0,078
81,480	-25,477	-0,314	-0,129
82,495	71,021	-0,277	-0,201
83,509	101,503	-0,225	-0,183
84,524	-10,872	-0,248	-0,114
85,539	-36,857	-0,292	-0,109
86,553	-48,060	-0,375	-0,126
87,568	148,491	-0,213	-0,202
88,582	66,360	-0,353	-0,251
89,597	8,386	-0,240	-0,126
90,611	-5,772	-0,233	-0,111
91,626	-140,192	-0,261	-0,019
92,641	14,166	-0,206	-0,112
93,655	281,424	-0,263	-0,330
94,670	92,502	-0,294	-0,232
95,684	57,841	-0,386	-0,264
96,699	-62,788	-0,322	-0,093
97,714	131,111	-0,231	-0,207
98,728	0,238	-0,349	-0,174
99,743	-15,552	-0,349	-0,155
100,757	80,118	-0,182	-0,136
101,772	-69,862	-0,300	-0,079
102,787	50,734	-0,297	-0,196
103,801	56,423	-0,215	-0,146
104,816	117,311	-0,228	-0,196
105,830	600,418	-0,160	-0,278
106,845	21,958	-0,135	-0,077
107,860	207,873	-0,227	-0,248
108,874	11,106	-0,226	-0,121
109,889	81,268	-0,164	-0,124
110,903	-17,763	-0,336	-0,147
111,918	217,209	-0,259	-0,289
112,933	94,266	-0,209	-0,166
113,947	273,242	-0,242	-0,299
114,962	-23,449	-0,277	-0,116
115,976	52,117	-0,302	-0,200
116,991	66,784	-0,364	-0,259
118,006	-123,245	-0,218	-0,024
119,020	97,450	-0,266	-0,213
120,035	14,516	-0,224	-0,122
121,049	149,211	-0,195	-0,184
122,064	70,955	-0,214	-0,154
123,079	-10,890	-0,374	-0,172
124,093	30,144	-0,347	-0,206
125,108	37,486	-0,202	-0,125
126,122	-23,714	-0,265	-0,110
127,137	-106,721	-0,176	-0,027
128,151	4,183	-0,180	-0,092
129,166	63,628	-0,270	-0,189
130,181	117,399	-0,197	-0,169
131,195	33,140	-0,246	-0,148
132,210	317,479	-0,209	-0,277
133,224	165,987	-0,173	-0,171
134,239	242,918	-0,217	-0,254
135,254	-78,989	-0,271	-0,064
136,268	9,170	-0,244	-0,128
137,283	-4,741	-0,240	-0,115
138,297	-26,879	-0,286	-0,116
139,312	182,847	-0,231	-0,238
140,327	143,241	-0,244	-0,226
141,341	-46,430	-0,186	-0,063
142,356	-102,907	-0,276	-0,045
143,370	109,589	-0,258	-0,216
144,385	136,460	-0,248	-0,226
145,400	140,091	-0,296	-0,272
146,414	65,735	-0,364	-0,256
147,429	26,639	-0,288	-0,167
148,443	-38,983	-0,192	-0,070
149,458	24,555	-0,155	-0,089
150,473	-59,639	-0,320	-0,095
151,487	-17,110	-0,220	-0,096
152,502	723,300	-0,109	-0,202
153,516	-45,630	-0,262	-0,090
154,531	800,000	-0,103	-0,297
155,546	115,630	-0,276	-0,235
156,560	149,996	-0,224	-0,212
157,575	125,329	-0,114	-0,100
158,589	6,461	-0,312	-0,161
159,604	394,862	-0,188	-0,273
160,619	163,738	-0,224	-0,220
161,633	-73,828	-0,210	-0,053
162,648	22,775	-0,227	-0,129
163,662	-52,360	-0,196	-0,063
164,677	-53,886	-0,275	-0,087
165,692	299,257	-0,160	-0,205
166,706	80,118	-0,167	-0,125
167,721	94,452	-0,265	-0,210
168,735	190,364	-0,161	-0,168
169,750	800,000	-0,084	-0,173
170,764	57,270	-0,215	-0,146
171,779	-29,698	-0,215	-0,085
172,794	-18,172	-0,181	-0,079
173,808	358,105	-0,219	-0,304
174,823	-53,747	-0,255	-0,081
175,837	199,552	-0,232	-0,248
176,852	577,754	-0,121	-0,206
177,867	140,295	-0,222	-0,204
178,881	-47,151	-0,160	-0,054
179,896	15,054	-0,124	-0,067
180,910	-14,578	-0,186	-0,083
181,925	291,041	-0,134	-0,170
182,940	800,000	-0,079	-0,207
183,954	76,175	-0,288	-0,212
184,969	0,388	-0,149	-0,074
185,983	80,010	-0,215	-0,161
186,998	-63,291	-0,207	-0,059
188,013	-122,406	-0,284	-0,032
189,027	43,746	-0,277	-0,176
190,042	116,062	-0,131	-0,111
191,056	551,840	-0,169	-0,283
192,071	92,048	-0,210	-0,164
193,086	80,350	-0,144	-0,108
194,100	-181,936	-0,112	0,001
195,115	146,516	-0,122	-0,113
196,129	73,843	-0,206	-0,149
197,144	55,750	-0,198	-0,133
198,159	-84,481	-0,213	-0,046
199,173	138,647	-0,238	-0,217
200,188	28,653	-0,204	-0,119
201,202	6,534	-0,137	-0,070
202,217	-112,337	-0,164	-0,023
203,232	38,405	-0,258	-0,159
204,246	-109,649	-0,046	0,007
205,261	88,320	-0,176	-0,136
206,275	19,045	-0,178	-0,098
207,290	375,669	-0,058	-0,082
208,304	-17,758	-0,194	-0,084
209,319	62,023	-0,232	-0,160
210,334	-173,613	-0,179	-0,004
211,348	87,049	-0,207	-0,158
212,363	613,494	-0,112	-0,195
213,377	-24,071	-0,225	-0,093
214,392	90,421	-0,152	-0,118
215,407	256,205	-0,119	-0,142
216,421	24,808	-0,093	-0,053
217,436	231,851	-0,182	-0,207
218,450	42,704	-0,234	-0,147
219,465	90,776	-0,109	-0,085
220,480	131,648	-0,196	-0,175
221,494	-200,000	-0,039	-0,170
222,509	-92,178	-0,094	-0,018
223,523	69,177	-0,194	-0,138
224,538	-97,990	-0,154	-0,027
225,553	232,432	-0,242	-0,275
226,567	-40,258	-0,242	-0,087
227,582	72,095	-0,218	-0,157
228,596	130,858	-0,241	-0,214
229,611	-143,489	-0,111	-0,007
230,626	-200,000	-0,010	-0,142
231,640	247,745	-0,128	-0,150
232,655	-5,449	-0,173	-0,082
233,669	334,361	-0,163	-0,219
234,684	106,473	-0,207	-0,170
235,699	-26,195	-0,226	-0,091
236,713	-185,204	-0,192	-0,002
237,728	62,940	-0,204	-0,141
238,742	-43,888	-0,172	-0,059
239,757	340,079	-0,143	-0,193
240,772	-90,113	-0,140	-0,028
241,786	357,634	-0,137	-0,190
242,801	-84,328	-0,283	-0,061
243,815	603,095	-0,062	-0,107
244,830	-76,598	-0,145	-0,035
245,844	800,000	-0,033	-0,072
246,859	-122,203	-0,334	-0,037
247,874	199,495	-0,153	-0,163
248,888	100,513	-0,260	-0,208
249,903	71,780	-0,149	0,107
250,917	-48,459	-0,174	-0,058
251,932	2,536	-0,107	-0,053
252,947	14,585	-0,150	-0,081
253,961	137,585	-0,189	-0,170
254,976	125,375	-0,119	-0,103
255,990	137,626	-0,162	-0,147
257,005	149,105	-0,243	-0,227
258,020	704,303	-0,086	-0,157
259,034	-26,063	-0,196	-0,079
260,049	168,905	-0,129	-0,127
261,063	800,000	-0,119	-0,268
262,078	239,839	-0,212	-0,244
263,093	-46,662	-0,250	-0,084
264,107	-119,400	-0,089	0,011
265,122	-17,394	-0,201	-0,087
266,136	-184,521	-0,191	0,002
267,151	628,811	-0,069	-0,121
268,166	-59,645	-0,193	-0,057
269,180	-51,944	-0,118	0,038
270,195	62,549	-0,332	-0,228
271,209	113,220	-0,288	-0,241
272,224	-132,172	-0,095	0,008
273,239	-61,142	-0,183	-0,053
274,253	-52,778	-0,232	-0,073
275,268	313,296	-0,146	-0,189
276,282	73,253	-0,144	-0,104
277,297	49,049	-0,112	-0,073
278,312	54,651	-0,203	-0,134
279,326	19,767	-0,131	-0,072
280,341	8,736	-0,094	-0,049
281,355	-29,317	-0,283	-0,111
282,370	-163,210	-0,156	-0,005
283,384	-164,673	-0,069	0,002
284,399	-200,000	-0,096	-0,293
285,414	30,687	-0,200	-0,118
286,428	-43,650	-0,231	-0,080
287,443	-105,160	-0,137	0,021
288,457	-37,210	-0,156	-0,057
289,472	11,913	-0,173	-0,091
290,487	-8,074	-0,167	-0,077
291,501	-42,859	-0,139	-0,048
292,516	31,668	-0,235	-0,139
293,530	17,906	-0,149	-0,081
294,545	-200,000	-0,002	-0,132
295,560	40,758	-0,190	-0,118
296,574	-124,890	-0,155	-0,016
297,589	72,567	-0,178	-0,127
298,603	316,805	-0,237	-0,308
299,618	-19,817	-0,152	-0,064
300,633	-82,437	-0,258	-0,057
301,647	-16,939	-0,181	-0,078
302,662	-57,476	-0,089	0,027
303,676	302,445	-0,206	-0,263
304,691	89,397	-0,176	-0,134
305,706	-43,837	-0,296	-0,102
306,720	115,810	-0,080	-0,067
307,735	92,208	-0,125	-0,097
308,749	350,803	-0,118	-0,160
309,764	20,975	0,023	0,013
310,779	-24,590	-0,182	-0,074
311,793	538,454	-0,054	-0,089
312,808	-99,741	-0,092	-0,016
313,822	-98,677	-0,223	0,039
314,837	-33,949	-0,142	-0,054
315,852	-200,000	-0,028	-0,098
316,866	380,993	-0,048	-0,068
317,881	-200,000	-0,004	-0,075
318,895	-200,000	0,012	-0,188
319,910	302,518	-0,118	-0,150
320,925	-70,814	-0,207	-0,053
321,939	253,448	-0,227	-0,266
322,954	204,943	-0,147	-0,156
323,968	-44,100	-0,181	-0,062
324,983	-110,623	-0,193	-0,027
325,997	-186,992	-0,300	-0,003
327,012	800,000	-0,100	-0,226
328,027	111,591	-0,184	-0,152
329,041	-5,948	-0,194	-0,091
330,056	-27,991	-0,181	-0,071
331,070	556,256	-0,089	-0,148
332,085	-33,261	-0,155	-0,059
333,100	-104,588	-0,076	-0,012
334,114	-200,000	-0,042	-0,164
335,129	153,000	-0,089	-0,084
336,143	-144,611	-0,197	0,012
337,158	49,554	-0,148	-0,095
338,173	-200,000	-0,013	0,064
339,187	800,000	-0,092	-0,186
340,202	-41,149	-0,094	-0,033
341,216	668,522	-0,079	-0,141
342,231	178,329	-0,190	-0,190
343,246	-79,011	-0,145	-0,034
344,260	443,462	-0,045	-0,067
345,275	21,269	-0,080	0,045
346,289	-199,682	-0,140	0,000
347,304	-98,306	-0,141	-0,025
348,319	165,206	-0,076	-0,074
349,333	423,385	-0,147	-0,217
350,348	193,437	-0,052	-0,054
351,362	151,472	-0,137	-0,127
352,377	800,000	-0,036	-0,101
353,392	-68,171	-0,127	-0,034
354,406	97,418	-0,136	-0,107
355,421	206,966	1309,737	1398,321
356,435	159,199	1469,827	1398,819
