DTS Sentinel unit serial number:	SN410029Multiplexer serial number:	ORYXHardware model number:	OX2-SRSoftware version number:	ORYX F/W v4,00 Oryx Data Collector v3.7.2.0data status	okinstallation	B3 Nyhavnadifferential loss correction	single-endedforward channel	channel 1reverse channel	N/Adate	2023/11/29time	16:37:30forward acquisition time	300,00reverse acquisition time	0,00gamma	499,1914k internal	0,3209k external	0,3209temperature offset calibration	1,0000default loss term (dB/km)	0,3820temperature slope calibration	1,0000multiplexer offset coefficient	1,0000multiplexer slope coefficient	1,0000fibre end	0,00T internal ref (°C)	11,44T ext. ref 1 (°C)	-3,76T ext. ref 2 (°C)	-3,90length (m)	temperature (°C)	Stokes	anti-Stokes-744,400	360,516	-0,117	-0,171
-743,385	-200,000	0,012	0,278
-742,371	-200,000	-0,060	-0,220
-741,356	486,045	0,159	0,264
-740,342	478,595	-0,095	-0,157
-739,327	-200,000	-0,001	0,124
-738,312	431,210	-0,197	-0,311
-737,298	-200,000	-0,005	0,260
-736,283	569,499	-0,170	-0,302
-735,269	-200,000	-0,060	0,275
-734,254	109,211	-0,213	-0,185
-733,239	-36,493	-0,242	0,094
-732,225	-200,000	-0,011	-0,257
-731,210	73,392	0,089	0,067
-730,196	125,405	-0,016	0,015
-729,181	13,786	-0,085	0,048
-728,167	42,776	0,041	-0,027
-727,152	-125,345	-0,123	0,013
-726,137	62,503	-0,081	-0,059
-725,123	541,376	0,061	0,105
-724,108	143,164	-0,076	-0,073
-723,094	197,908	0,047	0,052
-722,079	119,072	-0,082	-0,073
-721,064	-26,004	0,031	-0,013
-720,050	47,878	0,116	0,079
-719,035	800,000	0,014	-0,040
-718,021	300,333	-0,066	-0,089
-717,006	-62,323	-0,119	-0,036
-715,991	100,372	-0,122	-0,103
-714,977	-150,528	-0,097	0,005
-713,962	-200,000	-0,005	-0,045
-712,948	583,753	-0,039	0,070
-711,933	800,000	0,018	0,052
-710,918	-54,813	0,108	-0,035
-709,904	-200,000	-0,010	-0,042
-708,889	151,752	-0,062	-0,061
-707,875	8,229	-0,120	-0,065
-706,860	-200,000	0,006	-0,053
-705,845	-159,177	0,167	0,007
-704,831	-0,587	-0,077	0,040
-703,816	129,683	-0,064	0,059
-702,802	316,455	-0,133	0,183
-701,787	-114,299	-0,042	-0,006
-700,772	-200,000	-0,015	-0,119
-699,758	800,000	0,046	0,114
-698,743	-56,149	0,094	-0,030
-697,729	-200,000	0,004	-0,058
-696,714	-136,240	-0,035	-0,003
-695,699	174,119	-0,096	0,101
-694,685	-123,866	-0,084	0,009
-693,670	-200,000	-0,016	-0,086
-692,656	-200,000	0,004	-0,069
-691,641	-200,000	0,007	0,024
-690,627	800,000	-0,054	-0,111
-689,612	-200,000	-0,012	-0,079
-688,597	-147,463	-0,065	-0,004
-687,583	286,542	-0,050	0,065
-686,568	-200,000	-0,039	-0,223
-685,554	-129,353	0,096	-0,010
-684,539	-200,000	0,002	0,092
-683,524	-200,000	-0,006	0,057
-682,510	-75,325	0,072	-0,018
-681,495	140,791	-0,065	0,062
-680,481	15,165	0,018	-0,010
-679,466	-200,000	0,024	-0,086
-678,451	-138,436	0,094	-0,007
-677,437	-152,716	-0,083	-0,004
-676,422	194,980	0,093	0,102
-675,408	-107,413	-0,090	0,014
-674,393	800,000	-0,024	-0,074
-673,378	-91,371	0,056	0,012
-672,364	227,048	-0,057	-0,067
-671,349	-200,000	0,007	-0,158
-670,335	87,126	0,030	-0,024
-669,320	-122,866	0,088	0,010
-668,305	-200,000	-0,029	0,176
-667,291	734,855	-0,053	-0,103
-666,276	12,002	0,026	0,015
-665,262	154,571	-0,139	-0,138
-664,247	-200,000	0,024	-0,116
-663,232	557,340	0,011	0,020
-662,218	-163,885	0,105	-0,003
-661,203	321,755	0,055	0,076
-660,189	-152,932	-0,123	-0,006
-659,174	-200,000	0,011	0,059
-658,159	-200,000	0,030	-0,104
-657,145	-200,000	-0,010	-0,043
-656,130	-200,000	-0,014	0,100
-655,116	-200,000	-0,003	-0,250
-654,101	-200,000	-0,030	0,173
-653,086	-200,000	0,017	-0,085
-652,072	741,077	-0,048	-0,094
-651,057	-200,000	-0,011	-0,098
-650,043	32,967	-0,043	-0,027
-649,028	-200,000	-0,019	-0,069
-648,014	-200,000	0,012	-0,126
-646,999	-101,492	-0,067	-0,012
-645,984	210,456	0,028	-0,032
-644,970	800,000	0,064	-0,168
-643,955	-200,000	0,037	-0,180
-642,941	-124,361	-0,188	-0,021
-641,926	309,502	0,056	0,076
-640,911	225,963	-0,017	0,020
-639,897	-69,743	0,101	-0,028
-638,882	214,428	0,075	0,086
-637,868	-88,680	-0,092	-0,020
-636,853	-47,725	0,057	-0,020
-635,838	58,283	-0,025	0,018
-634,824	-200,000	-0,006	-0,023
-633,809	-200,000	0,012	0,048
-632,795	800,000	0,046	0,103
-631,780	100,832	0,060	0,050
-630,765	288,502	-0,048	0,062
-629,751	-132,798	0,089	0,008
-628,736	-200,000	-0,040	-0,148
-627,722	176,047	-0,046	-0,049
-626,707	-200,000	0,011	-0,120
-625,692	94,295	-0,085	-0,070
-624,678	60,245	0,101	-0,072
-623,663	800,000	0,039	-0,108
-622,649	-200,000	-0,091	-0,000
-621,634	420,269	-0,071	-0,110
-620,619	800,000	-0,027	-0,082
-619,605	155,750	-0,115	-0,115
-618,590	24,073	0,063	-0,038
-617,576	48,816	0,136	0,092
-616,561	800,000	0,028	-0,089
-615,546	4,199	0,043	0,023
-614,532	14,829	-0,042	0,024
-613,517	-112,765	0,142	-0,020
-612,503	-24,963	0,072	0,031
-611,488	-23,928	0,037	0,016
-610,474	28,265	0,092	0,056
-609,459	-41,375	0,100	-0,037
-608,444	-200,000	-0,031	-0,166
-607,430	-200,000	-0,041	-0,215
-606,415	800,000	-0,014	-0,040
-605,401	800,000	0,059	0,126
-604,386	309,079	0,018	0,025
-603,371	114,895	-0,083	0,073
-602,357	-18,957	0,095	0,043
-601,342	77,748	-0,084	0,065
-600,328	-48,996	-0,090	-0,031
-599,313	-200,000	-0,029	0,115
-598,298	-200,000	0,034	-0,141
-597,284	-200,000	0,030	0,116
-596,269	-200,000	-0,007	0,103
-595,255	-99,023	0,063	0,011
-594,240	-59,247	-0,160	-0,049
-593,225	128,309	-0,095	-0,087
-592,211	-160,434	-0,139	0,005
-591,196	440,658	0,089	0,140
-590,182	311,756	-0,016	0,021
-589,167	-200,000	0,034	-0,113
-588,152	-44,161	-0,082	0,030
-587,138	800,000	0,024	-0,055
-586,123	800,000	-0,080	-0,167
-585,109	-200,000	0,012	-0,094
-584,094	400,984	-0,026	0,039
-583,079	-200,000	0,004	0,217
-582,065	800,000	0,048	0,101
-581,050	-200,000	0,019	0,082
-580,036	-61,891	0,069	0,021
-579,021	800,000	0,079	-0,166
-578,006	377,853	-0,080	-0,118
-576,992	-124,861	0,132	0,014
-575,977	-200,000	-0,003	0,020
-574,963	-36,977	0,160	0,061
-573,948	330,452	-0,014	0,020
-572,934	-2,093	0,158	-0,080
-571,919	-97,107	-0,098	-0,018
-570,904	800,000	0,018	-0,045
-569,890	117,363	0,029	-0,025
-568,875	-46,680	0,091	-0,032
-567,861	-109,391	0,097	0,015
-566,846	31,444	0,079	0,049
-565,831	-200,000	-0,016	-0,057
-564,817	-200,000	0,000	0,016
-563,802	-200,000	-0,013	0,069
-562,788	-200,000	-0,024	-0,077
-561,773	-2,739	-0,028	0,014
-560,758	506,865	0,076	0,128
-559,744	-200,000	-0,029	0,105
-558,729	800,000	0,038	0,099
-557,715	-200,000	-0,025	0,087
-556,700	142,564	-0,045	-0,043
-555,685	351,067	0,014	-0,019
-554,671	-14,137	0,074	-0,034
-553,656	-200,000	-0,011	0,108
-552,642	92,943	-0,094	-0,076
-551,627	-200,000	-0,001	0,007
-550,612	98,403	-0,027	-0,022
-549,598	20,993	-0,078	-0,046
-548,583	800,000	-0,058	-0,133
-547,569	800,000	0,015	0,039
-546,554	519,317	0,119	-0,201
-545,539	-21,285	-0,069	0,030
-544,525	502,123	-0,047	-0,078
-543,510	765,844	0,031	0,061
-542,496	1,086	-0,122	-0,063
-541,481	-200,000	-0,020	-0,126
-540,466	-200,000	0,006	0,035
-539,452	343,934	-0,083	0,117
-538,437	-30,111	0,014	0,006
-537,423	-26,162	0,140	-0,059
-536,408	60,503	0,079	-0,056
-535,393	121,286	-0,108	-0,097
-534,379	185,500	-0,042	-0,045
-533,364	35,689	0,052	-0,033
-532,350	-200,000	-0,012	-0,070
-531,335	171,648	-0,030	-0,031
-530,321	209,763	0,025	-0,028
-529,306	152,898	0,017	0,017
-528,291	-140,930	-0,076	-0,006
-527,277	273,544	0,047	0,060
-526,262	40,983	-0,176	0,114
-525,248	60,309	0,062	-0,044
-524,233	-75,766	0,184	0,047
-523,218	88,779	-0,130	0,104
-522,204	357,307	-0,116	-0,167
-521,189	-200,000	-0,016	-0,082
-520,175	-200,000	0,001	-0,031
-519,160	800,000	0,046	0,095
-518,145	283,221	0,073	-0,095
-517,131	800,000	0,038	-0,098
-516,116	-21,087	-0,040	0,017
-515,102	-200,000	0,050	-0,173
-514,087	-200,000	0,006	0,080
-513,072	-94,029	0,063	0,012
-512,058	244,080	-0,031	-0,037
-511,043	303,911	0,038	0,050
-510,029	704,651	0,040	0,077
-509,014	800,000	0,056	0,139
-507,999	137,767	-0,026	0,025
-506,985	-151,839	-0,119	0,006
-505,970	562,758	-0,050	-0,087
-504,956	132,350	0,036	0,033
-503,941	616,435	0,098	-0,178
-502,926	319,997	0,020	-0,027
-501,912	-41,487	0,041	0,015
-500,897	87,611	0,111	0,088
-499,883	40,757	-0,085	0,055
-498,868	-200,000	-0,024	-0,205
-497,853	-0,477	-0,067	0,034
-496,839	409,888	-0,025	0,038
-495,824	-165,381	0,081	-0,003
-494,810	-200,000	0,015	-0,131
-493,795	589,735	0,059	-0,104
-492,781	-200,000	-0,010	0,128
-491,766	288,690	-0,083	-0,108
-490,751	548,205	0,031	-0,053
-489,737	261,959	-0,058	0,073
-488,722	132,823	0,104	-0,097
-487,708	-88,130	0,068	-0,015
-486,693	-1,808	0,027	-0,014
-485,678	151,763	-0,046	-0,045
-484,664	-18,437	0,081	0,036
-483,649	672,174	-0,041	-0,077
-482,635	146,090	0,031	-0,029
-481,620	52,077	0,107	0,073
-480,605	244,154	0,075	-0,090
-479,591	219,440	-0,067	-0,077
-478,576	-89,139	-0,083	-0,018
-477,562	735,605	-0,014	-0,027
-476,547	-200,000	0,013	0,185
-475,532	-200,000	0,003	-0,086
-474,518	-200,000	0,004	0,117
-473,503	800,000	-0,006	0,018
-472,489	-106,677	0,163	0,026
-471,474	800,000	-0,017	0,040
-470,459	-77,483	-0,097	0,024
-469,445	-200,000	-0,014	-0,073
-468,430	-108,492	0,086	0,013
-467,416	-200,000	-0,006	0,063
-466,401	-52,614	0,110	0,036
-465,386	-132,332	0,104	-0,010
-464,372	311,733	-0,030	-0,041
-463,357	-107,988	-0,033	-0,005
-462,343	246,931	0,058	-0,070
-461,328	67,451	-0,081	-0,059
-460,313	432,124	0,014	-0,022
-459,299	31,824	-0,051	-0,032
-458,284	-147,879	0,051	0,003
-457,270	800,000	0,081	0,180
-456,255	-48,566	0,118	-0,041
-455,241	-200,000	0,005	-0,135
-454,226	21,359	-0,052	-0,030
-453,211	-133,808	0,145	-0,013
-452,197	-147,807	-0,136	-0,008
-451,182	-8,702	0,025	-0,012
-450,168	-200,000	-0,022	0,086
-449,153	-200,000	-0,008	-0,060
-448,138	602,281	0,014	-0,025
-447,124	17,940	0,049	-0,028
-446,109	550,983	0,020	-0,035
-445,095	123,890	0,032	0,029
-444,080	275,379	0,070	-0,089
-443,065	49,425	-0,148	-0,099
-442,051	757,187	0,021	-0,040
-441,036	272,597	0,052	-0,066
-440,022	69,834	-0,112	-0,083
-439,007	-200,000	0,032	0,113
-437,992	269,777	-0,045	0,056
-436,978	-135,373	0,105	0,009
-435,963	-30,353	-0,147	-0,060
-434,949	800,000	-0,035	-0,103
-433,934	124,973	-0,043	-0,039
-432,919	51,909	-0,092	0,062
-431,905	-114,137	-0,079	0,011
-430,890	-200,000	-0,025	0,109
-429,876	253,416	-0,037	-0,046
-428,861	800,000	0,033	-0,089
-427,846	800,000	-0,021	0,065
-426,832	-200,000	0,006	-0,036
-425,817	-200,000	0,006	0,020
-424,803	-200,000	0,007	0,074
-423,788	800,000	0,063	0,130
-422,773	-100,336	-0,143	0,025
-421,759	162,885	-0,082	0,083
-420,744	-200,000	-0,017	0,132
-419,730	800,000	-0,072	-0,160
-418,715	-38,252	-0,063	-0,024
-417,701	448,984	0,028	-0,044
-416,686	-12,089	0,180	-0,084
-415,671	55,434	0,063	0,044
-414,657	-74,312	-0,076	0,019
-413,642	800,000	-0,041	-0,097
-412,628	220,447	0,048	-0,056
-411,613	-63,816	-0,170	-0,049
-410,598	283,367	0,071	0,092
-409,584	73,303	0,080	0,060
-408,569	326,670	0,047	-0,065
-407,555	-200,000	-0,000	0,037
-406,540	584,163	-0,026	0,046
-405,525	56,007	0,103	-0,072
-404,511	547,293	-0,076	-0,130
-403,496	-177,332	-0,168	0,003
-402,482	151,120	0,010	0,009
-401,467	729,109	0,071	0,136
-400,452	-200,000	0,047	0,152
-399,438	-200,000	0,017	0,072
-398,423	308,231	-0,070	0,094
-397,409	-200,000	-0,018	-0,062
-396,394	-200,000	-0,033	0,177
-395,379	122,493	-0,084	-0,075
-394,365	-12,913	-0,044	0,020
-393,350	2,329	-0,027	0,014
-392,336	-200,000	0,014	0,068
-391,321	702,245	-0,025	-0,047
-390,306	11,147	-0,108	0,059
-389,292	-200,000	0,005	-0,040
-388,277	-188,331	0,059	0,001
-387,263	800,000	-0,039	0,087
-386,248	64,322	0,158	0,114
-385,233	225,807	-0,028	-0,033
-384,219	-69,619	0,184	0,050
-383,204	282,564	-0,059	-0,076
-382,190	140,614	-0,072	-0,068
-381,175	-200,000	-0,017	-0,056
-380,160	731,922	0,064	0,123
-379,146	-69,832	0,119	-0,032
-378,131	-66,919	-0,028	0,008
-377,117	-185,874	0,113	0,001
-376,102	361,163	-0,080	0,115
-375,088	-97,609	-0,064	-0,012
-374,073	-41,485	-0,106	0,039
-373,058	-200,000	0,012	0,119
-372,044	-88,211	-0,082	0,017
-371,029	153,251	0,059	0,058
-370,015	-200,000	-0,001	0,111
-369,000	-200,000	-0,013	-0,051
-367,985	-200,000	-0,028	-0,112
-366,971	239,647	0,096	-0,114
-365,956	-200,000	0,035	-0,141
-364,942	-54,276	-0,085	-0,027
-363,927	396,724	0,042	0,064
-362,912	37,730	-0,099	0,063
-361,898	-101,200	-0,260	-0,045
-360,883	145,696	-0,110	-0,106
-359,869	728,169	-0,050	-0,096
-358,854	-110,093	0,080	-0,012
-357,839	223,832	0,053	0,062
-356,825	800,000	0,092	0,187
-355,810	-200,000	0,021	-0,115
-354,796	-200,000	-0,024	0,105
-353,781	39,339	-0,033	-0,021
-352,766	735,928	0,100	-0,192
-351,752	-200,000	-0,002	-0,047
-350,737	355,854	0,046	0,065
-349,723	184,252	-0,064	0,067
-348,708	366,357	-0,001	0,002
-347,693	159,488	-0,067	0,067
-346,679	-162,928	0,057	0,002
-345,664	346,705	-0,065	-0,092
-344,650	-200,000	0,007	-0,033
-343,635	546,268	0,049	0,085
-342,620	800,000	0,009	-0,019
-341,606	-109,268	0,091	0,014
-340,591	-200,000	0,008	-0,093
-339,577	-33,520	-0,162	-0,064
-338,562	150,830	-0,017	-0,017
-337,548	99,904	-0,119	0,099
-336,533	418,305	0,058	0,088
-335,518	800,000	0,027	0,057
-334,504	263,182	0,081	0,100
-333,489	-200,000	0,007	-0,067
-332,475	-200,000	0,002	-0,105
-331,460	-200,000	-0,027	-0,209
-330,445	454,520	0,055	-0,087
-329,431	-86,945	0,005	0,001
-328,416	-35,731	0,114	-0,044
-327,402	414,108	-0,086	0,131
-326,387	-46,277	-0,091	0,032
-325,372	-200,000	-0,010	-0,141
-324,358	713,474	0,025	-0,048
-323,343	270,434	-0,069	0,087
-322,329	-5,668	0,067	0,033
-321,314	-150,970	0,171	0,009
-320,299	542,857	-0,025	-0,042
-319,285	-200,000	-0,002	-0,060
-318,270	419,629	0,024	0,037
-317,256	-200,000	0,016	-0,077
-316,241	-101,081	-0,142	-0,025
-315,226	-73,369	0,067	0,017
-314,212	-200,000	0,006	0,049
-313,197	43,172	-0,062	0,040
-312,183	-48,511	0,082	0,028
-311,168	800,000	0,017	-0,051
-310,153	304,201	0,053	-0,071
-309,139	490,678	0,066	-0,108
-308,124	-13,556	0,059	-0,027
-307,110	131,115	0,105	0,096
-306,095	643,240	0,058	0,107
-305,080	56,206	-0,088	0,061
-304,066	-118,941	0,116	-0,014
-303,051	56,753	-0,044	0,030
-302,037	156,109	-0,038	-0,037
-301,022	350,774	-0,068	0,097
-300,008	-200,000	0,031	0,109
-298,993	-117,103	0,056	0,007
-297,978	-129,791	0,153	0,015
-296,964	10,239	-0,042	0,023
-295,949	-196,339	0,088	0,000
-294,935	-200,000	0,028	0,093
-293,920	154,147	0,103	0,101
-292,905	-200,000	0,018	0,103
-291,891	170,785	-0,044	0,045
-290,876	-36,732	-0,042	-0,016
-289,862	-200,000	0,017	0,183
-288,847	701,892	0,050	-0,095
-287,832	180,786	-0,062	-0,065
-286,818	-200,000	0,008	-0,048
-285,803	800,000	-0,062	-0,137
-284,789	179,216	0,093	0,097
-283,774	-21,105	-0,020	0,009
-282,759	-94,465	0,035	-0,007
-281,745	800,000	-0,038	0,101
-280,730	-200,000	-0,005	-0,029
-279,716	-3,670	-0,045	-0,022
-278,701	-186,084	-0,051	0,001
-277,686	-200,000	-0,009	0,093
-276,672	-200,000	0,025	0,200
-275,657	-200,000	-0,013	-0,103
-274,643	631,629	-0,021	0,039
-273,628	-70,910	-0,075	-0,020
-272,613	150,482	-0,178	-0,172
-271,599	252,782	0,008	-0,010
-270,584	800,000	0,056	0,171
-269,570	800,000	-0,109	0,220
-268,555	58,887	0,033	-0,023
-267,540	-200,000	0,011	-0,041
-266,526	232,636	-0,036	-0,042
-265,511	191,845	-0,117	0,126
-264,497	-200,000	-0,017	0,057
-263,482	151,322	0,098	0,095
-262,467	316,018	-0,112	0,151
-261,453	-144,793	0,043	0,003
-260,438	184,433	-0,102	0,108
-259,424	-200,000	-0,007	-0,034
-258,409	60,201	0,041	0,029
-257,395	-53,044	-0,073	0,024
-256,380	-31,142	0,178	0,071
-255,365	327,739	0,122	0,167
-254,351	800,000	-0,045	-0,130
-253,336	-200,000	0,039	0,121
-252,322	10,134	-0,168	0,090
-251,307	-200,000	0,006	0,075
-250,292	800,000	-0,065	-0,132
-249,278	81,854	0,091	-0,070
-248,263	191,392	0,077	0,082
-247,249	335,797	0,038	0,052
-246,234	184,128	0,074	-0,078
-245,219	-27,550	-0,150	-0,062
-244,205	-200,000	0,003	-0,080
-243,190	-135,412	0,123	-0,010
-242,176	-200,000	-0,023	0,077
-241,161	800,000	0,045	0,100
-240,146	-16,947	0,050	0,022
-239,132	-130,972	-0,010	0,001
-238,117	-110,217	-0,110	-0,016
-237,103	-74,585	0,065	0,017
-236,088	-22,272	-0,122	-0,052
-235,073	-200,000	0,040	0,132
-234,059	62,745	0,064	-0,045
-233,044	179,692	-0,064	0,066
-232,030	-158,763	0,105	0,004
-231,015	167,612	-0,030	0,030
-230,000	-200,000	0,004	0,036
-228,986	-55,070	-0,045	0,014
-227,971	800,000	0,013	-0,037
-226,957	800,000	-0,031	-0,087
-225,942	-14,148	-0,061	-0,028
-224,927	800,000	-0,036	-0,110
-223,913	-59,792	-0,158	0,048
-222,898	458,789	-0,028	0,045
-221,884	-153,939	0,102	0,005
-220,869	800,000	-0,007	0,022
-219,855	706,001	-0,050	0,094
-218,840	485,628	-0,031	0,051
-217,825	-200,000	-0,017	-0,082
-216,811	-103,978	-0,042	-0,007
-215,796	231,993	0,037	-0,043
-214,782	800,000	0,049	-0,145
-213,767	-200,000	0,029	0,199
-212,752	265,720	0,065	0,081
-211,738	-200,000	0,014	0,090
-210,723	-200,000	-0,011	0,097
-209,709	-85,809	0,118	-0,026
-208,694	35,218	-0,077	-0,048
-207,679	52,280	0,059	0,040
-206,665	-45,857	-0,094	-0,033
-205,650	-139,223	-0,048	0,004
-204,636	-95,754	0,105	0,020
-203,621	-200,000	0,005	0,088
-202,606	-49,709	0,047	0,016
-201,592	800,000	-0,025	-0,064
-200,577	800,000	-0,039	-0,088
-199,563	-200,000	0,002	0,011
-198,548	147,570	-0,048	0,046
-197,533	156,674	-0,125	0,122
-196,519	-200,000	0,014	-0,067
-195,504	-155,396	-0,053	-0,002
-194,490	-69,251	-0,104	-0,028
-193,475	157,046	-0,060	-0,059
-192,460	179,408	-0,043	0,045
-191,446	-200,000	-0,002	0,018
-190,431	-75,732	0,077	0,019
-189,417	402,928	0,014	0,021
-188,402	-200,000	0,014	-0,069
-187,387	689,569	-0,040	-0,075
-186,373	191,019	0,159	-0,170
-185,358	800,000	0,020	-0,062
-184,344	600,974	-0,075	0,132
-183,329	800,000	0,038	0,113
-182,315	-200,000	-0,026	0,096
-181,300	-38,120	0,022	-0,008
-180,285	-200,000	-0,022	-0,195
-179,271	-200,000	-0,003	-0,129
-178,256	-14,223	0,098	0,045
-177,242	-200,000	-0,005	0,130
-176,227	-200,000	-0,026	-0,096
-175,212	-34,033	-0,095	0,037
-174,198	99,510	-0,060	0,049
-173,183	-128,002	-0,083	0,008
-172,169	33,031	-0,045	0,028
-171,154	543,774	-0,068	0,116
-170,139	-200,000	-0,026	-0,090
-169,125	-43,978	0,137	-0,049
-168,110	80,843	-0,040	0,030
-167,096	354,803	0,016	0,023
-166,081	140,652	-0,048	0,045
-165,066	-72,679	0,075	-0,019
-164,052	-57,127	-0,168	0,052
-163,037	189,871	-0,027	-0,029
-162,023	-57,983	0,039	0,012
-161,008	86,445	0,118	0,092
-159,993	-31,242	0,067	0,027
-158,979	160,458	-0,085	-0,084
-157,964	180,184	-0,101	-0,105
-156,950	-2,423	-0,064	-0,032
-155,935	-200,000	-0,008	0,101
-154,920	-28,991	0,132	-0,053
-153,906	800,000	0,039	0,098
-152,891	91,741	-0,149	0,119
-151,877	-75,402	-0,066	0,017
-150,862	170,750	-0,077	0,078
-149,847	-37,373	-0,116	-0,044
-148,833	211,221	-0,013	-0,015
-147,818	-9,537	0,044	0,021
-146,804	131,217	0,075	-0,068
-145,789	-49,378	-0,024	0,008
-144,775	125,244	-0,044	-0,039
-143,760	760,689	-0,039	-0,076
-142,745	230,067	-0,059	-0,068
-141,731	-23,573	0,060	-0,025
-140,716	171,267	-0,044	-0,045
-139,702	88,193	-0,074	-0,058
-138,687	-200,000	0,012	0,127
-137,672	-200,000	-0,000	0,069
-136,658	618,487	-0,067	-0,119
-135,643	800,000	0,019	0,038
-134,629	227,661	0,077	0,089
-133,614	195,652	-0,021	0,023
-132,599	800,000	-0,059	0,178
-131,585	-200,000	-0,023	0,080
-130,570	123,448	-0,136	0,120
-129,556	96,383	0,088	0,072
-128,541	96,841	-0,069	-0,056
-127,526	-5,711	-0,072	0,035
-126,512	-200,000	0,005	0,033
-125,497	-81,861	-0,062	0,014
-124,483	800,000	-0,032	-0,067
-123,468	-200,000	0,017	0,058
-122,453	61,619	-0,091	-0,064
-121,439	153,363	-0,088	-0,086
-120,424	-200,000	-0,001	0,082
-119,410	-138,757	0,156	0,012
-118,395	-148,491	0,130	0,007
-117,380	-63,035	-0,094	-0,027
-116,366	-105,764	0,150	-0,024
-115,351	19,646	-0,076	-0,043
-114,337	251,928	-0,049	-0,060
-113,322	-200,000	0,046	-0,146
-112,307	-200,000	-0,030	-0,116
-111,293	605,354	-0,069	0,123
-110,278	15,543	0,045	0,025
-109,264	289,506	0,053	-0,068
-108,249	383,944	-0,033	0,048
-107,234	181,403	-0,078	-0,082
-106,220	54,799	0,093	-0,064
-105,205	-200,000	-0,014	-0,105
-104,191	800,000	-0,033	0,103
-103,176	-200,000	-0,001	-0,028
-102,162	501,756	-0,077	-0,126
-101,147	41,656	0,064	0,041
-100,132	-200,000	-0,031	-0,179
-99,118	443,503	-0,017	0,026
-98,103	-12,229	-0,095	0,044
-97,089	28,269	0,172	-0,103
-96,074	104,385	-0,064	0,053
-95,059	-9,201	-0,082	0,039
-94,045	-200,000	0,010	0,109
-93,030	35,871	-0,175	-0,109
-92,016	207,955	-0,130	0,144
-91,001	-200,000	0,030	0,153
-89,986	393,176	-0,026	-0,039
-88,972	270,979	-0,066	0,082
-87,957	-200,000	-0,009	0,100
-86,943	-200,000	0,015	0,224
-85,928	50,917	0,065	0,044
-84,913	-200,000	0,004	-0,031
-83,899	-144,943	0,091	0,006
-82,884	326,978	0,031	-0,042
-81,870	-0,485	-0,065	-0,033
-80,855	67,744	0,123	0,089
-79,840	800,000	-0,082	-0,161
-78,826	152,307	-0,077	-0,074
-77,811	777,036	0,064	0,124
-76,797	516,785	-0,014	-0,024
-75,782	267,072	-0,033	0,040
-74,767	-110,902	-0,052	0,007
-73,753	162,574	-0,116	0,115
-72,738	-69,123	-0,072	-0,019
-71,724	-119,429	-0,056	-0,007
-70,709	-101,295	-0,097	0,017
-69,694	174,164	0,113	-0,115
-68,680	-126,814	-0,027	-0,003
-67,665	48,734	0,141	0,093
-66,651	-200,000	-0,025	-0,133
-65,636	74,872	-0,063	0,047
-64,622	141,021	0,035	-0,033
-63,607	-7,391	0,176	-0,084
-62,592	246,482	-0,120	0,143
-61,578	-200,000	0,058	0,195
-60,563	800,000	0,070	0,165
-59,549	59,225	-0,111	0,077
-58,534	-4,599	-2,010	-0,977
-57,519	372,968	-1,389	-2,000
-56,505	-200,000	-0,366	-4,367
-55,490	315,815	0,932	1,245
-54,476	800,000	4,998	11,377
-53,461	-200,000	20,348	327,206
-52,446	800,000	752,322	2311,795
-51,432	550,238	1657,972	2819,303
-50,417	73,992	1663,690	1231,403
-49,403	19,267	1537,000	869,177
-48,388	13,280	1459,415	796,342
-47,373	18,798	1450,056	817,699
-46,359	16,164	1439,641	799,252
-45,344	11,554	1435,233	774,822
-44,330	11,472	1433,311	773,364
-43,315	11,448	1431,554	772,270
-42,300	11,462	1429,807	771,366
-41,286	11,501	1428,356	770,735
-40,271	11,441	1427,294	769,847
-39,257	11,454	1425,982	769,172
-38,242	11,495	1424,938	768,772
-37,227	11,490	1423,790	768,099
-36,213	11,514	1422,474	767,470
-35,198	11,500	1421,261	766,722
-34,184	11,575	1420,172	766,457
-33,169	11,486	1419,214	765,490
-32,154	11,572	1417,819	765,113
-31,140	11,532	1416,747	764,313
-30,125	11,595	1415,513	763,914
-29,111	11,595	1414,436	763,304
-28,096	11,541	1413,377	762,446
-27,082	11,479	1412,200	761,490
-26,067	11,485	1411,162	760,928
-25,052	11,472	1410,169	760,303
-24,038	11,469	1409,117	759,692
-23,023	11,487	1408,013	759,151
-22,009	11,473	1407,228	758,631
-20,994	11,454	1406,204	757,962
-19,979	11,445	1405,448	757,480
-18,965	11,428	1404,390	756,803
-17,950	11,429	1403,289	756,181
-16,936	11,415	1402,634	755,736
-15,921	11,371	1401,540	754,908
-14,906	11,349	1400,691	754,322
-13,892	11,432	1399,733	754,158
-12,877	11,397	1398,940	753,543
-11,863	11,388	1397,974	752,948
-10,848	11,316	1397,201	752,166
-9,833	11,284	1396,344	751,531
-8,819	11,278	1395,237	750,876
-7,804	11,225	1394,603	750,259
-6,790	11,303	1393,424	749,956
-5,775	11,278	1392,643	749,390
-4,760	11,306	1391,555	748,903
-3,746	11,242	1390,691	748,115
-2,731	11,237	1389,905	747,640
-1,717	11,259	1388,834	747,136
-0,702	11,284	1387,109	746,292
0,313	15,305	1301,686	718,764
1,327	31,729	694,370	420,842
2,342	49,434	120,766	80,068
3,356	5,169	16,353	8,476
4,371	4,627	3,371	1,741
5,386	-22,080	0,838	0,358
6,400	-200,000	0,123	0,419
7,415	62,687	-0,214	-0,151
8,429	58,398	-0,357	-0,247
9,444	22,637	-0,284	-0,164
10,459	-32,191	-0,342	-0,134
11,473	-7,562	-0,412	-0,196
12,488	40,787	-0,266	-0,169
13,502	41,838	-0,207	-0,132
14,517	206,584	-0,302	-0,333
15,531	185,775	-0,336	-0,352
16,546	78,803	-0,302	-0,228
17,561	246,902	-0,280	-0,333
18,575	-115,224	-0,240	0,032
19,590	213,363	-0,228	-0,255
20,604	-22,556	-0,345	-0,146
21,619	19,066	-0,379	-0,214
22,634	140,044	-0,383	-0,356
23,648	-7,740	-0,322	-0,153
24,663	166,901	-0,264	-0,264
25,677	113,657	-0,385	-0,329
26,692	38,233	-0,329	-0,206
27,707	0,593	-0,342	-0,172
28,721	66,246	-0,377	-0,269
29,736	217,770	-0,287	-0,323
30,750	81,333	-0,493	-0,374
31,765	195,377	-0,375	-0,402
32,780	39,544	-0,438	-0,276
33,794	235,255	-0,250	-0,290
34,809	113,484	-0,389	-0,332
35,823	75,660	-0,339	-0,252
36,838	63,243	-0,395	-0,279
37,853	90,742	-0,332	-0,261
38,867	33,336	-0,434	-0,265
39,882	61,652	-0,368	-0,257
40,896	-62,317	-0,439	-0,128
41,911	-2,744	-0,382	-0,187
42,926	-4,951	-0,318	-0,153
43,940	124,281	-0,316	-0,279
44,955	61,514	-0,467	-0,327
45,969	121,734	-0,351	-0,308
46,984	113,528	-0,333	-0,285
47,999	109,165	-0,250	-0,211
49,013	160,577	-0,347	-0,341
50,028	55,897	-0,244	-0,166
51,042	108,514	-0,288	-0,242
52,057	48,068	-0,403	-0,265
53,071	-26,590	-0,325	-0,133
54,086	131,996	-0,198	-0,179
55,101	10,599	-0,327	-0,175
56,115	-5,606	-0,271	-0,130
57,130	-75,180	-0,350	-0,087
58,144	109,611	-0,314	-0,264
59,159	86,074	-0,367	-0,283
60,174	-21,640	-0,453	-0,193
61,188	36,302	-0,429	-0,265
62,203	20,893	-0,394	-0,223
63,217	34,707	-0,357	-0,219
64,232	158,710	-0,285	-0,278
65,247	29,526	-0,301	-0,179
66,261	59,760	-0,443	-0,307
67,276	-3,288	-0,405	-0,197
68,290	127,369	-0,371	-0,330
69,305	137,570	-0,237	-0,218
70,320	-4,016	-0,294	-0,142
71,334	-33,698	-0,347	-0,134
72,349	-21,856	-0,342	-0,145
73,363	358,440	-0,284	-0,400
74,378	69,784	-0,388	-0,280
75,393	167,876	-0,281	-0,280
76,407	104,198	-0,365	-0,301
77,422	-20,810	-0,274	-0,117
78,436	-73,466	-0,266	-0,068
79,451	22,543	-0,237	-0,135
80,466	178,945	-0,216	-0,221
81,480	275,782	-0,247	-0,307
82,495	90,617	-0,316	-0,248
83,509	167,521	-0,323	-0,321
84,524	20,429	-0,307	-0,173
85,539	18,523	-0,313	-0,175
86,553	-67,886	-0,307	-0,084
87,568	-12,592	-0,404	-0,184
88,582	-14,073	-0,370	-0,166
89,597	172,975	-0,212	-0,214
90,611	94,669	-0,253	-0,201
91,626	125,485	-0,270	-0,239
92,641	153,236	-0,252	-0,242
93,655	-18,097	-0,318	-0,139
94,670	406,592	-0,130	-0,193
95,684	191,833	-0,328	-0,347
96,699	130,208	-0,221	-0,198
97,714	453,962	-0,251	-0,390
98,728	156,571	-0,200	-0,193
99,743	232,679	-0,161	-0,186
100,757	314,247	-0,232	-0,306
101,772	155,065	-0,205	-0,197
102,787	0,533	-0,330	-0,165
103,801	59,611	-0,363	-0,250
104,816	-19,528	-0,315	-0,136
105,830	-45,161	-0,298	-0,103
106,845	140,900	-0,293	-0,271
107,860	6,184	-0,335	-0,173
108,874	-36,551	-0,297	-0,111
109,889	-19,643	-0,335	-0,144
110,903	61,135	-0,345	-0,239
111,918	580,598	-0,155	-0,267
112,933	76,437	-0,308	-0,228
113,947	7,907	-0,142	-0,074
114,962	373,674	-0,208	-0,296
115,976	108,370	-0,223	-0,186
116,991	-40,445	-0,357	-0,129
118,006	173,324	-0,313	-0,315
119,020	80,107	-0,303	-0,228
120,035	81,880	-0,254	-0,192
121,049	275,790	-0,143	-0,177
122,064	1,541	-0,284	-0,142
123,079	68,594	-0,163	-0,117
124,093	227,561	-0,217	-0,247
125,108	10,494	-0,170	-0,090
126,122	87,723	-0,289	-0,223
127,137	800,000	-0,136	-0,273
128,151	-200,000	-0,096	-0,311
129,166	317,850	-0,159	-0,210
130,181	153,183	-0,216	-0,206
131,195	181,207	-0,227	-0,233
132,210	266,760	-0,261	-0,319
133,224	-45,721	-0,324	-0,111
134,239	251,813	-0,161	-0,191
135,254	45,487	-0,284	-0,183
136,268	105,009	-0,251	-0,207
137,283	88,112	-0,278	-0,215
138,297	95,252	-0,234	-0,186
139,312	-20,167	-0,299	-0,128
140,327	167,280	-0,255	-0,253
141,341	-56,741	-0,257	-0,079
142,356	-38,782	-0,288	-0,105
143,370	-107,863	-0,277	-0,042
144,385	800,000	-0,111	-0,292
145,400	502,248	-0,140	-0,227
146,414	-126,839	-0,382	-0,039
147,429	322,449	-0,173	-0,230
148,443	10,641	-0,284	-0,150
149,458	146,521	-0,224	-0,210
150,473	61,823	-0,316	-0,219
151,487	407,607	-0,160	-0,236
152,502	45,172	-0,289	-0,185
153,516	120,916	-0,355	-0,308
154,531	156,778	-0,285	-0,274
155,546	23,803	-0,215	-0,123
156,560	521,077	-0,164	-0,269
157,575	14,747	-0,272	-0,148
158,589	800,000	-0,115	-0,282
159,604	-26,389	-0,324	-0,132
160,619	-41,169	-0,315	-0,112
161,633	88,667	-0,255	-0,197
162,648	800,000	-0,135	-0,307
163,662	-111,729	-0,277	-0,039
164,677	24,062	-0,128	-0,074
165,692	49,635	-0,263	-0,172
166,706	38,144	-0,161	-0,099
167,721	34,350	-0,248	-0,150
168,735	53,077	-0,294	-0,195
169,750	187,903	-0,198	-0,206
170,764	-45,905	-0,213	-0,073
171,779	-19,242	-0,184	-0,079
172,794	-108,646	-0,165	0,024
173,808	103,906	-0,246	-0,201
174,823	500,639	-0,186	-0,300
175,837	241,164	-0,192	-0,223
176,852	239,568	-0,175	-0,203
177,867	22,625	-0,213	-0,121
178,881	-36,994	-0,208	-0,077
179,896	235,354	-0,139	-0,160
180,910	261,453	-0,124	-0,149
181,925	800,000	-0,084	-0,200
182,940	-54,455	-0,252	-0,079
183,954	96,326	-0,319	-0,253
184,969	108,053	-0,203	-0,168
185,983	103,344	-0,164	-0,134
186,998	92,679	-0,188	-0,147
188,013	24,014	-0,274	-0,157
189,027	338,493	-0,212	-0,288
190,042	91,045	-0,239	-0,186
191,056	116,861	-0,223	-0,190
192,071	177,558	-0,130	-0,131
193,086	225,931	-0,177	-0,200
194,100	-68,758	-0,178	0,047
195,115	369,914	-0,125	-0,176
196,129	606,445	-0,211	-0,366
197,144	193,958	-0,286	-0,300
198,159	-35,215	-0,275	-0,103
199,173	332,956	-0,117	-0,157
200,188	388,618	-0,177	-0,255
201,202	136,689	-0,232	-0,210
202,217	155,053	-0,178	-0,170
203,232	95,712	-0,199	-0,158
204,246	-53,131	-0,245	-0,077
205,261	208,884	-0,186	-0,202
206,275	-200,000	-0,051	-0,189
207,290	372,940	-0,147	-0,208
208,304	331,481	-0,199	-0,267
209,319	256,338	-0,096	-0,114
210,334	-18,262	-0,278	-0,120
211,348	166,885	-0,156	-0,153
212,363	-50,640	-0,249	-0,081
213,377	-69,363	-0,247	-0,065
214,392	119,582	-0,095	-0,082
215,407	-63,710	-0,160	0,045
216,421	117,714	-0,236	-0,201
217,436	150,435	-0,254	-0,239
218,450	-1,727	-0,244	-0,118
219,465	120,179	-0,241	-0,207
220,480	800,000	-0,068	-0,137
221,494	800,000	-0,048	-0,145
222,509	-45,008	-0,186	-0,064
223,523	70,926	-0,141	-0,101
224,538	-46,450	-0,107	0,036
225,553	-140,984	-0,104	-0,007
226,567	-26,578	-0,232	-0,093
227,582	-42,439	-0,265	-0,093
228,596	-49,460	-0,094	0,031
229,611	800,000	-0,062	-0,147
230,626	300,814	-0,106	-0,135
231,640	-0,741	-0,196	-0,096
232,655	186,258	-0,198	-0,204
233,669	-17,596	-0,215	-0,093
234,684	538,482	-0,147	-0,242
235,699	239,717	-0,086	-0,099
236,713	-111,701	-0,194	0,027
237,728	90,027	-0,091	0,071
238,742	-7,929	-0,210	-0,098
239,757	247,601	-0,118	-0,138
240,772	15,964	-0,248	-0,135
241,786	764,969	-0,057	-0,107
242,801	175,850	-0,265	-0,266
243,815	422,932	-0,155	-0,230
244,830	-112,568	-0,215	-0,029
245,844	171,663	-0,138	-0,137
246,859	152,765	-0,136	-0,128
247,874	-129,371	-0,223	0,021
248,888	261,404	-0,174	-0,208
249,903	143,554	-0,088	-0,081
250,917	800,000	-0,062	-0,121
251,932	-98,697	-0,187	-0,033
252,947	-84,589	-0,146	-0,031
253,961	29,486	-0,295	-0,173
254,976	309,034	-0,117	-0,151
255,990	71,343	-0,195	-0,139
257,005	142,102	-0,141	-0,129
258,020	-54,361	-0,099	-0,031
259,034	-147,573	-0,236	-0,014
260,049	93,364	-0,103	0,080
261,063	73,944	-0,158	-0,114
262,078	78,727	-0,274	-0,202
263,093	-92,432	-0,215	-0,041
264,107	260,959	-0,117	-0,140
265,122	-63,376	-0,154	-0,044
266,136	140,449	-0,063	-0,057
267,151	120,944	-0,164	-0,141
268,166	89,253	-0,258	-0,198
269,180	-113,175	-0,228	-0,031
270,195	800,000	-0,063	-0,186
271,209	-194,019	-0,277	-0,002
272,224	440,997	-0,135	-0,204
273,239	139,422	-0,165	-0,149
274,253	-200,000	0,008	-0,146
275,268	-69,760	-0,224	-0,058
276,282	-11,816	-0,141	-0,064
277,297	126,385	-0,139	-0,122
278,312	-57,539	-0,197	-0,059
279,326	415,469	-0,108	-0,159
280,341	138,694	-0,071	-0,064
281,355	477,711	-0,080	-0,125
282,370	525,392	-0,159	-0,258
283,384	312,692	-0,134	-0,174
284,399	-116,505	-0,188	-0,024
285,414	-46,685	-0,252	-0,085
286,428	102,547	-0,119	-0,096
287,443	800,000	-0,057	-0,124
288,457	266,006	-0,213	-0,257
289,472	-5,796	-0,078	-0,036
290,487	193,686	-0,132	-0,137
291,501	567,681	-0,152	-0,255
292,516	800,000	-0,077	-0,174
293,530	-142,416	-0,154	0,010
294,545	-71,902	-0,127	-0,032
295,560	256,669	-0,127	-0,150
296,574	286,336	-0,125	-0,156
297,589	130,651	-0,184	-0,162
298,603	234,387	-0,128	-0,146
299,618	-200,000	-0,059	-0,252
300,633	-91,760	-0,189	-0,037
301,647	800,000	-0,082	-0,180
302,662	-117,127	-0,117	-0,014
303,676	47,455	-0,181	-0,116
304,691	-10,416	-0,078	-0,035
305,706	287,114	-0,058	-0,072
306,720	189,476	-0,177	-0,183
307,735	800,000	-0,131	-0,263
308,749	431,913	-0,080	-0,120
309,764	-62,027	-0,207	-0,059
310,779	-101,197	-0,248	-0,041
311,793	155,362	-0,105	-0,100
312,808	138,858	-0,168	-0,152
313,822	157,320	-0,222	-0,211
314,837	-4,161	-0,095	-0,045
315,852	-11,311	-0,196	-0,088
316,866	-164,284	-0,164	0,005
317,881	518,031	-0,054	-0,088
318,895	38,360	-0,118	-0,072
319,910	223,650	-0,088	-0,098
320,925	84,283	-0,189	-0,142
321,939	-200,000	-0,021	-0,256
322,954	-200,000	0,001	-0,034
323,968	415,693	-0,051	-0,075
324,983	48,525	-0,194	-0,124
325,997	-99,673	-0,179	0,030
327,012	800,000	-0,041	-0,105
328,027	-200,000	-0,064	-0,224
329,041	800,000	0,051	-0,128
330,056	-50,896	-0,207	-0,066
331,070	-59,584	-0,162	-0,047
332,085	-6,021	-0,070	0,033
333,100	191,481	-0,128	-0,133
334,114	-34,474	-0,082	-0,031
335,129	-69,141	-0,145	-0,038
336,143	800,000	-0,038	-0,088
337,158	800,000	-0,069	-0,160
338,173	-117,965	-0,133	0,016
339,187	184,093	-0,094	-0,095
340,202	-109,852	-0,215	-0,031
341,216	-200,000	-0,015	-0,219
342,231	68,691	-0,127	-0,089
343,246	315,308	-0,085	-0,111
344,260	-77,741	-0,187	-0,044
345,275	148,779	-0,137	-0,127
346,289	74,475	0,078	-0,056
347,304	800,000	-0,079	-0,153
348,319	354,685	-0,159	-0,217
349,333	49,784	-0,159	-0,103
350,348	800,000	-0,067	-0,198
351,362	800,000	-0,071	-0,136
352,377	247,311	-0,074	-0,086
353,392	800,000	-0,045	-0,133
354,406	-142,332	-0,201	0,013
355,421	208,795	1307,486	1401,820
356,435	160,675	1467,327	1402,322
