DTS Sentinel unit serial number:	SN410029Multiplexer serial number:	ORYXHardware model number:	OX2-SRSoftware version number:	ORYX F/W v4,00 Oryx Data Collector v3.7.2.0data status	okinstallation	B3 Nyhavnadifferential loss correction	single-endedforward channel	channel 1reverse channel	N/Adate	2023/11/30time	12:57:30forward acquisition time	300,00reverse acquisition time	0,00gamma	499,1914k internal	0,3212k external	0,3212temperature offset calibration	1,0000default loss term (dB/km)	0,3820temperature slope calibration	1,0000multiplexer offset coefficient	1,0000multiplexer slope coefficient	1,0000fibre end	0,00T internal ref (°C)	10,09T ext. ref 1 (°C)	-3,77T ext. ref 2 (°C)	-3,84length (m)	temperature (°C)	Stokes	anti-Stokes-744,400	222,489	-0,299	-0,349
-743,385	-200,000	0,031	0,107
-742,371	93,535	-0,201	-0,165
-741,356	800,000	0,111	0,261
-740,342	23,238	-0,089	-0,053
-739,327	-200,000	0,034	0,289
-738,312	290,103	-0,178	-0,235
-737,298	359,732	0,095	0,138
-736,283	800,000	-0,118	-0,300
-735,269	-200,000	-0,044	0,269
-734,254	800,000	-0,062	-0,167
-733,239	-156,080	-0,119	-0,005
-732,225	140,281	-0,141	-0,135
-731,210	-200,000	-0,001	0,158
-730,196	-200,000	0,009	-0,124
-729,181	380,792	0,066	0,098
-728,167	-60,785	-0,109	-0,033
-727,152	800,000	0,045	-0,123
-726,137	-87,147	-0,131	-0,029
-725,123	143,217	0,027	0,026
-724,108	800,000	-0,022	-0,058
-723,094	800,000	-0,053	-0,124
-722,079	-145,301	0,129	0,008
-721,064	-51,007	-0,111	-0,038
-720,050	259,582	0,097	0,121
-719,035	800,000	-0,012	-0,036
-718,021	151,927	0,035	-0,034
-717,006	85,161	-0,106	-0,084
-715,991	-132,093	-0,277	0,026
-714,977	540,004	-0,029	0,051
-713,962	800,000	0,024	-0,073
-712,948	-119,788	-0,160	-0,020
-711,933	-11,662	0,016	0,008
-710,918	315,422	0,110	0,151
-709,904	-41,560	-0,208	0,077
-708,889	154,112	-0,032	-0,032
-707,875	800,000	-0,003	-0,009
-706,860	-55,948	0,092	-0,030
-705,845	526,991	-0,042	-0,072
-704,831	-99,773	-0,105	-0,019
-703,816	-133,869	0,095	0,008
-702,802	-200,000	0,003	0,011
-701,787	217,406	-0,062	-0,072
-700,772	-53,082	-0,154	-0,051
-699,758	-200,000	-0,004	0,037
-698,743	-200,000	0,015	0,118
-697,729	559,724	-0,081	0,143
-696,714	800,000	0,055	0,110
-695,699	-155,631	-0,090	0,004
-694,685	118,831	-0,076	-0,068
-693,670	384,364	0,027	-0,040
-692,656	-10,305	0,087	-0,042
-691,641	48,808	-0,066	0,045
-690,627	-46,932	0,096	-0,034
-689,612	670,758	-0,034	-0,064
-688,597	-49,375	0,041	-0,014
-687,583	382,935	-0,056	-0,084
-686,568	528,787	0,022	0,038
-685,554	-200,000	0,001	-0,028
-684,539	196,092	0,061	0,068
-683,524	-51,343	0,175	0,059
-682,510	-200,000	0,002	0,108
-681,495	-80,486	0,040	-0,010
-680,481	11,443	-0,056	0,031
-679,466	-200,000	-0,004	-0,180
-678,451	-126,989	-0,086	0,009
-677,437	-11,787	0,067	-0,032
-676,422	130,375	0,079	0,073
-675,408	-115,713	0,090	-0,012
-674,393	800,000	-0,026	-0,064
-673,378	784,457	-0,004	-0,007
-672,364	-123,085	-0,081	0,009
-671,349	-200,000	0,015	-0,053
-670,335	212,408	0,076	-0,087
-669,320	48,797	0,082	-0,056
-668,305	-200,000	0,002	0,020
-667,291	-200,000	-0,010	0,077
-666,276	785,825	-0,066	-0,132
-665,262	-200,000	-0,000	0,036
-664,247	-95,007	-0,146	-0,028
-663,232	235,999	-0,026	-0,031
-662,218	-42,896	-0,091	0,033
-661,203	-200,000	0,050	-0,170
-660,189	398,163	0,042	-0,064
-659,174	66,923	0,081	-0,060
-658,159	-79,888	-0,221	-0,053
-657,145	800,000	-0,059	-0,187
-656,130	800,000	-0,056	-0,135
-655,116	-200,000	-0,002	0,093
-654,101	112,611	0,046	0,040
-653,086	-200,000	-0,015	-0,126
-652,072	-200,000	0,001	0,017
-651,057	-200,000	-0,033	0,154
-650,043	-200,000	-0,024	-0,097
-649,028	800,000	-0,023	0,050
-648,014	-200,000	0,001	0,009
-646,999	-3,783	0,135	-0,067
-645,984	-173,438	-0,160	-0,003
-644,970	-115,124	-0,131	-0,018
-643,955	133,454	-0,116	-0,108
-642,941	186,251	-0,163	-0,176
-641,926	-133,244	0,045	0,004
-640,911	-200,000	-0,002	0,112
-639,897	634,055	0,082	-0,151
-638,882	158,300	0,115	-0,115
-637,868	-161,917	-0,065	-0,002
-636,853	800,000	0,027	-0,085
-635,838	-200,000	-0,003	-0,024
-634,824	800,000	-0,014	-0,035
-633,809	287,059	0,021	-0,027
-632,795	489,188	0,082	0,136
-631,780	800,000	-0,047	-0,111
-630,765	204,951	-0,073	-0,082
-629,751	621,367	0,021	-0,038
-628,736	-200,000	-0,034	-0,157
-627,722	55,329	-0,090	-0,063
-626,707	-200,000	0,008	-0,050
-625,692	800,000	-0,041	0,103
-624,678	32,989	-0,080	-0,050
-623,663	-96,759	-0,159	-0,030
-622,649	38,514	-0,100	0,064
-621,634	679,007	-0,026	-0,049
-620,619	-50,394	0,029	0,010
-619,605	203,950	-0,013	0,014
-618,590	-200,000	0,018	-0,147
-617,576	-200,000	0,008	-0,080
-616,561	-5,269	-0,178	0,088
-615,546	800,000	0,044	-0,139
-614,532	34,302	-0,033	0,020
-613,517	-69,802	-0,124	0,034
-612,503	800,000	0,057	-0,127
-611,488	541,528	-0,038	0,065
-610,474	-200,000	-0,003	0,064
-609,459	36,615	0,076	0,049
-608,444	-200,000	-0,025	-0,084
-607,430	-200,000	0,012	-0,098
-606,415	190,825	0,067	-0,073
-605,401	-90,089	-0,102	0,021
-604,386	630,767	-0,062	-0,113
-603,371	41,008	-0,051	-0,033
-602,357	74,882	0,011	-0,008
-601,342	-22,460	0,025	-0,011
-600,328	482,800	0,066	-0,108
-599,313	-134,282	-0,172	0,015
-598,298	0,158	-0,083	-0,043
-597,284	-42,438	0,073	-0,027
-596,269	176,633	-0,035	0,037
-595,255	-200,000	0,020	0,188
-594,240	60,912	-0,087	0,062
-593,225	-200,000	-0,015	-0,146
-592,211	-67,199	-0,108	-0,030
-591,196	-200,000	-0,009	-0,031
-590,182	-113,111	0,111	0,016
-589,167	-200,000	0,000	-0,065
-588,152	-200,000	0,025	-0,099
-587,138	-26,022	-0,036	0,015
-586,123	-72,861	-0,046	0,012
-585,109	800,000	-0,050	-0,126
-584,094	-200,000	-0,007	-0,063
-583,079	-165,382	-0,100	-0,003
-582,065	-99,333	0,147	0,026
-581,050	-75,635	-0,104	0,027
-580,036	-22,833	0,146	0,063
-579,021	-200,000	-0,016	-0,052
-578,006	800,000	-0,036	-0,105
-576,992	-200,000	-0,031	0,138
-575,977	-129,836	0,056	0,006
-574,963	-88,151	-0,096	-0,021
-573,948	-200,000	-0,068	0,000
-572,934	580,024	0,068	0,120
-571,919	88,187	-0,032	0,025
-570,904	800,000	-0,011	0,025
-569,890	365,179	-0,043	0,062
-568,875	-200,000	-0,004	0,022
-567,861	800,000	0,024	0,067
-566,846	715,327	0,070	0,135
-565,831	-31,582	0,118	-0,048
-564,817	-200,000	-0,006	-0,079
-563,802	48,464	-0,085	0,057
-562,788	-27,667	-0,053	-0,022
-561,773	426,273	0,024	0,038
-560,758	-133,243	-0,065	-0,006
-559,744	-73,403	-0,080	-0,021
-558,729	146,903	0,071	0,069
-557,715	-37,330	-0,146	-0,056
-556,700	-9,199	0,053	-0,025
-555,685	-118,168	-0,049	-0,006
-554,671	221,598	0,104	-0,120
-553,656	68,681	-0,077	0,057
-552,642	-200,000	-0,006	-0,059
-551,627	800,000	0,044	0,091
-550,612	800,000	-0,020	0,046
-549,598	27,768	-0,060	-0,036
-548,583	-78,621	0,077	-0,019
-547,569	800,000	0,044	-0,099
-546,554	479,407	0,033	-0,054
-545,539	800,000	-0,051	-0,138
-544,525	-200,000	0,034	-0,129
-543,510	91,201	0,050	-0,040
-542,496	800,000	-0,028	-0,057
-541,481	283,913	0,075	0,097
-540,466	-200,000	0,008	-0,140
-539,452	139,057	0,065	-0,062
-538,437	386,492	-0,079	0,118
-537,423	-200,000	-0,006	0,119
-536,408	659,241	-0,050	0,093
-535,393	260,150	-0,081	-0,100
-534,379	800,000	0,020	-0,058
-533,364	109,229	-0,040	-0,035
-532,350	800,000	-0,086	-0,180
-531,335	800,000	-0,038	-0,096
-530,321	-200,000	-0,025	0,115
-529,306	297,668	-0,049	-0,065
-528,291	295,509	-0,046	-0,061
-527,277	277,630	-0,054	-0,069
-526,262	-200,000	0,021	-0,169
-525,248	800,000	0,058	0,172
-524,233	-141,611	0,201	-0,014
-523,218	-39,963	0,059	-0,022
-522,204	-113,415	0,042	-0,006
-521,189	-200,000	-0,017	-0,101
-520,175	800,000	0,009	0,024
-519,160	-118,562	-0,083	-0,010
-518,145	280,102	-0,076	-0,097
-517,131	800,000	0,020	0,047
-516,116	612,025	-0,035	-0,062
-515,102	120,944	-0,030	-0,026
-514,087	-200,000	0,005	0,033
-513,072	281,675	-0,038	-0,048
-512,058	167,876	0,019	0,020
-511,043	189,446	0,075	-0,081
-510,029	33,278	-0,021	0,013
-509,014	-200,000	-0,025	0,151
-507,999	135,753	-0,030	-0,028
-506,985	-94,188	0,116	0,023
-505,970	-123,323	0,020	-0,002
-504,956	-160,128	-0,180	-0,007
-503,941	-128,955	0,058	0,006
-502,926	-200,000	0,002	0,064
-501,912	-200,000	0,016	0,072
-500,897	-102,876	0,223	0,038
-499,883	-200,000	-0,001	-0,033
-498,868	186,214	-0,048	-0,052
-497,853	225,530	-0,045	0,053
-496,839	-64,144	-0,071	-0,021
-495,824	37,271	0,103	-0,065
-494,810	800,000	-0,005	0,013
-493,795	-45,712	0,057	0,020
-492,781	-3,098	-0,106	0,053
-491,766	187,524	-0,045	-0,048
-490,751	-200,000	-0,007	0,062
-489,737	-200,000	-0,006	0,032
-488,722	173,806	0,035	-0,037
-487,708	294,066	0,064	0,084
-486,693	800,000	0,036	-0,097
-485,678	-200,000	0,004	-0,110
-484,664	-200,000	-0,010	-0,079
-483,649	-45,778	-0,092	-0,032
-482,635	8,673	0,038	0,020
-481,620	800,000	0,058	0,125
-480,605	246,021	-0,013	0,015
-479,591	-200,000	0,014	0,151
-478,576	-75,261	-0,083	-0,021
-477,562	27,987	-0,075	-0,046
-476,547	-200,000	0,013	-0,092
-475,532	0,274	0,077	0,039
-474,518	800,000	0,047	0,120
-473,503	-200,000	-0,008	-0,103
-472,489	-200,000	0,004	-0,074
-471,474	-200,000	-0,007	0,185
-470,459	800,000	-0,047	-0,099
-469,445	-76,704	0,074	0,019
-468,430	-27,120	0,086	-0,036
-467,416	245,785	-0,042	-0,050
-466,401	-18,901	0,093	-0,041
-465,386	-9,814	0,103	0,049
-464,372	673,582	-0,051	-0,095
-463,357	-200,000	-0,008	0,078
-462,343	376,014	-0,063	-0,092
-461,328	574,710	0,076	-0,133
-460,313	-200,000	-0,002	0,032
-459,299	407,855	0,015	0,022
-458,284	78,502	-0,106	0,081
-457,270	233,891	-0,029	0,034
-456,255	800,000	0,028	0,061
-455,241	-129,124	-0,113	0,011
-454,226	-98,068	-0,073	0,013
-453,211	349,238	0,077	0,109
-452,197	-119,858	0,084	0,010
-451,182	45,981	0,073	0,048
-450,168	119,028	-0,045	0,040
-449,153	143,293	-0,122	-0,116
-448,138	600,103	0,074	-0,133
-447,124	213,020	0,046	0,052
-446,109	111,224	0,063	0,054
-445,095	108,802	-0,029	-0,025
-444,080	-200,000	0,039	0,158
-443,065	-200,000	0,009	0,117
-442,051	800,000	0,058	-0,165
-441,036	73,324	-0,104	-0,078
-440,022	389,221	0,104	-0,154
-439,007	98,085	-0,098	-0,080
-437,992	66,797	0,042	0,031
-436,978	-200,000	-0,005	-0,115
-435,963	184,369	-0,105	-0,111
-434,949	-200,000	0,017	-0,135
-433,934	518,436	0,065	-0,109
-432,919	1,415	-0,138	-0,071
-431,905	-120,922	-0,073	-0,009
-430,890	-200,000	0,015	-0,131
-429,876	151,395	0,095	0,093
-428,861	144,425	0,106	0,102
-427,846	-200,000	-0,005	-0,110
-426,832	54,624	-0,079	0,054
-425,817	14,754	0,068	-0,038
-424,803	230,589	-0,045	0,053
-423,788	-200,000	-0,016	0,090
-422,773	-57,375	0,196	0,061
-421,759	-147,361	-0,145	0,009
-420,744	-152,984	-0,103	0,005
-419,730	272,717	-0,051	-0,064
-418,715	459,421	0,038	-0,061
-417,701	90,321	-0,097	-0,077
-416,686	225,908	0,085	0,098
-415,671	800,000	0,028	0,083
-414,657	103,606	0,035	0,029
-413,642	-168,515	-0,041	0,001
-412,628	161,040	0,021	-0,021
-411,613	143,870	-0,083	0,079
-410,598	509,659	-0,081	0,134
-409,584	35,709	-0,080	-0,050
-408,569	76,645	0,076	0,057
-407,555	-200,000	-0,021	-0,086
-406,540	32,247	-0,074	0,046
-405,525	-200,000	0,114	-0,000
-404,511	-200,000	-0,031	-0,140
-403,496	-200,000	-0,013	-0,054
-402,482	-122,672	0,049	-0,006
-401,467	-200,000	0,025	0,222
-400,452	-200,000	-0,020	0,079
-399,438	-105,548	0,076	0,012
-398,423	-69,783	-0,123	0,033
-397,409	-200,000	0,019	0,141
-396,394	-200,000	0,004	-0,046
-395,379	472,898	0,036	-0,059
-394,365	-153,681	0,077	-0,004
-393,350	-200,000	0,014	0,056
-392,336	-56,602	0,204	0,064
-391,321	26,461	0,035	-0,021
-390,306	162,102	-0,093	-0,093
-389,292	483,511	-0,028	0,046
-388,277	-2,063	-0,045	0,022
-387,263	-200,000	-0,001	0,141
-386,248	551,509	-0,064	0,110
-385,233	-62,376	0,045	0,013
-384,219	-200,000	0,011	0,068
-383,204	-200,000	0,015	-0,132
-382,190	-200,000	0,001	0,013
-381,175	37,542	-0,139	-0,088
-380,160	39,148	0,075	0,048
-379,146	96,069	0,096	0,079
-378,131	-44,378	0,113	0,040
-377,117	-200,000	0,026	0,192
-376,102	-200,000	0,051	0,248
-375,088	-85,499	0,124	-0,027
-374,073	-200,000	-0,011	-0,123
-373,058	193,394	0,085	-0,092
-372,044	130,186	-0,052	-0,047
-371,029	-129,674	-0,061	0,006
-370,015	800,000	0,049	-0,131
-369,000	-200,000	0,028	-0,100
-367,985	-42,732	-0,088	-0,032
-366,971	-200,000	-0,036	0,125
-365,956	127,056	0,078	0,071
-364,942	-200,000	-0,014	0,112
-363,927	140,447	-0,036	0,034
-362,912	-200,000	-0,009	0,049
-361,898	-25,463	0,073	0,031
-360,883	49,754	0,038	0,026
-359,869	-96,031	-0,180	-0,034
-358,854	-200,000	-0,043	0,157
-357,839	219,449	0,055	0,063
-356,825	-123,158	0,110	0,012
-355,810	104,490	-0,108	0,091
-354,796	-86,007	0,102	-0,022
-353,781	247,054	0,067	-0,081
-352,766	86,151	-0,073	0,057
-351,752	-200,000	-0,006	-0,028
-350,737	800,000	-0,010	-0,029
-349,723	126,649	-0,062	-0,056
-348,708	800,000	0,014	-0,030
-347,693	-200,000	-0,024	0,139
-346,679	-200,000	-0,024	-0,099
-345,664	83,075	0,094	-0,073
-344,650	76,364	0,027	-0,021
-343,635	-125,700	0,168	0,018
-342,620	800,000	-0,018	-0,052
-341,606	-200,000	-0,009	-0,096
-340,591	-47,476	0,150	-0,052
-339,577	800,000	-0,054	-0,118
-338,562	-61,789	0,140	-0,042
-337,548	800,000	-0,023	-0,058
-336,533	23,251	0,152	0,089
-335,518	85,785	0,170	0,133
-334,504	184,289	-0,043	0,046
-333,489	136,797	0,092	0,086
-332,475	-200,000	-0,002	-0,017
-331,460	800,000	0,022	0,059
-330,445	-8,726	-0,167	0,079
-329,431	-200,000	0,034	0,197
-328,416	6,785	0,030	0,016
-327,402	-200,000	0,007	0,095
-326,387	800,000	-0,015	0,044
-325,372	-35,708	0,021	-0,008
-324,358	-200,000	-0,007	0,109
-323,343	-16,271	0,017	0,008
-322,329	60,489	-0,062	0,044
-321,314	-81,998	0,097	-0,023
-320,299	1,541	0,134	-0,068
-319,285	800,000	0,052	0,132
-318,270	-68,406	-0,137	0,038
-317,256	-200,000	0,009	-0,044
-316,241	169,112	-0,060	-0,061
-315,226	-200,000	0,004	-0,038
-314,212	-200,000	-0,028	0,092
-313,197	37,029	-0,125	-0,078
-312,183	669,295	0,052	0,097
-311,168	335,241	-0,047	-0,065
-310,153	120,858	-0,021	0,019
-309,139	-35,378	-0,072	0,028
-308,124	-200,000	0,003	0,108
-307,110	171,125	0,105	0,107
-306,095	-200,000	0,003	0,045
-305,080	800,000	-0,033	0,095
-304,066	-200,000	-0,038	-0,125
-303,051	665,371	-0,083	-0,154
-302,037	176,460	-0,045	0,046
-301,022	-157,899	0,069	0,003
-300,008	-200,000	0,042	0,239
-298,993	63,614	-0,066	0,047
-297,978	43,024	0,015	0,010
-296,964	-5,140	0,030	0,015
-295,949	-117,487	0,105	-0,013
-294,935	-112,009	0,077	-0,011
-293,920	-200,000	-0,006	-0,024
-292,905	42,787	0,127	0,082
-291,891	438,892	-0,042	-0,066
-290,876	689,677	-0,069	0,129
-289,862	-13,662	-0,042	0,019
-288,847	-200,000	0,026	-0,107
-287,832	61,516	-0,135	0,095
-286,818	-200,000	-0,020	0,098
-285,803	800,000	0,004	-0,011
-284,789	38,613	-0,063	-0,040
-283,774	-137,303	0,038	0,003
-282,759	92,808	0,052	-0,041
-281,745	-200,000	-0,033	-0,134
-280,730	800,000	0,026	0,076
-279,716	800,000	0,038	0,113
-278,701	94,785	0,020	0,016
-277,686	-108,472	0,049	-0,007
-276,672	-200,000	-0,032	0,116
-275,657	-101,840	-0,027	-0,005
-274,643	-124,073	0,041	-0,004
-273,628	-157,704	-0,099	0,004
-272,613	-200,000	0,002	-0,074
-271,599	108,851	-0,052	-0,044
-270,584	800,000	0,023	0,063
-269,570	800,000	-0,003	-0,007
-268,555	-200,000	-0,017	0,068
-267,540	332,626	-0,039	0,054
-266,526	11,005	-0,053	0,029
-265,511	3,361	-0,069	-0,035
-264,497	800,000	0,080	0,172
-263,482	-194,341	-0,193	-0,001
-262,467	-89,031	0,185	-0,039
-261,453	-200,000	0,003	0,025
-260,438	334,885	-0,010	0,014
-259,424	18,211	-0,086	0,049
-258,409	-200,000	0,007	-0,167
-257,395	138,199	-0,036	0,033
-256,380	515,456	0,036	-0,060
-255,365	-200,000	-0,007	0,040
-254,351	120,571	0,032	0,029
-253,336	-200,000	0,001	0,099
-252,322	-135,045	-0,024	-0,002
-251,307	32,551	0,121	0,074
-250,292	-63,862	-0,147	0,042
-249,278	800,000	-0,017	0,044
-248,263	-200,000	0,052	0,000
-247,249	-148,591	-0,199	-0,011
-246,234	-200,000	0,001	0,066
-245,219	-200,000	-0,014	0,094
-244,205	-144,126	0,024	0,002
-243,190	800,000	0,024	0,049
-242,176	39,475	0,153	-0,097
-241,161	800,000	-0,010	-0,024
-240,146	-140,354	0,154	0,011
-239,132	-52,110	-0,041	-0,014
-238,117	31,198	-0,102	0,062
-237,103	-114,391	0,119	-0,016
-236,088	800,000	0,038	-0,080
-235,073	-73,906	0,068	0,017
-234,059	185,251	-0,066	-0,070
-233,044	410,141	0,074	0,111
-232,030	-166,998	-0,024	0,001
-231,015	24,775	0,101	0,059
-230,000	-110,828	-0,106	-0,015
-228,986	142,009	0,191	-0,180
-227,971	0,138	-0,121	-0,061
-226,957	-200,000	-0,029	-0,115
-225,942	70,173	0,047	-0,034
-224,927	376,601	0,008	-0,011
-223,913	233,528	0,029	0,034
-222,898	101,022	-0,117	-0,096
-221,884	279,048	-0,096	-0,122
-220,869	-68,515	-0,075	-0,020
-219,855	245,287	0,046	0,054
-218,840	-200,000	0,004	0,142
-217,825	35,700	0,027	0,017
-216,811	-37,997	-0,100	-0,037
-215,796	-200,000	0,024	-0,231
-214,782	-200,000	-0,014	-0,052
-213,767	800,000	-0,050	0,114
-212,752	679,797	0,100	0,185
-211,738	288,391	-0,075	0,096
-210,723	28,761	0,035	0,021
-209,709	-32,094	-0,091	0,036
-208,694	35,625	-0,033	-0,021
-207,679	336,756	-0,101	-0,140
-206,665	-1,971	0,073	0,036
-205,650	34,672	0,076	0,047
-204,636	254,526	0,073	0,089
-203,621	558,494	-0,035	-0,060
-202,606	-7,633	0,044	0,021
-201,592	256,400	0,061	-0,075
-200,577	-52,575	-0,040	-0,013
-199,563	-69,731	-0,061	0,016
-198,548	149,664	0,033	0,032
-197,533	24,066	0,149	0,087
-196,519	-40,235	0,024	-0,009
-195,504	800,000	-0,031	0,079
-194,490	201,431	0,040	-0,044
-193,475	741,441	-0,069	-0,132
-192,460	78,706	0,162	-0,123
-191,446	800,000	-0,018	-0,045
-190,431	520,818	-0,063	0,104
-189,417	10,258	0,034	-0,018
-188,402	403,818	-0,032	0,048
-187,387	255,529	-0,087	0,106
-186,373	138,687	0,049	-0,045
-185,358	-12,997	0,100	-0,046
-184,344	800,000	0,048	0,108
-183,329	349,972	0,015	-0,021
-182,315	800,000	-0,018	0,039
-181,300	-200,000	-0,000	-0,095
-180,285	562,336	-0,051	-0,089
-179,271	-75,515	-0,125	-0,031
-178,256	702,677	0,062	-0,116
-177,242	717,768	0,027	-0,051
-176,227	435,448	-0,089	0,138
-175,212	398,208	-0,065	0,096
-174,198	293,538	-0,065	0,085
-173,183	-200,000	0,002	0,015
-172,169	800,000	0,044	-0,106
-171,154	110,649	-0,025	0,021
-170,139	800,000	-0,024	-0,071
-169,125	257,447	0,058	0,070
-168,110	-55,452	-0,089	0,028
-167,096	800,000	0,008	0,023
-166,081	244,279	0,096	0,114
-165,066	-200,000	0,029	-0,137
-164,052	539,309	-0,022	0,037
-163,037	110,257	-0,037	-0,031
-162,023	-200,000	0,017	0,089
-161,008	-12,823	0,066	0,030
-159,993	-45,664	0,150	-0,052
-158,979	689,987	0,005	-0,009
-157,964	446,406	0,100	-0,157
-156,950	53,206	0,078	0,053
-155,935	104,474	0,089	0,074
-154,920	-36,816	0,191	0,072
-153,906	-19,009	0,065	-0,029
-152,891	-200,000	0,008	0,229
-151,877	311,122	-0,046	-0,062
-150,862	-67,844	-0,118	0,032
-149,847	-200,000	-0,021	0,076
-148,833	388,321	-0,078	0,115
-147,818	-200,000	-0,043	0,167
-146,804	428,920	0,073	-0,112
-145,789	-200,000	0,022	0,102
-144,775	-152,582	-0,118	-0,006
-143,760	-200,000	-0,009	0,059
-142,745	-179,424	-0,174	-0,003
-141,731	42,410	0,110	0,070
-140,716	-200,000	0,010	0,040
-139,702	-77,085	0,048	-0,012
-138,687	-200,000	-0,025	0,121
-137,672	-158,357	-0,032	0,001
-136,658	-10,960	-0,052	-0,024
-135,643	-200,000	-0,094	-0,000
-134,629	50,965	0,123	0,083
-133,614	-200,000	0,010	-0,104
-132,599	87,632	-0,025	0,020
-131,585	-181,995	0,016	-0,000
-130,570	-17,853	-0,077	-0,034
-129,556	-151,377	0,169	-0,009
-128,541	-99,407	-0,307	-0,054
-127,526	51,132	-0,060	-0,040
-126,512	-200,000	-0,006	-0,033
-125,497	-143,776	0,115	0,008
-124,483	-6,946	-0,136	-0,065
-123,468	-200,000	0,001	0,076
-122,453	-109,601	0,116	-0,017
-121,439	182,365	-0,010	0,010
-120,424	-200,000	0,011	-0,041
-119,410	-200,000	0,015	-0,199
-118,395	422,583	0,015	-0,023
-117,380	-42,885	0,009	-0,003
-116,366	-200,000	-0,027	0,088
-115,351	-5,798	0,067	0,033
-114,337	-11,754	-0,131	-0,061
-113,322	800,000	0,071	-0,159
-112,307	-50,837	0,228	-0,075
-111,293	-100,039	0,129	-0,023
-110,278	48,687	-0,020	0,013
-109,264	-73,843	0,080	-0,021
-108,249	-145,603	-0,087	0,005
-107,234	-200,000	-0,021	-0,137
-106,220	-200,000	-0,039	-0,126
-105,205	106,451	0,036	0,030
-104,191	800,000	0,040	0,103
-103,176	374,743	-0,007	-0,010
-102,162	-0,866	-0,080	0,040
-101,147	601,812	-0,055	-0,097
-100,132	-200,000	0,002	-0,172
-99,118	105,777	0,108	0,090
-98,103	447,562	0,026	0,041
-97,089	-114,761	0,267	0,036
-96,074	-200,000	0,010	0,059
-95,059	-200,000	-0,007	0,029
-94,045	307,578	0,103	0,136
-93,030	29,819	-0,176	0,105
-92,016	80,555	-0,040	-0,031
-91,001	800,000	0,025	0,072
-89,986	465,897	0,084	0,134
-88,972	-200,000	-0,007	0,147
-87,957	665,941	0,018	0,034
-86,943	122,296	-0,008	-0,007
-85,928	724,007	-0,035	0,066
-84,913	-20,513	-0,016	0,007
-83,899	-158,372	0,130	-0,005
-82,884	184,942	0,105	0,110
-81,870	-25,517	-0,042	0,018
-80,855	-89,625	-0,047	-0,010
-79,840	184,891	-0,085	0,089
-78,826	330,821	0,086	-0,117
-77,811	452,463	-0,080	-0,126
-76,797	-53,249	0,232	0,075
-75,782	-200,000	0,002	0,063
-74,767	400,772	-0,018	-0,026
-73,753	-200,000	-0,005	0,117
-72,738	-64,109	-0,103	0,029
-71,724	-29,390	0,081	-0,033
-70,709	-39,915	-0,090	0,033
-69,694	800,000	-0,026	-0,069
-68,680	-0,527	0,067	0,033
-67,665	-130,848	0,023	-0,002
-66,651	-42,121	-0,117	-0,042
-65,636	-147,772	0,073	0,004
-64,622	800,000	0,002	-0,005
-63,607	344,998	-0,009	0,013
-62,592	16,113	0,127	0,070
-61,578	680,464	-0,043	0,080
-60,563	197,264	0,170	0,184
-59,549	-200,000	-0,058	0,242
-58,534	16,266	-1,935	-1,074
-57,519	550,417	-1,238	-2,103
-56,505	-200,000	-0,328	-4,357
-55,490	609,086	0,905	1,601
-54,476	800,000	5,045	11,152
-53,461	-200,000	21,391	343,694
-52,446	800,000	759,848	2362,802
-51,432	560,250	1663,625	2846,255
-50,417	73,749	1662,906	1228,145
-49,403	18,010	1536,326	861,407
-48,388	11,964	1459,522	789,094
-47,373	19,596	1450,632	820,882
-46,359	15,530	1439,952	795,469
-45,344	10,196	1435,809	767,744
-44,330	10,134	1434,070	766,491
-43,315	10,117	1432,030	765,290
-42,300	10,146	1430,301	764,471
-41,286	10,156	1429,005	763,798
-40,271	10,150	1427,657	763,016
-39,257	10,114	1426,792	762,357
-38,242	10,181	1425,455	761,926
-37,227	10,192	1424,336	761,351
-36,213	10,172	1422,961	760,490
-35,198	10,165	1422,131	759,984
-34,184	10,220	1420,993	759,605
-33,169	10,127	1419,624	758,405
-32,154	10,228	1418,658	758,333
-31,140	10,182	1417,539	757,488
-30,125	10,221	1416,258	756,957
-29,111	10,180	1415,197	756,169
-28,096	10,152	1414,106	755,427
-27,082	10,121	1412,725	754,510
-26,067	10,112	1411,877	753,988
-25,052	10,107	1410,923	753,422
-24,038	10,134	1409,766	752,902
-23,023	10,135	1408,942	752,435
-22,009	10,130	1407,728	751,736
-20,994	10,096	1406,890	751,101
-19,979	10,066	1405,941	750,424
-18,965	10,098	1404,975	750,027
-17,950	10,098	1403,893	749,421
-16,936	10,063	1403,124	748,816
-15,921	10,007	1402,285	748,079
-14,906	10,023	1401,284	747,589
-13,892	10,084	1400,363	747,349
-12,877	10,059	1399,486	746,738
-11,863	10,007	1398,737	746,066
-10,848	10,026	1397,603	745,520
-9,833	9,935	1397,041	744,768
-8,819	9,956	1396,065	744,317
-7,804	9,917	1395,193	743,641
-6,790	9,937	1394,267	743,211
-5,775	9,974	1392,890	742,620
-4,760	9,967	1392,108	742,139
-3,746	9,939	1391,164	741,476
-2,731	9,950	1390,062	740,910
-1,717	9,924	1389,380	740,397
-0,702	9,937	1387,565	739,461
0,313	14,078	1300,741	712,116
1,327	30,404	691,355	415,544
2,342	46,716	120,003	78,431
3,356	0,114	16,519	8,273
4,371	9,183	3,502	1,859
5,386	25,770	1,014	0,594
6,400	648,976	0,293	0,531
7,415	264,194	-0,200	-0,245
8,429	73,964	-0,248	-0,183
9,444	66,474	-0,334	-0,239
10,459	46,626	-0,219	-0,143
11,473	-111,940	-0,475	-0,067
12,488	-6,292	-0,335	-0,161
13,502	144,742	-0,331	-0,312
14,517	218,964	-0,175	-0,197
15,531	684,432	-0,230	-0,425
16,546	112,217	-0,227	-0,193
17,561	134,709	-0,271	-0,248
18,575	-26,602	-0,259	-0,106
19,590	70,132	-0,237	-0,172
20,604	-146,731	-0,243	-0,015
21,619	233,533	-0,309	-0,358
22,634	-11,480	-0,380	-0,175
23,648	51,714	-0,454	-0,303
24,663	138,534	-0,413	-0,382
25,677	29,764	-0,389	-0,233
26,692	35,448	-0,323	-0,199
27,707	49,415	-0,321	-0,212
28,721	87,597	-0,269	-0,209
29,736	111,794	-0,351	-0,298
30,750	183,836	-0,405	-0,421
31,765	71,118	-0,388	-0,283
32,780	98,234	-0,421	-0,341
33,794	5,961	-0,342	-0,178
34,809	-50,819	-0,417	-0,137
35,823	217,453	-0,363	-0,408
36,838	395,837	-0,180	-0,265
37,853	-48,730	-0,433	-0,145
38,867	350,224	-0,250	-0,348
39,882	121,336	-0,392	-0,343
40,896	-50,156	-0,277	-0,091
41,911	123,511	-0,323	-0,284
42,926	140,144	-0,308	-0,285
43,940	49,922	-0,319	-0,211
44,955	159,336	-0,321	-0,314
45,969	113,896	-0,377	-0,322
46,984	136,249	-0,230	-0,211
47,999	-6,226	-0,320	-0,153
49,013	416,683	-0,172	-0,259
50,028	118,918	-0,250	-0,217
51,042	50,404	-0,223	-0,147
52,057	12,030	-0,289	-0,155
53,071	10,170	-0,400	-0,213
54,086	196,114	-0,224	-0,239
55,101	143,588	-0,294	-0,274
56,115	166,533	-0,268	-0,266
57,130	28,303	-0,339	-0,200
58,144	19,636	-0,298	-0,168
59,159	115,462	-0,352	-0,301
60,174	-20,896	-0,542	-0,232
61,188	313,155	-0,226	-0,298
62,203	338,495	-0,339	-0,464
63,217	80,878	-0,281	-0,213
64,232	102,115	-0,291	-0,238
65,247	36,197	-0,353	-0,217
66,261	93,026	-0,393	-0,311
67,276	12,062	-0,359	-0,193
68,290	113,889	-0,375	-0,320
69,305	225,424	-0,177	-0,201
70,320	5,583	-0,287	-0,148
71,334	7,932	-0,223	-0,117
72,349	-54,492	-0,293	-0,092
73,363	31,910	-0,395	-0,238
74,378	5,812	-0,333	-0,172
75,393	70,982	-0,369	-0,268
76,407	800,000	-0,116	-0,229
77,422	134,291	-0,332	-0,301
78,436	136,273	-0,328	-0,299
79,451	-132,610	-0,316	0,028
80,466	181,122	-0,229	-0,236
81,480	183,388	-0,264	-0,273
82,495	69,532	-0,177	-0,128
83,509	-32,728	-0,275	-0,107
84,524	51,748	-0,298	-0,198
85,539	55,474	-0,338	-0,228
86,553	226,571	-0,144	-0,164
87,568	2,405	-0,412	-0,208
88,582	219,981	-0,328	-0,368
89,597	-13,608	-0,339	-0,153
90,611	183,896	-0,196	-0,203
91,626	166,142	-0,196	-0,194
92,641	-129,240	-0,377	-0,036
93,655	-10,451	-0,276	-0,127
94,670	21,576	-0,319	-0,181
95,684	89,536	-0,279	-0,218
96,699	180,841	-0,187	-0,192
97,714	121,840	-0,178	-0,155
98,728	120,721	-0,140	-0,122
99,743	-16,385	-0,328	-0,145
100,757	605,378	-0,153	-0,267
101,772	-28,330	-0,308	-0,124
102,787	5,237	-0,306	-0,157
103,801	51,647	-0,320	-0,212
104,816	97,737	-0,291	-0,234
105,830	312,227	-0,187	-0,245
106,845	127,437	-0,165	-0,146
107,860	161,461	-0,162	-0,158
108,874	-77,708	-0,248	-0,059
109,889	56,679	-0,370	-0,251
110,903	-62,863	-0,206	-0,059
111,918	-3,639	-0,294	-0,142
112,933	73,810	-0,224	-0,164
113,947	-67,534	-0,194	-0,053
114,962	-151,834	-0,222	0,011
115,976	50,435	-0,284	-0,187
116,991	800,000	-0,131	-0,312
118,006	99,957	-0,376	-0,304
119,020	227,135	-0,174	-0,198
120,035	93,470	-0,205	-0,162
121,049	22,574	-0,212	-0,121
122,064	138,660	-0,188	-0,172
123,079	57,527	-0,238	-0,162
124,093	267,654	-0,219	-0,268
125,108	36,054	-0,355	-0,217
126,122	124,098	-0,282	-0,247
127,137	132,655	-0,245	-0,220
128,151	91,071	-0,100	-0,078
129,166	25,035	-0,332	-0,191
130,181	-33,451	-0,264	-0,101
131,195	142,521	-0,320	-0,296
132,210	156,921	-0,272	-0,262
133,224	38,872	-0,261	-0,162
134,239	297,981	-0,119	-0,153
135,254	67,414	-0,249	-0,177
136,268	111,672	-0,212	-0,179
137,283	800,000	-0,141	-0,322
138,297	119,451	-0,168	-0,145
139,312	10,689	-0,268	-0,142
140,327	-67,024	-0,243	-0,066
141,341	544,267	-0,051	-0,086
142,356	-40,739	-0,308	-0,110
143,370	173,128	-0,174	-0,174
144,385	-69,288	-0,237	0,063
145,400	165,213	-0,272	-0,268
146,414	-19,433	-0,370	-0,159
147,429	113,457	-0,138	-0,117
148,443	-61,735	-0,283	-0,082
149,458	-29,284	-0,250	-0,099
150,473	-40,435	-0,173	-0,062
151,487	6,989	-0,207	-0,107
152,502	18,914	-0,251	-0,140
153,516	382,284	-0,197	-0,283
154,531	42,897	-0,287	-0,182
155,546	87,781	-0,163	-0,126
156,560	47,293	-0,167	-0,108
157,575	69,240	-0,134	-0,096
158,589	97,952	-0,240	-0,192
159,604	179,481	-0,219	-0,224
160,619	9,603	-0,302	-0,158
161,633	257,078	-0,157	-0,188
162,648	21,294	-0,235	-0,132
163,662	-104,253	-0,113	-0,018
164,677	74,589	-0,178	-0,130
165,692	57,815	-0,240	-0,163
166,706	-38,934	-0,211	-0,077
167,721	-114,156	-0,233	-0,031
168,735	43,581	-0,285	-0,181
169,750	-6,048	-0,275	-0,130
170,764	0,569	-0,120	-0,060
171,779	-197,484	-0,402	-0,002
172,794	364,202	-0,138	-0,193
173,808	157,781	-0,197	-0,189
174,823	9,574	-0,266	-0,140
175,837	56,756	-0,132	-0,089
176,852	782,817	-0,108	-0,207
177,867	409,149	-0,232	-0,343
178,881	-82,720	-0,272	-0,061
179,896	122,317	-0,270	-0,234
180,910	120,051	-0,186	-0,160
181,925	36,405	-0,296	-0,181
182,940	70,457	-0,105	-0,075
183,954	130,003	-0,229	-0,204
184,969	26,149	-0,202	-0,117
185,983	137,312	-0,179	-0,163
186,998	800,000	-0,110	-0,225
188,013	172,968	-0,193	-0,193
189,027	-85,130	-0,173	-0,037
190,042	534,475	-0,157	-0,259
191,056	244,607	-0,120	-0,140
192,071	800,000	-0,078	-0,193
193,086	186,201	-0,194	-0,201
194,100	-23,223	-0,237	-0,098
195,115	24,899	-0,407	-0,233
196,129	220,738	-0,189	-0,211
197,144	69,881	-0,214	-0,153
198,159	650,542	-0,171	-0,304
199,173	-15,490	-0,181	-0,080
200,188	597,929	-0,152	-0,263
201,202	-145,566	-0,180	-0,011
202,217	-42,393	-0,276	-0,097
203,232	250,731	-0,211	-0,249
204,246	70,579	-0,260	-0,186
205,261	647,227	-0,135	-0,241
206,275	97,288	-0,214	-0,170
207,290	172,612	-0,165	-0,165
208,304	800,000	-0,128	-0,303
209,319	800,000	-0,047	-0,123
210,334	-90,563	-0,275	-0,055
211,348	37,573	-0,226	-0,139
212,363	-20,713	-0,230	-0,097
213,377	281,472	-0,142	-0,176
214,392	446,120	-0,096	-0,147
215,407	-166,434	-0,133	0,004
216,421	360,464	-0,124	-0,172
217,436	-93,062	-0,261	-0,050
218,450	629,898	-0,118	-0,207
219,465	669,176	-0,131	-0,235
220,480	124,230	-0,154	-0,134
221,494	-18,470	-0,033	0,014
222,509	248,208	-0,151	-0,177
223,523	-120,299	-0,067	-0,008
224,538	-180,634	-0,301	-0,004
225,553	390,570	-0,073	-0,105
226,567	122,716	-0,197	-0,170
227,582	-200,000	-0,066	-0,271
228,596	37,504	-0,167	-0,102
229,611	-200,000	-0,012	-0,115
230,626	-76,981	-0,106	0,025
231,640	-39,996	-0,071	0,025
232,655	298,228	-0,212	-0,269
233,669	364,618	-0,242	-0,338
234,684	183,655	-0,227	-0,232
235,699	-39,789	-0,090	-0,032
236,713	-35,087	-0,153	-0,057
237,728	164,958	-0,190	-0,186
238,742	88,118	-0,240	-0,184
239,757	295,141	-0,229	-0,289
240,772	281,810	-0,177	-0,220
241,786	183,377	-0,178	-0,182
242,801	-28,615	-0,172	-0,068
243,815	-157,793	-0,182	-0,007
244,830	-84,866	-0,082	0,018
245,844	43,304	-0,165	-0,104
246,859	6,746	-0,353	-0,180
247,874	800,000	-0,077	-0,200
248,888	102,643	-0,228	-0,184
249,903	45,894	-0,174	-0,111
250,917	-11,510	-0,263	-0,119
251,932	2,740	-0,137	0,068
252,947	17,962	-0,103	-0,056
253,961	146,296	-0,148	-0,137
254,976	1,525	-0,165	-0,081
255,990	-5,246	-0,198	-0,093
257,005	-161,109	-0,243	0,009
258,020	37,594	-0,177	-0,108
259,034	-170,807	-0,175	0,004
260,049	-124,663	-0,117	0,012
261,063	15,201	-0,246	-0,132
262,078	167,500	-0,261	-0,256
263,093	490,377	-0,078	-0,124
264,107	553,982	-0,086	-0,143
265,122	-13,489	-0,200	-0,089
266,136	800,000	-0,051	-0,151
267,151	2,929	-0,234	-0,117
268,166	26,722	-0,185	-0,106
269,180	71,156	-0,225	-0,161
270,195	68,314	-0,239	-0,168
271,209	-27,565	-0,242	-0,096
272,224	-119,454	-0,347	-0,041
273,239	443,831	-0,119	-0,181
274,253	-9,906	-0,134	0,061
275,268	310,931	-0,118	-0,152
276,282	344,650	-0,157	-0,213
277,297	202,446	-0,147	-0,156
278,312	89,855	-0,228	-0,175
279,326	32,745	-0,141	-0,084
280,341	54,818	-0,171	-0,113
281,355	-99,707	-0,196	-0,033
282,370	435,818	-0,134	-0,201
283,384	69,259	-0,202	-0,143
284,399	-71,993	-0,131	-0,033
285,414	146,172	-0,178	-0,164
286,428	-200,000	0,013	-0,112
287,443	110,327	-0,120	0,099
288,457	42,130	-0,073	-0,046
289,472	-30,850	-0,339	-0,131
290,487	239,519	-0,121	-0,139
291,501	-200,000	-0,076	-0,259
292,516	14,504	-0,236	-0,126
293,530	-105,391	-0,090	0,014
294,545	663,857	-0,091	-0,162
295,560	105,160	-0,067	-0,054
296,574	164,181	-0,138	-0,134
297,589	60,345	-0,176	-0,120
298,603	230,554	-0,157	-0,177
299,618	800,000	-0,070	-0,142
300,633	-62,934	-0,209	-0,059
301,647	-61,378	-0,127	-0,036
302,662	-123,673	-0,149	-0,016
303,676	-172,485	-0,134	0,003
304,691	21,606	-0,199	-0,111
305,706	-200,000	-0,056	-0,175
306,720	68,834	-0,238	-0,167
307,735	57,114	-0,166	-0,111
308,749	0,503	-0,119	-0,058
309,764	382,694	-0,104	-0,147
310,779	-30,851	-0,074	-0,029
311,793	78,416	-0,204	-0,150
312,808	-193,371	-0,187	0,001
313,822	379,952	-0,160	-0,226
314,837	464,922	-0,132	-0,203
315,852	690,424	-0,084	0,151
316,866	114,585	-0,131	-0,110
317,881	118,170	-0,137	-0,116
318,895	36,122	-0,131	-0,079
319,910	-68,602	-0,170	-0,045
320,925	-64,439	-0,199	0,055
321,939	-68,116	-0,148	-0,039
322,954	-33,851	-0,111	-0,042
323,968	-14,248	-0,129	-0,057
324,983	-200,000	-0,041	-0,140
325,997	183,674	-0,103	-0,105
327,012	214,072	-0,166	-0,180
328,027	800,000	-0,049	-0,145
329,041	800,000	-0,053	-0,143
330,056	171,835	-0,089	-0,088
331,070	-39,102	-0,125	-0,045
332,085	51,081	-0,167	-0,108
333,100	334,940	-0,153	-0,203
334,114	77,829	-0,122	-0,089
335,129	-8,952	-0,193	-0,088
336,143	-23,192	-0,093	0,038
337,158	452,551	-0,085	-0,129
338,173	144,776	-0,016	-0,015
339,187	374,270	-0,101	0,141
340,202	-102,496	-0,088	-0,014
341,216	56,567	-0,226	-0,150
342,231	176,334	-0,211	-0,210
343,246	325,989	-0,088	-0,116
344,260	800,000	-0,077	-0,194
345,275	-139,200	-0,181	0,013
346,289	-107,313	-0,079	0,012
347,304	41,359	-0,111	0,068
348,319	-77,596	-0,093	-0,022
349,333	433,385	-0,113	-0,168
350,348	800,000	-0,155	-0,349
351,362	87,869	-0,109	0,083
352,377	-200,000	0,018	-0,058
353,392	290,995	-0,068	-0,085
354,406	151,549	-0,080	-0,074
355,421	207,946	1310,191	1400,513
356,435	159,989	1470,323	1400,983
