DTS Sentinel unit serial number:	SN410029Multiplexer serial number:	ORYXHardware model number:	OX2-SRSoftware version number:	ORYX F/W v4,00 Oryx Data Collector v3.7.2.0data status	okinstallation	B3 Nyhavnadifferential loss correction	single-endedforward channel	channel 1reverse channel	N/Adate	2023/11/30time	10:32:30forward acquisition time	300,00reverse acquisition time	0,00gamma	499,1914k internal	0,3211k external	0,3211temperature offset calibration	1,0000default loss term (dB/km)	0,3820temperature slope calibration	1,0000multiplexer offset coefficient	1,0000multiplexer slope coefficient	1,0000fibre end	0,00T internal ref (°C)	9,57T ext. ref 1 (°C)	-5,47T ext. ref 2 (°C)	-5,57length (m)	temperature (°C)	Stokes	anti-Stokes-744,400	28,288	-0,257	-0,157
-743,385	-200,000	0,058	0,375
-742,371	38,751	-0,166	-0,107
-741,356	-200,000	-0,027	0,296
-740,342	119,275	-0,208	-0,187
-739,327	-200,000	0,023	0,335
-738,312	12,096	-0,263	-0,146
-737,298	800,000	-0,126	0,308
-736,283	131,624	-0,260	-0,242
-735,269	800,000	-0,123	0,330
-734,254	49,035	-0,260	-0,177
-733,239	164,716	-0,241	0,246
-732,225	-200,000	-0,062	-0,224
-731,210	582,470	0,111	0,199
-730,196	418,343	-0,049	-0,075
-729,181	570,479	0,028	-0,049
-728,167	-17,935	-0,166	-0,075
-727,152	-193,343	-0,144	-0,001
-726,137	-55,957	-0,103	0,033
-725,123	-200,000	0,000	0,053
-724,108	800,000	-0,077	0,162
-723,094	-189,607	-0,202	-0,002
-722,079	-102,574	-0,036	-0,006
-721,064	112,165	0,042	-0,037
-720,050	67,769	-0,022	-0,016
-719,035	85,111	0,066	-0,052
-718,021	450,815	-0,043	-0,069
-717,006	58,314	0,029	-0,021
-715,991	-200,000	-0,001	-0,034
-714,977	-200,000	0,006	-0,165
-713,962	-19,581	0,030	0,013
-712,948	121,493	-0,040	0,036
-711,933	-200,000	0,015	0,137
-710,918	175,550	-0,061	-0,064
-709,904	-41,476	0,054	0,020
-708,889	-200,000	0,013	-0,142
-707,875	-200,000	-0,001	-0,070
-706,860	800,000	-0,044	0,126
-705,845	-137,116	-0,036	0,003
-704,831	91,314	-0,087	0,071
-703,816	-149,781	0,229	0,013
-702,802	800,000	-0,034	-0,074
-701,787	-80,769	-0,073	0,017
-700,772	800,000	-0,004	-0,010
-699,758	-163,023	0,040	0,001
-698,743	82,665	0,104	-0,082
-697,729	-200,000	-0,001	0,070
-696,714	-200,000	0,008	0,044
-695,699	174,820	-0,097	-0,101
-694,685	-200,000	0,003	-0,127
-693,670	-53,957	0,099	-0,032
-692,656	-33,099	0,130	0,052
-691,641	22,429	-0,025	-0,015
-690,627	-200,000	0,006	0,149
-689,612	-200,000	-0,037	0,128
-688,597	-200,000	-0,039	-0,132
-687,583	-101,711	-0,239	-0,041
-686,568	800,000	-0,047	0,104
-685,554	311,908	0,033	0,045
-684,539	-14,496	0,065	-0,030
-683,524	489,818	0,064	-0,107
-682,510	322,103	-0,061	0,084
-681,495	167,022	-0,100	-0,103
-680,481	701,192	0,031	-0,059
-679,466	-200,000	-0,002	0,009
-678,451	-200,000	0,003	0,053
-677,437	-200,000	-0,006	-0,032
-676,422	62,061	0,025	0,018
-675,408	-93,158	-0,137	0,027
-674,393	800,000	0,042	0,108
-673,378	800,000	0,038	-0,084
-672,364	-80,520	-0,216	-0,052
-671,349	800,000	-0,037	-0,086
-670,335	-200,000	-0,027	-0,133
-669,320	-89,685	0,051	0,011
-668,305	-115,862	-0,121	-0,016
-667,291	800,000	0,039	0,108
-666,276	-19,314	-0,096	-0,043
-665,262	-105,416	-0,195	-0,032
-664,247	-200,000	0,032	-0,154
-663,232	-200,000	0,032	-0,129
-662,218	-51,334	0,129	-0,043
-661,203	27,158	-0,086	0,052
-660,189	-200,000	-0,009	-0,034
-659,174	-37,895	-0,125	-0,048
-658,159	258,619	-0,095	-0,118
-657,145	45,853	-0,115	0,077
-656,130	-200,000	0,032	-0,129
-655,116	319,930	0,072	0,099
-654,101	12,170	0,064	-0,036
-653,086	219,042	-0,047	-0,054
-652,072	800,000	-0,018	0,045
-651,057	800,000	0,011	0,023
-650,043	-200,000	-0,020	-0,295
-649,028	615,485	-0,061	-0,111
-648,014	15,427	0,055	-0,031
-646,999	231,898	0,112	0,133
-645,984	-200,000	-0,003	-0,059
-644,970	-127,462	-0,104	-0,011
-643,955	70,667	0,058	-0,044
-642,941	63,847	-0,119	-0,086
-641,926	564,494	0,012	0,022
-640,911	800,000	0,029	0,089
-639,897	80,390	0,149	0,116
-638,882	441,010	-0,066	0,105
-637,868	-150,062	-0,048	0,003
-636,853	295,098	-0,054	-0,072
-635,838	-200,000	0,005	-0,057
-634,824	-173,939	0,144	0,003
-633,809	-181,946	0,099	-0,001
-632,795	-157,564	-0,077	-0,003
-631,780	546,655	-0,065	0,113
-630,765	-176,238	-0,086	0,002
-629,751	41,637	-0,084	-0,055
-628,736	355,481	0,125	-0,181
-627,722	800,000	-0,035	-0,097
-626,707	365,300	-0,036	0,052
-625,692	800,000	0,049	0,100
-624,678	81,805	0,089	0,069
-623,663	-200,000	0,037	-0,163
-622,649	103,851	-0,120	-0,101
-621,634	-78,727	-0,081	-0,020
-620,619	-71,873	-0,257	-0,069
-619,605	800,000	0,030	-0,075
-618,590	228,033	0,069	0,081
-617,576	30,351	0,076	-0,047
-616,561	-200,000	-0,007	-0,098
-615,546	800,000	0,020	-0,057
-614,532	69,431	0,022	0,016
-613,517	112,216	-0,095	-0,083
-612,503	8,931	0,088	0,048
-611,488	102,042	0,085	0,072
-610,474	-200,000	0,020	0,085
-609,459	-84,272	-0,079	0,018
-608,444	800,000	0,022	-0,056
-607,430	-171,044	-0,125	0,003
-606,415	195,927	0,087	-0,095
-605,401	95,769	0,049	-0,041
-604,386	-200,000	-0,004	0,073
-603,371	-200,000	-0,008	0,091
-602,357	-134,170	0,165	-0,014
-601,342	-200,000	-0,018	0,078
-600,328	785,896	-0,015	0,030
-599,313	-19,073	-0,062	0,028
-598,298	-200,000	0,016	-0,062
-597,284	-200,000	-0,007	0,123
-596,269	9,433	-0,109	-0,059
-595,255	107,585	-0,063	0,054
-594,240	-118,916	-0,160	-0,020
-593,225	-27,014	-0,024	-0,010
-592,211	-200,000	0,000	0,174
-591,196	800,000	0,021	0,043
-590,182	800,000	-0,060	-0,143
-589,167	-200,000	0,022	0,111
-588,152	24,498	0,168	0,100
-587,138	-108,523	0,035	-0,005
-586,123	742,764	-0,030	0,058
-585,109	-200,000	0,018	-0,070
-584,094	-200,000	0,004	0,193
-583,079	22,273	0,221	0,130
-582,065	25,528	-0,049	0,030
-581,050	273,025	0,077	0,098
-580,036	426,196	-0,088	-0,136
-579,021	800,000	-0,016	0,046
-578,006	-200,000	0,012	0,087
-576,992	47,710	0,055	-0,037
-575,977	777,261	-0,042	0,083
-574,963	435,441	0,037	0,058
-573,948	-66,476	0,259	-0,074
-572,934	-61,104	-0,103	-0,031
-571,919	7,118	-0,069	0,037
-570,904	589,739	-0,058	-0,103
-569,890	398,040	-0,029	-0,043
-568,875	800,000	0,037	-0,100
-567,861	-109,877	0,080	0,012
-566,846	800,000	0,019	0,046
-565,831	51,100	0,095	-0,065
-564,817	186,071	-0,052	-0,056
-563,802	11,563	0,121	0,067
-562,788	254,946	0,081	-0,100
-561,773	200,747	-0,072	-0,080
-560,758	210,458	-0,037	0,042
-559,744	-200,000	0,037	0,148
-558,729	-33,589	-0,113	-0,045
-557,715	149,982	-0,019	0,018
-556,700	-200,000	0,007	-0,098
-555,685	800,000	0,002	0,004
-554,671	800,000	0,021	-0,053
-553,656	800,000	0,028	-0,062
-552,642	-200,000	-0,006	-0,172
-551,627	145,373	-0,087	0,084
-550,612	800,000	-0,016	0,036
-549,598	-133,404	-0,090	0,008
-548,583	-126,142	-0,142	0,015
-547,569	600,105	0,037	-0,067
-546,554	11,031	-0,066	-0,036
-545,539	800,000	0,047	0,097
-544,525	-200,000	0,056	0,177
-543,510	-200,000	-0,008	-0,042
-542,496	-200,000	0,046	-0,155
-541,481	800,000	0,047	-0,095
-540,466	190,163	-0,110	-0,119
-539,452	-119,586	0,087	-0,011
-538,437	141,462	0,033	0,032
-537,423	69,370	0,070	0,052
-536,408	800,000	-0,021	-0,063
-535,393	427,052	-0,065	-0,101
-534,379	800,000	-0,009	0,025
-533,364	-72,675	0,062	-0,016
-532,350	18,342	0,022	-0,012
-531,335	142,623	0,086	0,082
-530,321	-46,966	-0,142	-0,050
-529,306	1,196	-0,081	0,041
-528,291	49,296	-0,036	-0,025
-527,277	-36,678	0,051	0,020
-526,262	-14,747	0,098	0,045
-525,248	-200,000	0,014	-0,106
-524,233	-200,000	-0,008	-0,061
-523,218	-33,346	-0,091	-0,036
-522,204	264,675	0,018	0,023
-521,189	255,726	-0,072	-0,089
-520,175	-56,557	0,028	0,009
-519,160	-134,671	-0,166	0,014
-518,145	-38,234	0,025	-0,010
-517,131	-127,116	0,086	0,009
-516,116	156,294	-0,040	0,039
-515,102	-200,000	0,003	-0,182
-514,087	-30,604	-0,091	0,037
-513,072	576,164	-0,050	-0,088
-512,058	-172,970	-0,133	0,003
-511,043	-36,774	0,062	-0,024
-510,029	66,063	-0,060	0,044
-509,014	32,993	0,133	0,083
-507,999	-200,000	0,002	0,075
-506,985	116,547	-0,046	0,041
-505,970	800,000	-0,040	-0,119
-504,956	-200,000	0,018	-0,092
-503,941	-68,816	0,052	0,014
-502,926	12,808	0,093	0,052
-501,912	-200,000	-0,013	0,155
-500,897	23,513	0,024	-0,014
-499,883	-200,000	-0,016	-0,153
-498,868	-200,000	-0,018	-0,135
-497,853	-91,559	-0,130	-0,026
-496,839	309,085	0,032	0,043
-495,824	-160,245	0,066	-0,003
-494,810	-200,000	0,031	0,124
-493,795	212,199	0,125	0,142
-492,781	438,105	-0,035	0,055
-491,766	37,371	-0,073	-0,046
-490,751	235,930	-0,121	-0,144
-489,737	800,000	0,041	0,116
-488,722	-57,691	0,103	0,032
-487,708	-86,699	0,130	0,028
-486,693	206,842	0,006	-0,007
-485,678	-119,362	-0,070	0,009
-484,664	555,993	0,025	0,044
-483,649	198,277	-0,035	0,039
-482,635	429,192	-0,037	-0,058
-481,620	-155,192	-0,065	0,003
-480,605	575,117	-0,040	0,071
-479,591	800,000	0,026	0,072
-478,576	24,605	-0,059	0,035
-477,562	800,000	0,026	-0,066
-476,547	-14,010	-0,104	-0,048
-475,532	800,000	-0,013	-0,033
-474,518	-200,000	-0,012	-0,095
-473,503	567,423	-0,010	-0,017
-472,489	-200,000	0,006	-0,126
-471,474	231,293	0,042	-0,050
-470,459	393,881	0,008	-0,012
-469,445	-200,000	-0,010	-0,117
-468,430	603,792	-0,052	-0,093
-467,416	-41,565	0,070	0,026
-466,401	506,481	0,008	-0,013
-465,386	112,381	0,012	0,010
-464,372	492,966	-0,070	0,116
-463,357	59,308	-0,101	-0,071
-462,343	47,455	-0,108	-0,072
-461,328	139,308	-0,091	-0,086
-460,313	10,766	0,147	0,080
-459,299	-200,000	0,036	0,134
-458,284	800,000	0,039	0,109
-457,270	469,077	-0,070	0,113
-456,255	-200,000	-0,017	-0,069
-455,241	-200,000	-0,061	-0,225
-454,226	-34,836	-0,035	0,014
-453,211	7,856	0,035	0,019
-452,197	-200,000	0,014	-0,057
-451,182	51,409	-0,123	0,084
-450,168	-200,000	-0,019	-0,162
-449,153	-125,249	-0,096	0,010
-448,138	201,538	-0,099	-0,109
-447,124	122,712	-0,092	-0,083
-446,109	285,935	0,096	0,125
-445,095	7,714	0,053	0,028
-444,080	800,000	-0,025	0,057
-443,065	79,673	0,020	-0,015
-442,051	-38,863	0,031	0,012
-441,036	800,000	-0,027	0,078
-440,022	-127,649	-0,123	0,013
-439,007	-200,000	-0,019	0,074
-437,992	244,751	0,068	-0,083
-436,978	-200,000	0,018	0,169
-435,963	800,000	-0,052	0,161
-434,949	-129,927	0,113	-0,011
-433,934	239,318	0,144	-0,171
-432,919	12,169	-0,132	-0,073
-431,905	187,672	0,061	0,065
-430,890	606,825	0,009	0,016
-429,876	-94,976	0,133	0,025
-428,861	-200,000	0,024	0,084
-427,846	-200,000	-0,006	0,081
-426,832	-20,817	0,011	-0,005
-425,817	-200,000	-0,011	-0,037
-424,803	-200,000	-0,043	-0,136
-423,788	153,602	0,070	-0,069
-422,773	188,901	0,013	-0,014
-421,759	109,212	-0,103	0,088
-420,744	800,000	0,019	0,047
-419,730	-41,301	-0,049	-0,018
-418,715	88,741	-0,128	-0,102
-417,701	-200,000	0,017	-0,167
-416,686	786,752	0,060	-0,118
-415,671	-200,000	0,019	0,144
-414,657	-45,111	0,042	-0,015
-413,642	-76,308	0,070	-0,017
-412,628	-98,789	-0,076	0,014
-411,613	14,133	-0,084	-0,046
-410,598	-103,441	0,113	-0,019
-409,584	-200,000	0,006	-0,169
-408,569	148,093	0,031	0,030
-407,555	-200,000	-0,002	0,108
-406,540	-200,000	0,001	-0,055
-405,525	-62,677	-0,124	-0,036
-404,511	125,667	-0,143	-0,129
-403,496	-109,714	-0,126	-0,019
-402,482	119,678	-0,142	0,126
-401,467	365,683	0,041	0,059
-400,452	-200,000	0,005	0,102
-399,438	-200,000	-0,036	0,144
-398,423	-143,092	-0,058	-0,004
-397,409	-200,000	0,003	-0,044
-396,394	134,153	-0,066	0,062
-395,379	-61,206	0,047	0,014
-394,365	-200,000	-0,016	0,090
-393,350	-34,109	0,166	-0,065
-392,336	-21,689	0,162	-0,070
-391,321	800,000	-0,039	-0,108
-390,306	22,653	0,114	-0,066
-389,292	-40,146	0,049	-0,018
-388,277	-30,403	-0,044	-0,018
-387,263	170,472	-0,122	0,125
-386,248	-146,175	0,176	0,011
-385,233	484,907	0,015	-0,024
-384,219	103,722	-0,107	-0,090
-383,204	403,387	0,051	-0,077
-382,190	383,002	-0,079	-0,116
-381,175	482,046	-0,026	0,042
-380,160	283,325	0,047	-0,060
-379,146	-200,000	0,011	-0,041
-378,131	619,758	-0,081	0,146
-377,117	-200,000	0,002	0,145
-376,102	111,553	-0,053	-0,045
-375,088	-153,279	-0,028	0,001
-374,073	-200,000	-0,007	-0,204
-373,058	-200,000	-0,022	0,084
-372,044	694,823	0,099	0,186
-371,029	44,184	-0,100	0,066
-370,015	-54,886	0,105	-0,034
-369,000	330,440	0,098	-0,135
-367,985	-135,771	-0,044	-0,004
-366,971	117,896	-0,103	-0,091
-365,956	41,028	-0,017	0,011
-364,942	-69,508	0,243	0,066
-363,927	800,000	0,038	0,104
-362,912	120,398	0,102	-0,091
-361,898	-54,215	-0,057	-0,018
-360,883	800,000	-0,005	0,012
-359,869	130,215	0,055	0,051
-358,854	116,163	-0,021	0,018
-357,839	-200,000	0,017	0,058
-356,825	800,000	0,053	-0,148
-355,810	-200,000	0,003	0,082
-354,796	-39,962	0,061	0,023
-353,781	-200,000	-0,010	-0,102
-352,766	-200,000	0,003	-0,023
-351,752	-33,794	0,065	0,025
-350,737	-157,077	0,054	-0,002
-349,723	-61,419	0,138	-0,041
-348,708	-200,000	-0,016	-0,052
-347,693	0,402	0,190	0,097
-346,679	336,329	-0,101	-0,140
-345,664	800,000	-0,049	-0,100
-344,650	57,317	-0,127	-0,088
-343,635	-88,952	0,168	0,035
-342,620	154,028	0,118	0,116
-341,606	800,000	0,015	0,035
-340,591	64,503	-0,053	0,038
-339,577	56,446	-0,106	-0,073
-338,562	-17,188	-0,111	-0,050
-337,548	-200,000	-0,007	-0,127
-336,533	-21,902	0,026	0,011
-335,518	-97,175	-0,049	-0,009
-334,504	-156,587	0,144	-0,006
-333,489	-200,000	-0,025	-0,094
-332,475	305,517	0,024	0,032
-331,460	-200,000	0,013	0,050
-330,445	137,435	0,010	0,010
-329,431	217,620	-0,038	0,043
-328,416	-66,213	-0,094	0,027
-327,402	-200,000	0,024	0,119
-326,387	167,265	0,047	-0,047
-325,372	800,000	-0,042	0,089
-324,358	-23,562	-0,168	-0,072
-323,343	50,752	0,068	0,046
-322,329	229,229	0,049	-0,058
-321,314	20,031	0,026	0,015
-320,299	-171,767	0,161	-0,004
-319,285	800,000	0,032	0,079
-318,270	-200,000	0,002	-0,091
-317,256	50,468	0,146	-0,099
-316,241	-126,760	-0,113	0,012
-315,226	217,776	0,026	0,030
-314,212	-200,000	0,044	-0,173
-313,197	-6,924	0,121	0,059
-312,183	-200,000	-0,012	0,110
-311,168	800,000	-0,057	-0,141
-310,153	-200,000	-0,024	0,081
-309,139	-200,000	0,044	-0,166
-308,124	-142,882	-0,104	0,007
-307,110	86,071	0,102	-0,080
-306,095	-169,183	0,126	-0,003
-305,080	-100,395	0,135	0,024
-304,066	335,443	-0,053	-0,074
-303,051	-107,168	-0,049	-0,008
-302,037	-159,295	-0,159	0,006
-301,022	338,738	0,062	0,086
-300,008	-112,749	-0,132	0,019
-298,993	-23,383	0,117	-0,050
-297,978	-200,000	-0,006	-0,046
-296,964	-124,693	0,071	-0,008
-295,949	-200,000	-0,012	0,050
-294,935	-200,000	0,004	-0,088
-293,920	726,242	0,049	-0,093
-292,905	-68,323	0,223	0,061
-291,891	-120,233	0,084	0,010
-290,876	-133,241	-0,036	0,003
-289,862	116,884	0,120	-0,105
-288,847	664,131	-0,078	0,143
-287,832	800,000	-0,045	-0,135
-286,818	327,324	-0,043	-0,059
-285,803	-134,960	0,114	-0,010
-284,789	-0,693	0,066	-0,033
-283,774	800,000	0,036	0,100
-282,759	-200,000	0,011	0,122
-281,745	242,410	-0,146	0,174
-280,730	-150,699	-0,066	0,004
-279,716	800,000	-0,039	-0,096
-278,701	-134,968	0,090	0,008
-277,686	-200,000	-0,012	0,059
-276,672	-200,000	0,007	0,036
-275,657	595,900	0,069	-0,121
-274,643	88,472	-0,055	-0,043
-273,628	188,079	-0,031	-0,033
-272,613	85,272	0,067	-0,052
-271,599	64,955	-0,136	0,098
-270,584	109,253	-0,059	0,050
-269,570	-49,714	-0,074	0,025
-268,555	-200,000	0,003	0,040
-267,540	-200,000	0,003	0,082
-266,526	800,000	0,045	-0,103
-265,511	-55,074	-0,127	0,040
-264,497	-142,946	-0,156	-0,011
-263,482	-200,000	-0,013	0,063
-262,467	-150,204	-0,116	-0,006
-261,453	-200,000	0,038	0,132
-260,438	-85,305	0,011	-0,003
-259,424	46,520	-0,052	-0,034
-258,409	800,000	0,012	-0,037
-257,395	-34,034	-0,007	0,003
-256,380	53,092	0,056	-0,038
-255,365	115,544	0,030	0,026
-254,351	-183,574	-0,174	-0,002
-253,336	-200,000	0,004	-0,022
-252,322	-18,120	-0,123	-0,054
-251,307	93,597	0,166	-0,134
-250,292	-104,943	0,035	-0,006
-249,278	135,289	-0,042	0,039
-248,263	800,000	-0,047	0,110
-247,249	-200,000	-0,005	-0,079
-246,234	-200,000	-0,007	-0,071
-245,219	290,069	0,106	-0,138
-244,205	-85,942	-0,101	0,022
-243,190	-200,000	-0,035	0,157
-242,176	3,979	-0,047	0,024
-241,161	73,519	0,112	-0,083
-240,146	-163,520	-0,042	0,001
-239,132	-200,000	-0,008	0,054
-238,117	203,576	-0,019	-0,021
-237,103	84,328	-0,051	0,040
-236,088	30,328	0,103	0,062
-235,073	-200,000	-0,001	0,060
-234,059	800,000	-0,030	0,078
-233,044	-200,000	-0,004	0,084
-232,030	-200,000	-0,014	0,047
-231,015	-100,543	-0,159	0,028
-230,000	558,441	0,048	0,083
-228,986	226,746	0,110	0,127
-227,971	-200,000	-0,022	0,106
-226,957	-200,000	-0,011	0,125
-225,942	-69,519	0,102	-0,027
-224,927	54,840	0,103	0,071
-223,913	-137,103	-0,137	0,011
-222,898	-143,284	0,102	-0,007
-221,884	128,215	-0,036	0,032
-220,869	324,849	0,059	0,080
-219,855	340,322	-0,064	0,089
-218,840	90,541	0,161	0,128
-217,825	97,254	-0,114	0,093
-216,811	99,007	-0,060	0,049
-215,796	75,097	0,027	0,020
-214,782	-200,000	-0,011	-0,088
-213,767	-200,000	0,002	-0,120
-212,752	10,960	-0,061	-0,033
-211,738	422,802	0,091	0,140
-210,723	100,026	0,125	0,103
-209,709	69,569	-0,046	-0,033
-208,694	-50,831	-0,030	-0,010
-207,679	-74,077	-0,162	-0,041
-206,665	-200,000	-0,008	0,135
-205,650	582,888	0,053	0,092
-204,636	-10,228	-0,096	-0,045
-203,621	-22,026	0,134	0,058
-202,606	-151,892	0,148	0,008
-201,592	-76,042	-0,041	0,010
-200,577	-200,000	-0,012	0,089
-199,563	-200,000	0,030	-0,131
-198,548	-200,000	-0,008	0,083
-197,533	800,000	0,001	-0,003
-196,519	-10,576	-0,117	0,055
-195,504	-101,312	0,071	0,012
-194,490	-200,000	0,009	0,088
-193,475	800,000	0,050	-0,131
-192,460	373,204	-0,015	-0,022
-191,446	82,767	0,048	0,037
-190,431	280,269	0,059	0,075
-189,417	-74,968	0,051	-0,013
-188,402	-200,000	0,003	-0,094
-187,387	-200,000	-0,038	-0,175
-186,373	-58,880	-0,013	-0,004
-185,358	605,240	-0,044	0,078
-184,344	-200,000	-0,005	0,036
-183,329	-66,115	0,122	0,034
-182,315	147,141	-0,058	0,055
-181,300	-110,578	-0,095	-0,014
-180,285	-158,747	0,068	-0,003
-179,271	-200,000	0,010	0,083
-178,256	-95,911	-0,236	0,044
-177,242	19,888	0,145	0,083
-176,227	-81,341	-0,037	-0,009
-175,212	800,000	-0,033	-0,085
-174,198	242,169	-0,055	-0,066
-173,183	-200,000	0,000	0,075
-172,169	-200,000	-0,029	-0,129
-171,154	-62,981	0,096	-0,028
-170,139	152,747	0,140	0,135
-169,125	-200,000	-0,008	0,089
-168,110	17,739	0,017	-0,009
-167,096	-25,574	-0,076	-0,032
-166,081	230,495	0,019	-0,022
-165,066	218,579	-0,053	-0,060
-164,052	-98,583	-0,164	0,029
-163,037	-200,000	-0,015	0,055
-162,023	-200,000	0,015	0,149
-161,008	26,282	0,111	0,065
-159,993	800,000	0,065	-0,131
-158,979	563,624	-0,100	-0,172
-157,964	-200,000	-0,039	-0,123
-156,950	123,447	-0,092	-0,082
-155,935	9,495	0,084	0,045
-154,920	-139,942	0,074	0,005
-153,906	-159,705	0,047	0,002
-152,891	800,000	0,054	0,137
-151,877	-14,407	0,096	-0,043
-150,862	-200,000	0,010	-0,164
-149,847	-200,000	0,014	0,079
-148,833	276,070	-0,042	0,053
-147,818	-200,000	0,039	0,134
-146,804	-200,000	-0,002	0,098
-145,789	-31,266	-0,041	-0,016
-144,775	-90,538	-0,023	-0,005
-143,760	-200,000	-0,043	-0,176
-142,745	462,095	-0,012	-0,019
-141,731	26,404	-0,078	0,046
-140,716	-65,423	0,164	0,047
-139,702	800,000	0,013	0,027
-138,687	94,830	0,121	0,098
-137,672	135,669	-0,010	0,009
-136,658	-9,872	0,039	0,018
-135,643	228,863	-0,043	-0,050
-134,629	175,350	0,103	-0,106
-133,614	-74,635	-0,142	-0,036
-132,599	-200,000	-0,024	0,079
-131,585	-200,000	-0,027	0,164
-130,570	-20,379	0,060	0,026
-129,556	480,490	-0,041	-0,066
-128,541	-200,000	-0,009	-0,073
-127,526	-51,560	-0,038	-0,013
-126,512	-60,783	0,118	0,035
-125,497	-200,000	0,029	0,159
-124,483	696,615	0,045	0,084
-123,468	159,518	0,079	0,078
-122,453	81,954	0,072	-0,055
-121,439	432,796	-0,020	-0,031
-120,424	-14,248	-0,027	-0,012
-119,410	71,514	0,104	0,076
-118,395	-102,147	0,064	-0,011
-117,380	800,000	0,057	0,130
-116,366	187,319	0,104	0,110
-115,351	-200,000	0,020	-0,138
-114,337	-200,000	0,018	-0,091
-113,322	-6,723	0,063	-0,030
-112,307	385,553	0,088	-0,128
-111,293	-177,377	0,214	0,004
-110,278	123,035	-0,035	0,031
-109,264	154,643	0,060	0,058
-108,249	761,673	-0,064	-0,124
-107,234	-200,000	0,011	-0,156
-106,220	41,776	-0,084	-0,054
-105,205	-67,184	-0,148	-0,041
-104,191	27,230	0,085	-0,050
-103,176	-61,811	0,106	0,031
-102,162	602,627	-0,048	-0,085
-101,147	-125,258	-0,166	0,018
-100,132	-36,232	-0,035	-0,013
-99,118	112,021	-0,017	-0,014
-98,103	-61,224	0,092	0,027
-97,089	-151,046	-0,054	-0,003
-96,074	-94,623	0,227	0,043
-95,059	22,451	0,011	0,006
-94,045	-200,000	0,001	-0,017
-93,030	-200,000	-0,015	-0,073
-92,016	-72,604	0,053	-0,014
-91,001	594,922	-0,033	-0,059
-89,986	-200,000	-0,013	0,049
-88,972	-109,217	-0,073	-0,011
-87,957	800,000	0,012	0,024
-86,943	800,000	0,027	0,066
-85,928	-200,000	-0,004	0,055
-84,913	-124,433	-0,161	-0,018
-83,899	-40,056	0,117	0,043
-82,884	-200,000	0,019	-0,068
-81,870	-62,076	0,008	-0,002
-80,855	-200,000	0,014	-0,074
-79,840	100,174	0,031	0,025
-78,826	129,640	-0,042	0,038
-77,811	-52,297	0,027	0,009
-76,797	312,441	0,046	0,061
-75,782	288,873	0,100	0,129
-74,767	166,006	0,086	0,086
-73,753	5,245	0,068	0,036
-72,738	-200,000	0,001	0,018
-71,724	800,000	0,050	0,147
-70,709	63,640	-0,086	-0,061
-69,694	-200,000	0,034	-0,108
-68,680	106,858	0,090	0,076
-67,665	-200,000	0,006	0,027
-66,651	339,070	0,081	0,111
-65,636	-90,252	-0,070	0,014
-64,622	284,171	-0,106	-0,135
-63,607	90,331	-0,118	-0,093
-62,592	-4,004	0,092	0,045
-61,578	800,000	0,003	-0,009
-60,563	-16,298	0,089	0,040
-59,549	479,480	0,044	0,071
-58,534	48,871	-1,880	-1,244
-57,519	613,064	-1,169	-2,074
-56,505	-200,000	-0,331	-4,340
-55,490	464,266	1,054	1,669
-54,476	800,000	5,085	11,223
-53,461	-200,000	21,604	344,037
-52,446	800,000	763,168	2349,393
-51,432	550,003	1663,091	2825,687
-50,417	71,951	1659,689	1217,252
-49,403	17,339	1533,358	856,793
-48,388	11,378	1456,818	785,208
-47,373	19,401	1448,160	818,981
-46,359	14,944	1437,330	791,650
-45,344	9,689	1433,302	764,391
-44,330	9,643	1431,357	763,106
-43,315	9,616	1429,506	761,960
-42,300	9,620	1427,922	761,104
-41,286	9,652	1426,667	760,556
-40,271	9,634	1425,310	759,716
-39,257	9,593	1424,207	758,904
-38,242	9,675	1423,106	758,678
-37,227	9,625	1422,037	757,838
-36,213	9,620	1420,754	757,101
-35,198	9,623	1419,551	756,444
-34,184	9,701	1418,574	756,260
-33,169	9,599	1417,127	754,982
-32,154	9,679	1415,979	754,717
-31,140	9,666	1414,875	754,035
-30,125	9,654	1413,771	753,359
-29,111	9,675	1412,585	752,797
-28,096	9,623	1411,483	751,934
-27,082	9,600	1410,029	751,023
-26,067	9,601	1409,125	750,519
-25,052	9,605	1408,274	750,055
-24,038	9,670	1407,231	749,774
-23,023	9,569	1406,503	748,884
-22,009	9,605	1405,350	748,407
-20,994	9,586	1404,232	747,693
-19,979	9,600	1403,364	747,266
-18,965	9,569	1402,373	746,563
-17,950	9,568	1401,473	746,052
-16,936	9,564	1400,756	745,620
-15,921	9,508	1399,527	744,675
-14,906	9,505	1398,851	744,276
-13,892	9,560	1397,898	743,993
-12,877	9,505	1397,105	743,285
-11,863	9,514	1396,258	742,847
-10,848	9,498	1395,323	742,247
-9,833	9,373	1394,357	741,125
-8,819	9,384	1393,634	740,761
-7,804	9,421	1392,569	740,336
-6,790	9,420	1391,556	739,766
-5,775	9,404	1390,407	739,051
-4,760	9,391	1389,495	738,476
-3,746	9,426	1388,635	738,150
-2,731	9,425	1387,653	737,594
-1,717	9,467	1386,803	737,307
-0,702	9,405	1385,128	736,101
0,313	13,380	1297,329	707,618
1,327	29,280	688,288	411,395
2,342	45,453	119,186	77,457
3,356	0,970	16,554	8,342
4,371	1,282	3,611	1,823
5,386	-36,653	1,218	0,460
6,400	800,000	0,233	0,592
7,415	-54,949	-0,219	-0,069
8,429	-4,507	-0,278	-0,135
9,444	22,059	-0,388	-0,222
10,459	136,782	-0,167	-0,154
11,473	80,500	-0,299	-0,227
12,488	265,032	-0,252	-0,310
13,502	-38,727	-0,272	-0,101
14,517	219,647	-0,327	-0,370
15,531	142,740	-0,317	-0,297
16,546	12,851	-0,408	-0,222
17,561	210,238	-0,312	-0,345
18,575	324,317	-0,132	-0,177
19,590	83,740	-0,293	-0,225
20,604	28,367	-0,232	-0,138
21,619	-10,648	-0,361	-0,168
22,634	57,149	-0,379	-0,260
23,648	208,852	-0,370	-0,408
24,663	43,844	-0,546	-0,351
25,677	55,839	-0,364	-0,248
26,692	-15,334	-0,189	-0,085
27,707	64,286	-0,307	-0,217
28,721	463,637	-0,299	-0,472
29,736	169,610	-0,332	-0,334
30,750	221,494	-0,344	-0,389
31,765	-11,567	-0,303	-0,140
32,780	138,498	-0,309	-0,286
33,794	145,553	-0,273	-0,258
34,809	31,469	-0,407	-0,245
35,823	31,869	-0,470	-0,284
36,838	57,744	-0,547	-0,375
37,853	16,869	-0,398	-0,221
38,867	22,045	-0,448	-0,256
39,882	78,856	-0,333	-0,250
40,896	-72,807	-0,342	-0,088
41,911	105,979	-0,351	-0,292
42,926	49,013	-0,421	-0,277
43,940	-38,350	-0,272	-0,101
44,955	57,578	-0,411	-0,282
45,969	148,937	-0,222	-0,211
46,984	38,646	-0,395	-0,247
47,999	70,106	-0,358	-0,259
49,013	337,139	-0,225	-0,309
50,028	264,840	-0,232	-0,285
51,042	175,280	-0,217	-0,221
52,057	31,274	-0,289	-0,174
53,071	65,229	-0,317	-0,225
54,086	286,721	-0,213	-0,271
55,101	39,133	-0,361	-0,226
56,115	-54,853	-0,433	-0,136
57,130	-41,740	-0,337	-0,121
58,144	89,417	-0,417	-0,326
59,159	253,702	-0,194	-0,233
60,174	221,488	-0,214	-0,242
61,188	306,216	-0,201	-0,263
62,203	254,362	-0,250	-0,300
63,217	5,501	-0,315	-0,163
64,232	27,382	-0,291	-0,171
65,247	8,357	-0,337	-0,177
66,261	97,384	-0,311	-0,251
67,276	268,853	-0,340	-0,419
68,290	117,352	-0,333	-0,287
69,305	-124,609	-0,282	-0,030
70,320	25,742	-0,324	-0,189
71,334	36,374	-0,311	-0,192
72,349	28,725	-0,282	-0,167
73,363	90,797	-0,456	-0,358
74,378	4,965	-0,392	-0,202
75,393	144,369	-0,334	-0,312
76,407	94,807	-0,290	-0,231
77,422	164,723	-0,279	-0,276
78,436	-29,212	-0,221	-0,088
79,451	-16,183	-0,386	-0,171
80,466	-2,433	-0,314	-0,153
81,480	92,303	-0,306	-0,241
82,495	100,110	-0,247	-0,201
83,509	149,423	-0,232	-0,220
84,524	-88,315	-0,193	-0,040
85,539	-37,364	-0,342	-0,127
86,553	49,863	-0,395	-0,260
87,568	100,431	-0,300	-0,244
88,582	154,381	-0,344	-0,331
89,597	195,069	-0,299	-0,318
90,611	-40,492	-0,400	-0,145
91,626	-119,752	-0,327	0,039
92,641	24,805	-0,170	-0,098
93,655	-47,683	-0,248	-0,084
94,670	185,215	-0,199	-0,207
95,684	41,473	-0,170	-0,108
96,699	108,407	-0,185	-0,154
97,714	-109,067	-0,266	-0,039
98,728	36,956	-0,269	-0,166
99,743	100,402	-0,257	-0,209
100,757	-37,718	-0,228	-0,084
101,772	-49,328	-0,362	-0,120
102,787	26,603	-0,277	-0,162
103,801	204,541	-0,223	-0,242
104,816	96,453	-0,241	-0,193
105,830	153,668	-0,287	-0,275
106,845	42,151	-0,286	-0,181
107,860	106,550	-0,254	-0,211
108,874	-65,141	-0,222	-0,062
109,889	45,466	-0,163	-0,105
110,903	118,159	-0,223	-0,192
111,918	197,110	-0,153	-0,163
112,933	310,999	-0,119	-0,156
113,947	75,239	-0,201	-0,148
114,962	54,795	-0,218	-0,147
115,976	156,918	-0,233	-0,225
116,991	-53,957	-0,307	-0,097
118,006	-78,707	-0,286	-0,068
119,020	-39,913	-0,146	-0,053
120,035	202,375	-0,246	-0,265
121,049	-5,430	-0,266	-0,127
122,064	70,994	-0,202	-0,146
123,079	52,465	-0,215	-0,143
124,093	84,611	-0,185	-0,141
125,108	-0,330	-0,291	-0,144
126,122	205,326	-0,216	-0,235
127,137	351,593	-0,194	-0,269
128,151	-14,273	-0,240	-0,107
129,166	-73,684	-0,192	0,048
130,181	58,326	-0,182	-0,124
131,195	598,065	-0,182	-0,316
132,210	66,305	-0,268	-0,189
133,224	139,457	-0,339	-0,311
134,239	109,219	-0,198	-0,165
135,254	369,954	-0,151	-0,214
136,268	-109,549	-0,223	-0,033
137,283	426,096	-0,194	-0,292
138,297	24,702	-0,366	-0,211
139,312	72,724	-0,358	-0,260
140,327	16,450	-0,225	-0,123
141,341	84,301	-0,243	-0,185
142,356	371,118	-0,146	-0,207
143,370	181,768	-0,148	-0,152
144,385	-95,520	-0,383	-0,071
145,400	70,954	-0,263	-0,190
146,414	28,781	-0,254	-0,150
147,429	406,821	-0,130	-0,192
148,443	120,448	-0,323	-0,279
149,458	70,150	-0,244	-0,175
150,473	79,332	-0,321	-0,239
151,487	55,427	-0,205	-0,138
152,502	81,527	-0,332	-0,250
153,516	111,288	-0,261	-0,219
154,531	800,000	-0,159	-0,320
155,546	-44,573	-0,284	-0,098
156,560	-65,719	-0,253	-0,070
157,575	167,274	-0,155	-0,153
158,589	37,426	-0,202	-0,125
159,604	-11,123	-0,298	-0,136
160,619	394,620	-0,182	-0,264
161,633	316,105	-0,126	-0,166
162,648	230,402	-0,183	-0,208
163,662	5,054	-0,216	-0,110
164,677	44,889	-0,175	-0,112
165,692	-44,527	-0,210	-0,073
166,706	42,454	-0,172	-0,108
167,721	142,579	-0,152	-0,140
168,735	167,824	-0,274	-0,271
169,750	125,871	-0,091	-0,080
170,764	-3,558	-0,263	-0,127
171,779	203,630	-0,106	-0,114
172,794	300,393	-0,181	-0,233
173,808	-19,806	-0,212	-0,091
174,823	-98,821	-0,189	-0,033
175,837	3,433	-0,312	-0,157
176,852	-55,974	-0,250	-0,077
177,867	11,195	-0,146	-0,078
178,881	52,009	-0,202	-0,133
179,896	800,000	-0,086	-0,233
180,910	-5,821	-0,332	-0,157
181,925	459,287	-0,101	-0,157
182,940	-9,085	-0,221	-0,102
183,954	206,817	-0,132	-0,143
184,969	-60,965	-0,336	-0,098
185,983	78,746	-0,158	-0,117
186,998	-53,486	-0,235	-0,074
188,013	200,622	-0,120	-0,128
189,027	300,750	-0,228	-0,293
190,042	56,540	-0,264	-0,178
191,056	300,937	-0,189	-0,243
192,071	348,602	-0,122	-0,167
193,086	-169,881	-0,212	0,005
194,100	-34,721	-0,178	-0,067
195,115	-5,624	-0,091	-0,043
196,129	59,431	-0,173	-0,118
197,144	246,949	-0,277	-0,325
198,159	196,965	-0,147	-0,155
199,173	-200,000	0,051	-0,234
200,188	-47,258	-0,139	-0,047
201,202	-47,173	-0,183	-0,061
202,217	107,809	-0,161	-0,133
203,232	313,148	-0,138	-0,180
204,246	38,448	-0,127	-0,078
205,261	-117,900	-0,214	-0,026
206,275	33,495	-0,280	-0,168
207,290	199,720	-0,120	-0,128
208,304	68,032	-0,145	-0,103
209,319	-11,307	-0,235	-0,107
210,334	14,722	-0,228	-0,123
211,348	-70,999	-0,252	-0,065
212,363	2,609	-0,352	-0,176
213,377	102,126	-0,210	-0,170
214,392	-16,322	-0,118	-0,052
215,407	-39,013	-0,169	-0,061
216,421	-165,502	-0,242	-0,007
217,436	360,321	-0,142	-0,197
218,450	123,918	-0,188	-0,163
219,465	97,022	-0,188	-0,149
220,480	-70,499	-0,287	-0,075
221,494	238,131	-0,129	-0,149
222,509	-59,664	-0,203	-0,060
223,523	26,951	-0,185	-0,107
224,538	800,000	-0,077	-0,154
225,553	326,424	-0,122	-0,162
226,567	94,825	-0,176	-0,138
227,582	800,000	-0,116	-0,223
228,596	800,000	-0,083	-0,166
229,611	43,649	-0,151	-0,095
230,626	69,288	-0,188	-0,134
231,640	100,335	-0,125	-0,100
232,655	9,895	-0,267	-0,139
233,669	-125,179	-0,329	-0,034
234,684	13,122	-0,167	-0,089
235,699	65,075	-0,158	-0,110
236,713	176,537	-0,115	-0,116
237,728	115,443	-0,110	-0,092
238,742	-111,927	-0,264	0,036
239,757	-39,833	-0,152	-0,055
240,772	-64,291	-0,249	-0,069
241,786	97,224	-0,150	-0,118
242,801	-23,617	-0,043	0,018
243,815	-4,196	-0,220	-0,105
244,830	-155,652	-0,292	0,013
245,844	-159,753	-0,199	0,007
246,859	-9,135	-0,217	-0,100
247,874	56,646	-0,119	-0,080
248,888	436,927	-0,101	-0,153
249,903	-87,695	-0,233	0,048
250,917	-137,360	-0,094	-0,007
251,932	274,684	-0,056	-0,069
252,947	27,875	-0,187	-0,109
253,961	130,787	-0,233	-0,207
254,976	39,555	-0,245	-0,151
255,990	-83,875	-0,184	-0,040
257,005	419,851	-0,183	-0,271
258,020	-15,413	-0,204	-0,090
259,034	29,624	-0,122	-0,071
260,049	451,382	-0,157	-0,240
261,063	85,910	-0,213	-0,161
262,078	-60,223	-0,175	-0,051
263,093	-36,947	-0,164	-0,060
264,107	278,277	-0,179	-0,221
265,122	-3,495	-0,237	-0,113
266,136	800,000	-0,042	-0,098
267,151	204,776	-0,142	-0,152
268,166	-128,421	-0,148	-0,014
269,180	-99,749	-0,271	-0,046
270,195	350,404	-0,144	-0,197
271,209	-92,784	-0,218	-0,042
272,224	12,155	-0,160	-0,085
273,239	-200,000	-0,012	-0,134
274,253	-108,341	-0,111	0,016
275,268	-64,767	-0,190	-0,053
276,282	-74,557	-0,190	-0,047
277,297	-68,243	-0,110	-0,029
278,312	54,834	-0,119	-0,079
279,326	-67,440	-0,182	-0,049
280,341	42,780	-0,099	-0,062
281,355	-24,480	-0,158	0,065
282,370	155,206	-0,155	-0,147
283,384	36,501	-0,179	-0,109
284,399	97,847	-0,154	-0,121
285,414	-83,243	-0,150	0,033
286,428	70,551	-0,128	-0,091
287,443	5,548	-0,196	-0,099
288,457	-43,178	-0,203	-0,070
289,472	-81,180	-0,112	-0,025
290,487	-26,057	-0,152	-0,061
291,501	79,949	-0,258	-0,191
292,516	-26,621	-0,162	-0,065
293,530	133,665	-0,090	-0,080
294,545	-200,000	-0,023	-0,133
295,560	-18,363	-0,107	-0,046
296,574	-114,570	-0,137	-0,018
297,589	202,738	-0,161	-0,171
298,603	-68,223	-0,158	-0,042
299,618	-200,000	-0,002	0,034
300,633	-200,000	-0,018	-0,118
301,647	-176,835	-0,147	-0,003
302,662	142,498	-0,151	0,138
303,676	-95,253	-0,196	-0,036
304,691	170,947	-0,181	-0,178
305,706	-15,132	-0,225	-0,098
306,720	177,113	-0,087	-0,087
307,735	-174,937	-0,064	-0,001
308,749	-39,323	-0,232	0,083
309,764	210,080	-0,129	0,139
310,779	168,891	-0,177	-0,174
311,793	117,342	-0,144	-0,121
312,808	32,699	-0,194	-0,115
313,822	488,615	-0,105	-0,164
314,837	-200,000	-0,004	-0,102
315,852	800,000	-0,063	-0,120
316,866	74,995	-0,149	-0,107
317,881	49,369	-0,153	-0,098
318,895	165,979	-0,144	-0,140
319,910	800,000	-0,086	-0,201
320,925	584,817	-0,119	-0,201
321,939	589,122	-0,097	-0,164
322,954	0,467	-0,085	-0,041
323,968	-200,000	-0,050	-0,202
324,983	144,927	-0,035	-0,032
325,997	527,570	-0,050	-0,081
327,012	37,931	-0,122	-0,074
328,027	-115,758	-0,246	0,031
329,041	-17,739	-0,209	-0,090
330,056	503,727	-0,064	-0,102
331,070	-200,000	-0,001	-0,154
332,085	-117,981	-0,142	-0,017
333,100	-200,000	-0,126	0,000
334,114	125,857	-0,068	-0,058
335,129	-14,814	-0,245	-0,107
336,143	94,078	-0,104	-0,081
337,158	-39,642	-0,146	-0,052
338,173	-142,323	-0,187	-0,012
339,187	-67,780	-0,137	-0,036
340,202	255,776	-0,095	-0,112
341,216	800,000	0,014	-0,032
342,231	-70,663	-0,147	0,038
343,246	509,917	-0,139	-0,223
344,260	-43,601	-0,156	-0,053
345,275	800,000	-0,053	-0,103
346,289	800,000	0,031	-0,077
347,304	39,643	-0,161	0,099
348,319	-83,131	-0,253	-0,055
349,333	800,000	-0,128	-0,245
350,348	41,925	-0,215	-0,133
351,362	0,055	-0,122	-0,059
352,377	333,977	0,076	-0,101
353,392	-200,000	-0,041	-0,221
354,406	-93,768	-0,185	-0,035
355,421	207,624	1310,857	1400,984
356,435	159,723	1471,084	1401,449
