DTS Sentinel unit serial number:	SN410029Multiplexer serial number:	ORYXHardware model number:	OX2-SRSoftware version number:	ORYX F/W v4,00 Oryx Data Collector v3.7.2.0data status	okinstallation	B3 Nyhavnadifferential loss correction	single-endedforward channel	channel 1reverse channel	N/Adate	2023/11/30time	09:42:30forward acquisition time	300,00reverse acquisition time	0,00gamma	499,1914k internal	0,3211k external	0,3211temperature offset calibration	1,0000default loss term (dB/km)	0,3820temperature slope calibration	1,0000multiplexer offset coefficient	1,0000multiplexer slope coefficient	1,0000fibre end	0,00T internal ref (°C)	9,52T ext. ref 1 (°C)	-5,37T ext. ref 2 (°C)	-5,48length (m)	temperature (°C)	Stokes	anti-Stokes-744,400	138,053	-0,261	-0,249
-743,385	-200,000	-0,049	0,317
-742,371	21,452	-0,249	-0,147
-741,356	-200,000	0,045	0,197
-740,342	340,237	-0,198	-0,281
-739,327	-200,000	-0,037	0,326
-738,312	567,658	-0,148	-0,261
-737,298	-200,000	-0,033	0,212
-736,283	47,615	-0,226	-0,152
-735,269	-200,000	-0,022	0,311
-734,254	800,000	-0,098	-0,265
-733,239	-43,375	-0,281	0,102
-732,225	321,176	-0,104	-0,144
-731,210	800,000	0,068	0,139
-730,196	-200,000	-0,012	0,116
-729,181	79,361	-0,082	-0,064
-728,167	-190,212	-0,229	0,002
-727,152	-48,993	0,091	0,032
-726,137	-116,677	-0,189	0,025
-725,123	800,000	-0,022	-0,058
-724,108	748,337	-0,087	-0,172
-723,094	800,000	-0,020	-0,059
-722,079	800,000	-0,055	-0,115
-721,064	-200,000	-0,005	-0,205
-720,050	58,441	0,098	0,070
-719,035	37,887	-0,028	-0,018
-718,021	-122,706	-0,086	-0,010
-717,006	107,058	-0,056	0,048
-715,991	58,536	0,053	-0,038
-714,977	198,665	-0,057	0,063
-713,962	-159,480	-0,031	0,001
-712,948	800,000	0,021	0,049
-711,933	-84,507	0,068	0,015
-710,918	-200,000	-0,009	-0,097
-709,904	126,296	-0,080	-0,073
-708,889	73,112	-0,129	-0,098
-707,875	-72,530	-0,048	-0,013
-706,860	54,415	0,133	-0,093
-705,845	-200,000	0,008	-0,046
-704,831	-143,147	-0,094	-0,006
-703,816	-200,000	-0,014	-0,108
-702,802	-14,130	0,099	-0,046
-701,787	800,000	0,058	-0,182
-700,772	584,055	0,023	-0,041
-699,758	742,163	0,044	0,086
-698,743	-168,862	0,089	-0,002
-697,729	47,125	0,066	-0,045
-696,714	800,000	0,048	-0,099
-695,699	-141,721	-0,103	-0,007
-694,685	-73,498	-0,113	0,030
-693,670	-19,737	-0,259	-0,115
-692,656	800,000	-0,033	-0,103
-691,641	290,304	-0,024	0,031
-690,627	48,753	-0,096	0,065
-689,612	-6,054	0,132	0,065
-688,597	-200,000	-0,020	-0,070
-687,583	158,069	-0,086	0,086
-686,568	800,000	-0,035	0,077
-685,554	221,745	0,081	0,095
-684,539	34,714	0,095	0,060
-683,524	494,841	-0,049	-0,081
-682,510	-38,101	0,077	0,029
-681,495	-65,440	0,165	-0,048
-680,481	179,932	-0,074	0,079
-679,466	-200,000	0,036	-0,117
-678,451	-200,000	0,010	0,052
-677,437	800,000	0,037	0,080
-676,422	32,037	0,104	0,065
-675,408	-200,000	-0,006	-0,095
-674,393	-20,335	-0,186	-0,082
-673,378	-79,603	-0,152	-0,037
-672,364	514,633	-0,042	-0,071
-671,349	800,000	0,047	-0,141
-670,335	114,157	-0,053	-0,046
-669,320	-48,337	0,068	0,024
-668,305	-200,000	0,007	0,043
-667,291	752,586	0,044	-0,086
-666,276	239,403	-0,055	-0,066
-665,262	-11,232	-0,058	-0,028
-664,247	-200,000	-0,003	-0,065
-663,232	-38,043	0,041	-0,016
-662,218	-64,815	-0,056	0,016
-661,203	178,162	-0,068	0,072
-660,189	-200,000	-0,003	0,035
-659,174	181,286	-0,073	-0,077
-658,159	-200,000	0,014	-0,082
-657,145	800,000	0,021	-0,045
-656,130	-200,000	-0,003	-0,037
-655,116	-33,269	0,040	0,016
-654,101	16,198	0,135	0,077
-653,086	-200,000	0,031	0,204
-652,072	144,844	-0,092	-0,089
-651,057	-200,000	-0,008	-0,097
-650,043	-200,000	0,020	-0,098
-649,028	385,358	-0,035	0,053
-648,014	800,000	-0,027	0,070
-646,999	-200,000	0,036	0,190
-645,984	40,167	0,087	0,056
-644,970	-200,000	0,022	-0,079
-643,955	-82,499	-0,070	0,016
-642,941	131,434	-0,062	-0,057
-641,926	120,424	0,044	0,040
-640,911	-118,330	-0,128	0,016
-639,897	-200,000	0,006	-0,078
-638,882	-124,914	-0,190	-0,021
-637,868	-14,998	0,051	-0,024
-636,853	111,781	-0,066	0,057
-635,838	123,488	-0,083	-0,075
-634,824	39,518	0,078	0,051
-633,809	91,134	0,022	-0,017
-632,795	719,683	-0,047	0,091
-631,780	-75,573	-0,047	-0,012
-630,765	-150,651	-0,015	0,001
-629,751	-69,876	-0,150	-0,041
-628,736	61,393	-0,076	-0,054
-627,722	491,567	0,049	-0,082
-626,707	312,904	-0,059	-0,081
-625,692	328,977	-0,017	0,024
-624,678	36,078	0,048	0,031
-623,663	800,000	-0,032	0,085
-622,649	279,222	-0,117	0,151
-621,634	398,016	0,096	0,145
-620,619	-200,000	0,006	-0,125
-619,605	424,731	0,013	-0,020
-618,590	-83,860	0,047	0,011
-617,576	-200,000	-0,013	0,085
-616,561	800,000	-0,027	0,061
-615,546	-28,015	-0,043	-0,018
-614,532	-200,000	-0,027	-0,160
-613,517	-28,824	-0,007	0,003
-612,503	94,457	0,099	0,081
-611,488	-126,835	-0,074	-0,008
-610,474	800,000	0,027	-0,065
-609,459	9,408	0,034	-0,019
-608,444	-200,000	-0,002	-0,087
-607,430	800,000	-0,049	-0,140
-606,415	-44,498	0,088	0,031
-605,401	239,460	0,018	0,022
-604,386	72,922	0,104	-0,078
-603,371	-200,000	-0,027	-0,115
-602,357	-47,817	-0,113	0,039
-601,342	-200,000	-0,030	-0,107
-600,328	800,000	-0,027	-0,062
-599,313	-200,000	-0,007	-0,079
-598,298	118,543	0,043	0,038
-597,284	-114,640	0,097	-0,013
-596,269	104,246	-0,068	-0,058
-595,255	-191,368	0,092	-0,001
-594,240	-69,259	0,079	-0,022
-593,225	-15,249	-0,121	0,055
-592,211	-200,000	-0,038	-0,152
-591,196	-200,000	-0,011	0,047
-590,182	-200,000	0,001	-0,039
-589,167	350,431	-0,036	0,052
-588,152	517,098	0,040	0,068
-587,138	-122,632	-0,140	-0,016
-586,123	-57,444	0,040	0,013
-585,109	-200,000	0,018	-0,120
-584,094	507,567	0,043	-0,072
-583,079	-200,000	0,008	0,026
-582,065	-1,238	-0,077	0,039
-581,050	-200,000	-0,004	-0,042
-580,036	-170,559	-0,130	-0,003
-579,021	225,305	-0,049	0,057
-578,006	-200,000	0,040	-0,176
-576,992	143,242	-0,110	-0,106
-575,977	-200,000	-0,026	0,087
-574,963	57,402	0,070	0,049
-573,948	-200,000	0,002	0,013
-572,934	108,016	0,047	-0,040
-571,919	-200,000	0,002	-0,031
-570,904	589,342	0,011	-0,020
-569,890	197,400	0,015	-0,017
-568,875	26,806	-0,061	-0,037
-567,861	381,884	0,058	-0,086
-566,846	193,754	0,078	0,085
-565,831	-200,000	0,006	-0,023
-564,817	293,945	-0,113	-0,149
-563,802	48,354	-0,031	-0,021
-562,788	784,219	-0,011	0,022
-561,773	106,567	0,077	-0,065
-560,758	16,400	-0,085	-0,048
-559,744	-1,735	0,100	-0,050
-558,729	-95,567	0,134	-0,026
-557,715	177,660	0,043	0,045
-556,700	296,289	0,098	-0,130
-555,685	-200,000	0,022	-0,093
-554,671	-117,949	0,075	0,010
-553,656	79,100	-0,018	0,014
-552,642	-48,367	-0,044	0,015
-551,627	408,424	-0,044	-0,067
-550,612	664,040	-0,014	0,027
-549,598	-200,000	-0,029	-0,104
-548,583	-55,395	0,111	0,036
-547,569	-140,450	0,056	0,004
-546,554	-83,658	0,080	0,018
-545,539	-200,000	0,014	0,162
-544,525	-82,625	-0,050	0,012
-543,510	36,322	-0,070	0,044
-542,496	86,034	0,060	-0,048
-541,481	-200,000	-0,009	0,055
-540,466	-200,000	0,008	-0,071
-539,452	637,081	-0,041	0,075
-538,437	-200,000	-0,064	0,207
-537,423	-200,000	-0,014	0,106
-536,408	128,128	-0,051	0,047
-535,393	591,426	-0,053	-0,095
-534,379	-200,000	0,013	-0,139
-533,364	137,168	0,040	0,038
-532,350	-158,583	-0,082	0,003
-531,335	315,042	0,055	0,074
-530,321	-200,000	0,013	0,132
-529,306	126,173	-0,122	-0,111
-528,291	629,513	0,045	0,083
-527,277	-112,175	-0,076	-0,011
-526,262	-24,639	0,010	0,004
-525,248	210,153	-0,012	0,013
-524,233	800,000	0,047	-0,114
-523,218	213,638	-0,088	0,100
-522,204	475,614	0,052	-0,084
-521,189	800,000	-0,004	-0,008
-520,175	-126,925	-0,060	0,006
-519,160	800,000	-0,016	0,035
-518,145	-9,977	-0,049	-0,023
-517,131	-100,578	0,116	-0,020
-516,116	4,107	0,056	-0,029
-515,102	-118,843	0,051	-0,006
-514,087	800,000	-0,055	-0,122
-513,072	800,000	0,032	-0,093
-512,058	800,000	0,015	0,033
-511,043	-190,142	-0,049	0,000
-510,029	-200,000	0,011	-0,085
-509,014	623,156	0,023	0,041
-507,999	-200,000	-0,001	-0,015
-506,985	-167,286	-0,112	0,003
-505,970	-200,000	-0,019	0,066
-504,956	-200,000	-0,025	-0,112
-503,941	-42,632	0,110	-0,040
-502,926	101,578	0,124	0,104
-501,912	424,959	0,031	-0,049
-500,897	-200,000	-0,019	0,090
-499,883	-130,111	0,055	0,005
-498,868	800,000	0,031	-0,081
-497,853	367,016	-0,089	0,130
-496,839	-70,900	-0,012	0,003
-495,824	800,000	0,022	0,055
-494,810	-200,000	0,011	0,039
-493,795	-200,000	-0,045	0,227
-492,781	52,090	0,115	-0,079
-491,766	-141,689	-0,102	-0,007
-490,751	-29,766	0,044	0,018
-489,737	3,025	0,169	0,088
-488,722	95,793	-0,137	0,112
-487,708	76,940	0,108	0,082
-486,693	167,976	-0,058	-0,060
-485,678	-131,994	0,139	-0,013
-484,664	-82,541	0,050	0,012
-483,649	145,356	0,009	0,009
-482,635	627,166	0,027	-0,050
-481,620	263,677	0,015	0,018
-480,605	-200,000	-0,001	-0,009
-479,591	43,418	-0,116	0,076
-478,576	-160,898	0,164	-0,006
-477,562	-69,388	-0,098	0,027
-476,547	-200,000	-0,019	-0,082
-475,532	800,000	0,022	0,048
-474,518	-9,850	0,159	0,076
-473,503	-50,957	0,044	-0,015
-472,489	800,000	0,076	0,158
-471,474	257,792	0,058	0,071
-470,459	-200,000	0,020	-0,077
-469,445	-129,006	-0,201	-0,020
-468,430	231,847	0,109	0,128
-467,416	763,379	-0,009	0,018
-466,401	800,000	-0,019	-0,041
-465,386	247,912	0,101	-0,123
-464,372	-200,000	-0,013	0,055
-463,357	-125,485	-0,129	0,014
-462,343	-97,045	0,086	0,016
-461,328	800,000	-0,027	0,060
-460,313	410,594	-0,068	-0,104
-459,299	-60,316	0,125	0,038
-458,284	311,196	-0,071	0,095
-457,270	-150,021	-0,151	-0,008
-456,255	59,066	0,045	-0,032
-455,241	-124,998	0,091	-0,010
-454,226	-200,000	-0,014	-0,101
-453,211	72,801	0,053	0,040
-452,197	-200,000	0,008	-0,032
-451,182	800,000	-0,010	-0,025
-450,168	93,752	0,106	0,086
-449,153	151,276	-0,144	0,141
-448,138	737,647	-0,017	-0,032
-447,124	242,400	0,013	0,016
-446,109	-51,482	-0,149	0,050
-445,095	19,953	-0,107	0,062
-444,080	686,629	-0,039	0,074
-443,065	103,191	-0,091	0,076
-442,051	13,918	-0,066	-0,037
-441,036	32,650	0,100	-0,062
-440,022	6,512	0,110	0,058
-439,007	-200,000	0,005	-0,030
-437,992	22,901	-0,057	0,033
-436,978	333,657	-0,039	0,055
-435,963	800,000	-0,009	0,022
-434,949	-56,886	0,092	-0,029
-433,934	258,969	-0,037	-0,046
-432,919	-200,000	0,031	-0,111
-431,905	800,000	0,019	-0,056
-430,890	22,590	0,017	-0,010
-429,876	235,663	-0,119	0,141
-428,861	800,000	-0,012	0,032
-427,846	315,912	-0,046	0,062
-426,832	-95,844	-0,163	-0,031
-425,817	-200,000	0,007	-0,102
-424,803	286,459	0,030	0,039
-423,788	-200,000	-0,028	0,123
-422,773	90,111	0,112	-0,089
-421,759	196,755	-0,045	0,050
-420,744	-39,254	0,029	-0,011
-419,730	-112,474	-0,152	0,021
-418,715	232,242	0,087	-0,102
-417,701	-35,435	0,099	0,038
-416,686	-65,977	0,068	0,019
-415,671	-129,176	0,089	0,009
-414,657	-200,000	0,002	0,025
-413,642	200,858	-0,027	-0,030
-412,628	27,753	-0,142	-0,086
-411,613	-200,000	0,015	-0,079
-410,598	-52,828	0,021	0,007
-409,584	-75,179	0,039	-0,010
-408,569	-115,475	0,081	0,011
-407,555	30,232	0,066	-0,040
-406,540	249,417	-0,020	-0,024
-405,525	-168,745	0,059	0,002
-404,511	-200,000	0,035	-0,127
-403,496	800,000	0,068	-0,139
-402,482	-22,943	-0,086	-0,037
-401,467	440,854	-0,054	0,084
-400,452	394,535	0,054	0,080
-399,438	107,550	0,024	-0,020
-398,423	-66,303	-0,057	0,016
-397,409	800,000	0,052	0,105
-396,394	800,000	-0,035	0,078
-395,379	86,421	0,060	-0,047
-394,365	-91,189	0,112	0,023
-393,350	184,292	0,052	0,055
-392,336	-200,000	-0,051	0,000
-391,321	-98,544	0,090	0,016
-390,306	-200,000	0,008	-0,085
-389,292	-120,751	0,134	-0,016
-388,277	163,907	-0,017	-0,017
-387,263	800,000	-0,044	0,089
-386,248	-64,678	-0,082	0,024
-385,233	800,000	0,045	0,100
-384,219	-200,000	-0,012	-0,139
-383,204	800,000	0,082	-0,220
-382,190	32,692	-0,122	-0,075
-381,175	-34,464	0,018	0,007
-380,160	-61,789	0,071	0,021
-379,146	178,072	0,059	-0,062
-378,131	-200,000	-0,029	0,101
-377,117	800,000	-0,044	0,126
-376,102	-200,000	-0,029	-0,100
-375,088	326,307	-0,141	-0,194
-374,073	456,283	0,041	-0,064
-373,058	800,000	-0,018	-0,053
-372,044	86,632	0,154	0,121
-371,029	-200,000	-0,001	0,120
-370,015	77,096	0,031	-0,023
-369,000	516,422	0,108	-0,181
-367,985	-149,559	0,041	0,002
-366,971	22,977	-0,055	0,032
-365,956	173,724	0,040	-0,041
-364,942	-160,285	0,104	0,004
-363,927	-118,791	0,051	-0,006
-362,912	60,714	0,025	0,018
-361,898	-137,851	-0,042	0,003
-360,883	-107,036	0,034	-0,005
-359,869	-151,872	-0,170	-0,009
-358,854	131,945	-0,098	-0,090
-357,839	-200,000	-0,010	0,050
-356,825	289,438	0,085	0,110
-355,810	11,997	-0,048	-0,026
-354,796	701,397	-0,027	0,051
-353,781	-200,000	-0,025	-0,089
-352,766	152,104	0,072	0,071
-351,752	244,207	0,008	-0,010
-350,737	142,685	0,078	0,074
-349,723	-200,000	0,008	0,061
-348,708	102,488	-0,034	0,028
-347,693	-48,175	-0,066	-0,023
-346,679	800,000	0,024	0,051
-345,664	-200,000	-0,036	-0,117
-344,650	59,600	0,087	-0,061
-343,635	-52,677	-0,080	0,026
-342,620	169,336	-0,119	-0,122
-341,606	218,590	0,082	0,094
-340,591	-17,586	0,033	-0,015
-339,577	800,000	0,010	-0,022
-338,562	-125,211	-0,105	-0,011
-337,548	-200,000	0,005	-0,150
-336,533	762,203	0,011	-0,021
-335,518	-200,000	0,046	0,189
-334,504	800,000	-0,032	0,070
-333,489	-200,000	-0,005	0,095
-332,475	-39,040	-0,068	0,025
-331,460	-158,924	-0,165	0,007
-330,445	175,990	0,100	0,104
-329,431	-105,021	-0,103	0,017
-328,416	54,310	0,104	0,072
-327,402	-113,920	0,129	-0,018
-326,387	-76,308	-0,067	-0,017
-325,372	-200,000	0,035	-0,160
-324,358	-75,318	-0,090	0,023
-323,343	216,256	0,037	0,041
-322,329	-113,999	-0,030	0,004
-321,314	-200,000	-0,045	0,154
-320,299	-16,544	-0,016	-0,007
-319,285	214,201	-0,058	-0,066
-318,270	800,000	-0,034	-0,070
-317,256	-29,829	0,056	-0,022
-316,241	-19,238	-0,042	-0,018
-315,226	-111,674	0,048	0,007
-314,212	113,639	0,071	-0,061
-313,197	500,972	-0,035	0,058
-312,183	-67,163	0,097	0,027
-311,168	-19,556	-0,072	-0,032
-310,153	222,423	-0,108	-0,125
-309,139	154,334	-0,025	-0,024
-308,124	-200,000	-0,006	0,183
-307,110	92,802	-0,026	0,021
-306,095	8,448	0,162	-0,086
-305,080	285,918	-0,027	0,035
-304,066	789,595	0,057	0,113
-303,051	800,000	-0,111	-0,262
-302,037	-3,713	-0,045	-0,022
-301,022	77,655	0,087	0,066
-300,008	800,000	0,014	0,040
-298,993	47,220	0,152	0,100
-297,978	-151,398	0,171	-0,009
-296,964	36,084	-0,089	0,055
-295,949	-91,723	0,136	-0,027
-294,935	442,249	-0,066	-0,103
-293,920	253,132	0,074	0,090
-292,905	-53,522	0,201	-0,065
-291,891	635,066	0,026	0,047
-290,876	33,398	0,128	-0,079
-289,862	-200,000	0,030	-0,103
-288,847	495,458	-0,071	0,117
-287,832	800,000	-0,039	0,080
-286,818	-137,625	-0,089	-0,007
-285,803	55,342	0,101	-0,069
-284,789	-200,000	0,000	0,025
-283,774	515,989	-0,079	0,132
-282,759	59,817	-0,023	-0,016
-281,745	73,421	0,107	-0,080
-280,730	14,282	0,092	0,051
-279,716	651,449	0,077	-0,141
-278,701	-200,000	0,028	-0,106
-277,686	130,942	-0,107	0,097
-276,672	-200,000	0,039	0,134
-275,657	-200,000	-0,058	0,188
-274,643	-80,302	-0,119	0,028
-273,628	43,902	-0,086	-0,056
-272,613	400,945	0,052	-0,078
-271,599	-138,037	0,209	0,016
-270,584	19,888	-0,052	0,030
-269,570	680,477	-0,039	0,072
-268,555	800,000	0,015	0,039
-267,540	-200,000	0,013	-0,101
-266,526	246,696	-0,047	-0,057
-265,511	-200,000	-0,020	0,094
-264,497	-200,000	0,013	-0,045
-263,482	-37,411	0,065	-0,025
-262,467	105,298	0,076	0,064
-261,453	-15,528	-0,048	-0,022
-260,438	800,000	-0,066	-0,144
-259,424	56,353	-0,100	-0,069
-258,409	-6,495	-0,086	-0,041
-257,395	136,012	0,036	-0,033
-256,380	-9,388	0,067	0,032
-255,365	-200,000	-0,036	0,137
-254,351	800,000	0,033	0,083
-253,336	765,661	-0,044	0,085
-252,322	-200,000	-0,019	-0,109
-251,307	-52,013	0,142	0,047
-250,292	83,813	0,098	0,076
-249,278	-200,000	-0,020	-0,066
-248,263	-200,000	0,005	-0,060
-247,249	-143,564	-0,129	-0,009
-246,234	-38,464	-0,071	-0,026
-245,219	352,234	-0,077	-0,109
-244,205	800,000	-0,034	-0,070
-243,190	-200,000	0,023	-0,088
-242,176	800,000	0,019	0,053
-241,161	800,000	-0,019	0,045
-240,146	126,976	0,018	0,016
-239,132	100,347	-0,103	-0,085
-238,117	-153,781	-0,086	-0,004
-237,103	-37,948	0,060	-0,023
-236,088	-200,000	0,015	0,173
-235,073	421,177	0,051	0,078
-234,059	800,000	0,076	0,217
-233,044	-73,511	-0,147	0,038
-232,030	-23,847	0,091	-0,039
-231,015	-200,000	-0,019	-0,068
-230,000	-42,576	-0,038	-0,014
-228,986	58,965	-0,060	0,042
-227,971	-200,000	-0,000	-0,011
-226,957	443,971	0,049	0,076
-225,942	96,549	-0,069	-0,056
-224,927	-58,385	-0,105	0,032
-223,913	71,004	0,028	-0,021
-222,898	6,332	0,049	0,026
-221,884	-200,000	-0,010	-0,152
-220,869	800,000	0,031	-0,065
-219,855	-116,280	-0,025	-0,003
-218,840	800,000	-0,053	-0,105
-217,825	-200,000	-0,016	0,108
-216,811	-90,392	-0,061	-0,012
-215,796	35,931	-0,049	-0,031
-214,782	173,852	-0,053	-0,054
-213,767	-200,000	0,005	0,065
-212,752	523,840	-0,119	0,199
-211,738	800,000	-0,071	0,153
-210,723	86,830	0,062	0,048
-209,709	800,000	0,016	-0,034
-208,694	62,256	-0,181	0,128
-207,679	-200,000	-0,031	-0,124
-206,665	-200,000	0,003	-0,043
-205,650	374,007	0,058	-0,084
-204,636	97,837	0,086	-0,070
-203,621	-83,101	-0,101	-0,023
-202,606	156,362	-0,044	-0,043
-201,592	87,155	0,148	-0,116
-200,577	-200,000	0,007	0,055
-199,563	800,000	-0,020	-0,060
-198,548	-57,031	0,045	0,014
-197,533	-200,000	0,024	-0,104
-196,519	-200,000	-0,016	0,074
-195,504	-99,761	0,041	-0,007
-194,490	-150,935	-0,163	-0,009
-193,475	-153,359	0,138	0,007
-192,460	-141,579	-0,096	0,007
-191,446	-130,214	0,223	-0,021
-190,431	-96,002	0,077	-0,014
-189,417	-200,000	0,002	0,086
-188,402	800,000	-0,031	-0,082
-187,387	800,000	-0,062	-0,132
-186,373	-106,784	-0,031	0,005
-185,358	800,000	-0,037	0,074
-184,344	680,437	0,090	0,167
-183,329	-200,000	0,037	0,140
-182,315	-200,000	-0,001	-0,112
-181,300	65,768	0,114	0,082
-180,285	-200,000	-0,040	-0,193
-179,271	37,680	-0,096	0,060
-178,256	-200,000	0,016	0,070
-177,242	-95,763	-0,093	-0,017
-176,227	-135,172	0,214	0,018
-175,212	-138,394	0,134	0,010
-174,198	190,324	-0,078	-0,083
-173,183	184,192	-0,077	-0,081
-172,169	-21,730	-0,059	-0,025
-171,154	-200,000	-0,007	0,069
-170,139	144,817	0,067	0,063
-169,125	-200,000	0,014	0,149
-168,110	800,000	-0,065	-0,153
-167,096	-26,827	-0,042	-0,017
-166,081	429,758	-0,038	-0,059
-165,066	129,486	0,065	-0,059
-164,052	67,920	-0,050	-0,036
-163,037	-200,000	0,039	0,146
-162,023	-184,553	-0,092	-0,001
-161,008	-200,000	-0,006	0,099
-159,993	-200,000	0,010	-0,048
-158,979	-131,126	0,015	-0,001
-157,964	617,865	-0,044	-0,079
-156,950	210,374	-0,091	-0,101
-155,935	275,136	-0,076	0,095
-154,920	32,457	0,130	0,080
-153,906	127,144	0,060	-0,054
-152,891	-200,000	-0,013	0,133
-151,877	-200,000	0,013	0,143
-150,862	-57,453	-0,034	0,011
-149,847	240,443	-0,088	0,104
-148,833	766,916	0,042	-0,082
-147,818	-200,000	0,026	0,152
-146,804	800,000	0,055	0,131
-145,789	1,997	-0,115	0,059
-144,775	-200,000	-0,004	-0,108
-143,760	-64,672	0,048	-0,014
-142,745	-116,423	0,050	-0,006
-141,731	-9,150	0,041	0,019
-140,716	800,000	0,067	0,138
-139,702	74,842	0,049	0,037
-138,687	282,617	-0,068	0,086
-137,672	64,015	0,045	-0,032
-136,658	-200,000	0,011	-0,084
-135,643	358,683	-0,032	0,046
-134,629	-116,034	0,021	-0,003
-133,614	-200,000	-0,019	0,140
-132,599	-200,000	-0,011	0,090
-131,585	800,000	-0,015	0,037
-130,570	-200,000	0,005	-0,045
-129,556	307,774	0,023	-0,031
-128,541	-200,000	0,009	-0,051
-127,526	-200,000	0,015	0,100
-126,512	800,000	0,021	-0,052
-125,497	64,158	0,125	0,089
-124,483	-200,000	0,022	0,126
-123,468	-124,410	-0,067	-0,007
-122,453	-200,000	0,004	0,046
-121,439	147,891	-0,152	-0,145
-120,424	-40,102	-0,040	-0,015
-119,410	-200,000	0,023	0,101
-118,395	-200,000	-0,022	0,097
-117,380	-167,931	0,117	0,003
-116,366	-53,244	-0,173	0,056
-115,351	-28,166	0,123	0,050
-114,337	800,000	-0,027	0,055
-113,322	263,919	-0,034	-0,042
-112,307	101,691	-0,081	0,067
-111,293	172,582	0,029	-0,029
-110,278	800,000	0,059	-0,130
-109,264	49,995	0,125	0,083
-108,249	288,269	0,079	-0,101
-107,234	-200,000	0,011	0,058
-106,220	-33,575	-0,058	-0,023
-105,205	-94,194	0,050	0,010
-104,191	-200,000	-0,005	0,036
-103,176	-32,465	0,032	-0,013
-102,162	48,920	0,091	-0,060
-101,147	27,437	-0,051	-0,030
-100,132	364,985	0,018	-0,026
-99,118	800,000	0,029	-0,080
-98,103	508,874	0,063	0,105
-97,089	-200,000	0,006	0,072
-96,074	800,000	0,026	-0,069
-95,059	51,049	0,120	0,080
-94,045	-200,000	-0,023	-0,125
-93,030	-200,000	-0,009	-0,098
-92,016	-125,659	-0,095	0,010
-91,001	800,000	0,031	-0,066
-89,986	-16,397	0,029	0,013
-88,972	104,706	0,179	0,149
-87,957	731,550	-0,034	0,064
-86,943	-96,708	-0,070	0,013
-85,928	-200,000	0,001	0,041
-84,913	46,105	-0,098	0,064
-83,899	-200,000	0,005	0,052
-82,884	199,335	0,097	0,105
-81,870	800,000	0,014	0,027
-80,855	-185,523	0,036	0,000
-79,840	-200,000	-0,005	-0,039
-78,826	800,000	0,056	-0,140
-77,811	-92,784	-0,051	-0,010
-76,797	-200,000	0,012	-0,056
-75,782	141,220	-0,028	0,026
-74,767	800,000	-0,020	0,044
-73,753	-200,000	0,012	0,081
-72,738	-145,757	-0,032	-0,002
-71,724	-85,736	-0,099	-0,021
-70,709	749,871	0,058	-0,112
-69,694	18,448	-0,137	-0,077
-68,680	800,000	-0,039	-0,121
-67,665	6,151	0,105	0,055
-66,651	317,127	0,115	0,154
-65,636	-142,961	-0,119	-0,008
-64,622	800,000	0,032	-0,070
-63,607	297,299	-0,061	-0,079
-62,592	306,087	0,040	-0,052
-61,578	800,000	0,043	-0,130
-60,563	544,161	-0,018	0,031
-59,549	243,025	0,034	0,041
-58,534	39,501	-2,056	-1,298
-57,519	546,848	-1,202	-2,037
-56,505	-200,000	-0,242	-4,337
-55,490	552,204	0,959	1,632
-54,476	800,000	5,200	11,215
-53,461	-200,000	21,616	344,929
-52,446	800,000	763,474	2345,300
-51,432	547,512	1662,701	2819,640
-50,417	71,625	1659,338	1215,248
-49,403	17,276	1532,733	856,067
-48,388	11,363	1456,429	784,872
-47,373	19,441	1448,183	819,131
-46,359	14,907	1437,004	791,240
-45,344	9,642	1432,881	763,889
-44,330	9,634	1430,889	762,759
-43,315	9,591	1429,149	761,596
-42,300	9,575	1427,453	760,589
-41,286	9,625	1426,117	760,081
-40,271	9,566	1425,031	759,192
-39,257	9,527	1423,760	758,303
-38,242	9,598	1422,740	758,067
-37,227	9,627	1421,600	757,562
-36,213	9,578	1420,240	756,580
-35,198	9,579	1419,089	755,939
-34,184	9,658	1418,005	755,707
-33,169	9,546	1416,676	754,439
-32,154	9,590	1415,901	754,201
-31,140	9,611	1414,347	753,444
-30,125	9,636	1413,382	753,016
-29,111	9,600	1412,257	752,221
-28,096	9,577	1411,033	751,428
-27,082	9,552	1409,785	750,619
-26,067	9,518	1408,971	749,993
-25,052	9,611	1407,838	749,799
-24,038	9,554	1406,931	749,017
-23,023	9,577	1405,901	748,549
-22,009	9,531	1404,871	747,754
-20,994	9,539	1403,831	747,209
-19,979	9,576	1402,761	746,781
-18,965	9,519	1402,040	746,106
-17,950	9,546	1401,176	745,739
-16,936	9,487	1400,282	744,962
-15,921	9,444	1399,257	744,186
-14,906	9,452	1398,699	743,896
-13,892	9,548	1397,197	743,514
-12,877	9,528	1396,582	743,063
-11,863	9,461	1395,835	742,328
-10,848	9,435	1394,806	741,630
-9,833	9,406	1394,102	741,089
-8,819	9,362	1393,196	740,374
-7,804	9,332	1392,146	739,650
-6,790	9,347	1391,028	739,093
-5,775	9,329	1390,174	738,530
-4,760	9,374	1389,010	738,089
-3,746	9,393	1388,232	737,735
-2,731	9,355	1387,332	737,051
-1,717	9,389	1386,562	736,770
-0,702	9,340	1384,714	735,532
0,313	13,349	1297,125	707,323
1,327	29,457	687,740	411,436
2,342	46,250	118,926	77,586
3,356	2,123	16,436	8,346
4,371	3,048	3,665	1,872
5,386	14,455	1,109	0,609
6,400	790,092	0,314	0,612
7,415	686,271	-0,057	-0,106
8,429	221,678	-0,254	-0,288
9,444	-132,327	-0,313	-0,028
10,459	-145,944	-0,261	0,016
11,473	81,783	-0,319	-0,243
12,488	-111,353	-0,280	-0,040
13,502	-63,583	-0,354	-0,102
14,517	-110,707	-0,317	-0,046
15,531	19,868	-0,369	-0,209
16,546	149,727	-0,280	-0,268
17,561	153,850	-0,287	-0,277
18,575	-122,034	-0,228	0,026
19,590	322,813	-0,176	-0,237
20,604	187,625	-0,253	-0,267
21,619	43,360	-0,388	-0,249
22,634	107,654	-0,441	-0,370
23,648	-58,973	-0,430	-0,130
24,663	90,571	-0,383	-0,302
25,677	-27,612	-0,484	-0,197
26,692	4,845	-0,272	-0,140
27,707	-106,831	-0,348	-0,054
28,721	35,269	-0,307	-0,189
29,736	10,186	-0,427	-0,228
30,750	20,744	-0,451	-0,256
31,765	104,559	-0,405	-0,336
32,780	-34,817	-0,404	-0,154
33,794	-52,271	-0,404	-0,131
34,809	35,121	-0,336	-0,207
35,823	44,267	-0,355	-0,228
36,838	207,006	-0,289	-0,317
37,853	113,403	-0,223	-0,190
38,867	-32,374	-0,477	-0,186
39,882	17,513	-0,449	-0,250
40,896	91,066	-0,266	-0,210
41,911	52,205	-0,374	-0,250
42,926	33,967	-0,392	-0,240
43,940	57,278	-0,290	-0,199
44,955	473,393	-0,169	-0,268
45,969	80,750	-0,334	-0,253
46,984	384,768	-0,301	-0,438
47,999	130,453	-0,298	-0,268
49,013	3,840	-0,314	-0,161
50,028	84,628	-0,380	-0,292
51,042	32,473	-0,229	-0,138
52,057	127,759	-0,385	-0,343
53,071	25,730	-0,231	-0,135
54,086	41,178	-0,391	-0,248
55,101	54,235	-0,347	-0,234
56,115	179,252	-0,255	-0,262
57,130	25,863	-0,465	-0,271
58,144	103,026	-0,337	-0,277
59,159	79,551	-0,381	-0,287
60,174	361,949	-0,282	-0,398
61,188	8,197	-0,448	-0,235
62,203	384,378	-0,236	-0,342
63,217	46,181	-0,316	-0,205
64,232	33,988	-0,289	-0,176
65,247	-39,172	-0,368	-0,135
66,261	42,014	-0,383	-0,243
67,276	58,000	-0,333	-0,229
68,290	-41,987	-0,367	-0,131
69,305	38,481	-0,302	-0,188
70,320	-46,296	-0,267	-0,091
71,334	32,947	-0,320	-0,194
72,349	5,078	-0,249	-0,128
73,363	27,568	-0,296	-0,174
74,378	272,526	-0,229	-0,284
75,393	89,336	-0,213	-0,166
76,407	-95,997	-0,231	-0,043
77,422	-31,952	-0,241	-0,094
78,436	-90,322	-0,252	-0,051
79,451	-55,006	-0,426	-0,134
80,466	92,161	-0,278	-0,219
81,480	-32,069	-0,369	-0,144
82,495	-74,761	-0,408	-0,102
83,509	-50,442	-0,264	-0,087
84,524	282,582	-0,159	-0,201
85,539	87,127	-0,355	-0,275
86,553	216,738	-0,233	-0,260
87,568	145,605	-0,258	-0,242
88,582	65,927	-0,347	-0,246
89,597	61,189	-0,280	-0,194
90,611	-19,930	-0,278	-0,119
91,626	155,556	-0,270	-0,261
92,641	442,105	-0,157	-0,242
93,655	-39,539	-0,349	-0,127
94,670	41,680	-0,303	-0,192
95,684	51,855	-0,251	-0,167
96,699	-27,593	-0,314	-0,127
97,714	86,087	-0,335	-0,258
98,728	18,757	-0,271	-0,151
99,743	157,433	-0,211	-0,204
100,757	83,160	-0,367	-0,279
101,772	320,806	-0,191	-0,254
102,787	84,388	-0,315	-0,241
103,801	195,454	-0,235	-0,250
104,816	156,756	-0,197	-0,191
105,830	173,814	-0,193	-0,195
106,845	189,124	-0,158	-0,165
107,860	744,285	-0,129	-0,244
108,874	88,395	-0,294	-0,228
109,889	-81,003	-0,358	-0,082
110,903	34,054	-0,266	-0,161
111,918	150,099	-0,201	-0,191
112,933	137,733	-0,210	-0,192
113,947	437,648	-0,161	-0,246
114,962	21,079	-0,279	-0,157
115,976	-63,538	-0,238	-0,068
116,991	66,159	-0,208	-0,147
118,006	129,120	-0,360	-0,321
119,020	156,598	-0,184	-0,177
120,035	112,630	-0,258	-0,218
121,049	285,365	-0,202	-0,254
122,064	-97,006	-0,299	-0,054
123,079	105,659	-0,355	-0,293
124,093	185,240	-0,286	-0,296
125,108	28,847	-0,284	-0,167
126,122	315,769	-0,188	-0,249
127,137	31,960	-0,289	-0,173
128,151	79,389	-0,267	-0,199
129,166	308,880	-0,149	-0,195
130,181	-69,658	-0,335	-0,089
131,195	117,633	-0,221	-0,190
132,210	-13,966	-0,320	-0,144
133,224	67,154	-0,195	-0,138
134,239	-54,814	-0,145	0,045
135,254	193,879	-0,223	-0,236
136,268	-28,856	-0,222	-0,088
137,283	246,934	-0,169	-0,199
138,297	395,097	-0,145	-0,212
139,312	85,253	-0,343	-0,262
140,327	158,975	-0,328	-0,318
141,341	158,470	-0,181	-0,175
142,356	-200,000	-0,024	-0,151
143,370	77,246	-0,339	-0,251
144,385	800,000	-0,138	-0,280
145,400	157,784	-0,248	-0,239
146,414	0,306	-0,297	-0,147
147,429	50,529	-0,176	-0,116
148,443	512,808	-0,167	-0,272
149,458	74,077	-0,240	-0,175
150,473	396,218	-0,140	-0,204
151,487	-81,407	-0,356	-0,081
152,502	-42,523	-0,303	-0,107
153,516	95,993	-0,186	-0,148
154,531	-85,035	-0,263	-0,057
155,546	-104,636	-0,362	-0,057
156,560	150,484	-0,174	-0,164
157,575	75,879	-0,250	-0,184
158,589	-111,582	-0,282	0,039
159,604	5,173	-0,143	-0,073
160,619	69,454	-0,227	-0,162
161,633	-60,040	-0,251	-0,074
162,648	-200,000	-0,016	-0,091
163,662	-101,517	-0,215	0,036
164,677	28,905	-0,253	-0,149
165,692	-118,609	-0,200	-0,024
166,706	22,783	-0,216	-0,123
167,721	800,000	-0,148	-0,363
168,735	-180,290	-0,232	0,003
169,750	57,162	-0,198	-0,134
170,764	148,897	-0,199	-0,187
171,779	51,469	-0,309	-0,204
172,794	14,583	-0,162	-0,088
173,808	27,427	-0,317	-0,185
174,823	168,749	-0,224	-0,222
175,837	748,055	-0,130	-0,245
176,852	393,616	-0,251	-0,364
177,867	43,224	-0,230	-0,145
178,881	-140,279	-0,174	-0,012
179,896	439,382	-0,139	-0,212
180,910	-6,119	-0,269	-0,127
181,925	411,248	-0,167	-0,246
182,940	165,417	-0,238	-0,234
183,954	91,867	-0,134	-0,105
184,969	-23,470	-0,189	-0,079
185,983	800,000	-0,111	-0,247
186,998	772,329	-0,125	-0,238
188,013	-144,769	-0,083	-0,005
189,027	10,208	-0,228	-0,120
190,042	214,927	-0,143	-0,157
191,056	-146,683	-0,171	-0,010
192,071	-88,296	-0,096	-0,020
193,086	424,728	-0,139	-0,208
194,100	189,327	-0,178	-0,185
195,115	756,505	-0,082	-0,154
196,129	800,000	-0,155	-0,376
197,144	197,046	-0,331	-0,350
198,159	-121,811	-0,211	-0,024
199,173	301,932	-0,150	-0,193
200,188	-115,459	-0,151	-0,020
201,202	185,859	-0,193	-0,199
202,217	-38,859	-0,225	-0,082
203,232	-193,365	-0,138	0,001
204,246	641,288	-0,191	-0,339
205,261	28,106	-0,308	-0,180
206,275	11,551	-0,140	-0,074
207,290	194,788	-0,129	-0,136
208,304	-117,901	-0,193	-0,024
209,319	-111,067	-0,211	0,030
210,334	30,881	-0,158	-0,093
211,348	87,811	-0,249	-0,191
212,363	291,121	-0,171	-0,216
213,377	338,478	-0,127	-0,171
214,392	36,970	-0,321	-0,196
215,407	800,000	-0,078	-0,189
216,421	211,296	-0,138	-0,151
217,436	530,910	-0,194	-0,318
218,450	-55,685	-0,314	-0,097
219,465	194,452	-0,211	-0,222
220,480	665,805	-0,054	-0,096
221,494	319,779	-0,105	-0,139
222,509	59,969	-0,088	-0,060
223,523	0,441	-0,242	-0,119
224,538	-101,969	-0,158	-0,026
225,553	226,843	-0,220	-0,247
226,567	118,262	-0,201	-0,172
227,582	11,494	-0,153	-0,081
228,596	2,406	-0,095	-0,048
229,611	242,584	-0,143	-0,166
230,626	-200,000	-0,004	-0,037
231,640	386,701	-0,071	-0,102
232,655	-36,760	-0,200	-0,074
233,669	-1,282	-0,317	-0,154
234,684	261,759	-0,141	-0,169
235,699	52,713	-0,228	-0,150
236,713	240,563	-0,170	-0,196
237,728	73,301	-0,138	-0,100
238,742	800,000	-0,078	-0,152
239,757	102,070	-0,264	-0,213
240,772	345,654	-0,145	-0,198
241,786	211,182	-0,235	-0,256
242,801	-12,635	-0,241	-0,108
243,815	-200,000	-0,028	-0,148
244,830	-124,507	-0,243	-0,026
245,844	29,790	-0,135	-0,079
246,859	83,537	-0,277	-0,208
247,874	243,201	-0,144	-0,167
248,888	-27,980	-0,216	-0,086
249,903	-94,847	-0,239	-0,044
250,917	172,744	-0,157	-0,156
251,932	190,774	-0,066	-0,068
252,947	-200,000	-0,024	-0,087
253,961	28,418	-0,297	-0,173
254,976	-42,066	-0,268	-0,094
255,990	136,515	-0,133	-0,120
257,005	53,042	-0,160	-0,105
258,020	-89,303	-0,207	-0,042
259,034	485,634	-0,090	-0,142
260,049	386,567	-0,130	-0,186
261,063	-18,046	-0,107	-0,046
262,078	800,000	-0,086	-0,173
263,093	5,717	-0,064	-0,032
264,107	-125,670	-0,225	-0,023
265,122	-85,416	-0,095	-0,020
266,136	-86,475	-0,335	-0,070
267,151	-98,204	-0,148	-0,026
268,166	128,875	-0,172	-0,151
269,180	385,879	-0,164	-0,234
270,195	564,267	-0,089	-0,150
271,209	-200,000	-0,060	-0,279
272,224	-147,540	-0,137	-0,008
273,239	215,198	-0,026	0,028
274,253	13,223	-0,168	-0,089
275,268	-88,955	-0,125	0,025
276,282	67,564	-0,164	-0,115
277,297	-58,456	-0,194	-0,058
278,312	-200,000	-0,061	-0,253
279,326	332,012	-0,033	-0,044
280,341	-44,826	-0,202	-0,069
281,355	12,385	-0,188	-0,099
282,370	-46,945	-0,152	-0,051
283,384	183,588	-0,083	-0,085
284,399	347,054	-0,115	-0,156
285,414	87,695	-0,221	-0,168
286,428	192,907	-0,139	-0,145
287,443	800,000	-0,020	-0,056
288,457	-140,645	-0,165	0,012
289,472	-69,253	-0,162	-0,043
290,487	228,701	-0,140	-0,157
291,501	-147,818	-0,057	-0,003
292,516	58,633	-0,235	-0,159
293,530	432,713	-0,122	-0,183
294,545	15,397	-0,151	0,081
295,560	204,598	-0,196	-0,209
296,574	28,881	-0,115	-0,067
297,589	132,951	-0,172	-0,153
298,603	58,796	-0,132	-0,089
299,618	-81,161	-0,131	-0,030
300,633	-124,548	-0,171	0,018
301,647	144,863	-0,111	-0,102
302,662	-100,908	-0,061	0,010
303,676	-115,408	-0,163	-0,021
304,691	-60,846	-0,210	-0,061
305,706	-40,856	-0,256	-0,090
306,720	-23,605	-0,242	-0,099
307,735	-200,000	-0,023	-0,083
308,749	-13,380	-0,102	-0,045
309,764	-51,452	-0,213	0,068
310,779	62,088	-0,103	-0,071
311,793	81,853	-0,208	-0,154
312,808	395,775	-0,088	-0,126
313,822	69,991	-0,145	-0,103
314,837	733,352	-0,117	-0,216
315,852	40,047	-0,260	-0,160
316,866	-161,211	-0,254	-0,009
317,881	18,342	-0,061	-0,033
318,895	131,129	-0,123	-0,109
319,910	25,071	-0,192	-0,109
320,925	-179,328	-0,208	0,003
321,939	800,000	-0,056	-0,113
322,954	-12,755	-0,133	-0,059
323,968	-6,856	-0,107	-0,050
324,983	77,428	-0,140	-0,102
325,997	-126,667	-0,150	0,015
327,012	119,740	-0,063	-0,054
328,027	-138,808	-0,144	0,011
329,041	-200,000	-0,006	-0,034
330,056	-3,314	-0,192	-0,091
331,070	71,088	-0,071	0,050
332,085	13,078	-0,118	-0,063
333,100	80,936	-0,131	-0,097
334,114	800,000	-0,102	-0,201
335,129	-76,480	-0,169	-0,040
336,143	-12,986	-0,120	-0,053
337,158	114,735	-0,096	-0,080
338,173	96,761	-0,042	-0,033
339,187	-6,704	-0,168	-0,078
340,202	40,431	-0,161	-0,099
341,216	95,712	-0,197	-0,153
342,231	89,626	-0,034	-0,026
343,246	141,473	-0,136	-0,123
344,260	-40,598	-0,210	-0,074
345,275	175,156	-0,161	-0,160
346,289	-200,000	-0,004	-0,158
347,304	-143,014	-0,135	0,009
348,319	-27,602	-0,205	-0,081
349,333	144,952	-0,123	-0,112
350,348	-159,153	-0,143	-0,005
351,362	182,522	-0,188	-0,190
352,377	79,952	-0,194	-0,143
353,392	486,695	-0,102	-0,160
354,406	-73,966	-0,104	-0,026
355,421	207,077	1308,781	1397,017
356,435	159,283	1468,742	1397,483
