DTS Sentinel unit serial number:	SN410029Multiplexer serial number:	ORYXHardware model number:	OX2-SRSoftware version number:	ORYX F/W v4,00 Oryx Data Collector v3.7.2.0data status	okinstallation	B3 Nyhavnadifferential loss correction	single-endedforward channel	channel 1reverse channel	N/Adate	2023/12/02time	02:17:30forward acquisition time	300,00reverse acquisition time	0,00gamma	499,1914k internal	0,3194k external	0,3194temperature offset calibration	1,0000default loss term (dB/km)	0,3820temperature slope calibration	1,0000multiplexer offset coefficient	1,0000multiplexer slope coefficient	1,0000fibre end	0,00T internal ref (°C)	16,63T ext. ref 1 (°C)	1,91T ext. ref 2 (°C)	1,91length (m)	temperature (°C)	Stokes	anti-Stokes-744,400	144,417	-0,239	-0,233
-743,385	-200,000	0,035	0,236
-742,371	44,643	-0,322	-0,215
-741,356	800,000	0,082	0,250
-740,342	800,000	-0,091	-0,251
-739,327	306,848	0,189	0,257
-738,312	212,133	-0,237	-0,273
-737,298	-200,000	-0,089	0,311
-736,283	-25,737	-0,243	-0,104
-735,269	-200,000	0,090	0,476
-734,254	715,184	-0,154	-0,298
-733,239	800,000	-0,142	0,287
-732,225	-200,000	-0,028	-0,236
-731,210	800,000	0,044	0,095
-730,196	-33,638	0,049	0,020
-729,181	-37,234	0,055	0,021
-728,167	409,952	-0,032	-0,050
-727,152	547,372	0,093	0,162
-726,137	-27,045	-0,084	0,035
-725,123	501,683	-0,078	-0,132
-724,108	-96,398	-0,125	-0,024
-723,094	-59,304	-0,133	-0,041
-722,079	207,008	-0,032	0,037
-721,064	-20,254	-0,052	-0,023
-720,050	-48,125	0,149	0,052
-719,035	46,326	0,043	0,029
-718,021	-70,861	-0,122	-0,033
-717,006	-200,000	0,042	0,153
-715,991	-106,108	0,003	0,001
-714,977	-200,000	-0,025	-0,087
-713,962	147,763	-0,121	-0,119
-712,948	-200,000	-0,008	0,082
-711,933	800,000	-0,009	-0,026
-710,918	309,411	-0,095	-0,129
-709,904	800,000	-0,042	-0,101
-708,889	-200,000	0,015	-0,122
-707,875	44,167	-0,151	-0,101
-706,860	2,766	0,010	0,005
-705,845	238,522	0,068	0,083
-704,831	479,601	0,032	0,054
-703,816	-200,000	-0,001	-0,085
-702,802	-40,352	-0,068	-0,026
-701,787	72,464	-0,105	-0,080
-700,772	768,560	0,044	-0,087
-699,758	309,453	0,046	-0,063
-698,743	800,000	-0,025	0,069
-697,729	-116,942	-0,058	0,008
-696,714	-200,000	0,025	-0,084
-695,699	511,451	0,041	-0,070
-694,685	800,000	-0,097	0,216
-693,670	-154,064	-0,178	0,009
-692,656	-200,000	-0,019	-0,189
-691,641	-3,915	-0,074	0,037
-690,627	-92,385	-0,048	-0,010
-689,612	-128,136	0,091	-0,009
-688,597	-78,731	-0,046	0,011
-687,583	557,022	0,018	-0,032
-686,568	-200,000	-0,040	-0,140
-685,554	87,608	-0,042	-0,034
-684,539	-200,000	-0,002	-0,034
-683,524	162,808	-0,063	-0,064
-682,510	-108,148	0,101	-0,016
-681,495	0,837	-0,103	-0,053
-680,481	49,824	-0,100	0,069
-679,466	-200,000	0,035	-0,118
-678,451	-200,000	0,034	-0,200
-677,437	201,005	0,123	-0,137
-676,422	-173,902	0,034	-0,001
-675,408	203,754	-0,048	0,055
-674,393	6,978	0,058	-0,031
-673,378	280,997	-0,121	-0,157
-672,364	581,328	-0,038	-0,068
-671,349	800,000	-0,051	-0,161
-670,335	-200,000	0,005	0,042
-669,320	-200,000	0,000	-0,034
-668,305	-32,903	-0,180	0,072
-667,291	800,000	-0,035	-0,084
-666,276	68,617	-0,071	-0,053
-665,262	-200,000	0,012	-0,057
-664,247	800,000	-0,058	-0,167
-663,232	209,144	0,079	-0,090
-662,218	348,535	0,106	0,153
-661,203	-13,900	0,088	-0,041
-660,189	92,897	-0,065	-0,053
-659,174	131,950	-0,053	-0,049
-658,159	800,000	-0,005	-0,012
-657,145	-111,886	-0,086	0,012
-656,130	-127,544	0,064	0,007
-655,116	364,500	-0,032	-0,047
-654,101	7,273	0,104	0,056
-653,086	-108,983	-0,019	-0,003
-652,072	37,585	-0,067	0,043
-651,057	103,942	-0,024	0,020
-650,043	748,679	-0,042	0,082
-649,028	183,067	-0,098	0,106
-648,014	36,766	0,140	0,090
-646,999	411,092	0,056	0,086
-645,984	286,016	0,034	0,044
-644,970	177,035	0,019	-0,020
-643,955	-200,000	0,003	-0,068
-642,941	-200,000	0,013	-0,072
-641,926	-200,000	0,010	-0,070
-640,911	-12,549	-0,134	-0,063
-639,897	-87,914	0,153	-0,033
-638,882	-200,000	-0,016	-0,054
-637,868	-56,023	0,038	-0,012
-636,853	384,948	-0,053	-0,079
-635,838	-29,161	0,051	-0,021
-634,824	-20,328	0,089	-0,040
-633,809	-119,730	0,111	0,014
-632,795	62,725	0,096	0,070
-631,780	-200,000	0,007	0,039
-630,765	86,563	0,039	-0,031
-629,751	333,979	-0,088	-0,124
-628,736	731,724	-0,021	-0,040
-627,722	-11,380	-0,100	-0,048
-626,707	-163,399	0,128	0,004
-625,692	-104,342	0,090	0,015
-624,678	-72,162	-0,173	0,046
-623,663	30,032	0,034	-0,021
-622,649	800,000	0,046	-0,126
-621,634	-96,298	-0,085	0,016
-620,619	800,000	-0,085	-0,198
-619,605	19,481	-0,043	-0,025
-618,590	-102,918	-0,080	0,014
-617,576	-200,000	0,058	0,219
-616,561	-127,138	-0,073	0,008
-615,546	-24,299	0,007	-0,003
-614,532	-32,566	-0,181	0,073
-613,517	64,334	0,046	0,033
-612,503	-34,854	0,120	-0,047
-611,488	612,809	0,054	-0,098
-610,474	672,618	0,103	0,194
-609,459	26,202	-0,050	-0,030
-608,444	86,501	0,008	-0,006
-607,430	165,184	-0,019	0,019
-606,415	-0,335	-0,026	-0,013
-605,401	-96,465	-0,132	-0,025
-604,386	520,198	0,044	-0,075
-603,371	64,003	0,068	-0,050
-602,357	200,321	0,077	0,086
-601,342	-169,045	-0,055	-0,001
-600,328	-85,526	-0,197	-0,044
-599,313	-60,139	-0,069	-0,021
-598,298	-50,736	-0,064	-0,022
-597,284	800,000	-0,054	0,157
-596,269	-37,224	-0,056	-0,022
-595,255	-97,833	0,025	0,005
-594,240	21,261	0,072	0,042
-593,225	143,010	-0,077	-0,074
-592,211	40,348	-0,089	0,058
-591,196	800,000	0,047	-0,100
-590,182	-200,000	0,011	-0,102
-589,167	-200,000	-0,006	0,054
-588,152	800,000	-0,016	0,036
-587,138	47,688	-0,024	-0,016
-586,123	-36,507	-0,092	-0,036
-585,109	338,341	-0,016	-0,022
-584,094	113,268	-0,088	-0,077
-583,079	292,431	0,111	0,147
-582,065	-200,000	0,001	-0,026
-581,050	-77,601	0,027	0,007
-580,036	256,001	-0,078	0,097
-579,021	-200,000	-0,016	0,075
-578,006	800,000	-0,020	0,042
-576,992	159,350	-0,045	0,046
-575,977	-193,617	-0,074	0,000
-574,963	140,506	0,097	-0,093
-573,948	9,997	-0,054	0,029
-572,934	56,282	-0,018	0,013
-571,919	430,490	-0,045	-0,070
-570,904	346,239	-0,021	-0,030
-569,890	-37,078	-0,081	-0,031
-568,875	-106,462	0,042	-0,007
-567,861	702,524	-0,020	0,038
-566,846	88,800	0,050	0,040
-565,831	-170,805	-0,181	-0,004
-564,817	154,096	0,023	0,023
-563,802	-50,855	0,014	-0,005
-562,788	277,982	0,048	-0,062
-561,773	329,524	-0,048	-0,067
-560,758	45,479	0,092	0,061
-559,744	-38,715	-0,091	-0,034
-558,729	-127,807	0,115	0,012
-557,715	-150,689	-0,134	0,007
-556,700	-62,093	0,102	-0,031
-555,685	-200,000	0,013	-0,165
-554,671	800,000	0,062	0,178
-553,656	800,000	0,024	0,064
-552,642	667,064	0,055	0,104
-551,627	124,987	0,030	0,027
-550,612	481,017	-0,060	-0,099
-549,598	-200,000	0,015	0,072
-548,583	107,091	-0,038	-0,033
-547,569	-200,000	0,030	-0,139
-546,554	102,764	-0,009	0,008
-545,539	443,103	-0,090	0,144
-544,525	556,722	-0,134	0,235
-543,510	-200,000	0,011	-0,089
-542,496	-95,357	-0,145	-0,028
-541,481	-200,000	-0,007	0,103
-540,466	-50,482	0,059	-0,020
-539,452	17,946	0,070	-0,040
-538,437	18,917	0,031	0,018
-537,423	-200,000	-0,003	0,139
-536,408	136,844	-0,140	0,132
-535,393	318,974	-0,026	-0,036
-534,379	65,997	-0,123	-0,090
-533,364	-200,000	-0,011	-0,238
-532,350	87,590	0,141	-0,113
-531,335	-74,969	-0,008	0,002
-530,321	44,875	0,117	-0,078
-529,306	723,416	-0,040	-0,078
-528,291	19,503	0,063	-0,036
-527,277	-161,860	-0,171	-0,006
-526,262	542,668	0,057	0,099
-525,248	-200,000	0,012	0,085
-524,233	800,000	-0,020	-0,046
-523,218	-144,479	-0,126	-0,008
-522,204	-132,402	0,156	0,014
-521,189	-200,000	-0,005	-0,038
-520,175	-44,726	-0,113	0,040
-519,160	-200,000	0,036	-0,168
-518,145	-60,673	0,112	-0,034
-517,131	-200,000	0,008	0,175
-516,116	71,806	0,035	-0,026
-515,102	-117,845	-0,029	0,004
-514,087	420,260	-0,043	0,067
-513,072	-106,846	0,051	0,008
-512,058	13,181	-0,137	0,077
-511,043	-200,000	0,006	0,036
-510,029	-170,024	0,028	0,001
-509,014	-200,000	-0,038	0,189
-507,999	-31,568	0,066	0,027
-506,985	158,665	-0,049	-0,049
-505,970	522,669	0,020	-0,034
-504,956	-200,000	0,020	-0,090
-503,941	396,773	-0,032	-0,048
-502,926	360,435	-0,038	0,056
-501,912	-200,000	-0,062	-0,208
-500,897	-14,219	-0,129	-0,060
-499,883	116,863	0,053	-0,047
-498,868	-182,174	-0,105	-0,001
-497,853	-127,387	-0,081	-0,008
-496,839	88,319	-0,098	0,079
-495,824	183,081	0,069	-0,073
-494,810	94,038	0,025	-0,021
-493,795	800,000	0,039	0,104
-492,781	-200,000	0,003	-0,118
-491,766	253,472	0,074	0,092
-490,751	-10,502	-0,107	0,051
-489,737	100,291	0,085	0,071
-488,722	54,974	0,064	0,045
-487,708	-122,085	0,094	-0,011
-486,693	-70,490	0,114	-0,031
-485,678	-200,000	0,005	0,094
-484,664	575,021	-0,074	-0,131
-483,649	186,865	-0,070	-0,075
-482,635	35,040	0,168	-0,106
-481,620	368,385	0,117	0,172
-480,605	-172,886	0,134	0,003
-479,591	-108,305	0,092	0,014
-478,576	-80,749	0,094	0,022
-477,562	328,869	-0,064	0,089
-476,547	-110,232	-0,123	-0,018
-475,532	-200,000	-0,052	-0,169
-474,518	118,172	0,149	0,132
-473,503	-200,000	-0,000	-0,011
-472,489	800,000	-0,014	0,031
-471,474	-83,627	0,041	-0,009
-470,459	705,059	-0,060	0,115
-469,445	594,826	-0,016	0,028
-468,430	259,210	-0,061	-0,076
-467,416	648,720	-0,082	0,153
-466,401	-62,658	-0,040	0,012
-465,386	800,000	0,058	0,174
-464,372	9,402	-0,165	0,090
-463,357	-200,000	0,007	0,065
-462,343	-53,740	-0,074	-0,024
-461,328	-200,000	0,002	-0,010
-460,313	-200,000	0,004	0,023
-459,299	800,000	-0,015	-0,034
-458,284	800,000	0,025	0,054
-457,270	41,604	-0,083	0,054
-456,255	800,000	-0,019	0,043
-455,241	-53,577	-0,128	-0,042
-454,226	-200,000	-0,007	-0,101
-453,211	-98,248	-0,209	0,038
-452,197	236,632	-0,024	-0,028
-451,182	161,511	0,068	-0,069
-450,168	-200,000	0,004	-0,062
-449,153	36,683	-0,145	0,092
-448,138	-51,839	-0,051	0,017
-447,124	-58,673	0,018	0,006
-446,109	800,000	-0,031	-0,087
-445,095	-56,230	-0,033	-0,010
-444,080	77,436	0,097	0,074
-443,065	-200,000	0,030	0,143
-442,051	-77,580	0,107	0,027
-441,036	-25,457	0,078	-0,033
-440,022	-110,361	0,074	-0,011
-439,007	-115,123	-0,108	-0,015
-437,992	-200,000	0,106	0,000
-436,978	-200,000	-0,017	0,090
-435,963	252,307	0,073	0,089
-434,949	128,409	-0,061	-0,056
-433,934	-44,611	-0,025	0,009
-432,919	14,791	-0,045	-0,025
-431,905	506,077	0,034	0,056
-430,890	-200,000	0,009	-0,074
-429,876	-83,893	0,085	-0,019
-428,861	103,578	0,121	0,103
-427,846	26,986	0,059	0,036
-426,832	-159,922	-0,049	-0,002
-425,817	-46,028	0,108	0,038
-424,803	263,752	-0,036	-0,046
-423,788	-153,465	0,031	-0,001
-422,773	-148,771	-0,059	0,003
-421,759	-200,000	-0,023	0,088
-420,744	-200,000	0,004	-0,078
-419,730	800,000	0,044	-0,088
-418,715	319,169	0,046	0,062
-417,701	88,601	0,104	0,083
-416,686	-127,916	-0,088	0,009
-415,671	-169,024	0,124	0,003
-414,657	800,000	0,023	0,061
-413,642	20,096	0,135	-0,078
-412,628	490,258	0,061	0,101
-411,613	-200,000	-0,003	-0,225
-410,598	-200,000	0,021	-0,110
-409,584	254,357	0,057	-0,070
-408,569	39,311	-0,036	-0,023
-407,555	-141,138	-0,029	0,002
-406,540	73,439	0,029	-0,022
-405,525	189,754	0,030	-0,032
-404,511	800,000	0,027	-0,063
-403,496	-200,000	-0,008	0,064
-402,482	-14,485	0,022	-0,010
-401,467	-19,470	0,087	-0,039
-400,452	800,000	-0,044	0,096
-399,438	-49,425	-0,062	0,021
-398,423	-45,154	-0,083	0,030
-397,409	800,000	0,040	-0,105
-396,394	-200,000	-0,007	0,059
-395,379	-200,000	-0,032	-0,137
-394,365	-145,408	0,089	-0,006
-393,350	66,620	0,038	-0,028
-392,336	222,243	0,069	0,080
-391,321	800,000	-0,030	-0,075
-390,306	-63,474	-0,191	-0,056
-389,292	-67,359	0,043	-0,012
-388,277	103,131	-0,114	-0,096
-387,263	-18,835	0,109	0,048
-386,248	133,931	0,044	0,041
-385,233	800,000	0,036	0,075
-384,219	82,300	0,033	-0,026
-383,204	316,880	-0,055	-0,075
-382,190	-200,000	-0,004	-0,056
-381,175	-200,000	0,029	0,095
-380,160	-200,000	-0,013	-0,051
-379,146	-200,000	0,007	0,094
-378,131	-43,244	0,069	0,025
-377,117	1,633	0,023	0,012
-376,102	-200,000	-0,008	-0,102
-375,088	-182,754	0,144	-0,002
-374,073	-200,000	0,018	0,073
-373,058	-140,674	-0,015	0,001
-372,044	-22,392	-0,057	0,025
-371,029	-89,561	0,113	-0,024
-370,015	309,219	-0,029	0,039
-369,000	102,989	-0,129	-0,109
-367,985	-200,000	-0,035	0,161
-366,971	103,391	0,027	0,023
-365,956	-200,000	-0,001	-0,008
-364,942	123,919	0,052	0,047
-363,927	-200,000	-0,005	0,034
-362,912	-57,736	-0,094	-0,029
-361,898	555,942	-0,054	-0,094
-360,883	-60,202	0,069	0,021
-359,869	339,324	0,051	-0,072
-358,854	-200,000	0,012	0,082
-357,839	529,303	0,040	-0,069
-356,825	164,112	0,130	0,131
-355,810	105,247	-0,077	-0,065
-354,796	-200,000	-0,004	0,018
-353,781	-17,629	-0,032	0,014
-352,766	800,000	-0,066	-0,150
-351,752	209,143	0,022	-0,025
-350,737	-90,800	-0,077	0,016
-349,723	402,770	-0,007	-0,010
-348,708	-200,000	0,005	-0,024
-347,693	-106,936	0,091	-0,014
-346,679	-200,000	0,030	-0,155
-345,664	70,172	-0,122	-0,090
-344,650	-159,492	-0,057	-0,002
-343,635	629,944	0,032	-0,058
-342,620	67,638	0,064	0,047
-341,606	133,104	-0,063	0,058
-340,591	319,236	-0,052	-0,071
-339,577	110,369	-0,033	-0,029
-338,562	598,494	-0,013	0,023
-337,548	-63,607	0,074	0,022
-336,533	2,959	0,066	0,034
-335,518	-129,821	0,128	0,012
-334,504	117,702	0,092	0,081
-333,489	-200,000	0,003	0,112
-332,475	-156,300	-0,005	-0,000
-331,460	520,450	-0,049	0,082
-330,445	-200,000	0,013	0,044
-329,431	800,000	0,021	0,052
-328,416	-93,078	0,064	0,013
-327,402	-200,000	0,006	0,022
-326,387	470,688	0,093	0,150
-325,372	577,549	-0,040	-0,070
-324,358	-85,762	0,109	0,024
-323,343	44,023	-0,056	-0,037
-322,329	-200,000	0,011	0,078
-321,314	-35,209	0,105	0,041
-320,299	47,143	0,046	-0,030
-319,285	-142,469	-0,136	-0,009
-318,270	394,263	0,036	-0,054
-317,256	-200,000	-0,012	-0,083
-316,241	100,462	-0,088	-0,073
-315,226	800,000	-0,016	-0,047
-314,212	-200,000	-0,021	0,068
-313,197	-200,000	0,019	0,124
-312,183	-112,355	-0,068	-0,010
-311,168	289,850	0,097	-0,126
-310,153	605,227	0,075	-0,134
-309,139	-28,516	-0,108	-0,044
-308,124	800,000	0,073	0,194
-307,110	242,323	0,058	0,069
-306,095	800,000	-0,027	0,073
-305,080	703,462	-0,062	-0,117
-304,066	167,716	-0,031	-0,032
-303,051	121,109	-0,060	-0,054
-302,037	-200,000	0,012	0,040
-301,022	70,864	-0,086	0,064
-300,008	-119,186	0,129	0,016
-298,993	-200,000	0,021	-0,138
-297,978	174,650	0,053	-0,055
-296,964	-4,550	-0,078	0,039
-295,949	-200,000	0,009	-0,138
-294,935	-200,000	0,006	0,080
-293,920	-200,000	-0,041	0,143
-292,905	64,621	0,122	0,088
-291,891	-200,000	-0,028	0,191
-290,876	-33,312	0,040	0,016
-289,862	800,000	-0,071	-0,156
-288,847	172,860	0,106	-0,109
-287,832	-200,000	-0,005	0,072
-286,818	-200,000	0,008	-0,087
-285,803	-200,000	-0,015	-0,056
-284,789	-200,000	0,031	0,147
-283,774	325,539	-0,047	0,065
-282,759	608,420	0,034	-0,061
-281,745	394,215	-0,054	-0,080
-280,730	108,362	-0,171	-0,146
-279,716	176,079	-0,020	-0,021
-278,701	-200,000	-0,021	0,095
-277,686	-200,000	-0,001	0,020
-276,672	-200,000	-0,005	0,029
-275,657	-200,000	0,022	-0,130
-274,643	206,821	-0,075	-0,084
-273,628	-126,168	0,122	-0,013
-272,613	-200,000	0,009	0,109
-271,599	111,017	-0,047	0,040
-270,584	2,883	0,122	0,063
-269,570	93,481	-0,044	0,036
-268,555	-200,000	-0,022	-0,203
-267,540	800,000	0,060	-0,119
-266,526	-3,196	-0,200	-0,100
-265,511	-22,520	-0,058	0,025
-264,497	800,000	0,021	0,049
-263,482	167,198	-0,025	0,025
-262,467	113,353	-0,086	0,074
-261,453	648,453	0,036	-0,066
-260,438	132,609	-0,073	-0,068
-259,424	-27,445	-0,108	0,045
-258,409	-45,315	-0,041	-0,015
-257,395	612,075	0,057	0,103
-256,380	800,000	0,019	-0,044
-255,365	66,305	-0,065	0,047
-254,351	-200,000	-0,008	-0,094
-253,336	20,118	0,117	-0,067
-252,322	800,000	0,030	-0,089
-251,307	-96,833	-0,125	0,023
-250,292	-88,983	0,170	-0,036
-249,278	74,826	0,093	0,070
-248,263	150,759	0,068	0,066
-247,249	195,052	0,037	0,040
-246,234	-114,895	-0,180	0,024
-245,219	-176,312	-0,100	-0,002
-244,205	-43,023	-0,134	-0,048
-243,190	-98,871	-0,267	0,048
-242,176	-200,000	-0,034	0,125
-241,161	800,000	0,062	0,143
-240,146	196,938	0,079	-0,086
-239,132	359,402	0,035	-0,050
-238,117	-106,212	0,026	-0,004
-237,103	79,580	-0,048	0,037
-236,088	800,000	0,036	-0,100
-235,073	-200,000	-0,028	0,129
-234,059	-200,000	0,043	0,139
-233,044	652,820	-0,040	0,074
-232,030	53,062	-0,021	-0,014
-231,015	-200,000	0,015	0,083
-230,000	-34,892	-0,061	-0,024
-228,986	-200,000	0,012	-0,086
-227,971	-200,000	0,012	-0,134
-226,957	-53,547	0,084	-0,027
-225,942	800,000	0,075	-0,158
-224,927	18,169	0,023	-0,013
-223,913	-200,000	-0,024	-0,135
-222,898	-200,000	0,002	-0,143
-221,884	166,846	0,098	-0,100
-220,869	-120,574	-0,063	0,008
-219,855	-200,000	-0,016	-0,098
-218,840	50,019	0,073	-0,049
-217,825	-17,205	-0,078	-0,035
-216,811	-11,537	-0,064	-0,030
-215,796	121,924	0,029	0,026
-214,782	134,119	-0,063	-0,058
-213,767	-101,639	-0,102	-0,018
-212,752	800,000	0,035	0,076
-211,738	-11,209	-0,029	-0,014
-210,723	-136,417	-0,107	0,009
-209,709	302,170	0,062	0,082
-208,694	800,000	-0,055	-0,121
-207,679	345,286	0,020	-0,028
-206,665	-118,399	0,105	0,013
-205,650	237,508	0,055	0,065
-204,636	-146,552	0,070	-0,004
-203,621	2,949	-0,084	0,043
-202,606	-49,116	0,053	-0,018
-201,592	179,560	-0,041	-0,043
-200,577	113,368	0,053	-0,046
-199,563	114,633	0,057	-0,049
-198,548	-139,856	-0,084	-0,006
-197,533	257,117	0,082	0,101
-196,519	-89,956	0,069	-0,014
-195,504	-200,000	0,005	-0,050
-194,490	-200,000	0,038	0,124
-193,475	-200,000	0,018	-0,097
-192,460	-103,114	0,142	0,024
-191,446	800,000	-0,076	0,178
-190,431	-200,000	-0,028	0,099
-189,417	-96,456	0,072	-0,013
-188,402	312,011	-0,058	-0,077
-187,387	180,867	-0,068	-0,071
-186,373	-80,756	0,018	0,004
-185,358	5,344	0,067	-0,035
-184,344	25,965	0,093	-0,055
-183,329	-35,430	0,182	-0,070
-182,315	32,581	-0,138	-0,085
-181,300	-134,740	-0,020	0,002
-180,285	234,926	0,028	0,032
-179,271	-132,676	-0,118	0,011
-178,256	-200,000	0,003	-0,012
-177,242	-68,899	-0,116	0,032
-176,227	1,289	0,101	0,052
-175,212	800,000	0,015	-0,044
-174,198	-200,000	0,016	0,131
-173,183	-147,816	0,062	0,004
-172,169	14,444	-0,114	0,063
-171,154	-200,000	-0,007	-0,065
-170,139	-1,185	0,083	-0,042
-169,125	-200,000	-0,063	0,218
-168,110	-200,000	-0,001	0,163
-167,096	800,000	0,025	0,073
-166,081	48,650	0,036	-0,024
-165,066	800,000	-0,016	-0,032
-164,052	-156,811	0,078	0,003
-163,037	113,183	0,110	-0,095
-162,023	-80,543	-0,037	-0,009
-161,008	226,230	0,082	0,095
-159,993	-7,942	0,043	-0,021
-158,979	71,676	-0,045	0,033
-157,964	-200,000	-0,025	-0,189
-156,950	-200,000	-0,000	0,073
-155,935	107,458	0,121	0,103
-154,920	-200,000	0,007	0,108
-153,906	-200,000	-0,009	0,034
-152,891	-200,000	-0,003	-0,016
-151,877	-9,463	0,099	0,047
-150,862	453,238	0,046	-0,073
-149,847	-18,262	-0,106	0,047
-148,833	-2,174	0,119	0,059
-147,818	688,526	0,058	0,108
-146,804	-200,000	-0,018	0,139
-145,789	800,000	-0,045	0,106
-144,775	800,000	-0,019	-0,059
-143,760	416,841	-0,026	-0,039
-142,745	-135,569	-0,036	0,003
-141,731	142,502	-0,052	0,049
-140,716	97,345	-0,036	0,029
-139,702	-138,927	0,100	-0,008
-138,687	86,642	0,061	-0,048
-137,672	-36,364	-0,130	0,049
-136,658	-48,622	0,051	-0,017
-135,643	622,615	0,051	0,092
-134,629	298,180	-0,056	0,073
-133,614	-200,000	0,028	0,113
-132,599	-200,000	0,004	0,050
-131,585	133,387	0,121	0,112
-130,570	-200,000	0,004	0,052
-129,556	800,000	0,062	-0,154
-128,541	-141,524	0,031	-0,002
-127,526	127,267	0,089	-0,080
-126,512	36,460	0,136	0,085
-125,497	-200,000	0,012	0,074
-124,483	-200,000	0,022	0,086
-123,468	100,401	0,076	0,063
-122,453	376,185	-0,016	-0,024
-121,439	673,264	-0,012	-0,021
-120,424	43,873	0,078	0,051
-119,410	47,643	0,126	-0,083
-118,395	800,000	0,040	-0,123
-117,380	-161,384	0,171	0,006
-116,366	-93,836	0,142	-0,028
-115,351	618,408	0,104	-0,187
-114,337	101,571	-0,044	0,036
-113,322	774,394	-0,078	0,152
-112,307	-200,000	0,001	0,021
-111,293	771,148	0,051	-0,100
-110,278	37,689	0,014	0,009
-109,264	-200,000	-0,002	0,103
-108,249	13,703	-0,076	0,042
-107,234	-200,000	-0,029	-0,098
-106,220	-116,044	-0,073	0,010
-105,205	-200,000	0,007	0,046
-104,191	-159,884	0,004	-0,000
-103,176	54,210	0,088	0,060
-102,162	-109,734	-0,072	-0,011
-101,147	133,566	0,048	-0,044
-100,132	-200,000	0,010	-0,089
-99,118	-200,000	-0,007	-0,077
-98,103	-33,808	0,159	-0,062
-97,089	-31,394	-0,031	0,012
-96,074	20,365	-0,027	-0,016
-95,059	-187,612	-0,096	0,001
-94,045	-200,000	-0,010	0,057
-93,030	-200,000	-0,006	-0,165
-92,016	-44,343	-0,075	0,027
-91,001	16,247	0,112	-0,063
-89,986	-61,999	0,066	0,019
-88,972	800,000	0,041	0,102
-87,957	-200,000	0,019	-0,102
-86,943	-198,312	-0,031	0,000
-85,928	-92,692	-0,092	0,018
-84,913	-200,000	-0,006	-0,021
-83,899	590,259	-0,058	0,101
-82,884	-94,428	-0,067	-0,013
-81,870	-68,787	-0,134	0,036
-80,855	-125,176	0,133	0,014
-79,840	-200,000	0,009	-0,134
-78,826	800,000	0,028	0,055
-77,811	-200,000	0,003	-0,017
-76,797	655,649	-0,053	-0,097
-75,782	-27,492	-0,076	-0,031
-74,767	-57,823	0,092	0,028
-73,753	800,000	-0,033	0,093
-72,738	-121,500	-0,044	0,005
-71,724	244,710	-0,141	-0,168
-70,709	-200,000	0,025	-0,184
-69,694	800,000	-0,073	0,150
-68,680	43,660	0,033	0,022
-67,665	800,000	0,036	-0,073
-66,651	-18,778	-0,042	-0,019
-65,636	800,000	0,034	-0,080
-64,622	58,209	-0,042	0,029
-63,607	131,906	-0,068	-0,062
-62,592	24,078	0,027	0,016
-61,578	506,826	0,069	0,115
-60,563	342,308	0,076	0,105
-59,549	800,000	0,077	0,207
-58,534	-125,090	-1,424	-0,153
-57,519	380,865	-1,545	-2,255
-56,505	-200,000	-0,577	-4,399
-55,490	52,222	0,952	0,643
-54,476	800,000	4,727	11,113
-53,461	-200,000	17,175	267,710
-52,446	800,000	714,463	2177,575
-51,432	551,430	1629,201	2785,260
-50,417	81,398	1654,773	1267,821
-49,403	24,468	1529,472	895,114
-48,388	18,462	1452,727	821,297
-47,373	18,535	1442,262	815,699
-46,359	18,321	1433,067	809,449
-45,344	16,762	1428,432	799,399
-44,330	16,702	1426,447	797,974
-43,315	16,749	1424,751	797,214
-42,300	16,750	1423,399	796,434
-41,286	16,816	1421,951	795,900
-40,271	16,736	1420,714	794,801
-39,257	16,677	1419,645	793,891
-38,242	16,768	1418,202	793,482
-37,227	16,757	1416,955	792,701
-36,213	16,704	1415,976	791,873
-35,198	16,747	1414,721	791,342
-34,184	16,772	1413,405	790,692
-33,169	16,659	1412,476	789,610
-32,154	16,741	1411,288	789,298
-31,140	16,792	1409,720	788,633
-30,125	16,807	1408,898	788,209
-29,111	16,777	1407,680	787,356
-28,096	16,727	1406,607	786,492
-27,082	16,689	1405,542	785,687
-26,067	16,683	1404,380	784,980
-25,052	16,690	1403,348	784,405
-24,038	16,630	1402,450	783,589
-23,023	16,638	1401,233	782,916
-22,009	16,572	1400,421	782,127
-20,994	16,599	1399,487	781,700
-19,979	16,614	1398,463	781,163
-18,965	16,587	1397,748	780,611
-17,950	16,570	1396,511	779,807
-16,936	16,604	1395,617	779,438
-15,921	16,543	1394,569	778,538
-14,906	16,585	1393,357	778,022
-13,892	16,558	1392,784	777,550
-12,877	16,582	1391,638	776,989
-11,863	16,537	1390,975	776,378
-10,848	16,566	1389,792	775,824
-9,833	16,551	1388,979	775,267
-8,819	16,524	1388,169	774,660
-7,804	16,446	1387,313	773,792
-6,790	16,476	1386,043	773,191
-5,775	16,444	1384,996	772,432
-4,760	16,457	1384,203	772,016
-3,746	16,437	1383,485	771,496
-2,731	16,408	1382,427	770,741
-1,717	16,437	1381,562	770,363
-0,702	16,411	1379,852	769,257
0,313	20,225	1301,651	743,231
1,327	36,690	707,777	442,340
2,342	56,065	125,828	86,453
3,356	3,600	16,559	8,534
4,371	-2,115	3,150	1,563
5,386	22,503	0,480	0,278
6,400	649,396	0,044	0,080
7,415	139,954	-0,342	-0,319
8,429	5,488	-0,336	-0,175
9,444	-20,921	-0,343	-0,148
10,459	10,658	-0,285	-0,154
11,473	125,575	-0,296	-0,265
12,488	86,508	-0,186	-0,145
13,502	189,204	-0,346	-0,368
14,517	-43,775	-0,292	-0,104
15,531	68,205	-0,387	-0,280
16,546	23,462	-0,505	-0,293
17,561	314,320	-0,295	-0,394
18,575	800,000	-0,168	-0,384
19,590	228,479	-0,229	-0,264
20,604	-107,857	-0,292	-0,044
21,619	65,805	-0,424	-0,304
22,634	86,331	-0,414	-0,323
23,648	85,431	-0,338	-0,262
24,663	34,535	-0,429	-0,265
25,677	191,769	-0,359	-0,384
26,692	92,444	-0,268	-0,213
27,707	132,677	-0,263	-0,240
28,721	153,691	-0,251	-0,244
29,736	53,908	-0,476	-0,323
30,750	143,686	-0,296	-0,279
31,765	138,741	-0,377	-0,350
32,780	61,927	-0,328	-0,231
33,794	207,909	-0,319	-0,353
34,809	263,607	-0,264	-0,326
35,823	73,398	-0,432	-0,319
36,838	357,170	-0,270	-0,382
37,853	70,533	-0,444	-0,324
38,867	48,070	-0,436	-0,288
39,882	97,411	-0,246	-0,200
40,896	95,094	-0,328	-0,263
41,911	108,164	-0,264	-0,223
42,926	92,009	-0,309	-0,246
43,940	87,917	-0,338	-0,264
44,955	9,521	-0,409	-0,218
45,969	236,675	-0,299	-0,351
46,984	-68,107	-0,353	-0,096
47,999	-2,716	-0,276	-0,136
49,013	128,156	-0,306	-0,275
50,028	122,280	-0,408	-0,359
51,042	51,304	-0,353	-0,236
52,057	32,656	-0,345	-0,210
53,071	31,973	-0,302	-0,183
54,086	145,270	-0,340	-0,321
55,101	86,446	-0,248	-0,193
56,115	93,722	-0,208	-0,166
57,130	86,237	-0,331	-0,257
58,144	-46,985	-0,422	-0,145
59,159	138,558	-0,294	-0,273
60,174	210,934	-0,399	-0,443
61,188	178,359	-0,338	-0,348
62,203	73,939	-0,417	-0,308
63,217	195,693	-0,285	-0,306
64,232	212,731	-0,246	-0,274
65,247	26,234	-0,342	-0,201
66,261	44,256	-0,380	-0,245
67,276	131,991	-0,280	-0,254
68,290	14,457	-0,297	-0,163
69,305	19,257	-0,333	-0,188
70,320	-6,852	-0,341	-0,163
71,334	62,767	-0,312	-0,220
72,349	35,183	-0,399	-0,246
73,363	163,809	-0,338	-0,335
74,378	65,953	-0,254	-0,182
75,393	63,316	-0,310	-0,219
76,407	635,198	-0,204	-0,366
77,422	270,009	-0,255	-0,316
78,436	35,958	-0,354	-0,219
79,451	55,827	-0,355	-0,242
80,466	27,312	-0,493	-0,291
81,480	271,267	-0,327	-0,406
82,495	109,580	-0,363	-0,306
83,509	190,863	-0,178	-0,188
84,524	-45,790	-0,339	-0,117
85,539	-160,929	-0,268	0,010
86,553	-48,389	-0,353	-0,119
87,568	149,425	-0,194	-0,185
88,582	129,256	-0,177	-0,159
89,597	67,831	-0,232	-0,166
90,611	800,000	-0,130	-0,315
91,626	250,874	-0,219	-0,262
92,641	-54,968	-0,373	-0,118
93,655	-41,279	-0,224	-0,081
94,670	-39,943	-0,457	-0,167
95,684	17,454	-0,335	-0,186
96,699	42,156	-0,238	-0,152
97,714	40,405	-0,319	-0,202
98,728	-30,534	-0,272	-0,108
99,743	-41,945	-0,206	-0,074
100,757	163,929	-0,154	-0,152
101,772	-29,748	-0,410	-0,164
102,787	83,566	-0,245	-0,188
103,801	74,964	-0,386	-0,286
104,816	-143,247	-0,282	-0,019
105,830	157,494	-0,229	-0,223
106,845	106,738	-0,149	-0,124
107,860	-31,876	-0,230	-0,090
108,874	131,350	-0,231	-0,209
109,889	219,914	-0,195	-0,220
110,903	46,850	-0,235	-0,153
111,918	-120,871	-0,181	-0,021
112,933	78,798	-0,184	-0,138
113,947	-90,830	-0,262	-0,052
114,962	45,526	-0,256	-0,166
115,976	157,029	-0,244	-0,237
116,991	-21,890	-0,332	-0,141
118,006	99,281	-0,156	-0,127
119,020	178,849	-0,250	-0,256
120,035	-36,460	-0,331	-0,124
121,049	78,342	-0,272	-0,203
122,064	90,438	-0,425	-0,334
123,079	124,643	-0,217	-0,192
124,093	49,416	-0,262	-0,173
125,108	139,019	-0,285	-0,263
126,122	14,630	-0,301	-0,164
127,137	50,339	-0,249	-0,165
128,151	-74,065	-0,265	-0,067
129,166	90,713	-0,298	-0,234
130,181	89,165	-0,225	-0,175
131,195	8,243	-0,311	-0,163
132,210	1,367	-0,241	-0,121
133,224	454,040	-0,160	-0,249
134,239	-115,335	-0,192	-0,025
135,254	-52,010	-0,214	-0,069
136,268	249,445	-0,120	-0,143
137,283	50,279	-0,361	-0,239
138,297	-97,760	-0,222	-0,040
139,312	275,871	-0,160	-0,200
140,327	-5,413	-0,296	-0,142
141,341	197,297	-0,204	-0,218
142,356	68,319	-0,210	-0,151
143,370	25,517	-0,182	-0,106
144,385	122,375	-0,243	-0,212
145,400	-26,465	-0,328	-0,134
146,414	96,906	-0,258	-0,207
147,429	72,863	-0,327	-0,239
148,443	25,213	-0,316	-0,183
149,458	75,965	-0,268	-0,198
150,473	201,411	-0,188	-0,203
151,487	800,000	-0,094	-0,240
152,502	258,813	-0,190	-0,229
153,516	-128,364	-0,239	-0,023
154,531	-22,604	-0,343	-0,145
155,546	-63,175	-0,225	-0,064
156,560	373,983	-0,225	-0,322
157,575	165,705	-0,290	-0,287
158,589	97,892	-0,355	-0,286
159,604	-34,410	-0,191	-0,073
160,619	124,448	-0,185	-0,163
161,633	132,228	-0,246	-0,222
162,648	158,199	-0,248	-0,240
163,662	30,341	-0,161	-0,096
164,677	-59,696	-0,225	-0,067
165,692	-200,000	-0,055	-0,180
166,706	280,921	-0,174	-0,218
167,721	141,193	-0,140	-0,129
168,735	489,989	-0,202	-0,324
169,750	7,421	-0,321	-0,167
170,764	-56,058	-0,236	-0,073
171,779	51,816	-0,355	-0,235
172,794	42,537	-0,163	-0,103
173,808	800,000	-0,123	-0,246
174,823	208,084	-0,167	-0,182
175,837	-200,000	-0,283	-0,000
176,852	668,588	-0,129	-0,234
177,867	56,043	-0,248	-0,168
178,881	-64,273	-0,244	-0,069
179,896	185,252	-0,157	-0,162
180,910	-18,636	-0,250	-0,108
181,925	-70,789	-0,376	-0,098
182,940	561,438	-0,142	-0,240
183,954	211,129	-0,279	-0,307
184,969	107,121	-0,252	-0,209
185,983	47,521	-0,213	-0,139
186,998	116,876	-0,226	-0,193
188,013	254,359	-0,212	-0,253
189,027	383,148	-0,180	-0,259
190,042	-77,616	-0,290	-0,070
191,056	-37,758	-0,224	-0,083
192,071	9,052	-0,176	-0,092
193,086	119,755	-0,134	-0,116
194,100	325,107	-0,108	-0,144
195,115	158,045	-0,176	-0,170
196,129	166,575	-0,221	-0,219
197,144	420,834	-0,207	-0,310
198,159	330,529	-0,175	-0,235
199,173	151,442	-0,169	-0,161
200,188	264,619	-0,123	-0,149
201,202	-200,000	-0,005	-0,159
202,217	73,139	-0,161	-0,117
203,232	188,028	-0,175	-0,182
204,246	77,630	-0,165	-0,122
205,261	792,291	-0,143	-0,276
206,275	418,277	-0,111	-0,165
207,290	-66,405	-0,262	-0,072
208,304	-58,067	-0,292	-0,088
209,319	143,188	-0,221	-0,204
210,334	151,492	-0,233	-0,221
211,348	52,416	-0,250	-0,166
212,363	67,103	-0,233	-0,165
213,377	58,909	-0,140	-0,096
214,392	4,534	-0,117	-0,060
215,407	86,406	-0,079	-0,060
216,421	45,203	-0,170	-0,109
217,436	397,897	-0,143	-0,208
218,450	-26,470	-0,160	-0,065
219,465	93,702	-0,239	-0,188
220,480	138,412	-0,233	-0,213
221,494	-28,191	-0,186	-0,074
222,509	327,846	-0,100	-0,134
223,523	319,157	-0,180	-0,238
224,538	311,003	-0,128	-0,167
225,553	443,859	-0,118	-0,180
226,567	-10,593	-0,241	-0,111
227,582	278,591	-0,135	-0,167
228,596	370,744	-0,166	-0,234
229,611	780,533	-0,070	-0,135
230,626	317,918	-0,115	-0,151
231,640	-48,421	-0,234	-0,078
232,655	118,341	-0,204	-0,175
233,669	68,018	-0,256	-0,182
234,684	-200,000	-0,060	-0,226
235,699	149,853	-0,163	-0,154
236,713	724,433	-0,050	-0,092
237,728	228,944	-0,174	-0,197
238,742	-50,275	-0,173	-0,056
239,757	391,078	-0,154	-0,223
240,772	219,282	-0,188	-0,209
241,786	-10,152	-0,262	-0,120
242,801	5,061	-0,256	-0,131
243,815	228,860	-0,232	-0,263
244,830	260,183	-0,109	-0,131
245,844	-63,220	-0,172	-0,049
246,859	-35,096	-0,149	-0,056
247,874	387,592	-0,151	-0,218
248,888	104,367	-0,200	-0,163
249,903	224,828	-0,217	-0,244
250,917	-129,690	-0,112	0,011
251,932	46,346	-0,058	0,037
252,947	-22,627	-0,202	-0,084
253,961	-97,153	-0,274	-0,049
254,976	-61,983	-0,310	-0,089
255,990	145,693	-0,197	-0,183
257,005	2,608	-0,080	-0,040
258,020	256,003	-0,060	-0,072
259,034	-65,922	-0,142	-0,039
260,049	233,666	-0,153	-0,175
261,063	108,252	-0,119	-0,099
262,078	96,289	-0,146	-0,116
263,093	141,400	-0,138	-0,126
264,107	321,895	-0,100	-0,132
265,122	800,000	-0,019	0,048
266,136	4,556	-0,159	-0,081
267,151	652,315	-0,132	-0,235
268,166	311,003	-0,139	-0,181
269,180	91,280	-0,166	-0,129
270,195	-200,000	-0,043	-0,140
271,209	-6,740	-0,082	-0,038
272,224	54,468	-0,146	-0,097
273,239	-87,562	-0,315	-0,065
274,253	-33,004	-0,158	-0,060
275,268	92,584	-0,111	-0,087
276,282	-61,362	-0,255	-0,074
277,297	111,456	-0,126	-0,105
278,312	-6,130	-0,140	-0,066
279,326	-35,784	-0,268	-0,100
280,341	800,000	-0,108	-0,233
281,355	-105,146	-0,151	-0,024
282,370	196,326	-0,132	-0,139
283,384	143,927	-0,231	-0,213
284,399	-13,174	-0,258	-0,116
285,414	-144,031	-0,111	0,007
286,428	232,039	-0,059	-0,068
287,443	249,103	-0,092	-0,108
288,457	49,302	-0,135	-0,088
289,472	-90,828	-0,230	-0,045
290,487	319,685	-0,156	-0,205
291,501	46,646	-0,096	-0,061
292,516	800,000	-0,079	-0,166
293,530	-119,311	-0,111	-0,013
294,545	-78,290	-0,154	0,036
295,560	94,037	-0,073	-0,057
296,574	-44,662	-0,068	-0,023
297,589	-152,651	-0,249	-0,012
298,603	130,162	-0,195	-0,173
299,618	-122,672	-0,115	-0,013
300,633	14,972	-0,113	-0,061
301,647	-116,409	-0,131	0,017
302,662	350,263	-0,060	0,082
303,676	-113,459	-0,166	-0,022
304,691	307,324	-0,072	-0,093
305,706	435,509	-0,128	-0,193
306,720	642,100	-0,103	-0,181
307,735	275,203	-0,129	-0,158
308,749	-143,918	-0,104	-0,007
309,764	-128,706	-0,160	0,015
310,779	354,916	-0,138	-0,189
311,793	93,564	-0,213	-0,166
312,808	151,626	-0,134	-0,126
313,822	119,067	-0,235	-0,200
314,837	74,655	-0,084	-0,061
315,852	165,630	-0,109	-0,106
316,866	800,000	-0,059	-0,145
317,881	800,000	-0,020	-0,050
318,895	218,478	-0,088	-0,097
319,910	800,000	-0,042	-0,113
320,925	20,765	-0,213	-0,118
321,939	-200,000	-0,013	-0,085
322,954	318,563	-0,026	-0,034
323,968	-31,968	-0,174	-0,067
324,983	289,561	-0,092	-0,115
325,997	-111,199	-0,214	-0,030
327,012	107,295	-0,209	-0,171
328,027	800,000	-0,109	-0,226
329,041	-134,928	-0,134	-0,011
330,056	9,743	-0,197	-0,102
331,070	-165,393	-0,084	0,002
332,085	-82,749	-0,121	0,027
333,100	-157,149	-0,113	0,005
334,114	51,003	-0,198	-0,129
335,129	-96,516	-0,207	-0,037
336,143	-78,690	-0,234	-0,055
337,158	139,214	-0,099	-0,089
338,173	503,911	-0,081	-0,130
339,187	763,717	-0,063	-0,118
340,202	800,000	-0,115	-0,234
341,216	-200,000	-0,014	-0,230
342,231	49,413	-0,187	-0,121
343,246	3,927	-0,175	-0,088
344,260	-200,000	-0,024	0,092
345,275	800,000	0,025	-0,051
346,289	85,569	-0,078	-0,059
347,304	22,205	-0,068	-0,038
348,319	570,347	-0,134	-0,225
349,333	-40,971	-0,147	-0,052
350,348	72,466	-0,111	-0,079
351,362	201,168	-0,091	-0,096
352,377	122,767	-0,116	-0,100
353,392	-65,437	-0,170	-0,047
354,406	275,666	-0,101	-0,124
355,421	211,100	1314,574	1422,745
356,435	162,540	1475,318	1423,284
