DTS Sentinel unit serial number:	SN410029Multiplexer serial number:	ORYXHardware model number:	OX2-SRSoftware version number:	ORYX F/W v4,00 Oryx Data Collector v3.7.2.0data status	okinstallation	B3 Nyhavnadifferential loss correction	single-endedforward channel	channel 1reverse channel	N/Adate	2023/12/01time	12:02:30forward acquisition time	300,00reverse acquisition time	0,00gamma	499,1914k internal	0,3213k external	0,3213temperature offset calibration	1,0000default loss term (dB/km)	0,3820temperature slope calibration	1,0000multiplexer offset coefficient	1,0000multiplexer slope coefficient	1,0000fibre end	0,00T internal ref (°C)	8,69T ext. ref 1 (°C)	-5,21T ext. ref 2 (°C)	-5,32length (m)	temperature (°C)	Stokes	anti-Stokes-744,400	276,196	-0,214	-0,275
-743,385	300,275	0,159	0,214
-742,371	800,000	-0,096	-0,218
-741,356	-200,000	0,063	0,211
-740,342	42,652	-0,163	-0,107
-739,327	800,000	-0,086	0,242
-738,312	756,993	-0,146	-0,288
-737,298	732,705	-0,155	0,301
-736,283	65,501	-0,282	-0,206
-735,269	-200,000	-0,024	0,221
-734,254	225,322	-0,202	-0,238
-733,239	-27,613	-0,253	0,106
-732,225	-59,356	-0,242	-0,075
-731,210	800,000	0,054	0,131
-730,196	99,511	-0,093	-0,078
-729,181	234,774	-0,048	-0,058
-728,167	145,488	-0,016	-0,016
-727,152	-48,977	0,073	0,025
-726,137	-129,193	-0,040	-0,004
-725,123	286,087	0,058	-0,076
-724,108	-111,439	-0,094	-0,014
-723,094	-59,324	-0,143	-0,044
-722,079	-200,000	0,009	-0,166
-721,064	66,754	-0,026	-0,019
-720,050	404,168	-0,013	0,020
-719,035	800,000	-0,051	-0,107
-718,021	-134,653	-0,070	0,006
-717,006	-200,000	0,017	-0,065
-715,991	-57,172	-0,147	0,046
-714,977	-107,743	-0,099	0,015
-713,962	-163,247	-0,147	-0,005
-712,948	-200,000	0,026	0,158
-711,933	800,000	-0,054	0,141
-710,918	-200,000	-0,012	-0,106
-709,904	800,000	-0,055	-0,175
-708,889	-83,203	-0,105	0,024
-707,875	213,269	-0,117	-0,134
-706,860	312,728	-0,040	0,055
-705,845	47,891	0,038	0,025
-704,831	800,000	-0,019	-0,055
-703,816	643,679	0,028	0,051
-702,802	32,512	-0,038	-0,024
-701,787	-200,000	-0,029	-0,159
-700,772	-200,000	-0,003	-0,069
-699,758	4,157	-0,082	-0,043
-698,743	800,000	0,002	0,006
-697,729	278,280	-0,104	0,134
-696,714	188,476	0,038	0,041
-695,699	140,279	-0,103	-0,099
-694,685	229,190	-0,028	-0,033
-693,670	251,135	-0,019	-0,024
-692,656	53,079	-0,131	-0,090
-691,641	320,351	0,024	-0,033
-690,627	-141,282	0,110	-0,008
-689,612	800,000	-0,024	0,067
-688,597	800,000	-0,026	-0,072
-687,583	-12,300	-0,056	0,026
-686,568	-200,000	-0,065	-0,208
-685,554	670,586	-0,075	-0,140
-684,539	-72,601	0,037	-0,010
-683,524	800,000	-0,040	0,097
-682,510	132,216	-0,049	0,046
-681,495	800,000	-0,021	0,057
-680,481	704,710	-0,094	-0,180
-679,466	-200,000	-0,041	-0,154
-678,451	-105,260	-0,050	-0,008
-677,437	-200,000	0,006	0,061
-676,422	81,027	-0,101	-0,078
-675,408	-200,000	0,004	-0,017
-674,393	268,939	-0,053	0,068
-673,378	215,724	0,083	-0,095
-672,364	-162,072	0,085	0,003
-671,349	415,961	0,042	-0,065
-670,335	-200,000	0,009	0,095
-669,320	-56,036	-0,077	0,025
-668,305	563,323	-0,066	-0,116
-667,291	-144,831	-0,165	-0,011
-666,276	-31,724	-0,076	-0,031
-665,262	593,039	-0,062	-0,111
-664,247	-200,000	-0,052	-0,198
-663,232	-200,000	-0,004	0,024
-662,218	-116,719	0,119	-0,016
-661,203	19,890	0,068	0,040
-660,189	-52,212	-0,138	-0,046
-659,174	189,080	0,140	-0,152
-658,159	-167,255	-0,144	0,004
-657,145	-134,609	-0,105	-0,009
-656,130	-8,760	-0,073	-0,035
-655,116	-200,000	-0,017	0,092
-654,101	44,298	-0,139	0,092
-653,086	-200,000	0,011	0,068
-652,072	93,075	0,040	0,032
-651,057	-74,726	-0,064	-0,017
-650,043	214,782	-0,048	0,055
-649,028	-200,000	0,013	0,117
-648,014	-47,933	-0,042	-0,015
-646,999	800,000	-0,046	-0,117
-645,984	-200,000	0,134	0,000
-644,970	527,892	-0,059	0,102
-643,955	-200,000	0,040	-0,226
-642,941	-200,000	-0,013	-0,044
-641,926	-59,050	-0,135	0,042
-640,911	-200,000	0,012	-0,104
-639,897	44,156	0,116	0,077
-638,882	-200,000	0,003	0,049
-637,868	200,748	0,047	0,052
-636,853	-66,964	-0,138	-0,039
-635,838	-6,926	-0,153	-0,074
-634,824	-200,000	-0,004	0,052
-633,809	-200,000	0,027	-0,148
-632,795	-34,586	-0,035	-0,014
-631,780	682,002	0,019	0,035
-630,765	-62,721	-0,055	-0,016
-629,751	-29,916	-0,079	-0,032
-628,736	15,823	-0,090	-0,051
-627,722	800,000	-0,014	0,042
-626,707	-200,000	0,043	-0,147
-625,692	-34,711	0,086	0,034
-624,678	800,000	0,045	0,128
-623,663	44,830	0,010	0,006
-622,649	120,614	-0,090	-0,081
-621,634	-5,633	-0,144	-0,071
-620,619	19,808	-0,044	-0,026
-619,605	-79,739	-0,043	0,010
-618,590	-200,000	0,005	0,016
-617,576	800,000	0,022	0,045
-616,561	800,000	0,025	0,067
-615,546	-200,000	-0,004	-0,092
-614,532	130,113	-0,093	-0,086
-613,517	-183,455	-0,080	0,001
-612,503	-128,012	0,051	0,005
-611,488	120,838	0,074	-0,066
-610,474	-200,000	0,006	0,080
-609,459	800,000	0,021	0,065
-608,444	800,000	-0,015	-0,049
-607,430	800,000	-0,043	-0,134
-606,415	-88,595	-0,067	0,014
-605,401	9,723	0,021	0,011
-604,386	-115,942	-0,172	-0,023
-603,371	189,119	-0,167	0,180
-602,357	-14,826	-0,032	-0,015
-601,342	-5,542	0,056	-0,028
-600,328	-43,779	-0,099	0,036
-599,313	782,759	0,033	-0,066
-598,298	-117,730	0,008	-0,001
-597,284	800,000	0,020	-0,051
-596,269	92,166	-0,046	-0,037
-595,255	412,698	0,042	0,065
-594,240	-200,000	-0,003	0,076
-593,225	363,680	-0,045	-0,066
-592,211	135,259	-0,105	-0,098
-591,196	800,000	0,017	0,046
-590,182	355,290	0,071	0,102
-589,167	304,046	-0,066	0,089
-588,152	721,697	0,059	0,113
-587,138	-200,000	0,013	-0,055
-586,123	254,515	-0,054	-0,066
-585,109	9,991	-0,145	-0,079
-584,094	-49,158	-0,102	-0,035
-583,079	-84,506	0,082	0,018
-582,065	-200,000	-0,024	0,144
-581,050	122,682	0,014	-0,012
-580,036	635,326	0,004	0,008
-579,021	365,167	-0,059	-0,086
-578,006	472,240	-0,026	-0,042
-576,992	-106,565	0,122	0,019
-575,977	-145,180	-0,128	-0,008
-574,963	800,000	-0,038	0,076
-573,948	-167,196	-0,111	-0,003
-572,934	800,000	0,039	-0,087
-571,919	1,125	0,036	0,019
-570,904	800,000	0,004	0,009
-569,890	215,098	0,082	-0,094
-568,875	285,935	-0,058	-0,075
-567,861	633,758	-0,061	-0,111
-566,846	-168,164	-0,035	-0,001
-565,831	800,000	-0,044	-0,111
-564,817	-30,732	0,097	-0,039
-563,802	-200,000	0,007	-0,093
-562,788	-200,000	0,021	0,112
-561,773	75,742	0,039	-0,030
-560,758	-116,934	0,098	0,013
-559,744	337,238	0,045	0,063
-558,729	-200,000	0,008	0,045
-557,715	-186,172	-0,174	0,002
-556,700	-200,000	-0,007	0,080
-555,685	436,413	-0,025	-0,039
-554,671	-200,000	0,009	-0,058
-553,656	-50,745	0,072	-0,024
-552,642	800,000	0,010	-0,029
-551,627	-200,000	-0,002	0,017
-550,612	49,758	0,115	0,078
-549,598	-200,000	-0,014	0,052
-548,583	-200,000	-0,023	-0,140
-547,569	800,000	0,028	-0,065
-546,554	29,423	-0,038	0,023
-545,539	178,758	0,018	0,019
-544,525	-123,772	-0,113	0,013
-543,510	204,791	0,060	0,066
-542,496	554,746	-0,080	-0,138
-541,481	343,456	-0,022	-0,031
-540,466	-26,050	0,114	0,048
-539,452	231,583	-0,020	-0,024
-538,437	-200,000	-0,022	0,103
-537,423	649,288	0,017	0,032
-536,408	-200,000	-0,026	0,101
-535,393	68,699	-0,047	-0,034
-534,379	66,969	-0,043	0,032
-533,364	-200,000	0,007	0,070
-532,350	187,445	-0,051	0,055
-531,335	354,889	0,059	-0,084
-530,321	245,751	0,055	0,067
-529,306	-61,723	0,071	0,021
-528,291	-148,681	-0,060	0,003
-527,277	7,252	-0,160	-0,085
-526,262	-200,000	-0,009	-0,062
-525,248	-200,000	0,005	0,119
-524,233	208,128	0,000	-0,000
-523,218	74,532	0,016	-0,012
-522,204	74,664	-0,031	-0,023
-521,189	-94,238	-0,122	-0,024
-520,175	-200,000	0,004	-0,014
-519,160	-70,263	0,030	-0,008
-518,145	89,946	0,098	0,079
-517,131	660,552	0,018	0,033
-516,116	42,856	-0,051	-0,033
-515,102	-54,382	-0,050	0,016
-514,087	149,023	-0,032	-0,031
-513,072	-130,407	-0,151	0,015
-512,058	-24,242	-0,094	-0,040
-511,043	-62,331	-0,068	-0,020
-510,029	109,038	-0,015	-0,013
-509,014	41,100	0,076	0,049
-507,999	-192,460	0,034	0,000
-506,985	-17,201	0,115	-0,052
-505,970	-200,000	-0,011	-0,087
-504,956	800,000	-0,002	-0,005
-503,941	-200,000	0,063	0,238
-502,926	-200,000	0,002	0,146
-501,912	110,577	-0,113	0,097
-500,897	185,348	-0,020	-0,022
-499,883	-200,000	-0,007	0,049
-498,868	-200,000	0,011	0,054
-497,853	16,312	0,025	-0,014
-496,839	234,017	-0,041	0,048
-495,824	58,388	0,077	0,054
-494,810	364,852	0,052	0,075
-493,795	-45,627	0,080	-0,028
-492,781	276,138	-0,013	0,017
-491,766	204,623	-0,109	-0,122
-490,751	280,341	-0,059	-0,076
-489,737	-90,988	0,100	0,020
-488,722	800,000	0,042	-0,122
-487,708	151,343	0,078	0,077
-486,693	-200,000	0,023	0,145
-485,678	800,000	0,020	-0,054
-484,664	313,796	0,070	-0,095
-483,649	296,160	-0,028	0,037
-482,635	437,715	-0,031	-0,049
-481,620	-82,949	0,099	0,023
-480,605	108,869	0,096	0,083
-479,591	181,649	0,127	0,134
-478,576	-200,000	-0,020	-0,068
-477,562	131,792	-0,125	-0,116
-476,547	52,008	-0,107	0,073
-475,532	-200,000	0,013	-0,088
-474,518	800,000	-0,027	0,057
-473,503	413,818	0,071	0,109
-472,489	800,000	-0,001	0,002
-471,474	187,106	-0,053	0,057
-470,459	437,004	-0,040	-0,062
-469,445	-200,000	-0,001	0,070
-468,430	633,309	0,056	-0,102
-467,416	386,231	-0,052	0,077
-466,401	-117,448	-0,043	0,005
-465,386	-200,000	0,005	0,032
-464,372	542,211	-0,051	-0,087
-463,357	-200,000	-0,016	-0,115
-462,343	-200,000	0,025	-0,101
-461,328	160,471	-0,099	-0,099
-460,313	43,282	0,061	-0,040
-459,299	-200,000	-0,012	-0,047
-458,284	55,556	0,076	0,053
-457,270	-8,594	-0,041	-0,019
-456,255	15,237	-0,096	-0,054
-455,241	536,934	-0,027	-0,046
-454,226	85,001	-0,050	-0,040
-453,211	-200,000	-0,008	-0,037
-452,197	-15,818	0,088	0,040
-451,182	-200,000	-0,006	0,129
-450,168	257,417	0,018	0,022
-449,153	-200,000	-0,050	-0,157
-448,138	-44,235	-0,093	-0,033
-447,124	-118,999	0,114	-0,014
-446,109	-169,143	0,027	0,001
-445,095	390,171	0,036	0,054
-444,080	340,104	0,113	0,158
-443,065	149,272	-0,051	0,050
-442,051	-34,802	-0,082	-0,032
-441,036	464,643	0,034	0,054
-440,022	-78,976	-0,065	-0,016
-439,007	-26,044	-0,074	-0,031
-437,992	307,195	0,063	0,085
-436,978	-59,211	0,137	-0,042
-435,963	252,953	0,065	0,080
-434,949	83,494	-0,150	0,117
-433,934	673,938	-0,016	-0,031
-432,919	188,695	-0,080	-0,086
-431,905	190,192	0,032	0,034
-430,890	-200,000	0,045	0,147
-429,876	-86,422	0,165	0,036
-428,861	-71,842	0,085	-0,022
-427,846	127,558	-0,143	-0,130
-426,832	-93,631	-0,145	-0,028
-425,817	20,306	-0,181	-0,104
-424,803	141,801	0,056	-0,053
-423,788	89,482	0,050	0,040
-422,773	-20,814	0,119	0,052
-421,759	361,154	0,055	0,079
-420,744	200,715	0,010	0,011
-419,730	31,106	0,051	0,031
-418,715	-94,199	-0,090	-0,017
-417,701	800,000	-0,031	-0,073
-416,686	315,850	-0,105	-0,142
-415,671	-152,908	0,099	-0,005
-414,657	-116,037	-0,059	-0,008
-413,642	152,351	0,097	0,095
-412,628	371,125	0,053	0,077
-411,613	534,535	-0,058	0,098
-410,598	-144,755	-0,095	-0,006
-409,584	249,748	-0,062	-0,076
-408,569	-133,655	0,153	0,014
-407,555	800,000	0,023	-0,053
-406,540	-200,000	-0,038	0,124
-405,525	800,000	0,022	-0,045
-404,511	-200,000	-0,164	0,000
-403,496	191,155	0,079	-0,085
-402,482	342,501	-0,042	-0,060
-401,467	-200,000	0,013	0,072
-400,452	-200,000	0,027	-0,102
-399,438	-200,000	0,001	-0,101
-398,423	-200,000	0,027	-0,127
-397,409	183,101	-0,016	0,017
-396,394	-200,000	0,009	-0,082
-395,379	385,278	0,041	-0,061
-394,365	14,645	0,107	0,059
-393,350	-200,000	-0,032	-0,103
-392,336	-83,073	-0,106	0,024
-391,321	-85,650	0,152	-0,034
-390,306	9,600	-0,117	0,063
-389,292	-27,075	-0,082	0,034
-388,277	-110,059	0,115	-0,017
-387,263	25,617	0,120	-0,071
-386,248	64,869	-0,084	0,060
-385,233	178,426	0,079	0,082
-384,219	-94,946	0,104	0,020
-383,204	-31,519	0,037	0,015
-382,190	578,894	-0,039	-0,068
-381,175	800,000	-0,004	0,011
-380,160	800,000	0,026	0,060
-379,146	800,000	0,053	0,117
-378,131	103,243	-0,067	0,056
-377,117	-86,583	0,134	0,029
-376,102	251,905	-0,049	-0,060
-375,088	129,325	-0,093	-0,085
-374,073	-118,083	0,021	0,003
-373,058	81,448	0,119	0,092
-372,044	-200,000	0,023	0,119
-371,029	-24,432	-0,030	-0,013
-370,015	-200,000	-0,003	0,059
-369,000	-156,276	-0,097	-0,004
-367,985	2,066	0,044	0,023
-366,971	241,499	-0,036	-0,043
-365,956	-134,164	0,058	-0,005
-364,942	-200,000	0,025	0,093
-363,927	-8,730	0,101	0,048
-362,912	-200,000	0,010	0,061
-361,898	235,605	-0,065	0,077
-360,883	88,110	-0,064	-0,051
-359,869	111,587	-0,097	-0,083
-358,854	-86,518	0,105	-0,023
-357,839	-200,000	0,024	-0,105
-356,825	600,505	0,097	0,173
-355,810	286,323	0,011	0,014
-354,796	800,000	0,047	-0,096
-353,781	-200,000	-0,007	-0,033
-352,766	-200,000	-0,002	-0,093
-351,752	-147,403	-0,053	0,003
-350,737	-52,339	0,064	0,021
-349,723	-73,697	0,025	-0,006
-348,708	374,574	0,051	0,074
-347,693	33,481	0,067	-0,041
-346,679	-103,294	-0,060	0,010
-345,664	-86,926	-0,093	0,020
-344,650	-200,000	-0,032	-0,137
-343,635	-200,000	-0,002	0,029
-342,620	-200,000	0,009	-0,041
-341,606	-200,000	-0,001	-0,056
-340,591	800,000	-0,014	-0,042
-339,577	-200,000	-0,017	-0,112
-338,562	-31,148	-0,053	-0,021
-337,548	-40,243	0,158	-0,058
-336,533	-47,082	0,089	0,031
-335,518	-138,524	0,105	-0,008
-334,504	-200,000	0,010	-0,077
-333,489	800,000	0,065	-0,178
-332,475	165,766	-0,052	0,052
-331,460	-50,590	-0,111	-0,037
-330,445	-118,167	-0,041	-0,005
-329,431	-200,000	-0,002	0,031
-328,416	-80,386	0,010	0,002
-327,402	-32,649	0,040	-0,016
-326,387	-117,879	-0,068	-0,009
-325,372	-125,123	-0,214	-0,023
-324,358	-200,000	0,012	-0,131
-323,343	-34,335	0,069	-0,027
-322,329	52,287	0,067	0,045
-321,314	-17,194	0,139	-0,062
-320,299	18,027	0,109	-0,061
-319,285	44,702	0,082	0,053
-318,270	-104,217	-0,083	0,014
-317,256	-132,343	-0,086	0,008
-316,241	-200,000	-0,027	-0,113
-315,226	-142,693	0,145	-0,010
-314,212	99,042	0,065	0,053
-313,197	18,023	0,056	0,032
-312,183	-148,351	-0,145	-0,008
-311,168	275,951	-0,019	0,024
-310,153	392,091	0,037	0,055
-309,139	800,000	-0,026	-0,066
-308,124	714,353	0,050	-0,095
-307,110	-136,590	0,133	0,011
-306,095	800,000	-0,029	0,061
-305,080	-35,815	0,131	0,050
-304,066	-200,000	-0,028	-0,110
-303,051	327,076	0,032	0,044
-302,037	-200,000	0,003	-0,081
-301,022	800,000	0,047	-0,106
-300,008	-200,000	-0,011	0,119
-298,993	-35,890	0,063	-0,024
-297,978	36,562	0,027	-0,017
-296,964	664,826	-0,060	-0,111
-295,949	-93,051	0,164	0,032
-294,935	-68,369	-0,064	-0,018
-293,920	-50,758	-0,069	-0,023
-292,905	242,188	0,093	0,111
-291,891	-200,000	-0,001	0,011
-290,876	626,575	0,059	0,106
-289,862	800,000	0,049	0,112
-288,847	56,350	-0,105	-0,072
-287,832	15,864	-0,121	-0,068
-286,818	-95,765	-0,046	-0,009
-285,803	800,000	0,028	0,056
-284,789	-200,000	-0,015	0,056
-283,774	116,578	0,072	0,063
-282,759	-71,293	-0,086	-0,023
-281,745	-200,000	0,017	-0,147
-280,730	93,114	0,023	-0,018
-279,716	-45,964	0,024	0,008
-278,701	-17,669	0,159	-0,071
-277,686	800,000	0,024	0,064
-276,672	-27,671	-0,085	0,035
-275,657	779,440	0,095	0,185
-274,643	107,454	-0,158	-0,134
-273,628	800,000	-0,024	-0,049
-272,613	-200,000	-0,007	0,071
-271,599	92,987	0,060	0,048
-270,584	13,846	0,083	-0,046
-269,570	-200,000	0,012	0,089
-268,555	800,000	0,057	-0,149
-267,540	800,000	-0,035	-0,096
-266,526	-138,393	-0,091	-0,007
-265,511	-136,662	-0,027	-0,002
-264,497	-73,997	0,011	0,003
-263,482	76,002	0,118	-0,089
-262,467	421,935	0,039	0,059
-261,453	-33,164	-0,034	0,013
-260,438	-39,837	-0,085	0,032
-259,424	-165,885	-0,074	0,002
-258,409	-200,000	-0,036	-0,148
-257,395	-100,890	0,020	0,003
-256,380	49,646	0,069	-0,046
-255,365	541,741	0,032	-0,054
-254,351	800,000	0,104	0,239
-253,336	141,506	-0,067	0,063
-252,322	52,606	-0,040	0,027
-251,307	-110,663	-0,052	-0,008
-250,292	-101,990	0,086	-0,015
-249,278	-14,623	-0,053	-0,024
-248,263	100,412	0,121	-0,100
-247,249	451,553	-0,071	0,112
-246,234	758,947	-0,011	-0,022
-245,219	-69,865	0,063	0,017
-244,205	-200,000	-0,026	-0,092
-243,190	69,808	0,110	-0,081
-242,176	684,770	0,040	0,075
-241,161	123,669	0,098	0,088
-240,146	227,903	-0,076	0,087
-239,132	165,348	-0,058	0,059
-238,117	-126,976	-0,105	-0,011
-237,103	104,754	0,130	0,108
-236,088	321,450	-0,043	0,059
-235,073	536,950	0,045	0,076
-234,059	-19,532	0,083	0,037
-233,044	-200,000	0,005	-0,053
-232,030	197,038	0,039	0,042
-231,015	-143,670	0,066	-0,004
-230,000	-25,709	-0,066	-0,028
-228,986	800,000	0,019	-0,057
-227,971	-200,000	-0,007	-0,050
-226,957	285,830	0,079	0,101
-225,942	-200,000	0,033	0,156
-224,927	111,925	-0,036	-0,031
-223,913	24,396	0,044	0,026
-222,898	199,312	0,037	-0,040
-221,884	-140,947	-0,140	0,010
-220,869	43,826	0,115	0,075
-219,855	-200,000	-0,002	0,050
-218,840	245,394	0,026	0,031
-217,825	800,000	0,018	-0,043
-216,811	-52,492	-0,079	-0,026
-215,796	-200,000	0,006	0,070
-214,782	800,000	0,033	0,077
-213,767	-119,509	-0,107	-0,013
-212,752	-200,000	-0,004	0,051
-211,738	800,000	0,054	0,157
-210,723	567,977	0,012	-0,021
-209,709	-200,000	-0,003	-0,038
-208,694	-200,000	-0,026	-0,224
-207,679	-200,000	0,029	0,113
-206,665	-3,117	0,016	0,008
-205,650	-200,000	-0,002	-0,196
-204,636	800,000	-0,024	-0,051
-203,621	-52,663	-0,015	0,005
-202,606	90,154	-0,087	-0,069
-201,592	388,285	0,041	-0,061
-200,577	-200,000	-0,035	-0,121
-199,563	386,229	0,069	0,102
-198,548	-90,227	0,085	0,017
-197,533	223,622	-0,040	0,046
-196,519	231,668	-0,076	0,089
-195,504	208,996	0,031	0,035
-194,490	800,000	0,014	-0,039
-193,475	235,626	-0,031	-0,036
-192,460	-200,000	0,031	-0,111
-191,446	-200,000	-0,016	0,100
-190,431	27,544	0,052	0,031
-189,417	-200,000	-0,009	0,106
-188,402	-75,937	-0,054	0,014
-187,387	800,000	-0,062	-0,128
-186,373	-200,000	0,001	0,010
-185,358	490,637	0,069	-0,113
-184,344	138,905	-0,066	0,061
-183,329	224,152	0,179	0,205
-182,315	-200,000	0,032	0,147
-181,300	224,881	0,100	0,115
-180,285	-21,114	-0,051	-0,022
-179,271	9,531	0,013	-0,007
-178,256	418,124	-0,017	-0,025
-177,242	72,954	0,012	0,009
-176,227	646,620	0,018	0,032
-175,212	-111,426	-0,052	0,007
-174,198	594,361	0,046	-0,080
-173,183	-200,000	0,041	0,145
-172,169	-39,281	-0,101	0,038
-171,154	-96,533	-0,104	0,019
-170,139	-200,000	-0,005	0,082
-169,125	249,870	-0,042	-0,051
-168,110	202,995	0,081	0,089
-167,096	-200,000	-0,001	-0,185
-166,081	-127,964	-0,069	-0,007
-165,066	-200,000	0,001	0,079
-164,052	800,000	0,075	0,187
-163,037	248,448	0,054	0,065
-162,023	-200,000	-0,001	0,108
-161,008	-117,402	-0,151	-0,019
-159,993	800,000	-0,041	-0,103
-158,979	635,181	0,073	-0,131
-157,964	-200,000	0,022	-0,115
-156,950	411,265	-0,027	-0,040
-155,935	124,539	0,100	0,089
-154,920	-125,559	-0,073	0,008
-153,906	800,000	0,033	0,070
-152,891	-8,875	-0,072	0,034
-151,877	-9,668	-0,052	-0,025
-150,862	626,230	-0,035	0,063
-149,847	696,046	0,049	-0,091
-148,833	800,000	0,063	-0,125
-147,818	383,514	0,084	0,123
-146,804	-42,925	0,103	-0,037
-145,789	389,062	-0,071	0,105
-144,775	143,995	0,046	-0,043
-143,760	800,000	0,008	-0,021
-142,745	-200,000	-0,081	0,000
-141,731	7,413	0,095	0,050
-140,716	218,975	0,058	0,066
-139,702	800,000	-0,040	-0,088
-138,687	-67,250	0,032	0,009
-137,672	-31,649	-0,054	-0,021
-136,658	321,576	0,047	-0,064
-135,643	-200,000	0,006	0,020
-134,629	716,891	-0,066	0,125
-133,614	24,741	0,032	0,019
-132,599	-200,000	0,057	0,195
-131,585	367,532	-0,066	-0,095
-130,570	-162,512	-0,164	-0,006
-129,556	-200,000	0,018	-0,109
-128,541	-200,000	0,014	-0,059
-127,526	-40,856	0,045	0,016
-126,512	-200,000	0,002	0,034
-125,497	-200,000	-0,008	0,072
-124,483	-97,709	-0,034	-0,006
-123,468	-200,000	-0,039	-0,137
-122,453	175,827	0,017	-0,018
-121,439	-200,000	-0,009	0,047
-120,424	208,208	-0,084	-0,092
-119,410	-53,159	0,077	0,025
-118,395	544,670	-0,044	-0,074
-117,380	-200,000	-0,005	-0,075
-116,366	-200,000	0,038	-0,160
-115,351	-200,000	-0,017	-0,127
-114,337	124,324	-0,041	0,037
-113,322	533,764	-0,076	0,127
-112,307	-92,956	0,134	-0,026
-111,293	-200,000	-0,003	0,074
-110,278	-200,000	0,002	-0,085
-109,264	-200,000	0,021	0,176
-108,249	800,000	0,069	0,153
-107,234	-200,000	0,000	-0,060
-106,220	158,071	0,064	0,063
-105,205	-200,000	0,013	0,087
-104,191	334,435	-0,052	-0,071
-103,176	-200,000	0,001	0,110
-102,162	-65,076	0,108	0,030
-101,147	392,973	-0,042	0,062
-100,132	3,609	-0,042	0,022
-99,118	-200,000	-0,025	-0,093
-98,103	154,761	-0,069	0,067
-97,089	131,689	-0,053	0,048
-96,074	800,000	0,039	-0,094
-95,059	-121,339	-0,174	0,020
-94,045	72,186	-0,029	-0,021
-93,030	-200,000	-0,038	-0,124
-92,016	321,930	-0,043	-0,058
-91,001	259,969	0,028	0,034
-89,986	-115,168	0,042	-0,006
-88,972	-200,000	-0,001	0,102
-87,957	242,041	-0,092	0,109
-86,943	-112,524	0,148	0,021
-85,928	-142,679	-0,195	-0,013
-84,913	0,333	-0,044	-0,022
-83,899	-150,968	-0,084	-0,004
-82,884	-200,000	-0,022	0,094
-81,870	-200,000	0,004	-0,024
-80,855	-14,580	0,037	-0,017
-79,840	800,000	0,016	-0,037
-78,826	97,245	0,031	-0,025
-77,811	800,000	-0,030	0,064
-76,797	587,843	-0,039	0,068
-75,782	-200,000	-0,011	0,061
-74,767	-200,000	0,047	-0,155
-73,753	529,589	-0,011	-0,018
-72,738	-200,000	-0,025	0,097
-71,724	-65,494	0,122	-0,034
-70,709	194,044	-0,104	-0,111
-69,694	-200,000	-0,006	0,130
-68,680	-91,768	0,132	-0,026
-67,665	800,000	0,015	0,041
-66,651	800,000	-0,069	0,170
-65,636	-16,612	-0,037	0,016
-64,622	-200,000	0,019	-0,063
-63,607	63,747	-0,087	-0,062
-62,592	-200,000	0,008	-0,042
-61,578	-72,343	0,105	-0,027
-60,563	62,872	-0,016	-0,011
-59,549	201,711	0,047	0,051
-58,534	68,771	-1,996	-1,444
-57,519	492,712	-1,149	-1,865
-56,505	-200,000	-0,395	-4,547
-55,490	609,837	0,938	1,659
-54,476	800,000	5,223	11,333
-53,461	-200,000	22,123	340,272
-52,446	800,000	760,008	2291,295
-51,432	529,782	1653,599	2765,024
-50,417	68,694	1651,618	1193,909
-49,403	16,339	1527,127	847,662
-48,388	10,555	1451,748	777,952
-47,373	19,144	1443,873	814,758
-46,359	13,958	1432,692	783,858
-45,344	8,819	1428,629	757,227
-44,330	8,789	1426,714	756,037
-43,315	8,781	1424,857	754,986
-42,300	8,817	1422,885	754,084
-41,286	8,803	1421,792	753,407
-40,271	8,755	1420,791	752,617
-39,257	8,779	1419,227	751,875
-38,242	8,773	1418,475	751,419
-37,227	8,802	1417,313	750,911
-36,213	8,812	1415,891	750,174
-35,198	8,806	1414,567	749,413
-34,184	8,835	1413,726	749,074
-33,169	8,728	1412,551	747,918
-32,154	8,803	1411,370	747,615
-31,140	8,763	1410,128	746,742
-30,125	8,801	1408,884	746,230
-29,111	8,763	1407,756	745,427
-28,096	8,767	1406,524	744,764
-27,082	8,721	1405,271	743,853
-26,067	8,689	1404,519	743,279
-25,052	8,766	1403,120	742,866
-24,038	8,743	1402,215	742,252
-23,023	8,716	1401,411	741,670
-22,009	8,707	1400,311	741,017
-20,994	8,671	1399,248	740,255
-19,979	8,658	1398,633	739,842
-18,965	8,655	1397,590	739,247
-17,950	8,673	1396,422	738,685
-16,936	8,662	1395,497	738,115
-15,921	8,558	1394,722	737,191
-14,906	8,642	1393,523	736,919
-13,892	8,693	1392,674	736,678
-12,877	8,674	1391,885	736,142
-11,863	8,656	1391,196	735,664
-10,848	8,628	1390,248	735,004
-9,833	8,608	1389,121	734,288
-8,819	8,537	1388,511	733,608
-7,804	8,534	1387,539	733,050
-6,790	8,561	1386,447	732,569
-5,775	8,534	1385,459	731,897
-4,760	8,593	1384,365	731,559
-3,746	8,566	1383,535	730,967
-2,731	8,614	1382,629	730,682
-1,717	8,603	1381,771	730,149
-0,702	8,582	1380,117	729,148
0,313	12,478	1291,421	700,035
1,327	28,376	682,117	405,407
2,342	43,962	117,576	75,796
3,356	-1,038	16,580	8,238
4,371	-0,167	3,591	1,795
5,386	-30,843	1,395	0,553
6,400	800,000	0,270	0,633
7,415	-54,095	-0,380	-0,121
8,429	-14,310	-0,315	-0,142
9,444	124,045	-0,255	-0,225
10,459	-84,038	-0,319	-0,071
11,473	-42,175	-0,282	-0,101
12,488	-87,055	-0,279	0,059
13,502	110,611	-0,337	-0,286
14,517	7,538	-0,221	-0,116
15,531	-33,851	-0,287	-0,111
16,546	105,357	-0,382	-0,317
17,561	-44,400	-0,469	-0,164
18,575	17,107	-0,302	-0,168
19,590	92,407	-0,210	-0,166
20,604	50,428	-0,238	-0,158
21,619	111,808	-0,414	-0,352
22,634	130,191	-0,392	-0,353
23,648	41,971	-0,386	-0,246
24,663	40,816	-0,357	-0,226
25,677	-23,725	-0,284	-0,119
26,692	154,499	-0,300	-0,290
27,707	-5,842	-0,269	-0,129
28,721	18,626	-0,408	-0,229
29,736	51,211	-0,459	-0,306
30,750	193,869	-0,392	-0,418
31,765	129,229	-0,347	-0,311
32,780	-37,196	-0,361	-0,135
33,794	85,318	-0,279	-0,215
34,809	119,797	-0,296	-0,258
35,823	46,970	-0,382	-0,249
36,838	158,640	-0,333	-0,325
37,853	67,936	-0,297	-0,213
38,867	83,585	-0,389	-0,298
39,882	670,438	-0,161	-0,295
40,896	-38,182	-0,363	-0,135
41,911	113,750	-0,216	-0,185
42,926	78,825	-0,330	-0,248
43,940	94,480	-0,346	-0,276
44,955	34,546	-0,467	-0,286
45,969	147,932	-0,358	-0,339
46,984	42,341	-0,269	-0,172
47,999	269,565	-0,207	-0,255
49,013	-92,407	-0,353	-0,069
50,028	-18,045	-0,316	-0,139
51,042	26,226	-0,302	-0,177
52,057	31,492	-0,345	-0,207
53,071	92,433	-0,455	-0,360
54,086	109,522	-0,390	-0,327
55,101	518,461	-0,122	-0,201
56,115	-16,224	-0,328	-0,146
57,130	-34,422	-0,350	-0,134
58,144	412,210	-0,254	-0,380
59,159	25,939	-0,373	-0,218
60,174	63,256	-0,387	-0,272
61,188	153,768	-0,446	-0,429
62,203	-26,443	-0,322	-0,132
63,217	164,157	-0,239	-0,236
64,232	21,575	-0,357	-0,203
65,247	-26,416	-0,383	-0,157
66,261	36,252	-0,314	-0,194
67,276	-54,500	-0,483	-0,152
68,290	105,833	-0,326	-0,270
69,305	52,144	-0,331	-0,221
70,320	26,946	-0,285	-0,167
71,334	183,106	-0,226	-0,234
72,349	602,101	-0,139	-0,242
73,363	26,544	-0,246	-0,144
74,378	126,058	-0,361	-0,319
75,393	262,693	-0,289	-0,352
76,407	-136,726	-0,258	-0,021
77,422	60,033	-0,208	-0,144
78,436	-93,509	-0,414	-0,080
79,451	120,314	-0,302	-0,262
80,466	26,902	-0,271	-0,159
81,480	66,957	-0,317	-0,226
82,495	0,173	-0,282	-0,140
83,509	79,126	-0,256	-0,191
84,524	4,510	-0,351	-0,179
85,539	98,657	-0,232	-0,187
86,553	-5,182	-0,146	-0,070
87,568	88,197	-0,351	-0,273
88,582	37,546	-0,302	-0,187
89,597	-134,186	-0,252	-0,021
90,611	148,291	-0,231	-0,218
91,626	-94,083	-0,347	-0,066
92,641	-103,333	-0,327	-0,053
93,655	14,611	-0,245	-0,133
94,670	151,906	-0,308	-0,294
95,684	174,467	-0,313	-0,316
96,699	64,622	-0,262	-0,184
97,714	74,871	-0,235	-0,173
98,728	-15,772	-0,216	-0,096
99,743	91,460	-0,225	-0,176
100,757	-84,133	-0,268	-0,059
101,772	155,654	-0,214	-0,206
102,787	20,161	-0,339	-0,190
103,801	-118,147	-0,376	-0,046
104,816	82,261	-0,197	-0,149
105,830	94,288	-0,160	-0,126
106,845	-61,624	-0,223	-0,065
107,860	96,323	-0,219	-0,175
108,874	18,320	-0,443	-0,246
109,889	74,434	-0,329	-0,241
110,903	93,288	-0,286	-0,226
111,918	271,656	-0,269	-0,332
112,933	152,421	-0,170	-0,162
113,947	295,985	-0,187	-0,240
114,962	365,086	-0,074	-0,105
115,976	116,518	-0,219	-0,187
116,991	51,362	-0,189	-0,125
118,006	72,044	-0,343	-0,249
119,020	162,320	-0,269	-0,263
120,035	-162,760	-0,269	-0,009
121,049	-1,794	-0,238	-0,117
122,064	162,878	-0,224	-0,219
123,079	101,980	-0,192	-0,156
124,093	232,566	-0,119	-0,136
125,108	800,000	-0,098	-0,281
126,122	-59,550	-0,283	-0,084
127,137	35,955	-0,251	-0,154
128,151	-10,861	-0,177	-0,081
129,166	172,852	-0,271	-0,273
130,181	-50,734	-0,229	-0,075
131,195	24,476	-0,233	-0,134
132,210	100,690	-0,312	-0,252
133,224	-15,918	-0,344	-0,152
134,239	-39,672	-0,204	-0,074
135,254	20,114	-0,131	-0,074
136,268	50,366	-0,169	-0,111
137,283	49,992	-0,283	-0,186
138,297	18,116	-0,240	-0,133
139,312	291,874	-0,195	-0,248
140,327	21,182	-0,303	-0,171
141,341	16,205	-0,097	-0,053
142,356	-59,867	-0,289	-0,085
143,370	32,039	-0,156	-0,093
144,385	233,246	-0,201	-0,230
145,400	60,703	-0,251	-0,173
146,414	81,677	-0,331	-0,249
147,429	83,951	-0,353	-0,268
148,443	145,749	-0,239	-0,223
149,458	-51,585	-0,170	-0,055
150,473	782,739	-0,144	-0,275
151,487	112,236	-0,275	-0,231
152,502	29,209	-0,242	-0,143
153,516	55,121	-0,213	-0,143
154,531	96,276	-0,227	-0,180
155,546	113,047	-0,105	-0,088
156,560	306,415	-0,142	-0,184
157,575	5,267	-0,276	-0,141
158,589	-70,525	-0,280	-0,073
159,604	587,114	-0,148	-0,254
160,619	34,496	-0,265	-0,161
161,633	-138,241	-0,206	0,016
162,648	189,414	-0,212	-0,221
163,662	-58,240	-0,346	-0,104
164,677	800,000	-0,059	-0,168
165,692	-40,087	-0,271	-0,098
166,706	78,690	-0,216	-0,160
167,721	385,343	-0,192	-0,277
168,735	83,654	-0,194	-0,147
169,750	4,048	-0,297	-0,150
170,764	-78,676	-0,213	-0,050
171,779	-33,762	-0,189	-0,072
172,794	-113,780	-0,168	-0,023
173,808	257,724	-0,141	-0,169
174,823	-16,297	-0,317	-0,139
175,837	127,101	-0,230	-0,202
176,852	246,187	-0,080	-0,094
177,867	-121,138	-0,171	-0,020
178,881	-4,780	-0,283	-0,135
179,896	-138,022	-0,200	-0,015
180,910	18,579	-0,230	-0,127
181,925	173,488	-0,096	-0,096
182,940	203,947	-0,158	-0,170
183,954	155,577	-0,171	-0,163
184,969	-113,475	-0,146	-0,020
185,983	-104,026	-0,246	-0,039
186,998	-40,389	-0,228	-0,082
188,013	-122,026	-0,305	-0,034
189,027	608,880	-0,145	-0,253
190,042	68,507	-0,349	-0,248
191,056	411,649	-0,180	-0,265
192,071	19,026	-0,250	-0,138
193,086	-36,054	-0,202	-0,075
194,100	314,607	-0,122	-0,160
195,115	0,352	-0,215	-0,106
196,129	-78,954	-0,103	0,024
197,144	722,085	-0,182	-0,337
198,159	-56,823	-0,212	-0,064
199,173	152,634	-0,126	-0,119
200,188	20,107	-0,161	-0,090
201,202	-49,639	-0,290	-0,095
202,217	192,274	-0,168	-0,175
203,232	-106,907	-0,098	-0,015
204,246	39,212	-0,324	-0,201
205,261	38,202	-0,330	-0,203
206,275	-39,615	-0,111	-0,040
207,290	-10,809	-0,161	-0,073
208,304	180,309	-0,081	-0,083
209,319	21,537	-0,213	-0,120
210,334	-151,600	-0,202	-0,010
211,348	-71,542	-0,177	-0,046
212,363	124,534	-0,203	-0,177
213,377	-165,126	-0,210	-0,006
214,392	10,742	-0,107	-0,056
215,407	-1,601	-0,195	-0,095
216,421	8,007	-0,161	-0,083
217,436	457,013	-0,068	-0,105
218,450	305,710	-0,108	-0,139
219,465	35,292	-0,291	-0,176
220,480	82,751	-0,159	-0,120
221,494	-121,074	-0,092	-0,011
222,509	67,859	-0,129	-0,091
223,523	247,137	-0,206	-0,241
224,538	232,696	-0,126	-0,143
225,553	109,643	-0,193	-0,160
226,567	76,680	-0,285	-0,209
227,582	72,619	-0,163	-0,118
228,596	566,669	-0,135	-0,228
229,611	-16,139	-0,198	-0,087
230,626	6,084	-0,225	-0,115
231,640	777,552	-0,069	-0,131
232,655	110,296	-0,225	-0,186
233,669	-128,089	-0,291	-0,028
234,684	271,458	-0,180	-0,220
235,699	237,565	-0,120	-0,138
236,713	-51,519	-0,212	-0,068
237,728	244,940	-0,193	-0,224
238,742	-193,206	-0,236	-0,001
239,757	114,234	-0,198	-0,166
240,772	-10,431	-0,125	-0,057
241,786	81,498	-0,323	-0,241
242,801	399,752	-0,126	-0,182
243,815	53,979	-0,114	-0,076
244,830	146,427	-0,124	-0,115
245,844	87,444	-0,167	-0,128
246,859	454,066	-0,124	-0,190
247,874	97,262	-0,146	-0,116
248,888	800,000	-0,103	-0,198
249,903	-200,000	-0,030	-0,129
250,917	168,436	-0,173	-0,170
251,932	-106,456	-0,181	-0,028
252,947	223,514	-0,226	-0,252
253,961	-157,494	-0,198	0,008
254,976	60,812	-0,225	-0,154
255,990	-12,936	-0,184	-0,082
257,005	59,350	-0,157	-0,106
258,020	110,221	-0,154	-0,127
259,034	111,721	-0,159	-0,132
260,049	116,097	-0,220	-0,186
261,063	42,404	-0,091	-0,057
262,078	144,594	-0,212	-0,196
263,093	-200,000	-0,023	-0,196
264,107	161,788	-0,199	-0,192
265,122	-68,024	-0,176	0,047
266,136	82,256	-0,112	-0,083
267,151	-109,879	-0,211	-0,030
268,166	180,788	-0,068	-0,069
269,180	-3,080	-0,138	-0,066
270,195	-105,028	-0,103	-0,016
271,209	-33,756	-0,180	-0,068
272,224	128,750	-0,171	-0,150
273,239	800,000	-0,071	-0,173
274,253	52,941	-0,139	-0,091
275,268	100,080	-0,165	-0,131
276,282	59,828	-0,238	-0,162
277,297	-134,385	-0,247	0,021
278,312	46,081	-0,156	-0,099
279,326	37,568	-0,088	-0,054
280,341	-56,305	-0,040	0,012
281,355	-3,759	-0,167	-0,079
282,370	249,563	-0,123	-0,143
283,384	64,641	-0,237	0,164
284,399	198,661	-0,157	-0,165
285,414	-58,855	-0,287	-0,085
286,428	351,007	-0,036	-0,049
287,443	182,502	-0,128	-0,130
288,457	169,346	-0,147	-0,144
289,472	-85,565	-0,257	-0,055
290,487	-14,396	-0,219	-0,097
291,501	-133,209	-0,204	-0,017
292,516	53,947	-0,081	-0,054
293,530	-72,604	-0,272	-0,068
294,545	-121,757	-0,152	-0,017
295,560	211,483	-0,079	-0,086
296,574	583,326	0,024	0,041
297,589	-200,000	-0,031	-0,131
298,603	5,908	-0,214	-0,109
299,618	204,012	-0,153	-0,162
300,633	417,499	-0,090	-0,132
301,647	800,000	-0,055	-0,110
302,662	32,463	-0,128	-0,076
303,676	125,423	-0,112	-0,097
304,691	431,972	-0,081	-0,120
305,706	470,129	-0,152	-0,235
306,720	177,175	-0,232	-0,232
307,735	800,000	-0,087	-0,168
308,749	294,831	-0,080	-0,100
309,764	297,639	-0,124	-0,156
310,779	210,136	-0,146	-0,158
311,793	-92,812	-0,287	0,055
312,808	800,000	-0,097	-0,204
313,822	-33,445	-0,154	-0,058
314,837	380,263	-0,154	-0,217
315,852	300,566	-0,097	-0,123
316,866	-167,974	-0,166	0,004
317,881	800,000	-0,107	-0,252
318,895	-113,052	-0,225	-0,030
319,910	86,793	-0,087	-0,066
320,925	205,619	-0,140	-0,150
321,939	256,689	-0,165	-0,194
322,954	497,235	-0,144	-0,228
323,968	800,000	-0,090	-0,212
324,983	-105,824	-0,139	-0,021
325,997	-112,065	-0,078	-0,011
327,012	-11,200	-0,067	-0,030
328,027	259,784	-0,172	-0,204
329,041	267,560	-0,114	-0,136
330,056	578,020	-0,083	-0,140
331,070	217,232	-0,146	-0,159
332,085	-99,073	-0,194	-0,033
333,100	494,667	-0,113	-0,179
334,114	70,775	-0,158	-0,112
335,129	-28,423	-0,202	-0,079
336,143	53,037	-0,087	-0,057
337,158	-60,068	-0,160	-0,046
338,173	306,002	-0,092	-0,118
339,187	3,803	-0,082	0,041
340,202	-22,866	-0,241	-0,099
341,216	-72,654	-0,183	0,046
342,231	7,592	-0,218	-0,111
343,246	179,532	-0,057	-0,057
344,260	-138,693	-0,141	0,010
345,275	-38,484	-0,098	-0,035
346,289	-89,861	-0,052	-0,010
347,304	66,207	-0,160	-0,111
348,319	20,573	-0,193	-0,107
349,333	124,296	-0,229	-0,197
350,348	18,715	-0,159	-0,087
351,362	-48,550	-0,087	-0,028
352,377	-200,000	-0,020	-0,132
353,392	121,499	-0,074	-0,063
354,406	12,259	-0,151	-0,079
355,421	207,805	1310,938	1400,630
356,435	159,870	1471,154	1401,075
