DTS Sentinel unit serial number:	SN410029Multiplexer serial number:	ORYXHardware model number:	OX2-SRSoftware version number:	ORYX F/W v4,00 Oryx Data Collector v3.7.2.0data status	okinstallation	B3 Nyhavnadifferential loss correction	single-endedforward channel	channel 1reverse channel	N/Adate	2023/11/28time	21:27:30forward acquisition time	300,00reverse acquisition time	0,00gamma	499,1914k internal	0,3212k external	0,3212temperature offset calibration	1,0000default loss term (dB/km)	0,3820temperature slope calibration	1,0000multiplexer offset coefficient	1,0000multiplexer slope coefficient	1,0000fibre end	0,00T internal ref (°C)	8,31T ext. ref 1 (°C)	-6,20T ext. ref 2 (°C)	-6,33length (m)	temperature (°C)	Stokes	anti-Stokes-744,400	441,467	-0,202	-0,321
-743,385	-200,000	-0,032	0,266
-742,371	800,000	-0,101	-0,296
-741,356	-200,000	-0,075	0,246
-740,342	800,000	-0,085	-0,202
-739,327	-200,000	-0,015	0,199
-738,312	125,419	-0,249	-0,228
-737,298	800,000	-0,080	0,192
-736,283	251,698	-0,166	-0,205
-735,269	-200,000	-0,063	0,265
-734,254	407,868	-0,085	-0,131
-733,239	-89,356	-0,094	0,020
-732,225	674,525	-0,123	-0,233
-731,210	-3,310	0,131	0,066
-730,196	-188,438	-0,049	-0,000
-729,181	-5,765	-0,022	-0,011
-728,167	-200,000	0,002	-0,194
-727,152	-72,048	-0,042	-0,011
-726,137	-102,262	-0,088	-0,015
-725,123	-200,000	-0,009	-0,115
-724,108	683,823	0,014	-0,026
-723,094	800,000	-0,043	-0,125
-722,079	202,108	-0,076	-0,085
-721,064	7,600	-0,065	-0,035
-720,050	91,869	0,079	-0,064
-719,035	-200,000	0,008	0,079
-718,021	-150,142	-0,039	0,002
-717,006	46,958	-0,074	-0,050
-715,991	-200,000	-0,003	-0,078
-714,977	-52,544	-0,158	-0,053
-713,962	-3,272	-0,146	-0,073
-712,948	-1,514	0,061	-0,031
-711,933	-64,260	-0,180	0,053
-710,918	395,067	-0,067	-0,101
-709,904	62,689	-0,040	-0,029
-708,889	-200,000	-0,019	0,078
-707,875	188,500	-0,135	-0,146
-706,860	55,291	-0,114	-0,080
-705,845	529,387	0,033	0,056
-704,831	-200,000	0,015	-0,060
-703,816	312,712	0,011	0,015
-702,802	800,000	0,025	-0,052
-701,787	157,043	-0,046	-0,046
-700,772	-200,000	-0,059	-0,224
-699,758	220,604	0,055	-0,064
-698,743	-200,000	-0,065	0,000
-697,729	52,358	-0,109	0,075
-696,714	-200,000	0,032	-0,120
-695,699	-164,348	0,070	-0,002
-694,685	62,841	-0,200	-0,144
-693,670	-200,000	-0,037	-0,189
-692,656	-200,000	0,001	-0,005
-691,641	-200,000	0,010	-0,072
-690,627	-87,512	0,001	0,000
-689,612	432,030	0,070	-0,110
-688,597	95,890	0,061	0,050
-687,583	-200,000	0,015	-0,154
-686,568	14,019	-0,099	0,056
-685,554	-200,000	0,007	-0,074
-684,539	4,856	0,031	0,016
-683,524	-89,801	-0,048	0,010
-682,510	-22,120	0,054	0,024
-681,495	-122,852	-0,025	0,003
-680,481	387,191	-0,116	0,174
-679,466	546,120	0,026	-0,045
-678,451	133,580	-0,021	-0,019
-677,437	-81,571	0,077	-0,018
-676,422	-200,000	-0,006	0,064
-675,408	196,417	-0,044	-0,048
-674,393	-200,000	0,012	0,092
-673,378	54,621	-0,068	-0,047
-672,364	800,000	-0,034	0,075
-671,349	-200,000	-0,043	-0,170
-670,335	783,509	0,027	-0,055
-669,320	-200,000	0,003	0,098
-668,305	295,157	0,010	-0,013
-667,291	800,000	-0,049	0,131
-666,276	-196,585	-0,065	0,000
-665,262	800,000	-0,056	-0,125
-664,247	138,538	-0,029	0,028
-663,232	-192,415	-0,033	0,000
-662,218	113,974	-0,066	0,058
-661,203	-30,629	0,065	-0,026
-660,189	23,603	-0,012	0,007
-659,174	36,710	-0,061	-0,039
-658,159	-200,000	0,002	-0,013
-657,145	-165,749	0,085	-0,003
-656,130	800,000	-0,048	-0,145
-655,116	-64,172	-0,142	0,041
-654,101	800,000	0,019	-0,055
-653,086	36,250	0,178	-0,113
-652,072	202,401	-0,036	0,041
-651,057	-200,000	-0,018	-0,160
-650,043	800,000	-0,046	0,142
-649,028	61,169	0,092	-0,066
-648,014	-13,521	-0,025	0,012
-646,999	-200,000	-0,016	-0,130
-645,984	167,512	-0,037	0,038
-644,970	800,000	0,020	-0,061
-643,955	800,000	-0,082	-0,174
-642,941	277,892	-0,033	-0,042
-641,926	147,090	-0,051	-0,050
-640,911	139,533	0,098	-0,093
-639,897	669,751	0,078	0,147
-638,882	254,847	-0,053	0,066
-637,868	800,000	-0,069	0,150
-636,853	134,630	0,097	0,091
-635,838	11,549	-0,202	-0,111
-634,824	460,366	-0,069	0,112
-633,809	800,000	-0,045	0,090
-632,795	77,621	-0,048	0,037
-631,780	-200,000	-0,017	-0,107
-630,765	-6,297	0,103	-0,050
-629,751	121,107	-0,093	-0,083
-628,736	800,000	0,021	0,050
-627,722	-157,917	-0,060	-0,003
-626,707	-137,016	-0,076	0,006
-625,692	-200,000	-0,004	-0,023
-624,678	-200,000	0,007	0,070
-623,663	22,672	0,050	0,030
-622,649	-200,000	-0,024	-0,086
-621,634	792,545	-0,041	0,082
-620,619	-200,000	0,015	-0,085
-619,605	587,607	0,046	-0,082
-618,590	-200,000	0,034	0,107
-617,576	101,207	-0,108	-0,091
-616,561	330,708	-0,039	-0,055
-615,546	-151,082	-0,168	-0,009
-614,532	800,000	0,017	-0,049
-613,517	-17,583	0,088	-0,040
-612,503	62,721	0,132	-0,095
-611,488	-25,763	0,049	-0,021
-610,474	308,804	-0,060	0,081
-609,459	108,802	0,074	0,064
-608,444	-200,000	-0,013	-0,113
-607,430	-200,000	0,033	-0,143
-606,415	-151,671	-0,107	-0,006
-605,401	-91,678	0,120	-0,024
-604,386	76,687	-0,024	0,019
-603,371	443,562	0,044	0,069
-602,357	-200,000	-0,027	0,149
-601,342	-104,901	0,040	0,007
-600,328	63,633	-0,108	-0,078
-599,313	-76,049	0,076	0,019
-598,298	682,270	0,016	-0,031
-597,284	173,957	-0,044	0,046
-596,269	161,308	-0,007	-0,007
-595,255	568,314	0,023	-0,041
-594,240	-90,236	-0,103	0,021
-593,225	240,294	-0,017	0,020
-592,211	-104,151	-0,007	0,001
-591,196	-137,584	-0,015	-0,001
-590,182	-200,000	0,020	0,074
-589,167	800,000	-0,018	-0,053
-588,152	232,787	0,066	0,078
-587,138	-40,560	0,134	0,050
-586,123	-88,706	-0,064	-0,013
-585,109	-200,000	0,008	-0,041
-584,094	800,000	0,019	0,048
-583,079	138,862	0,091	0,086
-582,065	60,589	-0,065	0,046
-581,050	3,092	-0,164	-0,086
-580,036	88,604	-0,135	0,108
-579,021	33,247	-0,121	-0,075
-578,006	-200,000	-0,010	-0,151
-576,992	-17,318	-0,121	0,055
-575,977	246,143	0,101	-0,123
-574,963	18,963	0,057	-0,033
-573,948	580,647	0,044	0,078
-572,934	-105,206	-0,107	0,017
-571,919	430,826	0,073	-0,115
-570,904	130,771	-0,063	0,059
-569,890	-200,000	0,000	-0,012
-568,875	132,582	0,061	-0,057
-567,861	800,000	0,021	0,055
-566,846	71,700	-0,055	0,041
-565,831	-200,000	0,034	-0,179
-564,817	287,188	0,066	0,086
-563,802	61,345	-0,111	-0,080
-562,788	800,000	-0,019	-0,040
-561,773	135,704	0,109	-0,102
-560,758	-200,000	-0,008	0,064
-559,744	683,718	0,054	0,102
-558,729	-108,884	-0,095	0,014
-557,715	-112,259	-0,039	0,006
-556,700	188,646	0,033	-0,036
-555,685	-175,410	-0,084	0,002
-554,671	223,284	-0,041	0,047
-553,656	-89,846	0,129	-0,027
-552,642	86,423	0,112	-0,089
-551,627	337,028	-0,063	-0,088
-550,612	-89,868	-0,202	-0,042
-549,598	-154,962	0,065	0,003
-548,583	-120,367	-0,154	-0,019
-547,569	-22,802	0,106	-0,046
-546,554	-24,629	-0,127	-0,054
-545,539	-87,226	0,104	-0,023
-544,525	191,716	0,115	0,125
-543,510	437,264	-0,067	0,106
-542,496	-8,747	0,151	-0,072
-541,481	172,829	0,069	0,072
-540,466	476,266	-0,072	0,118
-539,452	-200,000	0,010	0,146
-538,437	152,134	-0,057	0,056
-537,423	-120,227	0,093	0,011
-536,408	265,461	-0,047	0,059
-535,393	227,694	0,045	0,053
-534,379	48,489	-0,122	0,082
-533,364	-77,246	-0,072	-0,018
-532,350	-200,000	-0,001	-0,074
-531,335	-74,704	0,152	0,039
-530,321	-42,775	0,050	-0,018
-529,306	-184,786	-0,155	0,002
-528,291	-58,815	0,083	-0,026
-527,277	-106,780	-0,049	-0,008
-526,262	460,325	-0,059	-0,095
-525,248	800,000	-0,031	-0,086
-524,233	-80,731	-0,050	0,012
-523,218	-200,000	-0,019	0,092
-522,204	8,152	0,114	0,061
-521,189	122,703	-0,076	-0,069
-520,175	-28,743	-0,050	-0,021
-519,160	800,000	-0,079	0,158
-518,145	175,736	0,099	-0,104
-517,131	624,242	0,060	-0,109
-516,116	800,000	0,042	-0,131
-515,102	-86,176	-0,147	-0,032
-514,087	334,131	0,044	-0,061
-513,072	193,899	0,071	-0,077
-512,058	127,633	-0,096	-0,087
-511,043	-200,000	0,006	-0,112
-510,029	-92,014	0,109	0,022
-509,014	-12,152	0,064	-0,030
-507,999	-107,936	0,080	-0,012
-506,985	41,120	0,140	0,091
-505,970	-128,480	0,141	0,014
-504,956	746,433	-0,030	0,059
-503,941	298,178	-0,111	0,146
-502,926	800,000	-0,028	0,077
-501,912	72,040	0,069	0,051
-500,897	-200,000	0,001	-0,050
-499,883	81,660	-0,070	0,055
-498,868	-20,574	-0,088	-0,038
-497,853	-70,492	0,081	0,022
-496,839	45,784	0,088	0,058
-495,824	352,335	0,078	-0,111
-494,810	-200,000	0,017	-0,073
-493,795	174,824	0,088	0,091
-492,781	-57,648	-0,148	0,046
-491,766	-200,000	0,013	-0,080
-490,751	221,865	0,033	0,038
-489,737	-174,928	-0,089	-0,002
-488,722	-200,000	-0,004	-0,128
-487,708	1,535	0,045	0,023
-486,693	189,472	0,044	-0,048
-485,678	690,869	-0,063	0,119
-484,664	-200,000	0,014	-0,115
-483,649	-124,679	-0,073	-0,008
-482,635	35,599	-0,104	0,065
-481,620	545,037	-0,121	-0,208
-480,605	25,461	0,094	-0,056
-479,591	122,140	-0,053	0,047
-478,576	15,294	-0,084	0,047
-477,562	-200,000	-0,014	-0,120
-476,547	64,784	-0,159	-0,115
-475,532	-200,000	0,033	-0,106
-474,518	-101,262	0,032	-0,006
-473,503	103,724	-0,124	0,104
-472,489	800,000	0,018	0,046
-471,474	141,295	0,012	0,011
-470,459	-200,000	0,021	0,092
-469,445	-30,428	-0,065	-0,026
-468,430	388,586	-0,075	0,112
-467,416	152,402	0,065	-0,063
-466,401	800,000	-0,031	-0,069
-465,386	-200,000	-0,010	0,125
-464,372	142,357	0,058	-0,055
-463,357	55,585	-0,106	-0,073
-462,343	-1,784	-0,102	-0,051
-461,328	-59,137	-0,074	0,023
-460,313	-21,205	-0,034	-0,015
-459,299	-27,388	0,131	-0,054
-458,284	270,077	-0,042	-0,053
-457,270	33,245	-0,118	0,073
-456,255	-182,136	0,140	0,002
-455,241	242,667	-0,129	-0,155
-454,226	-200,000	0,007	0,207
-453,211	-200,000	0,004	0,061
-452,197	-140,802	-0,046	-0,003
-451,182	-152,984	0,047	0,002
-450,168	252,819	-0,068	-0,083
-449,153	194,430	-0,025	0,027
-448,138	40,320	-0,141	0,091
-447,124	-24,514	-0,150	-0,064
-446,109	288,630	-0,068	0,089
-445,095	-98,203	0,132	-0,024
-444,080	800,000	0,025	-0,054
-443,065	800,000	-0,020	0,042
-442,051	-18,256	-0,041	-0,018
-441,036	160,092	-0,100	0,100
-440,022	-84,734	-0,079	-0,018
-439,007	-38,216	0,105	0,040
-437,992	268,596	-0,070	-0,088
-436,978	8,974	0,132	-0,071
-435,963	800,000	-0,045	0,115
-434,949	399,089	-0,022	0,033
-433,934	85,171	-0,209	-0,164
-432,919	-39,168	-0,078	-0,029
-431,905	-200,000	0,042	-0,161
-430,890	800,000	0,025	-0,062
-429,876	225,684	0,074	0,086
-428,861	79,859	-0,048	-0,037
-427,846	-103,679	0,062	-0,010
-426,832	-200,000	-0,014	0,086
-425,817	800,000	0,035	-0,101
-424,803	19,033	0,037	-0,021
-423,788	586,773	-0,069	-0,122
-422,773	223,118	0,079	0,092
-421,759	-200,000	-0,051	0,170
-420,744	-200,000	0,015	0,107
-419,730	103,535	-0,084	0,070
-418,715	800,000	-0,032	-0,087
-417,701	800,000	-0,034	-0,093
-416,686	-31,125	0,133	0,054
-415,671	257,954	0,055	-0,067
-414,657	800,000	0,041	0,117
-413,642	382,399	0,023	-0,034
-412,628	-200,000	0,041	-0,151
-411,613	67,699	0,112	-0,082
-410,598	800,000	0,059	-0,171
-409,584	-200,000	0,010	-0,031
-408,569	800,000	-0,016	-0,031
-407,555	31,667	-0,035	0,021
-406,540	-22,580	0,119	-0,051
-405,525	-84,825	-0,188	-0,042
-404,511	800,000	0,089	-0,192
-403,496	376,507	0,042	0,061
-402,482	389,934	-0,009	0,014
-401,467	57,958	0,110	-0,077
-400,452	-48,378	-0,042	-0,014
-399,438	116,361	0,094	0,082
-398,423	233,894	-0,034	0,041
-397,409	-200,000	0,000	-0,109
-396,394	193,471	-0,117	0,127
-395,379	-200,000	0,009	0,061
-394,365	-21,893	0,187	0,081
-393,350	425,937	-0,062	0,096
-392,336	800,000	0,030	0,081
-391,321	-95,943	0,194	0,037
-390,306	21,258	-0,083	0,048
-389,292	133,401	-0,092	0,085
-388,277	-200,000	0,020	0,124
-387,263	-200,000	-0,023	0,167
-386,248	-200,000	0,020	0,140
-385,233	-115,052	0,142	-0,019
-384,219	-200,000	-0,009	0,032
-383,204	-200,000	0,000	0,012
-382,190	37,809	-0,077	-0,049
-381,175	800,000	0,049	-0,144
-380,160	69,783	0,045	-0,033
-379,146	-6,037	0,055	0,027
-378,131	-200,000	-0,028	0,160
-377,117	-185,530	0,112	0,001
-376,102	-200,000	0,014	0,062
-375,088	-183,302	-0,115	0,001
-374,073	-200,000	0,002	0,040
-373,058	800,000	-0,025	0,071
-372,044	51,231	0,104	-0,071
-371,029	-200,000	0,017	0,083
-370,015	-151,231	0,083	-0,004
-369,000	546,022	0,033	0,057
-367,985	278,091	0,048	-0,061
-366,971	141,655	-0,108	-0,102
-365,956	-81,274	0,076	-0,018
-364,942	-18,624	0,062	-0,027
-363,927	106,367	0,024	0,020
-362,912	-35,205	-0,111	-0,043
-361,898	-121,942	0,091	-0,011
-360,883	-90,060	-0,117	-0,024
-359,869	200,111	0,092	-0,101
-358,854	17,332	0,094	0,053
-357,839	502,195	0,065	-0,107
-356,825	199,308	-0,042	-0,046
-355,810	-113,482	-0,049	-0,007
-354,796	68,058	-0,069	0,050
-353,781	163,127	-0,017	-0,017
-352,766	-130,150	-0,137	0,013
-351,752	-147,663	0,126	0,007
-350,737	-200,000	0,002	-0,026
-349,723	313,191	0,015	0,020
-348,708	477,507	-0,040	-0,065
-347,693	800,000	-0,012	0,034
-346,679	529,157	-0,090	0,153
-345,664	-200,000	0,022	-0,075
-344,650	79,638	0,043	-0,033
-343,635	26,255	-0,125	0,074
-342,620	-200,000	-0,013	-0,085
-341,606	-200,000	-0,018	0,091
-340,591	267,523	0,025	-0,031
-339,577	-132,661	-0,091	-0,008
-338,562	376,720	0,044	0,064
-337,548	48,189	-0,053	-0,035
-336,533	15,660	0,036	-0,020
-335,518	-32,696	0,068	0,027
-334,504	-79,419	0,088	0,021
-333,489	219,425	0,183	-0,209
-332,475	-200,000	0,006	-0,032
-331,460	-78,491	-0,026	0,006
-330,445	-5,131	0,062	-0,030
-329,431	-200,000	-0,012	0,070
-328,416	439,296	0,024	-0,038
-327,402	78,011	0,142	0,108
-326,387	305,572	0,115	-0,152
-325,372	245,628	-0,057	-0,069
-324,358	8,997	0,060	-0,032
-323,343	611,508	0,057	-0,101
-322,329	-108,385	-0,134	0,020
-321,314	-30,187	0,104	0,042
-320,299	290,904	0,027	-0,034
-319,285	428,284	-0,035	0,054
-318,270	-129,072	0,170	0,017
-317,256	37,728	-0,114	-0,072
-316,241	528,641	-0,037	-0,063
-315,226	-94,362	-0,032	0,006
-314,212	-200,000	0,032	0,192
-313,197	-41,600	0,131	-0,048
-312,183	38,753	-0,040	-0,025
-311,168	462,324	-0,015	0,023
-310,153	44,839	0,036	0,024
-309,139	800,000	-0,069	-0,200
-308,124	191,142	-0,034	-0,037
-307,110	-67,113	0,056	-0,016
-306,095	43,466	-0,017	-0,011
-305,080	-200,000	0,022	0,087
-304,066	-86,389	-0,159	-0,034
-303,051	-92,818	-0,055	0,011
-302,037	-131,134	-0,121	0,011
-301,022	-200,000	-0,017	0,134
-300,008	181,544	0,052	0,054
-298,993	-126,682	0,089	0,009
-297,978	800,000	0,025	-0,078
-296,964	-34,828	-0,057	0,022
-295,949	800,000	-0,079	0,168
-294,935	-50,192	-0,039	-0,013
-293,920	800,000	-0,015	0,038
-292,905	153,331	-0,091	0,089
-291,891	-141,969	0,096	0,007
-290,876	-62,564	0,127	-0,037
-289,862	-117,386	0,157	0,020
-288,847	-86,629	-0,134	-0,029
-287,832	-80,083	0,077	0,018
-286,818	-200,000	-0,028	0,099
-285,803	239,242	0,073	0,086
-284,789	800,000	0,019	-0,060
-283,774	-108,216	0,084	0,013
-282,759	-200,000	-0,003	-0,078
-281,745	20,558	0,063	0,036
-280,730	112,682	0,021	0,018
-279,716	-158,817	-0,092	0,004
-278,701	-47,096	-0,015	0,005
-277,686	665,585	-0,046	0,084
-276,672	800,000	0,035	-0,091
-275,657	-200,000	-0,025	0,177
-274,643	434,104	0,004	0,006
-273,628	124,655	-0,072	0,064
-272,613	30,625	0,025	-0,015
-271,599	800,000	0,070	0,154
-270,584	140,534	0,068	0,063
-269,570	800,000	0,033	0,077
-268,555	25,410	-0,109	0,064
-267,540	-96,032	-0,050	-0,009
-266,526	-33,700	-0,065	-0,025
-265,511	-45,558	0,043	-0,015
-264,497	78,216	-0,019	-0,014
-263,482	82,581	0,186	0,144
-262,467	299,416	0,063	0,083
-261,453	-200,000	-0,004	-0,128
-260,438	800,000	-0,065	0,155
-259,424	349,322	-0,078	0,110
-258,409	-200,000	0,001	-0,115
-257,395	800,000	0,036	-0,072
-256,380	-36,612	-0,144	0,055
-255,365	178,464	0,080	-0,084
-254,351	-60,768	0,106	0,032
-253,336	-122,588	-0,030	-0,003
-252,322	-200,000	0,016	-0,079
-251,307	-200,000	-0,009	-0,075
-250,292	97,737	0,032	0,026
-249,278	246,361	0,070	-0,084
-248,263	-32,484	0,173	0,068
-247,249	-200,000	-0,003	0,017
-246,234	-200,000	-0,010	0,055
-245,219	17,904	-0,034	0,019
-244,205	-200,000	0,030	0,145
-243,190	56,178	0,029	0,020
-242,176	-200,000	-0,004	-0,042
-241,161	54,292	-0,065	-0,045
-240,146	680,311	0,035	-0,065
-239,132	255,617	-0,089	-0,108
-238,117	-200,000	0,023	-0,195
-237,103	47,282	0,031	-0,021
-236,088	292,838	-0,106	0,138
-235,073	-200,000	0,001	-0,008
-234,059	-46,191	0,120	-0,042
-233,044	59,841	-0,038	0,027
-232,030	-200,000	-0,000	-0,045
-231,015	-112,259	0,043	0,006
-230,000	-200,000	-0,002	0,026
-228,986	-200,000	-0,004	0,154
-227,971	-200,000	0,002	-0,068
-226,957	370,233	-0,066	0,096
-225,942	800,000	0,035	0,077
-224,927	-200,000	0,020	-0,068
-223,913	-79,616	0,021	-0,005
-222,898	180,547	-0,086	-0,089
-221,884	392,247	0,055	0,082
-220,869	-43,789	0,022	-0,008
-219,855	-200,000	0,005	0,121
-218,840	-143,647	0,190	-0,013
-217,825	-178,132	0,124	0,002
-216,811	-200,000	-0,038	-0,138
-215,796	-131,711	-0,100	-0,009
-214,782	528,850	-0,057	0,097
-213,767	0,734	-0,066	0,034
-212,752	460,393	0,111	0,176
-211,738	-200,000	-0,019	0,214
-210,723	302,118	-0,068	0,090
-209,709	53,353	0,073	0,049
-208,694	800,000	-0,051	-0,103
-207,679	800,000	-0,027	-0,062
-206,665	-110,559	0,105	0,015
-205,650	77,447	0,056	-0,043
-204,636	-109,736	-0,039	-0,006
-203,621	-200,000	0,013	0,080
-202,606	800,000	-0,049	-0,104
-201,592	266,110	-0,144	-0,179
-200,577	-200,000	-0,017	0,144
-199,563	521,034	0,029	-0,049
-198,548	-62,271	0,047	0,014
-197,533	800,000	0,054	0,135
-196,519	93,884	0,082	0,066
-195,504	21,751	-0,018	-0,010
-194,490	169,587	-0,087	-0,088
-193,475	-23,480	0,015	0,007
-192,460	-41,940	0,145	0,052
-191,446	-200,000	-0,023	0,082
-190,431	414,901	0,039	0,059
-189,417	-109,160	0,065	-0,010
-188,402	-65,556	-0,152	-0,043
-187,387	800,000	0,009	-0,024
-186,373	-200,000	-0,033	-0,148
-185,358	-70,271	0,039	0,010
-184,344	176,020	0,097	-0,100
-183,329	-131,952	0,076	0,007
-182,315	-200,000	-0,008	-0,042
-181,300	756,608	0,043	0,084
-180,285	-121,508	-0,099	0,012
-179,271	553,354	0,028	-0,048
-178,256	168,059	0,094	-0,094
-177,242	10,181	-0,048	0,026
-176,227	-200,000	0,011	0,146
-175,212	302,907	-0,037	0,048
-174,198	331,379	0,096	0,131
-173,183	17,935	-0,121	-0,068
-172,169	-200,000	0,015	-0,116
-171,154	-200,000	0,002	-0,072
-170,139	-159,809	-0,076	0,003
-169,125	316,412	0,114	-0,153
-168,110	800,000	0,043	0,101
-167,096	71,359	-0,097	-0,071
-166,081	186,092	-0,056	-0,059
-165,066	-118,300	-0,059	0,007
-164,052	-11,777	-0,051	-0,024
-163,037	142,554	-0,035	0,033
-162,023	307,743	0,066	0,088
-161,008	-200,000	0,020	0,078
-159,993	88,874	0,057	0,045
-158,979	18,158	-0,060	-0,034
-157,964	439,573	-0,013	0,020
-156,950	-200,000	-0,040	-0,148
-155,935	800,000	-0,002	0,004
-154,920	451,687	-0,035	0,055
-153,906	-200,000	0,020	-0,081
-152,891	800,000	-0,003	0,009
-151,877	-200,000	-0,032	-0,142
-150,862	110,590	0,021	0,018
-149,847	514,257	-0,064	0,106
-148,833	-200,000	-0,024	-0,153
-147,818	41,500	0,074	-0,047
-146,804	298,050	-0,064	0,083
-145,789	-185,227	-0,121	-0,001
-144,775	77,542	-0,088	-0,067
-143,760	-200,000	0,032	-0,104
-142,745	77,809	-0,071	-0,053
-141,731	-3,907	-0,039	-0,019
-140,716	-98,954	-0,013	-0,002
-139,702	-38,999	0,108	0,040
-138,687	800,000	-0,017	0,049
-137,672	675,860	0,027	0,050
-136,658	154,641	0,021	-0,020
-135,643	-200,000	0,010	0,060
-134,629	-109,237	0,241	-0,036
-133,614	-200,000	-0,007	0,029
-132,599	89,921	-0,040	-0,032
-131,585	-1,294	-0,012	0,006
-130,570	-45,217	-0,055	-0,019
-129,556	-9,322	-0,092	-0,043
-128,541	-127,038	-0,174	-0,018
-127,526	238,847	0,116	0,137
-126,512	438,642	0,037	0,057
-125,497	207,505	0,093	0,103
-124,483	-47,700	0,051	-0,017
-123,468	-200,000	0,018	-0,159
-122,453	-168,370	-0,259	0,007
-121,439	-200,000	0,004	0,056
-120,424	-200,000	-0,001	-0,107
-119,410	-78,931	0,099	-0,024
-118,395	800,000	0,018	0,053
-117,380	-60,396	0,083	0,025
-116,366	122,973	0,035	-0,031
-115,351	342,887	-0,115	-0,159
-114,337	-200,000	-0,005	-0,038
-113,322	800,000	0,048	-0,111
-112,307	500,598	0,032	0,052
-111,293	66,101	0,132	0,095
-110,278	-200,000	-0,000	0,045
-109,264	-63,392	-0,090	-0,026
-108,249	-200,000	0,013	-0,216
-107,234	533,411	-0,042	-0,070
-106,220	167,048	0,070	-0,070
-105,205	800,000	0,055	0,144
-104,191	390,334	0,073	0,108
-103,176	800,000	0,022	0,061
-102,162	-200,000	-0,001	0,051
-101,147	282,754	-0,027	-0,035
-100,132	800,000	-0,010	-0,029
-99,118	800,000	0,058	0,165
-98,103	800,000	0,030	0,082
-97,089	800,000	0,118	0,337
-96,074	-116,724	0,078	-0,010
-95,059	-200,000	0,004	-0,167
-94,045	-200,000	-0,021	0,146
-93,030	-200,000	-0,022	0,097
-92,016	205,015	0,043	-0,047
-91,001	10,558	0,107	0,058
-89,986	145,115	0,057	0,054
-88,972	800,000	-0,025	-0,061
-87,957	141,864	-0,071	-0,066
-86,943	84,138	0,013	-0,010
-85,928	53,940	-0,007	0,005
-84,913	-133,310	-0,164	0,014
-83,899	-91,570	0,013	0,003
-82,884	-162,225	0,053	0,002
-81,870	201,877	-0,083	0,090
-80,855	-200,000	-0,030	0,165
-79,840	-16,196	-0,045	0,020
-78,826	111,442	0,023	-0,020
-77,811	638,495	-0,096	-0,173
-76,797	194,490	0,110	0,118
-75,782	-141,417	0,081	-0,006
-74,767	800,000	0,044	0,106
-73,753	44,712	-0,128	-0,083
-72,738	33,977	-0,049	0,030
-71,724	-147,819	-0,073	-0,004
-70,709	-147,002	0,007	0,000
-69,694	-26,271	-0,049	-0,020
-68,680	-88,808	-0,049	0,010
-67,665	-62,735	-0,024	0,007
-66,651	-37,669	0,147	0,055
-65,636	371,802	-0,055	0,079
-64,622	89,165	-0,071	0,056
-63,607	355,727	-0,039	0,054
-62,592	-200,000	-0,046	0,158
-61,578	480,669	-0,098	0,157
-60,563	800,000	0,047	0,147
-59,549	800,000	-0,053	0,113
-58,534	59,956	-2,077	-1,446
-57,519	672,945	-0,975	-1,791
-56,505	-200,000	-0,336	-4,356
-55,490	800,000	0,830	1,789
-54,476	800,000	5,230	11,130
-53,461	-200,000	22,117	342,575
-52,446	800,000	756,774	2300,164
-51,432	536,441	1645,058	2765,774
-50,417	68,592	1642,893	1187,480
-49,403	15,993	1519,119	841,762
-48,388	10,137	1444,320	772,223
-47,373	19,173	1436,419	810,962
-46,359	13,651	1424,964	778,442
-45,344	8,475	1420,995	751,803
-44,330	8,405	1419,196	750,492
-43,315	8,400	1417,493	749,539
-42,300	8,421	1415,479	748,543
-41,286	8,469	1414,278	748,103
-40,271	8,356	1413,243	746,995
-39,257	8,409	1411,954	746,533
-38,242	8,399	1410,849	745,873
-37,227	8,427	1409,908	745,477
-36,213	8,418	1408,485	744,653
-35,198	8,448	1407,024	743,991
-34,184	8,446	1406,217	743,527
-33,169	8,353	1405,137	742,489
-32,154	8,423	1404,054	742,213
-31,140	8,374	1402,846	741,321
-30,125	8,421	1401,468	740,779
-29,111	8,382	1400,386	739,998
-28,096	8,377	1399,329	739,388
-27,082	8,363	1398,001	738,590
-26,067	8,309	1397,131	737,848
-25,052	8,390	1395,941	737,568
-24,038	8,361	1395,206	737,017
-23,023	8,327	1394,247	736,323
-22,009	8,304	1393,074	735,567
-20,994	8,323	1391,949	735,031
-19,979	8,329	1391,034	734,546
-18,965	8,298	1390,068	733,864
-17,950	8,280	1389,136	733,261
-16,936	8,205	1388,529	732,564
-15,921	8,165	1387,371	731,742
-14,906	8,278	1386,299	731,667
-13,892	8,304	1385,348	731,256
-12,877	8,224	1384,711	730,520
-11,863	8,247	1383,869	730,153
-10,848	8,222	1383,048	729,575
-9,833	8,231	1381,975	729,022
-8,819	8,159	1381,330	728,324
-7,804	8,193	1380,140	727,822
-6,790	8,167	1379,222	727,193
-5,775	8,198	1378,209	726,768
-4,760	8,173	1377,073	726,029
-3,746	8,215	1376,370	725,822
-2,731	8,257	1375,330	725,435
-1,717	8,157	1374,673	724,604
-0,702	8,210	1372,997	723,932
0,313	12,180	1284,617	695,312
1,327	28,088	677,767	402,320
2,342	43,455	116,536	74,962
3,356	0,285	16,492	8,270
4,371	1,845	3,744	1,897
5,386	-9,524	1,270	0,595
6,400	613,837	0,392	0,694
7,415	66,848	-0,114	-0,082
8,429	800,000	-0,108	-0,299
9,444	800,000	-0,079	-0,178
10,459	42,537	-0,253	-0,162
11,473	90,732	-0,228	-0,180
12,488	-32,312	-0,300	-0,118
13,502	57,837	-0,346	-0,238
14,517	116,517	-0,379	-0,327
15,531	94,734	-0,306	-0,245
16,546	6,933	-0,334	-0,174
17,561	99,955	-0,313	-0,256
18,575	-97,603	-0,229	-0,041
19,590	-71,808	-0,199	-0,052
20,604	-110,024	-0,336	-0,049
21,619	152,371	-0,385	-0,370
22,634	88,531	-0,445	-0,348
23,648	49,647	-0,442	-0,293
24,663	130,894	-0,171	-0,154
25,677	81,166	-0,375	-0,285
26,692	51,762	-0,281	-0,188
27,707	-43,347	-0,460	-0,163
28,721	191,108	-0,275	-0,291
29,736	-44,278	-0,508	-0,178
30,750	222,036	-0,245	-0,278
31,765	28,156	-0,511	-0,303
32,780	193,529	-0,175	-0,186
33,794	222,359	-0,264	-0,300
34,809	130,182	-0,346	-0,311
35,823	257,269	-0,327	-0,396
36,838	-18,131	-0,405	-0,177
37,853	121,069	-0,441	-0,385
38,867	148,214	-0,326	-0,309
39,882	83,043	-0,338	-0,259
40,896	18,747	-0,432	-0,242
41,911	55,472	-0,308	-0,209
42,926	67,723	-0,308	-0,221
43,940	-11,181	-0,386	-0,178
44,955	70,272	-0,384	-0,279
45,969	128,032	-0,304	-0,271
46,984	404,587	-0,221	-0,329
47,999	126,798	-0,254	-0,226
49,013	39,520	-0,384	-0,241
50,028	8,702	-0,335	-0,177
51,042	122,342	-0,224	-0,196
52,057	243,055	-0,322	-0,379
53,071	283,745	-0,218	-0,276
54,086	148,098	-0,270	-0,256
55,101	98,803	-0,192	-0,156
56,115	174,000	-0,330	-0,335
57,130	137,985	-0,272	-0,250
58,144	-28,845	-0,486	-0,195
59,159	71,802	-0,350	-0,255
60,174	117,688	-0,307	-0,265
61,188	115,093	-0,328	-0,281
62,203	185,533	-0,292	-0,304
63,217	-0,195	-0,214	-0,107
64,232	-62,026	-0,354	-0,103
65,247	19,923	-0,346	-0,195
66,261	52,004	-0,462	-0,308
67,276	212,837	-0,301	-0,334
68,290	13,657	-0,267	-0,145
69,305	234,279	-0,242	-0,280
70,320	114,406	-0,266	-0,227
71,334	63,982	-0,194	-0,137
72,349	-69,768	-0,354	-0,094
73,363	30,800	-0,299	-0,179
74,378	90,133	-0,224	-0,175
75,393	47,681	-0,290	-0,189
76,407	-98,048	-0,288	-0,051
77,422	-25,433	-0,339	-0,140
78,436	31,984	-0,231	-0,139
79,451	47,667	-0,321	-0,210
80,466	-100,398	-0,275	-0,047
81,480	233,008	-0,323	-0,373
82,495	101,084	-0,276	-0,225
83,509	202,108	-0,094	-0,102
84,524	207,694	-0,233	-0,255
85,539	152,875	-0,231	-0,221
86,553	20,880	-0,360	-0,203
87,568	66,180	-0,273	-0,193
88,582	26,876	-0,269	-0,158
89,597	6,777	-0,303	-0,157
90,611	336,574	-0,241	-0,328
91,626	-52,102	-0,330	-0,107
92,641	142,737	-0,236	-0,219
93,655	75,214	-0,243	-0,179
94,670	110,380	-0,225	-0,189
95,684	58,230	-0,292	-0,200
96,699	13,555	-0,289	-0,157
97,714	-109,620	-0,370	-0,054
98,728	670,137	-0,102	-0,186
99,743	27,660	-0,265	-0,156
100,757	-53,262	-0,336	-0,107
101,772	97,732	-0,210	-0,169
102,787	64,546	-0,248	-0,174
103,801	239,695	-0,235	-0,274
104,816	-34,436	-0,331	-0,126
105,830	3,042	-0,268	-0,136
106,845	-95,038	-0,192	-0,036
107,860	19,356	-0,346	-0,194
108,874	-14,326	-0,278	-0,125
109,889	53,969	-0,189	-0,127
110,903	27,956	-0,163	-0,095
111,918	530,974	-0,100	-0,166
112,933	-17,896	-0,286	-0,125
113,947	-45,376	-0,288	-0,099
114,962	-195,549	-0,214	0,001
115,976	-19,917	-0,196	-0,084
116,991	800,000	-0,104	-0,240
118,006	328,574	-0,200	-0,269
119,020	73,331	-0,212	-0,155
120,035	56,910	-0,234	-0,159
121,049	-128,031	-0,248	-0,025
122,064	48,944	-0,182	-0,119
123,079	-0,229	-0,234	-0,116
124,093	209,685	-0,253	-0,277
125,108	-28,140	-0,319	-0,128
126,122	193,162	-0,239	-0,252
127,137	-20,965	-0,366	-0,156
128,151	211,016	-0,187	-0,205
129,166	57,226	-0,246	-0,167
130,181	151,004	-0,205	-0,194
131,195	800,000	-0,147	-0,308
132,210	235,430	-0,261	-0,301
133,224	201,648	-0,170	-0,183
134,239	-0,360	-0,163	-0,080
135,254	-144,397	-0,269	0,017
136,268	225,472	-0,182	-0,206
137,283	139,588	-0,168	-0,154
138,297	-4,642	-0,244	-0,117
139,312	74,267	-0,344	-0,252
140,327	106,433	-0,254	-0,210
141,341	179,027	-0,219	-0,223
142,356	59,124	-0,298	-0,204
143,370	250,453	-0,186	-0,220
144,385	220,602	-0,212	-0,237
145,400	2,504	-0,306	-0,154
146,414	64,580	-0,355	-0,249
147,429	800,000	-0,111	-0,293
148,443	111,098	-0,184	-0,154
149,458	251,224	-0,186	-0,221
150,473	23,891	-0,264	-0,151
151,487	286,420	-0,208	-0,262
152,502	122,150	-0,340	-0,296
153,516	153,601	-0,203	-0,194
154,531	145,565	-0,319	-0,298
155,546	696,232	-0,117	-0,214
156,560	-20,488	-0,117	-0,050
157,575	732,006	-0,120	-0,225
158,589	497,377	-0,131	-0,211
159,604	228,916	-0,180	-0,204
160,619	-61,063	-0,297	-0,087
161,633	-28,133	-0,301	-0,120
162,648	233,737	-0,288	-0,330
163,662	-109,901	-0,161	-0,023
164,677	507,122	-0,117	-0,189
165,692	250,021	-0,134	-0,159
166,706	83,759	-0,136	-0,103
167,721	110,905	-0,189	-0,158
168,735	281,891	-0,126	-0,157
169,750	243,164	-0,154	-0,180
170,764	236,692	-0,186	-0,214
171,779	234,689	-0,174	-0,199
172,794	417,935	-0,145	-0,215
173,808	-4,864	-0,305	-0,145
174,823	101,011	-0,245	-0,198
175,837	208,593	-0,261	-0,283
176,852	430,878	-0,176	-0,265
177,867	195,126	-0,136	-0,144
178,881	-94,501	-0,198	0,037
179,896	-145,982	-0,191	-0,012
180,910	531,120	-0,168	-0,276
181,925	174,672	-0,199	-0,200
182,940	109,978	-0,234	-0,195
183,954	316,211	-0,183	-0,240
184,969	355,966	-0,156	-0,216
185,983	326,892	-0,182	-0,242
186,998	224,272	-0,287	-0,322
188,013	99,224	-0,211	-0,169
189,027	133,896	-0,200	-0,180
190,042	58,239	-0,302	-0,205
191,056	145,829	-0,287	-0,267
192,071	352,122	-0,150	-0,207
193,086	-118,952	-0,123	0,015
194,100	-69,624	-0,317	-0,083
195,115	-84,798	-0,378	-0,082
196,129	-56,086	-0,350	-0,107
197,144	169,907	-0,190	-0,189
198,159	-200,000	-0,090	-0,330
199,173	419,219	-0,172	-0,256
200,188	523,178	-0,082	-0,134
201,202	96,716	-0,083	-0,066
202,217	-163,097	-0,187	0,006
203,232	202,652	-0,178	-0,191
204,246	196,415	-0,217	-0,229
205,261	86,544	-0,187	-0,143
206,275	401,341	-0,144	-0,210
207,290	498,632	-0,129	-0,206
208,304	149,187	-0,042	-0,039
209,319	-141,975	-0,122	-0,008
210,334	771,744	-0,120	-0,228
211,348	57,582	-0,262	-0,177
212,363	163,743	-0,208	-0,203
213,377	-87,663	-0,190	-0,039
214,392	367,539	-0,130	-0,182
215,407	38,202	-0,222	-0,137
216,421	309,594	-0,129	-0,168
217,436	-65,587	-0,078	-0,021
218,450	24,929	-0,284	-0,163
219,465	120,551	-0,199	-0,171
220,480	65,472	-0,133	-0,093
221,494	373,104	-0,103	-0,146
222,509	286,132	-0,095	-0,118
223,523	800,000	-0,077	-0,199
224,538	800,000	-0,059	-0,131
225,553	247,906	-0,226	-0,265
226,567	370,078	-0,167	-0,234
227,582	347,516	-0,228	-0,311
228,596	800,000	-0,106	-0,211
229,611	73,591	-0,122	-0,089
230,626	106,568	-0,183	-0,150
231,640	57,116	-0,134	-0,090
232,655	207,280	-0,156	-0,168
233,669	170,346	-0,179	-0,177
234,684	205,726	-0,133	-0,143
235,699	452,511	-0,078	-0,120
236,713	-100,833	-0,181	-0,030
237,728	770,779	-0,095	-0,179
238,742	225,524	-0,137	-0,153
239,757	253,762	-0,176	-0,208
240,772	123,584	-0,261	-0,226
241,786	97,594	-0,280	-0,222
242,801	567,022	-0,107	-0,180
243,815	65,959	-0,177	-0,124
244,830	18,817	-0,152	-0,084
245,844	-3,250	-0,247	-0,118
246,859	772,477	-0,190	-0,359
247,874	97,507	-0,285	-0,226
248,888	-10,758	-0,232	-0,105
249,903	672,975	-0,094	-0,170
250,917	114,579	-0,215	-0,181
251,932	-49,602	-0,166	-0,054
252,947	442,777	-0,148	-0,224
253,961	610,956	-0,119	-0,206
254,976	87,923	-0,191	-0,146
255,990	-53,889	-0,301	-0,094
257,005	40,589	-0,122	-0,076
258,020	-38,459	-0,178	-0,065
259,034	-172,970	-0,317	-0,007
260,049	24,708	-0,193	-0,110
261,063	176,093	-0,106	-0,106
262,078	311,567	-0,156	-0,203
263,093	328,703	-0,140	-0,186
264,107	284,485	-0,071	-0,088
265,122	401,701	-0,115	-0,166
266,136	18,000	-0,139	-0,076
267,151	-200,000	-0,025	-0,134
268,166	583,665	-0,110	-0,186
269,180	157,232	-0,135	-0,129
270,195	146,309	-0,167	-0,155
271,209	-33,019	-0,162	-0,062
272,224	445,583	-0,118	-0,179
273,239	-19,350	-0,191	-0,081
274,253	39,217	-0,221	-0,136
275,268	-139,306	-0,157	-0,011
276,282	-8,939	-0,171	-0,078
277,297	-200,000	-0,002	-0,170
278,312	216,706	-0,199	-0,218
279,326	99,450	-0,155	-0,123
280,341	206,407	-0,108	-0,116
281,355	-21,349	-0,149	-0,062
282,370	-33,808	-0,218	-0,082
283,384	61,919	-0,195	-0,133
284,399	483,140	-0,097	-0,152
285,414	800,000	-0,095	-0,231
286,428	800,000	-0,018	-0,039
287,443	-60,986	-0,198	-0,057
288,457	-146,910	-0,224	-0,013
289,472	217,184	-0,109	-0,119
290,487	-91,742	-0,230	-0,045
291,501	320,783	-0,189	-0,247
292,516	199,452	-0,168	-0,177
293,530	-41,197	-0,095	-0,033
294,545	98,254	-0,080	-0,063
295,560	16,023	-0,151	-0,082
296,574	-200,000	0,011	-0,163
297,589	32,895	-0,246	-0,146
298,603	774,080	-0,063	-0,118
299,618	-4,032	-0,209	-0,099
300,633	-200,000	-0,043	-0,178
301,647	7,216	-0,203	-0,104
302,662	130,811	-0,133	-0,118
303,676	66,815	-0,176	-0,123
304,691	-200,000	-0,061	-0,191
305,706	43,778	-0,114	-0,071
306,720	0,061	-0,177	-0,086
307,735	800,000	-0,073	-0,150
308,749	-90,434	-0,156	-0,031
309,764	-122,646	-0,132	0,014
310,779	62,757	-0,190	-0,130
311,793	109,783	-0,144	-0,119
312,808	132,102	-0,241	-0,213
313,822	146,547	-0,118	-0,108
314,837	405,398	-0,129	-0,187
315,852	23,333	-0,043	-0,024
316,866	-148,293	-0,183	0,010
317,881	-200,000	-0,014	-0,055
318,895	-162,757	-0,125	-0,004
319,910	-200,000	-0,056	-0,201
320,925	122,116	-0,165	-0,141
321,939	800,000	-0,114	-0,276
322,954	800,000	-0,069	-0,176
323,968	204,910	-0,162	-0,172
324,983	-113,106	-0,221	-0,030
325,997	-44,805	-0,125	-0,042
327,012	800,000	-0,027	0,063
328,027	-119,443	-0,160	0,019
329,041	-95,033	-0,162	-0,030
330,056	-121,914	-0,200	-0,022
331,070	562,328	0,023	0,038
332,085	203,215	-0,097	0,103
333,100	63,151	-0,187	-0,128
334,114	-67,107	-0,254	-0,068
335,129	-70,008	-0,144	-0,037
336,143	84,795	-0,186	-0,140
337,158	-86,628	-0,105	0,022
338,173	-147,808	-0,303	-0,017
339,187	248,168	-0,052	0,060
340,202	613,369	-0,105	-0,181
341,216	800,000	-0,089	-0,204
342,231	-200,000	-0,052	-0,290
343,246	57,338	-0,262	-0,175
344,260	-42,336	-0,205	-0,071
345,275	40,737	-0,182	-0,112
346,289	-200,000	0,035	-0,136
347,304	526,060	-0,167	-0,271
348,319	736,523	-0,083	-0,152
349,333	800,000	-0,039	-0,105
350,348	-54,054	-0,074	-0,023
351,362	-6,672	-0,237	-0,110
352,377	-200,000	-0,008	-0,148
353,392	-13,572	-0,159	-0,070
354,406	-41,995	-0,181	-0,063
355,421	208,284	1305,525	1396,755
356,435	160,262	1465,089	1397,224
