DTS Sentinel unit serial number:	SN410029Multiplexer serial number:	ORYXHardware model number:	OX2-SRSoftware version number:	ORYX F/W v4,00 Oryx Data Collector v3.7.2.0data status	okinstallation	B3 Nyhavnadifferential loss correction	single-endedforward channel	channel 1reverse channel	N/Adate	2023/12/01time	20:47:30forward acquisition time	300,00reverse acquisition time	0,00gamma	499,1914k internal	0,3197k external	0,3197temperature offset calibration	1,0000default loss term (dB/km)	0,3820temperature slope calibration	1,0000multiplexer offset coefficient	1,0000multiplexer slope coefficient	1,0000fibre end	0,00T internal ref (°C)	15,94T ext. ref 1 (°C)	1,44T ext. ref 2 (°C)	1,44length (m)	temperature (°C)	Stokes	anti-Stokes-744,400	641,772	-0,159	-0,297
-743,385	-200,000	0,064	0,280
-742,371	202,488	-0,225	-0,254
-741,356	-200,000	0,029	0,359
-740,342	800,000	-0,109	-0,229
-739,327	-200,000	0,072	0,241
-738,312	213,277	-0,256	-0,295
-737,298	-200,000	0,041	0,276
-736,283	399,020	-0,153	-0,233
-735,269	-200,000	-0,050	0,321
-734,254	479,977	-0,172	-0,285
-733,239	800,000	-0,075	0,181
-732,225	248,962	-0,157	-0,193
-731,210	279,318	0,062	0,081
-730,196	-61,268	-0,043	0,013
-729,181	-63,704	0,104	-0,031
-728,167	708,473	-0,038	-0,073
-727,152	-126,183	-0,112	0,012
-726,137	39,023	-0,028	-0,018
-725,123	800,000	-0,017	0,035
-724,108	-67,478	-0,176	0,050
-723,094	-152,531	-0,096	-0,005
-722,079	310,972	-0,047	-0,064
-721,064	-200,000	-0,001	-0,076
-720,050	-73,953	0,027	0,007
-719,035	-200,000	0,002	0,031
-718,021	-62,984	-0,071	-0,021
-717,006	439,552	-0,029	-0,046
-715,991	40,396	0,152	-0,099
-714,977	-105,951	-0,106	-0,017
-713,962	263,287	-0,090	-0,114
-712,948	100,795	-0,032	0,027
-711,933	78,571	-0,020	-0,016
-710,918	-200,000	-0,007	-0,094
-709,904	-175,608	-0,160	-0,003
-708,889	-200,000	0,002	-0,044
-707,875	-60,545	-0,029	-0,009
-706,860	-63,197	-0,072	-0,021
-705,845	598,620	-0,044	-0,080
-704,831	-3,059	0,164	0,083
-703,816	-200,000	-0,010	0,059
-702,802	163,041	-0,125	-0,128
-701,787	90,278	0,191	-0,155
-700,772	219,041	-0,053	-0,062
-699,758	614,470	-0,070	-0,128
-698,743	-200,000	-0,002	-0,153
-697,729	-18,145	0,026	-0,012
-696,714	-18,177	-0,131	-0,059
-695,699	22,293	-0,059	-0,035
-694,685	-200,000	0,025	-0,132
-693,670	-130,713	-0,044	-0,004
-692,656	-200,000	-0,032	-0,184
-691,641	254,711	-0,022	-0,028
-690,627	122,257	0,090	0,082
-689,612	152,342	0,067	0,067
-688,597	-118,200	-0,095	0,012
-687,583	-200,000	0,001	0,025
-686,568	-200,000	0,003	-0,027
-685,554	0,946	0,115	0,060
-684,539	-4,164	-0,173	0,087
-683,524	48,885	-0,035	0,024
-682,510	208,455	-0,074	0,084
-681,495	800,000	0,029	0,078
-680,481	-200,000	0,003	-0,018
-679,466	0,222	0,068	0,035
-678,451	-48,416	-0,055	-0,019
-677,437	567,685	0,066	-0,117
-676,422	800,000	0,026	0,082
-675,408	167,678	0,079	-0,081
-674,393	278,578	0,023	-0,030
-673,378	139,201	-0,223	-0,213
-672,364	-200,000	0,009	-0,090
-671,349	-162,226	-0,089	-0,003
-670,335	224,246	0,020	0,024
-669,320	311,661	0,036	-0,049
-668,305	-200,000	0,025	0,091
-667,291	-89,058	0,082	-0,017
-666,276	432,050	0,088	-0,139
-665,262	134,623	-0,068	0,064
-664,247	-83,673	-0,118	0,027
-663,232	-116,631	0,108	0,014
-662,218	-200,000	0,021	0,150
-661,203	318,160	0,021	0,029
-660,189	-36,200	-0,072	0,028
-659,174	-23,096	-0,141	0,061
-658,159	800,000	0,016	0,041
-657,145	800,000	-0,011	-0,029
-656,130	417,846	-0,017	0,026
-655,116	194,605	0,023	0,025
-654,101	204,681	0,072	-0,082
-653,086	21,418	-0,068	0,040
-652,072	66,583	-0,038	0,028
-651,057	-200,000	-0,024	-0,080
-650,043	800,000	-0,031	-0,097
-649,028	-36,369	-0,010	0,004
-648,014	72,183	0,083	0,062
-646,999	800,000	0,016	-0,038
-645,984	-167,570	-0,094	-0,003
-644,970	-200,000	-0,008	0,071
-643,955	114,168	-0,089	0,078
-642,941	-200,000	-0,002	0,017
-641,926	61,305	-0,082	-0,059
-640,911	-200,000	-0,014	-0,152
-639,897	288,905	0,011	-0,015
-638,882	-153,792	0,111	-0,005
-637,868	133,268	-0,020	0,019
-636,853	85,497	-0,017	0,013
-635,838	800,000	-0,081	-0,166
-634,824	800,000	0,036	-0,097
-633,809	9,786	0,209	-0,115
-632,795	45,338	0,076	0,050
-631,780	34,552	-0,102	0,064
-630,765	-88,674	0,092	-0,020
-629,751	800,000	-0,025	0,068
-628,736	240,839	0,044	0,053
-627,722	214,046	-0,095	0,110
-626,707	457,537	-0,089	0,144
-625,692	455,896	-0,039	0,063
-624,678	453,156	0,036	0,058
-623,663	-155,260	0,106	-0,005
-622,649	-25,277	-0,051	-0,022
-621,634	-200,000	0,044	-0,154
-620,619	57,040	-0,027	0,019
-619,605	-23,695	-0,123	0,053
-618,590	-33,999	-0,021	0,008
-617,576	-94,194	-0,045	0,009
-616,561	800,000	0,059	0,131
-615,546	353,795	0,038	0,055
-614,532	-30,255	-0,093	0,038
-613,517	-158,160	-0,128	0,005
-612,503	-200,000	0,006	-0,046
-611,488	800,000	0,044	0,121
-610,474	130,468	-0,082	0,077
-609,459	94,686	-0,133	-0,109
-608,444	-43,385	0,026	-0,009
-607,430	-200,000	0,035	-0,187
-606,415	197,027	-0,045	0,050
-605,401	-200,000	0,001	-0,087
-604,386	167,844	0,036	0,038
-603,371	-200,000	0,004	0,093
-602,357	794,817	0,039	0,079
-601,342	-141,662	0,102	-0,007
-600,328	-183,793	-0,139	-0,002
-599,313	-66,048	-0,122	0,035
-598,298	225,160	-0,054	0,064
-597,284	-10,541	0,044	-0,021
-596,269	800,000	0,052	0,127
-595,255	85,483	-0,042	-0,033
-594,240	-64,234	0,098	-0,029
-593,225	283,653	0,041	-0,053
-592,211	-200,000	-0,026	-0,163
-591,196	-200,000	0,011	0,042
-590,182	-43,642	-0,032	0,012
-589,167	-33,702	-0,163	-0,065
-588,152	473,156	-0,052	0,085
-587,138	-200,000	0,012	-0,068
-586,123	58,986	0,104	-0,074
-585,109	87,791	-0,095	-0,076
-584,094	-200,000	0,012	-0,097
-583,079	-19,823	0,069	0,031
-582,065	-200,000	0,023	0,092
-581,050	-32,830	-0,148	0,059
-580,036	-6,950	-0,068	0,034
-579,021	15,315	-0,084	0,048
-578,006	-200,000	-0,005	0,058
-576,992	265,185	-0,037	0,047
-575,977	-200,000	0,002	-0,040
-574,963	12,329	0,029	-0,016
-573,948	-78,281	-0,052	0,013
-572,934	-120,829	0,094	-0,011
-571,919	-38,981	0,122	-0,046
-570,904	-200,000	-0,013	0,042
-569,890	320,093	0,153	-0,211
-568,875	155,886	0,039	0,039
-567,861	-200,000	-0,011	0,054
-566,846	-200,000	0,010	0,130
-565,831	-200,000	0,025	-0,132
-564,817	84,062	-0,023	-0,018
-563,802	82,042	-0,090	0,070
-562,788	-139,110	0,093	0,007
-561,773	-6,218	0,117	-0,057
-560,758	776,717	0,028	0,056
-559,744	34,111	0,108	-0,068
-558,729	-200,000	-0,011	0,098
-557,715	-200,000	0,010	0,039
-556,700	800,000	0,020	0,056
-555,685	-200,000	-0,018	-0,082
-554,671	-109,280	0,058	0,009
-553,656	133,979	-0,043	-0,041
-552,642	114,572	-0,092	-0,081
-551,627	325,568	0,056	-0,078
-550,612	-200,000	-0,026	0,121
-549,598	-41,446	-0,081	0,030
-548,583	800,000	0,040	-0,083
-547,569	-61,035	0,030	0,009
-546,554	800,000	-0,056	0,120
-545,539	-136,446	0,113	-0,009
-544,525	189,262	-0,099	-0,107
-543,510	169,136	0,038	-0,040
-542,496	53,536	-0,085	-0,059
-541,481	116,130	0,057	0,050
-540,466	23,959	-0,060	-0,035
-539,452	-101,647	-0,046	-0,008
-538,437	65,466	0,055	0,040
-537,423	245,930	-0,101	0,123
-536,408	-136,724	-0,047	-0,004
-535,393	-200,000	-0,049	-0,199
-534,379	800,000	0,055	-0,140
-533,364	800,000	-0,013	-0,026
-532,350	-55,577	0,190	0,061
-531,335	-68,239	0,102	0,029
-530,321	-106,196	0,121	-0,019
-529,306	-200,000	-0,005	-0,083
-528,291	43,986	-0,052	0,034
-527,277	111,413	-0,085	0,074
-526,262	-105,998	-0,094	-0,015
-525,248	-118,635	0,135	0,017
-524,233	73,058	-0,109	0,082
-523,218	800,000	-0,030	0,081
-522,204	-58,355	0,103	0,032
-521,189	180,277	0,069	-0,073
-520,175	-80,750	-0,082	-0,020
-519,160	-200,000	-0,003	-0,032
-518,145	-84,246	0,148	-0,034
-517,131	236,751	0,094	-0,113
-516,116	-107,996	0,105	0,016
-515,102	-96,015	-0,010	-0,002
-514,087	-200,000	0,004	0,027
-513,072	-200,000	-0,023	-0,103
-512,058	800,000	-0,011	-0,033
-511,043	-0,778	-0,022	-0,011
-510,029	25,428	0,123	-0,073
-509,014	500,494	-0,046	0,077
-507,999	57,950	0,085	0,060
-506,985	-24,731	-0,082	-0,035
-505,970	18,049	-0,100	-0,057
-504,956	154,681	0,116	-0,115
-503,941	-82,477	0,062	0,015
-502,926	-200,000	-0,001	0,045
-501,912	328,718	0,024	0,034
-500,897	-94,884	0,059	0,011
-499,883	-200,000	0,006	-0,202
-498,868	800,000	-0,059	-0,154
-497,853	800,000	0,021	-0,064
-496,839	-200,000	-0,007	-0,097
-495,824	-199,112	-0,076	-0,000
-494,810	192,031	-0,051	0,055
-493,795	-137,610	0,085	0,007
-492,781	-200,000	0,007	0,036
-491,766	27,313	-0,030	0,018
-490,751	-95,373	-0,076	-0,015
-489,737	228,909	-0,061	0,072
-488,722	119,110	-0,006	-0,006
-487,708	430,806	0,053	0,083
-486,693	-0,903	0,037	0,019
-485,678	-95,705	-0,047	-0,009
-484,664	-200,000	-0,015	-0,086
-483,649	566,622	0,070	-0,122
-482,635	-6,378	0,066	-0,032
-481,620	69,119	0,022	-0,016
-480,605	-187,058	-0,050	-0,000
-479,591	800,000	0,004	-0,011
-478,576	-200,000	0,018	0,058
-477,562	800,000	-0,018	-0,047
-476,547	-200,000	-0,002	0,016
-475,532	-128,448	-0,050	0,005
-474,518	-200,000	0,008	0,199
-473,503	-200,000	0,000	0,085
-472,489	63,551	0,033	0,024
-471,474	800,000	0,041	0,127
-470,459	53,354	-0,071	-0,049
-469,445	14,937	-0,140	-0,079
-468,430	673,372	0,043	-0,080
-467,416	-25,177	0,169	0,072
-466,401	-190,867	0,138	-0,001
-465,386	-200,000	0,008	0,139
-464,372	278,052	-0,053	-0,068
-463,357	112,282	-0,051	0,044
-462,343	800,000	-0,026	-0,053
-461,328	-44,971	-0,040	0,014
-460,313	-200,000	0,021	-0,073
-459,299	91,565	0,073	0,059
-458,284	-200,000	-0,009	0,097
-457,270	-91,947	0,019	-0,004
-456,255	599,542	-0,043	0,077
-455,241	173,495	-0,048	-0,050
-454,226	33,381	-0,049	-0,031
-453,211	800,000	0,034	-0,109
-452,197	334,324	0,026	0,037
-451,182	-94,944	-0,044	0,008
-450,168	-200,000	-0,028	0,114
-449,153	800,000	-0,018	0,038
-448,138	260,910	0,049	0,062
-447,124	-200,000	0,008	-0,026
-446,109	-78,404	0,084	0,021
-445,095	4,473	0,163	0,086
-444,080	-44,863	0,106	0,038
-443,065	-200,000	0,001	0,075
-442,051	14,908	0,030	-0,017
-441,036	-200,000	0,007	-0,072
-440,022	-200,000	-0,009	0,103
-439,007	771,928	0,022	0,044
-437,992	28,614	0,131	0,080
-436,978	-200,000	-0,017	0,092
-435,963	386,624	0,032	-0,047
-434,949	514,740	0,043	0,072
-433,934	141,988	-0,132	0,126
-432,919	50,621	-0,100	0,068
-431,905	800,000	-0,010	-0,024
-430,890	237,445	0,049	0,058
-429,876	-200,000	-0,002	0,049
-428,861	-23,335	0,067	0,029
-427,846	-102,512	0,134	-0,023
-426,832	800,000	-0,028	0,062
-425,817	-200,000	-0,011	-0,121
-424,803	-72,684	0,117	-0,031
-423,788	-25,383	0,047	0,020
-422,773	383,077	-0,043	0,064
-421,759	800,000	-0,044	0,096
-420,744	800,000	-0,017	0,037
-419,730	39,470	0,139	-0,089
-418,715	-115,688	0,113	0,015
-417,701	110,227	0,070	-0,061
-416,686	174,984	-0,138	-0,144
-415,671	-200,000	0,012	0,127
-414,657	-98,041	-0,073	-0,013
-413,642	-200,000	0,004	0,033
-412,628	-200,000	0,004	-0,077
-411,613	780,716	-0,039	-0,077
-410,598	227,442	-0,110	-0,129
-409,584	-128,059	-0,079	0,008
-408,569	-200,000	0,002	0,067
-407,555	489,793	-0,053	0,088
-406,540	-44,532	-0,021	0,008
-405,525	-200,000	-0,004	-0,080
-404,511	254,326	0,057	-0,070
-403,496	800,000	0,026	0,054
-402,482	800,000	-0,031	-0,095
-401,467	728,577	0,031	-0,060
-400,452	34,003	0,029	-0,018
-399,438	-200,000	-0,013	-0,064
-398,423	-47,244	0,004	-0,001
-397,409	-200,000	-0,010	-0,053
-396,394	-200,000	-0,005	-0,085
-395,379	407,188	0,035	0,053
-394,365	48,583	0,082	-0,055
-393,350	768,826	-0,089	0,175
-392,336	-200,000	0,027	-0,173
-391,321	303,004	0,014	-0,019
-390,306	800,000	-0,013	-0,028
-389,292	-108,918	-0,052	-0,008
-388,277	136,586	-0,030	0,028
-387,263	-21,548	-0,041	0,018
-386,248	-18,183	0,028	0,013
-385,233	277,987	-0,050	0,064
-384,219	-200,000	-0,020	-0,102
-383,204	79,053	-0,100	-0,077
-382,190	-200,000	-0,005	-0,049
-381,175	-132,060	-0,094	-0,009
-380,160	-1,872	0,040	0,020
-379,146	191,965	0,096	-0,104
-378,131	-135,453	0,076	-0,006
-377,117	-46,755	-0,028	-0,010
-376,102	-82,651	-0,091	-0,021
-375,088	-99,083	0,058	0,010
-374,073	-200,000	0,031	-0,139
-373,058	168,257	0,092	0,094
-372,044	800,000	0,075	-0,150
-371,029	-45,859	0,091	-0,032
-370,015	42,147	0,041	0,027
-369,000	53,959	-0,086	0,059
-367,985	29,856	-0,069	0,042
-366,971	-125,577	-0,024	-0,003
-365,956	-200,000	-0,004	-0,031
-364,942	465,215	-0,046	0,074
-363,927	-71,577	0,112	0,030
-362,912	-200,000	0,002	-0,030
-361,898	24,487	0,060	0,035
-360,883	143,821	-0,084	-0,080
-359,869	800,000	-0,032	-0,073
-358,854	336,640	-0,053	-0,075
-357,839	-13,440	0,054	-0,025
-356,825	-200,000	0,024	0,087
-355,810	-135,518	-0,148	-0,012
-354,796	-200,000	-0,014	-0,126
-353,781	-200,000	0,021	-0,107
-352,766	-200,000	0,012	-0,082
-351,752	-188,928	0,081	0,001
-350,737	-145,332	-0,104	-0,007
-349,723	-200,000	0,018	0,161
-348,708	-0,512	-0,067	0,034
-347,693	-123,678	0,107	0,012
-346,679	347,791	0,029	-0,041
-345,664	-153,881	-0,099	0,005
-344,650	103,517	0,058	-0,048
-343,635	-186,580	0,102	0,001
-342,620	590,021	-0,030	0,054
-341,606	-66,113	0,053	-0,015
-340,591	157,492	0,072	-0,072
-339,577	800,000	-0,049	-0,136
-338,562	-101,411	-0,079	-0,014
-337,548	-59,238	-0,198	0,061
-336,533	-200,000	0,000	0,096
-335,518	-141,394	-0,100	0,007
-334,504	51,877	0,060	0,041
-333,489	-143,328	-0,098	0,007
-332,475	39,321	-0,032	-0,021
-331,460	-137,324	-0,098	-0,008
-330,445	-85,161	0,086	0,019
-329,431	1,070	0,100	-0,051
-328,416	126,296	-0,039	0,035
-327,402	-69,979	0,064	0,017
-326,387	-89,748	-0,114	-0,024
-325,372	306,060	0,040	-0,053
-324,358	656,948	-0,065	-0,120
-323,343	-165,752	-0,051	0,002
-322,329	16,153	0,097	-0,055
-321,314	162,337	0,106	0,107
-320,299	287,342	0,013	0,017
-319,285	-37,330	-0,133	-0,051
-318,270	-200,000	0,000	-0,022
-317,256	131,140	-0,114	0,105
-316,241	-22,152	-0,177	-0,077
-315,226	108,149	0,022	0,019
-314,212	79,703	0,053	0,041
-313,197	-200,000	-0,026	0,118
-312,183	-200,000	0,001	0,007
-311,168	254,255	-0,095	0,116
-310,153	591,908	-0,045	0,081
-309,139	229,234	-0,064	0,075
-308,124	-125,193	0,111	0,012
-307,110	195,728	0,015	-0,016
-306,095	-58,364	0,133	0,041
-305,080	-200,000	0,016	-0,069
-304,066	-200,000	0,019	-0,062
-303,051	225,057	0,015	0,017
-302,037	-200,000	0,007	0,029
-301,022	107,624	0,064	-0,054
-300,008	44,033	0,066	0,043
-298,993	143,338	-0,089	0,085
-297,978	143,859	0,073	0,069
-296,964	800,000	-0,029	0,058
-295,949	92,460	-0,151	-0,121
-294,935	71,971	-0,026	0,020
-293,920	-56,460	-0,064	-0,020
-292,905	112,903	0,097	-0,084
-291,891	71,045	0,053	0,039
-290,876	-200,000	-0,032	0,182
-289,862	116,658	0,043	0,038
-288,847	-76,200	-0,035	0,009
-287,832	-129,233	-0,127	0,012
-286,818	800,000	0,016	-0,043
-285,803	299,772	0,026	0,035
-284,789	-110,436	0,028	-0,004
-283,774	-200,000	0,014	0,062
-282,759	29,074	0,080	0,048
-281,745	129,525	-0,053	0,049
-280,730	-30,813	0,075	-0,030
-279,716	-91,336	0,080	-0,016
-278,701	800,000	0,035	0,084
-277,686	-200,000	0,004	0,069
-276,672	-200,000	0,003	-0,044
-275,657	-200,000	0,020	0,098
-274,643	-200,000	-0,013	0,143
-273,628	-115,634	0,081	0,011
-272,613	-200,000	0,006	-0,028
-271,599	-200,000	0,004	-0,101
-270,584	-200,000	-0,018	0,089
-269,570	800,000	0,006	-0,015
-268,555	-73,783	0,074	0,019
-267,540	290,873	-0,076	0,099
-266,526	-67,500	-0,033	-0,009
-265,511	-159,419	-0,079	0,003
-264,497	126,556	0,035	-0,031
-263,482	89,090	0,043	-0,034
-262,467	800,000	0,030	-0,084
-261,453	-91,317	-0,091	-0,019
-260,438	-105,186	-0,090	0,015
-259,424	178,400	-0,091	-0,095
-258,409	-200,000	0,009	-0,067
-257,395	-200,000	-0,036	-0,139
-256,380	-26,980	0,087	0,036
-255,365	58,703	-0,045	0,031
-254,351	-127,125	-0,077	0,008
-253,336	156,017	0,035	-0,035
-252,322	554,620	-0,055	0,095
-251,307	22,234	-0,154	0,090
-250,292	19,529	0,066	-0,038
-249,278	393,266	0,076	-0,114
-248,263	-200,000	-0,006	0,043
-247,249	-36,046	0,148	-0,057
-246,234	247,309	-0,031	-0,037
-245,219	9,058	-0,176	-0,095
-244,205	63,713	0,122	-0,088
-243,190	390,704	0,061	0,091
-242,176	-200,000	-0,007	-0,126
-241,161	120,747	0,041	-0,036
-240,146	448,699	0,027	0,043
-239,132	800,000	-0,031	-0,087
-238,117	800,000	-0,055	-0,112
-237,103	-200,000	0,007	-0,025
-236,088	-200,000	0,011	-0,138
-235,073	155,480	-0,049	0,048
-234,059	36,424	0,073	0,046
-233,044	170,212	-0,031	-0,032
-232,030	472,398	-0,046	-0,073
-231,015	-200,000	0,035	-0,138
-230,000	-200,000	-0,013	-0,048
-228,986	800,000	0,038	-0,094
-227,971	800,000	0,055	-0,136
-226,957	-87,945	0,122	-0,026
-225,942	230,209	0,039	0,046
-224,927	-94,114	-0,025	0,005
-223,913	-200,000	0,008	0,033
-222,898	133,885	0,016	0,015
-221,884	31,434	-0,021	0,013
-220,869	-200,000	0,001	-0,022
-219,855	-200,000	0,002	0,133
-218,840	800,000	0,021	-0,057
-217,825	136,608	0,099	-0,092
-216,811	-35,576	-0,118	0,045
-215,796	49,505	-0,040	-0,027
-214,782	412,854	-0,069	0,104
-213,767	51,191	0,077	0,052
-212,752	-148,201	0,107	-0,006
-211,738	-200,000	-0,015	0,114
-210,723	-143,975	-0,114	0,008
-209,709	-200,000	-0,027	0,104
-208,694	131,272	-0,079	0,073
-207,679	463,400	-0,027	-0,043
-206,665	-152,715	-0,049	-0,002
-205,650	695,866	0,034	0,063
-204,636	482,441	0,091	0,147
-203,621	331,351	-0,059	-0,082
-202,606	189,484	-0,030	-0,032
-201,592	273,857	-0,018	-0,023
-200,577	-200,000	0,014	-0,046
-199,563	-84,182	-0,103	0,023
-198,548	-200,000	0,014	0,136
-197,533	74,470	0,089	0,067
-196,519	-200,000	0,021	0,075
-195,504	-200,000	0,005	0,053
-194,490	33,184	-0,072	-0,044
-193,475	1,616	0,114	0,059
-192,460	143,664	-0,092	-0,087
-191,446	-200,000	0,021	0,089
-190,431	-139,942	-0,107	-0,008
-189,417	-200,000	-0,003	-0,014
-188,402	36,216	0,057	-0,036
-187,387	-134,431	-0,032	-0,003
-186,373	-200,000	-0,003	0,038
-185,358	508,103	0,024	-0,040
-184,344	52,007	-0,110	0,075
-183,329	743,979	0,114	0,219
-182,315	-1,445	-0,053	-0,026
-181,300	-200,000	-0,008	0,038
-180,285	-59,017	0,099	0,030
-179,271	-200,000	-0,057	-0,199
-178,256	-200,000	-0,007	-0,028
-177,242	800,000	-0,023	-0,054
-176,227	143,783	0,081	0,077
-175,212	340,693	0,088	-0,122
-174,198	-200,000	-0,025	0,113
-173,183	-200,000	-0,009	0,037
-172,169	93,821	-0,118	-0,095
-171,154	-113,961	-0,091	-0,012
-170,139	800,000	-0,022	-0,051
-169,125	392,169	0,049	0,073
-168,110	-65,879	-0,032	0,009
-167,096	192,801	0,020	0,021
-166,081	-24,571	0,149	0,063
-165,066	396,065	0,050	-0,074
-164,052	-1,636	-0,127	-0,064
-163,037	-200,000	-0,019	0,067
-162,023	519,519	0,098	0,164
-161,008	105,486	0,009	-0,008
-159,993	-54,162	-0,112	0,036
-158,979	19,771	-0,100	-0,057
-157,964	187,072	0,072	-0,076
-156,950	31,412	-0,116	-0,071
-155,935	-94,958	-0,126	-0,024
-154,920	-151,081	-0,058	0,003
-153,906	23,356	0,207	0,121
-152,891	-33,934	0,072	0,028
-151,877	-92,832	-0,071	0,014
-150,862	-200,000	-0,030	-0,100
-149,847	-150,476	-0,126	0,007
-148,833	-200,000	-0,035	0,115
-147,818	800,000	-0,042	-0,095
-146,804	41,204	0,079	-0,051
-145,789	112,929	-0,121	0,104
-144,775	138,394	-0,048	0,045
-143,760	46,757	-0,022	0,015
-142,745	-200,000	0,023	-0,205
-141,731	-200,000	-0,019	-0,076
-140,716	-200,000	-0,007	-0,041
-139,702	30,880	-0,092	-0,056
-138,687	157,686	0,067	0,066
-137,672	-200,000	-0,015	0,061
-136,658	-200,000	-0,015	-0,072
-135,643	-200,000	-0,014	-0,113
-134,629	-200,000	-0,016	0,068
-133,614	-11,131	0,038	0,018
-132,599	-133,638	0,195	-0,017
-131,585	-48,589	-0,036	0,012
-130,570	190,437	0,036	-0,039
-129,556	800,000	-0,020	-0,055
-128,541	-200,000	-0,018	-0,082
-127,526	-200,000	-0,011	-0,088
-126,512	-86,189	0,183	0,040
-125,497	90,351	0,084	0,067
-124,483	33,869	-0,092	0,057
-123,468	477,149	-0,048	0,078
-122,453	459,842	-0,041	-0,066
-121,439	130,722	-0,107	0,098
-120,424	557,328	-0,029	0,051
-119,410	-66,239	0,084	-0,024
-118,395	-93,296	0,113	0,022
-117,380	-84,971	-0,062	0,014
-116,366	-45,317	0,004	-0,001
-115,351	10,972	-0,082	0,045
-114,337	800,000	-0,038	-0,099
-113,322	228,369	-0,083	-0,096
-112,307	800,000	0,024	0,053
-111,293	393,058	0,111	0,164
-110,278	360,237	0,037	0,053
-109,264	-200,000	-0,006	-0,033
-108,249	-193,520	0,116	0,001
-107,234	-200,000	-0,012	-0,042
-106,220	24,999	0,056	-0,033
-105,205	171,302	0,088	-0,090
-104,191	84,652	-0,028	0,022
-103,176	-154,504	0,112	0,005
-102,162	-200,000	-0,007	-0,058
-101,147	-129,166	0,044	-0,004
-100,132	-115,777	-0,080	-0,011
-99,118	-46,181	0,049	0,017
-98,103	-43,974	-0,056	-0,020
-97,089	131,960	0,073	-0,066
-96,074	-200,000	0,007	0,030
-95,059	-162,445	0,127	0,004
-94,045	-82,211	-0,098	0,022
-93,030	-200,000	-0,003	-0,149
-92,016	194,294	-0,117	-0,126
-91,001	-84,688	0,052	-0,011
-89,986	-90,552	0,124	-0,025
-88,972	-200,000	-0,002	0,100
-87,957	-200,000	0,024	0,143
-86,943	-61,699	-0,136	0,040
-85,928	-200,000	0,007	-0,119
-84,913	133,455	0,017	-0,015
-83,899	-200,000	0,031	0,133
-82,884	-25,087	-0,008	0,003
-81,870	-43,077	0,085	0,030
-80,855	-142,691	-0,111	-0,008
-79,840	-200,000	-0,026	0,087
-78,826	12,005	0,121	0,066
-77,811	432,925	-0,115	-0,178
-76,797	800,000	-0,045	-0,114
-75,782	-200,000	0,009	0,036
-74,767	800,000	0,043	0,118
-73,753	-98,318	-0,110	0,020
-72,738	-154,557	0,055	0,003
-71,724	139,715	-0,033	-0,031
-70,709	-200,000	-0,016	-0,127
-69,694	-200,000	-0,019	-0,124
-68,680	800,000	0,026	0,076
-67,665	-200,000	0,008	0,053
-66,651	248,133	0,093	0,112
-65,636	323,315	-0,098	0,133
-64,622	800,000	-0,006	0,015
-63,607	800,000	0,050	-0,155
-62,592	-200,000	0,003	-0,030
-61,578	484,319	0,053	-0,086
-60,563	242,628	-0,078	-0,093
-59,549	0,132	0,049	0,025
-58,534	-45,455	-1,478	-0,517
-57,519	329,463	-1,675	-2,291
-56,505	-200,000	-0,473	-4,315
-55,490	132,912	0,924	0,846
-54,476	800,000	4,706	11,344
-53,461	-200,000	17,720	279,661
-52,446	800,000	720,063	2215,907
-51,432	558,946	1634,186	2807,187
-50,417	80,894	1657,580	1266,563
-49,403	23,799	1531,820	892,499
-48,388	17,756	1455,498	818,892
-47,373	18,237	1444,847	815,174
-46,359	17,824	1435,643	807,982
-45,344	16,082	1430,726	796,907
-44,330	15,989	1428,863	795,394
-43,315	16,012	1427,212	794,554
-42,300	16,025	1425,531	793,648
-41,286	16,067	1424,277	793,115
-40,271	16,078	1422,883	792,362
-39,257	15,989	1421,738	791,273
-38,242	16,083	1420,393	790,935
-37,227	16,049	1419,266	790,115
-36,213	16,042	1417,880	789,281
-35,198	16,085	1416,562	788,716
-34,184	16,066	1415,974	788,272
-33,169	16,014	1414,524	787,187
-32,154	16,002	1413,689	786,633
-31,140	16,066	1412,061	785,997
-30,125	16,068	1411,002	785,386
-29,111	16,123	1409,692	784,884
-28,096	16,025	1408,848	783,922
-27,082	15,992	1407,647	783,071
-26,067	15,975	1406,595	782,375
-25,052	15,970	1405,732	781,839
-24,038	15,992	1404,522	781,239
-23,023	16,023	1403,231	780,632
-22,009	15,938	1402,609	779,859
-20,994	15,923	1401,500	779,145
-19,979	15,896	1400,803	778,601
-18,965	15,923	1399,529	777,985
-17,950	15,908	1398,709	777,430
-16,936	15,900	1397,748	776,829
-15,921	15,846	1396,535	775,874
-14,906	15,830	1395,722	775,316
-13,892	15,859	1394,781	774,897
-12,877	15,903	1393,634	774,433
-11,863	15,898	1392,689	773,851
-10,848	15,846	1391,905	773,145
-9,833	15,832	1390,908	772,498
-8,819	15,812	1389,827	771,775
-7,804	15,789	1389,077	771,220
-6,790	15,794	1388,222	770,739
-5,775	15,763	1387,060	769,921
-4,760	15,798	1386,221	769,584
-3,746	15,762	1385,550	769,015
-2,731	15,748	1384,578	768,382
-1,717	15,754	1383,807	767,949
-0,702	15,776	1381,737	766,874
0,313	19,583	1302,688	740,547
1,327	36,074	706,564	439,867
2,342	55,297	125,251	85,693
3,356	2,933	16,489	8,455
4,371	1,274	2,968	1,505
5,386	-37,590	0,542	0,203
6,400	-200,000	0,023	0,139
7,415	121,647	-0,239	-0,211
8,429	97,069	-0,277	-0,225
9,444	18,011	-0,442	-0,249
10,459	195,425	-0,242	-0,260
11,473	105,988	-0,203	-0,170
12,488	-70,595	-0,310	-0,082
13,502	-92,638	-0,268	-0,053
14,517	222,315	-0,192	-0,219
15,531	73,129	-0,346	-0,256
16,546	32,335	-0,410	-0,250
17,561	142,949	-0,426	-0,401
18,575	146,155	-0,145	-0,138
19,590	-0,245	-0,218	-0,109
20,604	-88,993	-0,277	-0,058
21,619	-50,755	-0,529	-0,175
22,634	84,440	-0,414	-0,320
23,648	172,798	-0,364	-0,371
24,663	149,765	-0,287	-0,275
25,677	135,169	-0,252	-0,232
26,692	142,528	-0,327	-0,307
27,707	-10,127	-0,394	-0,184
28,721	96,523	-0,264	-0,214
29,736	119,135	-0,400	-0,350
30,750	-3,976	-0,408	-0,199
31,765	-12,644	-0,399	-0,183
32,780	-50,607	-0,403	-0,134
33,794	113,140	-0,322	-0,276
34,809	26,433	-0,441	-0,260
35,823	134,946	-0,297	-0,272
36,838	79,581	-0,462	-0,350
37,853	15,433	-0,419	-0,232
38,867	85,737	-0,339	-0,263
39,882	89,349	-0,322	-0,253
40,896	204,182	-0,305	-0,334
41,911	-5,174	-0,473	-0,229
42,926	1,687	-0,298	-0,151
43,940	105,894	-0,255	-0,213
44,955	60,488	-0,381	-0,266
45,969	162,879	-0,365	-0,362
46,984	55,205	-0,359	-0,245
47,999	66,420	-0,266	-0,190
49,013	19,398	-0,375	-0,212
50,028	-53,904	-0,374	-0,120
51,042	30,711	-0,243	-0,147
52,057	294,557	-0,271	-0,350
53,071	690,850	-0,227	-0,420
54,086	83,417	-0,279	-0,214
55,101	143,850	-0,251	-0,236
56,115	-15,042	-0,361	-0,162
57,130	56,905	-0,386	-0,265
58,144	-6,472	-0,392	-0,188
59,159	29,459	-0,398	-0,238
60,174	-42,940	-0,286	-0,102
61,188	116,138	-0,319	-0,276
62,203	209,478	-0,295	-0,326
63,217	70,114	-0,388	-0,282
64,232	-9,907	-0,354	-0,165
65,247	10,209	-0,371	-0,198
66,261	-20,758	-0,373	-0,161
67,276	50,283	-0,357	-0,237
68,290	134,330	-0,286	-0,261
69,305	-32,709	-0,340	-0,133
70,320	150,801	-0,221	-0,211
71,334	-43,910	-0,419	-0,148
72,349	-21,604	-0,264	-0,113
73,363	-96,613	-0,319	-0,059
74,378	99,479	-0,410	-0,334
75,393	58,294	-0,267	-0,184
76,407	13,819	-0,268	-0,146
77,422	173,837	-0,324	-0,330
78,436	121,061	-0,191	-0,167
79,451	32,104	-0,253	-0,153
80,466	130,125	-0,287	-0,259
81,480	143,431	-0,262	-0,245
82,495	-27,677	-0,340	-0,138
83,509	352,802	-0,198	-0,277
84,524	59,057	-0,345	-0,238
85,539	437,132	-0,142	-0,219
86,553	65,944	-0,228	-0,162
87,568	-52,558	-0,276	-0,089
88,582	1,097	-0,417	-0,210
89,597	205,393	-0,252	-0,275
90,611	412,572	-0,123	-0,184
91,626	38,838	-0,408	-0,255
92,641	43,613	-0,356	-0,228
93,655	72,352	-0,277	-0,203
94,670	-61,998	-0,385	-0,112
95,684	-25,032	-0,261	-0,108
96,699	160,864	-0,306	-0,300
97,714	1,070	-0,399	-0,201
98,728	-95,615	-0,298	-0,055
99,743	81,500	-0,245	-0,186
100,757	23,008	-0,279	-0,160
101,772	-37,343	-0,324	-0,121
102,787	147,784	-0,221	-0,209
103,801	304,736	-0,200	-0,261
104,816	163,284	-0,238	-0,235
105,830	121,941	-0,273	-0,240
106,845	60,434	-0,184	-0,128
107,860	44,215	-0,300	-0,193
108,874	41,965	-0,339	-0,215
109,889	9,732	-0,404	-0,214
110,903	162,181	-0,352	-0,346
111,918	142,842	-0,275	-0,257
112,933	206,289	-0,202	-0,221
113,947	207,953	-0,100	-0,109
114,962	-175,825	-0,334	-0,006
115,976	120,390	-0,204	-0,178
116,991	117,820	-0,301	-0,260
118,006	113,379	-0,353	-0,301
119,020	341,903	-0,203	-0,280
120,035	642,379	-0,124	-0,222
121,049	308,541	-0,101	-0,132
122,064	78,661	-0,239	-0,179
123,079	89,747	-0,306	-0,239
124,093	-7,048	-0,286	-0,136
125,108	243,838	-0,243	-0,287
126,122	112,191	-0,291	-0,246
127,137	22,532	-0,273	-0,156
128,151	42,418	-0,193	-0,123
129,166	13,289	-0,258	-0,140
130,181	-200,000	-0,114	-0,362
131,195	-0,347	-0,277	-0,138
132,210	72,982	-0,326	-0,238
133,224	169,547	-0,230	-0,230
134,239	294,056	-0,140	-0,179
135,254	197,555	-0,218	-0,233
136,268	-11,633	-0,348	-0,160
137,283	112,006	-0,217	-0,183
138,297	42,265	-0,245	-0,156
139,312	64,624	-0,313	-0,221
140,327	78,826	-0,279	-0,209
141,341	74,310	-0,273	-0,200
142,356	28,163	-0,305	-0,180
143,370	402,595	-0,183	-0,270
144,385	134,146	-0,182	-0,165
145,400	147,224	-0,351	-0,331
146,414	117,433	-0,282	-0,243
147,429	146,857	-0,200	-0,188
148,443	364,545	-0,186	-0,263
149,458	-78,682	-0,179	-0,042
150,473	28,603	-0,237	-0,140
151,487	252,051	-0,184	-0,220
152,502	171,156	-0,214	-0,215
153,516	-48,653	-0,446	-0,149
154,531	225,022	-0,256	-0,290
155,546	-72,358	-0,217	-0,056
156,560	225,899	-0,155	-0,176
157,575	61,513	-0,190	-0,132
158,589	-44,060	-0,405	-0,142
159,604	96,815	-0,212	-0,170
160,619	-32,165	-0,241	-0,094
161,633	81,356	-0,296	-0,223
162,648	-7,009	-0,312	-0,147
163,662	269,396	-0,176	-0,216
164,677	187,679	-0,242	-0,253
165,692	360,598	-0,198	-0,277
166,706	7,109	-0,202	-0,105
167,721	55,126	-0,326	-0,219
168,735	523,968	-0,169	-0,279
169,750	-64,977	-0,193	-0,054
170,764	151,792	-0,199	-0,189
171,779	185,885	-0,218	-0,226
172,794	-2,256	-0,217	-0,106
173,808	-8,857	-0,330	-0,154
174,823	414,413	-0,148	-0,221
175,837	19,414	-0,240	-0,134
176,852	2,303	-0,224	-0,112
177,867	326,835	-0,122	-0,164
178,881	74,867	-0,170	-0,125
179,896	203,438	-0,211	-0,227
180,910	234,596	-0,270	-0,311
181,925	403,181	-0,182	-0,267
182,940	26,477	-0,335	-0,195
183,954	26,599	-0,260	-0,151
184,969	-50,147	-0,247	-0,081
185,983	-19,913	-0,188	-0,081
186,998	25,797	-0,176	-0,102
188,013	196,652	-0,139	-0,148
189,027	440,766	-0,223	-0,340
190,042	312,817	-0,205	-0,269
191,056	235,727	-0,234	-0,270
192,071	31,603	-0,191	-0,114
193,086	436,054	-0,085	-0,130
194,100	-76,566	-0,101	0,025
195,115	148,203	-0,147	-0,138
196,129	28,340	-0,359	-0,211
197,144	130,906	-0,247	-0,221
198,159	800,000	-0,164	-0,336
199,173	94,022	-0,270	-0,213
200,188	250,240	-0,101	-0,119
201,202	-177,281	-0,234	-0,004
202,217	25,176	-0,107	-0,062
203,232	-200,000	-0,034	-0,324
204,246	527,725	-0,132	-0,217
205,261	171,292	-0,224	-0,224
206,275	-28,284	-0,207	-0,083
207,290	48,718	-0,204	-0,133
208,304	38,874	-0,188	-0,116
209,319	133,657	-0,229	-0,207
210,334	544,948	-0,081	-0,135
211,348	90,436	-0,317	-0,246
212,363	177,701	-0,226	-0,229
213,377	45,002	-0,275	-0,176
214,392	171,925	-0,208	-0,208
215,407	-114,519	-0,157	-0,021
216,421	-62,762	-0,287	-0,082
217,436	182,316	-0,109	-0,112
218,450	-15,867	-0,402	-0,177
219,465	265,359	-0,172	-0,209
220,480	208,103	-0,230	-0,250
221,494	-200,000	-0,044	-0,161
222,509	34,369	-0,227	-0,137
223,523	111,694	-0,173	-0,145
224,538	-20,632	-0,126	-0,054
225,553	156,420	-0,171	-0,164
226,567	169,619	-0,184	-0,183
227,582	-158,237	-0,259	-0,010
228,596	800,000	-0,092	-0,222
229,611	518,391	-0,157	-0,256
230,626	156,323	-0,201	-0,193
231,640	119,663	-0,233	-0,200
232,655	-63,419	-0,287	-0,081
233,669	122,359	-0,198	-0,172
234,684	227,663	-0,122	-0,138
235,699	-36,351	-0,219	-0,081
236,713	37,802	-0,201	0,123
237,728	-114,119	-0,258	-0,034
238,742	26,085	-0,112	-0,065
239,757	-78,695	-0,155	-0,036
240,772	46,564	-0,231	-0,148
241,786	88,400	-0,246	-0,190
242,801	233,915	-0,142	-0,162
243,815	-66,236	-0,087	-0,024
244,830	143,181	-0,177	-0,164
245,844	361,162	-0,107	-0,149
246,859	-112,777	-0,177	-0,024
247,874	-4,973	-0,193	-0,092
248,888	232,807	-0,201	-0,230
249,903	293,479	-0,079	-0,100
250,917	-124,636	-0,053	0,006
251,932	-15,669	-0,187	-0,082
252,947	-70,888	-0,208	-0,054
253,961	-200,000	-0,054	-0,350
254,976	800,000	-0,107	-0,254
255,990	33,595	-0,249	-0,150
257,005	88,887	-0,219	-0,169
258,020	-200,000	-0,005	-0,163
259,034	338,088	-0,084	-0,114
260,049	21,637	-0,203	-0,114
261,063	-200,000	-0,052	-0,174
262,078	80,547	-0,188	-0,140
263,093	201,625	-0,121	-0,130
264,107	285,386	-0,109	-0,136
265,122	80,803	-0,160	-0,119
266,136	65,445	-0,167	-0,117
267,151	3,253	-0,227	-0,114
268,166	115,764	-0,147	-0,124
269,180	-10,715	-0,068	-0,031
270,195	172,547	-0,145	-0,144
271,209	170,308	-0,109	-0,108
272,224	-200,000	-0,001	-0,111
273,239	56,655	-0,222	-0,149
274,253	106,259	-0,180	-0,147
275,268	-200,000	-0,005	0,032
276,282	144,074	-0,166	-0,153
277,297	205,498	-0,100	-0,107
278,312	215,143	-0,168	-0,185
279,326	800,000	-0,042	-0,103
280,341	226,198	-0,077	-0,086
281,355	-8,276	-0,070	-0,032
282,370	563,002	-0,088	-0,147
283,384	356,260	-0,131	-0,181
284,399	-136,611	-0,168	-0,013
285,414	186,913	-0,163	-0,168
286,428	-26,553	-0,150	-0,061
287,443	253,122	-0,118	-0,139
288,457	22,805	-0,231	-0,130
289,472	358,668	-0,118	-0,163
290,487	681,035	-0,109	-0,197
291,501	800,000	-0,141	-0,272
292,516	32,220	-0,032	0,019
293,530	172,506	-0,246	-0,244
294,545	-200,000	0,010	-0,164
295,560	-200,000	-0,060	-0,199
296,574	86,981	-0,137	-0,104
297,589	-76,402	-0,179	-0,043
298,603	-45,991	-0,183	-0,062
299,618	158,652	-0,198	-0,189
300,633	116,876	-0,188	-0,159
301,647	-22,782	-0,148	-0,062
302,662	323,364	-0,150	-0,198
303,676	386,292	-0,101	-0,145
304,691	88,644	-0,177	-0,136
305,706	157,991	-0,137	-0,131
306,720	441,657	-0,148	-0,223
307,735	800,000	-0,036	-0,099
308,749	357,892	-0,104	-0,144
309,764	82,645	-0,111	-0,083
310,779	83,577	-0,111	-0,084
311,793	82,335	-0,167	-0,125
312,808	110,690	-0,135	-0,112
313,822	122,277	-0,123	-0,106
314,837	285,497	-0,094	-0,117
315,852	43,744	-0,146	-0,092
316,866	125,805	-0,106	-0,092
317,881	6,640	-0,116	0,059
318,895	-176,147	-0,205	0,004
319,910	126,856	-0,159	-0,139
320,925	141,078	-0,192	-0,175
321,939	51,326	-0,166	-0,108
322,954	342,850	-0,180	-0,243
323,968	-134,837	0,018	0,001
324,983	19,242	-0,173	-0,096
325,997	-200,000	-0,044	-0,140
327,012	-200,000	-0,008	-0,061
328,027	800,000	-0,079	-0,227
329,041	231,388	-0,124	-0,140
330,056	-71,670	-0,204	-0,052
331,070	19,587	-0,139	-0,077
332,085	274,951	-0,109	-0,133
333,100	49,418	-0,028	-0,018
334,114	54,263	-0,211	-0,139
335,129	649,428	-0,100	-0,176
336,143	93,353	-0,184	-0,143
337,158	33,074	-0,177	-0,105
338,173	-200,000	0,000	-0,080
339,187	27,341	-0,116	-0,067
340,202	-23,407	-0,104	-0,043
341,216	-37,175	-0,151	-0,055
342,231	487,069	-0,047	-0,075
343,246	270,134	-0,134	-0,163
344,260	-93,499	-0,090	-0,017
345,275	-9,520	-0,174	-0,079
346,289	192,314	-0,213	-0,222
347,304	337,291	-0,113	-0,152
348,319	10,067	-0,151	-0,078
349,333	421,809	-0,119	-0,176
350,348	-200,000	-0,047	-0,182
351,362	23,568	-0,078	-0,044
352,377	-200,000	0,007	-0,080
353,392	194,907	-0,100	-0,104
354,406	-55,037	-0,139	-0,043
355,421	208,244	1313,961	1412,448
356,435	160,226	1474,632	1412,981
