DTS Sentinel unit serial number:	SN410029Multiplexer serial number:	ORYXHardware model number:	OX2-SRSoftware version number:	ORYX F/W v4,00 Oryx Data Collector v3.7.2.0data status	okinstallation	B3 Nyhavnadifferential loss correction	single-endedforward channel	channel 1reverse channel	N/Adate	2023/12/04time	02:37:30forward acquisition time	300,00reverse acquisition time	0,00gamma	499,1914k internal	0,3205k external	0,3205temperature offset calibration	1,0000default loss term (dB/km)	0,3820temperature slope calibration	1,0000multiplexer offset coefficient	1,0000multiplexer slope coefficient	1,0000fibre end	0,00T internal ref (°C)	12,25T ext. ref 1 (°C)	-2,94T ext. ref 2 (°C)	-2,97length (m)	temperature (°C)	Stokes	anti-Stokes-744,400	237,769	-0,205	-0,247
-743,385	377,047	0,102	0,152
-742,371	800,000	-0,152	-0,359
-741,356	-200,000	0,025	0,306
-740,342	-38,946	-0,131	-0,050
-739,327	800,000	-0,111	0,256
-738,312	-10,810	-0,228	-0,109
-737,298	-200,000	0,001	0,266
-736,283	-39,685	-0,335	-0,127
-735,269	800,000	-0,103	0,251
-734,254	376,048	-0,232	-0,344
-733,239	214,676	-0,164	0,189
-732,225	-46,499	-0,163	-0,058
-731,210	-200,000	0,001	0,106
-730,196	-200,000	-0,029	-0,093
-729,181	-147,906	-0,038	-0,002
-728,167	-200,000	-0,005	0,077
-727,152	-200,000	0,011	0,088
-726,137	-132,235	0,039	-0,004
-725,123	263,796	-0,049	-0,062
-724,108	800,000	-0,030	-0,066
-723,094	-112,991	-0,195	-0,028
-722,079	-200,000	-0,000	-0,125
-721,064	-169,231	-0,114	-0,003
-720,050	128,847	0,089	-0,082
-719,035	165,376	-0,027	-0,028
-718,021	-102,918	0,133	-0,023
-717,006	-112,534	-0,080	-0,011
-715,991	76,985	-0,106	-0,082
-714,977	82,385	-0,060	-0,048
-713,962	-200,000	0,024	-0,118
-712,948	-200,000	-0,019	-0,154
-711,933	-200,000	-0,017	-0,103
-710,918	-200,000	-0,005	-0,133
-709,904	-200,000	-0,040	-0,146
-708,889	433,841	-0,099	-0,156
-707,875	-118,916	-0,048	0,006
-706,860	-200,000	0,005	0,020
-705,845	-17,476	-0,031	0,014
-704,831	-103,331	-0,043	0,007
-703,816	425,035	-0,052	0,081
-702,802	-200,000	-0,005	0,039
-701,787	14,191	-0,116	-0,065
-700,772	-200,000	-0,028	-0,117
-699,758	-151,689	-0,080	0,004
-698,743	-200,000	0,029	-0,181
-697,729	-200,000	-0,027	0,109
-696,714	317,138	-0,043	-0,060
-695,699	-200,000	0,008	0,068
-694,685	-200,000	0,052	-0,180
-693,670	460,213	0,081	-0,131
-692,656	800,000	0,044	-0,115
-691,641	-200,000	0,036	0,129
-690,627	104,456	0,042	-0,036
-689,612	-118,682	0,067	-0,008
-688,597	-174,862	-0,129	-0,003
-687,583	337,819	-0,096	-0,136
-686,568	-200,000	-0,013	-0,079
-685,554	149,385	0,107	-0,105
-684,539	161,539	0,032	0,033
-683,524	120,365	0,078	-0,070
-682,510	800,000	0,065	0,196
-681,495	49,757	-0,092	0,063
-680,481	-200,000	-0,017	-0,102
-679,466	-200,000	0,005	-0,025
-678,451	800,000	0,042	-0,107
-677,437	800,000	0,061	0,135
-676,422	800,000	0,018	-0,050
-675,408	-7,050	0,032	-0,016
-674,393	44,720	-0,049	-0,032
-673,378	800,000	-0,014	0,032
-672,364	135,512	-0,118	-0,111
-671,349	774,073	-0,043	-0,086
-670,335	105,377	-0,041	-0,035
-669,320	-200,000	-0,012	0,139
-668,305	-200,000	0,003	0,103
-667,291	485,308	-0,037	0,061
-666,276	101,349	-0,130	-0,110
-665,262	153,933	-0,047	-0,047
-664,247	-23,213	-0,090	0,039
-663,232	78,341	0,057	-0,044
-662,218	-131,118	0,076	-0,007
-661,203	-200,000	0,005	0,101
-660,189	-119,402	-0,092	-0,011
-659,174	800,000	-0,080	-0,253
-658,159	-99,102	-0,047	-0,009
-657,145	-13,978	-0,162	-0,075
-656,130	-67,545	0,077	0,022
-655,116	-200,000	0,002	0,062
-654,101	-200,000	0,010	0,101
-653,086	782,651	-0,064	-0,127
-652,072	-13,477	0,019	0,009
-651,057	-200,000	0,007	-0,085
-650,043	-79,417	-0,064	0,016
-649,028	800,000	-0,065	-0,136
-648,014	-112,321	-0,048	0,007
-646,999	-200,000	0,018	0,105
-645,984	-148,079	-0,100	-0,006
-644,970	27,210	-0,057	0,034
-643,955	130,193	-0,122	-0,113
-642,941	800,000	-0,067	-0,139
-641,926	800,000	-0,012	-0,028
-640,911	376,265	-0,046	0,068
-639,897	-200,000	0,001	-0,032
-638,882	-200,000	-0,029	0,106
-637,868	-200,000	-0,036	-0,162
-636,853	-109,193	0,021	-0,003
-635,838	-200,000	-0,016	0,071
-634,824	800,000	0,023	-0,051
-633,809	56,186	0,092	-0,065
-632,795	800,000	-0,042	-0,115
-631,780	544,120	0,036	-0,062
-630,765	-200,000	-0,025	-0,166
-629,751	-62,444	0,066	-0,020
-628,736	-200,000	-0,000	-0,062
-627,722	-200,000	0,001	-0,018
-626,707	-200,000	0,020	-0,108
-625,692	-200,000	-0,009	-0,051
-624,678	75,093	0,053	-0,040
-623,663	413,000	0,027	0,042
-622,649	78,939	-0,098	-0,076
-621,634	5,346	0,077	-0,041
-620,619	-76,780	-0,168	0,042
-619,605	23,400	0,090	0,053
-618,590	-200,000	-0,005	-0,030
-617,576	-200,000	-0,001	0,006
-616,561	-200,000	0,024	-0,079
-615,546	-111,912	-0,038	0,006
-614,532	-200,000	-0,010	-0,077
-613,517	-105,729	0,047	-0,008
-612,503	800,000	-0,034	0,091
-611,488	208,319	0,028	-0,032
-610,474	440,444	-0,042	-0,067
-609,459	800,000	0,079	-0,211
-608,444	-103,324	-0,101	-0,017
-607,430	-109,311	-0,068	0,010
-606,415	-102,500	-0,149	0,026
-605,401	360,108	-0,048	0,070
-604,386	66,611	-0,038	-0,028
-603,371	800,000	-0,048	0,117
-602,357	-200,000	-0,006	-0,091
-601,342	-200,000	-0,025	-0,126
-600,328	120,672	-0,039	0,035
-599,313	108,610	0,148	0,128
-598,298	179,402	-0,065	-0,069
-597,284	-86,619	0,025	-0,005
-596,269	306,896	-0,042	0,057
-595,255	-6,074	-0,060	0,030
-594,240	-200,000	0,009	0,043
-593,225	-200,000	0,023	-0,078
-592,211	800,000	-0,069	-0,160
-591,196	-9,554	0,036	0,017
-590,182	-200,000	-0,002	-0,118
-589,167	56,642	0,136	-0,095
-588,152	-125,812	-0,108	0,012
-587,138	-143,547	0,091	0,006
-586,123	210,511	0,021	-0,024
-585,109	-200,000	-0,018	0,157
-584,094	-200,000	-0,007	-0,050
-583,079	-200,000	0,017	-0,078
-582,065	98,689	-0,072	0,060
-581,050	103,474	-0,069	-0,059
-580,036	30,327	-0,125	0,077
-579,021	-64,432	-0,126	-0,037
-578,006	242,762	-0,098	0,119
-576,992	-151,185	-0,075	0,004
-575,977	-121,731	0,120	-0,014
-574,963	251,606	-0,088	0,108
-573,948	172,385	0,044	-0,046
-572,934	41,071	-0,069	-0,045
-571,919	327,902	-0,094	-0,130
-570,904	27,616	-0,021	0,013
-569,890	800,000	0,039	-0,110
-568,875	25,271	-0,034	0,020
-567,861	-55,263	0,076	0,024
-566,846	488,768	0,097	0,160
-565,831	-200,000	-0,002	0,005
-564,817	-169,856	-0,090	0,002
-563,802	527,850	0,062	-0,106
-562,788	-78,549	0,044	-0,011
-561,773	228,839	0,033	0,038
-560,758	-200,000	0,001	-0,019
-559,744	-200,000	-0,018	0,080
-558,729	-137,125	-0,053	-0,004
-557,715	800,000	-0,026	0,069
-556,700	800,000	-0,008	-0,026
-555,685	441,810	-0,012	-0,019
-554,671	-1,183	0,113	0,057
-553,656	-161,509	0,104	-0,004
-552,642	-200,000	0,003	0,079
-551,627	40,172	0,055	-0,035
-550,612	-50,790	-0,059	-0,020
-549,598	431,288	0,043	-0,067
-548,583	-200,000	0,003	-0,032
-547,569	-139,245	-0,153	-0,012
-546,554	-117,254	0,118	-0,015
-545,539	800,000	0,015	-0,040
-544,525	795,986	-0,032	0,064
-543,510	-200,000	0,000	0,160
-542,496	639,210	-0,016	-0,030
-541,481	800,000	-0,020	-0,048
-540,466	-200,000	0,007	0,077
-539,452	-200,000	0,031	0,179
-538,437	65,309	0,158	0,115
-537,423	-101,567	-0,069	-0,012
-536,408	-131,370	-0,087	-0,008
-535,393	-200,000	0,016	-0,117
-534,379	5,498	-0,115	-0,061
-533,364	39,668	-0,052	-0,034
-532,350	800,000	-0,042	0,110
-531,335	167,541	0,057	-0,058
-530,321	-125,256	0,109	-0,012
-529,306	688,246	-0,042	-0,079
-528,291	-129,561	-0,152	-0,015
-527,277	-200,000	0,017	0,097
-526,262	-200,000	-0,006	0,077
-525,248	781,836	-0,022	-0,043
-524,233	-9,913	0,104	0,049
-523,218	-200,000	0,008	0,073
-522,204	199,822	-0,106	-0,117
-521,189	112,168	0,105	-0,091
-520,175	-200,000	-0,024	-0,117
-519,160	-200,000	0,003	0,058
-518,145	304,935	0,102	0,136
-517,131	44,888	0,191	0,126
-516,116	114,471	0,048	0,042
-515,102	308,996	0,024	-0,032
-514,087	46,106	-0,032	-0,021
-513,072	-200,000	0,016	-0,066
-512,058	-200,000	0,005	-0,027
-511,043	-200,000	-0,002	-0,131
-510,029	458,508	0,099	0,160
-509,014	220,402	0,014	0,016
-507,999	94,109	0,067	0,055
-506,985	-66,999	0,075	-0,021
-505,970	-167,418	-0,068	-0,002
-504,956	-200,000	0,029	-0,169
-503,941	147,193	-0,040	-0,039
-502,926	-29,862	0,030	-0,012
-501,912	314,479	0,036	0,049
-500,897	66,970	0,044	-0,032
-499,883	249,837	-0,073	-0,090
-498,868	25,252	-0,071	-0,043
-497,853	39,066	0,045	-0,029
-496,839	800,000	0,038	-0,089
-495,824	79,111	-0,021	0,016
-494,810	-200,000	0,002	0,053
-493,795	-52,932	0,020	0,007
-492,781	800,000	-0,019	-0,040
-491,766	154,770	-0,004	-0,004
-490,751	-200,000	0,014	-0,088
-489,737	304,911	0,080	-0,107
-488,722	-200,000	0,011	0,105
-487,708	800,000	0,056	0,178
-486,693	571,798	0,046	-0,081
-485,678	164,880	0,035	-0,036
-484,664	-118,824	-0,046	-0,006
-483,649	22,217	-0,016	-0,009
-482,635	-136,675	-0,188	0,015
-481,620	-200,000	0,026	0,115
-480,605	-200,000	0,000	0,068
-479,591	800,000	0,048	0,109
-478,576	9,400	-0,089	-0,048
-477,562	379,115	-0,019	-0,028
-476,547	-200,000	-0,008	-0,040
-475,532	231,067	0,012	-0,014
-474,518	453,971	0,086	0,138
-473,503	-200,000	0,029	0,120
-472,489	54,404	0,145	-0,100
-471,474	68,888	0,106	-0,078
-470,459	178,262	0,038	0,040
-469,445	129,041	-0,107	-0,099
-468,430	800,000	0,035	-0,082
-467,416	-150,310	-0,121	0,007
-466,401	18,254	-0,010	0,005
-465,386	69,760	0,077	-0,057
-464,372	-33,815	-0,089	0,035
-463,357	-110,449	-0,105	-0,015
-462,343	800,000	-0,037	-0,075
-461,328	-200,000	-0,039	-0,168
-460,313	68,869	0,024	0,018
-459,299	-72,231	0,054	0,014
-458,284	-200,000	0,015	0,059
-457,270	-1,308	0,141	0,071
-456,255	207,246	-0,091	-0,102
-455,241	-114,238	-0,062	0,009
-454,226	-200,000	0,028	-0,116
-453,211	-19,983	-0,082	-0,036
-452,197	-200,000	0,020	-0,149
-451,182	221,585	0,041	0,048
-450,168	-35,139	0,060	0,023
-449,153	664,729	-0,017	0,031
-448,138	131,147	-0,078	-0,072
-447,124	587,633	-0,008	-0,014
-446,109	158,777	-0,003	0,003
-445,095	-44,168	0,131	0,047
-444,080	-102,935	-0,128	0,022
-443,065	-35,642	-0,045	0,017
-442,051	-21,378	-0,075	0,033
-441,036	62,826	-0,058	-0,042
-440,022	441,980	0,086	-0,135
-439,007	-32,343	-0,056	-0,022
-437,992	-200,000	0,012	0,220
-436,978	409,665	0,091	0,139
-435,963	-161,211	-0,109	0,004
-434,949	189,733	-0,058	-0,062
-433,934	539,970	-0,056	-0,095
-432,919	800,000	-0,032	0,073
-431,905	81,628	-0,054	0,042
-430,890	-15,349	0,108	0,050
-429,876	403,441	-0,061	0,093
-428,861	52,713	0,022	-0,015
-427,846	239,301	0,043	0,052
-426,832	800,000	0,035	-0,070
-425,817	350,199	-0,011	-0,015
-424,803	-102,006	0,042	0,007
-423,788	5,166	-0,094	0,049
-422,773	-0,449	0,028	-0,014
-421,759	-1,135	0,046	0,023
-420,744	148,583	0,031	0,030
-419,730	-200,000	0,044	-0,157
-418,715	800,000	-0,057	0,126
-417,701	62,574	-0,109	0,078
-416,686	-200,000	0,161	0,000
-415,671	-200,000	0,017	-0,057
-414,657	400,199	-0,018	-0,027
-413,642	-200,000	0,022	0,108
-412,628	234,612	0,043	0,051
-411,613	-21,944	0,142	0,062
-410,598	800,000	-0,011	0,028
-409,584	800,000	-0,048	-0,099
-408,569	172,741	-0,061	0,063
-407,555	800,000	-0,042	0,128
-406,540	-200,000	-0,001	0,027
-405,525	749,765	-0,089	-0,172
-404,511	109,754	-0,111	-0,095
-403,496	151,735	-0,053	0,052
-402,482	1,072	0,146	-0,075
-401,467	-200,000	-0,029	0,143
-400,452	800,000	-0,028	0,083
-399,438	24,650	-0,057	-0,034
-398,423	753,106	0,023	-0,045
-397,409	-99,355	-0,061	-0,011
-396,394	-18,716	-0,068	0,030
-395,379	628,693	-0,034	0,062
-394,365	246,261	-0,083	0,101
-393,350	-151,909	0,164	-0,008
-392,336	-38,765	-0,030	0,011
-391,321	245,679	-0,025	-0,030
-390,306	800,000	0,021	0,061
-389,292	-200,000	0,006	0,035
-388,277	-200,000	-0,011	-0,151
-387,263	-64,489	-0,051	0,015
-386,248	-150,622	0,096	-0,005
-385,233	-200,000	-0,001	0,148
-384,219	-2,378	-0,112	0,056
-383,204	132,335	-0,065	0,060
-382,190	489,464	0,005	0,008
-381,175	-119,852	-0,132	-0,016
-380,160	7,914	0,061	-0,033
-379,146	-200,000	-0,004	0,099
-378,131	-107,810	-0,089	0,014
-377,117	-168,121	0,134	0,004
-376,102	43,591	-0,039	-0,026
-375,088	-37,277	0,066	0,025
-374,073	146,588	-0,095	0,092
-373,058	-66,833	-0,103	-0,029
-372,044	-23,522	-0,019	-0,008
-371,029	-200,000	-0,000	0,036
-370,015	-148,627	0,094	0,005
-369,000	510,305	-0,038	0,064
-367,985	-77,917	-0,170	-0,042
-366,971	-24,548	0,085	-0,036
-365,956	164,365	0,112	-0,113
-364,942	-200,000	0,018	0,094
-363,927	144,954	0,030	-0,029
-362,912	44,534	0,101	0,067
-361,898	-59,002	-0,106	0,032
-360,883	-26,249	0,048	-0,020
-359,869	800,000	-0,007	-0,014
-358,854	-200,000	-0,005	0,037
-357,839	-42,991	0,111	0,040
-356,825	-200,000	0,016	-0,059
-355,810	281,443	0,059	0,076
-354,796	99,380	0,073	0,061
-353,781	-200,000	0,000	-0,001
-352,766	-103,970	-0,083	0,014
-351,752	-148,189	0,115	-0,007
-350,737	84,987	0,149	0,117
-349,723	360,606	-0,033	-0,047
-348,708	606,077	0,028	-0,051
-347,693	72,167	-0,079	-0,059
-346,679	-134,166	-0,129	0,011
-345,664	-134,731	0,101	0,009
-344,650	-126,707	-0,087	0,009
-343,635	219,174	0,048	-0,055
-342,620	-200,000	0,026	0,103
-341,606	-50,335	-0,085	-0,029
-340,591	678,521	0,042	-0,078
-339,577	-165,390	-0,056	-0,002
-338,562	-200,000	-0,017	-0,086
-337,548	14,520	0,085	-0,047
-336,533	-140,556	0,133	-0,010
-335,518	-66,471	0,115	0,032
-334,504	-81,588	0,077	-0,018
-333,489	787,544	-0,044	-0,087
-332,475	-200,000	0,060	0,212
-331,460	-95,752	0,042	0,008
-330,445	259,787	0,053	-0,066
-329,431	800,000	-0,039	-0,083
-328,416	800,000	0,010	-0,024
-327,402	-20,068	0,028	0,012
-326,387	47,429	0,032	0,021
-325,372	-200,000	-0,015	0,151
-324,358	43,367	-0,066	0,043
-323,343	102,719	0,028	0,023
-322,329	73,305	-0,020	0,015
-321,314	81,920	0,186	0,144
-320,299	800,000	0,052	0,116
-319,285	698,885	-0,051	0,097
-318,270	-200,000	-0,013	0,045
-317,256	-131,696	0,102	0,009
-316,241	42,013	-0,113	0,073
-315,226	267,818	0,069	0,087
-314,212	-33,839	0,044	0,017
-313,197	130,282	-0,078	-0,071
-312,183	-200,000	-0,031	-0,243
-311,168	-200,000	0,003	-0,011
-310,153	-200,000	0,006	-0,060
-309,139	-200,000	-0,004	-0,056
-308,124	138,400	-0,050	0,047
-307,110	708,935	0,011	0,020
-306,095	43,444	0,061	-0,040
-305,080	255,318	0,075	0,092
-304,066	800,000	0,049	-0,127
-303,051	365,199	-0,077	-0,111
-302,037	189,254	-0,145	-0,155
-301,022	82,435	-0,094	0,073
-300,008	-200,000	0,007	0,117
-298,993	355,704	0,095	0,136
-297,978	-200,000	-0,025	-0,089
-296,964	320,517	0,099	-0,134
-295,949	-200,000	0,004	0,123
-294,935	6,365	-0,094	-0,050
-293,920	217,053	0,053	-0,060
-292,905	-129,698	0,087	0,008
-291,891	208,153	0,099	0,110
-290,876	138,093	0,088	-0,082
-289,862	161,567	0,035	0,035
-288,847	-200,000	0,030	-0,109
-287,832	-170,670	0,187	0,005
-286,818	445,390	-0,044	-0,070
-285,803	60,636	0,087	0,062
-284,789	299,529	0,063	-0,082
-283,774	69,749	0,072	0,053
-282,759	20,728	-0,080	-0,046
-281,745	23,058	-0,014	0,008
-280,730	800,000	0,023	-0,072
-279,716	-55,697	-0,052	-0,017
-278,701	-200,000	0,028	0,105
-277,686	-49,091	0,051	0,017
-276,672	500,094	-0,014	0,023
-275,657	800,000	0,063	0,145
-274,643	118,178	0,046	0,041
-273,628	-91,645	-0,094	0,019
-272,613	800,000	-0,025	0,052
-271,599	222,309	-0,124	0,143
-270,584	-200,000	-0,005	0,165
-269,570	28,893	0,146	-0,088
-268,555	7,072	0,015	0,008
-267,540	133,244	0,119	-0,109
-266,526	275,351	-0,070	0,089
-265,511	-200,000	0,020	-0,079
-264,497	234,333	0,052	-0,061
-263,482	181,526	-0,033	-0,034
-262,467	-197,816	-0,048	-0,000
-261,453	111,366	-0,080	-0,069
-260,438	194,410	-0,117	0,126
-259,424	-200,000	-0,009	0,140
-258,409	-200,000	0,012	-0,192
-257,395	-114,114	0,178	0,024
-256,380	27,499	0,074	0,044
-255,365	88,656	0,106	0,084
-254,351	800,000	-0,060	-0,125
-253,336	-200,000	-0,003	-0,104
-252,322	75,895	0,061	0,046
-251,307	-53,306	-0,094	0,031
-250,292	67,793	-0,093	-0,068
-249,278	-200,000	-0,010	-0,063
-248,263	-200,000	0,003	-0,018
-247,249	-153,269	0,086	-0,004
-246,234	35,588	-0,062	-0,039
-245,219	83,719	0,095	-0,074
-244,205	701,016	-0,041	-0,077
-243,190	8,855	0,103	-0,055
-242,176	48,395	-0,053	0,035
-241,161	-200,000	-0,038	0,145
-240,146	281,481	-0,040	0,051
-239,132	35,340	0,135	0,084
-238,117	383,975	0,039	0,057
-237,103	491,137	0,024	-0,039
-236,088	687,663	-0,021	-0,038
-235,073	327,623	0,054	0,074
-234,059	-92,696	-0,076	-0,015
-233,044	-200,000	0,035	0,172
-232,030	-200,000	-0,001	-0,105
-231,015	5,433	-0,081	0,042
-230,000	-29,127	0,003	-0,001
-228,986	111,154	-0,019	0,016
-227,971	-92,406	-0,039	0,008
-226,957	-48,447	0,103	0,035
-225,942	800,000	0,041	-0,102
-224,927	-33,556	0,111	0,043
-223,913	-96,025	-0,062	0,012
-222,898	496,825	-0,012	0,020
-221,884	-87,029	0,019	0,004
-220,869	305,812	0,004	0,005
-219,855	61,092	-0,028	-0,020
-218,840	800,000	0,075	0,230
-217,825	-200,000	0,037	0,173
-216,811	75,428	0,024	0,018
-215,796	224,822	-0,068	-0,079
-214,782	83,655	0,034	0,027
-213,767	332,801	0,004	-0,005
-212,752	154,846	0,031	0,031
-211,738	21,669	-0,017	0,010
-210,723	-88,082	-0,018	-0,004
-209,709	800,000	0,034	0,068
-208,694	-28,156	0,102	0,042
-207,679	-14,302	-0,127	0,058
-206,665	-121,270	0,050	-0,006
-205,650	492,284	0,039	0,064
-204,636	800,000	-0,010	0,024
-203,621	-83,778	-0,014	-0,003
-202,606	290,060	0,056	-0,073
-201,592	729,559	-0,081	-0,155
-200,577	-55,183	0,032	-0,010
-199,563	-35,801	0,036	0,014
-198,548	800,000	0,041	0,120
-197,533	-139,194	-0,044	-0,003
-196,519	199,978	-0,099	0,108
-195,504	-136,558	0,057	-0,005
-194,490	414,515	-0,067	-0,101
-193,475	-200,000	0,000	-0,047
-192,460	94,710	-0,037	0,030
-191,446	-13,904	0,155	-0,071
-190,431	35,713	0,012	-0,008
-189,417	-121,130	0,086	-0,010
-188,402	76,438	-0,028	-0,021
-187,387	127,566	-0,007	0,006
-186,373	-196,060	0,064	0,000
-185,358	-200,000	-0,027	-0,120
-184,344	142,928	-0,067	-0,063
-183,329	800,000	0,096	0,225
-182,315	377,741	-0,053	0,077
-181,300	-110,497	-0,135	-0,020
-180,285	-200,000	0,003	0,029
-179,271	-200,000	0,016	-0,109
-178,256	800,000	-0,019	0,045
-177,242	-189,372	0,065	-0,001
-176,227	-200,000	-0,013	-0,043
-175,212	-38,913	0,072	0,027
-174,198	-93,443	0,098	-0,019
-173,183	-6,766	-0,171	-0,082
-172,169	137,542	-0,176	-0,164
-171,154	-0,366	-0,094	-0,047
-170,139	147,436	0,146	-0,140
-169,125	-37,970	-0,067	0,025
-168,110	-200,000	0,032	0,105
-167,096	800,000	-0,071	-0,147
-166,081	-67,288	-0,196	0,054
-165,066	598,868	0,022	0,039
-164,052	16,655	-0,078	-0,044
-163,037	-200,000	0,008	0,049
-162,023	800,000	0,026	0,071
-161,008	-200,000	-0,017	0,065
-159,993	-55,911	0,043	-0,013
-158,979	31,132	-0,101	-0,062
-157,964	425,272	0,016	-0,025
-156,950	800,000	-0,028	0,057
-155,935	44,476	0,039	-0,025
-154,920	-50,357	-0,034	0,011
-153,906	-43,802	-0,163	0,058
-152,891	-77,278	-0,031	0,008
-151,877	203,943	0,129	0,143
-150,862	452,653	-0,043	-0,068
-149,847	-65,123	0,120	-0,034
-148,833	173,917	-0,052	-0,054
-147,818	6,989	0,056	-0,029
-146,804	243,248	0,084	-0,100
-145,789	-47,509	-0,054	-0,019
-144,775	800,000	0,022	-0,062
-143,760	0,795	-0,194	-0,098
-142,745	-200,000	0,003	-0,066
-141,731	-73,451	0,099	-0,025
-140,716	800,000	0,017	0,038
-139,702	-200,000	0,013	-0,069
-138,687	-200,000	0,033	0,126
-137,672	-200,000	0,001	0,103
-136,658	800,000	0,048	-0,138
-135,643	225,083	0,074	-0,085
-134,629	52,582	0,074	-0,050
-133,614	-91,943	0,042	-0,008
-132,599	800,000	0,037	-0,090
-131,585	9,222	0,144	-0,077
-130,570	343,318	-0,064	-0,089
-129,556	-131,908	-0,116	-0,011
-128,541	800,000	-0,052	-0,150
-127,526	-12,502	-0,145	0,067
-126,512	225,144	-0,031	0,036
-125,497	-11,742	0,048	0,022
-124,483	-200,000	0,001	-0,142
-123,468	-200,000	0,019	0,126
-122,453	800,000	0,017	-0,040
-121,439	83,681	-0,079	-0,061
-120,424	58,278	0,029	0,020
-119,410	-32,284	-0,063	0,025
-118,395	-126,009	0,014	-0,001
-117,380	301,351	0,022	-0,029
-116,366	76,424	-0,037	-0,027
-115,351	179,068	-0,100	0,104
-114,337	303,243	-0,005	-0,007
-113,322	232,820	-0,069	-0,081
-112,307	-200,000	-0,014	-0,072
-111,293	-54,651	0,086	0,028
-110,278	-173,042	-0,080	-0,002
-109,264	-200,000	-0,001	0,109
-108,249	-22,794	-0,059	0,025
-107,234	-200,000	0,002	-0,104
-106,220	562,461	-0,058	0,100
-105,205	-200,000	-0,003	0,079
-104,191	202,837	-0,094	0,103
-103,176	-200,000	-0,020	0,090
-102,162	119,968	0,095	0,083
-101,147	-200,000	-0,015	-0,076
-100,132	-200,000	0,001	-0,027
-99,118	-142,010	-0,121	-0,008
-98,103	-126,198	-0,121	-0,013
-97,089	179,045	0,067	0,069
-96,074	800,000	0,022	0,064
-95,059	72,632	-0,138	-0,102
-94,045	555,181	-0,013	-0,022
-93,030	401,982	-0,034	-0,050
-92,016	800,000	-0,054	-0,157
-91,001	567,661	-0,042	-0,072
-89,986	506,337	0,041	0,067
-88,972	-26,787	-0,177	0,073
-87,957	-99,282	0,027	-0,005
-86,943	152,529	0,077	0,075
-85,928	-33,837	-0,075	0,029
-84,913	800,000	0,036	-0,085
-83,899	-122,739	0,080	0,009
-82,884	-200,000	0,002	-0,030
-81,870	-200,000	0,003	-0,016
-80,855	544,043	0,065	-0,110
-79,840	458,652	-0,093	0,147
-78,826	46,830	0,005	0,004
-77,811	-80,594	-0,056	0,013
-76,797	151,680	-0,030	-0,029
-75,782	121,008	0,012	-0,010
-74,767	319,591	0,029	-0,039
-73,753	68,925	-0,108	-0,078
-72,738	756,426	-0,011	0,022
-71,724	13,471	0,109	0,060
-70,709	373,794	-0,081	-0,117
-69,694	114,432	-0,086	0,074
-68,680	-34,184	-0,141	0,055
-67,665	228,537	-0,016	-0,019
-66,651	-12,790	0,088	0,040
-65,636	800,000	0,082	0,179
-64,622	61,219	-0,037	0,026
-63,607	-200,000	-0,002	0,057
-62,592	-2,824	-0,105	0,052
-61,578	333,705	0,057	-0,078
-60,563	206,328	-0,038	-0,042
-59,549	-200,000	-0,022	0,196
-58,534	-28,893	-1,806	-0,731
-57,519	383,201	-1,320	-1,926
-56,505	-200,000	-0,627	-4,680
-55,490	321,121	0,966	1,303
-54,476	800,000	4,945	11,367
-53,461	-200,000	20,182	324,446
-52,446	800,000	752,123	2313,686
-51,432	549,755	1663,284	2830,782
-50,417	75,176	1672,386	1245,426
-49,403	20,110	1545,017	879,079
-48,388	14,111	1467,364	805,707
-47,373	18,328	1457,692	820,744
-46,359	16,384	1447,249	805,516
-45,344	12,379	1442,430	783,617
-44,330	12,313	1440,598	782,274
-43,315	12,304	1438,934	781,299
-42,300	12,306	1437,409	780,447
-41,286	12,317	1435,978	779,694
-40,271	12,295	1434,587	778,800
-39,257	12,300	1433,331	778,111
-38,242	12,306	1432,129	777,456
-37,227	12,308	1431,172	776,918
-36,213	12,286	1429,763	776,018
-35,198	12,348	1428,492	775,591
-34,184	12,397	1427,494	775,251
-33,169	12,330	1426,080	774,136
-32,154	12,347	1425,080	773,642
-31,140	12,383	1423,603	772,980
-30,125	12,382	1422,705	772,456
-29,111	12,394	1421,277	771,707
-28,096	12,333	1420,578	771,007
-27,082	12,299	1419,394	770,177
-26,067	12,295	1418,240	769,502
-25,052	12,289	1417,334	768,949
-24,038	12,283	1416,153	768,249
-23,023	12,327	1415,150	767,883
-22,009	12,271	1414,194	767,068
-20,994	12,268	1413,190	766,481
-19,979	12,224	1412,529	765,886
-18,965	12,233	1411,570	765,375
-17,950	12,222	1410,472	764,701
-16,936	12,253	1409,534	764,307
-15,921	12,179	1408,584	763,416
-14,906	12,175	1407,709	762,891
-13,892	12,172	1406,676	762,286
-12,877	12,202	1405,812	761,927
-11,863	12,190	1405,109	761,461
-10,848	12,180	1403,879	760,717
-9,833	12,149	1403,301	760,230
-8,819	12,066	1402,556	759,408
-7,804	12,081	1401,679	758,976
-6,790	12,071	1400,528	758,275
-5,775	12,107	1399,272	757,731
-4,760	12,137	1398,219	757,272
-3,746	12,117	1397,452	756,733
-2,731	12,081	1396,668	756,111
-1,717	12,108	1395,836	755,756
-0,702	12,063	1393,883	754,459
0,313	16,022	1309,004	726,795
1,327	32,238	700,001	425,934
2,342	49,768	122,022	81,130
3,356	1,488	16,583	8,401
4,371	3,268	3,109	1,594
5,386	-16,451	0,575	0,257
6,400	-200,000	0,010	0,293
7,415	-28,638	-0,228	-0,092
8,429	24,424	-0,232	-0,135
9,444	51,750	-0,214	-0,144
10,459	76,025	-0,230	-0,172
11,473	111,605	-0,268	-0,228
12,488	9,845	-0,402	-0,215
13,502	7,362	-0,360	-0,189
14,517	-23,334	-0,241	-0,102
15,531	101,404	-0,320	-0,263
16,546	110,226	-0,321	-0,272
17,561	129,035	-0,351	-0,316
18,575	-2,335	-0,292	-0,144
19,590	800,000	-0,115	-0,250
20,604	-8,486	-0,262	-0,124
21,619	-64,549	-0,410	-0,117
22,634	72,066	-0,316	-0,232
23,648	112,112	-0,418	-0,357
24,663	206,246	-0,315	-0,346
25,677	52,094	-0,412	-0,276
26,692	34,264	-0,277	-0,170
27,707	75,671	-0,389	-0,290
28,721	159,952	-0,339	-0,334
29,736	124,004	-0,395	-0,350
30,750	33,840	-0,456	-0,279
31,765	486,343	-0,219	-0,353
32,780	149,153	-0,385	-0,367
33,794	40,695	-0,460	-0,292
34,809	35,061	-0,364	-0,224
35,823	87,270	-0,293	-0,228
36,838	58,050	-0,426	-0,293
37,853	228,487	-0,381	-0,438
38,867	-74,235	-0,327	-0,083
39,882	-16,908	-0,448	-0,198
40,896	173,531	-0,331	-0,337
41,911	11,310	-0,334	-0,180
42,926	31,588	-0,322	-0,195
43,940	67,870	-0,312	-0,224
44,955	62,107	-0,505	-0,354
45,969	77,260	-0,273	-0,204
46,984	-8,640	-0,383	-0,180
47,999	-130,167	-0,339	-0,032
49,013	-72,815	-0,403	-0,104
50,028	31,048	-0,305	-0,184
51,042	212,886	-0,334	-0,372
52,057	31,607	-0,361	-0,218
53,071	44,400	-0,423	-0,272
54,086	120,317	-0,303	-0,265
55,101	81,339	-0,374	-0,284
56,115	124,885	-0,247	-0,219
57,130	44,648	-0,419	-0,270
58,144	256,601	-0,203	-0,245
59,159	56,750	-0,465	-0,318
60,174	211,432	-0,279	-0,309
61,188	44,299	-0,335	-0,216
62,203	89,090	-0,366	-0,286
63,217	-47,503	-0,298	-0,101
64,232	95,714	-0,324	-0,259
65,247	164,006	-0,267	-0,265
66,261	173,436	-0,324	-0,328
67,276	64,815	-0,399	-0,283
68,290	4,328	-0,427	-0,219
69,305	225,394	-0,295	-0,336
70,320	62,059	-0,373	-0,261
71,334	134,056	-0,250	-0,228
72,349	31,405	-0,220	-0,132
73,363	2,255	-0,368	-0,186
74,378	-16,973	-0,361	-0,159
75,393	140,830	-0,309	-0,287
76,407	216,503	-0,142	-0,158
77,422	37,455	-0,179	-0,111
78,436	21,784	-0,307	-0,175
79,451	-47,726	-0,329	-0,111
80,466	169,932	-0,258	-0,259
81,480	138,994	-0,291	-0,269
82,495	19,738	-0,350	-0,197
83,509	-49,470	-0,359	-0,119
84,524	-6,241	-0,290	-0,139
85,539	-42,145	-0,230	-0,082
86,553	6,674	-0,258	-0,134
87,568	-41,815	-0,339	-0,121
88,582	193,980	-0,225	-0,239
89,597	-22,462	-0,314	-0,133
90,611	133,478	-0,219	-0,199
91,626	359,536	-0,201	-0,283
92,641	45,931	-0,306	-0,198
93,655	71,784	-0,274	-0,199
94,670	110,310	-0,270	-0,228
95,684	66,057	-0,302	-0,214
96,699	236,505	-0,233	-0,270
97,714	36,120	-0,349	-0,215
98,728	58,327	-0,199	-0,136
99,743	-11,138	-0,245	-0,113
100,757	118,074	-0,231	-0,199
101,772	55,059	-0,175	-0,118
102,787	42,592	-0,431	-0,274
103,801	709,181	-0,182	-0,338
104,816	3,931	-0,290	-0,148
105,830	34,647	-0,234	-0,143
106,845	153,989	-0,082	-0,079
107,860	113,063	-0,237	-0,202
108,874	18,271	-0,419	-0,234
109,889	7,601	-0,197	-0,103
110,903	14,866	-0,243	-0,133
111,918	73,715	-0,384	-0,281
112,933	79,281	-0,281	-0,210
113,947	-15,964	-0,216	-0,096
114,962	-53,372	-0,209	-0,067
115,976	800,000	-0,130	-0,299
116,991	-35,945	-0,372	-0,140
118,006	37,817	-0,215	-0,133
119,020	15,705	-0,333	-0,182
120,035	52,315	-0,342	-0,228
121,049	184,218	-0,215	-0,223
122,064	39,607	-0,228	-0,143
123,079	167,605	-0,187	-0,186
124,093	-22,640	-0,313	-0,132
125,108	-80,229	-0,293	-0,068
126,122	468,564	-0,173	-0,273
127,137	120,851	-0,291	-0,253
128,151	383,993	-0,168	-0,243
129,166	130,993	-0,159	-0,143
130,181	-17,630	-0,382	-0,167
131,195	55,291	-0,319	-0,215
132,210	88,629	-0,248	-0,192
133,224	307,701	-0,186	-0,243
134,239	-15,002	-0,295	-0,132
135,254	-156,595	-0,157	-0,007
136,268	-43,327	-0,261	-0,092
137,283	5,561	-0,377	-0,194
138,297	272,398	-0,168	-0,207
139,312	196,261	-0,227	-0,242
140,327	201,746	-0,178	-0,192
141,341	138,059	-0,197	-0,180
142,356	283,702	-0,178	-0,224
143,370	47,903	-0,188	-0,123
144,385	206,189	-0,193	-0,210
145,400	-65,884	-0,345	-0,096
146,414	240,173	-0,203	-0,237
147,429	150,066	-0,267	-0,253
148,443	99,621	-0,211	-0,170
149,458	61,627	-0,307	-0,213
150,473	84,775	-0,286	-0,218
151,487	179,681	-0,169	-0,173
152,502	-106,066	-0,189	-0,029
153,516	127,285	-0,157	-0,139
154,531	238,640	-0,204	-0,237
155,546	147,359	-0,211	-0,198
156,560	-40,280	-0,124	-0,045
157,575	-70,335	-0,289	-0,076
158,589	-18,505	-0,371	-0,161
159,604	88,122	-0,361	-0,279
160,619	174,686	-0,192	-0,194
161,633	171,127	-0,196	-0,196
162,648	94,292	-0,265	-0,209
163,662	-86,508	-0,196	0,041
164,677	-34,017	-0,310	-0,118
165,692	-49,928	-0,317	-0,104
166,706	38,630	-0,298	-0,185
167,721	320,733	-0,205	-0,272
168,735	135,015	-0,220	-0,199
169,750	90,340	-0,281	-0,219
170,764	800,000	-0,059	-0,160
171,779	283,904	-0,145	-0,181
172,794	32,349	-0,218	-0,130
173,808	503,751	-0,139	-0,224
174,823	18,961	-0,239	-0,133
175,837	56,562	-0,202	-0,137
176,852	82,813	-0,197	-0,149
177,867	800,000	-0,033	-0,086
178,881	111,969	-0,159	-0,134
179,896	347,358	-0,136	-0,186
180,910	336,602	-0,237	-0,321
181,925	37,913	-0,178	-0,110
182,940	288,518	-0,190	-0,240
183,954	113,728	-0,238	-0,201
184,969	-39,628	-0,112	-0,041
185,983	110,882	-0,193	-0,162
186,998	118,038	-0,202	-0,173
188,013	276,825	-0,176	-0,218
189,027	36,629	-0,320	-0,196
190,042	278,135	-0,164	-0,204
191,056	192,175	-0,195	-0,205
192,071	212,336	-0,222	-0,244
193,086	515,188	-0,099	-0,161
194,100	169,216	-0,122	-0,121
195,115	27,292	-0,193	-0,113
196,129	120,966	-0,292	-0,252
197,144	-35,055	-0,273	-0,103
198,159	-27,607	-0,247	-0,099
199,173	129,563	-0,194	-0,172
200,188	-7,334	-0,147	-0,069
201,202	71,804	-0,162	-0,117
202,217	67,062	-0,255	-0,180
203,232	5,481	-0,198	-0,101
204,246	120,021	-0,191	-0,164
205,261	800,000	-0,151	-0,305
206,275	-5,405	-0,193	-0,092
207,290	-13,484	-0,200	-0,090
208,304	63,435	-0,161	-0,112
209,319	290,137	-0,184	-0,232
210,334	60,106	-0,200	-0,137
211,348	271,155	-0,140	-0,171
212,363	-2,034	-0,312	-0,152
213,377	-4,318	-0,211	-0,101
214,392	22,521	-0,224	-0,127
215,407	-168,591	-0,138	-0,004
216,421	-129,564	-0,265	0,025
217,436	84,179	-0,132	-0,100
218,450	251,674	-0,188	-0,223
219,465	2,295	-0,254	-0,127
220,480	39,483	-0,224	-0,139
221,494	-79,611	-0,243	-0,056
222,509	46,035	-0,131	-0,084
223,523	-200,000	-0,026	-0,172
224,538	71,791	-0,118	-0,085
225,553	19,129	-0,177	-0,098
226,567	-29,619	-0,207	-0,082
227,582	430,288	-0,055	-0,083
228,596	401,799	-0,159	-0,232
229,611	-70,645	-0,170	-0,044
230,626	87,714	-0,169	-0,129
231,640	467,156	-0,132	-0,206
232,655	-65,281	-0,131	-0,036
233,669	143,738	-0,157	-0,145
234,684	-76,542	-0,175	-0,042
235,699	113,733	-0,185	-0,156
236,713	116,599	-0,112	-0,095
237,728	-87,012	-0,126	-0,026
238,742	134,497	-0,204	-0,184
239,757	345,644	-0,123	-0,168
240,772	800,000	-0,106	-0,209
241,786	576,710	-0,052	-0,089
242,801	235,986	-0,186	-0,213
243,815	715,361	-0,090	-0,166
244,830	-200,000	-0,011	-0,086
245,844	80,014	-0,061	-0,045
246,859	82,042	-0,164	-0,123
247,874	350,031	-0,165	-0,226
248,888	-13,063	-0,215	-0,096
249,903	44,688	-0,271	-0,172
250,917	800,000	-0,080	-0,213
251,932	34,364	-0,148	-0,089
252,947	-200,000	-0,052	-0,227
253,961	24,493	-0,244	-0,139
254,976	800,000	-0,081	-0,175
255,990	41,324	-0,176	-0,110
257,005	-193,476	-0,152	0,001
258,020	-144,539	-0,232	-0,015
259,034	334,361	-0,135	-0,181
260,049	-200,000	-0,056	-0,237
261,063	38,714	-0,270	-0,166
262,078	58,133	-0,228	-0,154
263,093	800,000	-0,101	-0,233
264,107	35,620	-0,273	-0,165
265,122	-91,545	-0,149	-0,029
266,136	1,816	-0,324	-0,161
267,151	449,444	-0,115	-0,176
268,166	-29,588	-0,168	-0,066
269,180	382,553	-0,105	-0,150
270,195	-200,000	-0,058	-0,194
271,209	124,662	-0,253	-0,220
272,224	378,416	-0,069	-0,097
273,239	-200,000	-0,042	-0,194
274,253	42,646	-0,131	-0,082
275,268	25,282	-0,176	-0,100
276,282	129,130	-0,134	-0,118
277,297	187,156	-0,116	-0,120
278,312	408,923	-0,124	-0,182
279,326	-200,000	-0,033	-0,143
280,341	-79,325	-0,255	-0,059
281,355	-113,743	-0,227	-0,030
282,370	-12,843	-0,240	-0,107
283,384	244,836	-0,142	-0,165
284,399	-6,833	-0,209	-0,098
285,414	-200,000	-0,025	-0,167
286,428	24,992	-0,179	-0,102
287,443	230,650	-0,070	-0,079
288,457	-17,342	-0,194	-0,084
289,472	800,000	-0,079	-0,154
290,487	-200,000	-0,079	-0,275
291,501	655,934	-0,077	-0,136
292,516	110,194	-0,154	-0,127
293,530	114,978	-0,209	-0,175
294,545	166,286	-0,092	-0,090
295,560	123,679	-0,183	-0,158
296,574	60,927	-0,133	-0,091
297,589	-53,570	-0,177	-0,055
298,603	325,516	-0,133	-0,175
299,618	134,690	-0,091	-0,082
300,633	-50,711	-0,300	-0,097
301,647	158,772	-0,180	-0,172
302,662	800,000	-0,023	0,066
303,676	569,882	-0,073	-0,122
304,691	220,320	-0,203	-0,224
305,706	-59,864	-0,133	-0,039
306,720	34,138	-0,166	-0,099
307,735	-100,913	-0,171	-0,029
308,749	34,143	-0,129	-0,077
309,764	102,214	-0,150	-0,121
310,779	-154,873	-0,167	-0,007
311,793	-177,861	-0,207	-0,003
312,808	800,000	-0,157	-0,349
313,822	-163,255	-0,260	-0,008
314,837	435,982	-0,063	-0,094
315,852	800,000	0,042	-0,121
316,866	176,366	-0,136	-0,136
317,881	-200,000	0,019	-0,125
318,895	800,000	-0,081	-0,165
319,910	47,464	-0,145	-0,093
320,925	220,011	-0,146	-0,161
321,939	29,096	-0,233	-0,136
322,954	194,012	-0,205	-0,214
323,968	53,047	-0,198	-0,130
324,983	800,000	-0,072	-0,179
325,997	800,000	-0,051	-0,113
327,012	769,007	-0,071	-0,133
328,027	-106,291	-0,174	-0,027
329,041	69,875	-0,157	-0,111
330,056	302,493	-0,125	-0,159
331,070	344,497	-0,181	-0,245
332,085	495,471	-0,076	-0,120
333,100	-35,240	-0,093	-0,035
334,114	113,059	-0,072	-0,060
335,129	116,728	-0,212	-0,179
336,143	-22,228	-0,138	-0,057
337,158	457,470	-0,095	-0,145
338,173	47,980	-0,227	-0,145
339,187	5,109	-0,091	0,046
340,202	27,100	-0,107	0,062
341,216	-28,990	-0,213	-0,083
342,231	-131,351	-0,172	-0,015
343,246	800,000	-0,074	-0,189
344,260	671,916	-0,097	-0,174
345,275	-200,000	0,002	-0,131
346,289	-142,573	-0,196	-0,013
347,304	-7,912	-0,117	-0,054
348,319	346,598	-0,128	-0,173
349,333	680,786	-0,131	-0,235
350,348	630,415	-0,038	-0,066
351,362	-200,000	-0,024	-0,077
352,377	800,000	-0,041	-0,089
353,392	-72,234	-0,103	0,026
354,406	800,000	-0,043	-0,120
355,421	208,002	1314,103	1408,228
356,435	160,030	1474,728	1408,697
