DTS Sentinel unit serial number:	SN410029Multiplexer serial number:	ORYXHardware model number:	OX2-SRSoftware version number:	ORYX F/W v4,00 Oryx Data Collector v3.7.2.0data status	okinstallation	B3 Nyhavnadifferential loss correction	single-endedforward channel	channel 1reverse channel	N/Adate	2023/12/02time	00:12:30forward acquisition time	300,00reverse acquisition time	0,00gamma	499,1914k internal	0,3196k external	0,3196temperature offset calibration	1,0000default loss term (dB/km)	0,3820temperature slope calibration	1,0000multiplexer offset coefficient	1,0000multiplexer slope coefficient	1,0000fibre end	0,00T internal ref (°C)	16,12T ext. ref 1 (°C)	1,63T ext. ref 2 (°C)	1,60length (m)	temperature (°C)	Stokes	anti-Stokes-744,400	145,526	-0,296	-0,289
-743,385	-200,000	0,074	0,360
-742,371	250,922	-0,124	-0,153
-741,356	800,000	0,137	0,357
-740,342	800,000	-0,168	-0,342
-739,327	800,000	0,090	0,262
-738,312	49,077	-0,271	-0,185
-737,298	353,217	0,066	0,095
-736,283	98,846	-0,179	-0,151
-735,269	-200,000	0,033	0,515
-734,254	42,989	-0,214	-0,142
-733,239	29,422	-0,108	0,067
-732,225	315,222	-0,217	-0,299
-731,210	-40,506	0,144	0,054
-730,196	130,765	-0,035	0,033
-729,181	23,009	-0,052	0,031
-728,167	192,319	0,037	-0,041
-727,152	-200,000	-0,008	-0,114
-726,137	517,055	-0,035	0,060
-725,123	-91,309	-0,145	-0,030
-724,108	-65,722	-0,103	0,030
-723,094	-200,000	-0,017	-0,080
-722,079	130,678	-0,069	0,064
-721,064	-200,000	0,001	-0,069
-720,050	-200,000	-0,001	-0,088
-719,035	46,699	0,059	0,040
-718,021	-200,000	-0,012	0,068
-717,006	-75,445	-0,033	0,008
-715,991	-120,101	-0,139	-0,017
-714,977	-122,661	0,024	-0,003
-713,962	58,085	0,010	-0,007
-712,948	-200,000	-0,032	-0,123
-711,933	362,439	0,038	0,055
-710,918	-200,000	0,014	0,212
-709,904	-200,000	0,003	-0,135
-708,889	-200,000	-0,005	-0,069
-707,875	206,492	-0,058	-0,066
-706,860	-153,520	0,128	0,006
-705,845	-20,377	0,049	-0,022
-704,831	9,289	-0,059	-0,032
-703,816	-158,749	-0,190	0,008
-702,802	-200,000	-0,003	-0,027
-701,787	717,758	0,020	0,039
-700,772	203,185	-0,037	-0,042
-699,758	-200,000	0,014	0,060
-698,743	113,048	0,118	0,104
-697,729	252,576	0,078	0,097
-696,714	-176,658	0,116	0,002
-695,699	-200,000	-0,002	0,014
-694,685	-65,703	-0,119	0,035
-693,670	-187,776	0,058	-0,001
-692,656	480,217	-0,057	-0,094
-691,641	-60,282	-0,096	0,029
-690,627	-200,000	0,019	-0,079
-689,612	-50,472	0,016	0,005
-688,597	491,450	-0,075	-0,125
-687,583	-200,000	-0,057	-0,240
-686,568	-200,000	0,024	-0,092
-685,554	593,897	-0,036	-0,065
-684,539	-130,372	-0,091	0,009
-683,524	95,296	0,106	0,087
-682,510	800,000	0,038	0,091
-681,495	73,349	0,043	0,033
-680,481	454,814	-0,057	-0,092
-679,466	230,434	-0,067	-0,080
-678,451	53,382	-0,122	-0,085
-677,437	346,822	0,095	-0,137
-676,422	800,000	0,037	0,099
-675,408	800,000	0,015	0,044
-674,393	-65,257	0,083	0,024
-673,378	-3,459	-0,135	0,068
-672,364	793,597	-0,037	-0,074
-671,349	-200,000	0,002	0,028
-670,335	81,767	0,031	-0,024
-669,320	-1,933	-0,052	-0,026
-668,305	-133,996	-0,083	0,007
-667,291	-17,314	-0,068	0,031
-666,276	-200,000	0,006	0,055
-665,262	95,574	-0,071	-0,059
-664,247	-62,107	-0,082	0,025
-663,232	800,000	-0,034	0,096
-662,218	-12,492	0,165	0,078
-661,203	69,106	-0,179	0,134
-660,189	800,000	0,029	-0,088
-659,174	-98,913	0,108	-0,020
-658,159	-200,000	-0,029	-0,321
-657,145	31,043	-0,059	-0,037
-656,130	800,000	-0,057	-0,154
-655,116	800,000	-0,025	-0,069
-654,101	-200,000	0,018	-0,077
-653,086	362,494	-0,035	-0,052
-652,072	324,989	-0,100	-0,138
-651,057	-200,000	-0,021	-0,132
-650,043	698,220	0,013	0,025
-649,028	-200,000	0,021	-0,090
-648,014	-200,000	0,001	0,061
-646,999	93,834	0,125	0,103
-645,984	156,604	-0,086	-0,086
-644,970	-8,575	0,140	-0,068
-643,955	300,566	-0,018	-0,024
-642,941	-36,652	-0,092	0,036
-641,926	-200,000	-0,029	-0,108
-640,911	100,139	0,137	-0,115
-639,897	-200,000	-0,002	0,045
-638,882	-200,000	-0,003	0,025
-637,868	-200,000	0,005	0,096
-636,853	-95,105	-0,121	0,024
-635,838	188,520	0,010	0,011
-634,824	482,972	-0,064	-0,107
-633,809	-71,663	-0,076	0,020
-632,795	-21,692	-0,112	0,049
-631,780	800,000	0,048	-0,121
-630,765	800,000	-0,023	0,065
-629,751	-200,000	-0,009	-0,038
-628,736	-181,064	-0,298	-0,004
-627,722	-73,740	0,076	0,020
-626,707	29,490	0,094	0,058
-625,692	402,196	-0,053	0,081
-624,678	800,000	0,003	-0,008
-623,663	-67,589	0,154	0,044
-622,649	800,000	-0,014	-0,038
-621,634	-200,000	-0,015	-0,144
-620,619	800,000	0,013	-0,034
-619,605	800,000	0,014	0,043
-618,590	37,159	-0,089	-0,057
-617,576	-8,073	0,166	0,081
-616,561	-200,000	0,010	0,074
-615,546	-102,216	-0,132	0,023
-614,532	-200,000	0,027	-0,100
-613,517	-126,877	-0,048	0,005
-612,503	-71,823	-0,038	-0,010
-611,488	-200,000	-0,023	0,203
-610,474	-155,129	-0,123	-0,006
-609,459	487,595	0,064	-0,106
-608,444	62,098	-0,126	0,091
-607,430	228,129	0,050	0,060
-606,415	800,000	-0,012	0,029
-605,401	-200,000	0,000	-0,080
-604,386	28,200	0,047	0,029
-603,371	-200,000	0,010	-0,057
-602,357	-200,000	0,014	-0,067
-601,342	11,571	-0,110	0,061
-600,328	-200,000	-0,011	-0,118
-599,313	-85,442	0,164	-0,037
-598,298	-43,738	-0,165	-0,060
-597,284	105,026	-0,092	-0,078
-596,269	557,982	-0,020	0,035
-595,255	-159,214	-0,139	0,006
-594,240	204,617	0,102	-0,114
-593,225	80,073	-0,058	-0,045
-592,211	800,000	-0,071	-0,156
-591,196	-114,684	-0,037	-0,005
-590,182	-113,813	0,082	0,011
-589,167	74,569	0,164	0,125
-588,152	-200,000	0,010	0,129
-587,138	106,039	-0,086	-0,074
-586,123	109,099	-0,025	-0,022
-585,109	190,117	0,077	-0,084
-584,094	-28,804	-0,116	-0,048
-583,079	-17,865	0,126	0,057
-582,065	87,739	-0,032	0,026
-581,050	-81,727	-0,144	-0,034
-580,036	301,131	-0,051	0,068
-579,021	-200,000	-0,002	-0,038
-578,006	132,717	-0,053	-0,050
-576,992	800,000	0,034	-0,069
-575,977	-12,942	0,087	0,041
-574,963	-200,000	-0,007	0,047
-573,948	-31,878	-0,056	-0,023
-572,934	400,865	-0,030	-0,046
-571,919	800,000	0,029	-0,071
-570,904	81,717	0,060	-0,047
-569,890	800,000	0,019	0,049
-568,875	-200,000	-0,017	0,208
-567,861	800,000	0,028	-0,079
-566,846	-200,000	-0,002	0,016
-565,831	67,062	0,065	0,048
-564,817	592,157	-0,052	-0,093
-563,802	-200,000	-0,004	0,032
-562,788	-95,852	-0,042	-0,008
-561,773	800,000	0,070	-0,152
-560,758	171,325	0,058	-0,060
-559,744	75,148	-0,094	-0,072
-558,729	173,350	-0,055	0,057
-557,715	-2,160	-0,059	-0,030
-556,700	-69,963	-0,075	0,021
-555,685	-91,280	-0,056	0,012
-554,671	6,452	0,133	-0,071
-553,656	-200,000	-0,007	0,048
-552,642	-67,722	0,052	0,015
-551,627	189,649	0,060	-0,065
-550,612	-200,000	-0,005	-0,032
-549,598	-200,000	-0,002	-0,061
-548,583	-200,000	-0,003	-0,023
-547,569	-157,056	0,057	-0,002
-546,554	101,618	0,015	0,013
-545,539	291,520	-0,052	0,069
-544,525	-165,706	0,069	-0,002
-543,510	-69,449	0,054	-0,015
-542,496	242,668	-0,040	-0,048
-541,481	-183,964	-0,091	0,001
-540,466	-30,039	-0,122	-0,050
-539,452	44,404	-0,076	0,051
-538,437	139,505	-0,073	-0,070
-537,423	115,343	-0,118	0,104
-536,408	-175,088	-0,047	0,001
-535,393	48,959	-0,055	0,037
-534,379	150,514	-0,023	-0,022
-533,364	79,889	-0,030	0,023
-532,350	241,468	-0,038	0,046
-531,335	25,932	-0,058	0,035
-530,321	-82,403	0,137	0,032
-529,306	-200,000	0,001	-0,110
-528,291	-200,000	0,000	0,058
-527,277	143,935	0,061	0,059
-526,262	-118,870	0,109	0,014
-525,248	-200,000	-0,024	0,099
-524,233	-77,010	0,055	0,014
-523,218	800,000	0,041	0,106
-522,204	27,919	-0,098	-0,059
-521,189	800,000	-0,069	-0,158
-520,175	81,075	0,066	-0,051
-519,160	800,000	-0,045	-0,103
-518,145	581,797	-0,058	-0,103
-517,131	-36,920	0,258	-0,099
-516,116	-200,000	0,006	0,138
-515,102	-200,000	-0,002	-0,048
-514,087	-120,167	-0,099	0,012
-513,072	800,000	0,069	-0,172
-512,058	-92,889	-0,133	-0,027
-511,043	164,371	-0,074	-0,076
-510,029	-28,911	0,063	0,026
-509,014	98,186	0,062	-0,051
-507,999	-34,882	-0,082	0,032
-506,985	258,509	-0,042	-0,052
-505,970	747,594	-0,077	-0,151
-504,956	213,909	-0,046	0,052
-503,941	-121,892	-0,096	-0,011
-502,926	274,455	0,037	-0,047
-501,912	29,366	-0,079	0,048
-500,897	53,373	0,053	-0,036
-499,883	-200,000	-0,024	-0,094
-498,868	558,612	0,022	-0,039
-497,853	-14,273	-0,181	-0,084
-496,839	-55,626	0,063	-0,020
-495,824	-200,000	0,020	-0,121
-494,810	140,037	-0,077	0,073
-493,795	-200,000	-0,016	0,168
-492,781	-179,482	-0,028	-0,000
-491,766	800,000	0,061	-0,182
-490,751	-157,443	-0,063	0,003
-489,737	694,001	-0,114	-0,217
-488,722	193,273	0,046	-0,051
-487,708	80,601	0,098	-0,076
-486,693	312,592	-0,086	0,116
-485,678	73,394	0,033	-0,025
-484,664	421,237	-0,094	-0,146
-483,649	800,000	0,026	-0,056
-482,635	383,268	-0,060	-0,089
-481,620	-132,084	0,138	0,013
-480,605	-73,832	0,017	0,004
-479,591	-138,479	-0,010	0,001
-478,576	54,162	-0,053	0,037
-477,562	577,636	0,030	-0,052
-476,547	109,598	-0,069	-0,060
-475,532	-140,323	-0,042	0,003
-474,518	793,448	-0,045	0,089
-473,503	800,000	-0,012	-0,028
-472,489	711,976	-0,029	0,055
-471,474	106,385	-0,120	0,102
-470,459	-62,046	-0,129	0,038
-469,445	384,007	0,033	0,050
-468,430	-68,411	-0,017	-0,005
-467,416	246,976	0,010	0,012
-466,401	15,838	-0,082	-0,046
-465,386	-200,000	-0,026	0,109
-464,372	130,646	0,090	0,083
-463,357	-143,768	0,096	0,006
-462,343	4,224	-0,093	-0,049
-461,328	800,000	0,022	0,062
-460,313	-60,086	-0,072	0,022
-459,299	800,000	0,057	0,178
-458,284	800,000	0,038	0,102
-457,270	590,945	-0,005	-0,008
-456,255	65,735	-0,085	-0,062
-455,241	33,448	0,013	-0,008
-454,226	81,764	0,057	0,044
-453,211	-118,141	-0,155	0,020
-452,197	48,682	0,081	0,055
-451,182	-117,647	-0,101	-0,013
-450,168	57,987	0,124	0,087
-449,153	290,908	-0,060	0,079
-448,138	800,000	0,023	-0,068
-447,124	67,096	0,124	-0,091
-446,109	-200,000	-0,004	-0,030
-445,095	-92,460	-0,036	-0,007
-444,080	247,927	0,097	0,118
-443,065	312,076	0,112	0,152
-442,051	634,625	0,061	0,111
-441,036	-143,046	-0,100	-0,007
-440,022	194,642	-0,113	-0,124
-439,007	93,176	-0,047	0,039
-437,992	120,906	0,116	-0,104
-436,978	29,869	0,101	0,062
-435,963	376,599	-0,063	0,092
-434,949	17,170	-0,089	0,051
-433,934	444,201	-0,011	0,017
-432,919	417,863	0,029	-0,044
-431,905	-47,403	0,060	0,021
-430,890	-43,617	-0,020	0,007
-429,876	-149,426	0,185	-0,010
-428,861	-200,000	-0,026	0,099
-427,846	365,263	-0,028	0,041
-426,832	-200,000	-0,001	0,021
-425,817	-101,372	-0,081	-0,014
-424,803	-4,739	-0,072	0,035
-423,788	-200,000	-0,005	-0,046
-422,773	-14,015	-0,076	0,035
-421,759	-200,000	0,008	0,060
-420,744	-84,368	-0,142	-0,032
-419,730	-58,250	-0,119	0,037
-418,715	797,821	0,042	-0,083
-417,701	-200,000	0,003	-0,094
-416,686	733,276	0,055	-0,107
-415,671	354,259	0,009	0,012
-414,657	394,695	-0,017	-0,025
-413,642	-200,000	0,004	0,076
-412,628	-200,000	-0,004	0,048
-411,613	800,000	0,025	0,076
-410,598	-200,000	0,028	-0,091
-409,584	34,008	-0,019	-0,012
-408,569	800,000	-0,049	0,107
-407,555	139,191	-0,079	0,075
-406,540	-200,000	-0,002	0,052
-405,525	-199,826	0,061	0,000
-404,511	244,905	-0,068	0,082
-403,496	231,868	-0,062	0,074
-402,482	-57,593	-0,173	0,054
-401,467	800,000	0,018	0,053
-400,452	-113,527	0,051	-0,007
-399,438	362,866	0,024	-0,035
-398,423	-33,415	0,028	0,011
-397,409	22,973	-0,085	-0,050
-396,394	640,665	0,046	-0,084
-395,379	-58,192	0,185	-0,058
-394,365	-74,652	-0,081	0,021
-393,350	-51,273	-0,054	-0,018
-392,336	8,791	0,138	0,075
-391,321	522,401	-0,052	-0,088
-390,306	-77,848	-0,116	-0,029
-389,292	405,265	0,015	0,022
-388,277	194,068	0,107	-0,117
-387,263	93,976	0,104	0,085
-386,248	-10,656	-0,021	-0,010
-385,233	79,532	0,058	-0,045
-384,219	317,653	0,053	-0,072
-383,204	9,813	-0,213	0,116
-382,190	81,588	-0,011	0,008
-381,175	-122,146	-0,085	-0,010
-380,160	-200,000	-0,012	-0,124
-379,146	215,327	0,053	-0,061
-378,131	-200,000	0,009	-0,037
-377,117	-69,138	-0,112	0,031
-376,102	-200,000	-0,030	0,101
-375,088	-33,331	0,105	0,041
-374,073	-200,000	0,013	-0,099
-373,058	-117,225	0,106	-0,014
-372,044	483,008	0,056	0,092
-371,029	800,000	0,061	0,129
-370,015	-44,464	-0,151	0,054
-369,000	-120,448	-0,154	0,019
-367,985	758,037	0,016	-0,031
-366,971	-200,000	-0,033	-0,176
-365,956	800,000	0,015	-0,033
-364,942	777,554	-0,040	-0,078
-363,927	-200,000	0,002	-0,038
-362,912	800,000	-0,028	0,057
-361,898	154,406	-0,089	0,088
-360,883	314,746	0,058	0,079
-359,869	229,625	0,003	0,004
-358,854	-16,154	0,163	-0,074
-357,839	-90,757	-0,110	0,023
-356,825	-200,000	-0,018	-0,105
-355,810	494,198	0,018	0,030
-354,796	124,650	0,106	-0,096
-353,781	-14,399	-0,119	0,055
-352,766	-74,516	-0,072	0,018
-351,752	2,921	0,127	-0,066
-350,737	-177,071	0,154	0,003
-349,723	-200,000	-0,003	-0,024
-348,708	-58,189	-0,100	0,031
-347,693	17,228	-0,126	-0,072
-346,679	131,573	-0,020	0,019
-345,664	104,003	-0,083	0,070
-344,650	-164,339	0,107	0,003
-343,635	56,344	-0,063	0,044
-342,620	-200,000	-0,017	0,160
-341,606	161,382	-0,067	0,067
-340,591	-200,000	0,003	0,041
-339,577	-200,000	-0,011	-0,117
-338,562	51,956	-0,048	0,033
-337,548	36,223	-0,074	0,046
-336,533	-80,371	0,143	0,034
-335,518	476,788	0,065	0,105
-334,504	800,000	0,017	-0,053
-333,489	250,361	0,024	0,029
-332,475	800,000	0,051	-0,118
-331,460	-35,548	0,050	0,019
-330,445	-200,000	-0,025	0,080
-329,431	-116,592	0,130	0,017
-328,416	-43,565	0,132	0,047
-327,402	-76,225	0,080	0,020
-326,387	-200,000	0,002	0,121
-325,372	-200,000	-0,008	-0,091
-324,358	-200,000	-0,028	0,099
-323,343	-200,000	-0,002	-0,095
-322,329	-106,594	0,079	-0,013
-321,314	378,630	0,078	0,114
-320,299	-200,000	-0,002	0,083
-319,285	32,459	-0,017	0,010
-318,270	122,457	0,108	-0,097
-317,256	-200,000	0,012	-0,122
-316,241	-200,000	0,012	-0,052
-315,226	-133,604	0,057	-0,005
-314,212	26,481	0,026	0,015
-313,197	353,887	-0,023	0,033
-312,183	-11,024	0,042	-0,020
-311,168	-200,000	0,024	-0,090
-310,153	-200,000	-0,015	-0,190
-309,139	-64,382	-0,038	0,011
-308,124	-200,000	0,023	0,081
-307,110	-141,993	0,125	0,009
-306,095	78,873	0,099	0,076
-305,080	364,739	0,078	0,113
-304,066	703,210	0,046	0,087
-303,051	-10,807	0,111	0,052
-302,037	166,764	0,056	-0,057
-301,022	14,724	0,162	0,090
-300,008	-200,000	0,003	0,068
-298,993	-100,885	0,079	0,014
-297,978	-147,111	0,045	-0,003
-296,964	149,038	-0,027	-0,026
-295,949	-200,000	-0,010	0,068
-294,935	13,978	-0,080	0,044
-293,920	-200,000	0,007	0,058
-292,905	611,060	-0,032	0,058
-291,891	-200,000	-0,009	0,053
-290,876	-96,341	0,117	-0,022
-289,862	119,039	-0,031	0,028
-288,847	-200,000	-0,008	-0,107
-287,832	-200,000	0,004	-0,100
-286,818	41,654	0,062	0,040
-285,803	800,000	0,038	0,088
-284,789	-200,000	-0,018	0,103
-283,774	200,787	0,083	-0,092
-282,759	385,298	0,019	-0,029
-281,745	-4,327	-0,059	-0,029
-280,730	39,486	-0,092	0,059
-279,716	-162,458	0,143	-0,005
-278,701	-200,000	-0,013	-0,095
-277,686	87,299	0,085	0,068
-276,672	800,000	0,003	-0,010
-275,657	206,238	0,063	0,070
-274,643	81,928	-0,107	-0,082
-273,628	62,426	0,062	0,044
-272,613	-21,338	0,086	-0,037
-271,599	-31,403	0,158	-0,063
-270,584	119,332	-0,080	0,071
-269,570	800,000	0,003	0,006
-268,555	-167,399	-0,048	0,001
-267,540	489,556	-0,099	-0,163
-266,526	615,514	0,006	-0,012
-265,511	-73,089	-0,064	0,017
-264,497	668,834	-0,038	0,071
-263,482	-200,000	0,006	-0,045
-262,467	-184,190	0,098	-0,001
-261,453	49,648	0,090	0,060
-260,438	279,051	-0,121	0,154
-259,424	29,655	-0,071	-0,043
-258,409	189,226	-0,044	-0,047
-257,395	294,623	-0,050	0,066
-256,380	654,086	0,076	0,139
-255,365	-75,058	0,088	-0,022
-254,351	-116,759	0,060	0,008
-253,336	289,050	-0,026	0,033
-252,322	-200,000	0,007	-0,230
-251,307	-79,142	-0,109	-0,026
-250,292	-34,840	0,016	0,006
-249,278	800,000	0,006	0,018
-248,263	-123,228	0,138	0,016
-247,249	274,700	0,066	0,083
-246,234	385,575	0,060	0,088
-245,219	112,474	-0,083	-0,072
-244,205	-200,000	-0,024	-0,145
-243,190	-22,128	0,166	-0,072
-242,176	-200,000	0,011	-0,062
-241,161	-200,000	-0,008	0,090
-240,146	635,951	0,070	0,128
-239,132	206,610	0,067	-0,074
-238,117	-22,736	0,042	0,018
-237,103	-200,000	-0,010	-0,108
-236,088	-200,000	-0,029	0,134
-235,073	-47,791	0,116	-0,040
-234,059	195,202	0,063	-0,068
-233,044	-200,000	0,013	0,180
-232,030	121,459	-0,061	-0,054
-231,015	404,928	-0,032	-0,048
-230,000	-58,143	0,121	-0,038
-228,986	306,529	-0,061	0,081
-227,971	413,408	-0,012	0,018
-226,957	157,207	0,059	0,059
-225,942	-200,000	-0,004	-0,031
-224,927	71,913	-0,040	-0,030
-223,913	-200,000	-0,015	-0,130
-222,898	519,053	-0,028	-0,047
-221,884	800,000	-0,039	-0,093
-220,869	800,000	0,014	-0,041
-219,855	800,000	0,021	0,054
-218,840	-158,610	0,078	-0,003
-217,825	-36,875	0,076	0,029
-216,811	319,619	-0,056	0,076
-215,796	-150,118	-0,144	-0,008
-214,782	-200,000	0,020	-0,088
-213,767	198,053	0,066	0,072
-212,752	-200,000	0,032	0,147
-211,738	-200,000	-0,006	0,137
-210,723	-154,759	0,107	-0,005
-209,709	-200,000	-0,013	0,151
-208,694	-200,000	0,005	-0,067
-207,679	-38,090	-0,099	-0,037
-206,665	-200,000	-0,022	-0,089
-205,650	353,704	0,106	-0,150
-204,636	19,772	0,018	0,010
-203,621	-83,739	-0,202	-0,046
-202,606	800,000	0,029	-0,088
-201,592	184,542	0,072	0,077
-200,577	12,649	-0,048	0,026
-199,563	-200,000	-0,045	-0,149
-198,548	-200,000	-0,005	0,099
-197,533	-200,000	0,075	0,250
-196,519	-17,021	0,043	-0,019
-195,504	96,821	0,096	-0,078
-194,490	15,268	-0,062	0,035
-193,475	-200,000	-0,039	0,133
-192,460	-200,000	-0,011	-0,114
-191,446	73,146	0,104	0,077
-190,431	173,070	-0,136	-0,140
-189,417	-200,000	0,013	-0,050
-188,402	-156,085	-0,061	0,003
-187,387	204,953	-0,084	0,094
-186,373	800,000	-0,088	0,184
-185,358	-200,000	-0,011	-0,059
-184,344	219,023	0,049	0,055
-183,329	-176,040	0,126	-0,002
-182,315	-200,000	-0,020	0,122
-181,300	-200,000	0,036	-0,127
-180,285	13,241	0,028	0,016
-179,271	46,899	-0,107	-0,071
-178,256	131,148	0,025	0,023
-177,242	-137,435	0,079	-0,006
-176,227	22,959	0,079	-0,046
-175,212	199,970	0,086	0,094
-174,198	-47,620	-0,091	-0,031
-173,183	800,000	-0,015	-0,041
-172,169	233,805	0,078	-0,092
-171,154	-200,000	0,036	0,150
-170,139	-132,489	-0,168	-0,015
-169,125	800,000	0,057	0,158
-168,110	-200,000	-0,043	0,189
-167,096	-122,106	0,055	-0,006
-166,081	-200,000	-0,013	-0,091
-165,066	-134,737	0,123	0,011
-164,052	185,343	-0,045	0,048
-163,037	800,000	-0,064	-0,174
-162,023	337,511	0,060	0,083
-161,008	-63,572	0,128	-0,037
-159,993	-200,000	0,014	0,069
-158,979	298,362	0,054	-0,071
-157,964	21,650	-0,099	-0,057
-156,950	-180,552	-0,102	0,001
-155,935	800,000	-0,032	-0,093
-154,920	800,000	0,011	0,034
-153,906	180,352	0,106	0,111
-152,891	-200,000	0,031	-0,144
-151,877	424,341	0,033	0,051
-150,862	-37,788	-0,081	-0,031
-149,847	-39,338	-0,181	0,067
-148,833	217,769	0,087	-0,099
-147,818	-122,062	0,090	0,010
-146,804	49,789	0,050	0,034
-145,789	-200,000	-0,026	-0,098
-144,775	402,208	-0,030	-0,045
-143,760	140,884	-0,068	-0,064
-142,745	-28,985	-0,072	0,029
-141,731	25,264	-0,138	-0,082
-140,716	-76,868	0,075	0,019
-139,702	16,619	0,153	0,086
-138,687	-200,000	0,013	0,043
-137,672	-125,858	-0,061	-0,006
-136,658	395,413	-0,070	-0,104
-135,643	800,000	-0,026	-0,076
-134,629	203,159	0,081	-0,089
-133,614	159,228	-0,068	-0,067
-132,599	-154,651	0,131	0,006
-131,585	240,464	-0,095	0,113
-130,570	-76,798	0,071	-0,018
-129,556	-139,966	-0,175	-0,013
-128,541	800,000	-0,025	0,077
-127,526	-32,222	-0,107	-0,042
-126,512	176,634	0,059	0,061
-125,497	398,319	0,041	-0,061
-124,483	92,164	-0,056	-0,045
-123,468	800,000	-0,029	0,078
-122,453	359,977	0,115	-0,164
-121,439	89,841	-0,124	0,098
-120,424	81,634	0,074	0,057
-119,410	99,034	0,108	-0,089
-118,395	800,000	0,065	0,164
-117,380	57,816	-0,045	0,032
-116,366	48,691	0,027	-0,018
-115,351	-145,390	-0,075	0,005
-114,337	-200,000	0,025	-0,103
-113,322	260,090	0,011	-0,013
-112,307	-84,108	0,038	-0,008
-111,293	800,000	-0,011	0,029
-110,278	67,765	0,096	-0,070
-109,264	-6,684	-0,076	0,037
-108,249	-47,577	-0,112	0,038
-107,234	197,972	-0,050	0,055
-106,220	264,063	0,047	-0,058
-105,205	800,000	0,069	0,168
-104,191	-200,000	0,043	0,141
-103,176	-59,558	0,067	-0,020
-102,162	4,993	0,013	-0,007
-101,147	330,300	0,026	0,036
-100,132	-58,110	-0,119	-0,037
-99,118	133,993	-0,024	-0,022
-98,103	-94,096	0,016	-0,003
-97,089	27,933	0,148	0,089
-96,074	800,000	-0,090	0,184
-95,059	1,458	0,038	0,019
-94,045	353,811	-0,038	0,053
-93,030	-53,900	-0,147	0,047
-92,016	-200,000	-0,023	-0,139
-91,001	-90,574	0,044	0,009
-89,986	-179,473	0,082	-0,001
-88,972	-135,076	0,109	0,009
-87,957	61,706	0,158	0,112
-86,943	-200,000	0,045	0,164
-85,928	-78,926	-0,134	-0,032
-84,913	-200,000	0,013	-0,220
-83,899	393,942	-0,120	-0,178
-82,884	29,822	0,061	0,037
-81,870	-89,325	-0,086	0,018
-80,855	28,856	0,083	0,050
-79,840	85,637	-0,098	0,077
-78,826	-44,958	0,169	0,059
-77,811	-154,584	-0,117	-0,005
-76,797	-156,591	0,023	-0,001
-75,782	-200,000	-0,005	-0,049
-74,767	70,701	0,035	-0,026
-73,753	277,577	-0,017	0,021
-72,738	-200,000	0,007	-0,113
-71,724	705,270	0,033	-0,063
-70,709	233,645	-0,058	-0,067
-69,694	70,366	0,068	-0,050
-68,680	800,000	-0,029	0,075
-67,665	-200,000	-0,004	0,042
-66,651	191,367	0,016	0,017
-65,636	-200,000	-0,016	-0,079
-64,622	-200,000	-0,035	-0,122
-63,607	117,882	-0,163	-0,143
-62,592	-42,782	0,106	-0,038
-61,578	-20,372	-0,094	-0,041
-60,563	-101,902	0,062	-0,011
-59,549	800,000	-0,040	0,093
-58,534	-83,155	-1,421	-0,322
-57,519	349,787	-1,507	-2,117
-56,505	-200,000	-0,400	-4,479
-55,490	144,051	0,843	0,798
-54,476	800,000	4,739	11,225
-53,461	-200,000	17,638	278,026
-52,446	800,000	719,369	2210,399
-51,432	558,462	1633,435	2805,183
-50,417	81,124	1657,277	1267,612
-49,403	23,975	1531,503	893,284
-48,388	17,933	1455,085	819,594
-47,373	18,282	1444,507	815,277
-46,359	17,983	1435,143	808,534
-45,344	16,255	1430,320	797,580
-44,330	16,181	1428,454	796,154
-43,315	16,165	1426,847	795,152
-42,300	16,239	1425,077	794,483
-41,286	16,265	1423,943	793,945
-40,271	16,239	1422,530	792,999
-39,257	16,218	1421,385	792,233
-38,242	16,241	1419,983	791,528
-37,227	16,255	1418,816	790,914
-36,213	16,247	1417,423	790,067
-35,198	16,218	1416,411	789,333
-34,184	16,210	1415,411	788,709
-33,169	16,210	1414,049	787,920
-32,154	16,194	1413,382	787,443
-31,140	16,245	1411,639	786,675
-30,125	16,257	1410,701	786,181
-29,111	16,245	1409,548	785,449
-28,096	16,239	1408,626	784,877
-27,082	16,190	1407,448	783,958
-26,067	16,224	1406,031	783,300
-25,052	16,182	1405,181	782,595
-24,038	16,165	1404,118	781,897
-23,023	16,143	1403,028	781,156
-22,009	16,130	1402,140	780,569
-20,994	16,076	1401,397	779,873
-19,979	16,114	1400,300	779,410
-18,965	16,058	1399,235	778,522
-17,950	16,066	1398,385	778,059
-16,936	16,042	1397,461	777,399
-15,921	16,091	1396,076	776,827
-14,906	16,045	1395,272	776,134
-13,892	16,059	1394,154	775,549
-12,877	16,026	1393,456	774,976
-11,863	16,031	1392,532	774,454
-10,848	16,042	1391,574	773,942
-9,833	16,025	1390,587	773,282
-8,819	15,955	1390,035	772,623
-7,804	15,952	1388,816	771,903
-6,790	15,943	1387,852	771,294
-5,775	15,956	1386,732	770,701
-4,760	15,956	1385,880	770,195
-3,746	15,957	1385,205	769,797
-2,731	15,936	1384,401	769,219
-1,717	15,934	1383,539	768,703
-0,702	15,933	1381,507	767,537
0,313	19,724	1302,607	741,180
1,327	36,148	706,904	440,290
2,342	55,705	125,194	85,824
3,356	3,371	16,642	8,559
4,371	14,316	3,025	1,666
5,386	-83,671	0,530	0,119
6,400	25,873	-0,080	-0,047
7,415	728,211	-0,113	-0,216
8,429	64,500	-0,212	-0,151
9,444	241,282	-0,251	-0,297
10,459	40,632	-0,249	-0,158
11,473	161,829	-0,216	-0,215
12,488	63,027	-0,185	-0,131
13,502	161,967	-0,266	-0,264
14,517	-48,386	-0,355	-0,120
15,531	122,392	-0,356	-0,315
16,546	3,794	-0,449	-0,231
17,561	534,049	-0,163	-0,274
18,575	-16,734	-0,200	-0,089
19,590	5,107	-0,198	-0,103
20,604	-84,753	-0,368	-0,081
21,619	5,686	-0,549	-0,286
22,634	11,957	-0,462	-0,251
23,648	62,007	-0,388	-0,273
24,663	17,254	-0,394	-0,221
25,677	48,990	-0,382	-0,253
26,692	199,914	-0,210	-0,228
27,707	25,076	-0,337	-0,197
28,721	173,481	-0,360	-0,368
29,736	146,795	-0,354	-0,337
30,750	131,017	-0,457	-0,415
31,765	92,409	-0,271	-0,216
32,780	184,856	-0,307	-0,323
33,794	121,987	-0,380	-0,336
34,809	120,000	-0,451	-0,395
35,823	45,155	-0,365	-0,237
36,838	103,864	-0,389	-0,323
37,853	20,768	-0,449	-0,256
38,867	23,628	-0,283	-0,164
39,882	28,859	-0,386	-0,231
40,896	117,266	-0,367	-0,319
41,911	84,773	-0,303	-0,234
42,926	185,277	-0,436	-0,458
43,940	228,662	-0,333	-0,384
44,955	116,945	-0,403	-0,349
45,969	33,722	-0,421	-0,258
46,984	-33,088	-0,413	-0,161
47,999	14,971	-0,286	-0,157
49,013	116,903	-0,313	-0,271
50,028	-24,773	-0,294	-0,123
51,042	139,690	-0,248	-0,230
52,057	164,497	-0,251	-0,250
53,071	172,733	-0,310	-0,315
54,086	92,283	-0,446	-0,354
55,101	78,828	-0,244	-0,184
56,115	71,398	-0,398	-0,291
57,130	72,622	-0,311	-0,229
58,144	52,609	-0,383	-0,258
59,159	36,708	-0,372	-0,231
60,174	71,835	-0,393	-0,288
61,188	13,025	-0,325	-0,177
62,203	101,059	-0,241	-0,198
63,217	77,424	-0,334	-0,250
64,232	-29,160	-0,446	-0,179
65,247	85,014	-0,385	-0,297
66,261	25,168	-0,286	-0,167
67,276	65,502	-0,285	-0,203
68,290	95,969	-0,305	-0,245
69,305	300,180	-0,203	-0,264
70,320	-76,055	-0,257	-0,063
71,334	112,413	-0,234	-0,199
72,349	23,294	-0,210	-0,121
73,363	93,211	-0,299	-0,238
74,378	120,685	-0,204	-0,178
75,393	175,775	-0,231	-0,236
76,407	50,836	-0,185	-0,123
77,422	-9,429	-0,298	-0,140
78,436	0,342	-0,252	-0,126
79,451	148,925	-0,352	-0,335
80,466	146,853	-0,312	-0,295
81,480	-9,184	-0,304	-0,142
82,495	18,967	-0,224	-0,126
83,509	33,884	-0,230	-0,140
84,524	-52,702	-0,359	-0,116
85,539	84,317	-0,249	-0,191
86,553	27,554	-0,446	-0,263
87,568	141,476	-0,313	-0,292
88,582	174,919	-0,210	-0,213
89,597	28,291	-0,301	-0,178
90,611	42,668	-0,275	-0,176
91,626	16,809	-0,233	-0,129
92,641	35,273	-0,265	-0,163
93,655	58,316	-0,231	-0,159
94,670	45,945	-0,178	-0,115
95,684	-36,253	-0,356	-0,134
96,699	-134,156	-0,325	-0,028
97,714	86,567	-0,290	-0,224
98,728	429,893	-0,144	-0,219
99,743	30,280	-0,271	-0,162
100,757	135,321	-0,209	-0,191
101,772	172,137	-0,249	-0,252
102,787	7,641	-0,294	-0,154
103,801	87,342	-0,234	-0,182
104,816	-45,674	-0,350	-0,121
105,830	-14,473	-0,251	-0,113
106,845	-69,146	-0,254	-0,068
107,860	95,192	-0,119	-0,095
108,874	-0,469	-0,228	-0,113
109,889	133,210	-0,292	-0,265
110,903	284,454	-0,257	-0,325
111,918	162,145	-0,241	-0,237
112,933	51,597	-0,248	-0,165
113,947	173,261	-0,220	-0,222
114,962	83,276	-0,185	-0,141
115,976	137,856	-0,229	-0,211
116,991	111,416	-0,215	-0,182
118,006	-72,677	-0,242	-0,062
119,020	76,879	-0,273	-0,203
120,035	-55,068	-0,294	-0,092
121,049	26,576	-0,281	-0,165
122,064	55,048	-0,213	-0,144
123,079	-18,555	-0,280	-0,122
124,093	137,359	-0,266	-0,244
125,108	-51,688	-0,168	-0,054
126,122	84,514	-0,253	-0,194
127,137	-53,387	-0,214	-0,068
128,151	-63,398	-0,178	-0,051
129,166	115,200	-0,134	-0,114
130,181	36,847	-0,176	-0,109
131,195	800,000	-0,206	-0,444
132,210	93,059	-0,290	-0,230
133,224	282,906	-0,127	-0,160
134,239	334,382	-0,185	-0,252
135,254	-27,105	-0,272	-0,111
136,268	-184,836	-0,259	0,003
137,283	395,623	-0,159	-0,233
138,297	1,712	-0,201	-0,101
139,312	-14,478	-0,133	-0,059
140,327	19,588	-0,304	-0,171
141,341	102,431	-0,168	-0,137
142,356	800,000	-0,075	-0,218
143,370	98,571	-0,329	-0,265
144,385	407,716	-0,235	-0,349
145,400	47,382	-0,310	-0,202
146,414	800,000	-0,078	-0,208
147,429	31,440	-0,176	-0,105
148,443	85,682	-0,236	-0,181
149,458	-89,157	-0,296	-0,061
150,473	-33,757	-0,145	-0,056
151,487	-142,970	-0,300	0,020
152,502	152,840	-0,146	-0,140
153,516	322,557	-0,222	-0,297
154,531	163,231	-0,282	-0,277
155,546	-50,098	-0,264	-0,087
156,560	-61,649	-0,169	-0,049
157,575	-61,850	-0,313	-0,091
158,589	152,643	-0,277	-0,264
159,604	716,411	-0,127	-0,236
160,619	494,672	-0,185	-0,297
161,633	125,555	-0,092	-0,081
162,648	800,000	-0,104	-0,234
163,662	-128,596	-0,198	-0,019
164,677	-14,619	-0,274	-0,123
165,692	-44,789	-0,291	-0,101
166,706	33,234	-0,268	-0,162
167,721	119,416	-0,299	-0,259
168,735	175,208	-0,214	-0,216
169,750	96,750	-0,309	-0,247
170,764	187,838	-0,179	-0,187
171,779	-42,042	-0,244	-0,087
172,794	-16,517	-0,328	-0,145
173,808	233,370	-0,165	-0,190
174,823	284,838	-0,162	-0,203
175,837	416,211	-0,138	-0,206
176,852	54,489	-0,318	-0,213
177,867	-15,750	-0,213	-0,095
178,881	744,525	-0,120	-0,227
179,896	-5,391	-0,162	-0,077
180,910	3,732	-0,280	-0,142
181,925	74,199	-0,251	-0,184
182,940	287,886	-0,171	-0,217
183,954	381,494	-0,172	-0,248
184,969	12,731	-0,280	-0,150
185,983	-70,284	-0,098	-0,026
186,998	-43,845	-0,151	-0,053
188,013	-82,762	-0,197	-0,044
189,027	47,950	-0,290	-0,189
190,042	38,591	-0,298	-0,185
191,056	173,241	-0,188	-0,189
192,071	-23,780	-0,210	-0,087
193,086	-135,076	-0,221	-0,018
194,100	283,452	-0,137	-0,172
195,115	-97,981	-0,313	-0,056
196,129	-119,244	-0,260	-0,031
197,144	365,864	-0,237	-0,333
198,159	319,028	-0,170	-0,225
199,173	-200,000	-0,067	-0,265
200,188	-16,415	-0,222	-0,097
201,202	-46,184	-0,134	-0,046
202,217	-100,508	-0,172	-0,029
203,232	108,987	-0,169	-0,141
204,246	43,878	-0,151	-0,096
205,261	430,676	-0,153	-0,231
206,275	182,279	-0,207	-0,212
207,290	-149,169	-0,144	-0,008
208,304	-1,617	-0,170	-0,083
209,319	91,916	-0,218	-0,171
210,334	183,134	-0,162	-0,166
211,348	84,646	-0,248	-0,188
212,363	51,949	-0,292	-0,193
213,377	553,525	-0,123	-0,207
214,392	288,790	-0,165	-0,208
215,407	800,000	-0,061	-0,129
216,421	166,983	-0,158	-0,156
217,436	-64,630	-0,184	0,051
218,450	156,910	-0,288	-0,276
219,465	6,759	-0,309	-0,159
220,480	725,697	-0,137	-0,254
221,494	150,453	-0,213	-0,201
222,509	121,231	-0,172	-0,149
223,523	-115,082	-0,113	-0,015
224,538	-101,566	-0,293	-0,049
225,553	143,086	-0,250	-0,231
226,567	-16,634	-0,296	-0,130
227,582	33,298	-0,265	-0,160
228,596	-11,690	-0,146	-0,066
229,611	339,134	-0,177	-0,240
230,626	261,098	-0,197	-0,237
231,640	118,254	-0,161	-0,138
232,655	128,565	-0,146	-0,129
233,669	236,925	-0,180	-0,208
234,684	800,000	-0,097	-0,250
235,699	-39,005	-0,249	-0,090
236,713	-59,754	-0,132	-0,039
237,728	216,587	-0,151	-0,167
238,742	2,420	-0,211	-0,106
239,757	651,052	-0,179	-0,319
240,772	185,153	-0,247	-0,255
241,786	-59,233	-0,138	-0,041
242,801	336,413	-0,132	-0,179
243,815	121,092	-0,144	-0,124
244,830	-200,000	-0,043	-0,144
245,844	-158,547	-0,214	-0,008
246,859	0,887	-0,240	-0,119
247,874	-37,517	-0,168	-0,062
248,888	20,830	-0,180	-0,101
249,903	800,000	-0,085	-0,208
250,917	-200,000	-0,013	-0,143
251,932	331,519	-0,107	-0,144
252,947	68,413	-0,173	-0,123
253,961	-200,000	-0,028	-0,146
254,976	7,821	-0,199	-0,103
255,990	12,240	-0,250	-0,133
257,005	800,000	-0,067	-0,167
258,020	312,706	-0,156	-0,204
259,034	-132,885	-0,184	0,016
260,049	-12,156	-0,271	-0,122
261,063	-30,218	-0,240	-0,094
262,078	35,677	-0,337	-0,204
263,093	-94,011	-0,057	-0,011
264,107	-23,478	-0,188	-0,078
265,122	-93,314	-0,287	-0,055
266,136	-8,508	-0,143	0,066
267,151	-25,981	-0,183	-0,074
268,166	145,394	-0,058	-0,053
269,180	30,949	-0,276	-0,163
270,195	47,404	-0,197	-0,127
271,209	-15,040	-0,141	-0,062
272,224	-200,000	-0,037	-0,113
273,239	-200,000	-0,008	-0,061
274,253	-57,243	-0,195	0,059
275,268	-27,152	-0,134	-0,054
276,282	63,918	-0,210	-0,146
277,297	-17,679	-0,180	-0,078
278,312	54,558	-0,162	-0,108
279,326	-11,940	-0,128	-0,058
280,341	51,929	-0,085	-0,056
281,355	-61,641	-0,240	-0,069
282,370	-7,117	-0,264	-0,124
283,384	-130,010	-0,175	-0,016
284,399	800,000	-0,084	-0,207
285,414	-96,585	-0,186	0,034
286,428	-94,789	-0,170	-0,032
287,443	-93,367	-0,181	-0,034
288,457	202,604	-0,058	0,062
289,472	108,302	-0,197	-0,162
290,487	-43,156	-0,193	-0,067
291,501	114,873	-0,240	-0,203
292,516	800,000	-0,104	-0,269
293,530	255,205	-0,116	-0,137
294,545	-14,236	-0,090	-0,040
295,560	-200,000	-0,002	-0,112
296,574	0,137	-0,153	-0,075
297,589	10,390	-0,135	-0,071
298,603	600,839	-0,134	-0,230
299,618	-36,196	-0,137	-0,051
300,633	-44,482	-0,136	-0,047
301,647	230,693	-0,147	-0,167
302,662	800,000	0,039	-0,086
303,676	37,577	-0,146	-0,089
304,691	-57,310	-0,134	-0,041
305,706	800,000	-0,041	-0,120
306,720	216,394	-0,181	-0,199
307,735	-23,733	-0,156	-0,064
308,749	-4,439	-0,124	-0,059
309,764	-78,467	-0,108	-0,025
310,779	172,677	-0,171	-0,170
311,793	800,000	-0,057	0,140
312,808	-19,781	-0,200	-0,085
313,822	164,639	-0,191	-0,186
314,837	127,418	-0,112	-0,098
315,852	203,307	-0,106	-0,113
316,866	-89,170	-0,165	0,033
317,881	63,404	-0,110	-0,076
318,895	96,837	-0,134	-0,105
319,910	-81,987	-0,184	-0,041
320,925	91,782	-0,221	-0,171
321,939	-117,695	-0,170	-0,021
322,954	314,560	-0,106	-0,137
323,968	-56,899	-0,187	0,057
324,983	112,873	-0,098	-0,081
325,997	-103,311	-0,151	-0,024
327,012	800,000	-0,036	-0,077
328,027	165,338	-0,136	-0,132
329,041	-150,565	-0,154	-0,008
330,056	80,808	-0,182	-0,135
331,070	509,730	-0,050	-0,080
332,085	232,433	-0,110	-0,124
333,100	800,000	-0,045	-0,117
334,114	97,881	-0,124	-0,098
335,129	23,380	-0,237	-0,134
336,143	58,713	-0,196	-0,133
337,158	137,809	-0,116	-0,105
338,173	79,688	-0,154	-0,114
339,187	-94,193	-0,086	-0,016
340,202	-46,221	-0,125	-0,042
341,216	-200,000	-0,046	-0,186
342,231	83,042	-0,256	-0,191
343,246	-67,336	-0,093	-0,025
344,260	144,796	-0,168	-0,155
345,275	800,000	-0,028	-0,065
346,289	-124,203	-0,186	0,020
347,304	-101,670	-0,192	0,032
348,319	3,112	-0,084	0,042
349,333	55,382	-0,197	-0,130
350,348	-200,000	-0,029	-0,093
351,362	-148,513	-0,207	-0,011
352,377	333,069	-0,062	-0,083
353,392	116,916	0,054	-0,046
354,406	-200,000	0,023	-0,133
355,421	210,326	1313,209	1418,094
356,435	161,917	1473,774	1418,628
