DTS Sentinel unit serial number:	SN410029Multiplexer serial number:	ORYXHardware model number:	OX2-SRSoftware version number:	ORYX F/W v4,00 Oryx Data Collector v3.7.2.0data status	okinstallation	B3 Nyhavnadifferential loss correction	single-endedforward channel	channel 1reverse channel	N/Adate	2023/11/29time	04:12:30forward acquisition time	300,00reverse acquisition time	0,00gamma	499,1914k internal	0,3211k external	0,3211temperature offset calibration	1,0000default loss term (dB/km)	0,3820temperature slope calibration	1,0000multiplexer offset coefficient	1,0000multiplexer slope coefficient	1,0000fibre end	0,00T internal ref (°C)	9,37T ext. ref 1 (°C)	-6,02T ext. ref 2 (°C)	-6,12length (m)	temperature (°C)	Stokes	anti-Stokes-744,400	-200,000	-0,001	-0,266
-743,385	-200,000	0,030	0,181
-742,371	751,300	-0,150	-0,294
-741,356	-200,000	0,066	0,252
-740,342	-200,000	-0,028	-0,219
-739,327	245,377	0,076	0,093
-738,312	37,961	-0,203	-0,131
-737,298	-200,000	-0,008	0,310
-736,283	379,769	-0,190	-0,283
-735,269	800,000	-0,079	0,216
-734,254	-102,123	-0,293	-0,051
-733,239	25,145	-0,151	0,091
-732,225	233,178	-0,152	-0,181
-731,210	27,311	0,195	0,119
-730,196	414,138	0,074	-0,114
-729,181	196,116	-0,119	-0,132
-728,167	-200,000	-0,014	-0,060
-727,152	-83,112	-0,133	-0,031
-726,137	165,634	0,031	0,032
-725,123	-200,000	0,003	0,034
-724,108	720,728	-0,025	-0,048
-723,094	101,849	-0,029	-0,024
-722,079	-42,259	-0,176	-0,065
-721,064	165,044	0,050	-0,052
-720,050	-41,020	0,160	-0,059
-719,035	-200,000	-0,015	0,079
-718,021	800,000	0,035	0,084
-717,006	327,844	0,031	0,043
-715,991	146,610	-0,099	-0,096
-714,977	-200,000	-0,024	-0,197
-713,962	-200,000	0,028	-0,097
-712,948	401,177	0,052	-0,079
-711,933	-16,350	-0,103	-0,047
-710,918	-52,983	0,097	-0,032
-709,904	-200,000	-0,041	-0,259
-708,889	374,622	-0,155	-0,230
-707,875	-200,000	-0,060	-0,236
-706,860	-200,000	0,000	0,029
-705,845	-48,986	-0,123	0,042
-704,831	-18,525	0,068	0,031
-703,816	68,223	0,054	-0,040
-702,802	-196,101	0,131	0,001
-701,787	139,795	0,064	-0,061
-700,772	250,905	-0,062	-0,077
-699,758	-119,501	0,130	-0,016
-698,743	-52,021	-0,044	-0,015
-697,729	-61,978	-0,062	0,019
-696,714	96,938	0,092	-0,076
-695,699	117,314	0,058	0,051
-694,685	-200,000	0,041	-0,151
-693,670	800,000	-0,018	0,037
-692,656	-200,000	0,027	0,000
-691,641	745,814	-0,035	-0,068
-690,627	-134,222	0,073	-0,006
-689,612	133,769	-0,082	-0,077
-688,597	320,338	0,097	-0,134
-687,583	120,711	-0,100	0,090
-686,568	257,247	-0,051	0,063
-685,554	284,838	0,028	-0,037
-684,539	336,424	0,042	0,059
-683,524	-19,777	0,090	-0,040
-682,510	160,888	-0,040	-0,040
-681,495	209,131	-0,040	-0,045
-680,481	-200,000	0,001	-0,047
-679,466	1,226	-0,031	0,016
-678,451	-187,118	0,034	-0,000
-677,437	-200,000	0,011	-0,130
-676,422	-22,499	-0,012	-0,005
-675,408	4,028	-0,048	0,025
-674,393	512,894	-0,070	0,119
-673,378	582,726	-0,091	-0,163
-672,364	-33,691	-0,143	0,057
-671,349	-31,766	-0,098	0,040
-670,335	-200,000	-0,029	-0,128
-669,320	-82,738	-0,038	0,009
-668,305	-22,382	0,032	-0,014
-667,291	17,632	-0,083	-0,048
-666,276	-135,705	-0,093	-0,008
-665,262	-200,000	0,002	0,064
-664,247	223,097	-0,128	-0,149
-663,232	78,773	0,090	0,069
-662,218	-29,490	0,069	-0,029
-661,203	674,098	0,031	-0,058
-660,189	271,428	-0,051	-0,064
-659,174	800,000	-0,036	-0,092
-658,159	-22,194	-0,040	-0,017
-657,145	-118,352	0,161	0,020
-656,130	800,000	0,042	0,108
-655,116	-40,515	-0,109	-0,041
-654,101	-15,858	0,158	-0,072
-653,086	5,291	-0,066	0,035
-652,072	-127,733	0,088	-0,009
-651,057	174,104	-0,106	-0,110
-650,043	26,596	0,091	-0,055
-649,028	-99,440	-0,089	-0,016
-648,014	-16,545	0,188	-0,086
-646,999	-84,159	0,075	-0,017
-645,984	380,480	0,099	0,147
-644,970	751,006	-0,059	-0,116
-643,955	-45,751	-0,139	0,049
-642,941	108,902	-0,084	0,073
-641,926	-200,000	0,019	-0,126
-640,911	-85,125	0,096	-0,022
-639,897	-200,000	0,008	-0,079
-638,882	-200,000	-0,012	-0,191
-637,868	297,135	0,094	-0,125
-636,853	81,393	-0,179	-0,139
-635,838	-200,000	0,003	-0,083
-634,824	800,000	-0,059	-0,163
-633,809	-200,000	0,027	0,088
-632,795	104,244	-0,116	0,099
-631,780	-48,163	0,044	-0,015
-630,765	221,817	-0,141	-0,164
-629,751	17,092	-0,050	0,029
-628,736	-200,000	-0,035	-0,114
-627,722	-180,125	-0,175	-0,003
-626,707	7,512	-0,027	0,015
-625,692	-37,375	-0,066	0,025
-624,678	800,000	0,037	0,085
-623,663	-74,132	-0,090	-0,023
-622,649	-25,068	-0,159	-0,068
-621,634	-200,000	0,009	-0,073
-620,619	-145,013	0,125	0,008
-619,605	-85,447	-0,009	-0,002
-618,590	41,783	-0,050	0,033
-617,576	-81,435	-0,066	0,016
-616,561	106,633	-0,056	-0,048
-615,546	92,148	-0,094	0,076
-614,532	800,000	0,034	0,076
-613,517	-0,345	0,059	0,030
-612,503	188,289	0,020	-0,021
-611,488	-200,000	0,019	0,145
-610,474	-200,000	0,012	0,182
-609,459	-46,935	-0,033	0,012
-608,444	-128,475	-0,197	0,020
-607,430	8,072	-0,123	-0,066
-606,415	-200,000	0,029	-0,291
-605,401	219,498	-0,027	0,031
-604,386	-200,000	-0,002	0,073
-603,371	-5,240	0,044	-0,022
-602,357	279,697	-0,072	-0,093
-601,342	18,652	-0,069	-0,040
-600,328	-7,838	-0,119	-0,058
-599,313	-200,000	0,007	0,061
-598,298	7,100	-0,141	0,076
-597,284	-74,290	0,098	-0,025
-596,269	86,230	0,090	0,071
-595,255	800,000	0,017	0,049
-594,240	767,593	0,011	-0,021
-593,225	28,611	-0,087	-0,053
-592,211	207,604	0,078	-0,088
-591,196	-200,000	0,025	-0,124
-590,182	-28,756	-0,057	0,023
-589,167	-147,206	-0,098	-0,006
-588,152	-60,418	0,084	0,025
-587,138	800,000	-0,023	0,058
-586,123	-200,000	-0,003	-0,123
-585,109	540,004	0,075	-0,128
-584,094	220,436	-0,124	-0,143
-583,079	5,085	0,152	-0,080
-582,065	-200,000	0,001	-0,097
-581,050	533,119	-0,005	-0,008
-580,036	98,655	0,080	0,066
-579,021	162,760	0,109	-0,110
-578,006	-67,372	-0,139	0,039
-576,992	498,447	-0,047	-0,078
-575,977	-200,000	-0,003	-0,063
-574,963	-21,920	0,032	-0,014
-573,948	-200,000	0,027	0,086
-572,934	800,000	0,039	0,117
-571,919	748,404	-0,067	-0,131
-570,904	385,337	-0,110	-0,164
-569,890	550,071	-0,039	-0,067
-568,875	-74,068	0,043	-0,011
-567,861	71,479	0,069	-0,051
-566,846	-60,549	-0,096	-0,029
-565,831	185,110	-0,065	-0,069
-564,817	388,879	0,070	-0,105
-563,802	98,069	-0,102	-0,085
-562,788	-168,302	-0,206	0,006
-561,773	7,446	0,077	0,041
-560,758	159,524	0,044	-0,044
-559,744	800,000	-0,023	0,051
-558,729	-200,000	-0,016	0,057
-557,715	-200,000	-0,007	-0,120
-556,700	-200,000	0,028	-0,105
-555,685	335,481	0,090	-0,126
-554,671	323,389	0,102	0,141
-553,656	-200,000	0,010	0,066
-552,642	-200,000	0,016	-0,112
-551,627	419,731	0,052	0,080
-550,612	-160,174	0,155	-0,006
-549,598	298,812	0,022	-0,030
-548,583	-127,930	0,094	0,010
-547,569	-52,624	0,107	-0,035
-546,554	-200,000	0,035	-0,125
-545,539	800,000	0,014	-0,041
-544,525	-185,173	0,040	-0,000
-543,510	-168,932	-0,062	-0,002
-542,496	185,518	0,034	-0,037
-541,481	-184,189	0,073	0,001
-540,466	-200,000	-0,002	-0,054
-539,452	83,967	0,112	0,088
-538,437	42,482	0,034	-0,022
-537,423	800,000	-0,038	0,078
-536,408	106,478	0,102	-0,087
-535,393	-200,000	0,051	0,164
-534,379	-200,000	-0,046	-0,157
-533,364	-20,201	-0,019	-0,009
-532,350	800,000	-0,014	-0,034
-531,335	-79,855	-0,101	-0,024
-530,321	-200,000	0,030	-0,098
-529,306	-200,000	-0,017	-0,154
-528,291	356,559	-0,024	-0,034
-527,277	800,000	0,059	-0,178
-526,262	-200,000	0,018	0,156
-525,248	-200,000	0,010	0,063
-524,233	22,811	-0,046	-0,027
-523,218	-17,327	0,119	-0,054
-522,204	51,073	-0,106	0,072
-521,189	-200,000	-0,003	-0,071
-520,175	91,896	0,132	-0,107
-519,160	-200,000	0,013	0,113
-518,145	-200,000	0,030	0,206
-517,131	230,552	0,148	0,175
-516,116	-200,000	0,013	-0,083
-515,102	170,388	-0,097	0,100
-514,087	-154,987	-0,093	-0,004
-513,072	218,796	0,048	0,056
-512,058	280,980	-0,019	0,025
-511,043	-5,674	0,065	-0,032
-510,029	-94,816	0,088	0,017
-509,014	650,419	0,050	-0,091
-507,999	249,523	0,129	0,157
-506,985	173,545	-0,088	0,091
-505,970	800,000	0,027	0,058
-504,956	-200,000	-0,039	0,135
-503,941	-116,139	0,236	0,031
-502,926	438,563	0,052	0,082
-501,912	800,000	0,062	-0,131
-500,897	-200,000	0,008	-0,093
-499,883	-200,000	0,012	0,072
-498,868	-111,004	-0,113	0,017
-497,853	800,000	-0,021	0,054
-496,839	721,153	-0,040	0,077
-495,824	335,935	-0,052	-0,073
-494,810	-75,885	0,065	0,017
-493,795	-200,000	-0,008	-0,042
-492,781	88,699	-0,166	-0,132
-491,766	56,058	-0,088	-0,061
-490,751	-103,816	-0,059	-0,010
-489,737	-101,473	-0,069	-0,012
-488,722	145,018	-0,014	-0,014
-487,708	-200,000	-0,014	0,079
-486,693	-200,000	-0,002	0,032
-485,678	286,564	-0,043	-0,055
-484,664	51,365	0,074	-0,050
-483,649	71,172	-0,151	-0,112
-482,635	86,879	0,086	0,068
-481,620	-10,049	-0,058	-0,028
-480,605	800,000	0,028	0,072
-479,591	-6,549	0,080	0,039
-478,576	-119,553	0,039	-0,005
-477,562	-83,436	-0,187	-0,043
-476,547	800,000	0,061	-0,181
-475,532	-200,000	0,006	-0,083
-474,518	800,000	0,063	0,168
-473,503	390,472	0,137	0,204
-472,489	-1,122	-0,097	-0,049
-471,474	141,783	-0,086	0,082
-470,459	-26,564	-0,184	-0,077
-469,445	-200,000	0,015	-0,063
-468,430	800,000	-0,060	0,135
-467,416	93,496	0,049	-0,040
-466,401	83,045	0,071	0,056
-465,386	-126,130	0,127	-0,014
-464,372	-140,091	-0,160	0,012
-463,357	800,000	-0,073	-0,171
-462,343	-109,569	-0,069	-0,010
-461,328	800,000	0,021	0,064
-460,313	-200,000	-0,028	-0,092
-459,299	-200,000	0,022	-0,079
-458,284	-83,606	-0,093	0,021
-457,270	8,385	-0,071	-0,038
-456,255	800,000	-0,030	0,066
-455,241	-63,899	-0,076	0,022
-454,226	-200,000	0,016	-0,071
-453,211	800,000	0,077	-0,192
-452,197	71,099	0,057	0,043
-451,182	83,263	0,154	0,120
-450,168	-0,279	0,121	-0,061
-449,153	-29,999	0,087	0,035
-448,138	-84,118	0,015	-0,003
-447,124	-200,000	0,009	-0,126
-446,109	-200,000	-0,035	0,112
-445,095	800,000	0,091	0,233
-444,080	175,234	0,122	0,127
-443,065	83,058	-0,081	-0,063
-442,051	18,456	-0,042	0,024
-441,036	-200,000	0,014	-0,094
-440,022	540,206	-0,058	0,099
-439,007	-85,024	-0,088	0,020
-437,992	277,031	0,056	-0,071
-436,978	127,061	-0,052	0,047
-435,963	-100,839	0,072	-0,013
-434,949	-98,523	0,096	-0,017
-433,934	29,638	-0,071	0,043
-432,919	723,011	-0,027	-0,052
-431,905	-124,813	0,150	0,016
-430,890	15,571	-0,080	0,045
-429,876	57,575	-0,099	0,069
-428,861	491,934	-0,037	-0,061
-427,846	-69,506	-0,018	-0,005
-426,832	-200,000	-0,021	0,080
-425,817	371,846	-0,048	-0,069
-424,803	-200,000	-0,009	-0,043
-423,788	-198,003	0,074	0,000
-422,773	176,593	-0,168	0,175
-421,759	-200,000	0,017	-0,073
-420,744	-120,139	-0,213	-0,026
-419,730	683,874	0,076	0,143
-418,715	-41,570	-0,280	0,102
-417,701	-93,339	-0,113	-0,022
-416,686	7,420	0,018	0,009
-415,671	-144,201	0,044	0,003
-414,657	24,724	0,046	0,027
-413,642	254,263	-0,063	0,077
-412,628	40,331	-0,154	0,099
-411,613	81,896	-0,083	-0,064
-410,598	-200,000	0,011	-0,077
-409,584	151,497	0,041	-0,040
-408,569	186,533	0,104	0,111
-407,555	-200,000	-0,008	0,051
-406,540	-42,744	0,102	0,037
-405,525	-200,000	-0,015	0,099
-404,511	22,229	0,110	0,064
-403,496	-43,442	0,038	0,014
-402,482	800,000	0,029	-0,060
-401,467	-120,574	0,142	-0,017
-400,452	800,000	0,034	0,081
-399,438	50,738	-0,070	0,048
-398,423	-200,000	-0,019	-0,092
-397,409	800,000	-0,032	-0,089
-396,394	-87,826	-0,101	-0,021
-395,379	800,000	-0,066	-0,187
-394,365	570,422	0,062	0,108
-393,350	139,456	0,038	0,036
-392,336	665,541	0,063	0,118
-391,321	-63,581	0,096	0,028
-390,306	411,593	0,069	-0,104
-389,292	-32,488	0,099	-0,039
-388,277	-63,437	0,084	-0,024
-387,263	-200,000	-0,010	0,072
-386,248	382,589	0,017	-0,025
-385,233	-200,000	0,020	0,087
-384,219	-200,000	0,005	-0,050
-383,204	-7,839	-0,105	-0,050
-382,190	205,264	-0,111	-0,124
-381,175	5,909	-0,112	-0,059
-380,160	-41,462	0,023	0,008
-379,146	-93,192	0,155	-0,030
-378,131	364,220	0,074	0,106
-377,117	203,568	-0,083	0,092
-376,102	-1,881	-0,154	0,077
-375,088	118,554	0,050	0,044
-374,073	-0,681	0,074	0,037
-373,058	-200,000	0,017	0,086
-372,044	38,420	-0,093	0,059
-371,029	39,056	0,057	0,036
-370,015	20,336	-0,063	0,036
-369,000	-200,000	0,002	-0,119
-367,985	-200,000	-0,042	-0,153
-366,971	-54,157	0,086	0,028
-365,956	142,493	0,157	0,149
-364,942	-144,810	0,157	0,010
-363,927	249,779	-0,118	0,143
-362,912	226,148	-0,165	0,191
-361,898	93,291	-0,076	0,062
-360,883	126,665	-0,074	-0,067
-359,869	-200,000	0,006	-0,103
-358,854	-200,000	0,013	0,056
-357,839	-55,027	-0,077	0,025
-356,825	61,042	0,112	0,079
-355,810	408,143	0,060	0,091
-354,796	341,142	-0,089	0,124
-353,781	-161,883	-0,098	-0,003
-352,766	-115,130	-0,181	0,024
-351,752	29,204	0,119	-0,072
-350,737	800,000	-0,021	0,057
-349,723	-200,000	0,027	0,097
-348,708	259,748	-0,032	-0,040
-347,693	273,529	-0,078	-0,098
-346,679	723,707	-0,073	-0,139
-345,664	666,961	-0,017	0,031
-344,650	312,260	0,098	0,132
-343,635	12,442	0,049	0,027
-342,620	263,728	0,085	-0,105
-341,606	-53,021	-0,169	0,055
-340,591	-77,146	-0,128	0,032
-339,577	-200,000	0,042	-0,134
-338,562	111,612	0,022	0,019
-337,548	-200,000	-0,004	0,058
-336,533	-73,180	0,115	0,030
-335,518	110,018	0,025	-0,022
-334,504	39,514	0,087	0,055
-333,489	88,030	-0,077	-0,061
-332,475	-115,167	-0,121	-0,016
-331,460	-20,976	-0,134	0,058
-330,445	800,000	0,029	0,082
-329,431	338,241	0,085	0,118
-328,416	-200,000	0,028	0,117
-327,402	800,000	-0,009	0,024
-326,387	-200,000	0,012	-0,062
-325,372	20,081	-0,096	-0,055
-324,358	116,168	0,022	0,019
-323,343	44,426	-0,133	0,087
-322,329	67,152	-0,049	0,035
-321,314	800,000	0,073	0,161
-320,299	-200,000	-0,006	0,034
-319,285	304,748	-0,042	0,056
-318,270	615,601	0,056	-0,100
-317,256	-200,000	0,016	-0,130
-316,241	100,605	0,066	0,054
-315,226	341,908	0,031	-0,043
-314,212	56,648	0,090	0,062
-313,197	-120,929	0,132	-0,016
-312,183	176,603	-0,108	0,112
-311,168	485,092	-0,036	-0,058
-310,153	-200,000	-0,010	-0,168
-309,139	496,253	-0,049	-0,081
-308,124	800,000	0,056	-0,125
-307,110	-200,000	-0,034	0,126
-306,095	-200,000	-0,006	0,123
-305,080	57,573	-0,100	-0,070
-304,066	107,740	0,072	-0,061
-303,051	542,747	0,011	0,018
-302,037	-200,000	0,031	-0,124
-301,022	-200,000	0,010	0,043
-300,008	800,000	0,030	0,080
-298,993	96,618	0,020	-0,016
-297,978	-103,855	0,086	0,014
-296,964	800,000	-0,043	0,112
-295,949	-177,542	0,075	0,001
-294,935	-200,000	-0,036	-0,201
-293,920	-103,596	0,109	0,018
-292,905	-72,107	0,100	0,026
-291,891	-200,000	0,005	0,049
-290,876	800,000	0,051	0,143
-289,862	588,761	0,068	-0,120
-288,847	205,587	-0,056	-0,062
-287,832	-47,825	-0,037	-0,013
-286,818	800,000	0,058	-0,120
-285,803	29,151	-0,098	0,059
-284,789	-112,195	-0,124	0,017
-283,774	139,810	0,124	0,117
-282,759	28,953	0,123	-0,074
-281,745	87,751	0,084	-0,067
-280,730	-200,000	-0,011	0,078
-279,716	404,787	-0,086	0,129
-278,701	-200,000	-0,010	0,066
-277,686	-60,784	0,112	0,034
-276,672	86,111	0,178	0,140
-275,657	-36,961	-0,181	-0,069
-274,643	-179,513	0,007	0,000
-273,628	158,678	0,074	-0,073
-272,613	106,552	-0,086	0,072
-271,599	-143,988	0,102	-0,007
-270,584	-33,427	0,116	-0,045
-269,570	-200,000	-0,029	0,137
-268,555	-133,026	0,092	0,008
-267,540	-70,402	-0,077	0,021
-266,526	-190,341	0,099	0,001
-265,511	-141,524	-0,172	0,012
-264,497	-200,000	-0,011	0,063
-263,482	-73,405	0,043	0,011
-262,467	546,883	0,045	0,077
-261,453	246,498	-0,024	-0,029
-260,438	125,146	0,080	-0,071
-259,424	-200,000	-0,013	0,078
-258,409	-135,194	-0,046	-0,004
-257,395	-154,339	0,018	0,001
-256,380	28,674	0,074	0,044
-255,365	-154,800	0,068	-0,003
-254,351	190,186	0,101	0,108
-253,336	800,000	-0,015	-0,032
-252,322	184,403	-0,075	-0,079
-251,307	-200,000	0,023	-0,121
-250,292	82,454	0,042	-0,032
-249,278	0,504	0,042	0,021
-248,263	800,000	-0,063	0,129
-247,249	-80,217	-0,038	-0,009
-246,234	465,844	0,034	-0,054
-245,219	61,660	-0,089	0,063
-244,205	157,206	-0,028	0,027
-243,190	-200,000	0,003	0,131
-242,176	-76,404	-0,027	-0,007
-241,161	-200,000	0,019	0,120
-240,146	-200,000	-0,012	0,094
-239,132	-120,236	-0,142	-0,017
-238,117	25,952	0,079	0,046
-237,103	141,029	-0,054	0,050
-236,088	136,829	-0,089	0,083
-235,073	150,947	0,070	-0,068
-234,059	-1,722	-0,093	0,046
-233,044	452,618	-0,059	-0,094
-232,030	-200,000	-0,035	0,148
-231,015	-200,000	0,001	-0,123
-230,000	130,175	0,014	0,013
-228,986	-200,000	-0,035	-0,158
-227,971	639,739	0,042	0,077
-226,957	51,419	0,062	-0,042
-225,942	81,928	0,105	0,081
-224,927	-200,000	-0,017	0,134
-223,913	-24,382	-0,111	-0,047
-222,898	-200,000	-0,048	-0,268
-221,884	570,552	-0,080	-0,140
-220,869	387,972	0,062	0,092
-219,855	9,727	0,143	0,077
-218,840	-200,000	-0,004	0,018
-217,825	24,528	-0,098	0,057
-216,811	-200,000	0,008	-0,067
-215,796	12,156	-0,059	-0,032
-214,782	-18,441	0,047	-0,021
-213,767	800,000	0,055	-0,112
-212,752	-200,000	0,037	-0,128
-211,738	-200,000	-0,027	0,085
-210,723	57,090	-0,092	-0,064
-209,709	800,000	-0,044	-0,111
-208,694	-72,187	-0,034	-0,009
-207,679	269,059	-0,053	0,066
-206,665	62,979	-0,022	0,016
-205,650	-129,976	0,136	-0,013
-204,636	-200,000	0,031	0,131
-203,621	330,743	0,020	0,027
-202,606	-52,275	0,160	0,052
-201,592	-119,523	-0,053	0,006
-200,577	113,603	-0,100	-0,087
-199,563	-200,000	0,003	0,012
-198,548	497,891	-0,062	-0,101
-197,533	113,247	0,127	0,109
-196,519	800,000	0,023	0,070
-195,504	58,400	0,113	-0,078
-194,490	113,425	-0,047	-0,040
-193,475	800,000	-0,035	-0,084
-192,460	-15,441	-0,084	0,038
-191,446	416,009	0,044	0,067
-190,431	76,749	0,135	0,102
-189,417	-200,000	-0,015	0,083
-188,402	-107,618	0,109	0,017
-187,387	-200,000	-0,009	-0,037
-186,373	24,478	-0,022	0,013
-185,358	155,013	0,090	-0,088
-184,344	501,341	0,059	0,097
-183,329	-103,338	-0,023	0,004
-182,315	-156,766	0,155	0,007
-181,300	-160,661	0,126	-0,005
-180,285	318,495	-0,107	-0,144
-179,271	119,014	-0,112	0,098
-178,256	800,000	0,032	-0,064
-177,242	219,310	0,107	-0,122
-176,227	-97,074	-0,005	-0,001
-175,212	-106,945	0,077	-0,012
-174,198	76,853	-0,042	0,031
-173,183	582,592	0,024	-0,042
-172,169	800,000	0,070	-0,195
-171,154	-123,829	-0,147	-0,016
-170,139	800,000	-0,075	0,191
-169,125	-176,485	-0,235	0,004
-168,110	-193,917	0,191	-0,001
-167,096	-200,000	0,030	-0,128
-166,081	800,000	0,041	0,100
-165,066	-200,000	-0,005	0,022
-164,052	-11,784	-0,041	0,019
-163,037	563,368	-0,046	0,079
-162,023	-200,000	0,005	-0,128
-161,008	292,216	0,094	-0,122
-159,993	320,280	0,106	0,142
-158,979	16,498	-0,085	0,048
-157,964	-200,000	-0,001	0,026
-156,950	-200,000	0,031	-0,130
-155,935	-186,693	0,098	0,001
-154,920	-99,763	0,063	0,011
-153,906	-200,000	0,009	0,045
-152,891	-77,694	-0,031	-0,008
-151,877	37,900	-0,076	-0,048
-150,862	800,000	0,014	0,042
-149,847	-200,000	0,015	-0,061
-148,833	-200,000	-0,008	0,098
-147,818	407,853	0,042	0,064
-146,804	-200,000	0,004	0,071
-145,789	148,922	0,061	0,059
-144,775	800,000	-0,037	0,105
-143,760	459,511	0,044	-0,069
-142,745	85,957	-0,059	0,046
-141,731	71,742	0,034	0,025
-140,716	272,852	-0,037	-0,047
-139,702	-128,422	0,095	-0,009
-138,687	-133,305	0,140	0,012
-137,672	83,796	-0,076	0,059
-136,658	-200,000	0,020	-0,129
-135,643	-200,000	-0,021	-0,138
-134,629	317,215	0,013	-0,018
-133,614	-200,000	0,053	-0,177
-132,599	356,289	0,019	-0,027
-131,585	242,548	-0,086	0,102
-130,570	-63,294	0,062	0,018
-129,556	-200,000	0,020	-0,126
-128,541	415,799	0,058	-0,087
-127,526	40,091	0,021	-0,013
-126,512	688,562	0,071	-0,131
-125,497	800,000	0,060	0,166
-124,483	800,000	0,014	-0,027
-123,468	-96,743	-0,102	-0,019
-122,453	800,000	0,032	-0,087
-121,439	-84,018	0,104	-0,023
-120,424	-67,332	-0,076	-0,021
-119,410	65,738	0,055	-0,039
-118,395	800,000	-0,024	0,055
-117,380	-200,000	-0,007	0,113
-116,366	800,000	-0,033	-0,100
-115,351	-10,516	0,075	-0,035
-114,337	-200,000	0,019	-0,180
-113,322	-186,654	0,080	-0,001
-112,307	-62,071	-0,081	-0,024
-111,293	-123,341	0,055	0,006
-110,278	335,508	0,060	0,083
-109,264	-200,000	-0,007	0,048
-108,249	800,000	0,026	-0,078
-107,234	547,332	-0,023	-0,038
-106,220	10,102	-0,077	0,041
-105,205	16,425	0,033	-0,018
-104,191	-127,421	0,052	-0,005
-103,176	258,997	0,081	0,099
-102,162	36,546	-0,121	-0,075
-101,147	-25,127	0,081	0,034
-100,132	45,129	0,026	-0,017
-99,118	-43,065	-0,110	-0,039
-98,103	213,742	-0,096	-0,107
-97,089	-93,936	0,091	0,018
-96,074	-200,000	0,005	0,099
-95,059	-200,000	0,003	0,025
-94,045	238,395	-0,032	0,037
-93,030	-200,000	0,030	-0,095
-92,016	3,287	-0,118	0,060
-91,001	-70,398	0,088	-0,023
-89,986	-200,000	0,015	0,126
-88,972	85,535	0,081	0,063
-87,957	800,000	0,078	0,241
-86,943	113,735	-0,068	0,059
-85,928	16,241	0,137	-0,076
-84,913	60,440	-0,073	0,051
-83,899	562,390	0,017	-0,030
-82,884	-200,000	0,018	0,126
-81,870	171,858	-0,067	0,068
-80,855	-176,276	0,085	-0,002
-79,840	-118,907	0,064	0,008
-78,826	-200,000	-0,012	0,094
-77,811	72,260	0,042	0,031
-76,797	-80,984	0,122	-0,028
-75,782	-14,157	0,101	0,046
-74,767	-200,000	0,026	-0,095
-73,753	86,837	-0,070	0,055
-72,738	800,000	-0,049	-0,102
-71,724	6,206	0,104	0,055
-70,709	-200,000	0,009	-0,129
-69,694	-95,275	-0,154	-0,029
-68,680	-82,148	0,201	-0,046
-67,665	-185,544	-0,051	0,001
-66,651	132,740	0,056	0,051
-65,636	800,000	0,011	-0,027
-64,622	-37,297	-0,092	-0,034
-63,607	-65,959	-0,175	0,049
-62,592	55,588	-0,060	0,041
-61,578	-51,359	-0,098	-0,032
-60,563	-111,961	0,059	0,008
-59,549	2,202	-0,082	0,041
-58,534	63,317	-1,991	-1,407
-57,519	711,331	-1,094	-2,053
-56,505	-200,000	-0,214	-4,265
-55,490	611,145	0,896	1,588
-54,476	800,000	5,087	11,279
-53,461	-200,000	21,555	341,446
-52,446	800,000	761,740	2329,516
-51,432	543,819	1658,580	2804,751
-50,417	70,907	1655,194	1208,477
-49,403	17,102	1529,162	853,138
-48,388	11,194	1452,943	782,129
-47,373	19,218	1444,687	816,041
-46,359	14,642	1433,677	788,101
-45,344	9,537	1429,508	761,544
-44,330	9,435	1427,875	760,158
-43,315	9,424	1426,081	759,125
-42,300	9,447	1424,030	758,108
-41,286	9,453	1422,951	757,532
-40,271	9,431	1421,906	756,845
-39,257	9,427	1420,534	756,062
-38,242	9,476	1419,341	755,631
-37,227	9,465	1418,361	755,024
-36,213	9,450	1417,184	754,300
-35,198	9,527	1415,578	753,778
-34,184	9,526	1414,952	753,409
-33,169	9,401	1413,610	752,079
-32,154	9,465	1412,475	751,743
-31,140	9,443	1411,266	750,966
-30,125	9,464	1410,249	750,495
-29,111	9,466	1409,007	749,814
-28,096	9,430	1407,731	748,936
-27,082	9,399	1406,556	748,136
-26,067	9,380	1405,509	747,461
-25,052	9,386	1404,669	747,014
-24,038	9,448	1403,519	746,662
-23,023	9,390	1402,658	745,902
-22,009	9,366	1401,656	745,226
-20,994	9,416	1400,620	744,880
-19,979	9,418	1399,766	744,407
-18,965	9,357	1398,911	743,637
-17,950	9,325	1397,778	742,858
-16,936	9,358	1396,881	742,505
-15,921	9,309	1396,161	741,867
-14,906	9,324	1395,081	741,330
-13,892	9,396	1393,788	740,948
-12,877	9,339	1393,261	740,377
-11,863	9,305	1392,509	739,791
-10,848	9,315	1391,493	739,265
-9,833	9,223	1390,720	738,401
-8,819	9,233	1389,855	737,959
-7,804	9,223	1388,898	737,375
-6,790	9,249	1387,672	736,815
-5,775	9,198	1386,811	736,094
-4,760	9,271	1385,624	735,769
-3,746	9,270	1384,802	735,301
-2,731	9,278	1383,886	734,821
-1,717	9,222	1383,009	734,070
-0,702	9,216	1381,339	733,124
0,313	13,350	1293,738	705,436
1,327	29,685	685,300	410,461
2,342	46,090	118,212	77,055
3,356	2,571	16,400	8,351
4,371	-4,435	3,629	1,763
5,386	-9,430	1,126	0,528
6,400	800,000	0,267	0,596
7,415	432,009	-0,126	-0,193
8,429	-95,920	-0,280	-0,052
9,444	55,286	-0,270	-0,184
10,459	35,373	-0,251	-0,155
11,473	-2,978	-0,365	-0,179
12,488	171,293	-0,258	-0,261
13,502	174,254	-0,311	-0,317
14,517	18,439	-0,347	-0,195
15,531	96,576	-0,393	-0,317
16,546	-103,666	-0,329	-0,054
17,561	85,943	-0,429	-0,332
18,575	-86,330	-0,313	-0,067
19,590	-13,648	-0,308	-0,140
20,604	111,007	-0,151	-0,128
21,619	-19,894	-0,447	-0,193
22,634	308,588	-0,256	-0,337
23,648	150,461	-0,365	-0,349
24,663	92,454	-0,349	-0,277
25,677	88,778	-0,317	-0,248
26,692	27,075	-0,469	-0,276
27,707	86,146	-0,302	-0,234
28,721	29,918	-0,350	-0,210
29,736	87,145	-0,431	-0,335
30,750	163,294	-0,362	-0,358
31,765	21,314	-0,413	-0,235
32,780	26,388	-0,553	-0,324
33,794	71,648	-0,269	-0,196
34,809	34,256	-0,393	-0,241
35,823	78,825	-0,292	-0,219
36,838	70,419	-0,459	-0,334
37,853	36,147	-0,354	-0,219
38,867	103,733	-0,358	-0,296
39,882	221,023	-0,282	-0,318
40,896	-13,677	-0,411	-0,186
41,911	145,974	-0,388	-0,366
42,926	-45,758	-0,403	-0,139
43,940	51,799	-0,375	-0,250
44,955	87,318	-0,383	-0,297
45,969	327,065	-0,287	-0,387
46,984	162,478	-0,290	-0,286
47,999	30,097	-0,453	-0,271
49,013	3,235	-0,322	-0,164
50,028	12,559	-0,307	-0,166
51,042	121,357	-0,325	-0,285
52,057	44,140	-0,299	-0,192
53,071	62,452	-0,335	-0,235
54,086	54,277	-0,385	-0,260
55,101	286,555	-0,262	-0,332
56,115	92,590	-0,319	-0,253
57,130	141,983	-0,264	-0,246
58,144	150,643	-0,174	-0,166
59,159	103,209	-0,358	-0,294
60,174	362,454	-0,243	-0,343
61,188	122,946	-0,257	-0,226
62,203	69,147	-0,292	-0,211
63,217	199,312	-0,281	-0,302
64,232	38,695	-0,360	-0,225
65,247	84,529	-0,257	-0,197
66,261	242,103	-0,216	-0,253
67,276	93,766	-0,399	-0,317
68,290	5,632	-0,286	-0,148
69,305	33,646	-0,323	-0,197
70,320	-24,230	-0,297	-0,124
71,334	-33,587	-0,220	-0,085
72,349	50,414	-0,276	-0,183
73,363	62,400	-0,367	-0,256
74,378	79,888	-0,236	-0,178
75,393	23,070	-0,333	-0,191
76,407	130,398	-0,230	-0,207
77,422	-59,528	-0,226	-0,068
78,436	-87,149	-0,451	-0,095
79,451	-52,927	-0,297	-0,095
80,466	61,715	-0,304	-0,211
81,480	76,117	-0,349	-0,258
82,495	115,001	-0,248	-0,212
83,509	-33,753	-0,333	-0,128
84,524	17,609	-0,107	-0,060
85,539	151,656	-0,145	-0,138
86,553	-70,837	-0,375	-0,098
87,568	-56,206	-0,346	-0,107
88,582	25,566	-0,369	-0,214
89,597	65,240	-0,251	-0,177
90,611	60,343	-0,218	-0,150
91,626	-28,493	-0,236	-0,095
92,641	-139,132	-0,303	-0,023
93,655	170,178	-0,173	-0,173
94,670	94,282	-0,271	-0,215
95,684	236,707	-0,227	-0,263
96,699	-78,243	-0,386	-0,092
97,714	80,723	-0,244	-0,184
98,728	32,379	-0,309	-0,186
99,743	-97,888	-0,225	-0,040
100,757	422,394	-0,204	-0,307
101,772	77,743	-0,351	-0,261
102,787	121,384	-0,289	-0,251
103,801	286,020	-0,248	-0,314
104,816	125,339	-0,293	-0,258
105,830	71,920	-0,289	-0,210
106,845	-37,198	-0,206	-0,077
107,860	15,444	-0,282	-0,154
108,874	408,829	-0,185	-0,275
109,889	356,245	-0,193	-0,269
110,903	160,909	-0,194	-0,190
111,918	27,830	-0,263	-0,155
112,933	-4,061	-0,261	-0,126
113,947	95,030	-0,236	-0,187
114,962	-116,133	-0,217	0,028
115,976	52,665	-0,298	-0,199
116,991	232,119	-0,184	-0,211
118,006	134,838	-0,314	-0,285
119,020	-27,604	-0,203	-0,082
120,035	73,940	-0,234	-0,171
121,049	54,901	-0,170	-0,115
122,064	58,078	-0,144	-0,098
123,079	15,994	-0,175	-0,096
124,093	225,363	-0,218	-0,247
125,108	800,000	-0,148	-0,299
126,122	42,920	-0,184	-0,117
127,137	-127,414	-0,202	-0,020
128,151	143,281	-0,170	-0,158
129,166	66,293	-0,191	-0,135
130,181	627,458	-0,207	-0,367
131,195	-60,417	-0,254	-0,075
132,210	382,985	-0,207	-0,297
133,224	45,885	-0,182	-0,117
134,239	244,161	-0,124	-0,146
135,254	120,350	-0,244	-0,211
136,268	28,679	-0,210	-0,124
137,283	-42,082	-0,195	-0,069
138,297	114,040	-0,233	-0,198
139,312	-48,820	-0,286	-0,095
140,327	68,046	-0,243	-0,173
141,341	53,693	-0,224	-0,149
142,356	80,268	-0,137	-0,103
143,370	18,730	-0,196	-0,109
144,385	24,549	-0,319	-0,183
145,400	61,972	-0,344	-0,238
146,414	31,153	-0,261	-0,156
147,429	-32,483	-0,243	-0,094
148,443	92,682	-0,335	-0,263
149,458	102,237	-0,159	-0,129
150,473	113,038	-0,129	-0,109
151,487	240,942	-0,209	-0,243
152,502	317,479	-0,264	-0,349
153,516	420,814	-0,203	-0,303
154,531	236,279	-0,195	-0,225
155,546	232,713	-0,098	-0,112
156,560	130,502	-0,111	-0,099
157,575	25,878	-0,232	-0,134
158,589	119,546	-0,286	-0,246
159,604	-98,763	-0,317	-0,056
160,619	138,494	-0,296	-0,271
161,633	276,522	-0,140	-0,173
162,648	800,000	-0,128	-0,263
163,662	61,111	-0,096	-0,066
164,677	182,553	-0,169	-0,173
165,692	-92,295	-0,228	0,044
166,706	275,499	-0,186	-0,230
167,721	140,434	-0,346	-0,317
168,735	9,939	-0,366	-0,192
169,750	350,214	-0,173	-0,239
170,764	309,072	-0,172	-0,224
171,779	138,510	-0,161	-0,147
172,794	34,975	-0,215	-0,131
173,808	19,811	-0,229	-0,128
174,823	-21,650	-0,273	-0,115
175,837	166,650	-0,218	-0,215
176,852	594,228	-0,082	-0,141
177,867	-81,321	-0,218	-0,049
178,881	-78,185	-0,270	-0,064
179,896	-200,000	-0,023	-0,162
180,910	42,526	-0,253	-0,159
181,925	10,985	-0,280	-0,148
182,940	4,715	-0,159	-0,081
183,954	73,606	-0,278	-0,202
184,969	287,026	-0,225	-0,282
185,983	43,682	-0,123	-0,078
186,998	178,607	-0,193	-0,196
188,013	116,911	-0,205	-0,175
189,027	-52,257	-0,274	-0,088
190,042	196,569	-0,249	-0,263
191,056	219,014	-0,187	-0,207
192,071	-95,870	-0,158	0,029
193,086	-73,454	-0,328	-0,082
194,100	222,533	-0,080	-0,089
195,115	-146,741	-0,158	-0,009
196,129	214,923	-0,153	-0,168
197,144	31,195	-0,278	-0,165
198,159	-34,128	-0,204	-0,077
199,173	-37,652	-0,190	-0,070
200,188	-171,634	-0,222	-0,005
201,202	-3,321	-0,103	-0,049
202,217	63,268	-0,164	-0,114
203,232	587,164	-0,187	-0,320
204,246	119,614	-0,205	-0,176
205,261	243,262	-0,139	-0,161
206,275	-85,190	-0,292	-0,063
207,290	-155,139	-0,182	0,008
208,304	800,000	-0,045	-0,125
209,319	-83,007	-0,240	-0,053
210,334	735,990	-0,087	-0,162
211,348	33,283	-0,225	-0,135
212,363	0,943	-0,263	-0,130
213,377	308,587	-0,167	-0,216
214,392	-4,676	-0,160	-0,076
215,407	-184,281	-0,157	-0,002
216,421	225,611	-0,158	-0,177
217,436	149,913	-0,275	-0,258
218,450	-200,000	0,006	-0,202
219,465	170,859	-0,335	-0,333
220,480	58,120	-0,124	-0,084
221,494	214,686	-0,130	-0,143
222,509	800,000	-0,019	0,053
223,523	499,353	-0,164	-0,262
224,538	42,342	-0,250	-0,157
225,553	16,323	-0,273	-0,149
226,567	-130,852	-0,250	-0,023
227,582	800,000	-0,188	-0,375
228,596	-57,372	-0,129	-0,039
229,611	-200,000	-0,003	0,025
230,626	17,708	-0,228	-0,125
231,640	373,660	-0,098	-0,139
232,655	190,594	-0,202	-0,210
233,669	97,397	-0,219	-0,174
234,684	6,051	-0,282	-0,144
235,699	50,952	-0,154	-0,101
236,713	226,560	-0,187	-0,210
237,728	560,419	-0,049	-0,082
238,742	162,777	-0,119	-0,116
239,757	135,899	-0,217	-0,195
240,772	64,030	-0,235	-0,163
241,786	118,927	-0,257	-0,219
242,801	268,993	-0,137	-0,166
243,815	36,358	-0,146	-0,089
244,830	800,000	-0,068	-0,162
245,844	-19,331	-0,167	-0,071
246,859	211,460	-0,123	-0,134
247,874	-41,907	-0,184	-0,065
248,888	800,000	-0,069	-0,189
249,903	199,756	-0,113	-0,120
250,917	183,910	-0,100	-0,102
251,932	140,235	-0,151	0,138
252,947	-6,758	-0,241	-0,113
253,961	244,288	-0,116	-0,134
254,976	234,964	-0,190	-0,216
255,990	-13,355	-0,249	-0,111
257,005	-131,636	-0,187	0,017
258,020	-35,301	-0,201	-0,075
259,034	-59,213	-0,146	-0,043
260,049	-130,579	-0,219	0,020
261,063	17,219	-0,175	-0,095
262,078	291,278	-0,070	-0,088
263,093	800,000	-0,119	-0,256
264,107	-7,253	-0,156	-0,073
265,122	593,571	-0,128	-0,219
266,136	-190,367	-0,086	0,001
267,151	31,076	-0,138	-0,082
268,166	748,190	-0,085	-0,159
269,180	-200,000	-0,054	-0,236
270,195	612,017	-0,160	-0,277
271,209	213,635	-0,187	-0,204
272,224	158,795	-0,095	-0,091
273,239	-85,380	-0,226	-0,048
274,253	-90,221	-0,205	-0,041
275,268	-85,957	-0,195	-0,041
276,282	235,300	-0,111	-0,127
277,297	604,071	-0,161	-0,276
278,312	-112,964	-0,173	-0,023
279,326	110,962	-0,116	-0,096
280,341	611,731	-0,101	-0,175
281,355	6,366	-0,072	-0,037
282,370	-153,889	-0,159	0,007
283,384	378,426	-0,108	-0,152
284,399	28,616	-0,190	-0,111
285,414	402,759	-0,060	-0,087
286,428	-15,378	-0,127	-0,056
287,443	107,938	-0,157	-0,129
288,457	195,674	-0,174	-0,182
289,472	61,432	-0,152	-0,104
290,487	98,591	-0,198	-0,157
291,501	266,072	-0,149	-0,179
292,516	-109,924	-0,169	-0,024
293,530	122,839	-0,159	-0,137
294,545	-121,120	-0,145	-0,017
295,560	-200,000	-0,007	-0,037
296,574	-10,537	-0,077	-0,035
297,589	-23,145	-0,186	-0,077
298,603	5,217	-0,196	-0,099
299,618	241,559	-0,131	-0,150
300,633	421,694	-0,143	-0,211
301,647	-173,965	-0,147	0,003
302,662	-72,310	-0,194	-0,049
303,676	-37,391	-0,191	0,070
304,691	126,746	-0,213	-0,185
305,706	-200,000	-0,061	-0,263
306,720	485,166	-0,122	-0,192
307,735	432,328	-0,032	-0,048
308,749	160,940	-0,209	-0,201
309,764	183,858	-0,066	-0,067
310,779	375,268	-0,061	-0,086
311,793	800,000	-0,053	-0,136
312,808	48,770	-0,161	-0,103
313,822	-103,335	-0,202	-0,032
314,837	511,109	-0,079	-0,127
315,852	350,832	-0,164	-0,223
316,866	-47,674	-0,216	-0,072
317,881	427,620	-0,054	-0,080
318,895	800,000	-0,122	-0,253
319,910	-84,220	-0,192	-0,041
320,925	277,928	-0,109	-0,134
321,939	-143,282	-0,238	-0,015
322,954	582,217	-0,090	-0,153
323,968	-200,000	0,010	-0,090
324,983	289,411	-0,055	-0,069
325,997	211,956	-0,214	-0,231
327,012	-200,000	-0,084	-0,000
328,027	24,216	-0,226	-0,128
329,041	345,842	-0,050	-0,068
330,056	175,647	-0,101	-0,101
331,070	800,000	-0,125	-0,281
332,085	11,574	-0,252	-0,132
333,100	68,045	-0,168	-0,118
334,114	21,030	-0,175	-0,097
335,129	484,573	-0,131	-0,204
336,143	212,237	-0,206	-0,223
337,158	800,000	-0,085	-0,169
338,173	-128,015	-0,046	0,004
339,187	-6,723	-0,088	-0,041
340,202	367,434	-0,151	-0,209
341,216	-68,609	-0,202	-0,053
342,231	58,733	-0,074	0,050
343,246	800,000	-0,034	-0,091
344,260	-46,885	-0,233	-0,078
345,275	-48,159	-0,174	-0,057
346,289	-120,561	-0,125	-0,014
347,304	-5,641	-0,169	-0,079
348,319	800,000	-0,099	-0,201
349,333	140,104	-0,211	-0,190
350,348	193,047	-0,070	-0,072
351,362	31,622	-0,073	-0,043
352,377	-200,000	-0,058	-0,212
353,392	-70,529	-0,170	-0,044
354,406	167,766	-0,137	-0,133
355,421	208,844	1306,178	1399,475
356,435	160,717	1465,826	1399,954
