DTS Sentinel unit serial number:	SN410029Multiplexer serial number:	ORYXHardware model number:	OX2-SRSoftware version number:	ORYX F/W v4,00 Oryx Data Collector v3.7.2.0data status	okinstallation	B3 Nyhavnadifferential loss correction	single-endedforward channel	channel 1reverse channel	N/Adate	2023/12/03time	18:07:30forward acquisition time	300,00reverse acquisition time	0,00gamma	499,1914k internal	0,3198k external	0,3198temperature offset calibration	1,0000default loss term (dB/km)	0,3820temperature slope calibration	1,0000multiplexer offset coefficient	1,0000multiplexer slope coefficient	1,0000fibre end	0,00T internal ref (°C)	14,68T ext. ref 1 (°C)	-0,67T ext. ref 2 (°C)	-0,69length (m)	temperature (°C)	Stokes	anti-Stokes-744,400	735,162	-0,097	-0,191
-743,385	-200,000	0,092	0,299
-742,371	280,762	-0,149	-0,194
-741,356	-200,000	0,056	0,356
-740,342	183,750	-0,181	-0,195
-739,327	-200,000	-0,066	0,458
-738,312	51,324	-0,223	-0,154
-737,298	-200,000	0,033	0,313
-736,283	-200,000	-0,010	-0,195
-735,269	620,097	0,226	0,416
-734,254	334,294	-0,162	-0,228
-733,239	129,838	-0,216	0,201
-732,225	381,343	-0,124	-0,186
-731,210	-200,000	-0,003	0,111
-730,196	-200,000	0,005	-0,172
-729,181	2,149	0,017	-0,009
-728,167	800,000	0,025	-0,066
-727,152	27,330	0,125	0,076
-726,137	-41,439	0,041	0,015
-725,123	-27,230	-0,117	-0,050
-724,108	-200,000	0,013	0,049
-723,094	-76,147	-0,041	0,011
-722,079	-74,102	-0,092	0,024
-721,064	-111,777	-0,131	-0,019
-720,050	-110,837	0,098	0,015
-719,035	26,981	-0,105	0,064
-718,021	301,042	-0,047	0,063
-717,006	8,935	-0,111	-0,061
-715,991	-200,000	0,007	-0,134
-714,977	-167,285	-0,122	0,004
-713,962	-26,074	0,078	-0,033
-712,948	185,396	-0,028	0,030
-711,933	-100,238	-0,147	0,026
-710,918	-200,000	-0,022	-0,127
-709,904	245,109	-0,112	-0,138
-708,889	-200,000	0,004	-0,084
-707,875	-200,000	0,022	-0,116
-706,860	113,455	0,092	-0,082
-705,845	31,278	0,108	-0,067
-704,831	-52,544	0,072	-0,024
-703,816	479,320	0,045	0,074
-702,802	800,000	0,042	-0,092
-701,787	51,278	-0,146	-0,101
-700,772	-26,077	0,091	-0,039
-699,758	-30,247	-0,088	0,036
-698,743	800,000	-0,009	-0,022
-697,729	-200,000	-0,005	-0,029
-696,714	-142,253	0,092	0,007
-695,699	-200,000	0,013	-0,068
-694,685	-200,000	-0,009	-0,174
-693,670	24,093	-0,053	0,032
-692,656	-200,000	0,033	-0,108
-691,641	-78,089	-0,142	0,035
-690,627	800,000	-0,044	0,127
-689,612	292,439	0,024	-0,032
-688,597	10,311	0,019	-0,010
-687,583	-200,000	0,035	-0,131
-686,568	62,979	-0,100	0,073
-685,554	53,110	-0,057	-0,040
-684,539	324,917	0,044	-0,062
-683,524	19,709	-0,070	0,041
-682,510	111,360	0,054	-0,048
-681,495	-200,000	-0,013	-0,047
-680,481	-20,998	0,033	-0,015
-679,466	-200,000	0,004	-0,187
-678,451	-200,000	-0,031	-0,178
-677,437	720,501	0,093	0,181
-676,422	-200,000	0,025	0,101
-675,408	-200,000	0,000	0,028
-674,393	49,829	0,096	0,065
-673,378	58,677	-0,158	-0,112
-672,364	800,000	-0,037	-0,102
-671,349	-78,796	-0,107	-0,026
-670,335	73,346	0,144	0,109
-669,320	-200,000	0,003	0,045
-668,305	139,010	0,056	0,054
-667,291	291,332	0,102	-0,136
-666,276	800,000	-0,056	-0,116
-665,262	-200,000	0,034	-0,156
-664,247	-200,000	0,026	-0,163
-663,232	-14,318	-0,026	0,012
-662,218	38,179	-0,093	-0,060
-661,203	-200,000	0,012	0,042
-660,189	59,005	-0,101	0,072
-659,174	179,460	-0,111	-0,118
-658,159	259,045	0,021	-0,026
-657,145	134,498	-0,042	0,040
-656,130	-200,000	0,026	0,130
-655,116	-156,700	-0,073	-0,003
-654,101	422,734	0,048	0,076
-653,086	-200,000	-0,005	0,079
-652,072	-87,685	-0,196	-0,042
-651,057	-31,904	-0,032	0,013
-650,043	81,063	-0,138	0,108
-649,028	585,136	-0,053	-0,095
-648,014	-200,000	-0,011	0,130
-646,999	-102,755	-0,121	0,021
-645,984	-114,775	0,117	-0,016
-644,970	6,425	-0,088	-0,047
-643,955	4,602	0,049	0,026
-642,941	800,000	-0,029	0,083
-641,926	-78,411	-0,061	0,015
-640,911	-100,833	0,089	0,016
-639,897	-74,018	-0,094	-0,024
-638,882	104,287	0,053	-0,045
-637,868	107,172	-0,058	0,050
-636,853	527,606	0,038	-0,065
-635,838	800,000	-0,042	-0,091
-634,824	800,000	0,053	-0,139
-633,809	690,230	0,035	0,068
-632,795	346,723	-0,103	0,147
-631,780	-200,000	0,032	0,173
-630,765	67,273	0,015	-0,011
-629,751	533,343	-0,118	-0,203
-628,736	424,557	-0,059	-0,092
-627,722	-200,000	0,009	0,084
-626,707	-24,047	0,104	0,045
-625,692	-200,000	-0,008	-0,170
-624,678	112,183	-0,069	0,060
-623,663	-141,424	0,125	-0,009
-622,649	-116,060	-0,007	0,001
-621,634	495,905	-0,080	-0,134
-620,619	145,609	-0,044	0,043
-619,605	-168,259	0,065	-0,002
-618,590	47,217	0,027	0,018
-617,576	460,139	0,009	0,015
-616,561	-200,000	0,004	-0,055
-615,546	283,998	-0,060	0,078
-614,532	199,012	-0,054	-0,060
-613,517	-15,926	0,199	-0,091
-612,503	-120,468	-0,168	0,020
-611,488	-200,000	0,015	0,050
-610,474	-15,459	-0,088	-0,041
-609,459	-200,000	0,016	0,118
-608,444	800,000	-0,033	0,102
-607,430	-200,000	0,018	-0,070
-606,415	-141,869	0,191	0,014
-605,401	63,833	-0,056	-0,041
-604,386	13,484	-0,062	0,035
-603,371	-97,817	0,040	-0,007
-602,357	271,153	-0,107	-0,137
-601,342	10,065	-0,148	-0,081
-600,328	30,287	-0,127	0,078
-599,313	660,944	0,014	-0,025
-598,298	-20,342	0,040	-0,018
-597,284	800,000	0,024	-0,057
-596,269	175,805	-0,036	-0,038
-595,255	-200,000	0,010	-0,109
-594,240	-166,028	-0,118	0,004
-593,225	-200,000	0,014	-0,133
-592,211	121,959	-0,089	-0,081
-591,196	-200,000	0,014	-0,119
-590,182	-19,690	0,086	-0,038
-589,167	41,190	-0,047	-0,031
-588,152	38,689	0,057	-0,037
-587,138	-200,000	-0,003	-0,031
-586,123	188,212	-0,005	0,006
-585,109	597,593	-0,060	-0,108
-584,094	115,137	-0,037	-0,033
-583,079	800,000	0,088	0,178
-582,065	282,355	0,035	0,045
-581,050	-17,878	-0,095	0,043
-580,036	800,000	-0,090	-0,200
-579,021	-200,000	-0,021	-0,126
-578,006	90,898	0,100	0,081
-576,992	17,367	0,047	0,027
-575,977	320,293	0,059	0,081
-574,963	-200,000	0,003	0,128
-573,948	42,787	0,103	0,068
-572,934	333,513	-0,042	0,059
-571,919	123,396	-0,074	-0,067
-570,904	-2,047	0,100	-0,051
-569,890	4,204	-0,146	-0,077
-568,875	-88,745	0,135	-0,029
-567,861	552,590	0,062	0,108
-566,846	343,074	-0,011	0,016
-565,831	-141,234	-0,089	0,006
-564,817	106,522	-0,120	0,102
-563,802	-62,788	-0,141	-0,042
-562,788	-48,668	-0,041	-0,014
-561,773	111,212	0,060	-0,052
-560,758	89,395	-0,072	0,058
-559,744	-102,527	0,033	0,006
-558,729	-79,231	0,120	-0,029
-557,715	1,959	0,049	-0,025
-556,700	-1,855	-0,041	-0,021
-555,685	-176,267	-0,123	0,002
-554,671	-41,917	0,126	-0,046
-553,656	-200,000	0,038	0,130
-552,642	-200,000	0,032	0,131
-551,627	-50,867	-0,111	0,037
-550,612	220,906	0,129	-0,150
-549,598	-152,812	0,041	-0,002
-548,583	-200,000	-0,015	-0,135
-547,569	-51,651	-0,043	-0,014
-546,554	-200,000	-0,001	0,056
-545,539	-200,000	0,003	0,108
-544,525	-54,357	-0,096	-0,031
-543,510	-134,424	-0,082	0,007
-542,496	430,890	0,030	0,047
-541,481	0,940	0,075	0,038
-540,466	374,577	-0,038	0,056
-539,452	602,731	0,086	0,154
-538,437	800,000	-0,066	0,173
-537,423	40,003	-0,071	0,046
-536,408	137,215	-0,040	-0,037
-535,393	800,000	0,059	-0,162
-534,379	800,000	-0,105	-0,225
-533,364	-200,000	-0,004	0,137
-532,350	283,696	0,126	0,164
-531,335	133,221	0,024	-0,023
-530,321	800,000	0,049	0,131
-529,306	-200,000	0,028	0,160
-528,291	-200,000	0,002	-0,077
-527,277	743,533	-0,050	-0,097
-526,262	-200,000	0,002	-0,044
-525,248	800,000	-0,012	0,028
-524,233	-200,000	0,002	-0,080
-523,218	-200,000	0,010	0,130
-522,204	800,000	0,018	-0,041
-521,189	-124,597	-0,135	0,015
-520,175	800,000	-0,040	-0,117
-519,160	-200,000	0,016	0,000
-518,145	-2,823	0,081	0,041
-517,131	-61,639	0,078	0,024
-516,116	-39,615	-0,043	-0,016
-515,102	416,328	0,068	0,105
-514,087	32,759	-0,061	-0,038
-513,072	-200,000	-0,028	-0,153
-512,058	-10,213	-0,049	0,023
-511,043	244,124	0,026	0,031
-510,029	73,654	0,104	-0,079
-509,014	202,173	0,078	-0,087
-507,999	37,188	-0,075	0,048
-506,985	84,139	-0,128	-0,100
-505,970	-200,000	-0,011	-0,116
-504,956	294,615	0,042	-0,055
-503,941	10,822	0,025	-0,014
-502,926	-77,844	-0,110	0,027
-501,912	69,717	-0,013	-0,009
-500,897	75,317	0,132	-0,101
-499,883	118,445	0,078	-0,069
-498,868	-132,742	-0,091	-0,008
-497,853	156,217	0,085	-0,085
-496,839	800,000	-0,029	-0,075
-495,824	109,684	0,043	-0,037
-494,810	800,000	0,077	0,213
-493,795	-145,025	-0,049	0,003
-492,781	-170,012	-0,039	0,001
-491,766	798,266	-0,044	-0,087
-490,751	109,610	0,050	0,043
-489,737	-200,000	-0,007	0,075
-488,722	153,144	-0,039	0,039
-487,708	-200,000	0,026	0,097
-486,693	-200,000	-0,011	0,075
-485,678	800,000	-0,046	-0,142
-484,664	119,649	-0,072	-0,065
-483,649	237,692	0,028	0,034
-482,635	-200,000	-0,041	-0,286
-481,620	-200,000	-0,001	-0,083
-480,605	-163,738	0,062	0,002
-479,591	800,000	-0,046	0,102
-478,576	406,579	-0,031	-0,048
-477,562	800,000	-0,023	-0,050
-476,547	-78,252	-0,068	-0,017
-475,532	-67,287	-0,021	0,006
-474,518	-200,000	-0,007	-0,074
-473,503	-200,000	0,012	0,077
-472,489	-37,078	0,090	-0,034
-471,474	259,210	-0,023	-0,028
-470,459	222,487	-0,085	-0,099
-469,445	-200,000	-0,010	-0,123
-468,430	97,003	-0,109	-0,090
-467,416	66,859	0,117	0,086
-466,401	-200,000	-0,006	0,117
-465,386	-200,000	-0,023	0,139
-464,372	800,000	0,048	-0,145
-463,357	84,508	0,047	-0,037
-462,343	-139,416	-0,136	0,010
-461,328	224,928	-0,026	-0,030
-460,313	-66,339	0,115	0,033
-459,299	21,652	0,092	0,054
-458,284	-200,000	0,010	0,110
-457,270	91,463	0,041	0,034
-456,255	800,000	0,014	0,036
-455,241	518,529	-0,041	0,070
-454,226	-116,705	-0,145	-0,019
-453,211	293,784	0,055	-0,072
-452,197	120,591	0,062	0,056
-451,182	-200,000	0,003	0,223
-450,168	-200,000	0,001	0,063
-449,153	620,055	0,021	0,037
-448,138	-181,841	0,096	-0,001
-447,124	94,745	-0,081	-0,066
-446,109	-200,000	0,011	-0,132
-445,095	136,448	0,092	-0,086
-444,080	800,000	0,024	0,062
-443,065	402,802	-0,069	0,105
-442,051	277,016	0,069	0,089
-441,036	78,583	-0,088	0,068
-440,022	592,217	-0,029	-0,052
-439,007	368,966	-0,031	-0,046
-437,992	-94,315	-0,038	-0,007
-436,978	-200,000	0,025	-0,087
-435,963	-96,807	-0,071	-0,013
-434,949	208,290	0,058	0,065
-433,934	151,887	-0,022	0,022
-432,919	182,861	0,044	-0,046
-431,905	-44,517	0,125	-0,045
-430,890	272,348	0,013	0,016
-429,876	-200,000	0,025	0,087
-428,861	52,871	0,081	-0,056
-427,846	-41,184	0,015	0,006
-426,832	337,617	-0,043	-0,061
-425,817	-166,724	-0,060	0,002
-424,803	-25,689	0,020	-0,009
-423,788	153,813	-0,037	0,037
-422,773	331,230	-0,033	0,046
-421,759	-99,249	0,052	0,009
-420,744	-154,365	-0,042	-0,002
-419,730	-57,104	0,078	0,024
-418,715	-64,141	-0,060	-0,018
-417,701	-200,000	0,003	0,075
-416,686	479,791	0,050	-0,081
-415,671	99,741	0,100	0,083
-414,657	-3,049	0,073	-0,036
-413,642	-70,990	-0,134	0,036
-412,628	800,000	-0,027	-0,065
-411,613	167,014	-0,157	-0,161
-410,598	-200,000	0,003	-0,040
-409,584	-200,000	-0,010	0,171
-408,569	774,075	-0,032	0,063
-407,555	584,932	-0,013	-0,024
-406,540	-157,642	-0,032	-0,001
-405,525	4,763	0,072	-0,038
-404,511	800,000	-0,060	-0,159
-403,496	450,791	-0,020	-0,031
-402,482	186,221	-0,063	0,067
-401,467	-25,951	0,027	-0,012
-400,452	-200,000	0,107	0,000
-399,438	68,399	0,057	0,042
-398,423	800,000	0,015	0,031
-397,409	-95,285	-0,142	0,027
-396,394	21,872	0,039	-0,023
-395,379	160,981	0,054	0,054
-394,365	-134,403	-0,035	-0,003
-393,350	57,450	0,062	-0,043
-392,336	-200,000	0,013	-0,052
-391,321	-82,244	-0,076	0,018
-390,306	17,127	-0,089	-0,050
-389,292	73,814	-0,098	-0,074
-388,277	16,785	-0,052	0,030
-387,263	-67,305	0,164	-0,046
-386,248	-200,000	0,015	0,177
-385,233	329,485	-0,040	0,055
-384,219	-37,646	0,105	0,040
-383,204	596,642	0,017	-0,031
-382,190	-137,859	-0,153	-0,012
-381,175	-115,440	0,073	-0,010
-380,160	-117,119	-0,059	0,008
-379,146	-200,000	0,029	0,149
-378,131	197,334	-0,070	0,077
-377,117	-200,000	0,010	-0,038
-376,102	-27,825	-0,068	0,028
-375,088	579,591	0,033	-0,058
-374,073	-200,000	-0,011	0,109
-373,058	-61,348	0,105	-0,032
-372,044	-159,379	0,141	0,006
-371,029	308,736	-0,096	-0,129
-370,015	800,000	-0,045	-0,092
-369,000	-116,643	0,033	0,004
-367,985	-146,648	0,057	-0,004
-366,971	-68,950	-0,095	-0,026
-365,956	-146,907	0,074	0,004
-364,942	-166,311	0,095	0,003
-363,927	8,862	0,075	-0,041
-362,912	-101,244	0,151	-0,026
-361,898	320,949	-0,047	-0,064
-360,883	-200,000	0,057	-0,271
-359,869	-17,491	-0,084	-0,038
-358,854	127,597	0,098	0,090
-357,839	352,277	-0,094	0,134
-356,825	800,000	-0,050	0,129
-355,810	53,928	0,095	0,065
-354,796	-200,000	-0,013	-0,125
-353,781	-6,511	0,045	0,022
-352,766	338,650	0,051	-0,072
-351,752	-70,168	-0,062	-0,017
-350,737	-70,863	-0,014	0,004
-349,723	800,000	0,048	-0,108
-348,708	-164,956	0,086	-0,003
-347,693	162,430	-0,048	-0,048
-346,679	607,886	-0,038	-0,068
-345,664	-200,000	-0,003	-0,052
-344,650	119,540	-0,017	-0,015
-343,635	90,232	0,099	-0,079
-342,620	514,648	-0,065	-0,110
-341,606	77,182	0,075	0,057
-340,591	-200,000	-0,001	0,073
-339,577	-200,000	-0,004	-0,129
-338,562	618,290	-0,054	-0,097
-337,548	46,758	0,028	0,019
-336,533	9,361	-0,035	0,019
-335,518	135,898	0,128	-0,119
-334,504	-200,000	-0,021	-0,140
-333,489	-186,366	-0,069	-0,001
-332,475	-115,672	0,119	-0,016
-331,460	-200,000	0,014	-0,093
-330,445	456,522	0,033	-0,052
-329,431	-174,778	-0,019	-0,000
-328,416	800,000	0,035	0,076
-327,402	-91,833	-0,036	-0,007
-326,387	202,539	0,063	-0,070
-325,372	78,955	-0,130	0,099
-324,358	-200,000	0,033	-0,129
-323,343	83,751	-0,124	-0,097
-322,329	800,000	-0,026	-0,066
-321,314	287,415	0,039	-0,050
-320,299	800,000	0,060	0,175
-319,285	-90,572	-0,177	-0,036
-318,270	5,104	-0,053	-0,028
-317,256	439,468	0,077	0,121
-316,241	800,000	-0,038	-0,113
-315,226	-57,559	0,099	0,031
-314,212	-200,000	-0,005	0,100
-313,197	800,000	-0,011	-0,024
-312,183	106,397	0,093	0,079
-311,168	-155,443	-0,023	0,001
-310,153	31,933	-0,136	-0,084
-309,139	-200,000	-0,026	0,131
-308,124	800,000	0,010	-0,023
-307,110	-200,000	-0,001	0,050
-306,095	-160,094	0,226	0,009
-305,080	558,644	-0,065	0,112
-304,066	-14,658	0,083	-0,038
-303,051	-85,261	0,113	-0,025
-302,037	434,108	-0,074	-0,115
-301,022	-200,000	-0,010	0,089
-300,008	204,757	0,088	-0,098
-298,993	4,834	-0,036	0,019
-297,978	-200,000	0,017	0,107
-296,964	-200,000	0,004	0,045
-295,949	800,000	-0,023	-0,059
-294,935	-200,000	-0,006	0,073
-293,920	221,804	0,086	0,099
-292,905	-167,973	0,014	0,000
-291,891	-46,782	0,123	0,043
-290,876	-54,364	0,137	0,044
-289,862	65,731	0,092	-0,067
-288,847	510,304	-0,059	0,098
-287,832	-148,419	-0,067	-0,004
-286,818	800,000	-0,010	-0,029
-285,803	198,913	0,035	-0,038
-284,789	34,225	-0,064	-0,040
-283,774	800,000	-0,046	-0,093
-282,759	-19,101	0,070	0,031
-281,745	-200,000	0,014	-0,057
-280,730	800,000	-0,061	0,180
-279,716	744,877	0,042	0,081
-278,701	-200,000	0,001	0,122
-277,686	800,000	-0,032	0,092
-276,672	800,000	-0,030	0,076
-275,657	270,597	-0,031	0,039
-274,643	-1,872	-0,157	-0,079
-273,628	800,000	0,023	-0,053
-272,613	272,007	0,059	0,075
-271,599	-200,000	-0,012	0,070
-270,584	-200,000	0,016	0,129
-269,570	-200,000	-0,000	-0,008
-268,555	-200,000	-0,012	0,108
-267,540	87,302	-0,129	0,102
-266,526	26,132	-0,170	-0,101
-265,511	-200,000	-0,014	-0,117
-264,497	-35,091	0,079	-0,031
-263,482	-200,000	-0,000	0,009
-262,467	-200,000	-0,001	0,094
-261,453	-54,998	0,064	0,021
-260,438	-88,596	-0,016	0,003
-259,424	-200,000	0,021	-0,078
-258,409	-200,000	-0,017	0,147
-257,395	4,536	-0,159	0,083
-256,380	410,612	0,029	0,044
-255,365	144,468	-0,087	0,083
-254,351	-53,117	0,170	-0,055
-253,336	-200,000	-0,041	-0,164
-252,322	304,681	0,076	-0,101
-251,307	589,842	-0,056	-0,099
-250,292	-105,581	-0,096	-0,015
-249,278	-200,000	0,001	0,125
-248,263	800,000	0,017	0,054
-247,249	530,108	-0,079	0,135
-246,234	-33,355	-0,117	-0,046
-245,219	8,882	0,095	-0,051
-244,205	93,814	0,070	0,056
-243,190	599,944	-0,013	-0,023
-242,176	-170,022	0,141	-0,004
-241,161	800,000	-0,054	-0,146
-240,146	-40,087	-0,087	-0,032
-239,132	-139,433	-0,052	-0,004
-238,117	-200,000	-0,051	-0,180
-237,103	800,000	-0,014	0,036
-236,088	-200,000	0,005	0,016
-235,073	800,000	0,021	-0,058
-234,059	-137,896	-0,060	-0,005
-233,044	107,410	0,104	0,088
-232,030	345,338	-0,116	0,162
-231,015	22,248	-0,084	0,049
-230,000	356,702	-0,019	0,027
-228,986	800,000	-0,013	-0,032
-227,971	-91,279	-0,035	0,007
-226,957	104,008	-0,067	0,056
-225,942	-200,000	-0,039	0,127
-224,927	-200,000	0,019	-0,066
-223,913	33,233	-0,054	-0,034
-222,898	-200,000	0,025	-0,209
-221,884	-62,076	0,060	0,018
-220,869	197,775	0,126	0,137
-219,855	-86,169	-0,049	0,011
-218,840	159,168	0,126	0,125
-217,825	23,516	0,125	-0,073
-216,811	367,714	-0,095	0,138
-215,796	800,000	-0,032	-0,074
-214,782	249,379	0,067	0,081
-213,767	-200,000	0,005	0,115
-212,752	73,582	0,115	0,086
-211,738	13,961	0,045	-0,025
-210,723	800,000	0,014	-0,040
-209,709	800,000	-0,053	-0,127
-208,694	-200,000	0,024	-0,087
-207,679	800,000	-0,047	-0,113
-206,665	-200,000	-0,037	0,185
-205,650	-200,000	0,011	0,104
-204,636	800,000	0,048	0,129
-203,621	181,800	0,067	-0,070
-202,606	80,973	0,037	-0,029
-201,592	-2,740	-0,096	-0,048
-200,577	800,000	-0,034	0,074
-199,563	-200,000	-0,006	-0,112
-198,548	-57,250	-0,111	-0,035
-197,533	-119,514	0,160	-0,019
-196,519	158,081	0,048	-0,048
-195,504	-117,493	-0,107	0,014
-194,490	346,146	0,081	-0,114
-193,475	800,000	-0,034	-0,096
-192,460	-10,346	0,096	0,045
-191,446	99,391	0,066	0,054
-190,431	-37,801	0,098	0,037
-189,417	-135,224	-0,072	0,006
-188,402	88,138	-0,050	0,039
-187,387	15,717	0,076	0,042
-186,373	-200,000	0,041	-0,187
-185,358	-47,620	0,043	0,015
-184,344	282,521	-0,112	0,144
-183,329	-71,460	-0,092	-0,024
-182,315	-18,226	0,105	-0,046
-181,300	470,760	-0,069	-0,111
-180,285	696,636	0,022	0,042
-179,271	-200,000	0,006	0,099
-178,256	133,331	-0,035	0,032
-177,242	-109,510	0,029	-0,004
-176,227	-4,529	0,098	0,048
-175,212	-200,000	-0,004	0,027
-174,198	-61,387	-0,063	0,019
-173,183	-11,890	0,033	0,015
-172,169	72,039	-0,113	0,084
-171,154	-200,000	0,009	0,125
-170,139	428,431	0,058	0,090
-169,125	-200,000	0,004	0,137
-168,110	-200,000	0,058	0,227
-167,096	59,887	0,093	-0,065
-166,081	800,000	0,012	-0,026
-165,066	201,456	0,111	0,122
-164,052	-109,670	-0,125	-0,018
-163,037	-67,292	0,079	0,022
-162,023	800,000	0,023	0,053
-161,008	154,819	0,104	-0,102
-159,993	-109,279	0,113	0,017
-158,979	-173,988	-0,130	0,003
-157,964	-22,848	-0,046	-0,020
-156,950	-168,953	0,023	-0,001
-155,935	800,000	-0,012	0,030
-154,920	375,518	0,033	0,048
-153,906	177,757	0,031	0,032
-152,891	800,000	-0,022	-0,048
-151,877	-200,000	-0,017	-0,097
-150,862	-200,000	-0,004	-0,184
-149,847	-200,000	0,018	0,085
-148,833	-101,872	0,033	-0,006
-147,818	707,958	0,057	-0,107
-146,804	-9,988	-0,024	0,011
-145,789	-91,729	0,067	0,014
-144,775	53,861	0,130	-0,089
-143,760	498,960	0,074	0,121
-142,745	567,774	-0,058	0,100
-141,731	-200,000	-0,004	-0,066
-140,716	-45,967	0,118	0,041
-139,702	-200,000	0,020	-0,099
-138,687	30,513	-0,086	-0,052
-137,672	-200,000	-0,004	-0,132
-136,658	800,000	0,045	-0,116
-135,643	66,409	-0,109	-0,079
-134,629	-24,921	-0,107	-0,045
-133,614	800,000	-0,034	0,070
-132,599	344,592	0,025	0,035
-131,585	-5,730	-0,055	-0,027
-130,570	597,590	-0,022	-0,039
-129,556	-200,000	-0,016	0,051
-128,541	-163,457	-0,044	0,001
-127,526	65,330	0,030	0,022
-126,512	-108,638	-0,050	0,008
-125,497	800,000	0,023	0,052
-124,483	-126,749	-0,096	-0,010
-123,468	308,740	0,051	-0,068
-122,453	54,437	-0,111	-0,076
-121,439	392,352	0,056	-0,083
-120,424	542,608	0,028	-0,047
-119,410	-90,375	0,063	-0,013
-118,395	-200,000	-0,005	0,229
-117,380	-200,000	-0,003	0,133
-116,366	655,892	0,082	-0,151
-115,351	-200,000	0,024	-0,164
-114,337	-84,541	0,120	0,027
-113,322	42,716	-0,123	-0,079
-112,307	515,196	-0,041	0,069
-111,293	61,987	0,048	0,034
-110,278	-64,475	0,146	-0,042
-109,264	36,411	0,059	-0,037
-108,249	-200,000	0,005	-0,098
-107,234	800,000	-0,028	0,056
-106,220	143,775	-0,100	-0,095
-105,205	694,198	0,122	0,229
-104,191	-0,051	0,149	-0,075
-103,176	-200,000	-0,014	-0,079
-102,162	800,000	0,045	0,089
-101,147	-86,676	-0,083	-0,018
-100,132	16,676	-0,140	-0,078
-99,118	-26,972	-0,175	0,072
-98,103	25,433	0,036	0,021
-97,089	-97,176	0,061	0,011
-96,074	800,000	0,022	-0,061
-95,059	304,939	-0,047	-0,063
-94,045	-91,854	-0,116	0,023
-93,030	111,094	0,077	-0,066
-92,016	245,866	-0,122	-0,146
-91,001	800,000	-0,062	-0,181
-89,986	-200,000	0,003	-0,014
-88,972	118,164	0,053	0,047
-87,957	617,013	-0,083	0,148
-86,943	398,143	-0,049	-0,073
-85,928	321,348	-0,121	-0,164
-84,913	541,958	0,060	-0,101
-83,899	153,023	-0,179	-0,173
-82,884	-23,176	-0,077	-0,033
-81,870	243,057	-0,049	0,058
-80,855	-200,000	0,015	0,065
-79,840	332,365	-0,040	0,055
-78,826	-200,000	0,028	-0,290
-77,811	800,000	-0,025	-0,064
-76,797	468,272	-0,030	0,047
-75,782	800,000	-0,050	-0,129
-74,767	-1,890	0,096	-0,048
-73,753	181,451	0,072	0,075
-72,738	271,536	-0,034	0,043
-71,724	596,786	-0,035	0,061
-70,709	-200,000	-0,017	-0,061
-69,694	-200,000	-0,015	0,097
-68,680	800,000	0,028	0,072
-67,665	253,651	0,077	0,093
-66,651	800,000	0,109	0,226
-65,636	-200,000	-0,042	0,000
-64,622	423,353	-0,044	0,068
-63,607	-93,363	-0,169	-0,033
-62,592	-200,000	0,021	-0,109
-61,578	-200,000	-0,028	-0,095
-60,563	86,314	0,101	0,079
-59,549	-200,000	-0,023	0,098
-58,534	-45,613	-1,614	-0,563
-57,519	338,452	-1,560	-2,157
-56,505	-200,000	-0,452	-4,585
-55,490	198,818	1,077	1,170
-54,476	800,000	4,688	10,972
-53,461	-200,000	18,425	294,015
-52,446	800,000	730,109	2249,512
-51,432	558,675	1646,429	2826,063
-50,417	78,976	1666,926	1263,246
-49,403	22,618	1540,054	890,785
-48,388	16,554	1463,283	816,969
-47,373	17,868	1453,244	817,671
-46,359	17,180	1443,721	808,982
-45,344	14,832	1439,002	795,081
-44,330	14,713	1437,209	793,493
-43,315	14,753	1435,344	792,620
-42,300	14,755	1433,858	791,780
-41,286	14,784	1432,612	791,199
-40,271	14,769	1431,268	790,354
-39,257	14,750	1430,000	789,532
-38,242	14,823	1428,686	789,121
-37,227	14,809	1427,632	788,443
-36,213	14,776	1426,285	787,512
-35,198	14,813	1425,213	787,062
-34,184	14,816	1424,269	786,525
-33,169	14,754	1422,775	785,372
-32,154	14,784	1421,984	785,048
-31,140	14,807	1420,556	784,337
-30,125	14,824	1419,408	783,753
-29,111	14,763	1418,392	782,874
-28,096	14,802	1417,221	782,377
-27,082	14,706	1416,031	781,240
-26,067	14,746	1414,891	780,768
-25,052	14,726	1413,889	780,088
-24,038	14,703	1412,994	779,457
-23,023	14,737	1411,955	779,012
-22,009	14,653	1411,050	778,089
-20,994	14,674	1410,113	777,639
-19,979	14,710	1409,087	777,210
-18,965	14,670	1408,111	776,453
-17,950	14,600	1407,323	775,662
-16,936	14,669	1406,192	775,329
-15,921	14,644	1405,125	774,594
-14,906	14,593	1404,540	774,001
-13,892	14,625	1403,466	773,529
-12,877	14,640	1402,458	773,014
-11,863	14,572	1401,608	772,197
-10,848	14,585	1400,945	771,860
-9,833	14,561	1400,032	771,215
-8,819	14,553	1398,930	770,541
-7,804	14,472	1398,311	769,794
-6,790	14,527	1397,017	769,306
-5,775	14,517	1395,936	768,635
-4,760	14,490	1395,176	768,062
-3,746	14,530	1394,247	767,702
-2,731	14,522	1393,516	767,232
-1,717	14,530	1392,484	766,671
-0,702	14,477	1390,626	765,374
0,313	18,242	1309,221	738,023
1,327	34,479	705,933	435,563
2,342	52,660	124,365	83,999
3,356	0,832	16,601	8,391
4,371	9,425	3,070	1,640
5,386	70,531	0,532	0,389
6,400	393,468	0,102	0,151
7,415	484,093	-0,222	-0,359
8,429	183,446	-0,210	-0,220
9,444	-23,380	-0,430	-0,182
10,459	133,149	-0,317	-0,290
11,473	-58,207	-0,275	-0,084
12,488	21,515	-0,305	-0,175
13,502	19,895	-0,248	-0,141
14,517	1,706	-0,292	-0,148
15,531	-19,131	-0,448	-0,196
16,546	67,712	-0,403	-0,291
17,561	170,057	-0,349	-0,353
18,575	404,361	-0,113	-0,168
19,590	59,942	-0,334	-0,233
20,604	-19,837	-0,324	-0,141
21,619	45,572	-0,428	-0,279
22,634	113,279	-0,429	-0,368
23,648	58,772	-0,525	-0,364
24,663	65,740	-0,426	-0,304
25,677	118,659	-0,367	-0,320
26,692	162,781	-0,316	-0,314
27,707	-11,484	-0,436	-0,202
28,721	80,510	-0,353	-0,268
29,736	16,906	-0,472	-0,263
30,750	145,997	-0,469	-0,444
31,765	218,321	-0,377	-0,426
32,780	-22,263	-0,437	-0,186
33,794	55,596	-0,441	-0,301
34,809	70,774	-0,416	-0,304
35,823	80,097	-0,246	-0,186
36,838	100,466	-0,382	-0,313
37,853	16,965	-0,476	-0,265
38,867	134,156	-0,324	-0,296
39,882	203,497	-0,322	-0,352
40,896	117,261	-0,326	-0,283
41,911	-31,172	-0,306	-0,121
42,926	83,215	-0,308	-0,237
43,940	333,872	-0,280	-0,383
44,955	34,884	-0,458	-0,282
45,969	-13,804	-0,446	-0,203
46,984	54,040	-0,369	-0,250
47,999	-71,252	-0,341	-0,090
49,013	194,695	-0,295	-0,316
50,028	114,963	-0,356	-0,306
51,042	70,451	-0,386	-0,281
52,057	70,601	-0,387	-0,282
53,071	28,076	-0,329	-0,195
54,086	55,295	-0,310	-0,211
55,101	37,089	-0,245	-0,153
56,115	99,281	-0,267	-0,218
57,130	-17,909	-0,397	-0,175
58,144	48,596	-0,388	-0,256
59,159	47,568	-0,360	-0,236
60,174	16,430	-0,437	-0,243
61,188	122,974	-0,459	-0,405
62,203	49,255	-0,341	-0,225
63,217	197,713	-0,286	-0,308
64,232	71,221	-0,362	-0,264
65,247	13,581	-0,390	-0,213
66,261	-27,647	-0,390	-0,159
67,276	40,501	-0,393	-0,248
68,290	58,197	-0,371	-0,256
69,305	81,538	-0,300	-0,229
70,320	95,000	-0,311	-0,249
71,334	44,844	-0,281	-0,182
72,349	17,120	-0,309	-0,172
73,363	74,307	-0,317	-0,234
74,378	199,518	-0,238	-0,257
75,393	79,348	-0,309	-0,233
76,407	55,918	-0,303	-0,206
77,422	25,596	-0,301	-0,176
78,436	-35,852	-0,302	-0,114
79,451	25,163	-0,438	-0,255
80,466	69,061	-0,313	-0,226
81,480	-7,083	-0,296	-0,141
82,495	-45,470	-0,411	-0,142
83,509	-103,614	-0,280	-0,046
84,524	-110,643	-0,421	-0,061
85,539	16,346	-0,248	-0,137
86,553	230,679	-0,316	-0,364
87,568	159,178	-0,228	-0,223
88,582	199,365	-0,285	-0,308
89,597	170,837	-0,290	-0,292
90,611	43,575	-0,218	-0,140
91,626	-2,461	-0,245	-0,120
92,641	25,384	-0,221	-0,129
93,655	-185,466	-0,351	-0,004
94,670	152,957	-0,204	-0,196
95,684	418,075	-0,206	-0,310
96,699	44,551	-0,330	-0,212
97,714	18,100	-0,248	-0,138
98,728	20,456	-0,340	-0,193
99,743	46,676	-0,289	-0,188
100,757	-26,120	-0,392	-0,161
101,772	47,685	-0,286	-0,187
102,787	-23,259	-0,260	-0,109
103,801	-57,397	-0,365	-0,112
104,816	63,645	-0,373	-0,263
105,830	44,955	-0,213	-0,137
106,845	-19,285	-0,333	-0,144
107,860	23,119	-0,308	-0,177
108,874	-57,811	-0,334	-0,102
109,889	238,374	-0,124	-0,144
110,903	344,458	-0,321	-0,443
111,918	55,890	-0,302	-0,205
112,933	82,911	-0,188	-0,143
113,947	477,838	-0,136	-0,217
114,962	-31,766	-0,222	-0,087
115,976	200,227	-0,183	-0,197
116,991	62,998	-0,196	-0,137
118,006	-19,196	-0,387	-0,168
119,020	8,892	-0,287	-0,151
120,035	72,584	-0,169	-0,124
121,049	253,893	-0,120	-0,144
122,064	103,424	-0,254	-0,208
123,079	-145,107	-0,218	-0,014
124,093	41,722	-0,245	-0,155
125,108	201,513	-0,244	-0,264
126,122	-30,215	-0,317	-0,125
127,137	438,404	-0,229	-0,351
128,151	300,835	-0,176	-0,228
129,166	-45,364	-0,203	-0,070
130,181	208,277	-0,206	-0,225
131,195	59,907	-0,213	-0,147
132,210	188,111	-0,176	-0,184
133,224	507,632	-0,129	-0,210
134,239	87,875	-0,271	-0,210
135,254	171,094	-0,237	-0,239
136,268	-2,765	-0,259	-0,126
137,283	123,744	-0,307	-0,270
138,297	3,723	-0,212	-0,108
139,312	-56,664	-0,246	-0,076
140,327	83,137	-0,206	-0,157
141,341	-19,991	-0,272	-0,117
142,356	-98,099	-0,085	-0,015
143,370	113,864	-0,188	-0,160
144,385	-61,611	-0,226	-0,066
145,400	152,234	-0,268	-0,256
146,414	3,513	-0,298	-0,151
147,429	800,000	-0,164	-0,334
148,443	223,830	-0,267	-0,302
149,458	-49,478	-0,166	-0,055
150,473	126,201	-0,206	-0,182
151,487	-6,269	-0,315	-0,150
152,502	120,183	-0,184	-0,160
153,516	58,017	-0,321	-0,219
154,531	332,503	-0,204	-0,276
155,546	137,855	-0,259	-0,237
156,560	357,887	-0,202	-0,282
157,575	-53,710	-0,175	-0,055
158,589	-10,866	-0,344	-0,158
159,604	112,186	-0,189	-0,160
160,619	132,506	-0,263	-0,237
161,633	51,532	-0,223	-0,148
162,648	67,740	-0,217	-0,155
163,662	245,658	-0,125	-0,147
164,677	114,033	-0,332	-0,282
165,692	11,590	-0,260	-0,139
166,706	4,102	-0,163	-0,083
167,721	-51,606	-0,232	-0,075
168,735	88,683	-0,311	-0,241
169,750	139,344	-0,230	-0,212
170,764	204,574	-0,244	-0,265
171,779	-16,438	-0,277	-0,122
172,794	-63,043	-0,180	-0,052
173,808	-42,353	-0,320	-0,113
174,823	800,000	-0,122	-0,300
175,837	26,446	-0,310	-0,180
176,852	136,798	-0,269	-0,245
177,867	92,285	-0,141	-0,111
178,881	12,384	-0,260	-0,140
179,896	93,548	-0,134	-0,105
180,910	82,943	-0,206	-0,156
181,925	293,602	-0,198	-0,253
182,940	162,087	-0,282	-0,276
183,954	14,018	-0,268	-0,145
184,969	45,164	-0,189	-0,121
185,983	-117,015	-0,181	0,023
186,998	446,006	-0,058	-0,090
188,013	63,967	-0,125	-0,088
189,027	463,012	-0,250	-0,390
190,042	200,001	-0,185	-0,198
191,056	14,190	-0,221	-0,119
192,071	-69,400	-0,213	0,057
193,086	-9,913	-0,197	-0,091
194,100	-38,568	-0,163	-0,060
195,115	-83,830	-0,303	-0,067
196,129	483,768	-0,074	-0,118
197,144	43,451	-0,175	-0,111
198,159	69,862	-0,231	-0,165
199,173	488,137	-0,126	-0,202
200,188	-131,709	-0,164	0,015
201,202	236,718	-0,215	-0,248
202,217	39,630	-0,168	-0,104
203,232	273,343	-0,226	-0,279
204,246	800,000	-0,117	-0,276
205,261	165,507	-0,225	-0,221
206,275	418,148	-0,160	-0,238
207,290	174,947	-0,169	-0,170
208,304	372,071	-0,153	-0,216
209,319	66,349	-0,214	-0,151
210,334	180,716	-0,204	-0,208
211,348	246,535	-0,187	-0,220
212,363	57,113	-0,240	-0,163
213,377	84,010	-0,253	-0,192
214,392	388,502	-0,108	-0,156
215,407	-153,700	-0,119	-0,006
216,421	14,193	-0,188	-0,101
217,436	-29,655	-0,370	-0,146
218,450	-147,727	-0,254	0,015
219,465	378,329	-0,129	-0,184
220,480	212,002	-0,225	-0,247
221,494	322,844	-0,131	-0,174
222,509	55,480	-0,136	-0,091
223,523	18,649	-0,178	-0,099
224,538	-33,932	-0,224	-0,085
225,553	90,617	-0,190	-0,148
226,567	-45,719	-0,201	-0,069
227,582	-109,272	-0,079	-0,011
228,596	-24,015	-0,215	-0,089
229,611	800,000	-0,055	-0,111
230,626	-136,347	-0,152	0,012
231,640	-149,440	-0,096	-0,005
232,655	-4,125	-0,165	-0,079
233,669	96,007	-0,237	-0,188
234,684	-53,294	-0,253	-0,080
235,699	-160,807	-0,099	-0,004
236,713	51,299	-0,078	-0,051
237,728	-97,314	-0,102	0,018
238,742	-92,364	-0,193	-0,037
239,757	120,683	-0,235	-0,203
240,772	-0,189	-0,316	-0,155
241,786	332,733	-0,204	-0,274
242,801	144,122	-0,136	-0,126
243,815	693,624	-0,062	-0,114
244,830	40,719	-0,236	-0,147
245,844	219,371	-0,136	-0,151
246,859	227,645	-0,250	-0,283
247,874	338,235	-0,191	-0,258
248,888	45,338	-0,133	-0,085
249,903	800,000	-0,079	-0,187
250,917	-200,000	-0,027	-0,120
251,932	358,983	-0,075	-0,105
252,947	24,058	-0,076	-0,044
253,961	283,252	-0,155	-0,193
254,976	156,320	-0,150	-0,144
255,990	172,398	-0,235	-0,235
257,005	800,000	-0,107	-0,216
258,020	46,542	-0,288	-0,185
259,034	429,096	-0,125	-0,188
260,049	800,000	-0,059	-0,142
261,063	6,804	-0,177	-0,091
262,078	-62,085	-0,310	-0,089
263,093	-200,000	-0,036	-0,142
264,107	77,915	-0,115	-0,085
265,122	800,000	-0,030	-0,069
266,136	194,256	-0,174	-0,182
267,151	128,313	-0,193	-0,170
268,166	-51,992	-0,268	-0,086
269,180	-119,919	-0,207	0,024
270,195	-163,257	-0,136	-0,004
271,209	800,000	-0,113	-0,253
272,224	88,962	-0,186	-0,143
273,239	-200,000	-0,028	-0,086
274,253	72,560	-0,159	-0,114
275,268	45,232	-0,188	-0,120
276,282	89,375	-0,243	-0,187
277,297	228,637	-0,155	-0,175
278,312	800,000	-0,119	-0,245
279,326	239,052	-0,101	-0,116
280,341	-62,229	-0,088	-0,025
281,355	134,162	-0,068	-0,061
282,370	94,823	-0,138	-0,109
283,384	151,381	-0,071	-0,067
284,399	26,672	-0,271	-0,157
285,414	-150,484	-0,192	-0,010
286,428	-200,000	-0,288	-0,000
287,443	800,000	-0,049	-0,125
288,457	29,886	-0,156	-0,091
289,472	115,118	-0,171	-0,144
290,487	42,573	-0,196	-0,123
291,501	279,450	-0,134	-0,165
292,516	70,647	-0,231	-0,164
293,530	33,211	-0,179	-0,107
294,545	0,407	-0,048	0,024
295,560	-19,783	-0,144	-0,061
296,574	-81,002	-0,134	-0,030
297,589	-111,118	-0,253	-0,035
298,603	-51,859	-0,083	-0,026
299,618	616,602	-0,093	-0,162
300,633	49,217	-0,185	-0,120
301,647	-200,000	-0,186	0,000
302,662	435,384	-0,090	-0,135
303,676	309,240	-0,096	-0,124
304,691	635,075	-0,150	-0,263
305,706	-54,427	-0,177	-0,055
306,720	152,745	-0,162	-0,153
307,735	-6,209	-0,190	-0,089
308,749	49,669	-0,144	-0,093
309,764	292,231	-0,125	-0,158
310,779	459,491	-0,008	0,012
311,793	75,694	-0,184	-0,134
312,808	196,952	-0,192	-0,202
313,822	512,266	-0,143	-0,230
314,837	194,178	-0,181	-0,189
315,852	155,747	-0,163	-0,155
316,866	10,084	-0,050	-0,026
317,881	191,092	-0,135	-0,140
318,895	52,800	-0,192	-0,126
319,910	800,000	-0,060	-0,154
320,925	151,506	-0,161	-0,151
321,939	202,968	-0,170	-0,181
322,954	22,377	0,027	-0,015
323,968	543,259	-0,078	-0,129
324,983	-131,821	-0,193	0,017
325,997	251,989	-0,123	-0,145
327,012	216,862	-0,158	-0,174
328,027	800,000	-0,030	-0,084
329,041	-1,782	-0,185	-0,089
330,056	-14,070	-0,057	0,025
331,070	-200,000	0,028	-0,109
332,085	101,873	-0,081	-0,065
333,100	240,817	-0,119	-0,136
334,114	68,781	-0,184	-0,129
335,129	800,000	-0,140	-0,274
336,143	800,000	-0,092	-0,275
337,158	-66,927	-0,139	-0,038
338,173	-3,940	-0,189	-0,090
339,187	-17,720	-0,263	0,113
340,202	-116,214	-0,189	0,024
341,216	-144,895	-0,234	-0,014
342,231	23,557	-0,212	-0,120
343,246	110,679	-0,214	-0,177
344,260	-153,081	-0,154	-0,007
345,275	800,000	0,014	0,035
346,289	-153,528	-0,064	0,003
347,304	191,972	-0,135	-0,140
348,319	-200,000	-0,042	-0,202
349,333	162,973	-0,114	-0,110
350,348	245,033	-0,117	-0,136
351,362	577,531	-0,052	0,088
352,377	166,547	-0,095	-0,092
353,392	754,078	-0,069	-0,128
354,406	190,341	-0,110	-0,114
355,421	209,973	1314,660	1417,651
356,435	161,627	1475,388	1418,157
