DTS Sentinel unit serial number:	SN410029Multiplexer serial number:	ORYXHardware model number:	OX2-SRSoftware version number:	ORYX F/W v4,00 Oryx Data Collector v3.7.2.0data status	okinstallation	B3 Nyhavnadifferential loss correction	single-endedforward channel	channel 1reverse channel	N/Adate	2023/12/02time	02:22:30forward acquisition time	300,00reverse acquisition time	0,00gamma	499,1914k internal	0,3194k external	0,3194temperature offset calibration	1,0000default loss term (dB/km)	0,3820temperature slope calibration	1,0000multiplexer offset coefficient	1,0000multiplexer slope coefficient	1,0000fibre end	0,00T internal ref (°C)	16,63T ext. ref 1 (°C)	1,89T ext. ref 2 (°C)	1,88length (m)	temperature (°C)	Stokes	anti-Stokes-744,400	800,000	-0,106	-0,266
-743,385	800,000	0,105	0,220
-742,371	137,589	-0,220	-0,210
-741,356	-200,000	0,077	0,305
-740,342	562,911	-0,101	-0,180
-739,327	-200,000	0,008	0,337
-738,312	461,271	-0,161	-0,263
-737,298	89,204	-0,122	0,099
-736,283	206,306	-0,224	-0,254
-735,269	-200,000	-0,003	0,310
-734,254	199,466	-0,217	-0,243
-733,239	192,591	-0,172	0,189
-732,225	136,728	-0,096	-0,091
-731,210	77,224	0,100	0,077
-730,196	-200,000	-0,004	0,058
-729,181	342,228	-0,100	-0,143
-728,167	68,032	0,052	-0,039
-727,152	342,325	-0,037	-0,053
-726,137	-85,883	-0,070	-0,016
-725,123	-200,000	0,002	-0,066
-724,108	97,386	-0,110	-0,092
-723,094	587,536	-0,082	-0,148
-722,079	-82,841	-0,174	-0,041
-721,064	-200,000	0,021	-0,100
-720,050	-113,824	0,055	-0,008
-719,035	98,223	0,065	0,054
-718,021	-200,000	0,034	0,118
-717,006	219,834	-0,050	0,059
-715,991	695,516	0,038	-0,074
-714,977	274,004	-0,117	-0,151
-713,962	800,000	-0,040	-0,087
-712,948	-200,000	-0,005	0,094
-711,933	91,388	-0,051	-0,042
-710,918	-200,000	0,014	0,130
-709,904	-200,000	0,052	-0,177
-708,889	661,427	-0,064	-0,121
-707,875	293,289	0,024	0,032
-706,860	152,889	0,075	0,075
-705,845	-43,584	-0,060	-0,022
-704,831	-149,482	-0,034	0,002
-703,816	502,008	-0,064	-0,108
-702,802	446,002	-0,112	-0,179
-701,787	489,477	-0,076	-0,127
-700,772	-200,000	0,007	-0,042
-699,758	-200,000	0,008	-0,065
-698,743	38,999	0,044	-0,029
-697,729	-200,000	0,025	0,089
-696,714	-200,000	-0,032	0,144
-695,699	149,261	-0,040	0,039
-694,685	481,813	-0,047	0,078
-693,670	149,788	-0,088	-0,086
-692,656	-129,911	-0,048	0,005
-691,641	-200,000	0,011	-0,055
-690,627	800,000	-0,009	0,028
-689,612	86,468	-0,015	0,012
-688,597	-30,692	-0,113	-0,046
-687,583	335,607	-0,043	-0,061
-686,568	-134,580	-0,142	-0,012
-685,554	197,745	-0,064	-0,071
-684,539	146,791	0,093	0,091
-683,524	60,734	0,046	0,033
-682,510	-71,550	0,036	0,010
-681,495	-171,806	0,122	-0,003
-680,481	-200,000	-0,018	-0,291
-679,466	54,157	-0,134	-0,094
-678,451	134,394	0,070	0,066
-677,437	-9,861	0,004	0,002
-676,422	451,020	0,090	-0,145
-675,408	-82,260	-0,090	0,021
-674,393	2,311	-0,135	0,071
-673,378	-171,573	-0,242	0,006
-672,364	98,482	-0,072	-0,060
-671,349	24,792	-0,030	-0,018
-670,335	800,000	0,013	0,036
-669,320	-62,001	0,034	-0,010
-668,305	-47,320	-0,079	-0,028
-667,291	169,582	-0,018	0,019
-666,276	-56,755	-0,113	0,036
-665,262	-81,429	-0,047	-0,011
-664,247	-200,000	-0,017	0,064
-663,232	124,203	-0,049	0,045
-662,218	121,423	-0,133	-0,121
-661,203	800,000	-0,030	0,078
-660,189	39,036	-0,035	-0,023
-659,174	436,428	-0,118	-0,187
-658,159	523,766	-0,101	-0,174
-657,145	-75,839	-0,059	-0,015
-656,130	-85,464	-0,107	-0,024
-655,116	222,769	0,071	0,083
-654,101	-200,000	-0,021	0,110
-653,086	-156,232	0,086	0,004
-652,072	103,960	-0,036	0,031
-651,057	-200,000	-0,036	0,127
-650,043	-200,000	-0,011	0,060
-649,028	-92,877	0,111	-0,022
-648,014	800,000	0,033	-0,101
-646,999	53,462	0,070	0,048
-645,984	201,002	-0,082	0,092
-644,970	536,156	0,039	-0,067
-643,955	-200,000	0,031	-0,132
-642,941	-50,179	-0,172	-0,059
-641,926	800,000	-0,013	-0,030
-640,911	247,710	0,053	0,065
-639,897	-200,000	0,038	-0,122
-638,882	-200,000	0,002	-0,150
-637,868	-200,000	0,003	0,032
-636,853	-40,485	0,077	-0,029
-635,838	-200,000	-0,018	-0,076
-634,824	198,401	-0,064	-0,071
-633,809	5,132	-0,047	-0,025
-632,795	-200,000	-0,010	-0,083
-631,780	-200,000	-0,026	-0,097
-630,765	200,399	0,147	0,164
-629,751	5,578	-0,157	0,084
-628,736	72,087	-0,117	-0,089
-627,722	-148,668	0,099	0,006
-626,707	45,778	0,077	0,051
-625,692	127,750	-0,094	-0,087
-624,678	-89,974	0,062	-0,013
-623,663	-200,000	-0,001	-0,073
-622,649	256,157	0,011	-0,014
-621,634	-200,000	-0,027	-0,117
-620,619	417,772	0,031	-0,049
-619,605	367,475	0,094	-0,138
-618,590	697,564	0,033	0,063
-617,576	18,027	0,154	0,089
-616,561	-200,000	-0,002	0,007
-615,546	-26,229	-0,116	0,049
-614,532	-200,000	-0,006	-0,042
-613,517	-200,000	-0,059	-0,227
-612,503	94,525	0,060	-0,050
-611,488	-39,069	0,031	0,012
-610,474	108,175	0,051	0,044
-609,459	-200,000	0,010	0,118
-608,444	-162,663	-0,052	0,002
-607,430	-139,896	-0,152	0,011
-606,415	-200,000	0,004	-0,077
-605,401	-31,418	-0,091	-0,037
-604,386	-200,000	-0,000	-0,053
-603,371	59,198	0,125	0,089
-602,357	-33,778	0,095	0,038
-601,342	-120,304	-0,026	-0,003
-600,328	-200,000	-0,035	0,128
-599,313	-135,457	0,033	0,003
-598,298	23,110	-0,141	-0,084
-597,284	298,066	-0,122	0,163
-596,269	-179,724	0,023	-0,000
-595,255	-200,000	0,005	-0,103
-594,240	234,163	-0,039	-0,047
-593,225	-95,286	-0,078	-0,015
-592,211	-79,599	-0,181	0,044
-591,196	237,142	0,015	-0,018
-590,182	-200,000	-0,047	0,170
-589,167	167,583	0,073	-0,076
-588,152	-101,700	0,039	-0,007
-587,138	-85,806	0,122	-0,027
-586,123	-158,563	-0,117	-0,005
-585,109	800,000	-0,040	-0,083
-584,094	257,912	-0,056	-0,069
-583,079	-200,000	-0,006	0,123
-582,065	-127,972	-0,035	0,004
-581,050	-118,200	0,069	-0,009
-580,036	800,000	-0,055	-0,123
-579,021	260,171	0,074	-0,093
-578,006	-200,000	-0,036	-0,141
-576,992	-200,000	0,023	0,131
-575,977	-82,468	0,082	0,019
-574,963	512,804	-0,054	0,091
-573,948	29,938	-0,141	-0,087
-572,934	73,242	0,008	0,006
-571,919	733,541	-0,030	0,058
-570,904	800,000	-0,046	-0,094
-569,890	-154,472	-0,091	-0,004
-568,875	-200,000	-0,017	-0,129
-567,861	-80,130	0,084	0,020
-566,846	-200,000	0,006	0,151
-565,831	800,000	-0,027	-0,055
-564,817	-200,000	0,017	-0,056
-563,802	33,005	-0,151	-0,094
-562,788	136,011	0,025	-0,024
-561,773	-16,512	0,043	-0,020
-560,758	-200,000	0,016	0,053
-559,744	-200,000	0,034	0,146
-558,729	786,419	-0,034	0,067
-557,715	800,000	-0,019	0,058
-556,700	-105,903	-0,126	0,020
-555,685	67,582	-0,069	-0,051
-554,671	-126,737	0,050	-0,005
-553,656	-200,000	0,027	0,102
-552,642	800,000	0,035	0,082
-551,627	-26,090	0,108	0,046
-550,612	-200,000	0,003	-0,035
-549,598	-171,364	-0,029	-0,001
-548,583	681,044	0,042	-0,079
-547,569	-78,531	0,081	0,020
-546,554	-62,750	-0,075	-0,022
-545,539	-81,412	-0,136	-0,032
-544,525	-79,509	0,110	0,027
-543,510	800,000	-0,055	-0,123
-542,496	-62,635	-0,105	-0,031
-541,481	-200,000	-0,008	0,096
-540,466	-96,739	0,029	-0,005
-539,452	-200,000	-0,001	-0,007
-538,437	661,436	0,095	0,178
-537,423	-200,000	0,035	0,151
-536,408	461,636	0,079	0,128
-535,393	542,153	-0,117	-0,202
-534,379	315,690	-0,031	-0,042
-533,364	-52,991	-0,043	-0,014
-532,350	75,801	0,057	-0,044
-531,335	-10,418	-0,157	0,075
-530,321	11,547	0,102	-0,056
-529,306	-200,000	0,004	-0,236
-528,291	81,576	-0,045	-0,035
-527,277	82,841	0,081	-0,064
-526,262	247,863	-0,046	0,056
-525,248	30,777	0,012	-0,008
-524,233	-200,000	0,021	0,089
-523,218	105,938	0,046	0,039
-522,204	210,232	-0,034	0,039
-521,189	-97,499	-0,010	0,002
-520,175	551,153	0,048	-0,084
-519,160	385,119	-0,074	-0,111
-518,145	237,236	0,050	-0,060
-517,131	7,594	0,141	0,076
-516,116	-145,547	-0,061	-0,004
-515,102	194,234	0,049	0,054
-514,087	24,825	0,007	0,004
-513,072	83,547	-0,069	0,054
-512,058	800,000	0,036	-0,099
-511,043	137,669	0,075	-0,071
-510,029	149,340	0,060	0,059
-509,014	-56,609	0,190	0,060
-507,999	-200,000	0,002	-0,057
-506,985	-31,851	-0,085	0,034
-505,970	40,799	0,015	0,010
-504,956	6,486	0,017	-0,009
-503,941	-26,785	0,113	0,048
-502,926	-200,000	-0,009	0,056
-501,912	-200,000	-0,025	0,128
-500,897	-111,876	-0,095	0,014
-499,883	128,950	-0,102	0,094
-498,868	-3,554	-0,038	0,019
-497,853	226,215	0,065	-0,076
-496,839	-49,939	-0,024	-0,008
-495,824	144,430	0,164	-0,158
-494,810	418,380	0,029	-0,045
-493,795	405,156	-0,055	-0,084
-492,781	-82,857	-0,150	-0,035
-491,766	-200,000	0,008	-0,080
-490,751	763,364	0,032	-0,064
-489,737	586,277	0,034	-0,060
-488,722	104,537	0,083	0,071
-487,708	431,970	-0,035	0,055
-486,693	-38,258	0,082	0,031
-485,678	-85,575	-0,158	-0,035
-484,664	-200,000	-0,001	0,067
-483,649	-200,000	0,005	-0,060
-482,635	23,371	0,106	0,063
-481,620	359,249	0,027	-0,039
-480,605	800,000	0,017	0,035
-479,591	-36,018	0,043	0,017
-478,576	205,429	0,061	-0,069
-477,562	-51,419	-0,045	0,015
-476,547	-200,000	0,026	-0,102
-475,532	-200,000	-0,017	-0,078
-474,518	-5,828	0,092	0,045
-473,503	550,847	0,115	0,199
-472,489	800,000	0,071	0,221
-471,474	441,138	-0,093	-0,147
-470,459	800,000	0,049	0,146
-469,445	-200,000	0,022	0,077
-468,430	-139,545	-0,049	0,004
-467,416	-200,000	0,008	-0,057
-466,401	-200,000	0,003	0,140
-465,386	-200,000	0,004	0,051
-464,372	800,000	-0,042	0,106
-463,357	800,000	-0,045	0,090
-462,343	9,071	-0,008	0,004
-461,328	-200,000	-0,020	0,087
-460,313	96,926	-0,127	-0,105
-459,299	-200,000	0,011	0,066
-458,284	-165,634	0,098	0,003
-457,270	-144,745	0,033	0,002
-456,255	57,717	0,098	-0,069
-455,241	58,864	-0,144	-0,102
-454,226	-24,519	-0,136	-0,058
-453,211	19,128	0,162	-0,093
-452,197	546,349	-0,030	0,052
-451,182	800,000	0,052	0,120
-450,168	160,734	-0,025	0,025
-449,153	451,689	0,071	0,113
-448,138	90,685	0,010	-0,008
-447,124	-159,376	-0,087	-0,003
-446,109	32,457	0,109	0,068
-445,095	800,000	0,011	-0,025
-444,080	800,000	-0,014	0,037
-443,065	800,000	0,044	0,127
-442,051	-131,124	-0,059	-0,006
-441,036	794,072	0,002	0,003
-440,022	-110,031	0,137	0,020
-439,007	-72,076	-0,102	-0,027
-437,992	-55,423	0,055	0,018
-436,978	236,464	0,026	0,031
-435,963	-200,000	-0,008	-0,098
-434,949	284,426	0,075	-0,097
-433,934	53,847	0,005	-0,003
-432,919	800,000	0,018	0,046
-431,905	-200,000	0,005	-0,170
-430,890	670,263	0,076	-0,142
-429,876	109,915	-0,048	0,041
-428,861	27,390	-0,146	0,088
-427,846	53,793	-0,077	0,053
-426,832	-200,000	-0,003	-0,102
-425,817	-174,429	0,073	0,001
-424,803	262,626	0,042	0,052
-423,788	-200,000	0,014	0,084
-422,773	-200,000	-0,008	-0,056
-421,759	17,455	0,088	-0,050
-420,744	-200,000	-0,008	-0,055
-419,730	-200,000	0,048	0,166
-418,715	800,000	-0,048	0,125
-417,701	644,820	0,052	-0,095
-416,686	800,000	0,025	0,051
-415,671	19,524	0,206	0,119
-414,657	378,195	-0,022	0,032
-413,642	272,833	-0,134	-0,171
-412,628	800,000	0,027	0,073
-411,613	-200,000	-0,013	-0,173
-410,598	586,447	0,013	-0,023
-409,584	403,592	0,025	0,038
-408,569	222,964	-0,075	0,087
-407,555	491,884	0,063	0,104
-406,540	-200,000	0,002	-0,028
-405,525	800,000	-0,079	-0,171
-404,511	-118,358	-0,057	-0,007
-403,496	-143,760	-0,067	-0,004
-402,482	114,949	0,101	0,089
-401,467	-200,000	-0,017	0,143
-400,452	-200,000	0,005	0,117
-399,438	-200,000	0,019	-0,093
-398,423	-200,000	0,002	0,044
-397,409	387,214	-0,028	-0,042
-396,394	-200,000	-0,061	0,000
-395,379	-83,491	0,074	-0,017
-394,365	318,253	0,059	-0,080
-393,350	49,528	0,060	-0,041
-392,336	180,344	0,093	0,098
-391,321	-200,000	-0,015	-0,050
-390,306	-96,324	0,032	0,006
-389,292	-24,557	-0,119	-0,051
-388,277	272,477	0,037	0,047
-387,263	-200,000	0,029	0,104
-386,248	-12,625	0,047	0,022
-385,233	-200,000	-0,030	0,205
-384,219	-200,000	0,003	-0,039
-383,204	273,067	0,009	0,012
-382,190	-81,726	-0,127	-0,030
-381,175	36,439	0,073	0,046
-380,160	-200,000	0,006	0,045
-379,146	-67,236	0,040	-0,011
-378,131	-200,000	0,005	0,079
-377,117	-47,328	-0,042	-0,015
-376,102	-200,000	0,004	0,033
-375,088	378,055	-0,039	0,058
-374,073	-101,321	0,027	-0,005
-373,058	497,967	0,025	-0,041
-372,044	467,450	-0,075	0,122
-371,029	466,631	0,156	0,252
-370,015	-200,000	-0,060	0,221
-369,000	-42,603	0,047	-0,017
-367,985	46,088	0,025	0,017
-366,971	26,693	-0,069	0,042
-365,956	-80,049	0,149	-0,036
-364,942	73,837	0,074	0,055
-363,927	-48,609	-0,034	0,012
-362,912	109,735	-0,014	-0,012
-361,898	628,474	-0,007	-0,013
-360,883	-94,501	-0,115	-0,022
-359,869	129,281	-0,092	0,084
-358,854	229,407	0,105	-0,123
-357,839	141,328	0,146	0,139
-356,825	-94,543	0,008	0,002
-355,810	-77,005	-0,027	-0,007
-354,796	-178,357	0,028	-0,000
-353,781	-44,787	-0,024	0,009
-352,766	32,582	-0,071	-0,044
-351,752	17,035	0,063	0,036
-350,737	-200,000	0,035	0,177
-349,723	-200,000	0,005	-0,104
-348,708	636,647	-0,082	0,150
-347,693	-200,000	-0,046	-0,161
-346,679	-15,570	-0,108	-0,049
-345,664	-71,602	0,090	0,024
-344,650	-118,530	-0,143	0,018
-343,635	-200,000	-0,005	-0,068
-342,620	3,693	0,161	0,084
-341,606	-200,000	0,006	0,056
-340,591	-88,834	-0,150	0,032
-339,577	-134,388	-0,218	0,019
-338,562	43,389	-0,162	-0,106
-337,548	92,386	-0,090	0,073
-336,533	217,005	0,074	0,085
-335,518	-92,514	0,136	-0,027
-334,504	-200,000	-0,003	-0,056
-333,489	193,124	-0,018	0,019
-332,475	800,000	0,110	-0,220
-331,460	-158,515	-0,167	0,007
-330,445	-4,730	-0,052	0,026
-329,431	278,138	0,002	-0,002
-328,416	281,235	-0,044	-0,056
-327,402	213,580	-0,100	-0,113
-326,387	-200,000	0,013	0,111
-325,372	84,196	0,011	0,009
-324,358	-113,508	-0,172	-0,024
-323,343	-126,451	-0,029	-0,003
-322,329	93,806	0,050	-0,040
-321,314	8,230	-0,084	0,045
-320,299	55,174	0,096	0,066
-319,285	800,000	-0,017	-0,043
-318,270	-200,000	0,004	-0,139
-317,256	-26,865	-0,105	-0,044
-316,241	-19,846	-0,038	-0,017
-315,226	203,018	0,038	-0,043
-314,212	52,256	-0,036	-0,024
-313,197	-45,631	0,084	0,030
-312,183	426,190	0,070	0,109
-311,168	293,540	-0,012	0,016
-310,153	375,451	-0,083	-0,121
-309,139	-200,000	-0,026	-0,139
-308,124	21,430	-0,038	-0,022
-307,110	-168,190	0,218	-0,006
-306,095	800,000	-0,018	0,047
-305,080	-200,000	0,011	0,067
-304,066	327,195	-0,113	-0,156
-303,051	459,396	-0,051	-0,082
-302,037	-91,603	-0,079	0,016
-301,022	-200,000	-0,019	0,121
-300,008	-200,000	-0,005	0,105
-298,993	800,000	0,009	0,024
-297,978	-2,463	-0,082	0,041
-296,964	-131,417	0,113	-0,011
-295,949	-200,000	-0,001	-0,025
-294,935	460,805	0,032	0,051
-293,920	-196,759	0,101	-0,000
-292,905	80,626	-0,025	-0,020
-291,891	61,902	0,061	0,043
-290,876	8,378	0,079	0,043
-289,862	294,285	0,028	-0,036
-288,847	-10,461	-0,053	0,025
-287,832	800,000	0,047	-0,101
-286,818	800,000	-0,065	-0,130
-285,803	-200,000	0,002	-0,113
-284,789	99,004	0,074	0,061
-283,774	67,216	0,024	0,018
-282,759	-200,000	-0,023	0,097
-281,745	-42,667	-0,076	0,027
-280,730	35,160	0,051	-0,032
-279,716	142,328	-0,056	-0,053
-278,701	549,918	-0,093	0,160
-277,686	-200,000	-0,019	-0,094
-276,672	16,328	0,079	0,045
-275,657	360,329	-0,064	0,092
-274,643	185,929	0,043	0,046
-273,628	592,961	0,034	0,060
-272,613	-32,107	-0,104	0,042
-271,599	198,869	-0,064	-0,070
-270,584	800,000	0,037	-0,075
-269,570	579,357	-0,057	0,100
-268,555	-200,000	0,008	0,062
-267,540	558,666	0,121	-0,210
-266,526	-97,119	0,089	-0,017
-265,511	-200,000	-0,013	-0,106
-264,497	-12,374	-0,074	0,034
-263,482	287,798	0,034	0,044
-262,467	370,466	0,037	-0,054
-261,453	7,544	0,069	-0,037
-260,438	93,330	-0,076	-0,062
-259,424	338,025	0,025	-0,035
-258,409	372,496	-0,061	0,090
-257,395	723,084	0,031	0,059
-256,380	91,134	0,012	-0,009
-255,365	-145,357	-0,045	-0,003
-254,351	78,369	0,087	0,066
-253,336	128,781	-0,073	-0,067
-252,322	184,961	-0,041	0,043
-251,307	177,546	0,063	0,065
-250,292	30,117	0,093	0,057
-249,278	421,085	-0,051	0,079
-248,263	-27,023	0,160	0,066
-247,249	80,961	0,103	0,079
-246,234	-200,000	-0,008	-0,144
-245,219	800,000	-0,063	-0,143
-244,205	-200,000	-0,028	-0,139
-243,190	262,918	0,108	0,134
-242,176	-34,020	0,113	0,044
-241,161	-10,822	0,041	0,019
-240,146	-178,982	-0,049	0,001
-239,132	800,000	-0,040	0,083
-238,117	-200,000	0,003	-0,035
-237,103	-200,000	-0,006	-0,097
-236,088	800,000	0,041	-0,088
-235,073	11,644	0,158	0,086
-234,059	244,797	-0,138	0,166
-233,044	-200,000	-0,037	0,137
-232,030	70,462	0,059	-0,044
-231,015	-32,995	-0,031	0,012
-230,000	399,037	0,089	-0,134
-228,986	344,160	-0,077	-0,108
-227,971	69,650	0,036	-0,026
-226,957	800,000	-0,035	0,079
-225,942	800,000	-0,009	-0,027
-224,927	-96,396	-0,158	-0,030
-223,913	800,000	0,030	-0,066
-222,898	-33,469	0,107	0,042
-221,884	-42,717	-0,105	-0,038
-220,869	-111,275	0,155	0,022
-219,855	331,755	-0,041	-0,057
-218,840	800,000	-0,031	0,078
-217,825	-151,764	0,027	-0,001
-216,811	-57,872	0,085	-0,026
-215,796	-5,825	-0,097	-0,047
-214,782	-200,000	-0,015	-0,065
-213,767	256,427	0,043	-0,053
-212,752	-200,000	0,012	0,041
-211,738	-127,788	0,110	-0,011
-210,723	344,595	0,079	-0,111
-209,709	-200,000	0,011	-0,064
-208,694	418,397	-0,064	-0,099
-207,679	-200,000	0,001	-0,044
-206,665	-96,339	0,065	-0,012
-205,650	-200,000	0,007	0,028
-204,636	-88,828	0,053	-0,011
-203,621	271,325	-0,073	-0,092
-202,606	-200,000	0,029	-0,108
-201,592	-3,667	-0,057	-0,028
-200,577	312,839	-0,072	-0,097
-199,563	-137,669	0,042	0,003
-198,548	-200,000	0,014	0,110
-197,533	-114,815	0,113	0,015
-196,519	61,236	-0,021	-0,015
-195,504	800,000	-0,063	0,173
-194,490	-200,000	-0,018	-0,220
-193,475	784,181	-0,048	-0,094
-192,460	69,995	0,097	0,071
-191,446	-134,336	-0,115	-0,010
-190,431	161,025	0,090	0,090
-189,417	-158,961	0,144	-0,006
-188,402	-52,992	0,034	0,011
-187,387	-200,000	-0,015	-0,237
-186,373	-97,013	0,066	-0,012
-185,358	-200,000	-0,013	0,045
-184,344	-200,000	-0,009	0,090
-183,329	-105,357	-0,068	-0,011
-182,315	800,000	0,034	0,102
-181,300	316,515	0,030	0,040
-180,285	-14,585	-0,083	-0,038
-179,271	134,593	-0,098	-0,091
-178,256	-5,409	-0,064	-0,031
-177,242	15,846	-0,069	-0,039
-176,227	101,483	-0,058	0,048
-175,212	800,000	-0,018	-0,056
-174,198	-47,940	-0,063	0,022
-173,183	31,783	0,023	0,014
-172,169	800,000	-0,030	-0,088
-171,154	-42,352	-0,047	0,017
-170,139	-160,524	-0,051	0,002
-169,125	179,469	0,034	0,036
-168,110	210,356	-0,112	0,125
-167,096	-200,000	-0,027	0,162
-166,081	-200,000	-0,001	0,043
-165,066	800,000	-0,063	0,128
-164,052	800,000	0,046	-0,117
-163,037	286,194	0,054	-0,069
-162,023	800,000	-0,050	0,107
-161,008	-168,275	-0,089	0,002
-159,993	-137,302	-0,032	-0,003
-158,979	68,356	-0,030	0,022
-157,964	589,587	0,005	0,010
-156,950	118,062	0,078	0,068
-155,935	-200,000	-0,001	0,038
-154,920	-200,000	0,006	0,039
-153,906	-133,564	0,200	-0,018
-152,891	252,298	-0,142	-0,173
-151,877	383,298	-0,023	0,034
-150,862	27,302	0,056	0,034
-149,847	-105,974	-0,186	0,030
-148,833	-146,957	0,034	-0,002
-147,818	-19,436	0,157	0,069
-146,804	76,108	-0,063	0,047
-145,789	239,835	0,073	0,087
-144,775	-200,000	-0,003	0,063
-143,760	-164,511	0,045	-0,001
-142,745	256,466	0,033	-0,040
-141,731	169,944	0,066	-0,067
-140,716	800,000	-0,031	0,094
-139,702	800,000	0,074	0,166
-138,687	131,703	-0,077	-0,071
-137,672	12,120	-0,088	-0,048
-136,658	-66,975	0,107	-0,030
-135,643	-200,000	-0,036	-0,125
-134,629	134,735	0,066	-0,061
-133,614	-200,000	0,031	0,124
-132,599	197,778	0,048	0,052
-131,585	-200,000	-0,015	0,150
-130,570	-80,133	-0,049	0,012
-129,556	10,998	-0,081	-0,044
-128,541	129,664	0,068	0,062
-127,526	91,808	0,030	0,024
-126,512	-40,023	0,082	0,030
-125,497	-34,961	0,098	0,038
-124,483	800,000	-0,041	0,124
-123,468	393,670	0,046	0,069
-122,453	224,203	0,061	0,070
-121,439	-97,346	0,016	0,003
-120,424	270,325	0,022	0,028
-119,410	238,528	0,099	0,117
-118,395	800,000	0,041	-0,111
-117,380	307,900	-0,016	0,021
-116,366	348,064	0,057	0,081
-115,351	45,822	-0,079	0,052
-114,337	-200,000	-0,014	0,111
-113,322	-200,000	-0,015	0,112
-112,307	197,020	-0,098	0,107
-111,293	-129,036	0,176	-0,017
-110,278	20,124	0,094	0,054
-109,264	223,778	-0,070	0,081
-108,249	-200,000	0,010	0,192
-107,234	537,441	-0,060	0,102
-106,220	-200,000	-0,025	-0,102
-105,205	-111,013	-0,155	0,022
-104,191	800,000	0,058	-0,134
-103,176	800,000	-0,016	0,036
-102,162	-200,000	0,027	-0,265
-101,147	90,173	0,053	-0,042
-100,132	463,890	-0,087	-0,138
-99,118	-139,588	-0,042	-0,003
-98,103	-200,000	0,021	-0,070
-97,089	262,438	-0,037	0,046
-96,074	-3,502	0,103	0,051
-95,059	-33,193	-0,079	0,031
-94,045	800,000	-0,027	0,067
-93,030	23,277	-0,060	0,035
-92,016	-59,333	-0,194	-0,059
-91,001	-71,325	-0,036	-0,009
-89,986	-78,264	-0,081	0,020
-88,972	-16,018	0,126	0,057
-87,957	64,405	0,059	0,042
-86,943	-200,000	-0,004	0,099
-85,928	2,072	0,013	-0,007
-84,913	383,788	-0,016	0,024
-83,899	117,626	-0,025	0,022
-82,884	298,659	0,065	-0,086
-81,870	-6,361	0,180	-0,087
-80,855	-26,825	-0,137	-0,057
-79,840	-200,000	-0,025	0,137
-78,826	-200,000	-0,025	-0,141
-77,811	-95,998	-0,036	0,007
-76,797	-200,000	0,014	0,077
-75,782	800,000	-0,063	0,157
-74,767	-200,000	0,015	0,076
-73,753	-200,000	-0,003	-0,017
-72,738	-113,912	-0,091	-0,012
-71,724	-200,000	-0,035	-0,140
-70,709	507,434	0,040	-0,066
-69,694	-200,000	0,021	-0,111
-68,680	324,138	0,107	0,145
-67,665	230,104	0,125	0,145
-66,651	-121,596	0,061	0,007
-65,636	-200,000	0,037	-0,147
-64,622	-200,000	0,024	-0,075
-63,607	407,489	0,049	-0,073
-62,592	85,292	0,052	-0,040
-61,578	43,976	0,051	0,033
-60,563	-22,235	-0,087	-0,037
-59,549	-200,000	0,019	-0,065
-58,534	-115,828	-1,310	-0,172
-57,519	351,475	-1,663	-2,343
-56,505	-200,000	-0,488	-4,385
-55,490	137,680	0,766	0,712
-54,476	800,000	4,744	11,252
-53,461	-200,000	17,037	267,114
-52,446	800,000	713,958	2176,856
-51,432	551,937	1628,769	2785,753
-50,417	81,514	1654,792	1268,507
-49,403	24,442	1529,489	895,053
-48,388	18,448	1452,833	821,346
-47,373	18,538	1442,304	815,793
-46,359	18,269	1433,154	809,304
-45,344	16,729	1428,537	799,359
-44,330	16,687	1426,397	797,930
-43,315	16,754	1424,695	797,263
-42,300	16,701	1423,277	796,187
-41,286	16,756	1422,026	795,719
-40,271	16,766	1420,676	794,976
-39,257	16,666	1419,536	793,838
-38,242	16,752	1418,062	793,385
-37,227	16,787	1416,839	792,835
-36,213	16,739	1415,710	791,946
-35,198	16,797	1414,455	791,485
-34,184	16,750	1413,562	790,734
-33,169	16,647	1412,313	789,521
-32,154	16,777	1411,156	789,448
-31,140	16,752	1409,992	788,652
-30,125	16,790	1408,618	788,028
-29,111	16,733	1407,751	787,247
-28,096	16,719	1406,637	786,528
-27,082	16,700	1405,409	785,718
-26,067	16,690	1404,324	785,037
-25,052	16,716	1403,174	784,484
-24,038	16,654	1402,391	783,724
-23,023	16,651	1401,155	782,990
-22,009	16,592	1400,304	782,206
-20,994	16,577	1399,484	781,648
-19,979	16,573	1398,620	781,116
-18,965	16,573	1397,549	780,489
-17,950	16,572	1396,671	779,961
-16,936	16,564	1395,709	779,358
-15,921	16,555	1394,502	778,609
-14,906	16,554	1393,514	778,024
-13,892	16,587	1392,599	777,632
-12,877	16,575	1391,839	777,124
-11,863	16,571	1390,744	776,463
-10,848	16,531	1390,001	775,830
-9,833	16,522	1388,965	775,182
-8,819	16,510	1388,190	774,661
-7,804	16,508	1387,033	773,978
-6,790	16,457	1386,100	773,190
-5,775	16,472	1385,055	772,644
-4,760	16,411	1384,330	771,930
-3,746	16,456	1383,433	771,607
-2,731	16,434	1382,681	771,057
-1,717	16,407	1381,612	770,306
-0,702	16,420	1379,662	769,247
0,313	20,183	1301,784	743,178
1,327	36,610	708,094	442,386
2,342	56,289	125,993	86,661
3,356	5,920	16,654	8,713
4,371	0,629	3,074	1,554
5,386	47,617	0,437	0,289
6,400	800,000	0,049	0,141
7,415	42,963	-0,171	-0,110
8,429	9,336	-0,297	-0,159
9,444	180,642	-0,382	-0,398
10,459	322,242	-0,241	-0,325
11,473	22,711	-0,292	-0,169
12,488	56,894	-0,346	-0,239
13,502	-1,356	-0,277	-0,138
14,517	-175,893	-0,400	-0,007
15,531	-6,352	-0,478	-0,230
16,546	176,548	-0,254	-0,262
17,561	56,276	-0,378	-0,260
18,575	395,670	-0,102	-0,151
19,590	481,734	-0,231	-0,373
20,604	184,346	-0,175	-0,184
21,619	91,461	-0,464	-0,369
22,634	93,225	-0,505	-0,404
23,648	66,797	-0,383	-0,276
24,663	70,910	-0,359	-0,263
25,677	159,678	-0,318	-0,314
26,692	59,044	-0,352	-0,245
27,707	78,831	-0,447	-0,338
28,721	99,751	-0,398	-0,326
29,736	133,283	-0,433	-0,396
30,750	198,931	-0,395	-0,428
31,765	588,747	-0,234	-0,409
32,780	121,553	-0,397	-0,350
33,794	214,343	-0,248	-0,278
34,809	83,626	-0,347	-0,268
35,823	160,228	-0,343	-0,339
36,838	43,111	-0,561	-0,361
37,853	143,035	-0,381	-0,358
38,867	143,613	-0,353	-0,333
39,882	85,182	-0,268	-0,207
40,896	101,587	-0,269	-0,222
41,911	126,606	-0,295	-0,264
42,926	113,979	-0,406	-0,349
43,940	85,750	-0,327	-0,254
44,955	126,918	-0,394	-0,353
45,969	94,993	-0,369	-0,297
46,984	-85,587	-0,239	-0,052
47,999	93,443	-0,284	-0,227
49,013	-89,002	-0,360	-0,075
50,028	63,283	-0,311	-0,220
51,042	224,290	-0,249	-0,285
52,057	115,468	-0,240	-0,207
53,071	155,614	-0,302	-0,293
54,086	328,227	-0,278	-0,378
55,101	221,799	-0,226	-0,256
56,115	-77,116	-0,435	-0,106
57,130	8,172	-0,354	-0,187
58,144	119,061	-0,285	-0,248
59,159	-10,721	-0,373	-0,173
60,174	82,967	-0,343	-0,263
61,188	72,222	-0,430	-0,315
62,203	3,570	-0,353	-0,181
63,217	-45,609	-0,337	-0,117
64,232	-77,158	-0,391	-0,095
65,247	-20,138	-0,389	-0,168
66,261	-23,572	-0,449	-0,189
67,276	-23,686	-0,516	-0,217
68,290	91,388	-0,321	-0,254
69,305	-0,909	-0,348	-0,173
70,320	148,062	-0,249	-0,236
71,334	210,971	-0,189	-0,209
72,349	-13,067	-0,389	-0,178
73,363	34,827	-0,407	-0,250
74,378	119,749	-0,415	-0,362
75,393	124,575	-0,313	-0,278
76,407	-47,341	-0,237	-0,081
77,422	242,347	-0,261	-0,308
78,436	-124,584	-0,152	-0,016
79,451	70,979	-0,335	-0,244
80,466	101,960	-0,370	-0,304
81,480	282,003	-0,318	-0,402
82,495	14,916	-0,354	-0,195
83,509	52,980	-0,268	-0,180
84,524	-153,930	-0,210	-0,010
85,539	153,711	-0,220	-0,213
86,553	-129,703	-0,242	-0,023
87,568	44,893	-0,247	-0,160
88,582	14,151	-0,298	-0,163
89,597	10,215	-0,265	-0,142
90,611	-17,156	-0,335	-0,148
91,626	-28,240	-0,171	-0,069
92,641	-30,253	-0,325	-0,129
93,655	62,186	-0,263	-0,184
94,670	-89,586	-0,317	-0,065
95,684	-45,206	-0,292	-0,101
96,699	-15,644	-0,282	-0,126
97,714	-3,684	-0,353	-0,172
98,728	63,779	-0,310	-0,218
99,743	61,623	-0,206	-0,144
100,757	32,793	-0,264	-0,160
101,772	92,209	-0,286	-0,226
102,787	114,428	-0,384	-0,328
103,801	533,632	-0,237	-0,397
104,816	-41,419	-0,300	-0,108
105,830	53,357	-0,288	-0,193
106,845	59,791	-0,199	-0,138
107,860	-19,731	-0,254	-0,110
108,874	54,983	-0,350	-0,237
109,889	654,584	-0,161	-0,291
110,903	150,268	-0,276	-0,263
111,918	61,608	-0,193	-0,135
112,933	350,248	-0,193	-0,269
113,947	169,069	-0,186	-0,187
114,962	-103,200	-0,299	-0,049
115,976	44,253	-0,174	-0,112
116,991	42,133	-0,304	-0,193
118,006	-32,007	-0,345	-0,135
119,020	-92,197	-0,141	-0,028
120,035	800,000	-0,141	-0,287
121,049	357,889	-0,210	-0,295
122,064	231,947	-0,163	-0,187
123,079	88,153	-0,254	-0,198
124,093	195,320	-0,270	-0,288
125,108	43,658	-0,199	-0,128
126,122	125,972	-0,166	-0,147
127,137	28,657	-0,115	-0,068
128,151	141,194	-0,103	-0,095
129,166	49,091	-0,270	-0,178
130,181	66,130	-0,186	-0,132
131,195	-110,714	-0,288	-0,041
132,210	148,300	-0,293	-0,278
133,224	26,765	-0,265	-0,155
134,239	-46,623	-0,261	-0,089
135,254	117,741	-0,146	-0,126
136,268	41,742	-0,244	-0,155
137,283	-70,708	-0,243	-0,064
138,297	-22,163	-0,373	-0,158
139,312	67,327	-0,349	-0,249
140,327	406,728	-0,216	-0,321
141,341	271,806	-0,131	-0,162
142,356	537,682	-0,187	-0,312
143,370	212,528	-0,214	-0,237
144,385	145,109	-0,204	-0,191
145,400	305,491	-0,165	-0,216
146,414	-44,560	-0,409	-0,142
147,429	282,647	-0,223	-0,281
148,443	703,352	-0,181	-0,335
149,458	211,264	-0,307	-0,338
150,473	223,995	-0,140	-0,158
151,487	-2,541	-0,309	-0,151
152,502	-4,542	-0,290	-0,140
153,516	78,401	-0,348	-0,260
154,531	352,527	-0,228	-0,317
155,546	433,594	-0,137	-0,209
156,560	11,000	-0,110	-0,059
157,575	-158,558	-0,259	0,010
158,589	13,757	-0,327	-0,177
159,604	143,566	-0,258	-0,240
160,619	178,323	-0,177	-0,181
161,633	800,000	-0,095	-0,291
162,648	-109,410	-0,374	-0,055
163,662	151,223	-0,098	-0,093
164,677	44,623	-0,169	-0,108
165,692	67,162	-0,139	-0,099
166,706	100,449	-0,286	-0,232
167,721	55,180	-0,351	-0,237
168,735	120,637	-0,276	-0,240
169,750	162,656	-0,239	-0,235
170,764	30,811	-0,262	-0,156
171,779	246,489	-0,171	-0,202
172,794	40,837	-0,112	-0,070
173,808	150,023	-0,171	-0,162
174,823	40,517	-0,265	-0,166
175,837	77,803	-0,244	-0,181
176,852	224,539	-0,235	-0,265
177,867	800,000	-0,101	-0,211
178,881	-122,438	-0,148	-0,017
179,896	26,742	-0,203	-0,118
180,910	-76,447	-0,279	-0,068
181,925	-47,386	-0,207	-0,070
182,940	71,448	-0,202	-0,146
183,954	184,601	-0,299	-0,310
184,969	306,091	-0,158	-0,205
185,983	213,950	-0,174	-0,192
186,998	34,112	-0,329	-0,199
188,013	8,238	-0,265	-0,139
189,027	44,225	-0,168	-0,107
190,042	366,628	-0,187	-0,264
191,056	-71,145	-0,228	-0,059
192,071	-96,789	-0,278	-0,050
193,086	800,000	-0,099	-0,199
194,100	59,680	-0,208	-0,143
195,115	-44,726	-0,193	-0,067
196,129	259,576	-0,098	-0,118
197,144	-11,227	-0,302	-0,138
198,159	51,632	-0,229	-0,152
199,173	175,026	-0,196	-0,198
200,188	667,527	-0,060	-0,108
201,202	-39,653	-0,094	0,034
202,217	147,735	-0,139	-0,130
203,232	36,569	-0,132	-0,081
204,246	477,267	-0,172	-0,272
205,261	160,548	-0,247	-0,240
206,275	210,904	-0,250	-0,274
207,290	104,617	-0,082	-0,067
208,304	483,245	-0,115	-0,183
209,319	82,170	-0,103	-0,078
210,334	57,205	-0,249	-0,169
211,348	800,000	-0,073	-0,224
212,363	-62,790	-0,331	-0,095
213,377	286,622	-0,212	-0,267
214,392	-93,836	-0,132	-0,025
215,407	77,273	-0,233	-0,172
216,421	371,757	-0,094	-0,133
217,436	296,029	-0,167	-0,214
218,450	117,446	-0,259	-0,221
219,465	136,215	-0,235	-0,214
220,480	59,786	-0,241	-0,165
221,494	83,643	-0,129	-0,098
222,509	-138,594	-0,227	0,017
223,523	30,072	-0,194	-0,115
224,538	325,854	-0,134	-0,178
225,553	175,339	-0,149	-0,150
226,567	250,776	-0,145	-0,171
227,582	-12,010	-0,195	-0,088
228,596	359,010	-0,171	-0,239
229,611	17,740	-0,095	-0,052
230,626	-93,428	-0,207	-0,039
231,640	657,060	-0,106	-0,191
232,655	-0,851	-0,199	-0,098
233,669	330,087	-0,184	-0,247
234,684	137,068	-0,243	-0,221
235,699	800,000	-0,059	-0,162
236,713	339,030	-0,090	-0,121
237,728	-64,050	-0,236	-0,066
238,742	92,974	-0,171	-0,134
239,757	399,566	-0,101	-0,148
240,772	-200,000	-0,051	-0,213
241,786	-90,117	-0,181	-0,036
242,801	30,440	-0,260	-0,154
243,815	-200,000	-0,038	-0,127
244,830	-185,870	-0,108	0,001
245,844	-2,638	-0,137	0,066
246,859	337,553	-0,175	-0,237
247,874	35,350	-0,307	-0,186
248,888	48,972	-0,163	-0,106
249,903	429,539	-0,183	-0,275
250,917	82,870	-0,093	-0,070
251,932	465,626	-0,115	-0,180
252,947	-138,821	-0,173	0,013
253,961	40,196	-0,184	-0,115
254,976	-41,158	-0,238	-0,085
255,990	138,903	-0,196	-0,179
257,005	380,316	-0,139	-0,198
258,020	358,921	-0,078	-0,108
259,034	-100,184	-0,128	-0,022
260,049	65,061	-0,223	-0,156
261,063	-153,118	-0,099	-0,005
262,078	95,313	-0,088	-0,070
263,093	23,242	-0,205	-0,117
264,107	276,925	-0,163	-0,201
265,122	-200,000	0,008	-0,035
266,136	-11,471	-0,246	-0,112
267,151	800,000	-0,053	-0,130
268,166	115,823	-0,093	-0,079
269,180	63,250	-0,153	0,106
270,195	62,498	-0,180	-0,125
271,209	-200,000	-0,066	-0,205
272,224	310,842	-0,113	-0,148
273,239	208,689	-0,121	-0,132
274,253	-18,428	-0,170	-0,073
275,268	-17,126	-0,121	-0,052
276,282	-35,388	-0,128	-0,048
277,297	697,424	-0,086	-0,158
278,312	-27,282	-0,172	-0,069
279,326	149,645	-0,170	-0,160
280,341	136,232	-0,138	-0,124
281,355	125,887	-0,075	-0,065
282,370	120,678	-0,166	-0,143
283,384	-43,410	-0,223	-0,078
284,399	310,122	-0,076	-0,099
285,414	24,213	-0,094	-0,053
286,428	58,806	-0,190	0,129
287,443	110,087	-0,116	-0,097
288,457	294,842	-0,033	0,041
289,472	20,025	-0,145	-0,081
290,487	407,437	-0,153	-0,225
291,501	187,245	-0,209	-0,216
292,516	455,023	-0,077	-0,119
293,530	184,345	-0,066	-0,067
294,545	346,021	-0,124	-0,168
295,560	57,420	-0,191	-0,128
296,574	84,476	-0,100	-0,076
297,589	-93,024	-0,230	-0,044
298,603	-53,447	-0,222	-0,070
299,618	800,000	-0,084	-0,189
300,633	10,883	-0,138	-0,072
301,647	-15,308	-0,039	0,017
302,662	-79,941	-0,081	-0,019
303,676	111,159	-0,093	-0,078
304,691	609,095	-0,072	-0,125
305,706	207,807	-0,112	-0,121
306,720	-48,699	-0,107	-0,035
307,735	-56,186	-0,146	-0,045
308,749	-73,364	-0,153	-0,038
309,764	-137,530	-0,088	-0,007
310,779	-120,854	-0,176	0,020
311,793	-116,724	-0,155	-0,019
312,808	67,403	-0,178	-0,125
313,822	-107,922	-0,268	0,040
314,837	-34,744	-0,172	-0,065
315,852	-22,303	-0,174	0,072
316,866	357,713	-0,074	-0,102
317,881	-109,273	-0,031	0,005
318,895	-148,448	-0,154	-0,009
319,910	-9,484	-0,267	-0,122
320,925	-74,541	-0,150	-0,037
321,939	143,366	-0,165	-0,151
322,954	-131,379	-0,090	-0,008
323,968	775,450	-0,069	-0,130
324,983	-90,051	-0,151	-0,030
325,997	349,169	-0,103	-0,140
327,012	-118,791	-0,048	0,006
328,027	76,534	-0,211	-0,154
329,041	800,000	-0,084	-0,227
330,056	174,616	-0,133	-0,133
331,070	800,000	-0,032	-0,083
332,085	117,706	-0,110	-0,093
333,100	405,793	-0,105	-0,153
334,114	-58,614	-0,180	-0,053
335,129	533,406	-0,143	-0,234
336,143	-1,029	-0,139	-0,067
337,158	-200,000	-0,013	-0,068
338,173	-17,858	-0,189	-0,081
339,187	-121,214	-0,171	0,019
340,202	278,459	-0,065	-0,080
341,216	4,810	-0,181	-0,091
342,231	96,316	-0,158	-0,124
343,246	87,673	-0,125	-0,095
344,260	499,007	-0,090	-0,143
345,275	64,372	-0,210	-0,145
346,289	40,353	-0,145	-0,090
347,304	-72,627	-0,202	-0,051
348,319	164,662	-0,137	-0,133
349,333	337,908	-0,162	-0,218
350,348	215,744	-0,110	-0,120
351,362	-58,627	-0,147	-0,043
352,377	135,072	-0,069	-0,061
353,392	800,000	0,033	-0,082
354,406	-72,205	-0,143	0,036
355,421	210,858	1313,589	1421,045
356,435	162,339	1474,227	1421,577
