DTS Sentinel unit serial number:	SN410029Multiplexer serial number:	ORYXHardware model number:	OX2-SRSoftware version number:	ORYX F/W v4,00 Oryx Data Collector v3.7.2.0data status	okinstallation	B3 Nyhavnadifferential loss correction	single-endedforward channel	channel 1reverse channel	N/Adate	2023/12/04time	23:22:30forward acquisition time	300,00reverse acquisition time	0,00gamma	499,1914k internal	0,3200k external	0,3200temperature offset calibration	1,0000default loss term (dB/km)	0,3820temperature slope calibration	1,0000multiplexer offset coefficient	1,0000multiplexer slope coefficient	1,0000fibre end	0,00T internal ref (°C)	14,22T ext. ref 1 (°C)	-1,12T ext. ref 2 (°C)	-1,14length (m)	temperature (°C)	Stokes	anti-Stokes-744,400	153,169	-0,328	-0,326
-743,385	-200,000	-0,000	0,269
-742,371	800,000	-0,089	-0,251
-741,356	-200,000	-0,015	0,453
-740,342	-200,000	0,016	-0,093
-739,327	-200,000	0,046	0,278
-738,312	122,413	-0,135	-0,123
-737,298	-200,000	-0,029	0,341
-736,283	-22,356	-0,064	-0,028
-735,269	624,448	0,078	0,144
-734,254	-22,030	-0,206	-0,091
-733,239	-169,404	-0,231	-0,006
-732,225	189,964	-0,111	-0,121
-731,210	800,000	0,058	0,172
-730,196	158,731	-0,025	0,025
-729,181	-113,241	-0,185	0,026
-728,167	800,000	0,019	-0,049
-727,152	-200,000	0,008	0,061
-726,137	181,916	-0,157	-0,168
-725,123	328,273	-0,078	-0,109
-724,108	-130,462	0,092	0,009
-723,094	-75,356	-0,116	-0,030
-722,079	366,098	-0,046	-0,068
-721,064	6,429	-0,056	-0,030
-720,050	-200,000	0,011	-0,112
-719,035	620,610	-0,026	-0,049
-718,021	-54,802	-0,146	-0,048
-717,006	800,000	-0,050	-0,110
-715,991	482,678	-0,124	-0,206
-714,977	800,000	0,043	-0,114
-713,962	-98,434	-0,069	0,013
-712,948	-61,651	0,145	-0,044
-711,933	-90,748	0,080	0,017
-710,918	570,380	-0,062	0,111
-709,904	245,883	-0,081	-0,099
-708,889	141,110	0,039	0,037
-707,875	-14,129	-0,141	-0,066
-706,860	595,120	0,052	-0,094
-705,845	744,525	-0,017	0,034
-704,831	-34,393	0,073	0,029
-703,816	327,716	0,059	0,083
-702,802	-129,311	-0,108	0,011
-701,787	112,073	-0,046	-0,040
-700,772	84,198	-0,064	-0,051
-699,758	74,351	0,065	-0,050
-698,743	7,380	0,121	0,066
-697,729	-95,533	0,039	-0,008
-696,714	-124,746	0,047	0,005
-695,699	681,929	-0,073	-0,139
-694,685	800,000	0,011	-0,023
-693,670	-141,197	-0,165	-0,012
-692,656	-161,486	-0,070	-0,003
-691,641	458,188	0,010	-0,016
-690,627	618,509	-0,021	-0,039
-689,612	371,129	-0,063	-0,093
-688,597	-200,000	-0,001	0,100
-687,583	800,000	0,085	-0,175
-686,568	-23,529	-0,076	0,033
-685,554	400,399	0,064	0,098
-684,539	-200,000	0,004	0,040
-683,524	-180,288	-0,127	-0,002
-682,510	-200,000	0,011	-0,035
-681,495	676,649	-0,094	-0,178
-680,481	223,407	-0,081	-0,095
-679,466	-200,000	0,024	-0,086
-678,451	-103,654	-0,097	-0,016
-677,437	-24,635	-0,092	0,039
-676,422	-161,137	0,113	-0,004
-675,408	155,700	-0,080	-0,080
-674,393	800,000	0,039	-0,108
-673,378	-88,885	-0,131	-0,028
-672,364	158,035	-0,030	-0,030
-671,349	115,058	-0,072	0,064
-670,335	-37,119	-0,045	0,017
-669,320	-200,000	0,007	0,071
-668,305	-2,167	-0,033	-0,017
-667,291	-200,000	0,018	0,112
-666,276	429,671	-0,021	0,033
-665,262	-148,001	-0,078	0,005
-664,247	-62,527	0,041	-0,012
-663,232	-114,635	0,094	0,013
-662,218	-200,000	-0,002	0,036
-661,203	-200,000	-0,010	0,161
-660,189	56,310	0,055	0,039
-659,174	219,615	-0,083	-0,097
-658,159	126,613	-0,028	0,025
-657,145	-200,000	-0,008	0,089
-656,130	-51,256	0,047	0,016
-655,116	137,921	0,036	-0,034
-654,101	542,350	-0,058	0,100
-653,086	75,544	-0,106	-0,081
-652,072	-131,088	0,047	-0,005
-651,057	-153,459	-0,180	0,009
-650,043	800,000	0,005	0,012
-649,028	78,020	0,019	0,015
-648,014	18,166	0,102	0,059
-646,999	-200,000	0,016	0,173
-645,984	-27,843	-0,052	-0,022
-644,970	505,394	-0,062	-0,105
-643,955	567,806	-0,049	0,086
-642,941	434,867	-0,065	-0,103
-641,926	-200,000	0,003	-0,092
-640,911	800,000	-0,037	-0,096
-639,897	-89,791	0,097	0,020
-638,882	800,000	-0,071	0,178
-637,868	255,507	-0,042	-0,052
-636,853	645,330	0,051	-0,095
-635,838	-23,783	-0,069	-0,030
-634,824	800,000	-0,033	-0,071
-633,809	536,612	0,082	-0,141
-632,795	-64,527	-0,102	-0,030
-631,780	-84,794	0,135	0,030
-630,765	-16,980	-0,024	-0,011
-629,751	800,000	-0,019	-0,046
-628,736	-89,632	-0,136	0,029
-627,722	-166,982	-0,044	-0,001
-626,707	96,012	0,113	-0,093
-625,692	-45,510	0,123	-0,044
-624,678	-200,000	0,003	0,099
-623,663	1,677	-0,078	-0,040
-622,649	-80,887	0,031	0,007
-621,634	183,473	-0,101	-0,108
-620,619	-108,857	0,141	-0,022
-619,605	189,631	-0,035	0,038
-618,590	-65,622	0,131	-0,038
-617,576	-200,000	0,026	-0,090
-616,561	143,139	0,019	-0,018
-615,546	-200,000	0,010	-0,064
-614,532	-200,000	-0,002	0,037
-613,517	-55,160	-0,128	-0,042
-612,503	159,476	-0,030	-0,030
-611,488	-94,444	-0,044	-0,009
-610,474	-200,000	-0,021	0,147
-609,459	286,146	0,082	-0,107
-608,444	-200,000	0,011	-0,115
-607,430	219,750	-0,068	-0,079
-606,415	800,000	-0,022	-0,051
-605,401	800,000	-0,071	0,220
-604,386	-200,000	-0,000	0,125
-603,371	-106,522	0,016	0,003
-602,357	-84,969	-0,072	-0,016
-601,342	-39,595	-0,144	-0,054
-600,328	-200,000	-0,000	0,008
-599,313	377,537	-0,028	0,042
-598,298	-200,000	0,003	-0,045
-597,284	-20,101	-0,208	0,092
-596,269	-29,720	-0,051	0,021
-595,255	-200,000	-0,005	0,024
-594,240	-17,975	-0,076	0,034
-593,225	-200,000	0,002	-0,051
-592,211	132,884	-0,068	-0,064
-591,196	275,244	0,085	-0,109
-590,182	56,183	0,041	-0,029
-589,167	800,000	0,021	0,067
-588,152	646,812	-0,037	-0,069
-587,138	283,993	0,062	0,080
-586,123	-127,578	-0,012	-0,001
-585,109	219,236	-0,093	-0,108
-584,094	-200,000	-0,013	0,111
-583,079	-200,000	-0,013	0,053
-582,065	-117,114	0,073	-0,010
-581,050	23,052	-0,099	-0,059
-580,036	243,333	0,073	-0,088
-579,021	61,708	0,052	-0,037
-578,006	-95,033	0,060	0,012
-576,992	-89,531	0,117	0,025
-575,977	26,028	-0,151	-0,091
-574,963	345,223	0,116	0,164
-573,948	18,955	-0,181	0,105
-572,934	-200,000	0,043	-0,246
-571,919	-42,130	-0,152	-0,056
-570,904	1,481	-0,055	-0,029
-569,890	44,161	0,068	-0,045
-568,875	378,645	-0,089	-0,132
-567,861	-200,000	0,001	0,051
-566,846	-32,521	0,169	0,068
-565,831	-200,000	-0,014	0,136
-564,817	136,061	0,088	-0,082
-563,802	-200,000	0,015	-0,074
-562,788	-200,000	-0,018	0,079
-561,773	50,589	0,063	-0,043
-560,758	86,018	-0,057	0,045
-559,744	-93,659	0,053	0,011
-558,729	800,000	-0,074	-0,174
-557,715	-200,000	0,002	0,054
-556,700	-122,113	-0,068	-0,008
-555,685	-139,621	-0,058	0,004
-554,671	800,000	-0,036	0,106
-553,656	800,000	0,043	0,087
-552,642	203,196	0,114	0,127
-551,627	105,936	0,041	-0,035
-550,612	-200,000	-0,001	-0,116
-549,598	-200,000	0,023	-0,088
-548,583	215,911	-0,046	-0,053
-547,569	86,326	0,045	0,036
-546,554	-200,000	-0,011	0,071
-545,539	-200,000	-0,005	-0,049
-544,525	-200,000	0,015	0,078
-543,510	-48,890	-0,037	-0,013
-542,496	-136,292	-0,161	0,013
-541,481	-125,878	-0,101	-0,011
-540,466	357,631	0,044	0,064
-539,452	30,939	0,176	-0,109
-538,437	-38,710	0,045	0,017
-537,423	-143,080	0,150	0,010
-536,408	-29,335	0,031	-0,013
-535,393	8,053	-0,118	0,064
-534,379	-71,635	-0,203	-0,054
-533,364	161,719	0,017	0,018
-532,350	-45,175	-0,065	0,023
-531,335	-130,284	-0,067	-0,007
-530,321	39,712	0,025	0,016
-529,306	92,270	0,063	-0,051
-528,291	-22,851	-0,096	0,042
-527,277	475,761	-0,081	-0,132
-526,262	197,481	-0,024	0,027
-525,248	576,790	0,074	0,131
-524,233	-4,148	0,086	-0,043
-523,218	153,909	0,064	0,064
-522,204	-200,000	-0,001	-0,099
-521,189	95,955	0,104	0,086
-520,175	800,000	-0,018	-0,045
-519,160	103,846	0,042	-0,036
-518,145	-121,597	-0,236	-0,028
-517,131	-200,000	-0,039	0,125
-516,116	-200,000	0,002	-0,066
-515,102	-200,000	-0,018	-0,152
-514,087	-87,628	0,122	0,026
-513,072	410,485	-0,031	0,048
-512,058	-200,000	0,009	0,000
-511,043	-200,000	-0,042	-0,164
-510,029	-81,873	0,057	-0,013
-509,014	-200,000	0,012	0,132
-507,999	38,469	0,045	0,029
-506,985	-200,000	-0,036	0,159
-505,970	-200,000	0,023	-0,099
-504,956	-125,544	-0,177	0,019
-503,941	-200,000	-0,006	-0,077
-502,926	-200,000	-0,003	0,041
-501,912	-30,408	0,187	0,076
-500,897	-200,000	-0,004	0,127
-499,883	-23,406	-0,042	0,018
-498,868	450,312	-0,044	-0,069
-497,853	130,735	0,039	-0,036
-496,839	135,958	0,054	-0,051
-495,824	-20,190	0,049	-0,022
-494,810	133,573	0,049	-0,045
-493,795	-87,077	0,064	-0,014
-492,781	-200,000	0,010	0,036
-491,766	-200,000	0,010	-0,080
-490,751	-12,405	0,026	-0,012
-489,737	-200,000	0,016	-0,082
-488,722	800,000	0,048	0,098
-487,708	29,838	0,069	-0,042
-486,693	800,000	-0,026	-0,076
-485,678	-200,000	-0,004	-0,036
-484,664	-200,000	-0,007	-0,119
-483,649	-200,000	-0,001	-0,091
-482,635	-200,000	0,015	0,117
-481,620	-200,000	0,002	-0,032
-480,605	-106,233	0,027	-0,004
-479,591	-19,585	-0,168	0,075
-478,576	-35,432	-0,035	0,014
-477,562	-58,681	-0,091	0,028
-476,547	-135,418	0,100	-0,008
-475,532	800,000	-0,017	0,050
-474,518	6,651	-0,037	0,020
-473,503	800,000	-0,028	0,075
-472,489	-200,000	0,028	0,127
-471,474	88,790	-0,100	-0,080
-470,459	-200,000	-0,001	-0,026
-469,445	-11,851	-0,060	0,028
-468,430	-31,780	0,065	-0,026
-467,416	800,000	0,047	0,127
-466,401	-200,000	0,005	0,112
-465,386	151,255	0,097	0,095
-464,372	-165,194	-0,047	0,001
-463,357	117,120	-0,028	0,025
-462,343	-120,278	0,130	-0,016
-461,328	-141,396	-0,066	-0,005
-460,313	800,000	0,047	0,102
-459,299	142,362	-0,015	-0,014
-458,284	-81,096	-0,085	-0,020
-457,270	800,000	-0,023	0,073
-456,255	-42,593	-0,024	0,009
-455,241	-200,000	-0,001	-0,053
-454,226	242,026	-0,123	-0,148
-453,211	104,557	0,186	-0,158
-452,197	132,927	-0,046	0,043
-451,182	214,445	0,084	-0,096
-450,168	-67,506	-0,057	0,016
-449,153	603,028	-0,071	-0,128
-448,138	-51,169	-0,144	-0,048
-447,124	800,000	-0,027	0,070
-446,109	-63,930	-0,124	-0,036
-445,095	-42,455	-0,058	0,021
-444,080	-55,669	0,128	0,041
-443,065	-200,000	0,045	0,168
-442,051	800,000	-0,042	-0,116
-441,036	-71,486	-0,113	-0,030
-440,022	-30,411	-0,150	-0,061
-439,007	-200,000	0,009	-0,113
-437,992	-200,000	-0,003	0,130
-436,978	-1,784	0,191	0,097
-435,963	473,877	0,049	-0,080
-434,949	1,350	-0,092	-0,048
-433,934	38,665	-0,166	-0,106
-432,919	-200,000	-0,010	-0,054
-431,905	58,604	-0,029	-0,021
-430,890	98,996	0,070	0,058
-429,876	39,143	0,052	0,033
-428,861	367,263	-0,037	-0,053
-427,846	25,961	0,079	0,047
-426,832	-44,089	-0,156	-0,056
-425,817	800,000	0,024	0,056
-424,803	41,788	-0,075	-0,049
-423,788	2,812	0,170	0,089
-422,773	256,155	0,028	0,035
-421,759	-200,000	0,027	0,099
-420,744	-95,189	0,138	-0,027
-419,730	800,000	0,009	-0,028
-418,715	-145,084	0,119	0,008
-417,701	800,000	-0,060	0,122
-416,686	-200,000	0,022	0,117
-415,671	169,139	-0,080	-0,082
-414,657	-200,000	0,032	0,215
-413,642	-200,000	0,021	-0,174
-412,628	-200,000	0,001	-0,050
-411,613	473,224	0,047	-0,076
-410,598	-153,051	0,094	0,005
-409,584	-107,999	0,113	-0,017
-408,569	-65,450	0,149	-0,043
-407,555	800,000	-0,082	-0,165
-406,540	-97,410	-0,024	-0,005
-405,525	-200,000	-0,030	0,111
-404,511	473,993	-0,031	-0,050
-403,496	800,000	-0,024	0,053
-402,482	-200,000	0,052	-0,169
-401,467	-200,000	-0,012	0,098
-400,452	-92,676	0,116	0,023
-399,438	684,183	-0,032	0,060
-398,423	-200,000	0,008	-0,025
-397,409	287,252	-0,049	-0,063
-396,394	800,000	-0,047	-0,107
-395,379	-128,270	0,125	-0,013
-394,365	220,948	-0,052	-0,060
-393,350	73,013	-0,063	-0,047
-392,336	-200,000	0,028	0,095
-391,321	-94,662	-0,100	0,019
-390,306	125,555	0,010	-0,009
-389,292	-200,000	-0,004	-0,072
-388,277	-78,317	-0,046	-0,011
-387,263	-89,273	0,164	-0,034
-386,248	296,950	0,043	-0,057
-385,233	-91,508	0,152	0,031
-384,219	177,064	-0,070	0,073
-383,204	800,000	-0,028	-0,069
-382,190	-200,000	0,016	-0,123
-381,175	169,953	-0,070	-0,072
-380,160	-200,000	-0,016	0,076
-379,146	-73,460	-0,087	0,023
-378,131	-55,927	-0,056	0,018
-377,117	-200,000	0,004	-0,045
-376,102	-200,000	-0,002	-0,013
-375,088	-200,000	-0,009	-0,089
-374,073	-200,000	0,007	-0,121
-373,058	-54,104	0,106	0,035
-372,044	552,164	-0,080	0,138
-371,029	-200,000	-0,019	0,065
-370,015	-97,622	-0,088	0,016
-369,000	18,118	-0,055	-0,031
-367,985	-200,000	-0,004	0,059
-366,971	-24,371	-0,071	-0,030
-365,956	800,000	-0,031	-0,088
-364,942	-122,897	0,132	0,015
-363,927	-200,000	0,016	-0,080
-362,912	-58,866	-0,072	0,022
-361,898	800,000	-0,039	-0,092
-360,883	-127,830	0,056	0,006
-359,869	291,997	0,080	0,104
-358,854	-140,240	0,084	-0,006
-357,839	373,183	0,037	0,055
-356,825	105,908	0,054	-0,045
-355,810	657,545	0,092	0,171
-354,796	281,785	0,059	0,076
-353,781	-41,848	-0,110	-0,040
-352,766	127,317	-0,085	0,078
-351,752	-200,000	-0,003	-0,042
-350,737	417,753	0,041	-0,063
-349,723	-200,000	0,006	0,038
-348,708	-7,262	0,150	0,072
-347,693	-200,000	0,008	0,112
-346,679	-78,411	-0,096	-0,023
-345,664	-9,190	-0,180	0,086
-344,650	151,446	0,118	0,115
-343,635	274,040	0,068	-0,086
-342,620	-200,000	0,006	0,099
-341,606	45,870	-0,078	0,052
-340,591	632,768	0,018	0,032
-339,577	-200,000	0,003	-0,023
-338,562	800,000	0,048	-0,140
-337,548	800,000	-0,044	0,121
-336,533	800,000	-0,061	-0,133
-335,518	66,029	0,138	0,100
-334,504	800,000	-0,053	0,127
-333,489	-12,454	0,147	0,068
-332,475	-49,927	0,040	0,014
-331,460	-94,531	-0,093	0,018
-330,445	218,483	-0,031	-0,036
-329,431	454,377	0,093	-0,147
-328,416	78,328	0,088	-0,068
-327,402	-200,000	-0,008	0,096
-326,387	-200,000	0,008	0,047
-325,372	800,000	-0,059	-0,128
-324,358	800,000	-0,066	-0,173
-323,343	28,729	-0,042	-0,025
-322,329	-95,277	0,047	-0,009
-321,314	-147,107	-0,081	0,005
-320,299	396,799	0,086	0,130
-319,285	800,000	-0,034	-0,084
-318,270	651,702	-0,065	0,120
-317,256	-16,539	-0,184	0,083
-316,241	800,000	-0,036	0,072
-315,226	791,459	0,056	-0,110
-314,212	-68,758	0,089	-0,025
-313,197	800,000	0,039	0,110
-312,183	-26,851	0,044	-0,019
-311,168	-200,000	-0,011	-0,102
-310,153	334,019	0,027	-0,037
-309,139	49,628	-0,087	0,058
-308,124	-200,000	-0,010	-0,042
-307,110	-122,822	0,118	0,014
-306,095	710,961	-0,036	0,068
-305,080	-71,135	0,039	-0,010
-304,066	-159,718	-0,185	-0,007
-303,051	180,925	-0,084	0,088
-302,037	-15,260	-0,039	-0,018
-301,022	261,158	0,043	0,053
-300,008	331,292	-0,052	0,071
-298,993	119,312	0,081	0,072
-297,978	192,637	0,090	0,098
-296,964	225,683	-0,047	0,055
-295,949	475,368	-0,025	-0,041
-294,935	-200,000	0,003	-0,095
-293,920	134,107	0,028	0,026
-292,905	103,737	0,135	0,113
-291,891	355,783	-0,025	0,035
-290,876	-200,000	0,029	0,118
-289,862	-200,000	-0,017	0,061
-288,847	550,382	-0,054	-0,094
-287,832	-200,000	0,006	-0,051
-286,818	-112,908	-0,076	-0,011
-285,803	325,931	0,051	0,069
-284,789	283,889	0,054	-0,070
-283,774	-102,023	0,089	0,015
-282,759	15,645	0,015	-0,008
-281,745	76,510	-0,224	-0,170
-280,730	-119,350	-0,030	0,004
-279,716	-43,056	-0,079	-0,028
-278,701	315,200	0,042	-0,056
-277,686	62,924	0,080	-0,057
-276,672	800,000	-0,030	0,089
-275,657	472,308	0,035	-0,056
-274,643	800,000	-0,041	-0,089
-273,628	311,025	0,031	0,042
-272,613	-200,000	-0,012	0,084
-271,599	668,122	0,047	0,088
-270,584	-200,000	0,056	0,214
-269,570	253,811	0,067	-0,082
-268,555	800,000	-0,030	-0,072
-267,540	231,163	0,054	-0,064
-266,526	13,904	0,108	0,060
-265,511	-61,853	0,133	0,039
-264,497	-90,750	-0,111	0,023
-263,482	650,991	0,083	0,153
-262,467	79,858	-0,065	0,050
-261,453	-161,119	0,110	-0,004
-260,438	-14,729	-0,113	0,052
-259,424	397,049	-0,091	-0,137
-258,409	622,979	-0,056	-0,102
-257,395	563,990	0,054	0,093
-256,380	-200,000	-0,021	0,132
-255,365	684,818	0,014	-0,026
-254,351	-200,000	-0,010	0,124
-253,336	800,000	-0,038	-0,076
-252,322	-171,686	-0,037	-0,001
-251,307	-36,804	-0,041	-0,015
-250,292	317,831	-0,025	0,034
-249,278	-132,992	0,171	0,015
-248,263	163,084	-0,102	0,102
-247,249	152,561	-0,081	0,079
-246,234	-74,072	-0,083	0,021
-245,219	97,303	0,033	-0,027
-244,205	18,850	-0,122	-0,070
-243,190	-200,000	0,017	-0,107
-242,176	-22,687	-0,041	-0,017
-241,161	-93,522	0,102	-0,020
-240,146	800,000	-0,052	0,162
-239,132	-200,000	0,006	0,036
-238,117	280,369	-0,137	-0,175
-237,103	-48,130	-0,090	-0,031
-236,088	349,196	-0,083	-0,117
-235,073	669,163	0,060	-0,111
-234,059	50,873	-0,119	0,080
-233,044	135,370	0,036	0,034
-232,030	-200,000	-0,001	-0,128
-231,015	601,071	-0,071	-0,126
-230,000	-21,142	0,054	0,023
-228,986	-200,000	0,004	-0,070
-227,971	-200,000	0,011	0,068
-226,957	800,000	0,009	-0,022
-225,942	-5,132	0,076	0,037
-224,927	-200,000	-0,022	0,089
-223,913	431,530	-0,028	0,044
-222,898	-200,000	0,005	-0,088
-221,884	-116,054	-0,143	-0,019
-220,869	-200,000	-0,013	-0,142
-219,855	514,440	0,065	0,108
-218,840	564,752	0,044	0,077
-217,825	116,025	0,040	-0,035
-216,811	47,071	0,068	0,045
-215,796	247,890	-0,045	-0,055
-214,782	37,187	-0,145	-0,091
-213,767	780,911	0,091	-0,178
-212,752	88,448	0,091	0,072
-211,738	-200,000	-0,009	0,090
-210,723	174,449	0,065	0,067
-209,709	800,000	-0,057	0,148
-208,694	44,807	-0,051	-0,033
-207,679	218,939	0,047	0,054
-206,665	25,799	-0,099	0,059
-205,650	75,939	0,103	-0,077
-204,636	800,000	0,027	-0,082
-203,621	-18,558	0,078	-0,034
-202,606	527,946	0,016	0,026
-201,592	101,155	0,097	-0,081
-200,577	95,889	-0,086	0,070
-199,563	800,000	0,061	0,122
-198,548	800,000	-0,038	0,081
-197,533	259,159	0,015	0,018
-196,519	800,000	-0,045	-0,100
-195,504	-78,182	-0,171	-0,042
-194,490	-200,000	0,001	-0,061
-193,475	800,000	0,042	-0,084
-192,460	-200,000	-0,017	0,066
-191,446	63,577	0,207	0,148
-190,431	-37,335	-0,109	0,041
-189,417	71,200	0,099	-0,073
-188,402	800,000	-0,060	-0,130
-187,387	479,303	0,088	-0,142
-186,373	-33,238	-0,021	-0,008
-185,358	1,238	0,120	0,061
-184,344	236,654	0,040	0,047
-183,329	-200,000	0,027	0,102
-182,315	342,338	0,049	0,069
-181,300	-157,265	-0,199	0,008
-180,285	-200,000	-0,025	-0,080
-179,271	-92,639	0,139	0,028
-178,256	1,717	-0,049	0,025
-177,242	341,625	-0,032	0,044
-176,227	-142,585	-0,046	-0,003
-175,212	-7,488	0,112	0,054
-174,198	-54,013	0,157	-0,051
-173,183	-55,890	0,113	0,036
-172,169	16,923	-0,064	0,036
-171,154	-200,000	0,032	-0,127
-170,139	565,679	-0,022	0,039
-169,125	531,227	0,030	0,051
-168,110	-200,000	-0,012	-0,037
-167,096	-160,913	0,032	-0,001
-166,081	-67,021	0,141	0,039
-165,066	-131,062	0,141	-0,013
-164,052	-142,886	-0,179	0,012
-163,037	-148,869	0,061	-0,003
-162,023	-94,170	0,108	-0,021
-161,008	31,115	-0,055	-0,033
-159,993	57,739	0,057	-0,040
-158,979	-181,791	0,072	-0,001
-157,964	602,566	-0,058	0,102
-156,950	468,791	0,055	0,088
-155,935	365,620	-0,038	0,054
-154,920	-109,941	0,027	-0,004
-153,906	-200,000	-0,012	0,211
-152,891	-104,494	0,149	0,024
-151,877	315,748	-0,056	-0,075
-150,862	-200,000	0,003	-0,060
-149,847	-200,000	0,021	0,097
-148,833	-164,941	-0,060	0,002
-147,818	-130,722	0,095	0,009
-146,804	634,034	0,033	-0,060
-145,789	30,466	0,113	0,069
-144,775	-200,000	-0,017	0,080
-143,760	178,875	-0,022	-0,023
-142,745	-200,000	0,021	-0,126
-141,731	-200,000	0,015	-0,061
-140,716	-200,000	-0,006	-0,077
-139,702	666,630	0,070	-0,128
-138,687	388,444	-0,030	0,044
-137,672	293,521	0,034	0,044
-136,658	-51,181	-0,084	-0,028
-135,643	6,630	-0,049	0,026
-134,629	90,181	0,152	-0,121
-133,614	-28,623	0,132	0,054
-132,599	295,222	0,027	0,035
-131,585	-200,000	0,013	0,045
-130,570	235,900	0,086	-0,101
-129,556	800,000	0,018	-0,048
-128,541	59,873	0,087	-0,061
-127,526	800,000	-0,066	-0,131
-126,512	38,279	-0,078	0,049
-125,497	1,367	-0,083	-0,042
-124,483	800,000	0,047	-0,095
-123,468	217,066	0,072	0,082
-122,453	24,497	-0,130	0,076
-121,439	67,516	0,100	-0,073
-120,424	376,213	0,019	-0,027
-119,410	69,804	-0,104	-0,076
-118,395	74,866	0,193	0,144
-117,380	226,639	-0,046	-0,053
-116,366	-33,116	0,066	0,026
-115,351	-200,000	-0,013	-0,128
-114,337	-200,000	-0,003	-0,138
-113,322	800,000	-0,020	0,046
-112,307	-200,000	-0,044	-0,184
-111,293	201,910	0,049	0,054
-110,278	-200,000	-0,004	0,041
-109,264	2,924	0,119	0,061
-108,249	134,155	-0,128	0,118
-107,234	-154,611	-0,132	0,006
-106,220	800,000	0,008	0,021
-105,205	750,061	0,040	-0,077
-104,191	-200,000	0,032	0,110
-103,176	800,000	-0,032	-0,080
-102,162	177,274	-0,060	0,062
-101,147	-125,696	-0,112	0,012
-100,132	255,767	-0,066	-0,080
-99,118	-63,130	0,029	0,008
-98,103	139,087	0,093	0,087
-97,089	800,000	0,040	-0,082
-96,074	-200,000	-0,019	0,148
-95,059	800,000	0,007	0,017
-94,045	-200,000	0,010	0,108
-93,030	-200,000	-0,017	0,075
-92,016	-81,184	0,078	0,018
-91,001	-120,794	-0,063	0,007
-89,986	-5,482	0,041	-0,020
-88,972	527,459	-0,061	0,102
-87,957	286,667	0,041	0,052
-86,943	-94,007	-0,068	0,013
-85,928	382,108	-0,082	-0,120
-84,913	307,206	-0,040	0,054
-83,899	-200,000	0,021	0,105
-82,884	-102,311	-0,052	-0,009
-81,870	73,050	0,103	0,076
-80,855	194,425	-0,060	-0,064
-79,840	1,927	-0,048	-0,024
-78,826	105,168	0,080	-0,067
-77,811	162,508	-0,093	-0,092
-76,797	-200,000	-0,008	-0,064
-75,782	800,000	-0,044	0,090
-74,767	800,000	0,038	0,083
-73,753	-12,090	0,071	-0,033
-72,738	-200,000	-0,007	-0,092
-71,724	800,000	0,026	-0,053
-70,709	115,999	-0,206	-0,179
-69,694	-200,000	-0,015	0,083
-68,680	800,000	-0,007	0,015
-67,665	-200,000	0,015	0,084
-66,651	-127,656	0,064	0,006
-65,636	212,016	0,064	-0,071
-64,622	-200,000	0,019	-0,101
-63,607	229,238	-0,105	-0,122
-62,592	-200,000	0,007	-0,118
-61,578	-200,000	0,006	-0,051
-60,563	-87,439	0,155	0,033
-59,549	800,000	-0,054	0,127
-58,534	-30,091	-1,447	-0,580
-57,519	365,764	-1,367	-1,957
-56,505	-200,000	-0,525	-4,612
-55,490	187,337	1,027	1,086
-54,476	800,000	4,890	11,471
-53,461	-200,000	18,755	303,238
-52,446	800,000	734,952	2285,420
-51,432	565,820	1651,770	2848,428
-50,417	79,021	1669,743	1265,016
-49,403	22,181	1542,742	889,698
-48,388	16,079	1465,687	815,616
-47,373	17,743	1455,710	818,069
-46,359	16,930	1445,804	808,573
-45,344	14,342	1441,424	793,701
-44,330	14,247	1439,454	792,132
-43,315	14,268	1437,622	791,192
-42,300	14,262	1436,092	790,288
-41,286	14,318	1434,701	789,761
-40,271	14,262	1433,562	788,833
-39,257	14,286	1432,070	788,095
-38,242	14,310	1430,969	787,573
-37,227	14,365	1429,606	787,055
-36,213	14,354	1428,360	786,283
-35,198	14,355	1427,263	785,654
-34,184	14,429	1426,211	785,395
-33,169	14,284	1424,918	783,962
-32,154	14,375	1423,749	783,719
-31,140	14,360	1422,640	783,006
-30,125	14,374	1421,545	782,442
-29,111	14,333	1420,367	781,569
-28,096	14,291	1419,324	780,762
-27,082	14,261	1418,259	780,005
-26,067	14,233	1417,172	779,247
-25,052	14,281	1416,026	778,812
-24,038	14,193	1415,137	777,875
-23,023	14,236	1414,088	777,471
-22,009	14,234	1413,070	776,869
-20,994	14,165	1412,277	776,078
-19,979	14,193	1411,410	775,705
-18,965	14,164	1410,454	775,011
-17,950	14,194	1409,412	774,549
-16,936	14,187	1408,531	774,004
-15,921	14,154	1407,336	773,159
-14,906	14,146	1406,706	772,748
-13,892	14,155	1405,649	772,176
-12,877	14,101	1404,836	771,446
-11,863	14,183	1403,600	771,119
-10,848	14,150	1402,998	770,603
-9,833	14,079	1402,014	769,704
-8,819	14,093	1401,083	769,228
-7,804	14,066	1400,287	768,632
-6,790	14,046	1399,014	767,811
-5,775	14,057	1397,976	767,263
-4,760	14,042	1397,331	766,806
-3,746	14,055	1396,365	766,311
-2,731	14,036	1395,604	765,772
-1,717	14,007	1394,610	765,063
-0,702	14,079	1392,703	764,317
0,313	17,899	1311,042	737,217
1,327	34,102	706,455	434,816
2,342	52,863	124,145	83,891
3,356	4,172	16,653	8,600
4,371	7,000	3,141	1,652
5,386	9,074	0,606	0,323
6,400	800,000	0,051	0,131
7,415	39,845	-0,190	-0,120
8,429	78,980	-0,195	-0,148
9,444	624,394	-0,169	-0,303
10,459	-161,127	-0,350	-0,013
11,473	-126,989	-0,420	-0,043
12,488	-18,119	-0,267	-0,118
13,502	245,520	-0,222	-0,265
14,517	104,689	-0,496	-0,413
15,531	68,398	-0,326	-0,236
16,546	200,509	-0,183	-0,199
17,561	146,984	-0,337	-0,320
18,575	140,021	-0,168	-0,156
19,590	121,333	-0,228	-0,201
20,604	-38,113	-0,304	-0,113
21,619	118,001	-0,443	-0,385
22,634	302,434	-0,336	-0,441
23,648	-1,649	-0,467	-0,232
24,663	23,952	-0,322	-0,187
25,677	56,888	-0,370	-0,254
26,692	84,909	-0,289	-0,224
27,707	-3,543	-0,406	-0,199
28,721	95,558	-0,381	-0,306
29,736	110,922	-0,346	-0,294
30,750	187,329	-0,363	-0,383
31,765	72,268	-0,426	-0,313
32,780	140,700	-0,271	-0,252
33,794	413,754	-0,197	-0,296
34,809	-31,306	-0,297	-0,117
35,823	83,176	-0,382	-0,293
36,838	50,998	-0,429	-0,287
37,853	221,320	-0,277	-0,314
38,867	56,545	-0,395	-0,271
39,882	21,644	-0,287	-0,164
40,896	71,931	-0,418	-0,306
41,911	58,115	-0,297	-0,205
42,926	247,012	-0,225	-0,269
43,940	179,849	-0,264	-0,274
44,955	58,771	-0,428	-0,296
45,969	49,765	-0,420	-0,279
46,984	190,014	-0,231	-0,244
47,999	-82,985	-0,289	-0,065
49,013	37,924	-0,377	-0,235
50,028	78,081	-0,348	-0,262
51,042	73,596	-0,280	-0,207
52,057	48,903	-0,398	-0,263
53,071	7,376	-0,365	-0,192
54,086	270,832	-0,241	-0,300
55,101	-33,798	-0,401	-0,155
56,115	268,207	-0,186	-0,230
57,130	122,878	-0,323	-0,285
58,144	28,961	-0,385	-0,229
59,159	69,733	-0,462	-0,335
60,174	65,036	-0,401	-0,285
61,188	15,350	-0,349	-0,192
62,203	217,763	-0,277	-0,312
63,217	-16,396	-0,401	-0,179
64,232	130,120	-0,254	-0,229
65,247	215,118	-0,293	-0,327
66,261	386,485	-0,263	-0,383
67,276	349,377	-0,283	-0,394
68,290	19,519	-0,476	-0,269
69,305	141,245	-0,243	-0,226
70,320	26,164	-0,322	-0,188
71,334	-48,187	-0,277	-0,094
72,349	56,065	-0,301	-0,205
73,363	106,594	-0,230	-0,192
74,378	-64,524	-0,360	-0,102
75,393	100,621	-0,235	-0,192
76,407	79,108	-0,270	-0,204
77,422	4,260	-0,443	-0,227
78,436	128,775	-0,222	-0,199
79,451	-115,993	-0,439	-0,057
80,466	182,956	-0,262	-0,272
81,480	181,991	-0,263	-0,273
82,495	-50,759	-0,207	-0,068
83,509	26,000	-0,273	-0,160
84,524	156,965	-0,206	-0,200
85,539	-200,000	-0,277	-0,001
86,553	-63,855	-0,329	-0,094
87,568	87,689	-0,340	-0,264
88,582	526,537	-0,201	-0,334
89,597	128,491	-0,283	-0,253
90,611	-29,120	-0,408	-0,163
91,626	-23,206	-0,257	-0,108
92,641	71,257	-0,310	-0,225
93,655	240,176	-0,141	-0,166
94,670	20,688	-0,319	-0,181
95,684	51,716	-0,239	-0,160
96,699	80,133	-0,222	-0,168
97,714	-17,080	-0,301	-0,133
98,728	-81,682	-0,333	-0,076
99,743	-122,977	-0,408	-0,046
100,757	317,829	-0,205	-0,273
101,772	125,266	-0,297	-0,263
102,787	21,413	-0,386	-0,219
103,801	251,383	-0,252	-0,301
104,816	-14,689	-0,324	-0,146
105,830	645,024	-0,113	-0,203
106,845	93,401	-0,271	-0,215
107,860	309,810	-0,159	-0,209
108,874	198,975	-0,213	-0,229
109,889	-16,852	-0,334	-0,147
110,903	-2,555	-0,386	-0,189
111,918	91,461	-0,441	-0,347
112,933	-12,703	-0,258	-0,118
113,947	102,087	-0,206	-0,168
114,962	71,598	-0,319	-0,232
115,976	103,175	-0,263	-0,216
116,991	270,017	-0,160	-0,198
118,006	-67,342	-0,200	-0,055
119,020	284,837	-0,271	-0,343
120,035	467,938	-0,178	-0,281
121,049	32,695	-0,302	-0,182
122,064	-64,066	-0,356	-0,101
123,079	-32,830	-0,251	-0,097
124,093	185,606	-0,217	-0,226
125,108	13,921	-0,273	-0,148
126,122	34,361	-0,172	-0,105
127,137	264,809	-0,179	-0,218
128,151	-29,670	-0,205	-0,081
129,166	206,625	-0,214	-0,234
130,181	4,947	-0,294	-0,151
131,195	190,237	-0,193	-0,203
132,210	51,710	-0,355	-0,236
133,224	120,385	-0,303	-0,263
134,239	80,676	-0,215	-0,162
135,254	56,357	-0,227	-0,154
136,268	-14,872	-0,313	-0,140
137,283	179,512	-0,152	-0,156
138,297	-43,751	-0,257	-0,090
139,312	122,436	-0,308	-0,270
140,327	51,846	-0,220	-0,146
141,341	-21,239	-0,328	-0,140
142,356	55,790	-0,221	-0,150
143,370	140,381	-0,266	-0,246
144,385	238,571	-0,199	-0,232
145,400	117,224	-0,287	-0,246
146,414	114,324	-0,289	-0,246
147,429	105,114	-0,305	-0,252
148,443	147,234	-0,223	-0,210
149,458	188,524	-0,193	-0,201
150,473	-128,537	-0,270	0,026
151,487	-114,127	-0,234	-0,031
152,502	163,949	-0,318	-0,313
153,516	262,634	-0,183	-0,222
154,531	51,892	-0,277	-0,184
155,546	-26,051	-0,331	-0,135
156,560	-147,057	-0,283	-0,017
157,575	24,005	-0,269	-0,155
158,589	15,483	-0,280	-0,153
159,604	66,828	-0,169	-0,120
160,619	124,890	-0,235	-0,207
161,633	-142,141	-0,277	-0,019
162,648	-26,892	-0,215	-0,087
163,662	99,282	-0,249	-0,201
164,677	-24,652	-0,261	-0,108
165,692	85,749	-0,229	-0,176
166,706	229,592	-0,114	-0,130
167,721	77,532	-0,139	-0,103
168,735	225,449	-0,212	-0,240
169,750	-16,315	-0,249	-0,110
170,764	266,661	-0,161	-0,197
171,779	800,000	-0,078	-0,210
172,794	106,617	-0,196	-0,162
173,808	-10,844	-0,211	-0,097
174,823	54,619	-0,401	-0,269
175,837	24,840	-0,230	-0,132
176,852	-200,000	-0,024	-0,098
177,867	24,452	-0,319	-0,184
178,881	52,969	-0,123	-0,082
179,896	18,381	-0,251	-0,139
180,910	106,210	-0,198	-0,163
181,925	369,578	-0,106	-0,150
182,940	97,928	-0,259	-0,207
183,954	115,080	-0,125	-0,106
184,969	-117,106	-0,233	-0,029
185,983	-11,784	-0,274	-0,125
186,998	6,421	-0,206	-0,106
188,013	-33,977	-0,258	-0,098
189,027	144,301	-0,193	-0,180
190,042	127,818	-0,202	-0,178
191,056	22,167	-0,187	-0,106
192,071	189,253	-0,124	-0,129
193,086	-63,823	-0,091	-0,026
194,100	-27,091	-0,236	-0,095
195,115	229,651	-0,040	-0,045
196,129	94,196	-0,184	-0,145
197,144	55,878	-0,238	-0,160
198,159	97,984	-0,281	-0,225
199,173	337,603	-0,179	-0,243
200,188	141,510	-0,187	-0,172
201,202	-200,000	-0,028	-0,148
202,217	-41,853	-0,190	-0,067
203,232	102,738	-0,217	-0,177
204,246	210,092	-0,255	-0,279
205,261	-16,132	-0,276	-0,121
206,275	261,543	-0,224	-0,270
207,290	-11,983	-0,144	-0,065
208,304	-104,435	-0,182	-0,029
209,319	93,652	-0,193	-0,152
210,334	-112,153	-0,206	-0,028
211,348	182,434	-0,243	-0,249
212,363	800,000	-0,166	-0,328
213,377	30,664	-0,224	-0,133
214,392	212,347	-0,207	-0,227
215,407	86,991	-0,129	-0,099
216,421	292,003	-0,118	-0,150
217,436	-141,484	-0,293	0,020
218,450	45,494	-0,226	-0,145
219,465	439,806	-0,181	-0,275
220,480	166,403	-0,143	-0,141
221,494	223,719	-0,187	-0,209
222,509	47,164	-0,226	-0,146
223,523	-136,325	-0,156	-0,012
224,538	126,728	-0,220	-0,193
225,553	31,384	-0,294	-0,175
226,567	215,193	-0,181	-0,199
227,582	38,394	-0,227	-0,140
228,596	800,000	-0,090	-0,175
229,611	-135,927	-0,165	-0,013
230,626	39,305	-0,207	-0,128
231,640	-40,634	-0,102	-0,036
232,655	-200,000	-0,016	-0,114
233,669	-21,894	-0,290	-0,122
234,684	145,741	-0,168	-0,156
235,699	295,392	-0,211	-0,268
236,713	-45,824	-0,148	0,051
237,728	50,105	-0,229	-0,150
238,742	-33,278	-0,257	-0,098
239,757	493,409	-0,175	-0,280
240,772	77,502	-0,148	-0,109
241,786	101,304	-0,165	-0,133
242,801	117,966	-0,208	-0,178
243,815	-91,445	-0,150	-0,029
244,830	-105,609	-0,084	-0,013
245,844	121,097	-0,196	-0,169
246,859	800,000	-0,055	-0,113
247,874	-35,702	-0,137	-0,051
248,888	258,056	-0,145	-0,173
249,903	478,895	-0,120	-0,188
250,917	-73,422	-0,154	-0,039
251,932	-170,962	-0,175	-0,004
252,947	-33,398	-0,109	-0,041
253,961	-26,063	-0,234	-0,095
254,976	4,644	-0,161	-0,082
255,990	255,110	-0,199	-0,237
257,005	78,805	-0,156	-0,116
258,020	23,745	-0,117	-0,066
259,034	119,076	-0,109	-0,093
260,049	117,994	-0,150	-0,128
261,063	2,122	-0,223	-0,111
262,078	89,441	-0,218	-0,168
263,093	-200,000	-0,075	-0,235
264,107	155,163	-0,146	-0,139
265,122	23,258	-0,167	-0,095
266,136	-24,094	-0,113	-0,046
267,151	-85,137	-0,316	-0,068
268,166	63,728	-0,205	-0,142
269,180	800,000	-0,132	-0,315
270,195	31,464	-0,214	-0,127
271,209	149,479	-0,209	-0,196
272,224	288,060	-0,175	-0,219
273,239	153,332	-0,113	-0,107
274,253	159,533	-0,020	0,019
275,268	209,455	-0,208	-0,225
276,282	28,517	-0,179	-0,104
277,297	800,000	-0,091	-0,270
278,312	47,144	-0,160	-0,103
279,326	-28,096	-0,108	-0,043
280,341	245,408	-0,041	-0,047
281,355	120,390	-0,228	-0,196
282,370	800,000	-0,102	-0,206
283,384	800,000	-0,042	-0,122
284,399	151,497	-0,240	-0,226
285,414	478,735	-0,090	-0,141
286,428	-42,149	-0,190	-0,067
287,443	-152,271	-0,167	-0,008
288,457	79,757	-0,124	-0,092
289,472	-75,489	-0,205	0,050
290,487	-31,090	-0,254	-0,098
291,501	122,762	-0,174	-0,151
292,516	171,874	-0,122	-0,121
293,530	454,800	-0,119	-0,183
294,545	419,421	-0,094	-0,140
295,560	-200,000	-0,056	-0,243
296,574	57,371	-0,190	-0,128
297,589	112,010	-0,121	-0,101
298,603	1,840	-0,235	-0,117
299,618	45,771	-0,120	-0,077
300,633	-149,065	-0,138	0,008
301,647	800,000	-0,070	-0,160
302,662	-175,083	-0,119	0,002
303,676	53,043	-0,190	-0,125
304,691	306,493	-0,237	-0,305
305,706	800,000	-0,100	-0,204
306,720	-200,000	-0,004	-0,128
307,735	130,961	-0,139	-0,123
308,749	-46,702	-0,216	-0,073
309,764	-128,632	-0,171	0,016
310,779	-85,619	-0,051	-0,011
311,793	13,067	-0,095	-0,051
312,808	203,114	-0,170	-0,182
313,822	109,411	-0,174	-0,144
314,837	446,770	-0,139	-0,211
315,852	-7,976	-0,182	-0,084
316,866	237,209	-0,158	-0,181
317,881	-200,000	-0,008	-0,124
318,895	201,391	-0,132	-0,140
319,910	800,000	-0,100	-0,191
320,925	552,797	-0,151	-0,250
321,939	126,507	-0,179	-0,156
322,954	66,359	-0,107	-0,075
323,968	666,271	-0,042	-0,074
324,983	68,486	-0,222	-0,157
325,997	224,643	-0,124	-0,138
327,012	426,318	-0,144	-0,214
328,027	-180,964	-0,183	-0,002
329,041	193,515	-0,129	-0,134
330,056	165,905	-0,147	-0,143
331,070	-200,000	-0,021	-0,076
332,085	-129,008	-0,086	-0,008
333,100	241,606	-0,105	-0,121
334,114	217,906	-0,097	-0,107
335,129	800,000	-0,110	-0,257
336,143	251,290	-0,087	-0,102
337,158	-200,000	-0,019	-0,176
338,173	229,684	-0,083	-0,093
339,187	-77,010	-0,157	-0,037
340,202	147,124	-0,111	-0,103
341,216	-189,043	-0,089	0,001
342,231	-200,000	-0,103	-0,316
343,246	110,846	-0,102	-0,084
344,260	-152,404	0,031	0,002
345,275	0,649	-0,153	-0,075
346,289	-12,052	-0,134	-0,060
347,304	-200,000	-0,002	-0,121
348,319	-200,000	-0,010	-0,077
349,333	800,000	-0,035	-0,102
350,348	-143,905	-0,090	0,006
351,362	-13,466	-0,140	-0,062
352,377	800,000	-0,050	-0,113
353,392	-200,000	-0,042	-0,129
354,406	-26,427	-0,048	-0,019
355,421	207,525	1316,952	1412,009
356,435	159,643	1477,951	1412,505
