DTS Sentinel unit serial number:	SN410029Multiplexer serial number:	ORYXHardware model number:	OX2-SRSoftware version number:	ORYX F/W v4,00 Oryx Data Collector v3.7.2.0data status	okinstallation	B3 Nyhavnadifferential loss correction	single-endedforward channel	channel 1reverse channel	N/Adate	2023/12/04time	05:32:30forward acquisition time	300,00reverse acquisition time	0,00gamma	499,1914k internal	0,3206k external	0,3206temperature offset calibration	1,0000default loss term (dB/km)	0,3820temperature slope calibration	1,0000multiplexer offset coefficient	1,0000multiplexer slope coefficient	1,0000fibre end	0,00T internal ref (°C)	12,00T ext. ref 1 (°C)	-2,88T ext. ref 2 (°C)	-2,90length (m)	temperature (°C)	Stokes	anti-Stokes-744,400	123,814	-0,153	-0,140
-743,385	-200,000	0,042	0,277
-742,371	193,882	-0,146	-0,161
-741,356	-200,000	0,032	0,358
-740,342	319,052	-0,156	-0,216
-739,327	-200,000	-0,019	0,352
-738,312	194,555	-0,227	-0,250
-737,298	800,000	-0,086	0,236
-736,283	492,797	-0,096	-0,160
-735,269	-200,000	-0,087	0,336
-734,254	86,388	-0,194	-0,155
-733,239	-90,200	-0,225	0,047
-732,225	-200,000	-0,011	-0,106
-731,210	23,446	0,117	0,070
-730,196	800,000	-0,020	0,044
-729,181	71,457	0,055	-0,041
-728,167	-165,159	-0,123	-0,004
-727,152	800,000	-0,044	0,090
-726,137	92,630	-0,165	-0,135
-725,123	415,599	-0,066	0,102
-724,108	800,000	-0,045	-0,121
-723,094	491,595	-0,074	-0,123
-722,079	-63,249	0,044	0,013
-721,064	-170,879	-0,103	-0,003
-720,050	-200,000	0,035	0,140
-719,035	-200,000	0,003	0,034
-718,021	310,832	0,048	-0,066
-717,006	-114,072	-0,185	0,026
-715,991	439,689	-0,058	-0,092
-714,977	-37,594	-0,118	-0,045
-713,962	-118,968	-0,070	-0,009
-712,948	-200,000	-0,002	0,018
-711,933	-200,000	-0,025	-0,101
-710,918	-107,325	-0,128	0,020
-709,904	-200,000	-0,020	-0,115
-708,889	-87,876	-0,222	-0,048
-707,875	157,488	0,008	-0,008
-706,860	115,086	-0,079	0,070
-705,845	171,023	0,112	0,117
-704,831	791,293	0,101	0,203
-703,816	-200,000	-0,026	-0,115
-702,802	-200,000	-0,045	-0,217
-701,787	-67,550	-0,041	0,011
-700,772	179,296	0,066	-0,070
-699,758	71,060	0,116	0,087
-698,743	-14,710	-0,058	-0,027
-697,729	-200,000	-0,013	0,124
-696,714	-76,952	0,071	-0,018
-695,699	342,769	-0,068	-0,097
-694,685	800,000	0,075	-0,155
-693,670	800,000	-0,029	0,072
-692,656	-200,000	0,009	-0,054
-691,641	-3,220	-0,134	-0,068
-690,627	-111,510	0,032	-0,005
-689,612	-106,623	0,108	0,017
-688,597	747,759	0,029	0,056
-687,583	237,502	-0,069	0,083
-686,568	555,799	-0,067	0,117
-685,554	146,467	0,130	-0,126
-684,539	-200,000	-0,000	-0,254
-683,524	520,386	0,035	0,060
-682,510	-200,000	0,018	0,155
-681,495	-101,847	0,113	0,020
-680,481	-132,630	-0,024	0,002
-679,466	-57,423	0,014	-0,004
-678,451	2,738	-0,118	-0,062
-677,437	-200,000	-0,023	-0,142
-676,422	-200,000	-0,012	-0,041
-675,408	-200,000	-0,004	-0,060
-674,393	-200,000	-0,033	-0,158
-673,378	167,949	-0,034	-0,035
-672,364	800,000	-0,076	-0,170
-671,349	31,013	0,033	0,021
-670,335	2,086	0,051	0,027
-669,320	-200,000	0,001	0,071
-668,305	-25,784	0,045	-0,019
-667,291	489,555	0,141	-0,235
-666,276	-126,413	-0,118	0,013
-665,262	62,261	-0,078	-0,056
-664,247	397,268	0,063	-0,096
-663,232	-87,908	-0,051	0,011
-662,218	-200,000	-0,017	0,148
-661,203	-87,927	0,059	-0,013
-660,189	59,197	0,033	-0,023
-659,174	-179,007	-0,136	-0,002
-658,159	-200,000	0,024	-0,112
-657,145	51,340	0,008	0,006
-656,130	-200,000	0,021	0,083
-655,116	800,000	0,053	0,115
-654,101	-200,000	0,012	0,084
-653,086	238,716	-0,044	0,053
-652,072	705,416	0,022	-0,042
-651,057	-55,409	0,026	0,008
-650,043	209,173	-0,066	-0,075
-649,028	-141,304	-0,043	-0,003
-648,014	67,949	0,064	0,047
-646,999	-10,005	0,134	0,064
-645,984	-200,000	-0,020	0,127
-644,970	311,487	0,033	-0,045
-643,955	-121,517	-0,115	0,014
-642,941	-138,853	-0,045	-0,003
-641,926	-42,532	0,101	-0,037
-640,911	-176,686	0,137	0,002
-639,897	357,114	0,069	0,100
-638,882	-2,411	0,199	0,100
-637,868	537,878	-0,043	-0,075
-636,853	94,138	0,097	0,080
-635,838	61,799	0,053	-0,038
-634,824	140,369	-0,137	-0,131
-633,809	3,123	-0,116	0,061
-632,795	664,563	0,021	0,039
-631,780	-164,940	-0,064	0,002
-630,765	-64,282	0,042	0,012
-629,751	-192,628	-0,146	0,001
-628,736	800,000	0,045	-0,128
-627,722	-200,000	-0,012	-0,147
-626,707	538,971	0,067	0,115
-625,692	800,000	-0,024	0,070
-624,678	135,906	0,016	0,015
-623,663	60,161	-0,017	0,012
-622,649	28,297	-0,082	-0,050
-621,634	-30,205	-0,027	-0,011
-620,619	138,167	-0,107	-0,101
-619,605	292,055	0,013	-0,017
-618,590	-38,328	-0,112	0,043
-617,576	-200,000	0,027	0,111
-616,561	-200,000	0,016	0,170
-615,546	-200,000	0,022	0,111
-614,532	307,577	0,034	-0,046
-613,517	-200,000	-0,031	-0,113
-612,503	-79,422	-0,138	-0,033
-611,488	80,369	0,060	-0,047
-610,474	-200,000	-0,030	0,097
-609,459	91,585	-0,042	0,034
-608,444	-200,000	-0,004	0,056
-607,430	-60,601	-0,168	-0,051
-606,415	800,000	-0,058	-0,122
-605,401	800,000	-0,049	0,118
-604,386	94,066	-0,083	0,068
-603,371	-126,118	0,093	-0,010
-602,357	-200,000	-0,010	0,040
-601,342	-122,910	0,104	-0,012
-600,328	-94,415	-0,052	0,010
-599,313	69,923	-0,119	0,088
-598,298	567,147	0,072	0,126
-597,284	800,000	-0,038	-0,077
-596,269	-16,235	0,078	-0,036
-595,255	-36,684	0,050	0,019
-594,240	87,007	-0,070	-0,056
-593,225	-200,000	-0,017	-0,107
-592,211	-33,619	-0,158	0,063
-591,196	-114,326	0,090	0,012
-590,182	-127,017	-0,057	0,006
-589,167	216,122	-0,020	-0,023
-588,152	57,359	0,035	0,024
-587,138	-11,310	-0,053	-0,025
-586,123	185,041	0,021	0,023
-585,109	-163,672	-0,098	-0,003
-584,094	543,983	-0,019	-0,033
-583,079	16,547	-0,105	0,060
-582,065	800,000	-0,023	-0,053
-581,050	800,000	0,035	-0,082
-580,036	-200,000	-0,008	-0,046
-579,021	-76,872	-0,021	-0,005
-578,006	416,017	-0,103	-0,159
-576,992	-88,184	0,062	0,013
-575,977	800,000	-0,026	-0,054
-574,963	800,000	0,028	-0,066
-573,948	-200,000	-0,007	-0,064
-572,934	-52,522	-0,065	0,022
-571,919	-200,000	0,016	-0,058
-570,904	-200,000	-0,023	-0,107
-569,890	225,781	-0,040	0,047
-568,875	13,989	0,109	0,061
-567,861	-200,000	-0,016	0,060
-566,846	176,369	-0,091	0,095
-565,831	-195,953	-0,087	0,000
-564,817	-45,247	0,088	0,031
-563,802	-107,573	-0,122	-0,019
-562,788	-200,000	0,014	-0,147
-561,773	162,072	-0,055	0,056
-560,758	-26,200	-0,008	0,003
-559,744	263,253	0,090	-0,113
-558,729	-101,818	0,065	-0,011
-557,715	-200,000	-0,016	0,105
-556,700	221,819	-0,053	0,062
-555,685	434,371	-0,082	-0,129
-554,671	-40,936	0,036	0,013
-553,656	-22,908	-0,084	0,036
-552,642	-0,795	0,096	0,049
-551,627	800,000	-0,003	0,009
-550,612	-191,651	-0,043	0,000
-549,598	41,851	-0,054	-0,036
-548,583	-200,000	-0,001	-0,077
-547,569	195,043	-0,053	-0,058
-546,554	-38,404	0,018	0,007
-545,539	-99,720	0,062	0,011
-544,525	-23,393	-0,064	0,027
-543,510	-200,000	-0,012	0,047
-542,496	-200,000	0,007	-0,055
-541,481	118,311	-0,048	-0,043
-540,466	-174,095	0,104	0,002
-539,452	382,211	0,022	-0,033
-538,437	348,765	0,032	-0,046
-537,423	-150,401	-0,133	0,007
-536,408	-200,000	-0,017	-0,114
-535,393	50,697	-0,039	-0,027
-534,379	316,185	0,102	-0,139
-533,364	-26,975	0,166	-0,069
-532,350	-140,295	0,109	-0,008
-531,335	276,369	0,047	-0,060
-530,321	-120,124	-0,065	0,008
-529,306	-200,000	-0,006	0,049
-528,291	198,168	-0,043	0,048
-527,277	162,076	-0,019	-0,019
-526,262	800,000	-0,058	0,140
-525,248	26,682	0,112	-0,067
-524,233	-52,902	-0,134	-0,044
-523,218	-72,364	0,071	-0,019
-522,204	-103,634	-0,031	0,005
-521,189	54,872	0,109	0,076
-520,175	800,000	0,055	0,113
-519,160	39,729	-0,017	0,011
-518,145	112,020	0,053	-0,046
-517,131	-103,149	0,104	-0,018
-516,116	-33,570	0,028	-0,011
-515,102	-25,954	0,167	-0,070
-514,087	-22,621	-0,150	-0,065
-513,072	52,640	0,074	-0,051
-512,058	-11,063	0,066	-0,031
-511,043	-200,000	0,039	-0,141
-510,029	205,277	0,088	0,099
-509,014	342,062	-0,047	-0,066
-507,999	21,935	0,126	-0,074
-506,985	-126,799	-0,095	-0,010
-505,970	139,516	-0,040	-0,038
-504,956	-92,679	0,091	-0,018
-503,941	-71,849	0,050	0,013
-502,926	555,069	-0,052	-0,091
-501,912	-45,274	0,116	0,041
-500,897	-200,000	-0,016	0,128
-499,883	-6,143	0,125	0,061
-498,868	-200,000	0,019	-0,063
-497,853	118,295	-0,161	-0,143
-496,839	-8,082	0,040	-0,019
-495,824	-26,464	0,003	0,001
-494,810	-200,000	-0,015	0,049
-493,795	339,781	0,075	0,105
-492,781	39,527	-0,103	0,066
-491,766	69,474	-0,072	-0,053
-490,751	295,918	-0,023	0,031
-489,737	41,512	0,148	0,096
-488,722	-87,428	-0,097	-0,021
-487,708	597,256	0,019	0,035
-486,693	190,173	0,086	0,093
-485,678	-40,022	-0,182	-0,068
-484,664	254,880	0,064	-0,078
-483,649	276,142	-0,058	-0,075
-482,635	335,745	-0,038	0,053
-481,620	553,627	-0,042	0,073
-480,605	-9,424	0,078	0,037
-479,591	84,426	-0,094	-0,074
-478,576	308,269	-0,027	-0,037
-477,562	59,023	0,065	0,046
-476,547	-200,000	0,017	-0,112
-475,532	178,614	0,027	-0,029
-474,518	224,110	-0,028	-0,033
-473,503	69,958	0,061	-0,045
-472,489	221,884	-0,061	0,070
-471,474	-200,000	-0,020	0,080
-470,459	-36,847	-0,128	0,049
-469,445	740,111	-0,014	-0,027
-468,430	108,153	-0,086	-0,074
-467,416	191,559	-0,096	0,104
-466,401	70,081	0,100	0,074
-465,386	61,377	0,055	0,039
-464,372	50,147	-0,046	0,031
-463,357	30,950	0,175	0,107
-462,343	-24,019	-0,032	0,014
-461,328	-200,000	0,004	0,084
-460,313	800,000	0,025	0,053
-459,299	-200,000	0,000	0,107
-458,284	254,187	0,023	-0,028
-457,270	-18,461	0,062	0,028
-456,255	-81,060	-0,137	-0,032
-455,241	229,962	-0,031	-0,037
-454,226	-131,647	-0,057	-0,005
-453,211	-200,000	0,001	-0,059
-452,197	-97,761	0,107	0,020
-451,182	53,009	0,018	-0,013
-450,168	-200,000	0,048	0,162
-449,153	800,000	-0,020	0,054
-448,138	-200,000	-0,047	0,000
-447,124	-200,000	0,015	-0,089
-446,109	-36,822	0,071	0,027
-445,095	141,905	-0,047	0,045
-444,080	753,860	0,071	0,138
-443,065	109,328	-0,117	0,101
-442,051	665,080	0,040	0,075
-441,036	-200,000	0,003	-0,024
-440,022	139,193	0,019	-0,018
-439,007	186,847	-0,121	-0,129
-437,992	-149,203	0,120	0,007
-436,978	-62,518	0,073	-0,022
-435,963	-65,490	0,069	0,020
-434,949	114,459	-0,041	-0,035
-433,934	-81,502	-0,117	0,027
-432,919	-200,000	0,016	0,118
-431,905	800,000	-0,024	-0,066
-430,890	369,864	0,038	0,055
-429,876	326,580	-0,039	0,054
-428,861	297,723	-0,044	0,058
-427,846	-200,000	-0,019	0,126
-426,832	-200,000	0,024	-0,170
-425,817	-114,165	0,080	0,011
-424,803	-200,000	0,008	-0,175
-423,788	-40,986	0,105	0,039
-422,773	-88,607	0,046	-0,010
-421,759	181,644	-0,030	0,032
-420,744	800,000	0,024	-0,065
-419,730	-38,474	0,075	0,028
-418,715	-50,625	-0,038	0,013
-417,701	-45,105	0,088	-0,031
-416,686	8,219	0,096	0,052
-415,671	-89,394	0,022	0,005
-414,657	-32,912	-0,148	0,059
-413,642	253,319	-0,079	0,096
-412,628	290,629	-0,026	-0,034
-411,613	-117,002	0,041	-0,005
-410,598	-200,000	0,032	0,119
-409,584	-6,028	0,008	-0,004
-408,569	-200,000	-0,035	0,145
-407,555	137,302	0,036	-0,034
-406,540	-200,000	-0,006	-0,115
-405,525	-200,000	-0,002	-0,122
-404,511	249,245	-0,042	-0,051
-403,496	-0,588	-0,069	-0,035
-402,482	-200,000	-0,026	0,084
-401,467	-200,000	-0,019	-0,078
-400,452	15,099	0,125	0,070
-399,438	-77,030	-0,050	0,012
-398,423	-163,709	-0,047	-0,002
-397,409	-200,000	0,021	-0,134
-396,394	800,000	-0,031	-0,070
-395,379	-129,280	-0,106	-0,010
-394,365	-91,022	-0,108	0,022
-393,350	169,240	0,089	0,091
-392,336	-82,107	-0,137	-0,032
-391,321	-74,043	0,036	-0,009
-390,306	438,724	0,047	-0,074
-389,292	800,000	-0,098	0,245
-388,277	269,174	0,070	0,088
-387,263	800,000	-0,011	-0,028
-386,248	82,550	0,053	0,041
-385,233	756,106	0,060	0,116
-384,219	-200,000	0,034	-0,110
-383,204	-105,288	-0,132	0,021
-382,190	-14,606	0,046	-0,021
-381,175	-200,000	-0,010	0,077
-380,160	-200,000	-0,010	0,039
-379,146	-123,570	0,073	-0,008
-378,131	-200,000	0,001	0,042
-377,117	59,729	-0,033	-0,023
-376,102	391,372	-0,020	0,030
-375,088	-135,512	-0,019	0,002
-374,073	800,000	0,058	0,128
-373,058	-22,883	0,159	0,069
-372,044	49,737	0,008	0,005
-371,029	-200,000	0,011	0,138
-370,015	214,314	-0,012	0,014
-369,000	126,925	0,044	-0,040
-367,985	428,435	-0,070	-0,109
-366,971	-200,000	0,002	-0,059
-365,956	800,000	-0,038	-0,107
-364,942	32,356	-0,054	-0,033
-363,927	-76,894	0,099	0,025
-362,912	800,000	0,051	0,111
-361,898	461,739	-0,062	-0,099
-360,883	-130,793	-0,091	-0,009
-359,869	102,255	-0,037	0,031
-358,854	-200,000	0,033	0,134
-357,839	-23,850	0,077	-0,033
-356,825	800,000	-0,066	-0,137
-355,810	-36,370	0,057	0,022
-354,796	254,232	0,045	-0,055
-353,781	-138,089	0,038	-0,003
-352,766	43,228	0,074	-0,048
-351,752	539,391	0,092	0,157
-350,737	332,281	0,018	0,025
-349,723	487,109	0,044	-0,072
-348,708	-32,021	-0,137	-0,054
-347,693	165,216	-0,036	-0,036
-346,679	-98,422	-0,096	-0,017
-345,664	-64,260	0,125	0,036
-344,650	689,709	0,014	-0,026
-343,635	8,876	0,128	-0,069
-342,620	647,801	0,070	0,128
-341,606	-200,000	0,025	0,098
-340,591	800,000	0,013	-0,027
-339,577	800,000	-0,045	0,095
-338,562	122,841	0,102	0,091
-337,548	645,241	-0,021	0,038
-336,533	-81,271	0,013	-0,003
-335,518	274,560	-0,094	0,119
-334,504	592,821	-0,023	-0,041
-333,489	-69,508	-0,040	-0,011
-332,475	-152,150	0,225	-0,011
-331,460	-44,127	-0,037	-0,013
-330,445	-200,000	0,000	0,010
-329,431	-66,575	0,119	-0,033
-328,416	649,431	-0,020	0,036
-327,402	-200,000	0,004	0,057
-326,387	20,819	-0,049	-0,028
-325,372	339,691	-0,126	-0,176
-324,358	208,932	-0,083	-0,092
-323,343	-200,000	0,000	-0,087
-322,329	177,648	-0,055	0,058
-321,314	73,305	0,139	-0,103
-320,299	-200,000	0,002	0,070
-319,285	800,000	-0,013	0,029
-318,270	251,365	-0,030	0,036
-317,256	754,449	0,039	-0,076
-316,241	-200,000	-0,013	0,074
-315,226	87,404	0,103	0,081
-314,212	-81,410	0,079	0,018
-313,197	800,000	0,070	0,182
-312,183	66,129	-0,061	0,044
-311,168	-200,000	0,017	-0,063
-310,153	-55,625	-0,086	0,027
-309,139	151,350	-0,137	0,134
-308,124	-94,413	-0,069	-0,013
-307,110	800,000	0,031	0,066
-306,095	25,690	0,025	-0,015
-305,080	-200,000	-0,014	-0,060
-304,066	-79,358	-0,038	-0,009
-303,051	-141,053	-0,136	0,010
-302,037	800,000	0,016	-0,034
-301,022	532,531	0,031	0,052
-300,008	101,556	-0,038	0,032
-298,993	210,924	0,095	0,106
-297,978	800,000	-0,021	0,052
-296,964	-200,000	0,046	-0,152
-295,949	428,463	0,061	0,094
-294,935	-25,853	-0,116	0,049
-293,920	542,549	-0,031	-0,054
-292,905	264,674	0,058	-0,073
-291,891	-200,000	0,015	-0,120
-290,876	436,556	0,035	-0,054
-289,862	-5,700	-0,098	-0,048
-288,847	-200,000	0,004	0,052
-287,832	-154,327	-0,053	0,002
-286,818	-42,887	0,130	0,047
-285,803	-57,847	0,049	-0,015
-284,789	-48,731	-0,200	-0,068
-283,774	-108,262	0,080	0,012
-282,759	-200,000	0,022	-0,080
-281,745	-47,484	0,108	-0,037
-280,730	-115,004	-0,053	-0,007
-279,716	-16,282	0,092	0,042
-278,701	14,545	-0,111	-0,062
-277,686	800,000	-0,008	-0,022
-276,672	246,908	0,062	0,075
-275,657	-200,000	0,021	0,166
-274,643	4,866	0,098	-0,051
-273,628	-64,607	-0,012	0,003
-272,613	66,137	-0,058	0,042
-271,599	-20,549	0,152	-0,066
-270,584	-2,057	0,129	0,064
-269,570	-63,668	-0,053	0,015
-268,555	644,617	0,031	0,057
-267,540	238,103	-0,061	0,072
-266,526	-200,000	-0,024	0,146
-265,511	1,593	-0,060	-0,031
-264,497	786,572	0,051	-0,100
-263,482	428,523	0,049	0,076
-262,467	-200,000	0,015	0,071
-261,453	-125,143	0,126	-0,014
-260,438	-200,000	0,019	-0,125
-259,424	126,176	0,039	-0,035
-258,409	30,785	-0,043	-0,026
-257,395	404,477	0,027	-0,040
-256,380	-24,782	0,090	0,038
-255,365	800,000	-0,049	-0,112
-254,351	-24,848	0,115	0,048
-253,336	375,381	-0,128	-0,186
-252,322	-200,000	0,023	-0,144
-251,307	-200,000	-0,019	-0,117
-250,292	39,540	-0,122	0,078
-249,278	-94,414	0,172	-0,033
-248,263	255,854	-0,082	0,100
-247,249	133,725	-0,039	-0,036
-246,234	545,987	-0,048	-0,083
-245,219	800,000	0,029	-0,080
-244,205	-200,000	-0,026	-0,095
-243,190	55,875	-0,055	-0,038
-242,176	800,000	-0,038	0,089
-241,161	-200,000	0,005	0,147
-240,146	392,536	0,018	-0,026
-239,132	-73,325	-0,103	0,027
-238,117	800,000	0,078	-0,191
-237,103	-200,000	-0,023	-0,080
-236,088	-200,000	-0,012	-0,077
-235,073	731,546	-0,064	-0,122
-234,059	800,000	0,040	-0,101
-233,044	-200,000	0,001	-0,005
-232,030	16,491	0,022	0,013
-231,015	-200,000	0,042	-0,143
-230,000	23,451	-0,134	0,078
-228,986	34,722	0,076	-0,047
-227,971	800,000	-0,032	0,071
-226,957	76,689	-0,031	0,024
-225,942	-200,000	0,018	0,069
-224,927	513,829	-0,050	-0,083
-223,913	44,658	-0,012	-0,008
-222,898	-200,000	-0,005	0,063
-221,884	1,225	-0,040	-0,020
-220,869	133,547	0,089	0,082
-219,855	75,847	0,119	-0,090
-218,840	-61,945	-0,029	-0,009
-217,825	-69,115	0,024	0,007
-216,811	800,000	-0,024	-0,063
-215,796	290,812	0,056	-0,073
-214,782	-77,329	-0,084	-0,021
-213,767	-69,050	0,064	-0,017
-212,752	-65,011	-0,032	0,009
-211,738	-200,000	-0,022	0,164
-210,723	-200,000	0,020	0,079
-209,709	-5,806	-0,041	0,020
-208,694	549,328	-0,048	0,082
-207,679	446,452	0,020	-0,031
-206,665	-33,906	-0,012	0,005
-205,650	583,745	-0,022	-0,039
-204,636	-185,508	0,174	0,002
-203,621	-200,000	0,009	-0,049
-202,606	384,235	0,030	-0,044
-201,592	-68,493	-0,139	-0,038
-200,577	270,219	-0,046	-0,057
-199,563	170,023	-0,068	0,070
-198,548	-53,255	0,030	-0,010
-197,533	-200,000	0,004	0,142
-196,519	-200,000	-0,014	-0,087
-195,504	-200,000	0,020	-0,130
-194,490	7,032	0,081	0,043
-193,475	140,388	-0,087	-0,081
-192,460	-93,840	0,116	-0,022
-191,446	-200,000	0,020	-0,074
-190,431	-165,130	0,063	0,002
-189,417	112,985	-0,022	0,019
-188,402	-200,000	0,020	0,109
-187,387	611,283	-0,092	-0,164
-186,373	800,000	-0,019	0,054
-185,358	265,660	0,066	0,082
-184,344	120,261	-0,098	-0,087
-183,329	-200,000	-0,018	0,072
-182,315	-111,493	-0,057	0,008
-181,300	-200,000	-0,024	-0,080
-180,285	-200,000	-0,005	-0,107
-179,271	800,000	-0,051	-0,109
-178,256	235,120	-0,031	-0,037
-177,242	124,731	0,060	0,054
-176,227	-200,000	-0,020	0,128
-175,212	800,000	0,043	0,100
-174,198	64,428	0,052	0,037
-173,183	-25,743	-0,111	0,046
-172,169	-69,611	-0,038	-0,010
-171,154	-85,760	0,064	0,014
-170,139	178,715	0,071	-0,073
-169,125	-200,000	-0,030	-0,160
-168,110	-111,122	0,089	-0,013
-167,096	707,710	-0,047	-0,088
-166,081	-118,678	-0,106	0,013
-165,066	601,489	0,024	-0,042
-164,052	-94,593	0,070	0,013
-163,037	-200,000	0,002	0,086
-162,023	-197,220	-0,049	0,000
-161,008	604,850	0,048	0,084
-159,993	-4,375	-0,062	0,030
-158,979	-34,550	0,072	0,028
-157,964	800,000	-0,061	-0,142
-156,950	3,188	-0,066	0,034
-155,935	-110,148	-0,041	-0,006
-154,920	-200,000	-0,005	0,072
-153,906	347,630	0,104	0,146
-152,891	51,968	-0,060	-0,040
-151,877	123,126	0,077	-0,068
-150,862	-80,937	-0,138	-0,032
-149,847	-110,226	-0,119	0,017
-148,833	-94,832	0,096	0,018
-147,818	262,985	0,060	-0,075
-146,804	-200,000	0,029	0,185
-145,789	128,605	0,098	0,088
-144,775	60,542	0,103	-0,072
-143,760	-38,490	-0,083	-0,031
-142,745	186,039	-0,089	0,094
-141,731	207,693	-0,024	0,027
-140,716	800,000	0,010	-0,026
-139,702	800,000	-0,045	-0,096
-138,687	-130,663	-0,177	-0,017
-137,672	800,000	-0,052	-0,124
-136,658	490,627	0,005	-0,008
-135,643	188,059	0,043	0,046
-134,629	178,255	-0,069	0,072
-133,614	199,123	0,068	0,074
-132,599	800,000	0,039	0,105
-131,585	441,285	-0,018	-0,028
-130,570	-108,253	-0,039	-0,006
-129,556	24,602	0,061	-0,036
-128,541	374,706	-0,120	-0,174
-127,526	-200,000	-0,007	-0,075
-126,512	-200,000	0,023	0,077
-125,497	-6,655	0,075	-0,036
-124,483	-200,000	0,005	-0,019
-123,468	332,443	0,035	0,048
-122,453	800,000	0,035	-0,098
-121,439	-86,247	0,045	-0,010
-120,424	-200,000	0,020	-0,066
-119,410	-62,745	0,083	0,024
-118,395	-200,000	-0,010	-0,060
-117,380	800,000	-0,068	0,157
-116,366	-200,000	0,004	-0,039
-115,351	-103,213	-0,027	-0,004
-114,337	158,282	0,061	-0,060
-113,322	-140,231	-0,092	0,007
-112,307	-32,694	-0,072	0,028
-111,293	52,519	0,167	-0,113
-110,278	265,407	0,041	0,050
-109,264	34,129	0,037	-0,023
-108,249	-11,392	-0,096	0,045
-107,234	280,322	-0,046	0,058
-106,220	-3,492	-0,074	-0,036
-105,205	101,486	0,066	0,055
-104,191	-200,000	-0,003	0,113
-103,176	-200,000	-0,004	0,094
-102,162	-40,265	0,131	-0,048
-101,147	-200,000	0,018	-0,202
-100,132	-131,103	0,014	-0,001
-99,118	4,741	0,053	-0,027
-98,103	800,000	0,032	0,099
-97,089	32,999	0,083	0,051
-96,074	42,798	0,056	0,036
-95,059	44,998	0,054	0,035
-94,045	-200,000	-0,010	0,117
-93,030	-87,271	-0,133	-0,028
-92,016	-123,515	0,212	-0,024
-91,001	800,000	0,044	-0,095
-89,986	-200,000	-0,012	-0,071
-88,972	93,533	-0,035	-0,028
-87,957	800,000	0,023	0,061
-86,943	-146,530	0,114	-0,007
-85,928	800,000	-0,047	-0,139
-84,913	-107,276	-0,138	-0,021
-83,899	-171,831	0,085	0,002
-82,884	-200,000	0,008	0,094
-81,870	43,919	0,154	0,100
-80,855	-200,000	-0,006	-0,066
-79,840	-21,333	-0,074	0,032
-78,826	-55,280	-0,094	-0,030
-77,811	-51,138	-0,144	0,048
-76,797	327,941	-0,084	0,114
-75,782	166,993	0,062	-0,062
-74,767	-200,000	0,002	0,139
-73,753	368,771	0,031	0,044
-72,738	-44,151	-0,080	-0,028
-71,724	-74,484	0,047	-0,012
-70,709	800,000	-0,036	-0,076
-69,694	587,087	-0,028	0,050
-68,680	-123,211	0,132	0,015
-67,665	800,000	-0,016	-0,036
-66,651	800,000	-0,030	0,067
-65,636	800,000	-0,004	0,009
-64,622	104,611	0,015	-0,013
-63,607	800,000	-0,011	0,033
-62,592	-82,151	0,051	0,012
-61,578	800,000	-0,053	-0,140
-60,563	-200,000	0,014	0,070
-59,549	-200,000	-0,054	0,179
-58,534	13,955	-1,626	-0,892
-57,519	489,786	-1,294	-2,099
-56,505	-200,000	-0,579	-4,631
-55,490	353,760	1,009	1,421
-54,476	800,000	4,893	11,132
-53,461	-200,000	20,286	323,292
-52,446	800,000	751,795	2309,637
-51,432	549,117	1662,865	2827,954
-50,417	74,779	1671,474	1242,366
-49,403	19,862	1544,513	877,286
-48,388	13,866	1466,863	804,017
-47,373	18,433	1457,163	820,725
-46,359	16,292	1446,725	804,559
-45,344	12,160	1442,103	782,172
-44,330	12,070	1440,531	780,860
-43,315	12,051	1438,558	779,666
-42,300	12,032	1437,059	778,734
-41,286	12,056	1435,560	778,002
-40,271	12,045	1434,121	777,139
-39,257	12,033	1433,199	776,554
-38,242	12,119	1431,924	776,240
-37,227	12,048	1430,831	775,279
-36,213	12,068	1429,346	774,539
-35,198	12,108	1428,118	774,033
-34,184	12,125	1427,391	773,690
-33,169	12,099	1425,777	772,660
-32,154	12,138	1424,727	772,244
-31,140	12,081	1423,607	771,340
-30,125	12,133	1422,544	770,978
-29,111	12,141	1421,335	770,332
-28,096	12,092	1420,151	769,428
-27,082	12,031	1419,258	768,623
-26,067	12,023	1418,116	767,936
-25,052	12,016	1416,984	767,261
-24,038	12,024	1416,047	766,761
-23,023	11,999	1415,043	766,068
-22,009	12,044	1413,813	765,586
-20,994	12,007	1413,091	764,989
-19,979	11,974	1412,273	764,361
-18,965	12,003	1411,212	763,894
-17,950	11,989	1410,198	763,246
-16,936	11,979	1409,239	762,653
-15,921	11,958	1408,268	761,998
-14,906	11,928	1407,569	761,448
-13,892	11,972	1406,512	761,051
-12,877	11,931	1405,839	760,465
-11,863	11,933	1404,753	759,858
-10,848	11,925	1403,974	759,367
-9,833	11,879	1402,941	758,566
-8,819	11,830	1402,264	757,943
-7,804	11,815	1401,250	757,292
-6,790	11,843	1400,305	756,884
-5,775	11,862	1399,088	756,284
-4,760	11,850	1398,217	755,726
-3,746	11,838	1397,275	755,133
-2,731	11,869	1396,416	754,782
-1,717	11,812	1395,763	754,134
-0,702	11,807	1393,972	753,112
0,313	15,802	1308,804	725,532
1,327	32,157	699,614	425,397
2,342	49,575	121,918	80,964
3,356	2,644	16,502	8,422
4,371	0,989	3,195	1,613
5,386	-24,382	0,608	0,255
6,400	-200,000	0,035	0,437
7,415	118,860	-0,239	-0,209
8,429	109,928	-0,228	-0,193
9,444	-42,590	-0,362	-0,129
10,459	190,388	-0,219	-0,232
11,473	46,191	-0,261	-0,171
12,488	38,062	-0,336	-0,210
13,502	-24,736	-0,261	-0,109
14,517	71,757	-0,381	-0,279
15,531	54,623	-0,369	-0,250
16,546	16,872	-0,448	-0,249
17,561	157,921	-0,277	-0,271
18,575	36,483	-0,179	-0,111
19,590	122,250	-0,281	-0,248
20,604	-31,508	-0,300	-0,118
21,619	43,467	-0,455	-0,293
22,634	91,166	-0,422	-0,333
23,648	75,858	-0,383	-0,285
24,663	111,081	-0,506	-0,429
25,677	70,319	-0,315	-0,229
26,692	-55,273	-0,279	-0,088
27,707	-24,036	-0,410	-0,172
28,721	-46,768	-0,298	-0,102
29,736	199,626	-0,303	-0,328
30,750	202,368	-0,361	-0,393
31,765	138,403	-0,332	-0,307
32,780	112,374	-0,231	-0,197
33,794	62,693	-0,403	-0,284
34,809	-2,124	-0,386	-0,190
35,823	106,001	-0,364	-0,303
36,838	38,626	-0,347	-0,218
37,853	50,855	-0,367	-0,245
38,867	-45,272	-0,456	-0,158
39,882	53,324	-0,272	-0,183
40,896	109,553	-0,387	-0,326
41,911	212,011	-0,262	-0,292
42,926	181,441	-0,357	-0,370
43,940	100,875	-0,325	-0,265
44,955	88,030	-0,415	-0,324
45,969	412,432	-0,230	-0,345
46,984	86,569	-0,333	-0,258
47,999	43,825	-0,308	-0,198
49,013	39,434	-0,345	-0,217
50,028	-32,389	-0,434	-0,169
51,042	158,958	-0,329	-0,322
52,057	305,531	-0,235	-0,308
53,071	82,717	-0,454	-0,346
54,086	-60,615	-0,435	-0,129
55,101	120,090	-0,280	-0,245
56,115	-32,939	-0,322	-0,125
57,130	111,693	-0,341	-0,290
58,144	71,098	-0,469	-0,341
59,159	186,870	-0,312	-0,327
60,174	19,219	-0,333	-0,187
61,188	-26,380	-0,396	-0,163
62,203	53,726	-0,350	-0,236
63,217	50,530	-0,352	-0,233
64,232	64,411	-0,302	-0,213
65,247	-50,375	-0,414	-0,137
66,261	150,303	-0,324	-0,309
67,276	-50,245	-0,468	-0,155
68,290	48,552	-0,296	-0,194
69,305	-52,284	-0,377	-0,122
70,320	-141,861	-0,202	-0,014
71,334	-13,059	-0,255	-0,116
72,349	37,783	-0,404	-0,251
73,363	142,341	-0,314	-0,292
74,378	92,327	-0,378	-0,299
75,393	222,920	-0,204	-0,231
76,407	-21,449	-0,218	-0,093
77,422	-9,279	-0,295	-0,138
78,436	30,605	-0,278	-0,167
79,451	22,857	-0,281	-0,161
80,466	37,022	-0,351	-0,217
81,480	-52,193	-0,465	-0,151
82,495	243,431	-0,166	-0,196
83,509	6,582	-0,191	-0,099
84,524	151,659	-0,228	-0,218
85,539	103,231	-0,217	-0,178
86,553	20,268	-0,424	-0,239
87,568	-25,142	-0,293	-0,121
88,582	-8,282	-0,316	-0,148
89,597	81,853	-0,234	-0,178
90,611	73,290	-0,314	-0,230
91,626	210,122	-0,252	-0,277
92,641	123,093	-0,239	-0,210
93,655	-63,173	-0,299	-0,086
94,670	384,545	-0,174	-0,252
95,684	99,132	-0,354	-0,287
96,699	-69,954	-0,286	-0,076
97,714	-17,311	-0,321	-0,141
98,728	-69,889	-0,265	0,070
99,743	-73,263	-0,294	-0,075
100,757	47,149	-0,255	-0,166
101,772	-77,145	-0,317	-0,077
102,787	118,432	-0,206	-0,178
103,801	117,776	-0,314	-0,271
104,816	-187,434	-0,275	-0,003
105,830	-65,564	-0,311	-0,087
106,845	800,000	-0,094	-0,264
107,860	102,923	-0,203	-0,167
108,874	-9,722	-0,223	-0,104
109,889	-21,343	-0,238	-0,101
110,903	-65,213	-0,393	-0,110
111,918	153,266	-0,197	-0,189
112,933	55,124	-0,285	-0,192
113,947	-38,626	-0,247	-0,091
114,962	102,756	-0,252	-0,206
115,976	63,923	-0,222	-0,156
116,991	226,179	-0,227	-0,258
118,006	51,516	-0,213	-0,141
119,020	-2,840	-0,273	-0,133
120,035	34,341	-0,195	-0,119
121,049	-132,760	-0,157	-0,014
122,064	103,443	-0,169	-0,139
123,079	150,306	-0,280	-0,266
124,093	-19,297	-0,328	-0,142
125,108	-17,005	-0,435	-0,191
126,122	53,732	-0,237	-0,159
127,137	271,768	-0,228	-0,282
128,151	800,000	-0,117	-0,260
129,166	239,081	-0,263	-0,306
130,181	-82,077	-0,310	-0,070
131,195	11,260	-0,500	-0,267
132,210	-36,318	-0,334	-0,125
133,224	84,404	-0,242	-0,184
134,239	-15,147	-0,308	-0,137
135,254	241,109	-0,192	-0,224
136,268	76,857	-0,288	-0,213
137,283	-32,598	-0,162	-0,063
138,297	169,473	-0,275	-0,274
139,312	81,508	-0,306	-0,231
140,327	236,192	-0,272	-0,315
141,341	800,000	-0,106	-0,250
142,356	110,926	-0,231	-0,194
143,370	52,770	-0,203	-0,135
144,385	2,936	-0,260	-0,131
145,400	33,685	-0,280	-0,170
146,414	144,701	-0,290	-0,271
147,429	293,987	-0,237	-0,303
148,443	-72,765	-0,274	-0,070
149,458	-65,852	-0,351	-0,097
150,473	7,753	-0,154	-0,080
151,487	230,944	-0,187	-0,214
152,502	119,416	-0,190	-0,164
153,516	334,024	-0,228	-0,308
154,531	141,607	-0,202	-0,186
155,546	308,809	-0,193	-0,252
156,560	282,061	-0,075	-0,094
157,575	-42,108	-0,187	-0,066
158,589	-67,043	-0,186	-0,051
159,604	127,459	-0,246	-0,218
160,619	140,904	-0,249	-0,229
161,633	77,195	-0,296	-0,219
162,648	321,211	-0,155	-0,206
163,662	800,000	-0,111	-0,262
164,677	122,554	-0,117	-0,102
165,692	172,947	-0,238	-0,239
166,706	162,684	-0,106	-0,104
167,721	-17,290	-0,233	-0,102
168,735	94,580	-0,182	-0,144
169,750	55,018	-0,252	-0,169
170,764	145,440	-0,138	-0,129
171,779	142,444	-0,256	-0,236
172,794	112,161	-0,189	-0,159
173,808	-28,664	-0,106	0,042
174,823	-19,334	-0,288	-0,124
175,837	226,742	-0,263	-0,298
176,852	-12,863	-0,213	-0,096
177,867	41,633	-0,237	-0,149
178,881	703,483	-0,116	-0,214
179,896	-128,374	-0,192	0,019
180,910	292,665	-0,245	-0,312
181,925	212,009	-0,121	-0,133
182,940	27,531	-0,193	-0,113
183,954	31,997	-0,219	-0,131
184,969	-59,534	-0,216	-0,064
185,983	92,689	-0,087	-0,068
186,998	124,494	-0,209	-0,183
188,013	360,863	-0,130	-0,182
189,027	-74,852	-0,191	-0,047
190,042	90,013	-0,178	-0,138
191,056	199,653	-0,197	-0,210
192,071	-200,000	-0,022	-0,108
193,086	99,814	-0,106	-0,086
194,100	100,520	-0,140	-0,113
195,115	-60,915	-0,285	-0,083
196,129	85,190	-0,263	-0,201
197,144	17,435	-0,213	-0,117
198,159	-32,838	-0,259	-0,099
199,173	-80,038	-0,286	-0,066
200,188	800,000	-0,104	-0,208
201,202	575,755	-0,123	-0,209
202,217	196,995	-0,131	-0,139
203,232	-0,793	-0,108	-0,053
204,246	82,908	-0,350	-0,264
205,261	596,188	-0,118	-0,204
206,275	104,709	-0,218	-0,178
207,290	328,334	-0,062	-0,083
208,304	289,891	-0,162	-0,205
209,319	28,170	-0,213	-0,124
210,334	-2,034	-0,171	-0,083
211,348	229,381	-0,142	-0,162
212,363	15,927	-0,232	-0,126
213,377	278,771	-0,181	-0,225
214,392	275,727	-0,134	-0,165
215,407	65,658	-0,148	-0,104
216,421	-6,660	-0,220	-0,103
217,436	-20,506	-0,236	-0,100
218,450	181,604	-0,108	-0,111
219,465	-15,921	-0,228	-0,100
220,480	98,936	-0,194	-0,155
221,494	800,000	-0,071	-0,155
222,509	166,835	-0,072	-0,071
223,523	5,693	-0,215	-0,110
224,538	-67,627	-0,111	-0,030
225,553	-77,142	-0,238	-0,057
226,567	-31,161	-0,158	-0,062
227,582	309,344	-0,051	-0,066
228,596	55,012	-0,162	-0,108
229,611	800,000	-0,091	-0,248
230,626	5,444	-0,281	-0,143
231,640	14,001	-0,286	-0,154
232,655	-200,000	-0,025	-0,171
233,669	76,049	-0,183	-0,134
234,684	-49,304	-0,305	-0,100
235,699	426,541	-0,153	-0,228
236,713	-200,000	-0,072	-0,259
237,728	314,498	-0,175	-0,229
238,742	181,020	-0,216	-0,220
239,757	155,830	-0,173	-0,165
240,772	60,424	-0,233	-0,160
241,786	122,861	-0,352	-0,305
242,801	800,000	-0,133	-0,292
243,815	117,576	-0,181	-0,154
244,830	-174,829	-0,118	0,002
245,844	-88,148	-0,198	-0,041
246,859	267,139	-0,202	-0,245
247,874	233,825	-0,168	-0,192
248,888	-200,000	-0,059	-0,193
249,903	-104,054	-0,190	-0,030
250,917	465,418	-0,125	-0,194
251,932	-34,437	-0,158	-0,060
252,947	-184,841	-0,250	0,003
253,961	-74,710	-0,301	-0,074
254,976	180,422	-0,147	-0,149
255,990	-91,018	-0,250	-0,049
257,005	-200,000	-0,064	-0,214
258,020	5,283	-0,214	-0,109
259,034	-123,462	-0,237	-0,026
260,049	72,338	-0,127	-0,091
261,063	65,053	-0,212	-0,148
262,078	318,546	-0,080	-0,105
263,093	-135,283	-0,282	-0,023
264,107	196,867	-0,125	-0,131
265,122	133,336	-0,158	-0,141
266,136	260,449	-0,193	-0,231
267,151	226,327	-0,121	-0,135
268,166	800,000	-0,018	-0,051
269,180	473,193	-0,143	-0,223
270,195	133,217	-0,207	-0,185
271,209	280,131	-0,237	-0,293
272,224	257,342	-0,143	-0,170
273,239	-26,810	-0,211	-0,085
274,253	-118,210	-0,198	-0,024
275,268	527,301	-0,124	-0,203
276,282	62,626	-0,301	-0,207
277,297	89,299	-0,239	-0,183
278,312	800,000	-0,118	-0,226
279,326	75,795	-0,139	-0,101
280,341	-200,000	-0,026	-0,229
281,355	800,000	-0,037	-0,099
282,370	147,321	-0,201	-0,187
283,384	-13,709	-0,273	-0,121
284,399	481,255	-0,168	-0,264
285,414	-89,163	-0,176	-0,035
286,428	156,863	-0,178	-0,170
287,443	-151,532	-0,232	0,012
288,457	800,000	-0,054	-0,124
289,472	-148,108	-0,233	-0,013
290,487	91,349	-0,113	-0,087
291,501	317,685	-0,233	-0,305
292,516	234,011	-0,193	-0,219
293,530	19,531	-0,092	-0,051
294,545	220,040	-0,071	0,079
295,560	-52,429	-0,206	-0,065
296,574	-177,508	-0,145	-0,002
297,589	661,158	-0,137	-0,244
298,603	800,000	-0,107	-0,213
299,618	-84,141	-0,115	-0,025
300,633	-88,038	-0,196	-0,040
301,647	-18,979	-0,153	-0,065
302,662	490,905	-0,064	-0,102
303,676	-27,415	-0,073	0,029
304,691	-79,570	-0,111	-0,025
305,706	-118,348	-0,255	-0,031
306,720	800,000	-0,121	-0,317
307,735	800,000	-0,051	-0,102
308,749	-130,670	-0,135	-0,012
309,764	-28,548	-0,108	-0,043
310,779	-132,119	-0,194	0,017
311,793	1,585	-0,192	-0,095
312,808	68,105	-0,254	-0,178
313,822	255,303	-0,225	-0,266
314,837	46,283	-0,152	-0,096
315,852	-200,000	-0,007	-0,179
316,866	-51,285	-0,075	-0,024
317,881	-70,287	-0,171	-0,044
318,895	260,306	-0,087	-0,103
319,910	-44,294	-0,172	-0,059
320,925	3,570	-0,047	-0,024
321,939	706,886	-0,146	-0,266
322,954	-200,000	0,006	-0,092
323,968	-99,466	-0,073	-0,012
324,983	-200,000	-0,064	-0,241
325,997	78,081	-0,126	-0,092
327,012	330,174	-0,144	-0,190
328,027	275,692	-0,140	-0,171
329,041	634,570	-0,078	-0,137
330,056	-79,502	-0,133	0,031
331,070	-147,940	-0,106	-0,006
332,085	-9,902	-0,195	0,089
333,100	15,427	-0,101	-0,054
334,114	82,422	-0,135	-0,101
335,129	-200,000	-0,045	-0,167
336,143	187,019	-0,220	-0,225
337,158	-31,329	-0,224	-0,086
338,173	170,254	-0,043	-0,042
339,187	1,443	-0,095	-0,047
340,202	-14,475	-0,086	0,038
341,216	-200,000	-0,043	-0,178
342,231	647,456	-0,056	-0,098
343,246	-113,554	-0,171	-0,023
344,260	113,287	-0,166	-0,138
345,275	-117,750	-0,069	-0,008
346,289	341,505	-0,015	0,020
347,304	492,311	-0,066	-0,104
348,319	7,075	-0,077	-0,039
349,333	95,414	-0,142	-0,111
350,348	526,480	-0,108	-0,174
351,362	-9,900	-0,214	-0,097
352,377	-200,000	-0,024	-0,077
353,392	116,935	-0,133	-0,112
354,406	28,811	-0,261	-0,151
355,421	208,713	1316,111	1412,148
356,435	160,601	1477,006	1412,625
