DTS Sentinel unit serial number:	SN410029Multiplexer serial number:	ORYXHardware model number:	OX2-SRSoftware version number:	ORYX F/W v4,00 Oryx Data Collector v3.7.2.0data status	okinstallation	B3 Nyhavnadifferential loss correction	single-endedforward channel	channel 1reverse channel	N/Adate	2023/11/30time	03:07:30forward acquisition time	300,00reverse acquisition time	0,00gamma	499,1914k internal	0,3210k external	0,3210temperature offset calibration	1,0000default loss term (dB/km)	0,3820temperature slope calibration	1,0000multiplexer offset coefficient	1,0000multiplexer slope coefficient	1,0000fibre end	0,00T internal ref (°C)	10,26T ext. ref 1 (°C)	-5,41T ext. ref 2 (°C)	-5,52length (m)	temperature (°C)	Stokes	anti-Stokes-744,400	397,846	-0,151	-0,230
-743,385	-200,000	0,020	0,399
-742,371	443,857	-0,215	-0,344
-741,356	-200,000	-0,059	0,430
-740,342	-200,000	-0,054	-0,211
-739,327	800,000	0,073	0,221
-738,312	800,000	-0,114	-0,259
-737,298	-200,000	0,010	0,191
-736,283	800,000	-0,130	-0,320
-735,269	-200,000	-0,037	0,281
-734,254	-74,490	-0,289	-0,075
-733,239	-106,247	-0,183	0,029
-732,225	573,685	-0,144	-0,255
-731,210	-200,000	-0,040	0,256
-730,196	-147,614	-0,134	-0,008
-729,181	773,994	0,028	-0,055
-728,167	669,419	0,027	-0,051
-727,152	800,000	-0,035	-0,094
-726,137	800,000	-0,080	0,163
-725,123	800,000	0,014	0,033
-724,108	29,078	-0,115	0,071
-723,094	-5,777	0,110	0,054
-722,079	450,274	0,016	-0,026
-721,064	76,360	0,038	-0,030
-720,050	96,103	-0,050	-0,041
-719,035	540,955	-0,102	-0,177
-718,021	-200,000	-0,003	-0,042
-717,006	-121,581	-0,074	-0,009
-715,991	-15,711	-0,140	-0,064
-714,977	90,006	0,084	-0,068
-713,962	-51,830	-0,023	0,008
-712,948	331,484	-0,079	0,111
-711,933	8,734	0,149	-0,081
-710,918	-16,967	-0,136	0,062
-709,904	116,052	-0,050	0,045
-708,889	-110,589	-0,068	0,010
-707,875	800,000	0,012	-0,038
-706,860	169,189	0,056	-0,058
-705,845	24,771	-0,049	0,029
-704,831	133,646	0,060	-0,057
-703,816	-118,392	-0,078	-0,010
-702,802	48,630	-0,124	0,084
-701,787	800,000	-0,018	-0,049
-700,772	-200,000	0,012	-0,117
-699,758	0,994	0,131	-0,068
-698,743	38,280	0,108	-0,070
-697,729	165,886	-0,073	0,075
-696,714	-139,960	0,085	-0,006
-695,699	-200,000	0,000	-0,086
-694,685	-200,000	0,009	-0,159
-693,670	562,880	0,056	-0,099
-692,656	-72,947	0,091	0,024
-691,641	-68,437	-0,114	-0,032
-690,627	-200,000	0,019	0,128
-689,612	-27,876	0,082	0,034
-688,597	800,000	0,011	-0,031
-687,583	281,448	-0,067	-0,086
-686,568	-127,472	0,160	0,017
-685,554	361,186	-0,060	0,088
-684,539	788,382	-0,018	0,036
-683,524	-58,392	-0,060	-0,019
-682,510	427,404	0,100	-0,157
-681,495	-36,509	-0,064	-0,025
-680,481	170,716	-0,074	-0,077
-679,466	800,000	-0,024	-0,059
-678,451	569,770	0,035	0,061
-677,437	-42,591	0,106	-0,039
-676,422	170,020	0,019	0,020
-675,408	-200,000	0,003	-0,064
-674,393	475,766	0,009	-0,015
-673,378	-78,043	-0,042	-0,010
-672,364	-200,000	-0,000	-0,055
-671,349	36,853	0,082	0,052
-670,335	-200,000	-0,014	-0,064
-669,320	-200,000	0,027	-0,121
-668,305	151,978	0,111	0,110
-667,291	-200,000	-0,007	-0,027
-666,276	198,619	-0,058	0,064
-665,262	218,220	-0,117	-0,135
-664,247	96,990	-0,035	0,029
-663,232	-26,992	0,056	0,023
-662,218	398,792	-0,078	-0,118
-661,203	-200,000	-0,061	0,208
-660,189	23,875	-0,057	-0,034
-659,174	471,323	0,058	-0,094
-658,159	-200,000	0,008	-0,035
-657,145	154,260	-0,141	0,140
-656,130	-62,548	0,042	-0,013
-655,116	72,447	-0,012	-0,009
-654,101	-54,297	0,096	0,031
-653,086	-200,000	-0,027	-0,104
-652,072	177,857	-0,070	-0,074
-651,057	-146,930	0,024	-0,001
-650,043	800,000	0,026	0,065
-649,028	368,633	-0,047	-0,069
-648,014	-148,464	0,086	-0,005
-646,999	84,912	0,130	0,103
-645,984	-200,000	0,019	0,084
-644,970	250,580	-0,039	0,048
-643,955	-200,000	-0,018	-0,156
-642,941	-135,935	-0,092	0,008
-641,926	495,575	-0,023	-0,039
-640,911	167,353	0,079	0,081
-639,897	181,065	-0,080	-0,085
-638,882	32,158	-0,136	0,085
-637,868	237,070	-0,061	-0,073
-636,853	56,210	-0,135	-0,095
-635,838	-1,491	-0,141	-0,071
-634,824	-200,000	0,014	-0,175
-633,809	-52,489	-0,015	0,005
-632,795	797,565	0,015	0,030
-631,780	-113,245	0,030	0,004
-630,765	-80,454	-0,089	0,021
-629,751	-200,000	0,016	-0,073
-628,736	800,000	0,029	0,086
-627,722	-132,207	-0,123	-0,011
-626,707	13,425	0,125	-0,070
-625,692	767,103	-0,059	-0,117
-624,678	41,746	0,103	0,067
-623,663	61,103	0,091	0,065
-622,649	-200,000	0,003	-0,062
-621,634	487,609	-0,050	0,082
-620,619	40,273	-0,111	-0,072
-619,605	800,000	0,011	-0,025
-618,590	800,000	-0,074	0,159
-617,576	-30,019	0,009	-0,004
-616,561	-200,000	0,001	0,057
-615,546	161,071	-0,043	-0,043
-614,532	578,941	-0,055	-0,098
-613,517	-107,244	-0,132	0,021
-612,503	599,312	-0,057	0,102
-611,488	54,157	-0,020	-0,014
-610,474	424,635	-0,038	0,059
-609,459	61,835	-0,039	-0,028
-608,444	151,535	0,060	-0,059
-607,430	287,483	0,073	-0,096
-606,415	633,588	0,065	-0,119
-605,401	-200,000	-0,014	0,144
-604,386	73,077	-0,086	0,065
-603,371	-200,000	-0,023	0,100
-602,357	166,003	-0,070	0,072
-601,342	800,000	-0,036	0,082
-600,328	-14,432	-0,028	0,013
-599,313	13,459	0,061	-0,034
-598,298	-135,812	-0,062	0,005
-597,284	412,512	0,037	0,056
-596,269	-97,979	0,156	0,029
-595,255	294,591	-0,109	-0,144
-594,240	-200,000	0,000	-0,089
-593,225	-0,962	0,032	0,016
-592,211	-100,126	-0,046	-0,008
-591,196	545,087	-0,023	0,040
-590,182	-162,371	-0,057	-0,002
-589,167	199,988	-0,082	-0,090
-588,152	219,710	0,025	-0,029
-587,138	311,328	0,050	-0,067
-586,123	800,000	-0,025	-0,061
-585,109	47,208	-0,062	-0,042
-584,094	-32,124	-0,078	0,031
-583,079	431,874	0,023	0,037
-582,065	-200,000	-0,003	0,179
-581,050	2,709	0,083	-0,043
-580,036	-34,830	0,078	0,031
-579,021	-48,557	-0,154	-0,053
-578,006	202,336	-0,065	0,072
-576,992	-200,000	-0,020	0,106
-575,977	652,258	-0,091	-0,169
-574,963	-33,716	0,111	0,044
-573,948	790,731	0,052	0,104
-572,934	-200,000	-0,003	-0,077
-571,919	1,255	-0,050	-0,026
-570,904	-72,859	-0,040	-0,011
-569,890	-5,812	0,113	0,056
-568,875	-156,900	-0,047	0,002
-567,861	15,748	0,085	-0,048
-566,846	-183,175	-0,038	-0,000
-565,831	800,000	0,041	-0,091
-564,817	607,557	-0,035	-0,064
-563,802	-200,000	-0,015	-0,095
-562,788	453,382	0,052	0,084
-561,773	59,307	-0,054	-0,039
-560,758	-60,073	0,100	0,030
-559,744	-78,159	-0,192	0,047
-558,729	21,344	-0,081	0,047
-557,715	147,510	0,030	-0,029
-556,700	214,439	-0,040	0,046
-555,685	613,701	-0,033	-0,060
-554,671	-200,000	0,026	-0,101
-553,656	800,000	-0,056	0,146
-552,642	60,434	-0,117	0,083
-551,627	-38,324	0,109	-0,042
-550,612	155,850	-0,088	0,088
-549,598	-200,000	-0,008	-0,077
-548,583	12,045	0,104	0,057
-547,569	-57,035	-0,018	0,006
-546,554	-13,752	0,128	0,059
-545,539	-74,169	-0,037	-0,010
-544,525	-78,154	-0,086	0,021
-543,510	800,000	-0,041	0,092
-542,496	-163,752	-0,118	-0,004
-541,481	656,003	-0,023	-0,042
-540,466	-12,067	0,092	0,043
-539,452	-200,000	0,033	0,131
-538,437	57,903	-0,082	0,057
-537,423	274,699	-0,087	0,112
-536,408	-90,360	-0,127	0,026
-535,393	230,692	0,016	0,018
-534,379	163,545	0,042	-0,043
-533,364	-47,138	0,076	0,027
-532,350	-200,000	-0,011	-0,071
-531,335	244,506	0,087	0,105
-530,321	-200,000	-0,006	0,049
-529,306	-200,000	-0,013	0,043
-528,291	125,774	0,123	-0,112
-527,277	41,322	0,206	-0,134
-526,262	-200,000	-0,001	-0,142
-525,248	171,563	0,061	-0,063
-524,233	90,340	0,197	0,159
-523,218	-39,263	-0,068	0,026
-522,204	128,142	0,014	0,012
-521,189	497,305	0,025	-0,042
-520,175	-200,000	0,005	-0,079
-519,160	-53,947	-0,036	-0,012
-518,145	521,249	0,041	0,070
-517,131	-200,000	-0,011	0,110
-516,116	284,664	-0,070	0,091
-515,102	143,258	0,104	0,099
-514,087	51,523	-0,041	-0,028
-513,072	88,145	-0,040	0,032
-512,058	312,861	0,072	0,097
-511,043	3,412	-0,039	0,020
-510,029	632,220	0,030	0,055
-509,014	19,959	-0,028	0,016
-507,999	297,172	0,102	-0,135
-506,985	-66,808	-0,160	-0,045
-505,970	-10,587	-0,135	-0,064
-504,956	18,310	0,107	-0,061
-503,941	-200,000	-0,016	-0,050
-502,926	-200,000	0,033	-0,111
-501,912	800,000	0,062	-0,166
-500,897	444,626	0,035	-0,055
-499,883	800,000	0,048	0,096
-498,868	-71,946	-0,133	-0,035
-497,853	-200,000	0,014	0,053
-496,839	-200,000	0,041	-0,146
-495,824	800,000	-0,012	-0,025
-494,810	470,149	0,074	0,119
-493,795	-200,000	0,013	0,095
-492,781	194,789	-0,090	-0,099
-491,766	-200,000	0,013	-0,124
-490,751	-200,000	-0,022	-0,090
-489,737	-200,000	-0,035	-0,130
-488,722	718,763	0,009	-0,017
-487,708	557,059	0,041	0,071
-486,693	761,380	-0,047	0,093
-485,678	377,589	-0,026	-0,038
-484,664	-200,000	0,016	-0,165
-483,649	164,048	-0,033	-0,033
-482,635	109,606	-0,040	0,034
-481,620	800,000	-0,061	0,144
-480,605	-146,360	-0,132	-0,008
-479,591	-200,000	0,007	-0,082
-478,576	-200,000	0,000	0,038
-477,562	290,633	0,044	-0,057
-476,547	132,383	-0,117	-0,108
-475,532	-200,000	-0,011	0,073
-474,518	379,463	-0,038	0,056
-473,503	-92,649	0,068	-0,014
-472,489	-45,590	0,124	-0,044
-471,474	163,521	-0,086	0,087
-470,459	349,867	0,054	0,077
-469,445	259,615	-0,056	-0,069
-468,430	-188,653	-0,094	-0,001
-467,416	14,201	0,075	0,042
-466,401	-200,000	-0,026	0,084
-465,386	-101,276	0,089	0,015
-464,372	21,457	-0,060	0,035
-463,357	-200,000	0,014	-0,047
-462,343	-125,739	-0,030	-0,003
-461,328	141,093	0,027	0,025
-460,313	-96,259	0,045	0,008
-459,299	-200,000	-0,019	-0,110
-458,284	-200,000	0,009	-0,042
-457,270	800,000	-0,009	0,024
-456,255	102,614	-0,122	-0,103
-455,241	230,585	-0,082	0,096
-454,226	800,000	-0,078	0,185
-453,211	743,194	0,021	0,040
-452,197	84,333	0,022	-0,017
-451,182	194,276	0,031	-0,033
-450,168	788,498	-0,025	-0,049
-449,153	1,008	0,031	-0,016
-448,138	-200,000	-0,017	0,082
-447,124	-34,901	0,097	0,038
-446,109	10,131	0,033	-0,018
-445,095	659,833	-0,010	-0,019
-444,080	-200,000	-0,008	-0,080
-443,065	-110,848	0,085	-0,012
-442,051	800,000	-0,074	-0,188
-441,036	-27,809	-0,084	0,035
-440,022	-114,790	-0,063	0,008
-439,007	63,791	0,030	-0,021
-437,992	58,649	0,034	0,024
-436,978	14,427	0,057	-0,032
-435,963	-118,053	-0,048	-0,006
-434,949	179,324	-0,072	0,075
-433,934	-200,000	-0,008	0,026
-432,919	-200,000	-0,022	0,076
-431,905	66,285	0,104	0,076
-430,890	-200,000	-0,003	-0,059
-429,876	-126,469	0,147	-0,015
-428,861	-35,707	0,080	-0,031
-427,846	64,937	-0,053	-0,038
-426,832	25,652	-0,166	-0,099
-425,817	-88,466	0,096	-0,020
-424,803	-200,000	0,016	-0,054
-423,788	70,692	0,015	0,011
-422,773	-200,000	-0,026	0,106
-421,759	371,132	0,010	-0,015
-420,744	-152,069	-0,151	0,008
-419,730	-200,000	-0,012	-0,048
-418,715	800,000	0,057	-0,144
-417,701	79,619	0,085	0,066
-416,686	112,034	-0,037	0,032
-415,671	-94,210	0,180	0,035
-414,657	-200,000	0,010	0,052
-413,642	-113,970	-0,025	-0,003
-412,628	112,288	-0,102	-0,088
-411,613	800,000	-0,025	0,059
-410,598	202,667	0,105	-0,116
-409,584	1,434	0,162	0,083
-408,569	800,000	-0,028	-0,078
-407,555	479,313	0,054	0,088
-406,540	442,607	0,075	-0,118
-405,525	-4,845	0,031	0,015
-404,511	108,112	-0,121	-0,103
-403,496	237,440	-0,096	-0,114
-402,482	-200,000	0,035	-0,216
-401,467	-100,447	0,092	-0,016
-400,452	-68,195	0,108	-0,030
-399,438	-200,000	-0,006	-0,031
-398,423	109,264	-0,077	-0,066
-397,409	-197,659	-0,165	-0,001
-396,394	-1,235	-0,053	0,027
-395,379	-164,805	0,132	0,004
-394,365	32,154	0,094	0,058
-393,350	-0,132	-0,077	-0,039
-392,336	-30,328	0,111	0,045
-391,321	-200,000	-0,005	0,044
-390,306	285,137	-0,101	-0,130
-389,292	230,626	0,146	-0,172
-388,277	-132,853	0,092	0,008
-387,263	111,817	0,101	0,087
-386,248	59,612	0,042	0,030
-385,233	-200,000	0,008	-0,044
-384,219	72,183	-0,066	-0,049
-383,204	800,000	-0,015	-0,033
-382,190	-86,169	-0,028	0,006
-381,175	133,655	0,068	0,063
-380,160	-64,334	0,042	0,012
-379,146	-19,991	0,013	-0,006
-378,131	-200,000	-0,001	-0,041
-377,117	180,786	0,048	-0,051
-376,102	-86,029	-0,077	0,017
-375,088	42,713	0,098	0,064
-374,073	800,000	0,039	-0,096
-373,058	-31,138	0,201	-0,081
-372,044	-51,180	0,046	-0,015
-371,029	359,836	0,031	0,044
-370,015	-200,000	-0,013	-0,151
-369,000	168,179	-0,090	-0,092
-367,985	-200,000	0,014	-0,124
-366,971	800,000	-0,011	0,025
-365,956	-200,000	-0,020	-0,168
-364,942	14,045	0,067	-0,037
-363,927	-200,000	-0,001	0,070
-362,912	394,900	0,060	-0,089
-361,898	-128,924	-0,064	0,006
-360,883	224,971	0,067	0,077
-359,869	800,000	0,024	-0,073
-358,854	-13,993	0,029	0,013
-357,839	177,578	0,088	0,092
-356,825	-200,000	-0,001	-0,066
-355,810	-200,000	-0,005	-0,050
-354,796	-200,000	-0,032	0,120
-353,781	93,012	-0,035	0,028
-352,766	166,897	-0,040	-0,040
-351,752	800,000	0,034	-0,083
-350,737	-104,491	0,099	0,016
-349,723	-53,708	0,104	0,034
-348,708	-137,272	-0,148	-0,012
-347,693	41,256	-0,056	-0,036
-346,679	-158,533	0,017	0,001
-345,664	13,026	0,086	-0,047
-344,650	323,270	-0,089	-0,121
-343,635	-151,461	0,040	-0,002
-342,620	-2,652	0,071	-0,036
-341,606	-27,209	0,067	-0,028
-340,591	643,224	0,021	-0,039
-339,577	-200,000	0,024	-0,098
-338,562	-200,000	-0,018	-0,140
-337,548	-200,000	-0,017	0,076
-336,533	534,784	-0,028	-0,048
-335,518	800,000	0,056	0,146
-334,504	-200,000	-0,009	0,071
-333,489	111,360	0,077	0,066
-332,475	-200,000	-0,003	-0,012
-331,460	800,000	0,044	-0,092
-330,445	-200,000	-0,024	0,107
-329,431	-4,892	-0,137	0,067
-328,416	-200,000	-0,039	-0,131
-327,402	462,650	-0,042	0,068
-326,387	-81,922	-0,082	0,019
-325,372	128,111	-0,112	-0,102
-324,358	-136,821	-0,113	0,009
-323,343	-200,000	-0,016	-0,091
-322,329	-200,000	-0,004	-0,028
-321,314	-118,901	0,135	-0,017
-320,299	-9,726	0,028	-0,013
-319,285	-200,000	-0,011	0,242
-318,270	126,586	0,106	-0,096
-317,256	358,531	-0,028	-0,041
-316,241	75,178	0,059	-0,044
-315,226	800,000	0,013	0,039
-314,212	158,319	0,068	0,067
-313,197	-200,000	-0,009	0,106
-312,183	800,000	-0,013	-0,029
-311,168	525,275	0,070	0,118
-310,153	344,383	-0,073	-0,102
-309,139	244,263	-0,031	0,038
-308,124	-52,070	0,089	-0,029
-307,110	345,283	0,021	-0,029
-306,095	179,734	0,087	0,091
-305,080	-120,277	0,078	0,009
-304,066	800,000	-0,050	-0,152
-303,051	-72,986	-0,110	-0,029
-302,037	110,648	0,054	0,046
-301,022	-200,000	0,012	0,078
-300,008	373,707	0,085	0,123
-298,993	-200,000	-0,003	-0,021
-297,978	-96,198	-0,037	0,007
-296,964	-200,000	-0,004	0,087
-295,949	426,449	-0,033	-0,050
-294,935	16,695	0,042	-0,024
-293,920	-200,000	-0,024	-0,169
-292,905	800,000	0,054	0,116
-291,891	-9,873	0,086	-0,040
-290,876	-55,244	-0,083	-0,026
-289,862	800,000	0,051	0,108
-288,847	251,773	-0,036	-0,044
-287,832	-105,453	-0,215	0,035
-286,818	78,704	-0,128	-0,097
-285,803	-107,382	-0,043	0,007
-284,789	91,211	0,050	0,040
-283,774	415,095	-0,029	0,044
-282,759	687,130	0,062	-0,116
-281,745	74,167	0,106	-0,079
-280,730	516,409	0,068	0,114
-279,716	-103,415	-0,098	0,016
-278,701	682,346	-0,044	0,083
-277,686	-200,000	0,024	0,138
-276,672	-61,587	0,170	-0,050
-275,657	800,000	0,019	0,045
-274,643	568,558	0,074	0,129
-273,628	11,581	-0,034	0,018
-272,613	800,000	0,070	0,146
-271,599	547,477	-0,045	0,077
-270,584	-113,397	0,152	0,021
-269,570	165,624	-0,017	-0,018
-268,555	100,011	0,002	-0,002
-267,540	800,000	-0,042	-0,130
-266,526	-87,132	-0,066	0,014
-265,511	800,000	0,028	-0,064
-264,497	800,000	-0,006	-0,018
-263,482	-136,116	0,166	0,014
-262,467	800,000	-0,065	-0,131
-261,453	800,000	0,022	-0,058
-260,438	-200,000	-0,013	-0,059
-259,424	681,008	-0,028	0,053
-258,409	291,769	-0,046	-0,060
-257,395	139,123	-0,059	-0,055
-256,380	153,721	0,047	0,046
-255,365	800,000	-0,037	-0,097
-254,351	-45,147	0,099	-0,035
-253,336	-200,000	-0,024	-0,094
-252,322	-200,000	0,020	-0,074
-251,307	800,000	-0,027	0,058
-250,292	171,592	0,038	-0,039
-249,278	-200,000	0,035	0,184
-248,263	-200,000	0,021	0,072
-247,249	-200,000	0,022	0,167
-246,234	-200,000	-0,029	0,101
-245,219	800,000	-0,013	-0,039
-244,205	800,000	-0,027	-0,064
-243,190	800,000	0,031	0,073
-242,176	-200,000	-0,048	0,178
-241,161	800,000	0,021	-0,047
-240,146	-158,966	-0,197	-0,008
-239,132	43,803	0,039	0,025
-238,117	396,084	-0,032	0,048
-237,103	-200,000	0,030	-0,158
-236,088	216,974	0,057	-0,064
-235,073	-176,508	0,154	0,003
-234,059	-7,287	0,059	-0,028
-233,044	483,449	0,125	0,202
-232,030	-200,000	0,006	-0,045
-231,015	664,556	-0,043	-0,079
-230,000	-200,000	-0,012	-0,038
-228,986	-89,705	-0,057	-0,012
-227,971	-40,842	-0,055	0,020
-226,957	800,000	-0,017	-0,037
-225,942	95,283	0,091	0,074
-224,927	-190,599	0,036	0,000
-223,913	-58,241	-0,066	0,020
-222,898	473,542	0,045	-0,073
-221,884	56,955	-0,088	0,061
-220,869	735,259	-0,036	0,068
-219,855	-180,361	0,155	0,002
-218,840	531,810	0,118	0,199
-217,825	481,219	0,042	0,067
-216,811	46,125	-0,110	0,072
-215,796	212,860	-0,100	0,112
-214,782	-103,783	0,085	-0,014
-213,767	800,000	0,023	0,051
-212,752	-200,000	0,005	0,098
-211,738	-200,000	-0,027	0,149
-210,723	262,868	-0,069	0,085
-209,709	800,000	0,023	0,066
-208,694	-200,000	0,005	-0,028
-207,679	-31,484	0,152	-0,060
-206,665	-200,000	-0,025	0,135
-205,650	397,577	0,014	0,020
-204,636	491,127	-0,034	0,055
-203,621	-200,000	0,005	0,019
-202,606	60,146	-0,136	-0,095
-201,592	-55,609	-0,097	0,031
-200,577	800,000	0,017	0,046
-199,563	800,000	0,050	0,103
-198,548	-101,147	0,027	-0,005
-197,533	85,054	0,070	0,055
-196,519	-25,097	-0,018	-0,008
-195,504	172,967	-0,053	-0,054
-194,490	-200,000	-0,020	-0,154
-193,475	-65,224	-0,033	0,009
-192,460	108,090	-0,049	0,041
-191,446	119,874	0,063	-0,055
-190,431	108,034	0,019	-0,016
-189,417	800,000	-0,030	0,066
-188,402	-38,282	0,120	-0,045
-187,387	-179,374	-0,153	0,002
-186,373	800,000	-0,038	0,086
-185,358	-200,000	-0,004	-0,058
-184,344	184,148	0,098	-0,103
-183,329	191,869	-0,040	0,043
-182,315	6,552	0,032	-0,017
-181,300	-134,559	0,100	-0,009
-180,285	-200,000	0,001	-0,105
-179,271	158,803	0,055	-0,054
-178,256	-19,012	-0,046	0,020
-177,242	536,538	-0,039	0,065
-176,227	800,000	0,033	0,069
-175,212	-200,000	0,027	0,085
-174,198	441,601	-0,016	-0,025
-173,183	55,683	-0,091	-0,063
-172,169	410,918	-0,030	-0,045
-171,154	-200,000	-0,033	0,109
-170,139	80,133	-0,072	0,055
-169,125	395,345	0,015	0,023
-168,110	93,665	-0,207	0,166
-167,096	800,000	0,044	0,098
-166,081	443,282	-0,070	0,109
-165,066	609,838	-0,045	-0,080
-164,052	540,103	-0,034	-0,058
-163,037	-200,000	0,040	0,175
-162,023	88,779	0,075	-0,059
-161,008	129,685	0,109	0,099
-159,993	517,749	0,026	-0,043
-158,979	800,000	-0,058	-0,143
-157,964	-200,000	-0,016	0,084
-156,950	14,464	-0,059	0,033
-155,935	800,000	-0,028	-0,056
-154,920	-51,584	0,027	-0,009
-153,906	-200,000	-0,004	0,087
-152,891	70,094	-0,079	0,058
-151,877	184,039	-0,096	-0,100
-150,862	-118,267	0,103	0,013
-149,847	269,627	-0,090	-0,112
-148,833	-200,000	-0,015	-0,108
-147,818	-139,846	0,074	-0,005
-146,804	198,800	-0,073	0,079
-145,789	-200,000	-0,042	0,205
-144,775	74,422	0,017	-0,013
-143,760	-200,000	0,018	0,061
-142,745	800,000	-0,066	-0,135
-141,731	7,740	0,027	0,014
-140,716	-200,000	-0,002	-0,114
-139,702	44,986	0,100	0,065
-138,687	-95,768	-0,031	-0,006
-137,672	-184,966	-0,114	-0,001
-136,658	202,105	-0,036	0,039
-135,643	-200,000	0,014	-0,145
-134,629	-5,240	-0,161	0,078
-133,614	-200,000	-0,045	0,189
-132,599	-68,589	0,111	0,030
-131,585	-157,164	-0,075	0,003
-130,570	45,841	-0,040	0,026
-129,556	236,655	-0,045	-0,053
-128,541	-57,458	-0,149	-0,046
-127,526	24,553	0,079	-0,046
-126,512	800,000	0,029	0,089
-125,497	-108,535	0,041	0,006
-124,483	800,000	-0,010	0,031
-123,468	169,836	0,015	0,015
-122,453	-74,685	-0,103	0,026
-121,439	-200,000	-0,043	-0,174
-120,424	-200,000	-0,025	0,171
-119,410	-200,000	-0,001	0,046
-118,395	235,141	-0,151	0,177
-117,380	-129,414	0,169	-0,016
-116,366	462,715	0,021	-0,034
-115,351	-200,000	0,009	0,065
-114,337	-127,645	-0,110	0,011
-113,322	368,130	0,043	0,062
-112,307	20,690	0,057	-0,033
-111,293	-30,806	0,060	0,024
-110,278	-200,000	-0,030	0,113
-109,264	-1,895	-0,097	0,048
-108,249	-19,090	-0,088	0,039
-107,234	444,768	0,054	0,083
-106,220	12,230	0,089	-0,048
-105,205	800,000	-0,079	0,195
-104,191	-70,132	0,161	-0,043
-103,176	800,000	0,021	0,051
-102,162	557,440	0,056	-0,097
-101,147	58,046	-0,085	0,059
-100,132	-170,147	-0,051	0,001
-99,118	-5,199	0,045	0,022
-98,103	-32,635	0,180	-0,071
-97,089	-127,742	0,138	0,014
-96,074	-200,000	0,000	0,008
-95,059	38,293	-0,072	0,045
-94,045	-67,863	-0,056	-0,015
-93,030	-157,632	-0,009	-0,000
-92,016	143,365	-0,141	-0,133
-91,001	113,859	0,078	0,067
-89,986	162,026	0,074	-0,073
-88,972	-200,000	0,016	0,060
-87,957	-200,000	-0,030	0,123
-86,943	-163,342	0,047	-0,002
-85,928	58,923	0,046	-0,032
-84,913	-131,607	-0,061	-0,006
-83,899	800,000	-0,019	0,044
-82,884	-3,351	0,124	-0,061
-81,870	-200,000	0,006	0,123
-80,855	294,174	-0,083	0,107
-79,840	98,228	0,040	-0,033
-78,826	-200,000	-0,005	-0,058
-77,811	800,000	-0,017	-0,040
-76,797	63,526	-0,084	-0,059
-75,782	393,344	0,062	-0,091
-74,767	-115,669	-0,035	-0,005
-73,753	-162,260	-0,049	0,002
-72,738	-109,519	0,100	0,015
-71,724	800,000	0,043	-0,090
-70,709	270,728	-0,058	-0,072
-69,694	379,866	-0,041	-0,060
-68,680	-200,000	0,004	-0,014
-67,665	-109,476	0,092	-0,014
-66,651	165,921	-0,063	0,063
-65,636	-100,200	0,105	-0,018
-64,622	800,000	-0,063	-0,155
-63,607	58,055	-0,010	0,007
-62,592	800,000	0,050	-0,098
-61,578	800,000	0,030	-0,071
-60,563	-15,600	-0,056	0,025
-59,549	-102,213	-0,179	-0,030
-58,534	10,847	-1,975	-1,062
-57,519	386,668	-1,277	-1,869
-56,505	-200,000	-0,425	-4,514
-55,490	470,052	0,930	1,481
-54,476	800,000	5,046	11,221
-53,461	-200,000	21,126	339,258
-52,446	800,000	759,440	2354,440
-51,432	558,077	1662,044	2841,257
-50,417	73,582	1661,679	1227,319
-49,403	18,191	1535,118	862,301
-48,388	12,112	1458,550	789,884
-47,373	19,303	1449,784	819,624
-46,359	15,517	1439,002	795,486
-45,344	10,397	1434,712	768,703
-44,330	10,327	1432,793	767,308
-43,315	10,248	1431,267	766,086
-42,300	10,310	1429,439	765,369
-41,286	10,337	1427,884	764,638
-40,271	10,321	1426,878	763,993
-39,257	10,294	1425,801	763,255
-38,242	10,298	1424,783	762,701
-37,227	10,342	1423,454	762,166
-36,213	10,350	1422,070	761,433
-35,198	10,316	1421,108	760,727
-34,184	10,365	1420,154	760,416
-33,169	10,284	1418,928	759,348
-32,154	10,384	1417,564	759,061
-31,140	10,387	1416,420	758,430
-30,125	10,352	1415,472	757,730
-29,111	10,357	1414,003	756,939
-28,096	10,319	1413,194	756,295
-27,082	10,277	1411,997	755,428
-26,067	10,288	1410,937	754,880
-25,052	10,314	1409,821	754,376
-24,038	10,331	1408,696	753,825
-23,023	10,278	1408,145	753,252
-22,009	10,327	1406,760	752,709
-20,994	10,304	1405,746	752,032
-19,979	10,295	1404,911	751,513
-18,965	10,270	1403,933	750,841
-17,950	10,279	1403,057	750,385
-16,936	10,241	1402,317	749,782
-15,921	10,211	1401,297	749,067
-14,906	10,206	1400,522	748,601
-13,892	10,240	1399,375	748,118
-12,877	10,233	1398,763	747,728
-11,863	10,222	1397,635	747,043
-10,848	10,144	1397,032	746,327
-9,833	10,106	1395,903	745,518
-8,819	10,115	1395,274	745,197
-7,804	10,112	1394,025	744,485
-6,790	10,122	1393,300	744,117
-5,775	10,110	1392,167	743,425
-4,760	10,090	1391,400	742,892
-3,746	10,081	1390,237	742,200
-2,731	10,083	1389,372	741,720
-1,717	10,097	1388,421	741,246
-0,702	10,081	1386,629	740,187
0,313	14,110	1299,599	712,167
1,327	30,354	689,805	414,814
2,342	47,005	119,459	78,245
3,356	1,779	16,462	8,342
4,371	-0,602	3,457	1,724
5,386	-3,514	0,965	0,472
6,400	795,242	0,232	0,453
7,415	-178,787	-0,209	-0,003
8,429	493,182	-0,169	-0,274
9,444	88,150	-0,287	-0,224
10,459	-60,687	-0,321	-0,095
11,473	20,690	-0,331	-0,189
12,488	-43,421	-0,230	-0,081
13,502	-104,865	-0,345	-0,055
14,517	-43,694	-0,298	-0,105
15,531	11,032	-0,348	-0,187
16,546	-70,746	-0,299	-0,079
17,561	63,829	-0,288	-0,203
18,575	-45,586	-0,239	-0,083
19,590	297,368	-0,205	-0,266
20,604	-12,768	-0,266	-0,122
21,619	117,346	-0,443	-0,384
22,634	196,368	-0,415	-0,446
23,648	211,713	-0,373	-0,414
24,663	140,169	-0,319	-0,297
25,677	43,114	-0,348	-0,223
26,692	-25,192	-0,454	-0,188
27,707	-36,906	-0,325	-0,122
28,721	103,027	-0,343	-0,282
29,736	151,956	-0,371	-0,356
30,750	334,444	-0,226	-0,309
31,765	86,190	-0,360	-0,278
32,780	-14,626	-0,344	-0,155
33,794	3,347	-0,424	-0,216
34,809	164,907	-0,426	-0,423
35,823	-30,554	-0,477	-0,189
36,838	83,121	-0,452	-0,346
37,853	39,193	-0,343	-0,216
38,867	85,895	-0,422	-0,326
39,882	8,132	-0,304	-0,160
40,896	219,727	-0,223	-0,251
41,911	47,837	-0,406	-0,266
42,926	249,756	-0,300	-0,358
43,940	32,665	-0,355	-0,216
44,955	78,758	-0,475	-0,357
45,969	27,791	-0,315	-0,186
46,984	98,908	-0,292	-0,237
47,999	55,823	-0,233	-0,158
49,013	142,094	-0,295	-0,275
50,028	38,814	-0,355	-0,222
51,042	82,174	-0,348	-0,265
52,057	-54,845	-0,487	-0,153
53,071	222,442	-0,244	-0,276
54,086	40,076	-0,432	-0,272
55,101	72,309	-0,381	-0,278
56,115	114,070	-0,259	-0,221
57,130	35,924	-0,393	-0,242
58,144	271,719	-0,146	-0,181
59,159	77,582	-0,380	-0,284
60,174	151,762	-0,383	-0,366
61,188	67,286	-0,356	-0,255
62,203	16,083	-0,379	-0,209
63,217	-128,677	-0,424	-0,042
64,232	58,908	-0,324	-0,223
65,247	471,027	-0,186	-0,295
66,261	125,677	-0,347	-0,307
67,276	10,004	-0,334	-0,178
68,290	49,816	-0,375	-0,247
69,305	30,697	-0,254	-0,152
70,320	-32,509	-0,331	-0,129
71,334	-98,735	-0,368	-0,065
72,349	-29,442	-0,225	-0,090
73,363	26,875	-0,339	-0,199
74,378	-37,057	-0,417	-0,156
75,393	214,986	-0,216	-0,240
76,407	124,937	-0,257	-0,227
77,422	-34,612	-0,206	-0,079
78,436	37,502	-0,198	-0,123
79,451	222,384	-0,266	-0,300
80,466	93,529	-0,353	-0,280
81,480	11,099	-0,240	-0,128
82,495	37,671	-0,304	-0,189
83,509	40,414	-0,259	-0,163
84,524	-20,340	-0,296	-0,127
85,539	40,017	-0,288	-0,181
86,553	102,104	-0,337	-0,276
87,568	39,668	-0,297	-0,186
88,582	261,266	-0,142	-0,172
89,597	108,811	-0,294	-0,246
90,611	107,897	-0,201	-0,167
91,626	51,030	-0,239	-0,158
92,641	201,688	-0,164	-0,177
93,655	9,621	-0,329	-0,174
94,670	186,790	-0,308	-0,322
95,684	199,709	-0,260	-0,280
96,699	59,346	-0,274	-0,188
97,714	165,486	-0,269	-0,267
98,728	185,026	-0,205	-0,213
99,743	-13,839	-0,312	-0,140
100,757	38,279	-0,261	-0,162
101,772	217,606	-0,258	-0,288
102,787	30,311	-0,342	-0,204
103,801	56,103	-0,260	-0,176
104,816	45,409	-0,244	-0,157
105,830	43,264	-0,216	-0,138
106,845	0,787	-0,251	-0,125
107,860	165,121	-0,215	-0,213
108,874	247,432	-0,205	-0,243
109,889	314,834	-0,222	-0,293
110,903	-13,308	-0,393	-0,178
111,918	-11,648	-0,264	-0,121
112,933	132,543	-0,220	-0,198
113,947	200,913	-0,195	-0,209
114,962	137,250	-0,193	-0,176
115,976	217,298	-0,169	-0,188
116,991	215,760	-0,271	-0,301
118,006	48,489	-0,407	-0,266
119,020	67,800	-0,196	-0,140
120,035	-70,782	-0,245	-0,064
121,049	49,326	-0,169	-0,111
122,064	-4,800	-0,205	-0,098
123,079	6,109	-0,346	-0,178
124,093	110,758	-0,284	-0,239
125,108	109,153	-0,235	-0,196
126,122	80,543	-0,209	-0,157
127,137	216,070	-0,145	-0,161
128,151	252,115	-0,240	-0,286
129,166	104,778	-0,252	-0,208
130,181	-10,046	-0,223	-0,103
131,195	51,976	-0,172	-0,114
132,210	284,535	-0,216	-0,272
133,224	-121,589	-0,290	-0,033
134,239	-200,000	-0,077	-0,300
135,254	119,024	-0,209	-0,180
136,268	57,857	-0,172	-0,117
137,283	18,651	-0,187	-0,104
138,297	24,443	-0,312	-0,179
139,312	71,073	-0,210	-0,152
140,327	80,853	-0,176	-0,132
141,341	205,032	-0,228	-0,247
142,356	138,900	-0,177	-0,162
143,370	61,603	-0,385	-0,266
144,385	691,739	-0,157	-0,287
145,400	-10,588	-0,303	-0,139
146,414	-54,244	-0,321	-0,101
147,429	-0,919	-0,369	-0,181
148,443	62,495	-0,269	-0,187
149,458	-185,956	-0,262	-0,003
150,473	-12,999	-0,273	-0,123
151,487	-115,798	-0,207	-0,027
152,502	402,757	-0,128	-0,188
153,516	161,431	-0,186	-0,181
154,531	26,302	-0,225	-0,130
155,546	376,930	-0,123	-0,175
156,560	-110,101	-0,206	-0,030
157,575	-8,949	-0,188	-0,087
158,589	108,158	-0,188	-0,156
159,604	174,780	-0,205	-0,207
160,619	53,475	-0,383	-0,255
161,633	-59,164	-0,279	-0,083
162,648	134,013	-0,248	-0,224
163,662	234,883	-0,169	-0,194
164,677	1,533	-0,329	-0,164
165,692	191,031	-0,221	-0,231
166,706	390,040	-0,184	-0,265
167,721	130,457	-0,304	-0,271
168,735	209,653	-0,268	-0,292
169,750	57,336	-0,242	-0,164
170,764	-18,120	-0,212	-0,092
171,779	-49,787	-0,153	-0,050
172,794	243,059	-0,195	-0,228
173,808	-36,168	-0,214	-0,080
174,823	125,681	-0,277	-0,243
175,837	21,482	-0,292	-0,165
176,852	9,120	-0,288	-0,151
177,867	-15,939	-0,198	-0,087
178,881	-24,040	-0,326	-0,135
179,896	210,918	-0,233	-0,255
180,910	247,431	-0,258	-0,303
181,925	50,962	-0,200	-0,132
182,940	-33,366	-0,195	-0,075
183,954	132,593	-0,274	-0,246
184,969	800,000	-0,077	-0,158
185,983	56,805	-0,202	-0,137
186,998	448,407	-0,151	-0,231
188,013	258,182	-0,181	-0,217
189,027	800,000	-0,105	-0,259
190,042	0,303	-0,227	-0,112
191,056	57,001	-0,181	-0,122
192,071	-14,781	-0,216	-0,096
193,086	286,534	-0,063	-0,079
194,100	135,055	-0,325	-0,293
195,115	278,301	-0,201	-0,249
196,129	144,477	-0,188	-0,174
197,144	114,142	-0,241	-0,203
198,159	132,442	-0,209	-0,187
199,173	157,314	-0,298	-0,286
200,188	54,612	-0,104	-0,069
201,202	800,000	-0,086	-0,217
202,217	500,694	-0,110	-0,176
203,232	279,121	-0,175	-0,217
204,246	209,529	-0,191	-0,207
205,261	123,917	-0,237	-0,206
206,275	128,195	-0,158	-0,139
207,290	519,412	-0,137	-0,224
208,304	-86,400	-0,215	0,045
209,319	-88,943	-0,141	-0,029
210,334	-124,214	-0,148	0,016
211,348	101,506	-0,178	-0,144
212,363	177,405	-0,219	-0,221
213,377	245,409	-0,190	-0,222
214,392	-122,517	-0,119	0,013
215,407	-147,941	-0,279	0,016
216,421	-91,721	-0,263	-0,051
217,436	-200,000	-0,026	-0,094
218,450	-3,792	-0,252	-0,120
219,465	266,395	-0,193	-0,234
220,480	93,159	-0,266	-0,208
221,494	-169,888	-0,144	0,004
222,509	496,262	-0,103	-0,164
223,523	-115,214	-0,206	0,027
224,538	800,000	-0,143	-0,293
225,553	147,033	-0,291	-0,271
226,567	-79,755	-0,425	-0,098
227,582	167,447	-0,231	-0,227
228,596	-101,561	-0,140	-0,023
229,611	209,850	-0,103	-0,112
230,626	81,721	-0,200	-0,149
231,640	-20,347	-0,228	-0,096
232,655	-11,990	-0,271	-0,123
233,669	-0,165	-0,171	-0,084
234,684	296,671	-0,167	-0,213
235,699	57,250	-0,216	-0,146
236,713	-200,000	0,001	-0,077
237,728	-66,399	-0,242	-0,066
238,742	391,064	-0,128	-0,184
239,757	-54,777	-0,158	-0,049
240,772	53,567	-0,248	-0,164
241,786	92,031	-0,179	-0,139
242,801	24,741	-0,253	-0,145
243,815	-82,255	-0,129	-0,029
244,830	417,110	-0,092	-0,136
245,844	62,943	-0,079	-0,054
246,859	83,964	-0,223	-0,168
247,874	125,221	-0,190	-0,166
248,888	172,996	-0,221	-0,220
249,903	-200,000	-0,024	-0,117
250,917	-154,767	-0,146	0,007
251,932	800,000	-0,071	-0,207
252,947	-40,445	-0,193	-0,069
253,961	-7,622	-0,190	-0,089
254,976	-107,235	-0,231	-0,035
255,990	-161,727	-0,239	-0,008
257,005	531,440	-0,105	-0,173
258,020	249,334	-0,132	-0,155
259,034	-86,392	-0,038	-0,008
260,049	146,861	-0,181	-0,168
261,063	-54,720	-0,114	-0,035
262,078	129,815	-0,270	-0,238
263,093	379,953	-0,137	-0,194
264,107	204,695	-0,217	-0,233
265,122	290,223	-0,184	-0,231
266,136	-200,000	-0,037	-0,134
267,151	-104,056	-0,224	-0,036
268,166	-85,003	-0,070	-0,015
269,180	555,643	-0,066	-0,110
270,195	54,703	-0,295	-0,195
271,209	173,778	-0,274	-0,272
272,224	36,584	-0,173	-0,105
273,239	-140,671	-0,168	-0,012
274,253	442,553	-0,131	-0,198
275,268	4,360	-0,271	-0,136
276,282	-55,792	-0,321	-0,098
277,297	800,000	-0,069	-0,140
278,312	800,000	-0,127	-0,250
279,326	42,755	-0,157	-0,098
280,341	131,957	-0,067	-0,059
281,355	-108,572	-0,155	-0,023
282,370	-119,511	-0,172	-0,020
283,384	-133,076	-0,153	0,013
284,399	71,546	-0,126	-0,090
285,414	166,335	-0,167	-0,162
286,428	-35,490	-0,121	-0,045
287,443	800,000	-0,080	-0,189
288,457	-200,000	-0,213	0,000
289,472	229,087	-0,104	-0,117
290,487	40,573	-0,173	-0,107
291,501	-32,826	-0,253	-0,096
292,516	59,194	-0,197	-0,133
293,530	-53,693	-0,179	0,056
294,545	30,637	-0,085	-0,050
295,560	127,923	-0,059	-0,052
296,574	334,459	-0,100	-0,133
297,589	-200,000	-0,030	-0,196
298,603	289,623	-0,141	-0,176
299,618	-200,000	-0,151	-0,000
300,633	176,040	-0,124	-0,124
301,647	-128,793	-0,072	0,007
302,662	459,286	-0,070	-0,108
303,676	-63,905	-0,156	-0,044
304,691	800,000	-0,041	-0,101
305,706	-59,845	-0,172	-0,050
306,720	35,850	-0,099	-0,060
307,735	84,010	-0,130	-0,097
308,749	266,392	-0,184	-0,221
309,764	105,474	-0,113	-0,091
310,779	54,654	-0,030	-0,020
311,793	118,735	-0,163	-0,138
312,808	-200,000	-0,058	-0,273
313,822	468,076	-0,124	-0,191
314,837	54,247	-0,153	-0,101
315,852	774,156	-0,045	-0,085
316,866	-200,000	-0,148	0,000
317,881	-183,781	-0,140	0,002
318,895	-200,000	-0,018	-0,056
319,910	88,609	-0,138	-0,105
320,925	800,000	-0,134	-0,275
321,939	-200,000	-0,001	-0,243
322,954	267,143	-0,130	-0,156
323,968	205,900	-0,085	-0,091
324,983	178,107	-0,080	-0,080
325,997	800,000	-0,091	-0,230
327,012	800,000	-0,078	-0,223
328,027	27,882	-0,100	-0,058
329,041	365,844	-0,101	-0,140
330,056	-200,000	-0,015	-0,140
331,070	-46,115	-0,086	0,029
332,085	13,216	-0,105	-0,056
333,100	402,781	-0,070	-0,101
334,114	200,549	-0,143	-0,151
335,129	288,233	-0,112	-0,139
336,143	-171,176	-0,242	0,005
337,158	-191,952	-0,109	0,001
338,173	800,000	-0,074	-0,191
339,187	63,820	-0,115	-0,079
340,202	-81,772	-0,147	-0,033
341,216	800,000	-0,039	-0,097
342,231	151,280	-0,126	-0,117
343,246	398,879	-0,161	-0,232
344,260	-147,251	-0,146	-0,008
345,275	-200,000	-0,003	0,108
346,289	54,603	-0,129	0,085
347,304	-200,000	0,008	-0,240
348,319	493,428	-0,054	-0,086
349,333	111,753	-0,161	-0,133
350,348	69,144	-0,220	-0,155
351,362	-200,000	-0,010	-0,219
352,377	-200,000	-0,003	-0,060
353,392	-58,767	-0,083	-0,024
354,406	-125,924	-0,092	0,009
355,421	207,311	1309,661	1399,088
356,435	159,476	1469,731	1399,566
