DTS Sentinel unit serial number:	SN410029Multiplexer serial number:	ORYXHardware model number:	OX2-SRSoftware version number:	ORYX F/W v4,00 Oryx Data Collector v3.7.2.0data status	okinstallation	B3 Nyhavnadifferential loss correction	single-endedforward channel	channel 1reverse channel	N/Adate	2023/12/04time	16:02:30forward acquisition time	300,00reverse acquisition time	0,00gamma	499,1914k internal	0,3200k external	0,3200temperature offset calibration	1,0000default loss term (dB/km)	0,3820temperature slope calibration	1,0000multiplexer offset coefficient	1,0000multiplexer slope coefficient	1,0000fibre end	0,00T internal ref (°C)	15,19T ext. ref 1 (°C)	0,36T ext. ref 2 (°C)	0,34length (m)	temperature (°C)	Stokes	anti-Stokes-744,400	580,849	-0,144	-0,258
-743,385	-200,000	-0,024	0,340
-742,371	242,396	-0,163	-0,198
-741,356	-200,000	-0,101	0,326
-740,342	294,955	-0,188	-0,251
-739,327	-200,000	0,053	0,431
-738,312	385,059	-0,219	-0,329
-737,298	112,175	-0,107	0,094
-736,283	279,042	-0,288	-0,375
-735,269	-200,000	-0,041	0,412
-734,254	-16,758	-0,230	-0,105
-733,239	650,645	-0,093	0,174
-732,225	-82,172	-0,191	-0,045
-731,210	134,207	0,097	0,091
-730,196	-36,518	0,120	-0,047
-729,181	-146,158	-0,079	-0,005
-728,167	143,565	-0,060	-0,058
-727,152	183,538	-0,100	-0,107
-726,137	-200,000	-0,005	-0,020
-725,123	-75,002	-0,126	0,032
-724,108	502,310	0,060	0,101
-723,094	-188,395	-0,129	0,001
-722,079	120,566	-0,163	0,147
-721,064	-86,625	-0,095	0,021
-720,050	798,284	-0,022	-0,044
-719,035	582,334	-0,044	0,078
-718,021	-200,000	-0,028	0,095
-717,006	-200,000	0,004	-0,041
-715,991	-57,013	-0,065	-0,021
-714,977	52,133	-0,082	-0,057
-713,962	-25,062	0,040	0,017
-712,948	-99,657	-0,204	0,037
-711,933	-138,773	0,061	-0,005
-710,918	800,000	-0,027	-0,067
-709,904	412,842	-0,064	-0,099
-708,889	404,551	-0,079	-0,121
-707,875	-54,152	-0,174	-0,057
-706,860	-200,000	-0,018	-0,091
-705,845	99,628	0,141	0,119
-704,831	-68,554	0,079	0,022
-703,816	46,114	0,031	0,021
-702,802	-72,508	0,116	-0,031
-701,787	168,420	0,028	-0,029
-700,772	50,961	0,060	-0,041
-699,758	-67,889	0,053	0,015
-698,743	-200,000	-0,010	-0,068
-697,729	-130,778	0,060	0,006
-696,714	-60,329	0,051	0,016
-695,699	800,000	0,014	-0,036
-694,685	672,478	-0,060	0,114
-693,670	-146,513	-0,114	0,007
-692,656	-200,000	0,021	0,070
-691,641	40,252	0,061	-0,040
-690,627	800,000	0,032	0,066
-689,612	338,201	0,033	0,046
-688,597	477,269	-0,028	-0,046
-687,583	-8,989	0,059	-0,029
-686,568	-47,759	0,159	-0,056
-685,554	-200,000	-0,009	-0,171
-684,539	-23,203	-0,039	-0,017
-683,524	-200,000	0,015	0,069
-682,510	100,231	0,030	-0,026
-681,495	16,808	0,081	-0,046
-680,481	-200,000	-0,022	0,142
-679,466	393,198	-0,122	-0,185
-678,451	-200,000	-0,000	0,071
-677,437	-189,106	0,032	-0,000
-676,422	-48,267	-0,171	-0,060
-675,408	681,425	0,008	-0,016
-674,393	-200,000	0,017	0,079
-673,378	270,744	-0,022	-0,028
-672,364	398,818	0,073	-0,111
-671,349	-90,115	0,030	-0,006
-670,335	131,188	0,024	0,023
-669,320	-200,000	-0,012	0,091
-668,305	156,490	-0,074	0,074
-667,291	92,137	0,093	0,076
-666,276	-126,439	-0,106	-0,011
-665,262	268,692	-0,055	0,070
-664,247	-200,000	-0,025	-0,086
-663,232	211,026	-0,035	0,040
-662,218	-200,000	-0,035	-0,143
-661,203	-200,000	-0,024	0,127
-660,189	800,000	0,015	0,047
-659,174	-103,183	-0,035	-0,006
-658,159	94,624	0,096	0,079
-657,145	-28,901	-0,116	-0,048
-656,130	638,009	-0,041	0,076
-655,116	-200,000	-0,028	-0,126
-654,101	-200,000	0,012	-0,125
-653,086	-200,000	0,003	0,063
-652,072	147,085	0,104	0,101
-651,057	-104,412	-0,155	0,026
-650,043	133,899	-0,083	-0,078
-649,028	800,000	0,010	0,026
-648,014	358,278	0,041	-0,060
-646,999	800,000	0,024	0,053
-645,984	294,846	0,052	0,069
-644,970	-200,000	0,020	-0,090
-643,955	-200,000	0,017	0,114
-642,941	171,694	-0,180	-0,188
-641,926	-63,169	-0,179	0,053
-640,911	88,869	0,104	0,084
-639,897	-117,747	0,071	0,009
-638,882	213,666	-0,011	0,012
-637,868	-116,502	0,072	-0,010
-636,853	-200,000	-0,064	-0,218
-635,838	116,389	-0,094	-0,084
-634,824	-200,000	0,006	-0,092
-633,809	220,790	-0,020	-0,023
-632,795	-200,000	-0,012	-0,077
-631,780	542,767	0,069	0,120
-630,765	-93,471	-0,076	-0,015
-629,751	-99,763	-0,056	-0,010
-628,736	-200,000	-0,004	-0,100
-627,722	106,933	0,119	0,102
-626,707	-57,903	-0,088	0,028
-625,692	227,887	0,051	0,061
-624,678	22,030	-0,064	0,038
-623,663	-200,000	-0,011	0,071
-622,649	-72,294	-0,143	-0,038
-621,634	380,983	-0,071	-0,106
-620,619	124,110	-0,020	0,018
-619,605	553,181	0,062	-0,108
-618,590	-14,947	-0,050	-0,023
-617,576	45,552	0,067	-0,045
-616,561	-136,811	-0,102	0,008
-615,546	-200,000	-0,006	-0,043
-614,532	289,255	-0,107	-0,141
-613,517	800,000	0,041	0,096
-612,503	438,294	0,041	0,065
-611,488	121,290	0,062	-0,056
-610,474	-200,000	0,004	0,050
-609,459	-106,128	-0,059	-0,009
-608,444	-200,000	-0,050	-0,190
-607,430	-87,909	-0,011	0,002
-606,415	102,552	-0,160	-0,136
-605,401	52,139	0,135	0,093
-604,386	-181,420	-0,129	0,002
-603,371	346,623	-0,047	-0,067
-602,357	-63,262	-0,087	0,026
-601,342	-67,177	-0,142	-0,040
-600,328	-73,168	-0,101	0,027
-599,313	601,960	-0,029	-0,053
-598,298	747,920	-0,035	-0,068
-597,284	207,084	-0,023	0,026
-596,269	212,971	0,072	0,082
-595,255	800,000	-0,030	0,080
-594,240	-182,652	-0,038	0,000
-593,225	-200,000	0,027	-0,097
-592,211	-60,566	-0,040	0,012
-591,196	800,000	-0,059	-0,166
-590,182	-200,000	0,016	-0,214
-589,167	-6,651	0,121	-0,059
-588,152	-91,098	-0,051	-0,011
-587,138	15,174	-0,075	0,043
-586,123	307,591	0,063	-0,085
-585,109	33,972	-0,041	0,026
-584,094	800,000	-0,036	-0,102
-583,079	-200,000	0,009	-0,063
-582,065	117,670	0,050	0,044
-581,050	-200,000	0,012	-0,157
-580,036	785,872	0,012	-0,024
-579,021	543,001	-0,018	-0,031
-578,006	419,971	-0,065	-0,100
-576,992	-200,000	-0,007	-0,042
-575,977	220,690	0,015	-0,017
-574,963	95,024	0,060	0,050
-573,948	-166,911	0,061	-0,002
-572,934	-78,550	-0,057	0,014
-571,919	81,742	-0,140	0,109
-570,904	-29,726	-0,167	-0,068
-569,890	90,305	0,048	-0,039
-568,875	120,906	-0,032	-0,029
-567,861	800,000	0,048	0,118
-566,846	-19,131	-0,093	0,041
-565,831	-200,000	-0,003	-0,130
-564,817	-75,042	-0,251	0,064
-563,802	355,698	0,011	-0,016
-562,788	-79,922	0,072	0,017
-561,773	140,975	0,057	-0,055
-560,758	-110,542	0,100	-0,015
-559,744	171,799	-0,052	0,054
-558,729	359,792	-0,061	-0,089
-557,715	416,196	-0,102	-0,158
-556,700	247,827	-0,097	-0,119
-555,685	110,932	0,093	-0,081
-554,671	-200,000	0,026	0,143
-553,656	-160,708	-0,022	0,001
-552,642	-95,543	-0,127	-0,024
-551,627	800,000	0,025	0,066
-550,612	-200,000	0,003	0,123
-549,598	-200,000	-0,005	-0,034
-548,583	-200,000	0,025	-0,106
-547,569	3,528	0,028	0,015
-546,554	-200,000	-0,006	-0,125
-545,539	192,961	0,018	0,020
-544,525	93,706	0,066	0,054
-543,510	250,684	-0,080	0,098
-542,496	138,604	-0,030	0,029
-541,481	-200,000	0,015	-0,075
-540,466	-200,000	-0,002	0,094
-539,452	308,436	0,113	0,153
-538,437	146,074	-0,091	0,089
-537,423	40,086	0,179	-0,116
-536,408	234,278	-0,085	-0,101
-535,393	-200,000	-0,005	-0,188
-534,379	-200,000	0,012	-0,048
-533,364	-200,000	0,048	-0,208
-532,350	-200,000	-0,029	-0,192
-531,335	-200,000	0,045	0,167
-530,321	-200,000	0,012	0,166
-529,306	-137,878	-0,060	0,005
-528,291	-200,000	0,018	0,081
-527,277	-200,000	0,001	0,030
-526,262	-135,506	-0,066	0,006
-525,248	85,556	0,116	0,092
-524,233	-200,000	-0,013	0,043
-523,218	71,830	-0,049	0,037
-522,204	-65,045	0,126	-0,037
-521,189	-200,000	-0,013	0,073
-520,175	785,251	0,069	-0,136
-519,160	80,101	0,030	-0,023
-518,145	-79,345	-0,122	0,029
-517,131	11,102	0,107	-0,059
-516,116	-122,769	0,047	0,005
-515,102	800,000	-0,065	0,205
-514,087	-118,653	-0,084	-0,011
-513,072	-147,164	0,124	0,008
-512,058	-200,000	0,011	0,084
-511,043	540,601	0,017	-0,029
-510,029	-93,117	0,192	0,038
-509,014	-0,087	-0,071	0,036
-507,999	439,856	0,020	-0,031
-506,985	22,525	-0,039	-0,023
-505,970	-69,351	-0,066	-0,018
-504,956	-27,974	-0,057	0,024
-503,941	-72,111	-0,032	0,008
-502,926	25,275	0,090	0,054
-501,912	-200,000	-0,017	0,078
-500,897	88,250	-0,067	0,054
-499,883	800,000	0,022	-0,049
-498,868	29,546	-0,065	-0,040
-497,853	34,237	-0,105	-0,066
-496,839	102,443	-0,073	0,062
-495,824	35,111	0,089	0,056
-494,810	36,027	0,172	0,109
-493,795	-78,371	-0,065	-0,016
-492,781	10,458	-0,062	0,034
-491,766	4,483	-0,061	0,032
-490,751	800,000	0,026	0,073
-489,737	-153,011	-0,129	0,006
-488,722	167,561	0,111	0,114
-487,708	-200,000	0,038	0,129
-486,693	-200,000	-0,013	-0,053
-485,678	580,323	-0,041	0,074
-484,664	120,189	0,036	-0,032
-483,649	-194,313	-0,084	-0,000
-482,635	-64,384	-0,090	-0,026
-481,620	-80,974	0,125	0,030
-480,605	-200,000	0,008	-0,025
-479,591	800,000	0,009	0,022
-478,576	-200,000	-0,017	-0,100
-477,562	-106,825	-0,096	-0,015
-476,547	-11,644	-0,056	-0,026
-475,532	366,955	0,062	-0,090
-474,518	-2,731	-0,067	0,034
-473,503	-200,000	-0,014	0,101
-472,489	-61,351	0,034	-0,010
-471,474	-200,000	0,010	-0,105
-470,459	655,124	0,064	-0,118
-469,445	255,873	-0,064	-0,080
-468,430	103,875	-0,109	-0,092
-467,416	800,000	0,055	-0,124
-466,401	421,273	-0,059	0,091
-465,386	-200,000	0,006	0,052
-464,372	-82,204	0,045	0,011
-463,357	159,306	0,049	0,049
-462,343	-9,969	-0,064	0,031
-461,328	67,722	-0,064	0,047
-460,313	-200,000	-0,001	-0,102
-459,299	698,625	0,032	-0,061
-458,284	83,732	-0,009	0,007
-457,270	12,359	-0,072	-0,040
-456,255	388,105	0,082	-0,122
-455,241	-78,139	-0,108	0,027
-454,226	371,658	0,075	0,110
-453,211	800,000	0,026	-0,057
-452,197	-200,000	0,008	-0,027
-451,182	-62,747	0,109	0,032
-450,168	-76,259	0,063	-0,016
-449,153	-200,000	-0,007	-0,035
-448,138	-200,000	-0,029	-0,115
-447,124	84,077	0,097	0,076
-446,109	-58,051	-0,022	-0,007
-445,095	259,684	0,036	0,044
-444,080	-23,190	-0,080	0,035
-443,065	-170,652	0,043	0,001
-442,051	25,091	-0,153	-0,091
-441,036	-200,000	0,019	-0,113
-440,022	-93,829	0,095	-0,019
-439,007	361,807	-0,092	-0,133
-437,992	-50,012	0,067	0,023
-436,978	-56,942	-0,077	0,024
-435,963	195,680	0,107	0,117
-434,949	-200,000	0,012	0,072
-433,934	-200,000	0,015	-0,211
-432,919	116,546	0,052	0,046
-431,905	-87,733	-0,230	0,049
-430,890	-158,970	0,114	-0,005
-429,876	-74,233	0,148	0,038
-428,861	-200,000	0,007	0,073
-427,846	800,000	0,055	0,132
-426,832	-200,000	0,112	-0,000
-425,817	-53,509	0,099	-0,032
-424,803	122,895	-0,124	0,112
-423,788	800,000	-0,027	0,073
-422,773	291,802	-0,051	0,067
-421,759	32,485	0,070	0,043
-420,744	-12,865	0,085	0,040
-419,730	-200,000	-0,003	0,052
-418,715	800,000	-0,022	0,061
-417,701	-60,787	0,093	0,028
-416,686	-200,000	0,007	0,053
-415,671	105,518	-0,114	0,097
-414,657	136,769	0,080	-0,075
-413,642	-34,490	-0,031	-0,012
-412,628	158,491	0,020	-0,020
-411,613	800,000	-0,032	0,083
-410,598	-3,446	-0,083	0,041
-409,584	-200,000	-0,005	-0,065
-408,569	741,473	0,051	-0,100
-407,555	250,676	0,035	0,043
-406,540	618,125	-0,011	-0,021
-405,525	-104,836	-0,005	-0,001
-404,511	-53,307	-0,154	-0,050
-403,496	-6,779	-0,063	0,031
-402,482	267,680	0,067	0,084
-401,467	-200,000	-0,007	-0,038
-400,452	800,000	0,069	0,139
-399,438	-80,747	0,037	0,009
-398,423	-200,000	0,009	-0,052
-397,409	800,000	0,041	-0,105
-396,394	-6,154	-0,058	-0,029
-395,379	-200,000	0,001	0,021
-394,365	-200,000	-0,014	0,068
-393,350	-55,592	0,100	0,032
-392,336	-20,175	-0,095	0,042
-391,321	73,845	0,086	-0,065
-390,306	49,479	0,054	-0,037
-389,292	-200,000	-0,015	-0,151
-388,277	262,719	-0,016	-0,020
-387,263	-200,000	-0,019	-0,106
-386,248	-59,673	-0,099	-0,030
-385,233	516,353	0,058	0,098
-384,219	42,020	0,156	0,101
-383,204	800,000	-0,036	0,085
-382,190	35,733	-0,114	-0,071
-381,175	304,281	-0,009	-0,012
-380,160	5,732	-0,046	-0,024
-379,146	-74,660	0,136	-0,035
-378,131	21,159	0,025	-0,015
-377,117	800,000	0,017	0,040
-376,102	120,161	-0,050	-0,044
-375,088	-172,304	0,041	-0,001
-374,073	-15,643	-0,094	-0,043
-373,058	800,000	0,035	0,077
-372,044	800,000	-0,031	-0,066
-371,029	157,692	0,098	0,097
-370,015	-200,000	-0,014	-0,114
-369,000	-200,000	0,007	-0,074
-367,985	326,130	0,008	-0,011
-366,971	800,000	0,073	0,174
-365,956	-131,758	0,101	-0,009
-364,942	42,328	0,073	-0,047
-363,927	800,000	0,017	0,043
-362,912	4,077	-0,024	-0,013
-361,898	108,636	-0,083	-0,071
-360,883	800,000	-0,074	-0,165
-359,869	230,122	-0,029	-0,034
-358,854	-91,660	0,131	-0,027
-357,839	219,151	-0,076	-0,087
-356,825	800,000	0,028	0,063
-355,810	23,561	0,042	-0,024
-354,796	-200,000	0,015	-0,091
-353,781	-200,000	0,013	-0,051
-352,766	-200,000	-0,029	0,099
-351,752	-95,655	-0,164	0,031
-350,737	-200,000	0,005	-0,041
-349,723	-200,000	-0,014	0,199
-348,708	-97,511	-0,128	-0,024
-347,693	-127,303	0,105	-0,011
-346,679	-71,762	-0,187	0,050
-345,664	-21,827	0,063	0,027
-344,650	47,874	0,095	0,063
-343,635	800,000	-0,018	-0,054
-342,620	263,522	0,052	0,064
-341,606	113,376	0,101	-0,088
-340,591	126,842	0,119	-0,108
-339,577	-60,982	-0,068	-0,021
-338,562	-200,000	0,010	0,074
-337,548	-200,000	0,010	0,059
-336,533	598,285	0,052	0,092
-335,518	-32,185	0,095	0,038
-334,504	-200,000	0,006	-0,062
-333,489	-200,000	-0,014	-0,130
-332,475	-200,000	0,010	-0,096
-331,460	-200,000	-0,022	-0,117
-330,445	197,919	-0,056	-0,062
-329,431	-86,725	0,074	0,016
-328,416	647,015	-0,067	0,123
-327,402	-23,556	0,086	-0,037
-326,387	-73,680	0,086	0,022
-325,372	-186,160	-0,131	-0,001
-324,358	-23,574	-0,075	0,032
-323,343	-200,000	-0,010	-0,143
-322,329	-170,271	0,168	-0,004
-321,314	800,000	-0,017	0,035
-320,299	-3,816	0,035	0,017
-319,285	247,659	0,041	0,050
-318,270	307,315	0,018	0,025
-317,256	-72,334	0,039	-0,010
-316,241	-76,260	-0,198	-0,050
-315,226	-30,351	0,083	-0,034
-314,212	800,000	-0,033	-0,070
-313,197	32,213	0,064	-0,040
-312,183	41,410	0,126	-0,081
-311,168	-31,432	-0,124	-0,050
-310,153	140,655	0,074	-0,070
-309,139	278,614	-0,102	-0,131
-308,124	79,683	0,041	-0,032
-307,110	282,088	0,073	-0,093
-306,095	313,451	0,050	0,067
-305,080	160,296	0,014	0,014
-304,066	143,057	-0,054	0,052
-303,051	800,000	0,014	0,031
-302,037	9,992	-0,064	-0,035
-301,022	98,097	-0,069	-0,057
-300,008	64,994	0,067	0,049
-298,993	-200,000	-0,008	0,046
-297,978	-200,000	-0,036	0,157
-296,964	-147,599	-0,118	0,007
-295,949	-200,000	-0,016	0,094
-294,935	-25,210	0,148	-0,062
-293,920	271,509	-0,048	-0,061
-292,905	-125,095	0,163	-0,018
-291,891	236,230	0,060	0,072
-290,876	-128,074	-0,056	-0,006
-289,862	-200,000	-0,001	0,013
-288,847	463,749	0,041	0,065
-287,832	-43,513	0,069	-0,025
-286,818	-45,758	0,078	0,027
-285,803	-200,000	-0,012	0,058
-284,789	111,511	0,100	0,086
-283,774	-12,781	0,178	0,082
-282,759	49,089	0,063	0,042
-281,745	190,485	-0,053	-0,057
-280,730	-48,378	-0,131	0,045
-279,716	-200,000	-0,002	0,101
-278,701	-40,843	0,116	-0,043
-277,686	-200,000	-0,035	-0,155
-276,672	417,689	-0,081	0,124
-275,657	-200,000	0,005	-0,052
-274,643	57,808	-0,101	0,070
-273,628	153,067	-0,141	-0,138
-272,613	800,000	0,024	0,057
-271,599	9,122	0,091	0,049
-270,584	758,015	0,013	0,026
-269,570	800,000	-0,015	0,037
-268,555	221,144	-0,080	0,091
-267,540	51,061	-0,019	0,013
-266,526	800,000	0,050	-0,102
-265,511	430,323	0,035	-0,054
-264,497	-55,355	0,134	-0,043
-263,482	800,000	0,056	0,119
-262,467	141,128	-0,071	0,067
-261,453	350,264	0,086	0,122
-260,438	800,000	-0,028	0,072
-259,424	109,255	-0,064	-0,055
-258,409	78,504	-0,014	-0,010
-257,395	207,634	0,059	-0,066
-256,380	-105,721	0,099	-0,016
-255,365	-133,848	0,078	-0,007
-254,351	-15,576	0,110	-0,050
-253,336	-132,905	-0,096	0,009
-252,322	473,218	-0,039	0,063
-251,307	-131,193	-0,086	-0,008
-250,292	-28,557	0,147	0,060
-249,278	-89,532	-0,104	0,022
-248,263	-200,000	0,018	0,081
-247,249	-77,024	-0,075	-0,019
-246,234	-48,279	0,017	-0,006
-245,219	-22,817	-0,108	-0,046
-244,205	-46,902	0,040	0,014
-243,190	82,078	0,056	-0,044
-242,176	334,887	-0,041	0,057
-241,161	292,061	-0,046	0,060
-240,146	42,571	-0,053	0,034
-239,132	800,000	0,033	0,095
-238,117	-200,000	0,006	0,057
-237,103	-147,587	-0,145	-0,009
-236,088	100,181	0,053	-0,044
-235,073	-58,431	-0,047	0,015
-234,059	800,000	-0,050	0,117
-233,044	-120,724	-0,063	0,008
-232,030	60,288	0,130	-0,091
-231,015	-71,156	-0,071	-0,019
-230,000	-200,000	-0,010	-0,049
-228,986	-13,262	0,170	0,078
-227,971	18,792	0,178	0,102
-226,957	-27,534	0,103	-0,042
-225,942	800,000	0,020	0,055
-224,927	-11,402	0,088	0,041
-223,913	-62,655	-0,043	-0,013
-222,898	-200,000	0,006	0,070
-221,884	109,576	-0,051	-0,043
-220,869	800,000	-0,094	0,219
-219,855	-200,000	0,127	-0,000
-218,840	800,000	0,033	0,083
-217,825	400,497	-0,068	0,101
-216,811	-12,283	0,043	-0,020
-215,796	61,477	0,122	-0,086
-214,782	-200,000	-0,012	0,060
-213,767	-44,271	0,133	-0,047
-212,752	367,037	0,071	-0,103
-211,738	800,000	-0,036	0,100
-210,723	658,529	-0,029	0,053
-209,709	800,000	0,030	-0,086
-208,694	800,000	-0,046	-0,125
-207,679	-200,000	0,021	-0,110
-206,665	593,572	-0,076	0,134
-205,650	231,355	-0,045	0,053
-204,636	-200,000	-0,014	0,049
-203,621	200,761	0,113	-0,124
-202,606	230,823	-0,033	0,039
-201,592	-200,000	0,013	-0,084
-200,577	800,000	-0,030	0,082
-199,563	-200,000	-0,000	-0,062
-198,548	36,728	0,015	0,009
-197,533	-200,000	-0,001	0,061
-196,519	391,846	0,057	0,084
-195,504	-100,813	0,046	0,008
-194,490	58,072	0,075	0,052
-193,475	130,291	-0,033	0,030
-192,460	-200,000	-0,005	-0,041
-191,446	800,000	-0,010	0,022
-190,431	-110,656	-0,059	-0,009
-189,417	312,600	0,039	-0,052
-188,402	-58,831	0,015	0,005
-187,387	106,264	-0,122	0,103
-186,373	175,664	-0,128	-0,132
-185,358	120,345	0,050	0,045
-184,344	174,215	0,027	0,027
-183,329	-200,000	0,004	0,038
-182,315	92,737	-0,065	-0,052
-181,300	-59,072	-0,154	0,047
-180,285	110,064	-0,108	-0,092
-179,271	179,812	0,095	-0,099
-178,256	275,701	0,060	-0,076
-177,242	78,296	-0,124	0,094
-176,227	-110,404	0,144	0,021
-175,212	-200,000	0,008	0,044
-174,198	235,590	0,105	0,124
-173,183	264,840	0,053	-0,066
-172,169	26,344	0,051	0,030
-171,154	210,453	0,032	0,036
-170,139	717,687	0,066	0,126
-169,125	-71,551	0,074	0,020
-168,110	800,000	-0,020	0,057
-167,096	233,931	-0,033	-0,038
-166,081	-46,529	-0,205	0,071
-165,066	-37,555	0,071	-0,027
-164,052	69,391	0,064	-0,047
-163,037	-118,543	-0,068	0,008
-162,023	-72,630	-0,104	0,027
-161,008	-111,695	0,033	0,005
-159,993	276,285	0,047	0,059
-158,979	-116,739	-0,169	0,022
-157,964	-200,000	-0,005	-0,057
-156,950	67,983	0,031	0,023
-155,935	528,783	0,060	-0,100
-154,920	-35,799	-0,050	0,019
-153,906	234,352	0,100	0,118
-152,891	-200,000	-0,029	0,144
-151,877	-200,000	-0,038	0,128
-150,862	-200,000	0,023	-0,086
-149,847	146,506	-0,090	-0,086
-148,833	-200,000	-0,014	0,119
-147,818	7,328	0,066	0,035
-146,804	132,751	0,101	0,093
-145,789	113,936	0,081	0,070
-144,775	-148,198	0,079	-0,005
-143,760	-200,000	0,008	0,100
-142,745	551,946	0,047	0,080
-141,731	11,516	-0,051	-0,028
-140,716	178,722	-0,075	0,078
-139,702	-160,577	0,086	0,003
-138,687	-178,533	-0,058	0,001
-137,672	55,725	0,037	0,025
-136,658	371,187	-0,073	-0,106
-135,643	800,000	-0,050	-0,122
-134,629	800,000	-0,035	-0,088
-133,614	-200,000	-0,027	0,143
-132,599	39,706	-0,049	-0,031
-131,585	-200,000	0,016	0,053
-130,570	135,627	-0,036	-0,033
-129,556	97,295	0,135	-0,110
-128,541	800,000	0,028	0,077
-127,526	501,999	-0,016	-0,026
-126,512	-3,751	-0,073	-0,036
-125,497	800,000	-0,028	0,085
-124,483	-200,000	-0,010	-0,065
-123,468	-138,059	-0,030	-0,002
-122,453	-35,068	-0,229	-0,088
-121,439	428,832	-0,046	-0,070
-120,424	-200,000	0,009	0,043
-119,410	14,939	0,038	0,021
-118,395	-127,542	-0,081	-0,008
-117,380	434,019	-0,020	0,031
-116,366	26,698	0,061	-0,036
-115,351	115,366	-0,044	0,038
-114,337	-200,000	0,003	-0,011
-113,322	-28,631	-0,038	0,015
-112,307	653,125	0,067	-0,122
-111,293	209,435	0,008	0,009
-110,278	-200,000	-0,017	0,094
-109,264	492,268	0,029	-0,047
-108,249	-102,887	-0,139	0,023
-107,234	-43,818	0,061	-0,022
-106,220	167,300	-0,078	-0,078
-105,205	-10,954	-0,073	0,034
-104,191	534,708	-0,062	0,105
-103,176	365,222	0,076	0,108
-102,162	-200,000	-0,024	-0,110
-101,147	800,000	-0,049	-0,137
-100,132	-133,623	-0,063	-0,006
-99,118	799,360	0,064	-0,126
-98,103	-200,000	-0,023	0,150
-97,089	156,707	0,082	-0,080
-96,074	-64,069	0,086	-0,025
-95,059	92,187	-0,043	0,034
-94,045	353,799	-0,066	0,093
-93,030	-200,000	0,011	0,061
-92,016	62,931	-0,129	-0,092
-91,001	-152,809	-0,071	-0,004
-89,986	-179,919	0,099	0,001
-88,972	-82,447	-0,046	0,011
-87,957	331,389	-0,050	0,068
-86,943	505,825	0,074	0,122
-85,928	477,601	-0,043	0,069
-84,913	-62,677	-0,096	0,028
-83,899	350,008	-0,064	0,090
-82,884	800,000	-0,026	0,069
-81,870	800,000	0,025	-0,077
-80,855	-200,000	-0,017	0,068
-79,840	-200,000	0,017	0,117
-78,826	-200,000	-0,034	0,129
-77,811	-200,000	0,045	-0,155
-76,797	36,526	0,099	-0,062
-75,782	-107,098	-0,115	-0,018
-74,767	-25,464	0,033	0,014
-73,753	800,000	0,025	0,076
-72,738	-91,241	0,061	0,012
-71,724	800,000	-0,017	0,040
-70,709	-7,967	-0,070	0,033
-69,694	800,000	0,025	0,059
-68,680	39,511	-0,032	-0,020
-67,665	469,566	0,048	0,077
-66,651	-20,808	0,147	0,064
-65,636	-200,000	0,014	0,155
-64,622	-40,309	0,066	0,024
-63,607	9,187	0,045	-0,024
-62,592	-114,476	-0,068	-0,009
-61,578	-64,457	0,051	-0,015
-60,563	800,000	-0,066	0,144
-59,549	800,000	-0,085	0,187
-58,534	-66,009	-1,445	-0,406
-57,519	447,879	-1,526	-2,388
-56,505	-200,000	-0,404	-4,580
-55,490	96,930	0,946	0,768
-54,476	800,000	4,674	11,346
-53,461	-200,000	18,040	285,204
-52,446	800,000	726,156	2221,531
-51,432	553,925	1641,904	2807,133
-50,417	79,525	1664,320	1263,395
-49,403	23,077	1538,171	891,559
-48,388	17,016	1461,652	817,875
-47,373	17,881	1451,383	816,259
-46,359	17,327	1441,938	808,265
-45,344	15,317	1437,369	796,082
-44,330	15,272	1435,311	794,696
-43,315	15,209	1433,801	793,527
-42,300	15,223	1432,162	792,657
-41,286	15,287	1430,911	792,240
-40,271	15,252	1429,733	791,389
-39,257	15,265	1428,343	790,651
-38,242	15,269	1427,055	789,922
-37,227	15,327	1425,731	789,433
-36,213	15,321	1424,618	788,756
-35,198	15,305	1423,341	787,945
-34,184	15,303	1422,619	787,503
-33,169	15,283	1421,155	786,567
-32,154	15,326	1420,138	786,175
-31,140	15,314	1418,946	785,427
-30,125	15,373	1417,706	784,986
-29,111	15,303	1416,584	784,007
-28,096	15,305	1415,428	783,343
-27,082	15,244	1414,515	782,524
-26,067	15,215	1413,411	781,743
-25,052	15,242	1412,170	781,156
-24,038	15,191	1411,305	780,405
-23,023	15,184	1410,173	779,716
-22,009	15,186	1409,326	779,227
-20,994	15,132	1408,442	778,453
-19,979	15,149	1407,569	778,020
-18,965	15,115	1406,601	777,295
-17,950	15,154	1405,426	776,798
-16,936	15,121	1404,535	776,120
-15,921	15,135	1403,394	775,525
-14,906	15,088	1402,696	774,889
-13,892	15,098	1401,684	774,345
-12,877	15,144	1400,667	773,968
-11,863	15,110	1399,728	773,258
-10,848	15,115	1399,029	772,865
-9,833	15,106	1397,859	772,147
-8,819	15,060	1397,150	771,512
-7,804	15,027	1396,130	770,764
-6,790	15,001	1395,197	770,096
-5,775	14,997	1394,141	769,466
-4,760	15,035	1393,290	769,141
-3,746	14,992	1392,382	768,412
-2,731	14,976	1391,673	767,914
-1,717	15,014	1390,585	767,459
-0,702	15,026	1388,775	766,486
0,313	18,845	1308,445	739,814
1,327	35,281	707,698	438,270
2,342	54,526	124,912	85,063
3,356	4,884	16,659	8,642
4,371	-1,711	3,053	1,516
5,386	-31,586	0,550	0,218
6,400	800,000	0,061	0,161
7,415	87,858	-0,257	-0,202
8,429	-21,521	-0,274	-0,118
9,444	87,941	-0,343	-0,269
10,459	68,212	-0,307	-0,222
11,473	-74,109	-0,394	-0,100
12,488	36,401	-0,231	-0,143
13,502	-63,186	-0,326	-0,094
14,517	-22,260	-0,537	-0,229
15,531	4,983	-0,442	-0,229
16,546	30,462	-0,283	-0,171
17,561	323,188	-0,291	-0,393
18,575	-47,455	-0,262	-0,089
19,590	104,143	-0,251	-0,209
20,604	-149,207	-0,209	0,012
21,619	8,880	-0,494	-0,262
22,634	56,416	-0,442	-0,303
23,648	165,610	-0,339	-0,339
24,663	40,147	-0,410	-0,260
25,677	10,384	-0,368	-0,197
26,692	-5,939	-0,263	-0,127
27,707	-69,126	-0,370	-0,100
28,721	267,737	-0,278	-0,344
29,736	50,295	-0,364	-0,242
30,750	80,216	-0,430	-0,327
31,765	82,572	-0,276	-0,211
32,780	278,719	-0,242	-0,306
33,794	87,629	-0,308	-0,240
34,809	16,521	-0,449	-0,250
35,823	-14,995	-0,412	-0,185
36,838	148,134	-0,257	-0,245
37,853	119,159	-0,348	-0,304
38,867	36,356	-0,368	-0,228
39,882	22,147	-0,337	-0,194
40,896	49,702	-0,334	-0,222
41,911	-20,683	-0,380	-0,164
42,926	14,508	-0,460	-0,253
43,940	41,850	-0,336	-0,215
44,955	36,946	-0,481	-0,299
45,969	53,014	-0,490	-0,330
46,984	44,760	-0,323	-0,209
47,999	0,153	-0,304	-0,153
49,013	-7,189	-0,380	-0,181
50,028	9,972	-0,291	-0,155
51,042	138,925	-0,339	-0,314
52,057	101,333	-0,335	-0,275
53,071	39,306	-0,376	-0,237
54,086	117,938	-0,400	-0,347
55,101	187,836	-0,239	-0,252
56,115	59,883	-0,405	-0,281
57,130	-35,198	-0,485	-0,185
58,144	177,551	-0,320	-0,328
59,159	64,940	-0,341	-0,242
60,174	-35,317	-0,361	-0,138
61,188	-47,277	-0,270	-0,092
62,203	74,968	-0,390	-0,289
63,217	-100,365	-0,259	-0,045
64,232	86,097	-0,228	-0,176
65,247	56,626	-0,286	-0,196
66,261	103,810	-0,388	-0,321
67,276	27,389	-0,311	-0,183
68,290	40,783	-0,243	-0,154
69,305	-88,058	-0,292	-0,061
70,320	-64,654	-0,369	-0,105
71,334	-7,047	-0,267	-0,127
72,349	12,504	-0,375	-0,203
73,363	86,519	-0,317	-0,246
74,378	0,050	-0,375	-0,187
75,393	82,589	-0,319	-0,243
76,407	181,440	-0,340	-0,352
77,422	153,605	-0,286	-0,275
78,436	-95,601	-0,262	-0,049
79,451	66,964	-0,368	-0,263
80,466	-166,914	-0,330	-0,009
81,480	-2,179	-0,325	-0,160
82,495	58,811	-0,291	-0,201
83,509	40,873	-0,356	-0,225
84,524	590,539	-0,151	-0,263
85,539	-51,781	-0,256	-0,083
86,553	65,301	-0,299	-0,212
87,568	-3,177	-0,296	-0,145
88,582	50,775	-0,389	-0,258
89,597	70,794	-0,282	-0,205
90,611	734,894	-0,185	-0,349
91,626	-10,408	-0,320	-0,148
92,641	92,942	-0,310	-0,246
93,655	-123,254	-0,277	-0,031
94,670	-24,843	-0,256	-0,106
95,684	-14,678	-0,409	-0,184
96,699	142,544	-0,183	-0,170
97,714	10,222	-0,312	-0,166
98,728	344,608	-0,211	-0,291
99,743	49,257	-0,340	-0,224
100,757	-34,929	-0,262	-0,100
101,772	-29,992	-0,244	-0,097
102,787	152,471	-0,196	-0,188
103,801	51,957	-0,297	-0,198
104,816	-29,294	-0,328	-0,131
105,830	110,172	-0,263	-0,222
106,845	-99,174	-0,173	-0,030
107,860	13,388	-0,311	-0,169
108,874	140,404	-0,263	-0,243
109,889	49,607	-0,179	-0,118
110,903	154,161	-0,306	-0,295
111,918	17,012	-0,277	-0,153
112,933	41,125	-0,222	-0,140
113,947	82,513	-0,172	-0,130
114,962	800,000	-0,109	-0,227
115,976	-33,908	-0,354	-0,136
116,991	201,764	-0,287	-0,311
118,006	-12,164	-0,376	-0,172
119,020	326,975	-0,147	-0,197
120,035	-46,662	-0,276	-0,094
121,049	199,790	-0,153	-0,165
122,064	26,688	-0,302	-0,177
123,079	754,907	-0,135	-0,257
124,093	-75,495	-0,364	-0,090
125,108	-72,088	-0,374	-0,096
126,122	39,790	-0,237	-0,149
127,137	227,262	-0,225	-0,256
128,151	245,053	-0,131	-0,155
129,166	372,448	-0,131	-0,186
130,181	-4,503	-0,345	-0,166
131,195	52,178	-0,361	-0,241
132,210	296,998	-0,163	-0,210
133,224	-4,779	-0,297	-0,143
134,239	149,974	-0,330	-0,313
135,254	223,380	-0,188	-0,213
136,268	12,228	-0,296	-0,159
137,283	-6,380	-0,304	-0,145
138,297	11,079	-0,250	-0,133
139,312	102,977	-0,191	-0,157
140,327	166,281	-0,274	-0,271
141,341	660,769	-0,115	-0,208
142,356	209,619	-0,259	-0,284
143,370	59,306	-0,280	-0,192
144,385	231,792	-0,232	-0,266
145,400	348,042	-0,216	-0,298
146,414	585,860	-0,085	-0,147
147,429	422,379	-0,162	-0,243
148,443	22,860	-0,248	-0,142
149,458	-73,277	-0,240	-0,061
150,473	53,548	-0,235	-0,158
151,487	59,888	-0,250	-0,172
152,502	7,080	-0,303	-0,158
153,516	164,133	-0,272	-0,268
154,531	368,123	-0,247	-0,350
155,546	21,603	-0,309	-0,175
156,560	91,165	-0,227	-0,177
157,575	-24,399	-0,264	-0,110
158,589	136,639	-0,114	-0,104
159,604	133,301	-0,223	-0,201
160,619	536,588	-0,164	-0,273
161,633	58,235	-0,374	-0,255
162,648	95,267	-0,231	-0,184
163,662	86,978	-0,197	-0,152
164,677	198,270	-0,215	-0,230
165,692	-130,967	-0,212	-0,019
166,706	373,840	-0,119	-0,170
167,721	325,705	-0,164	-0,219
168,735	154,759	-0,260	-0,250
169,750	156,597	-0,224	-0,216
170,764	-45,705	-0,311	-0,107
171,779	62,101	-0,169	-0,117
172,794	49,404	-0,265	-0,174
173,808	-168,154	-0,217	-0,006
174,823	154,996	-0,216	-0,207
175,837	352,377	-0,153	-0,212
176,852	59,631	-0,256	-0,176
177,867	-3,216	-0,134	-0,065
178,881	-75,206	-0,216	-0,053
179,896	-16,613	-0,256	-0,112
180,910	-22,784	-0,257	-0,108
181,925	145,981	-0,212	-0,198
182,940	125,555	-0,209	-0,183
183,954	24,333	-0,226	-0,130
184,969	-87,249	-0,161	-0,034
185,983	-44,087	-0,237	0,082
186,998	11,940	-0,242	-0,129
188,013	-7,765	-0,310	-0,145
189,027	30,341	-0,257	-0,153
190,042	177,279	-0,204	-0,207
191,056	-18,344	-0,245	-0,106
192,071	-4,323	-0,263	-0,126
193,086	327,735	-0,140	-0,187
194,100	228,518	-0,140	-0,160
195,115	800,000	-0,076	-0,154
196,129	384,224	-0,208	-0,299
197,144	199,625	-0,297	-0,317
198,159	25,288	-0,252	-0,145
199,173	-52,082	-0,181	-0,058
200,188	-33,702	-0,146	-0,056
201,202	-9,998	-0,235	-0,108
202,217	800,000	-0,093	-0,247
203,232	206,605	-0,287	-0,311
204,246	-45,750	-0,287	-0,098
205,261	76,329	-0,179	-0,132
206,275	16,851	-0,204	-0,112
207,290	25,975	-0,116	-0,067
208,304	195,984	-0,190	-0,201
209,319	-62,394	-0,294	-0,084
210,334	-71,931	-0,169	0,043
211,348	162,277	-0,130	-0,127
212,363	800,000	-0,069	-0,210
213,377	155,144	-0,148	-0,142
214,392	342,638	-0,030	-0,041
215,407	-127,374	-0,242	0,024
216,421	-163,633	-0,335	0,011
217,436	132,374	-0,181	-0,162
218,450	172,967	-0,253	-0,253
219,465	232,342	-0,198	-0,226
220,480	38,808	-0,203	-0,125
221,494	-200,000	-0,019	-0,181
222,509	-24,750	-0,186	-0,076
223,523	-106,425	-0,222	-0,034
224,538	586,916	-0,092	-0,157
225,553	35,805	-0,243	-0,148
226,567	55,543	-0,052	-0,035
227,582	-77,756	-0,212	-0,050
228,596	122,704	-0,130	-0,113
229,611	99,868	-0,180	-0,144
230,626	-54,439	-0,094	-0,029
231,640	-34,369	-0,143	-0,054
232,655	270,990	-0,180	-0,221
233,669	-17,630	-0,182	-0,079
234,684	593,461	-0,186	-0,320
235,699	-3,827	-0,272	-0,131
236,713	132,043	-0,280	-0,250
237,728	108,630	-0,114	-0,094
238,742	-51,539	-0,215	-0,069
239,757	277,406	-0,171	-0,212
240,772	74,083	-0,243	-0,177
241,786	94,441	-0,209	-0,165
242,801	16,489	-0,221	-0,121
243,815	129,803	-0,126	-0,111
244,830	214,660	-0,047	-0,051
245,844	262,190	-0,145	-0,175
246,859	232,850	-0,132	-0,151
247,874	-200,000	-0,077	-0,244
248,888	212,729	-0,186	-0,203
249,903	143,764	-0,196	-0,181
250,917	205,157	-0,177	-0,191
251,932	17,363	-0,114	-0,062
252,947	79,132	-0,170	-0,126
253,961	33,270	-0,207	-0,124
254,976	800,000	-0,080	-0,180
255,990	211,503	-0,174	-0,189
257,005	-7,122	-0,098	-0,046
258,020	-200,000	-0,021	-0,153
259,034	-4,976	-0,242	-0,115
260,049	-7,982	-0,211	-0,098
261,063	800,000	-0,123	-0,271
262,078	436,944	-0,193	-0,292
263,093	789,081	-0,147	-0,281
264,107	86,019	-0,265	-0,201
265,122	-155,255	-0,216	-0,010
266,136	-200,000	-0,025	-0,075
267,151	800,000	-0,081	-0,185
268,166	800,000	-0,057	-0,152
269,180	-200,000	-0,052	-0,162
270,195	319,066	-0,185	-0,243
271,209	-13,548	-0,262	-0,117
272,224	79,948	-0,105	-0,078
273,239	369,774	-0,127	-0,178
274,253	-154,425	-0,144	0,007
275,268	-114,780	-0,156	-0,020
276,282	500,803	-0,105	-0,169
277,297	20,004	-0,162	-0,090
278,312	-28,329	-0,159	-0,063
279,326	-37,912	-0,248	-0,091
280,341	-52,111	-0,189	-0,060
281,355	-108,915	-0,183	0,027
282,370	-161,187	-0,158	-0,006
283,384	545,210	-0,129	-0,214
284,399	-47,068	-0,152	-0,051
285,414	800,000	-0,085	-0,174
286,428	-74,703	-0,232	-0,057
287,443	23,470	-0,071	-0,040
288,457	-92,533	-0,118	0,023
289,472	677,759	-0,089	-0,161
290,487	438,006	-0,096	-0,145
291,501	12,045	-0,275	-0,145
292,516	-184,553	-0,183	-0,002
293,530	122,793	-0,026	0,022
294,545	-126,122	-0,223	0,023
295,560	534,426	-0,061	-0,100
296,574	135,564	-0,120	-0,108
297,589	584,713	-0,095	-0,161
298,603	-64,440	-0,176	-0,049
299,618	800,000	-0,079	-0,232
300,633	-56,152	-0,085	-0,026
301,647	422,800	-0,096	-0,143
302,662	296,925	-0,109	-0,138
303,676	-95,260	-0,184	-0,034
304,691	188,212	-0,097	-0,100
305,706	-52,919	-0,136	-0,043
306,720	-200,000	0,019	-0,184
307,735	-71,957	-0,156	-0,040
308,749	-96,447	-0,104	-0,019
309,764	800,000	-0,050	-0,151
310,779	-170,049	-0,205	-0,005
311,793	220,233	-0,138	-0,153
312,808	534,602	-0,090	-0,147
313,822	-200,000	-0,076	-0,234
314,837	-200,000	-0,042	-0,147
315,852	309,792	-0,162	-0,209
316,866	95,218	-0,110	-0,086
317,881	168,554	-0,129	-0,126
318,895	24,087	-0,192	-0,109
319,910	103,467	-0,078	-0,063
320,925	704,714	-0,122	-0,223
321,939	330,566	-0,099	-0,131
322,954	-86,755	-0,100	-0,021
323,968	392,827	-0,046	-0,066
324,983	-200,000	-0,016	-0,088
325,997	3,803	-0,153	-0,077
327,012	73,817	-0,255	-0,184
328,027	-28,148	-0,186	-0,073
329,041	281,590	-0,088	-0,108
330,056	-77,812	-0,092	-0,022
331,070	-50,200	-0,139	-0,045
332,085	57,139	-0,034	0,023
333,100	66,195	-0,160	-0,111
334,114	-96,365	-0,101	-0,018
335,129	-131,165	-0,208	-0,019
336,143	-36,132	-0,215	-0,079
337,158	-69,493	-0,070	0,018
338,173	-200,000	0,005	0,022
339,187	-143,923	-0,101	0,006
340,202	-200,000	-0,007	-0,150
341,216	800,000	-0,022	-0,046
342,231	-200,000	-0,014	-0,129
343,246	-43,694	-0,238	-0,082
344,260	800,000	-0,029	-0,068
345,275	-28,031	-0,089	-0,035
346,289	203,202	0,020	0,021
347,304	800,000	-0,047	-0,134
348,319	682,045	-0,043	-0,077
349,333	179,955	-0,241	-0,243
350,348	-141,088	-0,191	-0,013
351,362	54,186	-0,102	0,067
352,377	44,534	-0,139	-0,087
353,392	-133,211	-0,171	0,015
354,406	254,671	-0,143	-0,169
355,421	207,764	1318,512	1414,332
356,435	159,833	1479,726	1414,839
