DTS Sentinel unit serial number:	SN410029Multiplexer serial number:	ORYXHardware model number:	OX2-SRSoftware version number:	ORYX F/W v4,00 Oryx Data Collector v3.7.2.0data status	okinstallation	B3 Nyhavnadifferential loss correction	single-endedforward channel	channel 1reverse channel	N/Adate	2023/11/29time	19:47:30forward acquisition time	300,00reverse acquisition time	0,00gamma	499,1914k internal	0,3209k external	0,3209temperature offset calibration	1,0000default loss term (dB/km)	0,3820temperature slope calibration	1,0000multiplexer offset coefficient	1,0000multiplexer slope coefficient	1,0000fibre end	0,00T internal ref (°C)	10,89T ext. ref 1 (°C)	-4,42T ext. ref 2 (°C)	-4,51length (m)	temperature (°C)	Stokes	anti-Stokes-744,400	536,024	-0,102	-0,177
-743,385	-200,000	0,057	0,219
-742,371	232,336	-0,171	-0,204
-741,356	800,000	-0,088	0,266
-740,342	-15,332	-0,129	-0,060
-739,327	-200,000	-0,066	0,283
-738,312	-200,000	-0,020	-0,210
-737,298	-200,000	-0,058	0,365
-736,283	78,057	-0,192	-0,149
-735,269	800,000	-0,068	0,179
-734,254	800,000	-0,090	-0,239
-733,239	80,930	-0,154	0,120
-732,225	187,916	-0,216	-0,235
-731,210	-55,716	0,093	0,030
-730,196	800,000	0,035	-0,110
-729,181	-51,551	-0,136	0,046
-728,167	800,000	-0,024	-0,071
-727,152	-200,000	0,010	-0,091
-726,137	-17,032	-0,119	-0,054
-725,123	14,650	0,101	-0,057
-724,108	-151,905	-0,103	0,005
-723,094	-4,194	-0,055	0,028
-722,079	478,428	-0,066	-0,108
-721,064	40,220	0,049	-0,032
-720,050	86,607	0,068	0,055
-719,035	721,117	0,022	-0,043
-718,021	-200,000	-0,020	-0,113
-717,006	500,394	-0,116	-0,195
-715,991	627,821	-0,079	-0,145
-714,977	-200,000	0,028	-0,151
-713,962	367,813	0,015	-0,022
-712,948	800,000	-0,033	0,095
-711,933	259,776	0,074	-0,093
-710,918	193,259	0,028	-0,031
-709,904	223,458	-0,075	-0,088
-708,889	139,849	-0,047	0,045
-707,875	-200,000	0,013	-0,125
-706,860	258,382	0,035	-0,043
-705,845	84,339	-0,033	-0,026
-704,831	238,787	-0,102	-0,123
-703,816	-41,284	-0,063	0,024
-702,802	-200,000	-0,021	-0,111
-701,787	800,000	-0,023	-0,056
-700,772	5,218	-0,120	-0,064
-699,758	-8,694	-0,050	-0,024
-698,743	-83,386	-0,076	0,017
-697,729	90,251	-0,059	0,047
-696,714	230,708	0,018	-0,022
-695,699	67,445	0,035	0,026
-694,685	476,174	-0,042	-0,070
-693,670	-106,351	-0,045	-0,007
-692,656	208,265	0,051	-0,058
-691,641	-200,000	0,042	-0,142
-690,627	-96,345	0,126	0,024
-689,612	-200,000	-0,000	0,172
-688,597	407,847	0,067	-0,104
-687,583	-200,000	0,001	-0,113
-686,568	-42,439	-0,138	0,051
-685,554	58,496	-0,033	-0,023
-684,539	156,326	0,086	-0,086
-683,524	-85,499	0,065	-0,014
-682,510	-200,000	0,008	0,129
-681,495	464,899	-0,013	-0,022
-680,481	10,910	-0,106	0,058
-679,466	525,601	-0,081	-0,138
-678,451	-151,629	-0,161	-0,008
-677,437	800,000	-0,058	-0,141
-676,422	121,756	0,103	0,093
-675,408	-200,000	-0,015	-0,051
-674,393	-147,585	-0,037	0,002
-673,378	43,124	-0,079	-0,052
-672,364	800,000	0,075	-0,207
-671,349	208,358	-0,037	-0,042
-670,335	55,506	0,095	0,066
-669,320	-51,066	0,063	-0,021
-668,305	-200,000	0,017	0,057
-667,291	-200,000	0,012	0,108
-666,276	-161,529	-0,078	-0,003
-665,262	298,007	0,050	-0,066
-664,247	173,511	0,051	0,054
-663,232	800,000	0,033	0,072
-662,218	-136,601	0,085	-0,007
-661,203	178,432	0,089	0,094
-660,189	-200,000	-0,003	0,092
-659,174	359,593	0,032	0,047
-658,159	-162,097	-0,099	0,004
-657,145	-184,597	0,021	-0,000
-656,130	-200,000	0,010	-0,035
-655,116	-200,000	-0,016	0,081
-654,101	28,108	0,105	-0,064
-653,086	-200,000	0,001	-0,086
-652,072	-55,659	-0,218	-0,070
-651,057	4,480	-0,076	-0,040
-650,043	-37,887	-0,156	-0,060
-649,028	800,000	0,017	-0,049
-648,014	800,000	0,019	-0,057
-646,999	104,070	-0,127	0,108
-645,984	-200,000	-0,016	0,171
-644,970	76,770	-0,174	-0,133
-643,955	-200,000	0,015	-0,208
-642,941	102,090	0,044	-0,037
-641,926	203,986	0,126	0,142
-640,911	800,000	-0,044	0,125
-639,897	-177,861	-0,033	-0,001
-638,882	-111,096	-0,054	0,008
-637,868	175,351	-0,047	-0,049
-636,853	800,000	-0,034	-0,093
-635,838	-51,553	-0,026	-0,009
-634,824	-133,779	-0,084	-0,007
-633,809	6,538	0,046	-0,024
-632,795	111,155	0,104	-0,091
-631,780	-95,524	-0,194	0,037
-630,765	150,072	-0,083	-0,081
-629,751	585,778	-0,009	-0,015
-628,736	-48,609	0,112	-0,039
-627,722	-200,000	-0,011	0,075
-626,707	177,739	0,093	-0,098
-625,692	636,599	-0,036	0,067
-624,678	121,442	0,008	-0,007
-623,663	-200,000	-0,002	0,014
-622,649	301,976	0,013	-0,017
-621,634	800,000	-0,056	-0,142
-620,619	178,396	-0,080	-0,085
-619,605	57,012	0,049	-0,035
-618,590	-97,151	-0,066	-0,012
-617,576	131,211	-0,023	0,021
-616,561	64,386	0,091	-0,066
-615,546	136,567	-0,132	0,125
-614,532	523,718	-0,094	0,160
-613,517	-68,972	0,092	-0,026
-612,503	-200,000	0,027	0,119
-611,488	-85,085	-0,090	-0,020
-610,474	-200,000	0,020	-0,170
-609,459	750,193	-0,069	0,135
-608,444	28,612	0,078	0,047
-607,430	-58,031	-0,192	-0,060
-606,415	5,363	0,038	-0,020
-605,401	98,092	-0,007	-0,006
-604,386	-169,737	0,075	0,002
-603,371	-110,899	-0,126	0,019
-602,357	-200,000	-0,020	0,178
-601,342	433,894	-0,054	0,085
-600,328	183,528	-0,133	-0,142
-599,313	-200,000	0,024	-0,107
-598,298	-200,000	-0,009	-0,044
-597,284	800,000	0,066	-0,188
-596,269	-200,000	-0,011	-0,116
-595,255	-95,591	-0,115	0,022
-594,240	486,220	0,054	-0,090
-593,225	-200,000	0,007	0,042
-592,211	200,909	-0,140	0,155
-591,196	114,339	0,093	0,082
-590,182	-116,954	0,110	0,014
-589,167	-159,618	-0,144	-0,006
-588,152	-200,000	0,029	-0,098
-587,138	-34,074	0,073	0,029
-586,123	297,134	-0,155	-0,206
-585,109	-200,000	-0,011	0,045
-584,094	-200,000	0,015	0,065
-583,079	-5,629	0,262	0,129
-582,065	-200,000	0,002	-0,047
-581,050	-200,000	-0,006	0,124
-580,036	656,837	0,085	-0,158
-579,021	168,198	0,066	-0,068
-578,006	-137,202	-0,116	-0,009
-576,992	65,412	-0,050	0,036
-575,977	-149,773	0,221	0,012
-574,963	11,297	0,048	0,027
-573,948	304,923	0,140	0,187
-572,934	-76,778	0,025	0,006
-571,919	-171,790	-0,043	-0,001
-570,904	-120,196	0,154	-0,019
-569,890	-108,599	-0,193	-0,030
-568,875	-200,000	-0,020	-0,073
-567,861	-20,711	0,091	0,040
-566,846	-27,376	0,048	-0,020
-565,831	-43,012	-0,056	0,020
-564,817	4,130	-0,076	0,040
-563,802	-80,669	-0,073	0,017
-562,788	12,024	-0,048	-0,026
-561,773	2,548	0,085	-0,044
-560,758	-11,636	0,114	-0,054
-559,744	-90,129	-0,068	-0,014
-558,729	159,600	-0,030	-0,030
-557,715	800,000	-0,066	-0,199
-556,700	41,715	-0,177	-0,115
-555,685	-200,000	-0,004	-0,037
-554,671	-200,000	-0,011	0,074
-553,656	430,934	-0,106	0,166
-552,642	-135,107	0,136	-0,012
-551,627	-2,406	-0,095	-0,048
-550,612	219,277	0,100	0,115
-549,598	-104,169	-0,217	-0,036
-548,583	800,000	0,033	-0,068
-547,569	-200,000	0,010	0,141
-546,554	295,146	-0,060	-0,080
-545,539	-62,627	0,232	0,069
-544,525	-121,955	0,055	0,006
-543,510	623,066	0,040	0,072
-542,496	7,386	-0,090	-0,048
-541,481	-0,552	-0,090	-0,046
-540,466	-200,000	-0,030	-0,194
-539,452	-200,000	-0,009	0,092
-538,437	800,000	0,064	-0,138
-537,423	331,361	0,040	-0,055
-536,408	690,222	0,033	0,062
-535,393	-200,000	0,009	-0,072
-534,379	-59,407	-0,212	-0,065
-533,364	-102,614	-0,080	0,014
-532,350	800,000	0,060	-0,135
-531,335	264,696	0,035	-0,044
-530,321	575,027	-0,007	-0,013
-529,306	-200,000	-0,027	0,091
-528,291	-200,000	0,021	-0,126
-527,277	163,671	-0,100	-0,102
-526,262	-111,155	-0,093	-0,014
-525,248	-200,000	-0,012	0,062
-524,233	190,407	-0,137	-0,148
-523,218	-178,459	0,098	0,002
-522,204	-157,068	0,026	-0,001
-521,189	-200,000	0,016	-0,176
-520,175	800,000	-0,064	-0,146
-519,160	-27,955	0,117	-0,049
-518,145	219,842	0,091	0,105
-517,131	-200,000	-0,021	0,074
-516,116	800,000	-0,029	-0,093
-515,102	800,000	-0,042	-0,093
-514,087	-127,383	0,098	-0,010
-513,072	249,684	0,061	0,074
-512,058	-200,000	0,013	0,074
-511,043	-200,000	-0,022	0,072
-510,029	-200,000	-0,016	0,087
-509,014	-31,707	0,004	0,002
-507,999	-200,000	0,007	-0,051
-506,985	-12,257	-0,080	0,037
-505,970	405,578	-0,061	-0,092
-504,956	318,508	0,017	0,024
-503,941	86,236	-0,023	0,018
-502,926	36,694	0,132	0,083
-501,912	176,305	0,042	-0,044
-500,897	800,000	-0,034	0,108
-499,883	-200,000	-0,022	-0,159
-498,868	-200,000	-0,011	-0,115
-497,853	124,469	-0,045	-0,041
-496,839	-119,181	-0,095	0,012
-495,824	73,075	0,143	0,107
-494,810	58,045	-0,084	-0,059
-493,795	-200,000	0,024	-0,107
-492,781	-105,614	-0,179	-0,029
-491,766	-165,772	0,125	-0,004
-490,751	151,975	-0,076	-0,075
-489,737	264,897	0,118	-0,147
-488,722	382,610	0,022	0,033
-487,708	167,875	0,073	0,074
-486,693	800,000	-0,005	-0,010
-485,678	-200,000	-0,026	-0,084
-484,664	800,000	-0,030	-0,062
-483,649	-168,177	0,098	0,003
-482,635	312,786	-0,053	0,072
-481,620	27,694	0,126	0,076
-480,605	23,729	-0,105	-0,062
-479,591	70,648	-0,079	0,058
-478,576	-16,327	0,034	0,016
-477,562	-200,000	0,022	0,134
-476,547	448,585	-0,026	0,041
-475,532	680,664	-0,040	-0,076
-474,518	800,000	-0,026	0,062
-473,503	-3,125	0,011	-0,005
-472,489	-200,000	-0,007	0,091
-471,474	220,736	-0,031	-0,036
-470,459	351,519	-0,028	0,040
-469,445	317,512	0,043	-0,058
-468,430	21,765	-0,123	0,072
-467,416	83,693	-0,132	0,103
-466,401	266,402	-0,069	-0,087
-465,386	800,000	-0,031	0,079
-464,372	228,040	-0,040	0,046
-463,357	-106,940	0,029	0,005
-462,343	-200,000	0,017	-0,078
-461,328	800,000	0,036	-0,083
-460,313	-200,000	0,013	0,044
-459,299	800,000	0,059	0,128
-458,284	800,000	-0,026	0,061
-457,270	58,167	0,063	-0,044
-456,255	-11,840	-0,088	0,041
-455,241	-200,000	0,004	-0,032
-454,226	-27,492	-0,081	0,033
-453,211	179,846	0,059	-0,062
-452,197	-41,560	0,067	-0,024
-451,182	439,003	-0,070	0,111
-450,168	140,246	0,060	-0,056
-449,153	434,005	0,059	-0,092
-448,138	800,000	0,031	-0,088
-447,124	215,139	-0,033	0,038
-446,109	42,910	-0,091	-0,059
-445,095	190,309	0,022	0,024
-444,080	-200,000	-0,007	-0,035
-443,065	-84,534	0,113	0,025
-442,051	232,588	0,041	-0,048
-441,036	-88,348	-0,100	-0,021
-440,022	-200,000	-0,006	0,112
-439,007	-200,000	0,002	-0,127
-437,992	800,000	0,012	-0,030
-436,978	647,630	-0,082	0,152
-435,963	70,821	0,063	0,047
-434,949	-28,386	0,069	0,028
-433,934	83,113	-0,125	0,098
-432,919	-106,177	-0,175	0,028
-431,905	800,000	0,016	0,038
-430,890	230,677	0,075	0,089
-429,876	103,396	0,053	-0,045
-428,861	-200,000	-0,031	0,139
-427,846	-13,978	0,117	0,054
-426,832	-98,123	-0,123	-0,022
-425,817	1,938	-0,177	-0,091
-424,803	-200,000	0,009	-0,049
-423,788	-200,000	-0,025	0,142
-422,773	-200,000	0,002	-0,025
-421,759	41,101	-0,073	-0,047
-420,744	7,256	-0,080	0,043
-419,730	-200,000	0,030	0,157
-418,715	107,970	-0,074	0,063
-417,701	166,259	-0,035	-0,036
-416,686	36,125	0,127	-0,080
-415,671	-80,044	0,111	-0,026
-414,657	-200,000	-0,045	0,171
-413,642	275,561	0,026	0,033
-412,628	11,950	-0,106	0,058
-411,613	589,387	-0,024	-0,043
-410,598	304,884	0,115	-0,154
-409,584	-200,000	0,022	-0,072
-408,569	-32,391	0,128	0,051
-407,555	99,418	0,079	-0,066
-406,540	-7,712	0,028	0,013
-405,525	-148,195	-0,144	0,008
-404,511	-97,326	0,020	0,004
-403,496	-200,000	0,027	-0,201
-402,482	-147,820	0,041	-0,002
-401,467	800,000	0,053	-0,115
-400,452	588,204	-0,029	0,051
-399,438	92,758	-0,071	-0,058
-398,423	800,000	-0,041	-0,125
-397,409	800,000	-0,030	0,085
-396,394	351,081	0,059	-0,084
-395,379	120,153	-0,031	0,028
-394,365	-200,000	0,002	0,079
-393,350	228,763	-0,035	-0,040
-392,336	-60,424	0,157	0,047
-391,321	-200,000	0,007	-0,051
-390,306	485,905	-0,082	-0,135
-389,292	-155,793	0,073	-0,003
-388,277	-50,171	0,049	0,017
-387,263	800,000	0,016	0,033
-386,248	354,283	0,065	-0,092
-385,233	-200,000	0,027	0,125
-384,219	71,599	-0,053	-0,039
-383,204	800,000	0,061	0,135
-382,190	109,612	0,080	-0,069
-381,175	-200,000	-0,001	0,056
-380,160	-200,000	-0,019	0,110
-379,146	30,084	0,087	-0,053
-378,131	-104,482	0,037	0,006
-377,117	-200,000	-0,023	-0,113
-376,102	1,550	-0,084	-0,043
-375,088	577,536	-0,082	-0,144
-374,073	-200,000	0,014	0,060
-373,058	273,341	-0,036	0,045
-372,044	-111,450	0,125	0,018
-371,029	-73,078	0,136	-0,035
-370,015	16,156	-0,159	0,090
-369,000	16,499	0,118	0,067
-367,985	-60,096	-0,075	0,023
-366,971	75,758	0,135	-0,102
-365,956	-39,278	0,041	0,015
-364,942	800,000	0,015	0,039
-363,927	444,460	0,024	0,037
-362,912	383,409	-0,042	0,062
-361,898	-200,000	0,038	-0,169
-360,883	800,000	-0,057	-0,126
-359,869	-57,621	-0,143	-0,045
-358,854	800,000	0,049	-0,116
-357,839	27,018	-0,046	0,028
-356,825	82,108	0,058	0,045
-355,810	-72,189	-0,020	0,005
-354,796	162,691	0,108	-0,108
-353,781	393,380	0,133	0,198
-352,766	622,737	0,041	0,074
-351,752	-132,423	-0,167	0,015
-350,737	312,804	0,075	0,101
-349,723	-200,000	-0,034	0,194
-348,708	324,151	-0,093	0,128
-347,693	-200,000	0,014	-0,066
-346,679	-155,830	0,059	-0,003
-345,664	-200,000	0,001	0,050
-344,650	198,536	0,051	-0,056
-343,635	90,269	-0,046	0,037
-342,620	800,000	0,048	0,126
-341,606	-93,858	0,132	0,026
-340,591	-200,000	-0,012	-0,060
-339,577	428,806	-0,081	-0,126
-338,562	79,188	0,067	-0,051
-337,548	-83,469	0,085	0,019
-336,533	-11,373	0,165	0,077
-335,518	155,636	0,081	0,079
-334,504	488,138	-0,018	0,029
-333,489	70,442	-0,125	-0,092
-332,475	800,000	-0,017	0,039
-331,460	499,101	-0,056	-0,092
-330,445	-200,000	-0,030	-0,106
-329,431	255,493	0,086	-0,106
-328,416	-119,961	0,167	-0,020
-327,402	128,718	-0,074	-0,068
-326,387	-200,000	0,008	0,108
-325,372	363,611	-0,087	0,125
-324,358	-200,000	-0,033	0,000
-323,343	-200,000	-0,009	-0,075
-322,329	-151,022	0,070	-0,004
-321,314	-72,258	-0,178	0,047
-320,299	130,767	0,074	0,068
-319,285	196,479	-0,084	-0,092
-318,270	120,546	-0,080	0,071
-317,256	337,717	0,026	-0,036
-316,241	411,449	0,049	-0,074
-315,226	15,425	-0,084	-0,047
-314,212	-176,377	0,145	-0,003
-313,197	-21,609	-0,056	-0,024
-312,183	-200,000	0,004	-0,097
-311,168	-200,000	0,019	0,089
-310,153	26,629	0,127	0,076
-309,139	-134,022	-0,069	-0,006
-308,124	-200,000	0,014	-0,085
-307,110	800,000	0,035	0,090
-306,095	19,941	0,066	0,038
-305,080	68,302	-0,059	0,043
-304,066	-49,462	-0,081	-0,027
-303,051	-200,000	-0,028	-0,225
-302,037	426,932	-0,031	-0,048
-301,022	392,848	0,068	0,101
-300,008	-93,401	0,034	-0,007
-298,993	166,900	0,057	-0,058
-297,978	-31,188	0,079	-0,032
-296,964	-67,465	0,071	-0,020
-295,949	-71,636	-0,047	-0,012
-294,935	800,000	0,006	0,013
-293,920	487,601	0,020	0,032
-292,905	34,596	0,112	0,070
-291,891	-200,000	-0,009	0,043
-290,876	-129,085	0,056	-0,006
-289,862	126,769	0,034	-0,031
-288,847	52,092	0,140	-0,095
-287,832	-200,000	0,029	-0,094
-286,818	580,942	-0,064	0,112
-285,803	220,227	0,037	0,042
-284,789	689,899	0,044	0,082
-283,774	361,385	-0,043	0,061
-282,759	717,825	0,019	-0,035
-281,745	-117,557	-0,055	-0,007
-280,730	295,694	0,066	-0,087
-279,716	73,941	0,159	0,118
-278,701	134,656	0,067	0,062
-277,686	-189,698	-0,105	0,001
-276,672	457,109	0,064	0,101
-275,657	194,895	-0,034	-0,037
-274,643	-200,000	-0,001	-0,015
-273,628	-200,000	0,016	-0,064
-272,613	2,179	-0,050	-0,026
-271,599	-161,431	0,161	0,006
-270,584	-85,646	0,168	-0,037
-269,570	-40,107	0,024	0,009
-268,555	8,624	-0,053	0,028
-267,540	-200,000	0,000	-0,045
-266,526	-200,000	-0,010	-0,089
-265,511	9,082	0,116	0,062
-264,497	-23,918	-0,040	-0,017
-263,482	-200,000	-0,001	0,044
-262,467	-94,824	0,086	0,016
-261,453	-200,000	0,004	-0,137
-260,438	-200,000	-0,007	-0,052
-259,424	800,000	-0,009	-0,021
-258,409	-127,816	-0,092	-0,009
-257,395	-134,540	-0,048	0,004
-256,380	125,114	0,097	0,087
-255,365	185,111	0,026	0,028
-254,351	220,509	-0,052	0,060
-253,336	800,000	-0,018	0,054
-252,322	307,568	0,044	-0,059
-251,307	645,221	0,042	0,076
-250,292	-200,000	0,011	-0,124
-249,278	425,500	0,045	-0,069
-248,263	-4,447	-0,130	0,064
-247,249	-200,000	-0,020	0,165
-246,234	240,202	-0,082	0,098
-245,219	241,466	0,059	-0,070
-244,205	252,847	-0,046	-0,057
-243,190	-200,000	-0,002	0,040
-242,176	-97,793	0,218	0,040
-241,161	149,548	0,090	0,087
-240,146	-200,000	-0,010	0,052
-239,132	-64,288	0,052	0,015
-238,117	38,076	-0,028	0,018
-237,103	-64,886	0,128	-0,037
-236,088	-200,000	0,010	-0,155
-235,073	89,229	0,042	-0,033
-234,059	420,843	0,058	0,089
-233,044	-125,880	0,092	0,010
-232,030	74,846	-0,040	-0,030
-231,015	-200,000	0,013	0,044
-230,000	800,000	-0,017	-0,038
-228,986	149,923	0,061	0,059
-227,971	191,387	0,105	0,113
-226,957	338,840	0,014	0,019
-225,942	-200,000	0,001	0,029
-224,927	581,458	-0,061	-0,106
-223,913	-200,000	0,024	0,136
-222,898	-200,000	0,014	0,123
-221,884	800,000	-0,070	0,141
-220,869	145,693	-0,122	-0,116
-219,855	800,000	-0,004	-0,009
-218,840	180,728	-0,104	-0,109
-217,825	44,509	0,079	-0,052
-216,811	-200,000	0,010	-0,110
-215,796	-151,424	-0,156	-0,008
-214,782	-200,000	0,001	-0,014
-213,767	-200,000	0,018	0,087
-212,752	-200,000	0,012	0,121
-211,738	-123,027	-0,034	-0,004
-210,723	57,441	-0,119	0,082
-209,709	304,575	-0,032	0,042
-208,694	-156,933	-0,065	0,003
-207,679	800,000	0,025	0,075
-206,665	28,921	-0,054	0,032
-205,650	-163,217	0,143	-0,005
-204,636	107,451	0,104	0,088
-203,621	79,520	-0,094	0,072
-202,606	120,999	0,069	-0,061
-201,592	263,009	-0,053	-0,066
-200,577	28,488	-0,015	-0,009
-199,563	-62,527	0,089	-0,026
-198,548	-169,014	-0,080	-0,002
-197,533	-97,553	0,178	-0,032
-196,519	86,428	-0,030	0,023
-195,504	7,816	-0,144	-0,076
-194,490	-200,000	-0,006	0,154
-193,475	-33,566	-0,072	-0,028
-192,460	800,000	-0,067	-0,196
-191,446	-200,000	0,007	0,029
-190,431	-200,000	-0,030	0,113
-189,417	-200,000	-0,018	0,127
-188,402	800,000	0,027	-0,062
-187,387	-200,000	-0,012	-0,077
-186,373	75,078	-0,028	0,021
-185,358	-200,000	0,004	-0,089
-184,344	800,000	-0,034	0,089
-183,329	49,554	0,070	0,047
-182,315	58,466	-0,084	0,058
-181,300	-200,000	0,021	0,183
-180,285	148,552	-0,168	0,161
-179,271	113,266	-0,124	-0,107
-178,256	474,619	-0,048	0,078
-177,242	62,787	0,074	-0,052
-176,227	-143,411	0,047	-0,003
-175,212	-200,000	-0,012	0,075
-174,198	-200,000	-0,007	0,066
-173,183	-144,635	0,032	-0,002
-172,169	-140,585	-0,044	0,003
-171,154	-169,125	-0,007	0,000
-170,139	190,638	-0,081	0,086
-169,125	-70,885	0,153	0,041
-168,110	-56,317	0,122	-0,038
-167,096	162,021	-0,030	0,030
-166,081	-97,190	-0,143	0,026
-165,066	-200,000	-0,037	0,126
-164,052	-200,000	0,024	-0,164
-163,037	784,058	-0,036	0,071
-162,023	256,430	0,095	-0,115
-161,008	102,632	-0,050	0,041
-159,993	78,845	-0,061	-0,046
-158,979	-200,000	-0,032	-0,159
-157,964	376,475	0,037	0,053
-156,950	-200,000	-0,016	-0,138
-155,935	109,713	0,070	0,059
-154,920	800,000	-0,046	0,121
-153,906	-200,000	-0,016	0,138
-152,891	800,000	0,016	0,043
-151,877	203,289	0,086	-0,094
-150,862	435,597	0,062	-0,096
-149,847	-200,000	-0,028	-0,106
-148,833	-200,000	-0,022	0,074
-147,818	253,329	0,037	0,045
-146,804	-115,263	0,044	0,006
-145,789	-129,528	-0,104	-0,010
-144,775	-174,055	-0,063	0,001
-143,760	618,016	-0,076	-0,135
-142,745	207,637	-0,039	-0,043
-141,731	-25,616	-0,075	-0,031
-140,716	112,256	0,073	-0,062
-139,702	-47,773	0,069	0,023
-138,687	-106,223	-0,089	0,014
-137,672	-200,000	-0,014	-0,057
-136,658	103,172	0,146	-0,121
-135,643	-200,000	-0,023	-0,138
-134,629	-163,123	-0,086	0,003
-133,614	16,844	0,018	-0,010
-132,599	-65,566	0,109	-0,031
-131,585	-131,937	0,144	-0,013
-130,570	49,365	-0,070	-0,047
-129,556	-57,461	-0,101	-0,031
-128,541	18,323	0,069	-0,039
-127,526	-200,000	-0,036	0,166
-126,512	-200,000	0,028	0,106
-125,497	-89,203	-0,116	-0,024
-124,483	143,801	-0,006	-0,006
-123,468	438,897	-0,028	-0,044
-122,453	730,047	0,045	-0,085
-121,439	19,269	-0,190	-0,107
-120,424	-200,000	-0,010	-0,131
-119,410	-48,853	0,047	0,016
-118,395	-200,000	0,030	-0,134
-117,380	339,676	-0,069	0,096
-116,366	527,560	-0,011	0,018
-115,351	30,659	-0,097	-0,059
-114,337	-200,000	-0,046	0,150
-113,322	608,596	0,031	-0,055
-112,307	373,090	-0,011	-0,016
-111,293	608,951	0,011	0,019
-110,278	268,511	-0,062	0,077
-109,264	-14,400	-0,036	-0,016
-108,249	-7,355	0,121	0,058
-107,234	7,186	-0,131	-0,069
-106,220	-77,796	-0,126	-0,031
-105,205	170,280	0,117	-0,118
-104,191	-200,000	0,001	0,067
-103,176	95,626	-0,083	-0,067
-102,162	-91,052	0,099	-0,020
-101,147	-43,297	-0,072	-0,026
-100,132	800,000	-0,030	0,077
-99,118	800,000	-0,042	-0,110
-98,103	-200,000	0,012	0,080
-97,089	800,000	0,035	0,088
-96,074	33,455	-0,089	0,055
-95,059	179,330	0,075	0,078
-94,045	-200,000	0,016	0,084
-93,030	-200,000	0,008	-0,141
-92,016	270,004	-0,075	0,093
-91,001	27,958	0,068	-0,041
-89,986	-63,628	-0,135	-0,039
-88,972	-85,076	0,064	0,014
-87,957	-105,866	-0,133	0,021
-86,943	-128,956	-0,165	0,016
-85,928	800,000	0,044	-0,098
-84,913	480,012	-0,042	-0,068
-83,899	-49,126	-0,080	-0,027
-82,884	800,000	0,059	0,128
-81,870	221,714	0,040	0,045
-80,855	85,325	0,035	-0,027
-79,840	800,000	-0,045	0,121
-78,826	-200,000	-0,007	0,030
-77,811	-200,000	0,016	-0,120
-76,797	800,000	-0,013	0,034
-75,782	100,447	-0,071	0,058
-74,767	241,119	0,053	-0,063
-73,753	-200,000	-0,029	0,159
-72,738	-31,521	-0,033	-0,013
-71,724	-200,000	-0,007	0,048
-70,709	800,000	-0,028	-0,062
-69,694	-200,000	-0,004	-0,019
-68,680	352,179	0,061	0,086
-67,665	-200,000	-0,003	0,010
-66,651	-41,205	0,074	-0,027
-65,636	111,222	-0,027	0,023
-64,622	-188,634	-0,086	0,001
-63,607	23,237	-0,082	-0,048
-62,592	-120,751	0,049	-0,006
-61,578	743,127	0,069	0,132
-60,563	219,205	-0,075	0,085
-59,549	-200,000	-0,007	0,101
-58,534	26,048	-1,866	-1,097
-57,519	416,338	-1,305	-1,973
-56,505	-200,000	-0,206	-4,255
-55,490	800,000	0,820	1,618
-54,476	800,000	5,069	11,119
-53,461	-200,000	20,848	328,843
-52,446	800,000	757,035	2322,256
-51,432	549,844	1662,415	2825,562
-50,417	73,562	1664,307	1229,457
-49,403	18,740	1537,461	866,614
-48,388	12,716	1460,225	793,916
-47,373	19,010	1451,050	819,138
-46,359	15,859	1440,277	798,018
-45,344	11,033	1435,968	772,602
-44,330	10,981	1434,127	771,332
-43,315	10,942	1432,233	770,096
-42,300	10,945	1430,423	769,108
-41,286	10,960	1429,145	768,463
-40,271	10,883	1428,119	767,512
-39,257	10,928	1426,769	766,970
-38,242	10,992	1425,497	766,561
-37,227	10,962	1424,627	765,921
-36,213	10,950	1423,373	765,158
-35,198	10,965	1422,301	764,622
-34,184	11,012	1421,366	764,313
-33,169	10,936	1420,039	763,208
-32,154	11,034	1418,822	762,987
-31,140	11,010	1417,713	762,249
-30,125	11,053	1416,713	761,880
-29,111	11,055	1415,374	761,141
-28,096	11,060	1414,239	760,525
-27,082	10,942	1413,266	759,415
-26,067	10,853	1412,258	758,429
-25,052	10,951	1411,042	758,202
-24,038	10,902	1410,045	757,407
-23,023	10,957	1409,076	757,112
-22,009	10,927	1408,124	756,435
-20,994	10,900	1407,245	755,803
-19,979	10,841	1406,343	755,012
-18,965	10,873	1405,109	754,471
-17,950	10,862	1404,177	753,887
-16,936	10,823	1403,728	753,438
-15,921	10,861	1402,389	752,865
-14,906	10,843	1401,719	752,389
-13,892	10,846	1400,537	751,741
-12,877	10,824	1399,717	751,168
-11,863	10,852	1398,960	750,864
-10,848	10,801	1397,999	750,081
-9,833	10,791	1397,084	749,515
-8,819	10,725	1396,241	748,725
-7,804	10,728	1395,580	748,355
-6,790	10,705	1394,557	747,670
-5,775	10,767	1393,218	747,209
-4,760	10,762	1392,384	746,709
-3,746	10,745	1391,537	746,145
-2,731	10,717	1390,482	745,420
-1,717	10,688	1389,969	744,985
-0,702	10,719	1387,903	743,990
0,313	14,813	1301,695	716,523
1,327	31,179	693,215	418,831
2,342	48,714	120,249	79,437
3,356	0,632	16,471	8,286
4,371	-1,311	3,533	1,754
5,386	0,801	0,892	0,449
6,400	-200,000	0,057	0,485
7,415	34,081	-0,281	-0,172
8,429	84,710	-0,289	-0,223
9,444	-35,284	-0,278	-0,106
10,459	13,230	-0,344	-0,187
11,473	-135,927	-0,418	-0,034
12,488	140,130	-0,218	-0,203
13,502	35,988	-0,303	-0,187
14,517	-108,467	-0,354	-0,053
15,531	23,429	-0,456	-0,264
16,546	-11,852	-0,377	-0,174
17,561	69,155	-0,384	-0,278
18,575	-110,361	-0,193	0,028
19,590	344,109	-0,192	-0,266
20,604	353,528	-0,114	-0,159
21,619	115,900	-0,357	-0,308
22,634	84,724	-0,467	-0,360
23,648	108,154	-0,405	-0,340
24,663	166,915	-0,322	-0,322
25,677	39,107	-0,293	-0,184
26,692	46,776	-0,310	-0,203
27,707	75,049	-0,320	-0,237
28,721	50,800	-0,370	-0,247
29,736	129,068	-0,380	-0,341
30,750	201,092	-0,325	-0,352
31,765	27,443	-0,407	-0,240
32,780	304,621	-0,285	-0,374
33,794	112,620	-0,273	-0,232
34,809	170,712	-0,246	-0,248
35,823	415,412	-0,213	-0,320
36,838	60,710	-0,455	-0,317
37,853	9,892	-0,415	-0,221
38,867	58,050	-0,421	-0,290
39,882	99,733	-0,350	-0,285
40,896	668,505	-0,170	-0,311
41,911	6,332	-0,389	-0,202
42,926	301,154	-0,236	-0,308
43,940	152,918	-0,291	-0,280
44,955	168,737	-0,264	-0,265
45,969	91,826	-0,336	-0,265
46,984	146,411	-0,288	-0,272
47,999	165,460	-0,214	-0,213
49,013	23,388	-0,323	-0,186
50,028	279,700	-0,227	-0,285
51,042	58,068	-0,427	-0,293
52,057	26,868	-0,388	-0,228
53,071	221,564	-0,253	-0,286
54,086	36,719	-0,371	-0,230
55,101	79,711	-0,339	-0,255
56,115	-29,957	-0,383	-0,152
57,130	-47,085	-0,363	-0,124
58,144	-8,984	-0,458	-0,214
59,159	106,683	-0,353	-0,294
60,174	-2,389	-0,274	-0,135
61,188	-108,789	-0,363	-0,054
62,203	-1,617	-0,349	-0,172
63,217	35,337	-0,231	-0,142
64,232	15,773	-0,308	-0,169
65,247	73,116	-0,326	-0,239
66,261	-13,417	-0,441	-0,200
67,276	61,995	-0,358	-0,250
68,290	63,041	-0,223	-0,156
69,305	-95,342	-0,231	-0,043
70,320	21,986	-0,306	-0,175
71,334	158,183	-0,234	-0,227
72,349	-69,284	-0,332	-0,089
73,363	30,751	-0,355	-0,213
74,378	8,024	-0,395	-0,207
75,393	149,627	-0,318	-0,302
76,407	-144,612	-0,307	-0,020
77,422	346,799	-0,207	-0,286
78,436	-78,017	-0,484	-0,116
79,451	10,318	-0,229	-0,122
80,466	108,475	-0,307	-0,257
81,480	97,939	-0,345	-0,278
82,495	107,200	-0,243	-0,202
83,509	-50,725	-0,309	-0,101
84,524	19,602	-0,182	-0,102
85,539	-143,337	-0,183	0,012
86,553	48,468	-0,343	-0,225
87,568	93,495	-0,314	-0,249
88,582	66,798	-0,334	-0,238
89,597	60,244	-0,315	-0,218
90,611	1,509	-0,345	-0,173
91,626	436,286	-0,132	-0,201
92,641	216,036	-0,249	-0,278
93,655	188,581	-0,230	-0,241
94,670	-74,178	-0,375	-0,094
95,684	222,325	-0,318	-0,358
96,699	72,290	-0,375	-0,273
97,714	84,047	-0,145	-0,111
98,728	-7,369	-0,243	-0,115
99,743	161,008	-0,340	-0,333
100,757	104,662	-0,273	-0,225
101,772	6,793	-0,299	-0,155
102,787	-20,843	-0,343	-0,146
103,801	-6,408	-0,391	-0,186
104,816	-53,919	-0,294	-0,093
105,830	59,827	-0,266	-0,184
106,845	123,068	-0,231	-0,202
107,860	23,129	-0,168	-0,096
108,874	-71,658	-0,371	-0,096
109,889	4,075	-0,387	-0,197
110,903	269,976	-0,197	-0,243
111,918	79,969	-0,127	-0,095
112,933	37,214	-0,073	-0,045
113,947	-79,870	-0,292	-0,068
114,962	200,133	-0,158	-0,169
115,976	96,409	-0,264	-0,211
116,991	151,694	-0,270	-0,257
118,006	144,204	-0,201	-0,187
119,020	-200,000	-0,079	-0,290
120,035	100,456	-0,315	-0,256
121,049	208,500	-0,153	-0,167
122,064	66,520	-0,207	-0,147
123,079	-151,657	-0,306	-0,015
124,093	30,849	-0,310	-0,185
125,108	38,934	-0,352	-0,219
126,122	73,244	-0,208	-0,152
127,137	99,447	-0,261	-0,211
128,151	67,230	-0,210	-0,149
129,166	-74,806	-0,204	0,051
130,181	-106,653	-0,256	0,039
131,195	90,309	-0,281	-0,219
132,210	-4,958	-0,317	-0,152
133,224	62,733	-0,202	-0,141
134,239	-17,652	-0,359	-0,157
135,254	-78,110	-0,143	-0,034
136,268	-8,549	-0,141	-0,066
137,283	53,812	-0,296	-0,198
138,297	169,786	-0,160	-0,159
139,312	103,931	-0,325	-0,266
140,327	412,681	-0,138	-0,205
141,341	-5,744	-0,121	-0,057
142,356	77,088	-0,228	-0,169
143,370	-24,270	-0,253	-0,105
144,385	-117,811	-0,343	-0,042
145,400	68,865	-0,262	-0,187
146,414	-33,803	-0,369	-0,141
147,429	21,009	-0,322	-0,182
148,443	-131,053	-0,212	-0,019
149,458	750,994	-0,179	-0,337
150,473	71,742	-0,180	-0,130
151,487	35,674	-0,228	-0,139
152,502	142,779	-0,212	-0,196
153,516	265,421	-0,216	-0,263
154,531	464,766	-0,199	-0,312
155,546	-8,956	-0,272	-0,127
156,560	75,516	-0,141	-0,104
157,575	-74,843	-0,276	-0,068
158,589	196,929	-0,185	-0,197
159,604	-42,018	-0,223	-0,079
160,619	77,800	-0,272	-0,201
161,633	14,194	-0,184	-0,099
162,648	800,000	-0,085	-0,213
163,662	-5,603	-0,225	-0,107
164,677	139,259	-0,242	-0,222
165,692	93,435	-0,265	-0,208
166,706	28,098	-0,253	-0,148
167,721	190,123	-0,225	-0,235
168,735	150,109	-0,275	-0,260
169,750	-79,509	-0,317	-0,074
170,764	57,214	-0,308	-0,209
171,779	-23,903	-0,081	-0,034
172,794	274,682	-0,121	-0,149
173,808	0,209	-0,253	-0,125
174,823	-44,722	-0,247	-0,085
175,837	-3,070	-0,203	-0,098
176,852	-70,374	-0,307	-0,080
177,867	203,124	-0,169	-0,182
178,881	164,223	-0,151	-0,148
179,896	-31,840	-0,251	-0,097
180,910	258,681	-0,158	-0,190
181,925	-29,129	-0,192	-0,076
182,940	64,975	-0,326	-0,229
183,954	59,377	-0,285	-0,195
184,969	-59,334	-0,258	-0,077
185,983	183,687	-0,187	-0,192
186,998	188,582	-0,213	-0,221
188,013	538,386	-0,121	-0,201
189,027	-130,953	-0,232	0,021
190,042	38,123	-0,342	-0,211
191,056	-84,434	-0,362	-0,079
192,071	10,691	-0,239	-0,126
193,086	-40,563	-0,119	-0,043
194,100	399,764	-0,127	-0,185
195,115	101,322	-0,187	-0,151
196,129	90,447	-0,152	-0,118
197,144	23,931	-0,306	-0,175
198,159	291,132	-0,150	-0,190
199,173	503,862	-0,165	-0,266
200,188	69,032	-0,224	-0,159
201,202	-131,994	-0,154	-0,014
202,217	698,291	-0,109	-0,199
203,232	800,000	-0,079	-0,207
204,246	79,794	-0,190	-0,142
205,261	-200,000	-0,069	-0,258
206,275	-56,706	-0,207	-0,063
207,290	-200,000	-0,069	-0,350
208,304	245,346	-0,111	-0,129
209,319	110,923	-0,149	-0,125
210,334	225,230	-0,170	-0,191
211,348	623,656	-0,134	-0,236
212,363	193,022	-0,185	-0,194
213,377	323,150	-0,201	-0,266
214,392	-39,790	-0,148	-0,053
215,407	800,000	-0,070	-0,153
216,421	67,686	-0,209	-0,148
217,436	104,551	-0,175	-0,142
218,450	101,506	-0,212	-0,171
219,465	364,861	-0,124	-0,173
220,480	18,833	-0,091	-0,051
221,494	422,480	-0,158	-0,235
222,509	-98,588	-0,096	-0,017
223,523	-81,461	-0,247	-0,056
224,538	127,693	-0,198	-0,174
225,553	800,000	-0,076	-0,194
226,567	-13,138	-0,218	-0,097
227,582	133,375	-0,133	-0,119
228,596	78,120	-0,254	-0,187
229,611	-57,360	-0,206	-0,062
230,626	800,000	-0,053	-0,104
231,640	-48,559	-0,160	-0,053
232,655	261,394	-0,221	-0,265
233,669	-48,988	-0,369	-0,121
234,684	-114,692	-0,225	-0,029
235,699	7,124	-0,077	-0,040
236,713	-176,182	-0,276	-0,005
237,728	237,647	-0,171	-0,197
238,742	-170,219	-0,198	0,005
239,757	773,438	-0,111	-0,210
240,772	601,810	-0,158	-0,272
241,786	315,952	-0,118	-0,155
242,801	636,894	0,103	-0,182
243,815	-159,329	-0,272	0,010
244,830	109,259	-0,160	-0,133
245,844	582,828	-0,124	-0,211
246,859	111,383	-0,166	-0,138
247,874	268,668	-0,210	-0,255
248,888	-10,962	-0,223	-0,101
249,903	94,316	-0,088	-0,069
250,917	85,860	-0,169	0,128
251,932	-56,745	-0,050	0,015
252,947	50,902	-0,154	-0,100
253,961	341,329	-0,162	-0,218
254,976	514,669	-0,097	-0,156
255,990	-133,580	-0,247	-0,021
257,005	-159,803	-0,243	0,009
258,020	481,198	-0,049	-0,076
259,034	-143,676	-0,076	-0,005
260,049	503,849	-0,095	-0,153
261,063	100,709	-0,111	-0,089
262,078	211,356	-0,130	-0,141
263,093	-1,690	-0,282	-0,136
264,107	-130,333	-0,150	-0,014
265,122	-59,868	-0,150	0,044
266,136	800,000	-0,096	-0,213
267,151	213,944	-0,132	-0,144
268,166	-40,539	-0,248	-0,088
269,180	26,983	-0,221	-0,127
270,195	197,919	-0,183	-0,193
271,209	76,133	-0,157	-0,115
272,224	117,123	-0,215	-0,182
273,239	121,558	-0,122	-0,105
274,253	61,255	-0,203	-0,138
275,268	60,228	-0,156	-0,106
276,282	-72,060	-0,261	0,066
277,297	294,613	-0,151	-0,190
278,312	23,587	-0,208	0,118
279,326	58,092	-0,180	-0,121
280,341	25,825	-0,196	-0,112
281,355	-71,943	-0,111	-0,028
282,370	122,021	-0,200	-0,172
283,384	-21,591	-0,203	-0,085
284,399	1,804	-0,234	-0,116
285,414	569,562	-0,159	-0,267
286,428	77,252	-0,099	-0,072
287,443	-37,442	-0,091	-0,033
288,457	-59,554	-0,179	0,053
289,472	113,047	-0,160	-0,134
290,487	243,481	-0,190	-0,220
291,501	537,656	-0,139	-0,228
292,516	-200,000	-0,021	-0,224
293,530	128,734	-0,079	-0,069
294,545	338,417	-0,050	-0,067
295,560	-42,399	-0,182	-0,063
296,574	-130,708	-0,231	-0,021
297,589	351,612	-0,118	-0,161
298,603	-33,961	-0,172	-0,065
299,618	-40,267	-0,201	-0,072
300,633	485,333	-0,173	-0,271
301,647	800,000	-0,095	-0,242
302,662	461,124	-0,116	-0,178
303,676	41,600	-0,222	-0,138
304,691	-200,000	-0,067	-0,212
305,706	387,845	-0,089	-0,126
306,720	279,175	-0,120	-0,147
307,735	800,000	-0,095	-0,219
308,749	448,099	-0,075	-0,114
309,764	155,039	-0,174	-0,164
310,779	154,957	-0,134	-0,127
311,793	92,350	-0,275	-0,213
312,808	171,483	-0,128	-0,126
313,822	163,199	-0,198	-0,191
314,837	681,597	-0,122	-0,220
315,852	193,273	-0,132	-0,137
316,866	-200,000	-0,003	-0,033
317,881	240,140	-0,139	-0,159
318,895	96,231	-0,102	-0,080
319,910	196,941	-0,182	-0,191
320,925	287,886	-0,135	-0,168
321,939	-64,322	-0,252	-0,070
322,954	-86,673	-0,168	-0,035
323,968	129,193	-0,071	-0,062
324,983	146,625	-0,084	-0,078
325,997	294,595	-0,091	-0,114
327,012	86,592	-0,189	-0,143
328,027	-29,497	-0,269	-0,105
329,041	-21,906	-0,165	-0,069
330,056	-68,546	-0,236	-0,062
331,070	-36,488	-0,173	0,064
332,085	68,479	-0,155	-0,109
333,100	274,623	-0,127	-0,154
334,114	10,857	-0,223	-0,117
335,129	95,549	-0,152	-0,118
336,143	-151,196	-0,208	-0,011
337,158	146,424	-0,148	-0,136
338,173	343,562	-0,061	0,083
339,187	-102,005	-0,092	0,015
340,202	555,027	-0,120	-0,199
341,216	800,000	-0,084	-0,180
342,231	314,616	-0,172	-0,222
343,246	-68,456	-0,168	-0,044
344,260	-87,329	-0,141	0,029
345,275	11,232	-0,142	0,074
346,289	-129,651	-0,172	0,016
347,304	-12,546	-0,170	-0,076
348,319	90,970	-0,151	-0,115
349,333	310,634	-0,125	-0,161
350,348	152,277	-0,131	-0,122
351,362	47,636	-0,085	-0,054
352,377	552,810	-0,061	-0,101
353,392	-200,000	-0,014	-0,059
354,406	237,360	-0,083	-0,094
355,421	206,495	1308,554	1395,779
356,435	158,815	1468,502	1396,271
