DTS Sentinel unit serial number:	SN410029Multiplexer serial number:	ORYXHardware model number:	OX2-SRSoftware version number:	ORYX F/W v4,00 Oryx Data Collector v3.7.2.0data status	okinstallation	B3 Nyhavnadifferential loss correction	single-endedforward channel	channel 1reverse channel	N/Adate	2023/12/02time	12:37:30forward acquisition time	300,00reverse acquisition time	0,00gamma	499,1914k internal	0,3199k external	0,3199temperature offset calibration	1,0000default loss term (dB/km)	0,3820temperature slope calibration	1,0000multiplexer offset coefficient	1,0000multiplexer slope coefficient	1,0000fibre end	0,00T internal ref (°C)	14,12T ext. ref 1 (°C)	-0,45T ext. ref 2 (°C)	-0,44length (m)	temperature (°C)	Stokes	anti-Stokes-744,400	-119,866	-0,250	-0,031
-743,385	-200,000	-0,049	0,419
-742,371	343,337	-0,155	-0,221
-741,356	800,000	0,108	0,274
-740,342	800,000	-0,079	-0,171
-739,327	800,000	0,107	0,293
-738,312	21,534	-0,422	-0,249
-737,298	-200,000	0,032	0,220
-736,283	661,321	-0,102	-0,192
-735,269	-200,000	-0,013	0,268
-734,254	198,554	-0,151	-0,168
-733,239	-97,417	-0,066	0,012
-732,225	373,907	-0,156	-0,231
-731,210	800,000	0,105	0,212
-730,196	-52,071	-0,138	-0,046
-729,181	403,598	0,025	-0,038
-728,167	132,629	0,106	0,100
-727,152	-74,310	-0,175	0,046
-726,137	-121,025	-0,070	0,008
-725,123	124,359	-0,063	-0,058
-724,108	-82,785	-0,121	-0,028
-723,094	-3,616	-0,007	-0,003
-722,079	576,129	-0,029	0,052
-721,064	163,923	-0,069	0,071
-720,050	-142,875	0,021	-0,001
-719,035	-200,000	-0,006	-0,028
-718,021	40,055	-0,012	0,008
-717,006	84,780	0,110	0,087
-715,991	-0,797	-0,116	-0,060
-714,977	-87,228	0,067	0,015
-713,962	-200,000	0,013	0,085
-712,948	67,726	-0,095	-0,071
-711,933	677,365	-0,056	-0,106
-710,918	44,047	-0,079	-0,052
-709,904	165,749	-0,091	-0,093
-708,889	-157,267	-0,054	0,002
-707,875	800,000	0,026	-0,076
-706,860	42,313	-0,016	-0,011
-705,845	-121,623	-0,197	0,023
-704,831	19,356	0,042	0,024
-703,816	-200,000	0,020	0,077
-702,802	-200,000	-0,014	0,105
-701,787	45,519	-0,162	0,109
-700,772	800,000	-0,035	-0,086
-699,758	541,585	0,022	-0,039
-698,743	554,148	-0,031	-0,054
-697,729	-154,124	-0,055	0,003
-696,714	-132,932	-0,115	-0,010
-695,699	800,000	-0,036	-0,086
-694,685	61,492	-0,183	-0,132
-693,670	-40,035	-0,061	0,023
-692,656	800,000	-0,028	-0,058
-691,641	-200,000	0,080	-0,000
-690,627	-63,638	-0,091	-0,027
-689,612	800,000	0,039	-0,096
-688,597	-69,468	0,119	-0,033
-687,583	89,179	-0,118	-0,095
-686,568	-3,860	-0,131	-0,066
-685,554	474,339	0,053	0,086
-684,539	800,000	0,032	0,081
-683,524	122,267	0,088	0,080
-682,510	-144,826	-0,028	0,002
-681,495	800,000	0,002	0,006
-680,481	-29,112	-0,063	-0,026
-679,466	-200,000	-0,025	-0,117
-678,451	-32,712	0,089	-0,036
-677,437	-44,385	0,063	0,023
-676,422	734,654	0,070	0,136
-675,408	-139,067	-0,108	0,008
-674,393	-200,000	0,005	-0,136
-673,378	-200,000	-0,028	0,114
-672,364	-67,209	-0,093	-0,026
-671,349	-200,000	-0,039	-0,134
-670,335	429,480	-0,048	-0,076
-669,320	-110,831	0,083	0,012
-668,305	354,537	-0,045	-0,065
-667,291	-10,510	-0,144	0,069
-666,276	772,083	0,015	-0,030
-665,262	-29,165	-0,059	-0,024
-664,247	329,034	-0,097	-0,135
-663,232	57,563	0,104	-0,074
-662,218	800,000	0,012	-0,028
-661,203	-200,000	-0,020	0,099
-660,189	32,461	-0,045	0,028
-659,174	248,879	-0,040	-0,050
-658,159	800,000	0,054	0,140
-657,145	32,480	0,012	0,007
-656,130	-200,000	-0,017	-0,055
-655,116	33,149	0,117	0,074
-654,101	-94,173	0,088	-0,017
-653,086	12,103	0,052	-0,029
-652,072	35,709	-0,040	-0,026
-651,057	79,061	0,040	0,031
-650,043	-189,386	-0,180	0,001
-649,028	-75,822	-0,149	-0,038
-648,014	800,000	0,036	0,092
-646,999	7,104	0,066	0,036
-645,984	-200,000	-0,002	-0,097
-644,970	44,088	-0,124	-0,083
-643,955	39,329	0,045	-0,029
-642,941	8,852	-0,023	-0,012
-641,926	-106,135	-0,148	-0,024
-640,911	-200,000	-0,024	0,156
-639,897	-200,000	0,024	0,159
-638,882	-109,997	-0,033	-0,005
-637,868	800,000	-0,033	-0,084
-636,853	75,654	-0,112	-0,086
-635,838	800,000	0,019	-0,041
-634,824	-200,000	0,018	0,152
-633,809	-199,649	0,067	-0,000
-632,795	565,740	-0,005	0,009
-631,780	10,359	0,145	-0,080
-630,765	-57,643	-0,149	-0,047
-629,751	131,025	-0,046	-0,043
-628,736	-80,743	-0,112	-0,027
-627,722	-200,000	-0,000	-0,092
-626,707	158,079	0,099	-0,099
-625,692	-176,551	0,061	-0,001
-624,678	510,054	-0,047	0,079
-623,663	-13,593	-0,026	-0,012
-622,649	45,639	-0,084	-0,056
-621,634	-128,346	-0,176	-0,018
-620,619	-200,000	0,009	0,046
-619,605	-110,944	-0,043	-0,006
-618,590	-200,000	0,005	-0,021
-617,576	380,621	0,025	-0,037
-616,561	-200,000	0,010	0,087
-615,546	-7,014	-0,116	-0,057
-614,532	136,661	-0,069	-0,065
-613,517	-200,000	-0,005	0,041
-612,503	-141,459	0,080	-0,006
-611,488	-200,000	-0,029	0,199
-610,474	800,000	0,064	0,140
-609,459	-29,186	-0,101	-0,042
-608,444	207,577	-0,107	0,121
-607,430	-200,000	-0,027	-0,164
-606,415	298,345	0,067	0,090
-605,401	-200,000	-0,002	0,085
-604,386	-130,226	-0,010	0,001
-603,371	143,550	0,104	0,101
-602,357	-149,496	-0,183	0,010
-601,342	74,526	-0,131	-0,100
-600,328	266,943	0,055	-0,070
-599,313	75,788	0,019	-0,014
-598,298	74,514	-0,030	0,023
-597,284	-200,000	0,007	0,119
-596,269	-200,000	0,005	-0,115
-595,255	-78,749	-0,114	0,028
-594,240	800,000	0,044	-0,097
-593,225	761,198	-0,067	-0,133
-592,211	-131,635	0,078	-0,007
-591,196	-200,000	0,012	0,051
-590,182	-67,373	-0,071	-0,020
-589,167	-66,590	0,053	0,015
-588,152	-200,000	-0,031	0,101
-587,138	-200,000	-0,007	-0,086
-586,123	201,173	-0,040	-0,044
-585,109	122,554	-0,117	-0,106
-584,094	85,098	0,123	-0,097
-583,079	103,781	0,055	0,046
-582,065	-109,833	-0,033	0,005
-581,050	299,805	0,034	-0,046
-580,036	-44,881	-0,100	-0,036
-579,021	800,000	-0,064	-0,184
-578,006	800,000	-0,033	-0,073
-576,992	800,000	-0,046	-0,116
-575,977	800,000	0,044	0,128
-574,963	-132,189	0,040	-0,004
-573,948	-148,482	0,099	-0,006
-572,934	42,617	-0,163	-0,107
-571,919	800,000	-0,006	0,016
-570,904	-200,000	0,019	-0,109
-569,890	546,640	-0,038	-0,067
-568,875	800,000	-0,009	0,026
-567,861	-106,942	0,038	-0,006
-566,846	-44,927	0,079	-0,028
-565,831	108,815	-0,120	-0,104
-564,817	1,058	-0,040	-0,021
-563,802	-141,418	-0,137	-0,010
-562,788	148,193	0,004	-0,003
-561,773	-200,000	-0,020	-0,082
-560,758	583,997	-0,079	0,141
-559,744	138,077	-0,059	-0,056
-558,729	119,765	0,087	0,078
-557,715	-200,000	-0,027	-0,091
-556,700	-200,000	0,031	-0,104
-555,685	-200,000	0,027	-0,144
-554,671	800,000	0,061	0,138
-553,656	-187,917	0,183	0,002
-552,642	-74,211	-0,095	0,025
-551,627	-57,254	0,029	-0,009
-550,612	453,605	-0,080	0,128
-549,598	-29,584	-0,035	-0,014
-548,583	182,671	0,085	-0,090
-547,569	135,224	0,118	0,111
-546,554	9,693	-0,101	0,055
-545,539	-32,738	-0,053	-0,021
-544,525	107,194	0,213	0,183
-543,510	800,000	0,044	0,106
-542,496	-147,832	-0,068	-0,004
-541,481	-200,000	-0,025	-0,083
-540,466	-3,453	-0,101	-0,050
-539,452	96,301	0,045	-0,037
-538,437	800,000	-0,046	0,102
-537,423	-200,000	-0,002	-0,025
-536,408	-156,670	0,081	0,004
-535,393	-130,132	-0,064	0,006
-534,379	251,955	0,069	-0,084
-533,364	108,434	0,099	-0,085
-532,350	800,000	0,069	-0,191
-531,335	-14,393	0,064	0,030
-530,321	273,360	0,135	0,173
-529,306	-33,103	0,106	0,042
-528,291	800,000	0,078	0,185
-527,277	-8,525	-0,045	-0,022
-526,262	-200,000	-0,008	-0,037
-525,248	262,462	-0,062	-0,078
-524,233	-200,000	-0,007	0,131
-523,218	-31,565	-0,086	0,035
-522,204	-162,697	-0,075	-0,003
-521,189	-200,000	-0,017	0,059
-520,175	103,027	-0,111	0,094
-519,160	317,157	-0,094	-0,129
-518,145	-200,000	0,001	0,007
-517,131	800,000	0,017	0,045
-516,116	800,000	-0,018	0,052
-515,102	-200,000	-0,007	0,035
-514,087	727,084	-0,021	-0,040
-513,072	-200,000	0,006	0,070
-512,058	-200,000	-0,011	-0,099
-511,043	-2,255	0,038	0,019
-510,029	772,394	-0,016	-0,032
-509,014	309,240	0,033	-0,044
-507,999	48,986	-0,113	0,076
-506,985	-106,110	0,019	-0,003
-505,970	-102,182	-0,030	-0,005
-504,956	-200,000	0,000	0,047
-503,941	-52,034	0,036	-0,012
-502,926	-110,072	0,058	0,009
-501,912	-200,000	-0,015	0,081
-500,897	-200,000	0,003	0,104
-499,883	-200,000	-0,022	-0,109
-498,868	244,931	-0,019	-0,023
-497,853	-77,318	-0,040	0,010
-496,839	-14,240	-0,044	0,020
-495,824	-133,366	0,094	0,008
-494,810	-200,000	-0,031	0,103
-493,795	-157,306	-0,066	-0,003
-492,781	-83,660	0,140	0,032
-491,766	-85,590	-0,121	-0,027
-490,751	800,000	-0,074	-0,156
-489,737	25,534	-0,105	0,063
-488,722	-200,000	-0,000	0,092
-487,708	-13,531	0,063	0,029
-486,693	71,663	0,062	0,046
-485,678	-200,000	0,005	0,040
-484,664	-33,721	-0,112	-0,044
-483,649	-200,000	-0,002	-0,073
-482,635	178,673	0,098	-0,103
-481,620	-200,000	0,010	-0,097
-480,605	-90,263	0,106	-0,022
-479,591	359,905	-0,050	0,072
-478,576	-200,000	-0,008	0,053
-477,562	-137,893	0,072	0,006
-476,547	270,784	0,091	0,115
-475,532	-200,000	0,036	0,136
-474,518	-200,000	-0,020	-0,110
-473,503	-61,837	0,007	0,002
-472,489	55,643	0,147	0,103
-471,474	135,813	-0,060	0,056
-470,459	-200,000	0,031	-0,113
-469,445	137,356	-0,082	-0,077
-468,430	800,000	-0,017	-0,039
-467,416	-170,615	-0,056	0,001
-466,401	800,000	0,054	0,130
-465,386	800,000	-0,022	0,055
-464,372	-200,000	0,000	0,041
-463,357	730,159	-0,067	-0,129
-462,343	69,727	-0,092	-0,068
-461,328	121,228	0,099	-0,088
-460,313	-200,000	0,007	-0,093
-459,299	-96,232	-0,082	0,015
-458,284	75,886	0,119	0,090
-457,270	596,363	0,034	0,061
-456,255	-200,000	-0,002	0,041
-455,241	355,139	-0,077	0,111
-454,226	-83,763	-0,061	0,014
-453,211	-200,000	-0,033	0,112
-452,197	-74,787	0,029	0,007
-451,182	-200,000	-0,006	-0,090
-450,168	-74,380	0,131	0,034
-449,153	-106,522	0,035	0,006
-448,138	-200,000	0,020	-0,224
-447,124	747,791	-0,038	0,073
-446,109	-105,021	0,208	0,034
-445,095	262,178	0,082	0,102
-444,080	800,000	-0,048	0,123
-443,065	588,854	0,047	0,084
-442,051	22,679	-0,042	0,025
-441,036	-110,482	0,037	0,005
-440,022	31,880	-0,095	-0,058
-439,007	272,895	0,038	0,048
-437,992	-76,571	0,045	0,011
-436,978	-200,000	-0,028	0,121
-435,963	149,044	0,070	0,068
-434,949	149,879	-0,054	0,052
-433,934	-200,000	-0,031	-0,140
-432,919	69,472	-0,049	-0,036
-431,905	315,083	-0,056	-0,075
-430,890	-91,397	0,088	0,018
-429,876	-87,541	-0,136	0,029
-428,861	-200,000	0,006	0,020
-427,846	-14,244	-0,077	-0,036
-426,832	286,443	-0,043	-0,056
-425,817	-200,000	0,008	-0,087
-424,803	-118,543	0,113	-0,014
-423,788	724,674	0,044	-0,085
-422,773	122,767	-0,083	0,074
-421,759	-200,000	-0,006	-0,041
-420,744	-200,000	0,025	0,101
-419,730	106,374	0,064	-0,055
-418,715	800,000	0,034	-0,087
-417,701	-200,000	0,002	-0,072
-416,686	-71,064	-0,070	0,019
-415,671	800,000	0,014	0,031
-414,657	226,656	0,032	-0,038
-413,642	-200,000	-0,002	0,010
-412,628	-98,923	0,193	-0,035
-411,613	-1,642	-0,024	-0,012
-410,598	399,921	0,082	-0,124
-409,584	-26,014	0,027	0,011
-408,569	614,274	-0,038	-0,068
-407,555	470,361	-0,032	-0,052
-406,540	304,235	-0,054	-0,073
-405,525	-46,450	-0,217	-0,076
-404,511	-13,394	-0,095	-0,044
-403,496	-200,000	-0,002	-0,117
-402,482	-200,000	-0,010	-0,063
-401,467	429,805	0,028	-0,044
-400,452	-200,000	0,017	0,112
-399,438	641,479	0,063	0,116
-398,423	24,904	0,120	-0,072
-397,409	-27,317	-0,049	-0,020
-396,394	-119,622	-0,102	-0,013
-395,379	-87,625	-0,029	0,006
-394,365	267,443	0,008	-0,011
-393,350	615,895	0,065	0,118
-392,336	-200,000	-0,011	0,034
-391,321	800,000	-0,040	0,079
-390,306	800,000	0,053	0,164
-389,292	204,387	-0,041	-0,046
-388,277	800,000	0,035	0,071
-387,263	-127,140	-0,075	-0,008
-386,248	-200,000	0,025	0,140
-385,233	-24,621	0,214	0,091
-384,219	-119,600	-0,126	-0,015
-383,204	11,351	-0,115	-0,063
-382,190	244,639	-0,022	-0,026
-381,175	800,000	-0,030	-0,074
-380,160	-200,000	0,018	-0,066
-379,146	70,023	0,040	-0,030
-378,131	-139,414	-0,074	-0,006
-377,117	-85,767	-0,181	-0,040
-376,102	133,434	0,048	-0,044
-375,088	143,485	-0,028	-0,027
-374,073	-19,166	-0,064	0,028
-373,058	-177,811	0,215	-0,004
-372,044	-134,456	0,104	-0,009
-371,029	102,863	0,068	0,057
-370,015	691,648	-0,032	-0,061
-369,000	-22,319	-0,049	-0,021
-367,985	-200,000	-0,014	0,125
-366,971	143,182	-0,037	0,036
-365,956	-200,000	0,002	-0,036
-364,942	177,317	0,025	0,026
-363,927	-200,000	-0,001	0,017
-362,912	-91,487	0,099	-0,020
-361,898	142,948	0,003	0,003
-360,883	58,006	-0,100	0,070
-359,869	-130,959	0,033	-0,003
-358,854	-200,000	-0,019	0,121
-357,839	515,620	0,076	0,128
-356,825	-200,000	0,027	0,148
-355,810	142,152	-0,039	-0,037
-354,796	-87,687	-0,180	0,039
-353,781	-26,325	0,058	-0,024
-352,766	-66,498	-0,042	-0,012
-351,752	355,151	-0,052	-0,074
-350,737	163,340	0,087	-0,088
-349,723	469,679	-0,040	-0,064
-348,708	-23,636	0,058	0,025
-347,693	85,027	-0,049	-0,039
-346,679	-57,005	-0,044	-0,014
-345,664	-37,366	-0,044	-0,017
-344,650	443,007	0,072	-0,113
-343,635	-75,563	0,111	-0,028
-342,620	800,000	-0,045	0,116
-341,606	-200,000	0,024	-0,188
-340,591	-86,922	-0,110	-0,024
-339,577	-19,337	-0,118	-0,052
-338,562	514,908	-0,068	-0,115
-337,548	-149,829	0,072	0,004
-336,533	100,777	0,026	0,022
-335,518	691,345	-0,056	0,106
-334,504	-200,000	0,022	0,094
-333,489	800,000	0,045	-0,120
-332,475	-200,000	0,002	-0,037
-331,460	107,849	0,098	-0,084
-330,445	519,358	0,042	-0,071
-329,431	280,709	-0,034	-0,043
-328,416	-146,927	0,133	0,008
-327,402	-200,000	0,007	-0,048
-326,387	-50,027	-0,127	-0,043
-325,372	-200,000	0,019	0,082
-324,358	-79,012	-0,124	0,030
-323,343	-200,000	0,018	-0,115
-322,329	-200,000	-0,014	0,160
-321,314	-0,265	0,150	0,076
-320,299	366,518	0,091	0,132
-319,285	283,488	-0,050	-0,064
-318,270	-200,000	-0,006	-0,087
-317,256	-200,000	-0,025	-0,195
-316,241	76,181	0,047	0,036
-315,226	-200,000	0,003	-0,127
-314,212	800,000	0,021	0,055
-313,197	-200,000	-0,036	-0,125
-312,183	-85,263	-0,076	0,017
-311,168	-200,000	-0,009	0,054
-310,153	117,472	-0,029	-0,026
-309,139	-200,000	-0,071	-0,250
-308,124	-107,572	0,101	-0,016
-307,110	-40,770	0,015	0,005
-306,095	774,636	0,026	0,051
-305,080	627,732	-0,045	0,082
-304,066	66,092	0,031	-0,022
-303,051	34,348	-0,063	0,039
-302,037	176,715	-0,072	0,074
-301,022	800,000	-0,012	0,024
-300,008	800,000	0,023	0,059
-298,993	344,288	-0,072	0,101
-297,978	-21,046	-0,053	-0,023
-296,964	228,786	0,109	-0,128
-295,949	-136,228	0,070	-0,006
-294,935	75,091	0,071	-0,053
-293,920	800,000	0,015	-0,041
-292,905	-200,000	0,006	0,098
-291,891	622,006	0,036	0,065
-290,876	-200,000	-0,002	0,113
-289,862	-7,360	0,105	-0,050
-288,847	800,000	-0,002	-0,004
-287,832	228,230	-0,071	0,083
-286,818	-200,000	-0,021	0,108
-285,803	498,286	0,068	0,113
-284,789	98,774	-0,073	0,060
-283,774	-129,051	0,170	-0,017
-282,759	180,087	0,040	-0,042
-281,745	298,743	-0,024	-0,031
-280,730	-112,315	-0,082	0,012
-279,716	172,307	-0,050	0,051
-278,701	197,884	-0,049	0,054
-277,686	-18,701	0,138	-0,061
-276,672	800,000	-0,022	0,052
-275,657	-23,251	-0,073	-0,031
-274,643	694,014	0,023	-0,043
-273,628	159,407	0,091	-0,090
-272,613	274,163	-0,066	-0,084
-271,599	138,955	0,120	0,113
-270,584	490,503	-0,034	0,056
-269,570	-200,000	-0,036	0,185
-268,555	-200,000	-0,006	0,108
-267,540	-147,484	-0,206	-0,012
-266,526	800,000	0,020	-0,056
-265,511	-36,865	0,091	-0,035
-264,497	-142,871	0,015	0,001
-263,482	-200,000	-0,021	-0,078
-262,467	-200,000	0,015	0,065
-261,453	129,044	-0,026	0,024
-260,438	-200,000	-0,010	-0,113
-259,424	408,321	-0,030	-0,045
-258,409	-200,000	0,005	0,063
-257,395	41,360	0,071	-0,046
-256,380	116,307	0,032	0,028
-255,365	-104,458	0,043	-0,007
-254,351	36,143	0,057	0,036
-253,336	-59,035	0,062	0,019
-252,322	-200,000	-0,003	0,011
-251,307	-65,327	0,082	-0,023
-250,292	-200,000	0,038	-0,172
-249,278	-200,000	0,013	0,044
-248,263	800,000	0,044	0,088
-247,249	245,719	0,093	0,112
-246,234	236,171	0,075	-0,088
-245,219	-200,000	-0,022	-0,135
-244,205	64,143	0,053	-0,038
-243,190	2,497	-0,107	-0,055
-242,176	67,722	0,067	0,048
-241,161	792,018	-0,038	0,075
-240,146	489,107	0,026	0,043
-239,132	-200,000	0,026	-0,090
-238,117	125,168	-0,035	0,031
-237,103	-4,142	-0,058	-0,029
-236,088	-200,000	0,002	0,084
-235,073	-33,829	-0,105	-0,041
-234,059	-200,000	-0,004	-0,096
-233,044	85,971	0,032	0,025
-232,030	229,455	-0,042	0,049
-231,015	-49,984	0,089	0,030
-230,000	-53,135	-0,068	-0,022
-228,986	254,738	0,031	0,038
-227,971	-49,734	0,053	-0,018
-226,957	-22,202	0,094	0,041
-225,942	-50,265	0,149	0,050
-224,927	-66,389	0,047	0,013
-223,913	-200,000	0,012	-0,125
-222,898	800,000	0,048	-0,103
-221,884	-95,698	0,178	-0,034
-220,869	415,687	0,027	-0,041
-219,855	-200,000	-0,015	0,066
-218,840	-61,627	0,098	0,029
-217,825	-200,000	0,005	-0,040
-216,811	135,953	-0,178	-0,165
-215,796	-200,000	0,021	0,103
-214,782	-200,000	-0,019	0,144
-213,767	-200,000	-0,007	-0,040
-212,752	-43,938	0,038	0,014
-211,738	27,025	-0,102	0,061
-210,723	-200,000	0,002	-0,006
-209,709	-88,277	0,038	-0,008
-208,694	176,594	0,077	0,080
-207,679	-59,746	0,142	-0,043
-206,665	-200,000	-0,002	0,018
-205,650	-200,000	0,007	0,070
-204,636	60,642	0,116	-0,082
-203,621	207,990	0,055	-0,061
-202,606	-200,000	-0,002	-0,038
-201,592	81,074	-0,092	0,070
-200,577	89,446	-0,095	0,076
-199,563	-41,528	-0,029	-0,010
-198,548	449,673	-0,045	0,070
-197,533	-200,000	0,052	0,170
-196,519	800,000	-0,026	0,069
-195,504	64,302	-0,117	0,084
-194,490	-15,306	-0,083	-0,038
-193,475	81,626	-0,023	0,018
-192,460	-200,000	0,032	-0,154
-191,446	100,350	0,129	0,106
-190,431	5,031	0,072	0,037
-189,417	-200,000	0,007	0,035
-188,402	248,501	0,017	0,021
-187,387	-53,339	-0,042	-0,014
-186,373	-200,000	-0,017	-0,103
-185,358	800,000	0,065	-0,133
-184,344	127,809	-0,037	0,034
-183,329	277,726	0,094	-0,120
-182,315	291,029	0,043	0,056
-181,300	800,000	0,016	0,035
-180,285	-165,085	0,047	0,001
-179,271	-200,000	0,031	0,107
-178,256	382,901	-0,064	-0,094
-177,242	-200,000	-0,009	-0,041
-176,227	800,000	0,135	0,310
-175,212	800,000	-0,038	0,102
-174,198	149,228	0,055	0,053
-173,183	-200,000	0,014	-0,086
-172,169	800,000	-0,022	0,062
-171,154	-80,636	0,067	0,016
-170,139	-83,376	-0,060	0,014
-169,125	-200,000	0,005	0,060
-168,110	-200,000	0,017	0,056
-167,096	800,000	-0,074	-0,229
-166,081	-8,300	-0,141	-0,067
-165,066	-200,000	-0,007	-0,088
-164,052	-160,111	-0,135	0,005
-163,037	-200,000	0,019	0,062
-162,023	137,786	0,045	0,042
-161,008	172,705	0,136	0,139
-159,993	34,392	-0,053	-0,033
-158,979	800,000	0,061	-0,156
-157,964	-46,566	-0,078	-0,027
-156,950	-138,969	-0,050	-0,004
-155,935	261,849	0,104	-0,129
-154,920	73,177	0,165	0,122
-153,906	-62,847	-0,077	0,023
-152,891	-76,727	-0,058	0,014
-151,877	27,039	-0,071	-0,042
-150,862	800,000	0,025	-0,057
-149,847	-200,000	0,008	-0,047
-148,833	-200,000	0,001	-0,029
-147,818	-130,488	-0,081	-0,008
-146,804	-200,000	0,006	-0,046
-145,789	48,973	0,062	0,042
-144,775	-147,606	0,020	0,001
-143,760	-200,000	0,022	-0,072
-142,745	-200,000	0,011	-0,083
-141,731	336,540	0,048	0,067
-140,716	201,009	0,088	-0,096
-139,702	82,371	0,114	0,088
-138,687	-200,000	-0,010	0,084
-137,672	762,010	0,031	-0,061
-136,658	-200,000	-0,021	0,077
-135,643	102,378	-0,028	-0,023
-134,629	-200,000	-0,009	-0,090
-133,614	-117,452	0,017	0,002
-132,599	-200,000	-0,000	-0,041
-131,585	305,140	-0,047	-0,062
-130,570	800,000	-0,026	-0,057
-129,556	259,952	-0,048	-0,059
-128,541	-12,262	-0,126	-0,058
-127,526	56,233	0,049	0,034
-126,512	17,625	-0,040	-0,022
-125,497	-67,399	-0,059	-0,016
-124,483	658,195	0,024	0,045
-123,468	-169,695	-0,122	0,003
-122,453	-200,000	-0,005	-0,071
-121,439	-15,331	0,169	0,076
-120,424	8,347	-0,046	0,024
-119,410	-200,000	0,016	-0,136
-118,395	800,000	0,021	-0,044
-117,380	800,000	0,007	0,015
-116,366	-181,267	-0,136	-0,002
-115,351	-200,000	-0,018	-0,063
-114,337	-49,472	0,060	0,020
-113,322	65,897	-0,099	0,072
-112,307	-200,000	-0,002	-0,050
-111,293	-44,853	0,054	-0,019
-110,278	-33,846	0,012	0,005
-109,264	-63,059	0,035	0,010
-108,249	-99,007	0,078	-0,014
-107,234	800,000	0,025	0,077
-106,220	-200,000	0,009	-0,034
-105,205	800,000	0,029	-0,064
-104,191	-22,866	0,027	0,011
-103,176	-61,626	0,069	0,020
-102,162	5,428	-0,084	0,044
-101,147	693,352	-0,039	0,073
-100,132	-75,326	-0,084	-0,021
-99,118	-138,726	-0,073	0,006
-98,103	81,164	-0,079	0,060
-97,089	-97,158	-0,029	0,005
-96,074	69,506	0,072	0,053
-95,059	-200,000	0,028	0,119
-94,045	485,708	0,055	-0,090
-93,030	535,468	0,060	-0,102
-92,016	-200,000	0,006	-0,109
-91,001	23,350	-0,118	0,069
-89,986	-129,122	0,138	0,013
-88,972	110,477	0,098	-0,083
-87,957	-200,000	0,011	-0,100
-86,943	800,000	0,031	0,073
-85,928	173,306	-0,151	-0,155
-84,913	-200,000	-0,033	-0,209
-83,899	800,000	-0,085	0,190
-82,884	800,000	0,022	0,062
-81,870	-200,000	0,032	-0,153
-80,855	37,595	-0,130	0,081
-79,840	-19,779	0,055	0,024
-78,826	-200,000	0,010	0,085
-77,811	686,626	-0,015	-0,029
-76,797	175,134	-0,082	-0,085
-75,782	-129,332	-0,103	-0,010
-74,767	674,989	0,040	0,073
-73,753	47,183	-0,095	0,063
-72,738	-200,000	-0,006	-0,092
-71,724	-57,170	-0,078	0,024
-70,709	249,495	0,085	-0,102
-69,694	-80,048	-0,127	-0,030
-68,680	7,789	-0,024	-0,013
-67,665	-200,000	-0,002	0,070
-66,651	128,326	-0,120	0,109
-65,636	42,492	0,032	-0,020
-64,622	75,991	-0,045	0,034
-63,607	800,000	0,025	-0,075
-62,592	-116,356	-0,071	0,009
-61,578	-200,000	0,009	0,078
-60,563	546,766	-0,078	0,133
-59,549	800,000	-0,026	0,072
-58,534	-9,538	-1,546	-0,728
-57,519	411,604	-1,387	-2,093
-56,505	-200,000	-0,356	-4,512
-55,490	159,746	1,007	0,994
-54,476	800,000	4,905	11,249
-53,461	-200,000	18,646	303,326
-52,446	800,000	736,238	2288,856
-51,432	566,952	1652,498	2852,822
-50,417	78,866	1669,064	1264,091
-49,403	22,117	1541,862	889,131
-48,388	15,995	1464,870	814,997
-47,373	17,773	1454,833	817,970
-46,359	16,904	1445,160	808,329
-45,344	14,242	1440,377	792,882
-44,330	14,162	1438,422	791,392
-43,315	14,210	1436,470	790,517
-42,300	14,168	1434,984	789,467
-41,286	14,213	1433,702	788,946
-40,271	14,145	1432,631	788,002
-39,257	14,177	1431,210	787,339
-38,242	14,246	1429,940	786,936
-37,227	14,235	1428,868	786,263
-36,213	14,255	1427,278	785,451
-35,198	14,211	1426,448	784,758
-34,184	14,243	1425,379	784,289
-33,169	14,189	1423,977	783,229
-32,154	14,231	1423,176	782,957
-31,140	14,240	1421,582	782,094
-30,125	14,298	1420,376	781,673
-29,111	14,255	1419,300	780,844
-28,096	14,217	1418,399	780,141
-27,082	14,155	1417,464	779,304
-26,067	14,126	1416,467	778,585
-25,052	14,182	1415,187	778,114
-24,038	14,100	1414,376	777,252
-23,023	14,134	1413,222	776,746
-22,009	14,147	1412,185	776,207
-20,994	14,121	1411,311	775,576
-19,979	14,094	1410,479	774,960
-18,965	14,073	1409,417	774,248
-17,950	14,085	1408,576	773,811
-16,936	14,070	1407,566	773,158
-15,921	14,041	1406,509	772,410
-14,906	14,049	1405,635	771,937
-13,892	14,075	1404,636	771,480
-12,877	14,048	1403,864	770,898
-11,863	14,009	1402,960	770,187
-10,848	14,047	1401,958	769,785
-9,833	14,035	1401,067	769,207
-8,819	13,958	1400,324	768,414
-7,804	13,942	1399,115	767,646
-6,790	13,949	1398,297	767,199
-5,775	13,950	1397,166	766,551
-4,760	13,913	1396,268	765,855
-3,746	13,973	1395,433	765,644
-2,731	13,939	1394,722	765,067
-1,717	13,935	1393,704	764,461
-0,702	13,895	1392,074	763,353
0,313	17,766	1310,521	736,565
1,327	34,088	706,288	434,811
2,342	52,483	124,145	83,766
3,356	2,705	16,626	8,506
4,371	22,192	3,163	1,823
5,386	-23,834	0,595	0,251
6,400	278,547	0,164	0,207
7,415	-10,312	-0,256	-0,120
8,429	-57,834	-0,333	-0,103
9,444	13,869	-0,265	-0,145
10,459	-164,279	-0,337	-0,011
11,473	-132,074	-0,287	-0,026
12,488	-18,643	-0,409	-0,180
13,502	-12,735	-0,330	-0,152
14,517	64,444	-0,333	-0,237
15,531	34,676	-0,298	-0,184
16,546	-42,889	-0,404	-0,144
17,561	286,564	-0,304	-0,388
18,575	15,854	-0,286	-0,159
19,590	536,947	-0,236	-0,398
20,604	39,643	-0,265	-0,168
21,619	196,513	-0,501	-0,540
22,634	-24,194	-0,447	-0,188
23,648	7,250	-0,464	-0,244
24,663	50,964	-0,383	-0,256
25,677	37,609	-0,401	-0,251
26,692	77,663	-0,295	-0,222
27,707	-0,163	-0,328	-0,164
28,721	14,024	-0,355	-0,195
29,736	-31,373	-0,451	-0,178
30,750	279,676	-0,366	-0,462
31,765	60,126	-0,334	-0,233
32,780	169,967	-0,372	-0,376
33,794	115,645	-0,292	-0,252
34,809	71,668	-0,363	-0,266
35,823	187,968	-0,288	-0,304
36,838	58,773	-0,417	-0,289
37,853	165,540	-0,350	-0,350
38,867	190,026	-0,353	-0,375
39,882	30,675	-0,362	-0,218
40,896	797,255	-0,171	-0,334
41,911	-5,459	-0,480	-0,232
42,926	21,013	-0,364	-0,207
43,940	70,436	-0,308	-0,225
44,955	18,665	-0,352	-0,198
45,969	65,740	-0,372	-0,266
46,984	56,409	-0,291	-0,199
47,999	31,974	-0,367	-0,222
49,013	145,730	-0,366	-0,346
50,028	325,858	-0,186	-0,251
51,042	410,415	-0,273	-0,409
52,057	68,714	-0,286	-0,207
53,071	74,091	-0,307	-0,227
54,086	124,661	-0,395	-0,350
55,101	170,894	-0,221	-0,223
56,115	-10,763	-0,373	-0,173
57,130	-7,586	-0,378	-0,180
58,144	142,795	-0,369	-0,345
59,159	-21,452	-0,582	-0,249
60,174	46,934	-0,421	-0,275
61,188	238,621	-0,256	-0,300
62,203	32,387	-0,359	-0,218
63,217	25,807	-0,313	-0,183
64,232	-89,292	-0,279	-0,057
65,247	31,031	-0,428	-0,257
66,261	-35,758	-0,204	-0,077
67,276	91,149	-0,303	-0,239
68,290	-61,825	-0,388	-0,114
69,305	79,616	-0,354	-0,267
70,320	-0,296	-0,357	-0,178
71,334	-51,016	-0,451	-0,148
72,349	-24,120	-0,345	-0,145
73,363	39,116	-0,415	-0,261
74,378	109,313	-0,271	-0,228
75,393	11,378	-0,254	-0,136
76,407	-70,802	-0,252	-0,066
77,422	36,871	-0,275	-0,171
78,436	-31,634	-0,300	-0,118
79,451	131,000	-0,360	-0,325
80,466	12,317	-0,363	-0,196
81,480	357,756	-0,184	-0,259
82,495	-32,150	-0,263	-0,103
83,509	-99,428	-0,303	-0,053
84,524	71,781	-0,257	-0,187
85,539	-31,567	-0,378	-0,149
86,553	215,564	-0,163	-0,182
87,568	171,076	-0,274	-0,276
88,582	201,280	-0,323	-0,349
89,597	54,917	-0,256	-0,173
90,611	514,739	-0,222	-0,365
91,626	115,109	-0,068	-0,058
92,641	-75,231	-0,293	-0,073
93,655	42,321	-0,278	-0,177
94,670	43,213	-0,300	-0,192
95,684	122,851	-0,314	-0,276
96,699	68,335	-0,251	-0,180
97,714	-13,771	-0,305	-0,138
98,728	46,974	-0,250	-0,163
99,743	230,465	-0,276	-0,318
100,757	-45,943	-0,345	-0,119
101,772	43,693	-0,281	-0,180
102,787	107,410	-0,410	-0,342
103,801	29,235	-0,327	-0,195
104,816	-49,380	-0,293	-0,098
105,830	-152,271	-0,203	-0,010
106,845	25,761	-0,209	-0,122
107,860	-86,479	-0,281	-0,060
108,874	83,439	-0,296	-0,226
109,889	77,791	-0,232	-0,173
110,903	90,490	-0,221	-0,173
111,918	35,679	-0,190	-0,117
112,933	255,379	-0,234	-0,282
113,947	9,143	-0,362	-0,191
114,962	19,977	-0,199	-0,112
115,976	800,000	-0,103	-0,287
116,991	-30,280	-0,171	-0,068
118,006	56,333	-0,249	-0,169
119,020	71,681	-0,229	-0,166
120,035	800,000	-0,142	-0,316
121,049	13,058	-0,237	-0,128
122,064	170,892	-0,238	-0,239
123,079	18,427	-0,275	-0,154
124,093	97,865	-0,248	-0,200
125,108	42,293	-0,372	-0,236
126,122	8,144	-0,261	-0,137
127,137	-200,000	-0,035	-0,245
128,151	64,190	-0,241	-0,170
129,166	-97,103	-0,310	-0,056
130,181	-139,470	-0,262	0,019
131,195	707,135	-0,115	-0,214
132,210	76,660	-0,376	-0,279
133,224	56,015	-0,244	-0,165
134,239	52,705	-0,225	-0,150
135,254	-90,901	-0,268	-0,054
136,268	-196,423	-0,247	-0,001
137,283	300,227	-0,112	-0,145
138,297	154,972	-0,239	-0,230
139,312	28,339	-0,262	-0,155
140,327	30,913	-0,294	-0,176
141,341	181,651	-0,187	-0,192
142,356	5,191	-0,215	-0,111
143,370	322,038	-0,104	-0,138
144,385	733,377	-0,115	-0,217
145,400	26,388	-0,328	-0,191
146,414	-10,600	-0,272	-0,125
147,429	163,535	-0,242	-0,238
148,443	83,380	-0,233	-0,177
149,458	-57,420	-0,274	-0,084
150,473	-55,166	-0,340	-0,106
151,487	228,430	-0,187	-0,213
152,502	73,718	-0,169	-0,123
153,516	-1,779	-0,331	-0,162
154,531	180,911	-0,272	-0,279
155,546	-11,103	-0,270	-0,124
156,560	563,360	-0,183	-0,311
157,575	-72,123	-0,256	-0,066
158,589	102,441	-0,167	-0,136
159,604	328,912	-0,142	-0,191
160,619	800,000	-0,145	-0,281
161,633	54,295	-0,270	-0,181
162,648	297,561	-0,187	-0,240
163,662	186,833	-0,141	-0,147
164,677	57,348	-0,206	-0,140
165,692	365,096	-0,130	-0,183
166,706	712,130	-0,149	-0,277
167,721	121,737	-0,278	-0,242
168,735	52,145	-0,275	-0,183
169,750	52,007	-0,279	-0,185
170,764	111,225	-0,305	-0,256
171,779	1,963	-0,296	-0,149
172,794	28,856	-0,242	-0,143
173,808	29,149	-0,174	-0,103
174,823	-45,511	-0,266	-0,091
175,837	127,282	-0,175	-0,155
176,852	-119,087	-0,261	-0,031
177,867	182,173	-0,217	-0,223
178,881	132,758	-0,150	-0,135
179,896	-88,070	-0,157	-0,033
180,910	31,016	-0,156	-0,093
181,925	350,411	-0,196	-0,271
182,940	49,253	-0,299	-0,195
183,954	-91,813	-0,344	-0,068
184,969	-38,901	-0,231	-0,084
185,983	-87,531	-0,267	-0,056
186,998	559,235	-0,090	-0,152
188,013	44,137	-0,212	-0,135
189,027	98,775	-0,132	-0,106
190,042	-22,734	-0,303	-0,127
191,056	181,159	-0,188	-0,193
192,071	800,000	-0,103	-0,246
193,086	158,068	-0,203	-0,196
194,100	-14,845	-0,158	-0,070
195,115	16,544	-0,181	-0,100
196,129	-27,516	-0,313	-0,126
197,144	-3,930	-0,160	-0,077
198,159	-17,209	-0,259	-0,113
199,173	-145,617	-0,203	0,012
200,188	105,917	-0,167	-0,138
201,202	232,321	-0,149	-0,171
202,217	-49,406	-0,235	-0,077
203,232	-44,451	-0,224	-0,077
204,246	237,607	-0,172	-0,199
205,261	71,513	-0,136	-0,098
206,275	476,196	-0,106	-0,167
207,290	468,027	-0,064	-0,100
208,304	-19,992	-0,216	-0,092
209,319	81,598	-0,210	-0,158
210,334	115,460	-0,293	-0,249
211,348	148,088	-0,213	-0,200
212,363	104,068	-0,327	-0,267
213,377	-90,552	-0,217	-0,043
214,392	-12,801	-0,132	-0,060
215,407	162,560	-0,081	-0,079
216,421	-200,000	-0,025	-0,130
217,436	-200,000	-0,059	-0,190
218,450	127,812	-0,199	-0,176
219,465	-0,118	-0,268	-0,132
220,480	-116,262	-0,202	-0,026
221,494	230,224	-0,186	-0,212
222,509	-27,259	-0,091	-0,037
223,523	283,292	-0,097	-0,121
224,538	437,345	-0,161	-0,244
225,553	-30,515	-0,294	-0,115
226,567	-94,688	-0,122	-0,023
227,582	171,489	-0,165	-0,165
228,596	800,000	-0,062	-0,187
229,611	656,210	-0,072	-0,129
230,626	90,236	-0,206	-0,160
231,640	413,530	-0,164	-0,242
232,655	-121,842	-0,297	-0,034
233,669	800,000	-0,095	-0,191
234,684	127,288	-0,126	-0,111
235,699	-123,353	-0,192	-0,021
236,713	57,735	-0,198	-0,134
237,728	-24,498	-0,273	-0,112
238,742	139,819	-0,206	-0,189
239,757	-199,071	-0,314	-0,001
240,772	48,944	-0,301	-0,196
241,786	554,415	-0,101	-0,169
242,801	-184,062	-0,199	0,002
243,815	800,000	-0,080	-0,184
244,830	-71,557	-0,330	-0,085
245,844	63,426	-0,130	-0,090
246,859	132,336	-0,234	-0,209
247,874	57,939	-0,227	-0,154
248,888	800,000	-0,145	-0,364
249,903	800,000	-0,073	-0,193
250,917	-18,064	-0,133	0,058
251,932	-138,108	-0,159	0,012
252,947	-72,963	-0,143	-0,036
253,961	390,712	-0,117	-0,168
254,976	-200,000	-0,089	-0,337
255,990	800,000	-0,078	-0,150
257,005	-85,716	-0,198	-0,042
258,020	-116,691	-0,097	0,012
259,034	-79,050	-0,138	-0,032
260,049	226,893	-0,106	-0,119
261,063	42,067	-0,202	-0,126
262,078	763,111	-0,098	-0,184
263,093	115,887	-0,160	-0,135
264,107	42,325	-0,138	-0,087
265,122	111,258	-0,204	-0,170
266,136	48,503	-0,105	-0,068
267,151	800,000	-0,075	-0,173
268,166	157,936	-0,151	-0,145
269,180	-49,847	-0,212	-0,069
270,195	102,963	-0,219	-0,177
271,209	282,832	-0,136	-0,169
272,224	34,193	-0,139	-0,084
273,239	-5,311	-0,167	-0,079
274,253	33,193	-0,214	-0,128
275,268	-200,000	-0,033	-0,185
276,282	166,536	-0,204	-0,200
277,297	-200,000	-0,025	-0,120
278,312	63,684	-0,214	-0,148
279,326	180,860	-0,066	-0,067
280,341	-111,788	-0,258	-0,036
281,355	77,016	-0,133	-0,097
282,370	635,423	-0,130	-0,228
283,384	-26,912	-0,186	-0,075
284,399	66,555	-0,135	-0,095
285,414	219,751	-0,220	-0,244
286,428	-5,240	-0,096	-0,046
287,443	800,000	-0,072	-0,161
288,457	-200,000	0,010	-0,199
289,472	229,020	-0,158	-0,178
290,487	172,838	-0,134	-0,134
291,501	-87,322	-0,143	-0,030
292,516	-49,683	-0,209	-0,068
293,530	589,993	-0,103	-0,176
294,545	115,294	0,028	-0,023
295,560	-33,209	-0,111	-0,042
296,574	31,804	-0,194	-0,115
297,589	242,220	-0,108	-0,125
298,603	-200,000	-0,025	-0,173
299,618	-200,000	-0,076	-0,270
300,633	158,194	-0,081	-0,078
301,647	-200,000	-0,013	-0,113
302,662	245,015	-0,026	-0,030
303,676	800,000	-0,025	-0,067
304,691	470,407	-0,089	-0,139
305,706	127,015	-0,085	-0,074
306,720	23,158	-0,084	-0,048
307,735	-32,450	-0,127	0,048
308,749	208,004	-0,114	-0,123
309,764	-70,201	-0,180	-0,047
310,779	-200,000	0,004	-0,101
311,793	63,813	-0,194	-0,134
312,808	55,891	-0,206	-0,138
313,822	800,000	-0,082	-0,160
314,837	182,750	-0,159	-0,161
315,852	163,226	-0,100	-0,097
316,866	69,669	-0,102	-0,072
317,881	305,289	-0,063	-0,081
318,895	800,000	-0,114	-0,301
319,910	193,653	-0,103	-0,108
320,925	429,103	-0,122	-0,181
321,939	-194,990	-0,122	0,001
322,954	-16,384	-0,144	-0,062
323,968	-120,764	-0,164	-0,019
324,983	-116,207	-0,133	-0,017
325,997	800,000	-0,079	-0,158
327,012	800,000	-0,062	-0,185
328,027	153,886	-0,186	-0,176
329,041	-48,323	-0,286	-0,094
330,056	-1,179	-0,145	-0,070
331,070	800,000	-0,067	-0,136
332,085	24,324	-0,078	0,044
333,100	-59,753	-0,105	0,031
334,114	-52,018	-0,029	-0,009
335,129	60,221	-0,182	-0,123
336,143	-24,193	-0,221	-0,090
337,158	-30,498	-0,125	-0,049
338,173	75,352	-0,107	-0,078
339,187	-57,539	-0,246	-0,074
340,202	651,724	-0,180	-0,318
341,216	800,000	-0,060	-0,135
342,231	-35,066	-0,075	-0,028
343,246	41,538	-0,114	-0,071
344,260	-70,182	-0,093	-0,024
345,275	-200,000	-0,008	-0,043
346,289	-86,151	-0,147	0,031
347,304	-116,578	-0,147	-0,018
348,319	97,847	-0,177	-0,140
349,333	3,864	-0,180	-0,090
350,348	-141,382	-0,169	-0,012
351,362	-84,201	0,044	-0,009
352,377	171,008	-0,107	-0,106
353,392	-8,935	-0,162	-0,074
354,406	297,362	-0,056	0,071
355,421	209,025	1311,477	1411,112
356,435	160,862	1471,801	1411,613
