DTS Sentinel unit serial number:	SN410029Multiplexer serial number:	ORYXHardware model number:	OX2-SRSoftware version number:	ORYX F/W v4,00 Oryx Data Collector v3.7.2.0data status	okinstallation	B3 Nyhavnadifferential loss correction	single-endedforward channel	channel 1reverse channel	N/Adate	2023/12/04time	23:52:30forward acquisition time	300,00reverse acquisition time	0,00gamma	499,1914k internal	0,3200k external	0,3200temperature offset calibration	1,0000default loss term (dB/km)	0,3820temperature slope calibration	1,0000multiplexer offset coefficient	1,0000multiplexer slope coefficient	1,0000fibre end	0,00T internal ref (°C)	14,06T ext. ref 1 (°C)	-1,27T ext. ref 2 (°C)	-1,28length (m)	temperature (°C)	Stokes	anti-Stokes-744,400	800,000	-0,157	-0,332
-743,385	-200,000	-0,004	0,343
-742,371	800,000	-0,117	-0,293
-741,356	800,000	0,110	0,313
-740,342	522,081	-0,064	-0,109
-739,327	-200,000	0,020	0,257
-738,312	129,329	-0,209	-0,194
-737,298	-200,000	0,043	0,203
-736,283	204,669	-0,248	-0,280
-735,269	350,764	0,232	0,334
-734,254	235,358	-0,235	-0,283
-733,239	-30,459	-0,195	-0,080
-732,225	436,722	-0,141	-0,224
-731,210	58,985	0,186	0,133
-730,196	135,579	0,064	-0,060
-729,181	-200,000	0,002	0,015
-728,167	-123,013	-0,073	-0,008
-727,152	-200,000	-0,030	0,098
-726,137	-200,000	-0,016	-0,113
-725,123	71,042	-0,012	-0,009
-724,108	74,644	-0,148	-0,113
-723,094	800,000	0,014	0,035
-722,079	800,000	0,001	0,002
-721,064	-35,627	0,161	-0,063
-720,050	800,000	-0,020	-0,042
-719,035	396,260	-0,064	-0,098
-718,021	12,507	0,065	-0,036
-717,006	-200,000	-0,042	-0,195
-715,991	-38,903	-0,067	-0,025
-714,977	287,891	-0,057	-0,075
-713,962	-200,000	-0,014	-0,048
-712,948	161,484	-0,043	-0,044
-711,933	800,000	0,023	-0,058
-710,918	-200,000	-0,002	0,024
-709,904	-20,755	-0,046	-0,020
-708,889	37,996	-0,079	-0,051
-707,875	-200,000	-0,013	-0,052
-706,860	72,073	-0,036	-0,027
-705,845	273,326	-0,016	0,021
-704,831	-4,605	0,053	-0,026
-703,816	-86,163	-0,110	-0,024
-702,802	-106,613	0,126	-0,020
-701,787	153,351	0,053	-0,053
-700,772	122,031	-0,021	-0,019
-699,758	-200,000	-0,006	-0,047
-698,743	40,315	-0,006	0,004
-697,729	722,258	0,089	0,173
-696,714	-200,000	0,021	0,145
-695,699	800,000	0,062	-0,136
-694,685	136,959	-0,130	-0,123
-693,670	800,000	-0,048	-0,120
-692,656	0,329	-0,131	-0,067
-691,641	159,124	-0,061	-0,061
-690,627	-169,432	-0,049	0,001
-689,612	800,000	0,040	-0,086
-688,597	14,020	-0,110	0,062
-687,583	-34,602	0,086	-0,034
-686,568	18,926	-0,123	-0,071
-685,554	9,864	0,120	0,066
-684,539	-200,000	0,030	-0,278
-683,524	244,725	0,084	-0,102
-682,510	-200,000	0,002	0,157
-681,495	50,580	-0,092	0,063
-680,481	800,000	0,054	-0,110
-679,466	111,256	-0,106	-0,093
-678,451	170,243	0,030	0,032
-677,437	-155,790	0,101	0,005
-676,422	-64,838	-0,050	0,015
-675,408	-145,076	0,074	-0,005
-674,393	-200,000	-0,004	-0,128
-673,378	8,399	-0,139	-0,076
-672,364	-200,000	0,012	-0,218
-671,349	26,962	0,088	-0,054
-670,335	-200,000	0,013	0,075
-669,320	800,000	0,050	0,128
-668,305	188,587	-0,017	0,018
-667,291	111,018	-0,023	0,020
-666,276	626,275	-0,096	-0,177
-665,262	-40,347	0,032	-0,012
-664,247	800,000	-0,049	0,109
-663,232	-68,265	-0,046	0,013
-662,218	354,242	0,032	-0,046
-661,203	-200,000	0,007	-0,036
-660,189	-38,318	0,126	-0,048
-659,174	224,162	0,050	0,059
-658,159	-200,000	0,005	0,128
-657,145	-81,567	0,081	-0,019
-656,130	-13,559	0,209	-0,098
-655,116	800,000	-0,020	0,061
-654,101	-200,000	-0,003	-0,028
-653,086	-200,000	0,018	0,092
-652,072	414,396	0,026	-0,040
-651,057	-75,443	0,144	-0,037
-650,043	800,000	-0,035	-0,073
-649,028	251,154	-0,040	-0,049
-648,014	147,334	0,045	0,044
-646,999	800,000	0,038	0,079
-645,984	-41,168	-0,067	-0,025
-644,970	-200,000	-0,008	-0,069
-643,955	800,000	-0,054	-0,160
-642,941	-200,000	-0,010	-0,066
-641,926	-200,000	0,001	-0,023
-640,911	34,249	0,011	0,007
-639,897	31,609	0,101	0,063
-638,882	-58,918	-0,073	0,023
-637,868	-63,888	-0,114	0,034
-636,853	40,074	-0,120	-0,078
-635,838	-78,593	-0,209	-0,051
-634,824	164,070	-0,024	-0,025
-633,809	-200,000	0,031	0,184
-632,795	800,000	-0,031	-0,083
-631,780	26,218	-0,106	-0,064
-630,765	800,000	-0,047	-0,098
-629,751	524,850	-0,117	-0,200
-628,736	-35,666	-0,030	-0,012
-627,722	-200,000	-0,013	-0,085
-626,707	-97,412	0,137	0,026
-625,692	435,227	0,049	0,078
-624,678	-200,000	-0,009	-0,172
-623,663	-200,000	0,010	0,058
-622,649	-27,957	-0,201	0,084
-621,634	-200,000	0,000	-0,063
-620,619	-200,000	0,025	-0,098
-619,605	800,000	-0,021	-0,049
-618,590	-200,000	0,006	0,033
-617,576	-200,000	-0,010	0,095
-616,561	-21,621	0,079	-0,035
-615,546	-16,161	-0,047	-0,022
-614,532	-200,000	0,006	-0,112
-613,517	70,447	-0,096	-0,072
-612,503	-200,000	-0,026	0,094
-611,488	-53,708	0,109	0,036
-610,474	800,000	-0,087	0,186
-609,459	-7,904	-0,039	-0,019
-608,444	-200,000	0,009	0,043
-607,430	-200,000	-0,015	0,054
-606,415	202,497	-0,110	-0,123
-605,401	33,756	-0,152	0,095
-604,386	39,936	0,072	0,047
-603,371	5,402	-0,062	-0,033
-602,357	-3,139	-0,036	0,018
-601,342	95,074	0,020	0,017
-600,328	-24,831	-0,032	-0,014
-599,313	-200,000	0,038	0,192
-598,298	39,741	-0,129	0,084
-597,284	-200,000	-0,015	0,094
-596,269	11,482	0,094	0,052
-595,255	59,364	-0,057	-0,041
-594,240	79,145	-0,101	-0,078
-593,225	177,565	0,093	-0,099
-592,211	-112,161	-0,034	0,005
-591,196	800,000	0,022	-0,062
-590,182	-56,111	-0,068	-0,022
-589,167	83,555	0,032	0,025
-588,152	131,095	0,006	0,005
-587,138	276,539	-0,045	-0,058
-586,123	-74,221	-0,046	-0,012
-585,109	800,000	-0,054	0,122
-584,094	-101,508	0,090	-0,016
-583,079	800,000	0,013	-0,033
-582,065	596,960	0,083	0,150
-581,050	-200,000	0,039	0,171
-580,036	800,000	0,068	0,169
-579,021	-10,048	-0,080	0,039
-578,006	330,672	-0,069	-0,096
-576,992	800,000	0,037	0,106
-575,977	-39,292	0,094	-0,036
-574,963	354,915	0,067	-0,096
-573,948	-42,771	-0,127	0,046
-572,934	-119,970	0,079	0,010
-571,919	417,398	0,030	-0,046
-570,904	-70,997	0,026	0,007
-569,890	300,150	-0,051	-0,068
-568,875	-65,782	0,236	-0,068
-567,861	-200,000	0,027	0,147
-566,846	-68,000	0,150	-0,042
-565,831	-88,459	0,075	-0,016
-564,817	800,000	0,049	-0,107
-563,802	800,000	0,024	-0,069
-562,788	47,188	-0,086	-0,058
-561,773	104,995	-0,051	0,044
-560,758	436,351	0,056	-0,089
-559,744	68,214	0,077	0,057
-558,729	187,655	0,050	-0,054
-557,715	-200,000	-0,004	0,064
-556,700	-200,000	-0,008	-0,105
-555,685	425,026	-0,103	-0,161
-554,671	-79,333	0,201	-0,049
-553,656	-200,000	-0,031	0,171
-552,642	800,000	0,066	0,137
-551,627	800,000	0,057	-0,141
-550,612	97,976	-0,070	-0,058
-549,598	800,000	0,026	-0,060
-548,583	132,711	-0,155	-0,145
-547,569	800,000	-0,031	0,072
-546,554	462,785	-0,046	0,074
-545,539	-80,921	0,051	-0,012
-544,525	-200,000	0,001	-0,033
-543,510	32,053	0,056	-0,035
-542,496	800,000	-0,033	0,068
-541,481	0,326	0,100	-0,051
-540,466	800,000	-0,046	-0,136
-539,452	-168,009	-0,049	-0,001
-538,437	-200,000	0,015	0,129
-537,423	800,000	-0,043	-0,115
-536,408	-133,530	0,028	0,002
-535,393	-1,139	-0,032	0,016
-534,379	-200,000	-0,018	-0,142
-533,364	137,866	-0,035	0,033
-532,350	-138,168	-0,035	-0,003
-531,335	-80,243	0,208	-0,050
-530,321	359,120	-0,028	-0,040
-529,306	-48,642	0,094	-0,032
-528,291	800,000	-0,063	-0,133
-527,277	249,680	-0,035	-0,043
-526,262	141,935	0,056	-0,054
-525,248	-200,000	0,024	-0,087
-524,233	-200,000	0,018	-0,146
-523,218	338,897	0,010	-0,014
-522,204	19,601	0,068	-0,039
-521,189	-122,707	-0,011	0,001
-520,175	-200,000	0,025	0,116
-519,160	670,339	0,030	-0,057
-518,145	-200,000	0,011	0,035
-517,131	-33,593	0,111	0,044
-516,116	-200,000	-0,018	0,155
-515,102	-200,000	-0,028	-0,135
-514,087	350,232	0,106	-0,151
-513,072	-86,701	-0,037	-0,008
-512,058	-20,788	-0,043	-0,019
-511,043	531,650	-0,066	-0,112
-510,029	289,260	0,016	-0,020
-509,014	78,579	0,043	-0,033
-507,999	25,309	0,058	0,035
-506,985	800,000	0,032	0,093
-505,970	713,584	-0,046	-0,088
-504,956	-103,287	-0,087	0,015
-503,941	51,490	-0,056	0,038
-502,926	67,157	0,094	-0,069
-501,912	550,752	0,042	0,074
-500,897	167,492	-0,025	-0,025
-499,883	89,613	0,016	-0,013
-498,868	49,525	-0,097	0,065
-497,853	-200,000	0,026	-0,153
-496,839	-200,000	-0,003	-0,015
-495,824	494,358	0,040	0,066
-494,810	595,051	0,015	0,027
-493,795	182,439	0,004	-0,005
-492,781	118,185	-0,065	0,058
-491,766	751,582	0,010	-0,019
-490,751	29,770	-0,044	-0,027
-489,737	-200,000	-0,001	-0,024
-488,722	-200,000	0,004	0,015
-487,708	503,022	-0,027	0,044
-486,693	-170,329	0,058	0,001
-485,678	-105,821	0,068	0,011
-484,664	-200,000	0,008	-0,073
-483,649	800,000	0,030	-0,068
-482,635	-17,202	0,230	-0,104
-481,620	-200,000	-0,009	0,040
-480,605	-127,120	0,114	-0,012
-479,591	-100,186	0,102	-0,018
-478,576	800,000	-0,001	-0,003
-477,562	344,215	0,062	-0,088
-476,547	-64,069	-0,102	-0,030
-475,532	89,613	-0,055	-0,044
-474,518	138,705	0,055	0,052
-473,503	-200,000	-0,007	0,079
-472,489	-200,000	0,004	0,231
-471,474	-112,832	0,158	-0,022
-470,459	72,050	-0,071	-0,053
-469,445	-200,000	0,005	-0,066
-468,430	-46,249	-0,046	-0,016
-467,416	-200,000	-0,022	-0,072
-466,401	22,081	-0,068	0,040
-465,386	18,507	-0,144	0,082
-464,372	-10,076	0,084	-0,040
-463,357	-42,640	0,057	0,021
-462,343	151,957	0,027	-0,026
-461,328	-66,637	0,097	0,027
-460,313	281,547	0,028	0,036
-459,299	-200,000	0,013	0,132
-458,284	206,894	0,091	-0,102
-457,270	659,624	0,033	0,061
-456,255	-30,218	0,124	0,051
-455,241	228,894	-0,054	0,063
-454,226	496,886	0,011	-0,019
-453,211	17,221	0,026	-0,015
-452,197	-17,168	-0,110	0,050
-451,182	-200,000	0,005	0,030
-450,168	-106,712	-0,054	0,009
-449,153	800,000	-0,046	0,135
-448,138	304,727	0,033	0,044
-447,124	225,022	0,045	0,052
-446,109	37,504	-0,097	-0,062
-445,095	1,198	0,151	-0,078
-444,080	800,000	0,043	0,102
-443,065	28,707	0,051	0,031
-442,051	800,000	-0,096	0,268
-441,036	800,000	0,045	-0,094
-440,022	-200,000	-0,016	0,109
-439,007	248,980	-0,068	-0,083
-437,992	-93,457	-0,071	0,014
-436,978	386,444	0,087	0,129
-435,963	211,050	0,095	-0,107
-434,949	-200,000	0,001	0,082
-433,934	111,813	0,113	-0,098
-432,919	800,000	-0,015	-0,040
-431,905	500,675	0,026	0,043
-430,890	16,496	0,038	-0,022
-429,876	33,434	-0,007	0,004
-428,861	51,473	-0,083	0,056
-427,846	-33,166	-0,122	0,048
-426,832	151,448	-0,127	0,124
-425,817	478,161	0,032	0,052
-424,803	-200,000	-0,012	0,052
-423,788	635,229	0,047	0,085
-422,773	-200,000	0,023	-0,170
-421,759	-200,000	-0,014	0,054
-420,744	-200,000	-0,011	-0,268
-419,730	-200,000	0,016	-0,053
-418,715	-81,663	-0,028	0,006
-417,701	184,413	-0,097	-0,104
-416,686	316,116	0,065	-0,088
-415,671	352,417	0,041	-0,058
-414,657	-200,000	-0,015	-0,091
-413,642	-56,682	0,129	-0,041
-412,628	-200,000	-0,011	-0,080
-411,613	-200,000	-0,013	-0,106
-410,598	-87,722	0,092	-0,020
-409,584	-200,000	0,028	0,137
-408,569	-200,000	-0,045	0,181
-407,555	-200,000	0,019	-0,089
-406,540	755,036	0,050	0,097
-405,525	-200,000	0,011	0,038
-404,511	134,538	0,043	0,040
-403,496	-2,640	0,053	0,026
-402,482	-200,000	0,017	0,116
-401,467	176,117	-0,047	-0,049
-400,452	-47,604	0,113	0,039
-399,438	-107,928	0,048	-0,007
-398,423	97,302	-0,146	-0,120
-397,409	-118,333	-0,094	0,012
-396,394	121,198	-0,056	0,050
-395,379	554,141	-0,027	-0,046
-394,365	47,359	0,105	-0,070
-393,350	-200,000	-0,017	0,080
-392,336	-200,000	0,017	0,170
-391,321	-170,927	-0,160	-0,004
-390,306	-200,000	-0,013	-0,119
-389,292	83,906	0,123	-0,096
-388,277	-77,854	-0,042	0,010
-387,263	-200,000	0,004	-0,022
-386,248	650,029	0,072	-0,133
-385,233	-143,127	-0,040	0,003
-384,219	10,306	-0,085	0,047
-383,204	277,000	0,095	-0,121
-382,190	-95,354	-0,148	-0,028
-381,175	-200,000	0,010	0,047
-380,160	-105,461	0,116	0,019
-379,146	716,293	0,046	0,089
-378,131	246,149	-0,089	0,108
-377,117	4,301	0,077	-0,040
-376,102	-40,385	-0,113	0,042
-375,088	253,485	-0,044	0,055
-374,073	-200,000	-0,003	-0,056
-373,058	208,933	0,121	-0,136
-372,044	38,336	0,071	0,045
-371,029	-13,870	0,179	0,083
-370,015	464,409	0,022	-0,035
-369,000	-200,000	0,014	-0,085
-367,985	-200,000	-0,008	-0,052
-366,971	326,907	-0,075	-0,104
-365,956	-162,305	0,036	0,001
-364,942	500,425	0,035	0,057
-363,927	-200,000	-0,031	0,151
-362,912	722,316	-0,018	-0,035
-361,898	485,995	0,023	0,038
-360,883	800,000	-0,045	0,095
-359,869	350,258	-0,093	-0,132
-358,854	542,169	0,082	-0,141
-357,839	223,915	0,043	0,050
-356,825	-114,120	0,080	-0,011
-355,810	30,323	0,094	0,057
-354,796	118,996	0,072	0,063
-353,781	-169,567	-0,134	0,003
-352,766	137,726	-0,043	-0,040
-351,752	800,000	0,029	-0,076
-350,737	-200,000	0,001	-0,018
-349,723	-122,790	-0,015	-0,002
-348,708	800,000	0,040	0,108
-347,693	-33,626	-0,076	0,030
-346,679	800,000	-0,052	-0,146
-345,664	45,614	-0,040	-0,026
-344,650	-50,758	-0,170	0,057
-343,635	-88,488	0,076	-0,016
-342,620	-42,945	0,140	0,051
-341,606	-200,000	-0,008	-0,055
-340,591	-167,807	-0,092	-0,003
-339,577	203,014	-0,052	0,058
-338,562	-67,066	-0,179	-0,050
-337,548	82,181	-0,047	0,036
-336,533	2,375	0,038	0,020
-335,518	800,000	0,065	0,199
-334,504	43,397	-0,094	0,061
-333,489	-51,655	-0,064	-0,021
-332,475	-1,888	-0,084	0,042
-331,460	800,000	0,030	-0,073
-330,445	-200,000	0,013	-0,085
-329,431	56,520	-0,073	0,050
-328,416	-200,000	0,013	0,090
-327,402	-13,509	0,063	0,029
-326,387	130,206	-0,062	0,056
-325,372	144,575	0,048	-0,046
-324,358	87,358	0,053	-0,042
-323,343	-105,187	-0,028	-0,005
-322,329	-200,000	0,009	0,031
-321,314	-200,000	0,000	0,006
-320,299	-121,412	0,055	0,007
-319,285	-63,232	-0,154	-0,045
-318,270	-166,753	0,114	-0,003
-317,256	800,000	0,020	-0,056
-316,241	-200,000	-0,015	0,152
-315,226	800,000	0,038	-0,103
-314,212	796,908	-0,019	0,038
-313,197	449,222	-0,061	0,096
-312,183	-45,111	0,199	0,070
-311,168	71,384	-0,132	-0,098
-310,153	209,781	-0,042	-0,047
-309,139	-200,000	-0,007	0,057
-308,124	800,000	-0,065	0,143
-307,110	208,252	-0,022	0,025
-306,095	500,426	-0,023	-0,038
-305,080	-200,000	0,005	0,020
-304,066	26,576	0,047	-0,028
-303,051	-200,000	0,013	0,162
-302,037	-33,596	-0,048	0,019
-301,022	36,691	-0,080	-0,050
-300,008	688,098	0,043	-0,081
-298,993	241,847	-0,071	0,085
-297,978	222,886	0,072	0,084
-296,964	212,155	0,035	-0,039
-295,949	-91,116	-0,124	-0,025
-294,935	-200,000	-0,006	-0,128
-293,920	313,201	-0,066	-0,089
-292,905	128,763	0,076	0,069
-291,891	-89,190	0,119	-0,025
-290,876	-103,251	0,190	-0,032
-289,862	285,949	-0,027	-0,035
-288,847	457,647	-0,034	0,054
-287,832	18,881	-0,151	0,086
-286,818	178,444	0,059	-0,062
-285,803	-149,609	0,071	0,004
-284,789	567,337	-0,069	0,120
-283,774	77,187	0,111	0,084
-282,759	-200,000	0,009	-0,076
-281,745	223,573	0,062	-0,072
-280,730	55,907	-0,132	0,091
-279,716	-107,905	0,165	0,025
-278,701	53,034	0,030	-0,021
-277,686	-65,197	0,088	0,025
-276,672	800,000	0,012	0,035
-275,657	724,620	-0,013	-0,024
-274,643	800,000	0,026	-0,054
-273,628	800,000	-0,025	-0,069
-272,613	376,018	0,030	0,044
-271,599	-200,000	-0,018	0,059
-270,584	-21,748	-0,072	0,031
-269,570	-65,159	0,095	-0,027
-268,555	66,555	-0,083	-0,060
-267,540	-46,445	-0,102	0,035
-266,526	-113,068	-0,174	-0,024
-265,511	275,670	0,112	-0,142
-264,497	800,000	0,027	-0,081
-263,482	22,984	0,088	-0,051
-262,467	-200,000	0,026	0,108
-261,453	83,224	-0,065	-0,051
-260,438	-200,000	0,026	-0,161
-259,424	800,000	-0,018	-0,043
-258,409	-166,061	-0,053	0,002
-257,395	-200,000	0,017	-0,060
-256,380	-200,000	0,000	0,034
-255,365	-57,901	0,072	0,022
-254,351	455,000	0,035	0,055
-253,336	53,637	-0,129	-0,088
-252,322	-103,649	0,026	0,004
-251,307	10,825	-0,044	0,024
-250,292	800,000	-0,041	0,107
-249,278	-115,768	0,192	0,025
-248,263	-200,000	-0,010	-0,046
-247,249	-111,701	-0,069	0,010
-246,234	229,349	-0,133	0,155
-245,219	800,000	-0,007	0,019
-244,205	800,000	-0,048	0,113
-243,190	-200,000	0,030	0,000
-242,176	-200,000	0,015	0,052
-241,161	75,089	0,030	0,023
-240,146	-190,304	0,053	0,000
-239,132	-20,587	-0,157	0,069
-238,117	142,641	-0,025	-0,024
-237,103	457,578	-0,036	0,057
-236,088	-113,551	0,104	-0,014
-235,073	-23,329	0,099	0,042
-234,059	105,233	-0,081	0,068
-233,044	11,764	-0,074	0,040
-232,030	-124,851	0,135	-0,015
-231,015	800,000	0,031	0,081
-230,000	-27,524	-0,086	0,036
-228,986	800,000	0,040	-0,106
-227,971	-49,300	0,122	0,041
-226,957	-171,295	0,086	-0,002
-225,942	28,560	-0,093	0,056
-224,927	24,564	-0,111	-0,065
-223,913	268,727	-0,025	-0,031
-222,898	-138,097	-0,129	0,010
-221,884	800,000	-0,061	0,163
-220,869	293,926	0,049	0,063
-219,855	-50,790	0,150	-0,050
-218,840	403,328	-0,014	0,021
-217,825	571,746	0,056	-0,097
-216,811	800,000	-0,040	-0,091
-215,796	-200,000	0,000	-0,082
-214,782	-14,180	-0,134	-0,061
-213,767	-52,264	0,049	-0,016
-212,752	259,939	-0,058	0,072
-211,738	201,675	0,164	0,180
-210,723	-200,000	-0,036	-0,119
-209,709	167,876	-0,038	-0,038
-208,694	-77,242	-0,031	-0,008
-207,679	-60,688	-0,076	-0,023
-206,665	-89,236	-0,101	0,021
-205,650	92,886	0,127	0,102
-204,636	31,404	-0,121	0,074
-203,621	41,439	0,123	-0,079
-202,606	-200,000	0,001	0,051
-201,592	-200,000	-0,020	-0,167
-200,577	-35,400	0,092	0,036
-199,563	800,000	-0,028	0,059
-198,548	-200,000	-0,022	0,122
-197,533	33,149	-0,093	-0,057
-196,519	108,155	0,051	0,044
-195,504	91,429	0,110	-0,088
-194,490	800,000	-0,030	-0,072
-193,475	8,488	-0,075	-0,040
-192,460	-97,037	0,045	0,008
-191,446	-200,000	0,015	0,106
-190,431	574,350	-0,053	0,093
-189,417	-2,206	0,004	-0,002
-188,402	800,000	-0,017	-0,049
-187,387	-111,928	0,161	-0,023
-186,373	-15,336	-0,154	-0,070
-185,358	-6,506	0,124	0,060
-184,344	388,320	0,052	0,077
-183,329	-44,226	-0,041	0,015
-182,315	95,765	-0,078	-0,063
-181,300	800,000	-0,053	0,137
-180,285	800,000	0,039	0,078
-179,271	-200,000	-0,007	-0,067
-178,256	239,282	-0,044	0,052
-177,242	800,000	0,048	0,100
-176,227	249,874	0,032	0,039
-175,212	-86,995	0,072	0,015
-174,198	162,704	-0,046	-0,046
-173,183	-200,000	-0,005	-0,029
-172,169	315,017	0,050	-0,068
-171,154	-200,000	0,011	-0,152
-170,139	500,652	-0,091	0,151
-169,125	71,024	-0,157	0,116
-168,110	424,137	-0,013	0,019
-167,096	15,140	-0,033	-0,018
-166,081	-100,478	0,076	-0,013
-165,066	335,980	-0,113	-0,156
-164,052	800,000	0,012	-0,034
-163,037	800,000	-0,017	-0,045
-162,023	-200,000	0,028	0,095
-161,008	800,000	-0,064	0,182
-159,993	-200,000	0,008	-0,053
-158,979	350,995	0,057	0,080
-157,964	74,503	-0,095	0,071
-156,950	-200,000	-0,035	-0,171
-155,935	28,056	0,033	0,020
-154,920	66,560	-0,064	-0,046
-153,906	195,180	0,039	0,042
-152,891	682,597	0,006	-0,012
-151,877	-200,000	0,016	0,059
-150,862	-35,738	-0,070	-0,027
-149,847	-50,700	-0,068	-0,023
-148,833	72,802	0,056	-0,042
-147,818	800,000	-0,037	0,079
-146,804	-35,695	0,069	0,026
-145,789	-200,000	0,008	0,067
-144,775	181,481	-0,081	-0,085
-143,760	-200,000	0,024	0,080
-142,745	12,545	-0,199	-0,109
-141,731	48,783	0,137	-0,091
-140,716	-200,000	0,023	-0,085
-139,702	-110,978	0,049	-0,007
-138,687	-18,265	-0,074	-0,033
-137,672	-21,014	0,060	-0,026
-136,658	595,819	-0,061	-0,107
-135,643	41,990	-0,123	0,079
-134,629	57,901	-0,072	0,050
-133,614	800,000	0,030	0,084
-132,599	239,443	0,059	0,069
-131,585	562,244	-0,027	0,046
-130,570	87,656	0,038	-0,030
-129,556	-200,000	-0,008	-0,070
-128,541	-200,000	-0,029	-0,247
-127,526	284,134	-0,045	-0,057
-126,512	-122,103	0,138	-0,016
-125,497	423,081	0,047	-0,072
-124,483	-200,000	-0,010	-0,053
-123,468	-147,836	0,057	-0,003
-122,453	84,023	-0,096	-0,074
-121,439	-200,000	-0,014	-0,094
-120,424	-147,433	0,122	0,007
-119,410	11,202	-0,144	0,078
-118,395	151,781	0,105	0,102
-117,380	584,707	-0,038	-0,066
-116,366	703,673	-0,012	-0,023
-115,351	84,512	0,034	-0,026
-114,337	56,067	-0,070	-0,048
-113,322	145,584	-0,085	0,081
-112,307	800,000	-0,021	0,064
-111,293	85,534	-0,013	0,010
-110,278	-61,880	0,105	-0,031
-109,264	292,930	-0,026	-0,033
-108,249	-194,505	-0,045	-0,000
-107,234	167,997	0,015	-0,015
-106,220	-200,000	0,025	-0,084
-105,205	55,975	0,121	0,083
-104,191	-200,000	-0,002	0,034
-103,176	376,945	0,034	0,050
-102,162	-200,000	-0,005	0,092
-101,147	201,807	-0,017	0,018
-100,132	800,000	-0,027	0,061
-99,118	-200,000	-0,022	0,118
-98,103	80,081	0,070	0,054
-97,089	412,737	-0,078	0,118
-96,074	115,840	0,065	0,056
-95,059	-200,000	0,019	0,125
-94,045	175,295	-0,120	-0,123
-93,030	120,918	0,100	-0,089
-92,016	246,636	0,065	0,078
-91,001	800,000	0,014	-0,038
-89,986	-200,000	-0,036	0,157
-88,972	462,112	-0,066	0,105
-87,957	-130,910	0,076	-0,007
-86,943	297,771	0,061	-0,080
-85,928	800,000	0,036	-0,101
-84,913	-19,232	-0,076	0,033
-83,899	431,533	0,046	-0,071
-82,884	800,000	0,037	-0,113
-81,870	119,518	0,084	0,074
-80,855	-200,000	-0,005	0,106
-79,840	53,111	-0,092	-0,062
-78,826	-6,207	0,137	-0,066
-77,811	-200,000	-0,024	-0,157
-76,797	-200,000	0,004	-0,020
-75,782	-131,463	-0,157	-0,015
-74,767	50,927	0,078	-0,052
-73,753	-3,869	0,122	0,060
-72,738	432,755	0,048	-0,074
-71,724	-200,000	0,007	-0,047
-70,709	171,148	0,078	-0,080
-69,694	278,888	0,079	0,100
-68,680	800,000	0,021	0,063
-67,665	54,292	-0,039	0,026
-66,651	540,365	-0,080	0,136
-65,636	5,096	0,056	-0,029
-64,622	-95,886	-0,065	0,012
-63,607	94,036	-0,042	-0,034
-62,592	-58,945	-0,133	0,040
-61,578	-61,295	0,002	0,001
-60,563	23,070	0,120	-0,070
-59,549	-52,160	-0,115	0,037
-58,534	-17,010	-1,597	-0,711
-57,519	355,381	-1,459	-2,063
-56,505	-200,000	-0,527	-4,621
-55,490	150,301	1,102	1,060
-54,476	800,000	4,881	11,316
-53,461	-200,000	19,074	310,211
-52,446	-200,000	738,260	2309,182
-51,432	570,558	1654,666	2862,763
-50,417	79,110	1671,493	1266,704
-49,403	22,019	1544,293	889,701
-48,388	15,939	1467,013	815,614
-47,373	17,893	1457,017	819,472
-46,359	16,981	1447,074	809,471
-45,344	14,217	1442,592	793,688
-44,330	14,146	1440,574	792,203
-43,315	14,124	1438,929	791,165
-42,300	14,151	1437,151	790,281
-41,286	14,151	1436,184	789,722
-40,271	14,091	1434,849	788,668
-39,257	14,065	1433,712	787,887
-38,242	14,193	1432,225	787,650
-37,227	14,175	1431,092	786,911
-36,213	14,169	1429,667	786,068
-35,198	14,177	1428,465	785,412
-34,184	14,200	1427,553	784,987
-33,169	14,180	1426,098	784,063
-32,154	14,179	1425,381	783,632
-31,140	14,191	1423,748	782,762
-30,125	14,214	1422,791	782,310
-29,111	14,176	1421,711	781,506
-28,096	14,142	1420,617	780,716
-27,082	14,088	1419,591	779,865
-26,067	14,064	1418,516	779,132
-25,052	14,072	1417,471	778,564
-24,038	14,048	1416,463	777,864
-23,023	14,069	1415,337	777,317
-22,009	14,068	1414,249	776,681
-20,994	14,038	1413,412	776,052
-19,979	14,051	1412,590	775,628
-18,965	14,012	1411,790	774,977
-17,950	14,028	1410,721	774,436
-16,936	14,003	1409,929	773,853
-15,921	13,984	1408,795	773,110
-14,906	13,996	1407,862	772,623
-13,892	13,987	1406,862	772,001
-12,877	13,977	1406,027	771,467
-11,863	13,975	1405,093	770,912
-10,848	13,979	1404,290	770,458
-9,833	13,931	1403,329	769,680
-8,819	13,922	1402,425	769,112
-7,804	13,913	1401,487	768,525
-6,790	13,880	1400,779	767,951
-5,775	13,901	1399,567	767,353
-4,760	13,917	1398,482	766,803
-3,746	13,888	1397,670	766,191
-2,731	13,917	1396,963	765,909
-1,717	13,866	1396,115	765,176
-0,702	13,865	1394,208	764,097
0,313	17,712	1311,684	736,710
1,327	33,920	705,923	434,038
2,342	52,250	124,030	83,566
3,356	3,813	16,626	8,565
4,371	15,067	3,175	1,755
5,386	30,492	0,551	0,333
6,400	-200,000	0,048	0,170
7,415	800,000	-0,086	-0,172
8,429	-25,253	-0,425	-0,177
9,444	245,603	-0,301	-0,359
10,459	120,250	-0,208	-0,183
11,473	90,283	-0,278	-0,220
12,488	69,654	-0,285	-0,207
13,502	-111,700	-0,331	-0,047
14,517	36,268	-0,394	-0,245
15,531	-9,105	-0,384	-0,181
16,546	105,721	-0,304	-0,254
17,561	150,224	-0,324	-0,311
18,575	21,287	-0,206	-0,118
19,590	283,998	-0,213	-0,271
20,604	97,024	-0,141	-0,114
21,619	113,668	-0,395	-0,339
22,634	128,343	-0,517	-0,465
23,648	267,371	-0,350	-0,433
24,663	12,753	-0,443	-0,241
25,677	49,978	-0,290	-0,193
26,692	-25,925	-0,352	-0,146
27,707	40,752	-0,381	-0,242
28,721	74,577	-0,314	-0,233
29,736	-54,140	-0,503	-0,160
30,750	-7,976	-0,387	-0,184
31,765	25,112	-0,257	-0,150
32,780	109,104	-0,391	-0,330
33,794	28,300	-0,266	-0,158
34,809	-28,246	-0,424	-0,172
35,823	239,669	-0,257	-0,302
36,838	300,813	-0,326	-0,425
37,853	103,232	-0,490	-0,405
38,867	67,427	-0,332	-0,239
39,882	-70,541	-0,397	-0,105
40,896	336,160	-0,206	-0,283
41,911	99,754	-0,310	-0,253
42,926	76,927	-0,361	-0,270
43,940	64,863	-0,427	-0,304
44,955	453,018	-0,190	-0,298
45,969	18,226	-0,445	-0,250
46,984	47,098	-0,292	-0,191
47,999	9,040	-0,305	-0,162
49,013	-22,866	-0,369	-0,156
50,028	49,317	-0,342	-0,226
51,042	38,866	-0,321	-0,202
52,057	71,567	-0,323	-0,236
53,071	36,980	-0,351	-0,218
54,086	270,538	-0,231	-0,287
55,101	47,695	-0,283	-0,186
56,115	51,195	-0,422	-0,281
57,130	124,135	-0,323	-0,286
58,144	-33,532	-0,482	-0,187
59,159	362,992	-0,278	-0,395
60,174	127,602	-0,338	-0,302
61,188	204,546	-0,308	-0,337
62,203	39,710	-0,323	-0,204
63,217	88,044	-0,360	-0,281
64,232	80,913	-0,352	-0,267
65,247	53,617	-0,336	-0,227
66,261	206,380	-0,335	-0,367
67,276	12,950	-0,409	-0,222
68,290	-3,122	-0,455	-0,223
69,305	32,106	-0,259	-0,157
70,320	250,556	-0,232	-0,278
71,334	-59,951	-0,383	-0,114
72,349	250,721	-0,155	-0,186
73,363	-21,895	-0,339	-0,144
74,378	106,195	-0,367	-0,305
75,393	32,353	-0,348	-0,211
76,407	123,097	-0,266	-0,234
77,422	4,451	-0,325	-0,167
78,436	-37,463	-0,252	-0,094
79,451	271,041	-0,223	-0,277
80,466	67,327	-0,305	-0,219
81,480	197,109	-0,277	-0,298
82,495	72,094	-0,409	-0,299
83,509	255,142	-0,304	-0,367
84,524	42,668	-0,233	-0,149
85,539	137,417	-0,173	-0,159
86,553	-28,127	-0,465	-0,188
87,568	96,670	-0,366	-0,294
88,582	72,264	-0,256	-0,187
89,597	15,623	-0,266	-0,147
90,611	44,436	-0,326	-0,210
91,626	9,263	-0,313	-0,166
92,641	-47,467	-0,267	-0,091
93,655	-34,825	-0,224	-0,085
94,670	-31,451	-0,317	-0,125
95,684	-16,942	-0,338	-0,149
96,699	81,126	-0,179	-0,135
97,714	56,811	-0,237	-0,161
98,728	134,437	-0,254	-0,231
99,743	500,323	-0,159	-0,259
100,757	-96,135	-0,238	-0,044
101,772	3,284	-0,322	-0,164
102,787	4,494	-0,368	-0,189
103,801	235,411	-0,214	-0,248
104,816	-38,165	-0,328	-0,121
105,830	3,533	-0,312	-0,159
106,845	109,338	-0,157	-0,132
107,860	-48,441	-0,178	-0,060
108,874	-58,153	-0,235	-0,071
109,889	-10,653	-0,349	-0,161
110,903	179,233	-0,235	-0,241
111,918	247,632	-0,120	-0,143
112,933	-86,596	-0,130	-0,028
113,947	168,051	-0,338	-0,337
114,962	-97,049	-0,251	-0,046
115,976	30,317	-0,303	-0,181
116,991	142,354	-0,289	-0,268
118,006	24,502	-0,308	-0,178
119,020	-52,396	-0,206	-0,066
120,035	236,379	-0,188	-0,218
121,049	-10,933	-0,234	-0,108
122,064	800,000	-0,063	-0,147
123,079	144,505	-0,334	-0,312
124,093	181,737	-0,201	-0,208
125,108	28,270	-0,338	-0,199
126,122	41,685	-0,325	-0,206
127,137	379,628	-0,101	-0,145
128,151	100,393	-0,185	-0,150
129,166	101,166	-0,278	-0,226
130,181	130,954	-0,250	-0,224
131,195	83,894	-0,258	-0,197
132,210	234,260	-0,173	-0,199
133,224	509,993	-0,156	-0,255
134,239	57,799	-0,274	-0,187
135,254	-37,812	-0,322	-0,119
136,268	39,410	-0,222	-0,139
137,283	53,305	-0,297	-0,199
138,297	108,266	-0,270	-0,226
139,312	63,853	-0,316	-0,222
140,327	-73,429	-0,328	-0,083
141,341	38,719	-0,250	-0,155
142,356	185,140	-0,156	-0,162
143,370	66,204	-0,201	-0,142
144,385	69,838	-0,227	-0,163
145,400	51,998	-0,325	-0,216
146,414	20,580	-0,250	-0,141
147,429	188,304	-0,285	-0,298
148,443	506,479	-0,200	-0,326
149,458	-35,960	-0,324	-0,122
150,473	800,000	-0,084	-0,209
151,487	98,769	-0,249	-0,200
152,502	109,009	-0,335	-0,279
153,516	43,811	-0,380	-0,242
154,531	314,247	-0,227	-0,299
155,546	64,735	-0,182	-0,128
156,560	32,110	-0,160	-0,096
157,575	394,356	-0,088	-0,128
158,589	800,000	-0,084	-0,176
159,604	-15,878	-0,283	-0,125
160,619	354,749	-0,133	-0,185
161,633	84,484	-0,168	-0,128
162,648	120,598	-0,239	-0,207
163,662	-85,151	-0,294	0,064
164,677	-83,111	-0,236	-0,053
165,692	36,606	-0,159	-0,098
166,706	6,948	-0,341	-0,177
167,721	213,115	-0,282	-0,311
168,735	381,606	-0,189	-0,271
169,750	319,176	-0,180	-0,238
170,764	94,138	-0,196	-0,155
171,779	800,000	-0,073	-0,224
172,794	141,203	-0,228	-0,211
173,808	-19,412	-0,260	-0,112
174,823	144,057	-0,206	-0,192
175,837	94,329	-0,200	-0,158
176,852	3,608	-0,349	-0,177
177,867	800,000	-0,107	-0,258
178,881	-10,242	-0,247	-0,114
179,896	156,323	-0,166	-0,159
180,910	-51,526	-0,244	-0,079
181,925	109,335	-0,226	-0,189
182,940	372,139	-0,230	-0,326
183,954	135,818	-0,133	-0,120
184,969	2,905	-0,280	-0,141
185,983	95,826	-0,188	-0,149
186,998	182,234	-0,172	-0,176
188,013	121,498	-0,277	-0,240
189,027	57,392	-0,148	-0,100
190,042	-62,077	-0,251	-0,072
191,056	58,867	-0,197	-0,135
192,071	81,074	-0,199	-0,150
193,086	284,283	-0,092	-0,115
194,100	800,000	-0,106	-0,228
195,115	141,992	-0,152	-0,140
196,129	146,075	-0,178	-0,166
197,144	-87,392	-0,331	-0,069
198,159	-10,887	-0,267	-0,122
199,173	800,000	-0,096	-0,187
200,188	800,000	-0,102	-0,217
201,202	230,417	-0,159	-0,181
202,217	345,066	-0,161	-0,221
203,232	747,078	-0,088	-0,165
204,246	664,808	-0,101	-0,182
205,261	409,340	-0,154	-0,228
206,275	313,372	-0,224	-0,293
207,290	195,570	-0,186	-0,197
208,304	9,721	-0,226	-0,119
209,319	188,445	-0,225	-0,234
210,334	-86,282	-0,300	-0,064
211,348	56,264	-0,262	-0,177
212,363	426,116	-0,158	-0,237
213,377	-106,107	-0,179	-0,028
214,392	25,324	-0,269	-0,155
215,407	184,800	-0,161	-0,166
216,421	284,209	-0,140	-0,176
217,436	401,335	-0,216	-0,317
218,450	-40,850	-0,235	-0,084
219,465	383,511	-0,162	-0,232
220,480	119,843	-0,170	-0,146
221,494	1,275	-0,157	-0,078
222,509	-18,165	-0,184	-0,080
223,523	530,652	-0,139	-0,230
224,538	-17,553	-0,294	-0,128
225,553	179,985	-0,138	-0,140
226,567	209,759	-0,221	-0,241
227,582	52,340	-0,175	-0,116
228,596	149,227	-0,122	-0,115
229,611	174,790	-0,143	-0,143
230,626	-4,487	-0,203	-0,097
231,640	119,592	-0,197	-0,169
232,655	273,972	-0,278	-0,342
233,669	-67,301	-0,241	-0,065
234,684	45,232	-0,178	-0,114
235,699	-53,191	-0,181	0,057
236,713	800,000	-0,068	-0,136
237,728	-107,763	-0,163	0,024
238,742	129,569	-0,193	-0,171
239,757	241,318	-0,241	-0,280
240,772	-63,704	-0,207	-0,058
241,786	-200,000	-0,109	-0,348
242,801	242,564	-0,164	-0,191
243,815	12,340	-0,283	-0,151
244,830	133,924	-0,199	-0,179
245,844	369,804	-0,214	-0,301
246,859	-200,000	-0,035	-0,193
247,874	16,159	-0,217	-0,118
248,888	107,322	-0,129	-0,106
249,903	800,000	-0,076	-0,173
250,917	61,525	-0,153	-0,105
251,932	-142,888	-0,192	-0,013
252,947	-200,000	-0,043	-0,167
253,961	241,188	-0,135	-0,157
254,976	-200,000	-0,024	-0,146
255,990	-80,046	-0,163	-0,038
257,005	-100,908	-0,282	-0,048
258,020	231,249	-0,128	-0,146
259,034	102,221	-0,172	-0,139
260,049	800,000	-0,037	-0,100
261,063	138,769	-0,183	-0,166
262,078	187,499	-0,114	-0,117
263,093	97,388	-0,194	-0,154
264,107	-60,140	-0,166	-0,049
265,122	-127,030	-0,052	-0,005
266,136	800,000	-0,047	-0,091
267,151	101,941	-0,207	-0,167
268,166	52,316	-0,214	-0,141
269,180	197,570	-0,144	-0,152
270,195	51,019	-0,171	-0,112
271,209	55,195	-0,160	-0,107
272,224	-166,388	-0,116	0,003
273,239	125,496	-0,148	-0,129
274,253	224,455	-0,082	-0,092
275,268	-20,904	-0,243	-0,102
276,282	25,302	-0,301	-0,172
277,297	157,176	-0,201	-0,193
278,312	622,762	-0,048	-0,084
279,326	-137,846	-0,125	-0,010
280,341	631,285	-0,132	-0,232
281,355	-62,033	-0,181	0,052
282,370	-200,000	0,021	-0,141
283,384	78,118	-0,143	-0,105
284,399	-60,172	-0,242	-0,071
285,414	124,222	-0,074	-0,064
286,428	358,378	-0,140	-0,194
287,443	398,257	-0,044	-0,064
288,457	227,609	-0,118	-0,133
289,472	-174,808	-0,115	-0,002
290,487	82,318	-0,210	-0,157
291,501	-55,264	-0,292	-0,090
292,516	-27,643	-0,205	-0,082
293,530	-67,507	-0,139	-0,037
294,545	-14,513	-0,115	0,051
295,560	125,578	-0,106	0,093
296,574	-170,791	-0,179	0,004
297,589	312,890	-0,113	-0,146
298,603	-75,378	-0,241	-0,059
299,618	275,453	-0,169	-0,207
300,633	39,041	-0,300	-0,185
301,647	166,976	-0,014	0,014
302,662	-119,936	-0,128	-0,015
303,676	-133,083	-0,183	-0,016
304,691	-56,859	-0,200	-0,061
305,706	486,075	-0,142	-0,224
306,720	204,695	-0,110	-0,118
307,735	-59,905	-0,231	-0,068
308,749	-200,000	-0,001	-0,075
309,764	13,636	-0,229	-0,122
310,779	-68,484	-0,149	-0,040
311,793	-71,725	-0,167	-0,043
312,808	88,288	-0,185	-0,141
313,822	52,520	-0,237	-0,155
314,837	-200,000	-0,026	-0,170
315,852	240,008	-0,064	-0,074
316,866	-108,315	-0,151	-0,022
317,881	338,594	-0,085	-0,114
318,895	-130,271	-0,106	0,010
319,910	144,159	-0,167	-0,154
320,925	84,724	-0,223	-0,168
321,939	400,482	-0,101	-0,146
322,954	455,634	-0,119	-0,182
323,968	74,281	-0,059	0,042
324,983	750,467	-0,093	-0,174
325,997	49,222	-0,104	-0,067
327,012	104,988	-0,122	-0,099
328,027	323,341	-0,141	-0,186
329,041	151,953	-0,101	-0,095
330,056	-200,000	-0,034	-0,119
331,070	-96,199	-0,178	-0,032
332,085	167,636	-0,204	-0,199
333,100	-200,000	0,009	-0,047
334,114	92,433	-0,219	-0,170
335,129	697,947	-0,069	-0,126
336,143	800,000	-0,048	-0,110
337,158	-3,027	-0,033	-0,016
338,173	-19,969	-0,061	-0,026
339,187	-51,529	-0,189	-0,060
340,202	-100,578	-0,226	-0,038
341,216	-54,015	-0,139	-0,043
342,231	243,310	-0,107	-0,124
343,246	391,787	-0,070	-0,100
344,260	-50,514	-0,188	-0,061
345,275	27,497	-0,046	-0,027
346,289	-101,454	-0,092	0,015
347,304	-142,804	-0,099	-0,007
348,319	134,498	-0,149	-0,133
349,333	71,648	-0,161	-0,115
350,348	236,742	-0,093	-0,105
351,362	-64,052	-0,097	-0,027
352,377	800,000	-0,105	-0,214
353,392	-89,356	-0,141	-0,028
354,406	800,000	-0,034	-0,088
355,421	208,191	1315,547	1412,427
356,435	160,182	1476,364	1412,909
