DTS Sentinel unit serial number:	SN410029Multiplexer serial number:	ORYXHardware model number:	OX2-SRSoftware version number:	ORYX F/W v4,00 Oryx Data Collector v3.7.2.0data status	okinstallation	B3 Nyhavnadifferential loss correction	single-endedforward channel	channel 1reverse channel	N/Adate	2023/11/29time	09:47:30forward acquisition time	300,00reverse acquisition time	0,00gamma	499,1914k internal	0,3212k external	0,3212temperature offset calibration	1,0000default loss term (dB/km)	0,3820temperature slope calibration	1,0000multiplexer offset coefficient	1,0000multiplexer slope coefficient	1,0000fibre end	0,00T internal ref (°C)	9,23T ext. ref 1 (°C)	-5,29T ext. ref 2 (°C)	-5,42length (m)	temperature (°C)	Stokes	anti-Stokes-744,400	45,147	-0,202	-0,135
-743,385	-200,000	0,034	0,323
-742,371	-200,000	-0,031	-0,337
-741,356	800,000	-0,064	0,145
-740,342	358,665	-0,146	-0,211
-739,327	-200,000	-0,005	0,392
-738,312	-39,754	-0,166	-0,063
-737,298	800,000	-0,086	0,253
-736,283	-37,616	-0,195	-0,075
-735,269	-200,000	0,024	0,392
-734,254	-9,160	-0,271	-0,131
-733,239	123,561	-0,060	0,054
-732,225	359,688	-0,143	-0,208
-731,210	115,355	0,091	0,081
-730,196	-200,000	0,009	-0,090
-729,181	135,603	0,105	-0,099
-728,167	-59,425	-0,076	-0,024
-727,152	-9,318	0,166	-0,080
-726,137	-107,416	-0,134	-0,021
-725,123	-200,000	-0,001	-0,019
-724,108	-155,778	-0,149	-0,007
-723,094	-45,281	-0,132	0,047
-722,079	-200,000	0,009	-0,218
-721,064	-200,000	-0,020	-0,226
-720,050	79,275	-0,058	0,045
-719,035	218,823	0,030	-0,035
-718,021	-56,549	-0,138	-0,044
-717,006	-200,000	0,023	-0,092
-715,991	-200,000	-0,016	-0,068
-714,977	-200,000	-0,008	0,043
-713,962	-111,749	-0,084	0,012
-712,948	441,501	-0,069	-0,109
-711,933	-38,443	-0,067	-0,026
-710,918	-102,222	0,084	0,014
-709,904	268,884	-0,094	0,120
-708,889	-200,000	-0,037	-0,134
-707,875	110,937	-0,029	-0,025
-706,860	-200,000	0,007	0,056
-705,845	34,569	0,025	0,016
-704,831	465,439	0,021	0,034
-703,816	526,385	0,063	-0,108
-702,802	-200,000	-0,014	0,081
-701,787	186,339	-0,112	-0,120
-700,772	136,282	-0,094	0,088
-699,758	800,000	-0,035	-0,093
-698,743	800,000	-0,026	0,053
-697,729	-112,550	0,074	-0,011
-696,714	-200,000	0,012	-0,058
-695,699	169,837	-0,047	0,049
-694,685	-96,388	-0,108	0,020
-693,670	528,908	-0,004	-0,007
-692,656	214,227	-0,069	0,080
-691,641	39,622	0,013	0,009
-690,627	-200,000	0,010	0,040
-689,612	133,101	-0,039	0,037
-688,597	800,000	0,005	0,014
-687,583	800,000	-0,020	-0,043
-686,568	227,399	-0,018	-0,022
-685,554	-200,000	-0,043	0,180
-684,539	265,984	0,044	0,055
-683,524	27,812	-0,087	-0,053
-682,510	-59,692	0,048	0,015
-681,495	65,958	0,032	0,024
-680,481	21,381	0,044	0,026
-679,466	276,245	-0,077	0,099
-678,451	-131,995	0,074	-0,007
-677,437	-200,000	0,026	-0,135
-676,422	-200,000	-0,008	-0,052
-675,408	-200,000	-0,006	-0,026
-674,393	643,674	-0,008	0,015
-673,378	110,423	-0,044	-0,038
-672,364	800,000	0,015	-0,034
-671,349	-60,459	0,096	0,029
-670,335	800,000	-0,013	0,027
-669,320	-200,000	-0,006	0,079
-668,305	330,859	0,053	-0,074
-667,291	1,102	-0,120	0,062
-666,276	800,000	0,015	-0,040
-665,262	42,225	0,093	-0,061
-664,247	800,000	-0,039	-0,085
-663,232	800,000	-0,017	-0,046
-662,218	-94,209	0,005	-0,001
-661,203	353,665	-0,056	0,080
-660,189	28,382	0,077	-0,047
-659,174	150,421	-0,115	0,113
-658,159	-200,000	0,021	-0,089
-657,145	34,021	-0,069	0,043
-656,130	-150,650	0,015	-0,001
-655,116	160,083	-0,039	-0,040
-654,101	-104,129	0,153	0,025
-653,086	267,066	-0,019	0,024
-652,072	-121,304	-0,055	0,007
-651,057	-102,698	-0,063	0,011
-650,043	-95,010	-0,087	-0,017
-649,028	36,041	0,030	0,019
-648,014	447,546	0,036	0,057
-646,999	168,029	-0,056	-0,058
-645,984	800,000	0,050	0,148
-644,970	-49,752	-0,038	-0,013
-643,955	-86,455	-0,193	-0,042
-642,941	-49,749	-0,083	-0,028
-641,926	402,834	0,110	0,168
-640,911	800,000	0,037	0,095
-639,897	448,187	0,062	0,100
-638,882	66,315	-0,086	0,063
-637,868	-45,564	0,035	-0,012
-636,853	199,689	-0,094	-0,104
-635,838	343,808	-0,041	-0,059
-634,824	158,394	-0,062	0,062
-633,809	37,717	-0,074	-0,047
-632,795	14,104	0,049	-0,027
-631,780	45,458	-0,034	0,022
-630,765	-193,401	-0,022	0,000
-629,751	-200,000	-0,023	-0,082
-628,736	136,670	-0,103	-0,097
-627,722	-200,000	-0,010	-0,080
-626,707	-107,836	0,072	0,011
-625,692	-39,165	0,085	0,032
-624,678	-200,000	0,016	0,103
-623,663	177,883	-0,063	-0,067
-622,649	800,000	-0,058	-0,134
-621,634	800,000	0,027	0,061
-620,619	70,250	0,075	0,056
-619,605	45,511	0,047	-0,031
-618,590	-200,000	-0,042	0,170
-617,576	-200,000	0,042	0,147
-616,561	-70,732	-0,224	-0,061
-615,546	-55,938	0,061	0,019
-614,532	86,869	0,026	-0,021
-613,517	53,947	-0,069	0,047
-612,503	742,164	-0,062	-0,120
-611,488	800,000	0,022	0,069
-610,474	800,000	0,051	0,105
-609,459	688,725	-0,059	0,112
-608,444	200,916	-0,053	-0,059
-607,430	308,848	-0,080	0,108
-606,415	49,089	-0,124	0,084
-605,401	-200,000	-0,007	-0,156
-604,386	-46,231	0,027	-0,009
-603,371	-44,546	0,151	0,054
-602,357	-55,207	-0,185	-0,060
-601,342	593,933	0,012	-0,021
-600,328	-200,000	0,023	-0,095
-599,313	-8,481	0,054	0,026
-598,298	800,000	-0,056	-0,117
-597,284	-154,268	0,142	0,007
-596,269	-200,000	0,008	-0,053
-595,255	800,000	0,042	0,087
-594,240	-132,191	-0,041	-0,004
-593,225	83,058	-0,089	-0,069
-592,211	800,000	0,021	0,052
-591,196	-200,000	0,008	-0,161
-590,182	30,413	0,079	0,049
-589,167	-33,126	0,087	0,035
-588,152	-200,000	-0,011	0,100
-587,138	-200,000	0,004	0,081
-586,123	477,461	0,008	0,013
-585,109	-43,172	-0,235	0,085
-584,094	49,170	0,109	0,074
-583,079	-200,000	-0,012	0,061
-582,065	165,396	0,045	-0,046
-581,050	135,631	-0,034	-0,032
-580,036	-131,561	-0,043	0,004
-579,021	800,000	-0,032	-0,084
-578,006	-200,000	0,002	-0,096
-576,992	-200,000	-0,006	0,073
-575,977	-75,332	0,083	-0,021
-574,963	20,926	-0,068	-0,040
-573,948	565,838	0,042	0,074
-572,934	-55,630	-0,181	0,058
-571,919	800,000	-0,016	-0,048
-570,904	-92,857	0,164	0,033
-569,890	800,000	-0,047	-0,104
-568,875	-167,148	0,032	-0,001
-567,861	736,860	0,061	0,118
-566,846	-48,460	0,209	0,072
-565,831	800,000	-0,028	-0,069
-564,817	167,462	0,041	0,042
-563,802	461,203	-0,071	-0,115
-562,788	12,086	0,016	-0,009
-561,773	800,000	-0,039	-0,110
-560,758	800,000	0,053	0,151
-559,744	-200,000	-0,007	0,039
-558,729	333,751	0,089	0,125
-557,715	800,000	-0,021	0,053
-556,700	-200,000	-0,002	-0,146
-555,685	21,234	-0,103	0,060
-554,671	64,097	0,016	-0,011
-553,656	-57,556	0,158	-0,050
-552,642	-141,899	0,047	0,003
-551,627	-200,000	-0,024	0,146
-550,612	225,631	-0,051	0,059
-549,598	-66,710	-0,038	-0,011
-548,583	-200,000	-0,004	-0,022
-547,569	800,000	0,076	0,160
-546,554	-200,000	0,020	-0,104
-545,539	-46,622	-0,087	0,031
-544,525	-200,000	0,029	0,125
-543,510	-125,157	0,084	0,009
-542,496	-200,000	-0,027	0,153
-541,481	800,000	0,038	0,098
-540,466	266,692	-0,041	-0,052
-539,452	-138,429	0,082	0,006
-538,437	83,745	0,081	0,063
-537,423	-26,980	0,049	0,020
-536,408	720,187	-0,019	0,036
-535,393	800,000	-0,036	-0,073
-534,379	-200,000	-0,002	0,037
-533,364	-200,000	-0,011	0,111
-532,350	-200,000	0,010	0,115
-531,335	90,920	-0,077	-0,062
-530,321	-200,000	0,059	0,217
-529,306	207,747	-0,081	0,091
-528,291	-200,000	-0,013	-0,053
-527,277	-200,000	-0,036	-0,188
-526,262	-200,000	-0,018	0,058
-525,248	-200,000	-0,001	0,166
-524,233	58,991	0,079	-0,056
-523,218	13,441	0,062	0,035
-522,204	-200,000	-0,008	0,054
-521,189	800,000	-0,015	0,042
-520,175	272,404	-0,037	0,047
-519,160	800,000	0,050	-0,149
-518,145	195,930	0,030	0,032
-517,131	-149,894	0,089	-0,005
-516,116	46,263	-0,096	0,064
-515,102	91,133	0,036	0,029
-514,087	-200,000	-0,023	-0,077
-513,072	-164,776	-0,071	-0,002
-512,058	-86,564	0,160	0,035
-511,043	-11,348	0,102	-0,048
-510,029	478,276	-0,043	-0,069
-509,014	-102,676	0,162	0,028
-507,999	237,626	-0,069	-0,082
-506,985	800,000	-0,005	-0,012
-505,970	-200,000	-0,001	-0,070
-504,956	-200,000	0,015	0,072
-503,941	333,918	0,065	0,090
-502,926	-93,251	0,048	-0,010
-501,912	-9,559	-0,136	0,065
-500,897	-200,000	-0,001	0,020
-499,883	-81,133	-0,033	-0,008
-498,868	88,909	-0,064	0,051
-497,853	-200,000	0,000	-0,093
-496,839	2,676	-0,056	0,029
-495,824	800,000	-0,017	-0,046
-494,810	800,000	-0,029	0,085
-493,795	-200,000	0,005	0,114
-492,781	9,672	-0,094	-0,051
-491,766	206,230	-0,047	-0,052
-490,751	800,000	-0,042	-0,115
-489,737	800,000	0,028	0,081
-488,722	110,316	-0,104	-0,090
-487,708	609,386	-0,025	-0,045
-486,693	29,402	-0,058	-0,035
-485,678	24,760	0,028	0,016
-484,664	361,849	0,057	-0,083
-483,649	800,000	-0,034	-0,087
-482,635	-200,000	0,005	-0,069
-481,620	800,000	0,032	0,098
-480,605	477,462	0,095	-0,155
-479,591	-200,000	-0,014	0,060
-478,576	698,570	0,022	0,042
-477,562	-74,414	-0,122	-0,031
-476,547	309,724	0,032	-0,044
-475,532	246,377	-0,055	-0,067
-474,518	32,407	0,141	-0,087
-473,503	-200,000	0,023	-0,126
-472,489	62,066	-0,054	0,038
-471,474	24,920	0,081	-0,048
-470,459	441,585	-0,065	0,102
-469,445	-0,077	0,030	-0,015
-468,430	600,357	-0,072	0,128
-467,416	231,988	0,086	-0,102
-466,401	-200,000	-0,007	0,149
-465,386	-200,000	0,007	0,060
-464,372	66,427	-0,011	0,008
-463,357	455,377	-0,024	-0,038
-462,343	800,000	-0,046	-0,108
-461,328	-152,159	0,075	-0,004
-460,313	295,998	0,028	0,037
-459,299	-200,000	0,000	-0,020
-458,284	311,459	0,024	-0,033
-457,270	217,769	-0,055	-0,063
-456,255	800,000	-0,041	-0,085
-455,241	-200,000	-0,005	-0,054
-454,226	800,000	-0,032	-0,078
-453,211	-15,450	-0,107	-0,049
-452,197	-200,000	0,018	0,061
-451,182	60,733	0,022	-0,016
-450,168	-170,915	0,125	-0,003
-449,153	-111,543	0,060	0,009
-448,138	516,399	0,029	-0,048
-447,124	-200,000	-0,014	0,055
-446,109	168,606	-0,076	0,077
-445,095	-200,000	0,002	0,084
-444,080	138,893	0,059	0,055
-443,065	504,405	-0,093	-0,155
-442,051	-200,000	-0,021	0,114
-441,036	-52,311	-0,148	0,049
-440,022	800,000	-0,061	0,124
-439,007	800,000	0,037	-0,095
-437,992	-101,425	-0,113	0,020
-436,978	800,000	-0,035	0,072
-435,963	-200,000	-0,034	0,139
-434,949	-69,579	-0,132	0,036
-433,934	345,692	-0,075	-0,106
-432,919	800,000	0,019	0,039
-431,905	43,919	0,102	-0,067
-430,890	587,159	-0,012	0,021
-429,876	-144,456	0,100	0,007
-428,861	-61,545	-0,179	-0,053
-427,846	2,822	0,101	0,053
-426,832	178,359	0,013	-0,014
-425,817	-200,000	0,006	-0,116
-424,803	-200,000	-0,005	-0,061
-423,788	255,465	-0,096	0,118
-422,773	218,215	-0,041	0,047
-421,759	643,338	0,079	0,145
-420,744	800,000	-0,060	-0,128
-419,730	-200,000	0,004	-0,209
-418,715	100,307	-0,078	-0,065
-417,701	-154,632	-0,088	0,004
-416,686	-88,507	-0,036	-0,008
-415,671	100,372	0,059	-0,049
-414,657	-26,489	0,096	-0,040
-413,642	92,284	-0,116	-0,093
-412,628	800,000	-0,009	-0,027
-411,613	90,522	0,078	-0,062
-410,598	-6,828	-0,083	-0,040
-409,584	-200,000	-0,008	-0,066
-408,569	-162,285	-0,113	0,004
-407,555	-200,000	0,037	-0,121
-406,540	-200,000	0,013	0,088
-405,525	212,516	0,065	0,074
-404,511	-108,009	-0,043	-0,007
-403,496	-25,186	0,044	-0,019
-402,482	-51,542	0,121	-0,040
-401,467	104,493	0,033	-0,028
-400,452	800,000	0,079	-0,186
-399,438	255,994	0,071	0,087
-398,423	337,431	-0,081	-0,113
-397,409	769,940	-0,065	-0,127
-396,394	-200,000	0,010	-0,090
-395,379	-195,961	-0,039	-0,000
-394,365	592,289	0,041	-0,073
-393,350	800,000	0,039	0,109
-392,336	142,005	0,078	-0,074
-391,321	-200,000	0,015	-0,058
-390,306	-200,000	-0,022	-0,083
-389,292	573,500	0,065	-0,114
-388,277	800,000	-0,072	-0,225
-387,263	81,214	0,042	-0,032
-386,248	260,073	0,066	0,082
-385,233	-120,914	-0,097	0,011
-384,219	-59,342	-0,021	-0,006
-383,204	170,414	-0,089	-0,091
-382,190	-200,000	0,000	-0,076
-381,175	180,225	-0,061	-0,064
-380,160	146,410	0,038	0,036
-379,146	-200,000	0,007	0,098
-378,131	-109,578	-0,006	0,001
-377,117	-200,000	-0,003	-0,102
-376,102	234,212	-0,089	-0,105
-375,088	374,706	-0,028	0,040
-374,073	-130,147	-0,128	0,012
-373,058	-200,000	0,011	0,126
-372,044	7,992	0,081	0,043
-371,029	226,719	-0,068	0,079
-370,015	-200,000	0,000	-0,054
-369,000	417,086	-0,039	0,059
-367,985	105,461	0,062	0,052
-366,971	-86,469	0,178	-0,039
-365,956	-200,000	-0,002	0,042
-364,942	-68,433	-0,053	0,015
-363,927	-132,286	0,016	0,001
-362,912	-200,000	0,019	-0,113
-361,898	159,665	0,092	-0,091
-360,883	-99,413	-0,168	-0,030
-359,869	190,671	-0,018	-0,019
-358,854	34,677	-0,086	0,053
-357,839	243,641	0,131	-0,157
-356,825	-93,875	0,142	-0,028
-355,810	21,813	0,098	0,057
-354,796	-200,000	-0,010	-0,057
-353,781	-153,518	-0,110	-0,005
-352,766	444,447	-0,043	-0,068
-351,752	-98,949	-0,098	-0,018
-350,737	-158,131	0,137	0,006
-349,723	537,867	0,036	-0,062
-348,708	-138,431	0,138	0,011
-347,693	128,193	-0,033	0,030
-346,679	-200,000	-0,005	-0,126
-345,664	-200,000	-0,005	0,118
-344,650	-111,363	0,207	-0,030
-343,635	800,000	0,027	0,079
-342,620	787,694	-0,019	0,038
-341,606	416,320	-0,075	0,114
-340,591	-39,482	0,035	0,013
-339,577	-200,000	-0,026	0,085
-338,562	-121,761	0,071	-0,008
-337,548	-65,999	0,066	0,019
-336,533	800,000	0,035	0,071
-335,518	384,813	0,025	0,038
-334,504	220,068	0,091	0,104
-333,489	-41,369	-0,048	-0,018
-332,475	88,724	-0,130	-0,103
-331,460	-21,040	0,093	-0,041
-330,445	57,713	0,049	0,034
-329,431	-109,414	-0,060	0,009
-328,416	379,431	0,033	-0,049
-327,402	-200,000	0,032	-0,103
-326,387	186,252	-0,081	-0,086
-325,372	-200,000	-0,049	-0,160
-324,358	173,748	0,019	0,019
-323,343	12,733	0,012	-0,007
-322,329	-85,591	-0,037	-0,008
-321,314	-117,368	0,104	-0,013
-320,299	16,408	0,069	0,039
-319,285	-6,314	-0,081	0,039
-318,270	164,869	0,075	-0,076
-317,256	148,982	-0,100	-0,097
-316,241	-200,000	0,023	0,168
-315,226	-148,811	-0,070	0,004
-314,212	-0,923	-0,046	-0,023
-313,197	469,388	-0,081	0,130
-312,183	-200,000	0,004	0,104
-311,168	399,580	0,014	-0,021
-310,153	377,381	0,014	-0,021
-309,139	800,000	-0,037	-0,104
-308,124	-60,317	0,129	-0,039
-307,110	-151,434	0,181	-0,009
-306,095	-81,354	-0,127	0,030
-305,080	132,562	0,124	0,114
-304,066	-200,000	-0,019	0,115
-303,051	152,229	-0,022	0,022
-302,037	800,000	-0,016	-0,044
-301,022	118,221	-0,120	-0,105
-300,008	619,598	0,077	0,138
-298,993	-106,107	0,199	-0,032
-297,978	65,800	0,082	0,059
-296,964	-104,074	-0,167	-0,027
-295,949	3,029	0,046	-0,024
-294,935	24,547	-0,045	-0,026
-293,920	800,000	-0,035	0,072
-292,905	746,433	0,036	-0,069
-291,891	-200,000	0,010	0,274
-290,876	330,343	0,044	0,061
-289,862	-200,000	0,001	0,096
-288,847	-200,000	-0,009	0,042
-287,832	286,293	-0,050	-0,064
-286,818	-138,273	0,081	-0,006
-285,803	715,392	0,074	0,141
-284,789	13,367	-0,053	0,029
-283,774	340,226	-0,052	-0,073
-282,759	329,192	-0,084	-0,116
-281,745	72,156	-0,082	-0,060
-280,730	215,528	-0,070	-0,079
-279,716	800,000	0,040	-0,093
-278,701	30,017	-0,099	0,060
-277,686	-166,158	-0,067	0,002
-276,672	800,000	-0,017	-0,042
-275,657	800,000	-0,037	0,084
-274,643	-200,000	0,027	-0,209
-273,628	40,394	-0,065	0,041
-272,613	-161,712	-0,172	0,006
-271,599	-13,210	0,103	0,047
-270,584	-83,991	0,096	0,022
-269,570	-200,000	0,010	-0,051
-268,555	-3,284	0,157	0,077
-267,540	71,571	-0,069	-0,051
-266,526	800,000	-0,018	-0,054
-265,511	411,866	-0,092	0,140
-264,497	-103,231	0,103	-0,017
-263,482	800,000	-0,019	-0,047
-262,467	52,946	0,086	0,058
-261,453	391,781	-0,020	0,030
-260,438	-200,000	0,010	-0,125
-259,424	-200,000	-0,029	-0,193
-258,409	232,134	-0,062	-0,072
-257,395	-160,770	-0,093	-0,003
-256,380	151,614	-0,037	0,036
-255,365	-200,000	0,036	0,149
-254,351	-200,000	-0,005	0,112
-253,336	-107,845	0,129	0,020
-252,322	800,000	-0,012	0,027
-251,307	66,660	-0,035	0,026
-250,292	-187,894	0,136	-0,001
-249,278	800,000	-0,037	-0,092
-248,263	348,185	-0,083	-0,117
-247,249	568,291	-0,036	-0,062
-246,234	268,474	-0,056	-0,069
-245,219	687,776	-0,022	0,041
-244,205	-82,980	0,108	-0,024
-243,190	126,051	-0,106	-0,095
-242,176	319,522	-0,073	0,099
-241,161	-39,003	0,094	-0,035
-240,146	-200,000	-0,011	0,175
-239,132	-62,946	-0,099	0,029
-238,117	-117,926	-0,077	0,010
-237,103	184,134	-0,059	0,063
-236,088	-200,000	-0,001	0,038
-235,073	499,475	0,028	-0,046
-234,059	549,614	-0,024	-0,041
-233,044	727,689	-0,009	0,017
-232,030	436,393	-0,054	0,085
-231,015	63,624	-0,075	0,053
-230,000	178,840	0,076	-0,079
-228,986	-200,000	0,001	-0,079
-227,971	800,000	-0,024	0,051
-226,957	-200,000	0,012	0,126
-225,942	800,000	-0,016	-0,039
-224,927	-91,212	0,136	-0,027
-223,913	-21,756	0,100	0,043
-222,898	-200,000	0,018	-0,144
-221,884	-98,229	0,133	-0,024
-220,869	21,324	-0,073	-0,042
-219,855	-200,000	-0,003	0,059
-218,840	-87,478	0,146	-0,031
-217,825	-200,000	-0,004	0,050
-216,811	-72,517	-0,143	0,037
-215,796	800,000	-0,016	0,049
-214,782	800,000	0,065	0,173
-213,767	-200,000	0,039	0,247
-212,752	-200,000	0,006	0,096
-211,738	-89,266	0,093	0,019
-210,723	-200,000	-0,002	0,063
-209,709	292,142	0,065	-0,084
-208,694	504,466	-0,069	0,113
-207,679	800,000	0,038	0,112
-206,665	-200,000	-0,009	0,095
-205,650	-64,531	0,027	-0,008
-204,636	-87,658	-0,069	-0,015
-203,621	484,305	0,015	-0,025
-202,606	800,000	-0,039	-0,098
-201,592	-200,000	-0,018	-0,092
-200,577	216,304	-0,048	0,054
-199,563	-30,868	0,089	-0,036
-198,548	-18,721	0,195	0,086
-197,533	482,072	0,014	-0,022
-196,519	-79,773	0,106	0,025
-195,504	-152,814	0,128	0,006
-194,490	800,000	0,031	-0,076
-193,475	-33,131	0,089	-0,035
-192,460	-122,043	0,078	-0,009
-191,446	-89,755	-0,119	-0,025
-190,431	-200,000	-0,000	0,032
-189,417	371,252	-0,041	0,060
-188,402	509,144	-0,017	-0,028
-187,387	38,062	-0,210	0,132
-186,373	-200,000	0,023	-0,101
-185,358	-200,000	0,020	-0,093
-184,344	-117,455	-0,148	-0,019
-183,329	-200,000	0,057	0,217
-182,315	247,086	0,144	0,172
-181,300	-74,470	-0,067	0,017
-180,285	98,012	-0,102	-0,083
-179,271	800,000	-0,064	-0,135
-178,256	-32,381	0,120	-0,047
-177,242	146,285	0,016	0,015
-176,227	-164,787	-0,016	-0,001
-175,212	-143,383	0,100	0,007
-174,198	-8,810	0,078	-0,037
-173,183	-200,000	0,024	-0,093
-172,169	-200,000	-0,036	-0,182
-171,154	171,594	-0,071	-0,072
-170,139	1,896	0,088	-0,045
-169,125	115,623	0,123	0,107
-168,110	143,739	0,090	-0,085
-167,096	70,981	0,040	0,029
-166,081	-200,000	-0,044	-0,147
-165,066	3,601	-0,044	-0,023
-164,052	93,209	-0,070	-0,056
-163,037	60,914	0,102	-0,071
-162,023	269,919	0,042	-0,053
-161,008	-200,000	0,020	0,103
-159,993	-200,000	0,004	0,076
-158,979	454,925	-0,047	0,074
-157,964	-30,561	-0,142	-0,057
-156,950	-32,480	-0,125	-0,049
-155,935	-66,361	0,197	0,055
-154,920	16,384	0,095	-0,053
-153,906	-169,258	-0,026	0,001
-152,891	-199,071	-0,077	0,000
-151,877	142,210	0,081	-0,077
-150,862	-200,000	0,033	-0,134
-149,847	249,033	0,061	0,073
-148,833	800,000	-0,060	-0,120
-147,818	-32,883	0,097	-0,038
-146,804	172,853	0,045	-0,046
-145,789	-24,278	0,101	0,042
-144,775	-200,000	0,000	0,118
-143,760	12,934	-0,113	0,062
-142,745	443,827	0,062	0,097
-141,731	-44,572	0,076	-0,027
-140,716	-108,179	-0,157	0,024
-139,702	-86,621	0,025	0,005
-138,687	514,339	0,031	-0,052
-137,672	162,401	-0,118	-0,117
-136,658	800,000	-0,050	-0,116
-135,643	-12,194	0,048	-0,022
-134,629	800,000	-0,048	0,134
-133,614	-137,907	0,100	0,008
-132,599	800,000	0,056	0,133
-131,585	691,845	0,038	0,071
-130,570	-200,000	-0,015	0,074
-129,556	-200,000	0,019	0,061
-128,541	-24,926	-0,052	0,022
-127,526	-30,061	-0,142	-0,057
-126,512	-172,571	0,160	-0,003
-125,497	52,374	0,085	-0,057
-124,483	-96,198	0,126	-0,023
-123,468	466,591	0,042	0,067
-122,453	544,037	-0,005	-0,008
-121,439	97,583	0,071	-0,058
-120,424	-200,000	-0,043	-0,138
-119,410	-200,000	-0,027	0,150
-118,395	-200,000	-0,025	0,086
-117,380	-163,112	0,051	-0,002
-116,366	84,495	-0,066	0,051
-115,351	-160,679	0,072	-0,003
-114,337	800,000	0,033	-0,096
-113,322	-128,190	0,019	-0,002
-112,307	159,134	0,100	0,099
-111,293	800,000	0,039	-0,087
-110,278	4,542	0,103	-0,053
-109,264	-200,000	-0,012	0,092
-108,249	550,252	-0,073	-0,125
-107,234	-200,000	0,006	-0,074
-106,220	106,870	0,109	0,092
-105,205	225,809	-0,020	-0,022
-104,191	77,859	0,180	-0,136
-103,176	-200,000	-0,003	0,104
-102,162	-200,000	-0,001	0,003
-101,147	210,506	-0,073	-0,081
-100,132	392,692	-0,047	0,070
-99,118	800,000	-0,050	0,123
-98,103	303,729	0,095	-0,125
-97,089	305,576	-0,024	-0,031
-96,074	540,966	0,029	-0,048
-95,059	-200,000	0,009	0,031
-94,045	90,399	-0,056	-0,044
-93,030	454,207	-0,088	0,139
-92,016	166,734	-0,091	0,092
-91,001	800,000	-0,047	0,105
-89,986	-107,094	0,154	-0,024
-88,972	-16,635	-0,125	0,056
-87,957	-152,706	0,073	-0,004
-86,943	178,330	0,063	-0,065
-85,928	34,864	-0,070	-0,043
-84,913	694,232	-0,021	-0,040
-83,899	608,932	0,054	-0,095
-82,884	-200,000	-0,018	0,099
-81,870	102,072	-0,049	-0,040
-80,855	421,866	0,039	0,059
-79,840	-128,288	0,109	0,011
-78,826	-22,705	-0,110	-0,047
-77,811	85,844	-0,012	-0,009
-76,797	3,226	0,118	-0,060
-75,782	800,000	-0,019	-0,048
-74,767	-200,000	-0,012	0,086
-73,753	-200,000	0,010	0,062
-72,738	-200,000	0,001	0,141
-71,724	-200,000	-0,005	-0,080
-70,709	-200,000	0,004	-0,086
-69,694	800,000	-0,055	-0,166
-68,680	-200,000	0,013	0,240
-67,665	800,000	-0,034	0,081
-66,651	-200,000	-0,014	0,123
-65,636	800,000	-0,014	-0,031
-64,622	13,779	0,058	-0,032
-63,607	-200,000	0,022	0,093
-62,592	800,000	-0,095	0,204
-61,578	-111,939	-0,052	0,007
-60,563	-200,000	-0,004	0,096
-59,549	800,000	0,016	0,043
-58,534	76,065	-2,010	-1,499
-57,519	534,492	-1,131	-1,899
-56,505	-200,000	-0,442	-4,324
-55,490	649,808	0,845	1,533
-54,476	800,000	5,201	11,319
-53,461	-200,000	21,763	340,424
-52,446	800,000	762,223	2322,033
-51,432	540,947	1658,273	2797,257
-50,417	70,365	1654,983	1205,160
-49,403	16,955	1528,542	851,766
-48,388	11,017	1452,587	780,819
-47,373	19,169	1444,449	815,399
-46,359	14,473	1433,338	786,847
-45,344	9,353	1429,438	760,379
-44,330	9,292	1427,485	759,017
-43,315	9,244	1425,641	757,781
-42,300	9,268	1423,824	756,900
-41,286	9,307	1422,670	756,437
-40,271	9,265	1421,559	755,621
-39,257	9,268	1420,370	754,974
-38,242	9,334	1419,127	754,593
-37,227	9,316	1417,992	753,874
-36,213	9,326	1416,645	753,175
-35,198	9,296	1415,569	752,431
-34,184	9,370	1414,406	752,132
-33,169	9,247	1413,215	750,889
-32,154	9,320	1412,290	750,715
-31,140	9,289	1411,074	749,891
-30,125	9,388	1409,747	749,622
-29,111	9,388	1408,442	748,896
-28,096	9,339	1407,587	748,181
-27,082	9,269	1406,273	747,126
-26,067	9,220	1405,274	746,340
-25,052	9,259	1404,368	746,010
-24,038	9,301	1403,356	745,640
-23,023	9,299	1402,312	745,044
-22,009	9,280	1401,357	744,421
-20,994	9,272	1400,181	743,726
-19,979	9,256	1399,347	743,179
-18,965	9,233	1398,329	742,502
-17,950	9,259	1397,246	742,019
-16,936	9,173	1396,661	741,280
-15,921	9,115	1395,719	740,480
-14,906	9,136	1394,746	740,032
-13,892	9,236	1393,756	739,944
-12,877	9,177	1393,099	739,292
-11,863	9,172	1392,079	738,699
-10,848	9,162	1391,115	738,112
-9,833	9,123	1390,245	737,437
-8,819	9,071	1389,704	736,884
-7,804	9,083	1388,410	736,221
-6,790	9,083	1387,382	735,647
-5,775	9,053	1386,436	734,980
-4,760	9,076	1385,432	734,522
-3,746	9,065	1384,671	734,042
-2,731	9,097	1383,798	733,693
-1,717	9,091	1382,665	733,039
-0,702	9,072	1381,130	732,107
0,313	13,113	1293,355	703,976
1,327	29,093	684,942	408,788
2,342	45,481	118,075	76,711
3,356	-0,330	16,448	8,214
4,371	5,977	3,624	1,886
5,386	-5,952	1,254	0,602
6,400	800,000	0,217	0,624
7,415	327,160	-0,148	-0,200
8,429	357,302	-0,100	-0,142
9,444	81,174	-0,230	-0,175
10,459	1,631	-0,207	-0,104
11,473	78,626	-0,269	-0,203
12,488	42,693	-0,315	-0,201
13,502	35,970	-0,293	-0,181
14,517	-6,849	-0,335	-0,160
15,531	172,927	-0,280	-0,284
16,546	-72,913	-0,377	-0,097
17,561	143,803	-0,300	-0,281
18,575	-99,017	-0,198	-0,035
19,590	128,562	-0,298	-0,267
20,604	-80,369	-0,233	-0,054
21,619	100,665	-0,390	-0,319
22,634	183,100	-0,371	-0,386
23,648	29,533	-0,413	-0,247
24,663	37,716	-0,422	-0,263
25,677	159,807	-0,257	-0,252
26,692	146,455	-0,273	-0,258
27,707	32,272	-0,329	-0,199
28,721	90,613	-0,368	-0,289
29,736	-4,520	-0,418	-0,202
30,750	63,596	-0,519	-0,366
31,765	109,874	-0,377	-0,318
32,780	155,175	-0,325	-0,314
33,794	140,733	-0,305	-0,283
34,809	86,098	-0,263	-0,203
35,823	28,468	-0,400	-0,237
36,838	128,849	-0,395	-0,354
37,853	103,926	-0,353	-0,292
38,867	78,806	-0,248	-0,186
39,882	59,129	-0,335	-0,231
40,896	128,770	-0,271	-0,242
41,911	-36,117	-0,360	-0,136
42,926	159,969	-0,384	-0,377
43,940	111,864	-0,358	-0,303
44,955	129,051	-0,378	-0,339
45,969	53,176	-0,350	-0,235
46,984	-18,008	-0,367	-0,161
47,999	108,064	-0,308	-0,258
49,013	-75,173	-0,331	-0,082
50,028	-71,788	-0,390	-0,101
51,042	65,706	-0,308	-0,219
52,057	117,013	-0,290	-0,250
53,071	40,184	-0,318	-0,201
54,086	102,535	-0,236	-0,194
55,101	112,739	-0,345	-0,293
56,115	95,977	-0,271	-0,217
57,130	72,783	-0,291	-0,213
58,144	-80,311	-0,435	-0,101
59,159	68,321	-0,345	-0,248
60,174	96,569	-0,415	-0,333
61,188	6,186	-0,412	-0,213
62,203	63,592	-0,288	-0,202
63,217	74,524	-0,321	-0,237
64,232	73,159	-0,270	-0,198
65,247	16,798	-0,312	-0,173
66,261	-20,458	-0,226	-0,097
67,276	31,216	-0,363	-0,218
68,290	48,209	-0,321	-0,210
69,305	144,574	-0,309	-0,290
70,320	116,682	-0,294	-0,253
71,334	138,512	-0,325	-0,299
72,349	170,283	-0,292	-0,294
73,363	-32,561	-0,352	-0,137
74,378	-61,638	-0,404	-0,118
75,393	114,201	-0,268	-0,228
76,407	35,986	-0,313	-0,192
77,422	181,688	-0,152	-0,157
78,436	-54,173	-0,385	-0,122
79,451	104,092	-0,260	-0,214
80,466	6,463	-0,250	-0,130
81,480	64,389	-0,365	-0,257
82,495	24,807	-0,226	-0,131
83,509	58,239	-0,376	-0,257
84,524	21,433	-0,244	-0,138
85,539	-32,325	-0,274	-0,106
86,553	153,764	-0,276	-0,265
87,568	11,384	-0,417	-0,223
88,582	335,763	-0,256	-0,348
89,597	125,637	-0,350	-0,309
90,611	205,985	-0,327	-0,356
91,626	76,174	-0,241	-0,178
92,641	69,296	-0,286	-0,205
93,655	257,959	-0,276	-0,333
94,670	61,041	-0,208	-0,144
95,684	96,548	-0,280	-0,224
96,699	-41,000	-0,454	-0,163
97,714	100,315	-0,246	-0,199
98,728	100,619	-0,218	-0,177
99,743	-87,014	-0,234	-0,049
100,757	33,212	-0,314	-0,190
101,772	174,252	-0,174	-0,175
102,787	113,759	-0,256	-0,218
103,801	-46,179	-0,325	-0,111
104,816	581,680	-0,162	-0,279
105,830	-82,768	-0,234	-0,052
106,845	106,498	-0,145	-0,120
107,860	35,238	-0,347	-0,212
108,874	-66,950	-0,250	-0,069
109,889	-40,260	-0,340	-0,123
110,903	47,257	-0,315	-0,205
111,918	152,097	-0,247	-0,236
112,933	75,978	-0,155	-0,114
113,947	84,273	-0,195	-0,149
114,962	-46,466	-0,288	-0,098
115,976	20,259	-0,216	-0,122
116,991	187,992	-0,216	-0,225
118,006	10,026	-0,276	-0,146
119,020	4,223	-0,287	-0,146
120,035	68,750	-0,193	-0,138
121,049	332,520	-0,194	-0,262
122,064	55,901	-0,253	-0,171
123,079	21,056	-0,094	-0,053
124,093	92,808	-0,190	-0,150
125,108	117,705	-0,231	-0,199
126,122	650,269	-0,097	-0,174
127,137	-28,445	-0,198	-0,079
128,151	-104,360	-0,317	-0,051
129,166	111,597	-0,244	-0,205
130,181	80,814	-0,337	-0,253
131,195	136,147	-0,236	-0,214
132,210	113,474	-0,335	-0,283
133,224	397,777	-0,156	-0,229
134,239	-82,694	-0,268	-0,060
135,254	107,079	-0,184	-0,152
136,268	67,329	-0,306	-0,217
137,283	58,556	-0,280	-0,191
138,297	82,245	-0,255	-0,193
139,312	126,696	-0,237	-0,209
140,327	108,500	-0,335	-0,279
141,341	96,679	-0,225	-0,179
142,356	-30,086	-0,203	-0,080
143,370	-25,963	-0,173	-0,071
144,385	-70,659	-0,289	-0,075
145,400	29,508	-0,188	-0,111
146,414	218,549	-0,256	-0,285
147,429	-47,668	-0,209	-0,070
148,443	390,283	-0,242	-0,350
149,458	-111,702	-0,295	-0,041
150,473	71,705	-0,193	-0,139
151,487	453,276	-0,137	-0,212
152,502	12,883	-0,375	-0,201
153,516	215,553	-0,198	-0,219
154,531	76,411	-0,175	-0,129
155,546	512,547	-0,207	-0,336
156,560	23,380	-0,238	-0,135
157,575	85,196	-0,180	-0,137
158,589	-22,759	-0,256	-0,107
159,604	57,179	-0,240	-0,163
160,619	-10,068	-0,207	-0,095
161,633	199,821	-0,243	-0,260
162,648	240,697	-0,245	-0,284
163,662	800,000	-0,104	-0,224
164,677	32,421	-0,289	-0,173
165,692	16,282	-0,238	-0,130
166,706	620,910	-0,157	-0,276
167,721	105,316	-0,351	-0,288
168,735	212,776	-0,146	-0,160
169,750	87,926	-0,179	-0,138
170,764	-200,000	-0,052	-0,213
171,779	-39,822	-0,208	-0,075
172,794	5,402	-0,237	-0,121
173,808	108,407	-0,228	-0,189
174,823	104,443	-0,283	-0,231
175,837	272,452	-0,213	-0,261
176,852	54,738	-0,190	-0,127
177,867	-127,433	-0,144	-0,014
178,881	137,582	-0,065	-0,059
179,896	-26,532	-0,126	-0,051
180,910	196,680	-0,193	-0,204
181,925	-35,793	-0,184	-0,069
182,940	130,062	-0,189	-0,168
183,954	-15,435	-0,218	-0,096
184,969	-77,390	-0,162	-0,039
185,983	-93,105	-0,090	0,017
186,998	-98,635	-0,305	-0,053
188,013	184,693	-0,208	-0,214
189,027	219,703	-0,243	-0,270
190,042	528,160	-0,180	-0,296
191,056	327,356	-0,145	-0,193
192,071	722,659	-0,101	-0,187
193,086	59,566	-0,276	-0,189
194,100	26,488	-0,174	-0,100
195,115	-1,094	-0,284	-0,139
196,129	-110,241	-0,235	0,034
197,144	1,874	-0,288	-0,143
198,159	597,841	-0,132	-0,227
199,173	75,985	-0,152	-0,111
200,188	313,373	-0,117	-0,153
201,202	230,790	-0,157	-0,178
202,217	-129,607	-0,140	0,013
203,232	76,082	-0,178	-0,131
204,246	151,612	-0,258	-0,244
205,261	88,950	-0,244	-0,188
206,275	-123,371	-0,156	0,017
207,290	101,850	-0,122	-0,098
208,304	90,234	-0,089	-0,069
209,319	136,486	-0,260	-0,235
210,334	36,235	-0,211	-0,128
211,348	17,904	-0,266	-0,146
212,363	11,907	-0,168	-0,089
213,377	175,800	-0,199	-0,200
214,392	33,676	-0,134	-0,081
215,407	-82,217	-0,108	0,024
216,421	184,759	-0,152	-0,156
217,436	111,096	-0,279	-0,233
218,450	97,731	-0,196	-0,156
219,465	77,434	-0,162	-0,119
220,480	393,690	-0,118	-0,171
221,494	298,551	-0,128	-0,163
222,509	6,558	-0,069	-0,035
223,523	-30,466	-0,309	-0,120
224,538	166,281	-0,210	-0,206
225,553	-200,000	-0,054	-0,210
226,567	93,572	-0,298	-0,233
227,582	-63,770	-0,153	-0,043
228,596	-113,989	-0,146	0,019
229,611	336,389	-0,078	-0,106
230,626	-32,085	-0,167	-0,064
231,640	85,645	-0,188	-0,142
232,655	800,000	-0,136	-0,273
233,669	479,468	-0,094	-0,148
234,684	13,337	-0,239	-0,127
235,699	38,997	-0,207	-0,127
236,713	362,299	-0,114	-0,159
237,728	-63,800	-0,128	-0,036
238,742	257,962	-0,093	-0,111
239,757	50,969	-0,192	-0,125
240,772	152,385	-0,162	-0,153
241,786	-7,381	-0,249	-0,116
242,801	-200,000	-0,006	-0,174
243,815	314,347	-0,073	-0,095
244,830	76,639	-0,110	-0,080
245,844	50,444	-0,283	-0,184
246,859	-92,128	-0,131	-0,025
247,874	23,340	-0,338	-0,191
248,888	34,583	-0,163	-0,098
249,903	86,228	-0,123	-0,093
250,917	31,033	-0,183	-0,108
251,932	21,221	-0,172	-0,096
252,947	-128,756	-0,286	-0,027
253,961	12,427	-0,213	-0,113
254,976	-20,570	-0,175	-0,074
255,990	-37,237	-0,265	-0,097
257,005	73,396	-0,163	-0,118
258,020	800,000	-0,051	-0,147
259,034	-66,978	-0,286	-0,077
260,049	-51,094	-0,146	-0,047
261,063	-79,377	-0,184	-0,043
262,078	-138,345	-0,242	-0,018
263,093	319,943	-0,111	-0,145
264,107	23,501	-0,134	-0,076
265,122	3,370	-0,151	0,075
266,136	-200,000	-0,033	-0,130
267,151	-200,000	0,013	-0,057
268,166	73,370	-0,176	-0,127
269,180	800,000	-0,102	-0,304
270,195	19,410	-0,308	-0,170
271,209	69,909	-0,179	-0,127
272,224	11,794	-0,175	-0,092
273,239	58,306	-0,218	-0,147
274,253	312,854	-0,088	-0,114
275,268	306,273	-0,128	-0,165
276,282	-73,935	-0,208	-0,052
277,297	30,649	-0,062	-0,037
278,312	-7,410	-0,133	-0,062
279,326	800,000	-0,049	-0,147
280,341	-80,637	-0,118	0,027
281,355	39,252	-0,090	-0,056
282,370	800,000	-0,045	-0,121
283,384	-157,559	-0,271	-0,011
284,399	28,722	-0,259	-0,150
285,414	-68,714	-0,109	-0,029
286,428	-39,819	-0,182	-0,065
287,443	-0,145	-0,146	-0,071
288,457	21,210	-0,126	0,070
289,472	94,471	-0,153	-0,120
290,487	352,186	-0,119	-0,163
291,501	800,000	-0,064	-0,138
292,516	-160,310	-0,226	0,008
293,530	279,297	-0,181	-0,222
294,545	-138,506	-0,153	-0,011
295,560	34,501	-0,073	-0,044
296,574	-68,846	-0,121	0,032
297,589	34,306	-0,142	-0,085
298,603	-73,315	-0,155	-0,039
299,618	39,846	-0,129	-0,080
300,633	-33,029	-0,107	-0,041
301,647	-138,786	-0,172	0,013
302,662	-146,952	-0,105	0,006
303,676	23,314	-0,233	-0,131
304,691	675,942	-0,104	-0,187
305,706	39,591	-0,238	-0,146
306,720	5,768	-0,260	-0,132
307,735	-23,170	-0,235	-0,097
308,749	800,000	-0,121	-0,269
309,764	-127,377	-0,086	0,008
310,779	313,094	-0,098	-0,126
311,793	92,331	-0,164	-0,127
312,808	-141,142	-0,175	-0,012
313,822	172,392	-0,090	-0,089
314,837	199,755	-0,084	-0,088
315,852	-90,068	-0,240	0,048
316,866	121,940	-0,148	-0,126
317,881	800,000	-0,025	-0,071
318,895	-115,017	-0,179	-0,023
319,910	-130,336	-0,150	-0,014
320,925	800,000	-0,106	-0,232
321,939	82,189	-0,181	-0,135
322,954	187,848	-0,071	-0,073
323,968	-63,393	-0,052	0,015
324,983	646,665	-0,069	-0,122
325,997	311,537	-0,133	-0,172
327,012	-51,270	-0,079	-0,025
328,027	218,812	-0,125	-0,137
329,041	-200,000	-0,026	-0,099
330,056	-200,000	-0,012	-0,122
331,070	6,019	-0,150	-0,076
332,085	328,021	-0,033	0,043
333,100	349,950	-0,120	-0,163
334,114	322,805	-0,114	-0,149
335,129	-57,678	-0,225	-0,067
336,143	72,738	-0,179	-0,128
337,158	80,626	-0,073	-0,054
338,173	104,322	-0,064	-0,052
339,187	16,548	-0,089	-0,048
340,202	-73,160	-0,105	-0,026
341,216	123,149	-0,183	-0,157
342,231	68,573	-0,116	-0,081
343,246	-44,579	-0,180	-0,061
344,260	-200,000	-0,007	-0,166
345,275	562,330	0,011	-0,018
346,289	-96,984	-0,109	0,019
347,304	-98,585	-0,175	-0,030
348,319	53,020	-0,222	-0,145
349,333	13,775	-0,227	-0,120
350,348	292,078	-0,186	-0,232
351,362	131,189	-0,153	-0,134
352,377	-68,396	-0,137	0,036
353,392	63,713	-0,189	-0,129
354,406	55,591	-0,075	-0,050
355,421	208,311	1306,352	1397,589
356,435	160,283	1466,021	1398,057
