DTS Sentinel unit serial number:	SN410029Multiplexer serial number:	ORYXHardware model number:	OX2-SRSoftware version number:	ORYX F/W v4,00 Oryx Data Collector v3.7.2.0data status	okinstallation	B3 Nyhavnadifferential loss correction	single-endedforward channel	channel 1reverse channel	N/Adate	2023/11/30time	11:52:30forward acquisition time	300,00reverse acquisition time	0,00gamma	499,1914k internal	0,3211k external	0,3211temperature offset calibration	1,0000default loss term (dB/km)	0,3820temperature slope calibration	1,0000multiplexer offset coefficient	1,0000multiplexer slope coefficient	1,0000fibre end	0,00T internal ref (°C)	9,43T ext. ref 1 (°C)	-5,37T ext. ref 2 (°C)	-5,47length (m)	temperature (°C)	Stokes	anti-Stokes-744,400	194,026	-0,228	-0,251
-743,385	-200,000	0,006	0,221
-742,371	442,311	-0,221	-0,352
-741,356	766,938	-0,121	0,239
-740,342	87,472	-0,164	-0,131
-739,327	-200,000	0,042	0,329
-738,312	204,130	-0,210	-0,236
-737,298	800,000	-0,074	0,227
-736,283	-200,000	0,002	-0,310
-735,269	-200,000	0,027	0,136
-734,254	182,046	-0,151	-0,161
-733,239	59,149	-0,148	0,106
-732,225	800,000	-0,087	-0,202
-731,210	161,908	0,099	0,100
-730,196	-200,000	-0,018	-0,074
-729,181	800,000	-0,037	-0,077
-728,167	-200,000	-0,025	-0,117
-727,152	-200,000	-0,021	-0,090
-726,137	505,261	-0,060	-0,101
-725,123	-23,305	-0,176	0,076
-724,108	-7,702	0,019	-0,009
-723,094	-96,618	-0,078	-0,015
-722,079	189,927	-0,074	-0,081
-721,064	-200,000	-0,010	0,113
-720,050	418,357	-0,021	-0,032
-719,035	-60,074	-0,040	0,012
-718,021	-92,811	-0,189	-0,038
-717,006	-46,234	-0,070	-0,025
-715,991	109,231	-0,020	0,017
-714,977	-200,000	-0,186	0,000
-713,962	422,530	-0,042	-0,065
-712,948	501,104	0,040	0,068
-711,933	800,000	-0,035	-0,104
-710,918	-163,742	-0,184	0,006
-709,904	7,523	-0,091	0,049
-708,889	292,327	-0,117	-0,155
-707,875	24,866	-0,143	0,086
-706,860	136,369	-0,129	-0,122
-705,845	-200,000	-0,006	0,074
-704,831	185,660	0,112	0,120
-703,816	546,784	-0,062	0,108
-702,802	-140,582	-0,117	-0,009
-701,787	800,000	-0,106	-0,213
-700,772	-75,886	0,136	0,035
-699,758	-200,000	-0,011	-0,132
-698,743	-200,000	-0,009	0,074
-697,729	800,000	-0,024	0,050
-696,714	-79,071	-0,100	-0,025
-695,699	-118,725	-0,205	-0,026
-694,685	581,459	-0,129	-0,229
-693,670	83,731	-0,067	-0,053
-692,656	-200,000	-0,013	-0,058
-691,641	-200,000	-0,010	-0,118
-690,627	-200,000	-0,031	-0,187
-689,612	-93,767	-0,111	-0,022
-688,597	-2,185	0,011	0,006
-687,583	150,238	-0,149	-0,146
-686,568	20,374	-0,259	-0,151
-685,554	179,602	-0,030	0,032
-684,539	4,432	-0,059	0,031
-683,524	-200,000	-0,005	0,045
-682,510	-121,984	-0,228	0,027
-681,495	-112,616	-0,097	-0,014
-680,481	-68,900	-0,034	-0,009
-679,466	-21,513	-0,044	0,019
-678,451	171,084	0,101	-0,105
-677,437	-200,000	-0,016	-0,132
-676,422	-26,305	0,116	0,049
-675,408	-65,490	0,123	0,036
-674,393	800,000	0,017	0,035
-673,378	-136,772	-0,107	0,009
-672,364	-200,000	-0,007	-0,175
-671,349	-120,065	-0,097	0,012
-670,335	-200,000	0,001	-0,029
-669,320	800,000	-0,050	0,105
-668,305	92,899	0,098	-0,080
-667,291	179,001	-0,014	0,015
-666,276	13,992	-0,136	-0,076
-665,262	-200,000	-0,003	-0,033
-664,247	90,610	-0,105	-0,085
-663,232	221,356	0,091	0,106
-662,218	800,000	-0,011	-0,036
-661,203	574,744	0,101	0,179
-660,189	-130,418	-0,067	-0,006
-659,174	-200,000	0,017	-0,086
-658,159	112,345	-0,107	-0,094
-657,145	-57,871	0,037	-0,011
-656,130	129,312	-0,082	-0,075
-655,116	132,260	-0,090	-0,084
-654,101	111,952	-0,146	0,127
-653,086	153,507	-0,078	0,077
-652,072	12,912	0,053	0,030
-651,057	800,000	0,047	0,102
-650,043	170,824	0,031	0,032
-649,028	33,517	-0,037	0,023
-648,014	380,070	0,011	-0,016
-646,999	174,318	-0,071	-0,074
-645,984	-142,436	-0,130	-0,009
-644,970	111,183	0,024	-0,021
-643,955	-92,162	-0,196	-0,040
-642,941	331,326	0,040	-0,056
-641,926	-134,471	-0,092	-0,008
-640,911	-111,720	-0,197	0,028
-639,897	-75,681	0,099	-0,025
-638,882	85,281	0,044	-0,035
-637,868	182,271	-0,107	0,114
-636,853	118,867	-0,056	-0,050
-635,838	216,091	0,029	-0,034
-634,824	-108,152	-0,070	0,011
-633,809	800,000	-0,027	0,082
-632,795	11,182	-0,077	0,042
-631,780	3,453	-0,053	0,028
-630,765	-200,000	-0,043	0,166
-629,751	125,865	0,060	0,055
-628,736	147,219	-0,128	-0,124
-627,722	-81,713	-0,085	0,020
-626,707	-177,350	0,046	-0,001
-625,692	-100,511	0,118	-0,021
-624,678	-200,000	-0,025	-0,080
-623,663	800,000	-0,034	0,075
-622,649	127,365	-0,053	-0,049
-621,634	-37,059	0,021	-0,008
-620,619	-200,000	-0,025	-0,091
-619,605	115,564	0,088	0,077
-618,590	582,951	0,057	0,102
-617,576	-50,647	-0,100	0,034
-616,561	-20,998	-0,122	0,054
-615,546	32,358	0,087	-0,054
-614,532	-157,778	-0,042	-0,002
-613,517	352,237	0,019	0,027
-612,503	-161,370	0,049	-0,002
-611,488	-185,268	0,109	-0,001
-610,474	-200,000	-0,005	0,062
-609,459	-108,935	-0,052	-0,008
-608,444	356,843	-0,079	-0,114
-607,430	-200,000	0,016	-0,097
-606,415	-11,355	0,066	0,031
-605,401	-156,385	0,046	0,002
-604,386	118,254	-0,125	0,111
-603,371	-147,996	0,128	0,008
-602,357	-159,310	-0,037	0,001
-601,342	-129,498	0,116	-0,011
-600,328	-182,685	0,114	-0,001
-599,313	254,680	-0,032	-0,040
-598,298	657,031	-0,047	-0,087
-597,284	16,917	0,119	0,067
-596,269	-138,961	0,085	-0,007
-595,255	215,847	-0,059	0,068
-594,240	-26,259	0,063	-0,026
-593,225	577,710	-0,043	-0,077
-592,211	-200,000	-0,010	-0,169
-591,196	197,170	-0,084	-0,093
-590,182	-200,000	-0,013	-0,049
-589,167	-200,000	0,011	0,066
-588,152	-200,000	-0,011	0,056
-587,138	196,234	-0,028	-0,031
-586,123	176,162	-0,107	-0,112
-585,109	-200,000	0,009	0,039
-584,094	78,242	0,100	0,077
-583,079	800,000	0,020	-0,050
-582,065	-147,023	0,111	-0,007
-581,050	47,690	-0,140	0,094
-580,036	159,305	-0,108	-0,108
-579,021	-0,280	-0,210	-0,107
-578,006	-200,000	-0,004	0,124
-576,992	-200,000	0,020	0,094
-575,977	392,015	0,088	0,132
-574,963	800,000	-0,052	-0,108
-573,948	584,138	0,018	0,032
-572,934	-179,661	0,035	0,001
-571,919	-67,272	-0,017	0,005
-570,904	800,000	-0,048	-0,101
-569,890	79,118	-0,079	0,061
-568,875	67,004	0,060	0,044
-567,861	-59,554	0,105	0,032
-566,846	-6,072	-0,092	0,045
-565,831	-200,000	0,029	0,112
-564,817	800,000	0,045	0,094
-563,802	8,326	-0,047	-0,025
-562,788	-61,569	-0,044	-0,013
-561,773	-31,337	0,040	0,016
-560,758	41,663	0,044	-0,029
-559,744	800,000	-0,045	0,127
-558,729	-200,000	0,010	-0,059
-557,715	196,833	0,042	0,046
-556,700	-200,000	-0,015	-0,075
-555,685	-200,000	-0,003	-0,125
-554,671	800,000	0,043	-0,096
-553,656	240,073	0,037	0,045
-552,642	-120,738	0,203	-0,024
-551,627	747,755	-0,038	-0,073
-550,612	-154,753	0,048	0,002
-549,598	800,000	-0,006	0,020
-548,583	-137,141	-0,143	0,012
-547,569	-200,000	-0,008	-0,032
-546,554	0,621	-0,128	0,066
-545,539	104,464	0,082	-0,070
-544,525	-44,607	-0,066	0,024
-543,510	-78,221	-0,085	-0,021
-542,496	-173,443	-0,188	-0,004
-541,481	-200,000	-0,018	0,093
-540,466	145,704	-0,004	0,004
-539,452	-97,113	-0,233	-0,043
-538,437	-22,647	0,079	-0,034
-537,423	-94,666	-0,080	-0,015
-536,408	165,812	0,084	0,086
-535,393	464,408	0,068	0,109
-534,379	127,780	0,024	0,021
-533,364	153,710	0,059	-0,058
-532,350	-120,503	0,080	0,010
-531,335	36,240	0,112	0,071
-530,321	-200,000	-0,012	-0,104
-529,306	-116,436	-0,065	-0,008
-528,291	800,000	0,014	0,028
-527,277	153,373	-0,101	0,099
-526,262	-37,225	-0,079	0,030
-525,248	-66,551	0,094	0,027
-524,233	-200,000	-0,000	0,038
-523,218	347,714	0,097	0,138
-522,204	-20,021	-0,091	0,040
-521,189	-200,000	-0,011	-0,089
-520,175	-87,284	0,029	0,006
-519,160	81,916	-0,012	-0,010
-518,145	-200,000	-0,028	-0,104
-517,131	37,766	0,121	0,077
-516,116	-20,473	-0,115	-0,051
-515,102	624,337	-0,067	0,122
-514,087	-47,226	-0,072	0,025
-513,072	800,000	0,038	-0,108
-512,058	-159,742	-0,111	-0,004
-511,043	174,448	0,068	0,071
-510,029	-49,322	0,072	0,025
-509,014	-200,000	0,007	-0,077
-507,999	-45,945	0,023	-0,008
-506,985	-65,406	0,039	-0,011
-505,970	-48,816	0,082	0,028
-504,956	800,000	0,056	-0,119
-503,941	-132,038	-0,041	0,004
-502,926	-200,000	-0,016	-0,079
-501,912	732,134	0,027	0,052
-500,897	-200,000	0,008	0,086
-499,883	-200,000	-0,025	-0,170
-498,868	-103,197	-0,133	0,022
-497,853	26,058	0,068	-0,040
-496,839	-200,000	0,039	0,174
-495,824	-178,545	0,133	0,002
-494,810	-148,373	0,154	0,009
-493,795	132,615	0,118	0,110
-492,781	-127,753	-0,188	0,019
-491,766	-179,480	-0,021	-0,000
-490,751	183,121	-0,042	0,044
-489,737	-200,000	0,004	0,096
-488,722	501,500	0,069	0,115
-487,708	488,004	0,038	-0,063
-486,693	-103,949	0,066	0,011
-485,678	647,763	0,071	0,131
-484,664	-200,000	-0,007	-0,051
-483,649	-69,815	-0,099	-0,027
-482,635	-118,005	-0,173	0,022
-481,620	-23,438	0,198	0,085
-480,605	333,532	0,043	0,060
-479,591	-99,743	-0,175	0,031
-478,576	517,033	0,033	-0,056
-477,562	800,000	-0,033	-0,071
-476,547	76,646	-0,044	0,034
-475,532	227,784	0,151	-0,176
-474,518	-16,059	-0,098	-0,045
-473,503	-67,262	-0,076	-0,021
-472,489	771,047	0,033	0,064
-471,474	33,563	0,006	-0,004
-470,459	-200,000	-0,013	-0,078
-469,445	-25,367	0,080	0,034
-468,430	-200,000	-0,001	-0,047
-467,416	19,197	0,029	0,017
-466,401	-155,700	0,047	0,002
-465,386	-128,365	-0,042	-0,004
-464,372	-93,955	0,214	0,042
-463,357	92,858	-0,066	-0,053
-462,343	354,017	0,062	-0,089
-461,328	505,729	0,053	-0,089
-460,313	-200,000	-0,055	-0,195
-459,299	-62,959	0,137	0,040
-458,284	-121,051	0,071	-0,008
-457,270	137,254	0,074	0,070
-456,255	99,393	-0,054	0,045
-455,241	-200,000	-0,008	-0,140
-454,226	-149,843	-0,112	-0,006
-453,211	18,092	0,033	0,019
-452,197	-10,166	0,120	0,057
-451,182	-71,210	-0,091	-0,024
-450,168	278,823	0,048	-0,061
-449,153	800,000	-0,028	-0,060
-448,138	760,718	-0,020	0,040
-447,124	353,110	-0,022	-0,032
-446,109	-200,000	0,023	0,123
-445,095	182,354	0,095	0,100
-444,080	800,000	-0,013	-0,033
-443,065	52,010	-0,093	0,064
-442,051	-126,243	-0,047	0,005
-441,036	800,000	-0,014	-0,044
-440,022	56,090	0,105	-0,073
-439,007	321,429	0,060	-0,082
-437,992	110,933	0,018	-0,015
-436,978	27,090	0,190	-0,114
-435,963	328,720	-0,076	-0,105
-434,949	800,000	0,020	-0,046
-433,934	800,000	-0,085	-0,182
-432,919	117,793	-0,072	-0,063
-431,905	54,280	0,101	-0,069
-430,890	-154,175	0,059	0,003
-429,876	-172,505	-0,056	-0,001
-428,861	4,424	0,088	0,046
-427,846	-200,000	-0,005	-0,098
-426,832	-200,000	-0,019	-0,117
-425,817	-48,365	0,038	-0,013
-424,803	-200,000	-0,005	-0,110
-423,788	226,838	0,062	0,073
-422,773	-33,524	0,005	0,002
-421,759	73,046	0,039	0,029
-420,744	298,266	0,038	0,051
-419,730	-200,000	0,005	0,077
-418,715	-200,000	-0,000	-0,052
-417,701	-200,000	0,041	0,150
-416,686	-36,376	0,107	0,041
-415,671	-200,000	-0,005	-0,078
-414,657	-200,000	-0,000	-0,048
-413,642	800,000	0,038	-0,077
-412,628	-200,000	0,001	-0,071
-411,613	-1,101	0,084	0,042
-410,598	-75,727	-0,153	0,039
-409,584	-200,000	-0,026	0,110
-408,569	-133,609	0,179	-0,016
-407,555	76,410	-0,031	-0,024
-406,540	-39,556	-0,055	0,021
-405,525	58,691	-0,009	-0,006
-404,511	202,816	-0,071	-0,078
-403,496	205,633	-0,049	-0,055
-402,482	-200,000	0,017	0,116
-401,467	800,000	-0,060	0,141
-400,452	-7,819	-0,110	0,053
-399,438	-200,000	0,020	0,070
-398,423	-27,738	0,034	0,014
-397,409	-200,000	0,012	-0,051
-396,394	106,091	-0,053	0,045
-395,379	-35,226	0,069	-0,027
-394,365	160,068	-0,056	-0,056
-393,350	-200,000	-0,013	0,086
-392,336	401,741	0,071	-0,106
-391,321	-200,000	-0,009	0,057
-390,306	116,393	-0,064	-0,056
-389,292	-77,054	-0,220	-0,054
-388,277	68,260	0,079	0,058
-387,263	-129,563	-0,107	-0,010
-386,248	-96,616	0,132	-0,025
-385,233	-200,000	0,002	0,133
-384,219	115,187	-0,085	-0,074
-383,204	649,078	0,052	-0,096
-382,190	-180,370	-0,126	0,002
-381,175	-200,000	-0,050	-0,173
-380,160	0,358	0,021	-0,011
-379,146	434,833	0,021	0,033
-378,131	-200,000	0,054	0,196
-377,117	-200,000	0,002	0,015
-376,102	114,697	0,031	0,027
-375,088	-58,656	0,055	0,017
-374,073	147,048	0,050	0,048
-373,058	131,206	0,139	-0,128
-372,044	281,772	-0,035	-0,044
-371,029	-200,000	-0,003	-0,063
-370,015	-149,149	0,048	0,003
-369,000	-200,000	-0,014	0,077
-367,985	286,213	-0,070	-0,091
-366,971	-20,923	-0,115	0,050
-365,956	-200,000	0,001	0,061
-364,942	-36,033	0,164	0,063
-363,927	-200,000	-0,020	0,098
-362,912	128,842	-0,103	-0,094
-361,898	800,000	-0,024	0,049
-360,883	-200,000	-0,043	-0,163
-359,869	716,916	0,022	-0,042
-358,854	-46,951	-0,028	0,010
-357,839	-75,021	-0,075	0,019
-356,825	529,871	-0,070	0,119
-355,810	201,655	0,014	0,016
-354,796	272,765	-0,069	-0,087
-353,781	322,739	-0,058	-0,080
-352,766	-21,039	0,069	0,030
-351,752	-3,915	0,107	-0,053
-350,737	7,678	-0,087	-0,047
-349,723	-22,485	0,148	0,063
-348,708	430,886	0,046	-0,071
-347,693	-200,000	0,028	-0,101
-346,679	-200,000	-0,013	-0,091
-345,664	12,147	-0,046	0,025
-344,650	-200,000	0,007	0,058
-343,635	-200,000	-0,015	0,070
-342,620	-200,000	-0,004	0,151
-341,606	-34,859	-0,051	-0,020
-340,591	-59,303	0,171	-0,052
-339,577	-65,015	-0,094	-0,027
-338,562	800,000	0,012	-0,026
-337,548	800,000	-0,027	-0,079
-336,533	-200,000	-0,004	0,032
-335,518	-200,000	-0,007	0,064
-334,504	-200,000	0,001	-0,084
-333,489	600,920	0,021	0,038
-332,475	-60,655	0,035	-0,011
-331,460	-200,000	-0,008	-0,036
-330,445	421,833	0,044	-0,068
-329,431	604,383	-0,042	0,075
-328,416	44,764	0,130	0,085
-327,402	-200,000	0,004	0,014
-326,387	23,826	0,178	-0,104
-325,372	-61,167	-0,086	0,026
-324,358	49,799	-0,088	0,059
-323,343	800,000	-0,055	0,113
-322,329	93,320	0,100	-0,080
-321,314	316,310	0,063	0,086
-320,299	361,194	0,039	-0,057
-319,285	-200,000	-0,015	-0,072
-318,270	-12,968	-0,062	-0,029
-317,256	27,063	0,043	0,025
-316,241	-200,000	0,011	0,052
-315,226	61,880	0,075	0,053
-314,212	-17,527	-0,066	0,030
-313,197	-130,734	0,111	0,010
-312,183	83,258	0,034	0,026
-311,168	-200,000	0,019	0,121
-310,153	117,632	0,054	-0,048
-309,139	14,047	-0,118	-0,065
-308,124	671,941	0,048	-0,089
-307,110	-200,000	0,010	0,127
-306,095	-200,000	0,003	0,047
-305,080	163,067	0,073	0,073
-304,066	357,578	0,075	-0,107
-303,051	429,794	-0,085	-0,131
-302,037	-200,000	-0,020	-0,088
-301,022	-200,000	-0,001	-0,067
-300,008	-200,000	0,022	0,076
-298,993	-9,801	0,183	-0,086
-297,978	275,724	0,138	0,174
-296,964	800,000	-0,049	-0,098
-295,949	-200,000	-0,002	-0,028
-294,935	261,092	0,025	-0,031
-293,920	173,262	-0,088	-0,090
-292,905	-99,150	-0,065	0,012
-291,891	-200,000	0,014	-0,104
-290,876	323,580	-0,048	-0,066
-289,862	800,000	-0,045	-0,118
-288,847	-200,000	-0,019	-0,162
-287,832	250,439	-0,052	-0,063
-286,818	-33,153	0,091	-0,036
-285,803	-200,000	-0,023	-0,082
-284,789	-200,000	-0,007	0,070
-283,774	4,817	0,108	0,057
-282,759	-200,000	0,009	0,086
-281,745	218,398	0,038	0,043
-280,730	800,000	-0,059	-0,126
-279,716	-26,209	-0,173	-0,072
-278,701	570,710	-0,016	-0,028
-277,686	-200,000	-0,040	0,148
-276,672	41,561	0,186	0,120
-275,657	282,885	-0,046	0,059
-274,643	-200,000	-0,042	-0,148
-273,628	-60,554	-0,111	0,033
-272,613	68,903	-0,034	0,025
-271,599	-24,627	0,134	-0,056
-270,584	-78,394	0,091	-0,022
-269,570	-200,000	-0,002	0,039
-268,555	-200,000	-0,000	0,128
-267,540	-200,000	-0,034	-0,133
-266,526	74,135	-0,028	-0,021
-265,511	12,927	0,137	0,075
-264,497	-196,796	-0,023	0,000
-263,482	-200,000	-0,006	0,108
-262,467	-93,806	-0,072	-0,014
-261,453	362,026	-0,081	-0,115
-260,438	397,173	-0,057	0,086
-259,424	281,131	-0,102	0,131
-258,409	149,686	-0,016	-0,016
-257,395	-162,000	0,103	0,004
-256,380	-200,000	0,022	0,155
-255,365	593,688	0,049	0,087
-254,351	800,000	-0,048	0,125
-253,336	39,067	0,047	0,030
-252,322	800,000	-0,041	0,091
-251,307	104,267	-0,064	0,053
-250,292	-200,000	-0,055	-0,180
-249,278	127,299	0,175	0,158
-248,263	167,531	-0,092	0,093
-247,249	-200,000	0,004	-0,011
-246,234	800,000	-0,062	-0,132
-245,219	-200,000	0,048	-0,162
-244,205	-200,000	-0,007	0,060
-243,190	-174,037	-0,018	-0,000
-242,176	-139,165	0,070	0,005
-241,161	-200,000	-0,005	0,019
-240,146	-52,760	-0,117	0,038
-239,132	800,000	-0,028	-0,059
-238,117	-152,401	0,122	0,006
-237,103	-200,000	0,017	-0,058
-236,088	-93,082	0,118	0,023
-235,073	-54,491	-0,006	-0,002
-234,059	800,000	-0,062	0,129
-233,044	181,265	0,088	0,092
-232,030	596,305	0,047	-0,082
-231,015	247,092	-0,046	-0,055
-230,000	-200,000	0,007	-0,077
-228,986	254,815	0,015	-0,018
-227,971	800,000	-0,045	0,129
-226,957	-125,829	-0,130	-0,014
-225,942	800,000	-0,039	0,123
-224,927	17,978	-0,183	0,103
-223,913	55,067	0,076	-0,052
-222,898	-200,000	0,027	-0,187
-221,884	-200,000	0,013	-0,065
-220,869	-81,644	-0,060	0,014
-219,855	800,000	-0,061	0,185
-218,840	-200,000	0,040	0,138
-217,825	-200,000	0,007	0,075
-216,811	800,000	-0,028	0,064
-215,796	-156,344	-0,101	0,004
-214,782	322,037	0,042	-0,057
-213,767	800,000	-0,015	0,042
-212,752	-200,000	-0,014	0,129
-211,738	-32,390	-0,025	0,010
-210,723	-98,707	0,083	0,015
-209,709	-200,000	-0,034	-0,117
-208,694	-60,748	0,105	-0,031
-207,679	84,699	-0,117	-0,091
-206,665	-103,453	0,121	-0,020
-205,650	129,863	-0,095	0,086
-204,636	634,302	-0,024	0,043
-203,621	-113,317	0,200	0,028
-202,606	19,218	-0,155	-0,088
-201,592	-200,000	-0,008	-0,083
-200,577	124,908	0,049	-0,044
-199,563	-120,219	-0,110	0,013
-198,548	-43,057	0,147	0,053
-197,533	-200,000	0,010	0,057
-196,519	-200,000	-0,046	0,170
-195,504	-32,352	0,133	-0,053
-194,490	-0,719	-0,011	0,006
-193,475	-85,899	-0,155	-0,034
-192,460	-200,000	-0,040	-0,140
-191,446	179,879	0,109	0,114
-190,431	55,023	-0,055	0,038
-189,417	-16,280	-0,028	0,012
-188,402	344,950	-0,077	-0,108
-187,387	10,954	-0,068	-0,037
-186,373	233,498	0,031	0,036
-185,358	800,000	0,021	0,058
-184,344	142,995	0,044	0,041
-183,329	-54,619	0,124	0,040
-182,315	499,709	-0,006	0,010
-181,300	-200,000	0,001	0,064
-180,285	15,158	-0,106	0,059
-179,271	133,673	0,027	-0,025
-178,256	-125,094	0,009	0,001
-177,242	-200,000	0,008	-0,161
-176,227	-200,000	0,006	0,070
-175,212	-162,892	-0,102	0,003
-174,198	-115,292	-0,015	0,002
-173,183	-200,000	0,009	0,130
-172,169	-173,299	-0,095	-0,002
-171,154	-200,000	-0,010	0,139
-170,139	355,641	-0,162	0,229
-169,125	-157,989	0,147	-0,006
-168,110	-200,000	0,019	0,074
-167,096	80,147	0,078	-0,059
-166,081	-200,000	0,037	-0,173
-165,066	-200,000	-0,002	-0,090
-164,052	-200,000	0,004	0,067
-163,037	335,314	-0,023	0,032
-162,023	470,872	-0,023	0,037
-161,008	-140,357	0,044	-0,003
-159,993	-200,000	0,010	-0,074
-158,979	-200,000	-0,038	-0,128
-157,964	800,000	0,033	-0,070
-156,950	-120,049	0,058	-0,007
-155,935	-45,743	0,162	-0,056
-154,920	-200,000	0,017	-0,073
-153,906	55,766	-0,036	-0,025
-152,891	-200,000	-0,001	-0,009
-151,877	800,000	-0,083	0,205
-150,862	-70,984	-0,118	0,031
-149,847	451,351	0,041	-0,064
-148,833	-200,000	-0,012	0,088
-147,818	-200,000	-0,000	0,082
-146,804	-111,512	-0,148	-0,021
-145,789	800,000	-0,024	-0,066
-144,775	-173,163	0,020	0,000
-143,760	-200,000	-0,006	-0,046
-142,745	-200,000	-0,008	-0,054
-141,731	62,615	0,104	0,073
-140,716	8,609	0,018	-0,009
-139,702	47,349	-0,084	0,055
-138,687	-92,480	0,052	-0,010
-137,672	-200,000	-0,008	-0,037
-136,658	-200,000	-0,049	-0,177
-135,643	800,000	0,039	-0,113
-134,629	131,115	-0,069	0,063
-133,614	800,000	-0,013	0,028
-132,599	126,555	0,105	-0,094
-131,585	-41,616	0,051	0,018
-130,570	60,750	0,104	-0,073
-129,556	72,875	-0,066	0,049
-128,541	160,335	-0,047	0,047
-127,526	-2,264	-0,040	-0,020
-126,512	-200,000	0,019	0,082
-125,497	-200,000	-0,001	-0,053
-124,483	-2,398	-0,089	0,044
-123,468	223,222	0,107	0,122
-122,453	-200,000	-0,004	-0,214
-121,439	26,317	-0,059	0,035
-120,424	332,388	-0,066	-0,090
-119,410	-89,803	0,121	0,025
-118,395	297,783	0,040	0,052
-117,380	-200,000	-0,008	-0,034
-116,366	-200,000	0,000	-0,184
-115,351	270,172	-0,054	0,068
-114,337	-70,657	-0,020	0,005
-113,322	-200,000	-0,013	-0,126
-112,307	-124,352	0,078	-0,009
-111,293	-119,491	0,120	-0,015
-110,278	800,000	0,030	0,080
-109,264	-200,000	0,033	-0,143
-108,249	29,497	-0,056	0,034
-107,234	-76,399	-0,129	0,032
-106,220	800,000	-0,074	-0,149
-105,205	800,000	-0,069	0,142
-104,191	184,549	0,054	0,056
-103,176	800,000	-0,037	0,086
-102,162	-200,000	0,005	0,055
-101,147	-28,978	-0,053	0,022
-100,132	800,000	-0,059	-0,153
-99,118	-200,000	-0,013	-0,098
-98,103	267,420	0,089	-0,110
-97,089	800,000	0,074	0,223
-96,074	-101,837	0,035	0,006
-95,059	-161,317	-0,095	0,003
-94,045	800,000	0,068	-0,180
-93,030	-64,968	-0,052	0,015
-92,016	111,355	-0,107	-0,091
-91,001	-200,000	0,026	-0,187
-89,986	26,587	0,065	-0,038
-88,972	-35,405	-0,189	-0,072
-87,957	285,084	-0,045	-0,057
-86,943	106,001	-0,044	-0,037
-85,928	236,216	-0,078	-0,092
-84,913	15,725	0,123	-0,068
-83,899	-141,532	-0,078	0,006
-82,884	-62,578	0,055	0,016
-81,870	186,450	-0,073	0,077
-80,855	-200,000	0,002	0,023
-79,840	257,589	0,064	-0,078
-78,826	-120,383	-0,113	-0,013
-77,811	151,467	0,085	-0,082
-76,797	80,184	-0,052	0,040
-75,782	-200,000	-0,001	0,116
-74,767	569,580	0,021	0,036
-73,753	4,703	-0,118	0,061
-72,738	-120,405	-0,116	-0,014
-71,724	-63,844	-0,093	-0,027
-70,709	-8,476	0,076	-0,036
-69,694	-104,769	-0,114	-0,018
-68,680	-200,000	-0,010	-0,082
-67,665	-200,000	-0,004	0,082
-66,651	79,917	0,061	0,046
-65,636	7,428	0,125	-0,066
-64,622	-145,895	-0,188	-0,012
-63,607	-156,792	0,013	0,001
-62,592	800,000	-0,027	0,083
-61,578	-76,466	-0,039	0,010
-60,563	301,514	-0,031	0,041
-59,549	-200,000	0,014	0,135
-58,534	64,048	-1,955	-1,386
-57,519	496,224	-1,179	-1,920
-56,505	-200,000	-0,221	-4,446
-55,490	483,328	1,042	1,678
-54,476	800,000	5,168	11,366
-53,461	-200,000	21,761	344,049
-52,446	800,000	762,987	2336,384
-51,432	544,282	1661,682	2810,881
-50,417	71,237	1658,415	1212,478
-49,403	17,186	1532,062	855,156
-48,388	11,255	1455,771	783,922
-47,373	19,415	1447,368	818,470
-46,359	14,753	1436,299	790,046
-45,344	9,531	1432,387	763,024
-44,330	9,500	1430,440	761,812
-43,315	9,448	1428,757	760,638
-42,300	9,460	1426,833	759,640
-41,286	9,524	1425,687	759,305
-40,271	9,447	1424,330	758,187
-39,257	9,479	1423,146	757,674
-38,242	9,517	1422,090	757,261
-37,227	9,506	1420,969	756,584
-36,213	9,480	1419,912	755,870
-35,198	9,524	1418,389	755,237
-34,184	9,552	1417,601	754,916
-33,169	9,480	1416,023	753,708
-32,154	9,510	1414,892	753,218
-31,140	9,510	1413,903	752,664
-30,125	9,569	1412,689	752,261
-29,111	9,523	1411,619	751,445
-28,096	9,488	1410,402	750,607
-27,082	9,438	1409,142	749,672
-26,067	9,464	1408,030	749,170
-25,052	9,469	1406,995	748,612
-24,038	9,504	1406,205	748,329
-23,023	9,439	1405,352	747,542
-22,009	9,444	1404,309	746,980
-20,994	9,451	1403,247	746,418
-19,979	9,455	1402,427	745,971
-18,965	9,470	1401,441	745,485
-17,950	9,434	1400,319	744,691
-16,936	9,399	1399,729	744,185
-15,921	9,324	1398,832	743,332
-14,906	9,383	1397,745	742,997
-13,892	9,436	1396,694	742,654
-12,877	9,431	1395,886	742,174
-11,863	9,365	1395,306	741,528
-10,848	9,369	1394,113	740,884
-9,833	9,310	1393,283	740,141
-8,819	9,249	1392,564	739,445
-7,804	9,254	1391,537	738,897
-6,790	9,266	1390,494	738,367
-5,775	9,305	1389,405	737,941
-4,760	9,295	1388,431	737,347
-3,746	9,336	1387,529	737,029
-2,731	9,331	1386,348	736,348
-1,717	9,282	1385,825	735,817
-0,702	9,285	1383,871	734,764
0,313	13,409	1296,203	707,012
1,327	29,680	687,008	411,459
2,342	46,228	118,789	77,481
3,356	-0,386	16,562	8,270
4,371	-2,126	3,672	1,812
5,386	-5,829	1,276	0,614
6,400	446,033	0,366	0,569
7,415	-26,839	-0,213	-0,087
8,429	-27,790	-0,278	-0,113
9,444	-21,618	-0,386	-0,165
10,459	-110,093	-0,307	-0,045
11,473	18,956	-0,278	-0,156
12,488	-126,125	-0,199	-0,021
13,502	-6,636	-0,292	-0,140
14,517	66,401	-0,294	-0,211
15,531	81,416	-0,338	-0,257
16,546	-21,792	-0,433	-0,185
17,561	49,327	-0,407	-0,269
18,575	98,016	-0,210	-0,170
19,590	174,393	-0,288	-0,294
20,604	-161,241	-0,179	0,006
21,619	14,469	-0,493	-0,270
22,634	119,074	-0,428	-0,373
23,648	63,943	-0,395	-0,279
24,663	31,142	-0,451	-0,272
25,677	182,830	-0,380	-0,395
26,692	1,570	-0,285	-0,144
27,707	147,160	-0,316	-0,300
28,721	-20,526	-0,329	-0,142
29,736	151,722	-0,372	-0,357
30,750	143,927	-0,404	-0,379
31,765	85,564	-0,358	-0,276
32,780	266,325	-0,349	-0,429
33,794	99,680	-0,233	-0,190
34,809	332,731	-0,232	-0,316
35,823	55,457	-0,460	-0,312
36,838	54,752	-0,376	-0,254
37,853	69,036	-0,402	-0,290
38,867	56,389	-0,317	-0,216
39,882	82,691	-0,214	-0,163
40,896	-1,349	-0,336	-0,166
41,911	66,336	-0,347	-0,248
42,926	-23,486	-0,282	-0,119
43,940	-50,605	-0,281	-0,092
44,955	-65,532	-0,329	-0,092
45,969	117,972	-0,458	-0,396
46,984	170,459	-0,253	-0,255
47,999	98,078	-0,255	-0,206
49,013	112,526	-0,258	-0,220
50,028	-17,723	-0,373	-0,164
51,042	49,086	-0,405	-0,267
52,057	67,462	-0,424	-0,304
53,071	121,413	-0,377	-0,329
54,086	48,397	-0,323	-0,212
55,101	3,066	-0,223	-0,113
56,115	34,036	-0,253	-0,154
57,130	-0,991	-0,418	-0,207
58,144	-16,177	-0,340	-0,151
59,159	148,907	-0,372	-0,353
60,174	19,110	-0,411	-0,231
61,188	5,999	-0,361	-0,187
62,203	89,171	-0,297	-0,232
63,217	-25,254	-0,256	-0,106
64,232	-6,004	-0,341	-0,163
65,247	-35,161	-0,368	-0,140
66,261	5,801	-0,486	-0,251
67,276	-8,955	-0,369	-0,173
68,290	136,017	-0,264	-0,241
69,305	-86,700	-0,248	-0,053
70,320	-68,739	-0,315	-0,085
71,334	13,583	-0,446	-0,242
72,349	-70,275	-0,325	-0,086
73,363	181,582	-0,266	-0,274
74,378	25,417	-0,381	-0,222
75,393	42,451	-0,416	-0,265
76,407	-4,479	-0,335	-0,161
77,422	-135,744	-0,368	-0,030
78,436	147,362	-0,159	-0,150
79,451	68,024	-0,204	-0,146
80,466	74,603	-0,305	-0,225
81,480	-35,117	-0,314	-0,119
82,495	61,462	-0,269	-0,187
83,509	245,874	-0,229	-0,271
84,524	44,545	-0,293	-0,188
85,539	-90,314	-0,282	-0,057
86,553	-86,363	-0,391	-0,083
87,568	38,881	-0,365	-0,228
88,582	204,119	-0,218	-0,237
89,597	84,265	-0,274	-0,209
90,611	75,687	-0,314	-0,232
91,626	-188,588	-0,185	-0,002
92,641	-0,306	-0,368	-0,182
93,655	95,203	-0,262	-0,209
94,670	311,084	-0,238	-0,312
95,684	229,902	-0,224	-0,256
96,699	-72,627	-0,306	-0,078
97,714	-7,129	-0,252	-0,119
98,728	-25,569	-0,350	-0,144
99,743	45,031	-0,197	-0,126
100,757	89,734	-0,206	-0,161
101,772	32,135	-0,393	-0,236
102,787	147,358	-0,200	-0,189
103,801	74,484	-0,283	-0,208
104,816	129,280	-0,214	-0,191
105,830	391,244	-0,098	-0,142
106,845	15,991	-0,307	-0,169
107,860	2,056	-0,360	-0,181
108,874	282,789	-0,225	-0,282
109,889	-11,444	-0,280	-0,128
110,903	-17,371	-0,276	-0,121
111,918	152,904	-0,270	-0,258
112,933	39,835	-0,157	-0,098
113,947	132,682	-0,251	-0,226
114,962	-4,749	-0,314	-0,151
115,976	145,059	-0,283	-0,264
116,991	-55,287	-0,272	-0,085
118,006	131,789	-0,326	-0,293
119,020	-84,867	-0,275	-0,060
120,035	177,434	-0,179	-0,182
121,049	-57,295	-0,188	-0,057
122,064	101,808	-0,177	-0,144
123,079	65,378	-0,277	-0,195
124,093	-15,526	-0,189	-0,084
125,108	36,063	-0,292	-0,179
126,122	-2,726	-0,264	-0,128
127,137	102,795	-0,126	-0,103
128,151	33,364	-0,162	-0,098
129,166	43,998	-0,147	0,094
130,181	82,986	-0,143	-0,108
131,195	123,768	-0,277	-0,243
132,210	7,498	-0,333	-0,173
133,224	80,341	-0,200	-0,150
134,239	89,301	-0,289	-0,224
135,254	-19,605	-0,211	-0,091
136,268	-24,320	-0,273	-0,113
137,283	-119,433	-0,199	-0,024
138,297	497,569	-0,205	-0,330
139,312	212,681	-0,239	-0,264
140,327	123,703	-0,191	-0,167
141,341	285,574	-0,250	-0,314
142,356	800,000	-0,121	-0,338
143,370	154,170	-0,201	-0,192
144,385	1,691	-0,276	-0,138
145,400	-114,946	-0,342	-0,045
146,414	74,731	-0,302	-0,221
147,429	187,534	-0,286	-0,297
148,443	800,000	-0,089	-0,181
149,458	7,873	-0,211	-0,110
150,473	125,378	-0,288	-0,253
151,487	15,197	-0,282	-0,153
152,502	225,505	-0,217	-0,245
153,516	173,091	-0,254	-0,255
154,531	178,103	-0,246	-0,250
155,546	39,060	-0,134	-0,083
156,560	37,192	-0,079	-0,049
157,575	191,541	-0,219	-0,230
158,589	186,918	-0,246	-0,255
159,604	144,658	-0,251	-0,233
160,619	63,519	-0,282	-0,196
161,633	62,921	-0,312	-0,217
162,648	-60,081	-0,368	-0,109
163,662	-15,605	-0,240	-0,106
164,677	172,493	-0,200	-0,200
165,692	-10,524	-0,258	-0,118
166,706	-119,943	-0,160	-0,019
167,721	-71,615	-0,195	-0,050
168,735	130,065	-0,182	-0,162
169,750	522,347	-0,113	-0,185
170,764	38,347	-0,180	-0,111
171,779	-105,375	-0,130	0,020
172,794	309,889	-0,185	-0,241
173,808	130,161	-0,200	-0,178
174,823	-41,027	-0,191	-0,068
175,837	94,471	-0,266	-0,210
176,852	-85,105	-0,276	-0,059
177,867	200,536	-0,249	-0,266
178,881	-69,863	-0,194	-0,051
179,896	223,894	-0,105	-0,118
180,910	54,572	-0,294	-0,196
181,925	273,674	-0,232	-0,285
182,940	116,090	-0,242	-0,205
183,954	-2,418	-0,332	-0,161
184,969	-28,360	-0,310	-0,123
185,983	-109,966	-0,163	-0,023
186,998	3,195	-0,201	-0,101
188,013	90,394	-0,305	-0,237
189,027	40,489	-0,254	-0,158
190,042	47,027	-0,212	-0,137
191,056	800,000	-0,143	-0,296
192,071	109,867	-0,228	-0,189
193,086	100,102	-0,147	-0,118
194,100	-7,444	-0,126	-0,059
195,115	-68,467	-0,206	-0,055
196,129	50,972	-0,235	-0,154
197,144	262,345	-0,176	-0,212
198,159	373,625	-0,133	-0,188
199,173	-40,349	-0,099	-0,035
200,188	71,883	-0,258	-0,186
201,202	66,192	-0,223	-0,157
202,217	42,519	-0,145	-0,091
203,232	22,811	-0,178	-0,101
204,246	800,000	-0,170	-0,334
205,261	17,477	-0,246	-0,135
206,275	484,081	-0,212	-0,335
207,290	68,120	-0,175	-0,124
208,304	-68,960	-0,203	-0,054
209,319	130,809	-0,207	-0,184
210,334	135,119	-0,186	-0,167
211,348	6,003	-0,317	-0,162
212,363	507,366	-0,172	-0,278
213,377	192,205	-0,170	-0,178
214,392	25,088	-0,248	-0,142
215,407	-40,540	-0,136	-0,049
216,421	-12,494	-0,347	-0,156
217,436	119,659	-0,168	-0,144
218,450	221,601	-0,091	-0,101
219,465	43,744	-0,165	-0,104
220,480	800,000	-0,105	-0,219
221,494	-120,082	-0,151	-0,018
222,509	-55,009	-0,237	-0,074
223,523	-71,950	-0,195	-0,050
224,538	490,262	-0,160	-0,254
225,553	41,630	-0,227	-0,142
226,567	-23,811	-0,326	-0,135
227,582	-36,982	-0,196	-0,072
228,596	703,802	-0,083	-0,152
229,611	120,694	-0,135	-0,116
230,626	-120,392	-0,099	-0,012
231,640	65,653	-0,174	-0,122
232,655	23,167	-0,247	-0,140
233,669	-44,944	-0,194	-0,066
234,684	167,598	-0,167	-0,164
235,699	245,503	-0,022	-0,025
236,713	556,781	-0,135	-0,225
237,728	69,032	-0,194	-0,138
238,742	-91,391	-0,108	0,021
239,757	133,639	-0,211	-0,188
240,772	223,336	-0,176	-0,197
241,786	-86,650	-0,220	-0,046
242,801	0,269	-0,228	-0,112
243,815	-99,992	-0,068	0,012
244,830	183,435	-0,121	-0,123
245,844	91,543	-0,268	-0,208
246,859	232,449	-0,166	-0,189
247,874	4,785	-0,275	-0,139
248,888	-56,852	-0,133	-0,040
249,903	54,310	-0,107	-0,071
250,917	40,807	-0,257	-0,160
251,932	56,666	-0,154	-0,103
252,947	-166,573	-0,173	-0,005
253,961	134,788	-0,167	-0,150
254,976	-200,000	-0,062	-0,221
255,990	-16,948	-0,134	-0,058
257,005	571,794	-0,130	-0,220
258,020	27,184	-0,133	-0,077
259,034	4,522	-0,218	0,110
260,049	64,226	-0,311	-0,215
261,063	59,432	-0,180	-0,122
262,078	65,170	-0,134	-0,093
263,093	66,229	-0,136	-0,095
264,107	-13,455	-0,226	-0,101
265,122	54,186	-0,208	-0,138
266,136	-113,429	-0,196	-0,026
267,151	-71,944	-0,202	-0,051
268,166	-140,744	-0,130	-0,009
269,180	771,478	-0,106	-0,200
270,195	94,041	-0,285	-0,222
271,209	560,258	-0,140	-0,235
272,224	104,994	-0,165	-0,134
273,239	800,000	-0,055	-0,137
274,253	-124,836	-0,248	0,026
275,268	189,625	-0,142	-0,147
276,282	95,022	-0,201	-0,157
277,297	-18,263	-0,203	-0,087
278,312	68,500	-0,127	-0,089
279,326	-200,000	-0,014	0,111
280,341	795,438	-0,060	-0,114
281,355	-137,725	-0,047	0,004
282,370	14,340	-0,122	-0,065
283,384	-2,709	-0,213	-0,102
284,399	165,780	-0,109	-0,107
285,414	800,000	-0,067	-0,189
286,428	234,208	-0,149	-0,169
287,443	9,197	-0,150	-0,078
288,457	195,535	-0,170	-0,178
289,472	253,880	-0,093	-0,110
290,487	36,635	-0,246	-0,149
291,501	5,382	-0,235	-0,119
292,516	43,357	-0,159	-0,099
293,530	-65,016	-0,123	-0,034
294,545	-92,296	-0,296	-0,057
295,560	-24,678	-0,120	-0,049
296,574	43,606	-0,157	0,099
297,589	189,250	-0,135	-0,140
298,603	90,546	-0,242	-0,186
299,618	267,130	-0,103	-0,125
300,633	251,438	-0,169	-0,198
301,647	-34,212	-0,089	0,033
302,662	-11,066	-0,121	-0,055
303,676	205,285	-0,157	-0,167
304,691	83,975	-0,187	-0,140
305,706	195,378	-0,156	-0,163
306,720	87,600	-0,148	-0,112
307,735	524,535	-0,142	-0,230
308,749	102,183	-0,069	0,056
309,764	800,000	-0,044	-0,122
310,779	-200,000	0,007	-0,156
311,793	409,515	-0,117	-0,171
312,808	380,623	-0,132	-0,186
313,822	119,274	-0,102	-0,087
314,837	-200,000	-0,052	-0,254
315,852	102,952	-0,193	-0,155
316,866	87,837	-0,168	-0,128
317,881	22,114	-0,070	-0,039
318,895	13,740	-0,246	-0,131
319,910	101,837	-0,077	-0,061
320,925	113,078	-0,163	-0,136
321,939	140,658	-0,168	-0,152
322,954	40,940	-0,163	-0,101
323,968	800,000	-0,076	-0,144
324,983	181,350	-0,215	-0,217
325,997	166,650	-0,128	-0,125
327,012	89,825	-0,293	-0,224
328,027	219,296	-0,141	-0,154
329,041	-162,115	-0,085	0,003
330,056	-134,043	-0,129	-0,011
331,070	71,453	-0,117	-0,083
332,085	262,292	-0,159	-0,189
333,100	8,137	-0,102	-0,052
334,114	-180,947	-0,257	-0,003
335,129	-81,713	-0,161	-0,036
336,143	800,000	-0,095	-0,196
337,158	203,706	-0,136	-0,144
338,173	191,229	-0,102	-0,105
339,187	362,748	-0,044	-0,060
340,202	1,478	-0,114	0,056
341,216	800,000	-0,087	-0,205
342,231	324,937	-0,092	-0,121
343,246	-30,719	-0,200	-0,077
344,260	-200,000	0,002	0,023
345,275	107,008	-0,080	-0,065
346,289	12,350	-0,180	-0,095
347,304	112,045	-0,175	-0,144
348,319	92,586	-0,061	-0,047
349,333	-26,564	-0,191	-0,076
350,348	-84,789	-0,166	-0,035
351,362	-46,912	-0,175	-0,058
352,377	-151,128	-0,075	0,004
353,392	238,166	-0,010	-0,012
354,406	215,595	-0,145	-0,158
355,421	204,718	1311,565	1392,692
356,435	157,367	1471,872	1393,152
