DTS Sentinel unit serial number:	SN410029Multiplexer serial number:	ORYXHardware model number:	OX2-SRSoftware version number:	ORYX F/W v4,00 Oryx Data Collector v3.7.2.0data status	okinstallation	B3 Nyhavnadifferential loss correction	single-endedforward channel	channel 1reverse channel	N/Adate	2023/12/03time	11:22:30forward acquisition time	300,00reverse acquisition time	0,00gamma	499,1914k internal	0,3201k external	0,3201temperature offset calibration	1,0000default loss term (dB/km)	0,3820temperature slope calibration	1,0000multiplexer offset coefficient	1,0000multiplexer slope coefficient	1,0000fibre end	0,00T internal ref (°C)	13,52T ext. ref 1 (°C)	-1,26T ext. ref 2 (°C)	-1,26length (m)	temperature (°C)	Stokes	anti-Stokes-744,400	-1,504	-0,325	-0,166
-743,385	453,978	-0,141	0,228
-742,371	800,000	-0,126	-0,285
-741,356	-200,000	0,038	0,360
-740,342	-15,425	-0,136	0,063
-739,327	-200,000	0,042	0,397
-738,312	249,780	-0,187	-0,231
-737,298	-200,000	-0,024	0,273
-736,283	76,535	-0,214	-0,165
-735,269	-200,000	0,068	0,280
-734,254	66,845	-0,167	-0,124
-733,239	84,134	-0,232	0,184
-732,225	-9,116	-0,103	-0,050
-731,210	-200,000	0,007	0,048
-730,196	-200,000	0,016	0,110
-729,181	251,854	-0,037	-0,045
-728,167	71,649	-0,048	0,036
-727,152	101,445	0,133	0,113
-726,137	800,000	-0,039	-0,092
-725,123	800,000	-0,033	-0,082
-724,108	211,257	-0,109	-0,124
-723,094	-200,000	-0,003	-0,081
-722,079	-20,603	-0,103	-0,046
-721,064	104,239	-0,045	0,038
-720,050	533,773	0,065	-0,112
-719,035	256,903	0,027	0,034
-718,021	451,399	-0,048	-0,077
-717,006	-105,684	0,095	0,015
-715,991	-146,135	-0,162	-0,010
-714,977	-59,431	-0,101	0,031
-713,962	-200,000	0,004	0,054
-712,948	-88,678	-0,055	-0,012
-711,933	102,201	-0,021	0,018
-710,918	100,195	0,135	0,114
-709,904	264,840	-0,119	-0,151
-708,889	800,000	-0,026	-0,053
-707,875	800,000	-0,014	-0,038
-706,860	800,000	-0,025	-0,068
-705,845	29,386	-0,127	0,078
-704,831	-200,000	0,025	0,134
-703,816	-200,000	-0,001	0,108
-702,802	-176,444	-0,087	-0,002
-701,787	-200,000	-0,045	-0,157
-700,772	800,000	0,053	-0,109
-699,758	479,324	-0,106	-0,175
-698,743	-129,635	0,154	-0,015
-697,729	207,484	-0,020	0,023
-696,714	12,661	-0,077	0,043
-695,699	-200,000	0,013	-0,084
-694,685	800,000	-0,037	-0,077
-693,670	137,153	-0,056	-0,053
-692,656	-200,000	-0,003	0,079
-691,641	329,939	0,035	-0,049
-690,627	26,918	0,117	0,071
-689,612	-200,000	0,009	0,036
-688,597	43,935	-0,048	0,032
-687,583	-52,258	-0,152	0,051
-686,568	-200,000	-0,002	-0,056
-685,554	697,902	0,022	0,042
-684,539	-71,782	-0,055	0,015
-683,524	10,927	0,096	-0,053
-682,510	800,000	-0,030	0,093
-681,495	800,000	-0,041	0,101
-680,481	-200,000	-0,024	-0,096
-679,466	-200,000	0,033	-0,266
-678,451	800,000	-0,061	-0,144
-677,437	-200,000	0,001	-0,114
-676,422	-200,000	0,007	0,104
-675,408	83,694	0,039	0,031
-674,393	-200,000	-0,030	0,118
-673,378	229,606	0,027	0,032
-672,364	-200,000	0,002	-0,031
-671,349	-109,332	-0,134	0,020
-670,335	-106,759	-0,089	0,014
-669,320	4,348	0,138	0,073
-668,305	-200,000	0,000	0,026
-667,291	36,068	0,111	0,071
-666,276	282,291	-0,024	-0,031
-665,262	-43,471	-0,036	0,013
-664,247	156,199	-0,057	-0,057
-663,232	-51,532	-0,018	0,006
-662,218	-130,826	0,067	-0,006
-661,203	580,931	0,113	-0,202
-660,189	74,451	-0,008	-0,006
-659,174	-200,000	0,035	-0,116
-658,159	-33,540	-0,055	-0,022
-657,145	-200,000	-0,017	-0,115
-656,130	-0,569	-0,095	-0,048
-655,116	-200,000	-0,004	-0,020
-654,101	394,338	0,066	0,099
-653,086	-200,000	0,008	-0,087
-652,072	55,619	-0,113	-0,079
-651,057	-200,000	-0,025	-0,081
-650,043	-39,854	0,092	-0,035
-649,028	56,135	0,028	0,020
-648,014	-129,548	-0,109	-0,011
-646,999	227,535	-0,034	0,040
-645,984	-0,484	-0,115	-0,059
-644,970	57,240	-0,103	-0,073
-643,955	108,979	0,125	-0,108
-642,941	-56,936	-0,059	0,019
-641,926	196,784	0,028	0,031
-640,911	82,877	-0,038	-0,030
-639,897	-200,000	-0,005	0,029
-638,882	-200,000	-0,005	-0,023
-637,868	-144,762	-0,018	-0,001
-636,853	23,548	-0,177	-0,105
-635,838	-126,374	0,063	0,007
-634,824	-143,772	0,040	0,003
-633,809	-47,057	0,094	-0,033
-632,795	-99,935	-0,135	-0,024
-631,780	-183,683	-0,052	-0,001
-630,765	407,713	-0,060	-0,092
-629,751	224,548	-0,167	-0,195
-628,736	800,000	-0,035	-0,107
-627,722	85,206	-0,067	0,053
-626,707	187,619	-0,024	-0,026
-625,692	800,000	-0,051	-0,145
-624,678	-200,000	-0,007	-0,165
-623,663	232,446	-0,091	0,108
-622,649	800,000	-0,036	-0,072
-621,634	-96,598	0,079	-0,015
-620,619	35,303	-0,116	-0,073
-619,605	800,000	-0,037	-0,079
-618,590	-51,979	-0,052	0,017
-617,576	-68,839	0,063	0,017
-616,561	167,495	0,077	0,080
-615,546	694,189	-0,099	-0,188
-614,532	-115,776	0,052	0,007
-613,517	39,724	-0,135	0,087
-612,503	127,849	-0,043	0,039
-611,488	145,855	0,116	0,113
-610,474	284,449	-0,011	0,015
-609,459	-200,000	0,005	0,042
-608,444	17,349	-0,052	-0,030
-607,430	87,475	-0,146	-0,117
-606,415	-47,511	-0,023	-0,008
-605,401	137,771	-0,022	-0,021
-604,386	401,370	-0,070	0,106
-603,371	28,383	0,111	-0,068
-602,357	800,000	-0,041	-0,118
-601,342	-200,000	0,002	0,013
-600,328	-200,000	0,018	-0,140
-599,313	-84,915	-0,135	-0,030
-598,298	-105,606	-0,049	-0,008
-597,284	800,000	0,036	0,104
-596,269	204,454	-0,075	-0,084
-595,255	-200,000	0,003	-0,152
-594,240	-150,890	-0,142	-0,008
-593,225	551,911	0,075	-0,131
-592,211	134,531	0,072	-0,068
-591,196	196,244	0,059	-0,065
-590,182	-95,892	-0,127	0,024
-589,167	-200,000	0,001	-0,109
-588,152	800,000	0,009	-0,029
-587,138	480,035	-0,036	0,059
-586,123	48,305	-0,020	0,013
-585,109	800,000	-0,069	-0,193
-584,094	729,925	0,017	-0,033
-583,079	800,000	0,011	0,030
-582,065	427,117	0,072	0,113
-581,050	-118,537	0,021	0,003
-580,036	30,159	0,071	0,044
-579,021	-169,985	-0,063	-0,002
-578,006	-200,000	0,006	-0,150
-576,992	49,162	-0,120	-0,081
-575,977	417,650	-0,040	-0,062
-574,963	62,129	-0,176	0,127
-573,948	137,920	-0,116	0,110
-572,934	124,376	-0,021	0,019
-571,919	73,330	-0,108	0,082
-570,904	-78,711	0,087	-0,021
-569,890	531,020	-0,051	-0,088
-568,875	-15,859	0,132	-0,061
-567,861	-200,000	0,035	-0,152
-566,846	800,000	-0,020	-0,047
-565,831	800,000	0,018	-0,056
-564,817	-0,712	-0,131	-0,067
-563,802	-200,000	-0,009	-0,064
-562,788	-61,695	0,112	0,034
-561,773	800,000	-0,028	0,069
-560,758	480,441	0,035	0,058
-559,744	-36,750	0,088	-0,034
-558,729	-200,000	0,027	0,202
-557,715	800,000	-0,024	0,064
-556,700	-4,723	0,066	0,033
-555,685	-200,000	-0,005	-0,057
-554,671	37,180	0,024	0,015
-553,656	197,997	0,058	-0,064
-552,642	800,000	0,033	-0,080
-551,627	800,000	0,044	0,131
-550,612	-141,680	0,072	-0,005
-549,598	-151,049	-0,054	-0,003
-548,583	-200,000	-0,008	-0,033
-547,569	18,413	0,158	0,091
-546,554	6,424	-0,022	-0,012
-545,539	74,975	0,103	-0,079
-544,525	45,608	0,109	-0,073
-543,510	43,046	-0,058	-0,038
-542,496	45,091	-0,143	-0,095
-541,481	16,112	0,180	0,102
-540,466	-200,000	0,011	0,200
-539,452	-200,000	0,063	0,211
-538,437	800,000	-0,036	0,106
-537,423	-21,273	0,026	0,012
-536,408	-154,283	0,068	0,003
-535,393	137,187	-0,109	-0,103
-534,379	493,991	-0,109	-0,181
-533,364	17,297	0,113	0,064
-532,350	660,174	0,037	0,069
-531,335	116,229	-0,053	-0,047
-530,321	59,033	0,047	0,033
-529,306	-200,000	-0,045	-0,161
-528,291	309,028	0,023	-0,031
-527,277	487,301	-0,029	-0,048
-526,262	617,648	-0,093	-0,169
-525,248	800,000	-0,023	0,069
-524,233	-200,000	-0,012	0,055
-523,218	-110,454	0,223	0,033
-522,204	-7,100	0,167	-0,081
-521,189	800,000	0,081	-0,174
-520,175	800,000	-0,059	-0,124
-519,160	800,000	0,034	-0,070
-518,145	417,587	0,038	0,059
-517,131	198,233	0,058	0,064
-516,116	-70,608	0,187	0,051
-515,102	-200,000	0,008	0,176
-514,087	541,378	0,017	0,030
-513,072	-188,794	0,090	0,001
-512,058	255,704	-0,093	0,116
-511,043	392,186	0,056	0,084
-510,029	-146,242	-0,045	0,003
-509,014	-200,000	0,010	-0,135
-507,999	-15,818	0,083	-0,038
-506,985	-200,000	0,026	-0,145
-505,970	800,000	-0,075	-0,198
-504,956	-200,000	-0,014	-0,098
-503,941	176,515	-0,026	-0,027
-502,926	4,993	-0,017	-0,009
-501,912	800,000	0,066	0,142
-500,897	-63,162	-0,026	-0,008
-499,883	619,068	-0,070	-0,128
-498,868	219,544	-0,052	-0,060
-497,853	317,206	-0,065	-0,089
-496,839	184,148	-0,026	0,028
-495,824	107,523	0,045	-0,039
-494,810	-75,651	0,208	0,053
-493,795	387,826	-0,060	0,090
-492,781	-200,000	0,013	-0,109
-491,766	128,187	-0,031	0,029
-490,751	-200,000	-0,006	-0,075
-489,737	-53,396	-0,057	0,019
-488,722	-11,043	0,132	0,062
-487,708	-200,000	0,022	-0,105
-486,693	-200,000	0,002	0,105
-485,678	-200,000	-0,002	0,022
-484,664	37,330	-0,074	-0,047
-483,649	-200,000	-0,012	-0,047
-482,635	532,961	0,076	0,129
-481,620	-200,000	0,018	0,137
-480,605	-200,000	0,024	-0,122
-479,591	112,196	0,086	-0,075
-478,576	-141,131	-0,125	-0,009
-477,562	209,380	-0,035	0,040
-476,547	82,410	0,027	-0,021
-475,532	-200,000	0,010	-0,108
-474,518	-200,000	-0,021	0,163
-473,503	55,549	-0,062	0,043
-472,489	444,238	-0,024	-0,037
-471,474	287,351	-0,080	0,105
-470,459	-200,000	-0,001	-0,085
-469,445	-105,828	-0,119	-0,019
-468,430	89,477	-0,038	-0,031
-467,416	-200,000	-0,005	0,059
-466,401	-200,000	0,012	0,117
-465,386	-200,000	0,012	0,125
-464,372	0,447	-0,076	0,039
-463,357	134,733	0,073	0,068
-462,343	800,000	-0,020	0,058
-461,328	-144,434	0,055	-0,004
-460,313	76,019	-0,036	-0,027
-459,299	-200,000	0,011	-0,078
-458,284	-69,890	0,082	-0,022
-457,270	29,056	0,078	0,048
-456,255	-200,000	-0,008	0,108
-455,241	-85,590	-0,092	0,020
-454,226	-22,326	0,082	0,036
-453,211	-22,924	-0,058	-0,025
-452,197	800,000	0,075	0,176
-451,182	-200,000	-0,009	0,112
-450,168	15,907	0,101	-0,057
-449,153	365,056	-0,056	-0,081
-448,138	-200,000	0,013	-0,200
-447,124	535,169	0,019	-0,032
-446,109	-48,547	0,161	-0,055
-445,095	95,479	0,080	-0,065
-444,080	-200,000	-0,007	0,138
-443,065	-200,000	0,006	-0,022
-442,051	204,516	-0,144	0,161
-441,036	-139,861	0,159	-0,012
-440,022	-50,995	-0,060	-0,020
-439,007	29,684	-0,054	-0,033
-437,992	-82,905	0,078	0,018
-436,978	46,134	-0,096	0,064
-435,963	272,196	0,064	0,081
-434,949	160,038	-0,047	0,047
-433,934	-200,000	0,028	-0,100
-432,919	-200,000	-0,009	-0,114
-431,905	604,806	0,062	0,111
-430,890	800,000	-0,092	0,218
-429,876	-128,420	0,042	-0,004
-428,861	-200,000	0,001	0,080
-427,846	800,000	-0,050	0,142
-426,832	69,949	-0,025	0,018
-425,817	120,929	-0,024	0,022
-424,803	-11,418	0,131	-0,062
-423,788	-200,000	0,037	0,228
-422,773	-200,000	-0,009	0,037
-421,759	-200,000	-0,021	-0,142
-420,744	12,065	-0,110	-0,061
-419,730	-200,000	0,003	0,169
-418,715	19,286	-0,131	-0,075
-417,701	-200,000	-0,001	-0,119
-416,686	13,548	0,036	-0,020
-415,671	-156,556	0,091	-0,004
-414,657	154,054	-0,048	-0,047
-413,642	-116,113	0,089	0,012
-412,628	12,787	-0,093	0,051
-411,613	-15,939	-0,055	-0,025
-410,598	800,000	-0,030	0,086
-409,584	91,575	-0,024	0,020
-408,569	18,684	-0,047	0,027
-407,555	114,188	0,080	0,070
-406,540	-122,016	-0,165	0,019
-405,525	98,540	-0,092	-0,076
-404,511	352,906	-0,101	-0,144
-403,496	483,844	0,073	-0,119
-402,482	800,000	0,014	-0,028
-401,467	422,242	0,087	0,135
-400,452	-200,000	-0,002	0,015
-399,438	293,642	0,068	-0,090
-398,423	5,323	0,115	-0,061
-397,409	-153,398	-0,091	0,004
-396,394	-134,675	-0,121	-0,010
-395,379	-141,811	0,058	0,004
-394,365	-200,000	0,007	-0,031
-393,350	-26,385	0,060	0,025
-392,336	800,000	0,043	0,115
-391,321	-92,721	0,026	-0,005
-390,306	-77,953	0,053	0,013
-389,292	-114,518	-0,064	0,009
-388,277	92,098	-0,030	0,024
-387,263	184,569	0,039	0,041
-386,248	800,000	-0,046	0,119
-385,233	138,522	-0,052	-0,049
-384,219	-200,000	0,008	-0,032
-383,204	-42,935	0,142	-0,051
-382,190	751,152	-0,012	0,024
-381,175	-200,000	0,035	0,144
-380,160	-200,000	0,021	0,159
-379,146	-200,000	-0,002	0,031
-378,131	800,000	-0,055	-0,123
-377,117	-114,009	-0,099	0,014
-376,102	252,080	-0,086	-0,105
-375,088	-200,000	-0,000	-0,034
-374,073	273,706	0,029	-0,037
-373,058	-161,230	-0,036	0,001
-372,044	252,253	-0,045	0,055
-371,029	550,007	-0,012	0,020
-370,015	-4,761	0,128	0,063
-369,000	-10,207	-0,123	-0,059
-367,985	81,281	-0,064	-0,049
-366,971	800,000	0,037	0,075
-365,956	527,193	0,064	0,108
-364,942	-152,485	0,075	0,004
-363,927	226,832	-0,049	-0,057
-362,912	-79,273	-0,074	-0,018
-361,898	59,491	0,103	-0,072
-360,883	249,147	0,008	0,010
-359,869	-179,220	0,061	-0,001
-358,854	84,887	0,071	-0,056
-357,839	250,081	0,056	0,068
-356,825	375,641	-0,035	0,051
-355,810	333,466	0,028	0,039
-354,796	-86,628	0,071	-0,015
-353,781	-35,190	-0,076	-0,030
-352,766	55,010	-0,074	-0,051
-351,752	-200,000	-0,008	-0,102
-350,737	-79,187	-0,042	-0,010
-349,723	265,741	-0,067	-0,084
-348,708	5,375	0,100	-0,053
-347,693	800,000	-0,043	-0,127
-346,679	-200,000	0,002	-0,018
-345,664	-200,000	-0,013	0,062
-344,650	11,178	0,059	0,032
-343,635	456,976	0,078	0,124
-342,620	76,112	-0,044	-0,033
-341,606	-64,845	-0,163	0,047
-340,591	663,861	-0,054	0,099
-339,577	-200,000	-0,016	-0,088
-338,562	49,358	-0,093	-0,062
-337,548	27,460	-0,114	0,068
-336,533	-81,154	0,055	-0,013
-335,518	587,885	0,021	-0,037
-334,504	-163,990	-0,116	0,004
-333,489	248,402	0,038	-0,047
-332,475	-111,542	-0,110	-0,016
-331,460	-4,895	0,078	0,038
-330,445	-11,088	-0,081	0,038
-329,431	-200,000	-0,003	0,023
-328,416	775,017	0,039	-0,076
-327,402	-57,336	0,077	0,024
-326,387	-96,485	0,066	-0,012
-325,372	84,816	0,046	-0,036
-324,358	361,739	-0,044	-0,063
-323,343	10,969	-0,060	0,033
-322,329	22,537	-0,075	0,044
-321,314	387,957	0,066	0,098
-320,299	-200,000	0,012	0,061
-319,285	67,882	-0,094	0,069
-318,270	-200,000	0,005	0,130
-317,256	17,255	0,028	0,016
-316,241	800,000	-0,017	-0,053
-315,226	-102,178	0,139	0,024
-314,212	213,387	0,020	-0,023
-313,197	-140,420	0,078	0,006
-312,183	46,465	0,056	0,037
-311,168	-200,000	-0,014	-0,076
-310,153	-200,000	-0,013	-0,053
-309,139	72,401	0,077	0,057
-308,124	127,153	0,045	-0,040
-307,110	96,091	0,146	0,119
-306,095	66,234	-0,020	0,014
-305,080	-61,682	0,123	0,037
-304,066	-200,000	-0,047	-0,196
-303,051	-200,000	-0,005	0,035
-302,037	-16,902	-0,037	0,017
-301,022	-200,000	0,018	-0,058
-300,008	-28,288	0,086	-0,036
-298,993	42,511	-0,058	-0,038
-297,978	235,952	0,059	0,070
-296,964	-200,000	-0,019	-0,099
-295,949	232,029	-0,086	-0,101
-294,935	-200,000	-0,002	-0,027
-293,920	800,000	-0,046	0,099
-292,905	-112,708	0,070	-0,010
-291,891	710,433	0,052	0,098
-290,876	800,000	-0,016	0,036
-289,862	-95,352	-0,049	0,009
-288,847	8,168	-0,047	0,025
-287,832	-32,145	-0,095	-0,038
-286,818	138,633	0,089	0,083
-285,803	-91,585	-0,063	-0,013
-284,789	-46,446	0,085	-0,030
-283,774	-151,377	0,118	0,006
-282,759	16,280	-0,042	0,024
-281,745	100,723	0,050	-0,042
-280,730	-72,619	-0,125	-0,033
-279,716	557,431	0,036	-0,062
-278,701	43,853	0,072	-0,047
-277,686	-10,317	0,053	-0,025
-276,672	-111,870	-0,128	-0,018
-275,657	800,000	-0,030	0,074
-274,643	-196,431	-0,017	0,000
-273,628	42,327	0,076	-0,050
-272,613	-138,668	-0,134	-0,010
-271,599	726,828	0,059	0,113
-270,584	-19,350	0,176	0,078
-269,570	-20,541	0,099	0,043
-268,555	800,000	0,022	0,060
-267,540	-106,824	0,038	-0,006
-266,526	800,000	0,066	-0,181
-265,511	-139,068	-0,056	-0,004
-264,497	-94,205	-0,152	-0,029
-263,482	-8,354	0,070	0,033
-262,467	-64,415	0,116	-0,033
-261,453	-200,000	-0,022	0,088
-260,438	800,000	-0,053	-0,120
-259,424	-200,000	-0,002	0,009
-258,409	214,609	0,082	-0,093
-257,395	75,600	0,008	-0,006
-256,380	-30,643	0,308	0,124
-255,365	-71,068	-0,071	-0,019
-254,351	-38,894	0,120	0,045
-253,336	-200,000	-0,048	-0,186
-252,322	92,238	0,064	-0,052
-251,307	339,761	0,068	0,094
-250,292	592,304	0,019	0,033
-249,278	-200,000	0,006	0,041
-248,263	720,650	-0,055	-0,105
-247,249	91,337	-0,189	0,151
-246,234	-141,412	-0,097	-0,007
-245,219	-131,347	-0,091	0,008
-244,205	-200,000	-0,018	-0,111
-243,190	-59,598	-0,044	-0,013
-242,176	-23,679	0,086	0,037
-241,161	800,000	-0,044	0,099
-240,146	7,301	-0,039	0,021
-239,132	-95,072	0,083	0,016
-238,117	-69,988	-0,098	-0,026
-237,103	224,704	0,017	-0,020
-236,088	-148,118	0,067	0,004
-235,073	-200,000	0,005	0,101
-234,059	47,965	-0,018	0,012
-233,044	421,061	0,085	0,130
-232,030	146,775	-0,021	0,020
-231,015	800,000	0,015	-0,038
-230,000	34,564	0,073	-0,045
-228,986	15,710	-0,035	0,020
-227,971	-78,499	0,124	0,030
-226,957	612,231	-0,038	0,068
-225,942	73,294	0,109	0,082
-224,927	-71,933	0,069	-0,018
-223,913	800,000	-0,040	-0,120
-222,898	-97,483	0,050	-0,009
-221,884	800,000	-0,006	-0,017
-220,869	-76,467	0,048	0,012
-219,855	800,000	0,009	-0,025
-218,840	283,391	-0,080	0,103
-217,825	800,000	-0,053	0,148
-216,811	81,365	0,113	-0,087
-215,796	753,205	-0,065	-0,126
-214,782	-200,000	-0,014	0,093
-213,767	-8,481	0,071	0,034
-212,752	-115,358	-0,128	-0,017
-211,738	226,691	0,058	0,067
-210,723	127,554	-0,059	0,053
-209,709	130,733	0,109	-0,100
-208,694	-200,000	-0,018	-0,165
-207,679	-55,936	-0,115	-0,036
-206,665	-111,022	0,018	0,003
-205,650	-200,000	-0,003	-0,020
-204,636	800,000	-0,030	-0,078
-203,621	-200,000	-0,031	-0,125
-202,606	-200,000	-0,009	0,036
-201,592	-185,177	0,138	-0,001
-200,577	178,342	-0,082	-0,085
-199,563	-152,183	-0,014	-0,001
-198,548	-168,467	0,102	0,003
-197,533	509,372	0,110	0,183
-196,519	800,000	-0,040	0,112
-195,504	-200,000	-0,002	0,037
-194,490	59,012	0,121	0,085
-193,475	4,361	-0,070	-0,037
-192,460	322,976	-0,077	0,105
-191,446	385,344	0,067	0,098
-190,431	-70,830	0,070	-0,019
-189,417	-106,218	-0,062	0,010
-188,402	-49,567	0,014	0,005
-187,387	233,332	-0,020	-0,024
-186,373	800,000	0,017	-0,047
-185,358	-142,615	-0,079	0,005
-184,344	-200,000	0,017	-0,058
-183,329	-200,000	0,022	0,242
-182,315	-200,000	-0,006	-0,068
-181,300	800,000	-0,052	0,117
-180,285	-147,558	-0,069	-0,004
-179,271	358,946	0,069	0,098
-178,256	-200,000	0,008	-0,044
-177,242	800,000	-0,034	0,070
-176,227	-200,000	0,002	-0,097
-175,212	-35,816	0,083	0,032
-174,198	800,000	-0,046	0,118
-173,183	-200,000	0,005	0,049
-172,169	-200,000	-0,002	0,086
-171,154	33,073	0,142	0,087
-170,139	-82,517	-0,101	0,023
-169,125	-200,000	0,010	0,079
-168,110	64,035	-0,077	0,055
-167,096	-176,461	-0,053	-0,001
-166,081	-200,000	-0,003	0,022
-165,066	269,165	-0,081	-0,101
-164,052	-200,000	-0,018	-0,113
-163,037	454,364	0,078	0,124
-162,023	-10,810	0,086	-0,040
-161,008	304,542	-0,020	-0,026
-159,993	438,117	0,025	0,039
-158,979	-200,000	-0,039	0,137
-157,964	-42,296	-0,018	0,006
-156,950	32,199	0,035	-0,021
-155,935	-70,527	0,112	-0,030
-154,920	-200,000	-0,026	0,146
-153,906	-149,176	-0,113	-0,006
-152,891	-200,000	-0,014	0,044
-151,877	43,141	-0,051	0,033
-150,862	-200,000	0,009	-0,028
-149,847	221,337	0,118	0,135
-148,833	679,051	0,071	0,131
-147,818	-46,775	0,151	0,052
-146,804	-12,438	-0,150	0,070
-145,789	338,409	-0,123	0,170
-144,775	-48,379	-0,102	-0,035
-143,760	242,088	0,084	0,101
-142,745	-200,000	-0,017	-0,055
-141,731	-200,000	-0,023	0,081
-140,716	-1,621	0,064	-0,032
-139,702	280,024	0,049	0,062
-138,687	71,332	-0,047	-0,035
-137,672	-200,000	-0,002	-0,030
-136,658	120,420	-0,091	0,080
-135,643	353,864	0,083	-0,118
-134,629	75,939	-0,019	-0,014
-133,614	-200,000	0,016	0,058
-132,599	355,022	-0,054	0,077
-131,585	14,866	0,108	0,060
-130,570	411,521	-0,051	0,078
-129,556	-200,000	0,007	0,109
-128,541	-160,821	-0,251	-0,009
-127,526	-33,562	0,107	-0,042
-126,512	-200,000	-0,031	0,117
-125,497	-50,015	0,009	-0,003
-124,483	-200,000	-0,005	0,103
-123,468	141,592	-0,055	-0,051
-122,453	386,745	-0,054	-0,080
-121,439	42,212	-0,024	0,015
-120,424	202,306	-0,024	-0,026
-119,410	800,000	-0,019	-0,039
-118,395	52,327	0,089	0,060
-117,380	126,202	0,030	-0,027
-116,366	3,230	-0,085	-0,044
-115,351	496,418	-0,036	-0,060
-114,337	-200,000	0,015	-0,060
-113,322	668,094	0,041	-0,076
-112,307	-200,000	0,011	0,079
-111,293	103,968	0,183	0,153
-110,278	116,594	0,088	-0,077
-109,264	-55,954	-0,095	-0,030
-108,249	320,806	0,061	-0,082
-107,234	198,794	-0,023	-0,025
-106,220	-6,038	-0,106	0,051
-105,205	-22,609	-0,074	-0,031
-104,191	392,164	0,098	0,145
-103,176	713,663	-0,053	0,100
-102,162	-200,000	-0,042	0,201
-101,147	800,000	-0,024	-0,064
-100,132	202,291	-0,061	-0,067
-99,118	419,455	-0,063	-0,096
-98,103	-200,000	-0,011	0,087
-97,089	-120,237	0,062	-0,007
-96,074	-200,000	-0,005	-0,128
-95,059	403,374	0,056	0,083
-94,045	-200,000	-0,037	-0,131
-93,030	-165,513	-0,079	0,002
-92,016	-183,816	-0,021	0,000
-91,001	99,992	-0,068	-0,056
-89,986	18,062	-0,036	-0,020
-88,972	-107,035	-0,107	0,017
-87,957	-22,057	0,042	0,018
-86,943	714,518	-0,045	-0,086
-85,928	57,213	-0,012	-0,008
-84,913	490,761	-0,021	-0,035
-83,899	-29,483	0,148	0,060
-82,884	-78,155	-0,052	-0,013
-81,870	127,807	0,122	0,110
-80,855	-38,015	0,159	0,060
-79,840	-10,051	-0,091	0,043
-78,826	612,683	-0,092	-0,164
-77,811	718,848	0,084	-0,158
-76,797	-111,744	0,068	0,010
-75,782	655,655	0,083	0,152
-74,767	800,000	0,065	-0,180
-73,753	44,871	-0,034	0,022
-72,738	-175,996	0,030	0,001
-71,724	-104,494	-0,047	0,008
-70,709	-29,196	0,092	-0,037
-69,694	-7,657	-0,092	0,044
-68,680	349,748	0,106	0,148
-67,665	220,879	0,109	0,124
-66,651	800,000	0,049	0,113
-65,636	64,697	-0,062	0,044
-64,622	361,264	-0,047	0,067
-63,607	-200,000	-0,009	0,072
-62,592	-62,639	0,113	-0,033
-61,578	-128,961	0,102	-0,010
-60,563	-86,009	0,154	-0,033
-59,549	200,563	0,074	0,080
-58,534	-37,972	-1,699	-0,636
-57,519	422,327	-1,273	-1,941
-56,505	-200,000	-0,609	-4,599
-55,490	286,219	1,117	1,431
-54,476	800,000	4,629	11,031
-53,461	-200,000	19,190	317,758
-52,446	-200,000	739,741	2333,800
-51,432	575,179	1655,045	2872,162
-50,417	78,636	1670,653	1263,435
-49,403	21,568	1543,436	886,759
-48,388	15,389	1466,003	812,232
-47,373	17,942	1456,197	819,104
-46,359	16,736	1446,219	807,674
-45,344	13,649	1441,554	790,256
-44,330	13,555	1439,578	788,691
-43,315	13,669	1437,651	788,147
-42,300	13,603	1436,284	787,051
-41,286	13,595	1435,037	786,301
-40,271	13,569	1433,670	785,393
-39,257	13,543	1432,437	784,566
-38,242	13,599	1431,068	784,049
-37,227	13,623	1430,085	783,596
-36,213	13,653	1428,627	782,906
-35,198	13,638	1427,411	782,137
-34,184	13,640	1426,495	781,615
-33,169	13,602	1425,148	780,666
-32,154	13,648	1424,000	780,225
-31,140	13,674	1422,708	779,608
-30,125	13,674	1421,691	779,019
-29,111	13,662	1420,538	778,301
-28,096	13,623	1419,505	777,519
-27,082	13,579	1418,500	776,729
-26,067	13,563	1417,369	776,006
-25,052	13,523	1416,347	775,226
-24,038	13,527	1415,162	774,566
-23,023	13,533	1414,208	774,040
-22,009	13,533	1413,253	773,489
-20,994	13,474	1412,280	772,647
-19,979	13,512	1411,360	772,290
-18,965	13,487	1410,675	771,767
-17,950	13,527	1409,422	771,240
-16,936	13,496	1408,599	770,616
-15,921	13,437	1407,649	769,786
-14,906	13,470	1406,534	769,301
-13,892	13,447	1405,919	768,826
-12,877	13,497	1404,828	768,435
-11,863	13,441	1404,039	767,710
-10,848	13,465	1403,060	767,256
-9,833	13,434	1402,288	766,660
-8,819	13,356	1401,358	765,755
-7,804	13,362	1400,515	765,293
-6,790	13,364	1399,458	764,694
-5,775	13,387	1398,220	764,097
-4,760	13,369	1397,344	763,503
-3,746	13,352	1396,667	763,023
-2,731	13,395	1395,598	762,609
-1,717	13,313	1394,798	761,759
-0,702	13,331	1393,050	760,860
0,313	17,227	1310,210	733,648
1,327	33,543	703,888	431,849
2,342	51,845	123,302	82,903
3,356	2,615	16,673	8,521
4,371	5,574	3,186	1,660
5,386	-61,359	0,616	0,182
6,400	223,058	0,087	0,099
7,415	183,749	-0,170	-0,177
8,429	161,008	-0,236	-0,233
9,444	36,217	-0,352	-0,219
10,459	35,906	-0,261	-0,162
11,473	59,431	-0,360	-0,250
12,488	-132,810	-0,301	-0,027
13,502	66,593	-0,342	-0,246
14,517	-48,306	-0,402	-0,136
15,531	9,291	-0,376	-0,200
16,546	72,229	-0,428	-0,315
17,561	115,275	-0,402	-0,347
18,575	267,522	-0,135	-0,168
19,590	137,819	-0,228	-0,211
20,604	93,926	-0,147	-0,118
21,619	120,080	-0,431	-0,378
22,634	41,476	-0,530	-0,338
23,648	32,135	-0,410	-0,249
24,663	108,903	-0,427	-0,361
25,677	192,346	-0,324	-0,345
26,692	-6,582	-0,509	-0,244
27,707	-25,279	-0,378	-0,157
28,721	38,377	-0,299	-0,188
29,736	134,409	-0,426	-0,390
30,750	177,328	-0,422	-0,435
31,765	46,115	-0,413	-0,270
32,780	75,532	-0,452	-0,336
33,794	77,283	-0,289	-0,217
34,809	-18,348	-0,363	-0,159
35,823	26,166	-0,479	-0,282
36,838	386,088	-0,275	-0,402
37,853	664,703	-0,217	-0,398
38,867	89,604	-0,363	-0,286
39,882	0,913	-0,464	-0,234
40,896	-112,074	-0,301	-0,042
41,911	69,007	-0,285	-0,206
42,926	57,234	-0,450	-0,309
43,940	67,816	-0,378	-0,272
44,955	93,432	-0,366	-0,292
45,969	8,698	-0,440	-0,233
46,984	76,224	-0,388	-0,290
47,999	78,427	-0,281	-0,211
49,013	-26,815	-0,463	-0,190
50,028	-50,765	-0,304	-0,100
51,042	19,067	-0,384	-0,216
52,057	83,374	-0,343	-0,263
53,071	375,437	-0,244	-0,352
54,086	47,416	-0,225	-0,147
55,101	120,906	-0,360	-0,315
56,115	-3,033	-0,359	-0,176
57,130	34,949	-0,345	-0,212
58,144	135,303	-0,249	-0,228
59,159	110,705	-0,506	-0,429
60,174	127,933	-0,309	-0,277
61,188	147,941	-0,303	-0,288
62,203	7,014	-0,331	-0,173
63,217	100,386	-0,265	-0,216
64,232	38,963	-0,468	-0,293
65,247	11,906	-0,351	-0,189
66,261	82,815	-0,337	-0,257
67,276	173,787	-0,360	-0,366
68,290	85,778	-0,415	-0,320
69,305	766,484	-0,187	-0,360
70,320	800,000	-0,093	-0,266
71,334	-27,823	-0,365	-0,148
72,349	10,276	-0,423	-0,225
73,363	37,307	-0,319	-0,198
74,378	114,169	-0,285	-0,244
75,393	101,875	-0,382	-0,313
76,407	26,705	-0,406	-0,238
77,422	-79,952	-0,277	-0,065
78,436	-27,242	-0,386	-0,157
79,451	173,160	-0,261	-0,265
80,466	-56,042	-0,273	-0,085
81,480	98,866	-0,211	-0,171
82,495	-18,483	-0,321	-0,140
83,509	93,513	-0,308	-0,245
84,524	97,711	-0,270	-0,218
85,539	-70,159	-0,272	-0,072
86,553	-56,636	-0,405	-0,125
87,568	22,228	-0,292	-0,167
88,582	108,010	-0,253	-0,212
89,597	226,384	-0,219	-0,250
90,611	83,896	-0,310	-0,237
91,626	-33,755	-0,245	-0,094
92,641	5,732	-0,362	-0,187
93,655	221,247	-0,193	-0,218
94,670	672,866	-0,187	-0,342
95,684	181,988	-0,204	-0,211
96,699	-68,530	-0,280	-0,076
97,714	61,144	-0,269	-0,187
98,728	50,221	-0,199	-0,131
99,743	-17,321	-0,355	-0,156
100,757	-26,280	-0,273	-0,112
101,772	52,981	-0,240	-0,161
102,787	61,014	-0,347	-0,241
103,801	66,158	-0,389	-0,277
104,816	145,812	-0,293	-0,276
105,830	538,768	-0,140	-0,235
106,845	-167,122	-0,185	-0,005
107,860	-64,578	-0,252	-0,071
108,874	24,623	-0,415	-0,240
109,889	135,502	-0,261	-0,238
110,903	138,914	-0,147	-0,136
111,918	139,908	-0,248	-0,230
112,933	-50,102	-0,342	-0,113
113,947	192,550	-0,172	-0,182
114,962	30,971	-0,242	-0,145
115,976	162,962	-0,136	-0,134
116,991	202,931	-0,249	-0,270
118,006	-124,627	-0,269	-0,029
119,020	214,657	-0,217	-0,241
120,035	314,305	-0,201	-0,266
121,049	551,833	-0,094	-0,159
122,064	382,671	-0,186	-0,269
123,079	11,924	-0,228	-0,123
124,093	800,000	-0,155	-0,350
125,108	86,536	-0,230	-0,178
126,122	197,633	-0,136	-0,146
127,137	97,539	-0,220	-0,177
128,151	123,549	-0,205	-0,180
129,166	-97,075	-0,149	-0,027
130,181	-76,686	-0,317	-0,077
131,195	-1,282	-0,178	-0,088
132,210	-75,977	-0,352	-0,086
133,224	59,989	-0,292	-0,201
134,239	192,925	-0,196	-0,208
135,254	-67,125	-0,185	-0,051
136,268	132,852	-0,232	-0,209
137,283	23,755	-0,317	-0,182
138,297	41,645	-0,298	-0,188
139,312	111,078	-0,186	-0,156
140,327	-7,638	-0,360	-0,170
141,341	64,063	-0,301	-0,211
142,356	286,840	-0,157	-0,198
143,370	19,500	-0,257	-0,144
144,385	134,239	-0,256	-0,232
145,400	175,398	-0,202	-0,204
146,414	67,420	-0,324	-0,230
147,429	146,123	-0,219	-0,206
148,443	-24,561	-0,297	-0,123
149,458	-111,489	-0,192	0,027
150,473	107,416	-0,197	-0,164
151,487	176,250	-0,163	-0,166
152,502	800,000	-0,129	-0,345
153,516	161,748	-0,251	-0,246
154,531	148,374	-0,268	-0,253
155,546	199,061	-0,144	-0,155
156,560	420,289	-0,131	-0,197
157,575	95,703	-0,160	-0,127
158,589	146,151	-0,203	-0,190
159,604	58,493	-0,249	-0,170
160,619	38,438	-0,255	-0,158
161,633	27,527	-0,235	-0,137
162,648	84,006	-0,313	-0,239
163,662	-33,822	-0,362	-0,139
164,677	511,639	-0,107	-0,174
165,692	72,583	-0,189	-0,137
166,706	127,542	-0,217	-0,192
167,721	92,875	-0,342	-0,269
168,735	-95,777	-0,270	-0,050
169,750	92,852	-0,280	-0,220
170,764	227,734	-0,103	-0,116
171,779	-79,095	-0,105	-0,025
172,794	25,828	-0,278	-0,161
173,808	95,471	-0,250	-0,199
174,823	-194,080	-0,248	-0,001
175,837	-20,615	-0,310	-0,132
176,852	159,579	-0,167	-0,162
177,867	138,062	-0,270	-0,247
178,881	-114,688	-0,292	0,038
179,896	-8,100	-0,336	-0,157
180,910	800,000	-0,101	-0,251
181,925	335,691	-0,179	-0,242
182,940	99,130	-0,330	-0,266
183,954	142,759	-0,193	-0,179
184,969	-3,360	-0,263	-0,127
185,983	21,739	-0,242	-0,137
186,998	622,015	-0,134	-0,235
188,013	101,667	-0,323	-0,262
189,027	3,928	-0,217	-0,110
190,042	263,927	-0,131	-0,159
191,056	239,202	-0,248	-0,288
192,071	95,004	-0,234	-0,185
193,086	130,398	-0,197	-0,175
194,100	231,587	-0,114	-0,130
195,115	334,189	-0,157	-0,211
196,129	248,760	-0,204	-0,241
197,144	5,014	-0,318	-0,162
198,159	107,549	-0,308	-0,255
199,173	485,757	-0,139	-0,221
200,188	78,638	-0,120	-0,089
201,202	12,440	-0,194	-0,104
202,217	81,797	-0,210	-0,158
203,232	17,502	-0,221	-0,122
204,246	-82,833	-0,112	-0,025
205,261	5,326	-0,188	-0,096
206,275	105,522	-0,159	-0,130
207,290	-34,517	-0,329	-0,124
208,304	-85,138	-0,162	-0,035
209,319	-153,048	-0,193	-0,009
210,334	800,000	-0,164	-0,361
211,348	116,655	-0,228	-0,194
212,363	175,401	-0,157	-0,159
213,377	58,609	-0,171	-0,116
214,392	-4,482	-0,263	-0,126
215,407	-200,000	-0,017	-0,114
216,421	561,870	-0,175	-0,295
217,436	244,857	-0,065	-0,076
218,450	-2,626	-0,286	-0,138
219,465	375,350	-0,147	-0,208
220,480	87,239	-0,159	-0,122
221,494	-140,545	-0,209	0,015
222,509	-60,089	-0,210	-0,062
223,523	-200,000	-0,022	-0,125
224,538	185,748	-0,187	-0,193
225,553	-58,739	-0,303	-0,090
226,567	128,001	-0,206	-0,181
227,582	575,154	-0,089	-0,151
228,596	-62,670	-0,193	0,055
229,611	-97,305	-0,146	-0,026
230,626	112,884	-0,175	-0,147
231,640	36,919	-0,315	-0,193
232,655	210,267	-0,255	-0,278
233,669	263,397	-0,176	-0,212
234,684	175,295	-0,164	-0,165
235,699	35,770	-0,219	-0,133
236,713	62,769	-0,137	-0,095
237,728	119,589	-0,059	-0,051
238,742	800,000	-0,070	-0,160
239,757	134,608	-0,212	-0,190
240,772	31,711	-0,222	-0,132
241,786	-42,073	-0,192	-0,068
242,801	-13,703	-0,194	-0,087
243,815	-200,000	-0,015	-0,094
244,830	333,134	-0,065	-0,087
245,844	800,000	-0,071	-0,198
246,859	166,565	-0,206	-0,202
247,874	212,102	-0,110	-0,120
248,888	-128,512	-0,148	-0,014
249,903	388,240	-0,100	-0,144
250,917	89,464	-0,215	-0,166
251,932	150,554	-0,118	-0,111
252,947	361,080	-0,139	-0,193
253,961	800,000	-0,131	-0,358
254,976	127,739	-0,126	-0,110
255,990	276,048	-0,121	-0,149
257,005	411,200	-0,153	-0,226
258,020	-76,647	-0,308	-0,074
259,034	-146,069	-0,191	0,011
260,049	234,885	-0,137	-0,156
261,063	-17,924	-0,217	-0,094
262,078	73,914	-0,211	-0,153
263,093	627,745	-0,073	-0,127
264,107	110,701	-0,170	-0,141
265,122	57,251	-0,207	-0,139
266,136	223,558	-0,053	-0,059
267,151	37,538	-0,060	-0,037
268,166	168,938	-0,114	-0,112
269,180	-7,302	-0,151	-0,071
270,195	-26,714	-0,202	-0,081
271,209	-35,254	-0,093	-0,035
272,224	8,234	-0,155	-0,080
273,239	200,743	-0,160	-0,170
274,253	215,240	-0,169	-0,186
275,268	-82,126	-0,141	-0,032
276,282	-28,747	-0,275	-0,109
277,297	-82,443	-0,188	0,042
278,312	69,443	-0,278	-0,197
279,326	16,237	-0,171	0,093
280,341	-179,326	-0,165	-0,002
281,355	67,487	-0,202	-0,142
282,370	760,776	-0,080	-0,151
283,384	-50,962	-0,147	-0,047
284,399	162,885	-0,216	-0,210
285,414	-38,241	-0,214	-0,078
286,428	800,000	-0,064	-0,149
287,443	354,632	0,052	-0,072
288,457	-200,000	-0,002	-0,051
289,472	-127,143	-0,216	-0,022
290,487	483,727	-0,124	-0,196
291,501	154,807	-0,116	-0,110
292,516	93,643	-0,231	-0,181
293,530	106,926	-0,092	-0,076
294,545	-2,271	-0,106	-0,051
295,560	235,846	-0,089	-0,101
296,574	-129,380	-0,174	0,016
297,589	800,000	-0,086	-0,233
298,603	60,966	-0,186	-0,127
299,618	112,128	-0,092	-0,077
300,633	-49,176	-0,218	-0,071
301,647	242,801	-0,141	-0,164
302,662	-33,211	-0,181	-0,069
303,676	72,094	-0,061	-0,044
304,691	461,442	-0,142	-0,218
305,706	252,720	-0,144	-0,170
306,720	800,000	-0,097	-0,198
307,735	800,000	-0,090	-0,206
308,749	231,938	-0,147	-0,167
309,764	-34,111	-0,122	-0,046
310,779	417,948	-0,102	-0,151
311,793	563,411	-0,128	-0,214
312,808	157,555	-0,279	-0,267
313,822	57,264	-0,142	-0,096
314,837	249,067	-0,147	-0,172
315,852	-72,603	-0,128	-0,032
316,866	21,786	-0,137	-0,077
317,881	-200,000	-0,114	0,000
318,895	800,000	-0,080	-0,222
319,910	160,221	-0,119	-0,114
320,925	21,944	-0,305	-0,170
321,939	86,145	-0,114	-0,086
322,954	-29,973	-0,277	-0,108
323,968	-106,192	-0,247	-0,038
324,983	24,519	-0,163	-0,093
325,997	775,506	-0,080	-0,151
327,012	164,531	-0,104	-0,101
328,027	396,339	-0,109	-0,156
329,041	482,669	-0,083	-0,130
330,056	-200,000	-0,035	-0,127
331,070	456,894	-0,047	-0,073
332,085	441,979	-0,007	-0,011
333,100	345,416	-0,122	-0,165
334,114	-63,863	-0,178	-0,050
335,129	448,214	-0,070	-0,106
336,143	184,796	-0,214	-0,218
337,158	-200,000	-0,057	-0,181
338,173	-32,896	-0,132	-0,050
339,187	-68,390	-0,165	0,044
340,202	166,632	-0,091	-0,089
341,216	123,589	-0,138	-0,119
342,231	382,783	-0,067	-0,095
343,246	288,599	-0,212	-0,264
344,260	372,305	-0,096	-0,134
345,275	43,503	-0,064	-0,040
346,289	522,397	-0,030	-0,048
347,304	-30,781	-0,068	0,026
348,319	800,000	-0,054	-0,114
349,333	430,954	-0,104	-0,154
350,348	-28,619	-0,187	-0,074
351,362	-72,349	-0,172	-0,043
352,377	-200,000	0,008	-0,106
353,392	5,044	-0,104	-0,052
354,406	-62,289	-0,166	-0,047
355,421	207,626	1313,964	1408,763
356,435	159,724	1474,602	1409,259
