DTS Sentinel unit serial number:	SN410029Multiplexer serial number:	ORYXHardware model number:	OX2-SRSoftware version number:	ORYX F/W v4,00 Oryx Data Collector v3.7.2.0data status	okinstallation	B3 Nyhavnadifferential loss correction	single-endedforward channel	channel 1reverse channel	N/Adate	2023/12/01time	01:57:30forward acquisition time	300,00reverse acquisition time	0,00gamma	499,1914k internal	0,3211k external	0,3211temperature offset calibration	1,0000default loss term (dB/km)	0,3820temperature slope calibration	1,0000multiplexer offset coefficient	1,0000multiplexer slope coefficient	1,0000fibre end	0,00T internal ref (°C)	8,75T ext. ref 1 (°C)	-6,41T ext. ref 2 (°C)	-6,55length (m)	temperature (°C)	Stokes	anti-Stokes-744,400	235,108	-0,185	-0,221
-743,385	-200,000	0,028	0,267
-742,371	88,650	-0,194	-0,157
-741,356	800,000	0,120	0,294
-740,342	411,432	-0,136	-0,210
-739,327	-200,000	-0,011	0,151
-738,312	59,976	-0,200	-0,143
-737,298	-200,000	0,063	0,244
-736,283	373,953	-0,130	-0,192
-735,269	-200,000	0,076	0,391
-734,254	-4,479	-0,240	-0,120
-733,239	-140,881	-0,375	0,028
-732,225	-200,000	-0,039	-0,300
-731,210	3,528	0,139	-0,073
-730,196	800,000	-0,041	-0,110
-729,181	-200,000	-0,005	-0,050
-728,167	161,024	-0,023	-0,023
-727,152	101,665	-0,087	-0,073
-726,137	-200,000	0,019	0,154
-725,123	-200,000	-0,006	-0,044
-724,108	-35,229	-0,123	-0,048
-723,094	-97,763	-0,169	-0,031
-722,079	171,230	0,033	0,034
-721,064	128,426	0,095	-0,088
-720,050	-200,000	0,005	0,031
-719,035	51,534	-0,091	0,063
-718,021	567,716	0,068	-0,121
-717,006	800,000	-0,047	-0,145
-715,991	-200,000	0,003	0,094
-714,977	20,836	-0,153	-0,090
-713,962	-200,000	-0,007	-0,049
-712,948	800,000	0,043	0,129
-711,933	-80,502	0,080	-0,019
-710,918	-141,653	0,129	-0,009
-709,904	800,000	0,013	0,036
-708,889	430,397	-0,093	-0,146
-707,875	483,583	0,056	-0,092
-706,860	199,741	-0,135	-0,150
-705,845	599,504	0,037	-0,067
-704,831	234,780	0,022	0,026
-703,816	-1,391	0,067	-0,034
-702,802	800,000	-0,056	-0,168
-701,787	-200,000	-0,016	-0,095
-700,772	-200,000	0,044	-0,140
-699,758	-200,000	0,009	0,135
-698,743	20,323	0,102	-0,060
-697,729	800,000	-0,020	-0,065
-696,714	-1,951	-0,054	-0,027
-695,699	-14,406	-0,082	-0,038
-694,685	-200,000	0,008	-0,159
-693,670	328,281	-0,052	-0,072
-692,656	-183,701	-0,057	0,001
-691,641	-29,322	0,156	0,064
-690,627	-55,738	0,039	-0,012
-689,612	10,515	0,033	-0,018
-688,597	351,700	0,037	0,053
-687,583	-68,751	-0,016	-0,005
-686,568	-44,063	-0,034	0,012
-685,554	-198,707	-0,122	-0,000
-684,539	-47,806	0,069	0,024
-683,524	475,713	0,096	0,158
-682,510	256,759	0,124	0,155
-681,495	-62,190	-0,084	-0,025
-680,481	800,000	-0,026	-0,058
-679,466	-146,434	-0,208	-0,013
-678,451	-58,871	-0,153	-0,048
-677,437	396,745	0,003	-0,004
-676,422	-83,801	0,056	-0,013
-675,408	17,970	-0,133	-0,076
-674,393	-18,008	0,080	-0,036
-673,378	110,405	0,117	0,102
-672,364	-74,979	-0,137	0,035
-671,349	-9,597	-0,104	-0,050
-670,335	-200,000	-0,001	0,010
-669,320	671,930	0,017	-0,032
-668,305	110,245	0,042	0,037
-667,291	-115,574	-0,171	0,023
-666,276	157,044	-0,029	0,029
-665,262	137,097	-0,101	-0,095
-664,247	94,597	0,153	-0,125
-663,232	-200,000	0,015	-0,051
-662,218	39,100	-0,051	0,033
-661,203	28,285	-0,045	0,028
-660,189	358,574	0,043	-0,062
-659,174	5,411	0,058	0,031
-658,159	-168,620	-0,059	-0,002
-657,145	36,179	-0,092	-0,058
-656,130	800,000	0,045	-0,121
-655,116	151,324	-0,034	0,034
-654,101	-118,928	-0,054	-0,007
-653,086	247,851	-0,125	-0,153
-652,072	105,394	-0,022	-0,019
-651,057	113,257	-0,088	-0,077
-650,043	800,000	-0,047	-0,095
-649,028	-200,000	-0,011	-0,112
-648,014	800,000	-0,021	-0,052
-646,999	286,799	-0,012	0,016
-645,984	518,193	-0,053	-0,090
-644,970	800,000	-0,046	-0,134
-643,955	-51,272	-0,036	-0,012
-642,941	-28,910	-0,137	0,057
-641,926	-200,000	0,013	-0,063
-640,911	142,180	0,088	0,084
-639,897	800,000	0,012	-0,035
-638,882	267,879	0,037	0,047
-637,868	29,976	-0,106	0,065
-636,853	-75,602	0,070	-0,018
-635,838	396,394	-0,076	-0,116
-634,824	86,141	-0,099	-0,079
-633,809	-200,000	-0,006	0,098
-632,795	20,078	0,132	0,077
-631,780	-86,512	-0,106	-0,023
-630,765	-49,199	-0,079	0,027
-629,751	-200,000	-0,051	0,177
-628,736	598,463	-0,062	0,111
-627,722	80,375	-0,072	0,056
-626,707	-183,499	0,050	0,001
-625,692	-200,000	0,009	0,043
-624,678	189,045	-0,054	0,058
-623,663	800,000	-0,018	-0,052
-622,649	-4,435	-0,090	-0,045
-621,634	-79,553	-0,061	-0,015
-620,619	-90,516	-0,108	0,022
-619,605	136,171	-0,060	-0,056
-618,590	-60,797	0,106	0,032
-617,576	-200,000	-0,033	0,147
-616,561	-66,700	-0,057	0,016
-615,546	800,000	0,023	-0,057
-614,532	102,162	0,088	-0,074
-613,517	-45,712	0,063	-0,022
-612,503	800,000	-0,004	0,011
-611,488	386,839	0,039	-0,058
-610,474	12,103	0,067	-0,037
-609,459	800,000	-0,048	0,142
-608,444	800,000	0,083	-0,202
-607,430	-200,000	-0,038	0,135
-606,415	601,332	0,029	0,052
-605,401	-200,000	-0,043	-0,140
-604,386	-78,623	0,219	-0,053
-603,371	-128,106	0,115	0,012
-602,357	501,602	0,023	0,039
-601,342	-200,000	-0,010	-0,041
-600,328	-200,000	0,014	-0,080
-599,313	31,403	-0,139	-0,086
-598,298	-62,515	0,098	-0,029
-597,284	-109,927	0,085	0,013
-596,269	192,665	0,131	0,143
-595,255	800,000	0,006	0,015
-594,240	31,466	-0,065	-0,040
-593,225	-54,240	-0,101	0,033
-592,211	-83,149	-0,124	-0,029
-591,196	800,000	0,041	-0,091
-590,182	-200,000	-0,004	0,137
-589,167	800,000	0,009	0,024
-588,152	235,395	0,059	0,070
-587,138	18,337	-0,024	0,014
-586,123	-180,227	0,056	0,001
-585,109	-7,667	-0,094	0,046
-584,094	-142,464	-0,140	-0,010
-583,079	0,757	-0,089	0,046
-582,065	10,553	0,112	0,062
-581,050	800,000	0,014	0,040
-580,036	-200,000	-0,018	-0,077
-579,021	189,203	0,068	-0,074
-578,006	-63,770	-0,151	-0,044
-576,992	276,171	-0,021	0,027
-575,977	16,934	0,073	-0,042
-574,963	800,000	0,043	0,108
-573,948	800,000	0,080	0,168
-572,934	-58,245	-0,102	0,032
-571,919	800,000	0,041	0,107
-570,904	-200,000	0,027	-0,115
-569,890	224,763	0,066	-0,077
-568,875	185,930	0,011	0,012
-567,861	60,833	-0,142	-0,102
-566,846	-200,000	0,020	-0,108
-565,831	-112,110	-0,128	-0,018
-564,817	-13,675	-0,016	0,007
-563,802	-200,000	0,002	-0,082
-562,788	94,175	-0,081	-0,066
-561,773	800,000	-0,045	-0,098
-560,758	-200,000	0,003	-0,033
-559,744	-79,325	0,083	0,020
-558,729	800,000	0,015	0,036
-557,715	-30,712	0,085	-0,034
-556,700	-99,978	-0,163	-0,029
-555,685	71,287	0,141	-0,106
-554,671	163,494	0,033	-0,034
-553,656	92,660	-0,017	-0,014
-552,642	30,911	-0,011	-0,007
-551,627	800,000	-0,052	0,127
-550,612	748,950	-0,057	-0,112
-549,598	460,695	-0,019	-0,030
-548,583	-200,000	0,001	-0,045
-547,569	-57,602	0,119	0,037
-546,554	-200,000	0,041	0,142
-545,539	47,981	-0,100	0,067
-544,525	402,979	0,043	-0,065
-543,510	800,000	0,020	-0,052
-542,496	-83,754	-0,155	-0,035
-541,481	-119,396	0,015	0,002
-540,466	-31,648	-0,112	0,045
-539,452	-83,258	0,095	0,022
-538,437	800,000	0,041	0,124
-537,423	-104,619	-0,008	0,001
-536,408	-69,169	0,056	-0,015
-535,393	485,485	0,011	0,019
-534,379	800,000	0,039	-0,117
-533,364	212,728	-0,123	-0,139
-532,350	800,000	0,036	0,082
-531,335	437,239	0,025	0,039
-530,321	-200,000	0,004	0,032
-529,306	-102,025	-0,128	-0,022
-528,291	800,000	0,049	0,117
-527,277	-120,794	-0,119	-0,014
-526,262	-200,000	0,005	-0,071
-525,248	83,611	0,096	0,075
-524,233	286,636	0,039	0,051
-523,218	-200,000	0,014	0,053
-522,204	141,714	0,108	0,103
-521,189	-153,755	-0,193	0,009
-520,175	254,484	-0,050	-0,062
-519,160	51,785	-0,099	0,068
-518,145	151,289	-0,039	-0,038
-517,131	800,000	-0,065	0,169
-516,116	34,414	-0,042	0,026
-515,102	-200,000	-0,001	-0,012
-514,087	446,423	-0,028	-0,044
-513,072	153,115	0,170	-0,167
-512,058	800,000	0,049	-0,099
-511,043	800,000	0,032	0,082
-510,029	-31,792	-0,066	-0,027
-509,014	800,000	0,008	0,023
-507,999	-141,689	-0,084	0,006
-506,985	800,000	0,028	-0,076
-505,970	-200,000	-0,029	-0,161
-504,956	454,897	-0,055	-0,087
-503,941	-68,762	0,050	-0,014
-502,926	-23,610	0,067	-0,029
-501,912	156,506	0,117	0,116
-500,897	44,225	-0,069	-0,046
-499,883	-96,749	-0,068	-0,013
-498,868	-200,000	-0,018	-0,108
-497,853	64,066	0,119	0,086
-496,839	202,664	0,114	-0,127
-495,824	125,983	-0,037	0,034
-494,810	-200,000	-0,014	-0,058
-493,795	-200,000	0,033	-0,134
-492,781	9,538	0,127	0,069
-491,766	800,000	0,080	-0,173
-490,751	-200,000	0,006	-0,049
-489,737	80,834	0,022	-0,017
-488,722	-200,000	0,039	0,166
-487,708	-200,000	0,006	-0,093
-486,693	800,000	0,023	0,072
-485,678	249,743	0,109	-0,133
-484,664	800,000	-0,091	-0,192
-483,649	800,000	-0,069	-0,205
-482,635	430,326	0,065	-0,102
-481,620	-195,658	0,165	-0,001
-480,605	-97,806	0,058	0,011
-479,591	27,046	0,044	0,027
-478,576	129,479	-0,038	0,035
-477,562	800,000	-0,037	-0,085
-476,547	477,173	0,032	-0,052
-475,532	-46,477	-0,057	0,020
-474,518	-200,000	0,022	-0,164
-473,503	483,163	0,084	-0,138
-472,489	800,000	-0,040	0,097
-471,474	800,000	-0,028	-0,071
-470,459	255,329	-0,034	-0,042
-469,445	800,000	-0,055	-0,146
-468,430	-157,206	-0,087	0,004
-467,416	474,761	0,058	0,094
-466,401	800,000	-0,008	-0,025
-465,386	204,626	0,099	-0,110
-464,372	-200,000	0,027	0,124
-463,357	493,610	0,015	-0,025
-462,343	-4,904	-0,046	0,023
-461,328	-15,873	-0,186	-0,085
-460,313	-200,000	-0,003	0,015
-459,299	-164,081	0,177	0,006
-458,284	761,967	-0,037	0,073
-457,270	75,252	0,055	0,042
-456,255	52,977	0,046	-0,032
-455,241	265,710	0,082	-0,103
-454,226	32,128	-0,115	-0,071
-453,211	-200,000	-0,021	-0,100
-452,197	234,449	-0,017	0,020
-451,182	-90,625	0,120	0,025
-450,168	-200,000	0,016	-0,149
-449,153	-56,851	-0,097	-0,031
-448,138	173,998	0,057	-0,059
-447,124	-97,211	-0,186	-0,034
-446,109	59,205	-0,135	0,095
-445,095	85,569	0,059	0,047
-444,080	-68,146	0,148	0,041
-443,065	800,000	0,025	0,068
-442,051	-200,000	-0,018	0,075
-441,036	555,419	-0,032	0,056
-440,022	-27,053	-0,048	0,020
-439,007	-36,964	0,059	0,023
-437,992	-200,000	0,001	0,074
-436,978	302,894	-0,049	-0,065
-435,963	-26,962	-0,096	-0,040
-434,949	9,391	-0,093	0,050
-433,934	-200,000	0,000	-0,032
-432,919	63,343	-0,094	0,067
-431,905	-147,343	-0,100	0,006
-430,890	-60,505	0,083	0,025
-429,876	731,799	0,077	0,148
-428,861	182,240	-0,100	-0,106
-427,846	800,000	0,031	0,096
-426,832	-62,065	-0,114	0,034
-425,817	421,169	0,011	0,017
-424,803	-200,000	0,023	-0,106
-423,788	260,496	0,081	0,100
-422,773	24,565	-0,020	-0,012
-421,759	48,834	-0,035	-0,024
-420,744	581,626	-0,034	-0,059
-419,730	-16,760	0,076	0,034
-418,715	-200,000	-0,004	-0,015
-417,701	-200,000	0,009	0,108
-416,686	-68,970	0,064	0,018
-415,671	-200,000	-0,011	0,182
-414,657	66,366	0,110	-0,080
-413,642	-200,000	0,012	-0,097
-412,628	40,860	-0,115	-0,074
-411,613	-4,222	0,079	0,039
-410,598	-200,000	-0,026	0,128
-409,584	242,740	0,033	-0,039
-408,569	800,000	-0,053	0,114
-407,555	-2,740	0,091	0,045
-406,540	502,034	-0,137	0,228
-405,525	-200,000	-0,021	-0,077
-404,511	-118,181	0,037	-0,005
-403,496	115,485	0,107	-0,094
-402,482	-200,000	-0,142	-0,000
-401,467	-200,000	0,000	0,194
-400,452	31,110	0,177	0,108
-399,438	178,521	0,012	0,013
-398,423	-12,293	0,096	-0,045
-397,409	545,669	0,045	-0,077
-396,394	-11,262	-0,035	-0,016
-395,379	-118,544	0,095	0,012
-394,365	168,806	0,114	0,116
-393,350	-200,000	-0,011	-0,082
-392,336	96,232	-0,058	-0,047
-391,321	-200,000	0,039	-0,143
-390,306	21,008	-0,107	-0,062
-389,292	-200,000	-0,027	-0,117
-388,277	64,817	0,032	-0,023
-387,263	177,222	-0,072	0,075
-386,248	36,785	-0,068	-0,043
-385,233	800,000	-0,041	-0,121
-384,219	-0,995	0,150	-0,076
-383,204	800,000	-0,060	-0,173
-382,190	99,523	0,040	-0,033
-381,175	313,259	-0,157	-0,212
-380,160	151,822	0,084	0,082
-379,146	339,387	0,060	0,083
-378,131	404,165	-0,051	-0,077
-377,117	361,266	-0,064	-0,092
-376,102	-200,000	-0,002	-0,058
-375,088	198,974	0,033	0,036
-374,073	-77,154	-0,094	0,023
-373,058	363,773	0,031	0,045
-372,044	-110,872	0,207	-0,030
-371,029	164,856	-0,081	0,082
-370,015	-200,000	-0,056	0,196
-369,000	-60,705	0,046	0,014
-367,985	-200,000	-0,026	0,091
-366,971	118,314	-0,109	0,096
-365,956	211,048	-0,035	0,039
-364,942	217,421	-0,068	-0,078
-363,927	397,148	-0,056	-0,084
-362,912	800,000	-0,027	-0,072
-361,898	298,313	0,062	-0,081
-360,883	-200,000	-0,009	0,075
-359,869	-76,458	-0,139	0,035
-358,854	-85,512	0,145	-0,032
-357,839	-200,000	0,002	-0,019
-356,825	-129,148	0,184	-0,018
-355,810	-12,367	-0,109	-0,051
-354,796	199,781	-0,016	0,017
-353,781	-33,319	0,058	0,023
-352,766	474,079	0,043	-0,069
-351,752	26,905	0,059	0,035
-350,737	-14,458	0,170	-0,078
-349,723	253,087	0,067	0,082
-348,708	-50,182	0,075	0,025
-347,693	12,548	-0,130	0,071
-346,679	156,710	-0,026	-0,026
-345,664	396,652	-0,044	-0,066
-344,650	-200,000	0,001	0,138
-343,635	661,144	0,049	0,090
-342,620	329,955	-0,058	0,080
-341,606	-12,126	0,161	0,075
-340,591	-99,153	0,034	-0,006
-339,577	156,445	0,008	-0,008
-338,562	746,056	-0,031	-0,060
-337,548	415,959	0,021	0,032
-336,533	-200,000	0,005	0,044
-335,518	-115,089	0,027	0,004
-334,504	800,000	0,018	-0,051
-333,489	527,091	0,046	0,077
-332,475	507,524	-0,063	0,105
-331,460	112,378	-0,117	0,101
-330,445	-23,351	0,099	-0,042
-329,431	451,735	0,025	0,040
-328,416	-200,000	-0,004	0,185
-327,402	-134,222	-0,099	0,009
-326,387	-2,293	-0,098	0,049
-325,372	-200,000	-0,008	-0,092
-324,358	166,490	-0,073	0,074
-323,343	800,000	-0,039	-0,113
-322,329	115,551	-0,072	-0,063
-321,314	800,000	0,051	0,113
-320,299	-200,000	0,011	0,096
-319,285	800,000	0,020	-0,063
-318,270	-200,000	-0,051	0,166
-317,256	800,000	-0,018	-0,040
-316,241	800,000	-0,042	-0,114
-315,226	-200,000	-0,013	0,117
-314,212	-128,152	0,242	-0,024
-313,197	93,302	0,088	0,071
-312,183	270,906	-0,041	-0,052
-311,168	6,594	0,216	0,114
-310,153	27,484	-0,069	0,041
-309,139	-200,000	0,005	0,082
-308,124	270,554	0,041	-0,051
-307,110	-200,000	0,014	0,105
-306,095	312,425	0,090	-0,121
-305,080	-67,159	0,043	0,012
-304,066	-200,000	-0,027	0,090
-303,051	-184,160	-0,162	0,002
-302,037	-200,000	-0,003	0,023
-301,022	-198,393	0,145	0,001
-300,008	-133,453	-0,049	-0,004
-298,993	154,302	0,118	0,115
-297,978	-137,186	0,055	0,004
-296,964	-139,459	-0,077	-0,006
-295,949	447,346	0,068	-0,106
-294,935	-200,000	-0,022	-0,071
-293,920	800,000	0,038	0,111
-292,905	94,150	0,072	0,058
-291,891	-58,318	-0,137	0,042
-290,876	74,846	0,033	0,025
-289,862	-200,000	-0,007	0,072
-288,847	800,000	-0,051	-0,124
-287,832	800,000	-0,006	-0,015
-286,818	612,184	0,014	0,025
-285,803	-200,000	0,027	0,086
-284,789	356,931	0,048	0,068
-283,774	-200,000	-0,021	0,126
-282,759	800,000	0,038	0,106
-281,745	12,918	-0,084	-0,046
-280,730	-145,470	-0,077	-0,005
-279,716	7,992	-0,132	0,070
-278,701	-125,846	0,082	-0,009
-277,686	98,309	-0,085	-0,070
-276,672	-200,000	0,007	-0,060
-275,657	231,469	0,018	0,021
-274,643	-140,378	-0,057	0,004
-273,628	253,568	0,019	-0,023
-272,613	-36,706	0,025	-0,010
-271,599	31,295	-0,049	-0,030
-270,584	89,310	0,132	0,105
-269,570	482,721	0,032	0,053
-268,555	218,825	0,052	0,059
-267,540	-200,000	0,002	0,099
-266,526	800,000	-0,064	-0,133
-265,511	-200,000	-0,000	0,146
-264,497	-140,459	-0,083	0,006
-263,482	-86,215	0,122	0,027
-262,467	-200,000	-0,001	0,127
-261,453	0,773	-0,108	0,055
-260,438	-10,082	-0,033	0,015
-259,424	11,823	0,044	0,024
-258,409	-200,000	-0,013	0,053
-257,395	-200,000	-0,012	-0,059
-256,380	800,000	0,029	-0,058
-255,365	374,684	0,032	0,047
-254,351	364,170	-0,042	-0,060
-253,336	119,489	-0,077	0,068
-252,322	-200,000	-0,026	-0,146
-251,307	-200,000	0,005	-0,092
-250,292	800,000	-0,039	0,089
-249,278	800,000	0,039	0,082
-248,263	289,869	0,118	0,153
-247,249	800,000	-0,024	0,072
-246,234	-34,032	0,028	-0,011
-245,219	91,697	0,035	-0,028
-244,205	-199,879	0,084	-0,000
-243,190	257,250	-0,049	0,060
-242,176	-200,000	0,052	0,163
-241,161	-7,149	0,045	0,022
-240,146	176,153	0,102	0,106
-239,132	164,813	-0,075	-0,076
-238,117	-122,282	0,051	-0,006
-237,103	-97,962	-0,148	-0,027
-236,088	328,802	-0,018	-0,025
-235,073	-184,868	-0,075	0,001
-234,059	88,063	0,098	0,078
-233,044	-43,369	-0,046	-0,016
-232,030	668,259	-0,014	-0,026
-231,015	-200,000	0,003	-0,145
-230,000	-200,000	0,008	-0,099
-228,986	-28,398	0,139	0,057
-227,971	-39,886	-0,028	-0,010
-226,957	321,511	-0,014	0,019
-225,942	119,528	0,085	0,075
-224,927	-88,150	-0,045	-0,010
-223,913	164,595	-0,055	-0,055
-222,898	256,220	-0,114	-0,140
-221,884	-111,751	0,044	0,006
-220,869	72,673	-0,055	0,041
-219,855	-200,000	0,018	0,077
-218,840	-0,430	0,187	0,094
-217,825	-200,000	0,019	-0,116
-216,811	-196,108	0,099	-0,000
-215,796	682,024	0,069	0,129
-214,782	146,427	-0,031	-0,030
-213,767	665,493	0,019	-0,035
-212,752	99,567	0,101	-0,083
-211,738	147,073	0,079	0,076
-210,723	17,857	-0,096	0,054
-209,709	124,674	-0,033	0,029
-208,694	265,542	-0,023	0,029
-207,679	166,706	-0,020	-0,020
-206,665	-146,871	0,101	-0,006
-205,650	-200,000	0,012	-0,070
-204,636	800,000	0,041	-0,095
-203,621	-200,000	-0,011	0,045
-202,606	-12,986	-0,122	0,056
-201,592	-63,795	-0,194	-0,056
-200,577	119,490	-0,031	-0,027
-199,563	90,194	-0,151	-0,120
-198,548	-200,000	-0,030	-0,110
-197,533	67,732	0,061	0,044
-196,519	-19,263	-0,060	-0,026
-195,504	-138,278	-0,108	-0,008
-194,490	-200,000	0,048	-0,191
-193,475	252,927	-0,050	0,060
-192,460	-200,000	-0,015	0,096
-191,446	290,523	-0,011	-0,014
-190,431	291,770	0,045	0,058
-189,417	-64,512	0,102	0,029
-188,402	190,802	-0,111	-0,118
-187,387	507,652	-0,080	-0,133
-186,373	106,696	0,082	-0,069
-185,358	93,756	0,080	-0,064
-184,344	231,184	0,014	-0,016
-183,329	-41,072	0,055	0,020
-182,315	-200,000	0,012	0,121
-181,300	253,459	-0,089	0,108
-180,285	800,000	-0,046	-0,123
-179,271	73,584	-0,051	-0,038
-178,256	-168,989	-0,127	0,003
-177,242	-94,677	0,122	0,023
-176,227	-56,018	0,066	-0,021
-175,212	49,798	0,036	-0,024
-174,198	52,481	-0,031	-0,021
-173,183	-95,036	-0,246	0,047
-172,169	-56,438	0,076	0,024
-171,154	800,000	0,045	-0,100
-170,139	469,013	-0,018	-0,029
-169,125	800,000	0,022	0,049
-168,110	-16,712	-0,067	-0,030
-167,096	-200,000	-0,017	-0,122
-166,081	188,983	-0,046	-0,049
-165,066	-39,390	0,070	0,026
-164,052	21,784	0,071	0,041
-163,037	77,512	0,052	0,039
-162,023	-72,625	0,121	0,031
-161,008	-92,389	0,087	0,017
-159,993	-200,000	0,009	0,058
-158,979	-200,000	-0,071	-0,000
-157,964	516,193	-0,073	-0,121
-156,950	83,405	-0,031	0,024
-155,935	-100,227	-0,160	0,028
-154,920	-113,717	0,160	-0,022
-153,906	80,752	0,100	0,077
-152,891	-116,454	-0,029	-0,004
-151,877	-46,904	-0,079	0,027
-150,862	-200,000	0,023	-0,193
-149,847	463,152	-0,098	-0,156
-148,833	54,811	0,142	-0,097
-147,818	216,058	0,012	-0,013
-146,804	14,656	-0,014	-0,008
-145,789	800,000	-0,041	0,099
-144,775	-34,317	0,093	0,036
-143,760	104,232	0,019	-0,016
-142,745	28,856	-0,057	-0,034
-141,731	-200,000	0,011	0,065
-140,716	-25,192	0,111	0,046
-139,702	800,000	0,049	0,097
-138,687	669,201	-0,041	0,076
-137,672	45,310	-0,067	0,044
-136,658	269,609	-0,101	-0,125
-135,643	-52,018	-0,050	0,016
-134,629	75,579	0,061	0,045
-133,614	-200,000	0,007	0,083
-132,599	104,405	0,141	0,117
-131,585	201,471	0,013	-0,014
-130,570	2,513	0,088	0,045
-129,556	69,521	-0,039	-0,028
-128,541	-42,979	-0,119	-0,042
-127,526	-174,483	-0,036	0,001
-126,512	-200,000	-0,015	0,105
-125,497	-62,519	0,107	-0,031
-124,483	-200,000	-0,005	0,018
-123,468	-27,152	-0,089	-0,036
-122,453	-200,000	-0,014	-0,213
-121,439	129,894	0,024	0,021
-120,424	100,646	-0,042	-0,035
-119,410	507,848	-0,023	0,037
-118,395	800,000	0,040	0,113
-117,380	-16,496	0,023	-0,010
-116,366	-200,000	0,007	0,056
-115,351	58,199	-0,152	0,105
-114,337	800,000	-0,055	0,149
-113,322	25,804	0,043	0,026
-112,307	-50,911	-0,138	-0,046
-111,293	386,303	0,107	0,157
-110,278	-200,000	-0,003	0,129
-109,264	800,000	-0,031	-0,061
-108,249	106,597	-0,110	-0,092
-107,234	-56,841	0,005	-0,002
-106,220	25,028	0,048	0,028
-105,205	-200,000	-0,006	0,052
-104,191	-200,000	-0,014	0,095
-103,176	201,343	0,041	-0,044
-102,162	800,000	-0,013	-0,031
-101,147	190,959	-0,046	-0,049
-100,132	502,679	0,061	0,100
-99,118	-45,833	0,024	0,008
-98,103	113,496	0,036	-0,031
-97,089	295,148	0,018	0,024
-96,074	-200,000	-0,005	0,087
-95,059	209,473	0,076	0,085
-94,045	308,038	0,013	0,017
-93,030	-89,833	-0,133	-0,027
-92,016	-33,167	-0,123	-0,048
-91,001	27,388	0,015	0,009
-89,986	-46,585	0,046	-0,016
-88,972	-118,189	0,041	0,005
-87,957	178,552	-0,059	0,061
-86,943	166,709	0,083	0,084
-85,928	-200,000	-0,032	-0,115
-84,913	-56,279	-0,037	0,012
-83,899	142,703	-0,044	-0,041
-82,884	117,932	0,062	-0,054
-81,870	-89,305	0,063	0,013
-80,855	63,618	-0,122	-0,086
-79,840	86,390	-0,067	0,052
-78,826	-159,114	-0,076	-0,003
-77,811	366,476	0,059	-0,085
-76,797	-29,968	0,132	-0,053
-75,782	-141,074	-0,070	0,005
-74,767	38,116	0,097	0,061
-73,753	19,107	-0,024	0,014
-72,738	46,074	0,164	-0,107
-71,724	-115,329	0,064	-0,008
-70,709	-81,423	-0,027	0,006
-69,694	1,877	-0,043	-0,022
-68,680	-28,672	0,043	-0,018
-67,665	-200,000	-0,031	0,175
-66,651	-31,114	0,146	0,058
-65,636	-200,000	0,034	-0,133
-64,622	-200,000	0,014	-0,057
-63,607	-135,540	-0,068	0,006
-62,592	-200,000	0,005	0,093
-61,578	-200,000	-0,008	0,126
-60,563	66,982	0,110	0,079
-59,549	55,018	0,126	0,086
-58,534	63,907	-2,014	-1,427
-57,519	369,021	-1,215	-1,740
-56,505	-200,000	-0,413	-4,521
-55,490	403,479	0,977	1,456
-54,476	800,000	5,582	12,091
-53,461	-200,000	22,130	341,606
-52,446	800,000	759,304	2297,452
-51,432	532,415	1652,391	2770,259
-50,417	68,958	1650,569	1195,201
-49,403	16,444	1525,855	847,986
-48,388	10,612	1450,670	778,109
-47,373	19,174	1442,648	814,689
-46,359	14,024	1431,391	783,924
-45,344	8,936	1427,518	757,641
-44,330	8,836	1425,623	756,128
-43,315	8,789	1423,682	754,845
-42,300	8,813	1422,124	754,106
-41,286	8,845	1420,832	753,539
-40,271	8,846	1419,533	752,828
-39,257	8,797	1418,324	751,924
-38,242	8,870	1417,159	751,623
-37,227	8,854	1416,130	750,970
-36,213	8,858	1414,654	750,178
-35,198	8,853	1413,614	749,571
-34,184	8,835	1412,729	748,986
-33,169	8,804	1411,352	748,081
-32,154	8,806	1410,247	747,479
-31,140	8,812	1408,965	746,797
-30,125	8,869	1407,780	746,405
-29,111	8,835	1406,599	745,592
-28,096	8,855	1405,537	745,090
-27,082	8,755	1404,317	743,949
-26,067	8,780	1403,339	743,518
-25,052	8,782	1402,294	742,944
-24,038	8,775	1401,304	742,354
-23,023	8,792	1400,287	741,869
-22,009	8,768	1399,538	741,328
-20,994	8,759	1398,399	740,656
-19,979	8,811	1397,281	740,273
-18,965	8,728	1396,651	739,528
-17,950	8,773	1395,686	739,196
-16,936	8,717	1394,728	738,396
-15,921	8,670	1393,851	737,686
-14,906	8,678	1392,785	737,129
-13,892	8,709	1392,001	736,832
-12,877	8,705	1391,197	736,357
-11,863	8,720	1390,289	735,915
-10,848	8,633	1389,479	735,055
-9,833	8,677	1388,317	734,616
-8,819	8,660	1387,475	734,060
-7,804	8,585	1386,720	733,290
-6,790	8,626	1385,437	732,771
-5,775	8,600	1384,500	732,123
-4,760	8,630	1383,654	731,785
-3,746	8,649	1382,697	731,336
-2,731	8,625	1381,981	730,819
-1,717	8,625	1381,046	730,299
-0,702	8,647	1379,152	729,368
0,313	12,661	1290,318	700,636
1,327	28,540	681,484	405,634
2,342	44,280	117,300	75,783
3,356	2,365	16,403	8,342
4,371	2,763	3,717	1,895
5,386	18,666	1,298	0,730
6,400	800,000	0,298	0,614
7,415	-136,047	-0,188	0,015
8,429	27,737	-0,336	-0,199
9,444	278,681	-0,139	-0,175
10,459	60,891	-0,393	-0,274
11,473	40,239	-0,211	-0,134
12,488	11,703	-0,274	-0,148
13,502	-107,161	-0,331	-0,051
14,517	29,687	-0,337	-0,202
15,531	245,667	-0,319	-0,379
16,546	155,777	-0,323	-0,314
17,561	265,074	-0,224	-0,276
18,575	-156,681	-0,165	-0,007
19,590	161,346	-0,213	-0,210
20,604	35,715	-0,236	-0,146
21,619	-23,901	-0,496	-0,208
22,634	150,846	-0,411	-0,393
23,648	163,650	-0,419	-0,415
24,663	115,525	-0,396	-0,341
25,677	33,096	-0,276	-0,168
26,692	23,720	-0,298	-0,172
27,707	81,086	-0,376	-0,285
28,721	329,373	-0,271	-0,368
29,736	-14,690	-0,439	-0,197
30,750	39,314	-0,430	-0,270
31,765	91,171	-0,340	-0,268
32,780	126,326	-0,392	-0,349
33,794	254,815	-0,289	-0,348
34,809	7,307	-0,328	-0,172
35,823	118,004	-0,331	-0,287
36,838	81,424	-0,307	-0,233
37,853	-8,623	-0,362	-0,170
38,867	-26,032	-0,434	-0,179
39,882	138,038	-0,284	-0,262
40,896	234,270	-0,319	-0,370
41,911	116,236	-0,232	-0,200
42,926	418,307	-0,266	-0,401
43,940	33,733	-0,407	-0,248
44,955	132,365	-0,382	-0,346
45,969	33,280	-0,278	-0,169
46,984	-44,465	-0,413	-0,145
47,999	86,971	-0,298	-0,231
49,013	21,245	-0,346	-0,197
50,028	93,915	-0,357	-0,284
51,042	380,108	-0,169	-0,244
52,057	28,608	-0,384	-0,228
53,071	138,549	-0,294	-0,271
54,086	9,580	-0,316	-0,167
55,101	133,668	-0,250	-0,228
56,115	-24,472	-0,454	-0,189
57,130	47,787	-0,293	-0,191
58,144	43,847	-0,456	-0,293
59,159	89,862	-0,323	-0,253
60,174	-54,562	-0,386	-0,122
61,188	-15,156	-0,229	-0,102
62,203	353,171	-0,186	-0,259
63,217	54,352	-0,262	-0,177
64,232	-16,821	-0,480	-0,212
65,247	302,090	-0,382	-0,497
66,261	29,776	-0,330	-0,197
67,276	0,153	-0,283	-0,141
68,290	49,923	-0,360	-0,237
69,305	57,236	-0,263	-0,180
70,320	800,000	-0,143	-0,285
71,334	84,195	-0,197	-0,150
72,349	-34,327	-0,398	-0,152
73,363	-29,284	-0,434	-0,173
74,378	195,262	-0,258	-0,275
75,393	216,200	-0,192	-0,214
76,407	60,598	-0,262	-0,182
77,422	20,203	-0,261	-0,147
78,436	-127,704	-0,249	-0,025
79,451	438,397	-0,137	-0,210
80,466	19,077	-0,342	-0,191
81,480	34,906	-0,383	-0,234
82,495	138,705	-0,216	-0,199
83,509	-105,911	-0,366	-0,057
84,524	-94,632	-0,386	-0,073
85,539	262,887	-0,196	-0,238
86,553	-82,561	-0,316	-0,071
87,568	-24,686	-0,299	-0,124
88,582	-17,118	-0,295	-0,130
89,597	-17,594	-0,306	-0,134
90,611	205,800	-0,288	-0,314
91,626	-10,206	-0,265	-0,123
92,641	96,728	-0,306	-0,245
93,655	-19,172	-0,287	-0,124
94,670	188,258	-0,254	-0,266
95,684	128,126	-0,201	-0,179
96,699	4,308	-0,395	-0,202
97,714	111,079	-0,252	-0,212
98,728	77,767	-0,206	-0,154
99,743	-69,133	-0,218	-0,058
100,757	184,184	-0,182	-0,189
101,772	161,019	-0,263	-0,257
102,787	152,577	-0,306	-0,292
103,801	32,532	-0,229	-0,138
104,816	103,816	-0,307	-0,252
105,830	13,726	-0,328	-0,178
106,845	-95,356	-0,278	-0,052
107,860	-43,868	-0,288	-0,101
108,874	-25,844	-0,292	-0,120
109,889	196,482	-0,243	-0,258
110,903	175,803	-0,215	-0,218
111,918	149,405	-0,186	-0,176
112,933	248,555	-0,140	-0,166
113,947	265,246	-0,140	-0,171
114,962	-117,741	-0,271	-0,034
115,976	84,677	-0,179	-0,137
116,991	134,404	-0,218	-0,197
118,006	152,904	-0,200	-0,191
119,020	2,681	-0,260	-0,131
120,035	289,901	-0,223	-0,283
121,049	289,594	-0,104	-0,132
122,064	261,424	-0,183	-0,221
123,079	-81,218	-0,189	-0,043
124,093	-22,890	-0,230	-0,096
125,108	26,653	-0,300	-0,175
126,122	-52,552	-0,233	-0,075
127,137	-68,130	-0,184	0,050
128,151	43,408	-0,207	-0,132
129,166	200,016	-0,154	-0,165
130,181	144,875	-0,242	-0,225
131,195	58,503	-0,286	-0,195
132,210	132,482	-0,307	-0,276
133,224	-46,587	-0,319	-0,108
134,239	-111,708	-0,300	0,042
135,254	-126,736	-0,233	-0,024
136,268	-55,829	-0,290	-0,090
137,283	-49,705	-0,253	-0,083
138,297	73,688	-0,227	-0,166
139,312	-21,710	-0,320	-0,135
140,327	88,765	-0,306	-0,237
141,341	800,000	-0,112	-0,266
142,356	536,966	-0,186	-0,310
143,370	-39,870	-0,232	-0,084
144,385	153,830	-0,260	-0,248
145,400	-27,771	-0,207	-0,083
146,414	28,850	-0,217	-0,128
147,429	25,212	-0,175	-0,101
148,443	55,450	-0,207	-0,139
149,458	150,889	-0,160	-0,152
150,473	-66,129	-0,125	-0,034
151,487	647,496	-0,033	0,059
152,502	-61,265	-0,317	-0,092
153,516	81,934	-0,258	-0,194
154,531	-37,938	-0,273	-0,101
155,546	-100,818	-0,137	-0,023
156,560	71,742	-0,160	-0,115
157,575	16,420	-0,194	-0,107
158,589	271,419	-0,153	-0,188
159,604	103,193	-0,164	-0,133
160,619	37,198	-0,318	-0,195
161,633	86,092	-0,149	-0,114
162,648	-18,409	-0,407	-0,176
163,662	43,242	-0,195	-0,124
164,677	-200,000	-0,057	-0,217
165,692	-125,873	-0,228	-0,024
166,706	-51,769	-0,181	-0,058
167,721	129,782	-0,225	-0,200
168,735	13,576	-0,307	-0,165
169,750	-23,601	-0,252	-0,105
170,764	800,000	-0,103	-0,210
171,779	97,907	-0,164	-0,131
172,794	-56,551	-0,355	-0,109
173,808	-98,884	-0,252	-0,044
174,823	211,887	-0,235	-0,257
175,837	576,196	-0,125	-0,213
176,852	75,568	-0,226	-0,166
177,867	67,005	-0,202	-0,143
178,881	104,734	-0,198	-0,162
179,896	-125,993	-0,245	-0,025
180,910	-133,069	-0,171	-0,015
181,925	39,447	-0,206	-0,128
182,940	800,000	-0,064	-0,182
183,954	-32,123	-0,225	-0,087
184,969	800,000	-0,099	-0,297
185,983	-50,217	-0,122	-0,040
186,998	111,877	-0,203	-0,170
188,013	122,565	-0,166	-0,144
189,027	-68,848	-0,224	-0,060
190,042	-39,164	-0,288	-0,104
191,056	86,835	-0,213	-0,163
192,071	77,245	-0,274	-0,202
193,086	19,640	-0,207	-0,115
194,100	-89,866	-0,216	-0,043
195,115	-21,256	-0,194	-0,082
196,129	373,504	-0,200	-0,283
197,144	92,026	-0,237	-0,185
198,159	54,001	-0,311	-0,207
199,173	241,500	-0,159	-0,185
200,188	66,798	-0,230	-0,162
201,202	195,298	-0,196	-0,207
202,217	-133,426	-0,230	-0,020
203,232	79,463	-0,244	-0,181
204,246	12,053	-0,217	-0,116
205,261	316,940	-0,264	-0,346
206,275	80,637	-0,129	-0,096
207,290	149,005	-0,114	-0,107
208,304	88,908	-0,169	-0,130
209,319	-56,820	-0,205	-0,062
210,334	-32,517	-0,205	-0,079
211,348	54,793	-0,226	-0,151
212,363	255,094	-0,158	-0,188
213,377	-20,395	-0,235	-0,100
214,392	634,216	-0,064	-0,113
215,407	-196,096	-0,221	0,001
216,421	-1,782	-0,196	-0,095
217,436	-21,687	-0,232	-0,097
218,450	38,528	-0,188	-0,116
219,465	153,123	-0,264	-0,250
220,480	760,629	0,016	-0,031
221,494	-14,938	-0,158	-0,070
222,509	127,127	-0,073	-0,064
223,523	-180,470	-0,221	0,003
224,538	31,391	-0,182	-0,108
225,553	198,116	-0,219	-0,232
226,567	-15,417	-0,192	-0,085
227,582	10,000	-0,224	-0,118
228,596	26,405	-0,263	-0,151
229,611	32,011	0,083	-0,049
230,626	198,635	-0,108	-0,114
231,640	413,091	-0,100	-0,147
232,655	-89,639	-0,269	-0,054
233,669	-6,629	-0,230	-0,108
234,684	62,648	-0,167	-0,115
235,699	170,325	-0,175	-0,174
236,713	-55,852	-0,108	0,033
237,728	-59,698	-0,201	-0,059
238,742	-52,259	-0,197	-0,063
239,757	86,504	-0,186	-0,142
240,772	126,449	-0,225	-0,197
241,786	63,023	-0,130	-0,090
242,801	51,813	-0,248	-0,163
243,815	320,453	-0,094	-0,124
244,830	800,000	0,059	-0,167
245,844	12,887	-0,200	-0,106
246,859	-7,882	-0,240	-0,111
247,874	622,824	-0,141	-0,246
248,888	5,526	-0,178	-0,091
249,903	495,192	-0,166	-0,264
250,917	800,000	-0,052	-0,134
251,932	-104,460	-0,216	-0,034
252,947	18,086	-0,233	-0,128
253,961	15,418	-0,164	-0,089
254,976	23,766	-0,239	-0,136
255,990	178,936	-0,164	-0,165
257,005	800,000	-0,065	-0,143
258,020	118,042	-0,077	-0,065
259,034	70,782	-0,102	-0,073
260,049	-12,526	-0,191	-0,086
261,063	418,257	-0,111	-0,163
262,078	-192,180	-0,209	-0,001
263,093	107,464	-0,105	-0,086
264,107	116,968	-0,169	-0,143
265,122	-94,822	-0,095	-0,018
266,136	671,121	-0,144	-0,258
267,151	-200,000	-0,005	-0,051
268,166	800,000	-0,026	-0,059
269,180	161,601	-0,163	-0,157
270,195	-23,923	-0,277	-0,114
271,209	-110,124	-0,133	-0,019
272,224	-33,518	-0,093	-0,035
273,239	-80,532	-0,221	-0,050
274,253	-89,089	-0,168	-0,034
275,268	118,657	-0,165	-0,140
276,282	-45,311	-0,251	-0,085
277,297	476,065	-0,106	-0,166
278,312	65,436	-0,240	-0,167
279,326	759,097	-0,084	-0,157
280,341	81,700	-0,166	-0,124
281,355	800,000	0,057	-0,118
282,370	222,815	-0,168	-0,186
283,384	513,931	-0,129	-0,208
284,399	11,593	-0,273	-0,143
285,414	22,103	-0,147	-0,082
286,428	81,532	-0,072	-0,054
287,443	25,885	-0,115	-0,066
288,457	800,000	-0,031	0,084
289,472	601,931	-0,120	-0,206
290,487	-91,184	-0,272	-0,053
291,501	194,303	-0,116	-0,121
292,516	27,201	-0,131	-0,075
293,530	51,304	-0,035	-0,023
294,545	329,122	-0,155	-0,206
295,560	800,000	-0,050	-0,149
296,574	-82,456	-0,175	-0,039
297,589	-98,223	-0,112	-0,020
298,603	-123,291	-0,246	-0,027
299,618	-134,797	-0,222	0,018
300,633	510,112	-0,054	0,087
301,647	459,556	-0,032	0,049
302,662	-84,783	-0,200	0,043
303,676	70,790	-0,152	-0,108
304,691	273,616	-0,196	-0,239
305,706	-0,792	-0,298	-0,145
306,720	39,076	-0,222	-0,136
307,735	31,000	-0,139	0,082
308,749	4,570	-0,072	0,036
309,764	-112,780	-0,162	-0,022
310,779	-59,987	-0,188	-0,055
311,793	-200,000	-0,054	-0,181
312,808	-144,120	-0,207	-0,013
313,822	91,084	-0,126	-0,097
314,837	154,819	-0,143	-0,135
315,852	-105,267	-0,116	-0,018
316,866	47,614	-0,172	-0,110
317,881	11,044	-0,107	-0,056
318,895	-200,000	-0,064	-0,204
319,910	116,988	-0,137	-0,115
320,925	34,727	-0,125	-0,075
321,939	-86,516	-0,089	-0,019
322,954	541,674	-0,080	-0,131
323,968	-200,000	0,020	-0,085
324,983	-26,408	-0,117	-0,047
325,997	-125,214	-0,173	-0,018
327,012	26,383	-0,214	-0,122
328,027	170,438	-0,153	-0,150
329,041	-117,689	-0,138	-0,017
330,056	652,359	-0,096	-0,169
331,070	-36,713	-0,104	-0,038
332,085	61,600	-0,103	0,070
333,100	-87,672	-0,100	-0,021
334,114	-60,683	-0,215	-0,062
335,129	101,968	-0,168	-0,134
336,143	96,908	-0,200	-0,157
337,158	-86,736	-0,077	-0,016
338,173	-42,855	-0,183	-0,063
339,187	266,031	-0,138	-0,165
340,202	-96,279	-0,070	0,013
341,216	304,443	-0,142	-0,180
342,231	547,365	-0,075	-0,124
343,246	-16,873	-0,236	-0,102
344,260	800,000	-0,090	-0,187
345,275	1,443	-0,120	-0,059
346,289	-107,695	-0,168	-0,025
347,304	164,109	-0,103	0,099
348,319	110,990	-0,146	-0,120
349,333	800,000	-0,088	-0,167
350,348	92,381	-0,101	-0,078
351,362	-109,910	-0,138	-0,020
352,377	616,836	-0,037	0,063
353,392	-101,851	-0,105	-0,017
354,406	800,000	-0,066	-0,194
355,421	207,048	1309,934	1398,094
356,435	159,260	1470,018	1398,545
