DTS Sentinel unit serial number:	SN410029Multiplexer serial number:	ORYXHardware model number:	OX2-SRSoftware version number:	ORYX F/W v4,00 Oryx Data Collector v3.7.2.0data status	okinstallation	B3 Nyhavnadifferential loss correction	single-endedforward channel	channel 1reverse channel	N/Adate	2023/11/29time	06:07:30forward acquisition time	300,00reverse acquisition time	0,00gamma	499,1914k internal	0,3212k external	0,3212temperature offset calibration	1,0000default loss term (dB/km)	0,3820temperature slope calibration	1,0000multiplexer offset coefficient	1,0000multiplexer slope coefficient	1,0000fibre end	0,00T internal ref (°C)	9,00T ext. ref 1 (°C)	-6,48T ext. ref 2 (°C)	-6,58length (m)	temperature (°C)	Stokes	anti-Stokes-744,400	800,000	-0,122	-0,276
-743,385	-200,000	-0,028	0,104
-742,371	800,000	-0,087	-0,232
-741,356	-200,000	-0,082	0,360
-740,342	-200,000	-0,029	-0,244
-739,327	-200,000	0,020	0,249
-738,312	800,000	-0,150	-0,365
-737,298	477,140	-0,113	0,187
-736,283	121,029	-0,229	-0,207
-735,269	-200,000	-0,059	0,240
-734,254	642,986	-0,117	-0,218
-733,239	57,404	-0,233	0,164
-732,225	260,353	-0,056	-0,070
-731,210	242,929	0,134	0,163
-730,196	-176,481	-0,126	-0,002
-729,181	-200,000	-0,019	-0,070
-728,167	-200,000	0,017	0,065
-727,152	304,746	-0,049	-0,065
-726,137	-93,856	-0,159	-0,031
-725,123	164,705	-0,097	-0,099
-724,108	-82,390	-0,059	-0,014
-723,094	468,440	-0,043	-0,070
-722,079	70,997	-0,115	0,086
-721,064	10,822	0,029	0,016
-720,050	-111,643	0,103	-0,015
-719,035	470,475	0,078	-0,127
-718,021	-200,000	0,013	-0,067
-717,006	26,520	-0,033	0,020
-715,991	-200,000	-0,017	-0,119
-714,977	800,000	-0,129	-0,267
-713,962	-161,118	-0,138	0,005
-712,948	145,649	0,075	0,073
-711,933	-123,796	0,080	-0,009
-710,918	27,089	0,039	-0,024
-709,904	800,000	0,030	-0,088
-708,889	-117,711	-0,072	0,009
-707,875	-39,792	-0,112	0,042
-706,860	-20,576	-0,041	-0,018
-705,845	-200,000	0,009	-0,036
-704,831	-200,000	-0,006	-0,128
-703,816	-22,201	0,164	-0,072
-702,802	-14,585	-0,142	0,066
-701,787	-25,634	-0,127	-0,054
-700,772	85,351	0,020	-0,016
-699,758	0,523	0,100	0,052
-698,743	26,381	0,078	0,047
-697,729	61,632	-0,009	-0,006
-696,714	-200,000	-0,005	0,020
-695,699	417,350	-0,054	0,084
-694,685	39,733	-0,072	-0,047
-693,670	-200,000	0,025	-0,149
-692,656	356,683	-0,076	0,110
-691,641	32,622	-0,098	-0,061
-690,627	-67,968	0,060	-0,017
-689,612	364,372	-0,023	0,034
-688,597	-200,000	-0,004	0,069
-687,583	800,000	-0,010	-0,021
-686,568	800,000	0,023	-0,055
-685,554	81,078	-0,165	0,129
-684,539	52,012	-0,013	-0,009
-683,524	54,013	0,063	0,044
-682,510	-146,863	0,050	0,003
-681,495	42,763	-0,082	0,054
-680,481	-100,216	0,080	0,014
-679,466	48,840	-0,110	-0,074
-678,451	49,173	0,076	-0,052
-677,437	-200,000	-0,002	-0,011
-676,422	800,000	0,047	0,105
-675,408	30,237	-0,051	0,031
-674,393	-153,378	0,115	0,006
-673,378	68,026	-0,073	-0,054
-672,364	-33,626	-0,130	-0,051
-671,349	-16,235	-0,092	0,042
-670,335	-200,000	-0,000	0,025
-669,320	-61,043	-0,058	-0,018
-668,305	-115,775	0,013	0,002
-667,291	-93,864	-0,089	0,018
-666,276	65,171	-0,134	-0,098
-665,262	-139,716	0,135	-0,010
-664,247	-120,367	-0,034	0,004
-663,232	524,311	-0,058	0,099
-662,218	351,141	0,032	-0,045
-661,203	-76,865	-0,084	0,021
-660,189	13,935	0,066	-0,037
-659,174	-200,000	-0,028	-0,101
-658,159	-28,129	-0,168	-0,070
-657,145	-73,145	0,040	0,011
-656,130	-200,000	-0,025	0,139
-655,116	-71,295	0,110	0,030
-654,101	-200,000	0,009	0,065
-653,086	-120,750	-0,104	0,012
-652,072	-7,257	0,089	0,043
-651,057	-20,643	-0,135	-0,060
-650,043	160,978	-0,027	-0,027
-649,028	-200,000	-0,010	-0,063
-648,014	800,000	0,033	0,097
-646,999	-125,365	-0,145	-0,016
-645,984	800,000	0,098	0,202
-644,970	-78,098	-0,028	0,007
-643,955	186,966	-0,094	-0,101
-642,941	-41,371	-0,145	-0,054
-641,926	-200,000	0,001	-0,104
-640,911	431,821	0,034	0,053
-639,897	183,302	0,022	-0,023
-638,882	-68,338	0,044	-0,012
-637,868	30,715	-0,053	-0,033
-636,853	207,924	0,124	0,140
-635,838	-200,000	-0,022	-0,107
-634,824	-153,620	0,109	0,005
-633,809	52,039	0,104	0,072
-632,795	408,852	-0,044	-0,067
-631,780	161,167	0,029	0,029
-630,765	-200,000	-0,014	-0,053
-629,751	45,783	-0,120	0,080
-628,736	468,723	0,064	-0,104
-627,722	-200,000	-0,018	-0,098
-626,707	46,884	0,030	0,020
-625,692	-200,000	0,047	0,153
-624,678	272,387	0,041	0,053
-623,663	800,000	0,036	-0,111
-622,649	800,000	-0,076	-0,187
-621,634	-200,000	0,048	-0,260
-620,619	-200,000	0,014	-0,080
-619,605	55,216	0,095	-0,066
-618,590	-200,000	-0,011	0,171
-617,576	-43,618	-0,097	-0,035
-616,561	409,759	-0,082	0,126
-615,546	-132,082	0,106	-0,010
-614,532	800,000	-0,020	-0,056
-613,517	-200,000	-0,026	-0,091
-612,503	4,603	0,067	-0,036
-611,488	-65,618	0,080	-0,023
-610,474	-200,000	0,005	0,023
-609,459	800,000	-0,029	0,062
-608,444	515,114	-0,054	-0,091
-607,430	11,139	-0,178	-0,098
-606,415	-200,000	0,004	-0,038
-605,401	-200,000	0,001	-0,071
-604,386	-200,000	0,006	-0,057
-603,371	-200,000	-0,023	0,100
-602,357	-200,000	0,031	0,113
-601,342	800,000	-0,025	-0,071
-600,328	261,108	-0,056	-0,070
-599,313	-200,000	-0,011	-0,071
-598,298	637,083	-0,062	-0,114
-597,284	-200,000	0,006	-0,112
-596,269	-200,000	0,003	-0,054
-595,255	41,764	0,101	-0,066
-594,240	0,883	0,033	0,017
-593,225	800,000	0,020	-0,063
-592,211	87,521	-0,086	-0,069
-591,196	-200,000	0,036	-0,158
-590,182	0,403	0,025	0,013
-589,167	-200,000	-0,033	0,126
-588,152	-200,000	0,006	0,115
-587,138	547,198	-0,038	0,067
-586,123	376,663	0,054	-0,080
-585,109	148,873	0,061	-0,059
-584,094	-200,000	0,001	0,094
-583,079	155,414	-0,024	0,023
-582,065	-200,000	0,016	-0,092
-581,050	332,713	-0,045	-0,063
-580,036	249,627	0,105	0,128
-579,021	-119,223	-0,074	-0,009
-578,006	-200,000	-0,043	-0,147
-576,992	-89,470	-0,095	-0,020
-575,977	800,000	0,033	0,081
-574,963	-32,313	0,092	0,037
-573,948	-200,000	-0,005	0,066
-572,934	-200,000	-0,012	-0,088
-571,919	800,000	-0,013	-0,029
-570,904	138,454	-0,126	-0,119
-569,890	23,134	-0,063	0,037
-568,875	-84,948	0,048	-0,011
-567,861	119,452	-0,045	-0,040
-566,846	-142,871	0,112	-0,008
-565,831	542,985	0,024	0,041
-564,817	800,000	-0,016	-0,047
-563,802	226,844	-0,102	-0,119
-562,788	-200,000	0,003	-0,096
-561,773	-200,000	-0,009	0,032
-560,758	-200,000	0,002	-0,092
-559,744	33,154	0,145	0,090
-558,729	-45,789	-0,034	0,012
-557,715	-116,491	0,074	-0,010
-556,700	-200,000	0,020	-0,095
-555,685	-200,000	-0,002	-0,055
-554,671	-146,975	-0,095	0,006
-553,656	124,936	0,121	0,110
-552,642	-67,188	0,078	0,022
-551,627	-200,000	-0,021	-0,109
-550,612	201,693	-0,002	-0,003
-549,598	112,986	-0,053	0,046
-548,583	-200,000	0,014	-0,131
-547,569	800,000	-0,017	0,043
-546,554	91,866	-0,074	0,060
-545,539	-133,019	0,117	-0,011
-544,525	800,000	0,021	-0,047
-543,510	96,862	-0,159	-0,131
-542,496	800,000	0,031	0,085
-541,481	394,578	0,087	0,131
-540,466	-67,376	-0,077	0,022
-539,452	-133,460	-0,099	0,009
-538,437	-112,562	-0,003	-0,000
-537,423	445,300	-0,097	-0,154
-536,408	800,000	-0,038	-0,103
-535,393	28,034	0,149	-0,090
-534,379	800,000	0,016	0,033
-533,364	-126,071	-0,167	-0,018
-532,350	372,320	0,058	0,085
-531,335	-200,000	-0,024	-0,082
-530,321	-107,019	-0,132	-0,021
-529,306	544,021	0,053	-0,092
-528,291	800,000	-0,046	-0,119
-527,277	-155,656	0,075	-0,003
-526,262	211,308	0,101	0,114
-525,248	461,368	-0,058	0,094
-524,233	-200,000	0,003	-0,064
-523,218	-200,000	0,005	-0,042
-522,204	176,108	-0,101	-0,105
-521,189	137,120	-0,029	0,027
-520,175	-200,000	0,011	-0,047
-519,160	49,788	-0,059	-0,040
-518,145	125,629	-0,011	-0,010
-517,131	800,000	0,033	0,101
-516,116	345,081	-0,084	0,119
-515,102	21,436	0,014	-0,008
-514,087	53,264	-0,045	0,031
-513,072	800,000	0,032	0,077
-512,058	-200,000	-0,016	-0,083
-511,043	-200,000	0,024	-0,091
-510,029	-200,000	0,041	0,137
-509,014	-45,815	0,077	0,027
-507,999	-200,000	0,043	0,143
-506,985	-200,000	0,008	0,034
-505,970	800,000	0,052	-0,148
-504,956	-118,495	-0,067	-0,008
-503,941	-70,884	0,119	-0,032
-502,926	568,460	0,057	0,100
-501,912	35,751	0,105	-0,066
-500,897	40,652	-0,077	-0,050
-499,883	213,115	0,075	0,085
-498,868	291,476	0,027	0,035
-497,853	59,557	-0,040	-0,028
-496,839	125,020	0,023	0,021
-495,824	-200,000	0,029	0,200
-494,810	420,186	0,020	0,031
-493,795	-200,000	-0,013	0,108
-492,781	-103,574	0,099	-0,016
-491,766	-200,000	0,008	0,110
-490,751	282,014	0,014	-0,018
-489,737	-200,000	0,011	-0,062
-488,722	800,000	0,070	0,169
-487,708	-200,000	0,010	0,077
-486,693	-37,233	-0,132	-0,050
-485,678	14,628	0,049	0,028
-484,664	-200,000	-0,016	-0,089
-483,649	-74,300	-0,072	0,019
-482,635	-183,745	0,040	-0,000
-481,620	284,212	-0,062	-0,081
-480,605	-200,000	-0,011	-0,050
-479,591	57,294	0,041	0,029
-478,576	-58,056	-0,165	0,051
-477,562	-200,000	0,029	-0,107
-476,547	155,088	-0,088	-0,087
-475,532	195,096	-0,054	0,059
-474,518	800,000	0,024	0,073
-473,503	-146,124	0,117	0,007
-472,489	800,000	-0,063	0,141
-471,474	800,000	-0,021	-0,052
-470,459	-97,513	0,131	0,024
-469,445	211,447	-0,096	-0,108
-468,430	-200,000	0,016	0,086
-467,416	364,842	0,080	0,116
-466,401	-29,438	0,049	-0,020
-465,386	-200,000	0,007	0,039
-464,372	-175,653	-0,078	0,001
-463,357	-160,975	-0,107	-0,004
-462,343	45,898	-0,074	-0,049
-461,328	712,963	-0,074	-0,140
-460,313	295,088	-0,042	0,055
-459,299	-133,532	0,177	0,016
-458,284	121,800	0,075	-0,067
-457,270	710,360	-0,032	0,060
-456,255	-28,449	-0,096	0,040
-455,241	2,193	-0,085	0,044
-454,226	103,853	-0,034	-0,029
-453,211	481,603	0,046	0,076
-452,197	660,523	-0,028	-0,051
-451,182	76,131	-0,077	0,059
-450,168	-200,000	-0,018	0,118
-449,153	-9,540	0,100	0,048
-448,138	141,429	-0,066	0,063
-447,124	-69,806	-0,115	0,031
-446,109	800,000	-0,050	0,139
-445,095	231,370	0,081	0,096
-444,080	199,166	0,087	-0,096
-443,065	190,882	-0,032	0,034
-442,051	-50,223	-0,064	-0,021
-441,036	-54,822	-0,063	0,020
-440,022	329,133	-0,084	0,116
-439,007	-183,511	-0,130	-0,002
-437,992	14,124	0,059	-0,033
-436,978	195,851	0,077	0,084
-435,963	528,941	0,033	0,056
-434,949	800,000	0,030	-0,091
-433,934	-200,000	0,014	0,101
-432,919	800,000	-0,065	-0,157
-431,905	800,000	-0,040	-0,085
-430,890	64,335	0,117	0,084
-429,876	124,200	-0,097	-0,087
-428,861	-123,650	-0,045	0,005
-427,846	-200,000	0,000	0,035
-426,832	-121,480	-0,109	-0,013
-425,817	51,993	0,081	-0,055
-424,803	800,000	-0,071	-0,142
-423,788	-52,526	-0,021	-0,007
-422,773	107,554	0,043	0,037
-421,759	222,808	0,087	0,100
-420,744	278,640	-0,066	-0,084
-419,730	800,000	-0,010	0,020
-418,715	488,528	-0,118	-0,194
-417,701	541,075	0,076	-0,131
-416,686	-200,000	-0,014	0,049
-415,671	-81,613	-0,142	0,033
-414,657	-31,605	0,060	-0,024
-413,642	48,728	-0,044	0,029
-412,628	800,000	0,036	-0,104
-411,613	25,560	-0,095	-0,057
-410,598	800,000	0,029	0,068
-409,584	-200,000	-0,012	0,122
-408,569	-63,166	0,129	-0,038
-407,555	-200,000	-0,011	-0,035
-406,540	528,861	-0,051	-0,086
-405,525	-16,266	0,029	0,013
-404,511	-175,441	-0,167	-0,003
-403,496	677,485	0,054	0,100
-402,482	-91,055	0,035	-0,007
-401,467	-70,708	-0,037	-0,010
-400,452	-75,228	0,064	-0,016
-399,438	17,607	0,119	-0,068
-398,423	-119,813	-0,048	-0,006
-397,409	523,089	-0,036	-0,061
-396,394	-90,774	0,155	-0,032
-395,379	-137,462	0,028	-0,002
-394,365	257,413	-0,112	0,138
-393,350	-14,671	0,097	0,044
-392,336	359,603	-0,062	0,089
-391,321	560,822	-0,072	-0,125
-390,306	157,772	-0,055	-0,055
-389,292	800,000	-0,052	-0,153
-388,277	350,426	0,038	0,054
-387,263	-200,000	0,004	-0,016
-386,248	-200,000	0,008	0,140
-385,233	-200,000	-0,002	0,049
-384,219	289,902	0,085	0,111
-383,204	-118,707	0,137	0,017
-382,190	-200,000	-0,012	-0,050
-381,175	-47,195	0,139	0,048
-380,160	800,000	0,047	0,139
-379,146	-200,000	-0,003	0,037
-378,131	-96,174	0,084	-0,016
-377,117	-2,009	0,071	-0,035
-376,102	317,754	-0,065	0,088
-375,088	-172,433	0,031	-0,001
-374,073	-14,931	-0,033	0,015
-373,058	6,031	-0,065	0,034
-372,044	-159,898	-0,055	-0,002
-371,029	-109,758	0,024	-0,004
-370,015	800,000	-0,047	-0,095
-369,000	-200,000	0,020	0,083
-367,985	-200,000	0,013	-0,070
-366,971	800,000	-0,040	0,086
-365,956	-108,953	0,113	0,017
-364,942	-200,000	0,007	0,062
-363,927	-200,000	-0,007	0,108
-362,912	800,000	-0,044	-0,103
-361,898	-200,000	0,001	-0,070
-360,883	62,684	-0,068	0,049
-359,869	-113,986	0,097	-0,013
-358,854	-146,151	0,060	-0,004
-357,839	125,813	-0,160	0,144
-356,825	-200,000	0,029	-0,096
-355,810	-20,954	-0,064	0,028
-354,796	113,966	-0,034	0,029
-353,781	800,000	-0,016	-0,043
-352,766	260,337	-0,003	-0,004
-351,752	86,037	0,071	-0,056
-350,737	800,000	0,055	-0,124
-349,723	-200,000	0,004	0,054
-348,708	-200,000	0,020	0,121
-347,693	-116,510	0,125	0,016
-346,679	-200,000	-0,050	-0,167
-345,664	42,999	-0,106	0,069
-344,650	-200,000	0,001	-0,059
-343,635	44,026	0,093	0,061
-342,620	-200,000	0,020	0,068
-341,606	-62,859	0,183	0,054
-340,591	9,573	0,090	-0,048
-339,577	-68,690	0,049	0,013
-338,562	-177,220	-0,040	-0,001
-337,548	58,126	0,080	-0,056
-336,533	517,577	0,065	0,110
-335,518	-200,000	-0,040	0,195
-334,504	-200,000	0,006	-0,049
-333,489	-148,994	-0,150	0,008
-332,475	800,000	0,018	0,050
-331,460	63,327	-0,104	-0,074
-330,445	-41,790	0,117	0,043
-329,431	164,810	0,023	0,023
-328,416	235,687	0,020	-0,023
-327,402	-99,218	0,049	-0,009
-326,387	-173,165	-0,022	-0,000
-325,372	732,188	-0,028	-0,054
-324,358	-2,299	-0,072	-0,036
-323,343	-200,000	-0,001	-0,077
-322,329	-31,581	-0,090	-0,036
-321,314	-200,000	0,005	0,226
-320,299	263,044	-0,096	0,120
-319,285	800,000	-0,019	-0,048
-318,270	800,000	0,031	-0,063
-317,256	231,991	-0,024	-0,028
-316,241	-79,436	-0,064	0,015
-315,226	387,871	-0,037	0,055
-314,212	-200,000	-0,009	0,126
-313,197	-132,793	0,090	0,008
-312,183	241,025	-0,021	-0,025
-311,168	80,087	0,196	-0,150
-310,153	-68,260	-0,073	0,020
-309,139	350,728	-0,063	-0,089
-308,124	800,000	0,014	0,035
-307,110	349,980	0,089	0,126
-306,095	395,809	0,114	0,170
-305,080	7,841	-0,041	0,022
-304,066	-200,000	0,011	-0,049
-303,051	800,000	0,048	-0,098
-302,037	65,082	0,046	-0,033
-301,022	238,846	0,097	-0,115
-300,008	-200,000	0,030	-0,104
-298,993	-72,931	0,006	-0,002
-297,978	36,312	0,147	0,092
-296,964	-51,369	-0,031	0,010
-295,949	-9,816	-0,084	0,039
-294,935	167,167	0,095	-0,096
-293,920	195,642	0,049	0,053
-292,905	-200,000	-0,017	0,093
-291,891	-200,000	-0,015	0,095
-290,876	800,000	-0,044	0,133
-289,862	-200,000	-0,019	-0,069
-288,847	-114,530	-0,098	0,013
-287,832	-86,478	0,108	-0,023
-286,818	349,133	-0,033	0,046
-285,803	-200,000	0,023	0,099
-284,789	343,125	0,058	-0,081
-283,774	-123,932	0,112	0,012
-282,759	29,640	-0,017	-0,010
-281,745	262,190	-0,080	-0,100
-280,730	231,222	0,097	-0,114
-279,716	-200,000	0,001	-0,117
-278,701	-17,264	0,044	-0,020
-277,686	100,585	0,119	0,098
-276,672	-200,000	-0,025	0,105
-275,657	-200,000	0,001	0,009
-274,643	-13,615	-0,093	0,043
-273,628	-200,000	0,001	-0,064
-272,613	-38,441	-0,090	-0,034
-271,599	-200,000	-0,011	0,055
-270,584	-200,000	0,026	0,139
-269,570	-49,407	-0,087	0,029
-268,555	-167,269	0,101	0,003
-267,540	371,973	-0,016	-0,023
-266,526	-200,000	0,003	-0,026
-265,511	-64,910	-0,090	-0,026
-264,497	-72,347	0,107	-0,028
-263,482	379,557	0,088	0,129
-262,467	-200,000	0,016	-0,071
-261,453	-200,000	0,008	0,088
-260,438	-200,000	-0,010	0,064
-259,424	800,000	0,045	-0,122
-258,409	800,000	0,061	-0,149
-257,395	203,962	-0,061	0,067
-256,380	800,000	-0,033	0,090
-255,365	-133,680	-0,049	0,004
-254,351	-137,844	-0,063	0,005
-253,336	-41,264	0,154	-0,056
-252,322	-127,508	-0,081	-0,008
-251,307	124,598	0,064	-0,058
-250,292	48,974	0,105	0,070
-249,278	-200,000	0,026	0,082
-248,263	-76,735	-0,129	0,032
-247,249	-146,969	-0,047	-0,003
-246,234	-131,192	0,056	-0,005
-245,219	-38,752	-0,130	-0,048
-244,205	547,299	-0,089	0,153
-243,190	665,089	-0,040	-0,073
-242,176	659,419	-0,036	0,066
-241,161	220,773	0,079	0,090
-240,146	-200,000	-0,049	0,156
-239,132	800,000	-0,028	0,074
-238,117	-153,452	0,032	0,002
-237,103	765,809	-0,062	-0,121
-236,088	-29,478	-0,066	-0,027
-235,073	800,000	0,030	-0,084
-234,059	-27,202	-0,085	0,035
-233,044	238,878	0,033	0,039
-232,030	-88,450	-0,164	-0,034
-231,015	723,709	-0,076	-0,144
-230,000	800,000	0,034	-0,106
-228,986	-32,123	-0,092	0,036
-227,971	800,000	-0,068	0,162
-226,957	430,697	0,088	0,136
-225,942	434,212	-0,046	0,071
-224,927	-200,000	0,003	-0,074
-223,913	-200,000	0,028	-0,107
-222,898	595,835	-0,074	-0,131
-221,884	800,000	0,022	0,064
-220,869	-93,184	-0,100	-0,020
-219,855	-165,235	-0,051	-0,002
-218,840	-200,000	0,024	0,171
-217,825	800,000	-0,031	0,065
-216,811	69,006	0,087	0,063
-215,796	76,837	0,050	-0,038
-214,782	-96,103	0,088	0,016
-213,767	99,357	-0,033	0,027
-212,752	-29,172	0,208	0,084
-211,738	800,000	0,005	0,012
-210,723	157,675	-0,083	-0,082
-209,709	-95,948	-0,072	0,013
-208,694	42,759	-0,183	0,118
-207,679	-13,645	0,182	0,083
-206,665	-117,115	-0,083	-0,011
-205,650	800,000	0,036	0,073
-204,636	197,040	-0,121	0,131
-203,621	308,593	0,066	-0,088
-202,606	417,819	-0,046	-0,070
-201,592	-19,642	-0,121	-0,053
-200,577	164,704	-0,032	-0,032
-199,563	38,200	0,067	0,042
-198,548	-31,340	0,126	-0,050
-197,533	-200,000	-0,011	0,056
-196,519	39,028	0,034	-0,022
-195,504	131,807	-0,055	-0,051
-194,490	800,000	-0,038	-0,096
-193,475	434,680	-0,032	-0,049
-192,460	98,616	0,130	-0,106
-191,446	-107,094	0,107	-0,017
-190,431	-200,000	0,017	-0,129
-189,417	-200,000	-0,025	-0,173
-188,402	386,938	0,025	-0,036
-187,387	9,305	0,098	-0,052
-186,373	-200,000	0,000	-0,099
-185,358	800,000	0,046	-0,098
-184,344	211,582	-0,031	0,035
-183,329	3,929	0,161	0,083
-182,315	150,043	-0,058	0,056
-181,300	-115,044	-0,039	-0,005
-180,285	-49,878	0,082	-0,027
-179,271	-38,007	-0,077	0,029
-178,256	79,404	0,100	-0,076
-177,242	800,000	0,006	0,015
-176,227	384,759	-0,031	-0,045
-175,212	800,000	-0,037	-0,085
-174,198	-150,490	-0,056	0,003
-173,183	166,657	-0,008	-0,008
-172,169	-155,579	0,105	0,005
-171,154	-38,948	-0,048	-0,018
-170,139	212,474	0,076	0,085
-169,125	-200,000	0,021	0,128
-168,110	800,000	-0,025	0,055
-167,096	-200,000	0,009	0,032
-166,081	-90,167	-0,059	-0,012
-165,066	50,570	-0,059	-0,039
-164,052	800,000	-0,046	-0,098
-163,037	55,272	0,110	-0,075
-162,023	102,350	0,117	0,097
-161,008	-101,276	-0,086	0,015
-159,993	211,625	-0,102	0,114
-158,979	-131,204	0,136	-0,013
-157,964	-69,099	-0,155	-0,042
-156,950	-39,323	-0,021	0,008
-155,935	104,486	0,021	-0,017
-154,920	800,000	-0,033	0,100
-153,906	54,129	0,029	-0,019
-152,891	-200,000	0,033	0,147
-151,877	174,257	-0,086	-0,088
-150,862	-19,954	-0,161	-0,070
-149,847	234,476	-0,071	-0,083
-148,833	-200,000	0,014	-0,105
-147,818	61,893	-0,021	-0,015
-146,804	203,657	0,110	-0,121
-145,789	-200,000	-0,004	0,020
-144,775	-59,245	0,084	0,025
-143,760	-200,000	0,007	0,030
-142,745	99,676	-0,072	-0,059
-141,731	-120,917	0,065	-0,008
-140,716	694,868	0,056	0,105
-139,702	145,073	0,139	0,132
-138,687	464,237	0,110	0,175
-137,672	-200,000	-0,003	-0,065
-136,658	-165,128	-0,110	0,003
-135,643	-35,838	0,057	-0,022
-134,629	-200,000	-0,024	0,206
-133,614	-40,986	0,187	-0,068
-132,599	-200,000	-0,002	0,022
-131,585	73,631	0,073	0,054
-130,570	587,831	-0,022	0,038
-129,556	-21,004	0,050	-0,022
-128,541	-118,949	-0,068	0,008
-127,526	-129,679	-0,063	-0,006
-126,512	37,944	0,163	0,102
-125,497	143,865	-0,070	-0,066
-124,483	275,570	0,029	0,037
-123,468	-200,000	0,028	0,147
-122,453	118,176	0,048	-0,042
-121,439	-48,992	-0,106	-0,036
-120,424	337,955	-0,107	-0,147
-119,410	-69,225	0,049	0,013
-118,395	-200,000	0,029	0,099
-117,380	-36,661	0,069	-0,026
-116,366	277,270	-0,044	-0,055
-115,351	646,330	-0,017	0,031
-114,337	-200,000	0,025	-0,093
-113,322	278,168	0,072	-0,092
-112,307	-38,628	-0,087	0,032
-111,293	-61,098	0,017	-0,005
-110,278	746,518	0,092	0,175
-109,264	206,578	-0,044	0,048
-108,249	775,824	0,045	-0,088
-107,234	-200,000	-0,002	0,228
-106,220	800,000	-0,036	0,075
-105,205	33,566	0,050	-0,031
-104,191	595,912	0,038	0,068
-103,176	-82,608	0,100	0,023
-102,162	-199,172	0,076	-0,000
-101,147	800,000	-0,014	0,043
-100,132	-133,702	-0,212	-0,018
-99,118	-11,820	0,042	-0,019
-98,103	800,000	0,057	0,138
-97,089	23,828	0,068	0,039
-96,074	56,172	0,101	0,069
-95,059	-200,000	-0,022	0,093
-94,045	186,326	-0,136	0,143
-93,030	-25,384	-0,061	-0,025
-92,016	-17,625	0,091	-0,040
-91,001	-200,000	0,011	-0,104
-89,986	245,062	-0,120	0,143
-88,972	-82,956	-0,044	-0,010
-87,957	-200,000	-0,012	0,038
-86,943	800,000	0,057	0,125
-85,928	74,458	-0,082	0,061
-84,913	800,000	-0,025	0,058
-83,899	83,154	0,074	0,057
-82,884	800,000	0,021	-0,049
-81,870	-176,877	-0,115	-0,002
-80,855	8,880	0,192	-0,102
-79,840	173,688	-0,135	-0,138
-78,826	23,755	-0,116	0,068
-77,811	418,173	-0,024	0,036
-76,797	45,312	-0,099	0,064
-75,782	303,324	0,046	-0,060
-74,767	-200,000	0,020	-0,073
-73,753	-200,000	0,000	0,174
-72,738	148,140	-0,036	-0,034
-71,724	-1,289	0,018	0,009
-70,709	800,000	0,062	-0,165
-69,694	64,097	0,071	0,050
-68,680	-200,000	0,012	-0,074
-67,665	696,232	0,005	0,009
-66,651	-200,000	0,003	-0,037
-65,636	290,922	0,081	0,104
-64,622	-99,908	0,113	0,020
-63,607	-65,839	-0,154	-0,043
-62,592	-200,000	-0,002	0,105
-61,578	294,058	-0,027	-0,035
-60,563	-18,887	0,158	-0,069
-59,549	800,000	-0,040	-0,112
-58,534	54,286	-2,013	-1,365
-57,519	476,116	-1,167	-1,867
-56,505	-200,000	-0,409	-4,348
-55,490	392,496	1,086	1,599
-54,476	800,000	5,257	11,140
-53,461	-200,000	21,706	336,294
-52,446	800,000	759,245	2296,568
-51,432	533,770	1653,233	2774,047
-50,417	69,343	1650,806	1197,116
-49,403	16,624	1525,580	848,585
-48,388	10,828	1450,205	778,760
-47,373	18,990	1442,255	813,443
-46,359	14,216	1430,852	784,392
-45,344	9,143	1426,932	758,174
-44,330	9,064	1424,908	756,691
-43,315	9,056	1423,193	755,715
-42,300	9,065	1421,384	754,766
-41,286	9,072	1420,190	754,133
-40,271	9,090	1418,809	753,457
-39,257	9,041	1417,882	752,702
-38,242	9,105	1416,545	752,267
-37,227	9,100	1415,437	751,626
-36,213	9,078	1414,390	750,935
-35,198	9,098	1412,979	750,249
-34,184	9,116	1412,070	749,819
-33,169	9,039	1410,696	748,702
-32,154	9,090	1409,878	748,474
-31,140	9,071	1408,456	747,601
-30,125	9,103	1407,327	747,123
-29,111	9,091	1406,007	746,335
-28,096	9,086	1404,940	745,716
-27,082	9,020	1403,832	744,793
-26,067	8,994	1402,735	744,060
-25,052	9,027	1401,728	743,649
-24,038	9,048	1400,598	743,118
-23,023	9,065	1399,596	742,635
-22,009	9,052	1398,947	742,200
-20,994	9,004	1397,859	741,372
-19,979	9,045	1396,759	740,948
-18,965	9,003	1396,067	740,355
-17,950	9,002	1394,964	739,738
-16,936	8,973	1394,161	739,150
-15,921	8,892	1393,416	738,350
-14,906	8,924	1392,235	737,842
-13,892	8,947	1391,433	737,494
-12,877	8,977	1390,661	737,193
-11,863	8,934	1389,828	736,525
-10,848	8,898	1388,842	735,806
-9,833	8,861	1387,824	735,069
-8,819	8,826	1387,162	734,525
-7,804	8,831	1385,930	733,869
-6,790	8,844	1384,995	733,401
-5,775	8,855	1383,857	732,825
-4,760	8,888	1382,991	732,488
-3,746	8,878	1382,032	731,904
-2,731	8,906	1381,190	731,556
-1,717	8,870	1380,313	730,900
-0,702	8,868	1378,575	729,942
0,313	12,875	1290,333	701,428
1,327	28,809	682,596	406,821
2,342	44,777	117,606	76,154
3,356	3,556	16,444	8,427
4,371	-1,873	3,745	1,851
5,386	17,861	1,254	0,702
6,400	800,000	0,283	0,595
7,415	119,146	-0,158	-0,138
8,429	15,540	-0,314	-0,173
9,444	75,403	-0,332	-0,247
10,459	125,805	-0,344	-0,306
11,473	-19,981	-0,355	-0,154
12,488	-21,963	-0,306	-0,131
13,502	105,865	-0,235	-0,195
14,517	128,407	-0,228	-0,204
15,531	122,587	-0,370	-0,326
16,546	301,907	-0,192	-0,250
17,561	103,919	-0,290	-0,240
18,575	-133,905	-0,217	0,019
19,590	65,965	-0,259	-0,185
20,604	121,578	-0,236	-0,207
21,619	16,938	-0,393	-0,218
22,634	116,546	-0,423	-0,365
23,648	74,030	-0,399	-0,294
24,663	114,190	-0,380	-0,326
25,677	-36,975	-0,335	-0,126
26,692	97,702	-0,399	-0,322
27,707	-57,629	-0,381	-0,117
28,721	-21,365	-0,455	-0,194
29,736	216,849	-0,282	-0,316
30,750	227,422	-0,317	-0,363
31,765	41,236	-0,417	-0,265
32,780	190,907	-0,271	-0,287
33,794	162,756	-0,298	-0,294
34,809	113,665	-0,308	-0,263
35,823	72,650	-0,418	-0,306
36,838	43,401	-0,345	-0,221
37,853	65,643	-0,367	-0,261
38,867	99,296	-0,442	-0,359
39,882	76,328	-0,332	-0,247
40,896	91,094	-0,324	-0,255
41,911	96,771	-0,168	-0,135
42,926	108,731	-0,329	-0,276
43,940	103,712	-0,374	-0,308
44,955	178,904	-0,346	-0,356
45,969	-31,442	-0,276	-0,108
46,984	115,387	-0,397	-0,341
47,999	0,947	-0,333	-0,167
49,013	-86,011	-0,248	-0,053
50,028	17,324	-0,216	-0,120
51,042	42,195	-0,465	-0,296
52,057	27,589	-0,360	-0,212
53,071	22,460	-0,326	-0,187
54,086	-5,437	-0,382	-0,184
55,101	271,637	-0,217	-0,269
56,115	25,371	-0,374	-0,218
57,130	100,678	-0,324	-0,264
58,144	65,695	-0,380	-0,270
59,159	-6,340	-0,417	-0,199
60,174	209,458	-0,319	-0,351
61,188	52,845	-0,401	-0,269
62,203	-1,056	-0,337	-0,166
63,217	-125,526	-0,300	-0,032
64,232	98,123	-0,251	-0,203
65,247	-57,229	-0,307	-0,094
66,261	238,705	-0,298	-0,347
67,276	27,933	-0,335	-0,198
68,290	7,172	-0,314	-0,164
69,305	210,608	-0,302	-0,333
70,320	63,266	-0,297	-0,208
71,334	-96,408	-0,293	-0,054
72,349	-41,862	-0,464	-0,166
73,363	-25,447	-0,315	-0,130
74,378	-78,509	-0,339	-0,081
75,393	-108,111	-0,212	-0,032
76,407	75,616	-0,164	-0,121
77,422	113,449	-0,343	-0,291
78,436	-14,737	-0,267	-0,120
79,451	134,645	-0,209	-0,190
80,466	27,446	-0,286	-0,168
81,480	19,724	-0,350	-0,197
82,495	53,511	-0,289	-0,194
83,509	130,698	-0,252	-0,227
84,524	116,896	-0,284	-0,244
85,539	66,980	-0,161	-0,115
86,553	33,205	-0,248	-0,150
87,568	137,649	-0,263	-0,241
88,582	10,129	-0,318	-0,169
89,597	207,111	-0,197	-0,215
90,611	-86,964	-0,264	-0,056
91,626	12,157	-0,313	-0,168
92,641	-3,392	-0,344	-0,167
93,655	54,162	-0,337	-0,226
94,670	-3,850	-0,270	-0,130
95,684	-63,325	-0,368	-0,105
96,699	67,832	-0,202	-0,144
97,714	-9,980	-0,283	-0,131
98,728	-41,095	-0,324	-0,116
99,743	399,408	-0,149	-0,219
100,757	129,266	-0,269	-0,241
101,772	-17,024	-0,316	-0,139
102,787	-65,156	-0,382	-0,107
103,801	60,468	-0,255	-0,176
104,816	-121,089	-0,325	-0,038
105,830	729,331	-0,150	-0,280
106,845	63,270	-0,327	-0,229
107,860	4,162	-0,278	-0,142
108,874	29,259	-0,250	-0,148
109,889	140,803	-0,258	-0,238
110,903	-55,746	-0,317	-0,098
111,918	362,273	-0,153	-0,216
112,933	-69,385	-0,285	-0,076
113,947	-52,976	-0,115	-0,037
114,962	-13,088	-0,346	-0,156
115,976	420,472	-0,190	-0,285
116,991	42,031	-0,343	-0,217
118,006	102,711	-0,157	-0,128
119,020	-33,738	-0,244	-0,093
120,035	-34,771	-0,225	-0,086
121,049	48,239	-0,193	-0,126
122,064	-30,043	-0,253	-0,100
123,079	142,892	-0,287	-0,266
124,093	87,449	-0,204	-0,158
125,108	171,400	-0,216	-0,216
126,122	184,916	-0,245	-0,253
127,137	35,470	-0,177	-0,108
128,151	-58,967	-0,275	0,082
129,166	793,797	-0,092	-0,178
130,181	-14,411	-0,270	-0,121
131,195	103,361	-0,258	-0,211
132,210	106,198	-0,201	-0,166
133,224	94,161	-0,212	-0,168
134,239	57,430	-0,209	-0,142
135,254	93,451	-0,140	-0,110
136,268	10,005	-0,271	-0,143
137,283	-23,493	-0,198	-0,083
138,297	103,127	-0,130	-0,106
139,312	129,296	-0,171	-0,153
140,327	326,677	-0,131	-0,175
141,341	68,747	-0,182	-0,130
142,356	1,728	-0,194	-0,097
143,370	41,518	-0,324	-0,204
144,385	89,154	-0,222	-0,172
145,400	150,589	-0,233	-0,221
146,414	151,789	-0,222	-0,211
147,429	-25,682	-0,239	-0,098
148,443	16,635	-0,198	-0,109
149,458	240,886	-0,189	-0,220
150,473	17,655	-0,267	-0,148
151,487	-181,736	-0,210	0,003
152,502	-79,926	-0,369	-0,086
153,516	-5,535	-0,199	-0,095
154,531	120,951	-0,172	-0,149
155,546	800,000	-0,098	-0,217
156,560	138,634	-0,306	-0,279
157,575	43,409	-0,283	-0,180
158,589	42,878	-0,202	-0,128
159,604	78,652	-0,300	-0,223
160,619	-78,164	-0,323	-0,077
161,633	57,457	-0,286	-0,194
162,648	-177,020	-0,269	-0,005
163,662	-84,531	-0,150	-0,033
164,677	-61,054	-0,324	-0,094
165,692	-169,759	-0,248	0,006
166,706	174,703	-0,192	-0,194
167,721	341,205	-0,236	-0,322
168,735	18,819	-0,265	-0,147
169,750	84,443	-0,230	-0,174
170,764	770,734	-0,045	-0,086
171,779	8,744	-0,104	-0,054
172,794	82,957	-0,274	-0,207
173,808	-125,076	-0,224	0,024
174,823	-79,368	-0,409	-0,095
175,837	-57,292	-0,293	-0,089
176,852	399,366	-0,183	-0,267
177,867	800,000	0,026	-0,062
178,881	213,926	-0,157	-0,173
179,896	51,760	-0,188	-0,124
180,910	137,884	-0,190	-0,173
181,925	16,869	-0,245	-0,134
182,940	-11,292	-0,295	-0,134
183,954	119,661	-0,134	-0,116
184,969	28,702	-0,154	-0,090
185,983	31,781	-0,124	-0,074
186,998	21,301	-0,147	-0,082
188,013	58,246	-0,152	-0,103
189,027	37,445	-0,382	-0,234
190,042	-15,154	-0,303	-0,134
191,056	-37,312	-0,253	-0,093
192,071	55,774	-0,244	-0,163
193,086	5,148	-0,114	-0,058
194,100	113,839	-0,243	-0,205
195,115	134,802	-0,143	-0,129
196,129	148,689	-0,193	-0,181
197,144	237,657	-0,245	-0,282
198,159	236,462	-0,195	-0,224
199,173	213,625	-0,077	-0,084
200,188	35,339	-0,210	-0,127
201,202	-44,615	-0,320	-0,110
202,217	31,351	-0,144	-0,086
203,232	244,852	-0,197	-0,230
204,246	112,225	-0,204	-0,171
205,261	800,000	-0,101	-0,250
206,275	101,022	-0,167	-0,134
207,290	93,709	-0,149	-0,117
208,304	440,399	-0,137	-0,209
209,319	33,706	-0,235	-0,141
210,334	85,350	-0,166	-0,126
211,348	237,505	-0,170	-0,195
212,363	111,344	-0,136	-0,113
213,377	25,159	-0,168	-0,096
214,392	129,824	-0,172	-0,152
215,407	-200,000	0,015	-0,068
216,421	192,983	-0,141	-0,148
217,436	-26,940	-0,277	-0,112
218,450	-67,472	-0,269	-0,073
219,465	-58,501	-0,188	-0,056
220,480	480,154	-0,118	-0,186
221,494	491,318	-0,088	-0,140
222,509	-13,357	-0,259	-0,116
223,523	-91,855	-0,185	0,036
224,538	-27,905	-0,129	-0,051
225,553	227,921	-0,050	-0,057
226,567	95,111	-0,181	-0,143
227,582	77,136	-0,164	-0,120
228,596	-3,073	-0,121	-0,058
229,611	150,635	-0,133	-0,125
230,626	17,416	-0,253	-0,138
231,640	-23,855	-0,205	-0,085
232,655	73,744	-0,235	-0,170
233,669	91,600	-0,199	-0,155
234,684	358,846	-0,102	-0,142
235,699	626,006	-0,076	-0,134
236,713	-105,970	-0,150	-0,023
237,728	-67,595	-0,139	-0,037
238,742	335,089	-0,132	-0,177
239,757	-55,799	-0,198	-0,061
240,772	155,894	-0,274	-0,261
241,786	-46,075	-0,258	-0,087
242,801	-95,525	-0,119	0,022
243,815	2,617	-0,304	-0,152
244,830	9,834	-0,158	-0,082
245,844	77,592	-0,241	-0,177
246,859	-186,466	-0,175	-0,002
247,874	53,641	-0,099	-0,065
248,888	-16,154	-0,234	-0,102
249,903	-10,208	-0,118	-0,054
250,917	34,542	-0,169	-0,101
251,932	274,937	-0,204	-0,249
252,947	-8,245	-0,237	-0,110
253,961	-132,938	-0,148	-0,013
254,976	101,540	-0,131	-0,106
255,990	31,041	-0,087	-0,051
257,005	226,234	-0,112	-0,125
258,020	-49,277	-0,146	-0,048
259,034	271,619	-0,127	-0,154
260,049	-200,000	-0,065	-0,220
261,063	452,577	-0,121	-0,184
262,078	435,443	-0,186	-0,280
263,093	-200,000	-0,062	-0,249
264,107	135,168	-0,244	-0,218
265,122	102,393	-0,072	-0,058
266,136	-123,216	-0,145	-0,016
267,151	199,628	-0,129	-0,137
268,166	546,199	-0,153	-0,253
269,180	155,440	-0,199	-0,188
270,195	55,818	-0,275	-0,183
271,209	429,946	-0,144	-0,215
272,224	694,123	-0,176	-0,320
273,239	13,529	-0,206	-0,110
274,253	-81,798	-0,182	-0,041
275,268	-60,653	-0,245	-0,071
276,282	800,000	-0,057	-0,146
277,297	800,000	-0,071	-0,142
278,312	358,834	-0,104	-0,143
279,326	-200,000	-0,031	-0,165
280,341	154,456	-0,094	-0,089
281,355	128,240	-0,143	-0,125
282,370	-116,753	-0,327	-0,041
283,384	-124,414	-0,269	0,028
284,399	-129,759	-0,209	0,020
285,414	92,703	-0,249	-0,193
286,428	800,000	-0,118	-0,226
287,443	273,161	-0,118	-0,144
288,457	-97,391	-0,234	-0,041
289,472	-144,238	-0,257	0,016
290,487	185,145	-0,184	-0,188
291,501	800,000	-0,084	-0,212
292,516	696,680	-0,178	-0,322
293,530	-147,650	-0,176	-0,010
294,545	162,231	-0,093	0,090
295,560	256,991	-0,138	-0,163
296,574	126,729	-0,195	-0,170
297,589	579,190	-0,075	-0,126
298,603	-47,485	-0,154	-0,051
299,618	116,453	-0,115	-0,097
300,633	-39,095	-0,193	-0,069
301,647	28,378	-0,117	-0,068
302,662	-189,333	-0,255	0,002
303,676	14,341	-0,150	-0,080
304,691	-120,226	-0,297	-0,034
305,706	320,629	-0,166	-0,217
306,720	365,735	-0,135	-0,188
307,735	296,467	-0,124	-0,157
308,749	800,000	-0,052	-0,152
309,764	537,521	-0,011	-0,018
310,779	2,494	-0,063	0,031
311,793	-73,688	-0,113	-0,028
312,808	157,389	-0,137	-0,130
313,822	355,475	-0,105	-0,144
314,837	65,559	-0,187	-0,129
315,852	120,127	-0,132	-0,112
316,866	-75,123	-0,159	-0,039
317,881	-184,992	-0,211	-0,002
318,895	307,889	-0,102	0,131
319,910	22,508	-0,162	-0,091
320,925	-200,000	-0,028	-0,259
321,939	-200,000	0,005	0,017
322,954	92,661	-0,105	-0,081
323,968	-128,501	-0,065	0,006
324,983	436,587	-0,115	0,172
325,997	-181,380	-0,152	0,002
327,012	68,840	-0,195	-0,137
328,027	-32,648	-0,156	-0,059
329,041	-38,061	-0,209	-0,076
330,056	-89,739	-0,049	-0,010
331,070	161,759	-0,039	-0,038
332,085	171,433	-0,100	-0,099
333,100	73,821	-0,119	-0,085
334,114	-124,028	-0,175	-0,019
335,129	-85,685	-0,263	-0,055
336,143	-28,873	-0,098	-0,038
337,158	-200,000	0,005	0,093
338,173	-200,000	0,009	-0,084
339,187	-50,962	-0,131	-0,042
340,202	-127,684	-0,144	0,014
341,216	42,195	-0,183	-0,114
342,231	-94,741	-0,165	0,030
343,246	-2,783	-0,059	-0,028
344,260	71,377	-0,177	-0,126
345,275	-177,319	-0,153	-0,003
346,289	-36,105	-0,189	-0,070
347,304	116,943	-0,160	-0,135
348,319	-170,383	-0,145	0,003
349,333	39,794	-0,204	-0,125
350,348	274,992	-0,186	-0,225
351,362	83,019	-0,199	-0,148
352,377	-9,348	-0,154	0,070
353,392	-9,395	-0,077	-0,035
354,406	527,291	-0,106	-0,171
355,421	206,385	1306,508	1392,179
356,435	158,727	1466,185	1392,656
