DTS Sentinel unit serial number:	SN410029Multiplexer serial number:	ORYXHardware model number:	OX2-SRSoftware version number:	ORYX F/W v4,00 Oryx Data Collector v3.7.2.0data status	okinstallation	B3 Nyhavnadifferential loss correction	single-endedforward channel	channel 1reverse channel	N/Adate	2023/11/29time	01:17:30forward acquisition time	300,00reverse acquisition time	0,00gamma	499,1914k internal	0,3212k external	0,3212temperature offset calibration	1,0000default loss term (dB/km)	0,3820temperature slope calibration	1,0000multiplexer offset coefficient	1,0000multiplexer slope coefficient	1,0000fibre end	0,00T internal ref (°C)	9,42T ext. ref 1 (°C)	-5,02T ext. ref 2 (°C)	-5,15length (m)	temperature (°C)	Stokes	anti-Stokes-744,400	90,701	-0,276	-0,224
-743,385	-200,000	-0,015	0,316
-742,371	-78,308	-0,193	-0,048
-741,356	800,000	-0,085	0,232
-740,342	240,327	-0,183	-0,221
-739,327	784,568	-0,085	0,170
-738,312	159,635	-0,254	-0,256
-737,298	-200,000	-0,003	0,243
-736,283	15,797	-0,173	-0,098
-735,269	800,000	0,120	0,250
-734,254	16,435	-0,145	-0,083
-733,239	-63,493	-0,332	0,098
-732,225	-200,000	-0,032	-0,329
-731,210	663,515	-0,026	0,050
-730,196	-0,330	-0,111	-0,057
-729,181	800,000	-0,050	-0,149
-728,167	19,305	-0,098	0,057
-727,152	-39,017	0,053	-0,020
-726,137	-155,546	0,086	-0,004
-725,123	36,795	-0,014	-0,009
-724,108	281,604	-0,085	-0,111
-723,094	550,924	-0,022	0,038
-722,079	-188,107	-0,247	0,002
-721,064	-200,000	0,008	0,041
-720,050	771,062	-0,035	-0,070
-719,035	268,996	-0,026	0,033
-718,021	-53,893	-0,072	-0,024
-717,006	4,976	-0,043	-0,023
-715,991	184,646	-0,084	-0,090
-714,977	-54,161	-0,191	-0,062
-713,962	-200,000	0,001	0,042
-712,948	-200,000	0,002	0,036
-711,933	-58,935	0,063	0,020
-710,918	-63,808	0,020	-0,006
-709,904	98,085	-0,156	-0,130
-708,889	315,078	0,063	-0,086
-707,875	800,000	-0,026	0,052
-706,860	319,712	-0,103	-0,142
-705,845	113,292	-0,041	0,036
-704,831	-200,000	-0,010	0,048
-703,816	-200,000	-0,017	0,131
-702,802	171,248	-0,075	-0,078
-701,787	-11,618	-0,114	0,054
-700,772	-200,000	-0,012	-0,135
-699,758	-47,892	-0,075	-0,026
-698,743	-200,000	-0,038	-0,193
-697,729	-23,499	0,082	0,035
-696,714	-96,658	0,130	0,025
-695,699	800,000	0,018	-0,041
-694,685	228,034	-0,071	0,084
-693,670	12,541	-0,146	-0,081
-692,656	10,961	-0,159	0,088
-691,641	-48,332	0,060	0,021
-690,627	59,499	0,119	0,085
-689,612	138,516	0,054	-0,051
-688,597	-114,142	-0,088	0,012
-687,583	358,040	-0,069	0,100
-686,568	6,565	-0,111	-0,059
-685,554	164,533	0,077	-0,079
-684,539	-200,000	-0,015	-0,062
-683,524	191,935	0,079	0,086
-682,510	-61,153	0,136	0,041
-681,495	95,985	-0,075	-0,062
-680,481	135,385	0,044	-0,042
-679,466	61,292	-0,124	-0,089
-678,451	800,000	0,055	-0,144
-677,437	199,312	0,098	0,108
-676,422	-200,000	-0,012	-0,095
-675,408	-4,135	-0,108	-0,054
-674,393	61,129	-0,132	0,095
-673,378	-23,426	-0,152	-0,066
-672,364	-27,385	-0,029	0,012
-671,349	-22,317	0,031	0,013
-670,335	701,217	0,089	0,171
-669,320	-75,627	0,039	0,010
-668,305	40,829	-0,066	0,043
-667,291	122,502	-0,086	0,078
-666,276	-200,000	-0,003	-0,025
-665,262	755,648	0,050	-0,098
-664,247	31,703	-0,037	-0,023
-663,232	348,794	-0,041	0,059
-662,218	-200,000	-0,011	-0,059
-661,203	496,766	-0,080	0,133
-660,189	-60,943	0,140	0,043
-659,174	292,452	-0,061	-0,081
-658,159	-200,000	-0,039	-0,241
-657,145	-86,295	-0,107	-0,024
-656,130	65,198	0,075	0,055
-655,116	377,304	0,049	-0,073
-654,101	82,406	0,069	0,054
-653,086	5,296	0,067	-0,035
-652,072	-200,000	-0,055	-0,176
-651,057	-146,580	-0,223	0,014
-650,043	192,554	0,073	-0,079
-649,028	-167,014	0,096	0,003
-648,014	372,850	-0,087	-0,129
-646,999	-200,000	-0,001	0,037
-645,984	56,275	-0,115	-0,080
-644,970	-125,949	0,037	0,004
-643,955	575,974	0,067	-0,119
-642,941	170,263	-0,066	-0,068
-641,926	800,000	0,019	-0,042
-640,911	-17,074	0,082	0,037
-639,897	800,000	0,050	0,131
-638,882	54,289	0,041	0,028
-637,868	800,000	-0,027	-0,081
-636,853	257,863	-0,097	-0,121
-635,838	-200,000	-0,010	-0,086
-634,824	800,000	0,034	-0,069
-633,809	-200,000	0,010	0,036
-632,795	-200,000	0,010	0,051
-631,780	57,352	-0,109	0,077
-630,765	31,148	0,054	-0,033
-629,751	199,120	-0,081	-0,089
-628,736	-22,581	-0,049	0,021
-627,722	87,025	0,016	-0,012
-626,707	-24,728	0,083	0,035
-625,692	-142,630	-0,043	0,003
-624,678	-20,171	0,065	-0,029
-623,663	-38,898	0,062	0,024
-622,649	-200,000	-0,005	-0,027
-621,634	800,000	-0,035	0,098
-620,619	235,420	0,113	0,135
-619,605	276,082	0,042	0,054
-618,590	-139,431	-0,134	-0,010
-617,576	340,623	0,095	0,135
-616,561	250,761	0,064	-0,079
-615,546	-61,196	-0,138	-0,042
-614,532	-200,000	-0,051	-0,200
-613,517	37,155	-0,107	0,068
-612,503	0,305	-0,083	-0,043
-611,488	-47,598	-0,103	-0,036
-610,474	-97,928	-0,020	0,004
-609,459	-166,525	-0,049	0,001
-608,444	89,205	-0,024	0,019
-607,430	-200,000	-0,003	-0,121
-606,415	19,266	-0,075	-0,044
-605,401	-165,858	0,077	-0,002
-604,386	39,538	-0,063	-0,041
-603,371	800,000	0,015	0,031
-602,357	192,654	0,115	0,126
-601,342	-132,710	0,058	0,005
-600,328	-200,000	0,006	-0,126
-599,313	-99,027	-0,087	0,016
-598,298	-200,000	0,008	0,042
-597,284	800,000	-0,074	0,154
-596,269	485,861	-0,019	0,032
-595,255	-19,095	0,057	0,025
-594,240	-88,976	-0,131	0,028
-593,225	800,000	-0,046	-0,099
-592,211	-71,725	-0,129	-0,034
-591,196	124,641	-0,073	-0,066
-590,182	-133,217	0,137	0,012
-589,167	800,000	0,027	-0,055
-588,152	-82,080	-0,199	0,046
-587,138	-200,000	0,020	0,000
-586,123	-200,000	0,027	-0,095
-585,109	481,112	-0,038	-0,062
-584,094	173,038	-0,094	-0,097
-583,079	-200,000	-0,031	0,127
-582,065	29,119	-0,042	-0,026
-581,050	-200,000	0,001	0,066
-580,036	246,203	0,061	0,074
-579,021	667,714	-0,041	-0,077
-578,006	104,169	-0,030	-0,025
-576,992	333,696	-0,016	-0,023
-575,977	-44,237	-0,084	-0,030
-574,963	800,000	0,008	0,021
-573,948	-130,440	0,225	-0,022
-572,934	327,967	0,082	-0,114
-571,919	91,977	-0,097	-0,079
-570,904	-106,803	0,111	-0,018
-569,890	-10,418	-0,060	0,028
-568,875	96,884	0,022	-0,018
-567,861	-22,598	0,110	-0,048
-566,846	800,000	0,023	-0,049
-565,831	800,000	0,006	0,014
-564,817	14,118	-0,067	0,038
-563,802	-182,825	-0,117	0,001
-562,788	-200,000	0,007	-0,094
-561,773	-27,779	0,135	-0,056
-560,758	-26,222	-0,061	0,026
-559,744	224,084	-0,038	0,044
-558,729	-31,612	0,085	0,034
-557,715	-200,000	0,006	-0,093
-556,700	-200,000	0,011	-0,116
-555,685	-200,000	-0,014	-0,134
-554,671	84,705	-0,008	0,006
-553,656	604,665	-0,010	0,018
-552,642	-200,000	0,001	0,095
-551,627	800,000	-0,030	0,080
-550,612	-52,461	-0,040	0,013
-549,598	800,000	-0,051	-0,118
-548,583	689,813	-0,008	0,015
-547,569	16,527	-0,029	0,016
-546,554	696,596	-0,080	-0,151
-545,539	102,456	-0,050	-0,042
-544,525	-200,000	-0,012	0,060
-543,510	67,231	0,064	-0,047
-542,496	180,772	-0,053	0,056
-541,481	-43,238	-0,089	0,032
-540,466	800,000	-0,047	-0,105
-539,452	-116,379	-0,073	-0,010
-538,437	-200,000	0,001	-0,088
-537,423	363,509	0,036	-0,052
-536,408	-9,435	0,071	0,034
-535,393	800,000	-0,042	0,128
-534,379	26,367	-0,117	-0,070
-533,364	42,453	-0,139	-0,091
-532,350	-9,458	-0,028	-0,013
-531,335	-163,896	0,077	-0,003
-530,321	-158,792	0,039	-0,002
-529,306	43,299	-0,019	-0,013
-528,291	104,400	-0,072	0,061
-527,277	-200,000	0,033	-0,183
-526,262	94,240	-0,166	0,135
-525,248	800,000	0,011	0,024
-524,233	330,490	0,014	0,019
-523,218	448,822	0,039	0,062
-522,204	-132,638	0,071	-0,006
-521,189	135,525	-0,072	-0,067
-520,175	744,852	-0,034	-0,066
-519,160	-24,925	-0,067	0,028
-518,145	-200,000	-0,035	-0,149
-517,131	397,489	-0,040	-0,060
-516,116	299,325	-0,076	0,100
-515,102	-200,000	0,058	0,210
-514,087	308,599	-0,161	-0,217
-513,072	252,538	-0,025	-0,031
-512,058	130,107	-0,168	0,154
-511,043	355,852	-0,050	-0,072
-510,029	800,000	0,010	0,022
-509,014	-200,000	-0,014	0,090
-507,999	57,954	-0,041	-0,028
-506,985	800,000	0,005	-0,014
-505,970	800,000	-0,081	-0,163
-504,956	16,568	-0,183	-0,104
-503,941	45,396	-0,050	0,033
-502,926	-200,000	0,006	0,055
-501,912	-129,739	0,188	0,018
-500,897	-107,970	0,070	0,011
-499,883	-93,225	0,040	-0,008
-498,868	-48,744	-0,013	0,004
-497,853	96,381	0,030	0,025
-496,839	44,656	0,088	-0,058
-495,824	66,077	0,119	0,086
-494,810	-73,680	-0,045	-0,012
-493,795	-120,240	-0,099	0,012
-492,781	774,577	-0,050	-0,098
-491,766	-124,979	-0,071	0,008
-490,751	135,290	-0,083	0,077
-489,737	-200,000	0,047	0,290
-488,722	59,728	-0,069	-0,049
-487,708	302,139	0,107	-0,143
-486,693	-200,000	-0,003	0,073
-485,678	22,016	0,140	-0,082
-484,664	69,540	-0,156	-0,115
-483,649	217,631	-0,073	-0,083
-482,635	-6,259	0,017	-0,008
-481,620	58,345	0,071	0,050
-480,605	-200,000	0,019	0,089
-479,591	259,537	0,085	-0,106
-478,576	-200,000	0,010	0,054
-477,562	-200,000	0,031	0,159
-476,547	127,978	-0,139	0,127
-475,532	48,841	-0,108	-0,073
-474,518	780,675	0,026	-0,050
-473,503	-200,000	-0,022	0,139
-472,489	549,983	-0,056	0,097
-471,474	-156,983	0,059	-0,003
-470,459	-18,460	-0,119	0,053
-469,445	-150,452	0,129	0,007
-468,430	-83,154	0,042	-0,010
-467,416	356,109	-0,033	-0,048
-466,401	225,789	-0,062	0,072
-465,386	-9,980	0,114	0,054
-464,372	367,587	-0,059	0,086
-463,357	280,161	0,095	0,122
-462,343	800,000	-0,052	0,131
-461,328	800,000	0,058	0,126
-460,313	800,000	-0,018	0,057
-459,299	576,548	-0,009	-0,017
-458,284	466,530	0,037	-0,059
-457,270	-200,000	0,008	-0,068
-456,255	732,453	-0,018	0,035
-455,241	-200,000	0,013	-0,133
-454,226	800,000	0,018	-0,047
-453,211	-84,267	-0,065	-0,015
-452,197	299,322	0,077	0,101
-451,182	245,998	-0,064	0,078
-450,168	-200,000	0,002	-0,094
-449,153	-72,396	0,117	-0,031
-448,138	-150,014	0,052	0,003
-447,124	10,579	0,078	-0,042
-446,109	225,819	0,028	-0,032
-445,095	-200,000	0,009	0,099
-444,080	-4,196	-0,089	0,044
-443,065	276,335	0,069	0,088
-442,051	97,098	-0,055	-0,045
-441,036	267,822	-0,041	-0,052
-440,022	82,312	0,060	-0,047
-439,007	-62,490	-0,074	0,022
-437,992	76,017	0,118	-0,090
-436,978	-25,102	0,075	0,032
-435,963	-0,491	0,081	-0,041
-434,949	573,166	-0,069	0,121
-433,934	53,118	0,078	-0,053
-432,919	409,922	-0,044	-0,066
-431,905	471,898	0,025	-0,041
-430,890	-91,053	0,094	-0,019
-429,876	144,861	0,082	-0,079
-428,861	-48,077	-0,058	0,020
-427,846	-79,251	-0,113	-0,027
-426,832	47,594	0,021	0,014
-425,817	800,000	0,034	0,079
-424,803	-173,038	0,128	-0,003
-423,788	19,522	0,065	-0,037
-422,773	554,577	0,048	0,083
-421,759	-19,376	0,054	-0,024
-420,744	669,866	-0,083	0,154
-419,730	800,000	-0,023	-0,054
-418,715	-200,000	0,003	-0,041
-417,701	-200,000	-0,009	0,116
-416,686	-32,044	0,105	0,042
-415,671	800,000	0,048	0,114
-414,657	115,375	0,057	0,050
-413,642	-200,000	0,005	0,074
-412,628	324,082	-0,065	-0,089
-411,613	-138,128	0,154	-0,012
-410,598	195,396	0,034	-0,037
-409,584	178,528	-0,057	0,059
-408,569	-200,000	0,008	-0,039
-407,555	-143,014	-0,065	-0,004
-406,540	-151,582	0,074	-0,004
-405,525	74,484	0,044	0,033
-404,511	22,450	0,141	0,082
-403,496	18,128	0,119	0,068
-402,482	800,000	0,059	0,168
-401,467	-200,000	-0,019	-0,085
-400,452	-84,719	0,104	-0,023
-399,438	163,012	0,084	0,085
-398,423	-200,000	0,015	-0,088
-397,409	322,612	-0,016	-0,022
-396,394	56,983	0,128	-0,089
-395,379	-61,559	0,025	0,008
-394,365	-138,884	0,111	0,008
-393,350	-200,000	0,015	0,179
-392,336	-200,000	0,044	0,162
-391,321	-66,146	0,062	-0,018
-390,306	800,000	0,032	-0,073
-389,292	188,870	0,044	0,047
-388,277	335,963	-0,092	-0,128
-387,263	484,322	0,029	0,048
-386,248	-200,000	-0,000	-0,040
-385,233	-200,000	-0,000	0,021
-384,219	87,986	-0,120	0,095
-383,204	18,509	-0,036	-0,021
-382,190	49,617	-0,060	0,040
-381,175	248,377	-0,070	-0,085
-380,160	-169,585	0,231	0,006
-379,146	-200,000	0,000	0,177
-378,131	-163,574	0,125	-0,004
-377,117	280,011	0,100	-0,128
-376,102	800,000	0,019	0,040
-375,088	401,304	-0,132	-0,199
-374,073	800,000	-0,012	-0,029
-373,058	-49,362	-0,016	-0,005
-372,044	800,000	0,006	-0,018
-371,029	-200,000	-0,016	0,104
-370,015	49,971	0,064	-0,043
-369,000	229,196	-0,063	0,074
-367,985	800,000	-0,068	-0,146
-366,971	48,068	-0,048	-0,032
-365,956	-153,029	0,152	0,008
-364,942	-8,953	0,117	-0,056
-363,927	156,984	-0,061	0,060
-362,912	-200,000	-0,011	0,044
-361,898	-29,011	-0,054	-0,022
-360,883	386,513	-0,052	-0,077
-359,869	-200,000	0,011	-0,173
-358,854	284,881	0,097	0,125
-357,839	-69,078	0,138	0,038
-356,825	589,899	-0,053	0,093
-355,810	-12,110	-0,081	0,038
-354,796	603,955	0,049	0,088
-353,781	-103,209	0,054	0,009
-352,766	800,000	-0,024	-0,051
-351,752	135,379	-0,059	0,055
-350,737	-23,745	-0,070	-0,030
-349,723	-200,000	0,015	0,122
-348,708	-200,000	-0,012	0,118
-347,693	273,496	-0,067	-0,084
-346,679	44,399	0,058	-0,038
-345,664	800,000	0,023	-0,054
-344,650	535,976	-0,026	-0,045
-343,635	-200,000	0,022	-0,116
-342,620	-0,951	0,082	-0,041
-341,606	-200,000	0,024	0,105
-340,591	-200,000	-0,040	0,157
-339,577	-114,103	-0,107	0,015
-338,562	21,595	-0,069	0,040
-337,548	800,000	-0,003	0,006
-336,533	-200,000	-0,003	0,043
-335,518	-34,565	-0,053	-0,021
-334,504	58,641	0,106	0,074
-333,489	530,166	0,033	0,055
-332,475	-200,000	-0,017	-0,098
-331,460	800,000	0,059	-0,166
-330,445	-200,000	-0,008	-0,188
-329,431	338,447	-0,051	-0,071
-328,416	-59,456	0,112	-0,034
-327,402	-200,000	-0,022	0,089
-326,387	-200,000	0,001	0,058
-325,372	-200,000	0,006	0,113
-324,358	800,000	-0,030	0,093
-323,343	164,494	0,117	0,117
-322,329	-101,997	0,008	-0,001
-321,314	420,963	0,046	0,071
-320,299	-106,667	-0,081	0,013
-319,285	800,000	0,020	-0,042
-318,270	26,862	0,040	0,024
-317,256	22,177	0,103	0,060
-316,241	36,719	-0,113	0,071
-315,226	-147,733	0,100	0,006
-314,212	-124,295	0,128	0,014
-313,197	83,854	0,021	0,017
-312,183	-3,613	0,089	0,044
-311,168	361,560	-0,039	-0,057
-310,153	-200,000	0,022	0,097
-309,139	779,186	-0,059	-0,116
-308,124	546,772	0,018	0,031
-307,110	-200,000	0,007	0,121
-306,095	800,000	-0,031	0,096
-305,080	800,000	-0,008	-0,020
-304,066	271,344	0,094	-0,119
-303,051	-200,000	-0,011	0,073
-302,037	-200,000	0,012	0,103
-301,022	755,976	-0,014	0,027
-300,008	-200,000	-0,041	0,139
-298,993	-2,015	0,089	-0,045
-297,978	44,812	0,096	-0,063
-296,964	649,342	-0,042	0,077
-295,949	-94,860	0,113	-0,022
-294,935	-118,935	0,035	0,004
-293,920	-8,578	-0,093	0,044
-292,905	-5,636	0,096	0,046
-291,891	-200,000	0,026	-0,097
-290,876	135,981	0,051	0,048
-289,862	800,000	-0,034	0,094
-288,847	5,425	-0,085	-0,045
-287,832	800,000	0,043	-0,127
-286,818	42,454	-0,050	0,032
-285,803	-31,242	0,093	-0,037
-284,789	-89,807	0,052	0,011
-283,774	-71,874	-0,108	-0,028
-282,759	449,949	0,025	-0,040
-281,745	-126,089	-0,061	0,006
-280,730	-200,000	-0,008	-0,038
-279,716	-106,174	-0,073	0,012
-278,701	40,803	-0,142	-0,091
-277,686	80,465	-0,066	0,051
-276,672	800,000	0,026	-0,076
-275,657	177,016	-0,059	0,061
-274,643	292,496	0,073	-0,095
-273,628	-200,000	0,026	-0,097
-272,613	254,108	0,136	-0,166
-271,599	-200,000	0,026	0,135
-270,584	20,934	0,107	-0,062
-269,570	-200,000	-0,035	0,119
-268,555	800,000	0,046	-0,090
-267,540	-200,000	-0,002	-0,127
-266,526	800,000	-0,013	-0,039
-265,511	-200,000	0,009	0,123
-264,497	406,089	0,041	0,062
-263,482	482,535	-0,019	0,031
-262,467	130,735	-0,047	0,043
-261,453	228,011	-0,053	-0,061
-260,438	56,344	-0,053	-0,037
-259,424	-200,000	-0,015	-0,120
-258,409	15,849	-0,068	-0,038
-257,395	-200,000	0,012	-0,059
-256,380	-52,196	-0,085	0,028
-255,365	-200,000	-0,011	-0,078
-254,351	-120,831	0,018	-0,002
-253,336	-104,806	-0,154	-0,025
-252,322	-200,000	0,009	0,052
-251,307	-3,132	0,092	-0,046
-250,292	55,918	-0,078	0,054
-249,278	-82,506	-0,094	-0,021
-248,263	11,852	0,045	-0,025
-247,249	-97,471	-0,051	-0,009
-246,234	-125,929	-0,107	0,011
-245,219	412,144	-0,109	-0,165
-244,205	800,000	-0,020	-0,052
-243,190	-200,000	-0,052	-0,210
-242,176	-142,244	0,068	0,005
-241,161	-200,000	-0,021	0,108
-240,146	-104,299	-0,080	0,013
-239,132	800,000	-0,036	0,100
-238,117	584,640	-0,064	-0,111
-237,103	44,790	-0,093	-0,061
-236,088	-50,490	-0,235	-0,078
-235,073	-153,219	0,045	-0,002
-234,059	332,564	-0,038	-0,053
-233,044	40,057	0,070	0,045
-232,030	-14,636	-0,122	-0,056
-231,015	-200,000	0,064	-0,241
-230,000	-61,053	-0,122	-0,036
-228,986	800,000	-0,026	0,070
-227,971	347,052	0,064	0,089
-226,957	10,263	0,043	0,023
-225,942	800,000	0,014	0,032
-224,927	-200,000	-0,007	0,115
-223,913	-197,211	-0,087	-0,000
-222,898	800,000	-0,015	0,029
-221,884	800,000	-0,046	0,142
-220,869	225,417	0,100	0,115
-219,855	-200,000	-0,036	0,181
-218,840	-200,000	-0,006	-0,071
-217,825	487,720	-0,052	0,085
-216,811	800,000	-0,049	0,145
-215,796	13,630	0,036	-0,020
-214,782	272,643	0,041	0,051
-213,767	-170,503	0,136	0,003
-212,752	204,921	0,136	-0,150
-211,738	-200,000	-0,007	-0,046
-210,723	32,443	-0,107	-0,065
-209,709	-10,965	-0,138	0,064
-208,694	171,219	-0,050	-0,051
-207,679	686,116	-0,037	-0,069
-206,665	486,912	0,030	0,048
-205,650	-182,882	0,048	-0,001
-204,636	191,629	-0,072	-0,077
-203,621	264,684	-0,087	-0,107
-202,606	261,207	0,020	-0,025
-201,592	128,928	-0,051	0,046
-200,577	-120,090	0,049	-0,006
-199,563	-200,000	0,005	-0,100
-198,548	777,046	0,065	0,126
-197,533	-114,189	0,051	0,007
-196,519	-200,000	-0,027	-0,137
-195,504	44,584	-0,097	0,063
-194,490	800,000	0,002	-0,005
-193,475	-200,000	-0,003	-0,073
-192,460	-150,106	0,113	0,006
-191,446	27,204	-0,070	0,042
-190,431	3,794	0,055	0,029
-189,417	785,439	0,038	0,074
-188,402	327,473	0,048	0,066
-187,387	-0,869	-0,138	0,069
-186,373	-200,000	-0,028	-0,097
-185,358	-139,711	0,113	0,008
-184,344	-8,123	0,120	0,057
-183,329	-122,418	0,038	0,004
-182,315	525,149	0,106	0,177
-181,300	-200,000	0,012	0,057
-180,285	53,334	0,036	0,025
-179,271	800,000	-0,049	-0,103
-178,256	-200,000	0,010	-0,109
-177,242	218,805	-0,047	0,054
-176,227	215,604	-0,061	-0,069
-175,212	234,553	0,100	0,117
-174,198	30,293	-0,112	-0,068
-173,183	423,317	0,049	0,075
-172,169	30,863	0,076	0,046
-171,154	-200,000	0,019	-0,168
-170,139	-16,630	0,019	0,008
-169,125	766,494	0,020	-0,039
-168,110	63,403	-0,051	-0,037
-167,096	136,299	-0,030	-0,027
-166,081	399,652	0,031	-0,046
-165,066	-200,000	-0,005	-0,042
-164,052	182,111	0,053	0,055
-163,037	800,000	0,042	0,127
-162,023	129,459	0,112	0,101
-161,008	800,000	0,024	-0,062
-159,993	71,040	0,033	-0,024
-158,979	-48,213	0,020	0,007
-157,964	-0,403	0,125	0,063
-156,950	238,271	-0,058	0,068
-155,935	73,897	0,111	-0,083
-154,920	-200,000	-0,004	0,040
-153,906	278,110	0,071	0,090
-152,891	39,693	0,034	0,022
-151,877	-200,000	-0,016	-0,095
-150,862	109,027	0,165	-0,140
-149,847	565,461	-0,063	-0,109
-148,833	98,311	-0,064	-0,052
-147,818	-200,000	-0,003	0,095
-146,804	-200,000	0,001	0,066
-145,789	-49,101	0,129	-0,043
-144,775	-200,000	-0,002	0,108
-143,760	132,465	0,050	0,045
-142,745	516,380	0,047	-0,077
-141,731	31,373	-0,110	0,066
-140,716	-200,000	-0,014	0,058
-139,702	5,995	0,019	-0,010
-138,687	-65,992	0,054	0,015
-137,672	-75,220	-0,052	-0,013
-136,658	-34,010	-0,057	-0,022
-135,643	-40,642	-0,189	0,069
-134,629	-110,900	-0,014	0,002
-133,614	-113,296	0,126	0,017
-132,599	35,772	0,158	-0,098
-131,585	199,887	-0,080	0,087
-130,570	228,836	0,082	0,095
-129,556	800,000	-0,039	0,097
-128,541	-200,000	-0,007	0,043
-127,526	-200,000	-0,002	-0,026
-126,512	800,000	-0,019	0,056
-125,497	-10,806	-0,029	0,013
-124,483	-27,603	0,143	0,058
-123,468	800,000	-0,062	0,145
-122,453	-73,401	-0,040	-0,010
-121,439	-200,000	-0,019	0,087
-120,424	-200,000	-0,009	-0,074
-119,410	800,000	-0,038	0,076
-118,395	-200,000	0,005	-0,023
-117,380	344,776	-0,071	0,099
-116,366	-70,002	0,090	-0,024
-115,351	800,000	-0,027	-0,059
-114,337	-111,754	-0,035	-0,005
-113,322	-25,262	0,030	0,012
-112,307	-200,000	-0,010	-0,038
-111,293	223,931	-0,006	0,007
-110,278	800,000	-0,017	0,046
-109,264	4,818	0,026	0,014
-108,249	-163,782	-0,128	-0,004
-107,234	-46,613	-0,052	-0,018
-106,220	159,298	-0,060	-0,059
-105,205	-144,681	0,089	0,006
-104,191	208,025	0,108	0,119
-103,176	-200,000	0,038	0,137
-102,162	-125,697	-0,102	0,011
-101,147	-117,187	0,062	0,008
-100,132	800,000	0,037	0,086
-99,118	-43,952	-0,124	-0,044
-98,103	442,945	0,066	-0,102
-97,089	289,278	-0,072	0,092
-96,074	-17,769	-0,088	0,039
-95,059	63,147	-0,114	-0,080
-94,045	800,000	-0,035	-0,092
-93,030	220,185	-0,071	-0,081
-92,016	-166,404	-0,184	-0,005
-91,001	800,000	-0,005	0,015
-89,986	800,000	0,027	-0,059
-88,972	800,000	0,015	0,041
-87,957	-200,000	-0,041	-0,237
-86,943	800,000	-0,003	-0,009
-85,928	-43,881	0,057	-0,020
-84,913	175,511	-0,063	-0,065
-83,899	618,175	0,035	0,062
-82,884	-200,000	-0,026	-0,116
-81,870	212,464	-0,151	0,169
-80,855	325,528	0,074	0,101
-79,840	-65,135	0,055	-0,016
-78,826	116,218	0,045	-0,039
-77,811	269,274	-0,036	-0,045
-76,797	221,501	-0,046	0,052
-75,782	800,000	0,077	-0,163
-74,767	800,000	0,054	-0,111
-73,753	202,402	-0,095	0,104
-72,738	53,481	-0,117	-0,079
-71,724	-200,000	0,014	-0,199
-70,709	-200,000	-0,004	0,013
-69,694	47,116	0,036	-0,024
-68,680	211,353	-0,032	0,035
-67,665	699,791	0,094	0,176
-66,651	111,749	-0,156	0,133
-65,636	800,000	0,039	-0,097
-64,622	-200,000	-0,004	-0,057
-63,607	-163,707	-0,041	-0,001
-62,592	81,570	0,067	0,051
-61,578	-89,049	-0,090	-0,019
-60,563	-200,000	0,016	0,141
-59,549	-132,006	0,111	0,010
-58,534	41,185	-2,071	-1,319
-57,519	436,084	-1,231	-1,897
-56,505	-200,000	-0,299	-4,169
-55,490	800,000	0,898	1,789
-54,476	800,000	5,156	11,061
-53,461	-200,000	21,597	342,517
-52,446	800,000	762,714	2341,195
-51,432	546,881	1660,777	2814,447
-50,417	71,347	1656,983	1211,843
-49,403	17,227	1530,157	854,193
-48,388	11,232	1454,212	782,877
-47,373	19,300	1445,892	816,983
-46,359	14,765	1434,729	789,142
-45,344	9,534	1430,699	762,048
-44,330	9,446	1429,019	760,703
-43,315	9,470	1426,918	759,667
-42,300	9,495	1425,221	758,852
-41,286	9,498	1423,926	758,148
-40,271	9,445	1422,915	757,330
-39,257	9,486	1421,600	756,795
-38,242	9,529	1420,391	756,325
-37,227	9,491	1419,412	755,593
-36,213	9,530	1418,056	755,023
-35,198	9,498	1417,047	754,304
-34,184	9,546	1416,127	754,012
-33,169	9,431	1414,586	752,619
-32,154	9,517	1413,566	752,455
-31,140	9,532	1412,309	751,823
-30,125	9,544	1411,156	751,236
-29,111	9,484	1410,089	750,357
-28,096	9,561	1408,894	750,052
-27,082	9,411	1407,627	748,647
-26,067	9,432	1406,740	748,245
-25,052	9,462	1405,679	747,789
-24,038	9,488	1404,581	747,299
-23,023	9,448	1403,832	746,682
-22,009	9,479	1402,588	746,137
-20,994	9,428	1401,814	745,456
-19,979	9,466	1400,819	745,073
-18,965	9,446	1399,753	744,387
-17,950	9,405	1399,050	743,791
-16,936	9,413	1397,938	743,206
-15,921	9,326	1397,155	742,358
-14,906	9,394	1396,058	742,062
-13,892	9,383	1395,154	741,499
-12,877	9,398	1394,449	741,168
-11,863	9,396	1393,680	740,718
-10,848	9,360	1392,479	739,882
-9,833	9,267	1391,724	739,022
-8,819	9,249	1390,861	738,454
-7,804	9,258	1389,976	737,995
-6,790	9,246	1388,952	737,365
-5,775	9,280	1387,872	736,921
-4,760	9,265	1386,899	736,307
-3,746	9,274	1386,009	735,846
-2,731	9,299	1385,017	735,405
-1,717	9,303	1384,200	734,959
-0,702	9,257	1382,588	733,864
0,313	13,356	1294,938	706,009
1,327	29,539	686,240	410,633
2,342	45,945	118,474	77,159
3,356	-0,783	16,453	8,192
4,371	3,327	3,669	1,877
5,386	-21,884	1,204	0,514
6,400	800,000	0,264	0,616
7,415	-35,980	-0,268	-0,102
8,429	-29,674	-0,286	-0,115
9,444	284,835	-0,196	-0,249
10,459	-53,517	-0,150	0,048
11,473	63,963	-0,299	-0,211
12,488	71,412	-0,210	-0,153
13,502	4,681	-0,145	-0,075
14,517	59,351	-0,424	-0,294
15,531	74,941	-0,332	-0,246
16,546	-3,951	-0,287	-0,139
17,561	182,799	-0,255	-0,265
18,575	-152,464	-0,231	-0,011
19,590	386,684	-0,156	-0,228
20,604	-36,665	-0,233	-0,088
21,619	55,240	-0,396	-0,269
22,634	-10,616	-0,468	-0,217
23,648	50,095	-0,455	-0,302
24,663	4,467	-0,439	-0,226
25,677	-157,740	-0,409	-0,017
26,692	2,469	-0,274	-0,139
27,707	132,109	-0,251	-0,227
28,721	123,321	-0,402	-0,354
29,736	98,000	-0,424	-0,343
30,750	-34,173	-0,431	-0,166
31,765	103,901	-0,322	-0,266
32,780	177,438	-0,306	-0,314
33,794	454,005	-0,298	-0,465
34,809	338,191	-0,284	-0,389
35,823	101,011	-0,293	-0,239
36,838	16,448	-0,405	-0,224
37,853	164,778	-0,272	-0,270
38,867	3,169	-0,554	-0,282
39,882	99,120	-0,327	-0,265
40,896	99,419	-0,289	-0,235
41,911	86,197	-0,336	-0,260
42,926	73,328	-0,298	-0,219
43,940	-26,318	-0,499	-0,205
44,955	52,126	-0,368	-0,246
45,969	39,933	-0,294	-0,185
46,984	192,384	-0,341	-0,362
47,999	-107,982	-0,300	-0,045
49,013	6,268	-0,434	-0,225
50,028	-8,059	-0,259	-0,122
51,042	29,764	-0,322	-0,192
52,057	77,395	-0,392	-0,292
53,071	188,625	-0,334	-0,351
54,086	-170,376	-0,280	0,007
55,101	108,386	-0,340	-0,284
56,115	107,016	-0,295	-0,246
57,130	-17,591	-0,315	-0,139
58,144	-5,361	-0,405	-0,195
59,159	211,253	-0,258	-0,285
60,174	169,714	-0,329	-0,330
61,188	103,161	-0,350	-0,288
62,203	276,489	-0,203	-0,253
63,217	128,014	-0,356	-0,318
64,232	44,321	-0,368	-0,237
65,247	139,210	-0,255	-0,235
66,261	155,222	-0,363	-0,350
67,276	117,211	-0,391	-0,337
68,290	169,747	-0,302	-0,302
69,305	175,136	-0,262	-0,266
70,320	-137,539	-0,332	-0,026
71,334	70,630	-0,253	-0,183
72,349	21,226	-0,266	-0,151
73,363	-0,263	-0,306	-0,152
74,378	47,863	-0,261	-0,171
75,393	-19,975	-0,304	-0,131
76,407	114,462	-0,233	-0,199
77,422	-26,638	-0,255	-0,104
78,436	-11,580	-0,299	-0,137
79,451	19,001	-0,269	-0,150
80,466	31,124	-0,289	-0,173
81,480	52,202	-0,340	-0,226
82,495	53,885	-0,293	-0,197
83,509	271,070	-0,236	-0,291
84,524	-62,003	-0,288	-0,084
85,539	15,236	-0,260	-0,142
86,553	-110,827	-0,304	-0,043
87,568	762,153	-0,117	-0,224
88,582	70,070	-0,367	-0,265
89,597	34,670	-0,295	-0,180
90,611	141,908	-0,309	-0,287
91,626	37,612	-0,127	-0,079
92,641	-72,230	-0,309	-0,080
93,655	-58,559	-0,350	-0,106
94,670	81,117	-0,314	-0,237
95,684	-10,556	-0,274	-0,127
96,699	133,451	-0,221	-0,200
97,714	-169,195	-0,361	0,009
98,728	-59,489	-0,219	-0,065
99,743	-43,952	-0,137	-0,048
100,757	-178,637	-0,231	-0,004
101,772	-77,477	-0,247	-0,059
102,787	66,351	-0,391	-0,277
103,801	46,897	-0,294	-0,191
104,816	-67,576	-0,294	-0,080
105,830	-200,000	-0,020	-0,094
106,845	18,930	-0,126	-0,071
107,860	158,637	-0,243	-0,236
108,874	55,679	-0,327	-0,221
109,889	24,582	-0,244	-0,140
110,903	-10,745	-0,338	-0,155
111,918	37,597	-0,265	-0,164
112,933	243,919	-0,208	-0,244
113,947	26,461	-0,241	-0,140
114,962	85,607	-0,165	-0,127
115,976	-74,772	-0,364	-0,091
116,991	169,676	-0,260	-0,260
118,006	-27,298	-0,297	-0,120
119,020	65,125	-0,237	-0,167
120,035	50,306	-0,228	-0,150
121,049	63,071	-0,198	-0,138
122,064	33,053	-0,245	-0,148
123,079	134,543	-0,131	-0,119
124,093	357,775	-0,151	-0,210
125,108	235,800	-0,236	-0,272
126,122	13,103	-0,356	-0,192
127,137	72,805	-0,244	-0,177
128,151	64,002	-0,198	-0,139
129,166	147,693	-0,215	-0,202
130,181	212,406	-0,222	-0,245
131,195	76,528	-0,265	-0,195
132,210	319,395	-0,170	-0,226
133,224	46,312	-0,243	-0,157
134,239	531,160	-0,123	-0,204
135,254	77,655	-0,184	-0,137
136,268	83,983	-0,205	-0,156
137,283	-103,385	-0,202	0,033
138,297	169,836	-0,219	-0,219
139,312	800,000	-0,113	-0,320
140,327	479,642	-0,209	-0,331
141,341	-56,020	-0,246	-0,076
142,356	9,671	-0,280	-0,147
143,370	27,984	-0,266	-0,156
144,385	321,651	-0,220	-0,293
145,400	77,810	-0,361	-0,268
146,414	64,941	-0,354	-0,248
147,429	74,417	-0,310	-0,227
148,443	124,706	-0,202	-0,177
149,458	162,177	-0,232	-0,226
150,473	-72,202	-0,214	-0,055
151,487	166,008	-0,201	-0,198
152,502	224,524	-0,235	-0,264
153,516	-94,882	-0,205	-0,038
154,531	470,479	-0,102	-0,159
155,546	800,000	-0,120	-0,243
156,560	309,799	-0,215	-0,280
157,575	72,622	-0,245	-0,178
158,589	141,782	-0,254	-0,234
159,604	-102,695	-0,369	-0,061
160,619	48,182	-0,293	-0,190
161,633	125,157	-0,255	-0,223
162,648	470,515	-0,151	-0,237
163,662	143,944	-0,193	-0,179
164,677	9,557	-0,189	-0,099
165,692	-116,096	-0,135	0,017
166,706	81,861	-0,223	-0,168
167,721	137,012	-0,202	-0,184
168,735	173,117	-0,189	-0,189
169,750	59,272	-0,260	-0,178
170,764	280,345	-0,174	-0,217
171,779	50,715	-0,156	-0,102
172,794	-94,604	-0,347	-0,065
173,808	513,365	-0,136	-0,221
174,823	52,426	-0,260	-0,172
175,837	69,090	-0,232	-0,166
176,852	28,619	-0,259	-0,152
177,867	-39,572	-0,145	-0,052
178,881	249,978	-0,137	-0,162
179,896	-70,595	-0,212	-0,055
180,910	438,243	-0,177	-0,269
181,925	72,720	-0,184	-0,133
182,940	173,152	-0,232	-0,232
183,954	139,188	-0,144	-0,132
184,969	374,073	-0,123	-0,174
185,983	264,303	-0,125	-0,152
186,998	-165,107	-0,271	0,008
188,013	1,879	-0,174	-0,087
189,027	-18,495	-0,297	-0,128
190,042	800,000	-0,072	-0,214
191,056	39,823	-0,277	-0,172
192,071	800,000	-0,108	-0,227
193,086	190,952	-0,182	-0,190
194,100	800,000	-0,107	-0,243
195,115	-19,938	-0,121	-0,051
196,129	292,308	-0,205	-0,259
197,144	384,338	-0,183	-0,262
198,159	494,634	-0,153	-0,244
199,173	369,289	-0,154	-0,217
200,188	-136,636	-0,233	0,018
201,202	-36,177	-0,165	-0,061
202,217	-32,869	-0,267	-0,102
203,232	158,459	-0,167	-0,160
204,246	303,846	-0,163	-0,210
205,261	72,102	-0,127	-0,091
206,275	282,178	-0,155	-0,193
207,290	125,252	-0,164	-0,143
208,304	-151,939	-0,199	-0,010
209,319	800,000	-0,060	-0,147
210,334	448,018	-0,150	-0,229
211,348	-10,257	-0,300	-0,138
212,363	517,381	-0,134	-0,218
213,377	396,576	-0,199	-0,288
214,392	-51,392	-0,195	-0,063
215,407	128,406	-0,061	-0,054
216,421	800,000	-0,111	-0,238
217,436	322,054	-0,172	-0,227
218,450	478,992	-0,179	-0,282
219,465	-48,718	-0,212	-0,070
220,480	-83,720	-0,181	-0,040
221,494	735,850	-0,120	-0,224
222,509	-44,512	-0,251	-0,086
223,523	98,838	-0,067	-0,053
224,538	26,637	-0,185	-0,107
225,553	94,671	-0,260	-0,204
226,567	154,597	-0,204	-0,194
227,582	237,763	-0,235	-0,270
228,596	-200,000	-0,020	-0,140
229,611	706,286	-0,087	-0,159
230,626	19,998	-0,259	-0,144
231,640	380,002	-0,104	-0,147
232,655	202,677	-0,135	-0,144
233,669	55,028	-0,286	-0,191
234,684	183,709	-0,172	-0,176
235,699	-136,735	-0,187	-0,015
236,713	209,436	-0,148	-0,161
237,728	364,513	-0,078	-0,109
238,742	463,372	-0,108	-0,167
239,757	-35,710	-0,134	-0,050
240,772	41,923	-0,147	-0,092
241,786	115,491	-0,190	-0,160
242,801	159,450	-0,168	-0,161
243,815	221,682	-0,129	-0,143
244,830	-43,835	-0,190	-0,066
245,844	-80,752	-0,236	-0,054
246,859	-9,807	-0,187	-0,085
247,874	286,007	-0,144	-0,180
248,888	-8,733	-0,283	-0,131
249,903	113,929	-0,174	-0,146
250,917	16,343	-0,132	-0,072
251,932	800,000	-0,113	-0,241
252,947	-7,129	-0,196	-0,091
253,961	-77,394	-0,193	-0,046
254,976	638,859	-0,131	-0,230
255,990	126,423	-0,192	-0,168
257,005	765,848	-0,098	-0,184
258,020	131,248	-0,096	-0,085
259,034	10,047	-0,154	0,080
260,049	-4,063	-0,330	-0,157
261,063	75,630	-0,232	-0,169
262,078	800,000	-0,062	-0,120
263,093	78,592	-0,125	-0,092
264,107	-29,867	-0,213	-0,083
265,122	-200,000	-0,030	-0,132
266,136	23,150	-0,113	0,064
267,151	-200,000	-0,075	-0,245
268,166	-200,000	-0,015	-0,198
269,180	482,771	-0,160	-0,252
270,195	-55,667	-0,151	-0,046
271,209	-6,947	-0,256	-0,119
272,224	248,221	-0,161	-0,188
273,239	-36,745	-0,253	-0,093
274,253	58,315	-0,142	-0,096
275,268	248,401	-0,149	-0,174
276,282	-26,025	-0,195	-0,079
277,297	234,066	-0,210	-0,238
278,312	23,279	-0,167	-0,094
279,326	22,566	-0,124	-0,070
280,341	176,984	-0,176	-0,176
281,355	-16,093	-0,197	-0,086
282,370	-22,940	-0,219	-0,090
283,384	326,034	-0,093	-0,122
284,399	92,297	-0,235	-0,182
285,414	12,147	-0,118	-0,062
286,428	255,691	-0,149	-0,176
287,443	-40,009	-0,210	-0,075
288,457	136,561	-0,130	-0,117
289,472	-27,600	-0,121	-0,048
290,487	53,262	-0,172	-0,113
291,501	306,419	-0,167	-0,215
292,516	-134,939	-0,132	-0,011
293,530	-96,519	-0,146	-0,026
294,545	113,908	-0,028	-0,023
295,560	199,852	-0,091	-0,096
296,574	34,538	-0,252	-0,151
297,589	-200,000	-0,023	-0,103
298,603	800,000	-0,100	-0,239
299,618	413,680	-0,115	-0,169
300,633	361,185	-0,142	-0,195
301,647	-200,000	-0,016	-0,062
302,662	129,304	-0,088	-0,077
303,676	326,491	-0,142	-0,187
304,691	286,736	-0,211	-0,262
305,706	343,129	-0,188	-0,253
306,720	213,581	-0,120	-0,131
307,735	113,680	-0,189	-0,158
308,749	220,764	-0,117	-0,129
309,764	154,472	-0,095	-0,090
310,779	237,154	-0,097	-0,110
311,793	-113,004	-0,147	-0,020
312,808	273,687	-0,150	-0,182
313,822	529,046	-0,101	-0,164
314,837	99,954	-0,173	-0,138
315,852	65,857	-0,095	-0,066
316,866	633,336	-0,140	-0,245
317,881	-7,556	-0,062	-0,029
318,895	636,511	-0,082	-0,143
319,910	-200,000	-0,030	-0,157
320,925	108,989	-0,146	-0,120
321,939	800,000	-0,073	-0,197
322,954	-68,954	-0,209	-0,055
323,968	6,152	-0,120	0,061
324,983	229,662	-0,094	0,105
325,997	81,569	-0,240	-0,178
327,012	-200,000	-0,050	-0,154
328,027	-75,510	-0,207	-0,050
329,041	22,353	-0,078	-0,044
330,056	-48,462	-0,145	-0,048
331,070	430,325	-0,091	-0,135
332,085	-153,570	-0,108	0,005
333,100	269,075	-0,111	-0,134
334,114	201,049	-0,168	-0,178
335,129	454,938	-0,082	-0,125
336,143	-56,213	-0,203	-0,062
337,158	-200,000	-0,024	-0,078
338,173	-98,562	-0,108	-0,019
339,187	195,230	-0,136	0,141
340,202	248,311	-0,135	-0,157
341,216	-64,789	-0,172	-0,047
342,231	31,651	-0,132	-0,077
343,246	800,000	-0,112	-0,225
344,260	292,536	-0,118	-0,147
345,275	-2,534	-0,214	-0,102
346,289	-200,000	0,013	-0,143
347,304	134,948	-0,178	-0,158
348,319	31,401	-0,155	-0,091
349,333	71,301	-0,147	-0,104
350,348	800,000	-0,110	-0,270
351,362	96,935	-0,111	-0,087
352,377	210,855	-0,095	-0,102
353,392	31,548	-0,133	-0,078
354,406	-89,992	-0,094	-0,019
355,421	207,160	1306,693	1394,738
356,435	159,349	1466,406	1395,205
