DTS Sentinel unit serial number:	SN410029Multiplexer serial number:	ORYXHardware model number:	OX2-SRSoftware version number:	ORYX F/W v4,00 Oryx Data Collector v3.7.2.0data status	okinstallation	B3 Nyhavnadifferential loss correction	single-endedforward channel	channel 1reverse channel	N/Adate	2023/12/03time	18:22:30forward acquisition time	300,00reverse acquisition time	0,00gamma	499,1914k internal	0,3198k external	0,3198temperature offset calibration	1,0000default loss term (dB/km)	0,3820temperature slope calibration	1,0000multiplexer offset coefficient	1,0000multiplexer slope coefficient	1,0000fibre end	0,00T internal ref (°C)	14,62T ext. ref 1 (°C)	-0,73T ext. ref 2 (°C)	-0,75length (m)	temperature (°C)	Stokes	anti-Stokes-744,400	231,396	-0,185	-0,221
-743,385	-200,000	0,025	0,266
-742,371	435,554	-0,202	-0,320
-741,356	800,000	0,113	0,280
-740,342	209,952	-0,103	-0,118
-739,327	-200,000	-0,030	0,375
-738,312	208,178	-0,292	-0,332
-737,298	-200,000	0,032	0,280
-736,283	149,634	-0,268	-0,265
-735,269	-200,000	0,024	0,379
-734,254	8,827	-0,316	-0,173
-733,239	800,000	-0,058	0,126
-732,225	171,330	-0,184	-0,192
-731,210	-200,000	0,012	0,061
-730,196	-83,047	-0,088	0,020
-729,181	339,324	-0,024	-0,035
-728,167	800,000	0,045	-0,123
-727,152	20,262	0,091	0,054
-726,137	-31,099	-0,065	-0,027
-725,123	-20,475	-0,060	-0,027
-724,108	629,797	-0,034	0,063
-723,094	137,435	-0,119	-0,113
-722,079	800,000	0,040	-0,123
-721,064	276,662	-0,103	-0,133
-720,050	-12,425	-0,017	0,008
-719,035	-126,846	-0,083	0,009
-718,021	800,000	0,015	-0,037
-717,006	545,795	-0,044	-0,076
-715,991	96,895	-0,033	-0,027
-714,977	128,409	-0,049	-0,046
-713,962	32,961	0,099	-0,062
-712,948	-200,000	-0,014	-0,099
-711,933	214,371	0,071	-0,082
-710,918	800,000	-0,020	0,061
-709,904	39,214	-0,152	0,099
-708,889	-50,192	0,137	0,047
-707,875	87,538	-0,061	0,049
-706,860	800,000	-0,011	0,032
-705,845	623,322	0,044	0,081
-704,831	800,000	0,060	0,169
-703,816	99,995	-0,125	-0,105
-702,802	-91,395	0,102	0,021
-701,787	800,000	-0,043	-0,123
-700,772	-200,000	0,009	-0,055
-699,758	50,043	-0,108	-0,074
-698,743	-200,000	0,031	0,168
-697,729	27,079	0,044	0,027
-696,714	3,183	0,007	0,004
-695,699	-55,493	-0,067	-0,022
-694,685	-200,000	-0,001	0,069
-693,670	-111,574	0,039	0,006
-692,656	-200,000	0,002	0,049
-691,641	-105,649	0,107	-0,017
-690,627	62,677	-0,061	-0,044
-689,612	19,066	0,122	-0,071
-688,597	-46,310	-0,072	-0,026
-687,583	188,671	-0,074	-0,081
-686,568	229,686	-0,062	-0,073
-685,554	648,286	-0,068	-0,127
-684,539	447,024	0,069	-0,110
-683,524	-67,448	-0,050	-0,014
-682,510	39,928	0,078	-0,051
-681,495	-102,291	-0,284	-0,049
-680,481	-88,194	-0,188	-0,041
-679,466	-55,520	-0,174	-0,056
-678,451	60,771	0,107	0,077
-677,437	544,155	0,041	0,072
-676,422	12,038	0,110	-0,061
-675,408	-200,000	0,000	0,057
-674,393	22,625	0,050	-0,030
-673,378	71,743	-0,060	-0,045
-672,364	292,168	-0,018	-0,024
-671,349	-200,000	-0,009	-0,043
-670,335	58,063	-0,025	-0,018
-669,320	-69,272	-0,020	-0,005
-668,305	-200,000	-0,011	0,066
-667,291	-134,585	0,046	0,004
-666,276	800,000	-0,037	-0,081
-665,262	-200,000	-0,016	-0,070
-664,247	333,613	-0,035	0,050
-663,232	-200,000	0,019	-0,066
-662,218	36,899	-0,028	-0,018
-661,203	800,000	-0,019	-0,048
-660,189	33,849	-0,050	0,032
-659,174	-200,000	-0,038	-0,125
-658,159	-109,048	-0,049	-0,007
-657,145	800,000	0,013	0,027
-656,130	134,813	-0,039	-0,036
-655,116	398,556	0,005	-0,007
-654,101	269,979	0,047	-0,060
-653,086	179,202	0,046	0,049
-652,072	170,235	0,137	-0,143
-651,057	-77,016	-0,038	-0,009
-650,043	197,800	-0,045	-0,050
-649,028	221,397	-0,036	0,042
-648,014	572,863	0,051	0,090
-646,999	800,000	-0,044	0,130
-645,984	8,578	0,163	0,089
-644,970	-11,225	-0,047	-0,022
-643,955	-200,000	-0,013	-0,059
-642,941	92,342	-0,115	0,094
-641,926	184,312	0,133	-0,143
-640,911	-200,000	-0,007	0,134
-639,897	-99,464	-0,136	-0,025
-638,882	304,788	0,066	0,089
-637,868	-67,591	-0,163	-0,046
-636,853	800,000	0,107	0,234
-635,838	-16,121	-0,029	-0,014
-634,824	263,011	0,047	-0,059
-633,809	-200,000	0,002	0,104
-632,795	605,858	-0,005	0,008
-631,780	-200,000	-0,006	0,072
-630,765	-73,298	-0,177	-0,047
-629,751	-78,751	0,042	0,010
-628,736	-38,370	-0,088	-0,034
-627,722	64,688	0,014	0,010
-626,707	90,235	-0,116	-0,094
-625,692	-96,107	-0,045	0,009
-624,678	188,216	-0,087	0,095
-623,663	-200,000	-0,001	0,074
-622,649	41,240	-0,059	-0,038
-621,634	-99,510	-0,131	-0,024
-620,619	202,959	0,011	0,012
-619,605	26,746	0,099	0,060
-618,590	221,395	-0,008	0,009
-617,576	93,558	-0,039	0,032
-616,561	52,029	0,039	0,027
-615,546	-200,000	0,025	-0,100
-614,532	800,000	0,043	0,132
-613,517	441,158	0,035	0,055
-612,503	4,584	-0,037	-0,019
-611,488	-200,000	-0,028	0,132
-610,474	67,882	0,096	-0,071
-609,459	-200,000	0,022	-0,119
-608,444	-139,370	-0,091	0,007
-607,430	-111,433	0,019	-0,003
-606,415	-63,765	0,111	-0,033
-605,401	-200,000	0,021	0,116
-604,386	800,000	0,055	-0,128
-603,371	-25,759	0,022	-0,009
-602,357	263,198	0,106	0,134
-601,342	-6,102	-0,095	0,047
-600,328	-62,612	0,050	-0,015
-599,313	53,545	-0,084	0,058
-598,298	213,134	-0,060	0,069
-597,284	224,126	0,034	0,040
-596,269	265,209	-0,056	0,070
-595,255	-81,482	-0,108	0,026
-594,240	-72,400	-0,056	-0,015
-593,225	-200,000	0,022	-0,246
-592,211	-200,000	-0,019	-0,214
-591,196	800,000	-0,033	0,105
-590,182	380,746	-0,048	0,072
-589,167	-200,000	-0,018	0,143
-588,152	200,214	-0,051	-0,057
-587,138	295,053	-0,028	-0,037
-586,123	-143,300	-0,051	0,003
-585,109	800,000	-0,045	-0,127
-584,094	-200,000	0,026	0,171
-583,079	-46,177	-0,052	0,019
-582,065	-51,554	0,061	0,020
-581,050	-112,026	-0,035	-0,005
-580,036	-10,311	-0,105	-0,050
-579,021	241,386	-0,094	-0,113
-578,006	309,369	-0,035	0,047
-576,992	17,868	-0,099	0,057
-575,977	202,774	-0,040	0,045
-574,963	-21,935	0,163	0,071
-573,948	800,000	-0,015	0,039
-572,934	362,615	0,050	0,072
-571,919	-126,087	-0,065	-0,007
-570,904	580,438	-0,075	-0,134
-569,890	800,000	0,045	-0,130
-568,875	800,000	0,030	0,068
-567,861	-77,608	-0,092	0,023
-566,846	141,839	-0,050	0,048
-565,831	-135,820	-0,109	-0,009
-564,817	-200,000	0,018	0,155
-563,802	128,901	-0,106	-0,098
-562,788	-104,541	-0,110	0,018
-561,773	-106,291	-0,077	-0,012
-560,758	-39,666	0,174	-0,065
-559,744	-57,055	-0,064	0,020
-558,729	133,588	0,039	0,036
-557,715	77,317	-0,031	-0,024
-556,700	-91,050	-0,058	-0,012
-555,685	45,425	-0,084	-0,056
-554,671	484,694	0,081	-0,134
-553,656	-200,000	-0,027	-0,113
-552,642	-200,000	-0,014	-0,066
-551,627	-200,000	-0,007	0,053
-550,612	241,170	0,040	0,048
-549,598	597,468	0,045	-0,082
-548,583	-200,000	0,009	0,052
-547,569	-200,000	0,021	0,072
-546,554	-70,683	-0,044	0,012
-545,539	-129,289	0,072	0,007
-544,525	257,735	0,047	0,058
-543,510	176,542	0,040	-0,042
-542,496	9,354	-0,054	-0,029
-541,481	20,532	0,032	0,019
-540,466	456,183	0,054	-0,086
-539,452	29,291	-0,141	0,086
-538,437	-200,000	-0,030	0,125
-537,423	-200,000	-0,028	0,144
-536,408	99,802	-0,051	0,043
-535,393	-200,000	0,015	-0,103
-534,379	181,068	-0,091	-0,097
-533,364	800,000	0,025	-0,076
-532,350	-86,699	-0,126	-0,028
-531,335	142,308	0,091	-0,088
-530,321	-100,777	-0,024	0,004
-529,306	-122,909	0,059	-0,007
-528,291	68,816	0,036	-0,027
-527,277	157,283	-0,063	-0,063
-526,262	548,348	-0,026	-0,044
-525,248	34,264	0,038	0,024
-524,233	800,000	-0,075	0,162
-523,218	157,989	0,048	0,048
-522,204	800,000	-0,091	-0,195
-521,189	-37,511	0,092	-0,035
-520,175	10,691	0,105	-0,057
-519,160	699,816	-0,048	0,091
-518,145	-200,000	-0,027	0,111
-517,131	70,421	0,046	0,034
-516,116	-116,169	-0,133	0,018
-515,102	112,405	-0,048	-0,042
-514,087	800,000	-0,011	0,030
-513,072	9,573	-0,050	-0,027
-512,058	-200,000	0,003	0,027
-511,043	23,218	-0,089	0,052
-510,029	95,492	-0,037	-0,031
-509,014	-91,504	0,081	-0,016
-507,999	281,956	0,069	0,089
-506,985	800,000	0,008	0,019
-505,970	-36,844	-0,102	0,039
-504,956	-200,000	-0,076	-0,000
-503,941	76,890	-0,025	0,019
-502,926	303,857	-0,047	0,063
-501,912	800,000	0,009	-0,021
-500,897	-7,365	0,074	0,036
-499,883	46,463	-0,044	0,029
-498,868	31,539	-0,081	-0,050
-497,853	76,817	-0,060	-0,046
-496,839	-200,000	0,003	0,227
-495,824	-70,694	0,046	0,012
-494,810	26,653	0,084	-0,051
-493,795	800,000	-0,016	-0,047
-492,781	469,814	-0,037	0,060
-491,766	-68,534	-0,091	0,025
-490,751	-200,000	0,018	-0,083
-489,737	-200,000	-0,009	0,123
-488,722	-200,000	-0,014	-0,046
-487,708	121,928	-0,074	0,067
-486,693	800,000	-0,014	-0,035
-485,678	-200,000	-0,005	-0,046
-484,664	-49,089	-0,137	-0,047
-483,649	-69,842	-0,031	-0,008
-482,635	800,000	0,032	-0,072
-481,620	191,534	0,103	-0,112
-480,605	103,430	-0,024	-0,020
-479,591	209,182	0,056	0,064
-478,576	257,900	-0,070	0,087
-477,562	182,917	-0,055	0,058
-476,547	-176,259	0,054	0,001
-475,532	105,659	-0,040	-0,034
-474,518	-7,735	0,094	0,045
-473,503	-71,127	-0,113	-0,030
-472,489	800,000	0,049	-0,148
-471,474	-200,000	-0,012	-0,103
-470,459	-200,000	0,011	-0,118
-469,445	-200,000	0,022	-0,166
-468,430	-200,000	0,005	-0,081
-467,416	-200,000	0,025	0,112
-466,401	-200,000	-0,009	0,030
-465,386	118,059	-0,026	0,023
-464,372	67,260	0,037	0,027
-463,357	-83,752	-0,072	-0,016
-462,343	-50,834	-0,108	0,036
-461,328	245,406	-0,060	-0,073
-460,313	359,445	0,078	0,112
-459,299	746,869	0,044	0,087
-458,284	564,053	0,046	0,081
-457,270	800,000	-0,008	0,020
-456,255	-26,310	0,030	0,013
-455,241	374,785	-0,069	-0,101
-454,226	-200,000	0,010	0,041
-453,211	41,107	-0,063	0,041
-452,197	99,142	0,109	0,091
-451,182	800,000	0,038	0,077
-450,168	-200,000	0,005	0,057
-449,153	-200,000	-0,018	-0,063
-448,138	800,000	0,043	-0,114
-447,124	205,565	0,077	-0,086
-446,109	-72,229	0,060	-0,016
-445,095	423,934	0,096	-0,149
-444,080	515,852	0,019	-0,033
-443,065	-60,528	0,070	0,021
-442,051	-51,076	-0,011	0,004
-441,036	308,510	0,067	0,090
-440,022	587,361	-0,062	-0,109
-439,007	251,300	-0,045	0,055
-437,992	-32,305	-0,104	-0,041
-436,978	-104,103	-0,026	-0,004
-435,963	-15,645	-0,037	-0,017
-434,949	-126,127	-0,184	0,020
-433,934	-52,619	0,064	-0,021
-432,919	3,382	-0,109	-0,057
-431,905	236,104	-0,024	0,028
-430,890	-53,178	0,058	-0,019
-429,876	-139,162	-0,071	0,005
-428,861	-162,652	-0,027	0,001
-427,846	-200,000	0,010	0,079
-426,832	28,457	-0,115	0,070
-425,817	668,708	-0,037	-0,070
-424,803	800,000	-0,047	-0,117
-423,788	-200,000	0,000	0,042
-422,773	15,269	-0,057	-0,032
-421,759	-160,173	0,135	-0,005
-420,744	71,364	-0,039	0,029
-419,730	-52,571	0,045	0,015
-418,715	-200,000	0,008	0,095
-417,701	-33,711	-0,034	-0,013
-416,686	33,934	-0,111	-0,069
-415,671	-200,000	0,002	-0,022
-414,657	-181,980	0,092	-0,001
-413,642	236,926	0,021	-0,025
-412,628	-200,000	-0,003	-0,137
-411,613	-200,000	-0,025	-0,111
-410,598	224,294	-0,068	-0,079
-409,584	-200,000	-0,027	0,105
-408,569	-133,677	0,106	0,009
-407,555	180,881	0,030	0,031
-406,540	-200,000	0,003	0,053
-405,525	-64,788	-0,032	-0,009
-404,511	-200,000	-0,029	-0,114
-403,496	-169,810	0,105	-0,003
-402,482	374,438	-0,084	-0,124
-401,467	-124,648	-0,146	0,016
-400,452	672,420	0,030	0,057
-399,438	-200,000	-0,000	-0,037
-398,423	259,836	0,026	-0,033
-397,409	227,736	0,053	0,062
-396,394	16,329	-0,126	-0,071
-395,379	-118,759	0,085	-0,011
-394,365	-200,000	0,011	0,085
-393,350	-200,000	-0,006	0,067
-392,336	20,442	0,103	0,060
-391,321	800,000	-0,037	0,095
-390,306	-74,194	0,055	0,014
-389,292	-104,827	0,033	0,005
-388,277	-38,803	0,136	-0,051
-387,263	45,046	0,032	0,021
-386,248	-200,000	-0,029	0,208
-385,233	86,315	-0,060	-0,048
-384,219	800,000	-0,017	-0,039
-383,204	130,185	-0,121	0,112
-382,190	216,028	0,041	0,047
-381,175	-200,000	-0,002	-0,074
-380,160	-113,338	0,071	0,010
-379,146	-200,000	-0,028	0,096
-378,131	58,545	0,159	0,112
-377,117	-156,491	0,106	0,005
-376,102	-117,652	-0,158	0,020
-375,088	-169,619	0,075	-0,002
-374,073	-36,299	-0,064	-0,025
-373,058	-86,739	-0,107	0,023
-372,044	800,000	-0,041	0,106
-371,029	375,421	0,041	0,060
-370,015	-200,000	0,006	-0,039
-369,000	39,357	0,058	-0,037
-367,985	800,000	-0,031	0,091
-366,971	-84,793	0,073	-0,016
-365,956	-61,016	0,023	0,007
-364,942	-32,770	0,086	0,034
-363,927	388,054	-0,052	-0,078
-362,912	589,218	0,020	-0,035
-361,898	-200,000	-0,025	-0,149
-360,883	-200,000	0,039	-0,128
-359,869	315,540	-0,073	-0,099
-358,854	133,422	0,071	0,066
-357,839	747,283	0,031	-0,060
-356,825	-29,089	0,038	0,016
-355,810	-200,000	0,025	-0,191
-354,796	151,772	-0,017	-0,016
-353,781	-200,000	-0,018	-0,091
-352,766	-200,000	0,010	-0,127
-351,752	72,989	0,061	-0,045
-350,737	-115,676	0,189	0,025
-349,723	-17,051	0,147	0,066
-348,708	28,621	-0,058	0,035
-347,693	42,254	0,060	0,039
-346,679	-200,000	-0,003	-0,068
-345,664	-195,440	0,048	-0,000
-344,650	3,197	-0,083	0,043
-343,635	-14,202	-0,067	-0,031
-342,620	122,658	0,048	-0,043
-341,606	667,585	0,060	0,112
-340,591	654,360	-0,032	0,059
-339,577	552,412	-0,045	-0,078
-338,562	800,000	-0,010	-0,028
-337,548	781,238	-0,017	-0,033
-336,533	60,414	0,097	0,069
-335,518	-31,576	0,063	0,025
-334,504	-200,000	-0,011	0,123
-333,489	-200,000	0,035	0,219
-332,475	-80,162	-0,064	-0,015
-331,460	-176,356	-0,144	-0,003
-330,445	372,678	0,042	-0,061
-329,431	389,242	0,035	0,052
-328,416	122,381	-0,090	-0,081
-327,402	-200,000	0,006	-0,097
-326,387	375,166	-0,060	0,088
-325,372	89,401	-0,026	-0,021
-324,358	-46,256	-0,149	-0,052
-323,343	90,655	0,084	-0,067
-322,329	800,000	0,028	0,081
-321,314	-200,000	-0,005	0,075
-320,299	-200,000	-0,018	0,092
-319,285	-157,968	0,162	-0,007
-318,270	-200,000	-0,014	-0,168
-317,256	-106,560	0,025	-0,004
-316,241	247,315	0,107	-0,130
-315,226	455,414	0,036	-0,057
-314,212	800,000	0,048	0,114
-313,197	63,187	0,073	-0,052
-312,183	-50,444	0,097	0,033
-311,168	-79,638	-0,118	-0,028
-310,153	-200,000	0,022	-0,116
-309,139	800,000	0,016	0,050
-308,124	800,000	-0,056	0,124
-307,110	-200,000	0,026	0,128
-306,095	-125,109	0,068	-0,007
-305,080	232,285	0,082	0,096
-304,066	-200,000	0,005	0,072
-303,051	-84,616	-0,045	-0,010
-302,037	-124,233	0,052	-0,006
-301,022	-86,855	0,085	0,018
-300,008	255,080	-0,082	0,100
-298,993	-158,227	0,088	-0,004
-297,978	-153,984	-0,129	0,006
-296,964	-66,404	0,037	0,010
-295,949	114,891	0,055	0,048
-294,935	523,020	-0,035	-0,060
-293,920	-62,765	-0,094	0,028
-292,905	99,259	-0,074	-0,061
-291,891	186,952	-0,060	0,064
-290,876	800,000	0,034	-0,095
-289,862	12,513	0,064	-0,035
-288,847	291,918	-0,051	0,066
-287,832	-200,000	-0,026	-0,122
-286,818	148,382	0,118	0,114
-285,803	-20,501	-0,009	0,004
-284,789	-200,000	0,103	-0,000
-283,774	536,012	0,060	-0,102
-282,759	800,000	0,011	0,023
-281,745	-200,000	-0,010	-0,053
-280,730	200,027	-0,063	-0,069
-279,716	-200,000	-0,019	0,069
-278,701	-151,388	-0,159	-0,008
-277,686	120,763	0,113	-0,100
-276,672	-200,000	0,028	-0,150
-275,657	800,000	-0,025	0,063
-274,643	-66,713	0,108	-0,030
-273,628	-200,000	-0,012	-0,172
-272,613	-200,000	0,024	-0,101
-271,599	119,333	0,053	-0,047
-270,584	-128,314	0,124	-0,012
-269,570	176,459	-0,017	0,017
-268,555	521,788	0,065	-0,110
-267,540	198,376	-0,054	-0,060
-266,526	800,000	-0,060	-0,143
-265,511	-200,000	0,007	-0,202
-264,497	232,821	-0,053	0,063
-263,482	-99,024	0,181	0,032
-262,467	797,397	0,044	-0,087
-261,453	-200,000	-0,018	0,105
-260,438	800,000	-0,040	0,079
-259,424	-200,000	0,036	-0,160
-258,409	-129,717	-0,035	-0,003
-257,395	-165,146	0,057	0,002
-256,380	248,530	-0,037	0,044
-255,365	-136,860	0,076	0,006
-254,351	294,509	-0,018	0,024
-253,336	-96,846	0,043	-0,008
-252,322	474,223	-0,064	0,103
-251,307	-18,338	0,053	0,023
-250,292	151,427	0,045	0,044
-249,278	-200,000	0,009	-0,118
-248,263	207,672	0,029	0,033
-247,249	800,000	-0,025	-0,071
-246,234	-200,000	-0,003	-0,121
-245,219	-200,000	0,005	-0,122
-244,205	124,073	0,103	-0,093
-243,190	-81,402	0,046	0,011
-242,176	8,532	0,107	0,057
-241,161	-200,000	0,007	0,109
-240,146	80,002	0,040	0,031
-239,132	-200,000	0,001	-0,008
-238,117	800,000	-0,043	-0,110
-237,103	800,000	-0,066	-0,153
-236,088	299,559	0,035	-0,047
-235,073	-124,963	0,098	0,011
-234,059	84,369	0,147	0,114
-233,044	-1,829	-0,054	0,027
-232,030	-170,389	0,067	-0,002
-231,015	-200,000	-0,014	-0,087
-230,000	-200,000	0,019	0,116
-228,986	-83,797	0,056	-0,013
-227,971	-78,686	-0,125	0,030
-226,957	11,710	-0,057	0,031
-225,942	108,673	0,099	0,084
-224,927	-200,000	-0,056	0,000
-223,913	85,222	-0,092	0,072
-222,898	242,716	0,070	-0,084
-221,884	-54,474	0,059	0,019
-220,869	-166,028	-0,146	0,004
-219,855	-96,651	0,077	-0,014
-218,840	-200,000	-0,036	0,134
-217,825	800,000	0,015	-0,033
-216,811	17,977	-0,048	-0,027
-215,796	-200,000	-0,011	-0,144
-214,782	-4,147	-0,039	0,019
-213,767	-91,680	0,053	0,011
-212,752	-200,000	-0,012	0,061
-211,738	800,000	0,079	0,180
-210,723	-200,000	0,032	0,165
-209,709	800,000	0,027	-0,083
-208,694	-200,000	-0,002	-0,095
-207,679	81,624	-0,029	0,022
-206,665	160,544	-0,058	-0,057
-205,650	777,709	0,056	0,109
-204,636	-58,143	0,142	0,044
-203,621	-61,433	0,088	-0,026
-202,606	-10,078	-0,242	-0,114
-201,592	121,604	0,069	-0,062
-200,577	15,431	-0,137	0,077
-199,563	-11,173	0,097	0,045
-198,548	-39,288	0,032	-0,012
-197,533	29,865	0,035	-0,021
-196,519	-37,363	0,113	0,043
-195,504	-200,000	0,009	0,113
-194,490	-200,000	0,026	0,112
-193,475	308,563	-0,076	0,101
-192,460	-200,000	0,003	0,059
-191,446	-145,907	-0,131	-0,008
-190,431	-159,096	0,150	-0,006
-189,417	-101,563	0,077	0,013
-188,402	800,000	0,067	-0,140
-187,387	800,000	0,033	-0,085
-186,373	800,000	-0,034	-0,070
-185,358	-66,417	-0,047	-0,013
-184,344	303,170	0,053	-0,070
-183,329	800,000	-0,064	0,173
-182,315	109,560	0,134	0,114
-181,300	-58,457	0,120	0,037
-180,285	-200,000	-0,001	-0,071
-179,271	800,000	0,040	-0,104
-178,256	279,161	0,051	-0,065
-177,242	800,000	0,025	0,064
-176,227	-200,000	0,004	-0,015
-175,212	-43,089	-0,081	-0,029
-174,198	800,000	-0,037	0,103
-173,183	469,153	-0,069	-0,111
-172,169	77,484	-0,104	-0,079
-171,154	-200,000	-0,022	0,069
-170,139	-200,000	0,010	-0,081
-169,125	800,000	0,073	-0,145
-168,110	800,000	0,076	0,176
-167,096	-200,000	-0,018	-0,103
-166,081	-200,000	-0,027	-0,088
-165,066	-200,000	0,024	0,083
-164,052	-111,515	0,059	-0,008
-163,037	800,000	0,022	-0,052
-162,023	55,199	0,060	-0,041
-161,008	-200,000	0,012	0,100
-159,993	228,300	-0,134	0,155
-158,979	4,296	-0,090	-0,047
-157,964	103,639	-0,038	-0,032
-156,950	395,277	0,086	0,129
-155,935	-39,561	0,021	-0,008
-154,920	-200,000	-0,005	-0,035
-153,906	-81,133	0,153	0,036
-152,891	800,000	0,032	-0,095
-151,877	800,000	-0,029	-0,076
-150,862	-200,000	-0,015	0,065
-149,847	-200,000	-0,026	-0,095
-148,833	254,154	-0,047	0,057
-147,818	-54,877	0,157	0,050
-146,804	526,723	0,044	-0,074
-145,789	39,209	0,132	0,084
-144,775	-200,000	-0,025	0,106
-143,760	-200,000	-0,009	-0,062
-142,745	-159,334	-0,280	-0,011
-141,731	196,134	-0,010	0,011
-140,716	567,591	0,088	0,153
-139,702	-200,000	0,040	0,155
-138,687	800,000	0,036	0,101
-137,672	50,885	0,082	0,055
-136,658	501,147	-0,055	0,090
-135,643	-174,357	0,058	-0,001
-134,629	-86,824	-0,050	-0,011
-133,614	-0,295	-0,109	-0,055
-132,599	800,000	0,024	-0,061
-131,585	800,000	0,031	-0,074
-130,570	-72,713	0,070	-0,018
-129,556	-81,697	-0,077	0,018
-128,541	371,109	-0,059	0,085
-127,526	144,727	-0,045	0,043
-126,512	-200,000	-0,003	0,155
-125,497	244,471	0,049	-0,059
-124,483	-200,000	-0,005	0,151
-123,468	273,914	-0,072	0,091
-122,453	738,898	-0,018	0,035
-121,439	555,102	0,026	-0,044
-120,424	-79,443	-0,035	-0,008
-119,410	-4,995	-0,016	0,008
-118,395	-200,000	-0,000	0,031
-117,380	-85,411	-0,027	0,006
-116,366	-75,774	0,095	-0,024
-115,351	71,430	-0,071	0,052
-114,337	800,000	0,031	0,063
-113,322	143,281	0,082	0,078
-112,307	-8,173	0,020	-0,009
-111,293	-70,002	-0,039	0,011
-110,278	-200,000	0,002	0,037
-109,264	198,801	-0,047	-0,051
-108,249	-171,202	-0,098	-0,002
-107,234	-69,927	-0,029	0,008
-106,220	739,602	-0,044	-0,084
-105,205	70,431	0,011	-0,008
-104,191	101,055	0,084	0,069
-103,176	-200,000	0,020	0,079
-102,162	5,664	-0,069	-0,036
-101,147	-200,000	0,008	-0,112
-100,132	723,272	-0,029	-0,054
-99,118	239,155	0,087	0,103
-98,103	-200,000	-0,028	-0,104
-97,089	89,040	0,042	0,033
-96,074	800,000	0,039	0,122
-95,059	-42,040	0,053	-0,019
-94,045	191,611	0,066	-0,071
-93,030	261,518	-0,056	-0,069
-92,016	77,625	0,082	0,062
-91,001	-200,000	0,004	0,028
-89,986	-90,427	0,070	0,014
-88,972	110,700	0,109	0,093
-87,957	-191,235	0,096	-0,001
-86,943	-31,187	0,065	-0,026
-85,928	-48,289	0,038	0,013
-84,913	561,387	-0,038	0,065
-83,899	437,475	-0,093	0,144
-82,884	-148,716	0,159	0,009
-81,870	235,032	0,058	0,068
-80,855	-42,319	0,096	-0,034
-79,840	800,000	0,087	0,222
-78,826	82,518	-0,037	0,028
-77,811	800,000	0,050	0,127
-76,797	93,882	0,110	0,088
-75,782	658,063	0,043	0,079
-74,767	2,135	0,023	-0,012
-73,753	338,255	-0,075	0,103
-72,738	405,887	-0,065	0,097
-71,724	-200,000	-0,007	-0,090
-70,709	-200,000	-0,006	-0,071
-69,694	-85,047	-0,097	-0,021
-68,680	38,561	0,049	0,031
-67,665	-45,388	0,027	0,009
-66,651	-200,000	0,023	0,078
-65,636	87,716	0,144	0,113
-64,622	-3,680	-0,087	-0,043
-63,607	710,443	0,029	-0,054
-62,592	0,198	-0,172	0,087
-61,578	12,228	0,140	0,076
-60,563	16,737	0,071	-0,040
-59,549	800,000	0,057	0,148
-58,534	-41,358	-1,640	-0,596
-57,519	313,351	-1,479	-1,975
-56,505	-200,000	-0,436	-4,388
-55,490	162,277	1,012	1,006
-54,476	800,000	4,718	11,022
-53,461	-200,000	18,431	295,275
-52,446	800,000	730,297	2252,803
-51,432	559,765	1646,564	2828,441
-50,417	78,959	1667,073	1263,236
-49,403	22,520	1540,382	890,455
-48,388	16,490	1463,551	816,784
-47,373	17,830	1453,455	817,585
-46,359	17,093	1443,885	808,637
-45,344	14,760	1439,206	794,828
-44,330	14,690	1437,133	793,320
-43,315	14,685	1435,484	792,353
-42,300	14,713	1433,876	791,567
-41,286	14,711	1432,725	790,891
-40,271	14,712	1431,304	790,080
-39,257	14,642	1430,313	789,168
-38,242	14,715	1428,844	788,673
-37,227	14,719	1427,651	788,004
-36,213	14,737	1426,231	787,272
-35,198	14,721	1425,156	786,572
-34,184	14,760	1424,188	786,194
-33,169	14,704	1423,042	785,262
-32,154	14,736	1421,858	784,733
-31,140	14,718	1420,625	783,932
-30,125	14,760	1419,490	783,476
-29,111	14,727	1418,312	782,638
-28,096	14,735	1417,079	781,966
-27,082	14,680	1416,219	781,198
-26,067	14,664	1414,927	780,379
-25,052	14,652	1413,923	779,738
-24,038	14,584	1413,149	778,963
-23,023	14,621	1412,028	778,488
-22,009	14,613	1410,884	777,786
-20,994	14,573	1410,150	777,163
-19,979	14,607	1409,163	776,750
-18,965	14,593	1408,064	776,046
-17,950	14,590	1407,212	775,531
-16,936	14,611	1406,223	775,056
-15,921	14,562	1405,133	774,195
-14,906	14,611	1404,255	773,911
-13,892	14,563	1403,328	773,142
-12,877	14,518	1402,650	772,531
-11,863	14,562	1401,512	772,080
-10,848	14,511	1400,901	771,471
-9,833	14,460	1400,034	770,728
-8,819	14,470	1399,134	770,248
-7,804	14,454	1398,091	769,570
-6,790	14,473	1396,986	769,018
-5,775	14,435	1395,902	768,215
-4,760	14,484	1395,081	767,961
-3,746	14,456	1394,264	767,351
-2,731	14,431	1393,631	766,854
-1,717	14,471	1392,553	766,418
-0,702	14,472	1390,660	765,351
0,313	18,249	1309,316	738,090
1,327	34,780	705,889	436,217
2,342	53,264	124,300	84,191
3,356	3,000	16,658	8,541
4,371	-1,534	3,084	1,534
5,386	-19,147	0,468	0,205
6,400	-78,013	0,127	-0,031
7,415	-15,263	-0,182	-0,082
8,429	160,835	-0,263	-0,260
9,444	41,197	-0,321	-0,205
10,459	141,599	-0,242	-0,227
11,473	18,019	-0,312	-0,176
12,488	-61,653	-0,249	-0,073
13,502	6,464	-0,451	-0,236
14,517	-23,917	-0,341	-0,143
15,531	-24,513	-0,525	-0,220
16,546	-13,793	-0,307	-0,140
17,561	117,511	-0,345	-0,300
18,575	-24,617	-0,139	-0,058
19,590	-15,388	-0,333	-0,150
20,604	98,148	-0,270	-0,220
21,619	49,232	-0,540	-0,359
22,634	123,085	-0,461	-0,408
23,648	71,513	-0,472	-0,346
24,663	80,322	-0,424	-0,322
25,677	218,736	-0,154	-0,174
26,692	4,114	-0,302	-0,155
27,707	66,256	-0,316	-0,227
28,721	146,366	-0,323	-0,307
29,736	36,504	-0,384	-0,239
30,750	122,944	-0,399	-0,353
31,765	170,337	-0,281	-0,284
32,780	106,873	-0,348	-0,292
33,794	146,186	-0,326	-0,309
34,809	66,275	-0,461	-0,330
35,823	84,373	-0,322	-0,249
36,838	65,951	-0,345	-0,247
37,853	-16,554	-0,409	-0,182
38,867	0,590	-0,347	-0,174
39,882	0,270	-0,263	-0,132
40,896	22,072	-0,322	-0,185
41,911	6,138	-0,324	-0,169
42,926	-4,759	-0,388	-0,188
43,940	-4,680	-0,349	-0,169
44,955	71,234	-0,407	-0,298
45,969	88,790	-0,419	-0,329
46,984	206,376	-0,327	-0,360
47,999	208,830	-0,303	-0,334
49,013	14,857	-0,326	-0,179
50,028	50,904	-0,382	-0,255
51,042	148,991	-0,331	-0,316
52,057	116,319	-0,305	-0,263
53,071	1,707	-0,287	-0,145
54,086	94,196	-0,260	-0,208
55,101	54,325	-0,396	-0,268
56,115	206,460	-0,337	-0,370
57,130	-38,731	-0,434	-0,161
58,144	284,883	-0,212	-0,269
59,159	23,198	-0,435	-0,251
60,174	-10,178	-0,452	-0,210
61,188	4,072	-0,402	-0,206
62,203	170,495	-0,294	-0,297
63,217	-93,711	-0,485	-0,093
64,232	-137,358	-0,352	-0,028
65,247	129,095	-0,402	-0,361
66,261	50,652	-0,423	-0,281
67,276	3,963	-0,377	-0,193
68,290	-82,618	-0,378	-0,085
69,305	18,116	-0,342	-0,191
70,320	37,350	-0,224	-0,139
71,334	90,263	-0,357	-0,281
72,349	62,293	-0,378	-0,265
73,363	-0,875	-0,324	-0,161
74,378	-40,742	-0,337	-0,122
75,393	203,014	-0,304	-0,331
76,407	50,134	-0,237	-0,157
77,422	243,687	-0,247	-0,292
78,436	-61,206	-0,321	-0,095
79,451	34,904	-0,359	-0,220
80,466	50,577	-0,326	-0,216
81,480	295,141	-0,148	-0,191
82,495	-79,662	-0,329	-0,077
83,509	-41,917	-0,254	-0,091
84,524	141,295	-0,234	-0,218
85,539	93,469	-0,202	-0,161
86,553	-53,935	-0,352	-0,112
87,568	642,920	-0,217	-0,390
88,582	169,389	-0,310	-0,311
89,597	98,330	-0,207	-0,168
90,611	-65,913	-0,266	-0,074
91,626	50,743	-0,250	-0,166
92,641	-88,700	-0,417	-0,086
93,655	-7,557	-0,289	-0,137
94,670	13,833	-0,184	-0,100
95,684	45,770	-0,341	-0,221
96,699	75,485	-0,239	-0,177
97,714	55,567	-0,266	-0,180
98,728	214,911	-0,219	-0,245
99,743	-98,811	-0,300	-0,053
100,757	57,454	-0,275	-0,188
101,772	47,074	-0,319	-0,208
102,787	-7,829	-0,408	-0,192
103,801	71,243	-0,306	-0,223
104,816	137,868	-0,181	-0,166
105,830	165,497	-0,233	-0,231
106,845	-19,657	-0,254	-0,110
107,860	236,590	-0,302	-0,351
108,874	-140,144	-0,229	-0,017
109,889	82,175	-0,329	-0,250
110,903	91,743	-0,272	-0,214
111,918	-13,377	-0,311	-0,141
112,933	158,319	-0,235	-0,229
113,947	-88,943	-0,249	0,051
114,962	68,114	-0,280	-0,201
115,976	800,000	-0,096	-0,202
116,991	14,493	-0,346	-0,189
118,006	290,412	-0,190	-0,243
119,020	100,957	-0,220	-0,179
120,035	46,003	-0,262	-0,170
121,049	171,323	-0,082	-0,083
122,064	231,195	-0,099	-0,114
123,079	-135,135	-0,278	-0,023
124,093	3,787	-0,321	-0,164
125,108	-17,349	-0,237	-0,104
126,122	80,669	-0,259	-0,195
127,137	9,510	-0,266	-0,141
128,151	-52,477	-0,217	-0,070
129,166	-134,683	-0,284	-0,024
130,181	22,091	-0,269	-0,153
131,195	-170,657	-0,279	-0,007
132,210	130,184	-0,299	-0,268
133,224	482,555	-0,209	-0,334
134,239	249,255	-0,189	-0,224
135,254	800,000	-0,103	-0,290
136,268	-62,745	-0,322	-0,093
137,283	219,732	-0,157	-0,176
138,297	95,629	-0,265	-0,212
139,312	357,689	-0,125	-0,176
140,327	199,175	-0,321	-0,345
141,341	88,492	-0,192	-0,149
142,356	180,333	-0,163	-0,167
143,370	109,834	-0,186	-0,156
144,385	10,821	-0,276	-0,147
145,400	51,684	-0,310	-0,206
146,414	193,552	-0,173	-0,183
147,429	268,705	-0,282	-0,346
148,443	234,352	-0,273	-0,315
149,458	-22,228	-0,310	-0,131
150,473	-77,732	-0,279	-0,067
151,487	28,207	-0,295	-0,173
152,502	-80,275	-0,244	-0,057
153,516	248,335	-0,246	-0,291
154,531	36,273	-0,257	-0,158
155,546	-76,246	-0,248	-0,061
156,560	5,918	-0,222	-0,115
157,575	-9,129	-0,231	-0,108
158,589	-21,792	-0,268	-0,113
159,604	-84,870	-0,330	-0,072
160,619	800,000	-0,060	-0,151
161,633	37,883	-0,312	-0,193
162,648	342,649	-0,220	-0,302
163,662	175,315	-0,234	-0,237
164,677	143,822	-0,162	-0,150
165,692	-32,214	-0,321	-0,125
166,706	128,062	-0,149	-0,133
167,721	-8,712	-0,312	-0,146
168,735	30,518	-0,250	-0,149
169,750	-98,289	-0,297	-0,053
170,764	158,995	-0,114	-0,111
171,779	242,261	-0,128	-0,150
172,794	232,033	-0,191	-0,219
173,808	26,627	-0,184	-0,107
174,823	-37,933	-0,235	-0,086
175,837	-200,000	-0,107	-0,340
176,852	268,978	-0,108	-0,132
177,867	706,605	-0,097	-0,179
178,881	56,838	-0,196	-0,133
179,896	132,762	-0,164	-0,148
180,910	24,486	-0,234	-0,135
181,925	116,253	-0,145	-0,124
182,940	20,157	-0,161	-0,090
183,954	289,931	-0,266	-0,337
184,969	151,209	-0,146	-0,138
185,983	180,136	-0,145	-0,148
186,998	-36,661	-0,223	-0,083
188,013	800,000	-0,117	-0,279
189,027	125,391	-0,224	-0,197
190,042	13,711	-0,261	-0,141
191,056	-24,742	-0,221	-0,091
192,071	215,612	-0,230	-0,255
193,086	-19,444	-0,204	-0,088
194,100	-4,902	-0,266	-0,127
195,115	214,817	-0,135	-0,149
196,129	1,011	-0,302	-0,150
197,144	13,733	-0,272	-0,147
198,159	44,261	-0,208	-0,133
199,173	-45,243	-0,282	-0,097
200,188	408,496	-0,068	-0,100
201,202	-93,205	-0,226	-0,043
202,217	800,000	-0,028	-0,058
203,232	105,161	-0,240	-0,197
204,246	27,680	-0,270	-0,158
205,261	409,019	-0,118	-0,174
206,275	-13,175	0,062	0,028
207,290	138,999	-0,172	-0,157
208,304	-25,989	-0,224	-0,091
209,319	732,678	-0,122	-0,227
210,334	-188,403	-0,309	-0,003
211,348	82,763	-0,227	-0,171
212,363	110,265	-0,101	-0,084
213,377	11,177	-0,226	-0,120
214,392	800,000	-0,048	-0,144
215,407	262,913	-0,122	-0,147
216,421	-127,670	-0,231	-0,023
217,436	216,192	-0,221	-0,244
218,450	-2,496	-0,212	-0,103
219,465	109,112	-0,233	-0,194
220,480	74,112	-0,186	-0,135
221,494	-128,498	-0,197	-0,019
222,509	229,535	-0,198	-0,225
223,523	91,061	-0,250	-0,195
224,538	144,410	-0,162	-0,150
225,553	-200,000	-0,042	-0,269
226,567	-53,815	-0,196	-0,062
227,582	-42,513	-0,242	-0,085
228,596	-59,702	-0,160	0,047
229,611	-61,847	-0,195	0,056
230,626	359,949	-0,158	-0,221
231,640	540,886	-0,152	-0,251
232,655	68,276	-0,240	-0,170
233,669	-61,826	-0,254	-0,073
234,684	194,047	-0,113	-0,119
235,699	-6,487	-0,167	-0,079
236,713	-200,000	-0,028	-0,093
237,728	-47,129	-0,207	-0,070
238,742	-140,246	-0,153	-0,011
239,757	29,137	-0,132	-0,077
240,772	42,793	-0,140	-0,089
241,786	-3,878	-0,274	-0,131
242,801	169,625	-0,161	-0,159
243,815	-85,707	-0,141	-0,030
244,830	800,000	-0,027	0,071
245,844	800,000	-0,082	-0,159
246,859	-32,845	-0,147	0,056
247,874	258,727	-0,138	-0,165
248,888	-49,334	-0,225	-0,074
249,903	3,147	-0,213	-0,107
250,917	-131,880	-0,155	-0,014
251,932	353,390	-0,158	-0,217
252,947	-23,553	-0,209	-0,087
253,961	221,400	-0,147	-0,164
254,976	84,843	-0,268	-0,203
255,990	131,637	-0,096	-0,086
257,005	-37,881	-0,201	-0,074
258,020	144,663	-0,209	-0,193
259,034	-138,500	-0,141	-0,011
260,049	-99,857	-0,178	-0,031
261,063	-49,745	-0,211	-0,069
262,078	139,717	-0,202	-0,185
263,093	85,374	-0,134	-0,102
264,107	540,219	-0,090	-0,148
265,122	181,398	-0,122	-0,124
266,136	-169,349	-0,218	0,005
267,151	-66,554	-0,165	-0,045
268,166	249,085	-0,187	-0,219
269,180	138,071	-0,205	-0,186
270,195	67,319	-0,230	-0,162
271,209	-71,645	-0,235	0,060
272,224	95,401	-0,143	-0,113
273,239	-75,308	-0,151	-0,037
274,253	-200,000	0,010	-0,165
275,268	0,612	-0,255	0,126
276,282	-57,835	-0,163	-0,049
277,297	11,367	-0,286	-0,151
278,312	284,942	-0,168	-0,209
279,326	-117,490	-0,174	0,021
280,341	73,104	-0,181	-0,131
281,355	-81,571	-0,154	-0,035
282,370	-62,563	-0,162	-0,046
283,384	58,357	-0,099	-0,067
284,399	49,896	-0,170	-0,110
285,414	0,481	-0,124	-0,061
286,428	284,737	-0,112	-0,139
287,443	153,914	-0,118	-0,111
288,457	617,746	-0,069	-0,119
289,472	-49,179	-0,199	-0,065
290,487	-60,157	-0,153	-0,045
291,501	800,000	-0,071	-0,137
292,516	92,217	-0,157	-0,122
293,530	-39,614	-0,200	-0,072
294,545	258,103	-0,152	-0,180
295,560	62,318	-0,209	-0,144
296,574	94,040	-0,132	-0,103
297,589	73,251	-0,192	-0,139
298,603	236,652	-0,135	-0,155
299,618	592,406	-0,046	-0,078
300,633	-90,268	-0,136	-0,027
301,647	118,359	-0,060	-0,051
302,662	-200,000	-0,008	-0,076
303,676	2,944	-0,164	-0,082
304,691	-108,247	-0,326	-0,048
305,706	-15,125	-0,191	-0,084
306,720	339,970	-0,138	-0,186
307,735	-25,864	-0,141	-0,057
308,749	624,084	-0,122	-0,213
309,764	148,812	-0,046	-0,043
310,779	74,883	-0,105	-0,076
311,793	36,825	-0,220	-0,134
312,808	51,190	-0,253	-0,165
313,822	311,013	-0,126	-0,163
314,837	800,000	-0,087	-0,193
315,852	-87,070	-0,134	0,028
316,866	183,267	-0,121	-0,123
317,881	116,439	-0,212	-0,179
318,895	-79,456	-0,088	0,020
319,910	126,691	-0,097	-0,085
320,925	294,414	-0,184	-0,232
321,939	236,494	-0,114	-0,130
322,954	41,669	-0,132	-0,082
323,968	88,046	-0,158	-0,121
324,983	54,121	-0,124	-0,082
325,997	-173,719	-0,155	0,003
327,012	800,000	-0,084	-0,216
328,027	-200,000	0,011	-0,241
329,041	-22,019	-0,212	-0,088
330,056	15,856	-0,194	-0,105
331,070	-200,000	-0,040	-0,135
332,085	-50,243	-0,068	0,022
333,100	193,547	-0,124	-0,129
334,114	-84,961	-0,267	-0,057
335,129	-128,906	-0,124	0,012
336,143	800,000	-0,088	-0,218
337,158	177,139	0,059	-0,059
338,173	-175,939	-0,077	0,001
339,187	800,000	-0,037	-0,105
340,202	399,068	-0,131	-0,189
341,216	-79,326	-0,151	-0,035
342,231	-135,016	-0,146	-0,012
343,246	33,846	-0,126	-0,075
344,260	117,571	-0,087	0,074
345,275	-42,648	-0,164	-0,057
346,289	134,258	-0,068	-0,060
347,304	400,260	-0,080	-0,115
348,319	-78,643	-0,103	-0,024
349,333	347,606	-0,130	-0,176
350,348	221,254	-0,085	-0,094
351,362	125,718	-0,110	-0,095
352,377	800,000	-0,027	-0,062
353,392	2,740	-0,108	-0,054
354,406	-96,335	-0,091	-0,016
355,421	209,638	1314,994	1416,957
356,435	161,355	1475,765	1417,464
