DTS Sentinel unit serial number:	SN410029Multiplexer serial number:	ORYXHardware model number:	OX2-SRSoftware version number:	ORYX F/W v4,00 Oryx Data Collector v3.7.2.0data status	okinstallation	B3 Nyhavnadifferential loss correction	single-endedforward channel	channel 1reverse channel	N/Adate	2023/11/30time	13:02:30forward acquisition time	300,00reverse acquisition time	0,00gamma	499,1914k internal	0,3213k external	0,3213temperature offset calibration	1,0000default loss term (dB/km)	0,3820temperature slope calibration	1,0000multiplexer offset coefficient	1,0000multiplexer slope coefficient	1,0000fibre end	0,00T internal ref (°C)	10,17T ext. ref 1 (°C)	-3,65T ext. ref 2 (°C)	-3,72length (m)	temperature (°C)	Stokes	anti-Stokes-744,400	190,145	-0,145	-0,158
-743,385	-200,000	0,036	0,253
-742,371	280,216	-0,188	-0,244
-741,356	-200,000	0,069	0,334
-740,342	800,000	-0,141	-0,316
-739,327	-200,000	0,028	0,187
-738,312	200,545	-0,232	-0,258
-737,298	800,000	-0,084	0,222
-736,283	334,998	-0,167	-0,235
-735,269	-200,000	-0,003	0,278
-734,254	800,000	-0,140	-0,282
-733,239	6,494	-0,290	0,156
-732,225	31,707	-0,092	-0,057
-731,210	331,406	0,043	0,061
-730,196	-98,954	-0,204	0,037
-729,181	40,651	-0,114	0,074
-728,167	194,372	-0,063	-0,070
-727,152	-200,000	0,018	-0,124
-726,137	-200,000	0,016	-0,068
-725,123	591,250	0,024	-0,043
-724,108	225,245	-0,047	-0,055
-723,094	278,784	-0,016	0,021
-722,079	177,046	-0,081	-0,086
-721,064	-200,000	-0,000	-0,041
-720,050	478,994	-0,090	-0,148
-719,035	-11,800	0,010	0,005
-718,021	-4,688	0,102	0,051
-717,006	800,000	-0,087	-0,180
-715,991	800,000	-0,032	-0,072
-714,977	-5,366	-0,060	0,030
-713,962	69,020	-0,087	0,064
-712,948	800,000	-0,004	0,013
-711,933	-200,000	-0,007	-0,077
-710,918	-54,991	-0,018	-0,006
-709,904	-71,457	-0,061	0,016
-708,889	-200,000	-0,027	-0,190
-707,875	-200,000	0,012	-0,071
-706,860	800,000	0,006	-0,016
-705,845	-0,003	-0,114	-0,058
-704,831	180,048	0,066	-0,070
-703,816	18,661	0,040	0,023
-702,802	76,057	0,097	0,074
-701,787	5,306	-0,080	-0,042
-700,772	167,620	-0,072	0,074
-699,758	-1,811	0,007	0,004
-698,743	-200,000	0,002	-0,022
-697,729	18,788	-0,135	0,078
-696,714	474,867	-0,091	0,149
-695,699	-97,348	-0,097	-0,018
-694,685	152,544	-0,062	0,061
-693,670	105,002	-0,055	-0,047
-692,656	33,220	0,080	-0,050
-691,641	-188,055	-0,116	-0,001
-690,627	-30,121	-0,189	-0,077
-689,612	-142,779	0,028	-0,002
-688,597	327,932	-0,061	0,085
-687,583	-200,000	-0,086	-0,312
-686,568	-132,091	-0,046	0,004
-685,554	800,000	0,012	0,028
-684,539	7,250	0,057	0,031
-683,524	30,295	-0,068	0,042
-682,510	-50,101	0,043	0,015
-681,495	668,597	-0,073	-0,137
-680,481	-39,489	0,094	-0,035
-679,466	-71,383	-0,105	-0,028
-678,451	772,254	0,055	-0,110
-677,437	53,450	-0,033	-0,023
-676,422	-77,818	-0,050	-0,012
-675,408	-110,364	0,057	0,008
-674,393	180,747	0,087	-0,093
-673,378	-200,000	0,012	-0,064
-672,364	258,983	-0,144	-0,180
-671,349	-200,000	-0,035	-0,193
-670,335	-86,863	-0,052	-0,011
-669,320	93,482	0,063	0,051
-668,305	639,260	0,034	-0,063
-667,291	-126,598	-0,083	-0,009
-666,276	-200,000	0,039	-0,167
-665,262	137,962	-0,081	-0,077
-664,247	-200,000	-0,027	-0,111
-663,232	-200,000	-0,018	-0,076
-662,218	258,710	0,008	-0,010
-661,203	-200,000	-0,013	-0,070
-660,189	-77,395	-0,055	0,014
-659,174	581,283	-0,092	-0,164
-658,159	-138,965	0,065	0,005
-657,145	-200,000	0,027	-0,096
-656,130	-200,000	-0,019	-0,098
-655,116	-73,714	0,166	0,043
-654,101	329,049	-0,035	-0,048
-653,086	315,611	0,029	0,039
-652,072	142,656	0,055	-0,053
-651,057	38,304	-0,048	-0,031
-650,043	665,169	-0,031	-0,058
-649,028	58,189	0,033	-0,024
-648,014	-135,956	0,042	0,004
-646,999	304,044	0,052	-0,070
-645,984	-47,271	-0,171	0,060
-644,970	-200,000	-0,010	-0,156
-643,955	-200,000	0,003	0,058
-642,941	105,227	-0,072	0,061
-641,926	-200,000	0,008	0,103
-640,911	77,175	-0,117	-0,090
-639,897	800,000	0,048	-0,111
-638,882	60,259	-0,027	-0,019
-637,868	281,514	-0,029	-0,038
-636,853	749,607	0,047	-0,092
-635,838	-50,227	0,051	0,017
-634,824	-200,000	0,004	0,019
-633,809	-5,976	-0,073	-0,036
-632,795	-135,563	0,060	0,005
-631,780	-98,269	-0,037	-0,007
-630,765	-200,000	-0,009	-0,044
-629,751	-40,690	0,054	-0,020
-628,736	132,535	-0,115	-0,107
-627,722	800,000	-0,010	-0,022
-626,707	-65,316	0,073	0,021
-625,692	90,506	-0,082	-0,066
-624,678	-175,192	0,043	-0,001
-623,663	56,913	0,068	0,048
-622,649	800,000	-0,041	-0,116
-621,634	-200,000	-0,018	-0,148
-620,619	-200,000	-0,012	-0,078
-619,605	69,192	0,123	0,091
-618,590	800,000	0,045	0,096
-617,576	-98,570	0,086	-0,016
-616,561	800,000	-0,088	0,216
-615,546	800,000	-0,037	-0,087
-614,532	112,169	-0,064	-0,055
-613,517	-200,000	0,021	-0,085
-612,503	520,834	0,147	-0,250
-611,488	755,471	-0,047	-0,092
-610,474	337,760	-0,051	0,072
-609,459	-200,000	-0,011	0,087
-608,444	789,357	0,019	0,037
-607,430	162,517	-0,067	-0,068
-606,415	-200,000	0,007	-0,067
-605,401	-200,000	-0,017	-0,114
-604,386	-200,000	-0,008	0,085
-603,371	800,000	0,048	-0,142
-602,357	-200,000	0,003	-0,131
-601,342	800,000	0,023	0,062
-600,328	-130,267	-0,111	-0,011
-599,313	222,771	0,035	-0,041
-598,298	-61,514	0,065	-0,019
-597,284	621,697	-0,019	-0,035
-596,269	-109,781	0,030	-0,005
-595,255	190,294	-0,012	0,013
-594,240	146,420	0,070	-0,068
-593,225	176,371	-0,062	0,065
-592,211	-200,000	0,005	0,022
-591,196	-49,093	-0,121	-0,041
-590,182	-200,000	0,005	0,214
-589,167	183,690	0,123	0,131
-588,152	487,970	0,085	0,140
-587,138	800,000	0,014	0,037
-586,123	-4,656	-0,141	0,070
-585,109	-169,767	0,040	0,001
-584,094	-200,000	0,026	-0,157
-583,079	-140,000	-0,135	-0,010
-582,065	-24,290	0,129	0,055
-581,050	205,769	-0,052	-0,058
-580,036	-200,000	-0,022	-0,070
-579,021	36,031	0,086	-0,054
-578,006	-175,025	0,117	0,002
-576,992	-200,000	-0,012	0,046
-575,977	44,034	0,084	0,055
-574,963	472,543	0,044	0,072
-573,948	-200,000	0,016	0,117
-572,934	800,000	-0,036	-0,079
-571,919	-77,395	0,082	-0,020
-570,904	800,000	-0,021	0,060
-569,890	-52,335	0,107	0,035
-568,875	185,662	-0,056	0,060
-567,861	-127,981	-0,084	-0,009
-566,846	353,677	0,088	0,127
-565,831	209,254	-0,051	0,057
-564,817	103,308	-0,029	-0,024
-563,802	56,515	-0,136	0,095
-562,788	-12,122	0,060	0,028
-561,773	800,000	0,040	-0,088
-560,758	-151,996	0,047	-0,002
-559,744	800,000	0,040	-0,122
-558,729	-200,000	0,054	0,202
-557,715	327,812	-0,080	-0,111
-556,700	800,000	-0,055	0,151
-555,685	67,974	-0,035	0,026
-554,671	117,153	0,010	-0,009
-553,656	-23,802	0,125	0,054
-552,642	-104,034	-0,074	0,012
-551,627	281,718	-0,078	0,100
-550,612	116,282	0,052	-0,046
-549,598	172,930	0,031	0,032
-548,583	525,396	0,050	0,086
-547,569	421,985	-0,042	0,066
-546,554	-200,000	-0,010	0,036
-545,539	-200,000	-0,026	-0,172
-544,525	60,936	0,053	0,038
-543,510	800,000	-0,036	-0,085
-542,496	800,000	-0,020	-0,042
-541,481	-151,566	0,117	-0,006
-540,466	-30,465	-0,042	-0,017
-539,452	-200,000	0,021	0,123
-538,437	-200,000	0,014	0,114
-537,423	-200,000	0,012	0,097
-536,408	-200,000	-0,016	0,160
-535,393	117,276	0,045	-0,040
-534,379	-97,724	0,147	-0,027
-533,364	-21,605	-0,127	-0,055
-532,350	102,879	0,084	0,071
-531,335	95,196	0,069	0,056
-530,321	234,975	0,072	0,086
-529,306	-38,753	0,053	0,020
-528,291	-200,000	-0,005	-0,135
-527,277	169,758	-0,051	-0,053
-526,262	380,218	0,038	-0,057
-525,248	248,007	-0,068	0,083
-524,233	44,311	-0,033	-0,022
-523,218	-62,920	-0,042	0,012
-522,204	-131,111	0,010	-0,001
-521,189	51,439	-0,126	0,086
-520,175	319,944	0,048	-0,065
-519,160	64,293	-0,071	-0,051
-518,145	279,450	0,052	-0,067
-517,131	-200,000	0,004	-0,017
-516,116	73,092	0,102	0,076
-515,102	800,000	-0,016	0,040
-514,087	72,174	-0,097	-0,073
-513,072	-59,441	0,023	0,007
-512,058	263,037	0,096	-0,120
-511,043	-75,093	-0,154	-0,039
-510,029	800,000	-0,037	-0,116
-509,014	68,329	-0,013	0,010
-507,999	-95,397	-0,112	0,021
-506,985	-82,417	-0,038	0,009
-505,970	391,178	-0,095	-0,142
-504,956	-200,000	-0,028	0,102
-503,941	26,214	0,088	-0,053
-502,926	130,833	-0,059	0,055
-501,912	-157,072	-0,036	-0,002
-500,897	800,000	0,016	0,032
-499,883	-200,000	-0,101	-0,000
-498,868	-71,185	0,082	-0,022
-497,853	-200,000	-0,021	-0,139
-496,839	-200,000	-0,006	0,125
-495,824	-200,000	0,020	-0,142
-494,810	257,822	0,034	0,042
-493,795	-200,000	-0,020	0,185
-492,781	-200,000	-0,002	0,036
-491,766	188,633	-0,035	-0,038
-490,751	203,149	0,115	-0,128
-489,737	-66,442	-0,105	0,030
-488,722	141,193	0,168	0,159
-487,708	800,000	-0,014	0,030
-486,693	-122,392	-0,130	0,015
-485,678	-200,000	-0,009	-0,105
-484,664	-5,894	0,071	-0,035
-483,649	510,751	-0,025	0,042
-482,635	-49,968	0,060	0,020
-481,620	346,960	0,073	-0,103
-480,605	-200,000	-0,020	0,141
-479,591	-200,000	0,003	-0,088
-478,576	446,358	-0,068	0,107
-477,562	-119,683	-0,158	0,019
-476,547	287,323	0,133	-0,173
-475,532	800,000	-0,020	0,054
-474,518	269,670	0,036	0,046
-473,503	769,042	0,065	0,127
-472,489	252,387	-0,028	-0,034
-471,474	-200,000	-0,008	0,054
-470,459	106,929	-0,104	-0,089
-469,445	-194,783	-0,130	0,001
-468,430	193,830	-0,053	-0,057
-467,416	258,793	0,106	-0,132
-466,401	-200,000	-0,004	-0,129
-465,386	-40,090	0,101	-0,038
-464,372	-200,000	-0,018	0,108
-463,357	800,000	0,049	-0,104
-462,343	87,059	-0,077	-0,061
-461,328	241,835	0,051	0,061
-460,313	-10,791	0,160	-0,076
-459,299	-141,252	0,055	0,004
-458,284	-200,000	-0,004	-0,157
-457,270	-200,000	-0,010	0,034
-456,255	794,654	-0,057	-0,112
-455,241	-200,000	-0,003	-0,085
-454,226	197,146	0,048	-0,053
-453,211	43,704	0,055	0,036
-452,197	313,953	0,099	0,134
-451,182	-42,830	-0,058	-0,021
-450,168	800,000	-0,056	0,156
-449,153	210,015	0,057	0,064
-448,138	-200,000	0,017	-0,101
-447,124	-200,000	0,001	-0,058
-446,109	-105,698	0,183	0,029
-445,095	65,889	-0,064	0,046
-444,080	26,788	0,088	0,053
-443,065	143,556	0,086	0,082
-442,051	-95,202	-0,139	0,027
-441,036	81,525	-0,010	-0,008
-440,022	-200,000	0,036	-0,117
-439,007	800,000	-0,024	-0,055
-437,992	-52,968	0,058	-0,019
-436,978	-125,621	0,073	-0,008
-435,963	-200,000	-0,052	-0,173
-434,949	87,786	0,071	-0,056
-433,934	-74,641	-0,230	-0,059
-432,919	-200,000	-0,035	-0,111
-431,905	-200,000	-0,004	0,035
-430,890	327,874	0,081	0,112
-429,876	-200,000	0,025	0,149
-428,861	-78,004	0,072	0,018
-427,846	59,362	-0,040	-0,028
-426,832	800,000	-0,048	-0,107
-425,817	174,691	-0,107	-0,111
-424,803	-49,203	-0,060	-0,021
-423,788	-200,000	0,012	-0,128
-422,773	220,993	0,050	-0,057
-421,759	-200,000	-0,033	0,109
-420,744	-17,998	0,263	0,117
-419,730	-90,104	-0,186	-0,038
-418,715	326,273	0,101	-0,139
-417,701	-200,000	-0,018	-0,143
-416,686	1,424	0,063	0,033
-415,671	-140,502	0,177	0,013
-414,657	-100,159	-0,164	-0,029
-413,642	800,000	-0,022	-0,060
-412,628	-200,000	0,001	-0,046
-411,613	230,363	-0,028	-0,033
-410,598	-29,752	-0,172	-0,070
-409,584	800,000	-0,042	0,117
-408,569	-200,000	0,013	0,072
-407,555	-128,348	0,067	0,007
-406,540	800,000	-0,064	0,198
-405,525	800,000	-0,047	-0,095
-404,511	-14,924	-0,026	0,012
-403,496	231,856	-0,042	0,049
-402,482	-200,000	-0,007	-0,032
-401,467	219,176	0,011	-0,013
-400,452	-200,000	0,009	0,134
-399,438	-200,000	-0,020	-0,106
-398,423	144,438	0,085	0,081
-397,409	-195,077	-0,097	-0,001
-396,394	-200,000	-0,012	0,061
-395,379	355,308	-0,059	-0,085
-394,365	173,490	0,066	-0,068
-393,350	36,158	0,108	0,068
-392,336	-1,046	-0,040	-0,020
-391,321	164,916	-0,080	-0,081
-390,306	-200,000	-0,003	-0,066
-389,292	-200,000	-0,021	-0,080
-388,277	508,819	0,062	-0,103
-387,263	-16,670	-0,013	-0,006
-386,248	800,000	0,026	0,054
-385,233	137,356	-0,169	0,158
-384,219	-25,289	0,107	-0,045
-383,204	-73,098	-0,142	0,037
-382,190	150,206	0,034	-0,033
-381,175	-114,493	0,169	0,023
-380,160	242,945	0,024	0,029
-379,146	1,060	-0,005	0,003
-378,131	-200,000	0,028	0,106
-377,117	-9,540	-0,154	0,073
-376,102	-80,334	-0,130	-0,031
-375,088	800,000	-0,078	-0,197
-374,073	444,588	0,057	0,090
-373,058	603,116	-0,096	0,171
-372,044	104,383	0,138	-0,116
-371,029	36,043	0,055	-0,035
-370,015	290,644	-0,064	0,083
-369,000	-200,000	-0,004	-0,069
-367,985	-2,740	-0,026	-0,013
-366,971	800,000	0,079	0,190
-365,956	65,088	-0,119	0,086
-364,942	-102,929	0,059	0,010
-363,927	59,020	-0,109	0,077
-362,912	-119,200	-0,092	-0,011
-361,898	45,702	-0,102	0,067
-360,883	138,271	0,098	0,092
-359,869	674,746	-0,057	-0,107
-358,854	9,439	0,191	-0,103
-357,839	-200,000	0,031	0,141
-356,825	800,000	0,046	0,102
-355,810	97,249	-0,070	0,057
-354,796	458,928	-0,087	-0,139
-353,781	-69,506	0,038	-0,010
-352,766	-66,924	-0,127	-0,036
-351,752	251,554	-0,094	-0,115
-350,737	-136,103	0,113	0,009
-349,723	800,000	0,024	-0,063
-348,708	12,228	-0,077	-0,042
-347,693	10,028	0,045	0,025
-346,679	137,493	0,014	0,013
-345,664	-11,085	-0,090	0,042
-344,650	-147,894	-0,089	0,005
-343,635	-139,323	0,132	-0,010
-342,620	294,211	-0,046	0,060
-341,606	252,144	-0,020	0,024
-340,591	-41,850	-0,161	0,058
-339,577	-200,000	0,006	-0,077
-338,562	-200,000	0,013	0,052
-337,548	800,000	0,043	-0,087
-336,533	-54,595	0,027	-0,009
-335,518	-121,960	-0,167	-0,019
-334,504	-98,817	-0,149	0,027
-333,489	-40,630	0,187	-0,069
-332,475	120,224	-0,093	-0,082
-331,460	461,588	0,097	-0,155
-330,445	201,691	0,080	-0,088
-329,431	-134,244	0,114	-0,010
-328,416	708,456	0,048	0,091
-327,402	-49,982	-0,206	-0,069
-326,387	-53,134	0,053	-0,017
-325,372	-98,413	0,095	-0,017
-324,358	650,175	-0,038	0,070
-323,343	800,000	-0,015	-0,034
-322,329	-142,131	0,127	-0,009
-321,314	124,185	0,079	-0,071
-320,299	-98,710	0,042	0,008
-319,285	-167,820	0,041	0,001
-318,270	39,204	0,019	-0,012
-317,256	-200,000	-0,014	-0,082
-316,241	722,440	0,034	0,065
-315,226	146,446	0,100	0,096
-314,212	-152,469	0,211	0,011
-313,197	-103,180	0,106	-0,018
-312,183	20,920	-0,072	0,041
-311,168	72,169	-0,022	-0,017
-310,153	-136,880	-0,040	-0,003
-309,139	-130,489	-0,077	0,007
-308,124	202,839	0,112	-0,124
-307,110	336,618	-0,044	-0,061
-306,095	800,000	0,011	-0,025
-305,080	800,000	-0,019	0,040
-304,066	121,679	0,034	-0,030
-303,051	-58,055	-0,098	0,030
-302,037	-35,247	0,049	-0,019
-301,022	800,000	-0,029	-0,069
-300,008	68,061	0,044	-0,032
-298,993	105,026	-0,048	0,040
-297,978	59,797	-0,062	-0,044
-296,964	800,000	-0,052	0,116
-295,949	348,134	-0,084	-0,118
-294,935	800,000	-0,028	-0,063
-293,920	151,964	0,072	-0,070
-292,905	205,617	-0,067	0,075
-291,891	84,812	-0,023	0,018
-290,876	-200,000	0,022	0,120
-289,862	-145,014	0,105	0,007
-288,847	38,965	-0,095	-0,060
-287,832	-55,030	0,108	0,034
-286,818	-26,527	-0,110	-0,046
-285,803	-200,000	0,015	0,104
-284,789	-25,909	0,121	0,050
-283,774	800,000	0,023	-0,053
-282,759	-143,488	-0,112	-0,008
-281,745	-44,349	-0,049	-0,017
-280,730	42,387	-0,062	0,040
-279,716	535,461	-0,095	-0,160
-278,701	277,810	-0,021	0,027
-277,686	219,861	0,059	0,067
-276,672	333,944	0,074	0,103
-275,657	78,900	0,107	-0,081
-274,643	-77,941	-0,147	-0,036
-273,628	-200,000	-0,009	0,047
-272,613	-200,000	-0,010	0,088
-271,599	800,000	0,042	-0,085
-270,584	619,356	0,022	0,040
-269,570	-200,000	0,017	0,118
-268,555	383,636	-0,019	-0,029
-267,540	-30,465	-0,025	-0,010
-266,526	-3,481	-0,089	-0,044
-265,511	37,337	0,027	-0,017
-264,497	352,175	-0,101	-0,143
-263,482	-200,000	-0,042	0,158
-262,467	-160,207	0,079	0,003
-261,453	-200,000	-0,019	0,108
-260,438	-55,245	0,114	-0,036
-259,424	-150,550	-0,138	0,007
-258,409	-152,852	-0,014	-0,001
-257,395	-161,822	0,127	-0,005
-256,380	-94,085	0,062	-0,012
-255,365	-184,586	-0,041	0,000
-254,351	-200,000	-0,002	0,068
-253,336	182,278	-0,017	0,018
-252,322	-200,000	0,031	-0,214
-251,307	-153,191	-0,115	0,006
-250,292	764,117	0,058	-0,112
-249,278	201,010	0,091	-0,100
-248,263	-58,243	0,072	-0,022
-247,249	800,000	-0,013	0,036
-246,234	163,081	0,061	0,061
-245,219	194,432	0,013	-0,014
-244,205	6,190	-0,091	0,048
-243,190	46,470	0,035	0,023
-242,176	-200,000	0,031	0,189
-241,161	-200,000	0,012	0,145
-240,146	800,000	-0,050	0,123
-239,132	110,379	-0,029	-0,025
-238,117	-11,090	-0,108	-0,050
-237,103	90,125	-0,050	-0,039
-236,088	6,289	-0,036	-0,019
-235,073	300,924	0,037	0,049
-234,059	29,721	0,067	0,041
-233,044	54,632	0,041	0,028
-232,030	-39,200	-0,155	-0,057
-231,015	-2,421	-0,182	-0,090
-230,000	343,642	-0,066	-0,092
-228,986	-200,000	0,003	0,172
-227,971	-47,092	0,056	0,019
-226,957	-200,000	-0,003	0,190
-225,942	540,733	-0,055	0,094
-224,927	-200,000	-0,022	-0,114
-223,913	-200,000	-0,007	-0,036
-222,898	-121,282	-0,171	-0,020
-221,884	-97,045	0,104	0,019
-220,869	74,214	0,088	0,065
-219,855	-14,049	0,010	0,004
-218,840	-166,681	0,068	0,002
-217,825	198,219	0,153	0,167
-216,811	145,521	-0,039	-0,037
-215,796	-200,000	0,000	0,139
-214,782	-200,000	-0,006	0,082
-213,767	318,872	-0,054	-0,073
-212,752	36,952	0,047	0,029
-211,738	-51,924	0,135	0,044
-210,723	-40,839	0,053	0,019
-209,709	-28,339	-0,023	-0,009
-208,694	101,553	0,156	0,129
-207,679	491,425	0,031	-0,051
-206,665	436,282	0,045	0,070
-205,650	-200,000	-0,012	0,142
-204,636	80,738	0,078	0,059
-203,621	63,123	0,057	0,041
-202,606	233,112	-0,049	0,057
-201,592	761,122	-0,045	0,086
-200,577	800,000	0,054	-0,117
-199,563	-200,000	0,017	0,083
-198,548	800,000	0,011	0,030
-197,533	-85,672	-0,131	-0,029
-196,519	-200,000	-0,037	-0,141
-195,504	-162,294	-0,058	-0,002
-194,490	-49,522	0,085	0,029
-193,475	800,000	0,035	0,101
-192,460	800,000	-0,015	0,044
-191,446	-115,431	0,132	0,017
-190,431	334,925	0,074	0,102
-189,417	47,771	-0,148	-0,098
-188,402	-200,000	-0,013	-0,118
-187,387	663,155	-0,040	0,074
-186,373	332,245	0,054	0,074
-185,358	-200,000	-0,028	-0,102
-184,344	338,024	0,059	-0,082
-183,329	-200,000	-0,001	0,098
-182,315	-126,266	0,096	0,010
-181,300	-200,000	0,011	-0,093
-180,285	-54,365	0,135	-0,043
-179,271	-200,000	-0,037	-0,150
-178,256	-49,913	-0,055	-0,018
-177,242	-200,000	0,014	0,137
-176,227	-200,000	-0,002	-0,089
-175,212	-8,341	0,078	-0,037
-174,198	230,679	0,016	-0,019
-173,183	-200,000	0,044	-0,181
-172,169	735,969	-0,057	0,109
-171,154	309,267	0,034	0,045
-170,139	-15,863	0,027	0,012
-169,125	800,000	-0,062	0,155
-168,110	-200,000	-0,020	0,074
-167,096	800,000	-0,033	0,099
-166,081	362,529	-0,056	0,079
-165,066	127,016	-0,048	-0,044
-164,052	668,350	0,007	0,012
-163,037	-123,110	0,078	0,009
-162,023	-144,707	-0,134	-0,009
-161,008	298,884	0,022	-0,029
-159,993	-200,000	0,005	-0,047
-158,979	333,549	-0,082	-0,112
-157,964	73,045	0,009	-0,007
-156,950	-157,016	-0,047	-0,002
-155,935	-200,000	-0,003	0,066
-154,920	49,966	0,067	0,045
-153,906	-200,000	-0,020	-0,119
-152,891	285,067	-0,071	0,090
-151,877	800,000	0,010	-0,024
-150,862	-107,761	-0,053	0,008
-149,847	-200,000	-0,032	-0,119
-148,833	85,807	0,144	-0,112
-147,818	-160,373	0,090	0,003
-146,804	-9,688	-0,095	0,045
-145,789	-200,000	-0,017	0,069
-144,775	87,506	-0,085	-0,067
-143,760	-200,000	-0,061	-0,199
-142,745	35,053	-0,127	-0,079
-141,731	181,606	0,059	-0,061
-140,716	58,486	-0,037	0,025
-139,702	4,086	0,156	-0,081
-138,687	382,857	-0,033	-0,048
-137,672	-62,064	0,102	-0,030
-136,658	-66,837	0,052	0,015
-135,643	-200,000	0,011	-0,148
-134,629	-200,000	-0,005	-0,143
-133,614	-200,000	-0,001	0,028
-132,599	800,000	-0,073	0,153
-131,585	-133,731	-0,072	0,006
-130,570	-200,000	0,001	-0,066
-129,556	-69,392	-0,129	-0,035
-128,541	-24,818	-0,088	-0,037
-127,526	528,781	0,013	-0,023
-126,512	301,035	0,029	-0,038
-125,497	-200,000	0,040	0,135
-124,483	-200,000	-0,004	0,086
-123,468	199,597	0,094	-0,102
-122,453	142,230	-0,036	-0,034
-121,439	377,180	-0,065	-0,094
-120,424	-200,000	0,000	-0,099
-119,410	82,198	-0,069	-0,053
-118,395	61,999	0,105	-0,074
-117,380	-200,000	0,021	0,080
-116,366	57,095	-0,092	0,064
-115,351	-32,564	-0,091	0,036
-114,337	286,509	-0,033	0,042
-113,322	395,452	-0,021	-0,031
-112,307	34,136	0,062	-0,038
-111,293	800,000	0,022	0,057
-110,278	-167,848	-0,097	0,003
-109,264	-103,599	-0,161	-0,027
-108,249	800,000	-0,054	-0,117
-107,234	-69,989	-0,099	0,026
-106,220	-200,000	-0,012	-0,069
-105,205	100,639	-0,022	-0,018
-104,191	-200,000	0,006	-0,040
-103,176	800,000	-0,029	0,091
-102,162	20,462	-0,123	-0,070
-101,147	179,833	0,064	0,067
-100,132	800,000	0,017	-0,034
-99,118	-45,121	0,187	-0,065
-98,103	800,000	0,063	-0,145
-97,089	-10,840	0,062	0,029
-96,074	507,205	-0,081	0,134
-95,059	343,671	-0,096	0,133
-94,045	-200,000	-0,003	-0,133
-93,030	-58,426	-0,036	-0,011
-92,016	4,062	-0,128	-0,066
-91,001	-63,571	-0,148	-0,043
-89,986	-143,637	0,089	0,006
-88,972	-44,191	0,259	-0,091
-87,957	614,969	0,054	-0,096
-86,943	-200,000	0,002	-0,025
-85,928	-200,000	-0,006	-0,037
-84,913	800,000	-0,015	0,044
-83,899	-40,745	-0,069	0,025
-82,884	-200,000	0,003	0,042
-81,870	40,869	0,059	-0,038
-80,855	-200,000	-0,034	0,118
-79,840	167,394	0,070	-0,070
-78,826	329,809	0,042	-0,058
-77,811	-88,050	0,031	0,007
-76,797	-121,732	0,065	0,007
-75,782	-200,000	0,005	0,124
-74,767	347,446	0,052	0,073
-73,753	153,318	0,044	0,042
-72,738	214,399	-0,069	0,078
-71,724	95,141	0,095	-0,076
-70,709	-200,000	-0,011	-0,136
-69,694	757,651	-0,041	-0,080
-68,680	430,185	0,071	-0,109
-67,665	-162,566	0,220	-0,008
-66,651	-78,956	0,101	0,024
-65,636	1,648	0,099	-0,050
-64,622	-32,347	-0,108	-0,043
-63,607	240,536	-0,043	0,051
-62,592	-106,132	-0,107	-0,017
-61,578	-200,000	0,016	-0,052
-60,563	-200,000	0,016	0,107
-59,549	756,040	-0,038	0,072
-58,534	33,995	-1,799	-1,103
-57,519	545,674	-1,137	-1,925
-56,505	-200,000	-0,288	-4,228
-55,490	383,630	1,054	1,536
-54,476	800,000	5,047	11,173
-53,461	-200,000	21,182	340,524
-52,446	800,000	758,498	2355,090
-51,432	559,461	1662,440	2842,559
-50,417	73,759	1662,730	1228,040
-49,403	18,084	1535,982	861,574
-48,388	12,025	1459,145	789,171
-47,373	19,454	1450,031	819,848
-46,359	15,525	1439,414	795,132
-45,344	10,283	1435,458	767,958
-44,330	10,258	1433,142	766,573
-43,315	10,188	1431,630	765,396
-42,300	10,227	1429,788	764,568
-41,286	10,270	1428,460	764,034
-40,271	10,198	1427,231	763,003
-39,257	10,231	1426,032	762,488
-38,242	10,243	1425,087	762,011
-37,227	10,190	1424,060	761,180
-36,213	10,255	1422,683	760,722
-35,198	10,272	1421,368	760,069
-34,184	10,318	1420,282	759,676
-33,169	10,214	1419,256	758,606
-32,154	10,280	1418,295	758,370
-31,140	10,244	1416,861	757,406
-30,125	10,296	1415,961	757,140
-29,111	10,294	1414,695	756,420
-28,096	10,282	1413,488	755,692
-27,082	10,180	1412,443	754,624
-26,067	10,192	1411,472	754,132
-25,052	10,225	1410,387	753,677
-24,038	10,203	1409,389	753,007
-23,023	10,247	1408,253	752,577
-22,009	10,186	1407,328	751,770
-20,994	10,160	1406,283	751,060
-19,979	10,166	1405,507	750,643
-18,965	10,161	1404,268	749,926
-17,950	10,194	1403,500	749,644
-16,936	10,145	1402,644	748,926
-15,921	10,077	1401,822	748,141
-14,906	10,145	1400,774	747,867
-13,892	10,135	1399,675	747,208
-12,877	10,124	1398,993	746,759
-11,863	10,058	1398,472	746,149
-10,848	10,056	1397,232	745,445
-9,833	10,039	1396,561	744,978
-8,819	10,002	1395,651	744,295
-7,804	10,019	1394,821	743,901
-6,790	10,022	1393,496	743,179
-5,775	10,017	1392,499	742,592
-4,760	10,055	1391,467	742,188
-3,746	10,058	1390,640	741,731
-2,731	9,992	1389,931	741,019
-1,717	10,002	1389,121	740,608
-0,702	10,028	1387,138	739,636
0,313	14,163	1300,519	712,346
1,327	30,492	691,376	415,747
2,342	47,397	119,882	78,611
3,356	-0,043	16,529	8,269
4,371	-1,648	3,547	1,755
5,386	7,996	1,103	0,582
6,400	800,000	0,202	0,558
7,415	32,486	-0,238	-0,144
8,429	-64,605	-0,352	-0,100
9,444	228,892	-0,208	-0,240
10,459	84,543	-0,277	-0,213
11,473	482,557	-0,209	-0,337
12,488	54,350	-0,340	-0,230
13,502	14,807	-0,408	-0,224
14,517	248,649	-0,291	-0,348
15,531	256,941	-0,262	-0,318
16,546	231,413	-0,307	-0,354
17,561	91,134	-0,320	-0,253
18,575	-140,021	-0,051	0,004
19,590	63,619	-0,294	-0,208
20,604	73,682	-0,139	-0,103
21,619	164,348	-0,330	-0,327
22,634	165,014	-0,495	-0,492
23,648	115,954	-0,450	-0,388
24,663	702,969	-0,201	-0,374
25,677	39,387	-0,304	-0,191
26,692	-3,739	-0,326	-0,159
27,707	219,812	-0,259	-0,292
28,721	98,673	-0,345	-0,280
29,736	-30,239	-0,434	-0,172
30,750	50,268	-0,339	-0,225
31,765	45,468	-0,424	-0,275
32,780	91,559	-0,355	-0,281
33,794	112,175	-0,260	-0,221
34,809	31,378	-0,308	-0,186
35,823	242,683	-0,267	-0,314
36,838	115,624	-0,373	-0,321
37,853	41,352	-0,348	-0,221
38,867	-114,762	-0,374	-0,050
39,882	106,353	-0,225	-0,187
40,896	50,873	-0,408	-0,271
41,911	89,487	-0,352	-0,275
42,926	169,403	-0,287	-0,288
43,940	7,156	-0,467	-0,244
44,955	56,345	-0,416	-0,283
45,969	108,882	-0,356	-0,299
46,984	58,465	-0,365	-0,251
47,999	122,720	-0,299	-0,262
49,013	130,160	-0,308	-0,277
50,028	11,987	-0,288	-0,155
51,042	372,889	-0,250	-0,358
52,057	358,486	-0,222	-0,312
53,071	421,007	-0,293	-0,443
54,086	32,359	-0,221	-0,134
55,101	31,146	-0,331	-0,199
56,115	85,549	-0,272	-0,209
57,130	68,667	-0,328	-0,236
58,144	48,617	-0,347	-0,228
59,159	55,785	-0,360	-0,244
60,174	14,910	-0,371	-0,203
61,188	150,047	-0,328	-0,312
62,203	33,119	-0,378	-0,230
63,217	31,613	-0,334	-0,201
64,232	13,188	-0,413	-0,223
65,247	108,695	-0,239	-0,200
66,261	26,619	-0,237	-0,138
67,276	57,620	-0,322	-0,220
68,290	40,152	-0,365	-0,230
69,305	172,099	-0,238	-0,240
70,320	99,401	-0,380	-0,308
71,334	29,571	-0,327	-0,194
72,349	67,180	-0,349	-0,249
73,363	-19,679	-0,525	-0,227
74,378	34,946	-0,237	-0,145
75,393	12,879	-0,378	-0,204
76,407	103,720	-0,355	-0,292
77,422	-156,808	-0,332	0,014
78,436	-46,957	-0,287	-0,098
79,451	46,281	-0,366	-0,237
80,466	53,842	-0,227	-0,153
81,480	76,034	-0,262	-0,194
82,495	-200,000	-0,082	-0,368
83,509	5,241	-0,362	-0,186
84,524	-62,744	-0,339	-0,098
85,539	305,487	-0,110	-0,143
86,553	133,927	-0,140	-0,127
87,568	328,710	-0,168	-0,226
88,582	-50,620	-0,407	-0,134
89,597	85,972	-0,320	-0,246
90,611	-5,985	-0,283	-0,135
91,626	-66,373	-0,227	-0,063
92,641	487,029	-0,223	-0,357
93,655	88,864	-0,286	-0,223
94,670	8,497	-0,374	-0,196
95,684	70,740	-0,231	-0,167
96,699	183,876	-0,262	-0,272
97,714	38,560	-0,299	-0,186
98,728	81,642	-0,138	-0,104
99,743	11,117	-0,310	-0,165
100,757	195,192	-0,166	-0,177
101,772	540,437	-0,200	-0,334
102,787	59,705	-0,294	-0,203
103,801	53,288	-0,372	-0,248
104,816	-106,252	-0,347	-0,054
105,830	-37,487	-0,231	-0,086
106,845	66,599	-0,218	-0,155
107,860	-75,239	-0,373	-0,092
108,874	-135,840	-0,242	-0,020
109,889	138,822	-0,219	-0,201
110,903	314,563	-0,263	-0,347
111,918	54,845	-0,160	-0,108
112,933	68,693	-0,177	-0,127
113,947	-0,999	-0,177	-0,087
114,962	306,563	-0,162	-0,210
115,976	79,859	-0,187	-0,140
116,991	-69,213	-0,307	-0,082
118,006	102,826	-0,287	-0,235
119,020	-2,653	-0,224	-0,109
120,035	76,387	-0,259	-0,191
121,049	157,952	-0,189	-0,183
122,064	-43,113	-0,252	-0,089
123,079	637,653	-0,098	-0,174
124,093	88,579	-0,282	-0,218
125,108	326,560	-0,229	-0,307
126,122	-71,000	-0,265	-0,069
127,137	194,446	-0,135	-0,143
128,151	165,116	-0,291	-0,287
129,166	125,287	-0,289	-0,254
130,181	111,248	-0,181	-0,152
131,195	29,218	-0,178	-0,105
132,210	12,126	-0,308	-0,165
133,224	67,489	-0,255	-0,181
134,239	103,297	-0,267	-0,218
135,254	240,154	-0,250	-0,291
136,268	-15,829	-0,183	-0,081
137,283	110,834	-0,249	-0,209
138,297	-4,016	-0,357	-0,172
139,312	174,149	-0,214	-0,216
140,327	277,196	-0,182	-0,225
141,341	447,583	-0,204	-0,313
142,356	210,425	-0,210	-0,230
143,370	64,299	-0,142	-0,099
144,385	101,697	-0,281	-0,228
145,400	371,726	-0,200	-0,284
146,414	511,636	-0,191	-0,311
147,429	25,667	-0,224	-0,130
148,443	51,817	-0,231	-0,152
149,458	-97,963	-0,221	-0,039
150,473	-98,041	-0,322	-0,057
151,487	34,142	-0,185	-0,112
152,502	67,016	-0,230	-0,163
153,516	535,678	-0,157	-0,261
154,531	31,026	-0,168	-0,100
155,546	306,673	-0,149	-0,193
156,560	392,461	-0,205	-0,298
157,575	29,289	-0,278	-0,164
158,589	-91,602	-0,237	-0,047
159,604	-27,729	-0,280	-0,113
160,619	-104,937	-0,321	-0,051
161,633	186,499	-0,215	-0,223
162,648	137,622	-0,244	-0,222
163,662	-173,895	-0,132	-0,003
164,677	92,935	-0,180	-0,141
165,692	187,988	-0,164	-0,170
166,706	385,561	-0,193	-0,278
167,721	-16,803	-0,193	-0,084
168,735	-42,197	-0,183	-0,065
169,750	39,268	-0,251	-0,156
170,764	-19,162	-0,271	-0,116
171,779	800,000	-0,116	-0,237
172,794	199,385	-0,169	-0,180
173,808	44,591	-0,242	-0,154
174,823	3,575	-0,322	-0,163
175,837	-29,422	-0,412	-0,163
176,852	108,358	-0,213	-0,177
177,867	141,665	-0,164	-0,151
178,881	16,739	-0,282	-0,154
179,896	154,903	-0,164	-0,156
180,910	-22,146	-0,203	-0,085
181,925	319,826	-0,235	-0,310
182,940	18,923	-0,319	-0,177
183,954	117,997	-0,050	0,042
184,969	110,168	-0,252	-0,210
185,983	800,000	-0,107	-0,216
186,998	-1,868	-0,248	-0,120
188,013	101,127	-0,180	-0,145
189,027	213,047	-0,256	-0,281
190,042	314,217	-0,156	-0,204
191,056	78,859	-0,218	-0,161
192,071	-98,211	-0,257	-0,045
193,086	547,919	-0,138	-0,230
194,100	53,110	-0,203	-0,134
195,115	-77,585	-0,171	-0,041
196,129	96,681	-0,231	-0,183
197,144	94,913	-0,218	-0,172
198,159	35,584	-0,225	-0,137
199,173	800,000	-0,079	-0,182
200,188	800,000	-0,091	-0,275
201,202	257,677	-0,072	-0,086
202,217	142,148	-0,176	-0,161
203,232	69,463	-0,290	-0,207
204,246	115,605	-0,156	-0,132
205,261	48,630	-0,193	-0,125
206,275	-152,408	-0,206	0,010
207,290	52,685	-0,180	-0,119
208,304	447,550	-0,161	-0,246
209,319	-20,152	-0,152	-0,065
210,334	474,712	-0,159	-0,250
211,348	-5,911	-0,312	-0,147
212,363	-200,000	-0,100	-0,314
213,377	800,000	-0,075	-0,150
214,392	26,017	-0,210	-0,121
215,407	61,642	-0,173	-0,119
216,421	-200,000	-0,012	-0,084
217,436	800,000	-0,088	-0,198
218,450	46,674	-0,200	-0,128
219,465	800,000	-0,100	-0,203
220,480	28,815	-0,183	-0,107
221,494	237,843	-0,136	-0,156
222,509	800,000	-0,065	-0,190
223,523	60,666	-0,159	-0,108
224,538	49,625	-0,176	-0,114
225,553	59,409	-0,165	-0,112
226,567	800,000	-0,089	-0,224
227,582	223,122	-0,169	-0,188
228,596	142,285	-0,173	-0,158
229,611	-53,712	-0,127	-0,040
230,626	165,849	-0,049	-0,048
231,640	-55,782	-0,235	-0,072
232,655	178,532	-0,231	-0,233
233,669	292,750	-0,178	-0,224
234,684	-32,986	-0,190	-0,072
235,699	38,139	-0,208	-0,127
236,713	57,403	-0,146	-0,098
237,728	-65,086	-0,261	-0,072
238,742	-88,069	-0,203	-0,042
239,757	-26,256	-0,159	-0,064
240,772	115,578	-0,254	-0,214
241,786	1,466	-0,177	-0,088
242,801	209,706	-0,124	-0,134
243,815	99,257	-0,087	-0,069
244,830	-58,005	-0,248	-0,074
245,844	-99,923	-0,339	-0,058
246,859	800,000	-0,034	-0,096
247,874	762,878	-0,085	-0,159
248,888	370,275	-0,140	-0,197
249,903	-46,978	-0,181	-0,061
250,917	42,214	-0,172	-0,107
251,932	-85,696	-0,123	-0,026
252,947	161,322	-0,242	-0,233
253,961	62,066	-0,142	-0,097
254,976	-200,000	-0,019	-0,170
255,990	299,234	-0,150	-0,191
257,005	347,293	-0,148	-0,202
258,020	-200,000	-0,029	-0,204
259,034	9,363	-0,132	-0,068
260,049	423,344	-0,148	-0,220
261,063	403,493	-0,197	-0,286
262,078	-72,613	-0,099	-0,025
263,093	255,231	-0,166	-0,196
264,107	800,000	-0,054	-0,109
265,122	800,000	-0,076	-0,177
266,136	-22,553	-0,161	-0,067
267,151	222,531	-0,068	-0,076
268,166	106,053	-0,223	-0,181
269,180	127,835	-0,222	-0,194
270,195	123,271	-0,163	-0,140
271,209	-74,487	-0,181	-0,045
272,224	5,486	-0,241	-0,122
273,239	2,915	-0,144	-0,072
274,253	120,627	-0,116	-0,099
275,268	49,503	-0,159	-0,103
276,282	-116,466	-0,222	0,028
277,297	374,833	-0,152	-0,214
278,312	-200,000	0,016	-0,073
279,326	-30,093	-0,128	-0,050
280,341	800,000	-0,077	-0,158
281,355	-200,000	0,032	-0,147
282,370	113,738	-0,114	-0,095
283,384	232,421	-0,157	-0,177
284,399	-183,547	-0,194	-0,002
285,414	-200,000	-0,042	-0,163
286,428	-68,668	-0,148	-0,039
287,443	-34,317	-0,186	-0,070
288,457	497,435	-0,048	-0,076
289,472	-127,168	-0,081	-0,008
290,487	-0,415	-0,307	-0,150
291,501	141,621	-0,098	-0,089
292,516	226,347	-0,139	-0,155
293,530	25,060	-0,061	0,035
294,545	-14,833	-0,163	0,072
295,560	112,198	-0,132	-0,110
296,574	70,375	-0,174	-0,123
297,589	91,147	-0,163	-0,126
298,603	-48,855	-0,203	-0,066
299,618	58,007	-0,114	-0,077
300,633	800,000	-0,110	-0,216
301,647	-74,300	-0,169	-0,042
302,662	800,000	-0,041	-0,087
303,676	89,314	-0,099	-0,076
304,691	800,000	-0,101	-0,194
305,706	458,218	-0,225	-0,344
306,720	339,194	-0,183	-0,246
307,735	800,000	-0,072	-0,200
308,749	-200,000	-0,071	-0,251
309,764	154,681	-0,068	-0,064
310,779	115,544	-0,122	-0,102
311,793	-46,093	-0,122	-0,041
312,808	-60,562	-0,216	-0,062
313,822	200,859	-0,063	-0,067
314,837	156,561	-0,102	-0,096
315,852	800,000	0,044	-0,123
316,866	112,910	-0,049	-0,041
317,881	96,777	-0,049	-0,038
318,895	-4,821	-0,231	-0,109
319,910	34,078	-0,213	-0,127
320,925	51,191	-0,180	-0,117
321,939	-84,568	-0,255	-0,055
322,954	4,382	-0,146	-0,073
323,968	212,244	-0,134	-0,145
324,983	567,471	-0,155	-0,259
325,997	231,075	-0,090	-0,102
327,012	17,098	-0,241	-0,130
328,027	30,859	-0,243	-0,142
329,041	-108,133	-0,255	0,037
330,056	800,000	-0,064	-0,193
331,070	-200,000	-0,024	-0,114
332,085	458,595	-0,046	-0,070
333,100	11,223	-0,101	-0,053
334,114	154,163	-0,165	-0,155
335,129	800,000	-0,086	-0,170
336,143	716,190	-0,067	-0,122
337,158	186,542	-0,080	-0,081
338,173	45,656	-0,095	0,060
339,187	80,010	-0,123	-0,090
340,202	85,798	-0,138	-0,104
341,216	121,107	-0,170	-0,144
342,231	111,294	-0,184	-0,152
343,246	800,000	-0,101	-0,201
344,260	264,724	-0,095	-0,114
345,275	462,403	-0,085	-0,130
346,289	-23,535	-0,199	-0,081
347,304	154,723	-0,162	-0,153
348,319	-158,799	-0,089	0,003
349,333	250,989	-0,133	-0,154
350,348	-57,141	-0,120	-0,036
351,362	34,919	-0,134	-0,080
352,377	216,513	-0,110	-0,120
353,392	-21,405	-0,201	-0,084
354,406	-57,108	-0,172	0,051
355,421	206,270	1312,289	1397,647
356,435	158,627	1472,697	1398,124
