DTS Sentinel unit serial number:	SN410029Multiplexer serial number:	ORYXHardware model number:	OX2-SRSoftware version number:	ORYX F/W v4,00 Oryx Data Collector v3.7.2.0data status	okinstallation	B3 Nyhavnadifferential loss correction	single-endedforward channel	channel 1reverse channel	N/Adate	2023/12/02time	07:17:30forward acquisition time	300,00reverse acquisition time	0,00gamma	499,1914k internal	0,3194k external	0,3194temperature offset calibration	1,0000default loss term (dB/km)	0,3820temperature slope calibration	1,0000multiplexer offset coefficient	1,0000multiplexer slope coefficient	1,0000fibre end	0,00T internal ref (°C)	15,69T ext. ref 1 (°C)	0,47T ext. ref 2 (°C)	0,46length (m)	temperature (°C)	Stokes	anti-Stokes-744,400	656,124	-0,134	-0,252
-743,385	338,538	0,234	0,333
-742,371	177,447	-0,261	-0,277
-741,356	670,880	0,174	0,329
-740,342	260,742	-0,179	-0,226
-739,327	800,000	-0,085	0,234
-738,312	253,752	-0,202	-0,252
-737,298	-200,000	0,016	0,201
-736,283	-5,199	-0,371	-0,185
-735,269	-200,000	0,040	0,365
-734,254	127,756	-0,175	-0,162
-733,239	33,584	-0,119	0,075
-732,225	-200,000	-0,019	-0,223
-731,210	58,105	0,123	0,088
-730,196	-153,712	-0,090	-0,004
-729,181	-118,232	0,074	0,009
-728,167	-200,000	0,023	-0,167
-727,152	-200,000	-0,018	-0,073
-726,137	800,000	-0,039	-0,124
-725,123	732,727	-0,091	-0,178
-724,108	4,781	-0,200	-0,107
-723,094	200,807	-0,133	-0,149
-722,079	42,982	0,031	0,021
-721,064	200,297	0,014	-0,015
-720,050	59,158	-0,030	-0,022
-719,035	800,000	0,026	0,069
-718,021	-29,180	-0,097	0,040
-717,006	-82,334	-0,129	0,030
-715,991	473,155	-0,047	-0,077
-714,977	-200,000	0,001	0,051
-713,962	-48,884	-0,015	0,005
-712,948	-200,000	-0,001	0,117
-711,933	-14,084	0,033	-0,016
-710,918	800,000	-0,028	-0,072
-709,904	-200,000	-0,003	-0,044
-708,889	19,463	-0,059	-0,034
-707,875	701,758	-0,033	0,064
-706,860	2,715	-0,127	0,067
-705,845	37,550	0,122	-0,079
-704,831	119,184	0,102	0,091
-703,816	-200,000	0,054	-0,000
-702,802	38,547	-0,127	0,082
-701,787	50,293	-0,109	-0,075
-700,772	287,030	-0,036	0,047
-699,758	-200,000	-0,006	0,032
-698,743	800,000	0,078	-0,248
-697,729	12,140	-0,087	0,048
-696,714	8,321	0,158	0,086
-695,699	-22,287	-0,053	0,023
-694,685	253,645	0,073	0,091
-693,670	131,439	-0,077	-0,072
-692,656	800,000	0,033	-0,085
-691,641	-200,000	0,034	0,148
-690,627	46,466	0,090	0,060
-689,612	-200,000	0,004	-0,033
-688,597	200,042	-0,078	0,087
-687,583	800,000	0,050	-0,112
-686,568	-113,982	-0,128	-0,018
-685,554	224,568	0,018	-0,022
-684,539	-200,000	0,037	0,141
-683,524	-92,172	0,044	-0,009
-682,510	-200,000	0,008	0,052
-681,495	800,000	-0,036	-0,109
-680,481	97,539	-0,222	-0,185
-679,466	-200,000	-0,009	0,034
-678,451	-29,120	0,043	-0,018
-677,437	251,544	-0,007	0,009
-676,422	800,000	-0,006	0,017
-675,408	-200,000	0,013	0,064
-674,393	-104,747	-0,098	0,016
-673,378	-155,921	0,019	0,001
-672,364	211,234	0,026	-0,030
-671,349	163,305	-0,051	0,052
-670,335	131,536	0,031	0,029
-669,320	-92,681	0,121	0,024
-668,305	-24,711	-0,016	-0,007
-667,291	800,000	-0,056	0,117
-666,276	-200,000	-0,006	-0,115
-665,262	-200,000	0,003	-0,066
-664,247	-200,000	-0,059	-0,190
-663,232	86,447	-0,061	-0,049
-662,218	-101,214	0,180	0,032
-661,203	800,000	0,079	-0,173
-660,189	264,281	0,091	-0,115
-659,174	-193,553	-0,089	0,001
-658,159	21,131	-0,096	-0,056
-657,145	-200,000	0,008	-0,113
-656,130	81,266	-0,099	0,078
-655,116	800,000	-0,026	0,074
-654,101	-200,000	-0,002	0,042
-653,086	800,000	0,012	0,032
-652,072	-200,000	-0,020	-0,123
-651,057	-200,000	0,024	0,091
-650,043	-200,000	-0,016	-0,099
-649,028	-87,800	-0,067	0,015
-648,014	101,445	-0,046	0,039
-646,999	130,703	0,107	0,099
-645,984	-200,000	0,020	0,076
-644,970	-57,692	-0,034	-0,011
-643,955	6,851	-0,092	-0,050
-642,941	383,713	-0,146	-0,219
-641,926	-102,213	-0,097	-0,017
-640,911	-95,534	0,074	0,014
-639,897	-200,000	-0,006	0,090
-638,882	728,305	0,037	0,072
-637,868	746,389	0,052	-0,103
-636,853	-200,000	-0,001	0,030
-635,838	119,591	0,048	0,043
-634,824	800,000	-0,027	-0,082
-633,809	84,941	0,031	0,025
-632,795	34,887	-0,037	-0,023
-631,780	800,000	-0,015	-0,032
-630,765	800,000	-0,039	-0,123
-629,751	-15,244	-0,145	0,067
-628,736	318,244	-0,034	0,047
-627,722	127,307	-0,071	-0,066
-626,707	499,750	-0,009	0,016
-625,692	-135,487	-0,049	-0,004
-624,678	-200,000	0,019	-0,076
-623,663	457,382	-0,074	0,119
-622,649	-200,000	-0,030	-0,134
-621,634	-125,971	-0,056	-0,006
-620,619	-200,000	-0,007	-0,122
-619,605	-69,999	0,082	-0,022
-618,590	-200,000	0,007	-0,183
-617,576	-121,630	-0,069	0,008
-616,561	105,685	-0,056	0,048
-615,546	145,106	-0,093	-0,090
-614,532	-200,000	-0,034	-0,175
-613,517	-58,119	-0,015	-0,005
-612,503	314,674	0,082	0,112
-611,488	96,768	0,050	0,042
-610,474	1,313	0,040	-0,021
-609,459	-45,978	0,054	-0,019
-608,444	-59,214	-0,147	-0,046
-607,430	-55,205	-0,035	-0,011
-606,415	-200,000	0,002	-0,063
-605,401	-200,000	-0,012	-0,184
-604,386	-200,000	0,003	-0,056
-603,371	800,000	0,034	0,094
-602,357	-200,000	-0,037	0,137
-601,342	-200,000	0,017	0,067
-600,328	-21,311	0,079	0,035
-599,313	454,330	-0,048	-0,078
-598,298	800,000	-0,026	0,063
-597,284	-80,677	-0,080	-0,019
-596,269	-112,142	0,069	0,010
-595,255	279,263	-0,047	-0,061
-594,240	81,685	0,055	0,043
-593,225	-200,000	-0,008	-0,098
-592,211	-51,611	0,123	0,041
-591,196	800,000	-0,028	-0,088
-590,182	-69,768	0,099	0,027
-589,167	-200,000	-0,009	0,066
-588,152	-200,000	-0,004	0,160
-587,138	90,729	-0,069	-0,056
-586,123	140,894	-0,124	0,119
-585,109	51,698	-0,092	-0,064
-584,094	46,620	0,028	-0,019
-583,079	800,000	-0,046	-0,105
-582,065	-200,000	0,013	0,137
-581,050	-200,000	0,009	0,133
-580,036	-20,232	0,059	-0,026
-579,021	-73,950	0,056	-0,015
-578,006	-200,000	0,004	0,114
-576,992	112,824	-0,089	-0,078
-575,977	466,557	0,054	-0,087
-574,963	800,000	0,057	0,125
-573,948	177,582	0,064	0,068
-572,934	26,506	0,068	0,041
-571,919	-200,000	0,006	-0,020
-570,904	-200,000	0,002	-0,072
-569,890	65,751	-0,028	-0,021
-568,875	-194,694	0,038	0,000
-567,861	-31,739	0,055	-0,022
-566,846	21,274	-0,023	0,013
-565,831	-68,461	0,134	0,037
-564,817	-200,000	-0,003	0,036
-563,802	44,810	-0,195	-0,130
-562,788	109,529	-0,043	0,038
-561,773	151,173	0,049	0,048
-560,758	-4,803	0,078	0,039
-559,744	710,846	0,043	0,083
-558,729	-200,000	-0,015	-0,070
-557,715	-200,000	-0,018	0,201
-556,700	267,327	0,031	0,039
-555,685	-200,000	-0,002	-0,058
-554,671	144,682	-0,084	0,081
-553,656	-75,357	-0,021	0,005
-552,642	601,637	-0,090	0,162
-551,627	536,321	-0,032	0,054
-550,612	234,482	-0,103	0,123
-549,598	163,736	0,031	0,031
-548,583	-150,393	-0,020	0,001
-547,569	113,612	0,089	-0,079
-546,554	599,532	-0,018	0,033
-545,539	800,000	-0,027	0,059
-544,525	668,702	0,046	0,087
-543,510	79,074	-0,106	-0,082
-542,496	119,014	-0,093	-0,083
-541,481	-76,728	-0,085	-0,021
-540,466	-80,941	-0,091	-0,022
-539,452	800,000	-0,014	-0,034
-538,437	-2,626	-0,122	-0,062
-537,423	22,033	0,072	0,043
-536,408	353,938	0,073	-0,105
-535,393	202,240	-0,068	-0,076
-534,379	185,943	-0,088	-0,094
-533,364	-200,000	-0,014	-0,151
-532,350	49,360	-0,115	0,078
-531,335	-200,000	0,014	0,214
-530,321	-3,176	0,073	0,037
-529,306	-200,000	-0,020	-0,064
-528,291	123,118	0,074	-0,067
-527,277	-112,753	-0,119	-0,017
-526,262	520,783	-0,019	-0,033
-525,248	129,926	-0,045	-0,042
-524,233	-200,000	-0,003	0,027
-523,218	115,688	0,050	-0,044
-522,204	214,585	0,063	0,072
-521,189	-100,507	-0,036	0,006
-520,175	-171,512	-0,088	-0,002
-519,160	-200,000	0,014	-0,076
-518,145	-200,000	0,011	0,048
-517,131	34,439	0,213	0,134
-516,116	-200,000	0,021	0,120
-515,102	800,000	-0,039	0,111
-514,087	-22,198	0,042	0,018
-513,072	-200,000	-0,022	-0,110
-512,058	212,483	-0,072	0,082
-511,043	274,687	0,094	0,120
-510,029	181,281	0,055	-0,059
-509,014	202,325	0,043	0,048
-507,999	47,327	0,020	-0,014
-506,985	79,312	0,128	-0,099
-505,970	800,000	-0,038	-0,115
-504,956	-200,000	-0,000	0,002
-503,941	121,818	-0,066	-0,059
-502,926	-89,073	0,128	-0,027
-501,912	-200,000	0,040	0,180
-500,897	-47,979	-0,056	0,019
-499,883	-200,000	-0,035	0,129
-498,868	800,000	-0,030	-0,065
-497,853	261,066	0,041	0,051
-496,839	233,294	0,055	0,065
-495,824	547,284	0,065	0,113
-494,810	198,175	-0,046	-0,051
-493,795	531,347	0,045	0,077
-492,781	-103,202	-0,203	-0,034
-491,766	-200,000	0,001	-0,114
-490,751	800,000	-0,052	-0,105
-489,737	800,000	-0,032	-0,093
-488,722	479,941	0,006	0,010
-487,708	43,433	-0,064	0,042
-486,693	358,960	0,005	0,007
-485,678	-76,899	-0,155	-0,039
-484,664	-200,000	-0,030	-0,104
-483,649	800,000	-0,044	-0,117
-482,635	109,593	0,082	-0,071
-481,620	-156,012	0,077	0,003
-480,605	595,145	0,034	0,061
-479,591	132,236	-0,110	0,102
-478,576	-0,358	-0,067	-0,034
-477,562	194,567	-0,029	-0,032
-476,547	-151,294	-0,069	0,004
-475,532	-39,591	0,024	0,009
-474,518	800,000	0,034	0,095
-473,503	-200,000	0,002	0,115
-472,489	35,759	0,080	-0,051
-471,474	4,439	0,101	0,053
-470,459	340,741	0,062	-0,087
-469,445	74,272	-0,038	-0,029
-468,430	165,649	0,033	-0,034
-467,416	-48,913	0,108	0,037
-466,401	-200,000	0,009	0,049
-465,386	22,754	-0,012	0,007
-464,372	-124,589	-0,076	-0,008
-463,357	284,619	-0,047	-0,062
-462,343	-38,280	-0,057	0,022
-461,328	-43,504	0,117	0,042
-460,313	294,656	0,038	-0,050
-459,299	-200,000	0,042	0,221
-458,284	800,000	0,052	0,110
-457,270	-69,490	-0,088	0,024
-456,255	-200,000	-0,001	0,032
-455,241	800,000	-0,037	-0,089
-454,226	-200,000	-0,005	-0,024
-453,211	159,123	0,089	0,089
-452,197	-123,986	0,114	0,013
-451,182	800,000	0,022	-0,044
-450,168	800,000	0,062	0,126
-449,153	-85,515	0,015	-0,003
-448,138	-200,000	0,007	0,065
-447,124	-90,796	-0,100	0,021
-446,109	237,213	0,061	-0,073
-445,095	328,756	0,040	-0,056
-444,080	-200,000	-0,016	0,069
-443,065	258,744	-0,024	-0,030
-442,051	800,000	0,034	0,077
-441,036	303,951	0,055	0,074
-440,022	124,459	-0,031	0,029
-439,007	372,150	0,048	-0,070
-437,992	-61,528	0,114	0,034
-436,978	112,524	-0,052	-0,046
-435,963	-110,183	-0,084	-0,013
-434,949	800,000	-0,045	-0,106
-433,934	62,921	-0,039	-0,028
-432,919	66,329	-0,072	0,052
-431,905	-107,671	0,093	-0,014
-430,890	542,316	-0,028	0,048
-429,876	586,318	0,043	-0,077
-428,861	-16,914	0,118	0,054
-427,846	385,305	-0,016	-0,024
-426,832	200,446	-0,041	-0,045
-425,817	-52,218	0,114	-0,038
-424,803	137,258	-0,119	-0,112
-423,788	-106,200	0,096	0,015
-422,773	-71,910	-0,106	-0,028
-421,759	-80,444	-0,063	0,015
-420,744	-56,631	0,065	0,021
-419,730	-200,000	-0,013	-0,105
-418,715	-146,962	-0,119	0,007
-417,701	-24,339	-0,077	-0,033
-416,686	800,000	0,045	0,126
-415,671	462,522	0,074	0,119
-414,657	395,922	0,071	0,107
-413,642	35,208	-0,073	-0,046
-412,628	800,000	-0,054	-0,137
-411,613	-85,370	-0,051	0,011
-410,598	206,502	-0,009	-0,010
-409,584	-200,000	0,034	-0,108
-408,569	-200,000	-0,012	0,052
-407,555	-113,953	0,053	0,007
-406,540	40,973	0,051	-0,033
-405,525	241,933	-0,068	-0,082
-404,511	157,509	-0,037	-0,037
-403,496	22,641	0,217	-0,128
-402,482	221,607	-0,054	0,062
-401,467	142,619	0,038	0,037
-400,452	177,703	0,014	0,014
-399,438	456,054	0,033	0,052
-398,423	-130,087	-0,117	-0,011
-397,409	33,598	0,056	-0,035
-396,394	318,000	0,056	-0,076
-395,379	800,000	0,021	0,050
-394,365	146,183	-0,051	0,049
-393,350	122,224	0,021	0,019
-392,336	800,000	0,045	0,097
-391,321	131,593	-0,044	-0,040
-390,306	63,897	-0,107	0,077
-389,292	800,000	0,024	0,052
-388,277	-67,103	-0,015	-0,004
-387,263	800,000	0,019	0,056
-386,248	9,771	0,032	0,018
-385,233	-200,000	0,029	0,167
-384,219	800,000	0,035	0,095
-383,204	32,117	-0,097	-0,060
-382,190	-200,000	0,024	0,238
-381,175	-74,823	0,100	0,026
-380,160	31,232	0,033	0,020
-379,146	486,962	-0,097	0,159
-378,131	-109,251	0,074	0,011
-377,117	-41,727	0,020	0,007
-376,102	-200,000	-0,019	-0,190
-375,088	290,100	-0,045	0,059
-374,073	-200,000	-0,016	-0,058
-373,058	157,719	0,094	-0,094
-372,044	-96,624	-0,033	-0,006
-371,029	255,478	0,073	0,090
-370,015	-110,435	0,111	0,016
-369,000	94,790	-0,045	0,037
-367,985	-95,956	0,007	-0,001
-366,971	-92,488	-0,139	-0,028
-365,956	102,296	0,035	0,029
-364,942	275,188	0,062	0,080
-363,927	-13,374	0,077	0,036
-362,912	58,013	-0,054	-0,038
-361,898	-71,267	-0,063	-0,017
-360,883	-200,000	0,008	-0,027
-359,869	450,099	-0,044	0,070
-358,854	244,745	-0,024	0,029
-357,839	800,000	0,028	0,073
-356,825	-200,000	-0,004	0,061
-355,810	-139,049	0,103	-0,008
-354,796	-112,287	-0,036	0,005
-353,781	-59,953	-0,083	0,025
-352,766	-200,000	0,001	0,023
-351,752	-144,789	0,151	0,010
-350,737	42,971	-0,013	0,008
-349,723	-200,000	0,032	0,160
-348,708	153,176	0,110	0,108
-347,693	-45,436	0,124	-0,044
-346,679	-200,000	0,012	-0,256
-345,664	138,337	0,079	-0,075
-344,650	94,271	-0,060	-0,048
-343,635	117,314	0,029	-0,026
-342,620	-200,000	0,014	0,052
-341,606	800,000	-0,034	-0,078
-340,591	-92,217	-0,108	-0,022
-339,577	14,468	0,017	-0,010
-338,562	-200,000	0,001	-0,109
-337,548	-200,000	-0,019	-0,098
-336,533	2,842	0,106	-0,055
-335,518	-200,000	-0,002	0,050
-334,504	395,511	0,045	-0,068
-333,489	-200,000	-0,010	-0,078
-332,475	-77,284	-0,096	-0,024
-331,460	-200,000	0,008	-0,076
-330,445	-127,151	0,024	-0,002
-329,431	-200,000	-0,001	-0,100
-328,416	-200,000	-0,039	0,146
-327,402	136,300	0,145	0,136
-326,387	-200,000	0,018	0,069
-325,372	242,678	-0,037	0,044
-324,358	-63,603	-0,112	-0,033
-323,343	800,000	-0,040	-0,086
-322,329	62,711	0,068	0,048
-321,314	307,542	0,029	-0,039
-320,299	-200,000	-0,013	0,060
-319,285	668,508	0,019	0,036
-318,270	-200,000	0,008	-0,118
-317,256	800,000	0,089	-0,209
-316,241	18,553	-0,027	-0,015
-315,226	-200,000	0,011	-0,092
-314,212	-76,007	0,025	0,006
-313,197	202,284	0,051	0,057
-312,183	-191,179	-0,196	-0,001
-311,168	-158,422	0,132	0,005
-310,153	-200,000	0,023	-0,166
-309,139	-169,957	0,112	-0,003
-308,124	-123,516	-0,057	0,006
-307,110	136,686	0,129	0,121
-306,095	551,792	-0,047	0,081
-305,080	-55,160	-0,021	0,007
-304,066	-200,000	0,006	-0,063
-303,051	-200,000	0,011	-0,061
-302,037	252,577	-0,050	-0,061
-301,022	7,133	0,089	0,047
-300,008	-200,000	0,019	-0,120
-298,993	428,195	0,035	0,054
-297,978	-200,000	-0,005	0,151
-296,964	-118,394	0,056	0,007
-295,949	1,250	-0,091	-0,047
-294,935	203,192	0,047	0,052
-293,920	665,720	0,028	0,053
-292,905	-47,981	0,102	-0,035
-291,891	-20,287	-0,051	-0,022
-290,876	243,224	-0,060	0,072
-289,862	-4,597	-0,069	0,034
-288,847	-114,938	-0,118	-0,016
-287,832	-200,000	-0,031	-0,247
-286,818	-96,998	0,119	0,022
-285,803	-90,294	0,085	-0,017
-284,789	261,684	0,046	0,057
-283,774	-200,000	0,001	-0,067
-282,759	105,912	-0,081	0,068
-281,745	-51,615	0,126	0,042
-280,730	10,028	-0,148	-0,080
-279,716	331,242	0,075	0,103
-278,701	32,682	0,070	0,043
-277,686	-38,449	-0,080	0,030
-276,672	222,617	0,004	-0,004
-275,657	8,584	-0,110	0,059
-274,643	-200,000	-0,043	-0,211
-273,628	228,546	0,040	-0,047
-272,613	-200,000	-0,000	-0,003
-271,599	-2,031	0,113	0,056
-270,584	-200,000	-0,003	0,098
-269,570	-24,841	0,107	0,045
-268,555	800,000	-0,050	-0,151
-267,540	-200,000	-0,007	0,141
-266,526	-172,070	-0,095	0,002
-265,511	54,851	0,012	-0,008
-264,497	800,000	0,040	-0,090
-263,482	-200,000	-0,002	0,031
-262,467	-198,681	0,225	-0,001
-261,453	-62,093	-0,030	-0,009
-260,438	116,674	0,077	-0,068
-259,424	-200,000	-0,005	-0,105
-258,409	94,337	0,047	-0,038
-257,395	482,478	0,100	-0,163
-256,380	226,895	0,038	-0,044
-255,365	800,000	-0,014	0,035
-254,351	12,586	0,132	-0,072
-253,336	-83,626	-0,247	0,056
-252,322	800,000	-0,031	-0,075
-251,307	227,700	-0,066	0,077
-250,292	35,303	-0,110	0,069
-249,278	-96,009	0,082	0,015
-248,263	218,179	0,048	0,055
-247,249	752,722	-0,056	-0,108
-246,234	-200,000	-0,013	-0,052
-245,219	184,854	-0,112	-0,119
-244,205	800,000	0,023	-0,057
-243,190	800,000	0,036	0,086
-242,176	-200,000	-0,009	0,038
-241,161	126,206	0,021	-0,019
-240,146	-200,000	-0,044	-0,227
-239,132	134,993	-0,069	-0,064
-238,117	-132,563	-0,118	0,011
-237,103	-73,851	-0,145	-0,037
-236,088	-121,340	0,086	0,010
-235,073	-86,327	-0,005	-0,001
-234,059	-33,573	0,094	0,037
-233,044	564,938	-0,013	0,023
-232,030	-124,967	-0,056	-0,006
-231,015	232,852	0,044	-0,052
-230,000	34,938	-0,096	-0,060
-228,986	-4,395	0,116	0,057
-227,971	-74,692	-0,144	0,037
-226,957	800,000	0,028	0,057
-225,942	130,877	0,035	0,032
-224,927	-200,000	0,006	-0,068
-223,913	578,380	0,062	0,109
-222,898	-119,570	-0,158	-0,019
-221,884	800,000	0,016	0,044
-220,869	113,178	0,090	0,078
-219,855	-64,531	0,143	0,041
-218,840	192,930	0,132	0,143
-217,825	-124,490	-0,014	-0,002
-216,811	3,673	-0,119	-0,062
-215,796	800,000	-0,052	0,129
-214,782	297,134	0,034	0,045
-213,767	74,595	0,021	-0,016
-212,752	-5,269	0,086	0,042
-211,738	43,027	-0,059	-0,038
-210,723	148,179	0,044	0,042
-209,709	-96,020	0,059	-0,011
-208,694	181,567	-0,062	0,066
-207,679	397,666	0,027	0,040
-206,665	-29,054	0,033	-0,013
-205,650	163,729	0,130	0,130
-204,636	32,023	-0,062	0,038
-203,621	77,337	0,047	0,036
-202,606	-162,767	-0,161	-0,006
-201,592	-200,000	0,042	0,000
-200,577	-97,527	0,046	-0,008
-199,563	221,956	-0,031	-0,036
-198,548	-200,000	-0,000	0,179
-197,533	200,807	0,046	-0,051
-196,519	800,000	0,026	0,056
-195,504	-107,739	-0,100	-0,015
-194,490	-200,000	0,001	-0,100
-193,475	800,000	-0,109	-0,220
-192,460	39,765	-0,087	-0,055
-191,446	520,075	-0,056	0,093
-190,431	26,407	0,120	0,071
-189,417	800,000	0,014	0,042
-188,402	-112,763	-0,029	0,004
-187,387	-21,374	-0,051	0,022
-186,373	167,475	0,056	0,057
-185,358	-200,000	0,017	-0,126
-184,344	800,000	0,068	0,146
-183,329	800,000	0,023	0,067
-182,315	-104,128	-0,099	-0,016
-181,300	739,532	-0,022	-0,042
-180,285	800,000	-0,008	-0,023
-179,271	-27,063	-0,026	-0,011
-178,256	800,000	-0,051	0,109
-177,242	-200,000	-0,002	-0,038
-176,227	-66,763	0,086	-0,024
-175,212	208,493	0,082	-0,091
-174,198	-200,000	-0,017	-0,070
-173,183	-142,662	-0,064	0,004
-172,169	800,000	-0,045	-0,114
-171,154	54,381	0,128	-0,088
-170,139	-114,583	-0,088	0,012
-169,125	19,571	-0,017	-0,010
-168,110	-83,069	0,017	-0,004
-167,096	-200,000	0,010	-0,120
-166,081	97,497	-0,068	-0,056
-165,066	-200,000	-0,019	0,129
-164,052	223,077	-0,125	-0,144
-163,037	64,969	-0,042	-0,030
-162,023	-50,203	0,027	0,009
-161,008	-98,811	0,128	-0,023
-159,993	800,000	-0,004	-0,012
-158,979	800,000	-0,056	-0,114
-157,964	69,306	-0,065	0,048
-156,950	794,130	-0,053	-0,104
-155,935	49,195	-0,045	-0,030
-154,920	-171,705	0,113	-0,003
-153,906	-115,940	0,130	0,017
-152,891	-200,000	-0,003	0,102
-151,877	800,000	-0,027	-0,063
-150,862	66,717	0,088	0,064
-149,847	-200,000	-0,015	-0,050
-148,833	298,580	0,023	-0,030
-147,818	299,071	0,050	0,065
-146,804	-60,332	-0,041	0,012
-145,789	-49,251	-0,109	0,037
-144,775	3,506	-0,127	-0,066
-143,760	-97,977	-0,067	0,012
-142,745	-77,423	0,099	0,024
-141,731	16,244	-0,078	0,044
-140,716	154,662	0,084	-0,082
-139,702	-47,500	-0,005	-0,002
-138,687	197,316	-0,039	-0,043
-137,672	800,000	0,008	0,021
-136,658	-200,000	0,032	-0,182
-135,643	8,054	-0,107	-0,057
-134,629	-200,000	0,049	0,000
-133,614	75,099	0,039	0,030
-132,599	800,000	0,046	0,102
-131,585	-89,390	0,155	0,032
-130,570	34,684	-0,064	0,040
-129,556	-133,938	-0,031	0,003
-128,541	-16,078	-0,075	-0,034
-127,526	-200,000	-0,010	0,116
-126,512	125,315	-0,026	-0,023
-125,497	432,981	0,087	-0,134
-124,483	-200,000	0,002	0,044
-123,468	368,875	0,044	-0,063
-122,453	-200,000	-0,019	-0,222
-121,439	441,374	-0,046	0,072
-120,424	-24,733	0,083	-0,035
-119,410	-200,000	0,041	-0,151
-118,395	456,679	-0,011	0,017
-117,380	32,051	0,150	0,092
-116,366	-47,395	-0,131	-0,045
-115,351	316,656	-0,044	0,059
-114,337	-69,820	-0,047	-0,013
-113,322	-200,000	0,003	0,071
-112,307	-200,000	-0,000	0,060
-111,293	800,000	0,013	0,037
-110,278	170,653	0,090	0,092
-109,264	-200,000	0,005	0,056
-108,249	-79,514	-0,059	0,014
-107,234	-200,000	0,012	-0,094
-106,220	322,244	-0,096	-0,131
-105,205	-110,403	-0,078	-0,011
-104,191	320,583	-0,011	-0,014
-103,176	-47,963	0,147	0,050
-102,162	-98,260	-0,106	0,019
-101,147	-196,411	-0,046	0,000
-100,132	274,407	0,029	0,037
-99,118	104,194	-0,093	-0,078
-98,103	-94,765	0,051	0,010
-97,089	190,647	-0,049	0,053
-96,074	255,359	-0,049	-0,060
-95,059	610,325	0,015	0,027
-94,045	6,231	0,076	0,040
-93,030	800,000	0,029	0,061
-92,016	601,807	0,014	0,024
-91,001	172,831	0,122	-0,125
-89,986	144,949	0,131	0,124
-88,972	800,000	0,067	0,157
-87,957	205,252	-0,138	0,152
-86,943	501,269	0,055	-0,091
-85,928	365,062	-0,027	-0,039
-84,913	800,000	-0,062	-0,169
-83,899	-48,615	-0,049	0,017
-82,884	77,914	0,062	-0,047
-81,870	36,010	0,053	0,033
-80,855	-200,000	-0,023	0,103
-79,840	800,000	0,047	-0,101
-78,826	-200,000	0,010	0,149
-77,811	44,296	0,049	0,032
-76,797	276,501	-0,014	0,017
-75,782	-24,191	0,097	-0,041
-74,767	-200,000	-0,008	0,116
-73,753	-36,614	0,045	-0,017
-72,738	202,101	0,066	0,073
-71,724	183,750	0,032	-0,034
-70,709	274,342	-0,051	-0,065
-69,694	160,516	-0,091	-0,090
-68,680	94,504	0,102	0,082
-67,665	138,514	0,062	-0,057
-66,651	476,830	0,070	0,112
-65,636	142,854	-0,080	0,075
-64,622	-3,375	0,020	-0,010
-63,607	-39,100	-0,098	0,036
-62,592	-135,394	-0,061	0,005
-61,578	70,574	-0,033	-0,024
-60,563	375,172	0,082	0,119
-59,549	-200,000	-0,047	0,204
-58,534	-71,924	-1,364	-0,358
-57,519	394,389	-1,514	-2,246
-56,505	-200,000	-0,556	-4,557
-55,490	98,273	0,904	0,739
-54,476	800,000	4,848	11,238
-53,461	-200,000	17,827	284,609
-52,446	800,000	722,547	2231,740
-51,432	563,915	1637,597	2825,336
-50,417	80,594	1660,763	1268,493
-49,403	23,584	1534,723	893,811
-48,388	17,508	1458,161	819,844
-47,373	18,185	1447,875	817,286
-46,359	17,759	1438,094	809,699
-45,344	15,817	1433,469	797,809
-44,330	15,707	1431,835	796,341
-43,315	15,754	1429,975	795,502
-42,300	15,798	1428,280	794,736
-41,286	15,832	1427,093	794,205
-40,271	15,778	1425,681	793,128
-39,257	15,728	1424,546	792,229
-38,242	15,803	1423,265	791,840
-37,227	15,870	1421,905	791,371
-36,213	15,787	1420,745	790,299
-35,198	15,825	1419,418	789,712
-34,184	15,818	1418,542	789,160
-33,169	15,776	1417,417	788,303
-32,154	15,829	1416,500	788,014
-31,140	15,810	1415,047	787,082
-30,125	15,864	1413,881	786,656
-29,111	15,797	1412,799	785,708
-28,096	15,768	1411,613	784,884
-27,082	15,737	1410,531	784,103
-26,067	15,733	1409,343	783,396
-25,052	15,766	1408,245	782,910
-24,038	15,699	1407,469	782,133
-23,023	15,671	1406,457	781,410
-22,009	15,704	1405,437	780,965
-20,994	15,628	1404,701	780,170
-19,979	15,659	1403,566	779,652
-18,965	15,670	1402,453	779,055
-17,950	15,694	1401,586	778,655
-16,936	15,649	1400,685	777,913
-15,921	15,569	1399,717	776,973
-14,906	15,648	1398,474	776,618
-13,892	15,650	1397,661	776,147
-12,877	15,647	1396,553	775,486
-11,863	15,637	1395,724	774,949
-10,848	15,623	1394,920	774,404
-9,833	15,593	1393,824	773,628
-8,819	15,515	1393,128	772,847
-7,804	15,504	1392,034	772,163
-6,790	15,512	1391,091	771,644
-5,775	15,540	1389,959	771,117
-4,760	15,542	1389,079	770,605
-3,746	15,522	1388,345	770,077
-2,731	15,557	1387,605	769,795
-1,717	15,520	1386,461	768,959
-0,702	15,483	1384,771	767,824
0,313	19,282	1305,264	741,302
1,327	35,600	706,988	439,390
2,342	54,802	125,131	85,483
3,356	2,674	16,508	8,458
4,371	-5,100	3,175	1,543
5,386	-44,477	0,445	0,157
6,400	800,000	-0,078	0,172
7,415	503,110	-0,184	-0,303
8,429	49,880	-0,272	-0,181
9,444	35,858	-0,395	-0,246
10,459	63,383	-0,366	-0,260
11,473	138,641	-0,264	-0,246
12,488	6,643	-0,352	-0,185
13,502	626,449	-0,160	-0,288
14,517	123,622	-0,295	-0,262
15,531	398,943	-0,215	-0,319
16,546	215,672	-0,311	-0,350
17,561	107,479	-0,403	-0,340
18,575	-200,000	-0,024	-0,119
19,590	620,345	-0,241	-0,430
20,604	580,337	-0,186	-0,324
21,619	201,634	-0,390	-0,426
22,634	161,993	-0,393	-0,390
23,648	93,744	-0,458	-0,367
24,663	123,089	-0,364	-0,323
25,677	164,691	-0,331	-0,331
26,692	78,353	-0,385	-0,291
27,707	183,369	-0,218	-0,228
28,721	71,645	-0,459	-0,337
29,736	20,652	-0,393	-0,224
30,750	90,688	-0,349	-0,276
31,765	258,501	-0,295	-0,360
32,780	21,137	-0,346	-0,198
33,794	69,916	-0,334	-0,243
34,809	19,959	-0,392	-0,223
35,823	-45,850	-0,475	-0,165
36,838	12,576	-0,446	-0,243
37,853	109,774	-0,376	-0,318
38,867	59,590	-0,428	-0,298
39,882	73,729	-0,387	-0,286
40,896	220,316	-0,265	-0,301
41,911	-24,747	-0,442	-0,185
42,926	87,865	-0,273	-0,214
43,940	6,716	-0,381	-0,200
44,955	51,694	-0,406	-0,272
45,969	152,398	-0,351	-0,338
46,984	6,274	-0,268	-0,140
47,999	142,096	-0,408	-0,382
49,013	134,967	-0,214	-0,196
50,028	184,178	-0,375	-0,393
51,042	163,028	-0,304	-0,301
52,057	55,236	-0,275	-0,187
53,071	10,489	-0,394	-0,211
54,086	50,915	-0,306	-0,204
55,101	132,331	-0,296	-0,269
56,115	82,249	-0,352	-0,269
57,130	106,254	-0,393	-0,329
58,144	67,163	-0,463	-0,333
59,159	-18,368	-0,355	-0,156
60,174	153,325	-0,315	-0,304
61,188	104,818	-0,415	-0,345
62,203	-76,308	-0,291	-0,072
63,217	76,837	-0,325	-0,243
64,232	59,736	-0,424	-0,295
65,247	53,186	-0,317	-0,213
66,261	55,230	-0,373	-0,254
67,276	97,250	-0,459	-0,371
68,290	60,754	-0,336	-0,234
69,305	60,109	-0,385	-0,268
70,320	117,492	-0,306	-0,265
71,334	39,184	-0,356	-0,224
72,349	32,660	-0,260	-0,158
73,363	39,858	-0,328	-0,207
74,378	53,723	-0,361	-0,244
75,393	118,016	-0,341	-0,296
76,407	331,160	-0,207	-0,282
77,422	97,157	-0,230	-0,186
78,436	35,245	-0,235	-0,145
79,451	364,466	-0,216	-0,307
80,466	99,625	-0,318	-0,259
81,480	118,181	-0,333	-0,289
82,495	24,431	-0,327	-0,190
83,509	-146,979	-0,283	-0,017
84,524	378,333	-0,131	-0,189
85,539	-4,216	-0,423	-0,205
86,553	-79,018	-0,257	-0,061
87,568	141,864	-0,301	-0,281
88,582	50,377	-0,372	-0,247
89,597	212,362	-0,201	-0,223
90,611	69,194	-0,373	-0,270
91,626	114,745	-0,207	-0,178
92,641	72,299	-0,217	-0,159
93,655	184,672	-0,243	-0,254
94,670	114,756	-0,388	-0,332
95,684	198,426	-0,200	-0,215
96,699	93,915	-0,291	-0,232
97,714	-49,207	-0,250	-0,083
98,728	5,668	-0,227	-0,118
99,743	14,211	-0,200	-0,109
100,757	-32,224	-0,346	-0,135
101,772	-87,614	-0,365	-0,077
102,787	46,477	-0,267	-0,174
103,801	75,172	-0,311	-0,230
104,816	291,518	-0,160	-0,205
105,830	-16,015	-0,204	-0,091
106,845	-30,353	-0,224	-0,089
107,860	-48,542	-0,316	-0,106
108,874	738,737	-0,208	-0,393
109,889	237,289	-0,256	-0,299
110,903	-3,686	-0,237	-0,115
111,918	800,000	-0,081	-0,202
112,933	-112,260	-0,268	-0,037
113,947	9,355	-0,296	-0,157
114,962	-118,975	-0,226	-0,028
115,976	46,237	-0,288	-0,187
116,991	150,151	-0,234	-0,223
118,006	16,222	-0,263	-0,145
119,020	129,739	-0,219	-0,196
120,035	148,514	-0,243	-0,231
121,049	88,702	-0,273	-0,213
122,064	85,119	-0,219	-0,168
123,079	97,143	-0,329	-0,265
124,093	-59,615	-0,238	-0,071
125,108	179,187	-0,171	-0,175
126,122	191,831	-0,197	-0,208
127,137	-107,930	-0,202	-0,030
128,151	327,703	-0,155	-0,210
129,166	448,537	-0,113	-0,175
130,181	5,031	-0,305	-0,157
131,195	-0,270	-0,345	-0,172
132,210	187,626	-0,263	-0,276
133,224	171,158	-0,221	-0,223
134,239	36,968	-0,345	-0,214
135,254	127,253	-0,215	-0,192
136,268	509,365	-0,162	-0,265
137,283	43,686	-0,209	-0,134
138,297	0,301	-0,213	-0,106
139,312	13,386	-0,262	-0,142
140,327	94,992	-0,129	-0,103
141,341	30,364	-0,260	-0,155
142,356	-44,687	-0,207	-0,072
143,370	293,681	-0,146	-0,187
144,385	800,000	-0,104	-0,241
145,400	62,460	-0,214	-0,149
146,414	67,039	-0,406	-0,290
147,429	15,064	-0,282	-0,154
148,443	-48,942	-0,391	-0,130
149,458	293,414	-0,152	-0,195
150,473	-97,953	-0,289	0,052
151,487	138,836	-0,226	-0,208
152,502	194,818	-0,259	-0,275
153,516	119,303	-0,173	-0,150
154,531	-3,354	-0,257	-0,125
155,546	-78,891	-0,350	-0,083
156,560	-200,000	-0,042	-0,180
157,575	94,921	-0,250	-0,199
158,589	201,784	-0,204	-0,220
159,604	-200,000	-0,053	-0,317
160,619	167,960	-0,207	-0,206
161,633	270,391	-0,205	-0,253
162,648	70,674	-0,252	-0,182
163,662	-2,028	-0,256	-0,125
164,677	212,786	-0,193	-0,213
165,692	-34,721	-0,290	-0,110
166,706	-103,081	-0,302	-0,050
167,721	302,536	-0,170	-0,220
168,735	158,553	-0,197	-0,191
169,750	304,659	-0,192	-0,250
170,764	175,207	-0,248	-0,251
171,779	800,000	-0,106	-0,282
172,794	-57,683	-0,303	-0,092
173,808	63,414	-0,256	-0,179
174,823	137,002	-0,130	-0,119
175,837	67,028	-0,230	-0,163
176,852	36,811	-0,262	-0,161
177,867	639,580	-0,145	-0,259
178,881	164,563	-0,196	-0,193
179,896	231,788	-0,142	-0,162
180,910	-58,565	-0,120	-0,036
181,925	410,718	-0,192	-0,285
182,940	62,795	-0,254	-0,177
183,954	-30,114	-0,352	-0,139
184,969	152,714	-0,149	-0,142
185,983	56,764	-0,251	-0,170
186,998	-5,166	-0,270	-0,129
188,013	347,862	-0,158	-0,218
189,027	121,128	-0,237	-0,206
190,042	308,579	-0,219	-0,286
191,056	69,737	-0,196	-0,141
192,071	96,287	-0,165	-0,132
193,086	-62,026	-0,218	-0,063
194,100	594,573	-0,072	-0,124
195,115	22,076	-0,283	-0,160
196,129	64,029	-0,135	-0,095
197,144	-11,634	-0,230	-0,105
198,159	268,461	-0,137	-0,167
199,173	21,142	-0,139	-0,078
200,188	-73,582	-0,248	-0,063
201,202	-59,780	-0,228	-0,068
202,217	-2,544	-0,089	-0,043
203,232	104,394	-0,159	-0,130
204,246	55,974	-0,261	-0,176
205,261	800,000	-0,133	-0,283
206,275	711,051	-0,128	-0,238
207,290	22,373	-0,092	-0,052
208,304	-153,374	-0,159	-0,008
209,319	405,301	-0,158	-0,233
210,334	202,509	-0,228	-0,245
211,348	175,174	-0,186	-0,188
212,363	-19,746	-0,193	-0,083
213,377	54,407	-0,193	-0,129
214,392	162,694	-0,159	-0,155
215,407	38,378	-0,116	-0,072
216,421	178,333	-0,239	-0,243
217,436	28,518	-0,131	-0,077
218,450	209,162	-0,149	-0,162
219,465	445,814	-0,202	-0,310
220,480	-60,427	-0,266	-0,078
221,494	-52,066	-0,232	-0,075
222,509	-85,072	-0,141	0,031
223,523	32,571	-0,197	-0,118
224,538	-66,205	-0,100	-0,028
225,553	211,867	-0,172	-0,189
226,567	86,690	-0,172	-0,132
227,582	77,478	-0,259	-0,191
228,596	408,979	-0,089	-0,132
229,611	800,000	-0,063	-0,137
230,626	237,472	-0,136	-0,157
231,640	532,919	-0,090	-0,148
232,655	-200,000	-0,065	-0,210
233,669	800,000	-0,070	-0,153
234,684	563,764	-0,109	-0,183
235,699	299,800	-0,205	-0,262
236,713	-44,965	-0,168	-0,058
237,728	35,980	-0,110	-0,067
238,742	800,000	-0,131	-0,309
239,757	-34,419	-0,196	-0,074
240,772	83,572	-0,213	-0,161
241,786	8,650	-0,313	-0,163
242,801	55,724	-0,165	-0,111
243,815	-72,652	-0,221	-0,056
244,830	49,822	-0,189	-0,124
245,844	800,000	-0,090	-0,190
246,859	-200,000	0,017	-0,302
247,874	434,406	-0,095	-0,144
248,888	331,221	-0,137	-0,184
249,903	800,000	-0,050	-0,133
250,917	800,000	-0,088	-0,219
251,932	36,809	-0,249	-0,152
252,947	109,093	-0,134	-0,111
253,961	79,318	-0,218	-0,162
254,976	145,971	-0,233	-0,216
255,990	409,451	-0,154	-0,226
257,005	43,661	-0,134	-0,085
258,020	217,250	-0,149	-0,165
259,034	-104,512	-0,345	-0,055
260,049	-147,552	-0,086	-0,005
261,063	208,897	-0,238	-0,259
262,078	341,962	-0,187	-0,255
263,093	71,843	-0,206	-0,148
264,107	35,743	-0,135	-0,082
265,122	358,894	-0,090	-0,124
266,136	-45,883	-0,222	-0,075
267,151	-20,415	-0,176	-0,075
268,166	596,179	-0,111	-0,191
269,180	109,489	-0,257	-0,213
270,195	-45,865	-0,160	-0,055
271,209	800,000	-0,114	-0,228
272,224	-33,708	-0,212	-0,080
273,239	-70,765	-0,241	-0,062
274,253	-200,000	-0,026	-0,160
275,268	21,805	-0,226	-0,127
276,282	208,828	-0,262	-0,284
277,297	-200,000	-0,060	-0,263
278,312	110,648	-0,210	-0,174
279,326	-200,000	-0,012	-0,223
280,341	150,665	-0,191	-0,180
281,355	-126,292	-0,136	-0,014
282,370	155,407	-0,155	-0,147
283,384	-200,000	-0,051	-0,222
284,399	-37,620	-0,185	-0,068
285,414	322,798	-0,158	-0,208
286,428	505,054	-0,063	-0,101
287,443	90,167	-0,144	0,111
288,457	122,297	-0,059	0,051
289,472	434,151	-0,091	-0,137
290,487	185,157	-0,126	-0,129
291,501	-120,256	-0,192	-0,022
292,516	291,821	-0,234	-0,295
293,530	30,511	-0,150	-0,088
294,545	76,564	-0,179	-0,131
295,560	147,207	-0,175	-0,163
296,574	-100,308	-0,165	0,028
297,589	-1,669	-0,195	-0,095
298,603	214,464	-0,141	-0,155
299,618	251,998	-0,159	-0,188
300,633	-65,899	-0,126	-0,035
301,647	216,794	-0,023	-0,025
302,662	78,905	-0,070	0,052
303,676	-63,698	-0,098	-0,027
304,691	55,432	-0,146	-0,097
305,706	109,733	-0,260	-0,215
306,720	232,981	-0,184	-0,209
307,735	38,040	-0,146	-0,089
308,749	800,000	-0,038	-0,093
309,764	107,806	-0,090	-0,074
310,779	-50,344	-0,097	-0,031
311,793	61,527	-0,168	-0,115
312,808	16,328	-0,292	-0,159
313,822	-27,902	-0,180	-0,072
314,837	424,779	-0,140	-0,208
315,852	13,003	-0,130	-0,069
316,866	-200,000	-0,026	-0,078
317,881	800,000	-0,026	-0,064
318,895	-26,155	-0,105	0,042
319,910	4,586	-0,200	-0,101
320,925	375,660	-0,115	-0,162
321,939	800,000	-0,089	-0,206
322,954	-200,000	-0,034	-0,129
323,968	100,454	0,068	0,055
324,983	-97,244	-0,086	-0,015
325,997	110,012	-0,159	-0,132
327,012	-200,000	-0,023	-0,249
328,027	120,843	-0,162	-0,139
329,041	74,870	-0,095	-0,069
330,056	132,025	-0,119	-0,106
331,070	-64,830	-0,186	-0,051
332,085	-5,446	-0,138	-0,065
333,100	800,000	-0,036	0,106
334,114	3,629	-0,126	-0,063
335,129	-134,316	-0,189	-0,016
336,143	-165,209	-0,145	-0,004
337,158	-81,778	-0,202	0,045
338,173	-73,082	-0,128	-0,032
339,187	-18,443	-0,121	-0,052
340,202	20,441	-0,141	-0,078
341,216	132,323	-0,130	-0,115
342,231	-72,467	-0,238	-0,060
343,246	-200,000	-0,011	-0,212
344,260	-163,599	-0,227	-0,007
345,275	205,414	-0,118	0,126
346,289	11,199	-0,087	-0,046
347,304	-67,895	-0,194	-0,052
348,319	30,695	-0,216	-0,127
349,333	125,645	-0,250	-0,217
350,348	800,000	-0,046	-0,114
351,362	800,000	0,055	-0,150
352,377	228,409	-0,005	0,006
353,392	583,426	-0,133	-0,225
354,406	32,312	-0,169	-0,100
355,421	209,494	1311,849	1415,097
356,435	161,234	1472,268	1415,619
