DTS Sentinel unit serial number:	SN410029Multiplexer serial number:	ORYXHardware model number:	OX2-SRSoftware version number:	ORYX F/W v4,00 Oryx Data Collector v3.7.2.0data status	okinstallation	B3 Nyhavnadifferential loss correction	single-endedforward channel	channel 1reverse channel	N/Adate	2023/12/03time	08:07:30forward acquisition time	300,00reverse acquisition time	0,00gamma	499,1914k internal	0,3201k external	0,3201temperature offset calibration	1,0000default loss term (dB/km)	0,3820temperature slope calibration	1,0000multiplexer offset coefficient	1,0000multiplexer slope coefficient	1,0000fibre end	0,00T internal ref (°C)	13,32T ext. ref 1 (°C)	-1,67T ext. ref 2 (°C)	-1,69length (m)	temperature (°C)	Stokes	anti-Stokes-744,400	168,102	-0,230	-0,238
-743,385	-200,000	-0,009	0,298
-742,371	-5,827	-0,189	-0,094
-741,356	645,885	0,228	0,426
-740,342	-200,000	-0,033	-0,164
-739,327	-200,000	0,036	0,245
-738,312	-37,212	-0,259	-0,100
-737,298	-200,000	-0,069	0,340
-736,283	232,072	-0,225	-0,269
-735,269	800,000	0,102	0,245
-734,254	86,521	-0,241	-0,193
-733,239	-97,851	-0,191	0,035
-732,225	795,054	-0,154	-0,309
-731,210	724,097	0,049	0,096
-730,196	602,960	0,056	-0,102
-729,181	-25,111	-0,073	-0,031
-728,167	-200,000	0,010	-0,040
-727,152	-200,000	0,002	0,087
-726,137	367,282	-0,057	0,084
-725,123	800,000	-0,056	0,114
-724,108	48,002	-0,152	0,103
-723,094	101,850	-0,037	-0,031
-722,079	-141,680	-0,056	-0,004
-721,064	-117,310	-0,154	-0,020
-720,050	606,892	0,018	-0,033
-719,035	-200,000	0,000	-0,119
-718,021	-200,000	-0,018	-0,065
-717,006	800,000	-0,035	0,094
-715,991	305,419	-0,036	-0,049
-714,977	800,000	0,042	0,092
-713,962	-3,171	-0,120	-0,061
-712,948	-168,314	0,061	-0,002
-711,933	-200,000	0,030	-0,144
-710,918	-41,839	0,109	-0,040
-709,904	378,575	0,069	-0,103
-708,889	155,451	-0,098	-0,098
-707,875	-108,634	-0,074	-0,011
-706,860	165,223	-0,051	-0,052
-705,845	236,891	0,077	-0,093
-704,831	-149,375	0,066	0,004
-703,816	-200,000	0,013	0,116
-702,802	-38,264	-0,174	0,067
-701,787	-200,000	-0,004	-0,027
-700,772	192,161	0,050	-0,054
-699,758	-200,000	0,017	-0,083
-698,743	-200,000	0,018	0,106
-697,729	-200,000	0,024	-0,098
-696,714	101,657	0,007	0,006
-695,699	140,733	-0,038	-0,036
-694,685	-200,000	0,006	0,071
-693,670	800,000	0,017	-0,038
-692,656	-5,422	-0,112	-0,056
-691,641	-60,657	-0,065	0,020
-690,627	573,835	0,061	0,108
-689,612	-87,203	0,061	0,013
-688,597	-97,826	0,097	-0,018
-687,583	-49,009	-0,141	-0,049
-686,568	-141,336	0,142	0,010
-685,554	-200,000	-0,017	-0,098
-684,539	-104,757	-0,077	0,013
-683,524	122,032	0,113	0,103
-682,510	552,403	0,024	0,041
-681,495	800,000	-0,076	0,156
-680,481	-200,000	-0,002	0,035
-679,466	566,940	-0,069	-0,122
-678,451	224,126	0,023	0,027
-677,437	-90,726	0,057	0,012
-676,422	20,225	-0,126	0,074
-675,408	-200,000	0,022	-0,082
-674,393	44,026	-0,040	-0,027
-673,378	-200,000	-0,003	-0,031
-672,364	-200,000	0,015	-0,088
-671,349	556,885	-0,037	-0,064
-670,335	-200,000	0,009	0,048
-669,320	-200,000	0,019	0,098
-668,305	-9,263	-0,050	-0,024
-667,291	117,291	0,112	0,100
-666,276	193,802	-0,119	0,131
-665,262	-200,000	-0,021	-0,098
-664,247	800,000	0,051	-0,153
-663,232	-200,000	-0,006	-0,107
-662,218	313,180	0,098	-0,134
-661,203	-200,000	-0,016	-0,144
-660,189	-64,336	0,175	-0,051
-659,174	-45,733	-0,078	0,028
-658,159	788,870	0,061	-0,122
-657,145	502,616	-0,076	-0,129
-656,130	692,086	-0,031	-0,059
-655,116	24,947	0,104	-0,062
-654,101	800,000	-0,055	0,120
-653,086	132,896	0,114	-0,107
-652,072	369,111	-0,044	-0,065
-651,057	-200,000	0,021	0,087
-650,043	-162,842	-0,167	-0,006
-649,028	56,801	-0,136	-0,096
-648,014	144,298	0,072	0,070
-646,999	-200,000	0,025	-0,126
-645,984	-11,457	-0,086	0,041
-644,970	267,160	0,028	0,036
-643,955	-200,000	-0,005	-0,047
-642,941	-36,509	-0,159	-0,062
-641,926	-40,967	-0,139	-0,052
-640,911	490,375	0,058	-0,097
-639,897	-15,132	0,027	-0,013
-638,882	-87,562	-0,128	-0,028
-637,868	109,170	-0,041	0,035
-636,853	261,254	-0,135	-0,169
-635,838	800,000	-0,065	-0,147
-634,824	-200,000	0,040	-0,149
-633,809	-91,532	0,070	-0,014
-632,795	-37,991	0,060	0,023
-631,780	279,812	-0,089	-0,115
-630,765	324,438	0,058	-0,081
-629,751	695,569	-0,060	-0,115
-628,736	365,326	-0,100	-0,146
-627,722	800,000	-0,045	0,117
-626,707	-131,423	-0,080	0,008
-625,692	-79,983	-0,184	0,044
-624,678	-105,603	0,114	-0,019
-623,663	-200,000	0,020	-0,067
-622,649	166,726	-0,070	-0,072
-621,634	96,595	-0,050	0,041
-620,619	100,055	-0,072	-0,060
-619,605	-70,973	0,096	0,026
-618,590	-144,141	-0,121	0,008
-617,576	-24,129	0,089	0,038
-616,561	69,285	0,050	-0,037
-615,546	62,604	-0,079	-0,057
-614,532	364,920	-0,038	-0,056
-613,517	408,856	-0,040	-0,062
-612,503	141,681	0,174	-0,167
-611,488	221,849	0,043	-0,050
-610,474	-97,234	-0,131	0,025
-609,459	800,000	-0,023	0,065
-608,444	174,751	-0,045	0,047
-607,430	403,784	0,045	-0,069
-606,415	-200,000	0,013	-0,110
-605,401	683,848	-0,047	0,089
-604,386	148,255	0,084	-0,082
-603,371	-140,428	-0,230	-0,017
-602,357	38,640	0,139	0,089
-601,342	800,000	0,019	0,040
-600,328	-82,614	-0,113	-0,026
-599,313	-105,609	-0,032	-0,005
-598,298	-200,000	-0,040	-0,179
-597,284	-200,000	-0,004	0,131
-596,269	78,062	0,072	0,055
-595,255	141,587	0,071	0,068
-594,240	57,198	-0,168	0,118
-593,225	153,603	-0,078	-0,077
-592,211	-200,000	0,042	0,139
-591,196	-63,320	0,019	0,006
-590,182	800,000	0,024	0,071
-589,167	-200,000	0,071	0,235
-588,152	183,510	0,073	0,078
-587,138	66,171	-0,084	0,061
-586,123	121,054	-0,054	0,049
-585,109	154,214	-0,063	0,063
-584,094	-200,000	0,026	0,102
-583,079	-12,779	0,025	-0,012
-582,065	89,159	0,087	0,070
-581,050	-91,397	-0,063	-0,013
-580,036	69,128	0,064	-0,048
-579,021	-200,000	0,016	0,123
-578,006	-200,000	0,040	-0,161
-576,992	128,577	-0,035	0,032
-575,977	-107,704	0,071	-0,011
-574,963	-200,000	0,005	0,036
-573,948	7,536	0,066	0,035
-572,934	210,709	-0,120	-0,136
-571,919	20,960	0,062	0,036
-570,904	-41,611	0,058	-0,022
-569,890	-178,461	0,158	-0,003
-568,875	-200,000	0,008	-0,146
-567,861	43,329	-0,124	0,082
-566,846	-129,894	-0,172	0,017
-565,831	-88,834	0,155	0,033
-564,817	800,000	-0,043	-0,109
-563,802	-200,000	0,011	-0,100
-562,788	-200,000	0,003	-0,098
-561,773	141,250	0,073	-0,070
-560,758	-200,000	0,019	0,145
-559,744	-73,239	0,056	0,015
-558,729	433,306	0,055	0,086
-557,715	22,015	-0,051	-0,030
-556,700	17,430	-0,048	-0,027
-555,685	338,494	0,019	-0,026
-554,671	90,354	-0,125	0,101
-553,656	-84,558	-0,016	-0,004
-552,642	180,107	-0,106	0,112
-551,627	800,000	-0,049	-0,112
-550,612	704,718	-0,023	-0,043
-549,598	138,253	-0,060	-0,056
-548,583	12,693	0,120	-0,067
-547,569	-73,372	-0,160	-0,042
-546,554	-34,673	0,066	-0,026
-545,539	-200,000	-0,019	-0,060
-544,525	63,431	-0,018	-0,013
-543,510	-200,000	0,003	0,042
-542,496	-200,000	-0,028	0,093
-541,481	-200,000	-0,048	-0,222
-540,466	133,763	-0,101	-0,094
-539,452	10,607	0,025	0,013
-538,437	90,827	-0,062	-0,050
-537,423	-200,000	0,014	0,251
-536,408	206,690	-0,094	-0,106
-535,393	45,178	-0,175	-0,116
-534,379	-64,442	0,012	-0,003
-533,364	-93,606	0,173	-0,034
-532,350	-25,265	0,035	-0,015
-531,335	334,963	0,044	0,061
-530,321	-200,000	-0,007	0,085
-529,306	29,672	0,138	0,085
-528,291	-200,000	0,001	-0,121
-527,277	271,575	-0,075	-0,095
-526,262	-200,000	-0,000	-0,124
-525,248	-200,000	-0,001	-0,083
-524,233	135,721	0,072	0,068
-523,218	91,271	-0,120	0,097
-522,204	-108,180	-0,065	0,010
-521,189	-4,564	0,085	-0,042
-520,175	800,000	-0,037	-0,108
-519,160	800,000	0,048	-0,111
-518,145	-105,005	0,115	-0,019
-517,131	157,093	0,085	0,084
-516,116	800,000	0,042	-0,113
-515,102	450,031	-0,063	0,100
-514,087	38,600	-0,050	-0,032
-513,072	325,264	-0,066	-0,091
-512,058	-100,808	0,093	0,016
-511,043	-200,000	0,019	0,098
-510,029	62,868	-0,021	0,015
-509,014	113,913	0,036	-0,032
-507,999	-85,753	-0,006	-0,001
-506,985	222,111	0,054	0,062
-505,970	800,000	-0,021	0,065
-504,956	-200,000	0,010	-0,114
-503,941	496,520	-0,031	0,051
-502,926	196,905	-0,099	-0,109
-501,912	-200,000	-0,015	0,076
-500,897	-18,812	0,140	0,063
-499,883	800,000	-0,011	0,029
-498,868	-16,268	-0,137	0,062
-497,853	303,854	-0,081	-0,109
-496,839	800,000	0,015	0,046
-495,824	-23,797	-0,088	-0,038
-494,810	800,000	-0,027	0,058
-493,795	76,314	-0,096	0,073
-492,781	-200,000	-0,003	-0,032
-491,766	256,071	-0,049	0,060
-490,751	800,000	0,021	0,046
-489,737	-200,000	0,001	0,106
-488,722	-92,570	-0,102	0,020
-487,708	-200,000	-0,004	0,039
-486,693	210,927	-0,140	0,159
-485,678	-4,059	0,084	0,042
-484,664	-53,723	-0,095	0,031
-483,649	800,000	-0,052	0,110
-482,635	241,644	-0,047	0,057
-481,620	800,000	-0,054	-0,134
-480,605	396,804	-0,046	-0,069
-479,591	131,568	0,131	-0,121
-478,576	-117,683	-0,056	-0,007
-477,562	-16,911	-0,161	0,073
-476,547	213,203	-0,114	0,129
-475,532	-200,000	0,011	0,039
-474,518	22,484	0,081	0,047
-473,503	115,417	0,031	0,027
-472,489	158,517	-0,055	-0,055
-471,474	800,000	0,021	-0,060
-470,459	-200,000	0,017	-0,118
-469,445	-200,000	-0,006	-0,032
-468,430	-200,000	0,017	-0,059
-467,416	-137,463	-0,014	0,001
-466,401	-125,359	0,085	0,009
-465,386	-200,000	0,017	0,114
-464,372	-52,533	-0,082	0,027
-463,357	-169,982	-0,036	0,001
-462,343	-200,000	-0,032	-0,152
-461,328	771,287	-0,054	-0,106
-460,313	800,000	0,023	-0,059
-459,299	-200,000	0,011	0,151
-458,284	-22,447	0,019	0,008
-457,270	-85,692	0,077	-0,017
-456,255	200,737	0,040	-0,045
-455,241	229,556	-0,079	-0,093
-454,226	364,781	-0,060	0,087
-453,211	-200,000	-0,001	0,047
-452,197	-111,809	0,119	0,017
-451,182	700,564	-0,032	-0,061
-450,168	-75,557	-0,111	0,028
-449,153	-200,000	0,027	-0,206
-448,138	-200,000	-0,011	-0,085
-447,124	-166,400	-0,104	0,003
-446,109	242,074	0,133	0,160
-445,095	-172,848	-0,067	-0,001
-444,080	-200,000	0,007	0,041
-443,065	335,084	0,010	-0,013
-442,051	800,000	0,040	-0,097
-441,036	-200,000	-0,001	-0,017
-440,022	800,000	0,016	0,049
-439,007	-111,612	0,116	0,017
-437,992	-200,000	0,036	0,123
-436,978	-70,111	0,094	0,026
-435,963	-200,000	-0,005	0,042
-434,949	800,000	-0,034	-0,085
-433,934	-200,000	0,039	-0,125
-432,919	143,214	-0,103	-0,099
-431,905	149,335	-0,102	0,099
-430,890	282,523	0,080	-0,103
-429,876	800,000	-0,060	0,149
-428,861	-200,000	0,003	0,104
-427,846	314,087	-0,029	0,040
-426,832	-67,915	0,132	0,037
-425,817	440,936	-0,051	0,081
-424,803	117,298	-0,058	-0,051
-423,788	-200,000	0,011	0,070
-422,773	492,430	0,085	-0,141
-421,759	212,115	0,055	0,062
-420,744	-78,309	-0,115	0,028
-419,730	800,000	-0,036	0,105
-418,715	-32,848	-0,048	0,019
-417,701	-200,000	-0,003	-0,018
-416,686	-200,000	0,016	0,137
-415,671	-122,078	0,091	-0,011
-414,657	47,737	0,121	0,081
-413,642	5,124	0,079	0,042
-412,628	-36,738	0,030	-0,012
-411,613	-23,899	-0,161	0,069
-410,598	-200,000	-0,010	-0,086
-409,584	15,485	-0,085	-0,048
-408,569	592,591	0,034	-0,061
-407,555	746,251	-0,042	-0,081
-406,540	484,195	0,065	0,107
-405,525	-200,000	-0,007	0,034
-404,511	800,000	-0,014	0,041
-403,496	223,717	-0,095	-0,110
-402,482	-37,456	0,118	-0,045
-401,467	497,686	0,086	0,143
-400,452	593,374	-0,067	0,119
-399,438	-25,441	0,026	0,011
-398,423	-110,636	0,036	-0,005
-397,409	800,000	-0,025	-0,070
-396,394	800,000	0,009	0,027
-395,379	132,433	0,159	0,147
-394,365	37,754	0,010	-0,007
-393,350	70,221	0,027	0,020
-392,336	-172,737	0,125	-0,003
-391,321	-54,689	0,111	0,036
-390,306	447,285	0,031	-0,048
-389,292	460,424	0,053	-0,086
-388,277	188,576	0,091	-0,097
-387,263	-200,000	0,015	-0,051
-386,248	-200,000	0,023	0,152
-385,233	800,000	-0,031	0,084
-384,219	53,634	-0,120	-0,082
-383,204	-76,967	0,112	-0,028
-382,190	-200,000	0,032	-0,131
-381,175	-79,958	-0,126	0,030
-380,160	-200,000	-0,008	-0,034
-379,146	-144,252	0,134	0,009
-378,131	-75,914	-0,016	-0,004
-377,117	800,000	-0,071	0,180
-376,102	572,881	-0,022	-0,039
-375,088	-200,000	0,022	-0,150
-374,073	800,000	0,023	-0,052
-373,058	-200,000	-0,004	0,138
-372,044	159,421	0,038	0,038
-371,029	118,792	0,068	-0,060
-370,015	-200,000	0,050	0,159
-369,000	-25,388	0,046	-0,019
-367,985	-14,055	-0,072	-0,033
-366,971	132,772	-0,068	-0,063
-365,956	-178,789	0,139	0,002
-364,942	-68,827	-0,028	0,008
-363,927	-1,829	0,122	-0,061
-362,912	262,385	-0,107	0,133
-361,898	800,000	0,047	-0,099
-360,883	466,837	0,048	-0,077
-359,869	-33,867	-0,100	-0,039
-358,854	-200,000	0,003	0,133
-357,839	-5,333	-0,016	0,008
-356,825	800,000	-0,041	0,089
-355,810	35,512	0,152	0,096
-354,796	287,505	-0,044	0,057
-353,781	74,342	-0,115	-0,087
-352,766	-200,000	0,000	-0,024
-351,752	-75,312	0,029	-0,007
-350,737	-197,737	0,103	-0,000
-349,723	800,000	-0,070	0,165
-348,708	-200,000	-0,004	-0,074
-347,693	800,000	-0,022	0,055
-346,679	-124,417	-0,193	-0,021
-345,664	6,259	0,051	-0,027
-344,650	146,524	-0,075	-0,072
-343,635	-200,000	-0,010	-0,033
-342,620	398,355	0,008	0,011
-341,606	-113,157	0,088	-0,012
-340,591	231,730	0,059	0,069
-339,577	-164,284	-0,075	-0,002
-338,562	74,900	0,037	0,028
-337,548	362,700	-0,042	0,061
-336,533	-200,000	-0,023	-0,189
-335,518	800,000	-0,027	-0,063
-334,504	-190,329	0,113	0,001
-333,489	767,959	0,037	0,072
-332,475	-200,000	0,037	-0,144
-331,460	-200,000	0,025	0,108
-330,445	132,159	-0,078	-0,072
-329,431	-200,000	0,016	0,093
-328,416	-124,992	0,160	-0,017
-327,402	-69,441	0,137	0,037
-326,387	-200,000	0,008	-0,055
-325,372	-200,000	0,020	-0,162
-324,358	80,401	0,062	0,048
-323,343	-168,549	-0,014	0,000
-322,329	26,341	-0,135	-0,081
-321,314	44,064	0,123	0,081
-320,299	800,000	0,053	-0,140
-319,285	800,000	-0,024	0,063
-318,270	110,914	-0,013	-0,011
-317,256	-43,996	0,107	0,038
-316,241	113,413	0,073	-0,063
-315,226	-117,972	-0,018	-0,002
-314,212	-200,000	0,016	0,152
-313,197	27,907	-0,054	-0,032
-312,183	195,219	-0,079	-0,086
-311,168	60,628	-0,152	-0,107
-310,153	-116,002	0,064	0,008
-309,139	115,477	0,061	-0,054
-308,124	-200,000	0,017	0,121
-307,110	49,903	0,023	0,015
-306,095	-10,558	-0,115	0,054
-305,080	653,706	0,037	-0,069
-304,066	-72,624	-0,109	-0,029
-303,051	25,337	0,066	0,039
-302,037	452,385	0,003	0,004
-301,022	-50,700	-0,152	0,051
-300,008	-200,000	0,042	0,139
-298,993	20,380	0,074	0,043
-297,978	-200,000	0,008	0,102
-296,964	-12,983	-0,136	-0,063
-295,949	-200,000	0,005	-0,030
-294,935	-200,000	-0,017	0,110
-293,920	498,954	-0,055	-0,091
-292,905	36,317	0,065	0,041
-291,891	419,403	0,063	-0,097
-290,876	-200,000	0,020	0,119
-289,862	-200,000	-0,012	-0,074
-288,847	-200,000	0,009	-0,073
-287,832	522,708	-0,054	-0,091
-286,818	-200,000	-0,011	-0,152
-285,803	-200,000	-0,001	-0,031
-284,789	-27,729	0,041	0,017
-283,774	-50,999	0,041	0,014
-282,759	407,183	0,063	0,095
-281,745	-200,000	-0,028	-0,146
-280,730	264,607	0,020	-0,025
-279,716	-98,892	0,043	0,008
-278,701	129,829	0,118	0,108
-277,686	800,000	0,046	0,120
-276,672	-200,000	-0,022	0,112
-275,657	142,370	-0,061	0,058
-274,643	-44,066	-0,089	-0,032
-273,628	174,967	-0,064	-0,067
-272,613	424,619	0,099	-0,153
-271,599	-145,898	0,135	-0,008
-270,584	73,552	0,013	-0,009
-269,570	266,837	0,063	0,079
-268,555	204,435	-0,036	0,040
-267,540	33,388	-0,111	0,069
-266,526	800,000	-0,024	0,074
-265,511	77,523	0,143	-0,108
-264,497	800,000	-0,012	0,024
-263,482	3,700	-0,038	0,020
-262,467	-51,307	0,107	-0,035
-261,453	-90,936	-0,012	-0,002
-260,438	-89,938	0,031	-0,006
-259,424	668,826	0,054	-0,100
-258,409	-39,828	0,051	0,019
-257,395	-109,603	0,088	-0,013
-256,380	568,641	-0,041	0,071
-255,365	194,999	-0,100	0,109
-254,351	614,945	-0,070	0,127
-253,336	-200,000	0,005	0,064
-252,322	-200,000	-0,005	-0,047
-251,307	-200,000	0,015	-0,123
-250,292	800,000	0,050	0,140
-249,278	-200,000	-0,004	0,058
-248,263	-67,132	0,088	0,024
-247,249	800,000	0,040	0,082
-246,234	-93,426	-0,033	-0,007
-245,219	-91,308	-0,100	0,020
-244,205	604,942	0,043	-0,077
-243,190	388,898	0,028	0,042
-242,176	-200,000	-0,016	-0,097
-241,161	-177,048	0,253	0,004
-240,146	27,614	-0,098	-0,059
-239,132	48,487	0,034	0,022
-238,117	-103,276	-0,092	0,015
-237,103	-90,111	-0,058	-0,012
-236,088	126,386	-0,081	0,073
-235,073	800,000	0,043	0,128
-234,059	20,957	0,062	0,036
-233,044	800,000	0,005	0,011
-232,030	98,757	0,075	0,062
-231,015	244,429	-0,149	-0,179
-230,000	78,179	0,188	-0,143
-228,986	800,000	-0,015	0,046
-227,971	20,166	-0,138	-0,079
-226,957	-200,000	-0,015	0,082
-225,942	-15,672	0,165	0,075
-224,927	-48,473	-0,137	0,047
-223,913	-200,000	-0,013	0,072
-222,898	483,067	0,022	0,036
-221,884	301,262	-0,078	0,103
-220,869	800,000	0,011	0,026
-219,855	-200,000	-0,005	-0,109
-218,840	-86,980	-0,046	-0,010
-217,825	800,000	0,018	-0,054
-216,811	-200,000	-0,001	0,017
-215,796	-200,000	-0,004	-0,066
-214,782	178,094	0,035	0,036
-213,767	-200,000	-0,036	0,137
-212,752	-109,782	-0,055	0,008
-211,738	374,893	0,025	0,036
-210,723	46,142	0,035	0,023
-209,709	-5,649	0,093	0,045
-208,694	88,723	-0,105	-0,083
-207,679	-138,564	0,093	-0,007
-206,665	172,191	-0,021	-0,021
-205,650	323,151	0,069	0,094
-204,636	-24,936	0,113	0,048
-203,621	-112,422	0,187	0,026
-202,606	-83,587	-0,141	-0,032
-201,592	66,675	0,110	-0,080
-200,577	-54,350	-0,130	0,042
-199,563	800,000	0,019	-0,045
-198,548	10,328	0,052	0,028
-197,533	-200,000	0,007	0,057
-196,519	-54,859	-0,111	0,036
-195,504	21,883	0,131	0,076
-194,490	800,000	-0,011	0,033
-193,475	205,080	-0,071	0,079
-192,460	426,041	0,038	0,058
-191,446	638,753	-0,044	-0,080
-190,431	-44,556	0,060	-0,021
-189,417	116,418	0,082	-0,071
-188,402	-75,284	0,128	0,032
-187,387	621,973	0,040	-0,072
-186,373	221,450	-0,100	-0,115
-185,358	-200,000	-0,012	-0,060
-184,344	182,766	0,125	-0,131
-183,329	-149,032	-0,147	-0,008
-182,315	-120,883	0,106	-0,013
-181,300	-114,926	0,129	0,017
-180,285	-148,928	0,109	0,006
-179,271	-149,399	-0,104	-0,006
-178,256	800,000	0,023	0,069
-177,242	459,622	-0,027	-0,044
-176,227	800,000	0,081	0,189
-175,212	800,000	-0,027	-0,084
-174,198	-200,000	-0,001	0,021
-173,183	114,253	0,098	0,085
-172,169	-19,059	0,031	0,013
-171,154	800,000	-0,017	-0,046
-170,139	-79,701	0,111	0,026
-169,125	-1,382	0,162	0,081
-168,110	-200,000	0,003	0,107
-167,096	62,352	-0,068	-0,049
-166,081	-200,000	-0,008	-0,053
-165,066	123,245	-0,082	-0,073
-164,052	-200,000	-0,002	-0,014
-163,037	157,781	-0,071	0,070
-162,023	-143,494	-0,086	0,006
-161,008	-1,913	-0,126	-0,063
-159,993	39,157	0,074	0,047
-158,979	-200,000	-0,032	-0,135
-157,964	-40,696	0,071	-0,026
-156,950	-35,027	-0,059	0,023
-155,935	-200,000	-0,005	0,027
-154,920	-131,492	0,148	-0,014
-153,906	-87,440	-0,146	0,031
-152,891	-200,000	0,002	-0,012
-151,877	-200,000	-0,004	0,026
-150,862	-59,260	-0,095	-0,029
-149,847	-27,200	-0,059	0,024
-148,833	-66,559	0,094	-0,026
-147,818	-200,000	-0,014	-0,111
-146,804	-58,721	0,073	0,022
-145,789	-200,000	0,039	0,141
-144,775	4,523	-0,107	-0,056
-143,760	-200,000	-0,010	-0,073
-142,745	-44,705	-0,066	0,023
-141,731	-5,898	-0,018	-0,009
-140,716	-200,000	-0,036	-0,133
-139,702	565,838	0,043	0,075
-138,687	258,300	0,076	0,093
-137,672	465,154	-0,071	-0,113
-136,658	200,958	0,050	-0,054
-135,643	210,119	-0,030	0,034
-134,629	800,000	-0,046	-0,108
-133,614	-53,391	0,120	-0,039
-132,599	-43,513	0,058	0,021
-131,585	-200,000	-0,016	0,058
-130,570	-200,000	0,010	0,066
-129,556	-200,000	0,006	0,044
-128,541	130,814	0,106	-0,097
-127,526	72,340	-0,106	-0,078
-126,512	102,690	0,064	0,053
-125,497	4,334	0,018	0,009
-124,483	176,170	0,113	-0,116
-123,468	-200,000	0,002	0,019
-122,453	-119,971	-0,178	-0,021
-121,439	-200,000	0,014	0,132
-120,424	-200,000	-0,020	0,086
-119,410	140,087	0,039	-0,036
-118,395	146,169	0,128	0,122
-117,380	162,479	0,025	0,025
-116,366	-4,841	-0,147	-0,072
-115,351	128,797	0,069	0,063
-114,337	800,000	-0,034	-0,082
-113,322	-64,102	0,110	0,032
-112,307	-86,617	-0,104	-0,023
-111,293	-65,439	0,132	0,037
-110,278	209,930	-0,066	0,073
-109,264	-35,768	-0,099	0,038
-108,249	-36,660	-0,040	0,015
-107,234	222,379	-0,041	-0,047
-106,220	481,986	-0,084	-0,137
-105,205	286,864	0,072	0,092
-104,191	121,014	0,110	0,097
-103,176	800,000	0,052	-0,119
-102,162	-20,880	0,089	0,038
-101,147	800,000	-0,042	-0,116
-100,132	161,318	-0,005	0,005
-99,118	-200,000	-0,068	-0,252
-98,103	-125,525	-0,127	-0,014
-97,089	-200,000	0,021	0,134
-96,074	-18,020	-0,069	-0,031
-95,059	356,131	0,071	0,101
-94,045	184,338	-0,043	0,046
-93,030	-141,489	-0,125	-0,009
-92,016	111,055	-0,050	-0,042
-91,001	5,102	0,095	-0,049
-89,986	-200,000	0,009	-0,057
-88,972	227,400	-0,041	0,047
-87,957	285,206	-0,100	-0,128
-86,943	-200,000	0,017	0,083
-85,928	118,038	0,078	-0,068
-84,913	-79,992	0,038	-0,009
-83,899	-70,305	0,140	-0,037
-82,884	185,630	0,100	0,105
-81,870	149,925	0,022	0,021
-80,855	610,266	0,063	0,112
-79,840	24,845	-0,067	-0,039
-78,826	800,000	-0,033	-0,092
-77,811	148,968	-0,035	-0,034
-76,797	-200,000	0,008	0,087
-75,782	800,000	0,067	0,178
-74,767	-200,000	-0,007	-0,069
-73,753	225,570	0,052	0,060
-72,738	201,522	0,083	0,090
-71,724	93,718	-0,102	0,082
-70,709	316,086	-0,046	-0,061
-69,694	-161,758	0,111	-0,004
-68,680	137,354	0,068	0,063
-67,665	44,617	-0,035	0,023
-66,651	800,000	-0,025	0,071
-65,636	-115,600	-0,087	0,011
-64,622	330,406	0,024	-0,033
-63,607	164,300	-0,040	0,040
-62,592	-200,000	0,001	0,078
-61,578	-200,000	-0,018	0,071
-60,563	-200,000	0,015	0,096
-59,549	199,228	-0,033	-0,036
-58,534	-17,059	-1,672	-0,744
-57,519	361,194	-1,463	-2,083
-56,505	-200,000	-0,533	-4,601
-55,490	205,787	0,941	1,037
-54,476	800,000	4,952	11,415
-53,461	-200,000	19,201	319,663
-52,446	-200,000	740,445	2334,467
-51,432	573,406	1655,300	2869,009
-50,417	78,260	1671,052	1261,791
-49,403	21,346	1543,764	885,794
-48,388	15,227	1466,236	811,559
-47,373	17,926	1456,477	819,165
-46,359	16,686	1446,525	807,593
-45,344	13,457	1441,906	789,512
-44,330	13,351	1439,968	787,909
-43,315	13,358	1438,019	786,846
-42,300	13,358	1436,386	785,922
-41,286	13,394	1435,319	785,480
-40,271	13,373	1433,855	784,545
-39,257	13,328	1432,623	783,626
-38,242	13,392	1431,218	783,131
-37,227	13,421	1429,987	782,562
-36,213	13,414	1428,793	781,846
-35,198	13,406	1427,448	781,042
-34,184	13,445	1426,737	780,807
-33,169	13,432	1425,271	779,912
-32,154	13,439	1424,246	779,353
-31,140	13,459	1422,876	778,667
-30,125	13,406	1421,986	777,897
-29,111	13,452	1420,673	777,368
-28,096	13,397	1419,805	776,599
-27,082	13,361	1418,573	775,727
-26,067	13,322	1417,432	774,889
-25,052	13,346	1416,451	774,432
-24,038	13,291	1415,413	773,574
-23,023	13,275	1414,493	772,967
-22,009	13,343	1413,434	772,676
-20,994	13,340	1412,419	772,077
-19,979	13,327	1411,695	771,589
-18,965	13,282	1410,698	770,802
-17,950	13,279	1409,842	770,292
-16,936	13,273	1408,808	769,669
-15,921	13,263	1407,606	768,936
-14,906	13,291	1406,777	768,580
-13,892	13,246	1405,915	767,868
-12,877	13,218	1405,144	767,288
-11,863	13,291	1404,129	767,045
-10,848	13,252	1403,197	766,324
-9,833	13,228	1402,472	765,785
-8,819	13,167	1401,700	765,048
-7,804	13,143	1400,785	764,405
-6,790	13,166	1399,478	763,772
-5,775	13,171	1398,444	763,200
-4,760	13,141	1397,617	762,575
-3,746	13,175	1396,541	762,119
-2,731	13,128	1395,842	761,488
-1,717	13,083	1395,049	760,817
-0,702	13,113	1393,162	759,897
0,313	16,974	1309,995	732,414
1,327	33,212	703,824	431,043
2,342	51,373	123,283	82,703
3,356	0,968	16,557	8,370
4,371	3,744	3,286	1,691
5,386	0,361	0,616	0,310
6,400	569,019	0,150	0,259
7,415	-23,617	-0,181	-0,076
8,429	-82,232	-0,322	-0,074
9,444	6,305	-0,263	-0,138
10,459	39,320	-0,298	-0,188
11,473	1,382	-0,274	-0,139
12,488	-25,186	-0,276	-0,115
13,502	-23,611	-0,291	-0,123
14,517	140,222	-0,367	-0,342
15,531	690,298	-0,235	-0,437
16,546	127,667	-0,303	-0,272
17,561	99,316	-0,350	-0,286
18,575	-91,664	-0,302	-0,060
19,590	646,936	-0,156	-0,283
20,604	-72,339	-0,374	-0,097
21,619	131,712	-0,382	-0,347
22,634	75,276	-0,480	-0,357
23,648	80,572	-0,373	-0,283
24,663	4,876	-0,384	-0,199
25,677	49,216	-0,334	-0,222
26,692	182,980	-0,308	-0,322
27,707	-9,868	-0,396	-0,186
28,721	40,129	-0,444	-0,281
29,736	116,297	-0,336	-0,290
30,750	139,235	-0,383	-0,355
31,765	55,153	-0,334	-0,227
32,780	16,599	-0,505	-0,281
33,794	26,423	-0,347	-0,204
34,809	45,219	-0,387	-0,252
35,823	421,544	-0,209	-0,318
36,838	196,213	-0,389	-0,418
37,853	225,484	-0,352	-0,403
38,867	81,506	-0,416	-0,317
39,882	-99,929	-0,355	-0,062
40,896	-66,259	-0,369	-0,103
41,911	52,201	-0,330	-0,221
42,926	115,901	-0,354	-0,305
43,940	-29,416	-0,382	-0,153
44,955	52,794	-0,400	-0,269
45,969	204,201	-0,385	-0,421
46,984	-9,279	-0,349	-0,164
47,999	10,454	-0,296	-0,158
49,013	-12,258	-0,377	-0,173
50,028	-80,734	-0,341	-0,079
51,042	73,862	-0,363	-0,268
52,057	-30,728	-0,403	-0,160
53,071	83,384	-0,318	-0,244
54,086	-58,134	-0,408	-0,124
55,101	59,356	-0,438	-0,304
56,115	118,961	-0,292	-0,254
57,130	45,530	-0,371	-0,241
58,144	68,105	-0,414	-0,298
59,159	229,916	-0,214	-0,247
60,174	52,494	-0,393	-0,264
61,188	214,289	-0,259	-0,289
62,203	4,117	-0,329	-0,169
63,217	40,326	-0,288	-0,182
64,232	36,814	-0,316	-0,196
65,247	34,448	-0,401	-0,246
66,261	7,085	-0,357	-0,187
67,276	-40,869	-0,414	-0,150
68,290	5,668	-0,293	-0,152
69,305	-101,721	-0,288	-0,049
70,320	116,900	-0,434	-0,375
71,334	800,000	-0,103	-0,243
72,349	154,577	-0,261	-0,252
73,363	11,856	-0,376	-0,203
74,378	146,256	-0,309	-0,292
75,393	19,385	-0,373	-0,210
76,407	241,213	-0,176	-0,207
77,422	88,196	-0,290	-0,226
78,436	-45,799	-0,279	-0,096
79,451	157,013	-0,208	-0,203
80,466	24,756	-0,300	-0,174
81,480	35,179	-0,355	-0,218
82,495	-6,457	-0,339	-0,162
83,509	57,033	-0,329	-0,225
84,524	79,974	-0,247	-0,186
85,539	-159,562	-0,195	-0,007
86,553	-40,795	-0,376	-0,136
87,568	-33,689	-0,307	-0,118
88,582	73,956	-0,319	-0,235
89,597	87,267	-0,323	-0,251
90,611	123,320	-0,309	-0,272
91,626	254,158	-0,223	-0,268
92,641	43,641	-0,344	-0,221
93,655	9,678	-0,195	-0,103
94,670	-85,435	-0,365	-0,079
95,684	4,997	-0,301	-0,155
96,699	151,215	-0,316	-0,302
97,714	106,716	-0,300	-0,250
98,728	-103,265	-0,388	-0,064
99,743	38,980	-0,262	-0,164
100,757	214,998	-0,234	-0,261
101,772	62,828	-0,218	-0,153
102,787	103,386	-0,243	-0,200
103,801	-63,990	-0,396	-0,113
104,816	61,685	-0,242	-0,169
105,830	-28,630	-0,329	-0,132
106,845	138,604	-0,256	-0,236
107,860	52,957	-0,207	-0,139
108,874	-84,747	-0,333	-0,073
109,889	240,699	-0,223	-0,262
110,903	58,116	-0,293	-0,201
111,918	23,853	-0,266	-0,153
112,933	207,628	-0,153	-0,168
113,947	-38,378	-0,234	-0,086
114,962	71,724	-0,354	-0,258
115,976	20,418	-0,317	-0,179
116,991	187,614	-0,234	-0,245
118,006	64,847	-0,280	-0,198
119,020	362,217	-0,177	-0,249
120,035	-85,671	-0,198	-0,043
121,049	-38,138	-0,149	-0,055
122,064	23,789	-0,283	-0,163
123,079	238,206	-0,206	-0,240
124,093	-14,044	-0,387	-0,174
125,108	63,341	-0,290	-0,203
126,122	168,313	-0,256	-0,256
127,137	403,626	-0,192	-0,284
128,151	-136,103	-0,104	0,008
129,166	57,809	-0,207	-0,142
130,181	20,157	-0,253	-0,142
131,195	340,417	-0,231	-0,316
132,210	99,141	-0,257	-0,208
133,224	47,966	-0,298	-0,194
134,239	158,795	-0,181	-0,176
135,254	-24,890	-0,140	-0,058
136,268	27,857	-0,210	-0,124
137,283	207,069	-0,206	-0,225
138,297	-51,457	-0,429	-0,139
139,312	-23,732	-0,282	-0,118
140,327	245,760	-0,210	-0,248
141,341	47,877	-0,257	-0,167
142,356	-3,392	-0,231	-0,112
143,370	-178,566	-0,291	-0,005
144,385	320,845	-0,125	-0,167
145,400	45,932	-0,216	-0,140
146,414	-17,598	-0,354	-0,155
147,429	-121,302	-0,252	-0,029
148,443	182,225	-0,209	-0,216
149,458	-51,637	-0,277	-0,090
150,473	49,911	-0,324	-0,213
151,487	-69,123	-0,160	-0,043
152,502	178,269	-0,200	-0,205
153,516	198,222	-0,271	-0,290
154,531	501,742	-0,162	-0,263
155,546	352,948	-0,199	-0,276
156,560	73,344	-0,223	-0,163
157,575	69,173	-0,159	-0,114
158,589	-150,821	-0,263	-0,014
159,604	161,889	-0,211	-0,206
160,619	30,296	-0,283	-0,168
161,633	50,638	-0,239	-0,157
162,648	66,779	-0,274	-0,194
163,662	412,985	-0,154	-0,229
164,677	160,228	-0,166	-0,161
165,692	27,777	-0,259	-0,152
166,706	360,199	-0,213	-0,298
167,721	287,164	-0,245	-0,309
168,735	193,335	-0,181	-0,192
169,750	-48,643	-0,290	-0,097
170,764	676,037	-0,121	-0,220
171,779	-3,715	-0,201	-0,097
172,794	5,243	-0,187	-0,096
173,808	-107,923	-0,247	-0,037
174,823	58,802	-0,292	-0,200
175,837	-4,972	-0,270	-0,129
176,852	84,243	-0,141	-0,107
177,867	114,224	-0,174	-0,148
178,881	380,150	-0,097	-0,139
179,896	-91,362	-0,198	-0,039
180,910	66,671	-0,212	-0,150
181,925	239,186	-0,172	-0,199
182,940	-23,517	-0,273	-0,114
183,954	-3,999	-0,236	-0,114
184,969	245,328	-0,254	-0,299
185,983	251,172	-0,146	-0,173
186,998	-68,604	-0,259	-0,069
188,013	-79,191	-0,276	-0,065
189,027	-7,975	-0,104	-0,049
190,042	51,015	-0,211	-0,139
191,056	34,578	-0,244	-0,148
192,071	156,990	-0,158	0,153
193,086	90,493	-0,118	-0,092
194,100	62,575	-0,140	-0,097
195,115	92,894	-0,225	-0,177
196,129	20,599	-0,272	-0,153
197,144	-70,370	-0,222	-0,058
198,159	-118,297	-0,209	-0,026
199,173	-31,498	-0,320	-0,125
200,188	160,584	-0,192	-0,187
201,202	-107,156	-0,148	-0,022
202,217	800,000	-0,069	-0,182
203,232	62,104	-0,262	-0,182
204,246	103,689	-0,214	-0,174
205,261	569,613	-0,129	-0,218
206,275	52,940	-0,170	-0,113
207,290	46,229	-0,223	-0,144
208,304	-51,327	-0,182	0,059
209,319	-30,476	-0,178	-0,070
210,334	9,944	-0,233	-0,122
211,348	-109,047	-0,273	0,040
212,363	-101,130	-0,217	-0,037
213,377	-18,500	-0,266	-0,115
214,392	-64,438	-0,121	-0,034
215,407	-114,528	-0,153	-0,020
216,421	138,366	-0,165	-0,150
217,436	-112,772	-0,229	-0,031
218,450	182,255	-0,199	-0,204
219,465	109,062	-0,272	-0,226
220,480	154,580	-0,128	-0,123
221,494	191,147	-0,102	-0,106
222,509	-0,512	-0,196	-0,096
223,523	409,215	-0,167	-0,246
224,538	79,087	-0,216	-0,161
225,553	94,853	-0,278	-0,219
226,567	-12,179	-0,162	-0,073
227,582	194,858	-0,203	-0,213
228,596	303,355	-0,107	-0,138
229,611	88,273	-0,164	-0,126
230,626	151,140	-0,053	-0,050
231,640	-200,000	-0,007	-0,211
232,655	-92,270	-0,124	-0,024
233,669	414,957	-0,195	-0,288
234,684	150,315	-0,182	-0,172
235,699	-200,000	-0,030	-0,197
236,713	90,619	-0,196	-0,152
237,728	125,470	-0,172	-0,151
238,742	14,848	-0,137	-0,074
239,757	-200,000	-0,069	-0,229
240,772	535,129	-0,152	-0,251
241,786	-8,210	-0,271	-0,126
242,801	524,128	-0,187	-0,306
243,815	492,538	-0,090	-0,144
244,830	-92,821	-0,109	-0,021
245,844	211,491	-0,169	-0,184
246,859	18,942	-0,178	-0,099
247,874	94,346	-0,188	-0,147
248,888	84,734	-0,197	-0,149
249,903	-22,699	-0,237	-0,099
250,917	109,536	-0,121	-0,100
251,932	-58,931	-0,192	0,057
252,947	0,553	-0,188	-0,093
253,961	-104,104	-0,314	-0,050
254,976	-200,000	-0,073	-0,233
255,990	750,180	-0,154	-0,289
257,005	201,462	-0,201	-0,214
258,020	-200,000	-0,033	-0,115
259,034	649,404	-0,079	-0,141
260,049	-39,905	-0,150	-0,054
261,063	64,016	-0,116	-0,080
262,078	-46,274	-0,251	-0,085
263,093	-21,467	-0,144	-0,060
264,107	-142,737	-0,169	-0,011
265,122	608,251	-0,086	-0,149
266,136	51,387	-0,115	-0,075
267,151	141,227	-0,160	-0,146
268,166	185,871	-0,122	-0,126
269,180	29,134	-0,239	-0,140
270,195	54,018	-0,153	-0,102
271,209	97,598	-0,233	-0,185
272,224	93,059	-0,087	-0,068
273,239	-43,601	-0,153	-0,053
274,253	17,717	-0,171	-0,094
275,268	191,653	-0,194	-0,203
276,282	31,317	-0,246	-0,145
277,297	-145,279	-0,226	0,014
278,312	124,472	-0,286	-0,249
279,326	24,472	-0,210	-0,120
280,341	163,121	-0,127	-0,124
281,355	11,223	-0,217	-0,114
282,370	248,216	-0,043	-0,050
283,384	361,254	-0,187	-0,259
284,399	42,227	-0,136	-0,085
285,414	605,633	-0,106	-0,183
286,428	-5,439	-0,141	-0,067
287,443	800,000	-0,083	-0,173
288,457	-71,722	-0,032	0,008
289,472	67,330	-0,094	0,066
290,487	40,313	-0,135	-0,084
291,501	-114,722	-0,204	0,027
292,516	7,038	-0,098	-0,050
293,530	31,379	-0,200	-0,118
294,545	-45,272	-0,144	-0,049
295,560	71,106	-0,126	-0,090
296,574	71,193	-0,101	-0,072
297,589	-73,013	-0,115	-0,029
298,603	273,052	-0,162	-0,198
299,618	22,091	-0,165	-0,092
300,633	137,105	-0,060	-0,054
301,647	18,127	-0,263	-0,144
302,662	185,509	-0,160	-0,164
303,676	129,264	-0,106	-0,093
304,691	485,250	-0,106	-0,167
305,706	-62,759	-0,284	-0,081
306,720	185,128	-0,152	-0,156
307,735	-16,405	-0,246	-0,107
308,749	621,702	0,023	-0,040
309,764	7,646	-0,053	0,027
310,779	-30,295	-0,140	-0,055
311,793	-200,000	-0,016	-0,099
312,808	480,645	-0,200	-0,313
313,822	130,452	-0,332	-0,293
314,837	177,125	-0,202	-0,203
315,852	-23,392	-0,078	0,032
316,866	800,000	-0,051	-0,124
317,881	-17,855	-0,049	0,021
318,895	-17,515	-0,082	0,036
319,910	565,717	-0,157	-0,263
320,925	-64,034	-0,247	-0,069
321,939	61,118	-0,108	-0,074
322,954	-100,284	-0,056	0,009
323,968	14,369	-0,159	0,085
324,983	25,731	-0,234	0,134
325,997	70,656	-0,045	-0,032
327,012	-186,078	-0,198	-0,002
328,027	82,869	-0,162	-0,121
329,041	61,735	-0,124	-0,085
330,056	193,214	-0,102	-0,106
331,070	237,992	-0,104	-0,119
332,085	46,277	-0,090	0,057
333,100	-116,612	-0,167	0,021
334,114	800,000	-0,085	-0,194
335,129	46,375	-0,096	-0,061
336,143	120,458	-0,147	-0,126
337,158	88,065	-0,162	-0,124
338,173	32,719	-0,180	-0,107
339,187	152,049	-0,116	-0,109
340,202	13,801	-0,100	-0,053
341,216	441,557	-0,043	-0,065
342,231	-118,669	-0,132	-0,016
343,246	188,570	-0,131	-0,135
344,260	150,244	-0,048	-0,045
345,275	800,000	0,022	-0,054
346,289	87,092	-0,079	-0,060
347,304	-15,908	-0,094	0,041
348,319	-28,076	-0,195	0,077
349,333	160,978	-0,081	-0,077
350,348	800,000	-0,085	-0,191
351,362	800,000	-0,075	-0,190
352,377	9,696	-0,155	-0,081
353,392	247,360	-0,110	-0,127
354,406	666,933	-0,049	-0,087
355,421	209,438	1313,241	1413,461
356,435	161,194	1473,780	1413,953
