DTS Sentinel unit serial number:	SN410029Multiplexer serial number:	ORYXHardware model number:	OX2-SRSoftware version number:	ORYX F/W v4,00 Oryx Data Collector v3.7.2.0data status	okinstallation	B3 Nyhavnadifferential loss correction	single-endedforward channel	channel 1reverse channel	N/Adate	2023/11/29time	13:02:31forward acquisition time	300,00reverse acquisition time	0,00gamma	499,1914k internal	0,3212k external	0,3212temperature offset calibration	1,0000default loss term (dB/km)	0,3820temperature slope calibration	1,0000multiplexer offset coefficient	1,0000multiplexer slope coefficient	1,0000fibre end	0,00T internal ref (°C)	10,12T ext. ref 1 (°C)	-3,90T ext. ref 2 (°C)	-4,05length (m)	temperature (°C)	Stokes	anti-Stokes-744,400	448,863	-0,158	-0,253
-743,385	78,517	-0,088	0,068
-742,371	298,971	-0,198	-0,265
-741,356	-200,000	0,071	0,406
-740,342	-78,354	-0,248	-0,061
-739,327	800,000	0,127	0,266
-738,312	153,676	-0,251	-0,249
-737,298	-200,000	0,004	0,276
-736,283	58,990	-0,198	-0,141
-735,269	800,000	0,069	0,170
-734,254	49,829	-0,205	-0,140
-733,239	76,281	-0,248	0,190
-732,225	-200,000	0,024	-0,193
-731,210	172,793	0,019	0,020
-730,196	800,000	-0,031	-0,080
-729,181	17,661	0,121	-0,070
-728,167	-200,000	-0,002	-0,014
-727,152	-200,000	0,009	0,035
-726,137	-16,993	-0,014	0,006
-725,123	140,243	-0,139	-0,133
-724,108	-58,150	0,086	-0,027
-723,094	-104,999	-0,180	0,030
-722,079	183,644	0,066	0,071
-721,064	-200,000	0,010	0,081
-720,050	-200,000	0,012	0,073
-719,035	800,000	-0,021	-0,046
-718,021	346,180	-0,111	-0,158
-717,006	184,227	-0,085	0,091
-715,991	398,940	0,031	-0,047
-714,977	99,955	-0,124	-0,104
-713,962	-21,725	0,072	0,032
-712,948	-131,791	-0,109	-0,010
-711,933	-105,853	0,121	-0,020
-710,918	-200,000	0,004	0,109
-709,904	-200,000	-0,006	-0,127
-708,889	41,050	-0,125	-0,082
-707,875	23,985	-0,034	0,020
-706,860	227,989	-0,053	0,063
-705,845	800,000	0,020	-0,043
-704,831	-200,000	0,026	0,158
-703,816	343,846	-0,098	-0,139
-702,802	670,475	-0,044	0,083
-701,787	-133,590	-0,137	0,012
-700,772	-28,898	-0,103	0,043
-699,758	-200,000	0,001	-0,028
-698,743	12,600	0,061	0,034
-697,729	-200,000	-0,000	-0,027
-696,714	131,901	-0,033	0,031
-695,699	-89,591	-0,108	-0,023
-694,685	-8,278	-0,216	-0,105
-693,670	-200,000	-0,021	-0,107
-692,656	800,000	-0,057	-0,167
-691,641	99,410	0,100	-0,084
-690,627	-200,000	-0,018	-0,064
-689,612	43,989	-0,041	0,027
-688,597	504,972	-0,031	-0,052
-687,583	326,592	-0,025	0,034
-686,568	427,606	0,029	0,046
-685,554	-35,488	0,075	-0,029
-684,539	-123,526	0,041	0,005
-683,524	-200,000	0,020	0,168
-682,510	800,000	-0,060	0,187
-681,495	-148,044	0,025	-0,001
-680,481	-142,762	0,039	-0,003
-679,466	-42,604	0,072	-0,026
-678,451	-200,000	-0,029	0,163
-677,437	-77,380	-0,083	-0,021
-676,422	-200,000	0,033	0,110
-675,408	85,356	-0,075	-0,060
-674,393	-200,000	-0,014	-0,068
-673,378	-200,000	0,035	0,123
-672,364	-79,874	-0,141	-0,034
-671,349	18,412	-0,065	-0,037
-670,335	-21,857	-0,065	-0,028
-669,320	-56,337	0,117	-0,037
-668,305	800,000	-0,038	0,090
-667,291	320,754	0,035	-0,048
-666,276	600,161	0,036	0,065
-665,262	-16,385	-0,057	-0,026
-664,247	800,000	-0,041	-0,115
-663,232	-200,000	-0,011	-0,105
-662,218	122,239	-0,051	0,046
-661,203	316,992	-0,087	0,120
-660,189	-65,521	0,060	-0,017
-659,174	-200,000	0,034	-0,147
-658,159	-200,000	-0,012	-0,164
-657,145	277,649	0,060	-0,077
-656,130	75,289	0,039	0,030
-655,116	218,124	0,065	0,075
-654,101	-200,000	0,003	0,186
-653,086	531,535	-0,020	0,034
-652,072	575,250	-0,068	0,120
-651,057	-37,718	-0,177	-0,068
-650,043	-60,083	0,071	-0,022
-649,028	400,901	-0,028	-0,043
-648,014	800,000	-0,015	0,043
-646,999	38,669	-0,111	0,071
-645,984	-104,838	0,089	0,015
-644,970	192,905	-0,070	-0,076
-643,955	-200,000	-0,013	0,150
-642,941	14,486	0,032	-0,018
-641,926	83,418	-0,032	0,025
-640,911	-125,884	-0,075	0,008
-639,897	-73,278	0,053	0,014
-638,882	52,043	-0,114	0,078
-637,868	72,045	0,079	0,059
-636,853	12,918	-0,151	-0,084
-635,838	800,000	0,013	0,031
-634,824	-60,974	0,096	0,029
-633,809	0,468	-0,079	-0,040
-632,795	-118,290	0,114	0,015
-631,780	-173,757	0,153	0,003
-630,765	533,141	-0,023	-0,040
-629,751	20,035	0,082	0,047
-628,736	407,928	-0,037	0,057
-627,722	-200,000	-0,007	-0,024
-626,707	-200,000	-0,039	0,169
-625,692	133,198	0,048	-0,044
-624,678	347,172	-0,017	0,024
-623,663	-103,811	0,086	0,014
-622,649	118,098	-0,067	-0,060
-621,634	-110,952	0,150	-0,022
-620,619	176,720	-0,071	-0,074
-619,605	278,043	0,068	-0,087
-618,590	-200,000	0,006	-0,158
-617,576	-200,000	0,008	0,039
-616,561	28,774	0,059	-0,036
-615,546	15,395	0,046	-0,026
-614,532	-31,837	-0,060	-0,024
-613,517	184,086	0,062	-0,066
-612,503	-36,507	0,095	-0,037
-611,488	-147,262	-0,032	0,002
-610,474	-200,000	-0,005	-0,045
-609,459	-43,149	0,032	0,012
-608,444	19,212	0,014	0,008
-607,430	-104,997	-0,171	-0,028
-606,415	-155,495	-0,077	-0,004
-605,401	-9,949	-0,066	0,032
-604,386	61,618	0,086	0,062
-603,371	75,757	0,064	0,049
-602,357	-171,829	-0,077	0,002
-601,342	497,056	-0,071	-0,118
-600,328	-57,752	-0,203	-0,064
-599,313	123,738	0,055	0,049
-598,298	461,827	0,014	-0,022
-597,284	254,012	-0,110	0,135
-596,269	-200,000	0,034	0,161
-595,255	178,109	-0,054	-0,057
-594,240	-55,534	-0,185	-0,059
-593,225	800,000	0,042	0,110
-592,211	-200,000	0,009	-0,101
-591,196	109,336	-0,064	-0,055
-590,182	-106,999	0,098	-0,016
-589,167	-200,000	0,029	0,131
-588,152	-200,000	0,000	0,151
-587,138	17,385	-0,065	-0,037
-586,123	189,091	-0,117	-0,126
-585,109	181,650	-0,031	0,033
-584,094	-85,251	-0,063	-0,014
-583,079	48,700	0,083	-0,056
-582,065	466,456	-0,034	0,056
-581,050	-187,088	-0,126	-0,001
-580,036	-58,855	-0,068	0,021
-579,021	658,878	-0,057	-0,105
-578,006	707,565	0,040	0,076
-576,992	800,000	-0,033	0,081
-575,977	166,220	0,066	-0,067
-574,963	403,869	0,019	-0,029
-573,948	-200,000	-0,003	0,029
-572,934	-16,375	0,076	0,035
-571,919	509,752	-0,082	0,138
-570,904	-25,386	0,066	0,028
-569,890	-74,219	-0,104	0,027
-568,875	-200,000	-0,024	-0,140
-567,861	-17,949	0,062	0,028
-566,846	36,907	0,009	0,005
-565,831	20,538	0,114	0,066
-564,817	383,311	-0,099	-0,147
-563,802	27,319	0,032	-0,019
-562,788	-56,097	-0,184	-0,059
-561,773	-33,676	0,175	0,069
-560,758	-99,584	-0,117	0,021
-559,744	70,318	0,044	0,033
-558,729	-87,548	-0,099	-0,021
-557,715	-200,000	-0,030	-0,113
-556,700	-200,000	-0,021	-0,118
-555,685	-63,237	0,051	-0,015
-554,671	800,000	-0,039	0,093
-553,656	800,000	0,031	-0,072
-552,642	231,641	0,049	-0,058
-551,627	594,982	0,031	-0,056
-550,612	-200,000	0,023	0,095
-549,598	256,878	-0,074	-0,091
-548,583	-200,000	0,036	-0,168
-547,569	-127,986	-0,159	-0,016
-546,554	800,000	-0,017	-0,048
-545,539	-141,258	-0,068	0,005
-544,525	-200,000	0,006	-0,086
-543,510	800,000	-0,042	0,125
-542,496	506,010	-0,009	-0,014
-541,481	-74,320	-0,098	0,025
-540,466	478,204	0,042	-0,068
-539,452	10,968	0,027	-0,015
-538,437	-200,000	0,009	-0,033
-537,423	138,725	0,076	0,071
-536,408	71,336	-0,084	0,063
-535,393	-49,329	0,018	-0,006
-534,379	129,157	0,033	0,030
-533,364	88,651	0,058	0,046
-532,350	400,987	-0,037	-0,057
-531,335	212,075	0,107	-0,122
-530,321	7,687	0,048	-0,026
-529,306	-144,015	-0,123	-0,008
-528,291	-200,000	0,023	-0,167
-527,277	128,001	-0,052	-0,047
-526,262	-200,000	-0,013	-0,054
-525,248	800,000	-0,011	-0,022
-524,233	-200,000	-0,016	0,077
-523,218	-36,063	-0,033	-0,013
-522,204	16,684	-0,071	-0,041
-521,189	800,000	-0,036	-0,084
-520,175	78,410	-0,037	-0,028
-519,160	105,860	-0,042	0,036
-518,145	-200,000	-0,017	0,066
-517,131	-144,683	0,091	-0,006
-516,116	800,000	-0,023	0,047
-515,102	20,890	-0,131	0,076
-514,087	-200,000	0,012	-0,049
-513,072	35,058	-0,138	-0,087
-512,058	450,703	-0,054	-0,086
-511,043	32,174	0,072	-0,045
-510,029	247,243	0,049	0,060
-509,014	800,000	0,055	0,162
-507,999	-200,000	-0,005	-0,050
-506,985	22,459	-0,055	0,032
-505,970	64,323	-0,153	-0,111
-504,956	175,414	-0,061	-0,064
-503,941	-143,928	-0,079	0,005
-502,926	-93,603	-0,128	0,025
-501,912	17,803	0,071	0,040
-500,897	24,180	0,050	-0,030
-499,883	129,052	0,085	-0,078
-498,868	225,251	-0,009	0,010
-497,853	800,000	-0,058	-0,117
-496,839	-66,344	-0,088	-0,025
-495,824	383,854	0,068	0,101
-494,810	247,642	-0,030	0,037
-493,795	12,045	-0,076	-0,042
-492,781	-84,199	-0,105	0,024
-491,766	-200,000	0,010	-0,036
-490,751	-46,019	-0,165	-0,058
-489,737	27,744	0,058	0,035
-488,722	-66,087	-0,048	-0,014
-487,708	163,394	0,121	0,122
-486,693	-28,482	-0,078	-0,032
-485,678	-61,171	0,033	-0,010
-484,664	-200,000	-0,019	-0,084
-483,649	-200,000	-0,003	-0,131
-482,635	310,677	-0,061	-0,082
-481,620	-86,707	-0,122	0,027
-480,605	718,927	0,045	0,087
-479,591	681,791	-0,036	0,067
-478,576	-20,254	-0,127	-0,056
-477,562	219,561	-0,067	-0,077
-476,547	148,074	0,113	-0,110
-475,532	460,456	0,050	-0,080
-474,518	91,066	0,164	0,132
-473,503	228,246	0,029	-0,034
-472,489	77,063	-0,074	0,056
-471,474	-82,986	-0,113	0,026
-470,459	11,052	-0,141	-0,077
-469,445	407,830	0,058	-0,088
-468,430	40,951	-0,094	-0,061
-467,416	800,000	-0,019	0,051
-466,401	-140,023	0,066	0,005
-465,386	-200,000	-0,010	-0,124
-464,372	-50,639	-0,029	-0,010
-463,357	-200,000	-0,013	-0,114
-462,343	-200,000	-0,028	0,115
-461,328	-140,282	-0,189	-0,014
-460,313	-200,000	-0,005	-0,124
-459,299	-200,000	0,021	-0,068
-458,284	-200,000	-0,016	0,077
-457,270	60,241	0,040	0,028
-456,255	-104,359	0,049	-0,008
-455,241	-200,000	-0,093	0,000
-454,226	-200,000	0,000	0,029
-453,211	74,139	-0,090	0,068
-452,197	539,975	0,074	0,126
-451,182	-6,578	0,124	0,060
-450,168	796,843	-0,057	0,114
-449,153	365,266	-0,027	-0,040
-448,138	577,189	0,047	-0,082
-447,124	-9,415	0,034	-0,016
-446,109	60,913	0,034	0,024
-445,095	-191,934	-0,077	0,001
-444,080	687,799	0,023	0,042
-443,065	-99,340	0,058	0,010
-442,051	-200,000	-0,024	0,141
-441,036	-14,144	0,129	0,060
-440,022	288,715	0,026	0,033
-439,007	-0,823	0,013	-0,007
-437,992	226,684	0,069	0,080
-436,978	-200,000	-0,010	0,078
-435,963	800,000	-0,023	-0,058
-434,949	132,389	0,035	0,033
-433,934	425,798	0,019	-0,030
-432,919	102,794	0,107	-0,090
-431,905	487,191	-0,086	-0,141
-430,890	-27,610	0,061	-0,025
-429,876	56,112	0,085	0,059
-428,861	800,000	-0,020	0,052
-427,846	421,147	0,093	-0,143
-426,832	111,765	0,062	0,054
-425,817	654,742	-0,053	-0,098
-424,803	-200,000	0,003	0,034
-423,788	-2,085	-0,167	-0,084
-422,773	-104,541	0,114	0,019
-421,759	145,996	0,097	0,094
-420,744	16,124	-0,112	-0,063
-419,730	336,438	0,018	0,026
-418,715	-89,973	0,015	-0,003
-417,701	-33,171	0,060	-0,024
-416,686	390,894	-0,040	-0,060
-415,671	96,684	0,021	0,017
-414,657	-82,440	0,094	0,022
-413,642	-200,000	0,006	-0,043
-412,628	435,729	-0,052	0,081
-411,613	-86,371	0,089	0,019
-410,598	-99,676	0,024	0,004
-409,584	261,146	-0,050	0,063
-408,569	99,325	0,006	0,005
-407,555	300,890	0,054	-0,071
-406,540	-133,749	0,126	0,011
-405,525	198,413	0,018	0,020
-404,511	800,000	0,004	-0,013
-403,496	-200,000	0,015	0,073
-402,482	50,385	0,102	0,069
-401,467	-200,000	0,013	0,160
-400,452	-158,738	0,083	0,003
-399,438	343,679	-0,119	0,168
-398,423	141,851	-0,045	-0,043
-397,409	-34,190	-0,129	-0,050
-396,394	800,000	-0,012	-0,037
-395,379	-41,552	0,037	-0,013
-394,365	-200,000	-0,002	-0,040
-393,350	800,000	0,072	0,153
-392,336	79,014	0,072	-0,055
-391,321	-66,539	0,010	0,003
-390,306	-200,000	0,015	0,072
-389,292	12,056	-0,069	-0,038
-388,277	503,022	-0,066	-0,110
-387,263	-47,946	-0,031	0,011
-386,248	800,000	0,018	0,056
-385,233	30,220	0,062	-0,038
-384,219	-15,301	-0,070	-0,032
-383,204	-200,000	-0,002	0,052
-382,190	-200,000	0,005	-0,065
-381,175	85,850	0,102	-0,080
-380,160	-200,000	-0,002	0,123
-379,146	303,154	-0,030	0,040
-378,131	-200,000	-0,011	0,083
-377,117	-200,000	0,018	-0,078
-376,102	-200,000	-0,000	-0,086
-375,088	65,294	0,069	0,050
-374,073	-200,000	0,009	-0,094
-373,058	800,000	0,029	-0,089
-372,044	-20,035	-0,049	0,021
-371,029	-108,768	-0,110	0,017
-370,015	-125,188	-0,093	0,010
-369,000	-66,762	-0,060	-0,017
-367,985	67,217	-0,086	0,063
-366,971	-200,000	0,010	0,058
-365,956	411,659	-0,065	-0,099
-364,942	-144,868	0,177	-0,011
-363,927	291,522	0,032	0,042
-362,912	-200,000	0,013	-0,112
-361,898	82,176	-0,027	-0,021
-360,883	185,530	-0,075	-0,079
-359,869	-200,000	-0,003	0,019
-358,854	-27,351	0,073	-0,030
-357,839	800,000	0,062	-0,151
-356,825	-46,603	0,103	0,036
-355,810	41,995	-0,075	0,048
-354,796	-200,000	0,008	0,157
-353,781	-200,000	-0,052	-0,174
-352,766	-7,459	0,129	0,062
-351,752	-200,000	-0,002	-0,108
-350,737	-119,945	0,084	-0,010
-349,723	-200,000	-0,007	-0,139
-348,708	-60,246	0,202	0,061
-347,693	-96,789	0,056	-0,010
-346,679	800,000	0,032	0,083
-345,664	800,000	-0,038	-0,108
-344,650	-168,012	0,195	0,005
-343,635	-145,903	-0,150	0,009
-342,620	-28,212	-0,072	0,030
-341,606	-200,000	0,008	0,161
-340,591	354,535	0,060	0,085
-339,577	133,472	-0,154	-0,142
-338,562	58,054	-0,090	-0,063
-337,548	800,000	0,032	-0,063
-336,533	63,391	0,113	0,081
-335,518	-145,209	0,155	-0,010
-334,504	-11,098	0,046	-0,022
-333,489	-200,000	-0,014	0,241
-332,475	91,286	-0,098	-0,078
-331,460	-121,678	0,036	-0,004
-330,445	-200,000	-0,015	-0,075
-329,431	-200,000	0,005	-0,045
-328,416	-74,082	-0,049	-0,012
-327,402	567,645	-0,057	0,099
-326,387	-200,000	0,001	0,119
-325,372	-64,384	-0,130	-0,037
-324,358	37,242	0,103	-0,065
-323,343	65,991	-0,014	0,010
-322,329	-173,040	0,027	0,001
-321,314	-40,090	-0,107	-0,039
-320,299	110,588	0,141	0,121
-319,285	-14,115	0,057	0,026
-318,270	-3,302	-0,134	-0,066
-317,256	2,650	0,146	0,075
-316,241	-200,000	-0,021	-0,143
-315,226	486,318	-0,045	-0,073
-314,212	800,000	-0,039	0,113
-313,197	158,669	0,136	0,135
-312,183	-200,000	0,023	0,157
-311,168	375,893	-0,081	-0,118
-310,153	13,973	-0,177	-0,098
-309,139	-163,322	-0,113	0,004
-308,124	-200,000	0,000	-0,039
-307,110	800,000	0,026	0,061
-306,095	-48,242	0,187	0,064
-305,080	-82,329	0,063	0,014
-304,066	486,104	0,031	-0,050
-303,051	-61,121	-0,137	0,041
-302,037	-3,890	0,035	-0,017
-301,022	-73,800	0,047	0,012
-300,008	-200,000	0,011	-0,063
-298,993	-117,352	0,043	0,005
-297,978	9,906	-0,053	-0,029
-296,964	128,218	0,152	-0,138
-295,949	-200,000	0,013	-0,233
-294,935	123,664	0,027	-0,024
-293,920	75,444	-0,084	-0,063
-292,905	564,783	0,081	0,141
-291,891	-86,746	0,126	-0,027
-290,876	89,702	0,056	0,045
-289,862	800,000	-0,016	0,046
-288,847	82,716	-0,103	-0,079
-287,832	-167,033	0,139	-0,004
-286,818	800,000	-0,012	0,025
-285,803	-34,946	-0,013	0,005
-284,789	-56,665	0,037	-0,011
-283,774	-200,000	-0,002	-0,054
-282,759	-200,000	0,017	0,110
-281,745	522,005	-0,058	0,098
-280,730	372,808	-0,048	0,069
-279,716	-77,484	0,113	0,028
-278,701	179,937	0,007	0,007
-277,686	-32,840	0,035	0,014
-276,672	-99,489	0,042	0,007
-275,657	-47,136	-0,065	0,022
-274,643	-200,000	0,015	0,086
-273,628	-200,000	-0,013	-0,056
-272,613	-200,000	-0,013	-0,069
-271,599	-99,363	0,093	-0,016
-270,584	-200,000	-0,002	-0,118
-269,570	63,298	0,114	-0,081
-268,555	-21,592	0,071	0,031
-267,540	-55,583	-0,138	0,044
-266,526	544,938	-0,060	0,103
-265,511	800,000	0,053	0,145
-264,497	-61,587	0,129	0,038
-263,482	-36,886	-0,047	0,018
-262,467	588,432	-0,035	0,062
-261,453	800,000	-0,035	0,100
-260,438	176,338	0,029	-0,030
-259,424	650,585	0,037	0,068
-258,409	47,879	0,076	0,051
-257,395	-68,360	-0,285	0,078
-256,380	800,000	0,038	0,097
-255,365	-36,355	0,172	0,065
-254,351	-119,257	-0,089	0,011
-253,336	574,599	0,069	0,121
-252,322	-34,597	0,046	-0,018
-251,307	-200,000	0,060	0,270
-250,292	-200,000	0,002	0,040
-249,278	-165,503	-0,065	0,002
-248,263	117,388	0,074	0,065
-247,249	-70,022	0,075	-0,020
-246,234	16,972	-0,031	-0,017
-245,219	-97,267	-0,133	-0,024
-244,205	258,359	-0,089	0,110
-243,190	-51,313	-0,134	-0,044
-242,176	-200,000	-0,025	0,087
-241,161	85,665	0,024	0,019
-240,146	311,128	0,029	0,039
-239,132	-200,000	0,023	-0,266
-238,117	-200,000	-0,000	0,007
-237,103	-200,000	0,010	-0,107
-236,088	107,634	-0,059	-0,050
-235,073	41,253	0,089	-0,057
-234,059	93,507	0,034	0,027
-233,044	-56,538	0,052	0,016
-232,030	800,000	0,049	0,144
-231,015	-200,000	0,003	-0,123
-230,000	103,664	-0,075	-0,062
-228,986	-200,000	0,018	-0,126
-227,971	47,390	-0,034	0,023
-226,957	151,223	0,078	0,076
-225,942	38,330	0,098	0,062
-224,927	468,018	0,070	-0,112
-223,913	6,771	0,023	-0,012
-222,898	-169,895	-0,042	-0,001
-221,884	-131,982	0,046	0,004
-220,869	-200,000	0,017	-0,128
-219,855	542,452	-0,039	0,067
-218,840	-114,096	0,063	-0,009
-217,825	-120,063	-0,103	-0,012
-216,811	267,871	-0,053	0,066
-215,796	14,940	-0,151	-0,084
-214,782	-100,084	-0,058	0,010
-213,767	184,444	0,043	0,045
-212,752	355,645	0,061	0,087
-211,738	180,449	-0,078	0,081
-210,723	-52,623	-0,110	0,036
-209,709	800,000	0,063	0,128
-208,694	-200,000	-0,008	-0,040
-207,679	-200,000	0,004	-0,019
-206,665	800,000	-0,038	-0,104
-205,650	66,951	0,137	0,099
-204,636	84,844	0,080	0,062
-203,621	-125,922	0,088	0,009
-202,606	-4,290	-0,109	-0,054
-201,592	-200,000	0,006	0,028
-200,577	800,000	-0,025	-0,062
-199,563	-172,811	0,139	0,003
-198,548	154,033	0,100	-0,097
-197,533	4,352	0,134	-0,069
-196,519	317,368	0,018	0,024
-195,504	68,658	0,091	0,067
-194,490	-17,141	-0,112	-0,050
-193,475	-62,554	-0,006	0,002
-192,460	98,793	0,120	-0,098
-191,446	24,471	-0,026	0,015
-190,431	800,000	-0,042	0,105
-189,417	125,920	-0,018	0,016
-188,402	323,114	-0,114	-0,154
-187,387	-99,627	-0,079	-0,014
-186,373	10,530	0,114	0,061
-185,358	212,833	0,021	-0,023
-184,344	190,286	0,033	0,035
-183,329	419,409	-0,032	0,049
-182,315	800,000	-0,010	0,029
-181,300	667,066	-0,048	-0,088
-180,285	362,017	0,039	-0,055
-179,271	-56,198	-0,026	-0,008
-178,256	265,406	0,048	-0,059
-177,242	800,000	0,057	-0,169
-176,227	-54,033	0,157	-0,050
-175,212	-106,547	-0,096	-0,015
-174,198	-60,584	0,059	-0,018
-173,183	-200,000	0,019	0,137
-172,169	284,228	0,048	-0,061
-171,154	-122,425	-0,118	-0,013
-170,139	60,324	0,136	-0,095
-169,125	-200,000	0,005	-0,057
-168,110	-200,000	-0,009	0,137
-167,096	-200,000	-0,001	0,077
-166,081	-37,063	-0,021	0,008
-165,066	150,923	-0,043	0,041
-164,052	800,000	0,013	0,035
-163,037	-122,864	0,069	0,008
-162,023	4,829	0,108	0,056
-161,008	-200,000	0,043	0,151
-159,993	56,127	-0,016	-0,011
-158,979	180,280	0,021	0,022
-157,964	276,341	0,045	0,057
-156,950	-57,157	-0,117	-0,036
-155,935	-200,000	0,005	0,073
-154,920	-120,466	0,056	-0,007
-153,906	292,595	-0,120	0,156
-152,891	800,000	0,036	0,074
-151,877	347,663	0,050	0,069
-150,862	356,649	-0,065	-0,092
-149,847	800,000	0,002	-0,006
-148,833	-200,000	-0,001	0,018
-147,818	-180,157	0,190	-0,003
-146,804	-200,000	0,007	0,137
-145,789	-29,790	0,040	0,016
-144,775	800,000	-0,024	-0,075
-143,760	-68,796	0,171	-0,047
-142,745	-176,607	-0,178	-0,003
-141,731	51,556	0,118	0,079
-140,716	350,535	-0,033	-0,047
-139,702	75,718	0,026	-0,020
-138,687	387,249	-0,021	-0,031
-137,672	558,895	-0,029	0,050
-136,658	-89,365	-0,111	0,023
-135,643	800,000	-0,086	-0,193
-134,629	21,905	-0,108	-0,062
-133,614	338,421	-0,045	0,062
-132,599	144,835	-0,067	0,063
-131,585	-80,875	0,140	0,033
-130,570	79,828	0,070	-0,053
-129,556	-20,356	-0,073	0,031
-128,541	228,995	-0,071	-0,082
-127,526	800,000	-0,097	-0,232
-126,512	201,291	0,094	0,102
-125,497	393,873	0,084	0,124
-124,483	-200,000	-0,018	0,077
-123,468	-200,000	0,016	-0,051
-122,453	150,863	-0,061	0,058
-121,439	800,000	0,033	0,082
-120,424	-16,081	0,113	-0,050
-119,410	-9,442	-0,035	0,016
-118,395	795,640	0,022	-0,044
-117,380	-102,589	0,082	-0,014
-116,366	-200,000	0,009	0,062
-115,351	87,560	0,038	0,029
-114,337	243,235	-0,040	-0,047
-113,322	23,496	-0,012	0,007
-112,307	66,673	-0,052	-0,037
-111,293	190,162	-0,111	-0,118
-110,278	53,979	0,104	-0,070
-109,264	-26,431	-0,078	0,032
-108,249	83,457	-0,111	-0,086
-107,234	800,000	0,035	-0,075
-106,220	-124,574	-0,136	-0,015
-105,205	64,528	-0,030	-0,021
-104,191	-166,504	0,176	-0,005
-103,176	-83,425	0,052	-0,012
-102,162	-200,000	-0,007	-0,055
-101,147	-118,851	-0,121	-0,015
-100,132	521,889	0,010	-0,017
-99,118	-200,000	0,012	-0,056
-98,103	800,000	-0,037	0,082
-97,089	-68,234	0,227	0,062
-96,074	70,603	0,013	0,010
-95,059	800,000	0,033	-0,088
-94,045	403,572	0,042	0,063
-93,030	-123,119	-0,131	0,015
-92,016	28,906	0,164	-0,098
-91,001	248,000	0,068	0,082
-89,986	290,283	-0,112	0,144
-88,972	121,040	0,093	0,081
-87,957	-200,000	-0,003	0,076
-86,943	-124,555	0,116	-0,013
-85,928	59,881	0,067	-0,047
-84,913	-126,590	-0,089	-0,009
-83,899	-139,958	0,122	-0,009
-82,884	-200,000	-0,005	-0,073
-81,870	-21,303	0,144	0,062
-80,855	-151,046	0,104	0,005
-79,840	-200,000	0,041	0,178
-78,826	800,000	0,027	0,061
-77,811	-200,000	-0,015	-0,079
-76,797	267,709	0,050	-0,062
-75,782	-12,760	0,101	-0,046
-74,767	-200,000	0,000	0,133
-73,753	-79,367	0,156	-0,037
-72,738	-37,223	0,050	0,019
-71,724	62,286	0,012	0,009
-70,709	526,931	-0,047	0,079
-69,694	-200,000	0,025	-0,094
-68,680	177,444	-0,109	0,112
-67,665	43,854	0,149	0,096
-66,651	-16,758	0,083	0,037
-65,636	-200,000	-0,002	0,048
-64,622	50,609	-0,074	0,049
-63,607	-200,000	-0,032	-0,166
-62,592	180,305	-0,052	0,054
-61,578	-200,000	-0,124	-0,000
-60,563	-200,000	0,012	0,115
-59,549	111,470	-0,075	0,064
-58,534	16,505	-2,042	-1,135
-57,519	440,808	-1,331	-2,060
-56,505	-200,000	-0,278	-4,324
-55,490	800,000	0,755	1,511
-54,476	800,000	5,160	11,414
-53,461	-200,000	21,303	339,521
-52,446	800,000	759,077	2355,078
-51,432	558,449	1661,919	2839,847
-50,417	73,476	1660,984	1225,422
-49,403	18,004	1534,600	860,468
-48,388	11,980	1457,895	788,347
-47,373	19,388	1449,040	819,043
-46,359	15,452	1438,325	794,255
-45,344	10,264	1434,068	767,192
-44,330	10,153	1432,613	765,854
-43,315	10,157	1430,416	764,670
-42,300	10,160	1428,680	763,726
-41,286	10,165	1427,421	763,045
-40,271	10,168	1426,135	762,343
-39,257	10,172	1425,084	761,771
-38,242	10,148	1424,009	761,053
-37,227	10,233	1422,681	760,713
-36,213	10,169	1421,405	759,698
-35,198	10,195	1420,383	759,245
-34,184	10,242	1419,588	759,013
-33,169	10,186	1418,118	757,931
-32,154	10,255	1417,136	757,701
-31,140	10,258	1415,758	756,949
-30,125	10,249	1414,744	756,334
-29,111	10,261	1413,479	755,683
-28,096	10,218	1412,600	754,980
-27,082	10,135	1411,394	753,918
-26,067	10,169	1410,221	753,423
-25,052	10,200	1409,093	752,933
-24,038	10,188	1408,184	752,362
-23,023	10,139	1407,248	751,602
-22,009	10,143	1406,262	751,064
-20,994	10,164	1405,289	750,615
-19,979	10,129	1404,312	749,898
-18,965	10,074	1403,643	749,256
-17,950	10,109	1402,379	748,713
-16,936	10,078	1401,622	748,137
-15,921	10,054	1400,707	747,508
-14,906	10,065	1399,830	747,061
-13,892	10,095	1398,637	746,534
-12,877	10,049	1398,094	745,998
-11,863	10,088	1397,076	745,605
-10,848	10,028	1396,421	744,951
-9,833	9,990	1395,478	744,240
-8,819	9,989	1394,571	743,722
-7,804	9,981	1393,563	743,120
-6,790	9,972	1392,513	742,488
-5,775	9,973	1391,606	741,980
-4,760	9,991	1390,443	741,412
-3,746	9,959	1389,637	740,807
-2,731	9,940	1388,662	740,169
-1,717	9,951	1388,058	739,868
-0,702	9,954	1386,109	738,816
0,313	14,081	1299,139	711,302
1,327	30,567	689,885	415,055
2,342	46,863	119,461	78,138
3,356	-0,312	16,579	8,280
4,371	15,488	3,546	1,957
5,386	-11,647	0,923	0,426
6,400	372,753	0,346	0,497
7,415	247,712	-0,149	-0,178
8,429	-74,971	-0,298	-0,075
9,444	-42,879	-0,254	-0,090
10,459	-36,379	-0,324	-0,122
11,473	-67,703	-0,206	-0,056
12,488	237,527	-0,175	-0,205
13,502	-126,682	-0,382	0,039
14,517	39,524	-0,359	-0,226
15,531	25,743	-0,526	-0,308
16,546	103,469	-0,266	-0,219
17,561	28,077	-0,397	-0,235
18,575	-17,670	-0,134	-0,059
19,590	1,263	-0,316	-0,159
20,604	60,696	-0,257	-0,179
21,619	290,656	-0,315	-0,404
22,634	29,651	-0,617	-0,369
23,648	113,208	-0,444	-0,379
24,663	97,110	-0,291	-0,235
25,677	132,898	-0,333	-0,302
26,692	-99,328	-0,305	-0,054
27,707	18,134	-0,386	-0,216
28,721	-0,404	-0,294	-0,146
29,736	243,014	-0,338	-0,399
30,750	44,261	-0,440	-0,283
31,765	53,083	-0,373	-0,251
32,780	121,204	-0,403	-0,352
33,794	17,255	-0,314	-0,175
34,809	160,997	-0,253	-0,249
35,823	-18,531	-0,447	-0,195
36,838	214,449	-0,351	-0,392
37,853	207,739	-0,379	-0,417
38,867	40,191	-0,336	-0,212
39,882	14,414	-0,448	-0,245
40,896	-10,821	-0,396	-0,183
41,911	-161,005	-0,358	0,013
42,926	434,821	-0,173	-0,265
43,940	150,607	-0,341	-0,325
44,955	132,792	-0,359	-0,326
45,969	162,054	-0,293	-0,288
46,984	301,573	-0,177	-0,230
47,999	5,050	-0,384	-0,198
49,013	39,371	-0,296	-0,185
50,028	-64,102	-0,282	-0,080
51,042	159,237	-0,300	-0,293
52,057	36,421	-0,339	-0,210
53,071	133,762	-0,370	-0,336
54,086	0,685	-0,456	-0,228
55,101	-48,998	-0,399	-0,133
56,115	226,627	-0,256	-0,292
57,130	79,067	-0,439	-0,329
58,144	111,019	-0,286	-0,242
59,159	27,762	-0,536	-0,316
60,174	139,501	-0,385	-0,356
61,188	180,682	-0,280	-0,289
62,203	69,241	-0,318	-0,229
63,217	63,354	-0,482	-0,339
64,232	-13,139	-0,376	-0,171
65,247	73,987	-0,255	-0,187
66,261	-49,704	-0,407	-0,135
67,276	188,218	-0,271	-0,284
68,290	67,849	-0,354	-0,253
69,305	-18,345	-0,362	-0,158
70,320	-87,166	-0,299	-0,063
71,334	35,825	-0,244	-0,150
72,349	13,459	-0,401	-0,217
73,363	-107,617	-0,383	-0,058
74,378	46,240	-0,353	-0,229
75,393	110,362	-0,385	-0,324
76,407	190,617	-0,205	-0,217
77,422	5,748	-0,353	-0,182
78,436	98,914	-0,206	-0,166
79,451	197,517	-0,185	-0,198
80,466	-14,590	-0,425	-0,191
81,480	77,530	-0,256	-0,190
82,495	-39,551	-0,356	-0,130
83,509	113,408	-0,280	-0,238
84,524	8,345	-0,300	-0,157
85,539	25,184	-0,255	-0,148
86,553	-60,654	-0,346	-0,102
87,568	221,491	-0,214	-0,241
88,582	373,448	-0,276	-0,394
89,597	86,119	-0,329	-0,253
90,611	-75,877	-0,293	-0,072
91,626	56,659	-0,256	-0,174
92,641	-62,394	-0,262	-0,076
93,655	-73,357	-0,302	-0,077
94,670	-73,105	-0,307	-0,078
95,684	182,041	-0,290	-0,299
96,699	14,919	-0,298	-0,163
97,714	207,384	-0,202	-0,221
98,728	-25,411	-0,259	-0,107
99,743	3,167	-0,293	-0,148
100,757	12,280	-0,381	-0,205
101,772	-25,289	-0,306	-0,126
102,787	-88,307	-0,407	-0,084
103,801	-22,796	-0,254	-0,107
104,816	-44,454	-0,267	-0,093
105,830	-59,529	-0,244	-0,073
106,845	-63,842	-0,336	-0,095
107,860	800,000	-0,099	-0,223
108,874	249,174	-0,227	-0,270
109,889	49,738	-0,364	-0,239
110,903	229,123	-0,218	-0,249
111,918	-55,134	-0,349	-0,109
112,933	77,148	-0,177	-0,131
113,947	119,161	-0,185	-0,160
114,962	124,774	-0,209	-0,183
115,976	64,890	-0,241	-0,169
116,991	130,630	-0,247	-0,221
118,006	-11,977	-0,280	-0,128
119,020	19,195	-0,363	-0,203
120,035	-6,832	-0,297	-0,141
121,049	79,354	-0,203	-0,151
122,064	175,098	-0,172	-0,174
123,079	261,471	-0,218	-0,264
124,093	108,557	-0,251	-0,209
125,108	95,511	-0,276	-0,219
126,122	377,176	-0,194	-0,277
127,137	-48,487	-0,316	-0,105
128,151	-16,272	-0,255	-0,112
129,166	129,597	-0,163	-0,145
130,181	98,012	-0,311	-0,249
131,195	47,070	-0,291	-0,189
132,210	486,754	-0,166	-0,265
133,224	268,061	-0,182	-0,222
134,239	226,197	-0,211	-0,239
135,254	-27,214	-0,199	-0,081
136,268	-57,143	-0,332	-0,101
137,283	-27,737	-0,343	-0,138
138,297	408,980	-0,178	-0,263
139,312	2,703	-0,218	-0,110
140,327	138,876	-0,213	-0,195
141,341	64,425	-0,204	-0,143
142,356	226,527	-0,131	-0,148
143,370	70,788	-0,238	-0,171
144,385	175,296	-0,332	-0,336
145,400	133,021	-0,210	-0,189
146,414	216,677	-0,245	-0,272
147,429	-41,037	-0,247	-0,088
148,443	241,107	-0,176	-0,205
149,458	57,532	-0,272	-0,184
150,473	54,449	-0,185	-0,124
151,487	-102,186	-0,258	-0,043
152,502	94,889	-0,356	-0,282
153,516	50,413	-0,281	-0,184
154,531	28,502	-0,201	-0,118
155,546	391,317	-0,195	-0,283
156,560	621,703	-0,115	-0,201
157,575	55,756	-0,206	-0,139
158,589	171,572	-0,245	-0,245
159,604	-141,503	-0,167	-0,012
160,619	548,090	-0,149	-0,249
161,633	412,098	-0,231	-0,343
162,648	0,217	-0,252	-0,124
163,662	26,123	-0,215	-0,125
164,677	13,150	-0,267	-0,143
165,692	-18,071	-0,134	-0,058
166,706	800,000	-0,118	-0,238
167,721	-76,438	-0,308	-0,075
168,735	28,820	-0,240	-0,141
169,750	265,410	-0,151	-0,183
170,764	-200,000	-0,014	-0,190
171,779	66,804	-0,253	-0,179
172,794	-63,240	-0,254	-0,072
173,808	-200,000	-0,035	-0,212
174,823	159,601	-0,166	-0,161
175,837	10,802	-0,258	-0,136
176,852	245,069	-0,176	-0,205
177,867	171,977	-0,196	-0,196
178,881	-90,175	-0,216	-0,043
179,896	-97,744	-0,197	-0,035
180,910	-33,460	-0,203	-0,078
181,925	212,683	-0,143	-0,156
182,940	253,186	-0,264	-0,313
183,954	-4,900	-0,298	-0,142
184,969	-94,204	-0,218	-0,041
185,983	121,053	-0,182	-0,157
186,998	128,947	-0,142	-0,126
188,013	-8,452	-0,304	-0,141
189,027	-15,858	-0,309	-0,136
190,042	252,402	-0,132	-0,156
191,056	46,679	-0,313	-0,201
192,071	51,859	-0,226	-0,149
193,086	222,324	-0,138	-0,154
194,100	88,083	-0,234	-0,180
195,115	627,806	-0,064	-0,113
196,129	4,479	-0,283	-0,144
197,144	298,212	-0,218	-0,279
198,159	-78,754	-0,202	-0,047
199,173	52,989	-0,156	-0,103
200,188	-23,486	-0,235	-0,098
201,202	800,000	-0,110	-0,254
202,217	28,894	-0,266	-0,156
203,232	-60,643	-0,292	-0,085
204,246	24,696	-0,319	-0,183
205,261	-12,816	-0,337	-0,152
206,275	-45,695	-0,144	-0,049
207,290	28,968	-0,114	-0,067
208,304	126,924	-0,139	-0,122
209,319	569,150	-0,110	-0,186
210,334	135,014	-0,219	-0,197
211,348	216,504	-0,190	-0,209
212,363	-1,923	-0,240	-0,116
213,377	-86,114	-0,144	-0,030
214,392	17,546	-0,131	-0,072
215,407	-41,453	-0,214	-0,076
216,421	-40,306	-0,290	-0,104
217,436	304,240	-0,158	-0,204
218,450	137,341	-0,228	-0,206
219,465	-99,815	-0,256	-0,044
220,480	185,026	-0,159	-0,164
221,494	366,031	-0,113	-0,158
222,509	5,800	-0,151	-0,077
223,523	-105,866	-0,156	0,024
224,538	-39,192	-0,274	-0,099
225,553	169,816	-0,224	-0,222
226,567	455,720	-0,143	-0,219
227,582	275,301	-0,210	-0,257
228,596	234,264	-0,231	-0,263
229,611	-54,789	-0,160	0,050
230,626	800,000	-0,080	-0,158
231,640	-95,071	-0,208	-0,039
232,655	165,311	-0,165	-0,161
233,669	0,209	-0,123	-0,060
234,684	177,185	-0,177	-0,178
235,699	390,830	-0,107	-0,153
236,713	161,379	-0,156	-0,151
237,728	6,128	-0,084	0,043
238,742	476,260	-0,070	-0,109
239,757	-48,143	-0,236	-0,078
240,772	7,924	-0,208	-0,107
241,786	158,145	-0,110	-0,105
242,801	416,212	-0,199	-0,294
243,815	-200,000	-0,066	-0,257
244,830	243,713	-0,135	-0,157
245,844	800,000	-0,068	-0,131
246,859	67,453	-0,070	-0,049
247,874	80,864	-0,135	-0,100
248,888	129,354	-0,274	-0,242
249,903	-39,191	-0,220	-0,079
250,917	47,441	-0,145	-0,093
251,932	800,000	-0,054	-0,134
252,947	285,735	-0,149	-0,186
253,961	245,742	-0,112	-0,130
254,976	226,701	-0,196	-0,220
255,990	-117,066	-0,235	0,029
257,005	-41,393	-0,189	0,067
258,020	-30,168	-0,224	-0,087
259,034	-132,851	-0,179	0,016
260,049	229,900	-0,113	-0,127
261,063	300,328	-0,115	-0,146
262,078	118,313	-0,085	-0,073
263,093	-1,678	-0,195	-0,094
264,107	-88,616	-0,205	-0,042
265,122	228,902	-0,097	0,109
266,136	4,154	-0,234	-0,118
267,151	9,020	-0,218	-0,113
268,166	186,258	-0,150	-0,154
269,180	365,617	-0,128	-0,179
270,195	-36,371	-0,221	-0,082
271,209	800,000	-0,083	-0,248
272,224	-48,688	-0,149	-0,049
273,239	-53,827	-0,106	-0,033
274,253	9,145	-0,233	-0,121
275,268	137,888	-0,085	-0,076
276,282	98,577	-0,051	-0,040
277,297	163,609	-0,176	-0,171
278,312	-99,298	-0,123	-0,021
279,326	-163,668	-0,179	0,006
280,341	-156,837	-0,129	-0,005
281,355	172,457	-0,131	-0,130
282,370	800,000	-0,103	-0,223
283,384	-13,723	-0,181	-0,080
284,399	800,000	-0,092	-0,260
285,414	-122,337	-0,192	-0,021
286,428	197,344	-0,202	-0,212
287,443	-31,545	-0,153	-0,059
288,457	307,142	-0,050	-0,064
289,472	-118,023	-0,213	-0,026
290,487	800,000	-0,115	-0,220
291,501	-100,441	-0,191	0,032
292,516	-40,093	-0,163	-0,058
293,530	84,661	-0,099	-0,074
294,545	800,000	-0,121	-0,244
295,560	126,667	-0,189	-0,164
296,574	145,532	-0,114	-0,105
297,589	-200,000	-0,054	-0,171
298,603	124,236	-0,115	-0,099
299,618	-66,636	-0,180	-0,049
300,633	469,932	-0,106	-0,164
301,647	800,000	-0,041	-0,089
302,662	-71,434	-0,232	-0,059
303,676	-133,787	-0,134	0,011
304,691	375,190	-0,117	-0,164
305,706	6,989	-0,191	-0,098
306,720	162,153	-0,146	-0,141
307,735	-95,892	-0,210	-0,038
308,749	-200,000	0,002	-0,014
309,764	56,181	-0,111	-0,074
310,779	591,593	-0,071	-0,121
311,793	142,924	-0,132	-0,121
312,808	564,328	-0,158	-0,264
313,822	-136,245	-0,223	0,018
314,837	54,889	-0,119	-0,079
315,852	30,982	-0,168	0,098
316,866	-41,990	0,104	-0,036
317,881	414,284	-0,088	-0,129
318,895	800,000	-0,067	-0,151
319,910	174,787	-0,176	-0,174
320,925	-3,535	-0,211	-0,100
321,939	199,250	-0,070	-0,074
322,954	-40,847	-0,126	0,045
323,968	-4,673	-0,196	-0,093
324,983	9,032	-0,026	0,013
325,997	800,000	-0,074	-0,189
327,012	-32,527	-0,170	-0,065
328,027	47,899	-0,086	-0,055
329,041	294,466	-0,114	-0,143
330,056	800,000	-0,022	-0,057
331,070	196,896	-0,100	-0,105
332,085	461,473	-0,085	-0,130
333,100	153,154	-0,158	-0,148
334,114	116,929	-0,164	-0,137
335,129	-198,039	-0,045	-0,000
336,143	-200,000	0,015	0,065
337,158	-119,302	-0,049	-0,006
338,173	-53,812	-0,143	0,044
339,187	-200,000	-0,013	0,101
340,202	-200,000	0,009	-0,091
341,216	-41,064	-0,106	-0,037
342,231	50,986	-0,044	-0,028
343,246	469,825	-0,081	-0,125
344,260	-15,925	-0,138	-0,060
345,275	15,136	-0,122	0,065
346,289	800,000	-0,067	-0,191
347,304	800,000	-0,097	-0,198
348,319	800,000	-0,077	-0,213
349,333	-200,000	0,013	-0,123
350,348	800,000	-0,066	-0,146
351,362	157,604	-0,055	-0,052
352,377	308,214	-0,118	-0,152
353,392	134,332	-0,065	-0,058
354,406	215,729	-0,028	0,031
355,421	207,382	1306,696	1395,174
356,435	159,538	1466,395	1395,658
