DTS Sentinel unit serial number:	SN410029Multiplexer serial number:	ORYXHardware model number:	OX2-SRSoftware version number:	ORYX F/W v4,00 Oryx Data Collector v3.7.2.0data status	okinstallation	B3 Nyhavnadifferential loss correction	single-endedforward channel	channel 1reverse channel	N/Adate	2023/12/02time	01:07:30forward acquisition time	300,00reverse acquisition time	0,00gamma	499,1914k internal	0,3195k external	0,3195temperature offset calibration	1,0000default loss term (dB/km)	0,3820temperature slope calibration	1,0000multiplexer offset coefficient	1,0000multiplexer slope coefficient	1,0000fibre end	0,00T internal ref (°C)	16,40T ext. ref 1 (°C)	1,94T ext. ref 2 (°C)	1,94length (m)	temperature (°C)	Stokes	anti-Stokes-744,400	116,285	-0,309	-0,276
-743,385	308,696	0,239	0,326
-742,371	-44,536	-0,158	-0,057
-741,356	-200,000	0,035	0,326
-740,342	21,366	-0,315	-0,186
-739,327	-200,000	0,082	0,270
-738,312	464,209	-0,132	-0,215
-737,298	-200,000	0,089	0,337
-736,283	226,041	-0,273	-0,322
-735,269	800,000	0,054	0,142
-734,254	-58,785	-0,204	-0,064
-733,239	-200,000	-0,026	0,107
-732,225	499,702	0,053	-0,089
-731,210	800,000	0,070	0,153
-730,196	489,951	0,064	-0,106
-729,181	-70,825	-0,057	-0,016
-728,167	131,689	-0,024	-0,022
-727,152	-200,000	-0,132	0,000
-726,137	-200,000	0,017	-0,201
-725,123	-200,000	-0,053	-0,175
-724,108	-200,000	-0,006	0,062
-723,094	-50,816	-0,082	-0,028
-722,079	125,273	-0,086	0,079
-721,064	-157,253	0,025	0,001
-720,050	491,949	0,023	-0,039
-719,035	-200,000	-0,016	0,073
-718,021	-59,464	-0,044	-0,014
-717,006	-67,846	-0,078	0,022
-715,991	44,267	-0,041	-0,027
-714,977	409,529	-0,146	-0,225
-713,962	179,741	-0,059	-0,063
-712,948	-118,594	-0,032	-0,004
-711,933	800,000	0,060	-0,156
-710,918	3,767	-0,070	-0,037
-709,904	800,000	-0,040	-0,084
-708,889	800,000	-0,054	-0,150
-707,875	-200,000	0,035	-0,154
-706,860	-200,000	-0,006	0,037
-705,845	-75,635	0,074	-0,019
-704,831	-200,000	-0,011	0,110
-703,816	-31,180	0,148	0,060
-702,802	197,453	-0,024	0,027
-701,787	102,837	-0,118	-0,100
-700,772	276,929	0,047	0,061
-699,758	-200,000	-0,014	-0,047
-698,743	54,584	0,029	0,021
-697,729	-16,632	0,097	-0,045
-696,714	-200,000	-0,084	0,000
-695,699	-200,000	-0,029	0,113
-694,685	-174,565	-0,193	0,004
-693,670	-11,939	-0,172	-0,082
-692,656	-134,364	0,162	-0,014
-691,641	800,000	0,016	-0,037
-690,627	143,207	0,111	-0,107
-689,612	-60,053	0,119	0,037
-688,597	509,170	-0,053	0,090
-687,583	157,581	-0,073	-0,074
-686,568	129,612	0,061	-0,057
-685,554	-200,000	0,007	-0,031
-684,539	422,176	0,127	0,198
-683,524	-37,922	-0,030	-0,011
-682,510	-84,275	-0,097	0,022
-681,495	235,004	-0,068	0,082
-680,481	304,374	-0,060	-0,081
-679,466	2,383	-0,163	-0,085
-678,451	800,000	-0,007	-0,021
-677,437	800,000	0,010	0,020
-676,422	-200,000	-0,017	0,060
-675,408	174,765	-0,085	0,090
-674,393	-200,000	0,012	0,066
-673,378	-141,396	-0,131	0,009
-672,364	800,000	0,010	-0,032
-671,349	88,164	-0,050	0,040
-670,335	568,955	-0,044	-0,078
-669,320	-200,000	0,001	0,032
-668,305	-200,000	-0,005	-0,016
-667,291	-66,618	0,028	-0,008
-666,276	145,596	-0,043	-0,042
-665,262	-200,000	-0,005	-0,024
-664,247	800,000	0,023	-0,062
-663,232	61,083	0,144	0,104
-662,218	321,777	-0,039	0,055
-661,203	-159,641	-0,110	-0,004
-660,189	-92,513	-0,046	0,009
-659,174	322,994	0,022	0,031
-658,159	-200,000	-0,015	-0,094
-657,145	58,542	-0,105	-0,074
-656,130	27,426	-0,081	-0,049
-655,116	-23,690	-0,185	-0,080
-654,101	-40,195	0,120	0,045
-653,086	15,112	-0,075	0,043
-652,072	-70,649	-0,043	-0,012
-651,057	800,000	-0,041	-0,102
-650,043	-200,000	-0,008	-0,113
-649,028	410,102	0,066	-0,101
-648,014	-200,000	-0,009	-0,072
-646,999	166,470	-0,108	0,111
-645,984	160,171	-0,025	0,025
-644,970	174,712	-0,072	-0,075
-643,955	-200,000	-0,003	-0,056
-642,941	64,612	-0,073	-0,054
-641,926	34,218	-0,081	0,051
-640,911	800,000	0,024	0,071
-639,897	70,122	0,063	-0,047
-638,882	-112,765	-0,049	-0,007
-637,868	237,425	-0,047	-0,056
-636,853	726,485	0,071	-0,137
-635,838	-200,000	-0,007	-0,064
-634,824	-73,210	-0,011	-0,003
-633,809	-42,206	-0,080	-0,030
-632,795	615,269	-0,038	-0,069
-631,780	75,585	0,027	-0,020
-630,765	93,254	-0,069	-0,057
-629,751	-145,125	-0,178	0,012
-628,736	800,000	0,003	-0,008
-627,722	-200,000	0,027	-0,153
-626,707	-9,435	0,074	0,036
-625,692	-200,000	-0,014	0,142
-624,678	95,657	0,017	-0,014
-623,663	113,363	0,015	-0,013
-622,649	-144,815	-0,095	0,006
-621,634	-200,000	-0,023	0,122
-620,619	800,000	0,026	-0,068
-619,605	-57,534	0,134	0,042
-618,590	-200,000	-0,001	0,051
-617,576	-7,145	0,071	-0,035
-616,561	-200,000	-0,003	-0,044
-615,546	-35,589	-0,080	-0,031
-614,532	-200,000	-0,009	-0,216
-613,517	678,948	0,052	-0,098
-612,503	599,913	-0,027	0,048
-611,488	-113,634	0,141	0,020
-610,474	800,000	-0,056	-0,148
-609,459	-200,000	0,024	0,098
-608,444	-0,204	-0,117	-0,060
-607,430	-200,000	-0,007	-0,030
-606,415	577,790	0,018	0,032
-605,401	86,183	-0,056	-0,044
-604,386	593,870	0,068	-0,122
-603,371	800,000	-0,053	0,126
-602,357	1,877	0,087	0,046
-601,342	366,518	0,034	0,050
-600,328	-53,375	0,068	-0,023
-599,313	66,901	-0,015	0,011
-598,298	-200,000	-0,001	0,049
-597,284	-130,487	0,116	-0,011
-596,269	202,582	0,072	-0,081
-595,255	800,000	0,028	0,078
-594,240	-200,000	-0,045	-0,145
-593,225	10,133	0,116	0,064
-592,211	-29,355	-0,171	-0,071
-591,196	104,555	0,045	0,038
-590,182	311,510	0,078	-0,107
-589,167	-200,000	0,009	0,071
-588,152	800,000	-0,009	-0,022
-587,138	186,735	-0,082	-0,088
-586,123	88,496	0,074	0,060
-585,109	800,000	-0,037	0,079
-584,094	130,310	-0,094	-0,087
-583,079	74,060	0,069	-0,052
-582,065	170,830	-0,047	0,048
-581,050	-19,926	-0,130	-0,058
-580,036	638,699	-0,024	0,044
-579,021	-86,328	-0,113	-0,025
-578,006	-12,981	-0,115	-0,054
-576,992	-200,000	0,012	0,062
-575,977	392,408	0,058	0,088
-574,963	10,817	-0,059	-0,032
-573,948	131,433	-0,044	-0,041
-572,934	743,427	0,094	-0,183
-571,919	127,762	0,067	-0,062
-570,904	-200,000	-0,023	-0,121
-569,890	-200,000	0,014	-0,100
-568,875	7,043	0,079	0,043
-567,861	41,806	-0,070	0,046
-566,846	-69,164	-0,065	-0,018
-565,831	62,483	0,061	-0,044
-564,817	-200,000	0,014	-0,068
-563,802	92,736	-0,098	0,080
-562,788	800,000	-0,060	-0,147
-561,773	27,706	-0,040	0,024
-560,758	800,000	-0,034	0,100
-559,744	130,477	0,044	0,041
-558,729	431,044	-0,027	0,042
-557,715	-153,762	-0,102	-0,005
-556,700	-145,205	-0,167	-0,011
-555,685	800,000	-0,022	-0,047
-554,671	44,985	0,036	0,024
-553,656	-200,000	-0,011	0,103
-552,642	445,785	0,136	0,217
-551,627	-173,545	-0,212	0,005
-550,612	745,780	0,053	-0,104
-549,598	434,441	0,018	0,028
-548,583	423,368	-0,035	0,055
-547,569	357,132	-0,098	-0,142
-546,554	215,830	0,049	0,057
-545,539	-111,760	0,143	0,021
-544,525	-117,534	-0,113	0,015
-543,510	-32,342	-0,066	0,026
-542,496	-16,368	-0,161	-0,074
-541,481	-8,407	-0,110	-0,053
-540,466	-200,000	0,002	-0,078
-539,452	145,344	0,112	0,108
-538,437	-11,694	0,064	-0,030
-537,423	205,476	-0,044	-0,050
-536,408	-153,360	0,083	0,004
-535,393	212,949	-0,031	-0,035
-534,379	-200,000	-0,016	-0,093
-533,364	-16,817	0,159	-0,072
-532,350	116,576	0,111	-0,098
-531,335	-43,163	-0,052	0,019
-530,321	104,395	0,008	-0,007
-529,306	-200,000	0,006	0,029
-528,291	210,742	-0,019	0,021
-527,277	800,000	-0,025	0,065
-526,262	-9,473	0,063	-0,030
-525,248	99,116	0,035	0,029
-524,233	152,338	0,077	0,076
-523,218	-63,901	-0,158	-0,046
-522,204	-200,000	0,016	0,092
-521,189	362,818	0,037	0,053
-520,175	78,163	0,048	0,037
-519,160	174,661	-0,037	0,038
-518,145	428,930	0,017	-0,026
-517,131	172,987	0,109	0,114
-516,116	119,691	0,187	0,168
-515,102	50,821	0,046	0,032
-514,087	-51,207	0,021	-0,007
-513,072	-142,940	-0,108	0,007
-512,058	59,650	-0,064	0,045
-511,043	-102,374	-0,026	0,004
-510,029	-200,000	0,012	0,053
-509,014	-7,968	-0,068	0,033
-507,999	267,986	-0,034	0,042
-506,985	264,578	0,008	-0,010
-505,970	787,022	0,057	0,113
-504,956	30,853	-0,137	-0,084
-503,941	56,925	-0,017	-0,012
-502,926	138,716	-0,041	0,038
-501,912	800,000	-0,092	0,193
-500,897	7,740	-0,066	0,036
-499,883	10,004	0,103	-0,056
-498,868	-46,602	-0,104	-0,037
-497,853	185,314	0,082	-0,088
-496,839	-200,000	0,039	0,144
-495,824	-200,000	-0,005	0,074
-494,810	-200,000	0,004	0,039
-493,795	-81,817	-0,225	-0,053
-492,781	-200,000	0,012	0,131
-491,766	-58,323	0,055	0,017
-490,751	67,263	-0,115	-0,084
-489,737	459,807	0,039	0,063
-488,722	-45,915	0,095	0,034
-487,708	550,338	0,093	-0,162
-486,693	-200,000	-0,019	0,079
-485,678	-200,000	-0,008	0,090
-484,664	33,857	-0,053	0,033
-483,649	243,532	0,026	-0,031
-482,635	-200,000	-0,008	-0,113
-481,620	-200,000	-0,003	-0,026
-480,605	-91,197	0,148	0,030
-479,591	-200,000	-0,006	0,067
-478,576	-200,000	-0,025	0,126
-477,562	-200,000	-0,004	0,020
-476,547	800,000	-0,039	-0,089
-475,532	-182,545	0,069	0,001
-474,518	100,097	-0,132	-0,110
-473,503	192,220	-0,067	0,073
-472,489	-31,341	0,064	0,026
-471,474	724,064	0,030	-0,058
-470,459	112,800	-0,058	-0,051
-469,445	-200,000	0,018	-0,076
-468,430	800,000	0,024	-0,060
-467,416	-142,505	-0,082	-0,006
-466,401	800,000	0,032	0,100
-465,386	78,157	-0,047	0,036
-464,372	228,719	0,095	0,111
-463,357	165,442	-0,108	-0,110
-462,343	-200,000	0,006	-0,104
-461,328	157,648	-0,041	-0,041
-460,313	-200,000	0,026	0,144
-459,299	800,000	0,085	0,209
-458,284	-95,384	0,052	0,010
-457,270	130,157	0,080	0,074
-456,255	-200,000	-0,011	-0,047
-455,241	-200,000	-0,018	-0,144
-454,226	-200,000	0,029	0,213
-453,211	-143,483	0,066	0,004
-452,197	85,700	-0,035	-0,027
-451,182	-200,000	0,030	0,149
-450,168	800,000	-0,073	0,214
-449,153	-200,000	-0,007	0,068
-448,138	800,000	0,018	0,051
-447,124	587,701	-0,030	-0,053
-446,109	-130,511	-0,057	0,005
-445,095	-48,660	0,231	0,080
-444,080	-92,298	0,038	-0,008
-443,065	-200,000	-0,019	-0,090
-442,051	-148,453	-0,098	0,006
-441,036	-3,584	-0,089	-0,044
-440,022	403,261	0,069	0,105
-439,007	-130,900	-0,131	0,012
-437,992	-200,000	-0,003	-0,051
-436,978	800,000	0,047	0,095
-435,963	352,844	0,062	0,088
-434,949	-68,854	0,048	0,013
-433,934	-50,613	-0,113	-0,038
-432,919	-200,000	0,024	0,109
-431,905	40,165	0,096	-0,062
-430,890	-78,308	0,042	-0,010
-429,876	270,972	0,038	0,048
-428,861	53,357	-0,210	0,144
-427,846	800,000	0,071	0,163
-426,832	168,775	-0,107	-0,110
-425,817	-113,215	0,051	0,007
-424,803	-200,000	0,033	-0,173
-423,788	-89,920	0,220	-0,046
-422,773	217,275	0,049	-0,056
-421,759	-200,000	-0,016	0,087
-420,744	800,000	0,028	-0,069
-419,730	264,232	0,040	-0,050
-418,715	-200,000	0,012	0,122
-417,701	-33,209	-0,080	-0,032
-416,686	77,862	-0,021	-0,016
-415,671	260,904	-0,022	-0,028
-414,657	58,452	0,062	0,043
-413,642	249,138	-0,018	-0,022
-412,628	800,000	-0,016	-0,041
-411,613	-40,598	0,090	0,033
-410,598	-200,000	-0,024	-0,081
-409,584	-200,000	0,008	-0,033
-408,569	-200,000	0,008	-0,036
-407,555	-111,227	0,114	-0,017
-406,540	551,182	0,047	0,081
-405,525	70,054	0,094	0,069
-404,511	-170,316	-0,023	0,001
-403,496	800,000	-0,062	-0,181
-402,482	154,702	0,088	0,087
-401,467	800,000	0,018	0,042
-400,452	-76,133	0,122	-0,031
-399,438	-200,000	0,010	-0,106
-398,423	800,000	-0,043	-0,105
-397,409	328,966	0,072	0,099
-396,394	-200,000	-0,020	-0,129
-395,379	-200,000	-0,006	-0,072
-394,365	155,092	0,019	-0,018
-393,350	59,081	0,069	0,049
-392,336	-200,000	-0,010	0,074
-391,321	83,035	0,100	0,078
-390,306	24,503	0,034	0,020
-389,292	-200,000	-0,004	-0,185
-388,277	51,812	0,072	-0,049
-387,263	224,399	-0,065	0,075
-386,248	-200,000	0,007	-0,069
-385,233	47,306	0,050	-0,033
-384,219	52,572	-0,039	-0,026
-383,204	-161,802	-0,096	0,003
-382,190	-200,000	0,019	-0,101
-381,175	-167,603	-0,105	-0,003
-380,160	-25,640	-0,181	0,076
-379,146	-87,066	0,072	-0,016
-378,131	708,726	0,033	0,063
-377,117	800,000	0,035	0,101
-376,102	203,242	0,072	-0,081
-375,088	556,968	0,035	-0,061
-374,073	66,811	-0,041	-0,030
-373,058	-163,463	0,143	-0,005
-372,044	10,158	-0,065	-0,035
-371,029	-200,000	0,003	0,089
-370,015	-200,000	0,001	0,100
-369,000	800,000	-0,012	-0,036
-367,985	281,582	0,064	-0,083
-366,971	151,920	-0,092	0,090
-365,956	185,887	0,051	-0,054
-364,942	17,330	0,094	0,053
-363,927	-40,693	-0,079	0,029
-362,912	-73,977	0,049	0,013
-361,898	55,128	-0,030	-0,021
-360,883	-200,000	-0,007	-0,031
-359,869	-51,676	-0,040	0,013
-358,854	-91,822	0,066	-0,013
-357,839	-200,000	0,002	-0,036
-356,825	369,878	-0,050	0,073
-355,810	800,000	-0,034	-0,078
-354,796	-149,958	0,100	0,005
-353,781	81,102	-0,014	-0,011
-352,766	-200,000	0,002	-0,011
-351,752	343,748	0,055	-0,077
-350,737	62,692	0,040	0,029
-349,723	336,770	-0,098	0,137
-348,708	518,723	0,036	0,060
-347,693	-125,081	-0,083	-0,009
-346,679	39,672	0,065	-0,042
-345,664	-105,007	-0,118	0,019
-344,650	142,825	-0,036	0,034
-343,635	800,000	0,034	0,084
-342,620	503,610	0,042	0,069
-341,606	204,986	-0,054	0,061
-340,591	-200,000	-0,002	0,032
-339,577	-4,354	-0,093	-0,046
-338,562	-59,155	0,160	-0,049
-337,548	162,519	-0,072	-0,072
-336,533	800,000	0,019	-0,055
-335,518	92,740	-0,147	0,119
-334,504	6,256	0,034	0,018
-333,489	-200,000	-0,020	-0,068
-332,475	676,012	-0,051	-0,096
-331,460	43,367	-0,040	-0,026
-330,445	535,890	0,039	-0,067
-329,431	474,242	0,071	-0,115
-328,416	-200,000	-0,002	-0,045
-327,402	-200,000	-0,003	0,196
-326,387	-200,000	-0,017	-0,140
-325,372	-200,000	-0,033	-0,120
-324,358	800,000	-0,023	0,055
-323,343	-47,996	0,066	-0,023
-322,329	49,927	-0,066	0,044
-321,314	-200,000	0,008	0,230
-320,299	99,592	0,136	0,113
-319,285	-36,052	-0,023	0,009
-318,270	95,134	-0,115	-0,094
-317,256	-200,000	0,015	-0,071
-316,241	-39,669	-0,046	0,017
-315,226	-5,904	-0,061	0,030
-314,212	-91,599	0,066	-0,013
-313,197	798,299	-0,032	0,064
-312,183	-28,528	-0,037	0,015
-311,168	800,000	-0,019	0,053
-310,153	170,305	-0,021	-0,021
-309,139	-29,121	-0,073	0,030
-308,124	-200,000	-0,002	0,028
-307,110	371,491	0,061	0,089
-306,095	271,100	0,066	0,083
-305,080	-87,829	0,016	-0,003
-304,066	800,000	-0,086	-0,192
-303,051	-84,430	0,089	-0,020
-302,037	-200,000	0,013	-0,114
-301,022	-200,000	-0,006	-0,091
-300,008	106,337	0,112	-0,095
-298,993	162,927	-0,015	0,015
-297,978	165,164	-0,041	0,042
-296,964	212,809	0,037	-0,042
-295,949	773,385	-0,023	-0,046
-294,935	-200,000	0,017	0,144
-293,920	-38,138	-0,157	0,059
-292,905	52,242	0,092	0,063
-291,891	198,882	-0,014	0,015
-290,876	800,000	0,018	0,051
-289,862	-12,537	0,152	0,071
-288,847	-200,000	0,005	-0,018
-287,832	-200,000	0,007	-0,045
-286,818	139,729	-0,071	-0,067
-285,803	5,348	0,020	0,011
-284,789	17,462	0,039	-0,022
-283,774	-22,984	-0,057	-0,024
-282,759	-200,000	-0,004	-0,039
-281,745	27,654	0,061	0,037
-280,730	38,178	-0,142	-0,090
-279,716	31,171	-0,097	0,059
-278,701	494,551	-0,053	-0,087
-277,686	800,000	0,031	0,080
-276,672	23,657	0,090	0,053
-275,657	29,441	0,073	0,044
-274,643	800,000	-0,032	-0,101
-273,628	-200,000	0,000	-0,039
-272,613	-52,042	-0,119	-0,039
-271,599	800,000	-0,075	-0,174
-270,584	574,758	-0,035	0,062
-269,570	-111,816	0,067	0,010
-268,555	163,496	0,107	0,108
-267,540	229,946	0,052	0,061
-266,526	800,000	0,012	-0,031
-265,511	-200,000	-0,009	-0,198
-264,497	11,754	-0,063	-0,034
-263,482	-200,000	0,027	0,102
-262,467	-200,000	0,010	0,067
-261,453	-144,968	0,031	-0,002
-260,438	147,641	-0,067	-0,065
-259,424	-200,000	0,019	0,107
-258,409	435,941	-0,038	-0,059
-257,395	311,089	0,027	0,036
-256,380	22,324	0,086	0,050
-255,365	242,208	-0,048	-0,057
-254,351	313,692	-0,059	-0,080
-253,336	800,000	0,051	-0,106
-252,322	-200,000	-0,014	-0,110
-251,307	-58,837	0,007	0,002
-250,292	-62,973	0,076	-0,022
-249,278	-79,314	-0,052	0,013
-248,263	-200,000	-0,013	0,216
-247,249	-200,000	0,028	0,140
-246,234	-200,000	0,002	0,056
-245,219	-84,677	-0,051	-0,011
-244,205	800,000	-0,042	0,089
-243,190	-200,000	-0,013	0,048
-242,176	-71,408	0,081	0,022
-241,161	-57,958	0,143	0,044
-240,146	-200,000	0,037	0,117
-239,132	190,459	0,014	-0,015
-238,117	-49,721	0,179	-0,060
-237,103	800,000	0,015	-0,037
-236,088	156,228	0,146	-0,144
-235,073	-112,983	-0,059	-0,008
-234,059	93,817	0,108	0,087
-233,044	502,058	-0,070	0,116
-232,030	800,000	0,012	-0,037
-231,015	297,528	-0,076	0,100
-230,000	91,319	-0,070	0,056
-228,986	-13,708	-0,065	0,030
-227,971	136,336	0,102	-0,095
-226,957	-34,345	0,139	-0,054
-225,942	-200,000	0,025	0,126
-224,927	542,376	-0,029	0,050
-223,913	-58,808	0,102	-0,031
-222,898	206,262	0,065	0,073
-221,884	125,780	-0,053	-0,048
-220,869	-6,117	0,033	-0,016
-219,855	372,226	-0,062	-0,090
-218,840	168,151	0,022	-0,022
-217,825	800,000	-0,035	-0,088
-216,811	-167,513	0,131	0,004
-215,796	201,960	0,070	-0,077
-214,782	77,275	-0,066	-0,050
-213,767	800,000	-0,026	0,053
-212,752	-183,059	0,106	-0,001
-211,738	-48,013	0,143	0,049
-210,723	525,736	-0,089	0,151
-209,709	-200,000	-0,018	-0,103
-208,694	-200,000	-0,002	0,038
-207,679	542,056	-0,033	0,057
-206,665	-52,764	-0,170	-0,056
-205,650	-200,000	-0,006	0,023
-204,636	85,232	0,067	0,052
-203,621	-200,000	-0,011	0,077
-202,606	-114,767	-0,094	0,013
-201,592	96,933	-0,123	-0,100
-200,577	118,707	0,068	-0,060
-199,563	-113,303	0,059	-0,008
-198,548	13,105	0,093	0,051
-197,533	327,408	-0,045	0,061
-196,519	280,007	-0,057	0,073
-195,504	1,771	-0,180	0,092
-194,490	85,368	-0,087	-0,068
-193,475	-200,000	0,002	0,068
-192,460	800,000	-0,062	-0,135
-191,446	22,217	0,073	0,043
-190,431	90,159	-0,103	0,082
-189,417	343,785	0,102	0,143
-188,402	800,000	0,032	-0,084
-187,387	-37,710	-0,151	-0,057
-186,373	-200,000	-0,002	-0,050
-185,358	-200,000	-0,002	0,012
-184,344	440,884	0,056	0,087
-183,329	93,200	-0,045	-0,036
-182,315	-102,592	0,078	-0,013
-181,300	-200,000	-0,004	-0,041
-180,285	10,697	0,017	0,009
-179,271	568,094	-0,028	-0,049
-178,256	-24,072	-0,060	-0,025
-177,242	-14,562	0,032	-0,015
-176,227	-200,000	0,000	-0,020
-175,212	358,305	-0,028	-0,040
-174,198	206,663	-0,039	0,044
-173,183	716,678	-0,079	-0,149
-172,169	421,653	0,047	-0,072
-171,154	-200,000	-0,012	-0,102
-170,139	-100,654	0,104	-0,018
-169,125	261,981	0,062	0,076
-168,110	42,872	0,107	0,069
-167,096	510,688	0,032	0,054
-166,081	-200,000	0,010	-0,050
-165,066	-80,330	0,077	-0,018
-164,052	667,920	-0,023	-0,043
-163,037	385,177	0,041	-0,061
-162,023	300,367	-0,051	0,067
-161,008	293,130	-0,057	-0,074
-159,993	14,626	-0,076	0,042
-158,979	69,488	-0,053	-0,039
-157,964	380,397	-0,089	-0,131
-156,950	-200,000	-0,008	-0,054
-155,935	-200,000	0,038	-0,129
-154,920	116,860	0,060	0,053
-153,906	-19,848	-0,095	0,041
-152,891	183,841	0,021	0,022
-151,877	-200,000	-0,014	0,198
-150,862	109,558	-0,138	-0,118
-149,847	-44,929	-0,108	0,038
-148,833	-68,040	0,129	0,035
-147,818	60,628	-0,085	-0,060
-146,804	665,852	0,061	0,113
-145,789	-200,000	-0,009	0,111
-144,775	-200,000	-0,003	0,036
-143,760	5,739	-0,158	-0,083
-142,745	303,047	-0,023	0,030
-141,731	211,234	0,115	0,129
-140,716	-10,911	-0,076	0,036
-139,702	-47,106	0,099	0,034
-138,687	44,224	0,004	0,003
-137,672	89,727	0,098	-0,078
-136,658	77,397	0,042	0,032
-135,643	109,076	-0,112	-0,096
-134,629	216,381	-0,052	-0,058
-133,614	-109,892	0,058	0,009
-132,599	800,000	0,062	0,126
-131,585	124,864	0,111	-0,099
-130,570	-200,000	0,014	-0,096
-129,556	113,990	0,054	-0,047
-128,541	-62,314	-0,090	0,026
-127,526	-26,227	-0,138	-0,057
-126,512	26,860	0,061	0,037
-125,497	421,840	0,053	0,081
-124,483	-172,768	0,088	-0,002
-123,468	-28,271	0,135	-0,055
-122,453	738,666	0,033	-0,064
-121,439	274,119	0,068	-0,086
-120,424	-200,000	-0,026	0,103
-119,410	800,000	0,071	0,149
-118,395	-115,349	-0,042	0,006
-117,380	-113,243	0,136	-0,019
-116,366	189,795	0,074	0,079
-115,351	-200,000	-0,023	0,185
-114,337	136,189	0,030	0,028
-113,322	-64,485	0,041	0,012
-112,307	52,670	0,129	-0,087
-111,293	564,658	0,017	-0,029
-110,278	-79,549	0,117	-0,028
-109,264	-52,217	-0,093	-0,030
-108,249	-200,000	-0,001	0,173
-107,234	266,782	0,017	-0,021
-106,220	-200,000	0,010	-0,067
-105,205	-21,347	-0,085	-0,037
-104,191	-19,076	-0,191	0,084
-103,176	-170,353	-0,107	-0,003
-102,162	-2,854	-0,070	-0,035
-101,147	-200,000	0,002	0,024
-100,132	167,539	-0,087	-0,088
-99,118	74,048	0,105	0,078
-98,103	358,304	0,016	-0,023
-97,089	-200,000	0,021	-0,108
-96,074	95,488	0,052	0,042
-95,059	-75,637	-0,138	-0,035
-94,045	46,650	-0,044	0,029
-93,030	800,000	0,006	0,013
-92,016	-200,000	0,005	0,037
-91,001	-126,854	0,022	-0,002
-89,986	800,000	0,019	-0,042
-88,972	-157,795	-0,084	-0,003
-87,957	613,625	0,050	0,089
-86,943	-200,000	-0,016	0,063
-85,928	800,000	-0,059	-0,154
-84,913	-85,329	0,030	-0,006
-83,899	144,429	0,054	-0,051
-82,884	-23,770	-0,059	-0,025
-81,870	-200,000	0,007	-0,036
-80,855	-200,000	-0,004	0,018
-79,840	-4,565	0,072	-0,035
-78,826	249,609	-0,023	-0,028
-77,811	-200,000	0,017	-0,094
-76,797	-103,881	-0,154	0,025
-75,782	6,272	0,090	0,047
-74,767	292,417	0,071	-0,092
-73,753	800,000	-0,039	-0,084
-72,738	800,000	-0,034	0,087
-71,724	-149,227	0,067	-0,004
-70,709	800,000	0,035	-0,082
-69,694	292,215	0,058	-0,075
-68,680	-200,000	-0,218	0,000
-67,665	-200,000	0,008	0,050
-66,651	-112,301	0,101	-0,014
-65,636	-62,769	-0,061	-0,018
-64,622	556,249	-0,049	0,085
-63,607	-80,314	-0,153	0,036
-62,592	213,567	-0,025	-0,029
-61,578	-200,000	0,024	0,080
-60,563	-200,000	0,014	0,062
-59,549	800,000	0,049	0,135
-58,534	-63,254	-1,339	-0,389
-57,519	326,402	-1,585	-2,159
-56,505	-200,000	-0,467	-4,443
-55,490	77,172	0,945	0,712
-54,476	800,000	4,672	11,289
-53,461	-200,000	17,367	271,080
-52,446	800,000	716,829	2187,915
-51,432	552,416	1630,709	2788,959
-50,417	81,159	1655,651	1266,881
-49,403	24,217	1529,874	893,794
-48,388	18,219	1453,442	820,265
-47,373	18,412	1442,877	815,193
-46,359	18,112	1433,629	808,510
-45,344	16,574	1428,893	798,511
-44,330	16,477	1427,032	796,976
-43,315	16,481	1425,293	795,993
-42,300	16,490	1423,944	795,252
-41,286	16,561	1422,678	794,847
-40,271	16,459	1421,231	793,526
-39,257	16,487	1419,928	792,902
-38,242	16,517	1418,636	792,289
-37,227	16,512	1417,475	791,587
-36,213	16,533	1416,187	790,934
-35,198	16,479	1415,090	790,037
-34,184	16,514	1414,167	789,652
-33,169	16,469	1412,689	788,583
-32,154	16,513	1411,807	788,268
-31,140	16,502	1410,476	787,442
-30,125	16,505	1409,233	786,730
-29,111	16,522	1408,074	786,130
-28,096	16,467	1406,985	785,237
-27,082	16,417	1406,057	784,455
-26,067	16,420	1404,778	783,722
-25,052	16,481	1403,617	783,330
-24,038	16,414	1402,799	782,527
-23,023	16,412	1401,852	781,962
-22,009	16,359	1400,880	781,139
-20,994	16,330	1399,922	780,438
-19,979	16,373	1398,967	780,077
-18,965	16,370	1397,773	779,365
-17,950	16,333	1397,049	778,758
-16,936	16,357	1396,103	778,311
-15,921	16,335	1394,854	777,484
-14,906	16,309	1393,915	776,807
-13,892	16,380	1392,937	776,561
-12,877	16,325	1392,056	775,783
-11,863	16,329	1391,116	775,248
-10,848	16,330	1390,411	774,831
-9,833	16,287	1389,431	774,055
-8,819	16,298	1388,388	773,493
-7,804	16,285	1387,362	772,832
-6,790	16,259	1386,470	772,186
-5,775	16,218	1385,311	771,320
-4,760	16,198	1384,697	770,857
-3,746	16,189	1383,982	770,383
-2,731	16,190	1383,221	769,937
-1,717	16,214	1381,880	769,270
-0,702	16,200	1380,298	768,294
0,313	20,141	1301,968	742,811
1,327	36,747	707,653	442,253
2,342	56,823	125,730	86,659
3,356	4,537	16,603	8,606
4,371	3,363	3,119	1,604
5,386	-51,115	0,521	0,172
6,400	-39,112	-0,081	0,030
7,415	-47,601	-0,285	-0,097
8,429	25,426	-0,296	-0,174
9,444	84,999	-0,301	-0,234
10,459	-7,303	-0,255	-0,122
11,473	92,681	-0,230	-0,184
12,488	-51,628	-0,385	-0,126
13,502	263,281	-0,217	-0,267
14,517	33,947	-0,375	-0,231
15,531	24,735	-0,430	-0,252
16,546	-75,673	-0,364	-0,091
17,561	182,704	-0,361	-0,377
18,575	-70,846	-0,227	-0,060
19,590	800,000	-0,136	-0,362
20,604	-22,545	-0,270	-0,115
21,619	58,648	-0,409	-0,284
22,634	161,087	-0,400	-0,395
23,648	34,829	-0,542	-0,334
24,663	137,280	-0,312	-0,288
25,677	109,175	-0,359	-0,304
26,692	22,309	-0,284	-0,164
27,707	52,888	-0,348	-0,235
28,721	186,831	-0,348	-0,367
29,736	117,028	-0,343	-0,298
30,750	112,085	-0,352	-0,301
31,765	24,410	-0,414	-0,241
32,780	102,774	-0,419	-0,346
33,794	95,893	-0,324	-0,261
34,809	48,655	-0,301	-0,199
35,823	78,301	-0,402	-0,303
36,838	171,226	-0,295	-0,299
37,853	50,144	-0,425	-0,283
38,867	141,743	-0,329	-0,308
39,882	39,470	-0,306	-0,193
40,896	192,291	-0,307	-0,328
41,911	94,871	-0,372	-0,299
42,926	34,639	-0,354	-0,218
43,940	155,622	-0,280	-0,272
44,955	91,713	-0,386	-0,306
45,969	173,102	-0,396	-0,403
46,984	50,058	-0,356	-0,237
47,999	-4,279	-0,263	-0,128
49,013	102,930	-0,304	-0,252
50,028	-40,310	-0,395	-0,144
51,042	84,953	-0,374	-0,289
52,057	93,022	-0,335	-0,267
53,071	13,068	-0,278	-0,151
54,086	-51,354	-0,381	-0,125
55,101	124,868	-0,339	-0,301
56,115	63,743	-0,376	-0,266
57,130	-1,438	-0,418	-0,207
58,144	-72,286	-0,439	-0,114
59,159	135,593	-0,378	-0,347
60,174	77,094	-0,382	-0,286
61,188	28,603	-0,232	-0,138
62,203	78,218	-0,361	-0,272
63,217	88,822	-0,331	-0,259
64,232	800,000	-0,158	-0,340
65,247	358,085	-0,236	-0,333
66,261	43,359	-0,372	-0,239
67,276	82,146	-0,304	-0,232
68,290	-7,983	-0,306	-0,145
69,305	34,269	-0,309	-0,190
70,320	100,628	-0,272	-0,223
71,334	54,987	-0,254	-0,172
72,349	-17,775	-0,327	-0,144
73,363	32,581	-0,410	-0,249
74,378	118,179	-0,253	-0,219
75,393	75,657	-0,300	-0,223
76,407	118,606	-0,184	-0,160
77,422	520,629	-0,173	-0,287
78,436	60,198	-0,292	-0,203
79,451	-69,994	-0,289	-0,077
80,466	-60,983	-0,394	-0,116
81,480	184,216	-0,276	-0,288
82,495	117,976	-0,239	-0,208
83,509	35,475	-0,276	-0,170
84,524	13,597	-0,207	-0,113
85,539	-171,663	-0,213	0,005
86,553	-103,803	-0,423	-0,069
87,568	-78,151	-0,265	-0,064
88,582	267,955	-0,161	-0,199
89,597	109,945	-0,237	-0,200
90,611	122,519	-0,272	-0,239
91,626	305,200	-0,125	-0,164
92,641	-138,851	-0,344	0,026
93,655	392,679	-0,250	-0,366
94,670	-130,061	-0,276	-0,026
95,684	34,702	-0,214	-0,131
96,699	-7,464	-0,275	-0,130
97,714	210,591	-0,218	-0,241
98,728	118,719	-0,253	-0,219
99,743	-15,349	-0,211	-0,094
100,757	-35,831	-0,179	-0,068
101,772	-145,592	-0,237	-0,015
102,787	-15,789	-0,238	-0,106
103,801	53,574	-0,319	-0,215
104,816	44,972	-0,268	-0,173
105,830	-54,372	-0,341	-0,108
106,845	-24,662	-0,236	-0,098
107,860	-45,305	-0,278	-0,096
108,874	-46,007	-0,332	-0,114
109,889	97,126	-0,261	-0,210
110,903	-75,780	-0,243	-0,060
111,918	181,830	-0,311	-0,322
112,933	127,337	-0,291	-0,259
113,947	216,111	-0,215	-0,240
114,962	450,457	-0,146	-0,228
115,976	6,964	-0,299	-0,156
116,991	181,650	-0,255	-0,263
118,006	55,443	-0,228	-0,155
119,020	-8,088	-0,284	-0,134
120,035	19,612	-0,222	-0,125
121,049	107,179	-0,228	-0,190
122,064	-111,989	-0,365	-0,051
123,079	-1,149	-0,289	-0,143
124,093	269,993	-0,207	-0,256
125,108	91,330	-0,271	-0,213
126,122	84,105	-0,241	-0,184
127,137	116,867	-0,200	-0,172
128,151	192,274	-0,187	-0,198
129,166	113,474	-0,144	-0,123
130,181	41,460	-0,314	-0,199
131,195	-85,985	-0,313	-0,067
132,210	59,505	-0,234	-0,161
133,224	133,515	-0,259	-0,235
134,239	378,620	-0,213	-0,306
135,254	-200,000	-0,056	-0,207
136,268	38,802	-0,302	-0,189
137,283	-9,956	-0,321	-0,149
138,297	166,237	-0,292	-0,289
139,312	-101,365	-0,358	-0,060
140,327	245,196	-0,265	-0,313
141,341	171,818	-0,225	-0,226
142,356	800,000	-0,141	-0,276
143,370	52,301	-0,214	-0,143
144,385	46,371	-0,198	-0,128
145,400	72,341	-0,347	-0,253
146,414	-123,471	-0,228	-0,025
147,429	-56,901	-0,260	-0,080
148,443	71,592	-0,327	-0,237
149,458	141,019	-0,230	-0,213
150,473	-47,937	-0,242	-0,081
151,487	399,692	-0,152	-0,224
152,502	184,648	-0,209	-0,217
153,516	685,257	-0,269	-0,494
154,531	167,255	-0,263	-0,262
155,546	122,996	-0,166	-0,145
156,560	-16,238	-0,351	-0,155
157,575	-70,382	-0,141	0,037
158,589	67,784	-0,191	-0,136
159,604	35,640	-0,278	-0,170
160,619	3,384	-0,183	-0,093
161,633	104,094	-0,275	-0,226
162,648	-21,715	-0,371	-0,157
163,662	-100,035	-0,192	-0,033
164,677	-36,401	-0,363	-0,136
165,692	469,279	-0,135	-0,212
166,706	193,690	-0,244	-0,258
167,721	84,381	-0,268	-0,204
168,735	35,977	-0,225	-0,138
169,750	718,371	-0,158	-0,294
170,764	195,125	-0,140	-0,149
171,779	27,542	-0,232	-0,136
172,794	59,668	-0,166	-0,114
173,808	178,547	-0,140	-0,142
174,823	233,682	-0,267	-0,307
175,837	82,568	-0,237	-0,179
176,852	142,826	-0,253	-0,235
177,867	-95,277	-0,251	-0,047
178,881	-27,571	-0,255	-0,103
179,896	60,604	-0,195	-0,135
180,910	69,518	-0,166	-0,119
181,925	-136,493	-0,231	-0,018
182,940	711,902	-0,146	-0,271
183,954	97,579	-0,124	-0,100
184,969	247,655	-0,246	-0,291
185,983	0,829	-0,185	-0,092
186,998	41,342	-0,184	-0,116
188,013	301,290	-0,120	-0,155
189,027	-47,559	-0,216	-0,073
190,042	174,805	-0,122	-0,123
191,056	135,254	-0,199	-0,180
192,071	316,693	-0,098	-0,129
193,086	6,796	-0,235	-0,122
194,100	464,974	-0,178	-0,278
195,115	200,083	-0,151	-0,162
196,129	238,233	-0,218	-0,252
197,144	90,574	-0,227	-0,177
198,159	-76,753	-0,224	-0,054
199,173	-158,291	-0,060	-0,002
200,188	-175,534	-0,217	0,004
201,202	75,232	-0,183	-0,134
202,217	-71,234	-0,260	-0,067
203,232	800,000	-0,049	-0,132
204,246	214,822	-0,195	-0,215
205,261	711,648	-0,114	-0,211
206,275	15,463	-0,180	-0,098
207,290	37,741	-0,246	-0,152
208,304	198,838	-0,209	-0,224
209,319	187,599	-0,139	-0,145
210,334	-67,165	-0,247	-0,067
211,348	114,254	-0,274	-0,232
212,363	-73,134	-0,330	-0,084
213,377	-11,279	-0,284	-0,130
214,392	-14,389	-0,152	-0,068
215,407	172,703	-0,153	-0,153
216,421	19,502	-0,239	-0,133
217,436	800,000	-0,080	-0,246
218,450	467,186	-0,167	-0,262
219,465	622,839	-0,166	-0,292
220,480	275,260	-0,201	-0,249
221,494	-79,161	-0,198	-0,046
222,509	263,452	-0,086	-0,104
223,523	-56,552	-0,212	-0,065
224,538	672,356	-0,148	-0,268
225,553	105,401	-0,225	-0,185
226,567	476,282	-0,093	-0,147
227,582	43,245	-0,331	-0,210
228,596	-91,802	-0,163	-0,032
229,611	177,513	-0,154	-0,156
230,626	7,627	-0,143	-0,074
231,640	178,449	-0,123	-0,125
232,655	-145,026	-0,225	-0,014
233,669	800,000	-0,156	-0,317
234,684	97,281	-0,153	-0,122
235,699	93,667	-0,218	-0,171
236,713	-105,583	-0,079	-0,012
237,728	147,550	-0,151	-0,142
238,742	123,155	-0,161	-0,140
239,757	-4,949	-0,160	-0,076
240,772	-10,820	-0,261	-0,119
241,786	168,994	-0,132	-0,131
242,801	-200,000	-0,078	-0,256
243,815	29,030	-0,201	-0,118
244,830	88,111	-0,199	-0,153
245,844	-61,073	-0,253	-0,074
246,859	36,787	-0,184	0,113
247,874	194,123	-0,205	-0,215
248,888	-96,674	-0,242	-0,044
249,903	-106,617	-0,105	0,016
250,917	276,987	-0,151	-0,186
251,932	33,693	-0,155	-0,093
252,947	-62,180	-0,179	-0,051
253,961	-112,011	-0,217	-0,030
254,976	95,272	-0,187	-0,148
255,990	15,008	-0,124	0,067
257,005	7,347	-0,199	-0,103
258,020	-107,332	-0,229	-0,034
259,034	-30,255	-0,083	-0,033
260,049	-200,000	-0,018	-0,158
261,063	7,184	-0,226	-0,117
262,078	173,340	-0,180	-0,180
263,093	546,283	-0,148	-0,247
264,107	351,338	-0,115	-0,159
265,122	-200,000	-0,032	-0,140
266,136	-30,827	-0,154	-0,060
267,151	-99,328	-0,158	-0,027
268,166	279,446	-0,169	-0,210
269,180	-112,601	-0,160	0,022
270,195	45,603	-0,218	-0,139
271,209	319,419	-0,129	-0,170
272,224	201,953	-0,248	-0,265
273,239	-200,000	0,004	-0,160
274,253	102,180	-0,106	-0,086
275,268	9,054	-0,129	-0,067
276,282	80,671	-0,156	-0,116
277,297	-9,663	-0,203	-0,093
278,312	247,595	-0,212	-0,248
279,326	141,506	-0,136	-0,125
280,341	97,740	-0,166	-0,132
281,355	-92,240	-0,245	-0,047
282,370	51,637	-0,223	-0,147
283,384	225,639	-0,176	-0,197
284,399	137,962	-0,139	-0,126
285,414	496,065	-0,144	-0,230
286,428	199,114	-0,165	-0,175
287,443	-8,021	-0,154	-0,071
288,457	73,183	-0,241	-0,174
289,472	-56,309	-0,150	-0,046
290,487	136,057	-0,187	-0,169
291,501	472,863	-0,116	-0,181
292,516	190,335	-0,208	-0,216
293,530	171,712	-0,158	-0,157
294,545	-71,124	-0,125	-0,032
295,560	-200,000	-0,048	-0,215
296,574	418,429	-0,097	-0,143
297,589	800,000	-0,073	-0,173
298,603	800,000	-0,099	-0,250
299,618	427,032	-0,107	-0,160
300,633	-10,068	-0,052	-0,024
301,647	-200,000	0,005	-0,062
302,662	800,000	-0,061	-0,144
303,676	108,272	-0,103	-0,085
304,691	34,728	-0,200	-0,120
305,706	-55,446	-0,198	-0,061
306,720	236,598	-0,125	-0,142
307,735	223,506	-0,043	-0,048
308,749	143,140	-0,106	-0,097
309,764	-148,161	-0,058	0,003
310,779	147,951	-0,153	-0,142
311,793	338,603	-0,134	-0,181
312,808	-12,412	-0,180	-0,081
313,822	59,360	-0,158	-0,107
314,837	125,497	-0,077	-0,067
315,852	-59,975	-0,249	-0,073
316,866	-129,174	-0,165	-0,016
317,881	203,720	-0,135	-0,144
318,895	800,000	-0,070	-0,137
319,910	-101,547	-0,190	-0,032
320,925	233,565	-0,090	-0,102
321,939	84,617	-0,183	-0,138
322,954	-200,000	-0,046	-0,204
323,968	-80,712	-0,148	0,034
324,983	-42,440	-0,190	0,066
325,997	-10,874	-0,159	-0,072
327,012	192,329	-0,190	-0,198
328,027	120,892	-0,121	-0,104
329,041	71,118	-0,182	-0,130
330,056	-72,619	-0,149	-0,038
331,070	2,289	-0,209	-0,104
332,085	-7,703	-0,143	-0,066
333,100	-200,000	0,010	-0,165
334,114	78,021	-0,208	-0,152
335,129	-88,485	-0,256	-0,052
336,143	12,304	-0,208	-0,110
337,158	-76,463	-0,068	-0,016
338,173	-177,905	-0,153	-0,002
339,187	-140,716	-0,134	-0,009
340,202	191,030	-0,091	-0,094
341,216	260,245	-0,143	-0,171
342,231	597,630	-0,096	-0,165
343,246	78,077	-0,163	-0,119
344,260	16,320	-0,149	-0,081
345,275	-91,298	-0,163	0,032
346,289	-79,985	-0,067	-0,015
347,304	-47,337	-0,133	0,044
348,319	-189,502	-0,156	0,001
349,333	175,559	-0,107	-0,107
350,348	138,605	-0,157	-0,141
351,362	114,315	-0,138	-0,115
352,377	-32,305	0,039	-0,015
353,392	-200,000	-0,072	-0,226
354,406	228,923	-0,174	-0,196
355,421	209,394	1312,507	1414,886
356,435	161,153	1473,017	1415,416
