DTS Sentinel unit serial number:	SN410029Multiplexer serial number:	ORYXHardware model number:	OX2-SRSoftware version number:	ORYX F/W v4,00 Oryx Data Collector v3.7.2.0data status	okinstallation	B3 Nyhavnadifferential loss correction	single-endedforward channel	channel 1reverse channel	N/Adate	2023/11/29time	03:22:30forward acquisition time	300,00reverse acquisition time	0,00gamma	499,1914k internal	0,3211k external	0,3211temperature offset calibration	1,0000default loss term (dB/km)	0,3820temperature slope calibration	1,0000multiplexer offset coefficient	1,0000multiplexer slope coefficient	1,0000fibre end	0,00T internal ref (°C)	9,52T ext. ref 1 (°C)	-5,87T ext. ref 2 (°C)	-6,00length (m)	temperature (°C)	Stokes	anti-Stokes-744,400	300,000	-0,211	-0,282
-743,385	-200,000	-0,072	0,319
-742,371	800,000	-0,083	-0,209
-741,356	-200,000	0,025	0,373
-740,342	-63,375	-0,085	-0,025
-739,327	-200,000	0,038	0,338
-738,312	-200,000	-0,062	-0,364
-737,298	-200,000	-0,066	0,260
-736,283	-200,000	-0,085	-0,319
-735,269	-200,000	0,069	0,229
-734,254	800,000	-0,098	-0,225
-733,239	-90,066	-0,231	-0,048
-732,225	800,000	-0,085	-0,241
-731,210	-200,000	0,079	0,290
-730,196	152,352	-0,147	-0,146
-729,181	-31,467	0,015	0,006
-728,167	800,000	0,068	-0,186
-727,152	-200,000	-0,027	-0,211
-726,137	-78,524	-0,042	-0,010
-725,123	-98,735	-0,065	-0,012
-724,108	-155,835	0,108	-0,005
-723,094	-36,786	-0,114	0,044
-722,079	-200,000	-0,019	-0,109
-721,064	-78,310	-0,015	-0,004
-720,050	38,540	0,027	-0,017
-719,035	-174,793	-0,180	0,004
-718,021	165,947	0,045	0,046
-717,006	-32,049	-0,188	-0,076
-715,991	108,600	-0,131	-0,113
-714,977	800,000	-0,037	0,076
-713,962	214,011	-0,019	0,022
-712,948	450,159	-0,043	0,070
-711,933	312,104	-0,044	0,060
-710,918	-65,566	-0,113	-0,033
-709,904	452,407	0,024	-0,039
-708,889	291,604	-0,102	0,135
-707,875	-48,715	-0,072	-0,025
-706,860	259,210	0,014	0,017
-705,845	-200,000	0,010	-0,076
-704,831	100,286	-0,081	-0,068
-703,816	-200,000	0,010	0,143
-702,802	-200,000	0,021	0,072
-701,787	168,731	0,090	-0,092
-700,772	-6,324	-0,022	0,011
-699,758	444,983	-0,060	-0,096
-698,743	-200,000	0,001	0,107
-697,729	156,238	0,115	-0,115
-696,714	-200,000	0,014	0,056
-695,699	-200,000	0,014	-0,182
-694,685	800,000	0,009	-0,028
-693,670	-166,132	-0,047	-0,001
-692,656	-92,588	0,042	-0,009
-691,641	800,000	0,039	-0,096
-690,627	-94,688	0,090	-0,017
-689,612	-62,720	0,028	0,008
-688,597	40,275	-0,082	0,053
-687,583	800,000	0,045	0,100
-686,568	800,000	0,021	-0,047
-685,554	-200,000	-0,019	-0,111
-684,539	38,183	0,066	-0,043
-683,524	-187,202	-0,020	0,000
-682,510	58,680	0,022	-0,016
-681,495	-200,000	0,006	0,066
-680,481	76,813	-0,012	0,009
-679,466	153,101	0,063	-0,062
-678,451	329,743	0,018	-0,025
-677,437	-120,318	0,058	0,007
-676,422	-200,000	-0,005	-0,050
-675,408	800,000	0,022	0,066
-674,393	642,190	-0,006	-0,012
-673,378	-200,000	0,007	-0,030
-672,364	-200,000	-0,014	-0,132
-671,349	-200,000	-0,016	-0,175
-670,335	-200,000	-0,002	0,120
-669,320	41,230	0,065	0,042
-668,305	800,000	0,038	0,083
-667,291	-30,160	-0,067	-0,027
-666,276	-60,216	-0,015	0,004
-665,262	430,286	-0,122	-0,192
-664,247	106,065	-0,059	0,051
-663,232	-200,000	0,002	-0,090
-662,218	800,000	0,065	0,143
-661,203	800,000	0,049	-0,141
-660,189	348,129	-0,117	-0,167
-659,174	-125,981	-0,114	0,012
-658,159	-32,601	0,052	-0,021
-657,145	-23,912	0,049	-0,021
-656,130	185,506	-0,059	-0,064
-655,116	800,000	-0,028	-0,079
-654,101	-102,458	0,048	-0,008
-653,086	-56,821	0,117	0,037
-652,072	30,140	0,084	0,051
-651,057	-200,000	-0,004	0,020
-650,043	800,000	-0,042	-0,102
-649,028	47,316	-0,069	-0,046
-648,014	800,000	-0,028	-0,074
-646,999	290,765	-0,075	-0,099
-645,984	125,145	0,067	-0,061
-644,970	-75,801	-0,079	0,020
-643,955	737,668	-0,032	-0,062
-642,941	-121,134	-0,123	0,015
-641,926	355,848	-0,091	-0,131
-640,911	-200,000	-0,021	-0,069
-639,897	397,597	0,061	0,093
-638,882	108,983	-0,076	-0,065
-637,868	-200,000	-0,006	-0,114
-636,853	800,000	-0,060	-0,164
-635,838	214,740	0,035	0,040
-634,824	567,793	0,014	-0,025
-633,809	188,619	-0,018	0,019
-632,795	-200,000	-0,036	0,227
-631,780	84,439	0,049	0,039
-630,765	178,577	0,048	0,051
-629,751	268,896	-0,080	0,102
-628,736	90,034	0,058	0,047
-627,722	-151,981	-0,046	0,002
-626,707	72,088	-0,013	0,010
-625,692	223,754	0,064	0,075
-624,678	18,563	-0,050	0,029
-623,663	-200,000	0,026	0,116
-622,649	-200,000	-0,014	-0,177
-621,634	-171,288	-0,190	-0,005
-620,619	486,206	-0,032	-0,053
-619,605	48,097	-0,093	-0,062
-618,590	32,016	0,097	0,060
-617,576	155,688	0,110	-0,109
-616,561	443,711	-0,064	-0,101
-615,546	-200,000	-0,004	0,055
-614,532	-52,014	-0,125	-0,041
-613,517	259,199	0,038	-0,048
-612,503	-200,000	0,002	-0,054
-611,488	-64,348	-0,114	-0,033
-610,474	-162,391	-0,033	0,001
-609,459	53,376	0,087	0,060
-608,444	78,342	0,081	-0,062
-607,430	-76,639	-0,133	0,033
-606,415	-5,572	-0,119	-0,058
-605,401	-37,625	-0,058	0,022
-604,386	153,911	0,018	-0,018
-603,371	0,701	-0,127	-0,065
-602,357	-91,862	0,093	-0,019
-601,342	800,000	0,020	0,059
-600,328	32,025	0,018	-0,011
-599,313	431,415	-0,047	-0,073
-598,298	800,000	-0,079	-0,182
-597,284	726,454	-0,042	-0,082
-596,269	616,522	0,035	0,064
-595,255	-200,000	-0,041	0,262
-594,240	17,254	-0,157	0,089
-593,225	-200,000	-0,043	-0,149
-592,211	307,284	0,066	-0,089
-591,196	762,888	-0,054	0,107
-590,182	800,000	-0,009	-0,024
-589,167	122,897	-0,149	-0,135
-588,152	-200,000	-0,008	-0,031
-587,138	74,915	-0,136	0,103
-586,123	-130,213	-0,162	-0,016
-585,109	-200,000	-0,026	-0,176
-584,094	-200,000	-0,006	0,033
-583,079	621,613	-0,026	0,048
-582,065	-167,281	-0,022	0,001
-581,050	94,970	-0,101	-0,082
-580,036	-200,000	-0,014	0,104
-579,021	-200,000	0,009	0,107
-578,006	22,129	-0,022	-0,013
-576,992	72,907	-0,027	-0,021
-575,977	-84,029	0,059	-0,013
-574,963	-17,001	0,092	0,042
-573,948	447,188	0,059	-0,093
-572,934	193,355	-0,068	0,075
-571,919	-200,000	0,018	-0,131
-570,904	57,809	-0,018	-0,013
-569,890	-17,046	0,047	0,021
-568,875	-200,000	0,013	0,103
-567,861	33,502	0,110	0,069
-566,846	526,367	-0,029	0,049
-565,831	73,001	0,078	-0,058
-564,817	-79,676	-0,049	0,012
-563,802	-102,364	-0,112	0,019
-562,788	-148,787	0,088	-0,005
-561,773	-9,660	-0,092	0,044
-560,758	179,759	0,072	0,076
-559,744	-51,268	-0,077	-0,026
-558,729	-50,569	-0,026	0,009
-557,715	-13,290	-0,180	0,084
-556,700	-66,636	-0,108	-0,031
-555,685	-200,000	0,030	-0,228
-554,671	-200,000	-0,016	-0,053
-553,656	-166,449	0,094	0,003
-552,642	-29,226	-0,058	-0,024
-551,627	-87,641	0,089	-0,019
-550,612	-200,000	-0,012	-0,046
-549,598	-174,603	-0,096	0,002
-548,583	100,316	-0,049	0,041
-547,569	-200,000	0,017	0,123
-546,554	-200,000	0,006	-0,040
-545,539	-4,388	-0,057	0,028
-544,525	-200,000	-0,001	0,057
-543,510	633,534	0,039	0,072
-542,496	800,000	-0,019	0,050
-541,481	794,507	0,063	-0,126
-540,466	299,710	-0,100	-0,133
-539,452	-89,809	0,097	0,020
-538,437	-200,000	-0,005	-0,039
-537,423	255,233	0,053	0,065
-536,408	49,305	0,024	-0,016
-535,393	-200,000	-0,046	-0,168
-534,379	81,803	-0,062	-0,048
-533,364	800,000	-0,013	-0,042
-532,350	-100,358	0,100	0,018
-531,335	132,951	-0,091	0,085
-530,321	-23,466	0,039	-0,017
-529,306	750,799	0,081	-0,159
-528,291	-31,245	-0,090	-0,036
-527,277	38,222	-0,047	0,030
-526,262	-200,000	-0,002	0,124
-525,248	185,381	0,013	-0,014
-524,233	-200,000	-0,014	0,146
-523,218	-54,318	-0,197	0,064
-522,204	227,909	-0,042	0,049
-521,189	41,401	-0,044	-0,028
-520,175	800,000	0,011	-0,032
-519,160	-149,232	0,179	0,010
-518,145	-200,000	-0,011	0,141
-517,131	400,206	0,061	0,092
-516,116	2,775	-0,123	-0,064
-515,102	-200,000	0,006	0,205
-514,087	-200,000	-0,019	0,109
-513,072	-70,516	-0,113	0,031
-512,058	32,009	0,046	0,029
-511,043	538,683	0,060	0,103
-510,029	283,610	0,089	0,115
-509,014	46,011	0,044	-0,029
-507,999	800,000	-0,047	0,106
-506,985	713,748	0,026	0,050
-505,970	117,098	0,098	0,087
-504,956	-72,989	-0,095	-0,025
-503,941	800,000	0,015	-0,033
-502,926	-68,699	-0,072	0,020
-501,912	438,260	0,049	0,076
-500,897	-200,000	0,004	0,037
-499,883	-12,998	-0,038	0,018
-498,868	440,602	0,011	0,017
-497,853	127,744	0,074	-0,067
-496,839	29,414	0,196	0,120
-495,824	285,393	0,058	-0,076
-494,810	-200,000	-0,010	-0,077
-493,795	-200,000	0,002	0,016
-492,781	800,000	-0,023	0,065
-491,766	19,795	-0,053	-0,030
-490,751	643,210	-0,021	-0,038
-489,737	-200,000	-0,031	-0,118
-488,722	-198,077	0,137	-0,001
-487,708	-27,359	0,080	0,033
-486,693	-56,845	-0,096	-0,030
-485,678	33,735	0,076	0,048
-484,664	-45,981	0,018	-0,007
-483,649	225,659	-0,131	-0,153
-482,635	-118,310	0,063	0,008
-481,620	28,438	-0,042	-0,025
-480,605	19,654	0,152	0,087
-479,591	647,025	-0,017	0,032
-478,576	450,527	0,058	-0,092
-477,562	172,958	0,003	0,003
-476,547	783,190	-0,059	-0,117
-475,532	-75,849	0,067	0,017
-474,518	-75,260	0,103	0,026
-473,503	-82,550	-0,052	-0,012
-472,489	800,000	0,027	-0,055
-471,474	115,811	-0,064	-0,056
-470,459	-200,000	-0,010	0,038
-469,445	642,602	-0,037	-0,069
-468,430	-200,000	0,001	-0,009
-467,416	-52,152	0,117	-0,039
-466,401	-79,486	-0,039	0,009
-465,386	-2,024	-0,110	0,055
-464,372	199,608	-0,037	0,041
-463,357	70,970	0,027	-0,020
-462,343	75,460	-0,091	-0,069
-461,328	-200,000	-0,037	-0,171
-460,313	45,797	0,081	0,054
-459,299	564,214	0,012	0,022
-458,284	467,223	0,014	0,023
-457,270	-200,000	0,004	0,071
-456,255	-106,163	0,040	0,006
-455,241	83,454	-0,088	-0,068
-454,226	311,108	0,046	-0,062
-453,211	-200,000	-0,020	-0,075
-452,197	30,730	0,058	-0,035
-451,182	-43,719	0,131	0,047
-450,168	-34,304	0,053	-0,021
-449,153	800,000	0,022	-0,060
-448,138	-86,101	-0,128	0,028
-447,124	44,991	0,097	0,064
-446,109	-85,943	-0,077	-0,017
-445,095	-100,874	-0,029	0,005
-444,080	91,796	-0,027	0,022
-443,065	-200,000	0,031	0,161
-442,051	26,228	0,061	0,037
-441,036	183,074	0,077	0,081
-440,022	-193,574	0,068	0,000
-439,007	800,000	0,013	0,034
-437,992	195,694	-0,057	0,062
-436,978	61,154	0,090	0,064
-435,963	559,994	-0,125	0,217
-434,949	800,000	-0,051	-0,127
-433,934	499,070	0,081	-0,134
-432,919	-200,000	-0,006	-0,040
-431,905	309,999	-0,062	0,083
-430,890	-55,707	0,165	0,053
-429,876	-57,047	-0,105	0,033
-428,861	-176,818	0,169	-0,003
-427,846	-56,293	-0,112	0,035
-426,832	345,095	-0,064	-0,091
-425,817	26,481	-0,140	-0,084
-424,803	800,000	-0,037	0,093
-423,788	520,912	0,108	-0,183
-422,773	101,408	-0,062	0,052
-421,759	-74,593	0,060	0,015
-420,744	657,078	0,032	0,060
-419,730	-200,000	-0,016	-0,081
-418,715	339,304	-0,024	0,034
-417,701	158,473	0,035	-0,034
-416,686	732,836	0,050	0,097
-415,671	74,036	-0,060	-0,045
-414,657	152,302	0,068	0,066
-413,642	-200,000	-0,018	0,161
-412,628	-141,030	0,041	0,003
-411,613	800,000	-0,015	0,037
-410,598	662,512	-0,057	-0,105
-409,584	176,355	0,113	0,118
-408,569	800,000	-0,076	0,225
-407,555	-88,253	-0,016	0,003
-406,540	-200,000	0,046	0,169
-405,525	-10,854	0,117	-0,055
-404,511	-28,126	-0,126	-0,052
-403,496	-200,000	0,037	-0,147
-402,482	-200,000	0,007	-0,167
-401,467	-200,000	0,001	-0,050
-400,452	171,516	0,054	0,056
-399,438	137,601	0,077	0,073
-398,423	800,000	0,011	-0,028
-397,409	800,000	-0,056	-0,146
-396,394	204,297	-0,070	-0,077
-395,379	800,000	0,014	-0,032
-394,365	-149,957	0,062	-0,003
-393,350	-8,066	0,078	0,038
-392,336	4,727	0,132	-0,069
-391,321	-151,259	-0,006	0,000
-390,306	252,977	-0,068	0,083
-389,292	-200,000	0,007	-0,054
-388,277	787,396	0,047	0,092
-387,263	-200,000	0,026	0,106
-386,248	-200,000	0,014	0,124
-385,233	53,804	-0,066	-0,045
-384,219	201,274	-0,045	0,049
-383,204	-135,468	0,128	0,011
-382,190	174,312	-0,074	0,076
-381,175	-146,500	0,081	-0,005
-380,160	85,607	-0,093	0,073
-379,146	413,644	-0,016	0,025
-378,131	-90,442	-0,056	-0,012
-377,117	-200,000	-0,011	-0,041
-376,102	230,513	-0,071	-0,083
-375,088	-110,425	-0,177	-0,026
-374,073	0,251	0,054	-0,027
-373,058	-85,687	0,040	-0,009
-372,044	800,000	-0,043	0,087
-371,029	425,485	-0,051	-0,079
-370,015	112,740	0,026	-0,023
-369,000	-22,712	-0,008	-0,003
-367,985	-6,809	0,047	-0,023
-366,971	306,832	-0,051	-0,067
-365,956	800,000	0,070	-0,174
-364,942	800,000	0,057	0,128
-363,927	-2,257	0,088	0,044
-362,912	-200,000	0,006	-0,040
-361,898	-200,000	-0,001	-0,164
-360,883	-45,240	-0,075	-0,026
-359,869	-25,461	-0,080	-0,034
-358,854	-60,809	0,151	0,045
-357,839	800,000	0,023	0,061
-356,825	-200,000	-0,003	0,135
-355,810	198,702	0,047	0,051
-354,796	396,186	0,071	-0,106
-353,781	601,950	-0,015	-0,026
-352,766	-13,692	-0,107	-0,049
-351,752	-53,077	0,069	0,022
-350,737	-172,154	0,143	0,003
-349,723	81,605	0,080	0,061
-348,708	-200,000	-0,021	0,116
-347,693	-149,798	0,023	-0,001
-346,679	99,881	-0,120	-0,099
-345,664	599,663	0,043	0,077
-344,650	22,716	0,044	-0,026
-343,635	176,903	0,033	0,034
-342,620	800,000	0,051	0,113
-341,606	455,170	-0,042	-0,067
-340,591	800,000	-0,040	0,117
-339,577	-100,202	0,076	0,013
-338,562	71,900	-0,098	0,073
-337,548	-200,000	-0,010	-0,181
-336,533	800,000	0,055	0,121
-335,518	-200,000	0,018	0,070
-334,504	-32,223	-0,073	0,029
-333,489	-72,032	0,079	0,021
-332,475	-200,000	0,003	-0,146
-331,460	122,219	-0,021	0,019
-330,445	275,583	-0,086	0,109
-329,431	-200,000	-0,021	0,202
-328,416	-24,395	0,253	0,107
-327,402	113,156	0,038	0,033
-326,387	-61,973	0,015	0,005
-325,372	800,000	-0,057	-0,139
-324,358	-200,000	-0,007	0,067
-323,343	89,678	-0,050	-0,040
-322,329	800,000	-0,029	-0,060
-321,314	138,394	0,107	0,100
-320,299	-200,000	-0,034	0,185
-319,285	40,654	-0,063	0,040
-318,270	800,000	0,029	0,067
-317,256	-64,240	-0,104	-0,030
-316,241	-200,000	0,019	-0,154
-315,226	146,302	0,104	0,100
-314,212	-200,000	-0,005	0,131
-313,197	179,013	0,087	0,090
-312,183	419,242	-0,084	-0,128
-311,168	-200,000	-0,009	-0,057
-310,153	-150,746	-0,192	0,010
-309,139	56,703	0,112	-0,078
-308,124	-147,096	0,058	-0,003
-307,110	-13,522	0,019	0,009
-306,095	-200,000	-0,013	0,074
-305,080	-9,200	-0,080	0,038
-304,066	217,367	0,083	-0,095
-303,051	61,217	-0,086	0,061
-302,037	107,887	-0,049	-0,042
-301,022	338,484	0,040	0,055
-300,008	-200,000	0,023	0,109
-298,993	574,730	-0,052	0,090
-297,978	800,000	-0,030	0,073
-296,964	34,629	-0,152	-0,094
-295,949	520,666	-0,030	-0,050
-294,935	-200,000	-0,008	-0,051
-293,920	-61,335	0,119	0,035
-292,905	98,225	0,020	-0,016
-291,891	-96,217	0,112	0,021
-290,876	-142,717	-0,024	0,002
-289,862	-58,230	-0,111	0,034
-288,847	800,000	0,012	-0,034
-287,832	-200,000	-0,034	0,136
-286,818	-200,000	-0,015	-0,055
-285,803	295,261	-0,061	0,080
-284,789	-185,502	0,207	0,002
-283,774	-200,000	-0,003	0,121
-282,759	-2,347	-0,122	-0,061
-281,745	800,000	0,029	-0,066
-280,730	800,000	-0,072	-0,145
-279,716	-191,730	0,240	-0,002
-278,701	-51,621	-0,018	-0,006
-277,686	-200,000	-0,014	0,109
-276,672	800,000	-0,003	0,007
-275,657	-200,000	-0,016	-0,097
-274,643	66,844	-0,050	-0,036
-273,628	-17,048	-0,141	-0,063
-272,613	135,203	0,051	0,047
-271,599	800,000	0,015	-0,040
-270,584	-54,389	-0,121	0,039
-269,570	182,396	-0,094	0,099
-268,555	294,164	-0,017	0,022
-267,540	-200,000	0,002	0,013
-266,526	800,000	0,015	0,034
-265,511	800,000	-0,061	0,139
-264,497	800,000	0,007	0,019
-263,482	120,993	0,073	-0,065
-262,467	-86,565	-0,059	-0,013
-261,453	-141,050	0,087	0,006
-260,438	243,741	-0,033	0,040
-259,424	37,373	-0,038	0,024
-258,409	-200,000	-0,040	-0,175
-257,395	-59,414	-0,084	-0,025
-256,380	127,299	0,063	0,057
-255,365	-200,000	0,012	0,045
-254,351	800,000	0,050	0,137
-253,336	-200,000	0,010	-0,073
-252,322	86,699	0,104	-0,082
-251,307	-200,000	-0,007	-0,027
-250,292	112,639	0,080	-0,069
-249,278	800,000	0,004	-0,010
-248,263	-131,965	0,050	-0,005
-247,249	-57,568	-0,093	-0,029
-246,234	-200,000	0,008	0,040
-245,219	107,647	-0,080	0,068
-244,205	49,661	-0,082	-0,055
-243,190	-200,000	-0,007	0,024
-242,176	-200,000	-0,024	0,134
-241,161	260,365	-0,067	0,082
-240,146	-42,589	0,065	0,023
-239,132	569,484	-0,027	0,048
-238,117	800,000	0,045	-0,105
-237,103	299,288	-0,034	-0,045
-236,088	-153,448	-0,063	0,003
-235,073	-23,525	0,155	0,066
-234,059	596,339	0,058	-0,102
-233,044	-85,572	0,161	-0,035
-232,030	-82,719	0,104	-0,024
-231,015	-80,845	0,105	0,024
-230,000	800,000	0,022	-0,051
-228,986	-200,000	-0,006	0,168
-227,971	25,281	0,066	0,039
-226,957	-200,000	0,012	0,093
-225,942	-200,000	0,012	0,078
-224,927	800,000	-0,022	0,067
-223,913	128,635	0,102	0,092
-222,898	-200,000	0,016	-0,106
-221,884	-164,192	0,034	0,001
-220,869	-88,444	0,164	0,035
-219,855	-46,846	0,067	0,023
-218,840	-200,000	-0,009	0,092
-217,825	-200,000	0,017	0,060
-216,811	93,393	-0,066	-0,053
-215,796	82,076	-0,212	-0,163
-214,782	800,000	0,055	-0,134
-213,767	-40,876	0,164	-0,060
-212,752	253,961	0,091	-0,111
-211,738	-200,000	0,002	-0,120
-210,723	56,404	-0,125	-0,086
-209,709	-200,000	-0,002	0,050
-208,694	153,052	-0,045	-0,044
-207,679	148,782	0,029	-0,027
-206,665	21,354	-0,187	-0,108
-205,650	305,483	0,025	0,033
-204,636	139,465	0,075	0,070
-203,621	133,464	-0,087	0,080
-202,606	800,000	-0,013	-0,027
-201,592	-200,000	-0,004	-0,150
-200,577	800,000	-0,011	-0,032
-199,563	799,307	0,032	-0,064
-198,548	318,207	0,101	0,136
-197,533	263,591	0,020	0,025
-196,519	94,165	0,042	0,034
-195,504	-131,055	-0,041	-0,004
-194,490	-200,000	0,006	-0,222
-193,475	75,005	-0,135	-0,101
-192,460	59,259	0,083	0,058
-191,446	-72,713	0,140	-0,036
-190,431	-25,178	0,091	0,038
-189,417	-200,000	0,000	-0,029
-188,402	748,446	-0,066	-0,126
-187,387	421,742	-0,026	-0,040
-186,373	78,803	0,012	-0,009
-185,358	190,380	0,091	-0,097
-184,344	230,418	0,076	0,089
-183,329	800,000	-0,015	-0,030
-182,315	784,867	-0,055	-0,108
-181,300	138,397	0,081	-0,075
-180,285	412,744	-0,064	0,097
-179,271	-39,286	0,097	-0,036
-178,256	-153,283	0,147	-0,007
-177,242	-127,297	0,056	0,006
-176,227	-200,000	-0,040	0,145
-175,212	220,946	-0,136	0,155
-174,198	533,186	-0,043	0,072
-173,183	-37,365	-0,180	-0,068
-172,169	-200,000	0,025	-0,102
-171,154	-200,000	-0,007	0,057
-170,139	-93,495	0,055	-0,011
-169,125	146,897	0,074	-0,070
-168,110	-23,412	0,033	-0,014
-167,096	-24,742	0,133	0,056
-166,081	-200,000	0,011	-0,188
-165,066	-3,000	0,069	0,034
-164,052	-200,000	0,037	-0,133
-163,037	-200,000	-0,008	-0,081
-162,023	-121,583	0,225	-0,026
-161,008	14,364	0,109	-0,060
-159,993	166,866	-0,049	0,049
-158,979	-200,000	0,003	-0,185
-157,964	-200,000	-0,034	-0,172
-156,950	647,418	-0,010	-0,018
-155,935	83,390	-0,067	0,052
-154,920	-200,000	0,014	0,074
-153,906	136,497	-0,040	0,037
-152,891	800,000	0,047	-0,110
-151,877	-63,264	0,027	-0,008
-150,862	-200,000	-0,021	-0,080
-149,847	-115,221	0,056	-0,007
-148,833	-115,710	-0,119	0,016
-147,818	-110,730	0,080	0,012
-146,804	-200,000	-0,020	0,166
-145,789	-200,000	0,011	0,101
-144,775	123,512	-0,044	0,039
-143,760	-120,978	0,085	-0,010
-142,745	-9,918	0,019	0,009
-141,731	128,146	0,073	-0,066
-140,716	-175,883	0,154	0,003
-139,702	-0,918	0,084	0,042
-138,687	349,772	-0,074	0,104
-137,672	-183,537	0,075	-0,001
-136,658	476,918	-0,076	0,122
-135,643	105,913	0,079	-0,066
-134,629	-85,009	0,096	-0,021
-133,614	703,746	0,041	0,077
-132,599	-71,439	0,063	0,017
-131,585	-200,000	-0,010	-0,174
-130,570	1,448	-0,020	-0,010
-129,556	205,314	-0,029	-0,032
-128,541	-200,000	-0,042	0,153
-127,526	-200,000	0,008	0,080
-126,512	11,345	-0,066	-0,036
-125,497	33,771	0,283	-0,174
-124,483	224,676	-0,071	-0,081
-123,468	800,000	0,027	-0,056
-122,453	-200,000	0,007	-0,027
-121,439	-8,830	-0,088	0,041
-120,424	80,293	-0,046	-0,035
-119,410	15,734	-0,077	-0,043
-118,395	67,746	-0,076	0,055
-117,380	800,000	0,054	0,110
-116,366	-124,073	-0,057	0,006
-115,351	222,676	-0,082	-0,094
-114,337	92,382	-0,018	-0,014
-113,322	-200,000	0,013	-0,090
-112,307	-75,336	0,117	-0,029
-111,293	-68,931	0,033	-0,009
-110,278	-77,322	0,051	0,012
-109,264	-200,000	-0,019	-0,142
-108,249	441,067	-0,037	-0,058
-107,234	-200,000	0,024	0,082
-106,220	-176,706	-0,072	-0,001
-105,205	-51,875	0,109	0,036
-104,191	-105,475	-0,062	0,010
-103,176	-0,147	0,116	-0,058
-102,162	251,895	-0,076	0,091
-101,147	284,553	-0,068	0,087
-100,132	-200,000	0,022	-0,089
-99,118	800,000	-0,016	-0,042
-98,103	800,000	0,018	-0,040
-97,089	-18,961	0,017	0,007
-96,074	621,016	0,020	0,035
-95,059	-118,874	0,113	0,014
-94,045	-56,350	-0,050	-0,016
-93,030	561,279	-0,063	-0,108
-92,016	800,000	0,044	0,096
-91,001	198,256	0,072	0,078
-89,986	-28,199	0,066	-0,027
-88,972	-200,000	0,008	0,047
-87,957	800,000	-0,007	-0,015
-86,943	-200,000	-0,009	-0,070
-85,928	382,484	-0,054	-0,078
-84,913	800,000	0,032	-0,069
-83,899	464,401	0,043	0,068
-82,884	-200,000	-0,018	0,144
-81,870	800,000	-0,029	0,069
-80,855	-135,208	0,104	-0,009
-79,840	-137,161	0,085	-0,007
-78,826	461,185	0,024	-0,037
-77,811	714,173	-0,021	-0,039
-76,797	-108,534	0,121	-0,018
-75,782	98,898	0,069	-0,056
-74,767	800,000	0,062	0,169
-73,753	-200,000	-0,017	0,164
-72,738	-63,631	0,132	-0,038
-71,724	500,542	-0,067	-0,109
-70,709	68,532	-0,118	0,085
-69,694	266,262	0,042	-0,052
-68,680	262,456	0,056	0,069
-67,665	-200,000	0,021	0,066
-66,651	-200,000	-0,028	0,093
-65,636	-184,432	-0,128	0,001
-64,622	-31,329	0,045	0,018
-63,607	-21,814	-0,124	0,053
-62,592	-122,524	-0,118	0,013
-61,578	-58,920	-0,068	-0,020
-60,563	294,583	-0,011	0,015
-59,549	513,580	0,085	0,140
-58,534	48,141	-2,031	-1,339
-57,519	455,049	-1,176	-1,846
-56,505	-200,000	-0,221	-4,229
-55,490	617,411	0,868	1,544
-54,476	800,000	5,165	11,258
-53,461	-200,000	21,810	344,220
-52,446	800,000	763,130	2347,098
-51,432	548,192	1661,576	2819,260
-50,417	71,591	1657,576	1213,832
-49,403	17,349	1530,864	855,422
-48,388	11,353	1454,849	784,002
-47,373	19,388	1446,467	817,937
-46,359	14,863	1435,477	790,218
-45,344	9,654	1431,332	763,151
-44,330	9,604	1429,481	761,894
-43,315	9,551	1427,706	760,669
-42,300	9,573	1426,116	759,895
-41,286	9,607	1424,638	759,238
-40,271	9,578	1423,477	758,454
-39,257	9,605	1422,330	757,941
-38,242	9,585	1421,367	757,299
-37,227	9,593	1420,225	756,701
-36,213	9,570	1418,910	755,861
-35,198	9,596	1417,800	755,360
-34,184	9,610	1416,853	754,893
-33,169	9,543	1415,441	753,798
-32,154	9,554	1414,450	753,289
-31,140	9,649	1412,927	752,897
-30,125	9,636	1411,955	752,288
-29,111	9,598	1410,845	751,486
-28,096	9,579	1409,704	750,762
-27,082	9,564	1408,381	749,958
-26,067	9,520	1407,490	749,244
-25,052	9,577	1406,334	748,865
-24,038	9,552	1405,390	748,218
-23,023	9,558	1404,390	747,686
-22,009	9,541	1403,509	747,106
-20,994	9,537	1402,456	746,496
-19,979	9,521	1401,684	745,983
-18,965	9,554	1400,542	745,499
-17,950	9,475	1399,610	744,604
-16,936	9,489	1398,843	744,230
-15,921	9,450	1397,919	743,528
-14,906	9,456	1396,989	743,034
-13,892	9,502	1395,914	742,645
-12,877	9,481	1395,176	742,129
-11,863	9,458	1394,409	741,581
-10,848	9,394	1393,629	740,842
-9,833	9,400	1392,378	740,177
-8,819	9,374	1391,617	739,621
-7,804	9,392	1390,720	739,197
-6,790	9,405	1389,577	738,622
-5,775	9,358	1388,699	737,909
-4,760	9,373	1387,716	737,424
-3,746	9,399	1386,782	737,020
-2,731	9,371	1386,010	736,450
-1,717	9,377	1385,088	735,960
-0,702	9,378	1383,310	734,989
0,313	13,395	1295,535	706,684
1,327	29,329	686,773	410,588
2,342	45,499	118,571	77,073
3,356	1,396	16,432	8,304
4,371	6,385	3,695	1,929
5,386	18,123	0,971	0,544
6,400	-200,000	0,176	0,561
7,415	1,113	-0,148	-0,074
8,429	77,190	-0,207	-0,155
9,444	-46,510	-0,442	-0,152
10,459	-105,440	-0,262	-0,042
11,473	458,596	-0,146	-0,229
12,488	4,968	-0,268	-0,138
13,502	-12,860	-0,229	-0,105
14,517	72,074	-0,339	-0,248
15,531	161,233	-0,313	-0,308
16,546	54,645	-0,366	-0,248
17,561	-31,499	-0,322	-0,127
18,575	105,185	-0,173	-0,144
19,590	9,161	-0,305	-0,162
20,604	35,474	-0,141	-0,087
21,619	72,050	-0,477	-0,349
22,634	98,650	-0,389	-0,316
23,648	43,425	-0,497	-0,319
24,663	30,862	-0,405	-0,244
25,677	35,972	-0,405	-0,250
26,692	-12,369	-0,324	-0,148
27,707	-95,645	-0,312	-0,058
28,721	134,844	-0,250	-0,229
29,736	2,001	-0,452	-0,229
30,750	14,054	-0,396	-0,216
31,765	99,803	-0,348	-0,283
32,780	122,086	-0,302	-0,265
33,794	-7,718	-0,288	-0,136
34,809	108,655	-0,423	-0,355
35,823	132,166	-0,361	-0,327
36,838	165,342	-0,223	-0,222
37,853	28,064	-0,411	-0,243
38,867	77,993	-0,385	-0,288
39,882	90,879	-0,278	-0,219
40,896	638,195	-0,167	-0,299
41,911	35,280	-0,392	-0,241
42,926	346,452	-0,223	-0,310
43,940	62,267	-0,338	-0,237
44,955	70,200	-0,340	-0,246
45,969	17,687	-0,375	-0,209
46,984	34,289	-0,291	-0,178
47,999	181,441	-0,390	-0,404
49,013	70,399	-0,281	-0,204
50,028	3,669	-0,297	-0,152
51,042	256,339	-0,231	-0,279
52,057	144,206	-0,338	-0,317
53,071	15,175	-0,360	-0,198
54,086	21,621	-0,254	-0,145
55,101	19,017	-0,324	-0,182
56,115	10,257	-0,328	-0,175
57,130	-27,227	-0,301	-0,123
58,144	10,527	-0,417	-0,222
59,159	4,793	-0,273	-0,140
60,174	222,204	-0,213	-0,241
61,188	62,853	-0,286	-0,200
62,203	268,705	-0,223	-0,275
63,217	16,267	-0,381	-0,211
64,232	31,350	-0,344	-0,207
65,247	129,607	-0,230	-0,206
66,261	-8,219	-0,329	-0,155
67,276	255,766	-0,325	-0,392
68,290	40,272	-0,336	-0,212
69,305	-11,537	-0,331	-0,152
70,320	127,345	-0,137	-0,121
71,334	184,654	-0,256	-0,266
72,349	-92,874	-0,360	-0,070
73,363	131,902	-0,307	-0,277
74,378	61,116	-0,341	-0,237
75,393	51,341	-0,338	-0,225
76,407	120,181	-0,192	-0,167
77,422	-6,718	-0,363	-0,173
78,436	23,950	-0,250	-0,144
79,451	83,867	-0,231	-0,177
80,466	-8,172	-0,346	-0,163
81,480	179,921	-0,212	-0,218
82,495	-46,146	-0,254	-0,087
83,509	245,739	-0,233	-0,275
84,524	42,214	-0,308	-0,195
85,539	286,513	-0,198	-0,250
86,553	-42,500	-0,290	-0,103
87,568	658,927	-0,179	-0,324
88,582	-9,561	-0,389	-0,181
89,597	800,000	-0,144	-0,353
90,611	296,621	-0,170	-0,218
91,626	128,863	-0,298	-0,266
92,641	32,363	-0,229	-0,138
93,655	368,342	-0,228	-0,324
94,670	106,266	-0,257	-0,213
95,684	85,167	-0,274	-0,210
96,699	-96,444	-0,367	-0,067
97,714	43,712	-0,178	-0,113
98,728	33,206	-0,222	-0,135
99,743	38,720	-0,274	-0,171
100,757	-33,412	-0,391	-0,150
101,772	-9,063	-0,176	-0,082
102,787	-37,648	-0,312	-0,116
103,801	625,910	-0,158	-0,280
104,816	2,245	-0,378	-0,190
105,830	79,332	-0,215	-0,161
106,845	-15,888	-0,223	-0,099
107,860	270,912	-0,287	-0,354
108,874	214,880	-0,133	-0,148
109,889	11,645	-0,258	-0,138
110,903	-57,216	-0,306	-0,094
111,918	342,892	-0,246	-0,337
112,933	100,932	-0,178	-0,145
113,947	120,158	-0,183	-0,159
114,962	60,545	-0,239	-0,165
115,976	-39,941	-0,191	-0,069
116,991	-44,792	-0,302	-0,105
118,006	64,388	-0,356	-0,250
119,020	-142,365	-0,218	-0,015
120,035	29,216	-0,223	-0,132
121,049	-82,577	-0,247	-0,055
122,064	1,659	-0,264	-0,132
123,079	333,211	-0,126	-0,171
124,093	-23,317	-0,294	-0,123
125,108	319,634	-0,167	-0,222
126,122	145,565	-0,270	-0,252
127,137	16,226	-0,157	-0,086
128,151	164,492	-0,153	-0,150
129,166	26,292	-0,326	-0,190
130,181	-0,450	-0,166	-0,082
131,195	-26,792	-0,258	-0,105
132,210	-106,537	-0,357	-0,055
133,224	800,000	-0,111	-0,260
134,239	77,218	-0,218	-0,161
135,254	677,742	-0,096	-0,175
136,268	-31,883	-0,287	-0,112
137,283	177,374	-0,093	-0,094
138,297	-66,333	-0,130	0,036
139,312	57,679	-0,215	-0,146
140,327	352,091	-0,185	-0,255
141,341	-2,700	-0,305	-0,148
142,356	20,551	-0,216	-0,121
143,370	-192,473	-0,235	-0,001
144,385	21,187	-0,188	-0,106
145,400	9,306	-0,293	-0,154
146,414	60,559	-0,364	-0,251
147,429	136,341	-0,267	-0,243
148,443	99,938	-0,209	-0,169
149,458	183,712	-0,184	-0,189
150,473	800,000	-0,102	-0,268
151,487	103,130	-0,310	-0,252
152,502	555,918	-0,140	-0,235
153,516	25,247	-0,252	-0,145
154,531	194,580	-0,244	-0,258
155,546	100,730	-0,265	-0,214
156,560	-52,425	-0,208	-0,067
157,575	59,055	-0,117	0,080
158,589	-35,475	-0,194	-0,073
159,604	3,980	-0,340	-0,172
160,619	-39,288	-0,334	-0,121
161,633	-1,106	-0,334	-0,163
162,648	709,427	-0,122	-0,226
163,662	411,416	-0,108	-0,160
164,677	62,718	-0,299	-0,208
165,692	-188,684	-0,399	-0,003
166,706	117,490	-0,211	-0,181
167,721	30,746	-0,153	-0,091
168,735	800,000	-0,098	-0,213
169,750	190,010	-0,138	-0,144
170,764	146,886	-0,194	-0,181
171,779	307,778	-0,193	-0,251
172,794	70,983	-0,221	-0,159
173,808	-90,886	-0,222	-0,044
174,823	62,685	-0,240	-0,166
175,837	508,718	-0,218	-0,353
176,852	272,249	-0,138	-0,170
177,867	48,671	-0,235	-0,153
178,881	736,143	-0,121	-0,225
179,896	-5,276	-0,134	-0,064
180,910	456,422	-0,136	-0,210
181,925	115,929	-0,305	-0,259
182,940	75,569	-0,236	-0,173
183,954	37,877	-0,204	-0,125
184,969	15,424	-0,166	-0,090
185,983	-64,548	-0,120	0,034
186,998	-75,768	-0,140	-0,034
188,013	-95,043	-0,133	-0,025
189,027	71,706	-0,243	-0,175
190,042	-38,315	-0,205	-0,075
191,056	20,423	-0,235	-0,132
192,071	131,409	-0,060	-0,054
193,086	-48,387	-0,227	-0,076
194,100	-54,759	-0,202	0,063
195,115	46,385	-0,307	-0,197
196,129	4,338	-0,087	-0,044
197,144	241,152	-0,200	-0,232
198,159	355,112	-0,225	-0,312
199,173	320,390	-0,146	-0,193
200,188	-138,527	-0,105	0,008
201,202	-132,374	-0,249	-0,022
202,217	-78,288	-0,334	-0,079
203,232	118,103	-0,169	-0,144
204,246	69,464	-0,111	-0,079
205,261	-35,299	-0,299	-0,112
206,275	-75,489	-0,194	-0,047
207,290	-49,505	-0,117	-0,038
208,304	26,895	-0,273	-0,158
209,319	387,406	-0,093	-0,134
210,334	-99,332	-0,160	0,028
211,348	-99,060	-0,151	-0,026
212,363	316,838	-0,164	-0,215
213,377	800,000	-0,091	-0,216
214,392	111,695	-0,112	-0,093
215,407	-121,889	-0,227	0,026
216,421	-78,569	-0,133	0,031
217,436	57,681	-0,267	-0,181
218,450	-85,192	-0,277	-0,059
219,465	159,093	-0,292	-0,281
220,480	652,163	-0,081	-0,145
221,494	800,000	-0,036	-0,077
222,509	204,421	-0,093	-0,100
223,523	-11,630	-0,028	-0,013
224,538	-16,201	-0,292	-0,128
225,553	268,879	-0,155	-0,188
226,567	-159,627	-0,295	-0,011
227,582	295,372	-0,060	-0,076
228,596	147,032	-0,169	-0,157
229,611	529,330	-0,133	-0,218
230,626	-10,708	-0,187	-0,085
231,640	800,000	-0,066	-0,149
232,655	12,154	-0,184	-0,098
233,669	437,180	-0,205	-0,309
234,684	800,000	-0,040	-0,119
235,699	572,477	-0,086	-0,145
236,713	-35,173	-0,241	-0,090
237,728	54,307	-0,027	-0,018
238,742	-19,105	-0,159	-0,068
239,757	800,000	-0,071	-0,173
240,772	50,574	-0,325	-0,212
241,786	800,000	-0,112	-0,286
242,801	20,783	-0,289	-0,161
243,815	-59,320	-0,207	-0,061
244,830	601,295	-0,130	-0,224
245,844	34,686	-0,139	-0,084
246,859	800,000	-0,126	-0,243
247,874	27,456	-0,215	-0,124
248,888	-140,944	-0,174	-0,012
249,903	41,838	-0,081	-0,051
250,917	-68,591	-0,142	-0,038
251,932	-31,077	-0,149	-0,058
252,947	-109,789	-0,302	0,043
253,961	160,691	-0,143	-0,138
254,976	167,524	-0,191	-0,187
255,990	4,869	-0,121	-0,061
257,005	158,999	-0,164	-0,158
258,020	31,162	-0,224	-0,132
259,034	-200,000	-0,019	-0,132
260,049	296,490	-0,161	-0,204
261,063	47,250	-0,183	-0,117
262,078	359,948	-0,192	-0,265
263,093	226,943	-0,164	-0,184
264,107	60,674	-0,131	-0,089
265,122	-26,953	-0,185	-0,074
266,136	97,051	-0,055	-0,044
267,151	69,789	-0,105	-0,074
268,166	365,918	-0,121	-0,169
269,180	272,810	-0,109	-0,133
270,195	92,304	-0,119	-0,093
271,209	-33,217	-0,121	-0,046
272,224	104,182	-0,116	-0,094
273,239	18,876	-0,047	0,026
274,253	800,000	-0,141	-0,276
275,268	-150,857	-0,249	0,013
276,282	109,220	-0,154	-0,127
277,297	220,096	-0,186	-0,205
278,312	95,965	-0,180	-0,141
279,326	13,563	-0,154	-0,082
280,341	-55,502	-0,141	0,043
281,355	166,558	-0,058	-0,056
282,370	-137,776	-0,191	0,015
283,384	-200,000	-0,011	-0,149
284,399	269,789	-0,111	-0,134
285,414	-200,000	-0,006	-0,101
286,428	54,503	-0,227	-0,150
287,443	72,874	-0,097	-0,069
288,457	800,000	-0,011	-0,026
289,472	-10,436	-0,094	-0,043
290,487	117,057	-0,136	-0,115
291,501	-139,765	-0,135	-0,010
292,516	-79,291	-0,159	0,037
293,530	0,157	-0,135	0,066
294,545	659,419	-0,087	-0,154
295,560	8,186	-0,183	-0,094
296,574	-23,618	-0,112	-0,046
297,589	185,391	-0,134	-0,137
298,603	202,550	-0,180	-0,191
299,618	-86,451	-0,109	-0,023
300,633	69,072	-0,205	-0,145
301,647	7,254	-0,147	-0,075
302,662	283,791	-0,047	0,058
303,676	-54,345	-0,167	-0,052
304,691	501,520	-0,193	-0,307
305,706	321,138	-0,168	-0,220
306,720	52,598	0,052	-0,034
307,735	720,474	-0,104	-0,191
308,749	800,000	-0,052	-0,116
309,764	160,259	-0,118	-0,113
310,779	-200,000	0,002	-0,104
311,793	-19,604	-0,169	-0,071
312,808	242,008	-0,103	-0,118
313,822	800,000	-0,089	-0,198
314,837	68,337	-0,171	-0,120
315,852	254,389	-0,125	-0,147
316,866	-115,557	-0,104	0,013
317,881	-8,062	-0,132	0,061
318,895	203,683	-0,164	-0,175
319,910	18,743	-0,202	-0,111
320,925	-123,368	-0,207	0,022
321,939	-154,856	-0,237	-0,011
322,954	642,946	-0,126	-0,221
323,968	13,524	-0,234	-0,124
324,983	7,852	-0,223	-0,114
325,997	-19,511	-0,168	0,071
327,012	162,244	-0,202	-0,194
328,027	74,142	-0,198	-0,142
329,041	-200,000	0,009	-0,215
330,056	-69,858	-0,242	-0,063
331,070	285,936	-0,088	-0,109
332,085	-200,000	-0,002	-0,106
333,100	338,512	-0,089	-0,119
334,114	800,000	-0,066	-0,190
335,129	486,492	-0,104	-0,163
336,143	236,739	-0,086	-0,097
337,158	-200,000	0,036	-0,190
338,173	-18,465	-0,103	-0,044
339,187	298,005	-0,101	-0,128
340,202	487,553	-0,121	-0,190
341,216	-59,954	-0,201	-0,059
342,231	136,424	-0,129	-0,115
343,246	315,376	-0,118	-0,152
344,260	-37,373	-0,104	-0,038
345,275	-200,000	-0,035	0,127
346,289	-125,185	-0,135	-0,014
347,304	26,424	-0,115	-0,066
348,319	-88,746	-0,131	0,026
349,333	-68,426	-0,302	-0,080
350,348	-35,685	-0,070	-0,026
351,362	-105,391	-0,135	-0,021
352,377	42,841	-0,184	-0,115
353,392	56,715	-0,108	-0,072
354,406	-80,746	-0,124	0,028
355,421	208,181	1305,609	1397,013
356,435	160,185	1465,184	1397,505
