DTS Sentinel unit serial number:	SN410029Multiplexer serial number:	ORYXHardware model number:	OX2-SRSoftware version number:	ORYX F/W v4,00 Oryx Data Collector v3.7.2.0data status	okinstallation	B3 Nyhavnadifferential loss correction	single-endedforward channel	channel 1reverse channel	N/Adate	2023/11/30time	16:32:30forward acquisition time	300,00reverse acquisition time	0,00gamma	499,1914k internal	0,3205k external	0,3205temperature offset calibration	1,0000default loss term (dB/km)	0,3820temperature slope calibration	1,0000multiplexer offset coefficient	1,0000multiplexer slope coefficient	1,0000fibre end	0,00T internal ref (°C)	12,91T ext. ref 1 (°C)	-1,53T ext. ref 2 (°C)	-1,57length (m)	temperature (°C)	Stokes	anti-Stokes-744,400	304,030	-0,193	-0,260
-743,385	-200,000	-0,053	0,324
-742,371	456,402	-0,210	-0,340
-741,356	-200,000	0,029	0,267
-740,342	358,072	-0,178	-0,259
-739,327	-200,000	-0,007	0,288
-738,312	229,578	-0,123	-0,147
-737,298	698,073	0,132	0,253
-736,283	249,444	-0,215	-0,266
-735,269	-200,000	0,022	0,299
-734,254	73,998	-0,226	-0,172
-733,239	-24,216	-0,171	0,074
-732,225	-20,373	-0,297	-0,132
-731,210	-18,914	0,154	0,070
-730,196	800,000	-0,045	-0,133
-729,181	333,290	-0,053	0,074
-728,167	-200,000	0,003	-0,082
-727,152	-177,389	-0,131	-0,002
-726,137	-96,806	-0,108	0,020
-725,123	189,412	-0,157	-0,171
-724,108	800,000	-0,012	0,030
-723,094	-200,000	-0,015	-0,107
-722,079	-200,000	0,035	-0,217
-721,064	70,409	-0,092	-0,069
-720,050	-152,816	-0,027	-0,001
-719,035	-15,222	-0,163	-0,076
-718,021	-136,821	0,015	0,001
-717,006	9,021	0,030	0,017
-715,991	-200,000	0,040	-0,186
-714,977	-11,054	-0,071	-0,034
-713,962	72,799	-0,019	0,015
-712,948	800,000	-0,017	-0,050
-711,933	108,083	-0,043	-0,037
-710,918	226,849	-0,115	0,136
-709,904	218,691	-0,031	-0,036
-708,889	-113,310	-0,067	-0,009
-707,875	-200,000	-0,002	-0,182
-706,860	289,714	0,007	0,009
-705,845	167,568	-0,006	-0,006
-704,831	-60,651	0,122	-0,037
-703,816	-200,000	0,042	-0,150
-702,802	-62,249	-0,119	0,036
-701,787	265,283	-0,122	-0,154
-700,772	21,137	-0,149	-0,088
-699,758	-200,000	-0,000	-0,049
-698,743	2,062	-0,049	-0,026
-697,729	-116,110	0,064	0,009
-696,714	-200,000	0,033	0,156
-695,699	189,143	-0,085	-0,092
-694,685	-200,000	-0,005	0,106
-693,670	800,000	-0,066	-0,183
-692,656	-152,930	0,076	-0,004
-691,641	650,538	-0,021	0,038
-690,627	-200,000	0,008	0,031
-689,612	-143,207	-0,082	0,006
-688,597	-200,000	-0,004	-0,016
-687,583	283,430	0,023	-0,030
-686,568	-200,000	0,041	0,144
-685,554	637,743	-0,066	0,122
-684,539	-140,400	-0,077	-0,006
-683,524	-200,000	0,007	-0,028
-682,510	-23,971	0,096	0,041
-681,495	-200,000	0,010	0,052
-680,481	-200,000	-0,028	0,146
-679,466	800,000	0,079	-0,180
-678,451	51,642	-0,117	-0,081
-677,437	405,705	0,073	-0,112
-676,422	-54,868	0,039	0,013
-675,408	800,000	-0,036	0,075
-674,393	-82,619	-0,151	0,035
-673,378	800,000	0,022	-0,046
-672,364	-200,000	0,009	-0,123
-671,349	-96,028	-0,045	0,009
-670,335	-176,759	-0,119	0,002
-669,320	-200,000	-0,007	-0,030
-668,305	61,305	0,102	0,073
-667,291	58,054	0,029	0,020
-666,276	-200,000	0,014	0,065
-665,262	-33,705	-0,017	0,007
-664,247	2,502	0,069	0,036
-663,232	107,992	-0,070	0,060
-662,218	-93,355	0,061	0,012
-661,203	-44,732	-0,046	0,017
-660,189	516,041	0,019	0,032
-659,174	54,115	0,044	0,031
-658,159	625,580	0,019	0,035
-657,145	-146,825	0,083	0,005
-656,130	800,000	-0,024	-0,065
-655,116	-136,023	0,090	-0,008
-654,101	308,469	0,090	0,123
-653,086	800,000	0,062	-0,141
-652,072	91,987	-0,043	-0,035
-651,057	24,956	-0,200	-0,120
-650,043	-48,709	-0,094	-0,032
-649,028	800,000	-0,018	0,040
-648,014	-200,000	0,014	0,091
-646,999	335,985	0,020	-0,029
-645,984	-143,137	-0,172	-0,012
-644,970	30,602	0,033	0,020
-643,955	773,950	0,078	-0,154
-642,941	-55,982	-0,142	-0,046
-641,926	101,780	-0,093	0,079
-640,911	-200,000	0,008	0,089
-639,897	-200,000	0,001	-0,014
-638,882	-200,000	0,017	-0,124
-637,868	-108,950	-0,056	-0,009
-636,853	-28,633	-0,116	-0,048
-635,838	-185,846	-0,018	0,000
-634,824	356,059	0,060	-0,087
-633,809	44,572	-0,045	0,030
-632,795	109,111	0,157	-0,136
-631,780	230,708	0,044	-0,052
-630,765	782,155	0,020	0,041
-629,751	333,525	-0,013	-0,019
-628,736	156,203	-0,146	-0,146
-627,722	234,350	0,047	-0,056
-626,707	254,817	0,096	-0,120
-625,692	254,624	-0,075	-0,092
-624,678	200,905	0,024	-0,027
-623,663	-48,354	0,014	-0,005
-622,649	36,081	-0,140	0,089
-621,634	279,386	0,036	0,046
-620,619	-41,276	-0,133	-0,049
-619,605	-74,814	-0,228	0,059
-618,590	-200,000	0,044	0,150
-617,576	301,131	0,003	0,004
-616,561	-200,000	0,016	0,117
-615,546	800,000	-0,025	0,059
-614,532	-159,897	-0,127	-0,005
-613,517	104,985	-0,087	0,074
-612,503	12,266	-0,082	0,045
-611,488	-99,278	0,088	-0,016
-610,474	-200,000	0,016	-0,071
-609,459	284,918	-0,025	0,032
-608,444	-58,730	0,023	0,007
-607,430	130,613	-0,048	-0,044
-606,415	800,000	0,023	-0,056
-605,401	-100,783	0,087	0,015
-604,386	638,091	0,021	-0,039
-603,371	16,907	-0,092	-0,052
-602,357	800,000	0,014	0,030
-601,342	171,311	0,136	0,141
-600,328	19,119	-0,041	-0,024
-599,313	800,000	-0,022	0,063
-598,298	-59,716	-0,098	0,030
-597,284	189,444	0,039	-0,043
-596,269	-132,011	-0,092	-0,009
-595,255	-96,626	-0,135	-0,026
-594,240	16,917	-0,053	-0,030
-593,225	278,340	-0,045	-0,058
-592,211	-133,515	0,058	-0,005
-591,196	800,000	-0,036	-0,086
-590,182	69,550	0,044	0,032
-589,167	205,548	-0,031	-0,035
-588,152	-200,000	0,021	-0,108
-587,138	-200,000	-0,002	-0,131
-586,123	-200,000	-0,011	-0,087
-585,109	47,464	-0,050	0,034
-584,094	-87,594	0,025	0,005
-583,079	-200,000	0,026	-0,111
-582,065	800,000	0,046	0,147
-581,050	800,000	0,039	0,102
-580,036	-200,000	-0,040	0,152
-579,021	-24,798	-0,021	0,009
-578,006	-136,121	-0,176	-0,015
-576,992	33,907	-0,076	0,048
-575,977	800,000	-0,045	0,133
-574,963	-136,136	0,031	-0,003
-573,948	-200,000	0,026	-0,125
-572,934	-200,000	-0,034	0,143
-571,919	287,059	-0,058	0,076
-570,904	-104,528	-0,020	0,003
-569,890	102,734	-0,071	-0,060
-568,875	-200,000	-0,009	0,185
-567,861	800,000	-0,052	-0,104
-566,846	635,185	-0,050	0,093
-565,831	-95,765	-0,091	-0,017
-564,817	-200,000	-0,003	0,053
-563,802	156,556	0,110	-0,110
-562,788	-200,000	0,008	-0,217
-561,773	800,000	-0,037	-0,097
-560,758	337,234	0,077	0,108
-559,744	-200,000	0,004	0,104
-558,729	175,227	0,050	0,052
-557,715	-145,973	-0,249	0,016
-556,700	-30,714	0,104	-0,042
-555,685	-200,000	0,002	0,038
-554,671	-135,578	0,060	-0,005
-553,656	-200,000	-0,002	-0,101
-552,642	800,000	0,024	-0,049
-551,627	54,336	0,049	-0,034
-550,612	800,000	-0,032	-0,088
-549,598	-57,913	-0,093	-0,029
-548,583	225,042	0,080	0,094
-547,569	-200,000	0,002	-0,042
-546,554	800,000	-0,028	0,060
-545,539	210,585	0,047	-0,054
-544,525	-43,787	0,136	-0,049
-543,510	-200,000	0,007	-0,031
-542,496	-200,000	0,019	-0,061
-541,481	-200,000	-0,001	-0,039
-540,466	-200,000	0,010	-0,061
-539,452	53,012	0,102	-0,070
-538,437	106,949	0,071	-0,060
-537,423	-199,029	-0,091	0,000
-536,408	38,661	-0,025	-0,016
-535,393	-0,641	-0,089	-0,046
-534,379	49,157	-0,101	0,068
-533,364	-200,000	0,015	0,116
-532,350	-41,885	-0,019	-0,007
-531,335	-36,752	-0,091	-0,035
-530,321	-61,661	0,189	0,057
-529,306	98,697	-0,048	0,040
-528,291	-200,000	0,000	-0,037
-527,277	-200,000	0,018	0,072
-526,262	324,608	0,036	0,050
-525,248	-200,000	0,014	-0,091
-524,233	-97,140	0,118	-0,022
-523,218	21,930	-0,109	-0,064
-522,204	209,384	0,069	-0,078
-521,189	-200,000	0,016	-0,128
-520,175	2,221	-0,008	-0,004
-519,160	800,000	0,016	-0,044
-518,145	352,757	0,037	0,052
-517,131	-200,000	-0,003	0,126
-516,116	54,559	-0,082	0,057
-515,102	460,678	0,111	0,179
-514,087	-28,521	-0,041	0,017
-513,072	-200,000	0,018	-0,114
-512,058	289,018	-0,062	0,081
-511,043	-200,000	-0,009	0,076
-510,029	800,000	-0,010	0,030
-509,014	-51,663	0,051	0,017
-507,999	-200,000	0,031	-0,102
-506,985	-200,000	0,019	0,084
-505,970	44,321	-0,114	-0,075
-504,956	-200,000	0,025	-0,089
-503,941	-154,185	-0,067	0,003
-502,926	-41,935	0,119	-0,044
-501,912	-20,335	0,116	-0,051
-500,897	-200,000	0,003	-0,023
-499,883	72,482	-0,087	0,065
-498,868	800,000	0,050	0,123
-497,853	87,258	-0,068	0,054
-496,839	62,451	-0,095	0,068
-495,824	-70,553	0,090	0,024
-494,810	800,000	0,046	0,093
-493,795	98,790	0,085	0,070
-492,781	-200,000	-0,009	0,127
-491,766	7,734	-0,067	-0,036
-490,751	30,952	-0,077	0,047
-489,737	28,956	-0,029	0,018
-488,722	504,415	-0,046	0,076
-487,708	54,374	-0,034	0,023
-486,693	-134,686	0,055	0,005
-485,678	-200,000	0,017	-0,101
-484,664	78,966	-0,096	-0,074
-483,649	-200,000	0,009	-0,064
-482,635	63,751	0,028	-0,020
-481,620	-200,000	-0,006	-0,048
-480,605	-200,000	0,032	0,140
-479,591	-200,000	-0,005	0,081
-478,576	-18,532	0,027	0,012
-477,562	487,450	-0,047	0,078
-476,547	37,683	-0,140	-0,090
-475,532	257,217	0,038	0,047
-474,518	56,301	0,054	0,038
-473,503	-75,943	-0,047	-0,012
-472,489	-80,928	0,094	0,022
-471,474	40,007	-0,127	0,082
-470,459	49,419	-0,036	0,025
-469,445	-42,032	-0,150	-0,055
-468,430	800,000	0,017	-0,043
-467,416	800,000	-0,016	-0,045
-466,401	122,464	0,161	0,145
-465,386	533,886	-0,052	0,089
-464,372	-70,085	-0,042	-0,011
-463,357	650,472	0,010	0,019
-462,343	-200,000	0,038	-0,147
-461,328	800,000	0,062	-0,126
-460,313	-56,301	-0,053	0,017
-459,299	-14,367	0,080	-0,037
-458,284	-65,065	-0,108	0,031
-457,270	800,000	0,047	-0,102
-456,255	-200,000	-0,001	-0,094
-455,241	200,121	-0,052	0,057
-454,226	800,000	0,045	-0,100
-453,211	-58,799	-0,006	-0,002
-452,197	175,696	0,083	0,087
-451,182	327,044	0,019	0,027
-450,168	259,639	0,059	0,074
-449,153	545,717	0,050	0,087
-448,138	-99,853	0,113	-0,020
-447,124	0,848	-0,042	0,022
-446,109	-200,000	-0,014	-0,103
-445,095	-178,740	0,086	0,001
-444,080	-200,000	-0,019	0,070
-443,065	-200,000	-0,006	0,134
-442,051	-200,000	-0,014	-0,080
-441,036	800,000	0,041	-0,086
-440,022	-102,714	-0,144	0,024
-439,007	-2,997	0,098	0,049
-437,992	800,000	0,038	0,112
-436,978	-158,889	0,091	0,004
-435,963	-59,423	0,107	-0,033
-434,949	18,474	0,050	0,029
-433,934	416,070	0,052	-0,079
-432,919	83,284	-0,046	0,036
-431,905	491,963	0,054	0,089
-430,890	641,331	0,059	-0,108
-429,876	-79,995	0,087	0,021
-428,861	800,000	0,110	0,222
-427,846	-200,000	-0,013	0,071
-426,832	39,044	-0,020	0,013
-425,817	12,919	-0,045	-0,025
-424,803	-41,666	-0,117	0,043
-423,788	-200,000	-0,011	0,052
-422,773	91,954	-0,048	0,039
-421,759	-44,486	0,107	0,038
-420,744	35,271	-0,018	0,011
-419,730	-35,169	-0,015	-0,006
-418,715	-95,236	-0,085	-0,016
-417,701	481,887	0,023	-0,037
-416,686	322,004	0,071	0,097
-415,671	800,000	0,027	0,079
-414,657	-200,000	-0,001	0,014
-413,642	388,906	-0,098	0,146
-412,628	-200,000	0,002	-0,109
-411,613	-200,000	-0,010	-0,110
-410,598	15,354	0,080	-0,045
-409,584	-200,000	-0,037	0,120
-408,569	280,422	0,133	0,171
-407,555	800,000	-0,004	0,008
-406,540	800,000	-0,034	0,099
-405,525	800,000	-0,028	0,071
-404,511	-131,650	-0,143	-0,013
-403,496	800,000	0,070	-0,213
-402,482	336,718	-0,097	-0,135
-401,467	223,577	-0,051	-0,059
-400,452	327,592	0,088	-0,121
-399,438	-200,000	0,013	0,056
-398,423	-200,000	0,009	-0,182
-397,409	-200,000	0,029	-0,109
-396,394	-200,000	0,009	-0,034
-395,379	-18,591	0,023	0,010
-394,365	596,621	0,029	0,051
-393,350	193,621	-0,088	0,096
-392,336	312,334	-0,036	0,048
-391,321	-200,000	-0,022	0,114
-390,306	164,972	-0,006	-0,006
-389,292	115,705	0,115	-0,101
-388,277	218,901	0,035	0,041
-387,263	181,828	0,087	0,092
-386,248	-200,000	-0,013	0,078
-385,233	130,564	0,119	0,109
-384,219	22,263	0,072	-0,042
-383,204	-0,053	0,010	-0,005
-382,190	-190,544	-0,104	-0,001
-381,175	-4,368	-0,123	-0,061
-380,160	800,000	-0,058	-0,163
-379,146	263,904	0,039	0,049
-378,131	147,180	-0,123	0,119
-377,117	777,870	0,064	0,126
-376,102	-18,569	-0,105	-0,047
-375,088	-200,000	0,012	-0,134
-374,073	-13,321	0,070	-0,032
-373,058	156,877	0,114	-0,113
-372,044	178,217	0,190	0,199
-371,029	-127,606	-0,068	0,007
-370,015	-153,464	0,213	-0,010
-369,000	-200,000	-0,011	-0,061
-367,985	14,870	-0,144	0,080
-366,971	-154,857	0,086	-0,004
-365,956	115,396	0,109	0,095
-364,942	800,000	-0,080	0,163
-363,927	12,239	0,076	0,042
-362,912	-200,000	0,001	-0,024
-361,898	37,432	-0,043	0,027
-360,883	-187,603	0,061	0,001
-359,869	215,475	0,063	0,072
-358,854	-200,000	0,012	0,151
-357,839	800,000	-0,015	0,033
-356,825	-28,645	0,138	0,057
-355,810	-200,000	0,023	-0,115
-354,796	199,811	-0,057	0,062
-353,781	658,449	-0,046	-0,084
-352,766	-63,681	0,033	0,010
-351,752	800,000	0,042	-0,127
-350,737	800,000	0,031	-0,086
-349,723	-200,000	-0,035	0,174
-348,708	800,000	0,014	-0,029
-347,693	-98,594	-0,072	-0,013
-346,679	277,843	-0,063	-0,080
-345,664	-46,731	0,063	-0,022
-344,650	-200,000	-0,029	0,153
-343,635	129,064	0,054	0,049
-342,620	-60,173	0,140	-0,042
-341,606	0,681	0,069	-0,035
-340,591	329,756	-0,049	-0,068
-339,577	-200,000	0,009	-0,096
-338,562	705,922	-0,063	-0,119
-337,548	-200,000	0,017	-0,165
-336,533	120,680	0,067	0,059
-335,518	-200,000	-0,004	0,063
-334,504	800,000	0,035	0,081
-333,489	800,000	-0,022	-0,066
-332,475	207,399	-0,149	-0,167
-331,460	-28,195	-0,084	0,035
-330,445	157,857	0,084	0,084
-329,431	-19,883	0,086	0,038
-328,416	468,452	-0,055	0,089
-327,402	22,787	-0,065	-0,038
-326,387	-200,000	0,023	-0,114
-325,372	800,000	0,012	-0,037
-324,358	800,000	-0,024	0,052
-323,343	24,313	-0,053	-0,031
-322,329	-101,518	0,171	0,030
-321,314	-139,833	0,052	0,004
-320,299	-137,112	0,215	0,017
-319,285	-114,942	0,030	0,004
-318,270	-62,306	-0,143	-0,042
-317,256	-200,000	-0,010	-0,100
-316,241	165,182	0,105	-0,106
-315,226	217,724	0,043	-0,050
-314,212	-115,481	0,092	0,012
-313,197	-147,072	-0,072	-0,004
-312,183	-106,087	-0,183	0,029
-311,168	5,497	-0,046	0,024
-310,153	79,450	-0,061	-0,047
-309,139	-42,329	-0,090	0,033
-308,124	16,540	-0,109	-0,061
-307,110	-162,939	0,047	0,002
-306,095	-38,407	0,030	-0,011
-305,080	-19,439	0,092	0,041
-304,066	122,107	-0,049	-0,044
-303,051	224,451	-0,038	0,043
-302,037	-107,002	0,046	0,007
-301,022	-200,000	-0,024	0,134
-300,008	800,000	-0,016	-0,046
-298,993	-200,000	0,020	0,069
-297,978	-32,516	0,081	0,032
-296,964	477,842	-0,038	-0,062
-295,949	-200,000	-0,003	-0,147
-294,935	11,251	0,058	-0,031
-293,920	-15,285	0,060	-0,027
-292,905	-76,812	0,217	-0,054
-291,891	15,595	0,025	-0,014
-290,876	800,000	-0,023	0,049
-289,862	800,000	-0,019	0,058
-288,847	-138,595	-0,170	-0,013
-287,832	608,694	0,028	-0,051
-286,818	206,111	-0,073	0,081
-285,803	-116,317	0,097	-0,013
-284,789	-87,665	0,129	0,028
-283,774	800,000	0,045	0,111
-282,759	-121,545	-0,082	0,010
-281,745	-200,000	-0,010	-0,055
-280,730	800,000	-0,039	-0,116
-279,716	-120,039	0,048	-0,006
-278,701	-200,000	0,030	0,126
-277,686	-92,761	0,165	-0,033
-276,672	57,394	-0,049	0,034
-275,657	-200,000	0,011	-0,136
-274,643	-63,671	-0,084	0,024
-273,628	-200,000	0,002	-0,028
-272,613	-200,000	-0,013	0,071
-271,599	95,872	-0,065	-0,053
-270,584	444,778	0,033	-0,053
-269,570	-200,000	0,001	-0,011
-268,555	244,610	0,040	-0,048
-267,540	-200,000	0,006	0,074
-266,526	155,269	-0,085	-0,084
-265,511	306,690	0,121	-0,161
-264,497	577,367	-0,033	0,059
-263,482	253,959	-0,080	0,098
-262,467	-190,929	0,078	-0,001
-261,453	-57,121	-0,130	0,041
-260,438	800,000	-0,052	-0,110
-259,424	-200,000	-0,031	-0,138
-258,409	-70,415	0,110	0,030
-257,395	-200,000	-0,033	-0,114
-256,380	640,534	-0,038	-0,070
-255,365	-200,000	0,043	0,199
-254,351	266,595	-0,087	0,108
-253,336	-103,915	0,096	-0,016
-252,322	-116,141	-0,080	-0,010
-251,307	-87,386	-0,120	-0,026
-250,292	-161,874	0,024	0,001
-249,278	-118,554	0,079	0,010
-248,263	554,129	-0,068	0,117
-247,249	-200,000	-0,041	0,145
-246,234	800,000	0,009	-0,020
-245,219	84,919	-0,112	-0,087
-244,205	800,000	0,030	0,078
-243,190	177,974	-0,046	0,048
-242,176	-67,977	0,065	0,018
-241,161	146,602	0,061	0,058
-240,146	-200,000	0,007	0,155
-239,132	-136,289	-0,120	-0,010
-238,117	70,674	-0,137	-0,101
-237,103	-20,715	0,067	0,029
-236,088	-37,928	0,098	0,037
-235,073	-200,000	0,000	-0,082
-234,059	-63,925	-0,019	-0,006
-233,044	-129,520	0,040	0,004
-232,030	176,053	0,036	-0,038
-231,015	78,439	-0,142	0,108
-230,000	800,000	0,008	0,019
-228,986	-170,461	-0,106	-0,003
-227,971	404,534	0,099	0,149
-226,957	-200,000	-0,016	0,077
-225,942	-200,000	-0,000	0,113
-224,927	-105,995	-0,145	0,023
-223,913	466,836	-0,062	0,099
-222,898	4,285	0,067	-0,035
-221,884	-137,766	-0,092	0,007
-220,869	-200,000	-0,007	0,087
-219,855	-27,622	-0,126	0,052
-218,840	166,810	0,053	0,054
-217,825	96,055	0,032	-0,026
-216,811	-14,745	-0,124	-0,056
-215,796	-130,377	-0,157	-0,015
-214,782	-112,053	-0,114	-0,016
-213,767	51,970	-0,048	0,032
-212,752	-129,911	0,129	-0,012
-211,738	45,512	0,021	-0,014
-210,723	-200,000	-0,000	0,161
-209,709	210,368	-0,045	-0,051
-208,694	24,011	-0,164	-0,096
-207,679	-200,000	0,025	-0,085
-206,665	445,392	0,087	0,136
-205,650	-50,500	0,186	0,062
-204,636	800,000	0,052	0,123
-203,621	-97,050	-0,109	-0,020
-202,606	-200,000	0,009	-0,101
-201,592	-3,492	0,119	-0,059
-200,577	650,586	0,045	0,083
-199,563	-200,000	-0,017	-0,149
-198,548	123,848	-0,081	-0,072
-197,533	-200,000	-0,020	0,106
-196,519	391,127	-0,032	-0,047
-195,504	-116,300	0,032	-0,004
-194,490	800,000	-0,050	-0,137
-193,475	-97,496	0,043	-0,008
-192,460	-151,423	0,054	0,003
-191,446	-162,400	0,143	0,005
-190,431	-200,000	-0,002	0,130
-189,417	-200,000	0,021	-0,137
-188,402	800,000	-0,035	-0,085
-187,387	-200,000	-0,009	-0,081
-186,373	430,725	0,025	-0,039
-185,358	-200,000	-0,014	-0,151
-184,344	-125,410	0,200	-0,021
-183,329	800,000	0,054	-0,132
-182,315	-6,151	0,036	0,017
-181,300	-200,000	0,013	-0,111
-180,285	800,000	0,056	-0,175
-179,271	-200,000	-0,008	-0,125
-178,256	60,480	0,118	-0,083
-177,242	592,798	-0,049	-0,087
-176,227	-91,731	0,086	-0,017
-175,212	182,631	0,027	0,028
-174,198	-128,513	-0,098	0,010
-173,183	-82,119	-0,135	0,031
-172,169	-200,000	0,002	0,012
-171,154	800,000	0,048	-0,107
-170,139	800,000	0,025	-0,051
-169,125	580,640	0,093	0,163
-168,110	153,298	0,111	0,108
-167,096	800,000	0,022	-0,048
-166,081	-97,195	-0,130	-0,024
-165,066	-200,000	0,025	-0,091
-164,052	800,000	-0,079	0,186
-163,037	145,876	0,065	-0,061
-162,023	96,783	0,098	-0,080
-161,008	-119,020	0,054	0,007
-159,993	-200,000	-0,005	0,050
-158,979	-96,781	-0,074	0,014
-157,964	-200,000	0,012	-0,095
-156,950	-119,739	0,064	-0,008
-155,935	-200,000	-0,012	0,149
-154,920	-200,000	-0,013	-0,129
-153,906	800,000	-0,032	0,075
-152,891	-200,000	-0,026	-0,084
-151,877	-22,020	-0,048	0,021
-150,862	33,871	-0,042	0,026
-149,847	800,000	-0,060	-0,174
-148,833	-51,045	-0,100	0,033
-147,818	141,746	0,114	-0,107
-146,804	-15,440	0,166	0,075
-145,789	71,348	-0,064	0,047
-144,775	800,000	-0,014	0,030
-143,760	-200,000	-0,013	-0,126
-142,745	-200,000	0,008	0,104
-141,731	555,641	-0,054	-0,093
-140,716	291,019	0,043	-0,056
-139,702	-92,619	0,111	-0,022
-138,687	36,042	-0,044	0,027
-137,672	-61,566	0,086	-0,026
-136,658	-133,341	-0,074	0,007
-135,643	-72,664	-0,034	-0,009
-134,629	-200,000	0,019	-0,091
-133,614	174,783	0,051	0,053
-132,599	562,352	-0,027	-0,046
-131,585	-74,227	-0,013	-0,003
-130,570	289,401	-0,079	-0,102
-129,556	-125,206	0,049	-0,005
-128,541	-22,461	-0,145	0,062
-127,526	-200,000	-0,028	-0,167
-126,512	-70,546	0,138	-0,037
-125,497	316,389	-0,072	-0,097
-124,483	800,000	0,035	-0,070
-123,468	108,056	-0,033	0,028
-122,453	-200,000	0,021	0,076
-121,439	20,292	0,048	-0,028
-120,424	-64,319	0,116	-0,033
-119,410	86,202	-0,012	-0,009
-118,395	-195,592	0,091	-0,000
-117,380	-105,655	0,130	0,021
-116,366	28,166	0,078	0,047
-115,351	-17,764	-0,133	-0,059
-114,337	148,698	0,043	0,042
-113,322	-132,434	-0,076	-0,007
-112,307	98,829	-0,055	-0,045
-111,293	102,676	0,040	-0,033
-110,278	-94,375	-0,135	-0,026
-109,264	-153,639	-0,128	-0,006
-108,249	20,516	-0,092	-0,053
-107,234	-74,186	-0,094	0,024
-106,220	358,837	0,037	-0,053
-105,205	-93,297	-0,077	-0,015
-104,191	41,991	0,185	0,119
-103,176	-200,000	0,005	0,080
-102,162	35,730	-0,064	-0,040
-101,147	20,785	-0,028	-0,016
-100,132	22,925	-0,051	-0,030
-99,118	-5,695	-0,082	0,040
-98,103	-200,000	0,006	-0,123
-97,089	-200,000	0,005	0,072
-96,074	-18,195	0,103	-0,046
-95,059	462,352	-0,028	-0,044
-94,045	-200,000	0,027	0,098
-93,030	-22,085	0,030	0,013
-92,016	-91,960	-0,109	0,022
-91,001	577,273	0,057	-0,099
-89,986	5,950	-0,050	-0,026
-88,972	709,082	0,076	0,143
-87,957	-200,000	0,013	0,121
-86,943	800,000	0,061	-0,183
-85,928	-78,732	0,142	-0,034
-84,913	713,467	0,057	-0,108
-83,899	-74,125	0,080	-0,020
-82,884	800,000	0,034	-0,083
-81,870	-200,000	0,020	0,143
-80,855	800,000	0,026	0,063
-79,840	-200,000	0,020	-0,066
-78,826	291,237	-0,029	-0,037
-77,811	175,141	-0,018	0,018
-76,797	-114,089	0,037	-0,005
-75,782	180,070	-0,049	-0,051
-74,767	-13,796	0,069	0,032
-73,753	240,093	0,021	0,025
-72,738	674,874	0,034	-0,064
-71,724	53,520	0,091	0,062
-70,709	-200,000	-0,022	0,078
-69,694	550,725	0,150	-0,257
-68,680	-26,647	-0,079	-0,033
-67,665	-200,000	0,013	-0,136
-66,651	61,504	-0,032	0,022
-65,636	-77,764	0,009	0,002
-64,622	447,254	-0,036	-0,057
-63,607	800,000	0,045	-0,090
-62,592	-47,479	0,086	0,029
-61,578	-47,323	-0,048	-0,016
-60,563	-43,856	-0,038	0,013
-59,549	800,000	0,046	0,116
-58,534	-20,678	-1,712	-0,740
-57,519	404,354	-1,476	-2,207
-56,505	-200,000	-0,404	-4,321
-55,490	333,242	0,838	1,148
-54,476	800,000	4,969	11,252
-53,461	-200,000	19,534	325,666
-52,446	-200,000	741,195	2335,347
-51,432	571,579	1651,504	2855,383
-50,417	77,571	1665,834	1252,855
-49,403	20,881	1539,371	879,866
-48,388	14,763	1461,849	805,914
-47,373	18,307	1452,364	817,714
-46,359	16,769	1441,713	804,345
-45,344	13,038	1437,141	783,966
-44,330	12,957	1435,615	782,715
-43,315	12,977	1433,648	781,703
-42,300	12,972	1432,051	780,779
-41,286	12,970	1430,708	780,006
-40,271	12,902	1429,683	779,095
-39,257	12,957	1428,098	778,459
-38,242	13,000	1426,776	777,911
-37,227	13,026	1425,400	777,256
-36,213	12,994	1424,247	776,446
-35,198	12,991	1423,087	775,765
-34,184	13,014	1422,301	775,415
-33,169	12,948	1420,992	774,361
-32,154	13,071	1419,662	774,185
-31,140	13,043	1418,470	773,371
-30,125	13,043	1417,547	772,837
-29,111	13,046	1416,349	772,169
-28,096	12,996	1415,457	771,418
-27,082	12,936	1414,312	770,477
-26,067	12,941	1413,299	769,922
-25,052	12,953	1412,109	769,298
-24,038	12,887	1411,349	768,546
-23,023	12,922	1410,132	768,015
-22,009	12,916	1409,111	767,400
-20,994	12,878	1408,380	766,794
-19,979	12,880	1407,229	766,147
-18,965	12,872	1406,354	765,601
-17,950	12,918	1405,325	765,224
-16,936	12,880	1404,879	764,777
-15,921	12,846	1403,687	763,940
-14,906	12,897	1402,496	763,496
-13,892	12,865	1401,730	762,899
-12,877	12,845	1400,874	762,311
-11,863	12,852	1399,907	761,786
-10,848	12,879	1398,982	761,377
-9,833	12,809	1398,098	760,544
-8,819	12,777	1397,379	759,973
-7,804	12,767	1396,343	759,333
-6,790	12,772	1395,431	758,830
-5,775	12,747	1394,474	758,164
-4,760	12,736	1393,366	757,480
-3,746	12,743	1392,503	757,012
-2,731	12,709	1391,697	756,389
-1,717	12,717	1390,782	755,897
-0,702	12,694	1389,023	754,807
0,313	16,759	1305,337	728,014
1,327	33,411	699,762	428,497
2,342	51,380	122,534	82,105
3,356	2,816	16,517	8,442
4,371	-0,681	3,281	1,638
5,386	40,488	0,589	0,374
6,400	741,409	0,137	0,262
7,415	-60,353	-0,351	-0,105
8,429	113,447	-0,258	-0,222
9,444	294,690	-0,262	-0,339
10,459	-37,142	-0,249	-0,094
11,473	-25,077	-0,328	-0,137
12,488	-39,983	-0,328	-0,120
13,502	441,093	-0,205	-0,318
14,517	154,524	-0,231	-0,225
15,531	-73,290	-0,422	-0,108
16,546	5,745	-0,394	-0,205
17,561	42,340	-0,410	-0,263
18,575	275,891	-0,151	-0,189
19,590	-13,734	-0,240	-0,109
20,604	132,623	-0,215	-0,196
21,619	455,902	-0,306	-0,481
22,634	77,483	-0,449	-0,337
23,648	132,476	-0,427	-0,388
24,663	385,443	-0,278	-0,406
25,677	151,226	-0,291	-0,280
26,692	42,311	-0,346	-0,221
27,707	-28,583	-0,344	-0,139
28,721	112,531	-0,354	-0,302
29,736	130,327	-0,329	-0,297
30,750	43,300	-0,409	-0,263
31,765	76,859	-0,483	-0,361
32,780	223,267	-0,309	-0,352
33,794	275,948	-0,238	-0,298
34,809	-18,694	-0,348	-0,152
35,823	149,988	-0,366	-0,350
36,838	96,935	-0,298	-0,241
37,853	71,165	-0,405	-0,296
38,867	312,379	-0,293	-0,389
39,882	206,869	-0,387	-0,425
40,896	236,346	-0,332	-0,388
41,911	52,538	-0,223	-0,150
42,926	378,993	-0,222	-0,321
43,940	57,781	-0,390	-0,268
44,955	102,900	-0,319	-0,263
45,969	140,925	-0,268	-0,249
46,984	121,850	-0,280	-0,246
47,999	17,931	-0,437	-0,245
49,013	142,996	-0,308	-0,288
50,028	-87,508	-0,403	-0,085
51,042	14,140	-0,353	-0,193
52,057	88,095	-0,362	-0,282
53,071	91,734	-0,387	-0,306
54,086	89,239	-0,348	-0,272
55,101	-184,759	-0,314	-0,003
56,115	238,650	-0,241	-0,282
57,130	-37,101	-0,523	-0,196
58,144	147,320	-0,310	-0,293
59,159	93,034	-0,387	-0,308
60,174	17,145	-0,337	-0,187
61,188	166,782	-0,273	-0,272
62,203	93,849	-0,334	-0,266
63,217	-2,554	-0,370	-0,182
64,232	42,826	-0,313	-0,200
65,247	121,712	-0,362	-0,317
66,261	100,848	-0,334	-0,272
67,276	67,530	-0,274	-0,197
68,290	90,146	-0,289	-0,226
69,305	351,569	-0,216	-0,301
70,320	-4,855	-0,433	-0,209
71,334	-77,288	-0,465	-0,113
72,349	17,730	-0,398	-0,222
73,363	31,328	-0,382	-0,230
74,378	-21,861	-0,458	-0,195
75,393	328,607	-0,166	-0,225
76,407	-35,945	-0,386	-0,146
77,422	78,185	-0,301	-0,225
78,436	65,532	-0,367	-0,260
79,451	201,358	-0,213	-0,230
80,466	28,710	-0,402	-0,238
81,480	-38,405	-0,362	-0,134
82,495	75,044	-0,274	-0,202
83,509	800,000	-0,160	-0,345
84,524	142,137	-0,203	-0,189
85,539	409,831	-0,216	-0,321
86,553	68,941	-0,325	-0,234
87,568	113,516	-0,313	-0,266
88,582	53,507	-0,269	-0,181
89,597	64,048	-0,243	-0,171
90,611	33,370	-0,167	-0,101
91,626	292,227	-0,273	-0,350
92,641	27,701	-0,253	-0,149
93,655	-37,431	-0,385	-0,144
94,670	5,057	-0,389	-0,200
95,684	117,722	-0,292	-0,252
96,699	46,910	-0,260	-0,169
97,714	325,237	-0,224	-0,301
98,728	7,323	-0,297	-0,155
99,743	100,918	-0,311	-0,253
100,757	620,318	-0,068	-0,120
101,772	208,119	-0,286	-0,313
102,787	98,690	-0,193	-0,156
103,801	9,307	-0,335	-0,177
104,816	168,518	-0,233	-0,233
105,830	116,296	-0,209	-0,180
106,845	-32,037	-0,348	-0,136
107,860	19,220	-0,191	-0,107
108,874	56,177	-0,300	-0,204
109,889	800,000	-0,171	-0,347
110,903	40,196	-0,317	-0,199
111,918	92,628	-0,310	-0,244
112,933	211,680	-0,282	-0,311
113,947	21,231	-0,308	-0,175
114,962	-75,607	-0,306	-0,076
115,976	54,766	-0,294	-0,198
116,991	-6,508	-0,205	-0,097
118,006	204,851	-0,185	-0,201
119,020	35,595	-0,273	-0,168
120,035	207,464	-0,232	-0,253
121,049	310,001	-0,138	-0,181
122,064	-36,199	-0,291	-0,109
123,079	158,292	-0,228	-0,222
124,093	-34,169	-0,305	-0,117
125,108	53,291	-0,285	-0,190
126,122	506,785	-0,146	-0,237
127,137	159,331	-0,222	-0,216
128,151	152,650	-0,229	-0,219
129,166	40,407	-0,253	-0,159
130,181	20,034	-0,372	-0,209
131,195	328,841	-0,199	-0,268
132,210	-26,020	-0,373	-0,153
133,224	82,892	-0,272	-0,206
134,239	-99,934	-0,159	-0,028
135,254	60,345	-0,203	-0,140
136,268	355,118	-0,196	-0,272
137,283	-46,340	-0,247	-0,084
138,297	457,696	-0,182	-0,283
139,312	-31,533	-0,218	-0,085
140,327	41,525	-0,307	-0,194
141,341	-84,508	-0,350	-0,077
142,356	151,905	-0,224	-0,214
143,370	432,316	-0,225	-0,342
144,385	71,890	-0,313	-0,227
145,400	800,000	-0,087	-0,192
146,414	85,784	-0,217	-0,167
147,429	178,688	-0,250	-0,255
148,443	163,570	-0,220	-0,216
149,458	64,520	-0,201	-0,141
150,473	76,921	-0,248	-0,183
151,487	33,281	-0,327	-0,198
152,502	-16,520	-0,262	-0,115
153,516	57,441	-0,279	-0,189
154,531	541,744	-0,105	-0,175
155,546	4,904	-0,311	-0,159
156,560	206,247	-0,189	-0,205
157,575	114,186	-0,317	-0,269
158,589	126,190	-0,192	-0,169
159,604	103,833	-0,258	-0,211
160,619	309,055	-0,291	-0,380
161,633	-29,480	-0,255	-0,101
162,648	165,080	-0,137	-0,135
163,662	105,355	-0,174	-0,143
164,677	-34,926	-0,283	-0,107
165,692	-62,541	-0,336	-0,097
166,706	149,713	-0,158	-0,149
167,721	-28,543	-0,314	-0,125
168,735	26,200	-0,207	-0,120
169,750	48,494	-0,172	-0,112
170,764	60,279	-0,184	-0,127
171,779	-133,043	-0,134	-0,012
172,794	432,688	-0,154	-0,234
173,808	90,616	-0,231	-0,180
174,823	-24,676	-0,313	-0,129
175,837	-41,612	-0,279	-0,099
176,852	-200,000	-0,050	-0,222
177,867	-33,661	-0,179	-0,068
178,881	68,003	-0,215	-0,153
179,896	-44,353	-0,328	-0,114
180,910	133,397	-0,198	-0,178
181,925	193,293	-0,160	-0,169
182,940	282,476	-0,316	-0,395
183,954	199,791	-0,189	-0,201
184,969	191,352	-0,236	-0,247
185,983	60,396	-0,094	-0,065
186,998	-200,000	-0,033	-0,198
188,013	54,813	-0,153	-0,103
189,027	496,189	-0,127	-0,203
190,042	72,432	-0,187	-0,135
191,056	113,062	-0,226	-0,190
192,071	258,672	-0,156	-0,187
193,086	800,000	-0,140	-0,292
194,100	-143,654	-0,229	0,015
195,115	95,929	-0,143	-0,113
196,129	-3,529	-0,371	-0,179
197,144	109,740	-0,219	-0,182
198,159	-75,231	-0,233	-0,057
199,173	127,653	-0,174	-0,153
200,188	-200,000	-0,023	-0,118
201,202	401,693	-0,140	-0,205
202,217	-21,002	-0,231	-0,098
203,232	-34,037	-0,263	-0,100
204,246	54,394	-0,142	-0,095
205,261	51,322	-0,232	-0,153
206,275	-26,107	-0,164	-0,067
207,290	99,415	-0,155	-0,124
208,304	147,048	-0,134	-0,125
209,319	-117,913	-0,172	0,021
210,334	73,725	-0,226	-0,164
211,348	284,642	-0,165	-0,207
212,363	54,680	-0,394	-0,263
213,377	553,615	-0,135	-0,226
214,392	136,923	-0,198	-0,180
215,407	128,882	-0,177	-0,157
216,421	-56,319	-0,188	-0,057
217,436	615,561	-0,098	-0,171
218,450	220,785	-0,181	-0,202
219,465	160,463	-0,194	-0,187
220,480	88,804	-0,164	-0,127
221,494	451,135	-0,180	-0,276
222,509	725,531	-0,093	-0,173
223,523	244,838	-0,168	-0,196
224,538	800,000	-0,096	-0,260
225,553	267,257	-0,126	-0,153
226,567	-4,164	-0,282	-0,135
227,582	-80,837	-0,256	-0,058
228,596	174,922	-0,167	-0,168
229,611	-41,139	-0,147	-0,052
230,626	67,225	-0,227	-0,160
231,640	800,000	-0,124	-0,317
232,655	103,248	-0,203	-0,165
233,669	800,000	-0,136	-0,395
234,684	278,892	-0,166	-0,206
235,699	23,163	-0,201	-0,114
236,713	99,928	-0,128	-0,103
237,728	800,000	-0,095	-0,198
238,742	441,037	-0,129	-0,196
239,757	43,831	-0,192	-0,121
240,772	1,184	-0,205	-0,102
241,786	385,860	-0,116	-0,166
242,801	204,163	-0,133	-0,142
243,815	183,223	-0,104	-0,106
244,830	242,716	-0,133	-0,154
245,844	87,025	-0,155	-0,118
246,859	18,423	-0,285	-0,157
247,874	708,075	-0,081	-0,148
248,888	107,590	-0,218	-0,180
249,903	73,372	-0,175	-0,127
250,917	-147,122	-0,148	0,009
251,932	439,582	-0,087	-0,131
252,947	-36,963	-0,170	-0,063
253,961	66,597	-0,197	-0,138
254,976	172,387	-0,221	-0,220
255,990	122,856	-0,212	-0,183
257,005	-151,899	-0,186	0,009
258,020	-123,119	-0,142	-0,016
259,034	-180,849	-0,105	-0,001
260,049	88,409	-0,107	-0,082
261,063	388,935	-0,133	-0,191
262,078	-2,507	-0,216	-0,104
263,093	-200,000	0,029	-0,196
264,107	320,672	-0,138	-0,182
265,122	800,000	-0,113	-0,230
266,136	-200,000	-0,040	-0,152
267,151	127,545	-0,145	-0,127
268,166	10,409	-0,103	-0,054
269,180	16,097	-0,380	-0,206
270,195	800,000	-0,074	-0,223
271,209	-200,000	0,004	-0,139
272,224	160,875	-0,182	-0,176
273,239	-48,406	-0,202	-0,067
274,253	-55,821	-0,235	-0,072
275,268	-121,155	-0,126	-0,014
276,282	25,241	-0,087	-0,050
277,297	137,332	-0,186	-0,168
278,312	396,141	-0,114	-0,164
279,326	-200,000	0,002	-0,213
280,341	-48,504	-0,152	-0,050
281,355	77,977	-0,133	-0,098
282,370	152,629	-0,086	-0,082
283,384	81,630	-0,201	-0,150
284,399	286,480	-0,137	-0,171
285,414	522,489	-0,073	-0,119
286,428	297,117	-0,097	-0,123
287,443	438,419	-0,122	-0,184
288,457	-17,178	-0,163	-0,071
289,472	-32,100	-0,118	-0,045
290,487	20,074	-0,205	-0,113
291,501	-200,000	-0,069	-0,251
292,516	-68,997	-0,178	-0,047
293,530	-33,152	-0,047	-0,018
294,545	84,067	-0,198	-0,149
295,560	-58,241	-0,124	-0,037
296,574	205,496	-0,141	-0,151
297,589	67,650	-0,174	-0,123
298,603	800,000	-0,075	-0,176
299,618	114,093	-0,104	-0,087
300,633	12,509	-0,062	-0,033
301,647	17,157	-0,173	-0,094
302,662	29,531	-0,133	-0,078
303,676	202,475	0,031	-0,033
304,691	383,051	-0,119	-0,170
305,706	-18,229	-0,183	-0,078
306,720	128,715	-0,146	-0,128
307,735	-5,878	-0,205	-0,096
308,749	-200,000	-0,031	-0,167
309,764	342,447	-0,152	-0,206
310,779	526,653	-0,091	-0,148
311,793	466,530	-0,110	-0,170
312,808	88,794	-0,087	-0,067
313,822	214,306	-0,190	-0,207
314,837	800,000	-0,138	-0,268
315,852	-18,191	-0,117	-0,050
316,866	34,457	-0,082	0,049
317,881	176,980	-0,173	-0,174
318,895	800,000	-0,059	-0,171
319,910	-200,000	-0,061	-0,240
320,925	326,995	-0,063	-0,083
321,939	-96,736	-0,099	0,018
322,954	34,145	-0,099	-0,059
323,968	800,000	-0,026	-0,052
324,983	-51,223	-0,054	-0,017
325,997	-128,502	-0,196	-0,019
327,012	21,408	-0,254	-0,142
328,027	285,799	-0,107	-0,132
329,041	800,000	-0,080	-0,198
330,056	464,840	-0,084	-0,130
331,070	352,431	-0,101	-0,138
332,085	435,868	-0,061	0,092
333,100	195,638	-0,200	-0,209
334,114	35,610	-0,117	0,070
335,129	134,933	-0,191	-0,170
336,143	-105,711	-0,103	-0,016
337,158	-40,149	-0,159	-0,056
338,173	22,029	-0,244	-0,136
339,187	-5,916	-0,137	-0,064
340,202	499,469	-0,115	-0,183
341,216	-200,000	-0,034	-0,107
342,231	800,000	-0,137	-0,272
343,246	800,000	-0,089	-0,203
344,260	-200,000	-0,020	-0,097
345,275	-200,000	0,023	-0,143
346,289	800,000	-0,065	-0,181
347,304	272,311	-0,098	-0,119
348,319	107,148	-0,191	-0,155
349,333	261,276	-0,173	-0,206
350,348	85,360	-0,290	-0,218
351,362	56,790	-0,151	-0,100
352,377	79,306	-0,100	-0,073
353,392	108,207	-0,135	-0,110
354,406	-85,627	-0,149	-0,032
355,421	206,069	1313,614	1401,950
356,435	158,469	1474,207	1402,468
