DTS Sentinel unit serial number:	SN410029Multiplexer serial number:	ORYXHardware model number:	OX2-SRSoftware version number:	ORYX F/W v4,00 Oryx Data Collector v3.7.2.0data status	okinstallation	B3 Nyhavnadifferential loss correction	single-endedforward channel	channel 1reverse channel	N/Adate	2023/11/29time	04:42:30forward acquisition time	300,00reverse acquisition time	0,00gamma	499,1914k internal	0,3211k external	0,3211temperature offset calibration	1,0000default loss term (dB/km)	0,3820temperature slope calibration	1,0000multiplexer offset coefficient	1,0000multiplexer slope coefficient	1,0000fibre end	0,00T internal ref (°C)	9,25T ext. ref 1 (°C)	-6,21T ext. ref 2 (°C)	-6,33length (m)	temperature (°C)	Stokes	anti-Stokes-744,400	89,807	-0,147	-0,119
-743,385	-200,000	0,006	0,288
-742,371	310,137	-0,180	-0,245
-741,356	800,000	0,115	0,344
-740,342	800,000	-0,061	-0,134
-739,327	800,000	-0,080	0,247
-738,312	-46,320	-0,297	-0,105
-737,298	800,000	-0,137	0,355
-736,283	800,000	-0,098	-0,240
-735,269	-200,000	-0,065	0,307
-734,254	527,930	-0,135	-0,232
-733,239	253,455	-0,172	0,214
-732,225	800,000	-0,085	-0,245
-731,210	-200,000	0,152	0,000
-730,196	-200,000	0,003	-0,097
-729,181	74,890	-0,084	-0,064
-728,167	561,855	-0,044	-0,077
-727,152	-21,532	-0,127	-0,056
-726,137	82,250	-0,077	-0,061
-725,123	201,451	0,041	-0,046
-724,108	-105,566	-0,255	0,042
-723,094	258,123	-0,087	-0,109
-722,079	189,504	-0,062	0,068
-721,064	42,965	-0,060	0,040
-720,050	172,793	-0,028	0,029
-719,035	-35,416	-0,181	-0,071
-718,021	-200,000	-0,015	-0,179
-717,006	-52,555	-0,056	-0,019
-715,991	471,512	-0,025	-0,041
-714,977	160,693	-0,092	-0,093
-713,962	800,000	-0,037	-0,094
-712,948	-93,816	-0,083	-0,016
-711,933	785,840	-0,024	-0,048
-710,918	-105,201	-0,111	-0,018
-709,904	-200,000	-0,024	0,122
-708,889	667,119	0,050	-0,095
-707,875	658,642	-0,055	0,104
-706,860	800,000	-0,052	-0,144
-705,845	413,974	0,020	-0,031
-704,831	-200,000	0,007	0,030
-703,816	601,342	-0,041	-0,074
-702,802	-54,974	-0,043	0,014
-701,787	800,000	-0,024	-0,066
-700,772	124,202	-0,002	0,002
-699,758	-97,467	0,037	0,007
-698,743	-50,946	-0,078	-0,026
-697,729	436,789	0,041	0,065
-696,714	225,265	-0,108	0,127
-695,699	99,898	-0,070	-0,058
-694,685	-200,000	-0,001	-0,047
-693,670	-34,492	-0,043	0,017
-692,656	413,142	0,039	-0,061
-691,641	223,287	-0,050	-0,058
-690,627	225,326	0,120	-0,141
-689,612	70,509	0,116	0,086
-688,597	-80,538	-0,104	-0,025
-687,583	-200,000	0,005	0,044
-686,568	68,129	-0,075	-0,055
-685,554	-118,776	0,036	0,005
-684,539	-200,000	-0,012	0,095
-683,524	614,987	0,054	0,098
-682,510	800,000	0,044	0,104
-681,495	-200,000	0,008	0,093
-680,481	-5,787	-0,104	0,052
-679,466	-200,000	0,015	-0,154
-678,451	-21,953	0,121	0,053
-677,437	221,410	-0,079	0,092
-676,422	800,000	-0,037	0,099
-675,408	800,000	-0,024	0,060
-674,393	210,422	-0,067	-0,076
-673,378	113,854	-0,100	-0,088
-672,364	-200,000	0,009	-0,101
-671,349	-9,275	-0,084	0,040
-670,335	739,767	0,036	0,071
-669,320	-200,000	-0,002	-0,023
-668,305	405,837	0,036	0,055
-667,291	-200,000	0,019	-0,090
-666,276	-200,000	0,011	-0,159
-665,262	-128,430	-0,093	-0,009
-664,247	259,440	-0,110	0,137
-663,232	800,000	0,031	0,085
-662,218	46,313	0,135	0,091
-661,203	150,981	-0,029	-0,028
-660,189	590,834	0,100	-0,179
-659,174	99,899	-0,059	0,050
-658,159	-200,000	0,016	-0,052
-657,145	-200,000	0,014	-0,144
-656,130	-110,539	-0,091	0,014
-655,116	242,253	0,103	0,125
-654,101	198,028	0,029	0,033
-653,086	160,365	-0,020	-0,020
-652,072	800,000	-0,075	0,172
-651,057	-123,159	0,011	-0,001
-650,043	130,031	-0,073	-0,068
-649,028	427,846	-0,068	-0,106
-648,014	275,007	0,037	-0,047
-646,999	244,493	-0,037	0,045
-645,984	386,842	0,017	-0,026
-644,970	-131,263	-0,123	0,012
-643,955	184,321	-0,089	0,095
-642,941	47,120	-0,069	-0,047
-641,926	-200,000	-0,020	-0,111
-640,911	210,761	0,038	0,044
-639,897	121,846	-0,033	0,029
-638,882	-200,000	-0,023	0,103
-637,868	-48,799	-0,055	0,019
-636,853	-184,171	-0,094	-0,001
-635,838	800,000	-0,010	-0,028
-634,824	-47,936	0,072	0,025
-633,809	-200,000	0,013	0,094
-632,795	230,969	0,052	0,062
-631,780	53,360	0,132	0,091
-630,765	-200,000	-0,006	0,036
-629,751	800,000	-0,096	-0,194
-628,736	565,303	0,020	-0,036
-627,722	-70,290	-0,145	-0,039
-626,707	-200,000	0,021	0,102
-625,692	154,306	0,100	0,099
-624,678	235,284	-0,045	0,054
-623,663	800,000	-0,020	-0,044
-622,649	800,000	0,045	0,105
-621,634	715,366	0,047	-0,091
-620,619	800,000	0,009	0,021
-619,605	8,470	-0,036	0,020
-618,590	-200,000	0,006	0,065
-617,576	-200,000	-0,012	0,092
-616,561	676,747	-0,057	0,107
-615,546	186,176	0,035	0,037
-614,532	44,690	0,029	-0,019
-613,517	-0,510	0,115	-0,059
-612,503	116,735	-0,093	-0,082
-611,488	-9,606	-0,089	0,043
-610,474	190,110	0,110	0,119
-609,459	-200,000	0,008	-0,062
-608,444	-84,920	-0,053	-0,012
-607,430	26,643	0,104	-0,062
-606,415	43,726	-0,092	-0,060
-605,401	-113,642	0,048	-0,007
-604,386	142,978	-0,084	0,081
-603,371	149,198	-0,073	0,071
-602,357	-200,000	-0,005	0,210
-601,342	-116,253	-0,143	0,019
-600,328	-200,000	-0,009	-0,182
-599,313	-53,175	-0,153	-0,050
-598,298	381,504	0,054	-0,080
-597,284	800,000	0,045	-0,115
-596,269	571,304	0,042	0,074
-595,255	-22,848	0,161	-0,070
-594,240	-200,000	0,005	0,061
-593,225	24,185	-0,040	0,024
-592,211	-9,138	-0,105	-0,051
-591,196	22,416	0,043	0,025
-590,182	-200,000	0,008	0,038
-589,167	657,719	-0,055	0,103
-588,152	44,243	-0,081	-0,054
-587,138	288,416	0,060	0,078
-586,123	-200,000	-0,002	0,084
-585,109	206,303	0,046	-0,052
-584,094	-21,080	-0,033	0,014
-583,079	-114,188	0,116	-0,016
-582,065	-200,000	-0,018	0,085
-581,050	6,179	0,133	0,071
-580,036	103,350	0,023	0,020
-579,021	767,023	-0,086	0,170
-578,006	-11,066	0,074	-0,035
-576,992	-8,800	0,091	-0,044
-575,977	347,470	-0,029	0,041
-574,963	120,774	0,145	0,130
-573,948	-200,000	-0,009	0,066
-572,934	-52,908	-0,087	0,029
-571,919	-200,000	0,007	-0,127
-570,904	-51,624	0,095	-0,032
-569,890	218,246	0,066	-0,076
-568,875	-1,639	-0,015	-0,008
-567,861	107,880	0,077	0,066
-566,846	150,490	0,066	-0,065
-565,831	224,528	0,036	-0,041
-564,817	-54,918	-0,067	0,022
-563,802	-34,557	-0,094	-0,037
-562,788	-55,528	-0,116	-0,037
-561,773	211,229	0,013	-0,015
-560,758	137,457	-0,049	-0,046
-559,744	82,279	0,150	0,117
-558,729	422,408	-0,069	0,107
-557,715	-144,063	-0,149	0,010
-556,700	-98,645	0,051	0,009
-555,685	800,000	0,038	0,111
-554,671	-67,631	0,161	-0,045
-553,656	-55,268	0,021	-0,007
-552,642	6,819	-0,118	0,063
-551,627	63,093	0,116	-0,083
-550,612	225,253	-0,032	0,037
-549,598	-129,754	-0,179	0,017
-548,583	231,111	0,050	-0,058
-547,569	800,000	-0,045	-0,100
-546,554	800,000	-0,017	0,049
-545,539	-200,000	-0,044	0,156
-544,525	190,293	0,022	-0,024
-543,510	-81,726	-0,041	0,010
-542,496	800,000	-0,042	-0,113
-541,481	549,590	-0,059	0,102
-540,466	-127,082	0,074	0,008
-539,452	331,546	0,060	0,084
-538,437	-200,000	-0,007	0,153
-537,423	465,511	0,083	-0,134
-536,408	-200,000	-0,004	0,102
-535,393	800,000	-0,068	-0,155
-534,379	81,642	0,070	-0,054
-533,364	596,358	-0,034	-0,060
-532,350	-200,000	0,006	0,113
-531,335	370,234	0,032	0,046
-530,321	179,731	-0,048	-0,050
-529,306	800,000	-0,045	0,124
-528,291	-82,849	-0,039	-0,009
-527,277	-200,000	0,001	-0,113
-526,262	627,605	0,029	-0,052
-525,248	-51,261	0,055	-0,018
-524,233	800,000	0,024	-0,067
-523,218	707,853	-0,063	0,119
-522,204	-173,111	-0,043	0,001
-521,189	118,779	-0,150	-0,133
-520,175	-17,750	-0,289	-0,130
-519,160	170,898	0,060	0,062
-518,145	-1,623	-0,030	0,015
-517,131	78,053	0,085	-0,065
-516,116	155,279	0,043	0,042
-515,102	127,552	0,065	-0,059
-514,087	-200,000	-0,019	-0,103
-513,072	21,490	-0,014	0,008
-512,058	-53,802	0,097	0,032
-511,043	800,000	-0,020	0,045
-510,029	-47,636	0,018	-0,006
-509,014	27,380	0,072	-0,043
-507,999	-73,565	0,095	0,025
-506,985	221,322	-0,096	-0,111
-505,970	-150,776	0,061	0,003
-504,956	-200,000	0,011	-0,083
-503,941	-62,699	0,090	-0,027
-502,926	19,113	0,015	-0,009
-501,912	-200,000	0,040	0,132
-500,897	52,293	-0,084	0,057
-499,883	412,388	0,070	0,107
-498,868	800,000	-0,053	-0,161
-497,853	88,222	0,039	-0,031
-496,839	592,292	0,025	0,044
-495,824	61,032	0,152	-0,108
-494,810	233,521	0,073	-0,086
-493,795	-103,372	0,106	-0,018
-492,781	461,171	-0,081	0,130
-491,766	20,348	0,036	-0,021
-490,751	-173,028	-0,056	-0,001
-489,737	49,946	-0,026	-0,017
-488,722	-200,000	-0,019	-0,143
-487,708	-136,209	-0,057	-0,005
-486,693	287,891	-0,013	-0,018
-485,678	345,540	0,016	-0,023
-484,664	-162,198	-0,004	-0,000
-483,649	86,554	-0,031	-0,025
-482,635	104,897	0,040	-0,034
-481,620	-96,772	0,201	-0,038
-480,605	629,282	0,052	0,095
-479,591	-200,000	0,005	-0,060
-478,576	-10,281	-0,044	0,021
-477,562	-200,000	0,024	0,116
-476,547	-4,639	-0,070	-0,035
-475,532	292,945	-0,081	0,106
-474,518	394,531	0,043	-0,064
-473,503	43,151	0,074	-0,049
-472,489	-16,878	0,076	-0,034
-471,474	-200,000	0,019	-0,099
-470,459	40,036	-0,074	-0,047
-469,445	145,660	0,034	-0,033
-468,430	-52,758	-0,153	-0,050
-467,416	62,924	-0,130	-0,094
-466,401	-34,296	0,126	-0,049
-465,386	-101,414	-0,103	-0,018
-464,372	-200,000	0,006	0,077
-463,357	102,661	0,096	-0,080
-462,343	90,488	-0,082	0,066
-461,328	233,768	0,037	0,043
-460,313	260,211	0,072	0,090
-459,299	-126,230	-0,055	0,006
-458,284	-200,000	0,020	0,155
-457,270	800,000	0,038	0,113
-456,255	-200,000	-0,009	-0,057
-455,241	81,573	-0,063	0,049
-454,226	-139,246	0,036	-0,003
-453,211	-187,795	0,160	0,001
-452,197	-120,895	-0,183	0,022
-451,182	-200,000	-0,005	0,203
-450,168	-118,229	-0,153	0,019
-449,153	38,990	-0,164	0,105
-448,138	-140,745	0,038	0,003
-447,124	107,856	0,055	0,047
-446,109	-67,912	0,038	0,010
-445,095	-115,604	0,111	0,015
-444,080	-200,000	-0,004	0,101
-443,065	-200,000	0,036	0,153
-442,051	-200,000	-0,007	0,033
-441,036	-8,971	0,044	-0,021
-440,022	-23,112	-0,118	-0,051
-439,007	800,000	0,042	-0,131
-437,992	298,258	0,071	0,094
-436,978	183,986	0,042	0,045
-435,963	-200,000	-0,022	0,154
-434,949	-200,000	0,016	-0,053
-433,934	-200,000	-0,057	-0,201
-432,919	800,000	0,026	-0,059
-431,905	800,000	-0,065	-0,149
-430,890	98,400	0,047	-0,039
-429,876	-23,553	0,089	0,038
-428,861	-200,000	-0,015	0,101
-427,846	-200,000	0,004	-0,028
-426,832	277,143	0,046	-0,058
-425,817	539,394	0,092	-0,157
-424,803	-19,643	0,089	-0,039
-423,788	-200,000	0,102	0,000
-422,773	183,953	0,034	0,036
-421,759	-200,000	0,004	0,062
-420,744	-137,083	0,140	-0,011
-419,730	-200,000	0,000	-0,004
-418,715	592,066	-0,063	-0,111
-417,701	-167,171	0,061	-0,002
-416,686	-15,369	-0,106	-0,048
-415,671	438,749	0,024	-0,037
-414,657	-200,000	0,001	-0,018
-413,642	-200,000	0,008	0,128
-412,628	242,730	-0,066	0,080
-411,613	-200,000	0,017	-0,233
-410,598	-200,000	0,003	-0,103
-409,584	-0,183	0,049	-0,025
-408,569	-12,130	0,063	-0,029
-407,555	-140,013	-0,101	0,008
-406,540	57,194	-0,045	-0,031
-405,525	-200,000	-0,008	-0,070
-404,511	132,615	-0,038	0,035
-403,496	9,309	0,013	-0,007
-402,482	800,000	-0,029	0,066
-401,467	-93,943	0,051	0,010
-400,452	392,921	-0,046	-0,069
-399,438	-200,000	0,010	0,138
-398,423	85,239	-0,040	0,031
-397,409	-29,615	-0,105	-0,043
-396,394	800,000	0,052	-0,117
-395,379	-66,397	0,055	-0,016
-394,365	205,602	-0,051	-0,056
-393,350	-110,390	0,117	-0,017
-392,336	-152,533	-0,098	-0,005
-391,321	-95,803	0,128	0,024
-390,306	-188,522	-0,081	-0,001
-389,292	484,749	0,045	-0,074
-388,277	800,000	0,066	0,175
-387,263	800,000	0,006	-0,017
-386,248	-200,000	0,010	-0,095
-385,233	-32,654	-0,021	0,008
-384,219	55,848	-0,219	-0,152
-383,204	-200,000	-0,018	-0,098
-382,190	800,000	-0,026	-0,054
-381,175	-80,516	0,064	0,015
-380,160	92,170	0,062	0,050
-379,146	53,634	0,056	0,038
-378,131	-200,000	-0,013	0,140
-377,117	-200,000	-0,004	0,053
-376,102	800,000	0,035	-0,083
-375,088	171,102	-0,065	-0,067
-374,073	25,318	-0,034	-0,020
-373,058	-200,000	0,016	0,056
-372,044	-82,136	0,050	0,012
-371,029	340,585	0,054	0,076
-370,015	-86,182	0,163	0,036
-369,000	-200,000	0,002	-0,076
-367,985	-102,238	-0,052	0,009
-366,971	-200,000	0,001	0,073
-365,956	419,146	-0,017	-0,027
-364,942	-200,000	-0,008	-0,170
-363,927	233,673	0,051	-0,061
-362,912	-200,000	0,007	-0,041
-361,898	143,684	-0,124	-0,118
-360,883	-200,000	0,015	-0,123
-359,869	37,921	-0,047	0,030
-358,854	61,706	0,038	-0,027
-357,839	-29,652	0,103	0,042
-356,825	-200,000	0,001	0,125
-355,810	-200,000	-0,009	0,063
-354,796	-200,000	-0,030	0,127
-353,781	-108,874	-0,050	0,008
-352,766	-92,786	-0,090	0,018
-351,752	-181,809	0,085	-0,001
-350,737	-110,671	-0,081	0,012
-349,723	69,307	0,083	0,061
-348,708	-9,089	-0,078	0,037
-347,693	415,413	-0,091	0,139
-346,679	-200,000	0,104	0,000
-345,664	-200,000	0,007	-0,025
-344,650	256,412	-0,017	-0,021
-343,635	-92,195	-0,065	0,013
-342,620	30,101	-0,095	0,058
-341,606	72,215	-0,078	-0,058
-340,591	-97,554	0,142	-0,026
-339,577	-200,000	-0,000	-0,092
-338,562	-81,172	-0,076	0,018
-337,548	-200,000	-0,021	0,100
-336,533	-24,007	-0,070	0,030
-335,518	-157,955	0,142	0,006
-334,504	-142,819	0,062	-0,004
-333,489	800,000	-0,026	0,062
-332,475	747,961	0,066	-0,128
-331,460	-96,844	0,059	-0,011
-330,445	800,000	0,017	0,041
-329,431	-200,000	-0,016	0,090
-328,416	800,000	0,021	0,049
-327,402	-200,000	0,020	-0,172
-326,387	-26,362	0,016	0,007
-325,372	-127,143	-0,060	-0,006
-324,358	-30,150	-0,138	-0,056
-323,343	-200,000	0,001	-0,178
-322,329	800,000	-0,008	-0,023
-321,314	217,599	0,033	-0,037
-320,299	113,102	-0,075	0,065
-319,285	800,000	-0,021	0,058
-318,270	-200,000	0,037	-0,121
-317,256	-60,630	0,041	0,012
-316,241	3,834	-0,132	0,069
-315,226	-92,638	0,038	-0,008
-314,212	21,932	0,110	0,064
-313,197	-200,000	0,009	0,096
-312,183	467,231	0,064	0,102
-311,168	-200,000	-0,003	-0,059
-310,153	-135,348	-0,098	-0,008
-309,139	800,000	0,050	0,154
-308,124	13,348	0,045	0,025
-307,110	800,000	-0,022	0,060
-306,095	59,367	0,100	0,070
-305,080	246,101	-0,049	0,059
-304,066	-200,000	-0,004	-0,044
-303,051	-39,812	0,063	-0,023
-302,037	-136,322	-0,104	0,009
-301,022	412,916	0,044	0,066
-300,008	-200,000	-0,002	0,062
-298,993	800,000	0,023	0,051
-297,978	-200,000	0,026	0,088
-296,964	800,000	-0,017	0,047
-295,949	800,000	0,047	-0,113
-294,935	467,439	-0,106	-0,169
-293,920	240,641	-0,090	-0,108
-292,905	-200,000	-0,021	-0,069
-291,891	2,986	0,129	-0,066
-290,876	-54,811	-0,065	0,021
-289,862	-158,376	-0,082	0,003
-288,847	-181,211	0,035	0,000
-287,832	-200,000	0,005	0,069
-286,818	-149,114	-0,084	0,005
-285,803	40,433	0,044	-0,028
-284,789	11,628	0,082	0,045
-283,774	-85,040	-0,064	-0,014
-282,759	-149,851	-0,060	0,003
-281,745	800,000	0,041	-0,115
-280,730	287,117	-0,054	0,070
-279,716	800,000	-0,045	-0,114
-278,701	-66,203	0,066	-0,019
-277,686	-200,000	0,025	0,169
-276,672	156,559	0,087	0,086
-275,657	800,000	-0,042	0,102
-274,643	597,187	-0,050	-0,089
-273,628	627,443	0,075	-0,136
-272,613	228,670	-0,077	-0,089
-271,599	199,381	0,017	-0,019
-270,584	115,938	-0,040	0,035
-269,570	800,000	0,082	0,182
-268,555	-80,754	0,078	0,018
-267,540	214,852	0,054	-0,061
-266,526	478,374	0,086	-0,139
-265,511	110,869	-0,150	-0,128
-264,497	52,642	0,063	-0,042
-263,482	315,327	0,060	-0,080
-262,467	528,823	0,027	0,045
-261,453	236,643	0,024	0,029
-260,438	70,007	-0,025	-0,018
-259,424	-149,843	-0,089	-0,005
-258,409	-200,000	-0,019	-0,186
-257,395	746,673	0,047	-0,091
-256,380	-165,153	0,037	0,001
-255,365	-200,000	0,009	0,041
-254,351	64,559	0,073	0,053
-253,336	-74,139	-0,072	-0,018
-252,322	347,049	-0,107	-0,150
-251,307	-200,000	-0,025	-0,092
-250,292	-68,024	-0,017	0,005
-249,278	570,790	0,024	-0,041
-248,263	-1,970	-0,072	0,036
-247,249	-68,735	0,103	0,028
-246,234	545,002	0,105	-0,180
-245,219	-200,000	-0,030	-0,157
-244,205	-177,238	-0,254	-0,004
-243,190	-200,000	0,029	-0,126
-242,176	800,000	0,052	0,128
-241,161	3,269	0,064	-0,033
-240,146	16,025	-0,103	0,058
-239,132	-19,375	0,082	0,036
-238,117	32,321	-0,189	-0,115
-237,103	-151,136	-0,119	0,006
-236,088	-28,648	-0,136	-0,055
-235,073	761,472	0,048	-0,092
-234,059	55,721	0,012	-0,008
-233,044	45,854	0,056	0,037
-232,030	-58,465	-0,133	0,041
-231,015	136,969	-0,086	0,080
-230,000	363,228	0,044	-0,064
-228,986	218,307	-0,078	0,089
-227,971	403,817	-0,063	0,095
-226,957	326,252	0,086	-0,117
-225,942	192,802	0,049	0,053
-224,927	121,145	0,076	0,067
-223,913	800,000	-0,068	-0,150
-222,898	-200,000	-0,007	0,032
-221,884	-37,845	-0,129	0,048
-220,869	-85,371	0,066	-0,014
-219,855	241,558	0,079	-0,094
-218,840	-59,523	-0,118	0,036
-217,825	-71,388	0,033	-0,009
-216,811	36,364	0,076	0,047
-215,796	-77,989	-0,039	0,010
-214,782	385,298	0,062	-0,091
-213,767	460,818	-0,060	-0,096
-212,752	419,204	0,015	-0,023
-211,738	-97,002	0,092	0,017
-210,723	-200,000	0,002	-0,033
-209,709	-200,000	0,001	0,036
-208,694	-200,000	-0,024	-0,096
-207,679	664,398	-0,056	-0,103
-206,665	341,567	0,015	0,021
-205,650	800,000	0,043	0,127
-204,636	15,123	0,088	0,049
-203,621	-200,000	-0,008	0,071
-202,606	177,450	0,038	0,039
-201,592	-25,110	-0,057	-0,024
-200,577	37,443	-0,182	-0,114
-199,563	53,721	-0,065	0,044
-198,548	503,797	0,045	0,073
-197,533	-200,000	-0,041	0,175
-196,519	800,000	0,019	0,057
-195,504	-200,000	-0,003	-0,012
-194,490	610,647	-0,007	0,012
-193,475	-200,000	0,002	0,059
-192,460	-19,754	0,018	0,008
-191,446	7,800	0,040	0,021
-190,431	-22,748	0,137	0,058
-189,417	800,000	-0,029	0,090
-188,402	400,343	0,095	0,142
-187,387	800,000	-0,028	-0,057
-186,373	-200,000	0,023	-0,115
-185,358	-200,000	0,015	-0,070
-184,344	-153,789	0,092	0,004
-183,329	-200,000	-0,015	0,067
-182,315	12,372	-0,083	-0,045
-181,300	800,000	-0,045	-0,106
-180,285	-200,000	0,001	0,032
-179,271	-160,087	-0,167	-0,006
-178,256	-42,024	0,169	-0,061
-177,242	-83,200	0,108	0,024
-176,227	39,283	0,012	-0,008
-175,212	-113,889	0,031	0,004
-174,198	196,288	-0,057	-0,061
-173,183	55,421	-0,098	-0,067
-172,169	800,000	-0,002	-0,006
-171,154	83,090	0,086	0,067
-170,139	30,525	-0,042	0,026
-169,125	-127,899	-0,069	-0,007
-168,110	-200,000	-0,045	0,166
-167,096	67,828	0,178	0,129
-166,081	-72,161	0,114	-0,030
-165,066	-154,100	-0,074	-0,004
-164,052	587,647	-0,028	0,050
-163,037	353,758	-0,068	0,096
-162,023	286,612	-0,021	0,027
-161,008	72,815	0,065	0,048
-159,993	319,827	-0,053	0,072
-158,979	-7,173	-0,047	-0,023
-157,964	358,655	-0,028	0,039
-156,950	520,847	0,023	-0,039
-155,935	-200,000	0,008	0,034
-154,920	-46,109	0,047	-0,016
-153,906	354,493	0,036	-0,051
-152,891	800,000	0,016	0,043
-151,877	-29,339	0,054	0,022
-150,862	-200,000	-0,022	-0,088
-149,847	-44,189	0,089	0,032
-148,833	-9,686	0,094	0,044
-147,818	1,750	0,044	0,023
-146,804	-200,000	0,007	-0,112
-145,789	-200,000	-0,034	0,132
-144,775	430,617	-0,019	-0,030
-143,760	-200,000	-0,003	-0,014
-142,745	-152,625	0,073	-0,004
-141,731	86,894	-0,066	0,051
-140,716	127,140	0,061	0,055
-139,702	26,868	0,053	0,031
-138,687	106,576	0,104	0,087
-137,672	791,340	-0,015	-0,029
-136,658	800,000	-0,014	-0,031
-135,643	-200,000	-0,005	-0,053
-134,629	150,467	-0,079	-0,076
-133,614	428,647	-0,034	0,052
-132,599	140,785	0,147	0,137
-131,585	-200,000	-0,006	0,050
-130,570	197,572	-0,043	-0,047
-129,556	-200,000	-0,015	-0,085
-128,541	-91,374	-0,041	-0,008
-127,526	800,000	0,044	-0,100
-126,512	800,000	-0,067	0,183
-125,497	98,288	-0,092	0,075
-124,483	-200,000	-0,005	0,116
-123,468	-143,207	-0,031	-0,002
-122,453	4,403	-0,174	-0,090
-121,439	800,000	0,061	-0,126
-120,424	-200,000	-0,007	0,131
-119,410	-200,000	0,043	0,191
-118,395	-99,355	0,106	-0,019
-117,380	393,683	0,065	0,095
-116,366	-200,000	-0,029	0,178
-115,351	800,000	-0,057	-0,165
-114,337	351,164	-0,090	-0,126
-113,322	-200,000	0,012	0,098
-112,307	-77,665	0,102	0,025
-111,293	278,075	0,068	0,086
-110,278	-200,000	0,003	-0,072
-109,264	-133,538	-0,083	0,007
-108,249	-55,453	-0,145	0,046
-107,234	324,185	-0,078	0,105
-106,220	172,884	0,065	-0,066
-105,205	74,797	0,224	0,167
-104,191	312,455	0,018	0,024
-103,176	-200,000	-0,058	0,196
-102,162	-9,753	0,043	0,020
-101,147	469,345	0,061	0,097
-100,132	131,515	-0,063	-0,057
-99,118	-200,000	-0,014	-0,186
-98,103	800,000	-0,047	-0,095
-97,089	-33,416	0,102	0,040
-96,074	663,716	-0,066	0,120
-95,059	-140,664	-0,029	-0,002
-94,045	-200,000	-0,003	-0,076
-93,030	-200,000	-0,003	-0,202
-92,016	800,000	0,066	-0,145
-91,001	-50,830	0,098	0,032
-89,986	-200,000	0,009	-0,050
-88,972	148,334	0,051	0,049
-87,957	-200,000	-0,016	0,061
-86,943	-200,000	0,058	-0,187
-85,928	199,408	-0,098	-0,106
-84,913	36,078	-0,123	0,077
-83,899	800,000	0,026	-0,052
-82,884	51,793	0,152	0,102
-81,870	-95,694	-0,020	0,004
-80,855	-45,453	0,067	-0,023
-79,840	-200,000	-0,007	0,081
-78,826	153,096	0,047	-0,045
-77,811	-58,217	-0,086	-0,026
-76,797	-200,000	-0,007	0,053
-75,782	482,629	0,049	0,079
-74,767	-164,568	-0,051	0,002
-73,753	-10,773	-0,052	-0,024
-72,738	800,000	0,050	-0,101
-71,724	-8,027	-0,109	-0,052
-70,709	-131,537	0,137	0,013
-69,694	74,415	-0,010	-0,007
-68,680	-65,671	0,139	-0,039
-67,665	-200,000	0,002	0,079
-66,651	800,000	0,062	0,149
-65,636	107,181	0,078	0,065
-64,622	183,031	-0,053	-0,056
-63,607	-200,000	-0,017	0,064
-62,592	-115,721	0,025	-0,003
-61,578	412,478	-0,032	0,048
-60,563	1,232	0,163	0,083
-59,549	499,009	-0,044	0,072
-58,534	38,524	-2,141	-1,345
-57,519	694,159	-1,017	-1,893
-56,505	-200,000	-0,407	-4,419
-55,490	763,331	0,846	1,629
-54,476	800,000	5,151	11,226
-53,461	-200,000	21,742	338,440
-52,446	800,000	761,066	2317,503
-51,432	540,168	1657,004	2794,769
-50,417	70,310	1654,036	1204,743
-49,403	16,934	1527,843	851,663
-48,388	11,071	1451,875	781,062
-47,373	19,102	1443,398	814,863
-46,359	14,495	1432,497	786,856
-45,344	9,349	1428,557	760,243
-44,330	9,299	1426,579	758,923
-43,315	9,305	1424,928	758,041
-42,300	9,292	1423,180	757,019
-41,286	9,345	1421,726	756,467
-40,271	9,321	1420,477	755,657
-39,257	9,300	1419,440	754,976
-38,242	9,306	1418,488	754,472
-37,227	9,316	1417,090	753,743
-36,213	9,339	1416,009	753,248
-35,198	9,380	1414,600	752,661
-34,184	9,376	1413,813	752,195
-33,169	9,289	1412,405	751,006
-32,154	9,375	1411,317	750,799
-31,140	9,340	1410,068	749,941
-30,125	9,367	1409,009	749,475
-29,111	9,326	1408,002	748,720
-28,096	9,297	1406,802	747,913
-27,082	9,254	1405,512	747,000
-26,067	9,269	1404,315	746,405
-25,052	9,275	1403,344	745,887
-24,038	9,313	1402,270	745,460
-23,023	9,314	1401,545	745,051
-22,009	9,279	1400,324	744,208
-20,994	9,268	1399,373	743,623
-19,979	9,283	1398,565	743,236
-18,965	9,248	1397,701	742,582
-17,950	9,221	1396,756	741,926
-16,936	9,219	1395,834	741,398
-15,921	9,165	1395,103	740,730
-14,906	9,209	1393,910	740,273
-13,892	9,240	1392,944	739,873
-12,877	9,245	1392,124	739,429
-11,863	9,204	1391,577	738,920
-10,848	9,140	1390,698	738,126
-9,833	9,103	1389,509	737,295
-8,819	9,097	1388,652	736,786
-7,804	9,116	1387,664	736,317
-6,790	9,101	1386,661	735,691
-5,775	9,073	1385,609	734,975
-4,760	9,111	1384,560	734,563
-3,746	9,127	1383,718	734,161
-2,731	9,116	1382,903	733,650
-1,717	9,118	1381,882	733,084
-0,702	9,097	1380,330	732,136
0,313	13,130	1292,690	704,014
1,327	29,115	684,481	408,750
2,342	45,199	118,058	76,629
3,356	1,270	16,463	8,313
4,371	-10,202	3,806	1,775
5,386	-5,874	1,076	0,517
6,400	757,995	0,316	0,607
7,415	-200,000	-0,024	-0,085
8,429	12,842	-0,358	-0,195
9,444	8,610	-0,294	-0,156
10,459	-12,209	-0,286	-0,131
11,473	-140,497	-0,180	-0,013
12,488	-29,771	-0,296	-0,118
13,502	152,909	-0,254	-0,245
14,517	53,685	-0,323	-0,218
15,531	96,275	-0,304	-0,244
16,546	60,221	-0,215	-0,150
17,561	196,591	-0,297	-0,319
18,575	178,240	-0,133	0,137
19,590	73,753	-0,276	-0,203
20,604	-55,602	-0,214	-0,067
21,619	5,248	-0,470	-0,243
22,634	36,623	-0,462	-0,287
23,648	112,041	-0,432	-0,367
24,663	133,800	-0,360	-0,328
25,677	415,696	-0,182	-0,274
26,692	53,951	-0,371	-0,251
27,707	61,756	-0,339	-0,237
28,721	13,879	-0,376	-0,205
29,736	62,839	-0,324	-0,228
30,750	54,202	-0,492	-0,332
31,765	43,242	-0,560	-0,359
32,780	163,046	-0,358	-0,354
33,794	79,488	-0,336	-0,254
34,809	105,496	-0,337	-0,280
35,823	36,963	-0,346	-0,215
36,838	58,589	-0,262	-0,180
37,853	154,875	-0,293	-0,283
38,867	-27,956	-0,369	-0,150
39,882	745,248	-0,143	-0,272
40,896	133,301	-0,258	-0,234
41,911	89,743	-0,351	-0,275
42,926	-55,433	-0,324	-0,102
43,940	-43,580	-0,489	-0,173
44,955	65,958	-0,390	-0,278
45,969	89,962	-0,244	-0,191
46,984	46,647	-0,398	-0,259
47,999	50,880	-0,245	-0,163
49,013	249,119	-0,246	-0,293
50,028	-78,398	-0,371	-0,089
51,042	-86,729	-0,304	-0,065
52,057	76,469	-0,234	-0,174
53,071	91,373	-0,261	-0,206
54,086	273,701	-0,218	-0,271
55,101	4,384	-0,259	-0,133
56,115	-29,323	-0,384	-0,153
57,130	2,175	-0,395	-0,199
58,144	28,192	-0,396	-0,234
59,159	24,142	-0,401	-0,232
60,174	277,863	-0,302	-0,378
61,188	125,936	-0,292	-0,259
62,203	56,367	-0,217	-0,147
63,217	-16,912	-0,330	-0,146
64,232	153,381	-0,270	-0,259
65,247	43,371	-0,381	-0,244
66,261	89,983	-0,384	-0,300
67,276	41,316	-0,349	-0,221
68,290	74,840	-0,317	-0,234
69,305	33,516	-0,293	-0,178
70,320	66,113	-0,266	-0,189
71,334	-38,793	-0,286	-0,105
72,349	229,380	-0,253	-0,290
73,363	66,814	-0,330	-0,235
74,378	-84,187	-0,375	-0,083
75,393	5,963	-0,261	-0,135
76,407	-12,468	-0,254	-0,116
77,422	-16,157	-0,374	-0,166
78,436	98,170	-0,257	-0,207
79,451	55,022	-0,323	-0,218
80,466	159,021	-0,270	-0,263
81,480	113,795	-0,272	-0,231
82,495	7,076	-0,311	-0,162
83,509	10,991	-0,262	-0,140
84,524	-116,509	-0,262	-0,033
85,539	6,789	-0,225	-0,117
86,553	80,257	-0,284	-0,214
87,568	239,485	-0,189	-0,221
88,582	126,599	-0,230	-0,204
89,597	130,371	-0,255	-0,229
90,611	58,490	-0,387	-0,266
91,626	121,654	-0,242	-0,211
92,641	88,895	-0,211	-0,164
93,655	165,000	-0,241	-0,239
94,670	758,944	-0,161	-0,307
95,684	49,685	-0,218	-0,143
96,699	104,682	-0,290	-0,239
97,714	-27,199	-0,266	-0,108
98,728	-40,594	-0,356	-0,128
99,743	37,620	-0,187	-0,116
100,757	51,732	-0,244	-0,162
101,772	-63,479	-0,486	-0,139
102,787	25,322	-0,354	-0,205
103,801	530,987	-0,146	-0,242
104,816	-36,795	-0,366	-0,137
105,830	-172,598	-0,225	0,005
106,845	-22,773	-0,236	-0,099
107,860	25,928	-0,182	-0,106
108,874	-57,196	-0,286	-0,088
109,889	193,383	-0,234	-0,247
110,903	184,678	-0,306	-0,317
111,918	297,536	-0,202	-0,260
112,933	446,544	-0,148	-0,228
113,947	20,917	-0,216	-0,122
114,962	71,290	-0,259	-0,188
115,976	59,642	-0,238	-0,163
116,991	-39,302	-0,247	-0,090
118,006	-25,960	-0,323	-0,132
119,020	163,901	-0,188	-0,185
120,035	-25,518	-0,169	0,069
121,049	62,521	-0,130	-0,091
122,064	51,553	-0,254	-0,168
123,079	-33,344	-0,247	-0,095
124,093	31,661	-0,238	-0,142
125,108	800,000	-0,133	-0,289
126,122	15,152	-0,193	-0,105
127,137	33,221	-0,219	-0,132
128,151	-96,073	-0,196	-0,036
129,166	-47,681	-0,283	-0,095
130,181	127,992	-0,295	-0,262
131,195	-19,533	-0,298	-0,128
132,210	800,000	-0,149	-0,291
133,224	163,281	-0,204	-0,200
134,239	174,513	-0,225	-0,227
135,254	146,027	-0,199	-0,186
136,268	-93,898	-0,279	-0,053
137,283	42,262	-0,228	-0,144
138,297	177,149	-0,226	-0,230
139,312	208,165	-0,295	-0,322
140,327	102,354	-0,253	-0,206
141,341	32,930	-0,194	-0,117
142,356	468,374	-0,137	-0,215
143,370	346,688	-0,195	-0,268
144,385	-68,901	-0,166	-0,044
145,400	-131,434	-0,197	-0,018
146,414	451,649	-0,172	-0,266
147,429	273,937	-0,190	-0,235
148,443	126,042	-0,135	-0,118
149,458	4,706	-0,170	-0,087
150,473	-28,714	-0,369	-0,147
151,487	200,692	-0,181	-0,194
152,502	63,465	-0,191	-0,133
153,516	62,781	-0,264	-0,184
154,531	-41,367	-0,216	-0,077
155,546	-125,281	-0,140	0,015
156,560	43,214	-0,129	-0,082
157,575	12,701	-0,203	-0,109
158,589	3,635	-0,298	-0,151
159,604	324,478	-0,153	-0,204
160,619	-139,308	-0,416	-0,031
161,633	103,155	-0,192	-0,157
162,648	50,531	-0,160	-0,105
163,662	-98,877	-0,210	-0,037
164,677	-92,128	-0,144	-0,028
165,692	-34,477	-0,242	-0,092
166,706	61,173	-0,224	-0,154
167,721	100,725	-0,303	-0,245
168,735	42,974	-0,240	-0,152
169,750	46,924	-0,324	-0,209
170,764	-61,759	-0,120	-0,035
171,779	97,560	-0,220	-0,176
172,794	112,672	-0,219	-0,184
173,808	-4,787	-0,247	-0,118
174,823	30,876	-0,342	-0,203
175,837	117,873	-0,190	-0,162
176,852	150,894	-0,217	-0,205
177,867	96,925	-0,186	-0,148
178,881	-117,949	-0,326	-0,040
179,896	400,870	-0,172	-0,251
180,910	156,589	-0,187	-0,179
181,925	51,027	-0,225	-0,148
182,940	96,321	-0,194	-0,154
183,954	194,111	-0,174	-0,183
184,969	113,454	-0,182	-0,153
185,983	42,559	-0,103	0,065
186,998	127,134	-0,171	-0,150
188,013	175,109	-0,218	-0,219
189,027	84,058	-0,209	-0,159
190,042	107,140	-0,250	-0,206
191,056	406,709	-0,145	-0,213
192,071	35,619	-0,332	-0,202
193,086	40,365	-0,177	-0,110
194,100	-121,026	-0,332	-0,038
195,115	-200,000	-0,056	-0,231
196,129	107,850	-0,286	-0,236
197,144	35,046	-0,332	-0,201
198,159	124,877	-0,134	-0,117
199,173	14,266	-0,129	-0,070
200,188	49,570	-0,154	-0,100
201,202	-80,997	-0,081	-0,018
202,217	-31,216	-0,202	-0,078
203,232	207,120	-0,154	-0,167
204,246	348,959	-0,159	-0,218
205,261	131,111	-0,191	-0,170
206,275	-43,563	-0,214	-0,075
207,290	451,668	-0,065	-0,100
208,304	-69,170	-0,208	0,055
209,319	368,101	-0,111	-0,155
210,334	-4,030	-0,240	-0,115
211,348	-154,226	-0,211	0,010
212,363	193,343	-0,275	-0,289
213,377	351,082	-0,186	-0,256
214,392	-75,807	-0,174	-0,042
215,407	-146,892	-0,161	-0,009
216,421	168,360	-0,114	-0,113
217,436	188,285	-0,101	-0,104
218,450	-170,016	-0,185	-0,004
219,465	87,794	-0,184	-0,141
220,480	61,136	-0,206	-0,142
221,494	57,173	-0,181	-0,122
222,509	769,568	-0,103	-0,195
223,523	-60,177	-0,190	-0,056
224,538	11,632	-0,181	-0,096
225,553	103,831	-0,121	-0,098
226,567	-38,016	-0,281	-0,103
227,582	-200,000	-0,078	-0,253
228,596	-33,301	-0,143	-0,054
229,611	-166,464	-0,258	0,007
230,626	125,794	-0,093	-0,081
231,640	19,670	-0,270	-0,150
232,655	148,519	-0,182	-0,170
233,669	88,324	-0,191	-0,147
234,684	-157,499	-0,174	-0,007
235,699	-200,000	-0,035	-0,229
236,713	-200,000	-0,034	-0,202
237,728	138,135	-0,118	-0,107
238,742	-12,611	-0,210	-0,094
239,757	33,517	-0,216	-0,129
240,772	393,785	-0,176	-0,255
241,786	318,015	-0,152	-0,199
242,801	53,871	-0,202	-0,134
243,815	357,180	-0,107	-0,147
244,830	50,035	-0,179	-0,117
245,844	352,130	-0,153	-0,210
246,859	177,414	-0,066	-0,067
247,874	189,100	-0,201	-0,208
248,888	166,685	-0,039	-0,039
249,903	-55,978	-0,042	-0,013
250,917	197,420	-0,106	-0,111
251,932	105,230	-0,124	-0,101
252,947	-43,373	-0,202	0,070
253,961	-200,000	-0,057	-0,229
254,976	800,000	-0,082	-0,165
255,990	12,419	-0,117	-0,062
257,005	-47,905	-0,248	-0,082
258,020	198,717	-0,147	-0,155
259,034	-96,211	-0,099	-0,018
260,049	-44,985	-0,181	-0,062
261,063	133,209	-0,111	-0,099
262,078	16,918	-0,190	-0,104
263,093	-149,118	-0,194	0,011
264,107	29,967	-0,230	-0,135
265,122	92,143	-0,218	-0,169
266,136	-80,639	-0,091	0,021
267,151	-57,489	-0,071	0,021
268,166	124,536	-0,194	-0,168
269,180	-5,432	-0,239	-0,113
270,195	-73,093	-0,146	-0,037
271,209	-34,471	-0,207	-0,078
272,224	536,119	-0,087	-0,143
273,239	-71,593	-0,119	0,030
274,253	695,772	-0,134	-0,243
275,268	11,010	-0,140	-0,074
276,282	231,612	-0,189	-0,213
277,297	-16,988	-0,253	-0,109
278,312	639,201	-0,058	-0,102
279,326	555,175	-0,144	-0,240
280,341	241,656	-0,090	-0,104
281,355	95,755	-0,184	-0,145
282,370	-15,536	-0,250	-0,110
283,384	25,817	-0,191	-0,109
284,399	84,501	-0,178	-0,134
285,414	-102,637	-0,156	-0,025
286,428	14,737	-0,174	-0,093
287,443	-38,078	-0,188	-0,068
288,457	11,371	-0,167	-0,088
289,472	-123,967	-0,221	0,024
290,487	-90,090	-0,171	-0,034
291,501	-78,688	-0,084	-0,020
292,516	22,146	-0,287	-0,161
293,530	34,832	-0,196	-0,118
294,545	800,000	-0,083	-0,206
295,560	217,072	-0,109	-0,119
296,574	-158,545	-0,092	-0,004
297,589	357,685	-0,098	-0,135
298,603	41,494	-0,157	-0,097
299,618	-139,417	-0,115	0,008
300,633	81,623	-0,090	-0,067
301,647	-50,759	-0,189	-0,061
302,662	-132,904	-0,194	-0,017
303,676	800,000	-0,020	-0,057
304,691	586,596	-0,077	-0,131
305,706	-33,534	-0,221	-0,083
306,720	-80,476	-0,152	-0,035
307,735	69,022	-0,117	-0,082
308,749	-200,000	-0,038	-0,138
309,764	63,478	-0,158	0,108
310,779	-200,000	-0,030	0,107
311,793	269,373	-0,108	-0,131
312,808	510,518	-0,092	-0,147
313,822	227,939	-0,147	-0,164
314,837	-200,000	-0,006	-0,107
315,852	-143,363	-0,158	-0,010
316,866	-105,553	-0,044	-0,007
317,881	-200,000	-0,056	-0,205
318,895	-1,506	-0,140	0,067
319,910	14,374	-0,170	-0,091
320,925	800,000	-0,078	-0,191
321,939	8,628	-0,249	-0,128
322,954	1,560	-0,176	-0,087
323,968	-112,231	-0,126	0,017
324,983	-150,559	-0,174	-0,009
325,997	-200,000	-0,024	-0,100
327,012	181,572	-0,067	-0,067
328,027	-127,302	-0,166	0,016
329,041	30,846	-0,214	-0,125
330,056	-135,236	-0,041	-0,003
331,070	97,087	-0,082	-0,064
332,085	800,000	-0,085	-0,196
333,100	-59,872	-0,107	0,031
334,114	-143,319	-0,208	-0,013
335,129	509,303	-0,076	-0,122
336,143	-53,757	-0,180	-0,056
337,158	-92,350	-0,094	0,018
338,173	-23,047	-0,128	-0,053
339,187	346,906	-0,099	-0,134
340,202	-18,881	-0,112	-0,047
341,216	205,527	-0,108	-0,115
342,231	113,223	-0,108	-0,090
343,246	-200,000	-0,034	-0,172
344,260	156,057	-0,042	-0,040
345,275	44,296	-0,165	-0,104
346,289	234,108	-0,109	-0,123
347,304	239,461	-0,060	-0,068
348,319	-37,083	-0,182	-0,066
349,333	-200,000	-0,018	-0,151
350,348	162,979	-0,177	-0,170
351,362	-115,424	-0,060	0,008
352,377	15,115	-0,064	-0,034
353,392	-95,486	-0,046	0,008
354,406	-84,614	-0,044	0,009
355,421	206,972	1307,438	1395,359
356,435	159,206	1467,217	1395,837
