DTS Sentinel unit serial number:	SN410029Multiplexer serial number:	ORYXHardware model number:	OX2-SRSoftware version number:	ORYX F/W v4,00 Oryx Data Collector v3.7.2.0data status	okinstallation	B3 Nyhavnadifferential loss correction	single-endedforward channel	channel 1reverse channel	N/Adate	2023/12/01time	13:12:30forward acquisition time	300,00reverse acquisition time	0,00gamma	499,1914k internal	0,3214k external	0,3214temperature offset calibration	1,0000default loss term (dB/km)	0,3820temperature slope calibration	1,0000multiplexer offset coefficient	1,0000multiplexer slope coefficient	1,0000fibre end	0,00T internal ref (°C)	9,28T ext. ref 1 (°C)	-4,48T ext. ref 2 (°C)	-4,57length (m)	temperature (°C)	Stokes	anti-Stokes-744,400	41,620	-0,096	-0,063
-743,385	-200,000	0,036	0,311
-742,371	51,536	-0,237	-0,163
-741,356	-200,000	0,000	0,350
-740,342	191,621	-0,189	-0,206
-739,327	800,000	-0,067	0,166
-738,312	800,000	-0,158	-0,364
-737,298	679,481	-0,054	0,102
-736,283	800,000	-0,171	-0,350
-735,269	-200,000	0,026	0,254
-734,254	800,000	-0,142	-0,329
-733,239	-158,019	-0,153	0,006
-732,225	121,735	-0,188	-0,169
-731,210	48,045	0,052	-0,035
-730,196	339,666	-0,084	-0,118
-729,181	379,503	-0,056	-0,084
-728,167	191,437	0,056	0,061
-727,152	232,102	-0,059	-0,070
-726,137	800,000	0,030	-0,068
-725,123	-200,000	0,012	-0,200
-724,108	530,988	-0,085	-0,146
-723,094	5,825	-0,112	-0,060
-722,079	-200,000	0,016	-0,144
-721,064	222,651	-0,108	-0,126
-720,050	800,000	-0,007	0,022
-719,035	-200,000	-0,004	-0,020
-718,021	800,000	0,069	-0,148
-717,006	-1,349	-0,060	0,031
-715,991	35,030	-0,092	-0,058
-714,977	-131,930	-0,009	0,001
-713,962	118,512	-0,070	-0,062
-712,948	-200,000	-0,003	0,029
-711,933	229,371	-0,046	-0,054
-710,918	-14,664	0,033	0,015
-709,904	224,949	-0,051	-0,060
-708,889	-114,229	0,125	0,017
-707,875	-200,000	-0,007	0,060
-706,860	-126,183	0,048	0,005
-705,845	-4,159	0,194	-0,097
-704,831	-34,897	-0,090	0,035
-703,816	-200,000	0,007	-0,105
-702,802	354,988	0,067	-0,096
-701,787	-71,759	-0,102	-0,027
-700,772	-200,000	0,003	0,017
-699,758	-200,000	0,025	0,089
-698,743	800,000	-0,045	-0,131
-697,729	190,238	-0,163	0,177
-696,714	25,823	-0,109	0,066
-695,699	-173,444	-0,076	-0,002
-694,685	-16,692	-0,120	0,054
-693,670	382,627	-0,073	0,109
-692,656	439,624	0,048	0,076
-691,641	610,188	0,006	-0,011
-690,627	-200,000	0,014	0,080
-689,612	-84,926	0,134	0,030
-688,597	457,778	0,016	0,026
-687,583	-132,201	-0,140	-0,013
-686,568	-148,208	-0,246	-0,014
-685,554	-98,687	-0,052	-0,009
-684,539	800,000	-0,105	0,219
-683,524	30,543	-0,053	-0,033
-682,510	444,591	-0,032	-0,051
-681,495	800,000	-0,020	-0,041
-680,481	464,318	0,062	-0,101
-679,466	-200,000	-0,023	-0,137
-678,451	-69,713	0,179	-0,049
-677,437	90,214	-0,080	0,065
-676,422	11,638	-0,061	-0,034
-675,408	-200,000	-0,015	-0,061
-674,393	-200,000	0,002	0,035
-673,378	47,251	0,115	-0,077
-672,364	-74,216	-0,120	-0,031
-671,349	6,231	0,128	0,068
-670,335	-5,314	-0,055	-0,027
-669,320	800,000	0,020	-0,060
-668,305	340,130	0,044	0,062
-667,291	123,357	-0,058	0,052
-666,276	-200,000	0,011	-0,092
-665,262	-200,000	0,014	0,064
-664,247	436,245	-0,062	0,098
-663,232	800,000	-0,035	0,086
-662,218	35,366	0,171	0,108
-661,203	-37,011	-0,066	0,026
-660,189	-87,637	-0,072	-0,016
-659,174	-89,945	-0,109	-0,023
-658,159	423,604	-0,065	-0,102
-657,145	123,553	0,066	0,060
-656,130	244,065	0,089	-0,108
-655,116	-119,269	0,160	-0,020
-654,101	-28,164	-0,097	-0,040
-653,086	800,000	0,003	-0,008
-652,072	-200,000	-0,007	-0,041
-651,057	-200,000	-0,002	-0,070
-650,043	800,000	-0,013	-0,034
-649,028	-200,000	-0,003	-0,013
-648,014	-133,622	-0,105	0,009
-646,999	-200,000	0,021	0,067
-645,984	-82,772	-0,053	-0,012
-644,970	800,000	-0,044	-0,098
-643,955	-200,000	-0,030	-0,148
-642,941	124,019	-0,064	-0,058
-641,926	292,640	0,077	-0,101
-640,911	-108,242	-0,062	-0,010
-639,897	-177,627	0,092	-0,002
-638,882	34,764	-0,080	-0,050
-637,868	-200,000	-0,006	0,080
-636,853	-200,000	0,012	-0,135
-635,838	-35,433	-0,081	-0,032
-634,824	140,215	0,064	-0,061
-633,809	402,017	0,053	-0,080
-632,795	43,474	0,060	-0,040
-631,780	21,552	-0,153	-0,090
-630,765	2,777	0,009	-0,005
-629,751	459,505	0,061	0,098
-628,736	128,699	-0,077	-0,070
-627,722	-50,730	-0,035	-0,012
-626,707	478,805	-0,063	0,103
-625,692	-200,000	0,039	0,127
-624,678	-200,000	0,009	0,040
-623,663	315,152	-0,077	0,105
-622,649	-200,000	-0,002	0,096
-621,634	800,000	0,048	0,101
-620,619	-200,000	-0,014	-0,049
-619,605	-200,000	-0,014	0,128
-618,590	-68,136	0,080	-0,022
-617,576	89,305	-0,076	-0,061
-616,561	-75,861	0,161	-0,041
-615,546	418,756	0,022	-0,034
-614,532	25,230	-0,218	-0,130
-613,517	-200,000	0,035	-0,132
-612,503	-68,473	0,041	0,011
-611,488	-200,000	-0,013	-0,086
-610,474	354,956	-0,059	0,085
-609,459	-125,925	-0,076	0,008
-608,444	-200,000	-0,014	0,056
-607,430	118,440	-0,139	-0,123
-606,415	215,575	-0,040	0,046
-605,401	-125,071	-0,104	0,011
-604,386	800,000	0,018	0,040
-603,371	42,045	-0,140	0,091
-602,357	-55,923	0,108	-0,035
-601,342	-139,350	-0,063	-0,005
-600,328	152,860	-0,040	0,039
-599,313	142,490	-0,108	-0,104
-598,298	-68,089	0,121	0,034
-597,284	181,277	-0,057	0,060
-596,269	800,000	0,017	-0,036
-595,255	-200,000	0,027	0,182
-594,240	-142,625	-0,122	-0,008
-593,225	334,631	0,007	0,010
-592,211	172,362	-0,087	-0,090
-591,196	-53,591	0,117	-0,038
-590,182	270,784	0,032	-0,041
-589,167	194,245	-0,093	0,102
-588,152	-200,000	0,016	0,096
-587,138	-147,603	-0,106	0,006
-586,123	-172,238	0,014	0,000
-585,109	-200,000	-0,027	-0,190
-584,094	83,464	-0,133	-0,104
-583,079	-129,413	-0,081	0,008
-582,065	75,272	-0,084	0,064
-581,050	-98,228	-0,098	0,018
-580,036	-150,747	0,016	-0,001
-579,021	-4,804	-0,115	-0,057
-578,006	800,000	-0,067	-0,178
-576,992	38,759	0,022	0,014
-575,977	-200,000	-0,009	0,121
-574,963	342,703	0,047	0,066
-573,948	-176,249	0,059	-0,001
-572,934	800,000	-0,013	-0,040
-571,919	-30,130	-0,115	0,047
-570,904	115,770	-0,137	-0,121
-569,890	-200,000	-0,018	-0,069
-568,875	-200,000	0,000	-0,020
-567,861	-200,000	0,018	-0,070
-566,846	-146,584	0,136	0,008
-565,831	-196,883	-0,068	0,000
-564,817	7,575	-0,098	-0,053
-563,802	15,378	-0,136	-0,077
-562,788	-200,000	-0,011	-0,056
-561,773	800,000	0,076	0,157
-560,758	-37,191	0,069	0,026
-559,744	800,000	-0,058	-0,163
-558,729	15,579	-0,100	0,056
-557,715	-103,849	-0,077	0,013
-556,700	113,091	-0,088	-0,077
-555,685	82,797	-0,019	-0,015
-554,671	800,000	0,056	-0,112
-553,656	290,020	0,040	0,052
-552,642	-82,607	0,152	-0,035
-551,627	0,964	0,139	-0,071
-550,612	35,852	0,061	0,039
-549,598	138,196	-0,058	0,055
-548,583	-200,000	0,010	-0,233
-547,569	-4,159	0,071	0,035
-546,554	3,890	0,049	0,026
-545,539	210,212	0,120	0,135
-544,525	-200,000	0,012	-0,047
-543,510	-39,947	-0,131	0,049
-542,496	-51,664	0,030	0,010
-541,481	794,407	-0,068	-0,134
-540,466	-200,000	-0,026	-0,181
-539,452	-200,000	0,006	0,065
-538,437	-63,343	0,150	0,044
-537,423	-124,977	-0,110	-0,012
-536,408	-90,004	-0,191	-0,040
-535,393	174,017	0,065	-0,067
-534,379	-45,351	-0,013	0,005
-533,364	417,208	0,049	-0,076
-532,350	800,000	0,039	0,081
-531,335	-200,000	0,012	-0,071
-530,321	-6,665	-0,029	0,014
-529,306	-62,483	0,084	-0,025
-528,291	-200,000	0,062	-0,230
-527,277	-200,000	0,015	-0,158
-526,262	234,978	-0,051	0,061
-525,248	800,000	-0,059	0,171
-524,233	-24,364	-0,049	-0,021
-523,218	800,000	-0,081	0,191
-522,204	105,739	0,086	-0,073
-521,189	-49,591	-0,109	-0,037
-520,175	282,722	-0,037	-0,048
-519,160	800,000	0,030	-0,086
-518,145	-108,678	0,059	0,009
-517,131	-200,000	0,009	0,126
-516,116	63,085	-0,049	-0,035
-515,102	-122,121	0,098	-0,011
-514,087	43,760	-0,019	-0,012
-513,072	-40,699	0,067	0,025
-512,058	-84,780	0,105	0,024
-511,043	699,193	0,066	-0,126
-510,029	-200,000	0,014	0,160
-509,014	566,834	0,070	0,123
-507,999	61,528	-0,099	0,071
-506,985	-8,998	-0,034	0,017
-505,970	239,271	-0,069	0,082
-504,956	-200,000	0,008	0,037
-503,941	-141,232	0,085	0,006
-502,926	-200,000	0,024	0,086
-501,912	-190,239	0,064	-0,000
-500,897	-200,000	0,005	0,136
-499,883	-150,090	-0,068	0,004
-498,868	-200,000	-0,002	0,026
-497,853	-200,000	0,030	-0,184
-496,839	280,037	-0,048	-0,062
-495,824	-33,916	-0,079	0,031
-494,810	427,799	0,033	-0,051
-493,795	800,000	0,052	-0,149
-492,781	700,106	-0,058	-0,110
-491,766	-149,111	0,092	0,005
-490,751	-200,000	0,004	-0,120
-489,737	800,000	0,056	-0,127
-488,722	-50,793	0,100	0,034
-487,708	174,278	-0,028	-0,030
-486,693	205,305	0,015	-0,017
-485,678	165,237	-0,046	-0,046
-484,664	406,234	-0,103	-0,156
-483,649	800,000	-0,018	0,048
-482,635	-69,580	0,182	-0,050
-481,620	-200,000	0,021	0,159
-480,605	-200,000	0,014	0,079
-479,591	800,000	-0,029	-0,077
-478,576	-81,783	-0,105	0,025
-477,562	-27,649	0,046	0,019
-476,547	735,168	0,042	0,081
-475,532	45,532	-0,034	-0,023
-474,518	86,486	0,041	-0,033
-473,503	-200,000	0,030	0,139
-472,489	412,027	0,098	0,149
-471,474	333,626	0,125	0,174
-470,459	-200,000	-0,004	-0,023
-469,445	800,000	0,022	-0,059
-468,430	-200,000	-0,006	-0,063
-467,416	27,695	0,050	-0,030
-466,401	-55,794	0,188	-0,060
-465,386	800,000	-0,078	0,210
-464,372	115,499	0,115	-0,101
-463,357	674,285	0,019	-0,035
-462,343	-87,839	-0,096	0,021
-461,328	-46,238	-0,050	-0,018
-460,313	-65,484	0,216	-0,062
-459,299	-186,528	0,200	0,002
-458,284	125,481	-0,115	-0,104
-457,270	43,790	0,041	0,027
-456,255	96,297	0,063	0,052
-455,241	800,000	0,028	0,056
-454,226	74,465	0,157	-0,118
-453,211	-54,058	0,191	-0,062
-452,197	348,563	0,060	-0,085
-451,182	33,484	-0,171	0,106
-450,168	-23,396	0,079	-0,034
-449,153	56,017	-0,114	-0,079
-448,138	763,770	0,069	-0,134
-447,124	348,207	-0,031	0,044
-446,109	-34,813	0,156	0,061
-445,095	6,569	-0,050	-0,027
-444,080	-68,692	0,158	0,043
-443,065	593,549	-0,044	0,078
-442,051	-30,474	-0,037	-0,015
-441,036	143,358	-0,038	0,036
-440,022	45,190	0,045	0,030
-439,007	800,000	-0,007	-0,014
-437,992	800,000	0,027	-0,083
-436,978	-53,855	0,004	0,001
-435,963	556,596	0,042	0,073
-434,949	400,380	0,078	0,118
-433,934	-200,000	-0,007	-0,106
-432,919	-109,030	-0,217	-0,033
-431,905	-200,000	0,026	-0,087
-430,890	-60,124	0,096	-0,029
-429,876	-200,000	-0,009	0,058
-428,861	800,000	-0,032	0,076
-427,846	-31,278	0,118	-0,047
-426,832	78,600	0,070	-0,054
-425,817	-116,735	0,072	-0,009
-424,803	800,000	-0,043	-0,104
-423,788	-179,364	0,160	0,002
-422,773	-153,363	0,182	-0,009
-421,759	45,268	-0,035	0,023
-420,744	570,188	-0,072	0,126
-419,730	733,018	-0,029	-0,055
-418,715	247,276	-0,032	-0,039
-417,701	-107,929	0,005	0,001
-416,686	-26,992	0,135	0,056
-415,671	-53,035	0,047	-0,015
-414,657	14,327	-0,074	-0,041
-413,642	389,066	-0,073	0,108
-412,628	-200,000	0,008	0,042
-411,613	800,000	-0,039	-0,113
-410,598	-200,000	-0,012	-0,078
-409,584	800,000	0,019	-0,051
-408,569	131,575	0,055	0,051
-407,555	364,788	-0,094	0,135
-406,540	800,000	-0,055	0,156
-405,525	800,000	-0,012	0,029
-404,511	-36,015	0,049	-0,019
-403,496	70,139	0,080	-0,059
-402,482	94,820	-0,041	-0,033
-401,467	800,000	0,046	0,129
-400,452	-200,000	0,009	-0,076
-399,438	-100,896	0,039	-0,007
-398,423	-200,000	-0,035	0,113
-397,409	-98,528	0,082	-0,015
-396,394	-106,116	-0,040	-0,006
-395,379	-82,195	0,094	0,022
-394,365	-200,000	0,014	0,087
-393,350	260,304	0,084	0,104
-392,336	-200,000	0,007	0,088
-391,321	-72,724	-0,178	-0,047
-390,306	-200,000	0,000	0,041
-389,292	-92,316	-0,041	0,008
-388,277	20,068	0,047	0,027
-387,263	-200,000	-0,011	0,166
-386,248	339,372	0,088	0,123
-385,233	654,452	-0,045	0,084
-384,219	-200,000	0,023	-0,107
-383,204	0,888	-0,085	-0,043
-382,190	-10,785	-0,098	-0,046
-381,175	308,937	-0,068	-0,091
-380,160	-60,293	0,146	-0,044
-379,146	-200,000	-0,043	0,162
-378,131	-200,000	0,031	0,147
-377,117	231,816	0,066	0,077
-376,102	-200,000	0,001	0,009
-375,088	-9,891	0,096	-0,046
-374,073	154,191	-0,045	0,044
-373,058	-155,691	-0,120	0,005
-372,044	194,365	0,028	0,031
-371,029	84,778	0,067	-0,052
-370,015	1,083	0,055	-0,028
-369,000	333,301	0,059	-0,081
-367,985	763,407	-0,040	-0,079
-366,971	287,934	0,051	0,066
-365,956	-72,667	-0,050	0,013
-364,942	111,089	-0,020	-0,017
-363,927	800,000	0,028	-0,063
-362,912	-200,000	-0,007	0,076
-361,898	310,320	-0,058	0,077
-360,883	-200,000	-0,016	-0,085
-359,869	40,740	0,051	0,033
-358,854	-200,000	-0,010	-0,043
-357,839	800,000	0,037	0,083
-356,825	-200,000	0,005	0,028
-355,810	654,081	-0,043	-0,080
-354,796	-109,937	0,074	0,011
-353,781	41,339	-0,050	-0,032
-352,766	0,242	-0,011	0,006
-351,752	-200,000	-0,000	0,074
-350,737	-200,000	0,027	-0,101
-349,723	800,000	-0,043	-0,128
-348,708	800,000	0,021	-0,053
-347,693	800,000	-0,074	-0,154
-346,679	-200,000	-0,004	-0,082
-345,664	800,000	-0,077	-0,174
-344,650	537,175	-0,053	-0,090
-343,635	23,487	0,183	-0,107
-342,620	-200,000	-0,019	-0,161
-341,606	31,799	0,065	0,040
-340,591	-187,971	0,119	0,001
-339,577	-200,000	-0,039	-0,134
-338,562	800,000	-0,011	0,024
-337,548	54,815	0,100	-0,069
-336,533	395,075	0,047	0,070
-335,518	-37,735	-0,113	0,043
-334,504	331,390	-0,058	-0,081
-333,489	257,478	-0,050	0,061
-332,475	704,179	-0,024	0,045
-331,460	-101,999	-0,177	-0,030
-330,445	348,745	-0,047	0,066
-329,431	-200,000	-0,001	-0,030
-328,416	-200,000	-0,015	0,087
-327,402	205,293	0,016	-0,018
-326,387	145,344	-0,058	0,055
-325,372	800,000	-0,026	0,057
-324,358	-200,000	-0,012	0,132
-323,343	558,675	-0,041	-0,070
-322,329	800,000	-0,012	-0,036
-321,314	749,074	-0,018	-0,035
-320,299	-200,000	0,044	0,223
-319,285	36,999	0,178	0,112
-318,270	146,023	-0,072	0,069
-317,256	-101,669	-0,019	-0,003
-316,241	295,068	-0,056	-0,074
-315,226	-200,000	0,008	-0,041
-314,212	402,046	0,113	0,170
-313,197	-109,970	-0,050	-0,007
-312,183	32,634	0,064	0,039
-311,168	-169,029	-0,085	-0,002
-310,153	-11,808	-0,081	0,038
-309,139	21,543	0,124	0,071
-308,124	-200,000	-0,025	0,088
-307,110	-200,000	0,161	-0,000
-306,095	169,810	-0,009	0,009
-305,080	800,000	0,044	0,130
-304,066	8,423	-0,034	0,018
-303,051	-100,275	-0,048	-0,008
-302,037	-97,945	-0,039	-0,007
-301,022	21,890	0,040	-0,023
-300,008	790,500	0,056	0,110
-298,993	-147,858	0,086	-0,005
-297,978	-200,000	0,002	0,055
-296,964	-200,000	-0,002	-0,017
-295,949	462,124	-0,133	-0,212
-294,935	245,932	0,061	0,073
-293,920	800,000	0,064	-0,188
-292,905	-200,000	-0,040	-0,137
-291,891	-200,000	0,046	0,251
-290,876	101,645	0,115	-0,096
-289,862	-90,433	-0,035	-0,007
-288,847	275,907	-0,048	-0,061
-287,832	257,190	-0,080	-0,098
-286,818	800,000	0,034	-0,072
-285,803	-200,000	-0,012	0,085
-284,789	162,988	0,031	0,031
-283,774	800,000	0,037	0,103
-282,759	-130,714	-0,013	-0,001
-281,745	-44,686	-0,089	0,031
-280,730	-200,000	0,027	-0,223
-279,716	36,301	-0,070	-0,044
-278,701	105,461	-0,116	0,098
-277,686	205,969	0,095	-0,106
-276,672	800,000	0,026	-0,051
-275,657	-21,962	-0,057	-0,025
-274,643	-30,415	-0,115	0,046
-273,628	-91,530	-0,189	0,038
-272,613	60,965	-0,138	0,097
-271,599	-200,000	0,024	-0,102
-270,584	70,649	0,036	-0,026
-269,570	70,375	0,059	0,044
-268,555	-200,000	0,046	0,161
-267,540	111,458	-0,013	-0,011
-266,526	122,909	0,106	-0,094
-265,511	173,796	-0,090	-0,092
-264,497	406,739	-0,066	0,100
-263,482	49,662	0,003	0,002
-262,467	-16,402	0,055	-0,025
-261,453	54,984	-0,097	-0,066
-260,438	-18,554	0,112	0,049
-259,424	457,885	0,042	-0,067
-258,409	-200,000	-0,008	-0,039
-257,395	-200,000	0,002	-0,032
-256,380	800,000	0,054	0,135
-255,365	308,799	-0,064	0,085
-254,351	366,896	0,110	0,158
-253,336	-200,000	0,003	-0,095
-252,322	57,470	-0,130	0,090
-251,307	-123,311	0,039	-0,004
-250,292	-200,000	0,005	0,094
-249,278	6,566	0,104	-0,055
-248,263	-24,966	0,102	0,043
-247,249	-131,549	0,128	0,012
-246,234	425,953	0,030	-0,046
-245,219	-200,000	-0,018	0,121
-244,205	298,857	0,076	-0,099
-243,190	-200,000	-0,039	0,157
-242,176	-155,429	-0,075	0,003
-241,161	167,420	0,141	0,143
-240,146	628,611	0,084	-0,151
-239,132	-150,073	-0,064	-0,003
-238,117	96,303	0,049	-0,040
-237,103	145,370	0,068	-0,065
-236,088	-200,000	-0,006	0,033
-235,073	402,351	-0,022	0,033
-234,059	800,000	0,031	0,079
-233,044	-200,000	0,040	0,163
-232,030	111,668	-0,144	0,124
-231,015	-200,000	0,018	0,065
-230,000	59,779	-0,041	0,029
-228,986	800,000	0,025	0,053
-227,971	-200,000	-0,006	0,111
-226,957	-148,302	0,047	-0,003
-225,942	-72,120	0,143	-0,038
-224,927	-165,006	0,098	-0,003
-223,913	-200,000	-0,011	0,073
-222,898	-15,414	0,055	-0,025
-221,884	4,063	-0,038	-0,020
-220,869	-200,000	-0,024	-0,160
-219,855	800,000	0,070	0,197
-218,840	-200,000	0,015	0,081
-217,825	33,747	-0,131	-0,080
-216,811	-10,342	-0,030	0,014
-215,796	-200,000	0,037	-0,132
-214,782	417,568	-0,037	-0,057
-213,767	-200,000	0,007	-0,024
-212,752	330,144	-0,039	0,054
-211,738	310,038	-0,059	-0,079
-210,723	-200,000	-0,009	0,123
-209,709	11,513	0,059	0,032
-208,694	-43,096	-0,058	0,021
-207,679	800,000	-0,031	0,091
-206,665	-47,989	0,123	0,042
-205,650	743,193	-0,035	0,067
-204,636	-121,607	-0,205	-0,024
-203,621	-80,035	0,094	-0,022
-202,606	387,629	-0,014	-0,021
-201,592	-200,000	-0,019	-0,069
-200,577	-152,031	-0,051	0,003
-199,563	-200,000	-0,001	0,008
-198,548	800,000	-0,049	0,115
-197,533	324,354	-0,042	0,057
-196,519	-147,160	-0,085	0,005
-195,504	-200,000	-0,024	-0,111
-194,490	479,232	-0,065	-0,105
-193,475	193,475	-0,076	0,081
-192,460	-1,287	-0,028	0,014
-191,446	13,952	0,026	-0,014
-190,431	-200,000	0,004	-0,032
-189,417	130,531	0,085	0,077
-188,402	334,170	-0,054	0,074
-187,387	159,190	0,031	0,031
-186,373	542,032	0,020	0,035
-185,358	116,380	-0,098	0,085
-184,344	38,674	0,048	-0,030
-183,329	-200,000	0,028	0,098
-182,315	800,000	-0,026	-0,079
-181,300	157,424	0,086	-0,085
-180,285	-200,000	-0,042	-0,172
-179,271	153,887	0,011	0,011
-178,256	146,716	-0,111	0,106
-177,242	288,645	0,084	-0,109
-176,227	-140,241	0,130	-0,010
-175,212	71,522	0,161	0,119
-174,198	-140,653	-0,019	0,001
-173,183	-56,118	-0,131	-0,041
-172,169	-86,627	-0,118	-0,025
-171,154	-200,000	0,006	-0,026
-170,139	204,317	-0,075	0,082
-169,125	-54,054	0,145	0,046
-168,110	-96,212	-0,056	-0,010
-167,096	306,532	0,037	-0,048
-166,081	-106,893	-0,063	-0,010
-165,066	86,015	-0,108	-0,085
-164,052	67,898	0,030	-0,022
-163,037	55,936	0,068	0,047
-162,023	-19,776	-0,096	-0,042
-161,008	-6,496	-0,127	0,061
-159,993	-200,000	-0,006	0,112
-158,979	-200,000	-0,028	-0,160
-157,964	-200,000	-0,032	-0,156
-156,950	-200,000	-0,001	-0,023
-155,935	261,406	-0,064	0,079
-154,920	81,226	0,054	0,042
-153,906	-182,630	-0,025	0,000
-152,891	416,010	0,061	0,093
-151,877	-200,000	0,016	-0,064
-150,862	207,242	-0,044	-0,049
-149,847	-97,054	0,126	0,023
-148,833	75,444	0,035	-0,026
-147,818	-109,558	-0,130	-0,019
-146,804	-96,078	0,083	0,015
-145,789	258,172	0,047	0,057
-144,775	-82,746	0,040	0,009
-143,760	-184,066	0,093	0,001
-142,745	80,910	0,060	0,046
-141,731	-47,873	-0,061	0,021
-140,716	-200,000	-0,024	-0,084
-139,702	-200,000	0,028	-0,158
-138,687	-76,957	0,223	-0,055
-137,672	800,000	0,001	0,001
-136,658	-141,242	-0,077	-0,005
-135,643	-200,000	0,000	-0,027
-134,629	449,304	0,012	0,019
-133,614	-67,173	0,108	-0,030
-132,599	-200,000	-0,014	0,057
-131,585	-39,839	0,137	0,050
-130,570	428,177	-0,041	0,063
-129,556	-149,436	-0,133	0,007
-128,541	-200,000	0,012	0,055
-127,526	-71,056	-0,140	-0,037
-126,512	-200,000	0,009	-0,088
-125,497	58,868	0,086	0,060
-124,483	-97,056	-0,122	-0,022
-123,468	-200,000	0,014	0,085
-122,453	-50,970	-0,171	0,056
-121,439	-200,000	-0,024	-0,161
-120,424	-2,621	-0,070	0,034
-119,410	-53,879	0,050	0,016
-118,395	140,746	0,153	0,143
-117,380	-83,069	0,052	0,012
-116,366	-84,015	-0,084	0,019
-115,351	-200,000	-0,014	-0,047
-114,337	211,400	0,024	-0,027
-113,322	157,979	0,020	-0,020
-112,307	-36,316	0,078	0,030
-111,293	260,045	-0,056	-0,068
-110,278	796,412	-0,037	-0,072
-109,264	95,129	-0,070	-0,056
-108,249	715,522	-0,051	-0,097
-107,234	-78,211	-0,074	-0,018
-106,220	-39,370	-0,085	-0,031
-105,205	281,860	0,079	-0,100
-104,191	571,406	0,031	-0,054
-103,176	258,969	-0,060	0,073
-102,162	-200,000	-0,024	0,155
-101,147	160,707	-0,053	0,053
-100,132	87,189	-0,117	-0,091
-99,118	55,077	0,181	-0,123
-98,103	-200,000	-0,004	0,060
-97,089	-200,000	0,020	0,119
-96,074	-7,338	-0,087	-0,042
-95,059	470,865	0,148	0,236
-94,045	17,705	-0,080	0,045
-93,030	-65,978	-0,114	-0,032
-92,016	-126,078	-0,098	-0,010
-91,001	513,849	-0,049	-0,081
-89,986	-57,993	0,137	-0,042
-88,972	-90,660	0,036	0,007
-87,957	-90,329	0,104	-0,021
-86,943	-5,278	-0,117	0,056
-85,928	-200,000	-0,006	-0,197
-84,913	800,000	-0,040	-0,097
-83,899	238,472	-0,094	-0,110
-82,884	-200,000	-0,001	-0,025
-81,870	-200,000	-0,156	0,000
-80,855	-35,113	0,140	-0,054
-79,840	-4,594	-0,108	-0,052
-78,826	800,000	0,045	-0,091
-77,811	800,000	0,004	-0,012
-76,797	-98,955	-0,072	-0,013
-75,782	-200,000	0,017	0,077
-74,767	3,896	-0,109	0,056
-73,753	40,411	-0,052	0,033
-72,738	-200,000	0,013	-0,146
-71,724	-200,000	-0,014	-0,058
-70,709	-0,929	-0,077	-0,039
-69,694	520,251	-0,026	-0,044
-68,680	-200,000	0,016	0,110
-67,665	-200,000	-0,013	0,215
-66,651	-87,709	0,042	0,009
-65,636	-200,000	-0,019	0,070
-64,622	276,364	-0,076	-0,095
-63,607	131,456	-0,106	-0,096
-62,592	546,144	-0,048	-0,082
-61,578	70,503	0,019	0,014
-60,563	-27,572	0,087	0,036
-59,549	-200,000	-0,032	0,146
-58,534	43,960	-1,884	-1,215
-57,519	344,413	-1,322	-1,835
-56,505	-200,000	-0,460	-4,426
-55,490	800,000	0,794	1,772
-54,476	800,000	5,118	11,215
-53,461	-200,000	21,862	343,584
-52,446	800,000	763,684	2328,505
-51,432	541,083	1661,663	2802,107
-50,417	70,696	1658,346	1208,800
-49,403	17,025	1532,330	853,880
-48,388	11,083	1456,231	782,775
-47,373	19,280	1448,194	817,705
-46,359	14,607	1437,115	789,233
-45,344	9,383	1432,912	762,055
-44,330	9,336	1431,107	760,841
-43,315	9,321	1429,421	759,840
-42,300	9,309	1427,506	758,736
-41,286	9,368	1426,253	758,319
-40,271	9,363	1425,015	757,611
-39,257	9,301	1424,014	756,751
-38,242	9,351	1422,740	756,283
-37,227	9,325	1421,897	755,681
-36,213	9,325	1420,511	754,913
-35,198	9,386	1419,206	754,481
-34,184	9,378	1418,303	753,931
-33,169	9,307	1416,858	752,799
-32,154	9,329	1415,956	752,395
-31,140	9,329	1414,583	751,635
-30,125	9,395	1413,351	751,260
-29,111	9,376	1412,327	750,596
-28,096	9,395	1411,063	749,982
-27,082	9,302	1409,962	748,932
-26,067	9,307	1408,757	748,286
-25,052	9,303	1407,946	747,806
-24,038	9,288	1407,091	747,253
-23,023	9,344	1405,946	746,877
-22,009	9,288	1404,891	746,028
-20,994	9,331	1403,810	745,621
-19,979	9,345	1402,859	745,154
-18,965	9,301	1401,967	744,447
-17,950	9,267	1401,081	743,789
-16,936	9,226	1400,391	743,198
-15,921	9,154	1399,491	742,360
-14,906	9,216	1398,451	742,066
-13,892	9,272	1397,224	741,644
-12,877	9,253	1396,484	741,134
-11,863	9,237	1395,812	740,675
-10,848	9,241	1394,644	740,044
-9,833	9,198	1393,820	739,376
-8,819	9,130	1393,112	738,659
-7,804	9,112	1392,087	738,000
-6,790	9,164	1390,911	737,588
-5,775	9,122	1390,016	736,890
-4,760	9,098	1389,243	736,343
-3,746	9,144	1388,171	735,957
-2,731	9,191	1387,217	735,637
-1,717	9,096	1386,501	734,793
-0,702	9,125	1384,639	733,908
0,313	13,216	1296,410	705,792
1,327	29,408	686,658	410,348
2,342	45,583	118,685	77,114
3,356	1,503	16,524	8,349
4,371	9,818	3,568	1,902
5,386	32,374	1,185	0,720
6,400	800,000	0,200	0,558
7,415	79,858	-0,251	-0,190
8,429	5,912	-0,307	-0,160
9,444	44,313	-0,257	-0,166
10,459	60,680	-0,265	-0,185
11,473	-88,843	-0,403	-0,083
12,488	-28,049	-0,257	-0,104
13,502	64,151	-0,257	-0,181
14,517	119,549	-0,232	-0,202
15,531	15,103	-0,338	-0,186
16,546	17,389	-0,328	-0,183
17,561	105,125	-0,299	-0,248
18,575	-65,674	-0,248	-0,070
19,590	410,918	-0,186	-0,279
20,604	-77,229	-0,192	-0,047
21,619	123,649	-0,317	-0,279
22,634	72,555	-0,428	-0,314
23,648	95,960	-0,417	-0,335
24,663	74,712	-0,340	-0,251
25,677	97,513	-0,266	-0,214
26,692	69,427	-0,310	-0,224
27,707	33,867	-0,299	-0,183
28,721	-27,312	-0,353	-0,144
29,736	54,067	-0,431	-0,291
30,750	-67,467	-0,451	-0,123
31,765	104,789	-0,491	-0,407
32,780	104,561	-0,345	-0,285
33,794	71,672	-0,284	-0,207
34,809	-1,411	-0,305	-0,151
35,823	-8,807	-0,382	-0,179
36,838	-29,627	-0,494	-0,197
37,853	89,573	-0,354	-0,278
38,867	222,981	-0,239	-0,271
39,882	173,277	-0,344	-0,349
40,896	76,475	-0,247	-0,184
41,911	35,177	-0,374	-0,230
42,926	206,101	-0,208	-0,227
43,940	93,901	-0,405	-0,322
44,955	186,479	-0,335	-0,351
45,969	18,125	-0,428	-0,239
46,984	268,232	-0,184	-0,227
47,999	45,518	-0,344	-0,223
49,013	19,564	-0,384	-0,216
50,028	186,201	-0,228	-0,238
51,042	-37,119	-0,343	-0,128
52,057	-1,555	-0,362	-0,178
53,071	-23,779	-0,408	-0,171
54,086	-0,408	-0,377	-0,187
55,101	17,700	-0,419	-0,233
56,115	-185,952	-0,325	0,003
57,130	15,727	-0,393	-0,216
58,144	57,985	-0,326	-0,223
59,159	115,771	-0,283	-0,243
60,174	116,950	-0,350	-0,302
61,188	43,291	-0,413	-0,264
62,203	37,152	-0,347	-0,215
63,217	44,449	-0,290	-0,187
64,232	47,270	-0,209	-0,136
65,247	19,510	-0,262	-0,147
66,261	-0,663	-0,372	-0,184
67,276	234,302	-0,263	-0,304
68,290	150,930	-0,375	-0,357
69,305	65,123	-0,236	-0,167
70,320	307,584	-0,173	-0,226
71,334	-93,250	-0,277	-0,053
72,349	180,036	-0,266	-0,273
73,363	-35,064	-0,442	-0,168
74,378	15,703	-0,346	-0,190
75,393	-53,017	-0,373	-0,119
76,407	1,426	-0,306	-0,154
77,422	115,976	-0,333	-0,285
78,436	-16,399	-0,311	-0,137
79,451	-21,530	-0,328	-0,139
80,466	-82,227	-0,433	-0,098
81,480	-48,084	-0,400	-0,134
82,495	97,274	-0,361	-0,290
83,509	-37,563	-0,303	-0,112
84,524	64,178	-0,212	-0,149
85,539	-11,901	-0,274	-0,125
86,553	-21,700	-0,360	-0,153
87,568	35,229	-0,247	-0,151
88,582	-12,825	-0,298	-0,135
89,597	338,615	-0,165	-0,226
90,611	0,314	-0,303	-0,151
91,626	20,321	-0,238	-0,134
92,641	1,840	-0,144	-0,072
93,655	-116,386	-0,264	0,034
94,670	-57,970	-0,341	-0,104
95,684	-100,947	-0,364	-0,062
96,699	10,027	-0,304	-0,161
97,714	-56,455	-0,287	-0,088
98,728	-113,565	-0,284	-0,038
99,743	36,656	-0,267	-0,165
100,757	64,441	-0,267	-0,188
101,772	26,981	-0,274	-0,160
102,787	140,841	-0,251	-0,232
103,801	44,823	-0,325	-0,208
104,816	15,222	-0,248	-0,135
105,830	-98,693	-0,273	-0,048
106,845	19,206	-0,214	-0,120
107,860	32,454	-0,389	-0,234
108,874	-47,806	-0,340	-0,114
109,889	20,159	-0,387	-0,218
110,903	63,277	-0,263	-0,184
111,918	203,266	-0,161	-0,174
112,933	-200,000	-0,061	-0,206
113,947	51,200	-0,314	-0,208
114,962	-2,886	-0,280	-0,136
115,976	604,485	-0,144	-0,251
116,991	473,870	-0,188	-0,296
118,006	331,336	-0,251	-0,338
119,020	212,550	-0,167	-0,184
120,035	228,583	-0,232	-0,264
121,049	182,295	-0,236	-0,243
122,064	107,003	-0,257	-0,213
123,079	7,239	-0,352	-0,183
124,093	241,940	-0,134	-0,156
125,108	108,204	-0,227	-0,189
126,122	-69,603	-0,321	-0,085
127,137	147,849	-0,183	-0,172
128,151	3,054	-0,263	-0,133
129,166	-21,863	-0,309	-0,130
130,181	161,984	-0,226	-0,221
131,195	46,294	-0,159	-0,102
132,210	13,741	-0,287	-0,155
133,224	-22,378	-0,353	-0,148
134,239	-33,863	-0,296	-0,113
135,254	-106,319	-0,286	-0,044
136,268	-24,524	-0,263	-0,109
137,283	-106,607	-0,130	-0,020
138,297	-46,871	-0,287	-0,097
139,312	106,041	-0,190	-0,156
140,327	638,690	-0,151	-0,268
141,341	725,857	-0,096	-0,180
142,356	99,041	-0,224	-0,180
143,370	-167,082	-0,223	0,006
144,385	23,719	-0,279	-0,160
145,400	4,268	-0,219	-0,111
146,414	-30,728	-0,254	-0,100
147,429	267,256	-0,265	-0,323
148,443	349,155	-0,075	-0,103
149,458	-78,540	-0,308	-0,073
150,473	17,534	-0,191	-0,106
151,487	82,803	-0,155	-0,117
152,502	263,897	-0,268	-0,325
153,516	210,742	-0,222	-0,243
154,531	-14,415	-0,306	-0,136
155,546	208,037	-0,152	-0,165
156,560	800,000	-0,088	-0,181
157,575	-0,242	-0,215	-0,106
158,589	61,225	-0,276	-0,190
159,604	281,393	-0,168	-0,210
160,619	52,518	-0,334	-0,221
161,633	70,524	-0,258	-0,185
162,648	334,188	-0,176	-0,237
163,662	83,118	-0,100	-0,076
164,677	-27,600	-0,168	-0,067
165,692	-91,062	-0,230	0,046
166,706	192,389	-0,158	-0,166
167,721	-49,971	-0,240	-0,079
168,735	102,053	-0,215	-0,174
169,750	227,186	-0,135	-0,153
170,764	29,625	-0,271	-0,160
171,779	-76,293	-0,227	-0,055
172,794	69,722	-0,190	-0,136
173,808	2,172	-0,319	-0,160
174,823	273,056	-0,213	-0,261
175,837	-54,320	-0,241	-0,076
176,852	-92,509	-0,170	-0,033
177,867	-163,296	-0,194	-0,006
178,881	56,414	-0,250	-0,168
179,896	-102,925	-0,126	-0,020
180,910	57,450	-0,278	-0,188
181,925	800,000	-0,136	-0,376
182,940	152,633	-0,241	-0,228
183,954	-31,562	-0,368	-0,143
184,969	334,993	-0,137	-0,184
185,983	87,866	-0,269	-0,206
186,998	512,757	-0,147	-0,239
188,013	218,398	-0,173	-0,192
189,027	30,297	-0,280	-0,166
190,042	84,175	-0,318	-0,241
191,056	162,275	-0,190	-0,185
192,071	37,687	-0,206	-0,127
193,086	201,519	-0,178	-0,190
194,100	29,227	-0,277	-0,163
195,115	71,494	-0,227	-0,163
196,129	719,939	-0,148	-0,274
197,144	374,217	-0,198	-0,280
198,159	171,278	-0,170	-0,169
199,173	409,897	-0,162	-0,239
200,188	-50,627	-0,197	0,064
201,202	78,857	-0,147	-0,109
202,217	82,739	-0,076	-0,057
203,232	178,155	-0,142	-0,143
204,246	185,990	-0,188	-0,194
205,261	195,410	-0,130	-0,137
206,275	13,448	-0,175	-0,094
207,290	3,827	-0,257	-0,129
208,304	155,209	-0,269	-0,256
209,319	253,048	-0,129	-0,152
210,334	61,942	-0,179	-0,123
211,348	430,155	-0,150	-0,225
212,363	133,534	-0,178	-0,159
213,377	35,944	-0,299	-0,182
214,392	147,972	-0,129	-0,120
215,407	104,997	-0,226	-0,184
216,421	234,376	-0,081	-0,093
217,436	-171,777	-0,210	-0,005
218,450	41,976	-0,250	-0,156
219,465	-105,912	-0,197	-0,030
220,480	213,924	-0,156	-0,170
221,494	76,965	-0,229	-0,168
222,509	800,000	-0,046	-0,110
223,523	218,063	-0,185	-0,204
224,538	114,805	-0,202	-0,170
225,553	304,086	-0,220	-0,283
226,567	233,427	-0,223	-0,254
227,582	-200,000	-0,021	-0,184
228,596	-155,360	-0,146	0,006
229,611	171,534	-0,080	-0,079
230,626	174,421	-0,201	-0,201
231,640	292,008	-0,215	-0,271
232,655	669,076	-0,159	-0,285
233,669	159,621	-0,150	-0,145
234,684	140,231	-0,154	-0,140
235,699	800,000	-0,071	-0,169
236,713	800,000	-0,095	-0,187
237,728	130,151	-0,186	-0,164
238,742	45,100	-0,195	-0,124
239,757	480,646	-0,158	-0,249
240,772	800,000	-0,088	-0,193
241,786	348,466	-0,166	-0,227
242,801	61,385	-0,205	-0,140
243,815	-10,341	-0,138	-0,063
244,830	57,378	-0,112	-0,075
245,844	35,628	-0,161	-0,097
246,859	274,573	-0,122	-0,149
247,874	370,999	-0,186	-0,261
248,888	157,238	-0,140	-0,134
249,903	800,000	-0,069	-0,183
250,917	296,305	-0,107	-0,135
251,932	800,000	-0,084	-0,186
252,947	-200,000	-0,018	-0,163
253,961	202,164	-0,201	-0,214
254,976	325,566	-0,144	-0,190
255,990	-103,569	-0,269	0,043
257,005	13,611	-0,240	-0,128
258,020	493,026	-0,065	-0,103
259,034	485,411	-0,078	-0,123
260,049	-23,369	-0,242	-0,100
261,063	-200,000	-0,046	-0,198
262,078	-148,701	-0,234	-0,013
263,093	132,207	-0,258	-0,229
264,107	31,316	-0,185	-0,109
265,122	-42,416	-0,127	0,044
266,136	109,476	-0,135	-0,111
267,151	-68,762	-0,224	-0,059
268,166	38,686	-0,158	-0,097
269,180	367,365	-0,138	-0,193
270,195	358,100	-0,118	-0,162
271,209	180,904	-0,122	-0,124
272,224	111,793	-0,184	-0,153
273,239	132,693	-0,093	-0,083
274,253	-13,020	-0,146	-0,065
275,268	-40,596	-0,249	-0,089
276,282	-200,000	-0,057	-0,352
277,297	261,879	-0,200	-0,239
278,312	-35,283	-0,171	-0,064
279,326	143,616	-0,078	-0,072
280,341	41,066	-0,166	-0,103
281,355	-152,135	-0,104	0,005
282,370	75,437	-0,148	-0,107
283,384	421,083	-0,116	-0,171
284,399	-51,708	-0,217	-0,069
285,414	379,555	-0,097	-0,137
286,428	796,926	-0,044	-0,083
287,443	66,514	-0,164	-0,115
288,457	131,952	-0,157	-0,139
289,472	-9,675	-0,137	-0,063
290,487	2,350	-0,214	-0,106
291,501	73,191	-0,222	-0,159
292,516	92,510	-0,194	-0,150
293,530	65,621	-0,073	-0,051
294,545	75,797	-0,127	-0,092
295,560	159,048	-0,194	-0,185
296,574	109,520	-0,222	-0,183
297,589	356,035	-0,130	-0,178
298,603	-200,000	-0,026	-0,258
299,618	800,000	-0,078	-0,167
300,633	486,746	-0,113	-0,177
301,647	-11,962	-0,170	-0,076
302,662	-200,000	-0,020	-0,194
303,676	109,051	-0,150	-0,124
304,691	414,665	-0,154	-0,226
305,706	-38,128	-0,243	-0,088
306,720	114,889	-0,165	-0,138
307,735	-70,864	-0,213	-0,055
308,749	-118,957	-0,119	0,014
309,764	800,000	-0,055	-0,125
310,779	-35,830	-0,098	-0,036
311,793	378,504	-0,101	-0,142
312,808	111,452	-0,185	-0,153
313,822	121,940	-0,194	-0,166
314,837	89,155	-0,143	-0,109
315,852	-33,299	0,143	0,054
316,866	-200,000	-0,011	-0,161
317,881	118,632	-0,088	-0,075
318,895	10,430	-0,180	-0,094
319,910	241,899	-0,180	-0,206
320,925	134,380	-0,212	-0,188
321,939	-52,008	-0,147	-0,046
322,954	-42,121	-0,114	-0,040
323,968	-200,000	0,039	-0,134
324,983	-83,433	-0,057	-0,012
325,997	-105,790	-0,132	-0,020
327,012	3,510	-0,208	-0,104
328,027	314,106	-0,066	-0,085
329,041	-55,744	-0,156	-0,048
330,056	80,094	-0,191	-0,140
331,070	-21,792	-0,141	-0,058
332,085	-14,964	-0,166	-0,073
333,100	335,679	-0,120	-0,159
334,114	39,074	-0,159	-0,097
335,129	361,084	-0,134	-0,185
336,143	626,712	-0,061	-0,106
337,158	89,775	-0,113	-0,086
338,173	800,000	-0,058	-0,117
339,187	13,296	-0,178	-0,094
340,202	-68,852	-0,112	0,029
341,216	120,620	-0,095	-0,081
342,231	172,030	-0,146	-0,144
343,246	-200,000	-0,033	-0,255
344,260	-58,984	-0,121	-0,035
345,275	370,671	-0,102	-0,142
346,289	310,242	-0,143	-0,183
347,304	-23,323	-0,107	-0,044
348,319	-102,425	-0,085	0,014
349,333	-113,485	-0,160	0,021
350,348	49,194	-0,081	-0,052
351,362	88,302	-0,100	-0,076
352,377	800,000	-0,079	-0,166
353,392	-147,528	-0,160	0,009
354,406	800,000	-0,087	-0,208
355,421	207,031	1312,473	1399,686
356,435	159,248	1472,866	1400,141
