DTS Sentinel unit serial number:	SN410029Multiplexer serial number:	ORYXHardware model number:	OX2-SRSoftware version number:	ORYX F/W v4,00 Oryx Data Collector v3.7.2.0data status	okinstallation	B3 Nyhavnadifferential loss correction	single-endedforward channel	channel 1reverse channel	N/Adate	2023/12/03time	05:52:30forward acquisition time	300,00reverse acquisition time	0,00gamma	499,1914k internal	0,3201k external	0,3201temperature offset calibration	1,0000default loss term (dB/km)	0,3820temperature slope calibration	1,0000multiplexer offset coefficient	1,0000multiplexer slope coefficient	1,0000fibre end	0,00T internal ref (°C)	13,29T ext. ref 1 (°C)	-1,70T ext. ref 2 (°C)	-1,71length (m)	temperature (°C)	Stokes	anti-Stokes-744,400	800,000	-0,111	-0,276
-743,385	-200,000	0,032	0,373
-742,371	-68,000	-0,126	-0,036
-741,356	-200,000	0,031	0,396
-740,342	139,659	-0,127	-0,122
-739,327	-200,000	-0,094	0,405
-738,312	298,960	-0,133	-0,178
-737,298	-200,000	0,031	0,334
-736,283	107,834	-0,188	-0,163
-735,269	800,000	0,188	0,393
-734,254	68,873	-0,279	-0,208
-733,239	-73,284	-0,173	0,046
-732,225	-200,000	-0,009	-0,046
-731,210	455,780	0,117	0,190
-730,196	774,406	-0,061	-0,121
-729,181	800,000	-0,025	0,063
-728,167	-6,595	0,011	0,006
-727,152	409,753	0,038	-0,059
-726,137	122,151	0,017	-0,016
-725,123	-200,000	0,011	-0,068
-724,108	116,930	-0,117	0,104
-723,094	-89,044	-0,029	-0,006
-722,079	-98,775	-0,171	0,031
-721,064	-69,884	-0,044	-0,012
-720,050	30,291	-0,090	0,056
-719,035	800,000	-0,072	-0,201
-718,021	593,499	-0,031	-0,056
-717,006	180,496	-0,072	0,077
-715,991	178,581	-0,097	-0,103
-714,977	-66,763	-0,192	-0,055
-713,962	-200,000	-0,008	0,040
-712,948	800,000	-0,018	-0,051
-711,933	-200,000	0,034	0,114
-710,918	-132,345	0,125	-0,012
-709,904	-200,000	-0,006	0,105
-708,889	191,348	-0,074	0,081
-707,875	157,698	0,052	0,052
-706,860	7,953	-0,143	0,078
-705,845	-144,469	-0,032	-0,002
-704,831	-57,042	-0,063	-0,020
-703,816	321,576	0,063	-0,087
-702,802	800,000	-0,035	-0,091
-701,787	224,397	-0,067	0,079
-700,772	-72,512	-0,030	0,008
-699,758	194,573	-0,060	-0,066
-698,743	-2,045	0,046	0,023
-697,729	412,394	-0,066	-0,102
-696,714	597,168	0,073	0,132
-695,699	-200,000	0,010	-0,064
-694,685	0,683	-0,088	-0,045
-693,670	227,427	0,098	0,116
-692,656	179,265	-0,034	-0,036
-691,641	-200,000	0,001	0,038
-690,627	800,000	0,050	0,147
-689,612	-200,000	0,000	0,111
-688,597	17,064	-0,131	-0,075
-687,583	2,806	-0,133	-0,070
-686,568	-16,910	-0,170	-0,078
-685,554	-87,293	0,075	-0,016
-684,539	800,000	0,043	0,096
-683,524	82,838	0,056	0,045
-682,510	-71,073	0,070	0,019
-681,495	275,185	0,040	-0,051
-680,481	-38,738	-0,068	-0,026
-679,466	800,000	-0,013	0,030
-678,451	250,269	0,030	0,038
-677,437	98,972	0,051	-0,043
-676,422	193,175	-0,097	0,107
-675,408	-87,632	-0,163	0,035
-674,393	18,426	0,080	0,046
-673,378	-200,000	-0,003	-0,011
-672,364	341,077	0,010	0,014
-671,349	383,338	-0,028	0,042
-670,335	-7,572	-0,039	-0,019
-669,320	-135,791	-0,114	-0,010
-668,305	719,071	-0,091	0,176
-667,291	-200,000	0,052	0,220
-666,276	9,840	-0,175	-0,096
-665,262	-156,068	0,150	0,007
-664,247	-200,000	-0,037	-0,197
-663,232	800,000	-0,050	0,138
-662,218	-40,001	0,058	-0,022
-661,203	-113,850	-0,036	0,005
-660,189	-200,000	-0,031	0,121
-659,174	-131,681	-0,067	0,006
-658,159	-35,296	-0,052	-0,021
-657,145	646,613	-0,061	-0,113
-656,130	800,000	-0,018	0,043
-655,116	71,776	0,097	-0,073
-654,101	800,000	-0,048	0,153
-653,086	-200,000	0,001	0,168
-652,072	-200,000	-0,002	-0,063
-651,057	-200,000	-0,020	-0,082
-650,043	-65,019	-0,151	0,044
-649,028	-200,000	0,031	-0,149
-648,014	-46,258	-0,118	0,042
-646,999	-200,000	0,004	0,100
-645,984	800,000	-0,051	0,154
-644,970	121,875	0,079	0,071
-643,955	46,366	-0,044	-0,030
-642,941	19,508	0,037	0,022
-641,926	-200,000	0,014	0,093
-640,911	800,000	0,029	0,064
-639,897	-132,632	-0,095	-0,009
-638,882	-200,000	0,028	-0,104
-637,868	10,134	-0,023	-0,013
-636,853	89,604	-0,087	0,070
-635,838	97,478	-0,033	-0,028
-634,824	-111,923	-0,195	0,028
-633,809	-200,000	0,013	0,198
-632,795	-200,000	-0,021	0,096
-631,780	120,399	0,067	0,061
-630,765	86,134	-0,068	0,054
-629,751	-3,337	-0,101	-0,051
-628,736	-154,275	-0,085	-0,004
-627,722	800,000	0,029	0,065
-626,707	-200,000	-0,004	-0,051
-625,692	-200,000	0,015	-0,162
-624,678	384,243	0,125	0,187
-623,663	-200,000	-0,009	-0,068
-622,649	-200,000	0,002	0,050
-621,634	266,940	0,060	-0,076
-620,619	7,432	-0,117	-0,063
-619,605	-26,096	0,137	0,058
-618,590	325,771	0,023	-0,033
-617,576	-133,907	0,112	-0,010
-616,561	-160,597	0,041	0,002
-615,546	-195,910	-0,110	0,001
-614,532	-34,316	-0,020	-0,008
-613,517	43,233	0,027	-0,018
-612,503	-155,174	0,050	-0,002
-611,488	265,051	0,074	0,093
-610,474	800,000	0,047	0,123
-609,459	144,647	-0,092	-0,089
-608,444	-200,000	0,011	0,068
-607,430	-84,601	0,141	-0,032
-606,415	-200,000	-0,041	-0,153
-605,401	800,000	-0,018	-0,055
-604,386	-168,584	0,118	-0,003
-603,371	-91,042	-0,122	-0,025
-602,357	-100,367	0,045	0,008
-601,342	-200,000	-0,012	-0,054
-600,328	-134,191	-0,040	-0,004
-599,313	-30,053	-0,075	-0,031
-598,298	-200,000	0,019	0,062
-597,284	2,903	-0,030	-0,016
-596,269	-200,000	-0,025	-0,100
-595,255	-80,101	0,067	0,016
-594,240	243,030	-0,016	-0,019
-593,225	172,925	-0,051	-0,053
-592,211	-200,000	-0,013	-0,112
-591,196	800,000	-0,012	-0,037
-590,182	-18,377	0,047	-0,021
-589,167	-51,101	0,065	-0,022
-588,152	69,130	0,036	0,026
-587,138	23,969	-0,030	-0,018
-586,123	511,985	0,006	-0,010
-585,109	-200,000	-0,025	-0,109
-584,094	800,000	-0,023	-0,070
-583,079	223,068	0,085	0,100
-582,065	-200,000	-0,024	0,086
-581,050	-71,488	-0,101	-0,027
-580,036	-200,000	0,008	0,107
-579,021	43,361	-0,031	0,021
-578,006	-200,000	0,006	-0,068
-576,992	51,518	0,036	0,025
-575,977	800,000	0,046	0,129
-574,963	-98,629	0,084	-0,015
-573,948	-200,000	-0,012	0,059
-572,934	39,417	-0,060	0,039
-571,919	-155,588	-0,191	-0,009
-570,904	194,720	0,040	0,044
-569,890	149,492	0,070	-0,068
-568,875	-200,000	-0,021	-0,083
-567,861	-50,187	-0,068	0,023
-566,846	-200,000	-0,008	-0,047
-565,831	40,708	-0,090	-0,059
-564,817	-106,480	0,042	-0,007
-563,802	235,931	-0,097	-0,116
-562,788	193,695	-0,046	-0,050
-561,773	-200,000	-0,019	0,190
-560,758	61,064	-0,089	-0,064
-559,744	26,021	0,072	-0,043
-558,729	83,203	-0,081	0,064
-557,715	6,111	-0,051	0,027
-556,700	-200,000	-0,007	-0,038
-555,685	-200,000	-0,006	0,023
-554,671	74,316	-0,044	0,033
-553,656	-138,284	0,061	0,005
-552,642	421,622	0,019	0,030
-551,627	-200,000	0,032	0,153
-550,612	-39,488	0,083	-0,031
-549,598	-75,166	-0,181	-0,046
-548,583	-200,000	0,011	-0,119
-547,569	-52,288	-0,041	-0,014
-546,554	800,000	0,039	-0,099
-545,539	-99,093	0,147	-0,027
-544,525	-200,000	-0,014	0,048
-543,510	153,688	0,089	0,088
-542,496	-200,000	-0,013	-0,043
-541,481	-200,000	-0,048	-0,156
-540,466	-106,913	-0,098	-0,016
-539,452	354,996	-0,033	-0,047
-538,437	800,000	-0,058	0,145
-537,423	-200,000	-0,023	0,119
-536,408	70,262	0,041	-0,031
-535,393	-95,083	-0,055	-0,011
-534,379	800,000	-0,040	-0,116
-533,364	33,335	0,076	-0,048
-532,350	132,825	-0,068	-0,063
-531,335	-54,291	0,050	0,016
-530,321	326,725	0,061	0,085
-529,306	-200,000	0,013	0,147
-528,291	-119,151	-0,047	-0,006
-527,277	578,643	0,048	-0,085
-526,262	-200,000	-0,009	-0,069
-525,248	-147,052	-0,024	-0,001
-524,233	800,000	0,029	-0,062
-523,218	-49,798	0,158	0,054
-522,204	-200,000	-0,003	0,118
-521,189	-65,962	-0,146	-0,042
-520,175	-200,000	-0,015	0,084
-519,160	-200,000	0,012	-0,072
-518,145	-200,000	0,038	-0,153
-517,131	-101,704	-0,089	-0,015
-516,116	176,674	0,050	-0,053
-515,102	800,000	-0,014	0,041
-514,087	520,706	-0,100	-0,169
-513,072	-200,000	-0,006	-0,044
-512,058	-200,000	0,013	-0,134
-511,043	-76,781	-0,162	-0,041
-510,029	-200,000	0,014	0,056
-509,014	376,571	0,019	-0,028
-507,999	-200,000	0,004	-0,084
-506,985	63,406	0,105	0,076
-505,970	-200,000	0,000	0,028
-504,956	-140,956	-0,136	-0,010
-503,941	-200,000	-0,024	0,000
-502,926	-200,000	0,027	-0,149
-501,912	800,000	0,076	-0,166
-500,897	-64,778	0,050	0,015
-499,883	285,411	0,149	-0,194
-498,868	-200,000	-0,005	-0,037
-497,853	-200,000	-0,008	-0,112
-496,839	102,119	-0,084	-0,071
-495,824	136,011	0,058	0,055
-494,810	-38,456	0,152	0,058
-493,795	-100,453	0,095	0,017
-492,781	-18,419	-0,078	0,035
-491,766	354,644	-0,083	0,119
-490,751	800,000	-0,037	0,077
-489,737	-90,809	-0,136	0,028
-488,722	427,116	-0,013	-0,020
-487,708	-200,000	-0,002	0,150
-486,693	24,535	-0,112	-0,066
-485,678	-162,306	-0,172	0,006
-484,664	-200,000	-0,002	0,021
-483,649	-98,027	0,065	0,012
-482,635	-49,648	-0,104	-0,035
-481,620	-200,000	0,014	-0,112
-480,605	-135,887	-0,058	-0,005
-479,591	94,190	-0,046	0,038
-478,576	-200,000	0,004	0,013
-477,562	-145,126	0,084	0,005
-476,547	-200,000	0,010	-0,111
-475,532	4,041	0,085	0,045
-474,518	55,890	0,052	-0,036
-473,503	-200,000	0,016	0,057
-472,489	127,807	0,065	-0,060
-471,474	131,212	-0,056	-0,052
-470,459	193,944	-0,042	-0,046
-469,445	-152,128	-0,128	-0,007
-468,430	-200,000	-0,050	0,000
-467,416	384,756	0,026	0,038
-466,401	-2,493	0,071	-0,035
-465,386	-200,000	0,022	0,144
-464,372	-200,000	0,010	0,041
-463,357	-64,504	-0,045	-0,013
-462,343	-149,792	-0,092	0,005
-461,328	-46,040	-0,096	0,034
-460,313	271,070	0,009	0,012
-459,299	146,291	0,058	-0,056
-458,284	-198,972	0,074	-0,000
-457,270	-147,050	-0,038	0,002
-456,255	-18,017	-0,045	0,020
-455,241	-160,103	0,064	-0,002
-454,226	-1,485	0,079	-0,040
-453,211	-200,000	0,002	0,159
-452,197	51,470	0,090	0,062
-451,182	-127,680	0,163	-0,017
-450,168	800,000	0,051	0,119
-449,153	164,096	-0,089	0,090
-448,138	-155,885	0,044	0,002
-447,124	174,329	-0,083	-0,086
-446,109	-200,000	0,013	-0,082
-445,095	800,000	-0,007	-0,018
-444,080	800,000	0,041	0,099
-443,065	461,418	-0,053	0,085
-442,051	-200,000	0,011	0,070
-441,036	223,314	0,060	-0,070
-440,022	-3,560	-0,086	0,043
-439,007	258,438	-0,030	0,037
-437,992	-102,244	0,085	-0,015
-436,978	-16,189	0,038	0,017
-435,963	-1,096	-0,109	0,055
-434,949	155,952	-0,023	0,023
-433,934	-89,395	0,051	-0,011
-432,919	230,095	-0,135	-0,159
-431,905	649,769	0,039	-0,071
-430,890	-43,936	0,179	-0,064
-429,876	37,388	-0,042	0,027
-428,861	-200,000	0,023	-0,077
-427,846	43,889	-0,038	0,025
-426,832	-74,688	0,125	-0,032
-425,817	-195,716	0,052	0,000
-424,803	-15,701	-0,102	-0,047
-423,788	-145,291	0,116	-0,007
-422,773	-200,000	0,000	0,176
-421,759	-110,374	0,146	0,022
-420,744	57,034	0,150	0,105
-419,730	104,973	0,101	-0,085
-418,715	-200,000	-0,015	-0,164
-417,701	-48,709	0,081	-0,028
-416,686	-200,000	0,001	0,025
-415,671	-200,000	-0,004	-0,056
-414,657	-32,721	0,153	-0,061
-413,642	1,782	0,070	0,036
-412,628	10,665	-0,099	0,054
-411,613	148,903	-0,095	-0,092
-410,598	346,505	0,170	-0,241
-409,584	-51,669	0,089	-0,030
-408,569	-200,000	0,006	-0,057
-407,555	800,000	0,054	0,124
-406,540	-90,849	-0,059	0,012
-405,525	224,206	-0,160	-0,186
-404,511	-73,909	-0,036	-0,009
-403,496	800,000	0,051	0,110
-402,482	800,000	-0,038	-0,113
-401,467	-27,079	-0,070	-0,029
-400,452	211,894	0,037	0,042
-399,438	800,000	0,049	0,114
-398,423	-98,897	-0,102	0,018
-397,409	341,353	0,078	-0,109
-396,394	-200,000	0,040	-0,190
-395,379	-87,938	0,025	-0,005
-394,365	-17,971	0,102	-0,046
-393,350	-22,662	0,134	-0,058
-392,336	-200,000	-0,048	0,155
-391,321	-162,845	-0,064	0,002
-390,306	328,646	-0,037	0,051
-389,292	-200,000	0,027	-0,104
-388,277	0,279	0,101	0,052
-387,263	154,367	-0,047	0,046
-386,248	265,581	0,053	0,066
-385,233	672,820	-0,039	-0,073
-384,219	66,267	-0,017	0,013
-383,204	99,718	-0,068	-0,057
-382,190	13,881	0,126	0,070
-381,175	-200,000	-0,006	-0,072
-380,160	325,788	-0,055	-0,076
-379,146	800,000	-0,027	0,069
-378,131	59,780	0,114	0,081
-377,117	-200,000	-0,020	-0,082
-376,102	-122,171	-0,110	0,013
-375,088	-32,450	-0,046	0,018
-374,073	-77,392	-0,144	-0,036
-373,058	44,830	0,045	0,030
-372,044	-105,287	-0,038	0,006
-371,029	143,993	0,046	-0,044
-370,015	800,000	-0,033	0,083
-369,000	-200,000	0,036	0,140
-367,985	449,762	0,013	0,020
-366,971	-95,872	-0,083	-0,016
-365,956	-200,000	0,035	-0,132
-364,942	-200,000	0,006	0,024
-363,927	604,336	-0,067	0,119
-362,912	-0,162	0,057	0,029
-361,898	-28,556	0,064	0,026
-360,883	-79,911	-0,091	-0,022
-359,869	-200,000	-0,008	0,032
-358,854	247,487	-0,124	0,150
-357,839	-170,422	0,124	0,003
-356,825	-200,000	0,013	0,050
-355,810	-200,000	-0,006	-0,076
-354,796	276,346	-0,036	-0,046
-353,781	-200,000	0,009	-0,128
-352,766	-56,747	-0,093	0,029
-351,752	445,556	0,026	-0,042
-350,737	-200,000	-0,031	-0,104
-349,723	800,000	0,022	0,063
-348,708	-80,446	0,081	0,019
-347,693	509,333	-0,105	0,176
-346,679	-33,787	-0,113	-0,044
-345,664	51,430	-0,146	-0,099
-344,650	15,279	-0,054	-0,030
-343,635	621,391	0,023	0,042
-342,620	-200,000	0,015	0,085
-341,606	46,005	0,076	0,050
-340,591	105,462	-0,098	0,083
-339,577	230,504	-0,072	-0,084
-338,562	-200,000	0,009	-0,032
-337,548	-61,370	0,094	0,028
-336,533	-183,942	0,142	0,002
-335,518	-200,000	-0,020	0,107
-334,504	-159,396	-0,045	0,002
-333,489	127,998	-0,076	-0,069
-332,475	371,598	0,042	0,062
-331,460	163,707	-0,151	-0,152
-330,445	-200,000	0,016	0,058
-329,431	1,602	-0,053	0,027
-328,416	-200,000	0,017	0,112
-327,402	-172,151	-0,067	-0,002
-326,387	800,000	0,036	-0,085
-325,372	-127,612	0,019	-0,002
-324,358	-200,000	0,007	-0,141
-323,343	16,454	0,052	-0,030
-322,329	51,759	-0,081	-0,055
-321,314	-130,111	0,101	0,010
-320,299	670,880	0,028	-0,052
-319,285	-11,621	0,131	-0,062
-318,270	-132,000	0,042	-0,004
-317,256	335,645	0,062	-0,086
-316,241	42,625	0,094	-0,061
-315,226	800,000	0,040	0,086
-314,212	-200,000	-0,002	-0,088
-313,197	65,264	0,114	-0,082
-312,183	800,000	-0,046	0,106
-311,168	75,038	0,089	0,067
-310,153	728,741	-0,053	0,102
-309,139	-200,000	0,010	0,109
-308,124	800,000	0,018	-0,055
-307,110	-200,000	0,010	0,188
-306,095	618,360	-0,099	-0,179
-305,080	-200,000	0,015	0,059
-304,066	-200,000	0,007	0,030
-303,051	729,691	-0,024	0,045
-302,037	183,922	-0,108	-0,114
-301,022	490,399	-0,074	-0,122
-300,008	144,277	0,097	0,092
-298,993	751,220	0,079	0,153
-297,978	-65,781	0,094	-0,027
-296,964	-130,853	-0,163	-0,015
-295,949	86,093	-0,077	-0,061
-294,935	63,001	-0,147	-0,105
-293,920	800,000	-0,058	0,135
-292,905	-34,889	-0,021	-0,008
-291,891	-8,566	0,073	0,035
-290,876	-200,000	-0,021	0,085
-289,862	-200,000	-0,024	-0,094
-288,847	66,228	0,031	-0,023
-287,832	263,969	-0,102	-0,127
-286,818	-200,000	0,006	-0,080
-285,803	499,841	0,017	-0,028
-284,789	800,000	0,035	0,083
-283,774	298,163	0,044	0,058
-282,759	76,232	-0,098	0,074
-281,745	-200,000	-0,042	-0,140
-280,730	-200,000	0,009	-0,058
-279,716	-86,466	0,110	-0,024
-278,701	16,320	-0,017	-0,010
-277,686	800,000	0,010	0,020
-276,672	143,525	0,109	-0,104
-275,657	800,000	-0,042	0,113
-274,643	-107,382	0,035	-0,005
-273,628	278,039	-0,050	0,064
-272,613	-200,000	-0,022	-0,112
-271,599	-20,508	-0,092	0,040
-270,584	0,515	0,057	0,029
-269,570	42,949	0,015	0,010
-268,555	800,000	-0,026	0,052
-267,540	85,830	0,061	-0,048
-266,526	652,774	-0,127	-0,233
-265,511	47,568	0,074	0,049
-264,497	-200,000	-0,029	0,104
-263,482	182,487	0,059	0,062
-262,467	87,292	0,136	0,107
-261,453	666,989	0,066	0,122
-260,438	139,578	0,085	0,080
-259,424	-200,000	0,000	-0,047
-258,409	-33,608	0,094	0,037
-257,395	198,811	-0,034	-0,037
-256,380	153,277	0,104	0,102
-255,365	727,294	0,051	0,097
-254,351	343,501	-0,039	0,055
-253,336	126,458	-0,039	-0,035
-252,322	-200,000	-0,002	-0,008
-251,307	-42,633	-0,082	0,030
-250,292	-200,000	-0,014	0,162
-249,278	-31,781	0,064	0,025
-248,263	275,051	0,030	0,038
-247,249	-200,000	-0,004	0,047
-246,234	629,027	0,061	0,111
-245,219	-200,000	0,005	-0,083
-244,205	-200,000	0,005	-0,070
-243,190	113,781	0,122	0,106
-242,176	-11,818	0,237	-0,110
-241,161	-200,000	-0,012	-0,123
-240,146	43,352	-0,090	0,058
-239,132	-116,445	-0,093	-0,012
-238,117	-112,928	0,121	0,017
-237,103	193,992	-0,091	-0,099
-236,088	-126,718	-0,048	-0,005
-235,073	-200,000	-0,003	-0,029
-234,059	128,991	0,056	0,051
-233,044	293,474	0,086	0,113
-232,030	683,773	0,021	-0,039
-231,015	-200,000	-0,045	-0,223
-230,000	147,164	-0,053	0,051
-228,986	162,793	-0,138	-0,138
-227,971	258,586	0,105	0,130
-226,957	-152,363	-0,071	0,004
-225,942	-129,208	0,121	0,012
-224,927	-153,184	0,162	0,008
-223,913	-111,031	-0,094	-0,014
-222,898	550,103	-0,066	-0,114
-221,884	800,000	0,051	-0,115
-220,869	-57,427	-0,095	0,029
-219,855	154,920	-0,032	0,031
-218,840	438,778	0,072	0,112
-217,825	-123,755	-0,130	-0,014
-216,811	-46,577	0,045	-0,016
-215,796	800,000	0,039	0,084
-214,782	206,831	-0,028	-0,031
-213,767	800,000	0,021	0,050
-212,752	-106,591	0,114	0,018
-211,738	16,741	-0,091	0,051
-210,723	135,917	0,099	0,092
-209,709	800,000	-0,017	0,038
-208,694	800,000	0,043	-0,102
-207,679	-175,799	-0,191	-0,004
-206,665	436,019	0,017	0,026
-205,650	800,000	0,046	0,138
-204,636	-200,000	-0,029	0,124
-203,621	380,490	0,077	0,113
-202,606	-28,637	0,192	-0,078
-201,592	-200,000	-0,019	-0,128
-200,577	506,630	-0,074	-0,123
-199,563	-200,000	0,028	0,110
-198,548	118,383	0,122	0,107
-197,533	488,551	0,037	-0,060
-196,519	-51,286	-0,116	0,038
-195,504	-23,275	0,046	-0,020
-194,490	800,000	-0,018	-0,036
-193,475	800,000	-0,070	-0,194
-192,460	257,428	0,012	0,015
-191,446	-26,564	-0,081	0,034
-190,431	800,000	0,044	0,136
-189,417	74,197	0,086	0,064
-188,402	19,589	-0,014	0,008
-187,387	-200,000	-0,006	-0,048
-186,373	31,139	-0,058	-0,035
-185,358	-196,703	-0,092	-0,000
-184,344	25,608	0,167	0,099
-183,329	-200,000	0,020	0,140
-182,315	-83,207	-0,049	0,011
-181,300	275,828	0,088	0,112
-180,285	800,000	-0,058	-0,161
-179,271	0,376	-0,160	-0,081
-178,256	227,164	-0,061	-0,070
-177,242	369,624	-0,029	0,042
-176,227	102,652	-0,063	0,052
-175,212	-200,000	0,025	0,215
-174,198	-110,929	-0,036	-0,005
-173,183	-200,000	0,023	-0,206
-172,169	-200,000	0,000	-0,051
-171,154	-200,000	-0,021	0,068
-170,139	84,869	0,170	0,133
-169,125	-148,368	-0,186	0,011
-168,110	-200,000	0,024	0,115
-167,096	-132,108	-0,124	-0,011
-166,081	205,413	0,043	-0,048
-165,066	-117,149	-0,015	-0,002
-164,052	-128,198	-0,088	-0,009
-163,037	-200,000	-0,001	-0,046
-162,023	13,950	-0,050	0,028
-161,008	-85,498	0,128	-0,028
-159,993	-200,000	-0,014	0,158
-158,979	340,216	-0,005	-0,007
-157,964	16,096	0,043	-0,024
-156,950	115,108	-0,057	-0,050
-155,935	457,413	-0,029	-0,045
-154,920	198,565	0,144	0,157
-153,906	148,094	0,061	0,058
-152,891	368,315	-0,101	-0,145
-151,877	800,000	-0,053	-0,155
-150,862	-200,000	-0,031	-0,113
-149,847	531,621	0,056	-0,094
-148,833	-102,967	0,024	-0,004
-147,818	-200,000	0,024	0,111
-146,804	91,990	0,106	0,085
-145,789	-200,000	-0,005	-0,041
-144,775	-86,717	-0,062	0,013
-143,760	-10,482	0,097	-0,046
-142,745	-200,000	0,028	-0,091
-141,731	-36,125	0,037	0,014
-140,716	11,706	0,157	-0,085
-139,702	-54,421	0,093	-0,030
-138,687	185,375	0,095	-0,100
-137,672	800,000	-0,060	-0,132
-136,658	-21,320	-0,133	-0,058
-135,643	33,679	0,024	0,015
-134,629	-200,000	-0,010	-0,137
-133,614	-98,318	0,110	-0,020
-132,599	252,646	-0,057	-0,069
-131,585	800,000	-0,003	-0,006
-130,570	-200,000	-0,024	-0,082
-129,556	-18,697	-0,124	-0,054
-128,541	-81,084	0,039	-0,009
-127,526	236,878	0,031	-0,036
-126,512	800,000	0,030	-0,062
-125,497	-85,125	0,070	0,015
-124,483	-200,000	0,022	0,100
-123,468	-200,000	-0,017	-0,107
-122,453	176,369	-0,077	-0,079
-121,439	7,364	-0,149	-0,079
-120,424	258,838	-0,039	-0,047
-119,410	-200,000	0,011	-0,039
-118,395	800,000	-0,039	0,095
-117,380	-200,000	0,015	0,084
-116,366	-34,245	-0,117	-0,045
-115,351	800,000	-0,027	-0,059
-114,337	-24,513	-0,113	0,048
-113,322	24,089	0,064	0,037
-112,307	800,000	-0,012	-0,025
-111,293	800,000	0,013	0,026
-110,278	190,998	0,091	0,098
-109,264	38,083	-0,052	0,033
-108,249	-200,000	0,021	-0,090
-107,234	-200,000	-0,010	-0,058
-106,220	800,000	0,030	-0,067
-105,205	189,997	-0,131	-0,139
-104,191	800,000	-0,025	-0,057
-103,176	-200,000	-0,027	0,110
-102,162	35,494	0,119	-0,074
-101,147	256,225	-0,029	-0,035
-100,132	43,161	0,043	-0,028
-99,118	-200,000	-0,055	-0,186
-98,103	800,000	-0,063	-0,177
-97,089	-92,697	0,176	-0,035
-96,074	0,456	0,055	0,028
-95,059	487,970	-0,082	0,134
-94,045	110,864	-0,025	-0,021
-93,030	12,133	0,120	-0,065
-92,016	-109,135	0,016	0,002
-91,001	-200,000	-0,001	0,003
-89,986	-200,000	-0,007	0,045
-88,972	22,590	-0,056	0,033
-87,957	-200,000	0,006	0,082
-86,943	21,563	-0,100	-0,058
-85,928	-200,000	-0,041	-0,197
-84,913	33,350	0,061	0,037
-83,899	623,570	-0,046	0,083
-82,884	185,265	0,126	0,133
-81,870	-200,000	-0,041	0,192
-80,855	-200,000	0,005	-0,040
-79,840	85,792	-0,101	0,079
-78,826	-92,371	0,002	-0,000
-77,811	800,000	0,027	-0,060
-76,797	1,804	0,039	0,020
-75,782	24,475	-0,037	0,022
-74,767	236,010	0,083	0,098
-73,753	-19,669	0,137	0,060
-72,738	-100,513	-0,108	0,019
-71,724	630,259	-0,012	-0,021
-70,709	166,691	0,024	0,024
-69,694	-200,000	-0,005	-0,087
-68,680	-6,397	0,148	-0,071
-67,665	-158,072	-0,132	0,005
-66,651	-200,000	0,012	0,056
-65,636	21,093	-0,058	0,033
-64,622	79,119	0,084	0,064
-63,607	255,225	-0,047	0,057
-62,592	-200,000	0,013	0,202
-61,578	-121,954	-0,074	0,009
-60,563	-14,552	0,039	0,018
-59,549	-200,000	0,037	0,144
-58,534	-16,918	-1,554	-0,692
-57,519	341,961	-1,413	-1,962
-56,505	-200,000	-0,392	-4,419
-55,490	272,859	0,870	1,090
-54,476	800,000	5,033	11,448
-53,461	-200,000	19,269	319,547
-52,446	-200,000	740,532	2333,340
-51,432	572,930	1655,631	2868,316
-50,417	78,244	1671,042	1261,567
-49,403	21,253	1543,934	885,322
-48,388	15,130	1466,413	811,093
-47,373	17,923	1456,799	819,244
-46,359	16,666	1446,424	807,350
-45,344	13,417	1441,762	789,152
-44,330	13,280	1440,091	787,550
-43,315	13,304	1438,434	786,727
-42,300	13,311	1436,609	785,731
-41,286	13,380	1435,236	785,280
-40,271	13,358	1433,889	784,407
-39,257	13,309	1432,687	783,485
-38,242	13,386	1431,422	783,128
-37,227	13,367	1430,332	782,410
-36,213	13,363	1428,896	781,574
-35,198	13,346	1427,724	780,822
-34,184	13,400	1426,715	780,493
-33,169	13,381	1425,463	779,690
-32,154	13,399	1424,489	779,211
-31,140	13,375	1423,162	778,343
-30,125	13,399	1421,911	777,737
-29,111	13,412	1420,888	777,208
-28,096	13,381	1419,728	776,399
-27,082	13,365	1418,588	775,669
-26,067	13,343	1417,550	774,967
-25,052	13,358	1416,238	774,287
-24,038	13,325	1415,556	773,730
-23,023	13,317	1414,393	773,025
-22,009	13,320	1413,379	772,453
-20,994	13,260	1412,561	771,697
-19,979	13,248	1411,885	771,241
-18,965	13,280	1410,821	770,777
-17,950	13,282	1409,891	770,247
-16,936	13,324	1408,715	769,774
-15,921	13,233	1407,725	768,773
-14,906	13,219	1406,923	768,240
-13,892	13,234	1405,831	767,684
-12,877	13,284	1404,677	767,258
-11,863	13,239	1404,062	766,682
-10,848	13,217	1403,378	766,174
-9,833	13,198	1402,507	765,581
-8,819	13,167	1401,714	764,970
-7,804	13,095	1400,784	764,099
-6,790	13,174	1399,420	763,694
-5,775	13,128	1398,730	763,073
-4,760	13,159	1397,472	762,498
-3,746	13,125	1396,483	761,770
-2,731	13,125	1395,864	761,401
-1,717	13,091	1395,113	760,808
-0,702	13,050	1393,345	759,622
0,313	16,971	1309,967	732,307
1,327	33,230	703,768	431,002
2,342	51,443	123,199	82,665
3,356	1,977	16,768	8,532
4,371	-1,905	3,374	1,673
5,386	122,089	0,457	0,403
6,400	-200,000	0,082	0,288
7,415	18,084	-0,331	-0,186
8,429	-8,318	-0,369	-0,175
9,444	113,881	-0,366	-0,315
10,459	67,717	-0,310	-0,223
11,473	-10,531	-0,296	-0,138
12,488	50,768	-0,284	-0,190
13,502	69,058	-0,261	-0,189
14,517	-2,502	-0,313	-0,154
15,531	83,138	-0,354	-0,272
16,546	468,973	-0,245	-0,390
17,561	135,373	-0,340	-0,313
18,575	-74,622	-0,374	-0,094
19,590	221,811	-0,180	-0,205
20,604	9,821	-0,184	-0,098
21,619	124,910	-0,455	-0,405
22,634	166,762	-0,438	-0,439
23,648	87,103	-0,520	-0,406
24,663	470,455	-0,171	-0,273
25,677	73,075	-0,437	-0,322
26,692	-43,294	-0,371	-0,132
27,707	3,278	-0,279	-0,143
28,721	58,345	-0,355	-0,246
29,736	88,069	-0,415	-0,324
30,750	358,575	-0,266	-0,376
31,765	138,490	-0,398	-0,369
32,780	-14,122	-0,381	-0,173
33,794	76,111	-0,443	-0,331
34,809	710,413	-0,229	-0,430
35,823	101,255	-0,325	-0,267
36,838	5,617	-0,534	-0,277
37,853	251,271	-0,258	-0,310
38,867	118,630	-0,377	-0,329
39,882	103,039	-0,330	-0,272
40,896	328,901	-0,226	-0,308
41,911	151,623	-0,337	-0,324
42,926	22,854	-0,432	-0,249
43,940	213,995	-0,249	-0,278
44,955	111,516	-0,427	-0,363
45,969	39,336	-0,471	-0,297
46,984	117,414	-0,379	-0,328
47,999	7,139	-0,324	-0,170
49,013	10,293	-0,336	-0,180
50,028	2,373	-0,341	-0,173
51,042	142,761	-0,274	-0,256
52,057	367,062	-0,250	-0,357
53,071	63,119	-0,319	-0,225
54,086	115,541	-0,295	-0,254
55,101	131,378	-0,328	-0,296
56,115	180,958	-0,327	-0,339
57,130	94,173	-0,302	-0,241
58,144	74,551	-0,395	-0,292
59,159	129,213	-0,285	-0,256
60,174	56,773	-0,339	-0,232
61,188	27,543	-0,356	-0,210
62,203	9,325	-0,303	-0,161
63,217	-20,875	-0,311	-0,133
64,232	59,870	-0,293	-0,203
65,247	142,498	-0,275	-0,257
66,261	28,492	-0,401	-0,238
67,276	-2,194	-0,277	-0,136
68,290	-43,431	-0,361	-0,128
69,305	20,327	-0,257	-0,146
70,320	64,098	-0,342	-0,242
71,334	49,692	-0,281	-0,186
72,349	18,783	-0,242	-0,136
73,363	297,294	-0,236	-0,305
74,378	132,629	-0,303	-0,275
75,393	192,846	-0,341	-0,363
76,407	799,916	-0,163	-0,317
77,422	28,422	-0,309	-0,183
78,436	73,731	-0,294	-0,216
79,451	-1,712	-0,326	-0,161
80,466	216,475	-0,295	-0,330
81,480	-137,642	-0,328	-0,026
82,495	-46,509	-0,358	-0,123
83,509	371,005	-0,242	-0,346
84,524	83,213	-0,340	-0,260
85,539	132,628	-0,211	-0,191
86,553	123,991	-0,301	-0,266
87,568	336,096	-0,206	-0,281
88,582	85,886	-0,191	-0,147
89,597	-25,504	-0,428	-0,177
90,611	27,644	-0,329	-0,194
91,626	173,198	-0,145	-0,147
92,641	55,196	-0,278	-0,189
93,655	5,830	-0,231	-0,119
94,670	171,964	-0,276	-0,278
95,684	45,244	-0,441	-0,285
96,699	112,015	-0,317	-0,269
97,714	208,920	-0,284	-0,313
98,728	412,956	-0,186	-0,278
99,743	2,492	-0,293	-0,148
100,757	202,840	-0,259	-0,281
101,772	92,944	-0,177	-0,140
102,787	-2,772	-0,410	-0,200
103,801	116,010	-0,296	-0,254
104,816	-2,968	-0,287	-0,140
105,830	57,790	-0,304	-0,208
106,845	800,000	-0,121	-0,265
107,860	257,396	-0,235	-0,284
108,874	-62,217	-0,270	-0,078
109,889	50,622	-0,224	-0,149
110,903	34,698	-0,376	-0,230
111,918	39,274	-0,273	-0,171
112,933	800,000	-0,140	-0,272
113,947	174,511	-0,362	-0,368
114,962	-62,448	-0,139	-0,040
115,976	29,171	-0,325	-0,193
116,991	112,319	-0,266	-0,225
118,006	113,933	-0,305	-0,260
119,020	-31,075	-0,323	-0,127
120,035	161,813	-0,205	-0,202
121,049	75,421	-0,245	-0,181
122,064	-50,800	-0,396	-0,130
123,079	253,136	-0,202	-0,242
124,093	389,391	-0,148	-0,215
125,108	26,957	-0,270	-0,158
126,122	141,575	-0,225	-0,209
127,137	134,461	-0,229	-0,208
128,151	94,938	-0,213	-0,169
129,166	305,207	-0,147	-0,192
130,181	275,928	-0,195	-0,243
131,195	800,000	-0,134	-0,263
132,210	532,204	-0,184	-0,305
133,224	55,714	-0,393	-0,266
134,239	172,452	-0,227	-0,228
135,254	71,237	-0,172	-0,125
136,268	161,517	-0,266	-0,260
137,283	-19,162	-0,232	-0,100
138,297	139,972	-0,262	-0,241
139,312	44,893	-0,279	-0,179
140,327	78,158	-0,209	-0,156
141,341	153,102	-0,222	-0,212
142,356	408,932	-0,126	-0,187
143,370	24,178	-0,261	-0,151
144,385	29,341	-0,286	-0,170
145,400	-118,522	-0,264	-0,032
146,414	-0,201	-0,222	-0,110
147,429	261,271	-0,129	-0,156
148,443	116,422	-0,162	-0,138
149,458	2,796	-0,153	-0,077
150,473	236,383	-0,209	-0,242
151,487	-54,843	-0,208	-0,065
152,502	659,550	-0,183	-0,331
153,516	-8,071	-0,229	-0,108
154,531	176,353	-0,189	-0,192
155,546	207,919	-0,195	-0,213
156,560	800,000	-0,063	-0,136
157,575	129,142	-0,247	-0,220
158,589	40,968	-0,345	-0,217
159,604	-99,754	-0,226	-0,039
160,619	147,098	-0,285	-0,267
161,633	-5,226	-0,307	-0,147
162,648	132,024	-0,228	-0,205
163,662	117,566	-0,249	-0,213
164,677	35,021	-0,152	-0,092
165,692	-121,339	-0,179	-0,021
166,706	-79,511	-0,301	-0,070
167,721	74,373	-0,242	-0,177
168,735	0,315	-0,424	-0,210
169,750	283,682	-0,290	-0,364
170,764	64,315	-0,135	-0,095
171,779	-0,597	-0,198	-0,098
172,794	169,421	-0,199	-0,199
173,808	167,742	-0,172	-0,170
174,823	54,938	-0,242	-0,163
175,837	59,170	-0,302	-0,207
176,852	108,583	-0,150	-0,124
177,867	54,323	-0,238	-0,159
178,881	15,116	-0,259	-0,141
179,896	113,115	-0,151	-0,127
180,910	21,351	-0,307	-0,174
181,925	92,316	-0,260	-0,204
182,940	-6,397	-0,239	-0,113
183,954	462,103	-0,175	-0,273
184,969	155,448	-0,228	-0,218
185,983	-93,491	-0,311	-0,059
186,998	6,271	-0,220	-0,113
188,013	-100,810	-0,277	-0,047
189,027	272,377	-0,195	-0,240
190,042	353,174	-0,216	-0,299
191,056	69,034	-0,241	-0,172
192,071	144,969	-0,229	-0,213
193,086	134,293	-0,145	-0,131
194,100	234,952	-0,122	-0,141
195,115	27,663	-0,238	-0,139
196,129	229,040	-0,164	-0,186
197,144	122,307	-0,202	-0,175
198,159	-73,304	-0,310	-0,078
199,173	31,173	-0,221	-0,132
200,188	279,673	-0,158	-0,196
201,202	-23,244	-0,086	-0,036
202,217	1,853	-0,204	-0,102
203,232	72,927	-0,272	-0,197
204,246	-56,312	-0,261	-0,080
205,261	214,690	-0,265	-0,292
206,275	-10,086	-0,190	-0,087
207,290	-125,892	-0,155	0,016
208,304	80,917	-0,089	-0,067
209,319	-18,205	-0,131	-0,057
210,334	-33,798	-0,283	-0,108
211,348	142,734	-0,169	-0,156
212,363	323,020	-0,052	-0,069
213,377	117,727	-0,183	-0,157
214,392	535,917	-0,124	-0,204
215,407	800,000	-0,132	-0,290
216,421	110,573	-0,251	-0,209
217,436	277,351	-0,163	-0,202
218,450	78,116	-0,223	-0,165
219,465	103,611	-0,173	-0,141
220,480	-8,095	-0,184	-0,086
221,494	722,196	-0,114	-0,211
222,509	610,679	-0,142	-0,247
223,523	85,701	-0,209	-0,159
224,538	72,994	-0,158	-0,115
225,553	-3,844	-0,205	-0,098
226,567	189,391	-0,179	-0,186
227,582	-200,000	0,024	-0,221
228,596	-44,515	-0,221	-0,076
229,611	21,258	-0,207	-0,116
230,626	800,000	-0,076	-0,170
231,640	-45,546	-0,226	-0,077
232,655	59,555	-0,328	-0,224
233,669	98,629	-0,140	-0,112
234,684	73,954	-0,203	-0,147
235,699	-0,586	-0,247	-0,121
236,713	221,754	-0,174	-0,194
237,728	116,988	-0,178	-0,151
238,742	-33,903	-0,127	-0,048
239,757	226,662	-0,197	-0,222
240,772	153,087	-0,192	-0,182
241,786	-7,453	-0,164	-0,077
242,801	656,427	-0,141	-0,251
243,815	-126,830	-0,143	0,014
244,830	-90,901	-0,220	-0,043
245,844	-19,849	-0,242	-0,103
246,859	73,213	-0,273	-0,198
247,874	64,576	-0,169	-0,118
248,888	-3,707	-0,230	-0,110
249,903	-47,456	-0,174	-0,058
250,917	652,351	-0,134	-0,238
251,932	-73,336	-0,146	-0,037
252,947	-55,401	-0,226	-0,070
253,961	265,186	-0,168	-0,203
254,976	243,965	-0,142	-0,165
255,990	30,213	-0,251	-0,148
257,005	30,853	-0,212	-0,125
258,020	41,537	-0,145	-0,091
259,034	-33,150	-0,234	-0,089
260,049	510,365	-0,100	-0,162
261,063	52,244	-0,317	-0,209
262,078	129,822	-0,173	-0,153
263,093	346,321	-0,133	-0,181
264,107	-57,908	-0,219	-0,066
265,122	800,000	-0,078	-0,193
266,136	-33,172	-0,200	-0,076
267,151	84,471	-0,264	-0,200
268,166	-61,217	-0,152	-0,044
269,180	-25,665	-0,128	-0,052
270,195	6,626	-0,273	-0,140
271,209	-58,032	-0,272	-0,082
272,224	105,265	-0,239	-0,195
273,239	800,000	-0,055	-0,136
274,253	18,305	-0,172	-0,094
275,268	-181,493	-0,221	-0,003
276,282	283,166	-0,062	-0,077
277,297	419,146	-0,166	-0,246
278,312	103,759	-0,221	-0,179
279,326	142,768	-0,173	-0,159
280,341	-22,301	-0,145	-0,060
281,355	-109,745	-0,185	0,027
282,370	-34,328	-0,300	-0,113
283,384	42,776	-0,249	-0,156
284,399	90,587	-0,195	-0,150
285,414	13,555	-0,197	-0,105
286,428	-12,172	-0,101	0,045
287,443	-72,960	-0,204	-0,051
288,457	-147,511	-0,136	0,008
289,472	-4,350	-0,215	-0,102
290,487	487,945	-0,164	-0,260
291,501	-97,395	-0,190	-0,034
292,516	-9,726	-0,176	-0,081
293,530	144,552	-0,134	-0,123
294,545	-113,657	-0,095	-0,013
295,560	3,449	-0,125	-0,062
296,574	-18,397	-0,242	-0,104
297,589	69,025	-0,229	-0,162
298,603	79,279	-0,147	-0,108
299,618	706,676	-0,062	-0,113
300,633	165,059	-0,172	-0,167
301,647	-118,058	-0,139	-0,017
302,662	37,006	-0,212	-0,129
303,676	-33,996	-0,132	-0,050
304,691	186,561	-0,145	-0,149
305,706	50,172	-0,158	-0,103
306,720	-44,541	-0,145	-0,050
307,735	82,563	-0,070	0,053
308,749	-198,207	-0,155	-0,001
309,764	129,145	-0,076	-0,067
310,779	58,471	-0,216	-0,146
311,793	-92,139	-0,342	-0,066
312,808	211,415	-0,108	-0,117
313,822	97,168	-0,170	-0,134
314,837	-200,000	-0,000	-0,133
315,852	-200,000	0,013	-0,298
316,866	570,166	-0,090	-0,152
317,881	24,714	-0,216	-0,123
318,895	193,432	-0,144	-0,150
319,910	102,390	-0,041	-0,033
320,925	221,236	-0,162	-0,179
321,939	-53,803	-0,211	-0,066
322,954	-43,415	-0,194	-0,067
323,968	315,356	-0,161	-0,210
324,983	151,455	-0,157	-0,147
325,997	800,000	-0,122	-0,252
327,012	246,613	-0,235	-0,273
328,027	-21,476	-0,152	-0,064
329,041	-200,000	-0,041	-0,214
330,056	-38,738	-0,121	-0,044
331,070	-8,840	-0,053	-0,024
332,085	748,031	-0,069	-0,128
333,100	319,012	-0,033	-0,043
334,114	282,459	-0,135	-0,167
335,129	164,536	-0,147	-0,142
336,143	-35,588	-0,084	-0,031
337,158	-18,700	-0,060	0,026
338,173	11,397	-0,056	-0,029
339,187	40,748	0,004	0,002
340,202	662,152	-0,035	-0,063
341,216	-42,728	-0,140	-0,049
342,231	337,112	-0,144	-0,192
343,246	423,211	-0,128	-0,189
344,260	534,219	-0,047	-0,077
345,275	90,259	-0,210	-0,161
346,289	392,103	-0,135	-0,193
347,304	-200,000	0,003	-0,086
348,319	329,844	-0,187	-0,247
349,333	-138,121	-0,254	-0,019
350,348	255,720	-0,125	-0,147
351,362	-28,621	-0,106	-0,042
352,377	-66,966	-0,111	-0,030
353,392	-100,743	-0,216	-0,036
354,406	529,882	-0,132	-0,215
355,421	208,799	1313,190	1411,314
356,435	160,673	1473,727	1411,798
