DTS Sentinel unit serial number:	SN410029Multiplexer serial number:	ORYXHardware model number:	OX2-SRSoftware version number:	ORYX F/W v4,00 Oryx Data Collector v3.7.2.0data status	okinstallation	B3 Nyhavnadifferential loss correction	single-endedforward channel	channel 1reverse channel	N/Adate	2023/12/04time	21:02:30forward acquisition time	300,00reverse acquisition time	0,00gamma	499,1914k internal	0,3201k external	0,3201temperature offset calibration	1,0000default loss term (dB/km)	0,3820temperature slope calibration	1,0000multiplexer offset coefficient	1,0000multiplexer slope coefficient	1,0000fibre end	0,00T internal ref (°C)	14,50T ext. ref 1 (°C)	-0,33T ext. ref 2 (°C)	-0,34length (m)	temperature (°C)	Stokes	anti-Stokes-744,400	-58,288	-0,307	-0,097
-743,385	800,000	0,177	0,489
-742,371	-12,773	-0,246	-0,116
-741,356	-200,000	0,001	0,347
-740,342	-71,547	-0,269	-0,073
-739,327	-200,000	-0,077	0,456
-738,312	168,734	-0,208	-0,216
-737,298	-200,000	-0,074	0,306
-736,283	322,829	-0,155	-0,215
-735,269	-200,000	0,073	0,303
-734,254	137,987	-0,247	-0,235
-733,239	286,794	-0,105	0,139
-732,225	381,801	-0,099	-0,148
-731,210	550,307	0,044	0,078
-730,196	148,090	-0,071	0,070
-729,181	228,462	0,038	0,045
-728,167	-7,066	-0,037	-0,018
-727,152	-200,000	0,020	-0,071
-726,137	120,724	-0,072	-0,065
-725,123	-163,315	-0,126	0,004
-724,108	725,057	-0,095	-0,184
-723,094	13,959	-0,112	-0,063
-722,079	347,066	-0,060	-0,086
-721,064	553,472	-0,090	-0,157
-720,050	-26,847	0,092	-0,039
-719,035	100,217	-0,057	0,048
-718,021	374,492	-0,123	-0,182
-717,006	332,459	-0,016	-0,022
-715,991	800,000	-0,025	-0,078
-714,977	376,287	-0,074	-0,110
-713,962	-43,179	-0,134	-0,049
-712,948	157,394	-0,057	0,057
-711,933	-200,000	-0,001	-0,007
-710,918	302,486	-0,095	0,127
-709,904	16,071	-0,111	-0,063
-708,889	304,400	-0,041	-0,056
-707,875	-107,772	-0,097	0,015
-706,860	17,786	0,174	0,100
-705,845	80,234	0,164	0,128
-704,831	-114,160	0,081	0,011
-703,816	58,325	0,049	0,035
-702,802	-50,670	0,115	-0,039
-701,787	-200,000	-0,012	-0,166
-700,772	78,947	-0,071	-0,055
-699,758	800,000	-0,033	-0,092
-698,743	279,298	0,048	0,063
-697,729	525,106	0,008	0,014
-696,714	137,722	0,100	0,095
-695,699	-130,896	-0,069	0,007
-694,685	415,060	-0,083	-0,128
-693,670	116,320	-0,063	-0,056
-692,656	513,640	-0,055	-0,094
-691,641	-109,160	-0,150	-0,023
-690,627	800,000	0,059	0,134
-689,612	800,000	0,034	-0,106
-688,597	774,327	-0,004	-0,009
-687,583	-159,559	-0,223	-0,009
-686,568	167,049	0,112	0,115
-685,554	-63,569	-0,135	0,040
-684,539	-69,295	-0,056	0,016
-683,524	-200,000	0,003	0,126
-682,510	-200,000	0,015	0,056
-681,495	800,000	-0,046	-0,098
-680,481	-120,678	-0,103	-0,012
-679,466	-17,721	-0,118	-0,053
-678,451	800,000	0,049	0,147
-677,437	319,841	0,048	0,067
-676,422	-200,000	-0,012	0,123
-675,408	-200,000	0,007	-0,092
-674,393	216,060	0,067	0,077
-673,378	-64,673	0,017	-0,005
-672,364	800,000	-0,047	-0,105
-671,349	-200,000	-0,015	-0,127
-670,335	-141,249	0,039	-0,003
-669,320	-200,000	-0,006	-0,191
-668,305	179,105	-0,028	-0,030
-667,291	-45,776	0,059	0,021
-666,276	17,080	-0,041	-0,023
-665,262	-200,000	-0,015	0,083
-664,247	219,683	-0,120	-0,140
-663,232	-200,000	-0,015	0,197
-662,218	-42,641	-0,086	-0,032
-661,203	-200,000	-0,005	-0,063
-660,189	-200,000	-0,014	0,095
-659,174	657,768	-0,042	-0,078
-658,159	93,612	-0,121	0,099
-657,145	120,487	0,033	0,030
-656,130	-10,051	0,125	0,060
-655,116	800,000	-0,062	-0,135
-654,101	-135,856	0,149	-0,013
-653,086	-200,000	0,027	0,096
-652,072	-163,814	0,183	-0,006
-651,057	-140,206	-0,088	0,007
-650,043	-200,000	-0,015	-0,096
-649,028	82,153	-0,052	0,041
-648,014	26,957	0,086	-0,052
-646,999	800,000	0,024	-0,075
-645,984	-200,000	-0,005	-0,043
-644,970	-0,621	-0,010	-0,005
-643,955	377,518	-0,033	0,049
-642,941	235,802	-0,057	0,068
-641,926	-200,000	0,000	0,044
-640,911	800,000	0,056	0,161
-639,897	-200,000	0,003	-0,033
-638,882	-200,000	0,017	0,207
-637,868	-116,673	0,015	-0,002
-636,853	7,590	0,059	-0,032
-635,838	-200,000	0,005	-0,035
-634,824	-155,545	-0,069	0,003
-633,809	-200,000	0,001	0,092
-632,795	-77,471	0,090	0,022
-631,780	-54,156	0,085	-0,028
-630,765	800,000	-0,038	-0,117
-629,751	45,457	-0,060	0,040
-628,736	141,846	-0,012	0,011
-627,722	-200,000	0,001	-0,124
-626,707	-200,000	-0,010	-0,136
-625,692	207,231	0,089	-0,101
-624,678	-200,000	0,030	0,131
-623,663	-200,000	-0,009	-0,078
-622,649	30,863	-0,079	-0,049
-621,634	-200,000	-0,035	-0,129
-620,619	373,697	0,053	0,078
-619,605	-50,494	-0,043	0,015
-618,590	-52,058	0,119	0,040
-617,576	-200,000	0,009	0,056
-616,561	800,000	0,010	0,021
-615,546	-121,523	-0,077	-0,009
-614,532	369,803	-0,070	-0,102
-613,517	69,060	-0,068	-0,051
-612,503	-200,000	0,019	-0,081
-611,488	28,712	-0,041	-0,025
-610,474	-200,000	-0,015	0,129
-609,459	-121,584	-0,113	0,013
-608,444	39,581	-0,171	-0,111
-607,430	458,847	0,081	-0,131
-606,415	-56,077	-0,066	-0,021
-605,401	80,438	-0,154	-0,120
-604,386	-122,558	0,103	0,012
-603,371	495,490	0,040	0,067
-602,357	219,997	-0,070	0,081
-601,342	32,937	-0,070	0,044
-600,328	596,237	-0,041	-0,074
-599,313	800,000	-0,063	-0,128
-598,298	-200,000	0,008	0,135
-597,284	106,849	0,080	0,069
-596,269	-32,296	-0,096	-0,039
-595,255	554,173	0,043	-0,075
-594,240	-125,062	-0,091	-0,010
-593,225	58,941	-0,051	0,036
-592,211	-127,258	-0,104	0,011
-591,196	800,000	-0,029	0,076
-590,182	181,164	-0,040	0,043
-589,167	66,738	0,103	0,075
-588,152	800,000	0,076	-0,217
-587,138	-80,810	-0,128	0,030
-586,123	312,429	-0,136	-0,185
-585,109	735,872	-0,033	-0,064
-584,094	60,373	-0,058	0,042
-583,079	-0,236	0,088	-0,045
-582,065	427,307	0,070	0,109
-581,050	-200,000	0,009	0,120
-580,036	-3,603	-0,088	-0,044
-579,021	29,929	-0,078	-0,048
-578,006	183,158	0,048	0,052
-576,992	-143,572	0,170	-0,011
-575,977	-200,000	-0,009	0,051
-574,963	120,320	0,122	0,109
-573,948	800,000	-0,025	0,060
-572,934	25,390	-0,062	0,037
-571,919	599,484	0,054	0,097
-570,904	-150,153	-0,126	-0,007
-569,890	800,000	-0,038	-0,105
-568,875	61,717	0,090	-0,065
-567,861	-26,613	0,106	0,045
-566,846	-200,000	0,012	-0,070
-565,831	800,000	0,036	-0,095
-564,817	-14,277	-0,080	0,037
-563,802	800,000	0,030	-0,063
-562,788	800,000	-0,019	-0,043
-561,773	45,377	-0,061	-0,040
-560,758	-200,000	0,018	0,058
-559,744	15,196	0,131	0,074
-558,729	374,749	0,006	0,008
-557,715	800,000	0,017	0,050
-556,700	-170,452	-0,063	-0,002
-555,685	211,605	0,049	-0,056
-554,671	-200,000	-0,032	0,125
-553,656	800,000	0,036	0,081
-552,642	-200,000	0,005	-0,061
-551,627	-60,558	-0,055	-0,017
-550,612	439,882	-0,039	-0,062
-549,598	112,554	0,069	-0,060
-548,583	-79,432	-0,069	0,017
-547,569	800,000	-0,055	0,114
-546,554	800,000	0,062	0,156
-545,539	800,000	-0,005	0,014
-544,525	-150,934	0,134	-0,007
-543,510	-200,000	-0,007	-0,053
-542,496	-200,000	0,011	0,088
-541,481	-26,363	0,062	-0,026
-540,466	90,739	0,042	0,034
-539,452	800,000	0,023	-0,059
-538,437	-39,771	0,076	-0,029
-537,423	800,000	0,015	-0,038
-536,408	-200,000	-0,040	-0,170
-535,393	-200,000	0,004	-0,039
-534,379	-86,171	-0,086	-0,019
-533,364	116,761	0,060	-0,053
-532,350	-200,000	0,017	-0,087
-531,335	800,000	0,043	-0,102
-530,321	800,000	-0,048	-0,096
-529,306	-63,554	-0,101	0,030
-528,291	-200,000	0,009	0,051
-527,277	-38,807	0,070	0,027
-526,262	-92,533	0,042	0,008
-525,248	300,011	0,046	0,062
-524,233	-67,947	0,027	0,008
-523,218	-200,000	-0,009	0,138
-522,204	56,966	-0,089	-0,063
-521,189	800,000	0,079	-0,216
-520,175	30,349	0,052	-0,032
-519,160	-200,000	-0,017	-0,085
-518,145	-102,295	0,109	-0,019
-517,131	-137,916	0,026	-0,002
-516,116	405,645	0,060	0,091
-515,102	13,266	-0,056	0,031
-514,087	-200,000	-0,002	-0,047
-513,072	749,443	0,010	-0,019
-512,058	557,676	-0,013	0,022
-511,043	-200,000	0,003	0,075
-510,029	267,065	0,112	0,142
-509,014	800,000	0,025	0,078
-507,999	-65,193	0,116	0,033
-506,985	285,327	-0,048	0,063
-505,970	-200,000	0,033	-0,148
-504,956	264,570	-0,019	0,024
-503,941	-200,000	0,021	-0,120
-502,926	-200,000	-0,007	0,073
-501,912	800,000	0,027	0,069
-500,897	800,000	0,065	0,153
-499,883	-85,859	-0,056	0,012
-498,868	-9,895	-0,039	0,019
-497,853	-46,132	-0,160	0,056
-496,839	-200,000	-0,005	-0,117
-495,824	-2,740	0,082	-0,041
-494,810	-84,906	-0,034	-0,008
-493,795	21,407	-0,119	0,070
-492,781	-200,000	0,021	0,106
-491,766	107,059	-0,073	-0,063
-490,751	-70,614	-0,206	-0,056
-489,737	-200,000	0,008	-0,123
-488,722	-26,813	0,149	0,062
-487,708	800,000	0,042	0,111
-486,693	-200,000	0,005	-0,137
-485,678	50,167	0,015	-0,010
-484,664	-200,000	0,003	0,089
-483,649	311,392	-0,022	0,030
-482,635	-142,074	-0,029	0,002
-481,620	18,998	-0,087	-0,050
-480,605	800,000	0,047	0,107
-479,591	-200,000	-0,019	0,079
-478,576	-200,000	0,011	0,055
-477,562	-105,053	-0,196	0,032
-476,547	786,545	-0,062	-0,123
-475,532	314,266	-0,073	-0,100
-474,518	332,071	0,053	-0,074
-473,503	-15,688	-0,056	0,025
-472,489	57,719	0,067	-0,047
-471,474	-5,213	0,081	0,040
-470,459	-191,652	-0,018	0,000
-469,445	-200,000	-0,004	-0,164
-468,430	800,000	-0,052	-0,132
-467,416	2,663	0,114	-0,059
-466,401	-57,154	-0,079	0,025
-465,386	31,710	0,049	0,030
-464,372	147,274	-0,002	-0,002
-463,357	-48,879	-0,036	-0,012
-462,343	244,310	0,049	-0,060
-461,328	-154,604	-0,065	-0,003
-460,313	-53,306	-0,119	-0,039
-459,299	-200,000	-0,020	0,082
-458,284	-200,000	-0,015	0,108
-457,270	159,933	-0,008	0,008
-456,255	0,185	-0,087	-0,045
-455,241	800,000	-0,033	-0,094
-454,226	54,655	0,038	0,026
-453,211	-25,929	0,034	0,014
-452,197	-36,297	0,014	0,006
-451,182	-78,714	0,034	-0,008
-450,168	382,641	0,065	0,096
-449,153	800,000	0,010	0,027
-448,138	111,521	0,084	-0,073
-447,124	-200,000	0,020	0,098
-446,109	-125,407	0,045	-0,005
-445,095	-200,000	-0,006	-0,077
-444,080	-200,000	-0,007	-0,071
-443,065	-200,000	0,014	0,164
-442,051	-5,840	-0,072	-0,035
-441,036	61,687	-0,069	-0,049
-440,022	-24,766	0,136	0,058
-439,007	-113,553	0,133	-0,019
-437,992	-62,226	-0,058	-0,017
-436,978	707,934	0,080	0,153
-435,963	-10,099	0,055	-0,026
-434,949	-146,287	-0,076	-0,005
-433,934	-200,000	0,010	-0,123
-432,919	530,650	0,105	-0,180
-431,905	479,847	-0,034	-0,055
-430,890	-189,124	0,086	0,001
-429,876	-200,000	0,005	0,030
-428,861	222,100	-0,034	0,040
-427,846	800,000	0,070	0,172
-426,832	800,000	-0,033	-0,086
-425,817	-100,793	-0,092	-0,016
-424,803	93,288	-0,114	-0,092
-423,788	472,234	-0,024	0,039
-422,773	-200,000	0,022	0,102
-421,759	-200,000	-0,002	0,050
-420,744	800,000	0,069	0,163
-419,730	-200,000	-0,026	0,082
-418,715	32,543	-0,119	0,074
-417,701	-53,475	-0,088	0,029
-416,686	614,947	0,031	-0,056
-415,671	204,179	0,082	0,091
-414,657	-200,000	-0,006	0,115
-413,642	418,359	0,065	0,101
-412,628	800,000	-0,062	-0,141
-411,613	800,000	-0,054	-0,125
-410,598	448,476	-0,007	0,011
-409,584	158,525	-0,064	-0,063
-408,569	800,000	0,020	-0,061
-407,555	144,240	0,059	-0,057
-406,540	71,642	-0,114	0,085
-405,525	53,522	-0,161	-0,111
-404,511	130,381	-0,037	0,034
-403,496	54,187	-0,092	0,063
-402,482	141,034	-0,053	0,050
-401,467	117,146	0,111	-0,098
-400,452	-121,601	0,065	0,008
-399,438	-200,000	0,008	-0,042
-398,423	54,139	0,026	0,018
-397,409	800,000	0,034	-0,100
-396,394	130,510	-0,062	-0,057
-395,379	800,000	0,115	-0,239
-394,365	141,347	-0,118	0,112
-393,350	119,506	-0,081	-0,072
-392,336	800,000	0,036	-0,076
-391,321	-200,000	-0,010	-0,095
-390,306	-58,984	-0,131	0,040
-389,292	-114,757	0,016	-0,002
-388,277	161,229	-0,036	0,036
-387,263	-200,000	-0,017	0,098
-386,248	104,208	0,070	0,059
-385,233	49,861	0,057	-0,038
-384,219	40,806	0,030	0,019
-383,204	165,222	-0,096	-0,097
-382,190	-89,965	0,073	-0,015
-381,175	30,139	0,059	0,036
-380,160	59,583	-0,141	-0,100
-379,146	-200,000	-0,001	-0,032
-378,131	-111,455	0,039	-0,006
-377,117	64,512	0,052	0,037
-376,102	-84,553	-0,149	-0,034
-375,088	800,000	0,018	-0,055
-374,073	-26,845	-0,114	0,048
-373,058	403,176	-0,024	0,037
-372,044	-200,000	-0,007	0,115
-371,029	-200,000	-0,013	0,058
-370,015	800,000	-0,033	0,076
-369,000	278,913	0,059	0,075
-367,985	800,000	-0,072	-0,157
-366,971	1,087	-0,104	-0,053
-365,956	800,000	0,007	-0,019
-364,942	-37,731	-0,078	0,029
-363,927	-200,000	-0,008	0,041
-362,912	-200,000	0,011	0,102
-361,898	294,717	-0,068	-0,090
-360,883	-200,000	-0,016	-0,142
-359,869	-200,000	0,006	0,127
-358,854	-200,000	0,016	-0,178
-357,839	-200,000	-0,075	0,000
-356,825	-0,735	0,216	0,109
-355,810	-79,904	0,125	0,030
-354,796	46,318	-0,159	-0,105
-353,781	687,938	0,085	-0,159
-352,766	139,902	-0,056	-0,053
-351,752	-200,000	0,006	0,073
-350,737	-2,540	-0,110	0,055
-349,723	46,077	0,071	-0,047
-348,708	182,354	0,061	-0,065
-347,693	-112,667	-0,055	-0,008
-346,679	-165,686	-0,120	-0,004
-345,664	-200,000	-0,008	-0,123
-344,650	800,000	0,016	-0,045
-343,635	-157,750	-0,086	-0,004
-342,620	800,000	-0,018	-0,054
-341,606	160,567	0,034	0,034
-340,591	-33,702	-0,147	0,058
-339,577	-62,373	-0,032	0,010
-338,562	800,000	0,035	-0,097
-337,548	-200,000	0,006	-0,092
-336,533	-140,047	-0,074	-0,005
-335,518	301,760	-0,045	0,060
-334,504	800,000	-0,034	0,075
-333,489	628,370	-0,049	-0,088
-332,475	-78,170	-0,080	-0,020
-331,460	-200,000	0,011	-0,080
-330,445	-200,000	0,000	-0,066
-329,431	-200,000	-0,004	0,044
-328,416	58,230	0,153	0,107
-327,402	800,000	0,042	0,097
-326,387	-200,000	0,012	0,246
-325,372	317,025	0,032	0,044
-324,358	-49,571	0,066	-0,022
-323,343	-200,000	-0,020	-0,097
-322,329	-113,346	0,161	-0,022
-321,314	800,000	0,057	0,156
-320,299	800,000	-0,016	0,037
-319,285	800,000	0,014	-0,038
-318,270	800,000	-0,060	-0,151
-317,256	-110,241	-0,078	-0,011
-316,241	-200,000	-0,015	0,126
-315,226	-200,000	0,008	0,131
-314,212	101,601	0,123	0,103
-313,197	125,058	0,070	0,063
-312,183	800,000	-0,044	0,099
-311,168	-200,000	-0,011	-0,129
-310,153	-102,497	-0,029	0,005
-309,139	-200,000	-0,013	0,109
-308,124	180,941	0,095	0,100
-307,110	-78,345	0,050	0,012
-306,095	-65,325	0,121	0,034
-305,080	800,000	0,028	-0,063
-304,066	800,000	0,036	-0,108
-303,051	800,000	0,070	-0,143
-302,037	-41,503	-0,095	-0,035
-301,022	229,897	-0,060	-0,071
-300,008	-200,000	0,004	0,029
-298,993	-200,000	-0,007	0,099
-297,978	146,110	-0,065	0,062
-296,964	-200,000	0,001	-0,010
-295,949	-200,000	-0,036	-0,202
-294,935	564,387	-0,056	0,097
-293,920	-37,017	0,245	0,093
-292,905	93,379	0,022	-0,018
-291,891	-43,355	-0,094	0,034
-290,876	506,523	-0,019	-0,032
-289,862	359,929	-0,058	-0,083
-288,847	-200,000	0,005	0,087
-287,832	-24,294	-0,079	0,034
-286,818	91,743	0,100	0,080
-285,803	-139,783	0,170	-0,013
-284,789	-200,000	0,005	0,152
-283,774	-200,000	-0,024	0,190
-282,759	-178,757	0,104	-0,002
-281,745	-64,333	0,019	-0,006
-280,730	-102,472	-0,078	0,013
-279,716	800,000	0,056	-0,119
-278,701	-87,504	-0,096	-0,021
-277,686	-200,000	-0,018	0,196
-276,672	449,094	-0,072	0,113
-275,657	-200,000	0,040	0,143
-274,643	-200,000	-0,031	0,165
-273,628	-200,000	0,027	-0,205
-272,613	197,104	-0,061	-0,066
-271,599	788,096	0,036	-0,072
-270,584	248,098	0,038	0,046
-269,570	-6,585	-0,211	0,102
-268,555	-89,972	0,202	0,042
-267,540	31,814	0,046	-0,028
-266,526	-92,616	-0,165	-0,033
-265,511	800,000	0,007	0,015
-264,497	503,168	-0,019	0,031
-263,482	-200,000	-0,012	0,148
-262,467	-200,000	0,017	0,068
-261,453	-200,000	-0,035	0,116
-260,438	161,757	0,069	0,069
-259,424	-61,387	-0,104	0,031
-258,409	800,000	0,063	-0,165
-257,395	-127,176	0,125	0,013
-256,380	34,194	0,110	0,068
-255,365	-200,000	0,027	-0,097
-254,351	149,005	-0,147	0,142
-253,336	-55,417	0,109	-0,035
-252,322	-70,127	-0,069	-0,019
-251,307	-200,000	0,005	0,022
-250,292	116,709	-0,066	-0,058
-249,278	-200,000	-0,012	-0,040
-248,263	415,452	0,041	0,062
-247,249	-96,691	0,077	0,014
-246,234	616,924	-0,049	0,087
-245,219	800,000	-0,041	0,088
-244,205	35,536	-0,021	-0,013
-243,190	-17,828	-0,059	0,026
-242,176	67,290	0,147	0,107
-241,161	800,000	0,035	-0,096
-240,146	145,083	0,019	0,018
-239,132	800,000	-0,004	-0,012
-238,117	-200,000	0,011	-0,050
-237,103	-103,434	-0,054	-0,009
-236,088	624,089	-0,067	-0,121
-235,073	385,358	-0,068	0,100
-234,059	-67,283	0,125	-0,035
-233,044	-56,877	0,147	-0,046
-232,030	10,668	0,128	-0,069
-231,015	-43,051	-0,027	0,010
-230,000	295,354	-0,046	-0,061
-228,986	692,699	-0,037	-0,069
-227,971	36,131	0,119	0,074
-226,957	-200,000	-0,006	0,031
-225,942	264,421	-0,056	0,069
-224,927	243,410	0,068	0,082
-223,913	428,410	-0,027	0,041
-222,898	-200,000	0,013	-0,133
-221,884	-16,538	0,097	-0,043
-220,869	-200,000	-0,013	0,076
-219,855	62,548	0,062	-0,044
-218,840	297,518	-0,069	0,091
-217,825	48,805	0,044	-0,030
-216,811	127,447	0,046	-0,042
-215,796	800,000	-0,074	-0,195
-214,782	318,225	-0,054	-0,073
-213,767	-69,473	-0,007	-0,002
-212,752	-94,155	0,131	0,025
-211,738	-103,024	0,129	0,022
-210,723	-120,311	-0,058	-0,007
-209,709	236,247	-0,042	-0,050
-208,694	-124,756	0,059	0,006
-207,679	517,375	0,044	-0,074
-206,665	-200,000	0,009	0,068
-205,650	-53,234	0,190	-0,062
-204,636	709,015	-0,022	-0,042
-203,621	-73,064	0,060	0,016
-202,606	234,277	0,040	0,047
-201,592	-188,008	-0,116	0,001
-200,577	-19,474	-0,034	-0,015
-199,563	157,308	0,055	-0,054
-198,548	-200,000	0,001	0,037
-197,533	454,568	0,092	0,145
-196,519	6,086	0,023	-0,012
-195,504	224,482	0,078	-0,089
-194,490	112,005	-0,061	-0,052
-193,475	-200,000	-0,034	-0,118
-192,460	6,515	0,033	0,017
-191,446	-18,699	0,112	0,049
-190,431	130,328	0,058	0,053
-189,417	-96,402	0,019	-0,003
-188,402	124,670	-0,075	0,067
-187,387	-200,000	0,063	-0,227
-186,373	214,155	-0,055	-0,062
-185,358	-200,000	-0,012	0,045
-184,344	-42,505	-0,057	-0,020
-183,329	132,362	0,046	0,042
-182,315	451,656	-0,067	0,106
-181,300	-34,638	0,112	0,043
-180,285	520,753	-0,052	-0,087
-179,271	197,468	0,074	-0,080
-178,256	-200,000	-0,009	-0,229
-177,242	-169,933	0,068	0,002
-176,227	-6,793	0,072	-0,035
-175,212	-1,709	0,183	0,092
-174,198	-34,755	0,022	0,009
-173,183	152,967	-0,016	-0,016
-172,169	-33,092	-0,103	-0,041
-171,154	66,720	-0,073	-0,052
-170,139	-123,552	0,134	0,015
-169,125	243,317	-0,025	0,029
-168,110	96,660	0,057	-0,046
-167,096	-119,397	-0,115	-0,014
-166,081	-121,575	-0,055	-0,006
-165,066	94,754	-0,074	0,060
-164,052	-98,774	0,049	0,009
-163,037	666,643	-0,008	0,014
-162,023	800,000	0,083	0,194
-161,008	616,763	-0,072	0,128
-159,993	-46,447	0,044	-0,015
-158,979	-100,294	-0,110	-0,019
-157,964	8,729	0,008	0,004
-156,950	2,828	-0,115	-0,059
-155,935	-84,829	-0,041	-0,009
-154,920	259,755	0,028	-0,034
-153,906	195,840	0,014	0,015
-152,891	800,000	0,041	0,101
-151,877	269,829	0,054	-0,068
-150,862	800,000	-0,030	-0,065
-149,847	52,923	-0,052	0,035
-148,833	-25,670	-0,029	0,012
-147,818	-135,784	0,168	0,014
-146,804	338,370	0,088	0,122
-145,789	-28,064	-0,098	0,040
-144,775	25,330	-0,076	-0,045
-143,760	-200,000	-0,009	-0,039
-142,745	-200,000	0,006	0,079
-141,731	-54,367	-0,069	0,022
-140,716	366,059	0,006	0,009
-139,702	-96,275	0,138	-0,026
-138,687	-16,370	0,043	-0,019
-137,672	82,373	-0,086	0,066
-136,658	-135,293	-0,082	-0,007
-135,643	-178,179	-0,052	-0,001
-134,629	-18,619	0,047	0,021
-133,614	288,251	-0,045	0,058
-132,599	-77,267	0,176	0,043
-131,585	336,982	-0,033	0,046
-130,570	12,373	-0,124	-0,068
-129,556	-200,000	0,006	0,037
-128,541	-200,000	0,012	-0,114
-127,526	800,000	-0,006	0,018
-126,512	800,000	0,025	0,055
-125,497	800,000	-0,045	0,127
-124,483	-200,000	0,009	0,183
-123,468	-200,000	-0,030	-0,107
-122,453	800,000	-0,042	0,085
-121,439	1,458	-0,134	-0,068
-120,424	716,174	-0,017	0,033
-119,410	52,311	0,010	-0,006
-118,395	800,000	0,020	0,061
-117,380	-200,000	0,004	0,096
-116,366	-200,000	0,002	0,128
-115,351	470,641	-0,027	0,043
-114,337	-200,000	-0,000	0,063
-113,322	-113,661	0,036	0,005
-112,307	-108,261	0,045	-0,007
-111,293	470,396	0,021	-0,033
-110,278	-128,969	0,119	0,012
-109,264	136,706	-0,124	0,115
-108,249	800,000	-0,018	0,055
-107,234	127,802	-0,134	-0,121
-106,220	418,488	-0,046	-0,069
-105,205	-200,000	-0,014	-0,123
-104,191	-200,000	-0,041	0,155
-103,176	-200,000	0,009	0,147
-102,162	-19,295	0,047	0,020
-101,147	13,202	-0,051	-0,028
-100,132	-45,024	-0,121	-0,042
-99,118	-200,000	0,046	-0,167
-98,103	142,808	-0,068	0,064
-97,089	714,855	-0,027	-0,052
-96,074	-200,000	-0,003	-0,038
-95,059	91,978	0,045	0,036
-94,045	440,320	-0,042	0,065
-93,030	-143,259	0,045	0,003
-92,016	-200,000	0,003	-0,019
-91,001	412,308	-0,035	-0,053
-89,986	313,449	0,178	0,238
-88,972	800,000	-0,043	0,115
-87,957	-65,345	-0,053	-0,015
-86,943	800,000	0,021	-0,056
-85,928	51,650	0,067	-0,045
-84,913	-137,907	-0,039	0,003
-83,899	28,793	-0,174	-0,104
-82,884	-200,000	0,023	0,092
-81,870	-162,373	-0,093	0,003
-80,855	100,483	-0,071	0,059
-79,840	800,000	-0,032	0,090
-78,826	-200,000	-0,018	-0,123
-77,811	-54,584	-0,155	0,049
-76,797	-15,386	0,096	-0,043
-75,782	143,282	0,086	0,081
-74,767	244,195	-0,084	0,100
-73,753	759,068	0,057	-0,111
-72,738	252,901	-0,083	-0,100
-71,724	86,404	-0,099	0,077
-70,709	-40,101	0,116	0,043
-69,694	-200,000	-0,009	-0,131
-68,680	157,676	-0,026	0,025
-67,665	-200,000	-0,025	0,111
-66,651	-200,000	0,008	0,047
-65,636	-38,286	0,048	0,018
-64,622	276,048	-0,046	0,058
-63,607	-103,251	-0,088	-0,015
-62,592	-103,565	-0,132	-0,022
-61,578	-162,935	0,018	0,001
-60,563	-28,456	0,162	-0,066
-59,549	-103,910	-0,114	0,019
-58,534	-51,405	-1,554	-0,511
-57,519	330,982	-1,436	-1,965
-56,505	-200,000	-0,441	-4,464
-55,490	145,598	1,011	0,960
-54,476	800,000	4,809	11,320
-53,461	-200,000	18,614	297,315
-52,446	800,000	731,270	2258,112
-51,432	559,414	1647,864	2827,950
-50,417	78,938	1668,324	1263,181
-49,403	22,407	1541,367	889,817
-48,388	16,363	1464,329	816,024
-47,373	17,808	1454,232	817,334
-46,359	17,031	1444,693	808,220
-45,344	14,642	1440,028	794,157
-44,330	14,554	1438,082	792,632
-43,315	14,547	1436,378	791,627
-42,300	14,595	1434,676	790,886
-41,286	14,598	1433,692	790,324
-40,271	14,607	1432,264	789,548
-39,257	14,568	1430,991	788,631
-38,242	14,639	1429,638	788,190
-37,227	14,606	1428,479	787,366
-36,213	14,593	1427,151	786,542
-35,198	14,604	1426,058	785,961
-34,184	14,625	1425,113	785,508
-33,169	14,563	1423,845	784,484
-32,154	14,660	1422,537	784,188
-31,140	14,591	1421,494	783,257
-30,125	14,662	1420,052	782,768
-29,111	14,616	1419,186	782,040
-28,096	14,584	1418,092	781,257
-27,082	14,553	1416,931	780,439
-26,067	14,512	1415,861	779,629
-25,052	14,548	1414,911	779,244
-24,038	14,507	1414,057	778,551
-23,023	14,496	1412,865	777,810
-22,009	14,502	1411,693	777,160
-20,994	14,432	1411,229	776,546
-19,979	14,529	1409,947	776,265
-18,965	14,448	1409,180	775,435
-17,950	14,465	1408,143	774,912
-16,936	14,425	1407,365	774,263
-15,921	14,445	1406,075	773,621
-14,906	14,406	1405,272	772,962
-13,892	14,474	1404,308	772,719
-12,877	14,442	1403,399	772,042
-11,863	14,445	1402,554	771,560
-10,848	14,378	1401,867	770,837
-9,833	14,392	1400,831	770,303
-8,819	14,401	1399,916	769,812
-7,804	14,346	1398,998	769,020
-6,790	14,356	1397,906	768,436
-5,775	14,338	1396,689	767,655
-4,760	14,350	1395,918	767,256
-3,746	14,316	1395,258	766,703
-2,731	14,364	1394,263	766,348
-1,717	14,319	1393,381	765,628
-0,702	14,291	1391,709	764,547
0,313	18,194	1309,966	737,692
1,327	34,521	706,294	435,562
2,342	52,992	124,287	84,016
3,356	4,768	16,543	8,573
4,371	0,419	3,168	1,595
5,386	85,603	0,476	0,370
6,400	253,676	0,117	0,142
7,415	-46,231	-0,355	-0,123
8,429	-149,039	-0,314	-0,018
9,444	-83,774	-0,377	-0,084
10,459	-22,387	-0,386	-0,165
11,473	-117,393	-0,318	-0,040
12,488	-56,243	-0,368	-0,115
13,502	43,320	-0,288	-0,185
14,517	-37,142	-0,388	-0,146
15,531	467,076	-0,155	-0,246
16,546	166,959	-0,317	-0,318
17,561	167,873	-0,370	-0,372
18,575	43,708	-0,083	-0,054
19,590	131,410	-0,259	-0,235
20,604	-18,655	-0,379	-0,166
21,619	28,626	-0,397	-0,237
22,634	66,327	-0,514	-0,368
23,648	185,378	-0,403	-0,423
24,663	178,018	-0,338	-0,348
25,677	205,438	-0,335	-0,368
26,692	111,233	-0,307	-0,261
27,707	-32,830	-0,435	-0,170
28,721	46,943	-0,491	-0,321
29,736	227,089	-0,320	-0,367
30,750	142,298	-0,319	-0,299
31,765	-18,494	-0,381	-0,167
32,780	84,550	-0,379	-0,292
33,794	365,221	-0,271	-0,387
34,809	-35,462	-0,326	-0,124
35,823	282,801	-0,213	-0,271
36,838	206,335	-0,417	-0,458
37,853	395,553	-0,284	-0,419
38,867	250,488	-0,287	-0,344
39,882	211,661	-0,212	-0,235
40,896	136,804	-0,415	-0,383
41,911	89,015	-0,389	-0,305
42,926	61,078	-0,420	-0,294
43,940	42,700	-0,382	-0,245
44,955	62,773	-0,420	-0,296
45,969	20,112	-0,381	-0,216
46,984	224,521	-0,290	-0,331
47,999	134,758	-0,349	-0,319
49,013	15,478	-0,242	-0,134
50,028	65,385	-0,394	-0,281
51,042	46,365	-0,366	-0,239
52,057	97,144	-0,371	-0,300
53,071	50,741	-0,443	-0,295
54,086	182,070	-0,296	-0,307
55,101	6,562	-0,414	-0,216
56,115	108,219	-0,303	-0,254
57,130	62,399	-0,357	-0,251
58,144	39,525	-0,410	-0,258
59,159	88,458	-0,395	-0,309
60,174	68,873	-0,336	-0,243
61,188	82,619	-0,248	-0,189
62,203	62,772	-0,354	-0,249
63,217	52,666	-0,396	-0,266
64,232	197,848	-0,255	-0,275
65,247	69,006	-0,254	-0,183
66,261	73,070	-0,353	-0,259
67,276	131,021	-0,316	-0,285
68,290	149,093	-0,305	-0,290
69,305	73,494	-0,247	-0,182
70,320	678,845	-0,181	-0,332
71,334	34,564	-0,419	-0,257
72,349	-7,835	-0,339	-0,160
73,363	-83,576	-0,424	-0,095
74,378	58,180	-0,389	-0,267
75,393	147,910	-0,246	-0,234
76,407	-121,466	-0,430	-0,050
77,422	-126,338	-0,259	-0,027
78,436	45,733	-0,325	-0,211
79,451	-134,895	-0,341	-0,029
80,466	54,111	-0,265	-0,179
81,480	29,536	-0,401	-0,239
82,495	51,149	-0,282	-0,188
83,509	-176,798	-0,352	-0,006
84,524	29,384	-0,267	-0,159
85,539	-31,139	-0,298	-0,117
86,553	587,015	-0,109	-0,189
87,568	57,740	-0,201	-0,138
88,582	17,497	-0,334	-0,186
89,597	291,283	-0,233	-0,299
90,611	206,255	-0,180	-0,197
91,626	800,000	-0,063	-0,129
92,641	62,352	-0,286	-0,200
93,655	-188,867	-0,232	-0,002
94,670	64,545	-0,263	-0,186
95,684	188,365	-0,207	-0,217
96,699	40,227	-0,182	-0,115
97,714	63,842	-0,190	-0,134
98,728	-11,733	-0,255	-0,117
99,743	183,140	-0,200	-0,207
100,757	0,210	-0,249	-0,124
101,772	-62,197	-0,142	-0,041
102,787	-29,064	-0,227	-0,091
103,801	107,841	-0,307	-0,256
104,816	188,540	-0,268	-0,281
105,830	123,344	-0,209	-0,183
106,845	122,261	-0,227	-0,199
107,860	-52,827	-0,298	-0,096
108,874	108,167	-0,274	-0,229
109,889	123,455	-0,281	-0,247
110,903	36,681	-0,279	-0,172
111,918	-41,465	-0,334	-0,120
112,933	60,040	-0,232	-0,160
113,947	25,848	-0,292	-0,170
114,962	163,181	-0,198	-0,195
115,976	107,118	-0,252	-0,210
116,991	11,820	-0,299	-0,160
118,006	-105,951	-0,386	-0,060
119,020	44,489	-0,328	-0,211
120,035	61,137	-0,248	-0,172
121,049	-172,948	-0,217	0,005
122,064	-34,823	-0,256	-0,098
123,079	-143,782	-0,327	0,021
124,093	31,322	-0,327	-0,196
125,108	78,169	-0,233	-0,174
126,122	71,837	-0,322	-0,234
127,137	107,090	-0,269	-0,224
128,151	23,109	-0,263	-0,150
129,166	800,000	-0,101	-0,209
130,181	238,832	-0,222	-0,259
131,195	137,024	-0,238	-0,218
132,210	237,263	-0,206	-0,239
133,224	242,091	-0,247	-0,290
134,239	-36,587	-0,344	-0,129
135,254	67,939	-0,250	-0,179
136,268	60,982	-0,263	-0,182
137,283	225,463	-0,124	-0,140
138,297	80,403	-0,338	-0,254
139,312	-26,314	-0,344	-0,141
140,327	92,519	-0,299	-0,236
141,341	-72,289	-0,299	-0,077
142,356	-5,575	-0,228	-0,109
143,370	503,211	-0,102	-0,165
144,385	1,673	-0,276	-0,139
145,400	76,106	-0,264	-0,195
146,414	51,146	-0,304	-0,201
147,429	5,564	-0,322	-0,166
148,443	600,109	-0,154	-0,268
149,458	6,743	-0,218	-0,113
150,473	99,176	-0,257	-0,207
151,487	-87,063	-0,235	-0,050
152,502	-78,916	-0,343	-0,081
153,516	78,022	-0,285	-0,212
154,531	173,766	-0,257	-0,260
155,546	188,319	-0,118	-0,123
156,560	92,279	-0,253	-0,199
157,575	-115,499	-0,309	-0,040
158,589	-95,768	-0,237	-0,044
159,604	-67,707	-0,285	-0,077
160,619	109,412	-0,302	-0,252
161,633	148,077	-0,236	-0,222
162,648	335,613	-0,164	-0,222
163,662	769,065	-0,139	-0,265
164,677	-119,483	-0,209	0,025
165,692	-116,460	-0,240	-0,030
166,706	181,150	-0,142	-0,145
167,721	25,385	-0,263	-0,152
168,735	-2,567	-0,306	-0,149
169,750	175,732	-0,233	-0,236
170,764	54,054	-0,195	-0,131
171,779	70,655	-0,205	-0,147
172,794	-200,000	-0,037	-0,288
173,808	39,180	-0,242	-0,151
174,823	-23,546	-0,320	-0,133
175,837	275,547	-0,140	-0,173
176,852	142,687	-0,299	-0,277
177,867	55,743	-0,126	-0,085
178,881	189,234	-0,166	-0,173
179,896	68,030	-0,193	-0,137
180,910	43,142	-0,248	-0,158
181,925	800,000	-0,057	-0,159
182,940	21,865	-0,340	-0,192
183,954	100,320	-0,258	-0,208
184,969	-1,297	-0,260	-0,127
185,983	94,723	-0,131	-0,104
186,998	-20,264	-0,359	-0,153
188,013	150,646	-0,185	-0,175
189,027	800,000	-0,166	-0,324
190,042	-5,579	-0,342	-0,163
191,056	427,200	-0,179	-0,270
192,071	0,483	-0,196	-0,097
193,086	51,440	-0,166	-0,110
194,100	3,181	-0,266	-0,134
195,115	63,258	-0,263	-0,183
196,129	57,045	-0,231	-0,156
197,144	86,177	-0,228	-0,174
198,159	378,018	-0,177	-0,253
199,173	-15,626	-0,284	-0,126
200,188	800,000	-0,054	-0,111
201,202	396,860	-0,176	-0,256
202,217	83,464	-0,254	-0,192
203,232	132,509	-0,319	-0,286
204,246	-67,930	-0,249	-0,067
205,261	800,000	-0,078	-0,193
206,275	-130,573	-0,194	-0,018
207,290	69,059	-0,126	-0,090
208,304	103,073	-0,145	-0,118
209,319	-25,135	-0,168	-0,069
210,334	193,949	-0,232	-0,244
211,348	99,359	-0,250	-0,201
212,363	81,495	-0,157	-0,118
213,377	45,651	-0,181	-0,116
214,392	-22,584	-0,186	-0,078
215,407	48,547	-0,095	-0,061
216,421	115,516	-0,123	-0,104
217,436	-65,216	-0,175	-0,049
218,450	-16,061	-0,152	0,067
219,465	202,974	-0,263	-0,283
220,480	380,643	-0,146	-0,208
221,494	86,705	-0,152	-0,116
222,509	144,812	-0,141	-0,131
223,523	46,309	-0,167	-0,107
224,538	115,042	-0,219	-0,185
225,553	169,782	-0,247	-0,245
226,567	88,388	-0,234	-0,180
227,582	241,967	-0,211	-0,245
228,596	81,009	-0,158	-0,118
229,611	-67,196	-0,123	0,033
230,626	-123,545	-0,178	-0,019
231,640	736,188	-0,123	-0,230
232,655	64,943	-0,268	-0,188
233,669	-77,092	-0,248	-0,060
234,684	-200,000	-0,007	-0,149
235,699	68,783	-0,283	-0,201
236,713	206,027	-0,206	-0,222
237,728	-91,361	-0,257	-0,050
238,742	33,905	-0,235	-0,141
239,757	112,498	-0,247	-0,207
240,772	-88,660	-0,251	0,051
241,786	93,451	-0,097	-0,076
242,801	14,687	-0,219	-0,118
243,815	229,380	-0,082	-0,093
244,830	-8,638	-0,293	-0,136
245,844	1,119	-0,285	-0,141
246,859	16,916	-0,280	-0,153
247,874	239,530	-0,237	-0,274
248,888	11,217	-0,300	-0,159
249,903	-14,571	-0,187	-0,083
250,917	130,877	-0,146	-0,130
251,932	-113,205	-0,140	0,019
252,947	447,858	-0,099	-0,152
253,961	-53,801	-0,249	-0,078
254,976	-17,812	-0,279	-0,121
255,990	800,000	-0,080	-0,239
257,005	11,763	-0,192	-0,101
258,020	-74,438	-0,115	0,028
259,034	-70,490	-0,179	-0,047
260,049	-200,000	-0,060	-0,194
261,063	6,129	-0,163	-0,083
262,078	105,219	-0,206	-0,168
263,093	-142,921	-0,200	-0,013
264,107	-107,505	-0,271	-0,041
265,122	187,737	-0,041	-0,042
266,136	282,682	-0,183	-0,228
267,151	61,802	-0,164	-0,113
268,166	126,027	-0,163	-0,142
269,180	-6,711	-0,237	-0,111
270,195	800,000	-0,138	-0,271
271,209	-1,081	-0,274	-0,133
272,224	110,775	-0,221	-0,184
273,239	16,938	-0,118	-0,064
274,253	68,127	-0,195	-0,138
275,268	123,915	-0,178	-0,154
276,282	17,220	-0,242	-0,132
277,297	25,996	-0,119	-0,068
278,312	-92,769	-0,163	0,031
279,326	130,976	-0,194	-0,172
280,341	800,000	-0,098	-0,207
281,355	84,835	-0,133	-0,101
282,370	-200,000	-0,016	-0,109
283,384	24,454	-0,237	-0,135
284,399	463,880	-0,171	-0,264
285,414	800,000	-0,080	-0,154
286,428	800,000	-0,098	-0,217
287,443	-200,000	-0,024	-0,147
288,457	25,779	-0,133	-0,076
289,472	800,000	-0,060	-0,123
290,487	-102,578	-0,145	-0,024
291,501	8,848	-0,096	-0,050
292,516	-84,686	-0,304	-0,065
293,530	-40,543	-0,163	-0,058
294,545	44,182	-0,131	-0,083
295,560	54,241	-0,174	-0,115
296,574	-200,000	-0,007	-0,226
297,589	609,762	-0,144	-0,249
298,603	229,959	-0,188	-0,212
299,618	199,750	-0,096	-0,102
300,633	99,573	-0,169	-0,135
301,647	440,357	0,012	-0,018
302,662	199,859	-0,139	-0,147
303,676	-200,000	-0,036	-0,149
304,691	800,000	-0,100	-0,235
305,706	318,000	-0,185	-0,242
306,720	80,400	-0,189	-0,140
307,735	10,595	-0,181	-0,095
308,749	218,652	-0,135	-0,149
309,764	452,777	-0,115	-0,175
310,779	86,080	-0,219	-0,166
311,793	-77,363	-0,114	0,027
312,808	42,290	-0,166	-0,103
313,822	794,137	-0,096	-0,183
314,837	-20,419	-0,251	-0,106
315,852	-119,527	-0,080	0,009
316,866	100,002	-0,090	-0,072
317,881	-80,278	-0,131	0,030
318,895	86,588	-0,146	-0,111
319,910	211,762	-0,120	-0,130
320,925	-17,651	-0,130	-0,056
321,939	213,260	-0,108	-0,118
322,954	-102,607	-0,091	0,015
323,968	-41,016	-0,059	-0,021
324,983	487,331	-0,071	-0,111
325,997	-48,407	-0,104	0,034
327,012	75,102	-0,144	-0,104
328,027	1,548	-0,223	-0,110
329,041	51,377	-0,208	-0,136
330,056	-108,315	-0,143	-0,021
331,070	-61,667	-0,132	-0,038
332,085	371,132	-0,069	-0,097
333,100	-96,681	0,060	0,011
334,114	-59,935	-0,089	0,026
335,129	-50,192	-0,140	-0,045
336,143	87,887	-0,136	-0,104
337,158	27,908	-0,092	-0,053
338,173	-80,028	-0,118	-0,027
339,187	-101,049	-0,147	-0,024
340,202	-200,000	-0,009	-0,091
341,216	80,082	-0,192	-0,142
342,231	3,364	-0,087	-0,043
343,246	173,800	-0,194	-0,192
344,260	-36,832	-0,170	-0,062
345,275	59,356	-0,196	-0,132
346,289	800,000	-0,057	-0,111
347,304	432,971	-0,113	-0,169
348,319	113,337	-0,139	-0,116
349,333	-19,319	-0,232	-0,098
350,348	278,476	-0,083	-0,102
351,362	87,510	-0,160	-0,121
352,377	-38,368	-0,155	-0,056
353,392	-200,000	0,035	-0,135
354,406	395,345	-0,138	-0,198
355,421	207,971	1318,043	1414,160
356,435	160,000	1479,197	1414,661
