DTS Sentinel unit serial number:	SN410029Multiplexer serial number:	ORYXHardware model number:	OX2-SRSoftware version number:	ORYX F/W v4,00 Oryx Data Collector v3.7.2.0data status	okinstallation	B3 Nyhavnadifferential loss correction	single-endedforward channel	channel 1reverse channel	N/Adate	2023/11/29time	05:42:30forward acquisition time	300,00reverse acquisition time	0,00gamma	499,1914k internal	0,3211k external	0,3211temperature offset calibration	1,0000default loss term (dB/km)	0,3820temperature slope calibration	1,0000multiplexer offset coefficient	1,0000multiplexer slope coefficient	1,0000fibre end	0,00T internal ref (°C)	9,06T ext. ref 1 (°C)	-6,38T ext. ref 2 (°C)	-6,51length (m)	temperature (°C)	Stokes	anti-Stokes-744,400	-200,000	-0,041	-0,328
-743,385	800,000	0,070	0,150
-742,371	586,208	-0,150	-0,269
-741,356	212,204	0,087	0,100
-740,342	-200,000	-0,055	-0,236
-739,327	-200,000	-0,035	0,160
-738,312	228,248	-0,320	-0,379
-737,298	340,193	-0,229	0,325
-736,283	399,126	-0,147	-0,224
-735,269	-200,000	-0,004	0,230
-734,254	800,000	-0,102	-0,240
-733,239	135,497	-0,146	0,138
-732,225	161,101	-0,150	-0,152
-731,210	-200,000	0,012	0,154
-730,196	14,390	-0,092	-0,052
-729,181	-200,000	-0,032	-0,231
-728,167	-127,582	-0,129	0,013
-727,152	70,356	-0,073	-0,054
-726,137	-64,698	-0,109	-0,032
-725,123	-200,000	-0,006	-0,069
-724,108	95,678	-0,116	-0,096
-723,094	-200,000	0,012	-0,040
-722,079	-65,524	-0,104	-0,030
-721,064	717,215	0,045	-0,087
-720,050	-80,111	0,089	-0,021
-719,035	46,865	-0,114	-0,076
-718,021	235,838	-0,092	-0,110
-717,006	-0,337	-0,061	0,031
-715,991	112,481	-0,097	0,085
-714,977	-200,000	-0,019	-0,139
-713,962	-200,000	-0,005	-0,064
-712,948	-200,000	0,018	0,141
-711,933	-200,000	0,024	-0,094
-710,918	580,003	-0,030	0,054
-709,904	-2,630	-0,105	-0,053
-708,889	-200,000	-0,000	-0,060
-707,875	82,752	-0,108	-0,085
-706,860	103,242	-0,063	-0,054
-705,845	-146,534	0,139	-0,009
-704,831	595,476	-0,069	0,124
-703,816	-200,000	0,023	0,117
-702,802	-200,000	-0,002	0,095
-701,787	98,872	-0,140	-0,117
-700,772	74,952	-0,152	-0,115
-699,758	204,040	-0,071	-0,080
-698,743	132,462	0,104	-0,097
-697,729	57,592	0,073	-0,051
-696,714	-170,453	-0,108	0,003
-695,699	-200,000	-0,013	-0,132
-694,685	-58,193	-0,069	0,022
-693,670	372,284	-0,070	-0,103
-692,656	180,545	-0,091	-0,097
-691,641	503,588	-0,006	0,010
-690,627	253,241	-0,070	0,087
-689,612	800,000	-0,043	-0,125
-688,597	-96,002	0,059	-0,011
-687,583	429,428	-0,088	-0,138
-686,568	386,063	-0,046	-0,069
-685,554	-144,499	-0,048	0,003
-684,539	169,196	0,112	0,116
-683,524	284,563	0,054	-0,070
-682,510	123,880	-0,051	-0,047
-681,495	-200,000	-0,022	0,181
-680,481	-78,653	-0,117	0,029
-679,466	132,085	-0,052	0,049
-678,451	-16,167	-0,127	-0,058
-677,437	-200,000	-0,007	-0,027
-676,422	202,635	0,044	-0,049
-675,408	800,000	0,038	-0,111
-674,393	-24,424	-0,107	0,046
-673,378	800,000	-0,053	-0,135
-672,364	-78,477	-0,245	-0,060
-671,349	-200,000	-0,021	-0,097
-670,335	26,493	-0,143	-0,086
-669,320	-163,089	0,016	0,001
-668,305	-200,000	-0,021	-0,104
-667,291	-44,591	-0,117	-0,042
-666,276	800,000	0,048	-0,104
-665,262	800,000	-0,059	-0,121
-664,247	17,320	-0,198	-0,113
-663,232	203,714	0,084	-0,094
-662,218	800,000	0,034	0,093
-661,203	398,345	-0,036	-0,055
-660,189	-180,356	0,170	-0,003
-659,174	-27,338	-0,088	-0,037
-658,159	146,922	-0,043	0,041
-657,145	800,000	0,031	-0,084
-656,130	54,547	-0,134	-0,093
-655,116	175,250	0,023	0,024
-654,101	-0,731	-0,139	0,071
-653,086	-200,000	0,006	-0,023
-652,072	267,153	-0,048	-0,061
-651,057	-115,830	-0,269	-0,036
-650,043	800,000	0,028	-0,064
-649,028	-66,726	-0,077	0,022
-648,014	-28,825	0,032	-0,013
-646,999	672,499	0,069	0,129
-645,984	274,627	0,071	0,091
-644,970	-200,000	-0,006	-0,042
-643,955	-200,000	-0,010	-0,045
-642,941	-200,000	0,022	-0,169
-641,926	114,001	0,122	0,107
-640,911	512,423	-0,022	0,036
-639,897	-200,000	0,017	-0,112
-638,882	-200,000	0,023	-0,107
-637,868	-48,723	-0,025	-0,009
-636,853	-50,069	0,112	0,038
-635,838	-86,546	-0,150	-0,033
-634,824	136,932	-0,111	-0,105
-633,809	-54,043	0,046	-0,015
-632,795	-200,000	0,009	-0,122
-631,780	128,743	-0,044	-0,041
-630,765	-105,320	-0,066	-0,011
-629,751	-84,022	0,100	-0,023
-628,736	-9,035	-0,120	-0,058
-627,722	-200,000	-0,024	-0,085
-626,707	65,488	0,052	0,038
-625,692	651,465	0,056	-0,104
-624,678	79,636	-0,038	0,029
-623,663	-78,852	0,154	0,038
-622,649	-62,260	-0,180	-0,054
-621,634	-81,707	0,050	0,012
-620,619	318,084	-0,057	-0,078
-619,605	-200,000	0,003	-0,094
-618,590	303,014	0,124	0,166
-617,576	167,826	0,056	-0,058
-616,561	-200,000	-0,012	0,047
-615,546	-200,000	-0,009	-0,068
-614,532	-200,000	-0,116	-0,000
-613,517	-200,000	-0,034	-0,126
-612,503	-200,000	0,006	0,060
-611,488	-103,144	-0,124	0,021
-610,474	83,969	0,046	-0,036
-609,459	-9,713	-0,061	0,029
-608,444	134,879	-0,173	-0,162
-607,430	-86,290	0,096	0,021
-606,415	-138,645	-0,105	-0,008
-605,401	519,986	0,032	-0,054
-604,386	46,262	0,104	-0,069
-603,371	658,129	0,019	0,035
-602,357	72,478	0,043	0,032
-601,342	253,889	-0,051	-0,063
-600,328	-84,553	-0,147	-0,033
-599,313	522,615	-0,056	-0,096
-598,298	800,000	-0,014	-0,032
-597,284	340,243	-0,049	-0,069
-596,269	-200,000	0,011	-0,039
-595,255	18,009	-0,052	-0,030
-594,240	134,583	-0,060	0,057
-593,225	-200,000	-0,007	-0,037
-592,211	315,907	-0,098	-0,134
-591,196	-42,105	0,036	-0,013
-590,182	-46,245	0,094	0,033
-589,167	800,000	-0,051	0,161
-588,152	-88,672	0,152	0,032
-587,138	300,445	0,056	-0,074
-586,123	-148,839	-0,068	-0,004
-585,109	-44,020	0,138	-0,050
-584,094	-76,079	0,146	0,037
-583,079	800,000	-0,031	0,075
-582,065	-200,000	0,011	-0,060
-581,050	38,128	-0,086	0,055
-580,036	-200,000	0,024	0,156
-579,021	800,000	-0,061	-0,149
-578,006	-114,987	-0,144	-0,020
-576,992	-200,000	0,008	-0,035
-575,977	598,750	-0,034	-0,060
-574,963	-200,000	-0,002	0,052
-573,948	85,410	-0,044	-0,035
-572,934	-39,366	0,061	-0,023
-571,919	173,165	0,036	0,038
-570,904	-200,000	-0,016	-0,091
-569,890	-200,000	0,006	-0,021
-568,875	-60,375	0,038	-0,012
-567,861	229,043	-0,024	0,028
-566,846	471,847	0,048	-0,078
-565,831	-200,000	0,030	-0,109
-564,817	-116,217	-0,036	-0,005
-563,802	187,764	-0,038	-0,041
-562,788	132,216	-0,052	0,048
-561,773	-146,000	0,174	-0,011
-560,758	-200,000	0,035	0,120
-559,744	-200,000	0,015	-0,069
-558,729	-200,000	-0,009	0,079
-557,715	-186,962	-0,078	-0,001
-556,700	-46,209	-0,124	-0,044
-555,685	-146,479	-0,087	0,005
-554,671	-80,007	0,027	-0,007
-553,656	800,000	0,039	0,079
-552,642	613,338	0,018	0,033
-551,627	21,976	0,151	0,089
-550,612	-109,153	-0,114	-0,017
-549,598	87,939	0,082	-0,066
-548,583	-200,000	-0,013	0,076
-547,569	-118,354	0,062	-0,008
-546,554	-200,000	-0,043	-0,186
-545,539	-38,665	0,057	-0,022
-544,525	800,000	-0,017	0,052
-543,510	314,622	-0,098	-0,133
-542,496	800,000	-0,057	-0,152
-541,481	537,696	-0,067	-0,116
-540,466	341,977	-0,042	-0,060
-539,452	-200,000	0,002	0,043
-538,437	-2,677	-0,133	-0,067
-537,423	800,000	0,010	0,022
-536,408	-18,207	0,140	-0,063
-535,393	52,391	-0,050	0,034
-534,379	-200,000	0,008	-0,033
-533,364	-200,000	-0,021	-0,110
-532,350	303,721	-0,106	-0,141
-531,335	10,962	0,112	-0,061
-530,321	49,012	0,059	-0,040
-529,306	68,418	-0,044	-0,032
-528,291	137,603	-0,094	0,089
-527,277	-114,202	-0,126	-0,017
-526,262	-0,877	0,067	-0,034
-525,248	5,628	0,088	-0,047
-524,233	79,048	-0,048	0,037
-523,218	32,744	-0,051	0,032
-522,204	-9,608	0,080	0,038
-521,189	-200,000	-0,002	0,039
-520,175	-200,000	0,052	-0,000
-519,160	800,000	-0,060	-0,181
-518,145	-89,335	0,128	-0,027
-517,131	-114,008	0,108	0,015
-516,116	235,260	-0,046	0,055
-515,102	364,086	-0,038	-0,055
-514,087	-200,000	-0,024	0,096
-513,072	59,362	0,064	-0,045
-512,058	401,388	-0,089	-0,135
-511,043	-200,000	-0,003	0,020
-510,029	209,170	-0,072	0,081
-509,014	-8,920	0,171	0,082
-507,999	-200,000	0,025	0,088
-506,985	69,578	-0,053	-0,040
-505,970	800,000	-0,047	-0,122
-504,956	54,523	0,055	0,038
-503,941	490,461	0,043	-0,070
-502,926	356,815	0,041	0,058
-501,912	-200,000	0,009	0,062
-500,897	102,917	-0,056	-0,047
-499,883	80,547	-0,024	-0,019
-498,868	90,475	0,022	-0,018
-497,853	169,304	-0,039	-0,040
-496,839	573,281	0,063	0,111
-495,824	693,570	0,027	-0,051
-494,810	-200,000	-0,011	-0,088
-493,795	-200,000	-0,003	-0,013
-492,781	-200,000	0,016	-0,068
-491,766	-95,696	0,076	-0,014
-490,751	-200,000	-0,064	-0,240
-489,737	-122,613	0,168	0,019
-488,722	193,653	0,015	0,016
-487,708	-200,000	0,030	0,103
-486,693	800,000	0,036	0,089
-485,678	-200,000	0,016	0,131
-484,664	800,000	-0,013	-0,029
-483,649	-102,846	0,066	0,011
-482,635	-200,000	0,018	-0,091
-481,620	800,000	-0,016	0,043
-480,605	800,000	0,023	-0,067
-479,591	291,764	0,091	0,119
-478,576	240,432	-0,076	-0,091
-477,562	602,288	-0,099	-0,178
-476,547	-60,603	-0,115	0,035
-475,532	-22,700	0,060	0,026
-474,518	-200,000	0,020	0,155
-473,503	162,725	0,050	0,051
-472,489	138,799	0,079	0,074
-471,474	-106,499	0,103	0,016
-470,459	19,210	-0,105	-0,060
-469,445	800,000	0,026	-0,057
-468,430	239,255	-0,075	0,089
-467,416	123,438	0,072	0,065
-466,401	86,828	0,132	0,104
-465,386	88,629	-0,080	0,064
-464,372	706,459	-0,019	-0,036
-463,357	738,847	-0,046	-0,089
-462,343	117,570	-0,024	0,021
-461,328	-65,840	-0,098	0,028
-460,313	-154,175	0,063	0,003
-459,299	-200,000	0,046	0,159
-458,284	-200,000	0,016	-0,077
-457,270	107,674	0,081	0,069
-456,255	427,847	-0,042	-0,066
-455,241	-126,265	-0,038	-0,004
-454,226	328,148	0,077	-0,106
-453,211	246,196	0,041	-0,050
-452,197	255,094	-0,050	0,061
-451,182	288,370	0,024	0,031
-450,168	-77,679	0,070	-0,017
-449,153	6,567	-0,117	0,062
-448,138	-200,000	0,003	-0,030
-447,124	800,000	0,016	0,041
-446,109	-200,000	0,011	-0,036
-445,095	77,942	0,078	0,059
-444,080	538,568	0,036	0,062
-443,065	472,030	0,046	-0,074
-442,051	-200,000	0,008	-0,028
-441,036	800,000	0,026	-0,071
-440,022	800,000	-0,038	0,087
-439,007	-200,000	-0,009	-0,087
-437,992	800,000	-0,036	-0,112
-436,978	654,005	-0,027	0,050
-435,963	7,812	-0,026	-0,014
-434,949	488,162	-0,042	0,070
-433,934	-200,000	-0,001	-0,021
-432,919	-60,752	0,067	-0,020
-431,905	-19,413	-0,083	-0,037
-430,890	-200,000	-0,012	0,084
-429,876	49,711	0,022	0,015
-428,861	-200,000	0,004	0,055
-427,846	439,253	-0,072	0,113
-426,832	-200,000	-0,008	0,051
-425,817	501,214	0,070	-0,116
-424,803	-9,268	0,136	0,065
-423,788	800,000	0,031	0,070
-422,773	800,000	-0,018	0,038
-421,759	421,573	0,019	0,030
-420,744	143,419	0,037	-0,036
-419,730	800,000	0,048	-0,112
-418,715	-200,000	-0,018	-0,143
-417,701	39,629	0,074	0,048
-416,686	121,837	-0,087	0,078
-415,671	-46,267	0,101	0,036
-414,657	-200,000	0,014	0,127
-413,642	-200,000	0,020	0,214
-412,628	91,636	-0,150	-0,120
-411,613	210,970	0,040	-0,045
-410,598	-200,000	-0,001	0,011
-409,584	500,744	0,045	-0,074
-408,569	-200,000	0,008	0,060
-407,555	31,152	0,130	0,080
-406,540	-30,582	0,015	0,006
-405,525	-200,000	-0,006	0,069
-404,511	-200,000	-0,011	0,059
-403,496	781,778	0,046	-0,091
-402,482	-128,910	0,031	0,003
-401,467	-200,000	0,009	-0,144
-400,452	192,103	0,004	-0,004
-399,438	-23,529	-0,091	0,039
-398,423	80,077	-0,065	0,050
-397,409	127,441	-0,130	-0,118
-396,394	46,372	-0,038	-0,025
-395,379	3,938	0,044	0,023
-394,365	-165,192	0,013	0,000
-393,350	18,966	0,044	0,025
-392,336	-200,000	0,002	-0,027
-391,321	-200,000	0,004	-0,131
-390,306	43,321	-0,120	-0,078
-389,292	800,000	-0,079	-0,212
-388,277	-28,665	-0,056	0,023
-387,263	-2,091	0,022	0,011
-386,248	-111,834	0,152	0,022
-385,233	-63,703	-0,073	0,021
-384,219	-8,847	0,050	-0,024
-383,204	60,609	-0,110	0,078
-382,190	38,883	-0,142	-0,091
-381,175	800,000	0,040	-0,099
-380,160	-28,700	0,181	-0,074
-379,146	550,932	-0,011	0,018
-378,131	-200,000	-0,008	-0,067
-377,117	-200,000	0,005	-0,112
-376,102	216,063	-0,027	-0,031
-375,088	-89,167	-0,126	0,026
-374,073	79,829	0,023	0,018
-373,058	120,060	-0,034	0,030
-372,044	-200,000	-0,009	0,130
-371,029	-27,540	0,118	0,049
-370,015	-200,000	-0,012	0,052
-369,000	800,000	0,024	-0,059
-367,985	176,361	0,050	-0,052
-366,971	402,980	0,098	0,148
-365,956	-171,336	0,107	-0,003
-364,942	240,044	-0,127	0,151
-363,927	-200,000	-0,015	-0,084
-362,912	-5,178	-0,094	0,046
-361,898	800,000	-0,012	0,032
-360,883	173,686	-0,050	0,052
-359,869	-200,000	-0,012	-0,075
-358,854	-200,000	-0,014	0,107
-357,839	413,191	-0,025	-0,039
-356,825	-200,000	0,012	0,077
-355,810	-127,830	-0,089	0,009
-354,796	458,730	0,041	0,066
-353,781	43,669	-0,107	-0,070
-352,766	150,297	0,014	-0,013
-351,752	-42,651	0,119	0,043
-350,737	-124,662	-0,075	-0,008
-349,723	-200,000	-0,001	-0,130
-348,708	-153,514	0,100	-0,005
-347,693	-200,000	0,009	-0,053
-346,679	-200,000	0,007	-0,050
-345,664	-133,842	0,082	-0,007
-344,650	-68,843	0,011	-0,003
-343,635	-200,000	-0,001	-0,097
-342,620	-14,775	-0,079	0,036
-341,606	296,644	0,007	-0,010
-340,591	564,498	-0,060	-0,103
-339,577	-129,436	-0,098	0,010
-338,562	800,000	-0,062	0,132
-337,548	33,083	-0,030	-0,018
-336,533	-37,131	0,163	0,062
-335,518	800,000	0,031	0,076
-334,504	49,526	0,086	0,058
-333,489	-200,000	-0,039	0,138
-332,475	528,202	0,080	-0,135
-331,460	195,722	0,121	-0,132
-330,445	800,000	-0,053	-0,116
-329,431	257,642	-0,073	0,090
-328,416	109,808	0,111	-0,095
-327,402	-200,000	0,013	0,091
-326,387	433,498	-0,042	0,065
-325,372	-200,000	-0,013	-0,087
-324,358	-180,258	-0,082	0,001
-323,343	800,000	-0,058	0,120
-322,329	443,443	0,049	0,077
-321,314	-78,928	-0,070	0,017
-320,299	-200,000	-0,024	0,111
-319,285	800,000	-0,059	-0,149
-318,270	-200,000	-0,058	-0,193
-317,256	-200,000	-0,006	-0,184
-316,241	-113,411	0,073	0,010
-315,226	-91,662	0,112	-0,023
-314,212	220,530	0,076	-0,087
-313,197	29,645	0,029	0,018
-312,183	-40,836	0,040	0,015
-311,168	381,233	-0,020	0,029
-310,153	21,328	-0,052	-0,030
-309,139	142,727	-0,034	-0,032
-308,124	518,892	-0,065	-0,109
-307,110	119,947	-0,095	0,084
-306,095	800,000	0,019	0,047
-305,080	-6,826	-0,048	0,023
-304,066	-200,000	0,022	0,089
-303,051	-200,000	0,010	-0,044
-302,037	770,488	-0,087	-0,170
-301,022	-40,151	0,073	-0,027
-300,008	-200,000	0,001	-0,082
-298,993	800,000	-0,037	-0,099
-297,978	-200,000	0,002	0,065
-296,964	111,107	-0,068	0,058
-295,949	-116,003	-0,156	0,020
-294,935	127,595	-0,064	-0,058
-293,920	39,682	0,114	-0,073
-292,905	734,843	0,083	0,158
-291,891	800,000	-0,038	0,112
-290,876	98,137	-0,085	0,070
-289,862	66,845	0,041	0,030
-288,847	195,487	-0,068	-0,073
-287,832	90,773	0,042	-0,033
-286,818	-98,253	-0,129	-0,023
-285,803	553,880	0,052	0,089
-284,789	800,000	0,029	0,073
-283,774	88,081	0,019	0,015
-282,759	759,399	0,105	0,204
-281,745	-93,571	-0,115	-0,022
-280,730	168,439	-0,022	0,022
-279,716	-200,000	0,021	-0,075
-278,701	-136,323	0,082	-0,007
-277,686	67,605	0,085	-0,062
-276,672	800,000	0,030	-0,065
-275,657	-200,000	-0,026	0,091
-274,643	-161,284	-0,074	0,003
-273,628	-200,000	-0,042	0,170
-272,613	141,877	0,054	-0,051
-271,599	800,000	0,033	0,080
-270,584	800,000	-0,056	0,121
-269,570	273,062	-0,108	0,136
-268,555	241,778	0,059	-0,070
-267,540	-73,341	-0,019	0,005
-266,526	800,000	-0,040	0,090
-265,511	-133,702	-0,053	0,005
-264,497	-200,000	0,015	-0,074
-263,482	-61,272	0,133	0,040
-262,467	-200,000	0,013	0,139
-261,453	-200,000	0,010	0,126
-260,438	240,710	-0,027	0,032
-259,424	-39,876	-0,175	0,065
-258,409	-200,000	-0,003	0,054
-257,395	-200,000	-0,007	-0,091
-256,380	-200,000	0,032	-0,153
-255,365	19,518	0,121	-0,069
-254,351	-200,000	-0,026	0,107
-253,336	170,932	0,102	0,104
-252,322	117,164	-0,114	-0,100
-251,307	-200,000	0,001	0,011
-250,292	17,668	-0,078	0,044
-249,278	800,000	-0,078	-0,157
-248,263	-164,169	0,080	0,003
-247,249	-200,000	0,007	0,043
-246,234	44,683	0,083	0,054
-245,219	191,445	-0,103	-0,111
-244,205	55,435	0,101	-0,069
-243,190	98,722	-0,051	-0,042
-242,176	-10,420	-0,055	0,026
-241,161	-200,000	-0,020	0,152
-240,146	-134,068	0,151	-0,013
-239,132	21,610	0,065	0,038
-238,117	-200,000	0,036	0,173
-237,103	785,859	-0,053	0,104
-236,088	71,964	-0,067	0,050
-235,073	-164,159	-0,080	-0,003
-234,059	-51,936	0,074	0,024
-233,044	121,394	0,128	0,113
-232,030	671,334	0,029	0,054
-231,015	-30,509	-0,041	0,016
-230,000	800,000	0,057	-0,133
-228,986	-81,392	-0,038	0,009
-227,971	192,496	0,113	0,122
-226,957	-33,518	0,060	-0,023
-225,942	-33,310	-0,016	0,006
-224,927	16,872	-0,049	0,028
-223,913	548,479	-0,068	0,116
-222,898	-200,000	0,012	0,046
-221,884	-122,560	-0,073	0,008
-220,869	-134,905	0,037	-0,003
-219,855	-105,041	0,107	-0,017
-218,840	800,000	-0,019	0,044
-217,825	246,654	0,055	-0,066
-216,811	800,000	0,029	0,088
-215,796	89,933	-0,122	-0,097
-214,782	-200,000	-0,036	-0,188
-213,767	56,836	0,103	0,071
-212,752	276,964	0,129	0,163
-211,738	-172,866	-0,009	0,000
-210,723	-114,389	0,145	0,020
-209,709	-200,000	-0,046	-0,181
-208,694	237,617	0,086	-0,101
-207,679	800,000	0,039	0,117
-206,665	-139,172	-0,103	-0,008
-205,650	-0,860	0,153	-0,077
-204,636	-200,000	0,014	0,129
-203,621	427,454	-0,021	-0,032
-202,606	-149,159	-0,070	0,004
-201,592	-151,898	-0,155	-0,008
-200,577	19,369	-0,181	0,103
-199,563	-10,291	0,054	0,025
-198,548	45,301	0,078	0,051
-197,533	800,000	-0,017	0,043
-196,519	-200,000	0,004	0,132
-195,504	800,000	-0,035	-0,072
-194,490	-88,159	0,050	0,011
-193,475	-59,303	-0,073	0,022
-192,460	516,351	-0,031	0,051
-191,446	-200,000	-0,005	0,127
-190,431	-200,000	0,021	0,129
-189,417	72,535	0,017	-0,013
-188,402	-136,863	-0,073	0,006
-187,387	-36,548	-0,114	-0,043
-186,373	-19,702	-0,080	-0,035
-185,358	-85,095	-0,072	-0,016
-184,344	-200,000	-0,008	-0,036
-183,329	-200,000	-0,013	0,230
-182,315	800,000	-0,023	0,070
-181,300	800,000	-0,051	0,115
-180,285	-103,298	0,093	-0,015
-179,271	182,570	-0,061	-0,064
-178,256	160,192	0,100	0,099
-177,242	-1,346	0,134	0,067
-176,227	-200,000	-0,010	0,038
-175,212	326,805	-0,090	-0,123
-174,198	582,240	0,054	-0,094
-173,183	-61,894	0,083	-0,024
-172,169	-200,000	0,001	0,059
-171,154	-200,000	0,000	0,029
-170,139	-19,888	0,034	-0,015
-169,125	-46,180	0,161	0,056
-168,110	-98,704	0,113	-0,020
-167,096	-200,000	-0,009	0,118
-166,081	800,000	-0,054	-0,129
-165,066	-22,586	-0,155	-0,066
-164,052	800,000	-0,038	-0,118
-163,037	-200,000	0,029	0,102
-162,023	121,766	-0,122	0,108
-161,008	417,176	0,071	0,107
-159,993	800,000	-0,055	0,131
-158,979	242,276	-0,042	-0,049
-157,964	185,054	0,035	-0,037
-156,950	-127,811	-0,091	0,009
-155,935	141,010	0,053	0,050
-154,920	-120,110	0,106	-0,013
-153,906	59,849	0,128	0,089
-152,891	-107,611	-0,132	0,020
-151,877	-24,751	0,079	-0,033
-150,862	-93,167	-0,040	-0,008
-149,847	-60,783	0,044	-0,013
-148,833	-200,000	0,007	-0,080
-147,818	-200,000	0,018	0,099
-146,804	-200,000	-0,029	0,104
-145,789	-200,000	0,033	-0,105
-144,775	-200,000	-0,018	-0,162
-143,760	-200,000	0,042	-0,136
-142,745	753,561	0,085	0,163
-141,731	12,095	0,094	0,051
-140,716	-200,000	0,002	0,073
-139,702	130,444	-0,109	0,099
-138,687	-140,841	0,068	-0,005
-137,672	106,891	-0,035	-0,030
-136,658	-200,000	0,039	0,170
-135,643	149,687	-0,025	-0,024
-134,629	800,000	-0,024	0,073
-133,614	551,012	0,081	0,139
-132,599	180,268	0,112	-0,117
-131,585	588,727	0,048	0,084
-130,570	-200,000	-0,031	0,187
-129,556	-57,951	-0,125	0,039
-128,541	-13,992	-0,072	-0,033
-127,526	792,845	-0,068	-0,132
-126,512	-200,000	0,001	-0,009
-125,497	800,000	-0,005	-0,011
-124,483	-200,000	0,001	0,008
-123,468	-200,000	-0,011	-0,050
-122,453	-200,000	-0,028	-0,127
-121,439	-200,000	-0,008	0,047
-120,424	133,591	0,066	0,060
-119,410	-200,000	-0,035	0,123
-118,395	42,798	-0,071	0,046
-117,380	-200,000	0,012	-0,139
-116,366	800,000	0,059	0,118
-115,351	-200,000	-0,018	0,113
-114,337	-200,000	-0,043	-0,148
-113,322	-101,570	-0,096	0,016
-112,307	-200,000	0,011	-0,056
-111,293	732,035	-0,027	0,052
-110,278	267,545	-0,092	0,114
-109,264	800,000	0,068	0,194
-108,249	-68,058	-0,065	-0,018
-107,234	224,310	-0,069	0,079
-106,220	89,152	-0,098	-0,077
-105,205	554,996	0,087	0,149
-104,191	310,990	0,125	0,165
-103,176	17,194	0,044	0,025
-102,162	-200,000	0,017	0,071
-101,147	193,931	0,050	-0,053
-100,132	151,784	-0,077	-0,074
-99,118	387,890	-0,059	-0,087
-98,103	591,661	0,074	0,130
-97,089	564,078	0,030	-0,051
-96,074	-58,678	-0,065	0,020
-95,059	-200,000	-0,021	0,127
-94,045	-200,000	-0,021	0,084
-93,030	-148,431	-0,167	-0,009
-92,016	-35,153	-0,025	0,010
-91,001	162,242	-0,015	-0,015
-89,986	-200,000	-0,022	0,084
-88,972	-200,000	0,004	0,086
-87,957	65,066	-0,082	0,059
-86,943	112,641	0,088	0,075
-85,928	-18,422	0,111	-0,049
-84,913	34,953	0,117	-0,072
-83,899	-79,371	-0,105	0,025
-82,884	-106,526	0,221	0,034
-81,870	435,493	0,047	0,073
-80,855	179,498	0,065	0,067
-79,840	-135,358	-0,088	0,007
-78,826	15,505	-0,052	-0,029
-77,811	50,105	-0,074	-0,049
-76,797	-77,504	0,074	0,018
-75,782	-200,000	0,016	0,125
-74,767	-6,275	0,065	0,031
-73,753	-200,000	0,002	-0,007
-72,738	-200,000	0,009	-0,093
-71,724	89,636	0,060	-0,048
-70,709	227,075	-0,118	0,136
-69,694	800,000	-0,048	-0,138
-68,680	-94,882	-0,116	0,022
-67,665	-89,977	0,055	-0,011
-66,651	-65,398	0,069	0,019
-65,636	377,111	-0,022	0,032
-64,622	-85,754	-0,106	-0,023
-63,607	34,976	-0,092	-0,057
-62,592	177,107	-0,048	-0,050
-61,578	515,563	0,039	-0,064
-60,563	-76,888	0,121	0,030
-59,549	-200,000	-0,023	0,214
-58,534	42,676	-2,092	-1,342
-57,519	437,946	-1,227	-1,894
-56,505	-200,000	-0,415	-4,169
-55,490	604,935	0,893	1,576
-54,476	800,000	5,309	11,295
-53,461	-200,000	21,789	337,447
-52,446	800,000	759,442	2301,029
-51,432	534,924	1653,889	2778,065
-50,417	69,549	1651,168	1198,627
-49,403	16,668	1526,006	849,186
-48,388	10,873	1450,345	779,181
-47,373	19,009	1442,119	813,592
-46,359	14,237	1431,093	784,758
-45,344	9,187	1426,947	758,516
-44,330	9,142	1425,133	757,308
-43,315	9,113	1423,337	756,185
-42,300	9,053	1421,810	755,059
-41,286	9,173	1420,269	754,780
-40,271	9,116	1419,148	753,888
-39,257	9,119	1417,947	753,233
-38,242	9,144	1416,667	752,639
-37,227	9,149	1415,847	752,197
-36,213	9,162	1414,338	751,430
-35,198	9,167	1413,174	750,804
-34,184	9,164	1412,239	750,262
-33,169	9,093	1410,983	749,232
-32,154	9,110	1410,008	748,762
-31,140	9,140	1408,585	748,119
-30,125	9,192	1407,488	747,749
-29,111	9,104	1406,326	746,693
-28,096	9,132	1405,184	746,188
-27,082	9,063	1403,949	745,180
-26,067	9,081	1402,893	744,672
-25,052	9,057	1401,917	744,013
-24,038	9,151	1400,903	743,884
-23,023	9,088	1400,158	743,164
-22,009	9,096	1399,149	742,637
-20,994	9,079	1397,936	741,884
-19,979	9,087	1397,082	741,437
-18,965	9,040	1396,096	740,670
-17,950	9,081	1395,136	740,322
-16,936	9,019	1394,312	739,564
-15,921	8,988	1393,130	738,764
-14,906	9,013	1392,303	738,416
-13,892	9,089	1391,027	738,061
-12,877	9,010	1390,712	737,500
-11,863	9,017	1389,795	737,013
-10,848	8,959	1388,924	736,254
-9,833	8,972	1387,830	735,704
-8,819	8,911	1387,258	735,091
-7,804	8,969	1386,050	734,693
-6,790	8,897	1384,942	733,742
-5,775	8,914	1384,068	733,331
-4,760	8,940	1383,336	733,033
-3,746	8,932	1382,105	732,312
-2,731	8,948	1381,400	731,983
-1,717	8,914	1380,529	731,337
-0,702	8,881	1378,857	730,272
0,313	12,776	1290,856	701,410
1,327	28,631	683,003	406,735
2,342	44,551	117,795	76,204
3,356	-0,270	16,529	8,260
4,371	5,820	3,594	1,869
5,386	9,673	1,127	0,600
6,400	-200,000	0,126	0,704
7,415	-40,317	-0,220	-0,080
8,429	46,168	-0,274	-0,178
9,444	154,905	-0,233	-0,226
10,459	-24,072	-0,251	-0,105
11,473	133,833	-0,286	-0,261
12,488	197,787	-0,239	-0,258
13,502	-29,967	-0,249	-0,099
14,517	-48,378	-0,400	-0,135
15,531	25,384	-0,359	-0,209
16,546	125,815	-0,342	-0,304
17,561	170,084	-0,286	-0,289
18,575	162,783	-0,166	0,164
19,590	66,353	-0,327	-0,233
20,604	-36,617	-0,332	-0,125
21,619	120,576	-0,379	-0,332
22,634	20,018	-0,400	-0,227
23,648	106,372	-0,427	-0,356
24,663	135,496	-0,365	-0,335
25,677	443,862	-0,221	-0,342
26,692	407,379	-0,263	-0,392
27,707	-115,044	-0,396	-0,052
28,721	6,199	-0,534	-0,278
29,736	190,082	-0,301	-0,318
30,750	202,497	-0,270	-0,294
31,765	178,143	-0,371	-0,381
32,780	189,065	-0,240	-0,253
33,794	19,490	-0,291	-0,164
34,809	37,465	-0,415	-0,258
35,823	187,091	-0,317	-0,333
36,838	223,873	-0,278	-0,316
37,853	-16,682	-0,431	-0,191
38,867	137,284	-0,307	-0,283
39,882	91,082	-0,311	-0,245
40,896	16,212	-0,429	-0,237
41,911	120,900	-0,281	-0,246
42,926	26,603	-0,486	-0,285
43,940	58,932	-0,311	-0,214
44,955	83,308	-0,368	-0,281
45,969	156,275	-0,346	-0,336
46,984	145,415	-0,326	-0,307
47,999	260,660	-0,243	-0,296
49,013	56,962	-0,323	-0,221
50,028	21,746	-0,301	-0,172
51,042	44,394	-0,341	-0,220
52,057	77,075	-0,358	-0,267
53,071	14,281	-0,344	-0,188
54,086	75,753	-0,227	-0,168
55,101	37,060	-0,187	-0,116
56,115	-152,433	-0,338	-0,017
57,130	-27,654	-0,441	-0,179
58,144	-9,129	-0,327	-0,153
59,159	-18,136	-0,340	-0,149
60,174	91,177	-0,398	-0,314
61,188	27,310	-0,274	-0,161
62,203	22,779	-0,217	-0,124
63,217	102,043	-0,212	-0,174
64,232	-134,184	-0,335	-0,029
65,247	38,086	-0,284	-0,177
66,261	-65,017	-0,342	-0,096
67,276	9,354	-0,409	-0,216
68,290	618,179	-0,183	-0,324
69,305	-101,779	-0,282	-0,047
70,320	-2,755	-0,357	-0,174
71,334	83,648	-0,285	-0,217
72,349	14,250	-0,348	-0,190
73,363	-176,020	-0,340	0,006
74,378	-48,382	-0,391	-0,131
75,393	-46,917	-0,297	-0,101
76,407	139,337	-0,231	-0,213
77,422	131,317	-0,155	-0,139
78,436	-37,479	-0,356	-0,132
79,451	226,682	-0,304	-0,347
80,466	145,370	-0,287	-0,269
81,480	26,265	-0,329	-0,192
82,495	-20,915	-0,411	-0,176
83,509	260,570	-0,220	-0,267
84,524	107,462	-0,204	-0,170
85,539	-83,968	-0,225	-0,050
86,553	117,258	-0,332	-0,285
87,568	-84,343	-0,262	-0,057
88,582	-11,239	-0,426	-0,196
89,597	14,769	-0,324	-0,177
90,611	334,384	-0,175	-0,237
91,626	-44,003	-0,307	-0,107
92,641	179,972	-0,213	-0,218
93,655	-29,197	-0,367	-0,146
94,670	-8,502	-0,250	-0,117
95,684	70,726	-0,195	-0,141
96,699	-74,456	-0,278	-0,070
97,714	-22,860	-0,349	-0,147
98,728	33,255	-0,247	-0,149
99,743	-23,370	-0,439	-0,184
100,757	-63,085	-0,194	-0,056
101,772	59,044	-0,286	-0,196
102,787	-37,092	-0,392	-0,146
103,801	32,523	-0,347	-0,209
104,816	186,655	-0,245	-0,255
105,830	-9,718	-0,296	-0,137
106,845	-120,318	-0,354	-0,042
107,860	10,907	-0,321	-0,171
108,874	57,188	-0,308	-0,209
109,889	38,503	-0,175	-0,109
110,903	96,814	-0,324	-0,259
111,918	26,258	-0,326	-0,190
112,933	208,056	-0,219	-0,239
113,947	-30,115	-0,241	-0,095
114,962	53,858	-0,293	-0,196
115,976	110,494	-0,286	-0,240
116,991	208,553	-0,310	-0,339
118,006	-11,587	-0,343	-0,157
119,020	189,010	-0,160	-0,167
120,035	-43,975	-0,290	-0,101
121,049	-154,227	-0,181	0,008
122,064	-35,651	-0,286	-0,108
123,079	11,407	-0,236	-0,126
124,093	61,607	-0,362	-0,251
125,108	91,572	-0,313	-0,246
126,122	237,770	-0,213	-0,247
127,137	104,246	-0,080	-0,066
128,151	-66,317	-0,211	-0,058
129,166	440,868	-0,173	-0,264
130,181	249,972	-0,197	-0,233
131,195	109,918	-0,178	-0,149
132,210	800,000	-0,121	-0,330
133,224	-4,312	-0,240	-0,116
134,239	-100,874	-0,274	-0,046
135,254	-57,202	-0,297	-0,091
136,268	-35,873	-0,250	-0,094
137,283	58,711	-0,274	-0,187
138,297	478,960	-0,164	-0,260
139,312	503,294	-0,135	-0,218
140,327	147,689	-0,246	-0,232
141,341	800,000	-0,127	-0,297
142,356	77,113	-0,254	-0,188
143,370	3,599	-0,262	-0,133
144,385	-25,778	-0,271	-0,111
145,400	12,539	-0,301	-0,161
146,414	56,438	-0,361	-0,244
147,429	-41,157	-0,227	-0,081
148,443	-84,898	-0,316	-0,069
149,458	-94,562	-0,225	0,042
150,473	-35,134	-0,191	-0,072
151,487	4,397	-0,216	-0,110
152,502	-16,654	-0,378	-0,166
153,516	-21,987	-0,342	-0,144
154,531	48,108	-0,284	-0,184
155,546	-9,896	-0,215	-0,099
156,560	20,285	-0,204	-0,114
157,575	298,140	-0,174	-0,223
158,589	42,172	-0,213	-0,134
159,604	-77,709	-0,215	0,051
160,619	5,065	-0,248	-0,126
161,633	103,733	-0,281	-0,229
162,648	-200,000	-0,001	-0,234
163,662	800,000	-0,131	-0,273
164,677	-34,037	-0,295	-0,112
165,692	-47,741	-0,248	0,083
166,706	265,230	-0,271	-0,328
167,721	182,884	-0,194	-0,199
168,735	-6,840	-0,229	-0,108
169,750	-81,316	-0,341	-0,078
170,764	438,324	-0,121	-0,184
171,779	-5,022	-0,210	-0,100
172,794	77,064	-0,302	-0,223
173,808	223,245	-0,258	-0,289
174,823	-59,091	-0,335	-0,100
175,837	589,513	-0,138	-0,237
176,852	298,858	-0,147	-0,189
177,867	40,021	-0,228	-0,142
178,881	34,845	-0,214	-0,129
179,896	52,486	-0,290	-0,192
180,910	83,257	-0,152	-0,115
181,925	30,749	-0,237	-0,141
182,940	125,699	-0,260	-0,228
183,954	233,607	-0,245	-0,280
184,969	-6,009	-0,188	-0,089
185,983	-64,249	-0,116	-0,033
186,998	-103,774	-0,173	-0,028
188,013	15,378	-0,233	-0,126
189,027	67,193	-0,103	-0,073
190,042	-171,418	-0,318	0,007
191,056	113,959	-0,210	-0,177
192,071	27,493	-0,229	-0,133
193,086	-129,973	-0,176	-0,017
194,100	48,353	-0,225	-0,146
195,115	123,599	-0,190	-0,165
196,129	-66,195	-0,246	-0,068
197,144	800,000	-0,066	-0,192
198,159	132,904	-0,171	-0,153
199,173	-2,436	-0,231	-0,112
200,188	-49,462	-0,152	-0,050
201,202	216,603	-0,175	-0,193
202,217	110,463	-0,242	-0,202
203,232	82,889	-0,209	-0,157
204,246	194,260	-0,180	-0,189
205,261	-51,779	-0,232	-0,074
206,275	106,348	-0,060	-0,049
207,290	800,000	-0,081	-0,174
208,304	165,161	-0,113	-0,110
209,319	-16,696	-0,143	-0,062
210,334	62,518	-0,230	-0,159
211,348	738,980	-0,104	-0,194
212,363	-107,496	-0,213	0,032
213,377	60,088	-0,193	-0,132
214,392	7,907	-0,139	-0,072
215,407	49,528	-0,171	-0,111
216,421	-23,919	-0,202	-0,083
217,436	-116,222	-0,127	-0,016
218,450	121,578	-0,199	-0,171
219,465	800,000	-0,140	-0,284
220,480	273,731	-0,222	-0,272
221,494	66,488	-0,125	-0,088
222,509	-10,952	-0,135	-0,061
223,523	444,988	-0,151	-0,229
224,538	232,709	-0,151	-0,171
225,553	800,000	-0,094	-0,203
226,567	800,000	-0,091	-0,230
227,582	-5,573	-0,254	-0,120
228,596	-142,700	-0,216	-0,014
229,611	-5,015	-0,247	-0,117
230,626	-70,738	-0,291	-0,075
231,640	-80,099	-0,188	-0,043
232,655	350,573	-0,109	-0,150
233,669	122,497	-0,231	-0,200
234,684	374,142	-0,125	-0,176
235,699	8,486	-0,151	-0,078
236,713	-2,328	-0,221	-0,107
237,728	38,827	-0,189	-0,116
238,742	326,723	-0,092	-0,123
239,757	21,106	-0,276	-0,155
240,772	59,149	-0,221	-0,150
241,786	112,242	-0,205	-0,171
242,801	6,991	-0,209	-0,107
243,815	-112,342	-0,161	0,022
244,830	454,883	-0,075	-0,114
245,844	537,819	-0,103	-0,170
246,859	256,426	-0,147	-0,175
247,874	-18,713	-0,243	-0,104
248,888	303,236	-0,136	-0,175
249,903	-40,128	-0,202	-0,072
250,917	-200,000	-0,063	-0,229
251,932	91,060	-0,150	-0,116
252,947	21,557	-0,127	-0,071
253,961	151,088	-0,096	-0,090
254,976	72,455	-0,161	-0,116
255,990	40,930	-0,228	-0,142
257,005	-17,939	-0,232	-0,100
258,020	-46,846	-0,297	-0,100
259,034	-29,598	-0,180	-0,071
260,049	-49,434	-0,162	-0,053
261,063	-172,938	-0,252	0,005
262,078	800,000	-0,068	-0,139
263,093	-104,948	-0,166	-0,026
264,107	135,226	-0,152	-0,136
265,122	800,000	-0,048	-0,099
266,136	43,670	-0,183	-0,115
267,151	-71,529	-0,053	-0,014
268,166	94,239	-0,095	-0,075
269,180	-146,302	-0,165	0,010
270,195	210,029	-0,211	-0,228
271,209	272,178	-0,147	-0,179
272,224	-124,825	-0,188	0,020
273,239	225,260	-0,129	-0,144
274,253	147,016	-0,089	-0,083
275,268	46,399	-0,191	-0,122
276,282	-88,045	-0,256	-0,052
277,297	-136,621	-0,079	0,006
278,312	152,629	-0,200	-0,188
279,326	62,233	-0,208	-0,142
280,341	-77,779	-0,170	-0,040
281,355	-200,000	-0,055	-0,196
282,370	589,992	-0,091	-0,155
283,384	-13,751	-0,237	-0,105
284,399	-71,874	-0,143	-0,036
285,414	140,289	-0,136	-0,123
286,428	800,000	-0,105	-0,209
287,443	-167,665	-0,179	-0,005
288,457	-200,000	-0,031	-0,254
289,472	800,000	-0,097	-0,287
290,487	652,870	-0,126	-0,223
291,501	206,301	-0,130	-0,139
292,516	-58,860	-0,091	0,027
293,530	-67,957	-0,111	0,030
294,545	98,808	-0,114	-0,090
295,560	81,494	-0,145	-0,108
296,574	64,894	-0,158	-0,110
297,589	185,064	-0,186	-0,190
298,603	189,140	-0,120	-0,124
299,618	-123,267	-0,100	-0,011
300,633	-200,000	-0,039	-0,159
301,647	-51,074	-0,166	-0,053
302,662	-93,762	-0,226	-0,042
303,676	-156,925	-0,138	0,006
304,691	197,767	-0,222	-0,233
305,706	90,737	-0,164	-0,126
306,720	69,536	-0,202	-0,143
307,735	-177,227	-0,141	0,002
308,749	-12,468	-0,163	0,073
309,764	221,728	-0,078	-0,086
310,779	-128,570	-0,047	0,005
311,793	62,725	-0,214	-0,146
312,808	32,880	-0,114	-0,067
313,822	800,000	-0,075	-0,182
314,837	124,502	-0,206	-0,178
315,852	21,407	-0,139	0,077
316,866	510,096	-0,057	-0,091
317,881	-200,000	-0,012	-0,149
318,895	-158,600	-0,228	-0,009
319,910	-68,840	-0,238	0,063
320,925	49,435	-0,172	-0,111
321,939	440,623	-0,148	-0,223
322,954	-200,000	-0,032	-0,272
323,968	125,646	-0,151	-0,130
324,983	-46,334	-0,188	-0,063
325,997	0,600	-0,099	0,048
327,012	240,196	-0,220	-0,251
328,027	-78,626	-0,130	-0,030
329,041	255,710	-0,176	-0,207
330,056	171,853	-0,064	-0,063
331,070	-45,134	-0,053	0,018
332,085	27,005	-0,120	-0,069
333,100	119,104	-0,143	-0,121
334,114	42,660	-0,133	-0,083
335,129	235,594	-0,104	-0,118
336,143	154,643	-0,154	-0,145
337,158	65,719	-0,195	-0,135
338,173	233,419	-0,143	-0,161
339,187	-68,251	-0,263	-0,070
340,202	-18,260	-0,174	-0,074
341,216	99,924	-0,165	-0,131
342,231	-200,000	-0,069	-0,218
343,246	318,953	-0,151	-0,196
344,260	-104,232	-0,196	-0,031
345,275	-69,783	-0,190	-0,049
346,289	120,885	-0,199	-0,169
347,304	27,460	-0,139	-0,080
348,319	578,066	-0,091	-0,152
349,333	108,534	-0,090	-0,074
350,348	45,700	-0,225	-0,142
351,362	228,538	-0,106	-0,119
352,377	-200,000	-0,010	-0,127
353,392	7,128	-0,161	0,082
354,406	98,024	-0,126	-0,099
355,421	206,708	1307,522	1394,470
356,435	158,986	1467,323	1394,938
