DTS Sentinel unit serial number:	SN410029Multiplexer serial number:	ORYXHardware model number:	OX2-SRSoftware version number:	ORYX F/W v4,00 Oryx Data Collector v3.7.2.0data status	okinstallation	B3 Nyhavnadifferential loss correction	single-endedforward channel	channel 1reverse channel	N/Adate	2023/11/30time	15:42:30forward acquisition time	300,00reverse acquisition time	0,00gamma	499,1914k internal	0,3206k external	0,3206temperature offset calibration	1,0000default loss term (dB/km)	0,3820temperature slope calibration	1,0000multiplexer offset coefficient	1,0000multiplexer slope coefficient	1,0000fibre end	0,00T internal ref (°C)	12,52T ext. ref 1 (°C)	-1,71T ext. ref 2 (°C)	-1,76length (m)	temperature (°C)	Stokes	anti-Stokes-744,400	-200,000	-0,120	-0,384
-743,385	-200,000	0,004	0,230
-742,371	667,188	-0,122	-0,229
-741,356	-200,000	-0,035	0,314
-740,342	56,372	-0,161	-0,114
-739,327	-200,000	0,020	0,244
-738,312	244,256	-0,197	-0,240
-737,298	800,000	0,082	0,230
-736,283	-35,237	-0,344	-0,135
-735,269	-200,000	-0,010	0,466
-734,254	89,830	-0,223	-0,181
-733,239	137,918	-0,127	0,121
-732,225	800,000	-0,096	-0,300
-731,210	-33,671	0,107	0,043
-730,196	110,520	-0,064	0,056
-729,181	-65,120	0,059	0,017
-728,167	-200,000	-0,005	-0,090
-727,152	-43,972	-0,098	-0,036
-726,137	3,561	-0,150	0,079
-725,123	-81,956	-0,058	0,014
-724,108	800,000	0,021	-0,067
-723,094	-200,000	0,028	-0,229
-722,079	34,495	-0,068	-0,043
-721,064	237,739	-0,047	-0,057
-720,050	-200,000	0,066	0,282
-719,035	198,332	-0,042	-0,047
-718,021	-200,000	0,005	0,055
-717,006	-200,000	0,011	-0,038
-715,991	33,184	-0,086	0,054
-714,977	341,027	-0,084	-0,120
-713,962	21,141	-0,149	-0,087
-712,948	177,644	-0,056	-0,059
-711,933	-104,631	-0,097	0,016
-710,918	-200,000	0,018	0,083
-709,904	-200,000	0,001	-0,032
-708,889	172,369	-0,152	-0,159
-707,875	-200,000	-0,037	0,153
-706,860	-106,907	0,162	-0,026
-705,845	38,570	0,045	-0,029
-704,831	123,313	-0,034	0,031
-703,816	91,080	0,087	-0,071
-702,802	173,315	0,054	-0,056
-701,787	239,486	-0,054	-0,065
-700,772	137,902	-0,043	-0,041
-699,758	164,383	-0,036	-0,036
-698,743	-200,000	-0,019	0,075
-697,729	800,000	-0,012	0,030
-696,714	800,000	-0,021	0,068
-695,699	111,025	-0,072	-0,063
-694,685	318,298	-0,069	0,095
-693,670	169,146	0,030	0,031
-692,656	238,856	0,028	0,033
-691,641	255,470	0,020	0,025
-690,627	297,327	0,057	-0,076
-689,612	427,709	-0,059	0,093
-688,597	-200,000	-0,010	0,064
-687,583	-200,000	-0,008	0,050
-686,568	800,000	-0,017	-0,038
-685,554	172,582	0,039	-0,041
-684,539	583,715	-0,021	0,038
-683,524	-21,999	-0,087	0,038
-682,510	568,466	-0,049	0,087
-681,495	-112,657	-0,063	0,009
-680,481	-75,397	-0,167	-0,043
-679,466	-98,503	-0,196	-0,036
-678,451	-170,688	-0,070	0,002
-677,437	-18,935	0,017	-0,008
-676,422	35,318	0,057	0,036
-675,408	-200,000	-0,025	-0,170
-674,393	-200,000	-0,024	-0,117
-673,378	90,537	-0,134	-0,109
-672,364	260,817	-0,053	-0,066
-671,349	-200,000	-0,024	-0,098
-670,335	662,526	0,088	0,165
-669,320	193,052	0,072	-0,079
-668,305	-105,238	-0,174	0,028
-667,291	800,000	-0,032	-0,098
-666,276	-200,000	0,001	0,045
-665,262	406,488	-0,052	0,080
-664,247	-200,000	0,022	-0,126
-663,232	-79,282	0,103	-0,025
-662,218	-9,297	-0,044	-0,021
-661,203	-153,301	-0,113	0,006
-660,189	-150,313	-0,079	-0,004
-659,174	800,000	0,018	-0,044
-658,159	691,251	0,033	-0,062
-657,145	-200,000	-0,035	-0,113
-656,130	-200,000	-0,012	-0,144
-655,116	-95,308	0,040	-0,008
-654,101	-30,763	0,063	-0,026
-653,086	204,367	-0,084	0,094
-652,072	-157,798	0,054	-0,002
-651,057	-148,711	-0,037	0,002
-650,043	-79,876	-0,099	-0,024
-649,028	-23,779	0,108	0,047
-648,014	800,000	-0,026	-0,054
-646,999	-105,949	0,044	-0,007
-645,984	78,605	0,102	-0,079
-644,970	522,389	-0,064	-0,109
-643,955	7,376	0,031	-0,017
-642,941	800,000	-0,035	-0,084
-641,926	52,290	-0,088	-0,061
-640,911	-139,462	0,086	-0,007
-639,897	-200,000	-0,009	0,062
-638,882	-200,000	0,036	0,000
-637,868	-89,439	-0,211	0,045
-636,853	-200,000	0,034	-0,146
-635,838	-109,135	-0,069	-0,010
-634,824	-200,000	-0,013	-0,087
-633,809	173,203	0,170	0,177
-632,795	-200,000	0,003	0,022
-631,780	-200,000	-0,015	-0,143
-630,765	242,556	-0,063	0,076
-629,751	-200,000	-0,022	-0,120
-628,736	261,304	-0,060	-0,075
-627,722	14,363	0,039	-0,022
-626,707	-200,000	-0,016	0,161
-625,692	-200,000	-0,002	0,102
-624,678	-157,854	-0,136	-0,006
-623,663	193,700	0,068	-0,075
-622,649	-33,277	-0,118	-0,047
-621,634	-200,000	0,011	-0,058
-620,619	-200,000	0,010	0,085
-619,605	252,734	-0,083	-0,102
-618,590	-200,000	-0,002	-0,042
-617,576	800,000	0,056	0,131
-616,561	-33,601	-0,078	-0,031
-615,546	-25,166	0,066	0,028
-614,532	-31,438	-0,129	0,052
-613,517	-200,000	-0,012	0,074
-612,503	-89,574	-0,067	-0,014
-611,488	71,919	0,206	0,155
-610,474	215,231	0,055	0,063
-609,459	-128,725	-0,186	0,019
-608,444	800,000	0,064	-0,137
-607,430	-200,000	0,038	-0,179
-606,415	364,888	-0,082	-0,120
-605,401	-200,000	-0,011	0,064
-604,386	-152,849	0,193	0,010
-603,371	-200,000	0,012	0,093
-602,357	-200,000	-0,018	0,098
-601,342	11,800	-0,048	-0,027
-600,328	800,000	-0,039	0,123
-599,313	512,040	0,065	-0,109
-598,298	100,391	-0,059	-0,049
-597,284	-200,000	-0,002	-0,051
-596,269	68,389	-0,015	0,011
-595,255	-200,000	0,001	0,086
-594,240	800,000	0,070	-0,151
-593,225	207,121	0,043	-0,049
-592,211	-200,000	-0,002	-0,080
-591,196	-200,000	-0,023	0,112
-590,182	161,731	-0,119	0,121
-589,167	-45,252	0,104	0,037
-588,152	192,047	0,054	0,059
-587,138	800,000	0,019	0,056
-586,123	-22,353	-0,102	0,044
-585,109	143,904	0,061	0,058
-584,094	270,475	-0,028	0,036
-583,079	800,000	-0,017	-0,051
-582,065	800,000	0,067	0,159
-581,050	-200,000	0,007	-0,031
-580,036	91,428	-0,058	0,047
-579,021	-17,235	0,089	-0,040
-578,006	800,000	-0,050	0,106
-576,992	-99,631	0,079	0,014
-575,977	450,953	-0,019	0,030
-574,963	-200,000	0,026	0,127
-573,948	49,916	0,067	-0,046
-572,934	-200,000	0,017	-0,073
-571,919	211,119	0,083	0,094
-570,904	206,736	0,055	-0,062
-569,890	319,835	-0,049	0,067
-568,875	344,755	0,145	0,206
-567,861	-200,000	-0,009	0,137
-566,846	647,532	0,019	0,035
-565,831	-43,971	-0,009	-0,003
-564,817	22,890	-0,128	-0,076
-563,802	474,704	-0,075	-0,122
-562,788	667,129	-0,056	-0,106
-561,773	-135,663	-0,059	0,005
-560,758	-14,167	0,032	-0,015
-559,744	-200,000	-0,033	0,117
-558,729	-200,000	-0,005	-0,071
-557,715	800,000	-0,036	0,097
-556,700	-200,000	0,032	0,113
-555,685	-39,353	0,036	0,014
-554,671	158,181	-0,026	-0,026
-553,656	48,706	0,076	0,051
-552,642	767,083	-0,017	-0,034
-551,627	95,671	0,100	0,083
-550,612	-101,794	-0,119	0,021
-549,598	86,000	0,084	-0,067
-548,583	728,993	0,095	-0,184
-547,569	-158,729	-0,053	0,002
-546,554	800,000	0,019	0,043
-545,539	460,123	0,054	0,086
-544,525	-18,416	-0,056	-0,025
-543,510	-200,000	-0,029	-0,092
-542,496	228,779	0,021	0,025
-541,481	-200,000	0,005	-0,033
-540,466	-16,011	0,032	0,015
-539,452	114,219	0,066	0,058
-538,437	259,194	0,064	-0,079
-537,423	328,534	0,107	0,149
-536,408	336,764	-0,026	-0,037
-535,393	-15,359	-0,008	0,003
-534,379	71,995	-0,091	-0,068
-533,364	-6,032	-0,112	-0,055
-532,350	445,771	-0,042	0,066
-531,335	800,000	0,031	0,093
-530,321	-13,400	-0,121	-0,056
-529,306	-200,000	0,006	0,023
-528,291	-15,082	0,039	0,018
-527,277	-46,963	-0,069	-0,024
-526,262	113,741	0,027	0,023
-525,248	-200,000	0,012	-0,085
-524,233	5,829	0,059	0,031
-523,218	-200,000	0,009	-0,050
-522,204	173,316	0,022	0,023
-521,189	148,590	0,030	0,029
-520,175	-77,392	-0,077	0,019
-519,160	-200,000	-0,020	0,121
-518,145	598,711	0,058	-0,104
-517,131	-179,575	0,126	0,002
-516,116	337,913	0,045	0,063
-515,102	19,340	0,141	0,082
-514,087	43,881	-0,092	0,061
-513,072	662,235	-0,042	-0,078
-512,058	44,483	0,020	-0,013
-511,043	-31,870	0,032	0,013
-510,029	-27,477	0,162	0,067
-509,014	-200,000	-0,024	0,086
-507,999	-200,000	0,000	-0,008
-506,985	-36,223	-0,110	-0,042
-505,970	800,000	0,032	0,082
-504,956	-123,138	0,010	-0,001
-503,941	800,000	0,014	-0,038
-502,926	-64,980	-0,090	-0,026
-501,912	800,000	-0,032	0,098
-500,897	589,311	0,035	-0,062
-499,883	25,457	-0,116	-0,069
-498,868	548,089	-0,022	-0,038
-497,853	-200,000	0,004	-0,033
-496,839	-32,350	0,089	-0,035
-495,824	-7,023	0,063	-0,031
-494,810	-200,000	-0,023	-0,122
-493,795	314,587	-0,021	-0,028
-492,781	-97,126	-0,110	-0,021
-491,766	-200,000	0,035	-0,186
-490,751	-200,000	-0,010	-0,080
-489,737	158,117	-0,085	-0,085
-488,722	120,008	0,051	-0,046
-487,708	-98,483	-0,058	-0,010
-486,693	-200,000	0,008	-0,083
-485,678	-200,000	0,012	-0,132
-484,664	-200,000	0,002	-0,097
-483,649	-108,542	-0,154	0,024
-482,635	-1,511	-0,087	0,044
-481,620	129,124	-0,009	0,009
-480,605	-200,000	-0,004	0,115
-479,591	-200,000	-0,014	-0,109
-478,576	120,270	-0,105	0,093
-477,562	800,000	0,015	0,045
-476,547	-200,000	0,004	0,160
-475,532	-200,000	-0,023	-0,102
-474,518	-160,404	-0,100	-0,004
-473,503	-47,564	0,071	0,025
-472,489	375,170	0,099	0,145
-471,474	-84,763	0,178	0,040
-470,459	800,000	0,040	-0,081
-469,445	-6,519	-0,067	0,033
-468,430	-117,384	-0,025	0,003
-467,416	800,000	0,097	0,203
-466,401	57,355	0,066	0,047
-465,386	-200,000	-0,011	0,047
-464,372	-165,025	0,051	0,002
-463,357	8,723	-0,103	0,056
-462,343	-45,821	-0,131	-0,046
-461,328	-94,323	0,083	0,016
-460,313	-200,000	0,007	0,208
-459,299	-200,000	-0,010	-0,068
-458,284	127,813	-0,014	-0,013
-457,270	-101,775	0,073	0,013
-456,255	203,256	-0,110	-0,122
-455,241	124,651	-0,105	-0,095
-454,226	49,170	0,231	-0,155
-453,211	800,000	-0,007	0,019
-452,197	800,000	-0,007	-0,016
-451,182	800,000	-0,015	-0,045
-450,168	-139,127	0,164	-0,013
-449,153	154,526	-0,040	0,040
-448,138	520,360	-0,088	-0,148
-447,124	44,087	0,062	-0,041
-446,109	210,676	-0,107	0,121
-445,095	2,249	0,081	0,042
-444,080	272,175	0,074	0,094
-443,065	4,243	-0,162	0,085
-442,051	800,000	0,019	-0,039
-441,036	800,000	0,039	-0,087
-440,022	800,000	0,048	-0,123
-439,007	182,368	0,068	0,072
-437,992	-43,300	-0,091	0,033
-436,978	46,978	0,128	0,086
-435,963	109,463	0,176	0,151
-434,949	-146,365	-0,126	-0,008
-433,934	-163,309	0,167	0,006
-432,919	-93,186	-0,041	0,008
-431,905	-200,000	-0,027	-0,095
-430,890	-162,309	-0,037	0,001
-429,876	280,223	-0,020	-0,025
-428,861	97,281	-0,029	-0,024
-427,846	-40,891	-0,083	-0,031
-426,832	-200,000	-0,004	-0,135
-425,817	-200,000	-0,012	0,040
-424,803	-39,096	0,122	-0,046
-423,788	129,927	0,060	0,055
-422,773	-200,000	-0,007	-0,164
-421,759	-16,863	-0,046	0,021
-420,744	188,622	-0,078	-0,083
-419,730	33,719	-0,115	-0,072
-418,715	-162,623	-0,047	-0,002
-417,701	800,000	-0,007	-0,023
-416,686	-85,259	-0,125	-0,028
-415,671	528,161	0,030	0,051
-414,657	344,686	0,086	0,121
-413,642	-77,765	0,066	-0,016
-412,628	373,563	-0,041	0,059
-411,613	229,578	0,032	0,037
-410,598	425,820	0,020	0,030
-409,584	258,939	0,085	0,106
-408,569	530,802	-0,059	0,101
-407,555	20,583	0,135	0,078
-406,540	-200,000	0,000	0,083
-405,525	-200,000	-0,026	-0,118
-404,511	82,460	0,022	-0,017
-403,496	168,924	-0,030	0,031
-402,482	-101,362	0,081	-0,014
-401,467	-200,000	-0,014	-0,098
-400,452	-200,000	0,016	0,059
-399,438	-89,706	-0,087	-0,018
-398,423	-69,696	-0,088	0,024
-397,409	-200,000	-0,004	-0,042
-396,394	138,183	-0,140	-0,131
-395,379	-76,706	0,205	0,051
-394,365	800,000	0,026	-0,055
-393,350	-200,000	-0,018	0,127
-392,336	176,487	0,088	0,091
-391,321	-200,000	0,008	0,210
-390,306	800,000	-0,044	-0,097
-389,292	53,875	0,032	0,022
-388,277	156,720	0,033	0,032
-387,263	35,622	-0,036	0,023
-386,248	-66,945	-0,084	-0,024
-385,233	715,671	0,044	0,085
-384,219	382,214	0,020	-0,029
-383,204	-200,000	-0,011	-0,138
-382,190	-123,368	-0,233	0,026
-381,175	-97,901	0,023	-0,004
-380,160	-81,215	-0,057	-0,013
-379,146	-146,107	-0,045	-0,003
-378,131	800,000	0,031	-0,064
-377,117	-113,085	0,049	-0,007
-376,102	-200,000	0,000	-0,056
-375,088	-200,000	-0,005	-0,137
-374,073	-200,000	-0,025	-0,097
-373,058	54,113	-0,089	-0,061
-372,044	378,744	-0,039	0,057
-371,029	253,038	-0,024	0,029
-370,015	89,315	0,104	0,083
-369,000	-46,613	-0,081	-0,028
-367,985	-200,000	-0,003	0,035
-366,971	-52,958	-0,047	0,015
-365,956	286,321	0,048	-0,063
-364,942	31,197	0,098	-0,060
-363,927	-200,000	0,035	0,119
-362,912	-200,000	-0,014	-0,053
-361,898	-200,000	-0,016	-0,165
-360,883	-200,000	0,039	-0,162
-359,869	800,000	0,017	-0,041
-358,854	-90,796	0,104	0,021
-357,839	44,757	0,136	0,089
-356,825	-200,000	0,039	0,135
-355,810	2,788	-0,115	0,060
-354,796	-200,000	-0,009	-0,063
-353,781	225,480	-0,030	0,034
-352,766	111,043	-0,159	-0,137
-351,752	-200,000	0,004	-0,038
-350,737	800,000	0,052	-0,123
-349,723	62,590	0,061	-0,043
-348,708	-94,379	-0,056	0,011
-347,693	125,869	-0,092	0,083
-346,679	-200,000	0,011	-0,169
-345,664	-10,423	-0,027	-0,013
-344,650	-3,817	-0,097	0,048
-343,635	65,906	0,044	0,032
-342,620	-0,597	-0,091	0,046
-341,606	-200,000	0,042	-0,173
-340,591	31,970	-0,161	-0,099
-339,577	-165,334	0,119	0,004
-338,562	301,269	-0,051	-0,067
-337,548	-26,396	0,002	0,001
-336,533	800,000	0,032	0,097
-335,518	216,793	-0,042	-0,048
-334,504	-177,702	0,071	-0,001
-333,489	-200,000	-0,036	0,158
-332,475	-200,000	0,002	-0,029
-331,460	-200,000	0,008	-0,054
-330,445	-200,000	0,004	-0,015
-329,431	-44,603	0,103	-0,037
-328,416	-158,552	0,096	-0,004
-327,402	505,388	-0,032	-0,052
-326,387	-200,000	0,008	0,121
-325,372	-108,580	0,059	0,009
-324,358	428,000	-0,025	-0,039
-323,343	800,000	-0,037	-0,083
-322,329	-200,000	0,003	-0,051
-321,314	-8,142	0,047	-0,022
-320,299	-98,538	0,128	0,023
-319,285	800,000	-0,037	0,099
-318,270	-47,636	-0,085	-0,029
-317,256	-55,552	0,080	0,025
-316,241	-200,000	0,003	-0,172
-315,226	-200,000	0,011	0,103
-314,212	-139,756	0,069	-0,005
-313,197	-46,455	-0,101	0,035
-312,183	-200,000	-0,012	0,082
-311,168	800,000	-0,048	-0,142
-310,153	32,265	-0,198	-0,122
-309,139	-127,990	-0,038	0,004
-308,124	146,806	0,060	-0,058
-307,110	-93,136	0,038	-0,008
-306,095	-200,000	0,003	-0,023
-305,080	-200,000	0,026	0,113
-304,066	-200,000	0,003	-0,085
-303,051	-200,000	-0,010	-0,045
-302,037	108,156	0,039	0,033
-301,022	124,971	-0,042	0,038
-300,008	350,028	0,026	0,037
-298,993	-10,493	0,044	-0,021
-297,978	86,379	-0,095	0,074
-296,964	256,144	0,032	-0,039
-295,949	-89,323	-0,051	0,011
-294,935	175,606	-0,045	0,047
-293,920	217,768	-0,016	-0,018
-292,905	-200,000	0,007	-0,050
-291,891	-28,539	0,040	0,016
-290,876	-62,222	0,112	0,033
-289,862	83,990	0,056	0,043
-288,847	-200,000	-0,028	-0,227
-287,832	-143,620	0,055	-0,004
-286,818	800,000	-0,031	0,067
-285,803	-200,000	0,005	-0,035
-284,789	11,042	0,052	0,028
-283,774	313,640	0,068	-0,092
-282,759	-200,000	0,023	-0,105
-281,745	800,000	0,058	-0,166
-280,730	-200,000	0,001	-0,018
-279,716	144,613	-0,048	0,045
-278,701	595,297	0,048	0,086
-277,686	800,000	0,061	0,124
-276,672	800,000	-0,032	0,098
-275,657	694,733	0,028	-0,053
-274,643	800,000	-0,053	-0,114
-273,628	298,115	0,028	-0,037
-272,613	800,000	-0,029	0,077
-271,599	-21,616	-0,041	0,018
-270,584	-69,847	0,150	-0,040
-269,570	226,400	-0,083	0,097
-268,555	-114,026	0,104	-0,014
-267,540	-200,000	-0,009	0,045
-266,526	144,910	-0,044	-0,042
-265,511	-58,277	-0,148	-0,046
-264,497	164,799	-0,035	-0,035
-263,482	255,612	0,078	0,095
-262,467	-200,000	0,008	0,032
-261,453	-33,177	-0,052	-0,020
-260,438	-3,903	-0,185	0,091
-259,424	356,239	0,117	-0,167
-258,409	70,534	0,076	-0,056
-257,395	800,000	-0,032	-0,098
-256,380	118,998	0,023	0,020
-255,365	800,000	0,037	0,074
-254,351	194,057	-0,013	0,014
-253,336	74,374	0,095	-0,071
-252,322	24,701	-0,038	0,023
-251,307	800,000	-0,054	-0,115
-250,292	800,000	0,015	0,040
-249,278	800,000	0,076	0,152
-248,263	-120,945	0,214	-0,025
-247,249	78,668	-0,088	-0,067
-246,234	800,000	-0,014	0,034
-245,219	47,186	0,087	0,058
-244,205	97,952	0,108	0,088
-243,190	222,483	-0,051	0,058
-242,176	-131,741	0,163	-0,015
-241,161	-200,000	-0,033	0,137
-240,146	-200,000	-0,003	0,078
-239,132	84,573	0,029	-0,023
-238,117	-89,882	-0,061	0,013
-237,103	113,321	0,036	-0,031
-236,088	-180,985	0,023	0,000
-235,073	-119,941	0,107	0,013
-234,059	800,000	0,024	-0,049
-233,044	-28,422	0,059	-0,024
-232,030	-91,124	0,131	0,027
-231,015	177,742	-0,135	0,141
-230,000	70,283	-0,079	-0,058
-228,986	-158,383	-0,069	-0,003
-227,971	-200,000	-0,028	-0,175
-226,957	92,847	-0,060	-0,048
-225,942	-186,056	0,054	-0,001
-224,927	-200,000	-0,028	-0,096
-223,913	800,000	-0,010	-0,027
-222,898	184,730	-0,045	-0,048
-221,884	-82,590	0,033	-0,007
-220,869	-102,265	-0,107	0,018
-219,855	-105,436	-0,130	0,021
-218,840	19,374	-0,055	0,031
-217,825	-80,012	-0,094	-0,022
-216,811	-200,000	0,012	-0,068
-215,796	9,648	-0,111	0,059
-214,782	3,075	0,070	-0,036
-213,767	-124,152	-0,126	-0,014
-212,752	-200,000	-0,012	0,052
-211,738	71,858	-0,044	0,033
-210,723	374,238	0,015	0,022
-209,709	-200,000	0,005	-0,022
-208,694	64,590	0,067	0,048
-207,679	-60,160	0,008	-0,002
-206,665	-92,733	0,111	0,022
-205,650	-200,000	-0,028	0,157
-204,636	-25,672	0,029	-0,012
-203,621	-51,722	-0,098	-0,032
-202,606	-124,066	-0,107	0,012
-201,592	92,987	0,128	-0,102
-200,577	-200,000	-0,037	-0,211
-199,563	-43,211	0,040	-0,014
-198,548	-200,000	-0,027	0,136
-197,533	-156,517	0,127	-0,006
-196,519	-74,165	0,027	0,007
-195,504	-200,000	-0,006	0,025
-194,490	63,178	0,027	-0,019
-193,475	-73,619	-0,090	0,023
-192,460	800,000	-0,032	0,086
-191,446	34,601	-0,101	-0,062
-190,431	312,223	0,012	0,017
-189,417	-28,363	-0,122	-0,050
-188,402	-30,022	-0,069	-0,028
-187,387	-200,000	-0,011	0,050
-186,373	12,464	-0,173	0,094
-185,358	205,349	0,093	-0,102
-184,344	-200,000	0,012	-0,174
-183,329	-160,939	-0,097	-0,004
-182,315	-200,000	0,008	-0,084
-181,300	-200,000	-0,026	0,148
-180,285	234,913	-0,057	0,067
-179,271	-200,000	0,024	0,078
-178,256	800,000	0,060	-0,156
-177,242	1,706	-0,053	0,027
-176,227	800,000	0,056	0,157
-175,212	90,397	-0,148	0,117
-174,198	-200,000	-0,001	0,036
-173,183	-200,000	-0,013	0,087
-172,169	-200,000	-0,010	0,094
-171,154	-73,396	-0,145	0,037
-170,139	-110,725	0,072	0,010
-169,125	582,186	-0,091	0,159
-168,110	295,001	-0,018	0,023
-167,096	73,297	-0,076	-0,056
-166,081	-123,106	0,079	-0,009
-165,066	355,092	0,028	0,040
-164,052	-125,224	0,193	-0,021
-163,037	-7,703	-0,069	0,033
-162,023	-200,000	0,024	-0,079
-161,008	72,725	0,052	0,038
-159,993	800,000	0,032	0,075
-158,979	-41,328	0,078	-0,029
-157,964	-22,157	-0,123	-0,053
-156,950	-10,550	0,126	0,059
-155,935	-200,000	0,010	0,096
-154,920	-185,386	0,133	-0,001
-153,906	-9,417	0,061	0,029
-152,891	-200,000	0,002	0,021
-151,877	46,852	-0,045	0,029
-150,862	90,398	-0,021	0,017
-149,847	78,187	-0,135	-0,102
-148,833	72,023	0,053	-0,039
-147,818	-200,000	0,022	-0,069
-146,804	233,366	0,062	0,072
-145,789	-47,931	-0,091	0,031
-144,775	-140,838	-0,081	0,006
-143,760	-129,495	0,107	0,010
-142,745	-200,000	-0,013	0,040
-141,731	-101,937	-0,041	-0,007
-140,716	800,000	0,032	0,077
-139,702	-200,000	0,034	0,124
-138,687	-200,000	0,001	0,089
-137,672	-117,528	0,076	-0,010
-136,658	742,450	0,070	-0,133
-135,643	-200,000	0,028	0,087
-134,629	282,880	0,124	-0,159
-133,614	-200,000	-0,008	-0,147
-132,599	-143,683	0,068	0,005
-131,585	-200,000	0,053	-0,173
-130,570	530,266	0,046	0,078
-129,556	800,000	-0,008	-0,023
-128,541	514,331	0,099	-0,165
-127,526	283,522	-0,047	-0,060
-126,512	-200,000	-0,009	-0,036
-125,497	157,484	0,020	0,020
-124,483	103,504	0,155	0,129
-123,468	-200,000	-0,016	0,075
-122,453	800,000	0,028	-0,078
-121,439	-144,956	-0,204	-0,013
-120,424	-72,258	-0,188	0,049
-119,410	-151,236	0,102	-0,005
-118,395	-200,000	-0,026	0,093
-117,380	38,595	0,123	0,078
-116,366	476,857	-0,043	0,069
-115,351	-181,404	-0,071	0,001
-114,337	-200,000	0,003	-0,053
-113,322	7,282	0,036	0,019
-112,307	298,336	0,041	0,053
-111,293	375,396	-0,052	-0,075
-110,278	604,238	-0,017	0,029
-109,264	-62,542	0,089	0,026
-108,249	257,184	0,029	0,035
-107,234	-38,669	0,025	-0,009
-106,220	-200,000	-0,001	0,061
-105,205	-106,063	-0,004	0,001
-104,191	262,895	0,041	0,050
-103,176	255,021	0,050	0,060
-102,162	800,000	-0,042	-0,096
-101,147	-111,430	-0,116	0,017
-100,132	-200,000	-0,016	-0,060
-99,118	800,000	0,027	0,055
-98,103	209,668	0,090	0,100
-97,089	54,493	-0,099	-0,068
-96,074	-200,000	0,016	0,067
-95,059	435,244	-0,052	0,080
-94,045	800,000	0,031	-0,079
-93,030	-200,000	-0,016	-0,095
-92,016	-200,000	0,052	-0,179
-91,001	17,698	0,017	-0,010
-89,986	-200,000	0,001	-0,019
-88,972	-154,508	-0,088	-0,004
-87,957	639,601	-0,032	0,058
-86,943	-200,000	-0,018	-0,093
-85,928	479,566	0,033	-0,052
-84,913	-49,453	-0,089	0,030
-83,899	-120,387	-0,039	-0,005
-82,884	-200,000	0,016	-0,068
-81,870	-200,000	-0,008	0,059
-80,855	-200,000	0,016	0,101
-79,840	-200,000	0,008	-0,027
-78,826	-65,566	0,109	0,031
-77,811	-200,000	0,015	-0,084
-76,797	800,000	0,019	0,046
-75,782	188,780	0,047	-0,050
-74,767	227,653	0,036	0,041
-73,753	-108,225	-0,077	-0,012
-72,738	800,000	-0,036	-0,077
-71,724	270,273	-0,153	-0,190
-70,709	33,984	-0,092	-0,057
-69,694	134,506	0,096	-0,088
-68,680	5,533	-0,038	-0,020
-67,665	13,597	-0,024	0,013
-66,651	-200,000	0,009	0,075
-65,636	35,161	-0,109	-0,067
-64,622	-124,410	0,020	-0,002
-63,607	-200,000	0,004	-0,089
-62,592	23,450	0,088	-0,051
-61,578	-93,323	-0,045	-0,009
-60,563	-26,066	-0,047	-0,019
-59,549	800,000	-0,053	0,120
-58,534	6,097	-1,773	-0,926
-57,519	368,737	-1,515	-2,172
-56,505	-200,000	-0,370	-4,368
-55,490	340,885	0,849	1,174
-54,476	800,000	4,894	11,223
-53,461	-200,000	19,607	329,901
-52,446	-200,000	743,244	2335,317
-51,432	568,382	1652,413	2848,837
-50,417	76,899	1665,475	1248,415
-49,403	20,490	1539,034	877,160
-48,388	14,379	1461,524	803,390
-47,373	18,574	1451,585	818,065
-46,359	16,655	1441,500	803,196
-45,344	12,628	1436,756	781,325
-44,330	12,566	1434,981	780,036
-43,315	12,591	1433,068	779,080
-42,300	12,572	1431,507	778,113
-41,286	12,545	1430,556	777,437
-40,271	12,591	1428,736	776,634
-39,257	12,567	1427,652	775,899
-38,242	12,627	1426,322	775,433
-37,227	12,603	1425,370	774,769
-36,213	12,603	1423,884	773,932
-35,198	12,597	1422,808	773,288
-34,184	12,679	1421,825	773,108
-33,169	12,585	1420,359	771,838
-32,154	12,620	1419,379	771,440
-31,140	12,636	1418,140	770,810
-30,125	12,674	1416,951	770,315
-29,111	12,648	1415,837	769,554
-28,096	12,643	1414,766	768,920
-27,082	12,542	1413,774	767,872
-26,067	12,559	1412,708	767,344
-25,052	12,551	1411,724	766,741
-24,038	12,554	1410,628	766,128
-23,023	12,574	1409,694	765,684
-22,009	12,565	1408,625	765,032
-20,994	12,502	1407,781	764,251
-19,979	12,519	1406,989	763,870
-18,965	12,493	1405,919	763,137
-17,950	12,455	1405,077	762,473
-16,936	12,512	1404,144	762,203
-15,921	12,487	1402,935	761,399
-14,906	12,446	1402,157	760,755
-13,892	12,481	1401,452	760,504
-12,877	12,482	1400,275	759,839
-11,863	12,458	1399,443	759,246
-10,848	12,464	1398,471	758,716
-9,833	12,400	1397,693	757,967
-8,819	12,372	1396,869	757,363
-7,804	12,325	1396,052	756,670
-6,790	12,381	1394,704	756,171
-5,775	12,391	1393,774	755,683
-4,760	12,357	1392,983	755,066
-3,746	12,322	1392,049	754,368
-2,731	12,346	1391,309	754,046
-1,717	12,281	1390,418	753,237
-0,702	12,324	1388,541	752,389
0,313	16,306	1304,842	725,342
1,327	32,780	698,850	426,247
2,342	49,927	122,250	81,302
3,356	3,428	16,669	8,549
4,371	18,019	3,247	1,822
5,386	1,789	0,537	0,272
6,400	390,658	0,107	0,158
7,415	-127,792	-0,156	-0,016
8,429	66,839	-0,251	-0,180
9,444	114,269	-0,303	-0,261
10,459	76,638	-0,311	-0,233
11,473	370,405	-0,193	-0,277
12,488	352,135	-0,246	-0,345
13,502	-57,752	-0,371	-0,114
14,517	457,008	-0,160	-0,251
15,531	-27,767	-0,352	-0,143
16,546	-22,030	-0,419	-0,179
17,561	596,120	-0,227	-0,397
18,575	82,425	-0,225	-0,172
19,590	186,355	-0,224	-0,235
20,604	-22,044	-0,319	-0,136
21,619	99,465	-0,463	-0,377
22,634	91,175	-0,395	-0,312
23,648	46,615	-0,408	-0,267
24,663	23,610	-0,389	-0,225
25,677	16,584	-0,316	-0,175
26,692	29,596	-0,224	-0,134
27,707	28,759	-0,387	-0,230
28,721	38,336	-0,403	-0,253
29,736	3,482	-0,369	-0,189
30,750	-30,967	-0,504	-0,200
31,765	85,466	-0,426	-0,329
32,780	-25,815	-0,475	-0,196
33,794	-12,879	-0,526	-0,240
34,809	549,057	-0,200	-0,340
35,823	63,603	-0,308	-0,217
36,838	-5,383	-0,411	-0,198
37,853	40,739	-0,455	-0,288
38,867	61,847	-0,373	-0,261
39,882	800,000	-0,144	-0,290
40,896	114,163	-0,203	-0,174
41,911	154,086	-0,288	-0,278
42,926	13,607	-0,348	-0,190
43,940	69,585	-0,406	-0,294
44,955	29,676	-0,410	-0,245
45,969	125,504	-0,331	-0,294
46,984	50,919	-0,334	-0,222
47,999	105,982	-0,291	-0,242
49,013	44,152	-0,264	-0,170
50,028	9,257	-0,288	-0,153
51,042	743,486	-0,203	-0,385
52,057	73,862	-0,419	-0,308
53,071	33,475	-0,326	-0,199
54,086	12,524	-0,265	-0,144
55,101	-66,674	-0,412	-0,114
56,115	145,555	-0,315	-0,296
57,130	106,653	-0,371	-0,310
58,144	-15,196	-0,507	-0,227
59,159	174,456	-0,285	-0,290
60,174	78,435	-0,446	-0,335
61,188	45,498	-0,417	-0,270
62,203	28,690	-0,316	-0,188
63,217	22,023	-0,276	-0,158
64,232	89,209	-0,246	-0,192
65,247	163,789	-0,288	-0,285
66,261	29,631	-0,383	-0,228
67,276	59,500	-0,299	-0,207
68,290	285,311	-0,287	-0,364
69,305	50,246	-0,358	-0,237
70,320	185,797	-0,296	-0,309
71,334	25,239	-0,209	-0,121
72,349	1,479	-0,311	-0,157
73,363	56,649	-0,336	-0,229
74,378	30,850	-0,450	-0,270
75,393	1,517	-0,288	-0,145
76,407	70,855	-0,299	-0,217
77,422	23,916	-0,259	-0,150
78,436	86,509	-0,224	-0,173
79,451	19,232	-0,400	-0,225
80,466	56,934	-0,317	-0,217
81,480	64,748	-0,214	-0,151
82,495	79,236	-0,221	-0,166
83,509	164,125	-0,294	-0,291
84,524	-99,612	-0,288	-0,050
85,539	200,824	-0,212	-0,229
86,553	137,607	-0,323	-0,297
87,568	-110,827	-0,497	-0,071
88,582	-79,290	-0,380	-0,090
89,597	19,786	-0,330	-0,186
90,611	256,420	-0,206	-0,248
91,626	50,352	-0,263	-0,174
92,641	24,707	-0,241	-0,140
93,655	33,582	-0,387	-0,235
94,670	-39,960	-0,256	-0,093
95,684	-111,394	-0,326	-0,046
96,699	135,787	-0,304	-0,277
97,714	51,891	-0,377	-0,251
98,728	153,346	-0,263	-0,252
99,743	-8,696	-0,263	-0,123
100,757	21,381	-0,204	-0,116
101,772	193,631	-0,316	-0,335
102,787	67,350	-0,282	-0,201
103,801	135,020	-0,285	-0,259
104,816	46,854	-0,176	-0,114
105,830	-150,455	-0,211	-0,011
106,845	-46,992	-0,235	-0,080
107,860	146,016	-0,211	-0,198
108,874	60,611	-0,183	-0,127
109,889	-22,362	-0,276	-0,117
110,903	-5,410	-0,250	-0,120
111,918	87,366	-0,180	-0,139
112,933	9,697	-0,304	-0,160
113,947	741,556	-0,050	-0,094
114,962	482,681	-0,159	-0,254
115,976	-56,455	-0,274	-0,084
116,991	-55,368	-0,265	-0,083
118,006	165,131	-0,265	-0,262
119,020	148,067	-0,274	-0,258
120,035	147,380	-0,190	-0,179
121,049	-25,067	-0,293	-0,121
122,064	191,372	-0,182	-0,192
123,079	93,018	-0,285	-0,225
124,093	800,000	-0,092	-0,268
125,108	149,724	-0,228	-0,216
126,122	-71,114	-0,239	-0,062
127,137	185,813	-0,191	-0,199
128,151	212,583	-0,255	-0,282
129,166	29,790	-0,240	-0,142
130,181	132,170	-0,181	-0,163
131,195	118,084	-0,284	-0,244
132,210	163,448	-0,228	-0,224
133,224	-23,774	-0,298	-0,124
134,239	82,670	-0,311	-0,236
135,254	800,000	-0,084	-0,223
136,268	23,806	-0,190	-0,109
137,283	137,456	-0,252	-0,230
138,297	-105,452	-0,348	-0,055
139,312	340,055	-0,268	-0,366
140,327	198,718	-0,207	-0,221
141,341	-200,000	-0,021	-0,164
142,356	507,467	-0,223	-0,363
143,370	-15,258	-0,220	-0,098
144,385	88,102	-0,217	-0,168
145,400	266,166	-0,254	-0,310
146,414	187,656	-0,166	-0,173
147,429	-30,363	-0,240	-0,094
148,443	101,974	-0,313	-0,255
149,458	-39,162	-0,244	-0,089
150,473	-45,155	-0,257	-0,089
151,487	98,498	-0,232	-0,187
152,502	241,339	-0,176	-0,205
153,516	35,184	-0,364	-0,222
154,531	429,055	-0,164	-0,248
155,546	-3,229	-0,290	-0,140
156,560	68,558	-0,276	-0,197
157,575	148,068	-0,239	-0,225
158,589	236,905	-0,136	-0,158
159,604	274,748	-0,209	-0,258
160,619	67,040	-0,312	-0,221
161,633	93,504	-0,221	-0,174
162,648	91,623	-0,258	-0,202
163,662	-74,375	-0,293	-0,073
164,677	108,444	-0,183	-0,152
165,692	442,180	-0,143	-0,218
166,706	125,144	-0,301	-0,264
167,721	170,652	-0,240	-0,239
168,735	-33,307	-0,303	-0,116
169,750	299,094	-0,141	-0,181
170,764	109,015	-0,171	-0,142
171,779	201,534	-0,147	-0,158
172,794	96,331	-0,257	-0,205
173,808	78,969	-0,237	-0,176
174,823	18,693	-0,356	-0,198
175,837	73,746	-0,125	-0,091
176,852	-50,781	-0,203	-0,066
177,867	-30,888	-0,247	-0,097
178,881	399,161	-0,177	-0,259
179,896	61,936	-0,175	-0,121
180,910	219,577	-0,150	-0,167
181,925	800,000	-0,043	-0,127
182,940	63,693	-0,276	-0,193
183,954	34,675	-0,274	-0,166
184,969	800,000	-0,072	-0,156
185,983	-40,874	-0,184	-0,066
186,998	32,340	-0,217	-0,130
188,013	137,820	-0,153	-0,140
189,027	-29,881	-0,259	-0,102
190,042	8,870	-0,298	-0,156
191,056	-80,862	-0,217	-0,050
192,071	25,088	-0,123	-0,071
193,086	130,393	-0,234	-0,208
194,100	35,228	-0,250	-0,152
195,115	313,436	-0,170	-0,223
196,129	252,163	-0,122	-0,145
197,144	1,424	-0,209	-0,104
198,159	-88,162	-0,253	-0,052
199,173	168,769	-0,053	0,052
200,188	257,650	-0,204	-0,244
201,202	800,000	-0,045	-0,109
202,217	-95,026	-0,191	-0,035
203,232	-54,274	-0,212	-0,066
204,246	412,238	-0,149	-0,220
205,261	800,000	-0,157	-0,315
206,275	-13,080	-0,194	-0,087
207,290	77,200	-0,102	0,075
208,304	-9,807	-0,200	-0,092
209,319	172,354	-0,176	-0,176
210,334	-45,006	-0,312	-0,107
211,348	44,487	-0,240	-0,153
212,363	104,589	-0,219	-0,179
213,377	294,297	-0,235	-0,298
214,392	-151,072	-0,272	-0,014
215,407	93,993	-0,188	-0,148
216,421	-115,952	-0,274	0,035
217,436	-51,309	-0,329	-0,106
218,450	180,728	-0,162	-0,165
219,465	-50,833	-0,100	-0,033
220,480	800,000	-0,063	-0,173
221,494	95,893	-0,138	-0,110
222,509	38,269	-0,160	-0,098
223,523	147,639	-0,162	-0,151
224,538	2,489	-0,280	-0,140
225,553	32,986	-0,227	-0,136
226,567	71,386	-0,181	-0,130
227,582	-44,543	-0,266	-0,092
228,596	68,967	-0,100	-0,071
229,611	-200,000	-0,040	-0,252
230,626	27,082	-0,211	-0,122
231,640	51,407	-0,174	-0,114
232,655	-44,142	-0,224	-0,077
233,669	-38,813	-0,270	-0,098
234,684	296,101	-0,102	-0,129
235,699	800,000	-0,073	-0,183
236,713	-92,061	-0,187	-0,036
237,728	10,763	-0,270	-0,142
238,742	160,822	-0,128	-0,124
239,757	59,571	-0,084	-0,057
240,772	503,629	-0,130	-0,208
241,786	120,478	-0,199	-0,171
242,801	153,914	-0,150	-0,142
243,815	-56,057	-0,224	0,069
244,830	194,329	-0,138	-0,145
245,844	151,521	-0,113	-0,106
246,859	-41,067	-0,350	-0,124
247,874	571,868	-0,140	-0,236
248,888	-47,784	-0,260	-0,087
249,903	297,891	-0,165	-0,210
250,917	-138,643	-0,206	0,015
251,932	45,145	-0,146	-0,093
252,947	173,754	-0,210	-0,209
253,961	297,026	-0,158	-0,201
254,976	87,759	-0,151	-0,115
255,990	91,101	-0,231	-0,179
257,005	509,618	-0,082	-0,133
258,020	-145,889	-0,142	-0,009
259,034	108,910	-0,155	-0,128
260,049	-0,148	-0,210	-0,103
261,063	5,275	-0,284	-0,144
262,078	74,135	-0,199	-0,144
263,093	96,849	-0,203	-0,160
264,107	111,992	-0,058	-0,049
265,122	191,712	-0,146	-0,152
266,136	253,862	-0,094	-0,111
267,151	-129,254	-0,260	-0,025
268,166	51,078	-0,118	-0,077
269,180	30,188	-0,254	-0,149
270,195	273,359	-0,122	-0,149
271,209	405,899	-0,174	-0,255
272,224	-200,000	-0,048	-0,164
273,239	-128,290	-0,187	-0,018
274,253	-40,879	-0,125	-0,044
275,268	-162,837	-0,144	0,005
276,282	-28,821	-0,189	-0,075
277,297	800,000	-0,098	-0,268
278,312	-4,236	-0,129	-0,061
279,326	34,534	-0,202	-0,121
280,341	3,463	-0,298	-0,149
281,355	570,775	-0,109	-0,183
282,370	-200,000	-0,051	-0,180
283,384	86,336	-0,225	-0,171
284,399	-23,538	-0,231	0,095
285,414	-90,367	-0,171	0,034
286,428	63,328	-0,146	-0,101
287,443	-95,033	-0,129	0,024
288,457	-127,453	-0,210	-0,021
289,472	-22,529	-0,168	-0,070
290,487	357,176	-0,127	-0,175
291,501	-200,000	-0,068	-0,384
292,516	754,360	-0,134	-0,250
293,530	385,203	-0,134	-0,191
294,545	-62,504	-0,089	-0,025
295,560	-101,303	-0,164	0,027
296,574	-69,651	-0,150	-0,039
297,589	-159,327	-0,209	-0,008
298,603	-1,272	-0,327	-0,159
299,618	-54,595	-0,179	-0,055
300,633	800,000	-0,138	-0,275
301,647	59,513	-0,136	-0,092
302,662	333,564	-0,097	-0,130
303,676	6,327	-0,139	0,071
304,691	800,000	0,039	-0,092
305,706	30,493	-0,183	-0,107
306,720	139,193	-0,083	-0,075
307,735	800,000	-0,037	-0,081
308,749	-200,000	-0,022	-0,078
309,764	112,273	-0,086	-0,071
310,779	-172,378	-0,161	0,003
311,793	-200,000	-0,058	-0,199
312,808	-11,380	-0,113	-0,051
313,822	54,643	-0,206	-0,137
314,837	-200,000	-0,001	-0,087
315,852	10,169	-0,139	0,073
316,866	-179,973	-0,114	-0,002
317,881	800,000	-0,075	-0,165
318,895	-88,384	-0,135	-0,028
319,910	218,934	-0,183	-0,202
320,925	-28,547	-0,181	-0,071
321,939	-64,129	-0,175	-0,049
322,954	800,000	-0,048	-0,140
323,968	47,417	-0,136	-0,087
324,983	-57,608	-0,251	-0,075
325,997	-200,000	-0,076	-0,244
327,012	632,912	-0,114	-0,199
328,027	159,959	-0,209	-0,200
329,041	406,586	-0,163	-0,237
330,056	357,603	-0,080	-0,109
331,070	43,080	-0,172	-0,107
332,085	-76,983	-0,101	0,024
333,100	2,006	-0,183	-0,090
334,114	151,840	-0,196	-0,183
335,129	-8,186	-0,236	-0,109
336,143	800,000	-0,078	-0,158
337,158	-95,590	-0,220	-0,040
338,173	245,149	-0,145	-0,168
339,187	23,284	-0,123	-0,069
340,202	-14,765	-0,203	-0,089
341,216	249,474	-0,100	-0,116
342,231	70,498	-0,159	-0,113
343,246	-146,597	-0,074	0,004
344,260	-25,865	-0,083	-0,033
345,275	-200,000	-0,009	-0,102
346,289	-76,692	-0,061	-0,014
347,304	-82,332	-0,197	-0,044
348,319	117,780	-0,147	-0,124
349,333	-189,908	-0,145	-0,001
350,348	-12,053	-0,115	-0,052
351,362	-200,000	-0,054	-0,173
352,377	219,742	-0,073	-0,081
353,392	149,017	-0,148	-0,137
354,406	-200,000	-0,017	-0,185
355,421	206,528	1312,573	1401,392
356,435	158,841	1473,018	1401,892
