DTS Sentinel unit serial number:	SN410029Multiplexer serial number:	ORYXHardware model number:	OX2-SRSoftware version number:	ORYX F/W v4,00 Oryx Data Collector v3.7.2.0data status	okinstallation	B3 Nyhavnadifferential loss correction	single-endedforward channel	channel 1reverse channel	N/Adate	2023/12/02time	03:57:30forward acquisition time	300,00reverse acquisition time	0,00gamma	499,1914k internal	0,3194k external	0,3194temperature offset calibration	1,0000default loss term (dB/km)	0,3820temperature slope calibration	1,0000multiplexer offset coefficient	1,0000multiplexer slope coefficient	1,0000fibre end	0,00T internal ref (°C)	16,60T ext. ref 1 (°C)	1,52T ext. ref 2 (°C)	1,51length (m)	temperature (°C)	Stokes	anti-Stokes-744,400	12,915	-0,294	-0,165
-743,385	-200,000	-0,086	0,281
-742,371	49,716	-0,138	-0,094
-741,356	-200,000	0,014	0,290
-740,342	466,696	-0,102	-0,167
-739,327	-200,000	0,090	0,308
-738,312	59,876	-0,204	-0,146
-737,298	-200,000	0,073	0,349
-736,283	76,022	-0,171	-0,131
-735,269	-200,000	0,009	0,224
-734,254	-45,643	-0,135	-0,048
-733,239	205,644	-0,187	0,212
-732,225	25,377	-0,170	-0,103
-731,210	184,630	0,084	0,091
-730,196	141,693	0,081	-0,079
-729,181	800,000	0,016	0,041
-728,167	54,219	-0,059	0,041
-727,152	68,718	0,061	-0,046
-726,137	-134,542	0,041	0,004
-725,123	100,754	-0,025	-0,022
-724,108	10,063	-0,053	-0,029
-723,094	17,489	-0,156	-0,090
-722,079	315,959	-0,039	-0,054
-721,064	-52,007	-0,108	-0,036
-720,050	-131,257	-0,099	0,009
-719,035	207,552	0,047	-0,053
-718,021	-200,000	-0,004	-0,087
-717,006	277,736	-0,158	-0,206
-715,991	800,000	-0,087	-0,202
-714,977	-200,000	0,022	0,071
-713,962	-200,000	-0,016	0,061
-712,948	-148,836	0,046	-0,003
-711,933	-22,885	0,048	0,021
-710,918	-65,583	-0,134	-0,039
-709,904	-200,000	-0,026	-0,152
-708,889	9,674	-0,083	-0,046
-707,875	-200,000	-0,012	0,087
-706,860	-178,086	0,108	-0,002
-705,845	283,394	-0,022	-0,029
-704,831	-105,337	-0,051	0,008
-703,816	162,891	0,105	-0,107
-702,802	75,868	-0,046	-0,035
-701,787	654,276	-0,021	-0,040
-700,772	103,669	-0,081	-0,069
-699,758	380,405	-0,050	0,075
-698,743	800,000	-0,039	0,108
-697,729	127,630	0,036	0,033
-696,714	518,504	-0,088	0,151
-695,699	-200,000	-0,005	0,016
-694,685	-184,214	-0,112	0,001
-693,670	-77,416	-0,100	0,025
-692,656	-37,920	-0,091	-0,035
-691,641	96,387	-0,017	-0,014
-690,627	-200,000	-0,014	0,100
-689,612	71,859	0,029	-0,022
-688,597	-200,000	-0,000	-0,007
-687,583	-54,681	-0,047	-0,015
-686,568	-36,871	-0,107	-0,042
-685,554	37,156	-0,110	-0,070
-684,539	75,865	0,058	0,044
-683,524	82,827	-0,031	-0,025
-682,510	55,735	-0,075	0,053
-681,495	174,156	-0,070	0,074
-680,481	800,000	0,007	0,020
-679,466	102,196	-0,046	0,039
-678,451	-200,000	-0,021	0,098
-677,437	800,000	0,024	-0,070
-676,422	-46,607	0,064	0,023
-675,408	239,666	-0,108	0,131
-674,393	-4,316	0,037	-0,019
-673,378	51,553	-0,204	-0,141
-672,364	800,000	-0,049	-0,103
-671,349	118,214	-0,127	-0,114
-670,335	-200,000	-0,030	-0,115
-669,320	160,151	0,121	0,123
-668,305	-200,000	0,003	0,092
-667,291	-200,000	0,009	0,066
-666,276	-200,000	-0,014	-0,113
-665,262	30,919	0,068	-0,042
-664,247	70,368	-0,097	-0,072
-663,232	800,000	-0,010	0,027
-662,218	276,476	-0,103	0,133
-661,203	-200,000	-0,043	0,142
-660,189	-121,413	0,131	-0,016
-659,174	-200,000	-0,045	-0,186
-658,159	235,105	-0,054	-0,065
-657,145	-61,803	-0,101	-0,031
-656,130	-200,000	-0,015	0,085
-655,116	-42,216	0,112	-0,041
-654,101	-141,230	0,068	0,005
-653,086	-200,000	-0,003	0,133
-652,072	54,904	-0,093	0,065
-651,057	237,289	-0,091	-0,109
-650,043	-200,000	-0,006	0,070
-649,028	-200,000	-0,002	0,050
-648,014	378,343	0,018	0,027
-646,999	226,398	0,088	-0,104
-645,984	11,279	-0,056	0,031
-644,970	-86,906	-0,116	-0,025
-643,955	-200,000	-0,006	-0,126
-642,941	199,014	0,040	-0,045
-641,926	-200,000	-0,003	0,156
-640,911	800,000	0,051	-0,160
-639,897	-200,000	0,024	-0,082
-638,882	116,601	0,029	-0,026
-637,868	229,567	-0,029	-0,034
-636,853	-200,000	-0,012	-0,042
-635,838	800,000	-0,028	-0,080
-634,824	-96,646	-0,218	-0,041
-633,809	276,040	0,044	-0,057
-632,795	800,000	0,093	0,190
-631,780	2,776	-0,097	-0,051
-630,765	800,000	0,027	0,060
-629,751	86,296	-0,055	-0,044
-628,736	47,858	-0,112	0,076
-627,722	185,333	-0,026	-0,028
-626,707	-89,929	-0,023	-0,005
-625,692	525,580	0,041	0,071
-624,678	-200,000	-0,013	0,052
-623,663	-200,000	-0,004	0,026
-622,649	-71,083	-0,135	-0,037
-621,634	157,849	-0,036	0,036
-620,619	800,000	0,035	-0,083
-619,605	443,942	-0,043	0,069
-618,590	-53,902	0,050	-0,016
-617,576	498,123	-0,046	-0,078
-616,561	-200,000	0,031	-0,178
-615,546	-116,514	-0,236	0,031
-614,532	588,982	0,072	-0,129
-613,517	-200,000	-0,005	-0,051
-612,503	800,000	-0,057	-0,163
-611,488	800,000	-0,020	-0,041
-610,474	-50,918	-0,090	-0,031
-609,459	555,033	0,040	-0,069
-608,444	800,000	-0,009	0,024
-607,430	-200,000	0,017	-0,071
-606,415	433,264	-0,112	-0,176
-605,401	-200,000	-0,006	0,051
-604,386	261,805	0,011	0,014
-603,371	29,786	0,188	0,116
-602,357	-198,301	-0,035	0,000
-601,342	158,486	0,051	0,052
-600,328	369,073	0,043	0,063
-599,313	-200,000	0,008	-0,069
-598,298	800,000	-0,018	0,040
-597,284	-125,782	-0,128	-0,014
-596,269	-200,000	0,013	-0,121
-595,255	800,000	0,063	0,127
-594,240	427,360	-0,069	-0,109
-593,225	-66,115	0,060	0,017
-592,211	112,150	0,044	0,038
-591,196	521,127	-0,060	0,102
-590,182	374,184	-0,039	0,058
-589,167	-95,474	-0,084	0,016
-588,152	-10,219	-0,111	0,053
-587,138	314,195	0,066	0,091
-586,123	-145,313	0,068	0,004
-585,109	-122,299	-0,093	0,011
-584,094	-200,000	0,003	0,033
-583,079	-169,853	-0,149	0,004
-582,065	729,975	-0,065	0,127
-581,050	121,365	0,100	-0,090
-580,036	-106,799	-0,111	0,018
-579,021	-200,000	0,012	0,039
-578,006	-200,000	0,023	-0,128
-576,992	-130,976	0,128	-0,012
-575,977	676,973	0,036	0,069
-574,963	32,527	0,036	0,023
-573,948	-42,850	-0,087	0,032
-572,934	354,100	-0,040	-0,058
-571,919	800,000	-0,045	-0,098
-570,904	-74,769	0,058	-0,015
-569,890	800,000	0,012	-0,024
-568,875	-200,000	0,013	-0,144
-567,861	377,825	0,068	-0,101
-566,846	-109,327	-0,063	0,010
-565,831	467,325	0,077	-0,125
-564,817	721,007	0,044	-0,086
-563,802	235,460	-0,081	-0,097
-562,788	93,541	0,135	-0,111
-561,773	79,734	0,123	-0,095
-560,758	-141,575	0,034	-0,002
-559,744	800,000	0,043	0,105
-558,729	800,000	-0,025	0,063
-557,715	488,370	0,026	-0,043
-556,700	-200,000	-0,017	-0,153
-555,685	-163,211	-0,050	-0,002
-554,671	-151,409	0,092	0,005
-553,656	-200,000	0,024	0,086
-552,642	-119,517	-0,069	-0,009
-551,627	-200,000	0,025	0,199
-550,612	-85,331	-0,126	0,028
-549,598	81,358	0,064	0,050
-548,583	5,151	0,126	-0,067
-547,569	181,478	0,075	-0,080
-546,554	183,564	0,057	0,061
-545,539	-49,595	-0,041	0,014
-544,525	-117,021	0,059	-0,008
-543,510	150,290	-0,081	0,079
-542,496	55,295	-0,144	-0,100
-541,481	186,833	-0,019	-0,021
-540,466	728,476	0,019	0,037
-539,452	-46,991	-0,051	0,018
-538,437	-96,720	0,219	0,041
-537,423	-200,000	0,009	0,083
-536,408	-81,203	-0,117	-0,028
-535,393	800,000	-0,012	-0,034
-534,379	173,234	-0,042	-0,043
-533,364	487,225	-0,061	0,101
-532,350	407,810	-0,017	0,027
-531,335	-200,000	-0,014	0,168
-530,321	-200,000	-0,018	0,072
-529,306	-200,000	-0,023	0,095
-528,291	-83,311	0,032	-0,007
-527,277	800,000	-0,038	-0,099
-526,262	-33,125	0,098	-0,039
-525,248	-200,000	-0,007	0,191
-524,233	800,000	0,053	0,113
-523,218	26,972	0,068	0,041
-522,204	92,001	-0,037	-0,030
-521,189	100,830	-0,046	-0,039
-520,175	-76,554	-0,123	0,031
-519,160	401,743	0,035	-0,054
-518,145	206,107	-0,056	-0,063
-517,131	374,677	-0,027	0,040
-516,116	612,091	-0,043	0,079
-515,102	-184,010	0,144	-0,002
-514,087	178,206	-0,122	-0,129
-513,072	-30,775	-0,137	-0,056
-512,058	-200,000	0,059	0,000
-511,043	233,479	0,073	0,087
-510,029	-77,497	0,027	0,007
-509,014	-180,937	0,104	-0,001
-507,999	-83,881	0,082	0,019
-506,985	800,000	-0,027	0,061
-505,970	-200,000	-0,015	0,155
-504,956	-97,644	-0,124	0,023
-503,941	5,910	0,019	-0,010
-502,926	-200,000	0,007	0,045
-501,912	-28,435	-0,068	-0,028
-500,897	-200,000	0,016	-0,059
-499,883	-6,181	0,054	0,027
-498,868	-200,000	0,005	-0,078
-497,853	452,192	0,046	0,074
-496,839	-42,719	0,078	0,029
-495,824	-21,820	-0,115	0,050
-494,810	156,677	0,061	0,061
-493,795	68,537	-0,033	0,025
-492,781	-200,000	-0,020	0,073
-491,766	781,569	-0,011	-0,021
-490,751	88,311	-0,081	-0,065
-489,737	-139,022	-0,129	0,010
-488,722	-130,088	0,128	0,012
-487,708	-149,649	0,039	0,002
-486,693	-200,000	0,024	0,077
-485,678	583,373	0,044	0,079
-484,664	-33,087	0,096	-0,038
-483,649	673,617	0,064	-0,120
-482,635	-8,989	-0,096	0,046
-481,620	-55,461	-0,039	-0,012
-480,605	231,371	-0,031	0,037
-479,591	161,553	0,031	-0,032
-478,576	-61,977	0,122	0,037
-477,562	-200,000	-0,000	0,014
-476,547	-200,000	-0,014	-0,045
-475,532	-200,000	0,015	0,090
-474,518	296,204	0,091	0,120
-473,503	-200,000	0,005	0,140
-472,489	-200,000	0,009	0,068
-471,474	-11,552	-0,253	-0,120
-470,459	365,490	0,036	-0,052
-469,445	-187,037	-0,121	-0,001
-468,430	294,217	0,006	0,008
-467,416	128,123	0,036	0,033
-466,401	-200,000	0,017	0,284
-465,386	-200,000	-0,017	0,107
-464,372	412,442	0,022	0,034
-463,357	-109,349	-0,046	-0,007
-462,343	-200,000	0,010	-0,182
-461,328	22,440	-0,037	-0,021
-460,313	-91,043	-0,004	-0,001
-459,299	-200,000	-0,019	-0,125
-458,284	764,419	0,102	0,200
-457,270	-113,877	-0,108	0,015
-456,255	-118,624	-0,064	0,008
-455,241	361,107	0,080	0,116
-454,226	-149,015	-0,116	0,007
-453,211	52,343	0,106	-0,073
-452,197	-104,844	0,050	0,008
-451,182	-37,588	0,110	-0,042
-450,168	116,972	-0,065	-0,057
-449,153	-95,602	-0,127	0,024
-448,138	202,730	0,106	-0,118
-447,124	-31,633	-0,075	0,030
-446,109	787,144	-0,043	-0,085
-445,095	-19,434	0,167	-0,074
-444,080	58,815	-0,040	-0,028
-443,065	-130,793	0,088	0,008
-442,051	232,597	0,029	-0,035
-441,036	396,128	0,088	-0,132
-440,022	-78,817	-0,100	0,024
-439,007	-200,000	0,004	-0,103
-437,992	-200,000	0,035	0,163
-436,978	55,488	0,053	-0,037
-435,963	3,474	0,061	0,032
-434,949	371,715	-0,008	-0,011
-433,934	124,454	-0,037	0,034
-432,919	-111,684	-0,086	-0,012
-431,905	448,194	-0,021	0,034
-430,890	231,012	0,047	-0,056
-429,876	460,995	0,051	0,082
-428,861	20,924	-0,045	0,026
-427,846	76,564	0,055	-0,042
-426,832	137,955	-0,071	0,067
-425,817	800,000	-0,058	-0,151
-424,803	-200,000	0,009	0,052
-423,788	471,017	0,039	0,063
-422,773	-108,450	0,091	-0,014
-421,759	14,001	-0,063	-0,035
-420,744	210,204	-0,034	-0,039
-419,730	-29,278	-0,132	-0,054
-418,715	-37,730	-0,100	0,038
-417,701	-171,227	0,067	-0,002
-416,686	-1,343	-0,064	-0,032
-415,671	136,826	0,052	-0,049
-414,657	-200,000	-0,023	-0,169
-413,642	73,910	-0,029	-0,022
-412,628	122,244	-0,115	0,104
-411,613	-200,000	0,004	0,123
-410,598	241,023	-0,051	0,061
-409,584	-155,530	0,084	0,004
-408,569	-11,325	-0,068	-0,032
-407,555	566,573	-0,026	0,045
-406,540	-200,000	0,027	0,175
-405,525	-34,192	0,056	0,022
-404,511	0,679	-0,087	0,045
-403,496	-27,453	-0,109	-0,045
-402,482	-200,000	0,002	-0,141
-401,467	-28,270	0,023	0,010
-400,452	32,114	0,061	0,037
-399,438	800,000	-0,013	0,032
-398,423	64,374	0,006	0,004
-397,409	2,076	-0,092	0,048
-396,394	-200,000	0,018	0,078
-395,379	93,871	-0,061	-0,049
-394,365	-30,429	-0,065	-0,026
-393,350	721,886	0,038	-0,073
-392,336	625,231	-0,092	-0,168
-391,321	-169,346	0,028	-0,001
-390,306	-200,000	-0,007	0,144
-389,292	800,000	0,013	-0,041
-388,277	-0,459	0,094	0,048
-387,263	286,608	-0,018	0,023
-386,248	800,000	-0,040	-0,107
-385,233	-99,287	-0,106	-0,019
-384,219	353,782	-0,019	0,027
-383,204	800,000	-0,080	-0,181
-382,190	-46,945	0,173	0,060
-381,175	-7,707	0,037	0,018
-380,160	38,000	0,062	0,039
-379,146	-65,097	0,019	-0,005
-378,131	-200,000	-0,009	0,029
-377,117	-179,072	-0,119	0,002
-376,102	228,012	-0,152	-0,178
-375,088	-200,000	-0,012	-0,127
-374,073	-200,000	0,064	0,000
-373,058	-19,355	0,024	0,011
-372,044	-127,626	0,058	0,006
-371,029	204,465	-0,046	-0,051
-370,015	252,420	0,064	-0,079
-369,000	-79,846	-0,040	0,010
-367,985	-119,904	0,123	0,015
-366,971	-200,000	0,062	0,201
-365,956	103,522	0,070	0,059
-364,942	800,000	0,024	-0,070
-363,927	-200,000	0,043	0,160
-362,912	-13,224	0,109	-0,051
-361,898	800,000	0,068	-0,144
-360,883	235,582	-0,146	-0,174
-359,869	-75,879	-0,192	0,048
-358,854	20,415	0,088	0,051
-357,839	-200,000	-0,002	0,129
-356,825	-200,000	0,011	0,057
-355,810	-132,535	-0,025	0,002
-354,796	-200,000	-0,011	-0,116
-353,781	800,000	0,019	0,046
-352,766	-106,624	0,052	-0,008
-351,752	240,479	0,075	0,091
-350,737	-200,000	-0,015	0,131
-349,723	164,156	0,118	0,120
-348,708	-200,000	-0,021	-0,072
-347,693	-117,514	0,018	0,002
-346,679	143,948	-0,122	-0,116
-345,664	-53,449	0,159	-0,052
-344,650	-200,000	-0,032	-0,135
-343,635	800,000	0,015	0,046
-342,620	351,702	-0,045	0,065
-341,606	3,353	0,192	0,100
-340,591	280,240	0,057	-0,074
-339,577	800,000	0,033	0,077
-338,562	146,179	0,094	-0,090
-337,548	128,607	0,077	-0,070
-336,533	-200,000	-0,001	-0,068
-335,518	-45,252	-0,113	0,040
-334,504	-200,000	0,011	0,215
-333,489	153,149	-0,091	0,089
-332,475	-7,378	0,048	-0,023
-331,460	800,000	0,056	0,135
-330,445	63,285	-0,076	-0,055
-329,431	-15,064	0,059	-0,027
-328,416	800,000	0,041	0,102
-327,402	800,000	0,079	0,237
-326,387	18,533	-0,095	-0,054
-325,372	386,989	0,023	-0,035
-324,358	-200,000	-0,009	-0,049
-323,343	69,834	0,083	0,062
-322,329	-200,000	0,007	0,089
-321,314	85,534	0,056	-0,044
-320,299	19,794	0,067	-0,038
-319,285	-200,000	0,037	-0,155
-318,270	110,392	-0,077	0,067
-317,256	99,184	-0,041	-0,034
-316,241	-200,000	0,007	0,096
-315,226	-26,294	0,033	0,014
-314,212	21,846	0,104	0,061
-313,197	-200,000	-0,018	0,085
-312,183	322,810	0,043	0,058
-311,168	428,961	-0,043	-0,067
-310,153	248,651	-0,111	-0,135
-309,139	-123,395	0,047	-0,005
-308,124	800,000	0,048	0,110
-307,110	77,318	-0,106	0,081
-306,095	-175,125	0,196	0,004
-305,080	-141,803	-0,092	0,006
-304,066	328,622	-0,050	-0,069
-303,051	800,000	-0,023	0,046
-302,037	800,000	-0,078	0,156
-301,022	464,101	0,123	-0,197
-300,008	800,000	0,034	0,082
-298,993	94,231	0,072	-0,059
-297,978	-15,907	0,048	0,022
-296,964	-44,589	-0,078	-0,028
-295,949	-0,053	0,058	0,030
-294,935	163,797	-0,153	-0,154
-293,920	69,289	-0,061	0,045
-292,905	423,196	-0,022	-0,035
-291,891	345,472	-0,067	0,094
-290,876	35,534	-0,139	0,087
-289,862	-65,848	-0,174	-0,050
-288,847	262,187	-0,015	0,019
-287,832	-23,398	0,047	0,020
-286,818	72,221	0,094	-0,070
-285,803	91,752	0,071	-0,057
-284,789	-187,280	0,082	0,001
-283,774	-1,399	0,133	-0,067
-282,759	414,766	0,047	-0,072
-281,745	-15,023	0,111	-0,051
-280,730	7,416	0,121	-0,064
-279,716	352,901	0,008	-0,011
-278,701	-139,162	0,088	0,007
-277,686	39,918	0,114	0,073
-276,672	238,563	-0,086	0,103
-275,657	-200,000	0,000	0,029
-274,643	-200,000	0,011	-0,079
-273,628	-85,859	0,164	0,036
-272,613	-75,911	0,104	0,026
-271,599	-200,000	-0,005	0,024
-270,584	292,281	0,094	0,122
-269,570	253,811	0,096	0,118
-268,555	-104,852	0,067	-0,011
-267,540	51,576	-0,064	-0,043
-266,526	190,481	-0,043	-0,047
-265,511	-61,315	-0,008	-0,002
-264,497	-54,918	-0,039	-0,012
-263,482	-42,054	0,053	0,019
-262,467	249,365	0,127	0,155
-261,453	202,074	0,064	0,070
-260,438	185,391	-0,119	0,127
-259,424	-106,168	-0,049	-0,008
-258,409	800,000	-0,020	-0,045
-257,395	54,510	0,133	-0,092
-256,380	61,272	0,131	-0,093
-255,365	-95,917	0,116	-0,022
-254,351	426,941	0,043	-0,067
-253,336	-200,000	-0,140	0,000
-252,322	-200,000	0,001	-0,078
-251,307	-130,925	-0,059	0,006
-250,292	-200,000	-0,002	-0,124
-249,278	134,899	0,088	-0,082
-248,263	8,321	-0,123	-0,066
-247,249	800,000	-0,082	0,168
-246,234	800,000	-0,020	0,055
-245,219	66,583	0,036	0,026
-244,205	365,704	0,123	-0,178
-243,190	108,067	0,013	-0,011
-242,176	-81,937	0,095	0,022
-241,161	245,739	0,096	0,116
-240,146	800,000	0,028	-0,079
-239,132	280,616	0,010	-0,012
-238,117	-50,523	-0,106	-0,036
-237,103	600,224	-0,040	0,071
-236,088	800,000	-0,061	-0,168
-235,073	-67,767	0,126	-0,035
-234,059	101,129	-0,105	-0,087
-233,044	-200,000	0,000	0,115
-232,030	520,879	0,019	0,031
-231,015	-163,561	0,123	-0,004
-230,000	125,750	-0,052	-0,047
-228,986	-67,384	-0,029	-0,008
-227,971	-200,000	0,012	0,095
-226,957	800,000	0,039	-0,100
-225,942	209,529	-0,037	0,042
-224,927	52,993	-0,034	-0,023
-223,913	46,120	-0,114	0,075
-222,898	367,150	0,033	0,048
-221,884	-19,604	0,029	0,013
-220,869	103,769	-0,082	0,069
-219,855	-120,599	0,122	-0,015
-218,840	-200,000	-0,002	-0,014
-217,825	-200,000	0,011	-0,036
-216,811	277,848	-0,050	-0,064
-215,796	800,000	-0,017	0,046
-214,782	-119,714	-0,145	0,018
-213,767	54,749	-0,139	0,096
-212,752	243,749	-0,084	-0,101
-211,738	-200,000	-0,011	0,106
-210,723	372,609	-0,052	-0,075
-209,709	-200,000	-0,017	-0,074
-208,694	-140,235	-0,094	0,007
-207,679	-93,086	-0,123	-0,024
-206,665	800,000	0,011	0,025
-205,650	168,728	0,006	-0,006
-204,636	-106,579	0,073	-0,011
-203,621	-120,469	0,130	0,016
-202,606	89,475	-0,079	-0,062
-201,592	406,866	0,029	0,044
-200,577	-200,000	-0,008	0,065
-199,563	-200,000	-0,008	0,034
-198,548	222,727	0,040	0,046
-197,533	-26,775	-0,045	-0,019
-196,519	-200,000	0,039	-0,230
-195,504	800,000	-0,008	0,018
-194,490	-200,000	0,015	-0,082
-193,475	545,084	-0,010	-0,016
-192,460	-200,000	0,042	-0,142
-191,446	580,625	-0,083	-0,145
-190,431	752,826	0,018	0,035
-189,417	-200,000	-0,015	0,091
-188,402	390,698	-0,029	-0,042
-187,387	390,490	-0,034	-0,050
-186,373	295,936	-0,055	-0,072
-185,358	-200,000	-0,001	-0,067
-184,344	255,317	0,054	0,066
-183,329	-107,327	0,159	0,025
-182,315	-200,000	-0,014	0,076
-181,300	-200,000	0,005	0,101
-180,285	-18,771	-0,052	-0,023
-179,271	-38,516	0,065	-0,024
-178,256	566,285	-0,047	-0,081
-177,242	800,000	0,005	0,010
-176,227	221,625	0,044	0,050
-175,212	-200,000	0,001	0,049
-174,198	-200,000	-0,021	-0,087
-173,183	41,690	-0,190	0,123
-172,169	35,717	-0,115	-0,072
-171,154	800,000	0,010	-0,026
-170,139	-76,207	0,075	0,019
-169,125	-65,137	0,066	-0,019
-168,110	-4,355	-0,032	-0,016
-167,096	-60,268	-0,047	-0,014
-166,081	800,000	0,006	-0,016
-165,066	207,056	-0,093	-0,103
-164,052	-200,000	0,025	-0,119
-163,037	-133,354	0,100	-0,009
-162,023	-200,000	0,012	0,122
-161,008	-200,000	-0,033	0,125
-159,993	-200,000	-0,020	0,089
-158,979	800,000	0,030	-0,093
-157,964	-200,000	-0,027	-0,112
-156,950	-162,617	-0,079	0,003
-155,935	-74,012	-0,066	0,017
-154,920	62,616	-0,014	0,010
-153,906	800,000	0,064	0,128
-152,891	-200,000	0,003	0,084
-151,877	-21,532	-0,085	0,037
-150,862	-200,000	-0,006	0,056
-149,847	115,881	-0,031	0,027
-148,833	-100,902	0,030	-0,005
-147,818	443,320	0,088	0,138
-146,804	-28,668	-0,046	0,019
-145,789	-96,785	0,108	0,020
-144,775	-122,952	-0,171	-0,019
-143,760	35,749	-0,038	0,024
-142,745	-97,899	-0,036	-0,007
-141,731	-22,078	-0,092	-0,039
-140,716	46,190	-0,013	0,008
-139,702	-32,070	0,159	0,063
-138,687	99,935	-0,051	-0,042
-137,672	-41,675	-0,137	0,050
-136,658	-200,000	-0,025	-0,187
-135,643	-15,321	-0,015	-0,007
-134,629	-36,005	0,052	0,020
-133,614	25,527	0,111	0,065
-132,599	-39,705	0,132	0,049
-131,585	89,316	-0,061	0,048
-130,570	30,607	-0,040	-0,024
-129,556	800,000	-0,062	-0,136
-128,541	-200,000	0,017	-0,055
-127,526	-200,000	0,028	-0,096
-126,512	18,899	0,114	0,065
-125,497	-164,018	-0,048	0,002
-124,483	-200,000	0,042	0,139
-123,468	-106,090	-0,124	0,020
-122,453	-200,000	0,019	-0,061
-121,439	-200,000	0,022	-0,114
-120,424	373,860	-0,053	-0,077
-119,410	532,560	0,090	0,152
-118,395	800,000	0,045	0,098
-117,380	-84,228	0,080	-0,018
-116,366	450,291	-0,075	-0,118
-115,351	388,287	0,021	0,030
-114,337	413,848	0,028	0,043
-113,322	540,341	0,011	-0,019
-112,307	-130,213	0,103	0,010
-111,293	-164,025	0,144	0,005
-110,278	-34,512	0,085	-0,033
-109,264	-20,852	0,023	-0,010
-108,249	27,809	-0,156	-0,093
-107,234	-113,306	-0,078	0,011
-106,220	43,973	0,111	-0,072
-105,205	-200,000	0,019	0,142
-104,191	62,197	0,120	0,085
-103,176	-200,000	0,026	0,117
-102,162	800,000	0,029	0,072
-101,147	142,423	-0,100	-0,095
-100,132	-48,706	0,010	-0,003
-99,118	-189,934	-0,134	-0,001
-98,103	-200,000	-0,007	-0,022
-97,089	-18,743	0,015	0,007
-96,074	-200,000	-0,021	-0,094
-95,059	-95,624	0,034	0,006
-94,045	81,646	0,044	-0,034
-93,030	-77,152	0,043	-0,011
-92,016	-102,536	-0,138	-0,023
-91,001	-55,644	-0,051	0,016
-89,986	-70,238	-0,100	0,027
-88,972	278,963	-0,088	0,112
-87,957	800,000	0,045	-0,100
-86,943	76,274	0,010	0,008
-85,928	-200,000	-0,005	0,028
-84,913	200,302	-0,043	0,047
-83,899	800,000	-0,037	0,082
-82,884	40,234	-0,058	-0,037
-81,870	-200,000	-0,024	0,178
-80,855	247,772	-0,049	0,059
-79,840	145,209	0,099	0,094
-78,826	-143,463	0,053	-0,004
-77,811	800,000	0,059	0,134
-76,797	-105,787	-0,058	-0,009
-75,782	3,139	0,109	-0,056
-74,767	-127,255	0,020	0,002
-73,753	39,450	-0,111	-0,070
-72,738	125,412	0,100	0,090
-71,724	-200,000	0,003	-0,034
-70,709	67,852	0,065	-0,047
-69,694	279,560	-0,083	-0,105
-68,680	21,835	0,132	-0,076
-67,665	88,859	0,072	-0,057
-66,651	800,000	0,074	0,217
-65,636	800,000	0,063	0,134
-64,622	-23,849	-0,155	0,066
-63,607	308,585	-0,041	0,054
-62,592	-154,936	-0,074	0,003
-61,578	-200,000	-0,011	-0,089
-60,563	-200,000	-0,011	0,060
-59,549	-129,956	-0,143	-0,014
-58,534	-95,016	-1,338	-0,254
-57,519	433,041	-1,437	-2,220
-56,505	-200,000	-0,450	-4,404
-55,490	63,658	0,857	0,610
-54,476	800,000	4,758	11,348
-53,461	-200,000	17,306	268,937
-52,446	800,000	714,969	2181,816
-51,432	552,536	1629,619	2788,900
-50,417	81,436	1654,940	1268,440
-49,403	24,407	1529,542	895,058
-48,388	18,434	1452,935	821,474
-47,373	18,502	1442,552	815,899
-46,359	18,269	1433,327	809,537
-45,344	16,721	1428,580	799,480
-44,330	16,674	1426,636	798,137
-43,315	16,690	1425,193	797,372
-42,300	16,683	1423,262	796,227
-41,286	16,732	1422,354	795,921
-40,271	16,705	1420,735	794,854
-39,257	16,646	1419,780	794,010
-38,242	16,756	1418,183	793,605
-37,227	16,753	1417,087	792,948
-36,213	16,716	1415,946	792,101
-35,198	16,658	1414,744	791,127
-34,184	16,752	1413,652	790,923
-33,169	16,637	1412,541	789,732
-32,154	16,724	1411,399	789,473
-31,140	16,696	1410,278	788,680
-30,125	16,725	1409,027	788,086
-29,111	16,723	1407,863	787,397
-28,096	16,715	1406,710	786,683
-27,082	16,647	1405,662	785,746
-26,067	16,625	1404,376	784,895
-25,052	16,631	1403,307	784,294
-24,038	16,645	1402,475	783,861
-23,023	16,618	1401,461	783,140
-22,009	16,581	1400,443	782,367
-20,994	16,552	1399,549	781,702
-19,979	16,552	1398,592	781,135
-18,965	16,586	1397,667	780,748
-17,950	16,593	1396,596	780,150
-16,936	16,557	1395,689	779,443
-15,921	16,532	1394,571	778,675
-14,906	16,564	1393,555	778,223
-13,892	16,549	1392,856	777,735
-12,877	16,542	1391,901	777,134
-11,863	16,530	1390,972	776,531
-10,848	16,525	1390,089	775,987
-9,833	16,491	1389,076	775,232
-8,819	16,478	1388,218	774,661
-7,804	16,383	1387,419	773,747
-6,790	16,416	1386,188	773,181
-5,775	16,446	1385,209	772,745
-4,760	16,373	1384,610	772,042
-3,746	16,388	1383,490	771,458
-2,731	16,361	1382,941	770,997
-1,717	16,375	1381,890	770,445
-0,702	16,385	1380,033	769,424
0,313	20,248	1301,700	743,535
1,327	36,649	707,600	442,240
2,342	56,430	125,693	86,526
3,356	5,966	16,527	8,651
4,371	3,638	3,185	1,642
5,386	-19,120	0,374	0,164
6,400	151,091	0,098	0,095
7,415	-47,039	-0,343	-0,118
8,429	126,365	-0,255	-0,229
9,444	82,066	-0,273	-0,210
10,459	121,190	-0,280	-0,247
11,473	124,106	-0,261	-0,233
12,488	-56,754	-0,306	-0,095
13,502	80,348	-0,299	-0,228
14,517	59,599	-0,324	-0,226
15,531	20,636	-0,432	-0,247
16,546	23,461	-0,277	-0,161
17,561	61,018	-0,390	-0,274
18,575	18,435	-0,254	-0,143
19,590	34,919	-0,295	-0,182
20,604	-183,231	-0,220	-0,003
21,619	204,027	-0,319	-0,351
22,634	58,058	-0,412	-0,285
23,648	11,964	-0,425	-0,230
24,663	72,863	-0,316	-0,233
25,677	151,672	-0,315	-0,304
26,692	57,606	-0,497	-0,343
27,707	149,434	-0,339	-0,325
28,721	104,511	-0,367	-0,306
29,736	-26,394	-0,489	-0,202
30,750	48,956	-0,404	-0,268
31,765	81,261	-0,386	-0,294
32,780	61,017	-0,356	-0,250
33,794	69,280	-0,409	-0,297
34,809	39,346	-0,331	-0,209
35,823	40,224	-0,387	-0,245
36,838	-2,720	-0,338	-0,167
37,853	454,571	-0,242	-0,380
38,867	116,434	-0,409	-0,354
39,882	39,535	-0,377	-0,239
40,896	150,941	-0,305	-0,293
41,911	41,388	-0,383	-0,244
42,926	-31,872	-0,366	-0,144
43,940	51,404	-0,444	-0,297
44,955	203,082	-0,303	-0,331
45,969	-52,959	-0,492	-0,159
46,984	164,267	-0,285	-0,284
47,999	31,562	-0,235	-0,143
49,013	209,677	-0,260	-0,288
50,028	52,358	-0,376	-0,253
51,042	58,797	-0,333	-0,231
52,057	118,146	-0,300	-0,261
53,071	62,675	-0,361	-0,255
54,086	2,511	-0,349	-0,178
55,101	135,940	-0,287	-0,264
56,115	5,443	-0,282	-0,146
57,130	207,290	-0,248	-0,273
58,144	-22,203	-0,461	-0,196
59,159	123,615	-0,323	-0,286
60,174	89,914	-0,306	-0,241
61,188	39,213	-0,432	-0,272
62,203	35,564	-0,396	-0,245
63,217	243,714	-0,195	-0,232
64,232	58,045	-0,324	-0,223
65,247	116,930	-0,399	-0,345
66,261	4,950	-0,338	-0,175
67,276	56,871	-0,361	-0,248
68,290	155,252	-0,291	-0,282
69,305	49,646	-0,367	-0,243
70,320	-20,943	-0,227	-0,097
71,334	-63,888	-0,379	-0,108
72,349	50,603	-0,363	-0,242
73,363	61,724	-0,341	-0,239
74,378	261,955	-0,227	-0,277
75,393	11,314	-0,320	-0,172
76,407	5,400	-0,257	-0,133
77,422	-42,736	-0,235	-0,084
78,436	-12,123	-0,319	-0,147
79,451	-20,844	-0,320	-0,138
80,466	-25,358	-0,312	-0,129
81,480	118,087	-0,246	-0,214
82,495	196,199	-0,179	-0,192
83,509	271,775	-0,181	-0,225
84,524	369,834	-0,143	-0,205
85,539	-49,067	-0,206	-0,069
86,553	123,550	-0,211	-0,186
87,568	156,380	-0,275	-0,268
88,582	104,753	-0,348	-0,289
89,597	159,248	-0,296	-0,290
90,611	149,504	-0,207	-0,197
91,626	-130,539	-0,405	-0,038
92,641	111,451	-0,151	-0,128
93,655	-76,344	-0,394	-0,097
94,670	61,780	-0,290	-0,203
95,684	112,882	-0,266	-0,227
96,699	-147,188	-0,269	-0,016
97,714	-22,022	-0,343	-0,146
98,728	-180,336	-0,265	0,004
99,743	-35,573	-0,363	-0,138
100,757	305,017	-0,116	-0,152
101,772	120,195	-0,274	-0,239
102,787	78,753	-0,280	-0,210
103,801	800,000	-0,150	-0,302
104,816	-90,614	-0,314	-0,063
105,830	-14,701	-0,147	-0,066
106,845	-127,491	-0,248	-0,025
107,860	-104,027	-0,150	-0,024
108,874	-44,064	-0,375	-0,132
109,889	39,442	-0,359	-0,225
110,903	107,044	-0,179	-0,149
111,918	-87,462	-0,150	-0,032
112,933	98,682	-0,253	-0,205
113,947	153,421	-0,188	-0,181
114,962	32,254	-0,265	-0,160
115,976	90,520	-0,153	-0,120
116,991	133,174	-0,279	-0,253
118,006	289,468	-0,296	-0,378
119,020	62,552	-0,275	-0,193
120,035	259,125	-0,197	-0,239
121,049	131,296	-0,267	-0,241
122,064	-53,481	-0,296	-0,095
123,079	-63,994	-0,079	-0,023
124,093	27,985	-0,384	-0,227
125,108	-56,122	-0,296	-0,092
126,122	-87,488	-0,326	-0,069
127,137	126,224	-0,214	-0,190
128,151	-17,302	-0,382	-0,168
129,166	93,414	-0,234	-0,186
130,181	61,859	-0,344	-0,240
131,195	44,936	-0,352	-0,227
132,210	350,556	-0,217	-0,302
133,224	20,054	-0,421	-0,237
134,239	180,253	-0,150	-0,154
135,254	-68,590	-0,253	-0,068
136,268	206,443	-0,291	-0,318
137,283	-1,819	-0,389	-0,191
138,297	38,899	-0,154	-0,097
139,312	155,243	-0,211	-0,204
140,327	458,820	-0,176	-0,275
141,341	-17,550	-0,196	-0,086
142,356	39,305	-0,268	-0,167
143,370	173,458	-0,137	-0,139
144,385	-0,643	-0,256	-0,127
145,400	-51,730	-0,293	-0,095
146,414	188,695	-0,265	-0,278
147,429	-41,419	-0,341	-0,122
148,443	-6,283	-0,330	-0,157
149,458	49,703	-0,256	-0,169
150,473	14,792	-0,142	-0,077
151,487	-72,853	-0,292	-0,075
152,502	40,178	-0,247	-0,155
153,516	-112,624	-0,334	-0,046
154,531	233,419	-0,308	-0,355
155,546	72,352	-0,278	-0,202
156,560	81,054	-0,224	-0,169
157,575	-12,381	-0,241	-0,110
158,589	112,098	-0,256	-0,216
159,604	800,000	-0,085	-0,203
160,619	4,072	-0,289	-0,148
161,633	-9,545	-0,303	-0,141
162,648	188,201	-0,117	-0,122
163,662	-77,672	-0,258	-0,062
164,677	96,913	-0,221	-0,177
165,692	9,629	-0,255	-0,135
166,706	176,690	-0,223	-0,227
167,721	205,396	-0,171	-0,185
168,735	390,795	-0,181	-0,263
169,750	141,379	-0,249	-0,230
170,764	136,636	-0,111	-0,101
171,779	-5,005	-0,337	-0,162
172,794	352,074	-0,154	-0,214
173,808	676,415	-0,162	-0,296
174,823	393,376	-0,215	-0,314
175,837	132,421	-0,234	-0,211
176,852	-31,519	-0,165	-0,064
177,867	800,000	-0,066	-0,166
178,881	622,890	-0,206	-0,364
179,896	122,046	-0,269	-0,235
180,910	190,173	-0,199	-0,209
181,925	24,495	-0,344	-0,198
182,940	-48,441	-0,246	-0,082
183,954	91,532	-0,284	-0,223
184,969	-200,000	-0,057	-0,184
185,983	153,302	-0,233	-0,222
186,998	274,425	-0,135	-0,167
188,013	52,515	-0,201	-0,134
189,027	-28,947	-0,244	-0,097
190,042	44,249	-0,250	-0,160
191,056	149,986	-0,256	-0,242
192,071	259,497	-0,162	-0,196
193,086	6,029	-0,200	-0,103
194,100	-54,920	-0,227	-0,071
195,115	273,691	-0,206	-0,255
196,129	-39,665	-0,363	-0,132
197,144	253,921	-0,202	-0,241
198,159	-16,637	-0,263	-0,116
199,173	62,706	-0,223	-0,155
200,188	145,216	-0,262	-0,244
201,202	-39,520	-0,094	-0,034
202,217	-56,193	-0,252	-0,078
203,232	-13,078	-0,362	-0,163
204,246	-65,117	-0,209	-0,058
205,261	-42,344	-0,331	-0,117
206,275	-24,605	-0,261	-0,108
207,290	279,909	-0,194	-0,242
208,304	-121,673	-0,218	0,025
209,319	-27,585	-0,205	-0,082
210,334	42,545	-0,185	-0,117
211,348	125,795	-0,244	-0,215
212,363	35,517	-0,148	-0,090
213,377	61,853	-0,196	-0,136
214,392	125,253	-0,146	-0,128
215,407	182,917	-0,208	-0,214
216,421	-43,673	-0,170	-0,059
217,436	-8,233	-0,241	-0,112
218,450	63,563	-0,187	-0,130
219,465	-59,447	-0,206	-0,061
220,480	-3,538	-0,104	-0,050
221,494	-111,494	-0,265	0,037
222,509	71,738	-0,140	-0,101
223,523	53,331	-0,263	-0,175
224,538	191,697	-0,192	-0,201
225,553	-41,678	-0,142	-0,051
226,567	13,685	-0,261	-0,141
227,582	460,424	-0,123	-0,191
228,596	523,587	-0,099	-0,163
229,611	-166,643	-0,223	0,006
230,626	126,244	-0,113	-0,099
231,640	-200,000	-0,015	-0,153
232,655	108,410	-0,153	-0,127
233,669	149,480	-0,161	-0,151
234,684	-89,934	-0,112	-0,022
235,699	67,906	-0,160	-0,114
236,713	100,632	-0,176	-0,142
237,728	800,000	-0,062	-0,175
238,742	-30,310	-0,204	-0,080
239,757	235,109	-0,182	-0,209
240,772	241,484	-0,136	-0,158
241,786	92,200	-0,261	-0,204
242,801	392,898	-0,171	-0,247
243,815	800,000	-0,065	-0,145
244,830	601,557	-0,067	-0,116
245,844	261,402	-0,142	-0,171
246,859	59,216	-0,245	-0,167
247,874	42,231	-0,265	-0,167
248,888	95,478	-0,159	-0,126
249,903	508,425	-0,117	-0,188
250,917	76,184	-0,267	-0,196
251,932	-157,555	-0,183	0,007
252,947	16,863	-0,227	-0,124
253,961	800,000	-0,077	-0,164
254,976	-53,857	-0,184	-0,058
255,990	-49,231	-0,261	-0,086
257,005	434,424	-0,066	-0,099
258,020	-23,926	-0,114	0,047
259,034	-8,621	-0,264	-0,122
260,049	45,226	-0,176	-0,113
261,063	247,333	-0,183	-0,215
262,078	-40,905	-0,145	-0,052
263,093	15,563	-0,205	-0,111
264,107	33,145	-0,202	-0,121
265,122	-92,177	-0,028	0,005
266,136	9,903	-0,135	-0,071
267,151	366,377	-0,025	-0,035
268,166	442,154	-0,082	-0,125
269,180	22,579	-0,250	-0,142
270,195	9,404	-0,259	-0,135
271,209	16,973	-0,215	-0,118
272,224	201,797	-0,067	-0,072
273,239	-47,229	-0,221	-0,074
274,253	237,273	-0,119	-0,136
275,268	-53,064	-0,168	0,053
276,282	-49,671	-0,206	-0,068
277,297	127,033	-0,142	-0,125
278,312	648,107	-0,151	-0,268
279,326	-0,985	-0,093	-0,045
280,341	99,634	-0,249	-0,200
281,355	410,209	-0,128	-0,189
282,370	176,809	-0,174	-0,175
283,384	800,000	-0,090	-0,215
284,399	442,902	-0,129	-0,196
285,414	800,000	-0,079	-0,182
286,428	115,082	-0,139	-0,117
287,443	152,421	-0,080	-0,076
288,457	90,391	-0,128	-0,099
289,472	132,242	-0,149	-0,132
290,487	-80,248	-0,180	-0,041
291,501	-112,615	-0,152	0,021
292,516	131,349	-0,266	-0,236
293,530	-161,137	-0,198	-0,007
294,545	151,056	-0,114	-0,108
295,560	163,557	-0,179	-0,175
296,574	775,668	-0,077	-0,146
297,589	494,739	-0,097	-0,154
298,603	181,958	-0,257	-0,262
299,618	11,857	-0,175	-0,092
300,633	420,433	-0,121	-0,180
301,647	51,252	-0,114	-0,075
302,662	251,978	-0,140	-0,165
303,676	-164,322	-0,267	-0,008
304,691	184,308	-0,142	-0,145
305,706	800,000	-0,153	-0,330
306,720	-20,003	-0,212	-0,090
307,735	99,131	-0,154	-0,123
308,749	179,775	-0,115	-0,116
309,764	-200,000	0,009	-0,058
310,779	142,262	-0,084	-0,077
311,793	283,205	-0,207	-0,257
312,808	-82,052	-0,186	0,042
313,822	120,394	-0,170	-0,145
314,837	557,243	-0,104	-0,173
315,852	153,355	-0,109	-0,103
316,866	287,120	-0,151	-0,188
317,881	800,000	-0,098	-0,237
318,895	77,288	-0,152	-0,111
319,910	800,000	-0,089	-0,232
320,925	125,232	-0,151	-0,131
321,939	-71,477	-0,098	-0,025
322,954	317,657	0,058	-0,076
323,968	11,035	-0,115	-0,060
324,983	-80,670	-0,181	-0,041
325,997	-20,595	-0,207	-0,087
327,012	-200,000	-0,020	-0,091
328,027	139,850	-0,213	-0,193
329,041	219,525	-0,079	-0,087
330,056	-83,495	-0,098	-0,021
331,070	59,732	-0,059	-0,040
332,085	-56,638	-0,132	-0,040
333,100	-108,609	-0,152	0,022
334,114	-130,174	-0,144	0,013
335,129	-116,411	-0,105	-0,013
336,143	495,522	-0,114	-0,182
337,158	-12,280	-0,217	-0,097
338,173	13,058	-0,096	-0,051
339,187	6,506	-0,040	-0,020
340,202	65,157	-0,028	-0,020
341,216	561,990	-0,135	-0,226
342,231	-154,020	-0,071	0,003
343,246	59,976	-0,085	-0,058
344,260	-200,000	-0,032	-0,136
345,275	-200,000	-0,002	0,103
346,289	298,390	-0,093	-0,118
347,304	-96,541	-0,252	-0,045
348,319	-45,598	-0,097	-0,033
349,333	102,797	-0,235	-0,189
350,348	265,002	-0,101	-0,121
351,362	40,884	-0,170	-0,105
352,377	163,380	-0,042	-0,041
353,392	-77,393	-0,142	-0,034
354,406	596,417	-0,106	-0,181
355,421	209,001	1314,376	1416,500
356,435	160,838	1475,103	1417,032
