DTS Sentinel unit serial number:	SN410029Multiplexer serial number:	ORYXHardware model number:	OX2-SRSoftware version number:	ORYX F/W v4,00 Oryx Data Collector v3.7.2.0data status	okinstallation	B3 Nyhavnadifferential loss correction	single-endedforward channel	channel 1reverse channel	N/Adate	2023/12/03time	22:17:30forward acquisition time	300,00reverse acquisition time	0,00gamma	499,1914k internal	0,3200k external	0,3200temperature offset calibration	1,0000default loss term (dB/km)	0,3820temperature slope calibration	1,0000multiplexer offset coefficient	1,0000multiplexer slope coefficient	1,0000fibre end	0,00T internal ref (°C)	13,28T ext. ref 1 (°C)	-2,06T ext. ref 2 (°C)	-2,09length (m)	temperature (°C)	Stokes	anti-Stokes-744,400	638,900	-0,190	-0,353
-743,385	-200,000	0,018	0,316
-742,371	600,130	-0,155	-0,281
-741,356	-200,000	0,016	0,398
-740,342	286,495	-0,149	-0,196
-739,327	800,000	0,105	0,250
-738,312	181,658	-0,165	-0,176
-737,298	-200,000	-0,056	0,276
-736,283	105,422	-0,229	-0,197
-735,269	800,000	0,179	0,480
-734,254	63,326	-0,205	-0,149
-733,239	97,051	-0,241	0,201
-732,225	666,248	-0,138	-0,261
-731,210	537,547	0,090	0,156
-730,196	-200,000	0,023	0,075
-729,181	-16,480	-0,015	-0,007
-728,167	443,504	0,044	-0,071
-727,152	-38,867	-0,017	-0,007
-726,137	-200,000	-0,014	-0,094
-725,123	57,012	-0,041	0,029
-724,108	-200,000	-0,003	-0,045
-723,094	-47,734	-0,174	-0,061
-722,079	-153,065	-0,060	0,003
-721,064	22,503	-0,025	0,015
-720,050	101,458	0,092	0,078
-719,035	144,653	-0,085	0,082
-718,021	-80,554	0,069	-0,017
-717,006	38,648	-0,038	0,025
-715,991	82,224	-0,107	-0,084
-714,977	-104,508	-0,164	-0,027
-713,962	800,000	0,042	-0,102
-712,948	-200,000	-0,030	0,107
-711,933	322,770	-0,065	-0,091
-710,918	800,000	-0,054	-0,138
-709,904	-200,000	-0,066	-0,215
-708,889	342,298	-0,061	-0,087
-707,875	800,000	0,069	-0,171
-706,860	-75,904	-0,049	0,012
-705,845	135,979	0,031	-0,030
-704,831	46,163	-0,124	0,083
-703,816	632,286	0,024	0,045
-702,802	-200,000	0,010	0,068
-701,787	800,000	0,025	-0,075
-700,772	800,000	-0,009	-0,022
-699,758	-39,669	0,091	-0,034
-698,743	-195,504	-0,147	-0,001
-697,729	-43,323	0,032	-0,012
-696,714	-27,359	-0,074	0,031
-695,699	800,000	-0,043	-0,114
-694,685	-200,000	0,003	-0,037
-693,670	143,240	0,079	-0,076
-692,656	-71,520	-0,050	-0,013
-691,641	62,874	-0,074	-0,054
-690,627	0,827	0,072	-0,037
-689,612	114,290	-0,037	-0,033
-688,597	-200,000	-0,015	-0,055
-687,583	-200,000	0,047	-0,153
-686,568	-200,000	-0,018	-0,269
-685,554	601,177	0,015	0,026
-684,539	551,539	0,071	-0,124
-683,524	-200,000	0,028	0,097
-682,510	84,106	-0,072	-0,057
-681,495	800,000	-0,032	-0,076
-680,481	-200,000	0,004	-0,160
-679,466	-38,394	-0,117	0,045
-678,451	151,771	-0,085	-0,084
-677,437	373,493	0,090	0,133
-676,422	796,123	0,017	0,033
-675,408	141,616	-0,095	-0,091
-674,393	-200,000	-0,041	-0,163
-673,378	-200,000	-0,020	-0,071
-672,364	109,268	-0,020	0,017
-671,349	-200,000	0,003	-0,170
-670,335	800,000	0,027	0,080
-669,320	800,000	0,027	-0,076
-668,305	75,825	0,090	0,069
-667,291	-200,000	-0,015	0,105
-666,276	-64,759	0,020	0,006
-665,262	39,627	0,050	0,032
-664,247	63,144	-0,095	-0,069
-663,232	-34,890	-0,068	0,027
-662,218	211,315	0,068	0,078
-661,203	-200,000	0,020	-0,090
-660,189	370,186	-0,059	0,087
-659,174	800,000	-0,066	0,132
-658,159	210,655	-0,093	-0,107
-657,145	302,973	-0,105	-0,141
-656,130	7,401	-0,028	0,015
-655,116	800,000	0,061	-0,124
-654,101	321,176	0,114	0,157
-653,086	-42,565	-0,134	0,049
-652,072	-200,000	-0,012	0,158
-651,057	-92,872	-0,112	0,022
-650,043	-200,000	-0,027	-0,100
-649,028	-200,000	-0,004	-0,095
-648,014	-65,539	0,121	0,035
-646,999	-33,273	-0,036	-0,015
-645,984	-73,107	0,070	0,018
-644,970	-200,000	-0,011	0,046
-643,955	-200,000	0,010	-0,050
-642,941	121,695	-0,059	-0,054
-641,926	-200,000	-0,009	0,140
-640,911	83,241	0,065	-0,051
-639,897	194,663	0,075	-0,083
-638,882	19,253	0,053	-0,031
-637,868	-106,061	-0,088	0,014
-636,853	92,677	-0,109	0,089
-635,838	800,000	0,055	-0,150
-634,824	800,000	-0,050	-0,106
-633,809	226,250	0,098	0,116
-632,795	-61,413	0,146	0,044
-631,780	-22,648	0,125	-0,055
-630,765	102,247	-0,071	0,060
-629,751	-200,000	0,024	-0,143
-628,736	63,016	-0,085	0,061
-627,722	28,424	-0,126	0,077
-626,707	-57,405	0,146	-0,046
-625,692	-131,368	-0,051	0,005
-624,678	-200,000	-0,029	0,153
-623,663	800,000	0,057	-0,118
-622,649	-144,194	0,060	0,004
-621,634	-21,991	0,099	0,044
-620,619	-200,000	0,001	-0,009
-619,605	255,999	-0,081	-0,101
-618,590	-12,103	0,148	0,070
-617,576	-200,000	0,008	0,083
-616,561	407,728	0,052	-0,079
-615,546	-25,740	-0,052	-0,022
-614,532	-200,000	0,013	-0,149
-613,517	715,677	0,019	-0,037
-612,503	158,220	0,108	-0,109
-611,488	800,000	0,041	0,107
-610,474	-200,000	-0,018	0,078
-609,459	-200,000	-0,020	-0,121
-608,444	-50,173	-0,084	-0,029
-607,430	800,000	0,047	-0,104
-606,415	800,000	0,035	-0,073
-605,401	-18,371	0,090	0,041
-604,386	18,310	0,089	0,051
-603,371	44,989	-0,064	0,042
-602,357	-200,000	-0,007	0,022
-601,342	-56,447	-0,122	0,039
-600,328	800,000	-0,048	-0,148
-599,313	-200,000	-0,009	-0,105
-598,298	42,088	0,075	0,049
-597,284	-42,058	-0,022	0,008
-596,269	-74,599	0,058	0,015
-595,255	-144,314	0,055	0,004
-594,240	-51,592	0,083	0,028
-593,225	-131,970	-0,111	0,010
-592,211	430,638	-0,032	-0,051
-591,196	-200,000	0,018	-0,063
-590,182	195,338	-0,090	-0,099
-589,167	-2,963	0,055	-0,028
-588,152	553,575	-0,046	0,079
-587,138	11,281	0,102	-0,056
-586,123	-200,000	-0,026	-0,206
-585,109	-31,500	-0,078	0,031
-584,094	-200,000	0,011	-0,034
-583,079	800,000	0,009	0,020
-582,065	-26,385	0,084	-0,035
-581,050	1,094	0,118	0,061
-580,036	91,221	-0,143	0,116
-579,021	-59,675	-0,113	-0,035
-578,006	32,168	-0,046	0,029
-576,992	620,172	-0,021	0,038
-575,977	-200,000	-0,027	-0,181
-574,963	90,154	0,131	-0,106
-573,948	-81,807	-0,097	-0,023
-572,934	-75,935	-0,053	0,013
-571,919	-72,274	-0,085	-0,023
-570,904	800,000	-0,044	-0,089
-569,890	-49,481	-0,161	0,055
-568,875	-200,000	0,000	0,089
-567,861	-200,000	0,001	0,027
-566,846	-96,400	0,058	-0,011
-565,831	-69,631	-0,058	-0,016
-564,817	-104,532	-0,118	0,020
-563,802	-148,886	-0,185	0,011
-562,788	327,582	-0,061	-0,085
-561,773	-145,412	-0,106	-0,007
-560,758	487,475	0,116	0,192
-559,744	-200,000	-0,004	-0,090
-558,729	-110,014	-0,010	0,002
-557,715	-57,092	-0,209	0,066
-556,700	381,561	0,032	-0,047
-555,685	130,826	-0,038	-0,035
-554,671	699,891	0,058	-0,110
-553,656	29,365	0,017	0,011
-552,642	-27,378	-0,106	-0,044
-551,627	194,240	0,097	0,106
-550,612	-100,322	-0,034	0,006
-549,598	-200,000	0,001	0,004
-548,583	800,000	-0,039	-0,114
-547,569	-70,734	-0,123	0,033
-546,554	-170,670	0,097	0,002
-545,539	66,820	0,051	-0,038
-544,525	-200,000	-0,024	0,093
-543,510	167,129	-0,114	-0,117
-542,496	34,843	0,053	0,033
-541,481	-180,347	-0,089	0,001
-540,466	-62,924	-0,060	0,018
-539,452	-200,000	0,025	0,158
-538,437	89,019	0,032	0,026
-537,423	-200,000	0,007	0,188
-536,408	800,000	-0,051	0,110
-535,393	36,255	-0,091	-0,058
-534,379	157,505	-0,069	0,069
-533,364	28,306	-0,072	0,044
-532,350	493,517	0,048	0,079
-531,335	461,782	-0,077	0,124
-530,321	127,529	-0,033	0,030
-529,306	800,000	0,080	0,165
-528,291	138,959	-0,046	-0,044
-527,277	-200,000	-0,006	-0,091
-526,262	800,000	-0,025	-0,076
-525,248	171,783	-0,067	-0,070
-524,233	61,264	0,098	0,070
-523,218	800,000	0,074	0,214
-522,204	95,284	0,075	-0,062
-521,189	-200,000	-0,001	0,039
-520,175	524,695	0,044	-0,074
-519,160	26,326	-0,124	-0,074
-518,145	-200,000	0,006	-0,020
-517,131	361,471	-0,025	-0,037
-516,116	-33,553	0,071	0,028
-515,102	60,726	-0,057	0,041
-514,087	327,701	0,060	-0,084
-513,072	-129,158	-0,181	0,018
-512,058	36,174	-0,059	0,037
-511,043	-135,607	0,090	0,008
-510,029	10,414	0,102	-0,056
-509,014	-20,576	-0,063	-0,028
-507,999	-97,931	-0,079	0,015
-506,985	470,790	-0,033	-0,053
-505,970	800,000	0,050	-0,107
-504,956	727,900	-0,050	0,097
-503,941	593,348	-0,059	0,106
-502,926	800,000	-0,037	0,075
-501,912	793,851	0,057	0,113
-500,897	800,000	-0,043	0,099
-499,883	-200,000	0,007	-0,055
-498,868	10,090	-0,073	-0,040
-497,853	-200,000	-0,021	0,066
-496,839	-200,000	0,001	-0,059
-495,824	-200,000	-0,019	0,115
-494,810	-200,000	0,003	0,033
-493,795	493,741	0,062	0,103
-492,781	-200,000	0,005	-0,201
-491,766	30,247	0,047	-0,029
-490,751	333,023	-0,009	-0,013
-489,737	-200,000	0,014	-0,078
-488,722	-118,200	0,020	0,002
-487,708	-200,000	-0,009	0,115
-486,693	-200,000	0,010	0,079
-485,678	-200,000	-0,009	0,112
-484,664	-97,059	-0,116	-0,022
-483,649	800,000	-0,037	-0,089
-482,635	748,252	0,036	-0,071
-481,620	127,688	0,139	0,127
-480,605	-11,413	0,067	-0,032
-479,591	-114,724	0,170	-0,023
-478,576	335,160	0,066	0,092
-477,562	12,096	-0,153	-0,084
-476,547	-12,663	-0,110	-0,052
-475,532	-146,006	0,085	-0,005
-474,518	800,000	0,049	-0,132
-473,503	48,488	0,127	0,086
-472,489	-200,000	-0,002	0,013
-471,474	188,747	-0,049	-0,053
-470,459	-200,000	0,000	-0,032
-469,445	-93,157	0,021	-0,004
-468,430	-124,021	0,083	-0,009
-467,416	-61,962	0,097	-0,029
-466,401	-200,000	0,015	0,071
-465,386	-200,000	0,007	-0,023
-464,372	200,958	0,027	0,030
-463,357	-109,443	-0,131	-0,020
-462,343	260,804	-0,043	0,053
-461,328	-95,992	-0,069	-0,013
-460,313	6,775	-0,106	0,056
-459,299	-131,160	0,121	0,011
-458,284	-200,000	0,047	0,209
-457,270	-200,000	-0,002	-0,035
-456,255	45,470	-0,105	-0,070
-455,241	-11,223	-0,062	-0,029
-454,226	-93,539	0,053	-0,010
-453,211	-107,030	0,047	0,007
-452,197	-75,006	0,063	-0,016
-451,182	108,452	-0,077	0,066
-450,168	-50,703	-0,125	0,042
-449,153	-200,000	0,022	0,090
-448,138	165,830	-0,024	-0,025
-447,124	550,070	0,060	-0,104
-446,109	270,222	-0,008	-0,010
-445,095	97,033	0,064	0,053
-444,080	128,417	0,171	0,156
-443,065	660,749	0,036	-0,067
-442,051	-200,000	0,019	0,076
-441,036	-200,000	0,012	-0,107
-440,022	-75,616	0,062	-0,016
-439,007	-53,891	-0,063	0,021
-437,992	-116,476	0,082	0,011
-436,978	-108,985	0,092	-0,014
-435,963	800,000	-0,020	-0,061
-434,949	-116,882	-0,054	0,007
-433,934	69,352	-0,052	-0,039
-432,919	800,000	-0,044	-0,091
-431,905	171,196	-0,141	0,145
-430,890	-200,000	-0,020	0,119
-429,876	-75,020	-0,059	-0,015
-428,861	-66,765	-0,143	-0,040
-427,846	-200,000	0,006	-0,116
-426,832	500,316	0,024	-0,039
-425,817	20,190	0,036	0,021
-424,803	800,000	-0,026	0,057
-423,788	-200,000	-0,012	0,051
-422,773	-35,585	-0,110	0,043
-421,759	800,000	0,049	0,107
-420,744	-200,000	0,008	0,033
-419,730	-32,242	0,032	0,013
-418,715	219,715	0,051	-0,059
-417,701	384,848	0,102	-0,152
-416,686	-200,000	-0,025	0,183
-415,671	-200,000	-0,017	0,078
-414,657	133,731	-0,068	0,063
-413,642	-200,000	-0,001	-0,110
-412,628	93,160	-0,091	-0,074
-411,613	-200,000	0,018	-0,061
-410,598	516,407	0,027	0,046
-409,584	-200,000	0,002	0,153
-408,569	132,729	-0,086	0,080
-407,555	-35,559	0,157	0,061
-406,540	508,872	-0,025	-0,041
-405,525	294,244	0,017	-0,022
-404,511	-200,000	0,001	0,050
-403,496	-200,000	0,021	0,116
-402,482	-200,000	-0,006	0,083
-401,467	-39,158	0,150	0,056
-400,452	202,232	-0,103	0,114
-399,438	-200,000	-0,019	0,129
-398,423	-163,841	-0,082	0,003
-397,409	-200,000	0,010	-0,163
-396,394	-200,000	0,003	0,032
-395,379	-18,503	0,185	-0,083
-394,365	-77,975	-0,123	0,030
-393,350	45,523	0,153	-0,101
-392,336	-200,000	0,000	0,013
-391,321	-89,687	-0,116	-0,024
-390,306	-200,000	-0,010	-0,080
-389,292	-133,828	-0,066	0,006
-388,277	-3,237	0,022	-0,011
-387,263	43,568	0,071	-0,046
-386,248	-88,845	0,073	-0,015
-385,233	160,529	0,050	0,050
-384,219	99,698	-0,162	-0,135
-383,204	-200,000	0,008	-0,127
-382,190	-153,896	0,081	-0,004
-381,175	-137,079	0,166	-0,013
-380,160	-200,000	-0,030	-0,119
-379,146	56,678	0,170	0,119
-378,131	-47,136	0,061	-0,021
-377,117	-173,508	0,153	-0,003
-376,102	-95,619	-0,060	-0,011
-375,088	-109,534	0,060	-0,009
-374,073	-152,929	-0,156	-0,008
-373,058	-69,419	0,087	0,024
-372,044	451,905	0,028	0,045
-371,029	-164,090	-0,083	0,003
-370,015	-99,774	-0,162	-0,029
-369,000	-200,000	-0,002	0,060
-367,985	358,279	0,025	-0,035
-366,971	-200,000	0,045	-0,177
-365,956	-67,910	0,105	-0,029
-364,942	-149,844	0,166	0,009
-363,927	47,367	0,126	0,084
-362,912	800,000	0,059	-0,145
-361,898	-200,000	0,003	-0,042
-360,883	-200,000	0,005	-0,046
-359,869	-200,000	0,029	-0,110
-358,854	800,000	0,024	-0,063
-357,839	250,504	-0,114	-0,138
-356,825	28,448	0,076	0,046
-355,810	252,195	-0,073	-0,090
-354,796	-58,176	0,037	-0,011
-353,781	125,453	-0,041	-0,037
-352,766	262,738	0,056	0,070
-351,752	327,010	0,033	0,045
-350,737	800,000	0,074	-0,162
-349,723	126,753	0,110	0,100
-348,708	-107,861	0,052	0,008
-347,693	211,956	-0,051	0,058
-346,679	-200,000	-0,015	0,148
-345,664	-56,909	-0,082	0,026
-344,650	-12,293	0,079	0,037
-343,635	-57,910	0,073	0,023
-342,620	-200,000	0,009	0,058
-341,606	-86,577	-0,110	0,024
-340,591	-166,418	0,128	-0,004
-339,577	-200,000	0,055	-0,184
-338,562	415,101	0,052	0,079
-337,548	-200,000	-0,055	-0,175
-336,533	-113,456	0,024	0,003
-335,518	75,061	-0,040	-0,030
-334,504	-200,000	0,006	0,147
-333,489	-47,124	-0,116	-0,040
-332,475	44,003	-0,009	-0,006
-331,460	-200,000	0,024	-0,090
-330,445	657,337	0,027	0,051
-329,431	586,150	0,015	0,027
-328,416	174,829	0,166	0,172
-327,402	48,244	0,115	0,077
-326,387	-123,121	-0,169	0,019
-325,372	-80,776	0,093	-0,022
-324,358	-200,000	-0,002	-0,083
-323,343	-123,961	0,051	-0,006
-322,329	-200,000	0,009	0,178
-321,314	423,465	0,094	0,146
-320,299	800,000	-0,017	-0,044
-319,285	800,000	0,028	0,064
-318,270	153,535	-0,092	0,090
-317,256	80,129	-0,124	0,096
-316,241	-200,000	0,012	-0,080
-315,226	58,037	0,046	0,032
-314,212	-200,000	-0,010	-0,049
-313,197	11,982	0,117	-0,064
-312,183	-116,290	0,111	0,015
-311,168	-200,000	0,005	0,024
-310,153	-106,276	0,070	0,011
-309,139	-114,981	-0,133	-0,018
-308,124	550,744	-0,024	0,041
-307,110	-91,434	0,066	-0,013
-306,095	95,875	0,032	0,026
-305,080	178,918	-0,057	0,060
-304,066	186,237	-0,115	0,123
-303,051	-61,525	-0,118	-0,035
-302,037	-200,000	0,008	-0,084
-301,022	-87,624	-0,028	0,006
-300,008	800,000	0,043	0,085
-298,993	-34,772	0,102	0,040
-297,978	583,792	-0,074	-0,131
-296,964	99,400	-0,038	0,032
-295,949	118,396	-0,059	0,052
-294,935	76,708	-0,090	-0,068
-293,920	-102,932	-0,071	-0,012
-292,905	-200,000	-0,035	-0,156
-291,891	218,061	-0,102	0,117
-290,876	-200,000	0,002	-0,015
-289,862	-200,000	0,007	-0,081
-288,847	674,426	0,046	0,085
-287,832	800,000	-0,080	-0,170
-286,818	-200,000	0,022	0,087
-285,803	-200,000	0,023	-0,096
-284,789	410,522	0,026	-0,040
-283,774	-121,556	-0,060	0,007
-282,759	86,514	-0,110	-0,087
-281,745	346,901	-0,053	-0,075
-280,730	81,426	-0,030	0,023
-279,716	-5,218	-0,165	-0,081
-278,701	-200,000	-0,018	0,112
-277,686	-82,852	0,098	0,022
-276,672	-200,000	0,051	0,170
-275,657	-172,178	-0,101	0,002
-274,643	572,319	-0,038	0,066
-273,628	60,147	0,064	-0,045
-272,613	-12,889	0,110	0,051
-271,599	-200,000	-0,014	-0,109
-270,584	517,394	0,043	-0,071
-269,570	46,431	0,114	0,075
-268,555	800,000	0,051	-0,134
-267,540	-200,000	-0,004	-0,084
-266,526	246,045	-0,109	-0,132
-265,511	-200,000	-0,054	-0,174
-264,497	71,928	0,031	-0,023
-263,482	94,502	-0,077	0,062
-262,467	620,106	0,036	0,065
-261,453	100,810	0,104	0,086
-260,438	-169,313	-0,114	-0,003
-259,424	-109,499	-0,170	0,025
-258,409	134,856	-0,118	0,109
-257,395	-118,494	0,078	0,010
-256,380	-200,000	0,021	0,162
-255,365	70,232	-0,069	0,051
-254,351	263,512	0,034	-0,043
-253,336	56,295	0,064	0,044
-252,322	-200,000	-0,006	-0,200
-251,307	-149,352	-0,058	-0,003
-250,292	63,716	0,043	-0,031
-249,278	-100,984	0,069	-0,012
-248,263	331,687	0,012	0,017
-247,249	-200,000	-0,014	0,050
-246,234	-200,000	0,045	0,141
-245,219	51,573	0,045	-0,030
-244,205	-19,912	-0,026	-0,011
-243,190	123,744	-0,092	0,082
-242,176	-63,361	0,080	0,023
-241,161	-200,000	-0,014	0,115
-240,146	121,701	0,038	-0,034
-239,132	-30,993	0,134	0,054
-238,117	791,399	-0,045	0,089
-237,103	-200,000	0,006	-0,041
-236,088	17,308	-0,089	-0,050
-235,073	-200,000	0,027	0,096
-234,059	-36,430	0,058	0,022
-233,044	-5,707	0,048	-0,023
-232,030	-110,504	-0,096	-0,014
-231,015	240,214	-0,041	-0,049
-230,000	-200,000	0,016	-0,060
-228,986	176,950	0,089	-0,092
-227,971	-70,069	0,085	0,023
-226,957	-37,574	0,039	-0,015
-225,942	16,547	-0,159	0,089
-224,927	168,250	-0,112	0,114
-223,913	388,713	0,042	-0,063
-222,898	-75,779	0,066	-0,017
-221,884	-41,655	-0,039	0,014
-220,869	61,940	0,081	0,058
-219,855	-147,528	0,243	-0,014
-218,840	-200,000	-0,023	-0,093
-217,825	-73,234	-0,213	0,055
-216,811	-200,000	-0,023	-0,109
-215,796	-200,000	-0,001	-0,009
-214,782	210,254	-0,133	-0,149
-213,767	800,000	-0,052	-0,119
-212,752	506,249	0,038	0,063
-211,738	-10,095	0,083	-0,039
-210,723	800,000	-0,045	0,097
-209,709	38,305	-0,111	0,070
-208,694	195,899	-0,039	-0,043
-207,679	800,000	-0,049	0,101
-206,665	-200,000	-0,005	0,176
-205,650	-57,966	0,072	-0,022
-204,636	0,466	0,129	-0,065
-203,621	-200,000	0,024	-0,156
-202,606	327,901	-0,046	0,063
-201,592	105,089	-0,152	-0,128
-200,577	-200,000	-0,006	-0,092
-199,563	800,000	0,037	0,111
-198,548	800,000	-0,068	-0,143
-197,533	-200,000	-0,010	-0,036
-196,519	-155,991	0,153	-0,007
-195,504	-153,002	-0,140	0,007
-194,490	268,847	0,105	-0,131
-193,475	69,242	-0,041	-0,030
-192,460	-71,279	0,063	0,017
-191,446	-200,000	-0,034	0,122
-190,431	-82,823	-0,021	0,005
-189,417	90,439	0,029	-0,023
-188,402	800,000	-0,058	0,132
-187,387	147,065	-0,039	-0,037
-186,373	800,000	-0,063	-0,171
-185,358	269,803	0,019	-0,024
-184,344	-200,000	0,025	0,142
-183,329	-200,000	0,011	0,071
-182,315	5,081	0,101	0,053
-181,300	5,115	0,068	-0,035
-180,285	28,031	-0,141	-0,084
-179,271	800,000	-0,041	-0,103
-178,256	-71,320	-0,103	-0,027
-177,242	126,387	-0,050	-0,045
-176,227	102,357	-0,050	-0,041
-175,212	-33,351	0,098	-0,038
-174,198	800,000	0,007	0,020
-173,183	147,167	-0,095	0,091
-172,169	257,815	-0,107	-0,132
-171,154	-49,477	0,117	-0,040
-170,139	-159,576	-0,075	-0,003
-169,125	-90,710	0,094	-0,019
-168,110	-200,000	-0,007	-0,028
-167,096	-68,000	-0,092	0,025
-166,081	33,611	0,017	-0,011
-165,066	-166,379	-0,115	-0,003
-164,052	180,710	0,028	0,029
-163,037	-78,055	0,177	-0,043
-162,023	574,325	-0,078	0,136
-161,008	800,000	0,069	0,172
-159,993	-200,000	-0,019	-0,119
-158,979	-200,000	0,017	0,069
-157,964	-200,000	-0,016	0,102
-156,950	-83,303	0,121	-0,027
-155,935	255,244	0,120	-0,147
-154,920	-200,000	-0,004	0,215
-153,906	800,000	0,026	-0,069
-152,891	-68,621	0,184	-0,050
-151,877	800,000	-0,063	-0,172
-150,862	20,184	-0,134	0,077
-149,847	-7,647	0,037	-0,018
-148,833	73,484	-0,096	-0,071
-147,818	491,525	0,070	0,114
-146,804	-25,502	-0,073	0,031
-145,789	189,554	-0,073	-0,078
-144,775	-38,480	-0,038	-0,014
-143,760	288,191	-0,039	0,050
-142,745	-200,000	-0,002	-0,014
-141,731	9,832	0,098	0,052
-140,716	-200,000	0,020	0,172
-139,702	102,997	0,066	0,055
-138,687	90,725	0,097	0,077
-137,672	98,495	-0,031	0,025
-136,658	800,000	-0,034	-0,068
-135,643	800,000	0,061	0,129
-134,629	-138,232	0,187	-0,014
-133,614	267,739	0,049	0,062
-132,599	-111,970	-0,168	0,024
-131,585	287,505	0,081	-0,104
-130,570	-127,549	-0,076	0,008
-129,556	-200,000	-0,018	0,100
-128,541	800,000	-0,045	0,134
-127,526	18,718	0,069	0,039
-126,512	396,818	-0,054	0,081
-125,497	-200,000	0,021	0,132
-124,483	-144,564	-0,064	-0,004
-123,468	-200,000	0,005	-0,092
-122,453	800,000	0,019	-0,052
-121,439	-54,805	-0,038	0,012
-120,424	-200,000	-0,028	0,093
-119,410	590,059	0,066	0,116
-118,395	800,000	-0,022	0,068
-117,380	-12,532	-0,019	0,009
-116,366	150,165	-0,129	0,124
-115,351	-67,565	-0,038	0,010
-114,337	-200,000	-0,008	-0,064
-113,322	2,202	0,021	-0,011
-112,307	-22,888	-0,140	0,060
-111,293	-100,921	0,136	0,023
-110,278	-115,339	-0,038	0,005
-109,264	-200,000	0,011	0,066
-108,249	-145,278	-0,157	-0,010
-107,234	172,041	-0,064	0,065
-106,220	223,777	-0,083	-0,095
-105,205	316,929	0,047	-0,063
-104,191	800,000	-0,015	0,038
-103,176	-74,537	0,103	-0,026
-102,162	-200,000	-0,021	0,133
-101,147	99,002	-0,012	-0,010
-100,132	-31,146	-0,081	-0,032
-99,118	-8,945	0,175	0,083
-98,103	355,250	-0,053	-0,074
-97,089	169,755	0,117	0,119
-96,074	42,004	0,137	0,088
-95,059	-200,000	-0,003	-0,093
-94,045	-200,000	0,006	0,073
-93,030	800,000	-0,036	-0,103
-92,016	192,739	-0,083	-0,089
-91,001	800,000	0,013	-0,032
-89,986	800,000	0,038	0,080
-88,972	59,842	0,146	0,102
-87,957	-16,931	-0,011	0,005
-86,943	-36,851	-0,074	0,028
-85,928	141,537	0,010	0,010
-84,913	16,803	0,043	0,024
-83,899	800,000	-0,042	-0,097
-82,884	-200,000	0,011	-0,043
-81,870	-200,000	0,015	-0,076
-80,855	125,695	-0,040	0,036
-79,840	800,000	0,013	0,029
-78,826	-200,000	0,010	0,057
-77,811	-154,229	0,046	0,002
-76,797	-69,423	-0,102	0,028
-75,782	52,825	0,156	0,105
-74,767	-5,372	0,024	-0,011
-73,753	-200,000	-0,005	-0,048
-72,738	-200,000	0,009	0,069
-71,724	-200,000	-0,033	-0,159
-70,709	67,617	-0,107	-0,077
-69,694	276,352	-0,047	0,060
-68,680	-17,043	-0,070	-0,031
-67,665	-182,666	0,258	-0,003
-66,651	-200,000	0,006	0,036
-65,636	78,238	0,067	-0,050
-64,622	511,693	-0,058	0,095
-63,607	-79,719	-0,072	-0,017
-62,592	-64,562	-0,107	-0,031
-61,578	-100,709	0,094	0,016
-60,563	-200,000	-0,010	0,108
-59,549	800,000	0,031	-0,063
-58,534	-18,178	-1,569	-0,693
-57,519	350,905	-1,390	-1,953
-56,505	-200,000	-0,538	-4,517
-55,490	175,472	1,071	1,100
-54,476	800,000	4,761	11,335
-53,461	-200,000	19,355	321,134
-52,446	-200,000	741,880	2334,926
-51,432	571,787	1656,414	2868,218
-50,417	78,162	1671,943	1262,194
-49,403	21,222	1544,965	886,013
-48,388	15,174	1467,144	811,949
-47,373	18,014	1457,504	820,319
-46,359	16,665	1447,402	808,124
-45,344	13,441	1442,745	790,034
-44,330	13,326	1440,665	788,315
-43,315	13,332	1439,071	787,439
-42,300	13,346	1437,232	786,468
-41,286	13,380	1436,044	785,947
-40,271	13,308	1434,843	784,918
-39,257	13,307	1433,407	784,097
-38,242	13,345	1432,173	783,572
-37,227	13,394	1430,806	783,027
-36,213	13,360	1429,644	782,197
-35,198	13,378	1428,436	781,590
-34,184	13,393	1427,601	781,176
-33,169	13,385	1426,272	780,377
-32,154	13,379	1425,161	779,709
-31,140	13,384	1423,830	778,974
-30,125	13,410	1422,740	778,468
-29,111	13,412	1421,602	777,824
-28,096	13,381	1420,567	777,083
-27,082	13,282	1419,754	776,139
-26,067	13,294	1418,263	775,349
-25,052	13,315	1417,286	774,883
-24,038	13,302	1416,224	774,211
-23,023	13,301	1415,157	773,591
-22,009	13,294	1414,289	773,053
-20,994	13,207	1413,679	772,280
-19,979	13,267	1412,291	771,772
-18,965	13,259	1411,518	771,282
-17,950	13,238	1410,663	770,687
-16,936	13,262	1409,598	770,186
-15,921	13,238	1408,298	769,333
-14,906	13,236	1407,771	769,006
-13,892	13,275	1406,438	768,429
-12,877	13,197	1405,908	767,747
-11,863	13,199	1405,045	767,251
-10,848	13,200	1404,170	766,750
-9,833	13,170	1403,290	766,101
-8,819	13,137	1402,357	765,404
-7,804	13,150	1401,337	764,880
-6,790	13,121	1400,385	764,195
-5,775	13,130	1399,421	763,680
-4,760	13,164	1398,335	763,215
-3,746	13,119	1397,621	762,587
-2,731	13,114	1396,648	762,002
-1,717	13,091	1395,772	761,385
-0,702	13,055	1393,915	760,176
0,313	17,052	1310,374	733,097
1,327	33,518	703,588	431,676
2,342	51,703	123,267	82,836
3,356	-0,890	16,721	8,350
4,371	-13,411	3,334	1,524
5,386	-75,757	0,615	0,153
6,400	-200,000	0,036	0,332
7,415	209,980	-0,199	-0,221
8,429	161,686	-0,300	-0,298
9,444	66,400	-0,329	-0,236
10,459	-27,788	-0,331	-0,135
11,473	16,011	-0,338	-0,188
12,488	589,315	-0,158	-0,277
13,502	-16,511	-0,381	-0,170
14,517	-82,506	-0,265	-0,060
15,531	83,885	-0,330	-0,254
16,546	74,079	-0,378	-0,280
17,561	114,173	-0,372	-0,320
18,575	-110,298	-0,200	0,029
19,590	238,187	-0,251	-0,295
20,604	-155,495	-0,330	-0,015
21,619	56,656	-0,359	-0,246
22,634	200,364	-0,456	-0,496
23,648	36,910	-0,400	-0,249
24,663	49,138	-0,341	-0,226
25,677	167,063	-0,263	-0,264
26,692	11,127	-0,420	-0,226
27,707	386,291	-0,241	-0,352
28,721	77,448	-0,438	-0,328
29,736	126,243	-0,340	-0,303
30,750	201,826	-0,290	-0,316
31,765	37,886	-0,413	-0,259
32,780	10,653	-0,541	-0,290
33,794	68,065	-0,309	-0,223
34,809	56,471	-0,324	-0,222
35,823	-41,370	-0,497	-0,179
36,838	120,408	-0,294	-0,258
37,853	127,437	-0,344	-0,308
38,867	13,364	-0,382	-0,208
39,882	10,366	-0,365	-0,195
40,896	111,552	-0,377	-0,321
41,911	177,111	-0,246	-0,253
42,926	-75,532	-0,471	-0,117
43,940	63,558	-0,302	-0,213
44,955	107,502	-0,360	-0,302
45,969	68,262	-0,416	-0,300
46,984	166,355	-0,331	-0,330
47,999	199,525	-0,273	-0,295
49,013	143,041	-0,292	-0,274
50,028	169,756	-0,269	-0,271
51,042	94,230	-0,298	-0,238
52,057	122,014	-0,323	-0,284
53,071	109,375	-0,399	-0,336
54,086	61,302	-0,269	-0,188
55,101	147,066	-0,305	-0,289
56,115	59,342	-0,436	-0,302
57,130	107,784	-0,239	-0,201
58,144	143,270	-0,277	-0,259
59,159	250,197	-0,329	-0,394
60,174	176,855	-0,351	-0,360
61,188	115,568	-0,343	-0,295
62,203	190,010	-0,246	-0,260
63,217	24,987	-0,375	-0,218
64,232	386,471	-0,118	-0,172
65,247	18,934	-0,400	-0,225
66,261	144,452	-0,305	-0,286
67,276	81,461	-0,325	-0,247
68,290	-21,426	-0,421	-0,180
69,305	55,727	-0,366	-0,249
70,320	110,089	-0,254	-0,214
71,334	-64,534	-0,435	-0,123
72,349	157,849	-0,298	-0,291
73,363	119,516	-0,335	-0,292
74,378	29,369	-0,314	-0,187
75,393	170,637	-0,229	-0,231
76,407	381,702	-0,159	-0,231
77,422	161,586	-0,300	-0,296
78,436	213,171	-0,225	-0,250
79,451	145,075	-0,252	-0,237
80,466	121,775	-0,338	-0,296
81,480	17,359	-0,371	-0,207
82,495	99,142	-0,403	-0,327
83,509	-18,061	-0,220	-0,096
84,524	-78,963	-0,384	-0,091
85,539	117,452	-0,343	-0,296
86,553	87,240	-0,233	-0,181
87,568	-12,822	-0,434	-0,198
88,582	125,177	-0,285	-0,252
89,597	-1,954	-0,339	-0,167
90,611	6,997	-0,206	-0,107
91,626	11,865	-0,256	-0,138
92,641	74,276	-0,265	-0,195
93,655	-156,942	-0,222	-0,009
94,670	95,948	-0,249	-0,200
95,684	163,428	-0,255	-0,252
96,699	-110,421	-0,260	-0,037
97,714	151,335	-0,116	-0,111
98,728	110,407	-0,226	-0,190
99,743	26,538	-0,175	-0,102
100,757	37,302	-0,335	-0,208
101,772	800,000	-0,099	-0,235
102,787	149,889	-0,255	-0,243
103,801	-89,790	-0,261	-0,053
104,816	-42,878	-0,314	-0,111
105,830	-200,000	-0,067	-0,301
106,845	-165,606	-0,220	0,007
107,860	42,031	-0,318	-0,202
108,874	52,934	-0,376	-0,252
109,889	116,539	-0,291	-0,250
110,903	262,668	-0,247	-0,301
111,918	15,000	-0,337	-0,185
112,933	800,000	-0,118	-0,233
113,947	84,562	-0,271	-0,208
114,962	59,861	-0,252	-0,174
115,976	99,337	-0,190	-0,154
116,991	264,873	-0,258	-0,315
118,006	-49,913	-0,229	-0,076
119,020	435,001	-0,079	-0,120
120,035	145,708	-0,132	-0,124
121,049	-108,913	-0,225	-0,033
122,064	322,184	-0,138	-0,184
123,079	-112,347	-0,238	-0,033
124,093	29,086	-0,361	-0,214
125,108	280,623	-0,260	-0,327
126,122	109,019	-0,252	-0,211
127,137	303,427	-0,199	-0,258
128,151	109,658	-0,289	-0,242
129,166	-115,070	-0,212	-0,028
130,181	155,656	-0,187	-0,181
131,195	89,892	-0,226	-0,176
132,210	210,272	-0,220	-0,242
133,224	165,595	-0,162	-0,160
134,239	135,634	-0,279	-0,255
135,254	198,003	-0,118	-0,127
136,268	36,959	-0,256	-0,158
137,283	163,631	-0,184	-0,181
138,297	112,252	-0,322	-0,272
139,312	0,619	-0,279	-0,139
140,327	-58,189	-0,227	-0,069
141,341	153,569	-0,208	-0,200
142,356	609,037	-0,165	-0,289
143,370	305,895	-0,264	-0,344
144,385	35,795	-0,227	-0,139
145,400	800,000	-0,137	-0,385
146,414	48,557	-0,255	-0,166
147,429	283,514	-0,227	-0,286
148,443	-31,485	-0,320	-0,125
149,458	46,139	-0,210	-0,135
150,473	10,407	-0,239	-0,127
151,487	56,642	-0,234	-0,159
152,502	-9,640	-0,210	-0,097
153,516	245,702	-0,212	-0,250
154,531	197,327	-0,192	-0,205
155,546	71,707	-0,267	-0,194
156,560	-3,810	-0,181	-0,087
157,575	236,082	-0,171	-0,198
158,589	-38,661	-0,324	-0,119
159,604	142,184	-0,271	-0,251
160,619	87,521	-0,321	-0,248
161,633	62,396	-0,274	-0,190
162,648	321,552	-0,214	-0,285
163,662	-28,461	-0,208	-0,083
164,677	800,000	-0,080	-0,241
165,692	161,076	-0,156	-0,152
166,706	48,031	-0,212	-0,138
167,721	29,897	-0,313	-0,186
168,735	106,803	-0,331	-0,274
169,750	163,336	-0,179	-0,175
170,764	709,296	-0,142	-0,262
171,779	83,230	-0,286	-0,217
172,794	-90,297	-0,283	0,057
173,808	63,122	-0,230	-0,161
174,823	146,171	-0,242	-0,226
175,837	386,366	-0,128	-0,185
176,852	-46,168	-0,282	-0,096
177,867	-7,064	-0,157	-0,074
178,881	-52,502	-0,273	-0,088
179,896	128,430	-0,235	-0,208
180,910	-34,312	-0,216	-0,082
181,925	52,994	-0,245	-0,163
182,940	-66,134	-0,267	-0,074
183,954	125,976	-0,228	-0,200
184,969	87,389	-0,097	-0,075
185,983	447,896	-0,061	-0,094
186,998	497,953	-0,156	-0,251
188,013	-200,000	-0,017	-0,058
189,027	59,281	-0,231	-0,158
190,042	422,838	-0,213	-0,319
191,056	28,108	-0,259	-0,152
192,071	-120,086	-0,201	-0,024
193,086	800,000	-0,099	-0,294
194,100	352,900	-0,140	-0,194
195,115	115,569	-0,082	-0,070
196,129	538,766	-0,160	-0,266
197,144	15,875	-0,238	-0,130
198,159	159,867	-0,268	-0,260
199,173	37,254	-0,175	-0,107
200,188	-41,551	-0,302	-0,107
201,202	-55,687	-0,158	-0,049
202,217	202,421	-0,103	-0,110
203,232	344,280	-0,146	-0,199
204,246	432,655	-0,214	-0,324
205,261	88,767	-0,210	-0,163
206,275	176,594	-0,117	-0,118
207,290	800,000	-0,041	-0,100
208,304	116,449	-0,114	-0,097
209,319	120,614	-0,202	-0,175
210,334	-25,465	-0,191	-0,078
211,348	-5,163	-0,225	-0,107
212,363	76,573	-0,223	-0,164
213,377	293,611	-0,143	-0,182
214,392	-7,875	-0,185	-0,086
215,407	-56,626	-0,237	-0,072
216,421	3,106	-0,161	-0,081
217,436	61,799	-0,197	-0,136
218,450	-55,221	-0,353	-0,109
219,465	-199,865	-0,100	0,000
220,480	188,988	-0,190	-0,198
221,494	-115,224	-0,201	0,026
222,509	-86,371	-0,308	-0,065
223,523	82,500	-0,045	0,034
224,538	-77,635	-0,204	-0,049
225,553	72,477	-0,256	-0,185
226,567	337,841	-0,196	-0,265
227,582	50,119	-0,218	-0,143
228,596	400,770	-0,079	-0,116
229,611	45,610	-0,123	-0,079
230,626	-89,967	-0,230	-0,046
231,640	43,155	-0,164	-0,104
232,655	395,539	-0,151	-0,219
233,669	19,051	-0,297	-0,164
234,684	800,000	-0,055	-0,120
235,699	800,000	-0,073	-0,218
236,713	25,560	-0,233	-0,134
237,728	-43,541	-0,097	-0,034
238,742	-83,753	-0,195	-0,043
239,757	38,229	-0,288	-0,178
240,772	238,856	-0,206	-0,237
241,786	-46,229	-0,237	-0,080
242,801	123,575	-0,077	-0,067
243,815	-200,000	-0,015	0,055
244,830	-90,123	-0,220	-0,044
245,844	425,176	-0,107	-0,161
246,859	-34,935	-0,231	-0,087
247,874	-92,944	-0,125	-0,024
248,888	93,506	-0,202	-0,158
249,903	49,339	-0,213	-0,139
250,917	-115,897	-0,272	-0,035
251,932	-179,043	-0,236	0,004
252,947	110,977	-0,256	-0,213
253,961	40,053	-0,199	-0,123
254,976	102,576	-0,172	-0,139
255,990	-110,030	-0,209	-0,030
257,005	173,169	-0,111	-0,111
258,020	-121,218	0,058	-0,007
259,034	445,948	-0,096	-0,146
260,049	-27,053	-0,119	-0,048
261,063	-108,929	-0,194	-0,028
262,078	-23,837	-0,239	-0,099
263,093	205,318	-0,145	-0,156
264,107	-113,740	-0,286	-0,038
265,122	50,130	-0,126	-0,082
266,136	-24,547	-0,181	-0,074
267,151	71,756	-0,138	-0,099
268,166	109,277	-0,163	-0,135
269,180	205,954	-0,216	-0,232
270,195	87,988	-0,268	-0,205
271,209	13,130	-0,258	-0,138
272,224	-2,040	-0,162	-0,078
273,239	-191,833	-0,165	-0,001
274,253	136,360	-0,140	-0,126
275,268	-128,665	-0,110	0,011
276,282	52,693	-0,124	-0,082
277,297	163,872	-0,215	-0,209
278,312	16,984	-0,211	-0,115
279,326	167,803	-0,134	-0,132
280,341	461,149	-0,160	-0,248
281,355	76,469	-0,059	-0,043
282,370	-200,000	-0,038	-0,119
283,384	800,000	-0,095	-0,201
284,399	144,532	-0,155	-0,143
285,414	719,067	-0,101	-0,185
286,428	5,505	-0,149	-0,076
287,443	800,000	-0,047	-0,109
288,457	22,275	-0,106	-0,060
289,472	-77,786	-0,124	-0,029
290,487	-200,000	-0,080	-0,250
291,501	224,244	-0,182	-0,203
292,516	-28,333	-0,162	-0,064
293,530	800,000	-0,084	-0,167
294,545	104,507	-0,079	-0,064
295,560	74,145	-0,054	-0,039
296,574	-7,279	-0,141	-0,066
297,589	448,060	-0,158	-0,240
298,603	-12,510	-0,082	-0,037
299,618	-172,410	-0,060	0,001
300,633	59,320	-0,209	-0,142
301,647	776,968	-0,038	-0,071
302,662	-12,640	-0,122	-0,055
303,676	-63,019	-0,204	-0,058
304,691	-17,792	-0,209	-0,090
305,706	67,415	-0,184	-0,129
306,720	152,536	-0,156	-0,147
307,735	-200,000	-0,039	-0,223
308,749	276,499	-0,095	-0,117
309,764	-66,780	-0,148	0,040
310,779	84,577	-0,095	-0,071
311,793	72,563	-0,179	-0,128
312,808	-44,581	-0,262	-0,090
313,822	102,967	-0,169	-0,136
314,837	-54,790	-0,187	-0,058
315,852	-172,597	-0,107	-0,002
316,866	184,791	-0,126	-0,129
317,881	504,492	-0,092	-0,147
318,895	-169,004	-0,103	0,003
319,910	737,652	-0,133	-0,246
320,925	268,902	-0,208	-0,251
321,939	99,978	-0,138	-0,110
322,954	-200,000	-0,009	-0,067
323,968	74,336	-0,080	-0,058
324,983	-200,000	0,013	-0,074
325,997	-7,794	-0,090	-0,042
327,012	-51,963	-0,159	-0,050
328,027	139,822	-0,165	-0,150
329,041	96,735	-0,133	-0,105
330,056	48,991	-0,095	-0,061
331,070	-3,269	-0,051	-0,024
332,085	-200,000	-0,044	-0,253
333,100	272,659	-0,098	-0,120
334,114	165,207	-0,157	-0,153
335,129	-16,560	-0,233	-0,101
336,143	-99,431	-0,241	-0,041
337,158	-146,833	-0,191	-0,011
338,173	163,270	-0,162	-0,157
339,187	203,548	-0,130	-0,139
340,202	31,044	-0,133	0,078
341,216	62,348	-0,093	-0,064
342,231	473,922	-0,104	-0,162
343,246	-23,832	-0,194	-0,079
344,260	165,059	-0,160	-0,155
345,275	-200,000	-0,015	-0,293
346,289	800,000	-0,044	-0,094
347,304	411,082	-0,144	-0,211
348,319	330,940	-0,145	-0,192
349,333	-10,786	-0,094	-0,043
350,348	800,000	-0,089	-0,173
351,362	432,873	-0,079	-0,118
352,377	-140,409	-0,090	-0,006
353,392	-81,380	-0,250	-0,056
354,406	399,032	-0,066	-0,095
355,421	207,674	1314,979	1410,224
356,435	159,767	1475,715	1410,712
