DTS Sentinel unit serial number:	SN410029Multiplexer serial number:	ORYXHardware model number:	OX2-SRSoftware version number:	ORYX F/W v4,00 Oryx Data Collector v3.7.2.0data status	okinstallation	B3 Nyhavnadifferential loss correction	single-endedforward channel	channel 1reverse channel	N/Adate	2023/12/03time	15:37:30forward acquisition time	300,00reverse acquisition time	0,00gamma	499,1914k internal	0,3196k external	0,3196temperature offset calibration	1,0000default loss term (dB/km)	0,3820temperature slope calibration	1,0000multiplexer offset coefficient	1,0000multiplexer slope coefficient	1,0000fibre end	0,00T internal ref (°C)	15,70T ext. ref 1 (°C)	0,24T ext. ref 2 (°C)	0,23length (m)	temperature (°C)	Stokes	anti-Stokes-744,400	498,095	-0,120	-0,203
-743,385	-200,000	-0,005	0,299
-742,371	514,634	-0,142	-0,243
-741,356	800,000	0,122	0,370
-740,342	800,000	-0,082	-0,233
-739,327	-200,000	-0,055	0,225
-738,312	313,685	-0,121	-0,166
-737,298	-200,000	0,005	0,248
-736,283	303,996	-0,215	-0,291
-735,269	-200,000	0,019	0,305
-734,254	87,962	-0,126	-0,102
-733,239	-64,840	-0,316	0,093
-732,225	15,965	-0,172	-0,099
-731,210	-23,085	0,116	0,051
-730,196	291,715	0,019	-0,026
-729,181	134,685	-0,147	-0,139
-728,167	369,778	-0,051	-0,076
-727,152	800,000	0,073	0,182
-726,137	-122,596	-0,109	-0,013
-725,123	-45,712	-0,185	-0,066
-724,108	-150,454	-0,142	-0,008
-723,094	-160,096	-0,114	0,004
-722,079	42,212	-0,103	-0,068
-721,064	-200,000	-0,016	-0,120
-720,050	140,696	-0,024	-0,023
-719,035	-200,000	0,021	-0,100
-718,021	-134,170	-0,020	-0,002
-717,006	-29,902	-0,112	-0,046
-715,991	-200,000	-0,006	-0,156
-714,977	-194,842	0,080	-0,000
-713,962	475,026	0,013	0,021
-712,948	-200,000	-0,022	-0,093
-711,933	-200,000	0,042	0,188
-710,918	-113,547	0,064	0,009
-709,904	-200,000	-0,010	-0,227
-708,889	283,181	-0,084	-0,110
-707,875	-88,411	0,142	-0,031
-706,860	51,881	-0,132	0,091
-705,845	27,814	0,132	0,081
-704,831	-200,000	-0,028	-0,116
-703,816	203,652	-0,050	-0,056
-702,802	333,765	-0,021	0,029
-701,787	-55,453	-0,055	-0,018
-700,772	800,000	0,031	-0,076
-699,758	72,037	-0,041	0,031
-698,743	-142,856	-0,098	0,007
-697,729	-200,000	-0,001	-0,012
-696,714	388,674	0,029	-0,044
-695,699	-56,963	0,100	0,032
-694,685	-44,667	-0,058	-0,021
-693,670	-200,000	0,011	-0,113
-692,656	-200,000	-0,004	0,091
-691,641	-200,000	0,004	0,150
-690,627	-200,000	0,018	0,077
-689,612	-170,550	-0,071	-0,002
-688,597	-94,811	-0,068	0,013
-687,583	-200,000	0,003	-0,036
-686,568	800,000	-0,037	-0,108
-685,554	-200,000	-0,032	-0,114
-684,539	-200,000	-0,001	0,042
-683,524	18,295	0,163	0,095
-682,510	96,460	-0,057	-0,047
-681,495	190,162	0,010	0,011
-680,481	-200,000	0,026	-0,140
-679,466	369,999	-0,017	0,024
-678,451	-91,031	-0,082	0,017
-677,437	-200,000	-0,013	0,054
-676,422	-200,000	-0,042	0,218
-675,408	-78,953	-0,035	0,009
-674,393	-88,286	-0,032	-0,007
-673,378	5,539	-0,074	-0,039
-672,364	-24,154	-0,031	-0,013
-671,349	-56,115	0,037	0,012
-670,335	14,702	0,056	-0,032
-669,320	-143,146	0,056	0,004
-668,305	119,065	0,061	-0,055
-667,291	-200,000	0,006	0,088
-666,276	-39,762	-0,024	-0,009
-665,262	800,000	-0,013	-0,034
-664,247	560,083	0,025	-0,044
-663,232	87,339	0,022	-0,018
-662,218	-200,000	0,007	-0,059
-661,203	112,285	-0,047	0,041
-660,189	489,250	0,097	-0,161
-659,174	-102,199	-0,208	-0,036
-658,159	-200,000	-0,014	-0,173
-657,145	33,216	0,022	-0,014
-656,130	41,607	0,087	-0,057
-655,116	800,000	-0,019	-0,046
-654,101	800,000	-0,004	-0,008
-653,086	-200,000	0,001	0,008
-652,072	472,102	-0,074	-0,122
-651,057	113,691	0,041	0,037
-650,043	453,535	-0,043	-0,069
-649,028	77,108	0,034	-0,026
-648,014	184,388	-0,016	-0,018
-646,999	-200,000	0,006	0,117
-645,984	-200,000	0,045	0,222
-644,970	-84,615	0,021	0,005
-643,955	-76,866	0,153	-0,038
-642,941	161,598	-0,062	-0,063
-641,926	-132,373	-0,093	0,009
-640,911	582,457	-0,042	0,075
-639,897	544,102	0,029	0,051
-638,882	417,375	-0,026	0,041
-637,868	-200,000	-0,005	-0,147
-636,853	-71,170	-0,088	0,024
-635,838	800,000	-0,083	-0,170
-634,824	58,401	0,113	-0,080
-633,809	231,012	0,041	0,049
-632,795	93,119	0,076	0,063
-631,780	98,596	0,130	-0,109
-630,765	-32,170	-0,142	0,057
-629,751	-51,554	-0,084	-0,028
-628,736	150,526	-0,050	-0,049
-627,722	-200,000	-0,008	-0,059
-626,707	3,448	0,114	0,060
-625,692	161,119	-0,064	0,065
-624,678	35,997	-0,100	0,064
-623,663	560,280	-0,070	-0,123
-622,649	165,087	-0,017	0,017
-621,634	-61,427	-0,162	-0,049
-620,619	800,000	0,043	-0,087
-619,605	-157,155	0,170	0,007
-618,590	119,019	0,084	0,075
-617,576	-200,000	0,013	0,184
-616,561	111,949	0,117	-0,102
-615,546	154,288	0,035	-0,035
-614,532	15,293	-0,050	0,029
-613,517	24,940	0,103	0,062
-612,503	625,970	-0,014	0,026
-611,488	-200,000	-0,022	-0,103
-610,474	-73,151	0,028	-0,007
-609,459	547,161	-0,044	0,076
-608,444	-51,452	-0,064	-0,022
-607,430	-200,000	-0,000	-0,013
-606,415	474,164	-0,071	-0,116
-605,401	-200,000	0,004	-0,071
-604,386	-41,983	0,151	0,056
-603,371	240,625	0,082	0,100
-602,357	-200,000	-0,017	-0,064
-601,342	800,000	0,019	0,042
-600,328	128,004	-0,044	-0,040
-599,313	69,186	-0,080	-0,059
-598,298	-93,384	0,083	-0,017
-597,284	-200,000	-0,016	0,185
-596,269	39,376	0,053	0,034
-595,255	800,000	0,028	0,061
-594,240	-14,201	0,023	-0,011
-593,225	24,065	-0,099	-0,059
-592,211	47,636	-0,101	-0,068
-591,196	800,000	0,038	-0,077
-590,182	17,336	0,075	0,043
-589,167	-200,000	0,003	-0,043
-588,152	-154,856	-0,022	0,001
-587,138	-200,000	-0,019	0,089
-586,123	-160,476	-0,076	0,003
-585,109	556,833	-0,087	-0,152
-584,094	-22,850	0,097	-0,042
-583,079	-200,000	0,016	0,096
-582,065	-183,189	-0,024	0,000
-581,050	-200,000	0,015	0,147
-580,036	800,000	-0,040	0,082
-579,021	-23,372	-0,080	-0,035
-578,006	-200,000	0,006	-0,071
-576,992	-200,000	-0,023	-0,078
-575,977	97,678	-0,145	0,121
-574,963	-200,000	0,003	-0,049
-573,948	71,772	-0,021	0,016
-572,934	-122,054	0,089	-0,010
-571,919	-17,145	-0,129	-0,059
-570,904	-200,000	0,003	-0,084
-569,890	59,962	0,023	-0,016
-568,875	-89,648	-0,081	-0,017
-567,861	539,435	0,018	0,032
-566,846	3,309	0,025	-0,013
-565,831	-51,130	-0,139	-0,047
-564,817	-200,000	-0,025	-0,118
-563,802	-27,179	-0,090	0,038
-562,788	-70,756	0,062	-0,017
-561,773	237,542	0,009	-0,011
-560,758	-200,000	0,022	0,078
-559,744	800,000	-0,041	0,114
-558,729	800,000	0,037	-0,098
-557,715	212,353	-0,155	-0,177
-556,700	800,000	-0,020	-0,065
-555,685	-105,226	-0,126	-0,021
-554,671	800,000	0,012	0,037
-553,656	30,226	0,099	-0,061
-552,642	47,132	0,035	-0,024
-551,627	152,319	-0,101	-0,100
-550,612	276,023	0,057	0,073
-549,598	-109,970	-0,138	-0,021
-548,583	-200,000	0,001	-0,043
-547,569	-64,101	-0,090	-0,026
-546,554	-55,187	0,193	0,062
-545,539	-200,000	-0,063	0,240
-544,525	99,645	-0,037	0,031
-543,510	173,689	0,084	0,088
-542,496	363,974	-0,012	0,018
-541,481	221,506	-0,092	-0,107
-540,466	302,804	-0,055	-0,074
-539,452	-200,000	0,007	0,101
-538,437	-200,000	-0,002	-0,022
-537,423	-124,412	0,204	0,023
-536,408	-157,805	-0,008	0,000
-535,393	800,000	-0,005	-0,016
-534,379	19,639	0,046	-0,026
-533,364	37,282	-0,084	-0,054
-532,350	-57,651	0,240	0,075
-531,335	-1,800	0,011	0,005
-530,321	-200,000	0,005	-0,031
-529,306	-200,000	-0,010	-0,162
-528,291	800,000	0,056	-0,132
-527,277	-200,000	0,010	0,097
-526,262	122,321	-0,052	0,047
-525,248	-25,328	-0,023	-0,010
-524,233	-200,000	0,004	-0,020
-523,218	-2,675	-0,025	-0,013
-522,204	359,091	0,034	-0,049
-521,189	800,000	-0,065	-0,175
-520,175	-59,491	-0,082	-0,025
-519,160	-200,000	-0,011	-0,094
-518,145	215,572	0,111	-0,127
-517,131	-7,037	0,054	-0,026
-516,116	47,933	-0,122	0,082
-515,102	800,000	0,026	-0,075
-514,087	800,000	-0,032	-0,079
-513,072	800,000	-0,058	-0,126
-512,058	-195,503	0,104	0,001
-511,043	703,775	-0,082	0,158
-510,029	123,361	0,057	-0,052
-509,014	-175,264	-0,046	-0,001
-507,999	-8,026	-0,066	0,032
-506,985	522,052	0,110	0,188
-505,970	-14,536	0,124	-0,057
-504,956	800,000	-0,045	-0,103
-503,941	202,782	-0,037	0,041
-502,926	209,939	0,071	-0,081
-501,912	175,414	0,019	0,020
-500,897	90,536	0,061	0,049
-499,883	-94,043	0,050	0,010
-498,868	240,306	0,056	0,067
-497,853	0,593	-0,100	0,051
-496,839	800,000	0,007	-0,018
-495,824	445,006	0,080	0,127
-494,810	-0,932	-0,075	0,038
-493,795	-17,689	-0,057	0,026
-492,781	-200,000	0,009	-0,035
-491,766	472,155	0,072	-0,118
-490,751	-52,874	-0,071	-0,024
-489,737	184,639	-0,038	0,040
-488,722	-65,669	-0,171	0,049
-487,708	-155,360	0,087	-0,004
-486,693	-200,000	0,014	0,101
-485,678	42,990	0,039	0,026
-484,664	385,655	-0,051	-0,076
-483,649	-141,999	-0,131	0,009
-482,635	-74,430	-0,103	-0,026
-481,620	-87,005	-0,054	0,012
-480,605	184,040	-0,102	-0,109
-479,591	60,356	0,095	-0,068
-478,576	11,690	0,089	-0,049
-477,562	-51,827	0,062	-0,021
-476,547	296,571	-0,111	-0,147
-475,532	-200,000	-0,022	-0,081
-474,518	-200,000	0,013	-0,095
-473,503	-128,132	0,189	-0,019
-472,489	-11,029	0,070	0,033
-471,474	-153,449	-0,123	0,006
-470,459	498,060	-0,068	-0,113
-469,445	8,564	0,080	0,043
-468,430	345,210	0,037	-0,053
-467,416	28,948	-0,059	0,036
-466,401	-0,332	0,176	0,090
-465,386	-78,220	-0,047	-0,011
-464,372	-91,443	0,030	0,006
-463,357	-200,000	-0,006	0,030
-462,343	-200,000	-0,017	0,056
-461,328	-54,451	-0,096	-0,031
-460,313	-29,761	0,048	-0,020
-459,299	-148,639	0,047	0,003
-458,284	800,000	0,030	0,088
-457,270	19,707	-0,091	-0,053
-456,255	122,483	-0,015	-0,013
-455,241	-200,000	-0,000	-0,082
-454,226	-6,749	0,063	0,031
-453,211	-200,000	-0,009	0,069
-452,197	-200,000	-0,029	-0,116
-451,182	-200,000	-0,004	-0,070
-450,168	800,000	0,021	-0,050
-449,153	148,092	0,118	-0,115
-448,138	189,234	-0,028	0,030
-447,124	168,210	-0,073	-0,075
-446,109	-42,708	0,087	0,032
-445,095	-14,956	0,103	0,047
-444,080	161,093	0,040	0,040
-443,065	-28,612	-0,095	-0,039
-442,051	-110,406	-0,167	-0,025
-441,036	575,978	-0,032	0,056
-440,022	351,392	-0,102	0,146
-439,007	-200,000	0,001	-0,027
-437,992	-17,256	0,172	0,078
-436,978	235,294	0,040	0,048
-435,963	55,315	-0,061	0,042
-434,949	-200,000	-0,016	-0,117
-433,934	4,070	-0,021	0,011
-432,919	47,655	-0,058	0,039
-431,905	-200,000	0,015	-0,079
-430,890	291,964	0,064	-0,083
-429,876	-38,969	0,068	-0,026
-428,861	13,570	-0,185	0,103
-427,846	42,533	0,061	-0,040
-426,832	-200,000	0,001	0,077
-425,817	-200,000	0,012	-0,086
-424,803	186,644	-0,059	-0,063
-423,788	-132,040	0,120	-0,011
-422,773	-27,559	-0,012	0,005
-421,759	-1,054	0,138	0,070
-420,744	-24,590	-0,065	0,028
-419,730	800,000	-0,035	-0,087
-418,715	800,000	-0,025	0,064
-417,701	800,000	0,029	0,071
-416,686	52,559	-0,160	-0,110
-415,671	-87,919	-0,171	0,037
-414,657	706,301	0,055	0,105
-413,642	-200,000	-0,020	0,129
-412,628	180,970	0,083	-0,088
-411,613	-200,000	0,008	0,091
-410,598	800,000	0,015	0,031
-409,584	800,000	-0,046	-0,115
-408,569	72,024	0,051	0,038
-407,555	-174,594	0,155	0,003
-406,540	-156,725	0,119	-0,005
-405,525	276,516	-0,087	0,111
-404,511	-200,000	-0,022	-0,160
-403,496	-197,147	-0,055	-0,000
-402,482	228,180	0,093	-0,109
-401,467	52,434	0,084	-0,057
-400,452	-158,057	-0,081	0,003
-399,438	-41,340	-0,075	0,028
-398,423	-124,416	-0,070	0,008
-397,409	-200,000	-0,031	-0,144
-396,394	-71,535	0,022	-0,006
-395,379	210,377	-0,042	0,048
-394,365	469,170	-0,093	0,150
-393,350	800,000	0,056	0,142
-392,336	-98,005	-0,069	0,013
-391,321	226,358	-0,033	0,039
-390,306	62,852	-0,163	-0,117
-389,292	194,570	0,049	-0,053
-388,277	128,195	0,087	0,079
-387,263	-200,000	0,040	0,137
-386,248	33,137	0,121	0,075
-385,233	-29,699	0,030	-0,012
-384,219	-200,000	0,004	-0,073
-383,204	665,424	-0,057	0,106
-382,190	163,458	0,124	-0,126
-381,175	88,604	0,102	-0,081
-380,160	-5,961	-0,086	0,042
-379,146	-40,044	0,123	0,046
-378,131	-6,256	0,077	-0,038
-377,117	-89,526	0,060	-0,012
-376,102	-80,919	0,009	0,002
-375,088	-200,000	0,000	-0,018
-374,073	708,379	-0,066	-0,125
-373,058	-141,207	-0,139	0,010
-372,044	172,345	0,072	0,074
-371,029	20,923	0,120	0,069
-370,015	2,734	0,089	0,046
-369,000	242,150	-0,086	0,104
-367,985	-200,000	0,002	0,069
-366,971	587,893	0,014	-0,026
-365,956	-200,000	0,011	-0,040
-364,942	86,931	-0,064	0,051
-363,927	9,274	-0,087	-0,047
-362,912	-200,000	0,014	0,058
-361,898	55,635	-0,069	-0,048
-360,883	-200,000	-0,040	-0,168
-359,869	342,557	0,004	-0,005
-358,854	135,781	0,088	0,083
-357,839	-89,198	0,085	-0,018
-356,825	457,379	0,023	0,036
-355,810	14,377	-0,040	-0,023
-354,796	68,636	-0,091	0,067
-353,781	255,807	0,122	0,151
-352,766	154,657	0,113	0,111
-351,752	82,362	0,081	-0,063
-350,737	-200,000	0,002	-0,011
-349,723	800,000	-0,058	0,170
-348,708	410,879	0,027	0,041
-347,693	129,698	0,040	-0,037
-346,679	-200,000	-0,010	0,049
-345,664	219,318	-0,076	-0,088
-344,650	219,166	-0,013	-0,015
-343,635	-200,000	0,025	-0,136
-342,620	375,879	0,066	0,097
-341,606	-123,934	-0,055	0,006
-340,591	-170,776	-0,059	-0,001
-339,577	-200,000	-0,008	-0,041
-338,562	378,581	0,051	-0,076
-337,548	76,245	0,100	-0,075
-336,533	637,726	0,021	0,039
-335,518	20,911	-0,031	0,018
-334,504	390,104	0,067	-0,100
-333,489	-200,000	-0,051	0,165
-332,475	334,623	0,092	-0,128
-331,460	-200,000	-0,037	-0,187
-330,445	285,427	-0,039	0,050
-329,431	612,555	-0,062	0,112
-328,416	89,144	0,059	0,047
-327,402	42,801	-0,068	0,044
-326,387	-94,856	0,154	-0,030
-325,372	-130,870	0,097	-0,009
-324,358	266,786	-0,009	-0,011
-323,343	-13,296	-0,116	0,054
-322,329	-200,000	-0,006	-0,070
-321,314	-73,249	-0,022	-0,006
-320,299	-200,000	-0,026	-0,107
-319,285	390,182	0,061	0,090
-318,270	800,000	-0,011	-0,023
-317,256	-146,577	-0,194	0,012
-316,241	800,000	-0,045	0,105
-315,226	800,000	-0,046	0,113
-314,212	161,053	0,036	0,036
-313,197	-104,923	0,076	0,012
-312,183	-200,000	-0,008	-0,174
-311,168	149,147	0,023	-0,022
-310,153	-59,116	0,033	-0,010
-309,139	20,143	-0,055	-0,032
-308,124	-67,749	-0,099	-0,028
-307,110	800,000	0,060	0,135
-306,095	-200,000	0,000	-0,024
-305,080	505,158	0,094	0,157
-304,066	254,556	0,049	-0,060
-303,051	-200,000	0,024	-0,106
-302,037	800,000	-0,060	-0,168
-301,022	-200,000	-0,010	-0,116
-300,008	-152,454	0,125	-0,006
-298,993	800,000	0,018	0,047
-297,978	139,723	0,066	0,062
-296,964	-150,058	0,099	-0,005
-295,949	-200,000	-0,021	-0,080
-294,935	249,926	-0,086	0,105
-293,920	-159,045	0,083	0,003
-292,905	-200,000	0,001	0,091
-291,891	-91,853	-0,077	0,016
-290,876	-200,000	-0,017	0,061
-289,862	800,000	0,054	0,135
-288,847	-84,079	-0,171	0,039
-287,832	285,792	0,049	-0,064
-286,818	28,734	-0,060	-0,036
-285,803	-103,446	-0,082	0,014
-284,789	-200,000	0,026	0,114
-283,774	-200,000	-0,022	0,123
-282,759	-160,905	0,035	0,001
-281,745	-62,250	-0,062	-0,018
-280,730	-200,000	-0,032	-0,139
-279,716	-200,000	-0,010	0,034
-278,701	574,153	-0,041	0,072
-277,686	-162,554	0,199	0,007
-276,672	-200,000	0,013	0,127
-275,657	-200,000	-0,025	-0,135
-274,643	800,000	-0,007	0,022
-273,628	624,641	-0,054	0,098
-272,613	-200,000	-0,008	0,068
-271,599	-36,465	0,132	-0,051
-270,584	-96,110	0,087	-0,016
-269,570	-200,000	-0,004	0,080
-268,555	-6,881	0,026	0,013
-267,540	-200,000	-0,007	0,045
-266,526	800,000	-0,055	-0,112
-265,511	299,093	0,048	-0,064
-264,497	-170,374	0,145	0,004
-263,482	-200,000	0,005	0,023
-262,467	-200,000	-0,003	-0,013
-261,453	554,562	-0,020	-0,034
-260,438	222,344	0,014	0,016
-259,424	143,381	0,019	0,018
-258,409	800,000	-0,040	-0,125
-257,395	562,534	0,044	0,077
-256,380	800,000	0,045	-0,106
-255,365	-62,414	-0,095	-0,028
-254,351	409,955	0,056	0,086
-253,336	-15,165	0,086	0,039
-252,322	751,513	-0,033	0,065
-251,307	159,355	-0,118	-0,117
-250,292	-200,000	-0,019	0,095
-249,278	-200,000	0,006	-0,155
-248,263	26,136	-0,113	0,067
-247,249	15,701	-0,056	-0,031
-246,234	63,196	0,060	0,043
-245,219	263,734	0,045	0,056
-244,205	-151,345	-0,188	-0,010
-243,190	800,000	0,033	-0,079
-242,176	-200,000	0,026	-0,123
-241,161	350,749	-0,050	0,071
-240,146	-200,000	0,006	-0,026
-239,132	78,930	0,161	-0,123
-238,117	19,550	-0,034	-0,019
-237,103	800,000	-0,019	-0,051
-236,088	-160,715	0,014	0,001
-235,073	-200,000	-0,004	-0,102
-234,059	800,000	0,027	0,063
-233,044	612,612	-0,116	0,208
-232,030	800,000	0,042	-0,117
-231,015	-61,318	-0,090	-0,027
-230,000	-87,214	0,045	-0,010
-228,986	-49,855	0,064	-0,022
-227,971	-148,908	0,051	0,003
-226,957	-5,952	0,157	0,076
-225,942	-200,000	-0,009	-0,041
-224,927	794,426	0,049	0,097
-223,913	562,792	-0,006	0,011
-222,898	-68,067	-0,072	0,020
-221,884	-156,443	-0,094	-0,004
-220,869	-19,839	0,207	0,091
-219,855	-200,000	0,005	-0,042
-218,840	-200,000	-0,036	-0,115
-217,825	361,176	0,056	-0,080
-216,811	-9,298	-0,042	-0,020
-215,796	-64,551	-0,138	0,040
-214,782	800,000	-0,031	0,070
-213,767	-200,000	0,007	0,116
-212,752	-153,812	0,223	-0,011
-211,738	-200,000	-0,001	0,128
-210,723	84,917	-0,071	-0,055
-209,709	-114,155	0,034	-0,005
-208,694	-5,704	-0,153	-0,074
-207,679	-19,489	0,030	-0,013
-206,665	-200,000	0,011	0,054
-205,650	-200,000	0,054	0,276
-204,636	-16,702	-0,118	-0,053
-203,621	-85,497	0,032	0,007
-202,606	114,148	-0,067	-0,059
-201,592	85,649	-0,083	0,065
-200,577	83,149	-0,050	-0,039
-199,563	3,815	-0,083	-0,043
-198,548	563,889	-0,045	0,078
-197,533	-177,815	0,052	-0,001
-196,519	-200,000	-0,003	-0,041
-195,504	-17,126	0,066	0,030
-194,490	800,000	-0,010	-0,021
-193,475	-107,789	0,147	-0,023
-192,460	-87,606	0,025	0,005
-191,446	-200,000	-0,013	-0,127
-190,431	800,000	-0,061	0,167
-189,417	12,836	-0,146	0,080
-188,402	254,258	-0,052	-0,064
-187,387	-200,000	0,014	-0,083
-186,373	-132,140	-0,027	0,002
-185,358	-84,626	0,014	0,003
-184,344	51,789	0,102	-0,069
-183,329	-76,841	0,057	-0,014
-182,315	800,000	0,038	0,107
-181,300	-41,350	-0,172	0,063
-180,285	800,000	-0,030	0,062
-179,271	194,582	-0,095	0,103
-178,256	-149,106	-0,089	-0,005
-177,242	331,966	-0,059	0,082
-176,227	16,244	0,012	0,007
-175,212	800,000	0,041	0,115
-174,198	-200,000	0,037	0,122
-173,183	-200,000	-0,005	0,073
-172,169	-200,000	0,021	0,071
-171,154	97,754	-0,072	-0,059
-170,139	-200,000	-0,012	0,070
-169,125	490,963	0,041	0,068
-168,110	56,980	-0,049	-0,034
-167,096	-66,848	0,149	-0,042
-166,081	153,576	-0,053	-0,051
-165,066	-118,765	-0,023	0,003
-164,052	14,258	0,100	0,055
-163,037	154,746	-0,096	-0,094
-162,023	582,342	0,065	0,114
-161,008	289,498	0,033	0,042
-159,993	-200,000	0,001	-0,078
-158,979	416,884	0,066	-0,101
-157,964	-200,000	0,010	-0,173
-156,950	161,939	0,030	0,030
-155,935	-121,795	0,149	0,017
-154,920	-18,307	-0,058	-0,025
-153,906	800,000	0,012	0,029
-152,891	248,175	0,017	-0,021
-151,877	-16,713	-0,054	0,024
-150,862	-200,000	0,002	-0,059
-149,847	-200,000	0,027	-0,132
-148,833	737,407	-0,038	0,073
-147,818	-200,000	-0,008	0,072
-146,804	-116,371	0,037	0,005
-145,789	-54,466	-0,107	-0,034
-144,775	4,594	-0,051	0,026
-143,760	800,000	-0,032	-0,064
-142,745	800,000	-0,016	-0,033
-141,731	382,730	0,033	0,049
-140,716	73,024	0,093	0,069
-139,702	31,384	0,101	-0,062
-138,687	37,511	-0,034	0,022
-137,672	-31,738	-0,126	0,050
-136,658	-72,439	-0,037	0,010
-135,643	-200,000	0,003	-0,081
-134,629	-13,032	0,046	-0,021
-133,614	-168,244	0,029	-0,001
-132,599	800,000	-0,045	0,092
-131,585	332,128	-0,055	-0,076
-130,570	-200,000	0,017	0,061
-129,556	-176,200	-0,117	0,002
-128,541	61,623	-0,102	-0,072
-127,526	83,293	0,038	-0,030
-126,512	73,983	-0,044	0,033
-125,497	41,161	-0,095	-0,061
-124,483	58,745	0,088	0,061
-123,468	-200,000	0,032	0,102
-122,453	-153,203	-0,049	-0,002
-121,439	-200,000	-0,003	0,087
-120,424	121,323	-0,063	-0,056
-119,410	1,593	-0,056	0,029
-118,395	6,894	0,036	-0,019
-117,380	228,280	0,029	-0,034
-116,366	285,868	0,032	-0,041
-115,351	63,554	-0,076	-0,054
-114,337	511,715	-0,043	-0,071
-113,322	74,747	0,105	0,079
-112,307	-108,693	0,163	-0,025
-111,293	-12,166	0,057	0,026
-110,278	800,000	0,090	0,257
-109,264	-200,000	0,008	-0,034
-108,249	800,000	-0,037	-0,096
-107,234	367,766	0,072	-0,104
-106,220	-82,114	-0,138	-0,032
-105,205	142,482	0,065	-0,061
-104,191	-162,824	-0,057	0,002
-103,176	-32,317	0,106	-0,042
-102,162	-200,000	-0,016	0,086
-101,147	-200,000	0,014	0,084
-100,132	-121,079	0,050	-0,006
-99,118	-200,000	-0,019	-0,070
-98,103	520,581	-0,031	-0,052
-97,089	135,029	0,038	-0,035
-96,074	-200,000	0,003	0,081
-95,059	232,514	-0,054	-0,063
-94,045	-58,083	-0,105	0,032
-93,030	-95,883	-0,177	-0,033
-92,016	296,613	-0,042	0,054
-91,001	659,351	-0,058	0,106
-89,986	138,667	0,030	0,028
-88,972	800,000	0,061	0,140
-87,957	140,303	-0,058	-0,054
-86,943	-200,000	-0,003	0,046
-85,928	-200,000	0,033	-0,143
-84,913	-200,000	-0,014	-0,082
-83,899	26,266	0,092	-0,055
-82,884	75,876	0,065	-0,049
-81,870	-200,000	0,010	0,096
-80,855	-200,000	0,035	0,112
-79,840	104,457	-0,109	0,091
-78,826	800,000	-0,026	0,056
-77,811	229,101	-0,040	-0,047
-76,797	-200,000	0,000	-0,057
-75,782	146,671	-0,037	0,035
-74,767	-200,000	-0,004	0,027
-73,753	623,883	0,065	0,116
-72,738	187,440	-0,049	-0,052
-71,724	456,460	0,047	0,075
-70,709	141,233	-0,048	0,045
-69,694	-96,547	-0,061	0,011
-68,680	-200,000	-0,016	0,172
-67,665	-200,000	0,036	0,128
-66,651	-200,000	-0,002	0,173
-65,636	-3,898	0,032	0,016
-64,622	-200,000	-0,024	0,091
-63,607	-131,247	-0,098	-0,009
-62,592	-200,000	-0,038	-0,118
-61,578	-135,495	0,095	0,008
-60,563	-63,332	0,105	-0,030
-59,549	-200,000	-0,037	0,215
-58,534	-52,923	-1,431	-0,464
-57,519	358,319	-1,464	-2,079
-56,505	-200,000	-0,491	-4,460
-55,490	124,577	1,081	0,965
-54,476	800,000	4,526	10,852
-53,461	-200,000	17,853	285,463
-52,446	800,000	723,156	2234,444
-51,432	562,055	1638,203	2821,058
-50,417	80,723	1660,872	1268,519
-49,403	23,562	1534,922	893,320
-48,388	17,498	1458,416	819,483
-47,373	18,148	1448,022	816,733
-46,359	17,720	1438,623	809,357
-45,344	15,817	1434,143	797,739
-44,330	15,766	1431,940	796,237
-43,315	15,741	1430,275	795,164
-42,300	15,778	1428,694	794,429
-41,286	15,820	1427,614	793,996
-40,271	15,785	1426,035	792,920
-39,257	15,764	1425,061	792,245
-38,242	15,804	1423,716	791,655
-37,227	15,816	1422,394	790,948
-36,213	15,836	1420,974	790,219
-35,198	15,850	1419,772	789,586
-34,184	15,812	1419,089	788,998
-33,169	15,737	1417,882	787,940
-32,154	15,820	1416,736	787,664
-31,140	15,804	1415,271	786,743
-30,125	15,836	1414,299	786,322
-29,111	15,864	1413,061	785,734
-28,096	15,771	1412,125	784,746
-27,082	15,746	1410,752	783,835
-26,067	15,758	1409,634	783,238
-25,052	15,774	1408,516	782,661
-24,038	15,709	1408,037	782,060
-23,023	15,682	1406,913	781,278
-22,009	15,708	1405,696	780,691
-20,994	15,674	1404,792	780,002
-19,979	15,650	1404,044	779,441
-18,965	15,677	1402,994	778,954
-17,950	15,675	1402,038	778,385
-16,936	15,634	1401,113	777,646
-15,921	15,621	1399,767	776,809
-14,906	15,659	1398,743	776,388
-13,892	15,632	1398,018	775,826
-12,877	15,658	1397,024	775,368
-11,863	15,634	1396,118	774,719
-10,848	15,611	1395,111	774,026
-9,833	15,583	1394,367	773,451
-8,819	15,580	1393,393	772,869
-7,804	15,537	1392,488	772,135
-6,790	15,552	1391,423	771,582
-5,775	15,470	1390,561	770,696
-4,760	15,514	1389,612	770,345
-3,746	15,547	1388,768	769,998
-2,731	15,511	1388,029	769,390
-1,717	15,524	1386,910	768,801
-0,702	15,530	1385,011	767,745
0,313	19,295	1305,524	741,091
1,327	35,629	706,786	439,088
2,342	54,570	125,207	85,395
3,356	3,169	16,629	8,542
4,371	11,188	3,088	1,669
5,386	9,218	0,282	0,151
6,400	210,702	-0,067	0,075
7,415	108,845	-0,330	-0,279
8,429	489,268	-0,274	-0,445
9,444	145,160	-0,304	-0,288
10,459	-28,243	-0,249	-0,101
11,473	79,843	-0,293	-0,223
12,488	272,971	-0,252	-0,316
13,502	115,051	-0,309	-0,267
14,517	228,525	-0,174	-0,201
15,531	-2,220	-0,319	-0,158
16,546	-56,137	-0,409	-0,128
17,561	74,666	-0,372	-0,277
18,575	18,197	-0,238	-0,134
19,590	13,014	-0,373	-0,203
20,604	-115,997	-0,359	-0,047
21,619	127,121	-0,372	-0,333
22,634	135,594	-0,394	-0,363
23,648	265,606	-0,285	-0,352
24,663	148,416	-0,370	-0,354
25,677	121,673	-0,348	-0,307
26,692	40,034	-0,400	-0,254
27,707	42,911	-0,335	-0,215
28,721	76,226	-0,367	-0,275
29,736	19,090	-0,419	-0,237
30,750	49,768	-0,426	-0,283
31,765	-25,685	-0,484	-0,201
32,780	196,191	-0,313	-0,337
33,794	21,286	-0,365	-0,209
34,809	56,388	-0,288	-0,198
35,823	88,866	-0,270	-0,212
36,838	93,010	-0,425	-0,339
37,853	202,894	-0,294	-0,321
38,867	175,198	-0,408	-0,418
39,882	44,643	-0,343	-0,222
40,896	143,095	-0,277	-0,261
41,911	111,458	-0,287	-0,244
42,926	42,645	-0,394	-0,253
43,940	310,751	-0,284	-0,377
44,955	191,489	-0,358	-0,381
45,969	14,584	-0,471	-0,259
46,984	411,236	-0,144	-0,216
47,999	-41,338	-0,321	-0,116
49,013	58,237	-0,427	-0,295
50,028	61,145	-0,390	-0,273
51,042	-53,462	-0,306	-0,098
52,057	-5,275	-0,340	-0,164
53,071	11,430	-0,278	-0,150
54,086	144,310	-0,233	-0,219
55,101	64,729	-0,252	-0,179
56,115	47,378	-0,412	-0,270
57,130	130,231	-0,268	-0,242
58,144	-41,117	-0,414	-0,150
59,159	21,463	-0,393	-0,225
60,174	71,703	-0,310	-0,227
61,188	1,166	-0,391	-0,197
62,203	188,859	-0,247	-0,261
63,217	103,768	-0,262	-0,217
64,232	757,092	-0,164	-0,315
65,247	42,901	-0,422	-0,271
66,261	-75,877	-0,456	-0,113
67,276	-4,901	-0,469	-0,227
68,290	-105,306	-0,414	-0,066
69,305	-67,686	-0,359	-0,098
70,320	98,574	-0,141	-0,115
71,334	158,501	-0,301	-0,295
72,349	68,208	-0,273	-0,197
73,363	3,257	-0,313	-0,160
74,378	-105,874	-0,304	-0,048
75,393	61,263	-0,309	-0,216
76,407	-42,136	-0,311	-0,111
77,422	-22,272	-0,298	-0,127
78,436	6,163	-0,245	-0,128
79,451	17,670	-0,336	-0,187
80,466	33,573	-0,175	-0,107
81,480	-31,079	-0,405	-0,160
82,495	-64,459	-0,328	-0,093
83,509	-100,721	-0,206	-0,035
84,524	-1,876	-0,340	-0,168
85,539	15,278	-0,335	-0,184
86,553	5,286	-0,375	-0,194
87,568	207,752	-0,163	-0,180
88,582	-5,277	-0,357	-0,172
89,597	88,783	-0,238	-0,186
90,611	48,653	-0,329	-0,216
91,626	-63,380	-0,259	-0,074
92,641	-80,534	-0,285	-0,066
93,655	16,968	-0,353	-0,196
94,670	4,446	-0,376	-0,193
95,684	357,514	-0,176	-0,248
96,699	173,871	-0,226	-0,230
97,714	230,516	-0,182	-0,210
98,728	17,313	-0,223	-0,124
99,743	134,981	-0,152	-0,138
100,757	147,683	-0,231	-0,219
101,772	43,353	-0,292	-0,187
102,787	800,000	-0,131	-0,262
103,801	14,889	-0,362	-0,198
104,816	56,846	-0,218	-0,149
105,830	35,120	-0,198	-0,122
106,845	-147,740	-0,244	-0,014
107,860	108,222	-0,189	-0,158
108,874	155,043	-0,278	-0,268
109,889	42,960	-0,300	-0,192
110,903	-74,095	-0,360	-0,091
111,918	-59,107	-0,395	-0,119
112,933	74,302	-0,174	-0,128
113,947	53,156	-0,200	-0,134
114,962	800,000	-0,074	-0,202
115,976	-54,040	-0,353	-0,112
116,991	121,699	-0,254	-0,222
118,006	69,421	-0,212	-0,153
119,020	61,398	-0,310	-0,216
120,035	-85,413	-0,244	-0,053
121,049	-65,419	-0,233	-0,065
122,064	800,000	-0,071	-0,162
123,079	119,109	-0,231	-0,200
124,093	100,786	-0,230	-0,188
125,108	-49,327	-0,297	-0,099
126,122	271,486	-0,210	-0,260
127,137	-21,704	-0,272	-0,115
128,151	95,959	-0,261	-0,209
129,166	-33,997	-0,258	-0,099
130,181	31,590	-0,277	-0,166
131,195	246,705	-0,217	-0,257
132,210	135,899	-0,100	-0,091
133,224	52,894	-0,248	-0,166
134,239	156,592	-0,224	-0,217
135,254	453,064	-0,113	-0,176
136,268	148,484	-0,194	-0,183
137,283	72,547	-0,198	-0,144
138,297	122,628	-0,283	-0,248
139,312	70,719	-0,257	-0,186
140,327	334,836	-0,308	-0,418
141,341	800,000	-0,082	-0,164
142,356	220,272	-0,208	-0,233
143,370	430,557	-0,194	-0,295
144,385	-2,724	-0,187	-0,091
145,400	139,952	-0,221	-0,204
146,414	147,481	-0,230	-0,217
147,429	-23,376	-0,238	-0,100
148,443	-74,476	-0,252	-0,063
149,458	-109,047	-0,236	-0,035
150,473	-176,793	-0,219	-0,004
151,487	-54,656	-0,171	-0,054
152,502	287,456	-0,176	-0,223
153,516	297,454	-0,227	-0,292
154,531	431,506	-0,236	-0,359
155,546	-105,984	-0,288	-0,045
156,560	-200,000	-0,075	-0,331
157,575	98,323	-0,215	-0,173
158,589	-172,152	-0,165	0,004
159,604	-40,066	-0,324	-0,117
160,619	17,402	-0,369	-0,204
161,633	-3,325	-0,345	-0,168
162,648	109,431	-0,225	-0,188
163,662	800,000	-0,072	-0,161
164,677	-102,413	-0,234	-0,039
165,692	10,501	-0,198	-0,105
166,706	141,338	-0,283	-0,262
167,721	-2,941	-0,269	-0,131
168,735	415,710	-0,184	-0,275
169,750	354,706	-0,227	-0,316
170,764	47,151	-0,258	-0,167
171,779	10,562	-0,309	-0,164
172,794	36,236	-0,253	-0,155
173,808	76,621	-0,280	-0,207
174,823	-1,151	-0,390	-0,192
175,837	176,653	-0,223	-0,227
176,852	377,010	-0,225	-0,322
177,867	-68,086	-0,195	-0,053
178,881	59,680	-0,204	-0,141
179,896	410,039	-0,133	-0,198
180,910	197,672	-0,118	-0,126
181,925	55,360	-0,252	-0,170
182,940	200,751	-0,229	-0,246
183,954	77,245	-0,315	-0,233
184,969	7,430	-0,294	-0,153
185,983	173,376	-0,104	-0,104
186,998	84,589	-0,258	-0,196
188,013	-68,415	-0,084	-0,022
189,027	-37,994	-0,282	-0,104
190,042	-46,304	-0,167	-0,057
191,056	9,765	-0,379	-0,200
192,071	557,962	-0,082	-0,139
193,086	21,278	-0,238	-0,135
194,100	156,078	-0,118	-0,113
195,115	800,000	-0,115	-0,250
196,129	7,059	-0,348	-0,180
197,144	525,934	-0,136	-0,224
198,159	-71,756	-0,180	-0,046
199,173	19,995	-0,184	-0,103
200,188	-33,200	-0,164	-0,063
201,202	-47,505	-0,181	-0,061
202,217	-28,712	-0,228	-0,091
203,232	108,912	-0,274	-0,228
204,246	659,959	-0,156	-0,280
205,261	37,963	-0,244	-0,150
206,275	510,491	-0,082	-0,133
207,290	585,277	-0,153	-0,263
208,304	-142,114	-0,119	-0,008
209,319	129,897	-0,167	-0,149
210,334	139,520	-0,191	-0,175
211,348	395,557	-0,172	-0,250
212,363	9,835	-0,185	-0,097
213,377	-8,487	-0,250	-0,116
214,392	33,988	-0,218	-0,132
215,407	-52,608	-0,164	-0,053
216,421	800,000	-0,057	-0,148
217,436	-17,382	-0,122	-0,053
218,450	122,439	-0,281	-0,244
219,465	590,559	-0,128	-0,220
220,480	130,362	-0,203	-0,181
221,494	686,292	-0,137	-0,251
222,509	5,097	-0,197	-0,100
223,523	-46,998	-0,122	-0,041
224,538	800,000	-0,150	-0,340
225,553	155,264	-0,194	-0,186
226,567	33,373	-0,296	-0,178
227,582	800,000	-0,051	-0,136
228,596	275,057	-0,129	-0,159
229,611	-98,169	-0,202	-0,036
230,626	-53,021	-0,064	-0,020
231,640	800,000	-0,106	-0,265
232,655	561,267	-0,094	-0,158
233,669	43,347	-0,245	-0,155
234,684	587,729	-0,112	-0,192
235,699	319,770	-0,188	-0,248
236,713	-13,461	-0,158	-0,071
237,728	-200,000	-0,011	-0,043
238,742	57,839	-0,224	-0,152
239,757	-32,605	-0,258	-0,099
240,772	30,899	-0,132	-0,078
241,786	-12,760	-0,284	-0,128
242,801	700,918	0,019	-0,036
243,815	468,034	-0,157	-0,245
244,830	8,510	-0,147	-0,077
245,844	522,642	-0,107	-0,176
246,859	-50,555	-0,225	-0,073
247,874	-54,084	-0,170	-0,053
248,888	-85,269	-0,208	-0,045
249,903	-60,463	-0,252	-0,074
250,917	-98,903	-0,056	-0,010
251,932	800,000	-0,040	-0,079
252,947	150,554	-0,132	-0,125
253,961	-89,378	-0,221	-0,045
254,976	-65,205	-0,267	-0,074
255,990	-59,627	-0,217	0,064
257,005	124,750	-0,135	-0,118
258,020	33,956	-0,152	-0,092
259,034	-81,783	-0,182	-0,041
260,049	231,502	-0,188	-0,214
261,063	186,019	-0,145	-0,149
262,078	171,526	-0,083	-0,083
263,093	106,838	-0,121	-0,100
264,107	163,122	-0,101	-0,098
265,122	28,266	-0,170	-0,099
266,136	152,620	-0,176	-0,166
267,151	144,370	-0,210	-0,194
268,166	112,148	-0,115	-0,096
269,180	-87,207	-0,317	-0,066
270,195	160,696	-0,136	-0,132
271,209	-2,827	-0,241	-0,116
272,224	-17,349	-0,109	0,047
273,239	-58,459	-0,130	-0,039
274,253	314,206	-0,137	-0,179
275,268	18,124	-0,088	-0,048
276,282	57,495	-0,251	-0,169
277,297	460,172	-0,121	-0,187
278,312	163,160	-0,185	-0,180
279,326	299,038	-0,130	-0,166
280,341	237,971	-0,065	-0,074
281,355	-84,936	-0,196	-0,042
282,370	-42,892	-0,127	0,044
283,384	-87,931	-0,163	-0,034
284,399	135,619	-0,149	-0,134
285,414	180,452	-0,106	0,107
286,428	-84,580	-0,164	-0,035
287,443	-135,287	-0,127	-0,010
288,457	-36,431	-0,191	-0,071
289,472	-18,323	-0,245	-0,106
290,487	91,883	-0,233	-0,181
291,501	-73,807	-0,270	-0,067
292,516	-54,271	-0,197	-0,061
293,530	-28,639	-0,108	-0,043
294,545	276,368	-0,096	-0,118
295,560	-70,705	-0,118	-0,031
296,574	-200,000	0,024	-0,083
297,589	1,019	-0,285	-0,141
298,603	-120,955	-0,271	-0,031
299,618	-137,373	-0,132	-0,010
300,633	105,467	-0,125	-0,102
301,647	110,530	-0,044	-0,036
302,662	461,680	-0,095	-0,147
303,676	-129,075	-0,266	-0,025
304,691	55,997	-0,145	-0,097
305,706	202,735	-0,112	0,119
306,720	221,988	-0,190	-0,211
307,735	54,484	-0,179	-0,118
308,749	-200,000	0,033	-0,108
309,764	-200,000	-0,046	-0,188
310,779	-0,716	-0,150	-0,073
311,793	-62,350	-0,236	0,067
312,808	282,987	-0,154	-0,191
313,822	266,394	-0,135	-0,163
314,837	-5,341	-0,172	-0,081
315,852	800,000	-0,031	-0,087
316,866	-32,141	-0,182	-0,070
317,881	17,234	-0,092	-0,050
318,895	15,657	-0,162	-0,088
319,910	149,440	-0,127	-0,118
320,925	-104,702	-0,204	-0,032
321,939	159,197	-0,076	-0,073
322,954	800,000	-0,072	-0,182
323,968	20,324	-0,161	0,089
324,983	38,549	-0,156	-0,096
325,997	242,410	-0,173	-0,200
327,012	230,314	-0,118	-0,133
328,027	-106,272	-0,257	-0,039
329,041	98,110	-0,089	-0,070
330,056	-30,678	-0,162	-0,063
331,070	58,923	-0,125	-0,084
332,085	28,799	-0,105	-0,061
333,100	413,336	-0,069	-0,101
334,114	-29,813	-0,112	-0,044
335,129	800,000	-0,100	-0,230
336,143	-200,000	0,037	-0,228
337,158	-91,080	-0,049	-0,010
338,173	372,134	-0,044	-0,061
339,187	800,000	-0,059	-0,117
340,202	-155,042	-0,197	-0,009
341,216	280,048	-0,117	-0,144
342,231	543,046	-0,114	-0,187
343,246	490,987	-0,151	-0,238
344,260	503,313	-0,068	-0,109
345,275	800,000	-0,038	-0,081
346,289	172,524	-0,071	-0,071
347,304	20,804	-0,126	-0,070
348,319	-30,404	-0,209	-0,081
349,333	196,483	-0,151	-0,158
350,348	-102,231	-0,230	0,038
351,362	692,961	-0,060	-0,108
352,377	15,489	-0,217	-0,117
353,392	800,000	-0,029	-0,069
354,406	13,376	-0,196	-0,104
355,421	209,456	1314,340	1416,881
356,435	161,205	1475,052	1417,397
