DTS Sentinel unit serial number:	SN410029Multiplexer serial number:	ORYXHardware model number:	OX2-SRSoftware version number:	ORYX F/W v4,00 Oryx Data Collector v3.7.2.0data status	okinstallation	B3 Nyhavnadifferential loss correction	single-endedforward channel	channel 1reverse channel	N/Adate	2023/12/03time	05:22:30forward acquisition time	300,00reverse acquisition time	0,00gamma	499,1914k internal	0,3202k external	0,3202temperature offset calibration	1,0000default loss term (dB/km)	0,3820temperature slope calibration	1,0000multiplexer offset coefficient	1,0000multiplexer slope coefficient	1,0000fibre end	0,00T internal ref (°C)	13,29T ext. ref 1 (°C)	-1,76T ext. ref 2 (°C)	-1,78length (m)	temperature (°C)	Stokes	anti-Stokes-744,400	164,341	-0,201	-0,207
-743,385	-200,000	0,043	0,314
-742,371	626,114	-0,089	-0,164
-741,356	800,000	-0,086	0,258
-740,342	522,571	-0,124	-0,213
-739,327	428,565	0,082	0,129
-738,312	800,000	-0,183	-0,377
-737,298	800,000	-0,077	0,210
-736,283	212,143	-0,226	-0,260
-735,269	-200,000	0,059	0,266
-734,254	91,380	-0,173	-0,141
-733,239	-39,089	-0,269	0,102
-732,225	-200,000	0,054	-0,192
-731,210	-200,000	0,065	0,253
-730,196	546,755	-0,077	-0,135
-729,181	-200,000	0,004	-0,020
-728,167	396,102	0,032	-0,049
-727,152	-43,120	0,102	-0,037
-726,137	632,433	0,053	-0,099
-725,123	211,298	0,028	-0,032
-724,108	-149,389	-0,155	-0,009
-723,094	-200,000	-0,006	-0,120
-722,079	-200,000	-0,222	0,000
-721,064	-200,000	0,029	-0,108
-720,050	-200,000	-0,030	-0,128
-719,035	-76,339	-0,019	-0,005
-718,021	-200,000	-0,000	-0,037
-717,006	-85,691	-0,137	0,031
-715,991	25,537	-0,192	-0,116
-714,977	-28,282	-0,167	0,070
-713,962	463,003	-0,079	0,129
-712,948	79,932	-0,036	0,028
-711,933	39,336	0,047	-0,030
-710,918	-26,955	-0,036	-0,015
-709,904	-116,958	-0,116	-0,015
-708,889	357,976	0,059	-0,086
-707,875	800,000	-0,026	-0,064
-706,860	-200,000	-0,007	0,095
-705,845	-110,152	-0,018	0,003
-704,831	-14,720	0,093	0,043
-703,816	792,662	0,019	0,039
-702,802	-138,786	-0,011	-0,001
-701,787	-200,000	-0,004	0,078
-700,772	137,671	-0,064	-0,061
-699,758	-104,515	-0,041	0,007
-698,743	29,129	0,090	0,055
-697,729	206,392	0,190	0,215
-696,714	-200,000	0,013	0,119
-695,699	-200,000	-0,003	0,067
-694,685	23,827	-0,175	-0,105
-693,670	-200,000	-0,030	0,129
-692,656	-200,000	0,011	0,046
-691,641	44,806	-0,128	-0,085
-690,627	190,986	0,115	0,126
-689,612	-200,000	0,014	0,057
-688,597	587,382	-0,071	0,127
-687,583	800,000	0,022	0,063
-686,568	800,000	-0,055	-0,114
-685,554	-13,705	-0,163	-0,076
-684,539	214,967	0,024	0,027
-683,524	-200,000	0,009	0,060
-682,510	-32,003	-0,070	-0,028
-681,495	25,064	-0,170	-0,102
-680,481	-115,283	-0,115	-0,016
-679,466	-194,887	0,050	0,000
-678,451	767,436	-0,015	-0,030
-677,437	261,759	-0,052	-0,066
-676,422	65,544	0,087	-0,064
-675,408	800,000	-0,045	0,104
-674,393	-125,404	0,071	0,008
-673,378	-38,791	-0,125	-0,048
-672,364	-83,230	-0,103	0,024
-671,349	366,454	0,036	0,053
-670,335	101,079	-0,087	-0,073
-669,320	172,197	0,096	-0,100
-668,305	-39,764	0,076	-0,029
-667,291	73,577	-0,072	0,054
-666,276	395,257	-0,040	0,060
-665,262	113,532	-0,166	-0,146
-664,247	-200,000	0,002	-0,078
-663,232	-108,892	0,037	-0,006
-662,218	-200,000	0,010	0,099
-661,203	32,768	0,099	0,062
-660,189	-51,245	-0,060	0,020
-659,174	688,053	0,020	-0,038
-658,159	-42,317	-0,124	0,046
-657,145	-200,000	0,029	-0,109
-656,130	-200,000	-0,005	-0,033
-655,116	-200,000	0,020	-0,131
-654,101	405,449	0,003	-0,004
-653,086	49,990	-0,140	-0,095
-652,072	106,979	0,054	0,046
-651,057	-200,000	0,012	-0,117
-650,043	173,479	-0,016	-0,017
-649,028	37,149	0,066	0,042
-648,014	-67,062	0,108	0,031
-646,999	-17,999	0,101	0,046
-645,984	230,670	-0,049	0,058
-644,970	-64,296	-0,078	0,023
-643,955	-200,000	0,009	-0,102
-642,941	800,000	0,051	-0,152
-641,926	-200,000	0,003	-0,055
-640,911	800,000	-0,055	0,113
-639,897	471,899	0,060	0,098
-638,882	-137,161	0,087	0,007
-637,868	800,000	-0,024	0,057
-636,853	175,621	-0,095	-0,100
-635,838	-68,264	0,076	-0,021
-634,824	-116,595	-0,073	0,010
-633,809	-97,508	-0,161	0,030
-632,795	800,000	0,032	-0,072
-631,780	111,817	-0,064	0,056
-630,765	251,046	0,017	0,020
-629,751	-200,000	0,011	-0,067
-628,736	-200,000	-0,020	-0,113
-627,722	-27,845	-0,139	-0,058
-626,707	-47,333	0,078	-0,027
-625,692	-139,248	-0,221	-0,017
-624,678	800,000	-0,052	0,156
-623,663	-119,906	0,026	-0,003
-622,649	-200,000	-0,039	0,128
-621,634	800,000	0,018	-0,050
-620,619	18,165	-0,210	-0,121
-619,605	-163,714	0,210	-0,007
-618,590	167,650	0,058	0,060
-617,576	6,245	-0,073	-0,039
-616,561	272,566	-0,044	0,057
-615,546	-27,015	-0,165	-0,069
-614,532	363,356	-0,059	-0,087
-613,517	336,395	0,030	-0,042
-612,503	13,003	-0,041	-0,023
-611,488	405,348	0,063	-0,097
-610,474	-200,000	0,009	0,109
-609,459	-15,073	-0,107	0,049
-608,444	391,877	0,064	0,096
-607,430	-22,310	-0,084	0,037
-606,415	-87,065	0,043	0,009
-605,401	-119,661	-0,087	-0,011
-604,386	-12,546	0,032	0,015
-603,371	800,000	0,032	0,069
-602,357	291,737	-0,057	0,075
-601,342	-200,000	0,012	0,079
-600,328	72,166	0,075	-0,056
-599,313	-200,000	-0,036	-0,118
-598,298	165,328	-0,077	0,079
-597,284	190,771	0,020	0,022
-596,269	-111,906	-0,032	-0,005
-595,255	-44,168	-0,013	0,005
-594,240	-200,000	0,012	-0,077
-593,225	-61,391	-0,095	-0,029
-592,211	-6,972	-0,027	0,013
-591,196	-105,134	-0,024	0,004
-590,182	98,898	-0,023	0,019
-589,167	118,406	-0,058	0,052
-588,152	800,000	0,028	-0,057
-587,138	256,339	-0,020	-0,025
-586,123	146,236	0,033	0,032
-585,109	-200,000	-0,008	0,110
-584,094	-60,568	-0,107	-0,033
-583,079	-200,000	0,016	-0,064
-582,065	-41,883	0,079	0,029
-581,050	-170,334	0,139	0,003
-580,036	635,415	-0,013	-0,024
-579,021	-1,644	0,053	0,027
-578,006	800,000	-0,013	-0,035
-576,992	-200,000	0,010	-0,154
-575,977	339,577	-0,116	0,164
-574,963	800,000	0,077	0,164
-573,948	787,820	-0,060	0,120
-572,934	-48,514	-0,067	-0,023
-571,919	-200,000	-0,021	0,086
-570,904	12,473	-0,032	-0,018
-569,890	1,552	0,058	0,030
-568,875	-200,000	-0,016	-0,152
-567,861	-16,884	0,047	0,021
-566,846	-200,000	0,006	0,045
-565,831	353,456	-0,052	0,075
-564,817	127,054	0,147	-0,135
-563,802	55,913	0,007	-0,005
-562,788	-75,041	-0,106	-0,027
-561,773	800,000	-0,014	0,037
-560,758	642,098	0,083	0,153
-559,744	-64,364	0,082	-0,024
-558,729	-34,137	-0,090	-0,036
-557,715	-63,953	0,077	-0,023
-556,700	-98,641	-0,133	-0,024
-555,685	-200,000	0,024	0,133
-554,671	-62,612	0,025	-0,007
-553,656	-200,000	0,010	0,093
-552,642	-200,000	0,019	0,085
-551,627	32,179	0,095	-0,059
-550,612	-200,000	-0,019	0,091
-549,598	-200,000	-0,018	-0,135
-548,583	-162,480	-0,160	-0,006
-547,569	-200,000	-0,089	-0,000
-546,554	-200,000	0,058	0,193
-545,539	19,240	-0,075	-0,044
-544,525	-200,000	0,007	-0,166
-543,510	193,054	-0,052	0,057
-542,496	-50,565	-0,101	-0,034
-541,481	-46,179	-0,093	-0,033
-540,466	323,138	0,092	-0,127
-539,452	-200,000	0,021	-0,244
-538,437	-26,792	0,142	0,060
-537,423	261,017	0,052	0,065
-536,408	-200,000	-0,012	0,115
-535,393	199,667	-0,131	-0,145
-534,379	-58,743	0,045	-0,014
-533,364	800,000	0,021	0,066
-532,350	523,363	-0,046	0,079
-531,335	62,374	0,054	0,039
-530,321	800,000	0,033	0,097
-529,306	700,648	0,039	-0,075
-528,291	177,988	-0,067	-0,070
-527,277	241,658	-0,052	-0,062
-526,262	-90,726	0,100	-0,021
-525,248	-107,383	-0,064	-0,010
-524,233	88,535	-0,031	-0,025
-523,218	200,758	0,073	-0,081
-522,204	-200,000	-0,013	0,158
-521,189	26,770	-0,046	0,028
-520,175	-4,286	-0,080	-0,040
-519,160	373,788	-0,079	-0,116
-518,145	-11,003	-0,030	-0,014
-517,131	325,138	0,031	0,042
-516,116	-17,929	-0,038	-0,017
-515,102	18,246	0,013	0,007
-514,087	-115,943	0,015	-0,002
-513,072	-200,000	0,021	-0,124
-512,058	-200,000	0,016	0,081
-511,043	148,470	0,149	0,145
-510,029	-36,224	0,083	-0,032
-509,014	268,547	0,107	0,135
-507,999	-120,591	-0,065	0,008
-506,985	-200,000	-0,037	-0,170
-505,970	-200,000	-0,001	0,058
-504,956	686,083	-0,080	-0,151
-503,941	621,597	-0,035	0,063
-502,926	-92,075	-0,079	0,016
-501,912	107,636	0,123	0,106
-500,897	-12,427	-0,096	0,045
-499,883	-98,284	0,110	-0,020
-498,868	-200,000	0,009	-0,121
-497,853	-137,792	-0,071	-0,006
-496,839	376,093	0,012	0,018
-495,824	571,745	-0,013	0,023
-494,810	-200,000	-0,011	0,083
-493,795	85,893	0,042	-0,033
-492,781	484,436	0,102	-0,169
-491,766	9,334	-0,095	0,052
-490,751	-200,000	-0,000	-0,044
-489,737	-61,884	-0,069	0,021
-488,722	800,000	-0,033	0,098
-487,708	-200,000	-0,022	-0,108
-486,693	325,185	-0,024	0,033
-485,678	64,205	0,062	-0,045
-484,664	-70,933	-0,102	-0,027
-483,649	603,007	-0,009	0,017
-482,635	11,920	-0,023	0,012
-481,620	299,574	0,036	0,047
-480,605	-123,377	0,104	-0,012
-479,591	247,382	0,044	-0,053
-478,576	123,376	-0,111	-0,101
-477,562	487,669	-0,028	0,046
-476,547	270,957	0,016	0,021
-475,532	439,199	0,074	-0,116
-474,518	60,990	0,108	0,077
-473,503	-104,454	-0,011	0,002
-472,489	271,295	0,044	0,056
-471,474	41,411	0,065	0,042
-470,459	129,150	-0,020	0,018
-469,445	800,000	-0,013	0,040
-468,430	-33,799	-0,085	-0,033
-467,416	-104,519	0,160	-0,026
-466,401	-84,904	0,097	-0,022
-465,386	336,707	-0,087	-0,123
-464,372	800,000	0,025	0,078
-463,357	49,134	-0,092	0,062
-462,343	395,725	-0,028	-0,043
-461,328	-200,000	-0,003	0,130
-460,313	-128,499	-0,072	-0,007
-459,299	-45,066	0,098	0,035
-458,284	129,848	-0,062	0,057
-457,270	800,000	0,021	0,051
-456,255	156,240	-0,116	0,116
-455,241	-200,000	-0,008	-0,029
-454,226	-200,000	-0,021	-0,073
-453,211	-34,039	-0,119	-0,047
-452,197	-200,000	-0,013	-0,060
-451,182	-200,000	0,014	0,083
-450,168	-24,885	0,062	-0,026
-449,153	-124,106	-0,073	0,008
-448,138	-200,000	-0,017	0,080
-447,124	-39,456	-0,080	-0,030
-446,109	165,061	0,088	0,089
-445,095	-95,548	0,147	-0,028
-444,080	205,163	-0,121	0,136
-443,065	-200,000	0,050	0,177
-442,051	800,000	0,007	-0,016
-441,036	47,126	-0,132	0,088
-440,022	-34,608	0,102	0,040
-439,007	-200,000	0,008	-0,122
-437,992	400,306	0,051	0,077
-436,978	800,000	0,020	-0,048
-435,963	119,270	-0,052	0,047
-434,949	-95,976	-0,046	-0,009
-433,934	-63,459	-0,098	-0,029
-432,919	-200,000	-0,010	-0,125
-431,905	248,012	0,059	-0,072
-430,890	19,799	0,051	-0,030
-429,876	-87,974	0,032	0,007
-428,861	-108,116	-0,128	0,020
-427,846	-136,648	-0,069	0,006
-426,832	800,000	0,053	-0,118
-425,817	-200,000	-0,012	-0,148
-424,803	181,895	0,019	0,020
-423,788	800,000	-0,001	-0,002
-422,773	241,146	-0,069	0,083
-421,759	52,268	0,078	0,054
-420,744	-200,000	-0,002	-0,039
-419,730	23,596	-0,096	0,057
-418,715	472,272	0,060	-0,097
-417,701	114,027	-0,019	0,017
-416,686	-126,731	-0,147	-0,015
-415,671	-67,138	0,074	0,021
-414,657	74,681	0,075	0,056
-413,642	-113,512	0,036	-0,005
-412,628	-200,000	0,013	-0,050
-411,613	694,140	-0,073	-0,138
-410,598	-200,000	-0,036	-0,142
-409,584	800,000	-0,009	-0,020
-408,569	505,416	-0,028	-0,047
-407,555	571,871	0,055	0,096
-406,540	-200,000	-0,035	0,112
-405,525	96,368	-0,061	0,050
-404,511	-124,724	-0,063	-0,007
-403,496	254,236	0,011	-0,013
-402,482	429,333	0,079	-0,123
-401,467	168,215	0,024	0,024
-400,452	269,180	0,071	0,090
-399,438	-79,283	0,064	0,015
-398,423	800,000	-0,042	-0,110
-397,409	800,000	0,024	0,074
-396,394	-200,000	-0,002	0,052
-395,379	164,476	0,043	-0,043
-394,365	800,000	-0,054	0,164
-393,350	-200,000	-0,003	-0,048
-392,336	-52,453	0,069	0,023
-391,321	-200,000	0,009	-0,077
-390,306	-32,043	-0,160	0,064
-389,292	52,769	-0,084	0,058
-388,277	-160,422	0,020	0,001
-387,263	-43,628	0,116	-0,042
-386,248	-158,969	0,049	0,002
-385,233	-58,682	-0,076	0,023
-384,219	17,957	-0,049	-0,028
-383,204	800,000	-0,024	-0,069
-382,190	-57,087	0,067	-0,021
-381,175	-112,960	-0,041	-0,006
-380,160	524,305	0,035	0,059
-379,146	47,836	0,092	-0,061
-378,131	-195,017	-0,122	0,001
-377,117	-200,000	-0,010	-0,090
-376,102	4,135	0,031	-0,016
-375,088	800,000	-0,074	0,163
-374,073	76,047	-0,064	-0,049
-373,058	123,264	0,073	0,066
-372,044	-16,481	0,104	0,047
-371,029	-200,000	-0,039	0,148
-370,015	618,432	0,072	0,130
-369,000	-4,232	-0,080	-0,040
-367,985	800,000	0,038	-0,108
-366,971	116,406	0,070	0,062
-365,956	800,000	0,048	0,103
-364,942	800,000	0,060	0,152
-363,927	634,291	0,097	0,176
-362,912	-200,000	-0,025	0,172
-361,898	463,874	-0,073	-0,118
-360,883	800,000	0,056	-0,129
-359,869	-25,824	-0,103	0,043
-358,854	-25,761	-0,072	0,030
-357,839	-139,799	0,071	0,005
-356,825	-200,000	0,005	0,040
-355,810	83,938	-0,053	-0,042
-354,796	-200,000	0,018	-0,059
-353,781	-127,412	-0,007	0,001
-352,766	-200,000	0,000	-0,012
-351,752	-200,000	0,004	0,092
-350,737	-14,945	0,125	0,057
-349,723	154,207	0,094	0,093
-348,708	-124,930	-0,032	-0,004
-347,693	-136,384	0,074	0,006
-346,679	-43,431	0,028	-0,010
-345,664	-200,000	-0,011	-0,069
-344,650	193,298	0,037	-0,040
-343,635	152,191	0,066	-0,065
-342,620	167,676	-0,071	-0,072
-341,606	-200,000	-0,007	-0,031
-340,591	800,000	-0,041	-0,121
-339,577	173,194	0,057	-0,059
-338,562	-36,239	0,037	-0,014
-337,548	-200,000	-0,018	0,095
-336,533	-19,371	-0,038	-0,017
-335,518	263,392	0,050	-0,062
-334,504	-63,652	0,111	-0,032
-333,489	-200,000	-0,017	-0,064
-332,475	423,152	-0,040	0,062
-331,460	-200,000	-0,034	-0,152
-330,445	178,637	0,058	-0,061
-329,431	64,429	0,113	-0,081
-328,416	335,458	-0,014	-0,020
-327,402	-200,000	0,012	0,093
-326,387	-200,000	0,010	0,058
-325,372	443,326	-0,073	-0,115
-324,358	224,015	0,027	-0,032
-323,343	102,536	-0,042	0,035
-322,329	1,586	-0,145	-0,075
-321,314	103,494	0,066	0,056
-320,299	800,000	0,077	0,159
-319,285	-55,118	-0,019	0,006
-318,270	184,316	-0,049	0,051
-317,256	13,309	0,080	0,044
-316,241	5,083	0,089	0,047
-315,226	564,836	0,059	0,102
-314,212	-200,000	-0,002	0,022
-313,197	-82,503	0,075	0,017
-312,183	-200,000	-0,037	0,173
-311,168	800,000	0,020	-0,062
-310,153	-200,000	-0,058	-0,234
-309,139	800,000	0,016	0,042
-308,124	-45,929	0,084	-0,030
-307,110	-163,958	0,116	-0,004
-306,095	-200,000	-0,015	-0,054
-305,080	158,366	0,097	0,097
-304,066	800,000	0,041	-0,105
-303,051	177,983	-0,032	-0,033
-302,037	-200,000	-0,037	0,130
-301,022	391,505	-0,057	0,085
-300,008	-14,707	0,158	0,072
-298,993	-11,601	-0,059	-0,028
-297,978	323,806	-0,014	-0,019
-296,964	-112,588	-0,041	-0,006
-295,949	-50,933	-0,108	-0,036
-294,935	-200,000	0,002	-0,086
-293,920	370,087	-0,023	-0,033
-292,905	121,007	0,094	0,084
-291,891	457,555	0,085	-0,136
-290,876	-118,663	-0,037	0,005
-289,862	-79,771	0,047	0,011
-288,847	242,997	-0,079	-0,095
-287,832	359,916	-0,028	0,040
-286,818	-22,393	-0,099	-0,042
-285,803	252,197	0,087	-0,106
-284,789	-177,556	0,197	0,003
-283,774	204,557	-0,106	0,118
-282,759	-104,872	0,065	0,011
-281,745	47,080	-0,100	-0,066
-280,730	-200,000	0,000	-0,152
-279,716	15,020	-0,117	-0,065
-278,701	137,883	0,062	0,058
-277,686	-89,486	0,098	-0,020
-276,672	82,800	-0,045	0,035
-275,657	-72,136	0,063	-0,016
-274,643	26,921	-0,106	0,063
-273,628	-200,000	0,008	-0,081
-272,613	315,851	0,113	-0,152
-271,599	-200,000	0,017	-0,114
-270,584	-33,804	0,073	-0,029
-269,570	534,064	0,039	0,067
-268,555	214,989	0,045	-0,051
-267,540	-200,000	-0,019	0,088
-266,526	281,353	-0,045	0,057
-265,511	-200,000	0,009	0,061
-264,497	-154,734	0,091	0,004
-263,482	634,145	0,018	-0,033
-262,467	51,767	0,030	0,021
-261,453	-18,819	0,071	0,031
-260,438	190,597	-0,118	-0,127
-259,424	40,567	-0,124	-0,080
-258,409	-200,000	0,025	-0,160
-257,395	181,494	-0,049	-0,052
-256,380	800,000	0,067	0,182
-255,365	-200,000	-0,013	0,116
-254,351	151,995	-0,107	-0,104
-253,336	-167,706	-0,146	0,004
-252,322	-100,717	0,027	-0,005
-251,307	-41,447	-0,075	-0,027
-250,292	-41,103	-0,103	-0,038
-249,278	-76,175	0,077	-0,019
-248,263	171,007	0,024	0,025
-247,249	800,000	0,002	0,004
-246,234	552,985	-0,044	0,075
-245,219	-29,458	0,120	-0,049
-244,205	117,416	-0,030	0,026
-243,190	287,619	-0,063	-0,081
-242,176	-144,559	0,143	0,009
-241,161	167,106	-0,051	-0,052
-240,146	-68,080	0,227	0,063
-239,132	335,176	0,058	0,081
-238,117	530,099	-0,076	-0,128
-237,103	388,959	-0,114	-0,169
-236,088	800,000	-0,019	-0,044
-235,073	800,000	0,029	-0,072
-234,059	76,396	0,015	-0,012
-233,044	-119,051	-0,027	-0,003
-232,030	337,396	0,078	0,108
-231,015	800,000	-0,017	-0,045
-230,000	800,000	0,032	0,087
-228,986	225,365	0,084	0,097
-227,971	5,691	0,099	-0,052
-226,957	13,183	-0,040	0,022
-225,942	716,115	-0,050	0,095
-224,927	-109,728	-0,054	-0,008
-223,913	489,860	-0,066	-0,108
-222,898	-131,225	-0,097	-0,009
-221,884	755,195	-0,026	0,050
-220,869	800,000	-0,001	-0,003
-219,855	-7,664	0,125	0,060
-218,840	66,789	0,085	0,062
-217,825	-126,398	-0,148	0,016
-216,811	274,756	-0,015	-0,019
-215,796	-200,000	-0,019	-0,071
-214,782	135,433	0,037	0,034
-213,767	116,005	-0,086	0,075
-212,752	-200,000	0,007	0,029
-211,738	800,000	0,070	0,176
-210,723	274,854	-0,032	0,040
-209,709	90,159	0,066	0,053
-208,694	170,060	0,105	-0,107
-207,679	-200,000	0,042	-0,133
-206,665	189,951	-0,091	0,098
-205,650	-200,000	0,014	-0,080
-204,636	303,530	0,065	0,086
-203,621	306,676	-0,058	-0,077
-202,606	800,000	-0,035	0,076
-201,592	800,000	-0,056	0,168
-200,577	-104,246	-0,126	-0,021
-199,563	-104,131	0,059	-0,010
-198,548	800,000	0,025	0,073
-197,533	-33,625	0,076	0,030
-196,519	-200,000	0,016	-0,121
-195,504	-51,283	-0,108	-0,036
-194,490	-200,000	0,002	-0,149
-193,475	64,740	-0,116	-0,083
-192,460	-200,000	-0,006	-0,057
-191,446	385,465	-0,087	0,129
-190,431	-200,000	-0,002	0,236
-189,417	-200,000	0,000	0,022
-188,402	-136,288	-0,088	-0,007
-187,387	413,350	-0,072	-0,109
-186,373	-200,000	-0,030	-0,157
-185,358	750,322	-0,042	0,080
-184,344	-181,115	0,129	-0,002
-183,329	134,903	-0,062	0,057
-182,315	-133,862	-0,048	0,004
-181,300	-35,719	-0,091	-0,035
-180,285	800,000	0,051	-0,107
-179,271	233,893	0,029	0,034
-178,256	-19,202	0,091	0,040
-177,242	93,133	0,024	0,019
-176,227	-118,171	0,257	-0,032
-175,212	113,031	0,032	-0,028
-174,198	-200,000	0,010	0,050
-173,183	544,363	0,039	-0,066
-172,169	288,683	0,039	-0,050
-171,154	-200,000	0,035	-0,162
-170,139	26,880	0,131	-0,078
-169,125	-50,800	0,031	0,010
-168,110	6,129	0,066	0,035
-167,096	-97,961	0,053	-0,010
-166,081	-200,000	0,001	-0,004
-165,066	-200,000	0,025	-0,101
-164,052	744,744	0,034	-0,066
-163,037	325,732	0,075	0,102
-162,023	103,820	0,009	0,008
-161,008	184,543	-0,025	-0,027
-159,993	-200,000	0,003	-0,019
-158,979	41,948	-0,022	0,014
-157,964	476,326	-0,087	-0,141
-156,950	800,000	-0,043	-0,093
-155,935	800,000	0,050	0,134
-154,920	800,000	-0,021	0,049
-153,906	800,000	0,091	0,198
-152,891	429,375	-0,038	-0,059
-151,877	57,704	-0,114	-0,079
-150,862	-200,000	-0,008	0,029
-149,847	207,359	0,041	-0,046
-148,833	267,469	-0,105	0,131
-147,818	-200,000	-0,029	0,174
-146,804	800,000	-0,051	0,106
-145,789	-200,000	-0,009	0,088
-144,775	126,464	-0,059	0,053
-143,760	-200,000	0,005	-0,157
-142,745	-42,233	0,112	0,040
-141,731	-84,593	-0,022	-0,005
-140,716	-41,767	0,045	0,016
-139,702	116,820	0,040	0,035
-138,687	-57,255	0,047	0,015
-137,672	-79,446	-0,079	-0,019
-136,658	-200,000	-0,008	0,075
-135,643	800,000	-0,081	-0,223
-134,629	-12,089	-0,119	-0,055
-133,614	34,640	0,184	0,114
-132,599	77,971	0,142	0,107
-131,585	-200,000	0,011	0,105
-130,570	-200,000	-0,014	-0,048
-129,556	-60,712	-0,138	-0,041
-128,541	797,975	0,008	0,016
-127,526	-200,000	0,036	-0,155
-126,512	-77,451	-0,119	0,029
-125,497	5,244	0,048	0,025
-124,483	-108,198	0,077	0,012
-123,468	-200,000	-0,029	0,098
-122,453	-200,000	0,014	-0,105
-121,439	-106,419	-0,128	-0,020
-120,424	308,040	0,024	0,032
-119,410	800,000	-0,066	-0,178
-118,395	13,215	0,011	-0,006
-117,380	-68,539	0,129	0,035
-116,366	-200,000	-0,003	-0,041
-115,351	3,169	-0,066	-0,034
-114,337	485,618	-0,070	-0,114
-113,322	-200,000	0,006	0,097
-112,307	-200,000	-0,021	0,104
-111,293	542,599	0,075	0,127
-110,278	-72,714	-0,113	0,029
-109,264	800,000	0,030	0,088
-108,249	-44,189	-0,097	-0,034
-107,234	160,586	-0,115	-0,113
-106,220	-53,011	-0,168	-0,055
-105,205	-128,367	0,106	0,011
-104,191	-200,000	-0,013	0,102
-103,176	-86,198	0,117	-0,025
-102,162	-14,516	0,128	0,058
-101,147	-120,847	0,062	-0,007
-100,132	-6,795	-0,112	-0,054
-99,118	9,075	-0,194	-0,103
-98,103	9,678	0,098	0,053
-97,089	32,895	0,161	0,099
-96,074	-12,511	-0,089	-0,041
-95,059	-200,000	0,049	0,153
-94,045	-148,269	-0,116	-0,007
-93,030	-47,656	-0,104	-0,035
-92,016	19,352	0,028	-0,016
-91,001	800,000	0,050	-0,098
-89,986	-200,000	-0,022	0,152
-88,972	217,904	-0,049	0,056
-87,957	-80,755	0,054	0,013
-86,943	-200,000	0,035	-0,120
-85,928	692,346	-0,018	0,034
-84,913	-194,647	0,050	-0,000
-83,899	31,755	-0,118	-0,072
-82,884	-52,857	0,115	0,037
-81,870	150,377	0,095	-0,091
-80,855	-115,179	0,140	0,019
-79,840	-49,407	0,096	-0,032
-78,826	15,229	-0,120	0,066
-77,811	145,828	-0,113	-0,108
-76,797	-30,010	0,095	-0,038
-75,782	-95,404	0,043	0,008
-74,767	-26,997	0,129	0,053
-73,753	480,661	0,063	0,102
-72,738	32,855	0,086	-0,053
-71,724	-113,879	0,130	0,018
-70,709	174,735	-0,146	0,150
-69,694	-5,434	-0,078	0,038
-68,680	-166,744	-0,009	-0,000
-67,665	163,041	-0,079	0,078
-66,651	-200,000	-0,014	0,074
-65,636	537,645	-0,057	-0,097
-64,622	-7,395	-0,081	-0,039
-63,607	-200,000	0,022	-0,104
-62,592	167,502	0,060	-0,060
-61,578	800,000	0,058	-0,128
-60,563	-77,150	0,056	0,014
-59,549	238,631	-0,096	0,113
-58,534	0,639	-1,449	-0,732
-57,519	294,588	-1,529	-1,983
-56,505	-200,000	-0,537	-4,577
-55,490	228,960	0,846	0,979
-54,476	800,000	5,057	11,617
-53,461	-200,000	19,224	320,209
-52,446	-200,000	740,670	2334,169
-51,432	573,052	1655,505	2867,882
-50,417	78,264	1671,197	1261,581
-49,403	21,287	1544,297	885,563
-48,388	15,162	1466,622	811,233
-47,373	17,946	1456,850	819,252
-46,359	16,721	1446,459	807,503
-45,344	13,412	1442,123	789,199
-44,330	13,346	1439,996	787,690
-43,315	13,319	1438,450	786,680
-42,300	13,339	1436,700	785,789
-41,286	13,360	1435,621	785,267
-40,271	13,364	1434,130	784,441
-39,257	13,314	1432,815	783,452
-38,242	13,411	1431,678	783,261
-37,227	13,376	1430,347	782,335
-36,213	13,394	1428,820	781,553
-35,198	13,399	1427,791	780,984
-34,184	13,391	1426,998	780,480
-33,169	13,338	1425,750	779,518
-32,154	13,404	1424,478	779,101
-31,140	13,425	1423,232	778,491
-30,125	13,424	1422,207	777,896
-29,111	13,416	1420,997	777,163
-28,096	13,415	1419,933	776,545
-27,082	13,330	1418,845	775,517
-26,067	13,342	1417,601	774,866
-25,052	13,313	1416,740	774,229
-24,038	13,284	1415,709	773,498
-23,023	13,281	1414,674	772,887
-22,009	13,309	1413,495	772,341
-20,994	13,256	1412,734	771,648
-19,979	13,238	1411,890	771,072
-18,965	13,262	1410,994	770,664
-17,950	13,276	1409,882	770,091
-16,936	13,259	1408,954	769,477
-15,921	13,263	1407,997	768,939
-14,906	13,237	1406,990	768,239
-13,892	13,273	1406,030	767,853
-12,877	13,222	1405,240	767,152
-11,863	13,235	1404,416	766,733
-10,848	13,244	1403,403	766,190
-9,833	13,170	1402,676	765,420
-8,819	13,180	1401,776	764,945
-7,804	13,122	1400,946	764,192
-6,790	13,087	1399,924	763,438
-5,775	13,131	1398,817	763,008
-4,760	13,142	1397,910	762,538
-3,746	13,169	1396,889	762,074
-2,731	13,108	1396,197	761,382
-1,717	13,106	1395,170	760,783
-0,702	13,104	1393,336	759,742
0,313	16,967	1310,214	732,308
1,327	33,122	703,993	430,822
2,342	51,409	123,308	82,711
3,356	0,438	16,687	8,403
4,371	11,494	3,231	1,747
5,386	-20,978	0,699	0,302
6,400	687,868	0,119	0,222
7,415	71,047	-0,139	-0,102
8,429	62,108	-0,375	-0,264
9,444	26,718	-0,414	-0,244
10,459	-16,482	-0,359	-0,160
11,473	52,288	-0,218	-0,146
12,488	202,243	-0,182	-0,199
13,502	-63,853	-0,458	-0,132
14,517	163,908	-0,290	-0,289
15,531	63,795	-0,365	-0,259
16,546	73,675	-0,332	-0,245
17,561	79,555	-0,233	-0,176
18,575	-94,130	-0,316	-0,061
19,590	66,152	-0,258	-0,185
20,604	41,293	-0,230	-0,146
21,619	137,942	-0,374	-0,346
22,634	84,957	-0,492	-0,380
23,648	46,205	-0,490	-0,320
24,663	113,350	-0,355	-0,304
25,677	409,918	-0,212	-0,318
26,692	36,138	-0,326	-0,202
27,707	143,353	-0,242	-0,227
28,721	9,498	-0,477	-0,254
29,736	-78,377	-0,475	-0,114
30,750	24,318	-0,493	-0,287
31,765	38,692	-0,415	-0,261
32,780	106,497	-0,318	-0,266
33,794	3,551	-0,411	-0,211
34,809	97,925	-0,438	-0,355
35,823	19,669	-0,429	-0,243
36,838	75,948	-0,378	-0,282
37,853	83,664	-0,354	-0,272
38,867	46,534	-0,401	-0,262
39,882	225,712	-0,361	-0,413
40,896	7,695	-0,341	-0,179
41,911	29,876	-0,353	-0,212
42,926	-70,663	-0,287	-0,076
43,940	86,584	-0,424	-0,330
44,955	145,439	-0,328	-0,309
45,969	47,757	-0,354	-0,233
46,984	-55,592	-0,303	-0,095
47,999	-26,516	-0,337	-0,138
49,013	-39,047	-0,393	-0,145
50,028	-32,383	-0,403	-0,158
51,042	110,745	-0,320	-0,271
52,057	37,069	-0,478	-0,297
53,071	215,444	-0,285	-0,319
54,086	178,502	-0,202	-0,208
55,101	-32,996	-0,327	-0,127
56,115	54,312	-0,280	-0,190
57,130	35,891	-0,252	-0,156
58,144	70,483	-0,405	-0,294
59,159	108,257	-0,366	-0,308
60,174	63,601	-0,317	-0,224
61,188	162,669	-0,294	-0,291
62,203	153,928	-0,290	-0,280
63,217	45,130	-0,362	-0,235
64,232	-35,334	-0,406	-0,155
65,247	26,363	-0,273	-0,160
66,261	-22,263	-0,455	-0,193
67,276	5,365	-0,357	-0,184
68,290	-184,189	-0,400	0,005
69,305	70,588	-0,316	-0,229
70,320	-34,314	-0,361	-0,138
71,334	-11,452	-0,363	-0,167
72,349	13,672	-0,298	-0,162
73,363	53,451	-0,291	-0,196
74,378	232,215	-0,226	-0,261
75,393	4,966	-0,266	-0,137
76,407	-89,613	-0,330	-0,067
77,422	-14,142	-0,272	-0,123
78,436	51,654	-0,362	-0,241
79,451	-35,785	-0,171	-0,065
80,466	117,125	-0,308	-0,266
81,480	319,628	-0,308	-0,412
82,495	83,733	-0,289	-0,221
83,509	-133,658	-0,377	-0,033
84,524	-38,625	-0,325	-0,120
85,539	-82,212	-0,227	-0,051
86,553	109,996	-0,318	-0,267
87,568	37,822	-0,377	-0,235
88,582	-21,986	-0,270	-0,114
89,597	51,616	-0,274	-0,183
90,611	9,251	-0,146	-0,077
91,626	-33,492	-0,457	-0,176
92,641	456,763	-0,122	-0,190
93,655	13,800	-0,279	-0,152
94,670	25,198	-0,429	-0,249
95,684	81,358	-0,309	-0,234
96,699	88,124	-0,275	-0,214
97,714	220,095	-0,203	-0,228
98,728	75,149	-0,231	-0,171
99,743	-66,180	-0,182	-0,051
100,757	-36,124	-0,346	-0,130
101,772	0,272	-0,289	-0,144
102,787	24,453	-0,302	-0,174
103,801	12,661	-0,373	-0,201
104,816	-27,122	-0,269	-0,109
105,830	-45,725	-0,260	-0,090
106,845	153,246	-0,210	-0,202
107,860	49,572	-0,269	-0,177
108,874	5,017	-0,372	-0,191
109,889	111,230	-0,316	-0,266
110,903	382,761	-0,182	-0,262
111,918	145,305	-0,233	-0,219
112,933	74,317	-0,280	-0,206
113,947	131,394	-0,249	-0,224
114,962	-23,270	-0,187	-0,079
115,976	-56,245	-0,351	-0,109
116,991	21,779	-0,314	-0,179
118,006	109,975	-0,312	-0,262
119,020	164,937	-0,141	-0,139
120,035	75,416	-0,304	-0,224
121,049	-120,148	-0,233	-0,028
122,064	-0,493	-0,211	-0,104
123,079	-102,132	-0,219	-0,037
124,093	-10,414	-0,303	-0,140
125,108	120,062	-0,187	-0,163
126,122	566,502	-0,151	-0,258
127,137	-14,422	-0,298	-0,134
128,151	-27,531	-0,220	-0,089
129,166	-82,748	-0,282	-0,063
130,181	66,255	-0,235	-0,166
131,195	45,266	-0,412	-0,265
132,210	157,535	-0,255	-0,247
133,224	312,946	-0,126	-0,166
134,239	17,380	-0,272	-0,151
135,254	59,283	-0,194	-0,134
136,268	-81,659	-0,198	-0,045
137,283	-33,558	-0,245	-0,094
138,297	138,986	-0,247	-0,227
139,312	136,939	-0,320	-0,292
140,327	-61,109	-0,277	-0,081
141,341	237,239	-0,210	-0,244
142,356	118,226	-0,195	-0,168
143,370	204,244	-0,181	-0,196
144,385	156,535	-0,261	-0,252
145,400	45,240	-0,208	-0,134
146,414	93,497	-0,307	-0,242
147,429	6,862	-0,281	-0,146
148,443	10,652	-0,224	-0,119
149,458	158,452	-0,164	-0,160
150,473	-61,983	-0,279	-0,081
151,487	29,118	-0,248	-0,147
152,502	171,377	-0,246	-0,246
153,516	227,480	-0,232	-0,264
154,531	800,000	-0,104	-0,312
155,546	-17,636	-0,250	-0,109
156,560	-113,473	-0,246	-0,033
157,575	334,117	-0,147	-0,199
158,589	-53,968	-0,254	-0,080
159,604	224,707	-0,247	-0,279
160,619	170,200	-0,297	-0,297
161,633	99,204	-0,246	-0,198
162,648	204,665	-0,219	-0,237
163,662	47,687	-0,365	-0,237
164,677	283,463	-0,115	-0,145
165,692	43,167	-0,234	-0,149
166,706	139,202	-0,208	-0,191
167,721	83,613	-0,345	-0,262
168,735	36,941	-0,237	-0,146
169,750	-60,843	-0,342	-0,100
170,764	-8,214	-0,305	-0,143
171,779	-66,271	-0,156	-0,043
172,794	29,088	-0,346	-0,204
173,808	-48,726	-0,310	-0,103
174,823	215,853	-0,216	-0,240
175,837	-8,534	-0,339	-0,158
176,852	58,331	-0,226	-0,154
177,867	146,484	-0,283	-0,265
178,881	436,131	-0,163	-0,248
179,896	-78,604	-0,213	-0,050
180,910	69,425	-0,255	-0,183
181,925	35,820	-0,229	-0,140
182,940	552,673	-0,204	-0,343
183,954	112,268	-0,201	-0,169
184,969	95,250	-0,195	-0,154
185,983	-136,114	-0,286	-0,023
186,998	80,330	-0,251	-0,188
188,013	112,027	-0,102	-0,086
189,027	124,285	-0,262	-0,229
190,042	74,183	-0,177	-0,129
191,056	221,870	-0,204	-0,229
192,071	28,660	-0,194	-0,114
193,086	-53,428	-0,190	-0,060
194,100	-39,698	-0,191	-0,069
195,115	178,250	-0,146	-0,148
196,129	800,000	-0,098	-0,281
197,144	148,805	-0,244	-0,230
198,159	59,080	-0,159	-0,109
199,173	203,291	-0,093	-0,100
200,188	146,776	-0,197	-0,184
201,202	-39,900	-0,130	-0,047
202,217	67,274	-0,205	-0,145
203,232	800,000	-0,044	-0,111
204,246	-22,914	-0,272	-0,114
205,261	147,122	-0,147	-0,137
206,275	124,938	-0,205	-0,179
207,290	-13,221	-0,366	-0,164
208,304	147,868	-0,100	-0,094
209,319	584,165	-0,226	-0,387
210,334	73,095	-0,144	-0,104
211,348	85,917	-0,198	-0,151
212,363	30,422	-0,307	-0,182
213,377	398,177	-0,118	-0,172
214,392	-78,229	-0,166	0,039
215,407	-131,209	-0,259	0,024
216,421	-3,692	-0,164	-0,079
217,436	772,194	-0,093	-0,177
218,450	-200,000	-0,030	-0,273
219,465	17,662	-0,419	-0,231
220,480	174,944	-0,160	-0,161
221,494	356,421	-0,113	-0,157
222,509	-8,068	-0,140	-0,065
223,523	20,946	-0,169	-0,095
224,538	41,669	-0,147	-0,092
225,553	153,962	-0,138	-0,132
226,567	14,534	-0,206	-0,111
227,582	16,083	-0,238	-0,130
228,596	159,964	-0,149	-0,144
229,611	140,889	-0,090	-0,083
230,626	484,191	-0,171	-0,271
231,640	22,615	-0,187	-0,106
232,655	55,053	-0,073	-0,048
233,669	219,354	-0,159	-0,176
234,684	35,073	-0,259	-0,157
235,699	-93,810	-0,135	-0,026
236,713	-191,680	-0,211	0,001
237,728	3,032	-0,165	0,083
238,742	-82,299	-0,172	-0,039
239,757	80,114	-0,212	-0,158
240,772	156,004	-0,120	-0,115
241,786	209,763	-0,204	-0,222
242,801	70,746	-0,117	-0,084
243,815	-18,494	-0,173	-0,075
244,830	84,117	-0,138	-0,104
245,844	800,000	-0,120	-0,293
246,859	183,362	-0,242	-0,248
247,874	25,565	-0,221	-0,127
248,888	-28,011	-0,202	-0,081
249,903	31,628	-0,159	-0,095
250,917	-166,044	-0,213	-0,006
251,932	800,000	-0,112	-0,245
252,947	316,588	-0,154	-0,202
253,961	35,747	-0,122	-0,074
254,976	21,086	-0,230	-0,129
255,990	155,050	-0,147	-0,140
257,005	595,525	-0,084	-0,145
258,020	70,873	-0,138	0,099
259,034	-92,815	-0,154	0,029
260,049	163,660	-0,151	-0,147
261,063	72,920	-0,121	-0,088
262,078	-200,000	-0,042	-0,355
263,093	104,735	-0,178	-0,145
264,107	150,302	-0,156	-0,146
265,122	121,785	-0,145	-0,125
266,136	800,000	-0,043	-0,095
267,151	211,205	-0,137	-0,150
268,166	-38,286	-0,248	-0,090
269,180	-22,090	-0,271	-0,113
270,195	-43,396	-0,103	-0,036
271,209	800,000	-0,062	-0,125
272,224	-35,451	-0,130	-0,049
273,239	190,219	-0,186	-0,193
274,253	175,337	-0,181	-0,182
275,268	92,799	-0,182	-0,142
276,282	365,800	-0,152	-0,212
277,297	60,840	-0,202	-0,138
278,312	119,386	-0,148	-0,127
279,326	-200,000	-0,030	-0,122
280,341	47,479	-0,116	-0,074
281,355	56,687	-0,256	-0,171
282,370	800,000	-0,122	-0,241
283,384	55,603	-0,172	-0,115
284,399	-164,510	-0,230	0,007
285,414	522,900	-0,128	-0,209
286,428	72,680	-0,195	-0,141
287,443	-12,784	-0,291	-0,130
288,457	800,000	-0,062	-0,131
289,472	4,336	-0,163	-0,082
290,487	-117,750	-0,192	-0,024
291,501	214,738	-0,160	-0,175
292,516	471,394	-0,124	-0,193
293,530	177,263	-0,185	-0,186
294,545	-34,538	-0,082	-0,031
295,560	800,000	-0,068	-0,133
296,574	209,667	-0,130	-0,140
297,589	414,556	-0,129	-0,190
298,603	-46,294	-0,310	-0,104
299,618	-116,134	-0,250	-0,032
300,633	598,456	-0,101	-0,173
301,647	-90,044	-0,110	-0,022
302,662	58,585	-0,119	-0,080
303,676	-14,133	-0,114	-0,051
304,691	42,217	-0,192	-0,120
305,706	40,849	-0,184	-0,114
306,720	-151,022	-0,215	-0,011
307,735	-200,000	0,002	-0,066
308,749	-9,598	-0,157	-0,072
309,764	800,000	-0,066	-0,142
310,779	-97,346	-0,233	-0,041
311,793	86,628	-0,240	-0,182
312,808	102,172	-0,100	-0,080
313,822	198,209	-0,145	-0,153
314,837	-200,000	-0,016	-0,062
315,852	275,891	-0,124	-0,152
316,866	65,906	-0,116	0,081
317,881	91,147	-0,215	-0,166
318,895	62,890	-0,174	-0,120
319,910	-200,000	-0,008	-0,104
320,925	496,197	-0,109	-0,173
321,939	744,444	-0,024	-0,044
322,954	-200,000	-0,006	-0,154
323,968	-38,077	-0,218	-0,079
324,983	205,861	-0,162	-0,174
325,997	-200,000	-0,049	-0,154
327,012	90,192	-0,224	-0,172
328,027	349,513	-0,104	-0,141
329,041	86,846	-0,122	0,093
330,056	-49,494	-0,195	-0,063
331,070	113,461	-0,184	-0,154
332,085	800,000	-0,065	-0,137
333,100	-113,410	-0,117	0,016
334,114	135,417	-0,160	-0,143
335,129	-101,471	-0,268	-0,044
336,143	-164,178	-0,142	-0,004
337,158	181,461	-0,093	-0,094
338,173	446,216	-0,088	-0,133
339,187	160,192	-0,035	-0,033
340,202	624,769	-0,046	-0,079
341,216	-46,285	-0,125	-0,042
342,231	-79,618	-0,092	-0,021
343,246	146,631	-0,089	-0,082
344,260	-200,000	-0,143	-0,000
345,275	105,029	-0,244	-0,197
346,289	800,000	-0,067	-0,149
347,304	256,054	-0,160	-0,189
348,319	85,241	-0,088	0,066
349,333	-27,410	-0,200	0,080
350,348	395,097	-0,155	-0,223
351,362	-176,144	-0,217	-0,004
352,377	-41,843	-0,226	-0,079
353,392	800,000	-0,086	-0,181
354,406	62,346	-0,158	-0,108
355,421	208,253	1314,169	1410,481
356,435	160,229	1474,836	1410,969
