DTS Sentinel unit serial number:	SN410029Multiplexer serial number:	ORYXHardware model number:	OX2-SRSoftware version number:	ORYX F/W v4,00 Oryx Data Collector v3.7.2.0data status	okinstallation	B3 Nyhavnadifferential loss correction	single-endedforward channel	channel 1reverse channel	N/Adate	2023/12/03time	12:57:30forward acquisition time	300,00reverse acquisition time	0,00gamma	499,1914k internal	0,3201k external	0,3201temperature offset calibration	1,0000default loss term (dB/km)	0,3820temperature slope calibration	1,0000multiplexer offset coefficient	1,0000multiplexer slope coefficient	1,0000fibre end	0,00T internal ref (°C)	14,53T ext. ref 1 (°C)	0,76T ext. ref 2 (°C)	0,75length (m)	temperature (°C)	Stokes	anti-Stokes-744,400	342,789	-0,095	-0,135
-743,385	-200,000	-0,055	0,289
-742,371	328,764	-0,215	-0,302
-741,356	800,000	0,133	0,377
-740,342	3,307	-0,278	-0,147
-739,327	-200,000	-0,060	0,380
-738,312	143,102	-0,232	-0,225
-737,298	-200,000	-0,077	0,316
-736,283	188,374	-0,241	-0,263
-735,269	-200,000	-0,022	0,409
-734,254	205,541	-0,227	-0,256
-733,239	49,887	-0,199	0,136
-732,225	800,000	-0,098	-0,241
-731,210	448,459	0,044	-0,071
-730,196	-200,000	0,002	0,122
-729,181	-60,056	-0,075	-0,023
-728,167	800,000	-0,018	0,043
-727,152	-44,059	-0,125	-0,045
-726,137	-175,686	0,022	0,000
-725,123	-153,571	0,044	-0,002
-724,108	800,000	-0,025	-0,060
-723,094	103,202	-0,069	-0,059
-722,079	800,000	-0,089	-0,179
-721,064	-200,000	-0,002	-0,145
-720,050	-200,000	0,005	-0,128
-719,035	109,564	-0,113	-0,098
-718,021	-200,000	-0,035	-0,202
-717,006	485,028	-0,080	-0,133
-715,991	-200,000	-0,026	-0,186
-714,977	-200,000	-0,029	-0,162
-713,962	-200,000	0,003	0,019
-712,948	-58,897	-0,043	0,013
-711,933	199,124	-0,034	0,038
-710,918	-49,461	0,050	-0,017
-709,904	110,780	-0,016	0,014
-708,889	45,349	-0,117	-0,078
-707,875	671,785	0,076	-0,143
-706,860	67,485	-0,048	-0,035
-705,845	55,828	0,080	-0,056
-704,831	-200,000	-0,007	0,107
-703,816	-200,000	0,020	-0,076
-702,802	85,663	-0,059	-0,047
-701,787	204,400	-0,099	-0,112
-700,772	272,179	-0,068	0,087
-699,758	-184,136	0,139	-0,002
-698,743	312,719	-0,040	-0,055
-697,729	-200,000	-0,009	0,068
-696,714	49,599	0,101	-0,069
-695,699	-38,781	-0,041	-0,016
-694,685	-200,000	-0,007	-0,074
-693,670	-38,619	-0,057	0,022
-692,656	-72,098	-0,051	-0,014
-691,641	694,328	0,063	0,120
-690,627	800,000	0,053	0,147
-689,612	234,094	0,108	0,129
-688,597	83,502	0,055	0,043
-687,583	-200,000	-0,019	-0,125
-686,568	276,913	-0,098	-0,127
-685,554	-200,000	0,014	-0,120
-684,539	-124,847	-0,011	-0,001
-683,524	164,339	-0,099	-0,101
-682,510	800,000	0,063	0,131
-681,495	209,011	-0,047	-0,053
-680,481	43,377	-0,084	0,055
-679,466	131,475	-0,084	-0,079
-678,451	7,558	-0,074	-0,040
-677,437	-72,153	-0,166	-0,044
-676,422	-135,488	0,071	-0,006
-675,408	800,000	-0,049	-0,144
-674,393	-88,787	0,114	-0,024
-673,378	131,451	-0,096	0,089
-672,364	-200,000	-0,005	-0,033
-671,349	800,000	-0,052	-0,158
-670,335	-200,000	0,037	-0,153
-669,320	156,439	0,098	0,098
-668,305	425,296	0,018	0,028
-667,291	-43,703	0,067	-0,024
-666,276	-21,121	-0,164	-0,072
-665,262	297,379	-0,056	-0,075
-664,247	85,999	0,084	0,067
-663,232	-200,000	-0,010	0,115
-662,218	-80,077	0,150	0,036
-661,203	555,609	0,021	0,037
-660,189	-7,036	-0,017	0,008
-659,174	30,400	-0,134	-0,083
-658,159	-200,000	0,014	-0,123
-657,145	800,000	-0,070	-0,199
-656,130	638,657	0,027	0,051
-655,116	-95,292	-0,106	-0,021
-654,101	800,000	0,048	-0,099
-653,086	110,913	-0,022	-0,019
-652,072	800,000	-0,015	0,035
-651,057	-146,447	-0,217	-0,014
-650,043	-104,421	0,073	0,012
-649,028	-200,000	-0,003	-0,120
-648,014	800,000	-0,050	-0,140
-646,999	800,000	0,024	-0,054
-645,984	-200,000	-0,003	0,100
-644,970	-29,404	0,025	0,010
-643,955	797,377	-0,061	-0,122
-642,941	653,209	0,023	-0,043
-641,926	111,820	0,032	-0,028
-640,911	251,732	0,030	0,038
-639,897	-200,000	0,003	-0,070
-638,882	-164,433	0,083	0,003
-637,868	-200,000	0,017	-0,080
-636,853	748,377	0,042	0,082
-635,838	-200,000	-0,026	-0,104
-634,824	-38,450	-0,093	0,035
-633,809	-50,280	0,083	0,028
-632,795	800,000	0,048	0,151
-631,780	649,306	-0,060	0,111
-630,765	800,000	-0,023	-0,058
-629,751	-88,780	0,077	-0,016
-628,736	-200,000	-0,008	0,090
-627,722	398,909	-0,043	-0,066
-626,707	800,000	0,028	-0,087
-625,692	-200,000	0,039	0,158
-624,678	338,641	0,032	0,045
-623,663	-8,700	-0,083	-0,040
-622,649	-23,837	-0,151	-0,065
-621,634	-83,441	0,078	-0,018
-620,619	2,864	0,096	0,051
-619,605	90,676	-0,063	0,051
-618,590	-61,768	0,107	-0,032
-617,576	-107,571	0,054	-0,008
-616,561	800,000	-0,063	-0,154
-615,546	-101,115	-0,048	0,008
-614,532	-200,000	0,014	-0,075
-613,517	34,562	0,044	0,028
-612,503	800,000	0,031	0,086
-611,488	-74,136	-0,083	-0,022
-610,474	-164,842	-0,062	-0,002
-609,459	13,816	-0,055	0,031
-608,444	-200,000	0,042	-0,143
-607,430	20,647	-0,168	-0,098
-606,415	229,725	-0,017	-0,021
-605,401	-200,000	-0,005	0,049
-604,386	45,516	-0,056	-0,037
-603,371	-200,000	-0,009	0,031
-602,357	478,819	0,035	0,058
-601,342	-42,550	0,020	-0,007
-600,328	-200,000	-0,006	-0,129
-599,313	800,000	0,078	-0,209
-598,298	-64,662	-0,113	0,033
-597,284	589,459	0,042	-0,075
-596,269	328,316	-0,053	0,073
-595,255	800,000	-0,019	-0,057
-594,240	-200,000	0,007	0,032
-593,225	83,299	-0,090	-0,071
-592,211	45,855	0,111	-0,074
-591,196	167,952	0,022	0,023
-590,182	117,169	0,049	0,043
-589,167	-200,000	0,015	0,095
-588,152	189,820	-0,038	0,041
-587,138	-164,055	-0,083	-0,003
-586,123	-200,000	-0,023	-0,183
-585,109	800,000	-0,016	-0,042
-584,094	-113,555	-0,063	0,009
-583,079	112,345	0,102	0,089
-582,065	95,998	0,082	0,068
-581,050	3,577	-0,049	0,026
-580,036	96,242	0,111	0,092
-579,021	-200,000	0,026	0,130
-578,006	-43,735	-0,052	-0,019
-576,992	800,000	0,069	-0,170
-575,977	-72,365	0,077	-0,020
-574,963	-72,481	0,025	0,007
-573,948	104,670	0,059	-0,050
-572,934	2,326	-0,037	-0,019
-571,919	-200,000	-0,010	-0,045
-570,904	-0,005	0,007	0,004
-569,890	491,805	0,057	-0,094
-568,875	-200,000	-0,067	0,000
-567,861	800,000	-0,007	-0,023
-566,846	175,728	-0,005	0,005
-565,831	-115,791	-0,044	0,006
-564,817	-200,000	-0,004	-0,073
-563,802	-19,284	-0,076	-0,034
-562,788	-200,000	0,000	-0,118
-561,773	141,481	-0,026	-0,025
-560,758	163,036	0,064	0,065
-559,744	-144,391	-0,031	-0,002
-558,729	-200,000	0,018	0,120
-557,715	-113,524	-0,043	-0,006
-556,700	202,761	-0,057	-0,064
-555,685	-200,000	0,011	-0,056
-554,671	-200,000	0,037	-0,119
-553,656	68,040	-0,137	0,101
-552,642	-200,000	-0,006	0,070
-551,627	800,000	-0,054	-0,116
-550,612	-15,577	0,123	-0,057
-549,598	227,475	-0,152	-0,179
-548,583	77,785	-0,124	-0,095
-547,569	-96,609	0,047	0,009
-546,554	-200,000	-0,007	0,030
-545,539	448,899	-0,084	0,135
-544,525	442,429	0,018	0,029
-543,510	619,010	-0,010	-0,019
-542,496	-177,526	0,109	-0,002
-541,481	264,061	-0,039	0,049
-540,466	-0,017	-0,028	-0,014
-539,452	-112,043	0,081	-0,012
-538,437	602,359	0,047	0,085
-537,423	-130,262	0,117	0,011
-536,408	72,094	0,036	-0,027
-535,393	4,172	-0,132	-0,069
-534,379	478,069	0,031	0,051
-533,364	800,000	0,041	-0,114
-532,350	-200,000	0,031	-0,201
-531,335	523,574	0,026	0,045
-530,321	159,702	-0,065	-0,065
-529,306	-51,246	-0,134	0,045
-528,291	40,653	-0,090	-0,058
-527,277	62,374	0,055	0,039
-526,262	800,000	0,045	0,107
-525,248	-81,338	-0,061	-0,014
-524,233	527,117	-0,057	0,097
-523,218	-174,235	0,201	-0,004
-522,204	42,673	-0,084	0,055
-521,189	-200,000	0,013	-0,129
-520,175	3,954	0,170	-0,089
-519,160	-48,877	-0,059	0,020
-518,145	122,415	-0,075	-0,068
-517,131	-200,000	0,008	0,121
-516,116	61,672	-0,110	-0,079
-515,102	-200,000	0,023	-0,189
-514,087	-200,000	-0,009	-0,037
-513,072	-200,000	0,021	0,067
-512,058	-79,697	-0,102	-0,025
-511,043	-118,904	-0,069	-0,009
-510,029	-200,000	-0,010	0,032
-509,014	-122,904	0,095	-0,011
-507,999	-143,511	-0,108	0,007
-506,985	-200,000	-0,003	0,054
-505,970	-78,446	0,059	0,014
-504,956	-62,563	0,015	-0,004
-503,941	-23,165	-0,065	0,028
-502,926	228,766	0,112	0,132
-501,912	-36,314	0,046	0,018
-500,897	131,441	0,084	0,078
-499,883	363,136	0,118	0,172
-498,868	-14,600	-0,073	-0,034
-497,853	39,038	-0,087	-0,056
-496,839	-127,447	0,058	0,006
-495,824	362,908	0,052	0,076
-494,810	110,986	0,199	0,173
-493,795	-200,000	-0,030	0,182
-492,781	-200,000	-0,005	0,035
-491,766	800,000	0,052	0,153
-490,751	781,192	0,036	-0,071
-489,737	800,000	-0,052	-0,143
-488,722	-200,000	-0,019	-0,064
-487,708	-57,170	0,160	-0,050
-486,693	251,273	0,150	0,184
-485,678	-200,000	-0,019	-0,066
-484,664	151,771	-0,068	-0,067
-483,649	-125,053	0,048	0,005
-482,635	166,108	-0,119	0,122
-481,620	-70,797	-0,053	0,014
-480,605	-200,000	-0,016	0,074
-479,591	164,312	0,043	0,043
-478,576	-58,191	-0,091	0,028
-477,562	18,318	-0,025	-0,015
-476,547	-12,103	0,035	0,016
-475,532	-84,539	0,047	0,011
-474,518	-200,000	-0,004	0,014
-473,503	-200,000	-0,006	-0,025
-472,489	-200,000	-0,013	0,082
-471,474	538,087	0,043	0,074
-470,459	10,654	-0,079	-0,043
-469,445	800,000	0,019	-0,046
-468,430	663,262	-0,062	-0,116
-467,416	27,973	-0,018	0,011
-466,401	800,000	0,032	0,076
-465,386	498,021	0,109	0,181
-464,372	413,967	0,045	-0,070
-463,357	-84,990	0,071	0,016
-462,343	-200,000	-0,045	-0,205
-461,328	238,125	-0,117	-0,140
-460,313	800,000	0,037	0,090
-459,299	-200,000	0,029	-0,129
-458,284	-88,272	-0,074	0,016
-457,270	800,000	-0,075	0,174
-456,255	-200,000	0,039	0,143
-455,241	-18,006	0,128	-0,057
-454,226	-200,000	0,017	-0,067
-453,211	-107,442	-0,086	0,013
-452,197	14,430	0,091	-0,051
-451,182	-175,415	0,021	0,000
-450,168	115,470	0,024	-0,021
-449,153	212,201	0,057	-0,064
-448,138	328,534	-0,011	0,016
-447,124	-200,000	0,013	0,046
-446,109	-176,255	-0,065	-0,001
-445,095	-200,000	0,021	0,177
-444,080	78,721	0,129	0,099
-443,065	-200,000	-0,003	0,080
-442,051	773,718	0,042	-0,082
-441,036	57,428	0,073	-0,051
-440,022	53,468	0,028	0,019
-439,007	-127,346	-0,119	0,012
-437,992	-200,000	0,018	-0,093
-436,978	-32,656	0,078	0,031
-435,963	479,129	-0,031	0,051
-434,949	-200,000	-0,021	-0,070
-433,934	390,754	0,035	-0,053
-432,919	102,248	-0,088	0,074
-431,905	108,393	-0,101	-0,087
-430,890	800,000	0,019	-0,041
-429,876	-81,038	-0,044	-0,010
-428,861	-134,524	0,111	-0,010
-427,846	34,683	-0,164	-0,103
-426,832	-15,713	0,116	-0,053
-425,817	800,000	0,042	-0,125
-424,803	800,000	-0,053	-0,124
-423,788	77,373	-0,088	-0,067
-422,773	58,844	0,018	0,012
-421,759	-200,000	0,014	0,059
-420,744	-39,277	0,048	0,018
-419,730	90,813	0,045	-0,036
-418,715	-12,869	-0,115	0,054
-417,701	-1,091	-0,014	-0,007
-416,686	-200,000	-0,014	0,080
-415,671	24,727	0,137	0,082
-414,657	800,000	-0,025	-0,056
-413,642	-4,336	-0,084	0,042
-412,628	800,000	0,094	0,199
-411,613	-47,099	-0,050	0,018
-410,598	-200,000	-0,004	-0,069
-409,584	-68,972	0,024	-0,007
-408,569	-49,963	-0,151	0,051
-407,555	56,395	0,057	-0,040
-406,540	800,000	0,063	0,127
-405,525	-146,159	-0,078	-0,005
-404,511	722,843	-0,082	0,157
-403,496	-120,330	-0,087	0,010
-402,482	-40,474	-0,104	0,038
-401,467	-80,330	0,051	0,012
-400,452	-30,929	-0,017	0,007
-399,438	259,694	0,036	-0,044
-398,423	800,000	0,047	-0,123
-397,409	23,648	-0,147	-0,087
-396,394	-50,477	-0,051	-0,017
-395,379	-19,672	0,156	0,069
-394,365	800,000	0,025	-0,079
-393,350	-200,000	-0,031	0,128
-392,336	-38,698	-0,092	0,035
-391,321	-200,000	-0,002	0,064
-390,306	-77,014	-0,046	0,012
-389,292	800,000	-0,022	-0,049
-388,277	109,886	-0,140	0,120
-387,263	-167,205	0,136	0,004
-386,248	565,191	-0,035	0,061
-385,233	-101,162	0,132	-0,023
-384,219	800,000	0,038	-0,079
-383,204	-25,198	-0,148	-0,063
-382,190	507,742	0,042	-0,070
-381,175	433,303	-0,034	-0,052
-380,160	-57,784	0,158	-0,049
-379,146	800,000	-0,043	0,122
-378,131	-43,597	0,107	-0,038
-377,117	-200,000	-0,030	0,117
-376,102	229,269	0,056	-0,065
-375,088	299,005	-0,021	-0,028
-374,073	-200,000	-0,018	-0,129
-373,058	-200,000	-0,018	-0,102
-372,044	-69,346	0,082	0,023
-371,029	-200,000	0,038	0,206
-370,015	2,293	0,022	0,011
-369,000	-200,000	-0,008	-0,080
-367,985	-111,956	-0,101	-0,014
-366,971	-200,000	0,006	-0,036
-365,956	-57,801	0,113	-0,035
-364,942	-105,122	0,061	0,010
-363,927	800,000	-0,013	0,039
-362,912	96,308	0,053	0,043
-361,898	-22,933	0,053	0,023
-360,883	-126,684	-0,100	-0,010
-359,869	300,562	0,025	0,033
-358,854	-124,637	0,150	-0,016
-357,839	-132,230	-0,079	-0,007
-356,825	-194,634	0,062	-0,000
-355,810	-20,970	0,009	0,004
-354,796	439,229	0,064	0,101
-353,781	-200,000	-0,007	-0,098
-352,766	-9,069	-0,202	0,097
-351,752	-136,895	-0,082	-0,007
-350,737	4,425	0,081	0,043
-349,723	-111,087	-0,047	0,007
-348,708	-18,643	0,099	0,044
-347,693	313,699	-0,054	0,073
-346,679	-178,132	-0,053	-0,001
-345,664	-49,061	-0,042	0,014
-344,650	207,469	-0,019	0,022
-343,635	-200,000	-0,002	0,038
-342,620	196,660	-0,025	-0,027
-341,606	-200,000	-0,004	-0,066
-340,591	370,990	0,016	0,024
-339,577	5,217	-0,103	-0,054
-338,562	11,781	-0,108	-0,059
-337,548	250,091	0,112	-0,136
-336,533	-108,161	0,161	0,025
-335,518	-200,000	0,011	0,155
-334,504	84,652	0,040	0,031
-333,489	-31,006	0,115	-0,046
-332,475	42,642	-0,068	-0,044
-331,460	146,240	-0,046	0,044
-330,445	-200,000	-0,028	-0,095
-329,431	-185,483	-0,084	-0,001
-328,416	-11,034	0,189	0,089
-327,402	-200,000	0,020	0,092
-326,387	-114,670	-0,086	-0,012
-325,372	800,000	0,050	-0,105
-324,358	14,764	-0,061	0,034
-323,343	89,496	-0,041	0,033
-322,329	62,142	-0,135	0,096
-321,314	733,359	0,052	0,099
-320,299	-49,278	0,126	0,043
-319,285	143,022	-0,039	0,038
-318,270	321,999	-0,055	-0,076
-317,256	-156,283	-0,087	0,004
-316,241	800,000	0,036	-0,112
-315,226	-50,102	0,149	0,050
-314,212	536,422	0,031	0,053
-313,197	-39,483	0,079	0,029
-312,183	800,000	0,022	-0,065
-311,168	90,933	-0,099	-0,079
-310,153	47,289	-0,077	-0,051
-309,139	-200,000	0,013	0,052
-308,124	800,000	0,024	0,072
-307,110	-200,000	-0,022	0,147
-306,095	800,000	0,080	0,171
-305,080	-200,000	-0,004	0,016
-304,066	79,586	-0,060	0,046
-303,051	2,013	-0,088	-0,045
-302,037	-149,653	-0,128	0,007
-301,022	-158,693	0,149	0,006
-300,008	633,488	0,036	0,066
-298,993	-125,636	0,032	-0,003
-297,978	-200,000	-0,004	0,030
-296,964	-200,000	0,035	-0,112
-295,949	127,041	0,137	-0,125
-294,935	-43,517	-0,026	-0,009
-293,920	2,457	-0,024	0,013
-292,905	-200,000	0,002	-0,031
-291,891	-0,850	-0,093	-0,047
-290,876	183,574	-0,063	0,066
-289,862	800,000	0,062	-0,137
-288,847	-181,855	-0,165	-0,002
-287,832	-200,000	-0,013	0,060
-286,818	67,576	0,156	-0,114
-285,803	800,000	-0,034	-0,083
-284,789	-126,691	-0,061	-0,006
-283,774	-200,000	0,003	0,040
-282,759	800,000	0,054	0,112
-281,745	-65,908	0,122	-0,035
-280,730	800,000	0,032	-0,073
-279,716	424,079	-0,048	-0,074
-278,701	-71,737	-0,023	0,006
-277,686	-42,630	0,033	0,012
-276,672	254,806	-0,086	0,105
-275,657	-200,000	-0,007	-0,175
-274,643	-42,249	0,093	-0,034
-273,628	-117,001	-0,067	0,009
-272,613	111,771	0,126	-0,109
-271,599	800,000	0,049	-0,143
-270,584	-26,590	-0,116	-0,048
-269,570	-200,000	0,007	0,079
-268,555	-110,762	-0,059	-0,009
-267,540	269,529	-0,041	0,051
-266,526	-200,000	-0,004	-0,068
-265,511	123,455	0,079	0,070
-264,497	111,022	-0,099	-0,085
-263,482	-55,743	0,113	0,036
-262,467	80,223	0,081	0,062
-261,453	361,204	0,027	0,039
-260,438	-2,790	0,040	-0,020
-259,424	-30,280	-0,109	-0,044
-258,409	800,000	0,022	0,049
-257,395	27,356	-0,146	-0,087
-256,380	-200,000	0,001	0,041
-255,365	-200,000	-0,003	-0,066
-254,351	-200,000	0,016	0,138
-253,336	-171,058	0,096	-0,002
-252,322	237,431	0,031	0,037
-251,307	-92,507	-0,037	0,007
-250,292	105,514	0,155	0,131
-249,278	388,020	-0,036	0,053
-248,263	-172,204	0,148	0,003
-247,249	-200,000	-0,007	0,044
-246,234	17,296	-0,028	0,016
-245,219	800,000	0,073	-0,152
-244,205	-3,934	0,116	-0,057
-243,190	220,464	-0,087	0,100
-242,176	-120,043	-0,132	-0,016
-241,161	-119,248	-0,010	0,001
-240,146	800,000	0,018	0,056
-239,132	52,113	-0,123	0,083
-238,117	-200,000	0,021	0,128
-237,103	75,000	-0,095	-0,071
-236,088	431,361	-0,053	0,083
-235,073	-145,189	-0,049	-0,003
-234,059	123,317	-0,028	-0,025
-233,044	-200,000	-0,035	0,227
-232,030	800,000	-0,039	-0,089
-231,015	-37,043	0,098	-0,037
-230,000	-141,237	0,065	-0,005
-228,986	175,903	-0,172	-0,178
-227,971	-9,782	0,074	-0,035
-226,957	-9,226	-0,066	0,031
-225,942	800,000	0,007	0,016
-224,927	-200,000	0,011	0,041
-223,913	17,199	-0,083	-0,047
-222,898	503,706	0,106	0,175
-221,884	-116,069	-0,082	0,011
-220,869	-117,222	0,109	-0,014
-219,855	-200,000	0,018	0,064
-218,840	-40,033	-0,062	-0,023
-217,825	169,553	-0,060	0,061
-216,811	-158,342	-0,112	-0,005
-215,796	291,307	-0,062	-0,081
-214,782	-200,000	0,003	0,011
-213,767	26,019	0,038	-0,022
-212,752	17,802	-0,115	0,065
-211,738	116,684	-0,110	-0,097
-210,723	-200,000	-0,016	-0,085
-209,709	-155,704	0,069	0,003
-208,694	-111,150	-0,132	0,019
-207,679	133,972	0,059	0,054
-206,665	304,736	0,023	-0,031
-205,650	183,189	-0,090	-0,094
-204,636	81,421	0,147	0,113
-203,621	229,086	-0,066	0,076
-202,606	64,998	-0,069	0,049
-201,592	414,628	0,024	-0,037
-200,577	276,029	-0,033	-0,042
-199,563	800,000	-0,036	-0,095
-198,548	0,754	-0,061	0,031
-197,533	56,692	0,029	0,020
-196,519	214,781	0,060	0,068
-195,504	-47,194	-0,027	0,009
-194,490	675,439	-0,060	-0,112
-193,475	-44,487	-0,034	-0,012
-192,460	378,356	0,044	-0,064
-191,446	-200,000	-0,005	0,135
-190,431	2,559	0,063	0,033
-189,417	133,117	-0,088	0,081
-188,402	139,532	0,136	-0,128
-187,387	-200,000	-0,037	-0,152
-186,373	489,943	-0,061	-0,100
-185,358	-106,117	0,127	-0,020
-184,344	-200,000	0,007	0,143
-183,329	-99,724	0,143	-0,025
-182,315	335,944	0,036	0,049
-181,300	-200,000	-0,031	-0,101
-180,285	694,822	-0,014	0,027
-179,271	-200,000	0,037	-0,119
-178,256	-95,709	0,062	0,012
-177,242	223,632	0,021	0,024
-176,227	116,849	0,079	0,069
-175,212	-200,000	-0,008	0,076
-174,198	-87,361	0,022	-0,005
-173,183	209,641	0,062	0,069
-172,169	21,807	-0,104	-0,060
-171,154	138,261	-0,014	0,013
-170,139	672,417	0,020	-0,037
-169,125	375,745	0,102	0,149
-168,110	-200,000	0,028	0,120
-167,096	800,000	0,038	-0,082
-166,081	-200,000	-0,000	0,139
-165,066	800,000	-0,029	-0,062
-164,052	-142,924	-0,043	0,003
-163,037	-47,940	-0,048	0,016
-162,023	-200,000	-0,014	-0,113
-161,008	42,416	0,024	0,016
-159,993	-99,072	0,141	-0,025
-158,979	191,283	-0,136	-0,146
-157,964	-35,639	0,026	-0,010
-156,950	800,000	-0,028	0,059
-155,935	-5,812	-0,046	0,022
-154,920	-200,000	0,008	-0,045
-153,906	800,000	0,030	0,072
-152,891	-200,000	0,003	0,140
-151,877	-200,000	-0,018	0,129
-150,862	188,835	-0,090	-0,096
-149,847	474,669	-0,017	-0,028
-148,833	94,501	-0,075	0,060
-147,818	264,748	0,047	0,059
-146,804	778,019	0,068	0,132
-145,789	800,000	0,009	-0,022
-144,775	-200,000	-0,008	-0,058
-143,760	35,054	-0,156	-0,097
-142,745	-71,979	0,118	-0,031
-141,731	800,000	-0,038	0,077
-140,716	338,709	0,055	0,077
-139,702	800,000	0,017	0,041
-138,687	-7,342	-0,173	0,083
-137,672	-56,943	0,121	0,038
-136,658	800,000	-0,022	-0,059
-135,643	63,471	0,105	-0,075
-134,629	520,331	-0,041	-0,068
-133,614	-125,399	0,041	0,004
-132,599	116,488	-0,080	-0,070
-131,585	-88,085	0,087	-0,018
-130,570	116,258	0,078	0,068
-129,556	75,696	-0,116	-0,087
-128,541	11,857	-0,098	-0,053
-127,526	800,000	0,052	-0,114
-126,512	11,830	0,061	0,033
-125,497	-176,058	0,060	-0,001
-124,483	240,909	0,047	-0,055
-123,468	-116,002	-0,071	0,009
-122,453	-9,284	0,051	-0,024
-121,439	800,000	-0,031	0,083
-120,424	14,831	-0,043	-0,024
-119,410	38,555	-0,088	0,056
-118,395	32,406	-0,119	0,073
-117,380	106,885	0,066	0,056
-116,366	-200,000	0,003	0,067
-115,351	-200,000	0,019	0,136
-114,337	-200,000	-0,007	0,025
-113,322	-89,509	0,125	0,026
-112,307	442,046	0,032	0,051
-111,293	-200,000	0,007	0,124
-110,278	-36,699	-0,092	0,035
-109,264	32,991	-0,047	-0,029
-108,249	589,217	0,086	0,150
-107,234	800,000	-0,047	-0,125
-106,220	765,992	-0,005	0,010
-105,205	800,000	0,034	-0,070
-104,191	-200,000	-0,000	0,053
-103,176	149,003	-0,075	0,072
-102,162	371,854	0,029	0,041
-101,147	-200,000	0,020	-0,170
-100,132	-200,000	0,013	0,057
-99,118	199,535	-0,043	-0,047
-98,103	-84,077	0,057	-0,013
-97,089	-200,000	-0,035	0,152
-96,074	-200,000	0,014	0,135
-95,059	-200,000	0,002	0,013
-94,045	-25,944	-0,135	-0,056
-93,030	-187,425	-0,036	-0,000
-92,016	-70,506	0,094	-0,025
-91,001	-116,669	0,030	-0,004
-89,986	-200,000	0,005	0,073
-88,972	-200,000	0,000	-0,045
-87,957	-200,000	-0,032	-0,128
-86,943	-200,000	-0,008	-0,105
-85,928	-77,010	-0,176	-0,043
-84,913	-40,368	-0,105	0,039
-83,899	168,981	0,015	-0,015
-82,884	143,287	0,075	-0,071
-81,870	210,901	0,057	0,064
-80,855	-200,000	0,007	0,035
-79,840	590,295	-0,056	0,099
-78,826	800,000	-0,049	-0,129
-77,811	72,721	-0,069	-0,051
-76,797	800,000	0,068	0,189
-75,782	800,000	0,019	0,047
-74,767	238,322	0,070	0,082
-73,753	360,606	0,015	-0,021
-72,738	39,054	-0,084	-0,053
-71,724	135,917	0,033	-0,030
-70,709	800,000	-0,037	-0,079
-69,694	-69,327	0,118	0,032
-68,680	95,340	0,081	0,065
-67,665	-200,000	0,019	0,079
-66,651	143,335	-0,005	0,005
-65,636	249,781	-0,073	-0,087
-64,622	-2,650	-0,043	0,021
-63,607	-200,000	-0,004	-0,136
-62,592	305,286	-0,046	-0,060
-61,578	108,735	0,054	-0,045
-60,563	-200,000	0,117	0,000
-59,549	192,210	0,040	0,043
-58,534	-12,216	-1,552	-0,716
-57,519	457,053	-1,440	-2,272
-56,505	-200,000	-0,455	-4,486
-55,490	297,383	0,918	1,196
-54,476	800,000	4,715	10,944
-53,461	-200,000	18,501	293,123
-52,446	800,000	729,246	2248,077
-51,432	560,320	1645,256	2824,861
-50,417	79,009	1666,097	1261,649
-49,403	22,419	1539,542	888,679
-48,388	16,413	1462,363	815,040
-47,373	17,786	1452,421	816,079
-46,359	17,061	1442,716	807,128
-45,344	14,659	1438,051	793,018
-44,330	14,575	1436,110	791,514
-43,315	14,590	1434,480	790,655
-42,300	14,607	1432,950	789,863
-41,286	14,648	1431,781	789,383
-40,271	14,594	1430,327	788,293
-39,257	14,589	1429,106	787,567
-38,242	14,637	1427,876	787,082
-37,227	14,617	1426,859	786,399
-36,213	14,599	1425,412	785,484
-35,198	14,667	1424,327	785,177
-34,184	14,658	1423,323	784,549
-33,169	14,592	1422,092	783,527
-32,154	14,633	1421,015	783,098
-31,140	14,662	1419,629	782,437
-30,125	14,659	1418,587	781,821
-29,111	14,654	1417,336	781,074
-28,096	14,648	1416,109	780,337
-27,082	14,558	1415,234	779,403
-26,067	14,576	1414,198	778,887
-25,052	14,603	1413,217	778,441
-24,038	14,617	1412,090	777,855
-23,023	14,573	1411,033	777,037
-22,009	14,533	1410,188	776,352
-20,994	14,518	1409,364	775,797
-19,979	14,500	1408,319	775,106
-18,965	14,458	1407,457	774,405
-17,950	14,512	1406,292	773,988
-16,936	14,516	1405,399	773,483
-15,921	14,443	1404,490	772,613
-14,906	14,439	1403,480	772,009
-13,892	14,466	1402,421	771,521
-12,877	14,455	1401,702	771,044
-11,863	14,430	1400,817	770,408
-10,848	14,447	1400,003	770,010
-9,833	14,419	1398,863	769,223
-8,819	14,360	1398,104	768,499
-7,804	14,360	1397,222	767,985
-6,790	14,357	1396,076	767,311
-5,775	14,345	1395,101	766,689
-4,760	14,375	1394,303	766,357
-3,746	14,362	1393,288	765,709
-2,731	14,343	1392,567	765,197
-1,717	14,391	1391,556	764,832
-0,702	14,342	1389,982	763,712
0,313	18,266	1308,762	737,208
1,327	34,811	706,128	436,055
2,342	53,577	124,420	84,323
3,356	3,373	16,678	8,564
4,371	-4,611	3,225	1,569
5,386	57,373	0,519	0,358
6,400	-200,000	0,058	0,200
7,415	-24,871	-0,220	-0,092
8,429	-105,197	-0,410	-0,065
9,444	131,579	-0,220	-0,200
10,459	121,524	-0,265	-0,233
11,473	145,156	-0,207	-0,196
12,488	-57,662	-0,480	-0,148
13,502	-68,234	-0,283	-0,077
14,517	-49,394	-0,359	-0,120
15,531	87,676	-0,480	-0,376
16,546	-34,673	-0,458	-0,176
17,561	92,019	-0,428	-0,340
18,575	22,945	-0,216	-0,125
19,590	81,022	-0,250	-0,191
20,604	-53,082	-0,295	-0,095
21,619	29,869	-0,470	-0,282
22,634	12,077	-0,364	-0,197
23,648	51,879	-0,453	-0,304
24,663	78,509	-0,332	-0,250
25,677	34,004	-0,420	-0,258
26,692	-4,087	-0,316	-0,154
27,707	24,528	-0,338	-0,197
28,721	5,848	-0,435	-0,227
29,736	75,518	-0,437	-0,325
30,750	91,932	-0,408	-0,324
31,765	154,536	-0,375	-0,364
32,780	93,147	-0,304	-0,243
33,794	-25,133	-0,387	-0,161
34,809	123,966	-0,202	-0,179
35,823	-27,649	-0,522	-0,213
36,838	17,836	-0,464	-0,260
37,853	248,910	-0,266	-0,318
38,867	219,815	-0,317	-0,359
39,882	20,399	-0,434	-0,247
40,896	-58,316	-0,414	-0,126
41,911	384,794	-0,186	-0,271
42,926	111,425	-0,272	-0,231
43,940	210,692	-0,268	-0,297
44,955	36,824	-0,470	-0,292
45,969	66,563	-0,291	-0,208
46,984	228,636	-0,208	-0,240
47,999	146,017	-0,305	-0,288
49,013	61,046	-0,286	-0,200
50,028	-6,764	-0,286	-0,137
51,042	116,815	-0,210	-0,182
52,057	20,394	-0,406	-0,230
53,071	156,849	-0,307	-0,299
54,086	38,252	-0,458	-0,287
55,101	103,121	-0,337	-0,278
56,115	290,129	-0,241	-0,309
57,130	49,596	-0,264	-0,175
58,144	85,589	-0,294	-0,227
59,159	76,564	-0,421	-0,314
60,174	20,622	-0,484	-0,275
61,188	60,321	-0,346	-0,241
62,203	71,332	-0,303	-0,221
63,217	19,850	-0,371	-0,209
64,232	-25,051	-0,384	-0,159
65,247	-87,333	-0,435	-0,092
66,261	109,835	-0,284	-0,239
67,276	279,529	-0,337	-0,424
68,290	-27,878	-0,325	-0,132
69,305	65,408	-0,275	-0,196
70,320	86,617	-0,257	-0,199
71,334	204,797	-0,227	-0,248
72,349	23,059	-0,432	-0,249
73,363	165,526	-0,274	-0,273
74,378	185,635	-0,289	-0,302
75,393	264,989	-0,135	-0,166
76,407	-22,950	-0,294	-0,124
77,422	-68,521	-0,147	-0,040
78,436	10,337	-0,299	-0,159
79,451	94,840	-0,328	-0,262
80,466	241,892	-0,312	-0,368
81,480	213,760	-0,281	-0,313
82,495	89,991	-0,186	-0,146
83,509	-22,745	-0,298	-0,126
84,524	-44,557	-0,242	0,084
85,539	122,284	-0,234	-0,205
86,553	69,373	-0,266	-0,192
87,568	139,280	-0,198	-0,183
88,582	145,508	-0,419	-0,394
89,597	303,643	-0,243	-0,318
90,611	137,133	-0,348	-0,319
91,626	-33,042	-0,319	-0,123
92,641	-9,295	-0,234	-0,109
93,655	719,931	-0,094	-0,176
94,670	153,540	-0,268	-0,257
95,684	28,232	-0,258	-0,152
96,699	105,092	-0,274	-0,226
97,714	274,727	-0,249	-0,310
98,728	-36,197	-0,180	-0,068
99,743	64,380	-0,184	-0,130
100,757	107,099	-0,232	-0,193
101,772	8,501	-0,276	-0,145
102,787	109,732	-0,322	-0,271
103,801	39,134	-0,410	-0,257
104,816	20,101	-0,169	-0,095
105,830	118,627	-0,261	-0,226
106,845	194,739	-0,196	-0,209
107,860	-23,171	-0,226	-0,095
108,874	168,387	-0,227	-0,226
109,889	-22,010	-0,319	-0,135
110,903	165,173	-0,221	-0,219
111,918	49,501	-0,246	-0,162
112,933	71,430	-0,186	-0,135
113,947	11,561	-0,252	-0,135
114,962	-22,132	-0,384	-0,163
115,976	108,416	-0,226	-0,189
116,991	-22,862	-0,314	-0,132
118,006	58,902	-0,364	-0,250
119,020	382,656	-0,119	-0,172
120,035	-106,384	-0,171	-0,026
121,049	-67,662	-0,252	-0,069
122,064	-18,673	-0,205	-0,089
123,079	1,523	-0,248	-0,125
124,093	224,224	-0,218	-0,247
125,108	398,360	-0,218	-0,321
126,122	25,004	-0,336	-0,195
127,137	331,394	-0,179	-0,243
128,151	800,000	-0,056	-0,163
129,166	137,111	-0,292	-0,267
130,181	101,022	-0,202	-0,164
131,195	20,541	-0,338	-0,191
132,210	168,904	-0,246	-0,246
133,224	-3,791	-0,287	-0,139
134,239	328,428	-0,180	-0,243
135,254	95,618	-0,287	-0,229
136,268	-122,319	-0,306	-0,034
137,283	129,070	-0,234	-0,209
138,297	30,227	-0,218	-0,130
139,312	-8,099	-0,317	-0,149
140,327	273,817	-0,237	-0,294
141,341	-57,367	-0,256	-0,078
142,356	501,885	-0,136	-0,220
143,370	120,313	-0,164	-0,142
144,385	-12,411	-0,215	-0,098
145,400	176,140	-0,150	-0,153
146,414	47,573	-0,283	-0,184
147,429	-91,519	-0,277	-0,055
148,443	75,294	-0,116	-0,085
149,458	114,425	-0,188	-0,160
150,473	307,333	-0,155	-0,202
151,487	68,744	-0,238	-0,170
152,502	11,755	-0,308	-0,165
153,516	20,171	-0,283	-0,159
154,531	274,014	-0,151	-0,187
155,546	32,655	-0,285	-0,171
156,560	-33,145	-0,235	-0,091
157,575	155,168	-0,164	-0,158
158,589	67,163	-0,291	-0,207
159,604	133,942	-0,175	-0,158
160,619	73,918	-0,305	-0,223
161,633	183,716	-0,219	-0,226
162,648	79,948	-0,199	-0,149
163,662	11,554	-0,287	-0,153
164,677	26,522	-0,219	-0,128
165,692	-43,646	-0,251	-0,088
166,706	21,870	-0,329	-0,186
167,721	77,025	-0,228	-0,169
168,735	150,328	-0,181	-0,171
169,750	95,665	-0,293	-0,233
170,764	316,122	-0,200	-0,264
171,779	-13,814	-0,236	-0,106
172,794	-26,981	-0,257	-0,104
173,808	44,828	-0,182	-0,117
174,823	177,731	-0,238	-0,242
175,837	34,101	-0,293	-0,177
176,852	14,562	-0,364	-0,198
177,867	33,969	-0,212	-0,128
178,881	173,936	-0,147	-0,148
179,896	215,089	-0,201	-0,222
180,910	-48,614	-0,278	-0,093
181,925	800,000	-0,116	-0,252
182,940	0,745	-0,390	-0,194
183,954	322,782	-0,150	-0,200
184,969	74,611	-0,223	-0,163
185,983	100,824	-0,145	-0,117
186,998	122,094	-0,197	-0,171
188,013	57,938	-0,185	-0,126
189,027	302,701	-0,179	-0,231
190,042	316,612	-0,191	-0,252
191,056	-62,713	-0,272	-0,078
192,071	-58,364	-0,242	-0,073
193,086	-108,468	-0,127	-0,019
194,100	-41,956	-0,227	-0,081
195,115	-134,581	-0,207	-0,017
196,129	-18,870	-0,245	-0,106
197,144	800,000	-0,105	-0,206
198,159	72,271	-0,316	-0,229
199,173	356,670	-0,147	-0,204
200,188	103,335	-0,238	-0,194
201,202	-2,499	-0,259	-0,126
202,217	111,335	-0,187	-0,156
203,232	33,174	-0,272	-0,164
204,246	-17,242	-0,226	-0,099
205,261	48,121	-0,243	-0,158
206,275	348,513	-0,110	-0,151
207,290	-172,181	-0,258	-0,006
208,304	-57,242	-0,200	-0,061
209,319	-39,905	-0,167	-0,060
210,334	219,646	-0,200	-0,222
211,348	382,644	-0,187	-0,268
212,363	3,461	-0,245	-0,124
213,377	242,787	-0,137	-0,160
214,392	480,752	-0,104	-0,165
215,407	153,914	-0,147	-0,140
216,421	-139,856	-0,120	0,009
217,436	213,292	-0,124	-0,136
218,450	460,083	-0,145	-0,224
219,465	76,554	-0,122	-0,090
220,480	44,874	-0,192	-0,122
221,494	-124,583	-0,229	-0,024
222,509	-199,347	-0,204	0,001
223,523	-24,152	-0,198	-0,082
224,538	37,432	-0,278	-0,171
225,553	96,499	-0,223	-0,177
226,567	51,182	-0,203	-0,133
227,582	64,007	-0,194	-0,135
228,596	-21,982	-0,241	-0,101
229,611	159,492	-0,122	-0,118
230,626	-133,843	-0,134	0,011
231,640	-24,251	-0,274	-0,113
232,655	610,650	-0,193	-0,336
233,669	607,018	-0,169	-0,293
234,684	330,725	-0,221	-0,296
235,699	191,723	-0,152	-0,159
236,713	-84,127	-0,199	-0,043
237,728	800,000	-0,047	-0,109
238,742	800,000	-0,107	-0,207
239,757	63,215	-0,211	-0,146
240,772	-200,000	-0,045	-0,155
241,786	3,250	-0,270	-0,135
242,801	239,026	-0,141	-0,163
243,815	47,366	-0,124	-0,080
244,830	-149,446	-0,193	0,010
245,844	800,000	-0,036	-0,093
246,859	89,019	-0,236	-0,182
247,874	479,156	-0,137	-0,216
248,888	-126,512	-0,263	0,027
249,903	100,222	-0,160	-0,129
250,917	365,811	-0,136	-0,191
251,932	400,872	-0,047	-0,069
252,947	97,474	-0,162	-0,129
253,961	106,902	-0,112	-0,092
254,976	-120,441	-0,273	-0,032
255,990	-36,451	-0,136	-0,050
257,005	226,638	-0,103	-0,116
258,020	37,856	-0,135	-0,083
259,034	-9,381	-0,242	-0,111
260,049	59,835	-0,100	-0,068
261,063	800,000	-0,075	-0,170
262,078	616,089	-0,068	-0,118
263,093	103,453	-0,282	-0,229
264,107	407,204	-0,122	-0,178
265,122	94,857	-0,085	-0,066
266,136	-88,157	-0,081	0,017
267,151	153,976	-0,100	-0,094
268,166	42,696	-0,254	-0,160
269,180	332,044	-0,113	-0,152
270,195	66,658	-0,179	-0,126
271,209	176,251	-0,138	-0,139
272,224	-26,914	-0,244	-0,098
273,239	73,290	-0,184	-0,133
274,253	346,173	-0,125	-0,170
275,268	-155,176	-0,175	0,008
276,282	-24,560	-0,202	-0,083
277,297	152,087	-0,207	-0,195
278,312	509,376	-0,179	-0,289
279,326	76,754	-0,244	-0,178
280,341	94,798	-0,119	-0,093
281,355	-25,559	-0,156	-0,063
282,370	71,779	-0,189	-0,135
283,384	91,245	-0,182	-0,141
284,399	24,420	-0,200	-0,114
285,414	800,000	-0,123	-0,246
286,428	-86,165	-0,197	-0,041
287,443	181,025	-0,140	-0,142
288,457	-162,107	-0,105	-0,004
289,472	-63,926	-0,270	-0,076
290,487	108,049	-0,209	-0,172
291,501	772,185	-0,089	-0,167
292,516	-195,909	-0,185	-0,001
293,530	44,432	-0,136	-0,086
294,545	-200,000	-0,013	-0,114
295,560	-50,326	-0,279	-0,090
296,574	-200,000	-0,134	0,000
297,589	121,782	-0,167	-0,144
298,603	169,775	-0,154	-0,152
299,618	31,089	-0,143	-0,084
300,633	-95,098	-0,132	-0,024
301,647	288,761	-0,073	-0,092
302,662	-10,466	-0,145	-0,066
303,676	121,355	-0,086	-0,074
304,691	800,000	-0,092	-0,237
305,706	-200,000	-0,029	-0,187
306,720	800,000	-0,052	-0,114
307,735	-64,126	-0,234	0,065
308,749	-61,145	-0,164	-0,047
309,764	132,193	-0,121	-0,107
310,779	-20,139	-0,140	-0,059
311,793	587,383	-0,098	-0,166
312,808	133,144	-0,191	-0,170
313,822	-200,000	-0,024	-0,193
314,837	-200,000	-0,031	-0,109
315,852	125,040	-0,092	-0,080
316,866	-104,134	-0,147	-0,023
317,881	102,884	-0,121	-0,098
318,895	94,517	-0,168	-0,131
319,910	688,381	-0,071	-0,129
320,925	84,676	-0,043	-0,032
321,939	57,870	-0,174	-0,117
322,954	-200,000	0,015	-0,142
323,968	594,573	-0,079	-0,135
324,983	-88,968	-0,202	-0,041
325,997	-76,341	-0,260	-0,062
327,012	-119,152	-0,131	-0,016
328,027	-38,244	-0,193	-0,070
329,041	527,894	-0,119	-0,194
330,056	350,071	-0,078	-0,106
331,070	-100,323	-0,077	0,013
332,085	-95,931	-0,128	0,023
333,100	109,897	-0,118	-0,097
334,114	101,404	-0,137	-0,109
335,129	524,730	-0,060	-0,098
336,143	269,158	-0,139	-0,168
337,158	-183,708	-0,143	-0,002
338,173	-200,000	-0,017	-0,122
339,187	-132,677	-0,174	0,015
340,202	52,030	-0,142	-0,093
341,216	568,303	-0,101	-0,170
342,231	124,962	-0,206	-0,179
343,246	11,223	-0,220	-0,115
344,260	800,000	-0,080	-0,204
345,275	-10,789	0,041	-0,018
346,289	211,976	-0,094	-0,102
347,304	244,227	-0,121	-0,139
348,319	-120,601	-0,237	-0,027
349,333	-123,459	-0,230	-0,025
350,348	800,000	-0,048	-0,119
351,362	103,872	-0,111	-0,089
352,377	-52,177	-0,136	-0,043
353,392	-129,750	-0,153	0,014
354,406	-64,310	-0,222	-0,062
355,421	209,871	1316,072	1417,589
356,435	161,537	1476,995	1418,093
