DTS Sentinel unit serial number:	SN410029Multiplexer serial number:	ORYXHardware model number:	OX2-SRSoftware version number:	ORYX F/W v4,00 Oryx Data Collector v3.7.2.0data status	okinstallation	B3 Nyhavnadifferential loss correction	single-endedforward channel	channel 1reverse channel	N/Adate	2023/12/02time	12:12:30forward acquisition time	300,00reverse acquisition time	0,00gamma	499,1914k internal	0,3199k external	0,3199temperature offset calibration	1,0000default loss term (dB/km)	0,3820temperature slope calibration	1,0000multiplexer offset coefficient	1,0000multiplexer slope coefficient	1,0000fibre end	0,00T internal ref (°C)	14,01T ext. ref 1 (°C)	-0,79T ext. ref 2 (°C)	-0,80length (m)	temperature (°C)	Stokes	anti-Stokes-744,400	100,975	-0,291	-0,246
-743,385	640,789	0,137	0,256
-742,371	800,000	-0,096	-0,277
-741,356	-200,000	0,100	0,338
-740,342	800,000	-0,116	-0,255
-739,327	-200,000	-0,014	0,306
-738,312	252,327	-0,238	-0,296
-737,298	-200,000	0,047	0,328
-736,283	-200,000	-0,073	-0,309
-735,269	-200,000	0,012	0,317
-734,254	-77,016	-0,201	-0,051
-733,239	-66,002	-0,208	0,060
-732,225	120,890	-0,183	-0,166
-731,210	386,265	0,072	0,109
-730,196	-200,000	0,011	-0,051
-729,181	-200,000	-0,014	-0,145
-728,167	-31,686	-0,119	-0,048
-727,152	390,463	-0,056	-0,084
-726,137	-83,852	0,062	-0,014
-725,123	37,956	-0,167	0,108
-724,108	-75,148	-0,138	-0,036
-723,094	-62,443	-0,102	0,031
-722,079	156,152	-0,020	0,020
-721,064	117,093	-0,033	-0,030
-720,050	379,532	-0,076	0,113
-719,035	-10,361	-0,165	0,079
-718,021	-200,000	-0,011	-0,087
-717,006	800,000	0,040	-0,090
-715,991	367,559	-0,058	-0,086
-714,977	150,916	-0,116	-0,114
-713,962	-200,000	0,007	0,150
-712,948	574,211	-0,026	-0,046
-711,933	265,729	0,060	0,076
-710,918	800,000	-0,023	0,061
-709,904	-83,252	-0,154	-0,036
-708,889	167,870	-0,101	-0,104
-707,875	24,210	-0,161	-0,096
-706,860	720,139	0,062	0,120
-705,845	-200,000	0,023	-0,106
-704,831	-67,810	0,073	0,021
-703,816	800,000	-0,039	0,110
-702,802	59,472	-0,093	-0,067
-701,787	110,813	0,073	-0,064
-700,772	800,000	-0,041	-0,099
-699,758	-200,000	-0,016	-0,129
-698,743	525,318	0,079	0,136
-697,729	198,039	0,057	-0,064
-696,714	2,886	-0,092	0,048
-695,699	702,028	-0,055	0,106
-694,685	800,000	-0,012	-0,029
-693,670	108,054	-0,046	-0,040
-692,656	-200,000	-0,025	0,127
-691,641	-162,315	0,100	-0,004
-690,627	-93,326	-0,079	-0,016
-689,612	-78,323	-0,042	0,010
-688,597	-200,000	0,002	0,087
-687,583	-131,218	-0,245	-0,023
-686,568	800,000	0,018	-0,044
-685,554	-13,708	-0,054	-0,025
-684,539	-200,000	-0,001	0,093
-683,524	-88,553	-0,161	-0,034
-682,510	57,291	-0,096	-0,068
-681,495	14,158	-0,203	-0,114
-680,481	800,000	-0,004	-0,010
-679,466	221,646	-0,048	-0,056
-678,451	-200,000	0,066	-0,233
-677,437	-38,691	-0,054	-0,021
-676,422	-49,261	0,180	-0,062
-675,408	-127,061	-0,123	-0,013
-674,393	46,671	0,098	0,066
-673,378	-200,000	-0,019	-0,064
-672,364	800,000	0,047	-0,097
-671,349	22,079	0,024	-0,014
-670,335	800,000	-0,034	0,070
-669,320	579,492	0,037	0,066
-668,305	-151,083	0,102	0,005
-667,291	-200,000	-0,014	-0,120
-666,276	-113,423	-0,113	-0,016
-665,262	293,725	-0,050	0,067
-664,247	161,369	-0,086	-0,088
-663,232	-68,507	-0,035	0,010
-662,218	-185,924	0,074	-0,001
-661,203	18,299	-0,122	0,071
-660,189	6,937	-0,051	-0,027
-659,174	800,000	-0,035	-0,095
-658,159	800,000	-0,042	0,120
-657,145	-140,741	-0,154	0,011
-656,130	-200,000	-0,008	-0,055
-655,116	-200,000	0,023	-0,090
-654,101	68,942	-0,080	0,059
-653,086	126,144	0,122	-0,112
-652,072	-200,000	0,027	-0,127
-651,057	-108,144	0,031	0,005
-650,043	21,077	0,099	-0,058
-649,028	444,677	0,033	-0,052
-648,014	800,000	0,006	0,012
-646,999	390,735	-0,046	0,069
-645,984	160,738	-0,034	0,034
-644,970	-200,000	0,038	-0,130
-643,955	-28,158	-0,067	-0,028
-642,941	-19,362	0,101	-0,045
-641,926	-200,000	0,017	-0,054
-640,911	-200,000	-0,020	-0,102
-639,897	402,995	-0,072	0,110
-638,882	-130,655	-0,077	-0,007
-637,868	246,644	-0,125	-0,153
-636,853	116,553	-0,173	0,154
-635,838	391,147	0,026	-0,040
-634,824	800,000	0,022	-0,061
-633,809	-98,267	-0,111	0,020
-632,795	191,200	0,024	0,026
-631,780	284,175	0,023	0,031
-630,765	-57,532	0,068	-0,021
-629,751	-107,396	-0,093	0,015
-628,736	70,990	-0,160	0,120
-627,722	108,921	0,040	0,035
-626,707	-3,135	0,183	-0,092
-625,692	-51,436	0,046	-0,016
-624,678	-200,000	-0,027	0,090
-623,663	-200,000	-0,027	-0,094
-622,649	-14,473	-0,102	-0,048
-621,634	-200,000	0,015	-0,151
-620,619	800,000	0,032	-0,081
-619,605	159,463	-0,067	-0,068
-618,590	-200,000	-0,022	0,074
-617,576	800,000	-0,007	0,018
-616,561	-16,185	-0,053	-0,024
-615,546	-38,695	-0,099	-0,038
-614,532	-20,737	0,068	-0,030
-613,517	-200,000	0,025	0,147
-612,503	-171,914	-0,071	0,002
-611,488	170,626	0,053	0,055
-610,474	-10,173	-0,085	0,041
-609,459	800,000	-0,003	0,008
-608,444	800,000	-0,058	-0,168
-607,430	208,304	0,135	-0,153
-606,415	-200,000	-0,022	0,078
-605,401	-200,000	0,023	-0,099
-604,386	12,883	-0,037	0,021
-603,371	-200,000	-0,011	0,128
-602,357	132,554	0,125	0,116
-601,342	160,638	-0,072	-0,073
-600,328	312,014	-0,040	0,055
-599,313	-101,245	0,084	0,015
-598,298	762,251	0,008	0,017
-597,284	-46,671	-0,046	-0,016
-596,269	-200,000	0,003	-0,030
-595,255	308,993	-0,068	0,092
-594,240	174,863	-0,030	0,032
-593,225	800,000	-0,019	-0,049
-592,211	-200,000	-0,000	-0,110
-591,196	-77,905	0,091	-0,023
-590,182	800,000	-0,018	-0,041
-589,167	-21,292	-0,154	0,068
-588,152	-34,614	0,031	-0,012
-587,138	726,870	-0,048	-0,094
-586,123	395,108	-0,068	-0,103
-585,109	431,645	-0,053	-0,083
-584,094	541,970	-0,073	0,127
-583,079	-83,509	0,089	0,020
-582,065	779,766	-0,015	0,030
-581,050	1,354	0,088	0,045
-580,036	-130,331	-0,109	0,011
-579,021	-200,000	0,007	-0,041
-578,006	-120,602	-0,072	-0,009
-576,992	438,752	-0,035	0,056
-575,977	439,301	-0,076	0,120
-574,963	-200,000	0,017	0,152
-573,948	-21,636	-0,155	-0,068
-572,934	99,385	0,048	0,040
-571,919	-30,468	-0,074	-0,030
-570,904	-200,000	0,021	-0,073
-569,890	47,229	-0,139	0,093
-568,875	-78,379	-0,088	-0,022
-567,861	233,134	-0,095	0,113
-566,846	199,510	0,043	0,048
-565,831	54,877	0,033	-0,023
-564,817	-119,426	0,009	0,001
-563,802	-164,567	-0,067	0,002
-562,788	-96,367	-0,055	0,010
-561,773	342,074	0,076	0,107
-560,758	99,570	-0,075	0,063
-559,744	-30,257	0,169	0,069
-558,729	113,003	0,122	-0,107
-557,715	-54,721	-0,075	0,024
-556,700	207,583	-0,030	-0,033
-555,685	540,144	-0,048	-0,083
-554,671	-200,000	-0,003	0,078
-553,656	58,342	0,036	-0,025
-552,642	-1,187	0,123	-0,062
-551,627	424,690	0,065	-0,102
-550,612	-200,000	-0,001	0,079
-549,598	-125,233	-0,068	-0,007
-548,583	47,709	-0,097	-0,065
-547,569	-200,000	-0,008	-0,041
-546,554	134,901	0,049	-0,046
-545,539	-34,003	-0,045	0,018
-544,525	293,860	-0,034	0,044
-543,510	59,241	0,081	-0,057
-542,496	110,193	0,024	-0,021
-541,481	257,647	0,035	0,044
-540,466	-128,189	0,049	-0,005
-539,452	-109,760	0,180	-0,027
-538,437	800,000	0,012	0,024
-537,423	-11,919	0,079	-0,037
-536,408	-200,000	-0,027	-0,108
-535,393	-13,944	0,050	-0,023
-534,379	108,712	-0,143	-0,124
-533,364	-96,484	0,150	0,028
-532,350	5,175	0,020	-0,010
-531,335	232,592	0,070	-0,084
-530,321	-200,000	-0,001	0,173
-529,306	-180,232	-0,036	-0,001
-528,291	-72,473	0,093	-0,025
-527,277	800,000	0,033	0,080
-526,262	288,656	0,032	0,042
-525,248	-147,420	0,137	0,008
-524,233	-75,490	-0,036	0,009
-523,218	564,792	-0,034	0,060
-522,204	-42,816	-0,078	-0,028
-521,189	800,000	-0,041	-0,094
-520,175	-152,264	-0,141	0,007
-519,160	-88,352	0,080	-0,017
-518,145	-71,873	0,065	-0,017
-517,131	185,512	-0,048	-0,052
-516,116	582,690	-0,064	0,114
-515,102	-69,547	-0,113	0,031
-514,087	101,071	-0,080	-0,067
-513,072	-149,621	-0,143	-0,008
-512,058	-200,000	0,007	-0,035
-511,043	-200,000	0,018	0,102
-510,029	683,234	0,046	-0,087
-509,014	-200,000	0,044	0,295
-507,999	38,342	0,051	-0,033
-506,985	-40,893	-0,089	0,033
-505,970	-55,245	-0,052	0,017
-504,956	800,000	-0,068	-0,178
-503,941	800,000	0,015	-0,033
-502,926	800,000	0,072	0,164
-501,912	800,000	-0,064	0,157
-500,897	-159,738	0,069	-0,003
-499,883	365,209	-0,028	-0,041
-498,868	129,727	-0,103	-0,095
-497,853	133,558	0,037	-0,035
-496,839	-107,337	-0,071	-0,011
-495,824	800,000	0,024	-0,074
-494,810	800,000	0,017	0,044
-493,795	800,000	0,038	0,109
-492,781	-143,588	-0,091	0,006
-491,766	-87,511	-0,070	0,015
-490,751	-52,877	-0,178	-0,059
-489,737	-77,579	0,045	-0,011
-488,722	342,451	0,075	0,106
-487,708	39,497	0,101	0,065
-486,693	4,051	-0,162	-0,085
-485,678	183,684	0,079	0,084
-484,664	-69,378	-0,072	0,020
-483,649	498,477	0,110	-0,183
-482,635	-144,208	0,067	-0,004
-481,620	251,791	0,062	0,076
-480,605	-200,000	0,020	-0,073
-479,591	-200,000	0,013	-0,165
-478,576	-200,000	-0,024	-0,211
-477,562	-200,000	0,035	-0,184
-476,547	800,000	-0,054	-0,117
-475,532	-40,976	0,133	-0,049
-474,518	-19,909	-0,042	-0,019
-473,503	-200,000	-0,017	-0,100
-472,489	191,396	-0,026	0,028
-471,474	75,732	0,033	0,025
-470,459	19,702	-0,036	-0,021
-469,445	-87,966	-0,126	-0,027
-468,430	800,000	-0,064	-0,131
-467,416	-94,063	0,114	-0,022
-466,401	584,927	-0,089	0,159
-465,386	800,000	0,103	0,213
-464,372	-200,000	0,000	0,046
-463,357	105,344	-0,077	-0,065
-462,343	87,211	-0,156	-0,124
-461,328	214,334	0,066	-0,075
-460,313	352,760	-0,044	-0,063
-459,299	-200,000	0,009	0,104
-458,284	306,105	0,045	-0,061
-457,270	-72,617	-0,063	-0,017
-456,255	800,000	0,026	-0,069
-455,241	455,858	-0,032	0,051
-454,226	776,700	0,062	-0,122
-453,211	279,863	-0,038	-0,049
-452,197	234,153	0,059	-0,071
-451,182	-200,000	0,009	-0,084
-450,168	800,000	-0,032	-0,077
-449,153	800,000	0,053	0,136
-448,138	-200,000	-0,015	-0,058
-447,124	-110,489	0,080	0,012
-446,109	452,908	0,032	-0,051
-445,095	236,798	-0,077	-0,092
-444,080	-94,371	-0,105	0,020
-443,065	-52,177	0,084	0,028
-442,051	636,987	0,019	0,035
-441,036	-200,000	0,015	-0,068
-440,022	-89,998	0,030	-0,006
-439,007	321,698	-0,027	-0,036
-437,992	134,868	0,067	-0,062
-436,978	800,000	0,045	0,109
-435,963	-49,899	-0,086	-0,029
-434,949	-200,000	-0,034	-0,169
-433,934	-185,834	0,053	0,001
-432,919	3,060	-0,166	-0,087
-431,905	-200,000	0,007	-0,095
-430,890	303,218	-0,010	-0,014
-429,876	171,456	0,094	0,097
-428,861	671,720	0,041	-0,076
-427,846	-77,458	0,060	0,015
-426,832	-48,551	0,076	0,026
-425,817	449,976	-0,059	-0,095
-424,803	-190,769	-0,148	-0,001
-423,788	-200,000	-0,008	-0,059
-422,773	223,137	-0,028	0,032
-421,759	771,524	0,111	0,219
-420,744	-26,106	0,062	0,026
-419,730	91,127	0,036	0,029
-418,715	800,000	-0,040	-0,106
-417,701	-200,000	-0,040	-0,161
-416,686	-142,532	0,221	0,015
-415,671	113,413	-0,053	0,046
-414,657	-200,000	0,003	-0,039
-413,642	25,740	0,069	-0,041
-412,628	9,522	-0,171	0,093
-411,613	10,243	-0,029	0,016
-410,598	-11,807	0,035	-0,017
-409,584	800,000	0,019	0,057
-408,569	8,665	0,066	-0,035
-407,555	-43,526	0,072	0,026
-406,540	30,749	-0,096	-0,059
-405,525	-200,000	-0,032	0,107
-404,511	-144,878	-0,038	0,002
-403,496	-19,763	0,193	-0,085
-402,482	122,745	0,071	0,064
-401,467	149,752	0,085	0,083
-400,452	63,833	-0,083	0,060
-399,438	27,124	0,044	-0,026
-398,423	188,915	0,018	-0,020
-397,409	-200,000	0,031	0,159
-396,394	1,901	-0,028	-0,015
-395,379	120,748	-0,045	-0,040
-394,365	-200,000	0,015	0,112
-393,350	-114,481	0,074	0,010
-392,336	159,335	0,076	0,076
-391,321	-200,000	-0,004	0,026
-390,306	800,000	-0,038	-0,098
-389,292	-200,000	0,015	-0,066
-388,277	-200,000	0,004	-0,142
-387,263	26,133	0,082	0,049
-386,248	45,277	-0,037	0,024
-385,233	-31,687	0,052	0,021
-384,219	800,000	0,037	-0,114
-383,204	-62,564	-0,067	0,020
-382,190	-76,754	-0,052	-0,013
-381,175	-126,937	-0,103	0,011
-380,160	447,577	-0,027	0,043
-379,146	80,347	-0,058	0,045
-378,131	-200,000	0,007	0,210
-377,117	140,074	-0,043	0,041
-376,102	-88,364	-0,016	0,003
-375,088	-200,000	0,035	0,165
-374,073	158,929	-0,041	0,041
-373,058	-27,908	0,182	-0,075
-372,044	259,261	-0,097	0,121
-371,029	359,643	0,070	0,101
-370,015	-6,172	-0,074	0,036
-369,000	800,000	-0,007	-0,017
-367,985	-135,562	-0,037	0,003
-366,971	-33,685	0,145	0,057
-365,956	273,816	0,060	0,076
-364,942	-52,753	-0,155	-0,051
-363,927	230,124	-0,080	0,094
-362,912	-200,000	-0,022	-0,184
-361,898	-11,127	0,014	0,007
-360,883	-111,032	0,179	0,026
-359,869	-200,000	0,023	-0,086
-358,854	729,162	0,058	-0,113
-357,839	-3,198	0,075	0,037
-356,825	-128,257	0,092	0,009
-355,810	186,224	0,050	0,054
-354,796	168,324	-0,018	-0,018
-353,781	-84,239	-0,078	0,018
-352,766	58,577	-0,076	-0,053
-351,752	-131,812	0,158	-0,015
-350,737	-71,169	0,045	0,012
-349,723	305,843	0,121	0,161
-348,708	-78,669	-0,058	0,014
-347,693	683,135	-0,035	-0,065
-346,679	-150,296	-0,036	-0,002
-345,664	-200,000	0,028	-0,157
-344,650	-200,000	-0,009	-0,051
-343,635	-123,917	-0,048	0,005
-342,620	-200,000	0,007	-0,033
-341,606	800,000	-0,013	0,028
-340,591	184,785	0,050	0,053
-339,577	800,000	-0,046	0,108
-338,562	-102,010	-0,089	0,015
-337,548	555,528	-0,048	-0,083
-336,533	-200,000	-0,006	0,095
-335,518	800,000	0,061	0,169
-334,504	120,396	0,055	0,049
-333,489	165,492	-0,097	0,099
-332,475	96,581	-0,109	-0,089
-331,460	-29,699	-0,051	-0,021
-330,445	-131,599	0,054	-0,005
-329,431	-200,000	0,022	0,154
-328,416	800,000	0,044	-0,123
-327,402	800,000	0,113	-0,265
-326,387	800,000	0,017	-0,045
-325,372	256,621	-0,142	-0,175
-324,358	272,060	0,043	-0,055
-323,343	-200,000	0,023	0,087
-322,329	203,770	0,058	0,065
-321,314	-41,918	0,103	-0,037
-320,299	-31,650	0,171	0,068
-319,285	291,527	0,095	0,123
-318,270	393,690	-0,047	-0,071
-317,256	-46,104	-0,074	-0,026
-316,241	-71,488	-0,080	-0,021
-315,226	8,071	0,011	0,006
-314,212	118,755	-0,066	0,059
-313,197	116,712	0,054	0,048
-312,183	-16,669	-0,045	0,020
-311,168	-2,937	-0,040	-0,020
-310,153	363,948	0,120	0,172
-309,139	-128,862	0,058	-0,006
-308,124	134,550	0,064	0,060
-307,110	692,103	0,042	-0,079
-306,095	-10,737	-0,050	-0,024
-305,080	30,306	-0,069	0,042
-304,066	158,926	-0,070	0,069
-303,051	800,000	0,066	-0,132
-302,037	95,706	-0,054	-0,044
-301,022	-200,000	0,007	0,163
-300,008	-182,619	-0,119	0,002
-298,993	-166,148	-0,054	0,002
-297,978	-200,000	0,009	0,101
-296,964	159,053	0,052	0,051
-295,949	61,074	0,056	-0,039
-294,935	-84,423	-0,030	-0,007
-293,920	287,285	0,057	-0,074
-292,905	54,906	-0,089	0,061
-291,891	1,165	0,066	-0,034
-290,876	800,000	0,018	-0,036
-289,862	-147,411	-0,042	0,002
-288,847	198,939	-0,059	0,065
-287,832	800,000	-0,037	-0,096
-286,818	36,714	0,119	-0,075
-285,803	68,419	-0,060	0,044
-284,789	800,000	0,021	0,063
-283,774	-200,000	-0,016	-0,069
-282,759	78,494	0,173	0,132
-281,745	-200,000	0,039	0,167
-280,730	12,237	0,202	-0,111
-279,716	-20,758	0,127	0,056
-278,701	-200,000	0,012	-0,135
-277,686	213,298	0,053	-0,060
-276,672	-113,083	-0,138	0,019
-275,657	431,863	-0,031	-0,049
-274,643	-19,650	-0,072	-0,032
-273,628	-156,949	-0,043	0,002
-272,613	135,277	0,043	0,040
-271,599	-62,103	-0,036	0,011
-270,584	448,127	0,035	0,055
-269,570	-200,000	0,006	-0,041
-268,555	537,258	-0,023	-0,039
-267,540	553,759	0,052	0,090
-266,526	-200,000	-0,037	-0,141
-265,511	150,411	0,065	-0,063
-264,497	-151,334	0,121	0,006
-263,482	-144,238	0,051	0,003
-262,467	-131,435	-0,051	0,005
-261,453	-61,247	-0,070	0,021
-260,438	129,278	0,059	-0,054
-259,424	-200,000	0,000	0,029
-258,409	251,759	-0,035	0,043
-257,395	-21,623	0,081	0,035
-256,380	45,757	0,094	0,062
-255,365	-200,000	0,006	0,106
-254,351	655,763	-0,016	0,030
-253,336	178,796	0,027	-0,029
-252,322	-116,935	-0,069	0,009
-251,307	421,921	0,064	-0,098
-250,292	-200,000	0,021	-0,093
-249,278	305,603	0,064	0,085
-248,263	-200,000	0,019	-0,069
-247,249	124,927	0,057	-0,051
-246,234	-129,263	0,073	-0,007
-245,219	614,044	-0,071	0,128
-244,205	75,146	-0,101	-0,076
-243,190	-200,000	0,048	0,166
-242,176	413,390	0,040	0,061
-241,161	83,316	0,051	0,040
-240,146	-200,000	0,036	-0,197
-239,132	414,530	0,016	0,025
-238,117	800,000	-0,022	0,051
-237,103	-90,257	0,066	-0,013
-236,088	800,000	-0,026	0,080
-235,073	-126,979	0,089	0,009
-234,059	-200,000	-0,011	0,097
-233,044	-200,000	-0,041	0,136
-232,030	800,000	0,016	0,047
-231,015	-92,520	-0,063	0,013
-230,000	31,232	-0,087	0,053
-228,986	-200,000	0,016	-0,114
-227,971	-200,000	0,025	-0,121
-226,957	60,448	0,134	-0,094
-225,942	334,913	0,090	0,124
-224,927	651,565	-0,036	-0,066
-223,913	305,326	0,110	-0,146
-222,898	800,000	0,031	-0,079
-221,884	8,469	-0,079	0,042
-220,869	-200,000	0,009	-0,062
-219,855	-88,718	0,188	0,040
-218,840	-156,154	-0,115	-0,005
-217,825	505,597	-0,018	0,030
-216,811	-200,000	-0,023	-0,119
-215,796	-117,852	-0,097	-0,012
-214,782	-109,388	0,090	0,014
-213,767	-24,571	0,038	0,016
-212,752	-42,582	-0,046	0,017
-211,738	-112,624	-0,189	0,027
-210,723	-200,000	-0,004	-0,047
-209,709	31,926	-0,079	0,049
-208,694	96,635	0,044	-0,036
-207,679	-200,000	-0,014	-0,113
-206,665	-200,000	-0,030	0,149
-205,650	800,000	0,028	0,073
-204,636	-200,000	0,006	-0,078
-203,621	-39,883	0,066	-0,024
-202,606	272,645	0,042	-0,053
-201,592	-65,316	0,061	-0,018
-200,577	-200,000	0,022	-0,178
-199,563	-104,870	0,112	-0,018
-198,548	-50,015	0,002	-0,001
-197,533	-36,538	-0,055	0,021
-196,519	-14,474	0,158	0,072
-195,504	10,360	-0,135	-0,073
-194,490	214,244	-0,070	-0,079
-193,475	-163,322	0,104	-0,003
-192,460	142,362	0,037	-0,035
-191,446	-200,000	-0,020	0,135
-190,431	-200,000	0,016	0,076
-189,417	36,583	-0,084	-0,053
-188,402	430,872	0,064	-0,099
-187,387	51,307	-0,039	0,026
-186,373	-82,825	-0,093	0,021
-185,358	46,224	0,050	-0,033
-184,344	18,552	0,056	0,032
-183,329	-200,000	-0,030	0,108
-182,315	-200,000	-0,010	0,058
-181,300	-117,959	-0,130	0,016
-180,285	800,000	-0,042	0,099
-179,271	397,348	-0,089	0,133
-178,256	-200,000	-0,005	0,048
-177,242	-155,665	0,093	0,004
-176,227	-200,000	0,014	0,112
-175,212	-166,270	-0,065	0,002
-174,198	-200,000	-0,005	-0,048
-173,183	-29,960	0,021	-0,008
-172,169	800,000	0,041	0,095
-171,154	526,394	0,051	-0,086
-170,139	-157,543	-0,100	-0,004
-169,125	-200,000	0,019	0,076
-168,110	800,000	-0,058	0,135
-167,096	-12,826	-0,096	0,044
-166,081	436,301	0,013	-0,020
-165,066	-200,000	-0,008	0,036
-164,052	116,756	-0,099	0,087
-163,037	-92,192	0,154	-0,031
-162,023	-3,138	-0,075	-0,037
-161,008	-79,323	0,042	0,010
-159,993	-48,226	0,147	0,050
-158,979	-101,038	-0,048	0,008
-157,964	-18,946	-0,118	-0,052
-156,950	-100,488	-0,031	-0,005
-155,935	151,555	-0,121	0,118
-154,920	-200,000	0,046	0,178
-153,906	56,097	0,062	-0,043
-152,891	-34,375	-0,123	-0,048
-151,877	-52,051	-0,030	0,010
-150,862	-42,324	0,110	0,040
-149,847	-200,000	-0,047	-0,160
-148,833	-200,000	0,035	-0,142
-147,818	-200,000	-0,021	0,108
-146,804	90,944	0,076	0,060
-145,789	491,148	0,040	-0,065
-144,775	188,446	-0,098	-0,104
-143,760	34,407	-0,032	0,020
-142,745	-200,000	0,000	0,011
-141,731	-21,425	-0,113	0,049
-140,716	94,376	-0,047	0,038
-139,702	-167,941	0,091	0,002
-138,687	46,678	-0,023	-0,015
-137,672	-200,000	-0,043	-0,143
-136,658	604,401	0,018	-0,032
-135,643	65,196	0,062	-0,044
-134,629	207,659	0,007	-0,007
-133,614	-49,387	0,130	0,044
-132,599	2,989	0,134	0,069
-131,585	787,268	-0,047	0,093
-130,570	33,619	0,157	-0,097
-129,556	-90,858	-0,180	-0,037
-128,541	277,453	0,032	0,040
-127,526	800,000	0,067	0,155
-126,512	800,000	0,015	0,042
-125,497	800,000	-0,017	-0,038
-124,483	800,000	-0,022	0,068
-123,468	511,942	0,029	0,048
-122,453	14,149	-0,105	-0,058
-121,439	-161,102	-0,098	-0,004
-120,424	800,000	0,033	-0,097
-119,410	71,659	0,064	-0,047
-118,395	136,152	-0,030	-0,028
-117,380	800,000	-0,017	0,045
-116,366	800,000	-0,023	-0,065
-115,351	37,082	0,068	0,042
-114,337	-190,586	0,075	-0,001
-113,322	150,477	0,042	-0,041
-112,307	173,930	-0,086	0,088
-111,293	171,652	0,108	0,110
-110,278	-0,532	-0,083	-0,042
-109,264	8,975	-0,020	-0,010
-108,249	-10,066	-0,071	-0,033
-107,234	-32,060	-0,167	-0,066
-106,220	-102,644	-0,037	-0,006
-105,205	-142,094	-0,106	-0,007
-104,191	290,640	0,059	-0,077
-103,176	285,032	-0,065	0,084
-102,162	-77,584	0,094	-0,023
-101,147	-200,000	0,004	-0,083
-100,132	800,000	0,061	-0,136
-99,118	369,362	-0,070	-0,100
-98,103	542,704	0,045	-0,077
-97,089	11,238	0,116	0,063
-96,074	-200,000	0,029	0,097
-95,059	800,000	0,054	0,126
-94,045	-187,847	-0,038	-0,000
-93,030	47,948	-0,135	-0,089
-92,016	204,963	-0,053	-0,058
-91,001	-200,000	-0,074	-0,319
-89,986	172,167	0,059	0,061
-88,972	93,016	0,070	-0,056
-87,957	-200,000	0,024	-0,185
-86,943	-71,873	0,073	-0,019
-85,928	-35,284	-0,067	-0,026
-84,913	-200,000	0,005	0,024
-83,899	105,268	0,126	-0,106
-82,884	24,968	-0,115	0,067
-81,870	-68,425	0,091	-0,025
-80,855	-132,619	0,040	0,004
-79,840	-153,809	-0,097	0,005
-78,826	800,000	0,047	0,099
-77,811	-200,000	-0,021	0,077
-76,797	128,903	0,041	0,037
-75,782	-53,546	0,016	0,005
-74,767	13,460	0,192	0,105
-73,753	-41,683	0,104	0,038
-72,738	-96,285	-0,101	-0,019
-71,724	-85,565	0,027	-0,006
-70,709	-155,826	0,124	0,006
-69,694	405,607	-0,035	-0,052
-68,680	-171,133	-0,073	-0,002
-67,665	540,864	-0,029	0,049
-66,651	11,511	0,027	0,014
-65,636	-183,825	-0,174	0,002
-64,622	64,594	-0,105	-0,075
-63,607	-51,309	0,028	-0,009
-62,592	-200,000	-0,004	0,018
-61,578	-55,629	0,125	0,040
-60,563	108,390	0,054	0,045
-59,549	-200,000	0,004	-0,102
-58,534	-41,563	-1,476	-0,535
-57,519	383,606	-1,440	-2,106
-56,505	-200,000	-0,426	-4,410
-55,490	256,315	0,852	1,039
-54,476	800,000	5,028	11,411
-53,461	-200,000	18,914	307,442
-52,446	800,000	738,718	2305,159
-51,432	569,856	1654,269	2861,940
-50,417	78,873	1669,656	1264,669
-49,403	21,967	1542,455	888,776
-48,388	15,876	1465,279	814,706
-47,373	17,852	1455,188	818,607
-46,359	16,902	1445,460	808,551
-45,344	14,114	1440,809	792,565
-44,330	14,087	1438,762	791,277
-43,315	14,057	1437,185	790,235
-42,300	14,053	1435,508	789,262
-41,286	14,087	1434,309	788,733
-40,271	14,045	1433,071	787,825
-39,257	14,015	1431,955	787,036
-38,242	14,112	1430,512	786,675
-37,227	14,115	1429,478	786,087
-36,213	14,133	1427,899	785,272
-35,198	14,150	1426,738	784,682
-34,184	14,138	1425,869	784,119
-33,169	14,094	1424,570	783,165
-32,154	14,137	1423,267	782,621
-31,140	14,142	1422,234	782,047
-30,125	14,161	1421,077	781,469
-29,111	14,109	1420,036	780,619
-28,096	14,069	1418,880	779,762
-27,082	14,012	1417,949	778,950
-26,067	14,029	1416,794	778,368
-25,052	14,074	1415,637	777,912
-24,038	14,022	1414,814	777,184
-23,023	13,987	1413,715	776,386
-22,009	14,004	1412,727	775,892
-20,994	14,019	1411,819	775,430
-19,979	13,989	1411,121	774,879
-18,965	13,962	1409,828	774,011
-17,950	13,949	1408,998	773,464
-16,936	13,937	1408,115	772,889
-15,921	13,929	1406,913	772,164
-14,906	13,942	1406,051	771,718
-13,892	13,966	1405,256	771,366
-12,877	13,945	1404,272	770,695
-11,863	13,957	1403,403	770,246
-10,848	13,941	1402,532	769,663
-9,833	13,860	1401,638	768,766
-8,819	13,883	1400,696	768,324
-7,804	13,883	1399,739	767,769
-6,790	13,837	1398,615	766,906
-5,775	13,859	1397,466	766,348
-4,760	13,841	1396,728	765,831
-3,746	13,844	1395,967	765,399
-2,731	13,852	1395,162	764,962
-1,717	13,810	1394,195	764,207
-0,702	13,832	1392,368	763,277
0,313	17,666	1310,382	736,107
1,327	33,999	705,201	433,970
2,342	52,299	123,899	83,534
3,356	4,245	16,665	8,613
4,371	-3,662	3,234	1,586
5,386	-31,705	0,481	0,190
6,400	800,000	-0,083	0,231
7,415	-7,674	-0,243	-0,116
8,429	-40,446	-0,369	-0,135
9,444	84,902	-0,289	-0,224
10,459	4,709	-0,306	-0,158
11,473	21,749	-0,296	-0,170
12,488	90,511	-0,342	-0,270
13,502	92,725	-0,338	-0,270
14,517	-90,957	-0,308	-0,062
15,531	224,235	-0,214	-0,245
16,546	-0,937	-0,290	-0,145
17,561	10,255	-0,374	-0,200
18,575	201,217	-0,165	-0,180
19,590	238,291	-0,075	-0,088
20,604	0,016	-0,208	-0,104
21,619	67,654	-0,337	-0,243
22,634	22,912	-0,415	-0,240
23,648	61,420	-0,497	-0,349
24,663	98,297	-0,426	-0,347
25,677	252,154	-0,333	-0,401
26,692	48,194	-0,366	-0,242
27,707	44,507	-0,312	-0,202
28,721	129,424	-0,377	-0,341
29,736	58,203	-0,441	-0,305
30,750	20,821	-0,406	-0,231
31,765	-18,273	-0,487	-0,214
32,780	92,644	-0,363	-0,289
33,794	19,272	-0,285	-0,161
34,809	-12,617	-0,270	-0,124
35,823	190,282	-0,314	-0,333
36,838	-5,694	-0,282	-0,136
37,853	135,448	-0,367	-0,337
38,867	-57,841	-0,503	-0,154
39,882	-27,700	-0,507	-0,207
40,896	196,238	-0,263	-0,283
41,911	68,476	-0,403	-0,291
42,926	-70,370	-0,383	-0,102
43,940	-3,376	-0,364	-0,178
44,955	116,197	-0,403	-0,348
45,969	68,430	-0,368	-0,265
46,984	-34,479	-0,377	-0,145
47,999	16,041	-0,349	-0,193
49,013	51,501	-0,286	-0,191
50,028	22,448	-0,417	-0,240
51,042	169,375	-0,415	-0,418
52,057	53,909	-0,231	-0,156
53,071	330,193	-0,328	-0,447
54,086	48,705	-0,340	-0,224
55,101	23,336	-0,380	-0,220
56,115	240,025	-0,207	-0,243
57,130	36,146	-0,290	-0,179
58,144	81,834	-0,343	-0,262
59,159	64,386	-0,410	-0,290
60,174	58,998	-0,394	-0,273
61,188	86,190	-0,331	-0,256
62,203	66,036	-0,302	-0,216
63,217	48,849	-0,354	-0,234
64,232	148,161	-0,231	-0,220
65,247	73,928	-0,328	-0,242
66,261	71,099	-0,359	-0,262
67,276	-126,713	-0,372	-0,038
68,290	211,027	-0,295	-0,327
69,305	275,705	-0,242	-0,303
70,320	56,414	-0,348	-0,238
71,334	48,489	-0,259	-0,170
72,349	47,914	-0,376	-0,247
73,363	-3,287	-0,387	-0,189
74,378	81,348	-0,341	-0,259
75,393	-83,259	-0,397	-0,089
76,407	-100,424	-0,197	-0,034
77,422	27,501	-0,324	-0,191
78,436	110,727	-0,309	-0,261
79,451	-1,829	-0,332	-0,164
80,466	1,449	-0,345	-0,174
81,480	107,759	-0,294	-0,246
82,495	16,566	-0,367	-0,203
83,509	142,554	-0,245	-0,229
84,524	103,618	-0,185	-0,153
85,539	132,558	-0,234	-0,212
86,553	103,240	-0,424	-0,349
87,568	-11,967	-0,376	-0,173
88,582	108,099	-0,183	-0,153
89,597	39,244	-0,371	-0,233
90,611	-32,999	-0,359	-0,139
91,626	148,225	-0,291	-0,276
92,641	445,498	-0,155	-0,239
93,655	20,452	-0,435	-0,246
94,670	57,150	-0,344	-0,235
95,684	112,227	-0,264	-0,224
96,699	160,129	-0,378	-0,370
97,714	-0,790	-0,330	-0,164
98,728	60,994	-0,188	-0,131
99,743	-131,943	-0,215	-0,019
100,757	147,002	-0,230	-0,217
101,772	162,898	-0,210	-0,207
102,787	584,058	-0,163	-0,283
103,801	-68,249	-0,400	-0,108
104,816	215,425	-0,126	-0,141
105,830	64,557	-0,298	-0,210
106,845	-36,261	-0,322	-0,121
107,860	-200,000	-0,266	0,000
108,874	141,415	-0,207	-0,193
109,889	206,520	-0,243	-0,265
110,903	-0,432	-0,349	-0,173
111,918	161,220	-0,171	-0,168
112,933	6,311	-0,298	-0,155
113,947	-8,433	-0,300	-0,141
114,962	5,849	-0,331	-0,171
115,976	115,761	-0,332	-0,285
116,991	240,218	-0,228	-0,267
118,006	69,803	-0,309	-0,223
119,020	42,070	-0,268	-0,170
120,035	212,490	-0,216	-0,239
121,049	62,173	-0,256	-0,179
122,064	417,842	-0,132	-0,198
123,079	489,621	-0,051	-0,082
124,093	68,095	-0,201	-0,144
125,108	111,316	-0,155	-0,130
126,122	320,498	-0,142	-0,190
127,137	36,528	-0,166	-0,102
128,151	102,522	-0,211	-0,173
129,166	-152,639	-0,273	-0,013
130,181	128,471	-0,244	-0,218
131,195	1,140	-0,313	-0,157
132,210	108,840	-0,213	-0,179
133,224	188,158	-0,278	-0,292
134,239	174,771	-0,082	-0,083
135,254	14,363	-0,252	-0,137
136,268	123,173	-0,199	-0,174
137,283	71,050	-0,249	-0,180
138,297	104,923	-0,295	-0,243
139,312	300,842	-0,243	-0,315
140,327	138,733	-0,320	-0,294
141,341	213,917	-0,230	-0,255
142,356	800,000	-0,063	-0,129
143,370	290,432	-0,129	-0,165
144,385	305,525	-0,259	-0,338
145,400	124,632	-0,192	-0,169
146,414	118,069	-0,283	-0,244
147,429	330,218	-0,193	-0,261
148,443	-26,860	-0,309	-0,125
149,458	-70,540	-0,239	-0,063
150,473	176,747	-0,194	-0,197
151,487	-111,362	-0,277	-0,039
152,502	121,569	-0,253	-0,220
153,516	138,629	-0,346	-0,317
154,531	425,696	-0,162	-0,244
155,546	124,556	-0,248	-0,218
156,560	-83,895	-0,289	-0,064
157,575	90,179	-0,247	-0,193
158,589	208,849	-0,176	-0,192
159,604	102,768	-0,276	-0,226
160,619	270,616	-0,289	-0,356
161,633	197,663	-0,217	-0,232
162,648	319,096	-0,177	-0,235
163,662	-41,643	-0,261	-0,093
164,677	-55,364	-0,365	-0,114
165,692	123,918	-0,233	-0,204
166,706	159,399	-0,234	-0,228
167,721	-2,019	-0,344	-0,168
168,735	37,848	-0,330	-0,204
169,750	13,429	-0,332	-0,179
170,764	539,848	-0,201	-0,335
171,779	-20,451	-0,162	-0,069
172,794	418,131	-0,152	-0,227
173,808	40,941	-0,204	-0,128
174,823	165,510	-0,211	-0,208
175,837	31,097	-0,295	-0,176
176,852	305,952	-0,118	-0,154
177,867	-8,228	-0,312	-0,146
178,881	459,223	-0,100	-0,155
179,896	134,107	-0,228	-0,206
180,910	99,185	-0,237	-0,191
181,925	140,547	-0,230	-0,211
182,940	130,921	-0,261	-0,234
183,954	257,553	-0,160	-0,192
184,969	161,860	-0,191	-0,187
185,983	68,199	-0,214	-0,153
186,998	38,122	-0,188	-0,116
188,013	-200,000	-0,059	-0,279
189,027	27,709	-0,294	-0,172
190,042	-113,828	-0,201	0,027
191,056	20,764	-0,239	-0,134
192,071	-108,225	-0,241	-0,036
193,086	27,813	-0,209	-0,122
194,100	-45,986	-0,123	-0,042
195,115	623,310	-0,138	-0,242
196,129	144,856	-0,163	-0,151
197,144	138,792	-0,195	-0,178
198,159	-54,092	-0,243	-0,077
199,173	270,064	-0,212	-0,260
200,188	149,407	-0,206	-0,194
201,202	116,716	-0,168	-0,143
202,217	-4,182	-0,074	0,036
203,232	-55,684	-0,200	-0,062
204,246	122,441	-0,280	-0,243
205,261	156,623	-0,226	-0,218
206,275	92,639	-0,147	-0,115
207,290	58,609	-0,185	-0,126
208,304	800,000	-0,058	-0,120
209,319	35,064	-0,227	-0,138
210,334	32,196	-0,207	-0,124
211,348	68,959	-0,216	-0,154
212,363	25,627	-0,257	-0,148
213,377	75,873	-0,167	-0,123
214,392	271,648	-0,161	-0,198
215,407	-188,007	-0,185	-0,002
216,421	17,818	-0,174	-0,096
217,436	109,212	-0,246	-0,205
218,450	-56,816	-0,353	-0,108
219,465	232,996	-0,166	-0,190
220,480	14,370	-0,256	-0,138
221,494	181,662	-0,167	-0,171
222,509	7,810	-0,130	-0,067
223,523	-53,757	-0,241	-0,076
224,538	210,999	-0,203	-0,221
225,553	-8,489	-0,283	-0,132
226,567	39,005	-0,213	-0,132
227,582	-31,899	-0,295	-0,114
228,596	-3,076	-0,179	-0,086
229,611	170,848	-0,096	-0,096
230,626	188,438	-0,207	-0,215
231,640	132,114	-0,267	-0,238
232,655	68,138	-0,183	-0,130
233,669	87,381	-0,230	-0,176
234,684	12,800	-0,255	-0,136
235,699	67,769	-0,200	-0,142
236,713	76,336	-0,081	-0,059
237,728	800,000	-0,076	-0,219
238,742	-52,382	-0,278	-0,089
239,757	89,063	-0,132	-0,102
240,772	69,557	-0,263	-0,187
241,786	173,059	-0,228	-0,228
242,801	310,585	-0,182	-0,237
243,815	-200,000	-0,035	-0,154
244,830	48,722	-0,225	-0,146
245,844	46,998	-0,218	-0,140
246,859	472,519	-0,167	-0,261
247,874	414,383	-0,190	-0,281
248,888	-28,723	-0,339	-0,134
249,903	284,584	-0,186	-0,232
250,917	327,228	-0,156	-0,208
251,932	269,776	-0,136	-0,166
252,947	-34,304	-0,211	-0,080
253,961	-23,207	-0,188	-0,078
254,976	46,680	-0,285	-0,183
255,990	187,419	-0,205	-0,212
257,005	-188,603	-0,158	-0,001
258,020	53,078	-0,121	-0,080
259,034	6,733	-0,039	-0,020
260,049	285,074	-0,106	-0,133
261,063	68,656	-0,192	-0,136
262,078	180,724	-0,190	-0,193
263,093	6,455	-0,205	-0,105
264,107	160,224	-0,174	-0,168
265,122	301,880	-0,107	-0,138
266,136	377,172	-0,089	-0,127
267,151	69,820	-0,158	-0,113
268,166	143,320	-0,193	-0,178
269,180	-131,944	-0,170	-0,015
270,195	88,986	-0,196	-0,151
271,209	29,387	-0,264	-0,155
272,224	64,207	-0,162	-0,113
273,239	288,660	-0,105	-0,132
274,253	-25,982	-0,185	-0,075
275,268	118,942	-0,200	-0,171
276,282	119,269	-0,165	-0,141
277,297	99,816	-0,189	-0,151
278,312	8,519	-0,179	-0,093
279,326	-32,793	-0,198	-0,076
280,341	-73,011	-0,045	-0,011
281,355	311,386	-0,195	-0,253
282,370	216,072	-0,107	-0,118
283,384	74,429	-0,171	-0,124
284,399	-135,892	-0,208	-0,017
285,414	-25,227	-0,247	-0,100
286,428	-75,115	-0,141	-0,034
287,443	25,661	-0,170	0,097
288,457	-143,691	-0,125	-0,008
289,472	273,875	-0,089	-0,109
290,487	281,207	-0,172	-0,213
291,501	188,032	-0,202	-0,208
292,516	-71,014	-0,230	-0,059
293,530	50,177	-0,067	-0,043
294,545	-200,000	0,007	-0,079
295,560	-158,738	-0,083	0,003
296,574	-153,183	-0,150	-0,007
297,589	-46,784	-0,243	-0,082
298,603	-28,323	-0,134	-0,053
299,618	67,482	-0,164	-0,116
300,633	43,069	-0,136	-0,086
301,647	-75,117	-0,150	-0,037
302,662	-95,651	-0,066	0,012
303,676	194,984	-0,147	-0,154
304,691	-96,075	-0,214	-0,039
305,706	210,908	-0,115	-0,125
306,720	-200,000	-0,050	-0,191
307,735	-106,530	-0,106	0,016
308,749	238,292	-0,027	-0,031
309,764	123,194	-0,118	-0,102
310,779	57,139	-0,117	-0,079
311,793	-200,000	-0,024	-0,165
312,808	-46,602	-0,093	-0,031
313,822	800,000	-0,055	-0,157
314,837	-74,500	-0,168	0,041
315,852	-200,000	-0,023	-0,147
316,866	168,341	-0,074	-0,073
317,881	217,334	-0,135	-0,148
318,895	800,000	-0,098	-0,206
319,910	107,033	-0,161	-0,132
320,925	800,000	-0,099	-0,289
321,939	800,000	-0,094	-0,241
322,954	758,184	-0,105	-0,197
323,968	155,303	-0,081	-0,077
324,983	307,911	-0,117	-0,150
325,997	125,985	-0,135	-0,117
327,012	36,347	-0,116	-0,070
328,027	102,371	-0,257	-0,207
329,041	-200,000	-0,021	-0,171
330,056	-61,096	-0,185	-0,053
331,070	88,309	-0,148	-0,113
332,085	422,136	-0,051	-0,075
333,100	-200,000	-0,055	-0,184
334,114	-200,000	-0,012	-0,216
335,129	74,153	-0,149	-0,107
336,143	20,764	-0,097	-0,054
337,158	-134,643	-0,135	-0,011
338,173	-84,444	-0,098	-0,021
339,187	108,138	-0,175	-0,144
340,202	-130,019	-0,119	0,011
341,216	-82,464	-0,044	0,010
342,231	279,525	-0,131	-0,161
343,246	134,829	-0,106	-0,094
344,260	162,507	-0,155	-0,150
345,275	65,978	0,083	-0,058
346,289	219,043	-0,109	-0,120
347,304	10,387	-0,099	-0,052
348,319	156,336	-0,097	-0,092
349,333	-10,456	-0,229	-0,104
350,348	800,000	-0,059	-0,137
351,362	168,880	-0,174	-0,171
352,377	147,642	-0,122	-0,113
353,392	9,041	-0,098	-0,051
354,406	-50,034	-0,146	-0,047
355,421	209,786	1310,897	1412,893
356,435	161,473	1471,171	1413,395
