DTS Sentinel unit serial number:	SN410029Multiplexer serial number:	ORYXHardware model number:	OX2-SRSoftware version number:	ORYX F/W v4,00 Oryx Data Collector v3.7.2.0data status	okinstallation	B3 Nyhavnadifferential loss correction	single-endedforward channel	channel 1reverse channel	N/Adate	2023/11/29time	13:07:30forward acquisition time	300,00reverse acquisition time	0,00gamma	499,1914k internal	0,3212k external	0,3212temperature offset calibration	1,0000default loss term (dB/km)	0,3820temperature slope calibration	1,0000multiplexer offset coefficient	1,0000multiplexer slope coefficient	1,0000fibre end	0,00T internal ref (°C)	10,16T ext. ref 1 (°C)	-3,83T ext. ref 2 (°C)	-3,98length (m)	temperature (°C)	Stokes	anti-Stokes-744,400	585,103	-0,132	-0,236
-743,385	635,433	0,155	0,286
-742,371	281,554	-0,219	-0,285
-741,356	-200,000	-0,024	0,390
-740,342	379,070	-0,179	-0,266
-739,327	-200,000	-0,058	0,265
-738,312	150,769	-0,206	-0,203
-737,298	-200,000	-0,047	0,274
-736,283	212,271	-0,159	-0,182
-735,269	-200,000	-0,069	0,433
-734,254	800,000	-0,151	-0,341
-733,239	-38,665	-0,323	0,123
-732,225	174,816	-0,132	-0,138
-731,210	-200,000	0,080	0,272
-730,196	766,835	-0,020	-0,039
-729,181	745,337	-0,004	-0,007
-728,167	126,330	-0,023	-0,021
-727,152	253,833	0,083	0,103
-726,137	-115,933	-0,068	0,009
-725,123	566,929	0,048	0,085
-724,108	-38,508	-0,181	-0,069
-723,094	-127,052	-0,074	-0,008
-722,079	800,000	0,015	-0,040
-721,064	-100,337	0,065	-0,012
-720,050	3,147	0,045	0,024
-719,035	-200,000	0,013	0,083
-718,021	198,160	-0,023	0,025
-717,006	58,118	-0,123	-0,087
-715,991	577,216	0,034	-0,060
-714,977	45,146	-0,023	0,016
-713,962	13,211	-0,070	0,039
-712,948	800,000	-0,016	0,040
-711,933	-60,536	0,052	0,016
-710,918	-87,514	0,058	0,013
-709,904	-200,000	-0,003	-0,078
-708,889	-131,310	-0,182	-0,017
-707,875	-38,657	0,109	-0,041
-706,860	-200,000	-0,001	-0,099
-705,845	-71,947	-0,004	-0,001
-704,831	800,000	0,073	0,192
-703,816	467,661	-0,061	0,100
-702,802	130,899	-0,095	-0,089
-701,787	339,083	-0,102	-0,144
-700,772	-121,669	-0,056	0,007
-699,758	-200,000	-0,001	-0,231
-698,743	170,770	-0,092	-0,096
-697,729	800,000	0,034	0,077
-696,714	800,000	-0,021	0,062
-695,699	-200,000	0,010	0,057
-694,685	800,000	0,038	-0,076
-693,670	800,000	0,048	-0,151
-692,656	-16,911	-0,003	-0,001
-691,641	-200,000	-0,019	0,120
-690,627	800,000	0,083	0,175
-689,612	-54,376	0,096	-0,031
-688,597	391,325	-0,040	0,060
-687,583	-26,871	-0,083	-0,035
-686,568	-200,000	0,009	-0,134
-685,554	-104,746	-0,009	0,001
-684,539	495,588	-0,029	0,049
-683,524	800,000	-0,073	-0,163
-682,510	215,695	-0,031	0,036
-681,495	-2,554	0,103	0,052
-680,481	800,000	-0,014	-0,043
-679,466	755,353	-0,070	-0,137
-678,451	147,161	-0,058	0,056
-677,437	-200,000	-0,003	-0,030
-676,422	159,784	-0,031	-0,031
-675,408	-154,680	0,113	0,005
-674,393	-18,801	-0,052	0,023
-673,378	-200,000	-0,004	-0,139
-672,364	-200,000	0,025	-0,194
-671,349	299,554	0,038	-0,051
-670,335	-105,560	-0,053	0,009
-669,320	-118,037	0,082	-0,010
-668,305	-9,646	-0,048	0,023
-667,291	-53,252	-0,058	-0,019
-666,276	-0,495	0,152	-0,078
-665,262	800,000	-0,049	-0,108
-664,247	-82,297	-0,072	0,017
-663,232	41,285	0,079	-0,052
-662,218	-110,167	-0,040	0,006
-661,203	-200,000	-0,009	-0,060
-660,189	113,463	-0,021	0,019
-659,174	226,870	-0,072	-0,084
-658,159	-200,000	-0,027	-0,108
-657,145	610,354	-0,104	-0,189
-656,130	294,555	-0,045	-0,060
-655,116	48,544	-0,031	-0,021
-654,101	-200,000	-0,007	-0,096
-653,086	165,407	-0,007	-0,008
-652,072	99,703	-0,031	-0,026
-651,057	-200,000	-0,017	-0,070
-650,043	101,701	-0,065	0,055
-649,028	-39,134	0,088	0,033
-648,014	-110,992	-0,092	0,014
-646,999	12,649	-0,061	0,034
-645,984	114,914	0,079	-0,070
-644,970	161,135	-0,027	-0,027
-643,955	244,680	0,050	-0,060
-642,941	141,743	-0,067	-0,064
-641,926	-200,000	0,011	-0,100
-640,911	-150,300	0,052	0,003
-639,897	170,806	0,091	0,094
-638,882	-52,050	0,052	0,017
-637,868	27,368	-0,053	-0,032
-636,853	-60,860	-0,148	-0,045
-635,838	800,000	0,039	0,098
-634,824	800,000	0,038	-0,089
-633,809	-17,937	-0,088	-0,039
-632,795	-200,000	0,019	-0,172
-631,780	-115,033	-0,035	-0,005
-630,765	-200,000	-0,003	-0,051
-629,751	31,401	0,034	-0,021
-628,736	-200,000	-0,014	-0,068
-627,722	-96,037	-0,101	-0,019
-626,707	-16,786	0,208	-0,094
-625,692	70,156	-0,128	0,095
-624,678	-200,000	0,005	0,162
-623,663	-200,000	0,029	0,100
-622,649	-12,127	-0,016	-0,008
-621,634	383,327	-0,079	-0,117
-620,619	597,110	-0,075	-0,135
-619,605	800,000	0,033	-0,075
-618,590	-200,000	-0,002	-0,122
-617,576	1,886	0,044	0,023
-616,561	800,000	0,011	0,027
-615,546	172,464	-0,065	-0,067
-614,532	800,000	-0,052	-0,122
-613,517	-200,000	0,012	-0,085
-612,503	16,004	-0,055	-0,031
-611,488	22,425	0,092	-0,054
-610,474	36,447	0,035	0,022
-609,459	-90,797	-0,100	-0,021
-608,444	-200,000	0,037	-0,164
-607,430	-200,000	0,018	-0,061
-606,415	220,503	0,044	-0,051
-605,401	198,858	0,079	-0,088
-604,386	-200,000	0,009	-0,086
-603,371	187,131	-0,071	0,076
-602,357	800,000	0,039	0,119
-601,342	170,190	-0,024	-0,025
-600,328	447,648	-0,061	-0,098
-599,313	-2,829	0,054	-0,027
-598,298	596,816	0,036	0,065
-597,284	-115,538	0,095	-0,013
-596,269	800,000	-0,039	0,106
-595,255	800,000	-0,023	0,061
-594,240	800,000	0,037	-0,114
-593,225	800,000	-0,084	-0,169
-592,211	-200,000	-0,040	0,188
-591,196	214,627	0,074	-0,085
-590,182	-78,802	0,073	-0,018
-589,167	-200,000	-0,014	-0,061
-588,152	-200,000	0,006	-0,079
-587,138	-145,593	0,079	0,005
-586,123	-33,893	-0,201	0,079
-585,109	-17,194	-0,178	-0,081
-584,094	25,214	0,075	0,045
-583,079	45,765	0,188	0,125
-582,065	431,644	-0,066	0,103
-581,050	-177,578	0,033	0,001
-580,036	158,528	0,017	-0,017
-579,021	124,893	0,113	-0,102
-578,006	-200,000	0,018	-0,090
-576,992	75,298	0,051	0,039
-575,977	133,582	-0,089	-0,083
-574,963	-102,320	-0,037	0,006
-573,948	-58,522	-0,011	-0,003
-572,934	-200,000	0,005	0,097
-571,919	422,407	0,061	-0,095
-570,904	125,655	-0,070	0,064
-569,890	9,323	0,157	-0,085
-568,875	48,344	0,067	-0,045
-567,861	163,048	0,086	0,087
-566,846	-200,000	0,018	0,069
-565,831	-200,000	0,011	-0,047
-564,817	68,927	-0,070	-0,052
-563,802	-151,208	-0,125	0,007
-562,788	-33,669	-0,128	-0,051
-561,773	-14,102	0,070	0,032
-560,758	-200,000	0,015	0,103
-559,744	800,000	0,012	-0,024
-558,729	731,280	-0,050	-0,098
-557,715	-200,000	0,019	0,081
-556,700	8,691	0,080	0,043
-555,685	-95,722	-0,047	-0,009
-554,671	99,629	-0,055	-0,046
-553,656	-1,986	0,105	-0,053
-552,642	159,117	-0,083	0,083
-551,627	-50,146	-0,084	0,028
-550,612	800,000	-0,036	0,106
-549,598	-3,451	-0,088	-0,044
-548,583	-78,692	-0,137	-0,033
-547,569	800,000	0,012	-0,036
-546,554	-61,782	0,137	0,041
-545,539	180,606	-0,057	0,060
-544,525	-89,263	0,088	0,018
-543,510	26,783	-0,044	0,026
-542,496	-200,000	-0,019	-0,082
-541,481	-72,276	-0,026	-0,007
-540,466	196,425	-0,063	-0,069
-539,452	8,380	0,084	-0,045
-538,437	800,000	-0,012	-0,026
-537,423	-200,000	-0,008	0,028
-536,408	430,749	-0,116	0,181
-535,393	-38,456	0,047	0,018
-534,379	-200,000	-0,020	-0,156
-533,364	155,765	-0,068	-0,067
-532,350	-17,829	0,024	0,011
-531,335	800,000	0,049	0,104
-530,321	31,871	-0,053	0,033
-529,306	584,611	-0,013	-0,023
-528,291	-200,000	-0,014	-0,117
-527,277	-155,879	-0,112	-0,005
-526,262	-200,000	0,006	-0,081
-525,248	-200,000	-0,004	0,078
-524,233	460,273	-0,026	0,042
-523,218	-200,000	-0,025	0,100
-522,204	461,228	-0,027	0,044
-521,189	-27,759	-0,072	-0,030
-520,175	506,484	-0,032	0,053
-519,160	800,000	0,052	0,159
-518,145	800,000	-0,006	-0,013
-517,131	112,785	-0,028	0,025
-516,116	166,673	0,032	0,033
-515,102	429,789	0,038	0,059
-514,087	-200,000	0,016	-0,156
-513,072	-200,000	0,002	-0,097
-512,058	20,486	0,108	-0,063
-511,043	212,040	0,045	-0,051
-510,029	408,432	0,095	-0,145
-509,014	124,077	-0,105	0,095
-507,999	293,188	-0,028	0,037
-506,985	115,685	-0,079	0,069
-505,970	301,012	-0,080	0,106
-504,956	63,693	-0,052	0,037
-503,941	-200,000	0,019	-0,123
-502,926	104,544	0,102	0,087
-501,912	22,693	0,061	0,036
-500,897	133,317	0,026	0,024
-499,883	-200,000	0,000	-0,178
-498,868	37,975	-0,073	-0,047
-497,853	-87,147	0,059	-0,013
-496,839	-19,703	0,036	0,016
-495,824	-93,909	0,050	0,010
-494,810	-200,000	0,024	-0,077
-493,795	600,867	0,067	0,119
-492,781	-200,000	0,019	-0,125
-491,766	-154,227	-0,035	0,002
-490,751	-14,168	-0,119	-0,055
-489,737	800,000	0,020	-0,061
-488,722	188,565	0,060	0,064
-487,708	-105,834	0,174	-0,028
-486,693	289,326	-0,129	0,169
-485,678	-200,000	-0,010	0,087
-484,664	800,000	0,039	-0,096
-483,649	536,295	-0,043	-0,073
-482,635	-200,000	0,008	-0,046
-481,620	-200,000	-0,007	0,089
-480,605	-107,546	0,071	-0,011
-479,591	800,000	-0,048	-0,150
-478,576	300,778	0,061	-0,081
-477,562	49,770	0,157	-0,106
-476,547	23,472	-0,122	-0,072
-475,532	-90,603	-0,078	-0,016
-474,518	18,566	0,121	0,069
-473,503	635,597	-0,055	0,100
-472,489	-200,000	0,005	0,049
-471,474	-119,424	-0,060	0,007
-470,459	-177,318	-0,067	-0,001
-469,445	-119,598	-0,111	0,014
-468,430	60,541	-0,095	0,067
-467,416	27,511	0,066	-0,040
-466,401	17,128	-0,069	0,039
-465,386	800,000	-0,026	0,062
-464,372	-200,000	0,022	-0,086
-463,357	87,752	0,109	0,087
-462,343	-200,000	-0,001	-0,118
-461,328	95,268	0,033	-0,027
-460,313	-191,195	0,012	0,000
-459,299	-84,777	0,147	-0,033
-458,284	4,505	0,051	0,027
-457,270	171,039	0,185	0,190
-456,255	317,948	-0,021	0,029
-455,241	378,805	0,058	-0,086
-454,226	64,673	0,091	0,065
-453,211	-11,114	0,144	-0,068
-452,197	98,718	-0,118	0,098
-451,182	800,000	-0,031	0,092
-450,168	-77,111	0,075	0,019
-449,153	61,359	-0,135	0,096
-448,138	-200,000	-0,020	-0,109
-447,124	31,088	-0,173	-0,106
-446,109	-147,821	0,136	0,008
-445,095	-12,943	0,220	0,102
-444,080	-200,000	0,005	0,040
-443,065	800,000	0,025	0,051
-442,051	-46,035	0,107	0,038
-441,036	-28,442	-0,077	0,032
-440,022	-21,218	0,086	0,038
-439,007	-200,000	0,037	0,170
-437,992	800,000	-0,020	-0,046
-436,978	651,438	-0,023	-0,042
-435,963	70,052	-0,013	-0,010
-434,949	490,524	-0,047	-0,077
-433,934	505,390	-0,041	0,069
-432,919	-75,251	0,061	-0,016
-431,905	120,387	0,098	-0,087
-430,890	102,163	0,089	-0,074
-429,876	-200,000	-0,002	-0,167
-428,861	-200,000	-0,020	0,090
-427,846	-200,000	0,012	-0,052
-426,832	800,000	0,055	-0,114
-425,817	140,974	-0,048	-0,045
-424,803	-90,027	0,149	0,031
-423,788	316,854	-0,035	-0,047
-422,773	-126,123	0,161	-0,017
-421,759	-200,000	-0,001	-0,028
-420,744	-200,000	-0,040	0,188
-419,730	237,124	-0,082	-0,098
-418,715	559,668	-0,053	0,091
-417,701	800,000	-0,011	0,022
-416,686	24,005	0,117	0,069
-415,671	-55,832	0,168	0,053
-414,657	116,939	-0,140	-0,123
-413,642	89,233	0,064	0,051
-412,628	-57,807	-0,140	0,044
-411,613	226,982	-0,146	-0,169
-410,598	36,341	-0,083	-0,052
-409,584	1,113	0,156	0,080
-408,569	-31,944	0,088	-0,035
-407,555	-99,149	-0,104	0,019
-406,540	-171,125	-0,040	-0,001
-405,525	800,000	-0,005	-0,011
-404,511	-97,672	-0,102	0,019
-403,496	-200,000	-0,002	-0,117
-402,482	37,797	-0,061	-0,039
-401,467	-160,403	0,142	-0,005
-400,452	54,725	0,085	-0,058
-399,438	21,286	-0,050	-0,029
-398,423	232,526	-0,052	-0,061
-397,409	-88,491	-0,195	-0,041
-396,394	-200,000	0,006	-0,070
-395,379	128,819	0,037	0,034
-394,365	43,176	0,066	0,043
-393,350	244,820	-0,049	0,059
-392,336	-200,000	0,019	0,071
-391,321	-200,000	-0,007	-0,175
-390,306	-33,641	-0,069	-0,027
-389,292	245,997	-0,041	0,049
-388,277	800,000	-0,042	0,114
-387,263	-200,000	0,001	0,121
-386,248	800,000	-0,034	0,071
-385,233	390,429	-0,065	0,097
-384,219	-36,696	0,092	-0,035
-383,204	-28,237	-0,075	-0,031
-382,190	-115,819	-0,074	-0,010
-381,175	-65,743	-0,088	-0,025
-380,160	44,697	0,020	0,013
-379,146	149,673	0,038	-0,037
-378,131	359,390	-0,040	-0,058
-377,117	167,339	-0,024	-0,024
-376,102	142,782	0,049	-0,047
-375,088	15,169	-0,123	0,069
-374,073	488,924	-0,048	-0,078
-373,058	-101,650	0,032	-0,005
-372,044	-127,322	0,046	0,005
-371,029	-200,000	-0,024	0,171
-370,015	-14,768	-0,039	0,018
-369,000	-152,532	-0,177	0,009
-367,985	800,000	0,052	-0,104
-366,971	112,757	0,032	0,028
-365,956	289,781	-0,095	-0,123
-364,942	119,156	-0,031	-0,027
-363,927	-96,657	0,158	-0,029
-362,912	112,441	0,069	-0,060
-361,898	-88,940	-0,150	-0,031
-360,883	224,681	-0,083	-0,096
-359,869	537,520	-0,009	-0,016
-358,854	86,902	0,004	-0,003
-357,839	71,009	0,084	0,062
-356,825	103,710	0,105	-0,088
-355,810	434,706	0,043	0,067
-354,796	230,663	-0,032	0,038
-353,781	800,000	-0,061	-0,121
-352,766	53,562	-0,050	-0,034
-351,752	-200,000	0,002	-0,034
-350,737	571,055	0,014	-0,025
-349,723	318,888	0,018	0,024
-348,708	681,868	0,025	-0,047
-347,693	-200,000	0,039	-0,217
-346,679	-19,037	-0,117	-0,052
-345,664	800,000	0,031	0,066
-344,650	8,036	0,075	-0,040
-343,635	18,244	0,044	-0,025
-342,620	-200,000	0,007	0,032
-341,606	-116,510	0,044	0,006
-340,591	-113,593	0,028	0,004
-339,577	157,042	-0,116	-0,114
-338,562	800,000	0,032	-0,089
-337,548	-40,947	-0,046	0,017
-336,533	800,000	0,031	0,073
-335,518	216,125	0,024	0,027
-334,504	151,674	0,045	0,044
-333,489	-83,052	-0,140	0,032
-332,475	139,039	-0,028	0,026
-331,460	800,000	-0,017	0,041
-330,445	-13,356	0,032	0,015
-329,431	-145,142	0,112	0,007
-328,416	3,674	-0,012	-0,006
-327,402	-39,854	0,062	-0,023
-326,387	-200,000	0,008	0,077
-325,372	197,380	0,084	0,092
-324,358	690,683	0,089	0,166
-323,343	606,262	-0,049	-0,088
-322,329	-25,246	0,142	0,060
-321,314	452,756	0,105	0,166
-320,299	-200,000	0,003	0,091
-319,285	796,905	0,040	0,079
-318,270	-200,000	-0,016	-0,154
-317,256	-103,585	-0,099	-0,016
-316,241	-182,221	-0,031	-0,000
-315,226	130,515	-0,055	0,051
-314,212	-119,071	0,121	-0,015
-313,197	800,000	0,044	0,118
-312,183	-119,634	-0,137	0,017
-311,168	-58,735	-0,158	0,048
-310,153	16,720	0,069	-0,039
-309,139	-200,000	0,023	-0,131
-308,124	-200,000	-0,036	-0,125
-307,110	-52,406	0,043	0,014
-306,095	62,511	0,079	0,056
-305,080	92,278	0,057	0,046
-304,066	-96,532	-0,166	-0,031
-303,051	286,616	-0,066	0,085
-302,037	-200,000	0,005	-0,078
-301,022	-200,000	-0,009	0,128
-300,008	-92,591	0,133	0,026
-298,993	316,506	0,110	0,148
-297,978	-75,855	-0,150	0,038
-296,964	27,151	-0,146	0,087
-295,949	-200,000	-0,012	0,044
-294,935	-104,765	0,120	0,019
-293,920	310,411	0,085	0,113
-292,905	101,879	-0,063	0,052
-291,891	800,000	0,064	-0,197
-290,876	127,942	-0,068	0,061
-289,862	-54,961	0,155	-0,049
-288,847	582,690	-0,061	-0,107
-287,832	427,196	0,059	0,091
-286,818	800,000	-0,064	-0,148
-285,803	164,418	0,026	-0,026
-284,789	-200,000	-0,001	0,077
-283,774	1,413	-0,091	-0,047
-282,759	800,000	0,058	0,151
-281,745	107,840	0,067	-0,057
-280,730	-57,216	-0,117	-0,036
-279,716	262,229	-0,026	0,032
-278,701	-97,771	0,049	0,009
-277,686	89,331	0,032	0,025
-276,672	-178,007	0,168	-0,003
-275,657	99,773	-0,034	-0,028
-274,643	-82,409	-0,093	-0,021
-273,628	-47,493	0,060	-0,021
-272,613	-36,056	0,053	0,020
-271,599	-200,000	-0,008	0,097
-270,584	88,292	0,070	0,056
-269,570	-200,000	-0,007	0,156
-268,555	800,000	-0,016	0,031
-267,540	341,905	-0,023	-0,032
-266,526	-200,000	-0,019	0,108
-265,511	87,265	0,033	-0,026
-264,497	13,027	-0,137	-0,075
-263,482	-200,000	-0,024	0,173
-262,467	-6,893	-0,097	0,047
-261,453	800,000	-0,046	0,111
-260,438	-200,000	0,009	0,065
-259,424	-200,000	0,018	-0,097
-258,409	-138,787	-0,126	0,010
-257,395	-46,313	-0,050	-0,017
-256,380	52,629	0,066	-0,045
-255,365	-200,000	0,015	0,096
-254,351	389,969	-0,059	-0,088
-253,336	154,937	-0,156	-0,152
-252,322	800,000	0,058	-0,114
-251,307	-200,000	-0,012	-0,041
-250,292	16,100	0,045	0,025
-249,278	6,720	0,080	0,042
-248,263	-71,709	-0,031	-0,008
-247,249	-200,000	-0,004	0,084
-246,234	353,402	-0,012	0,017
-245,219	-129,961	0,041	-0,004
-244,205	0,541	-0,058	0,029
-243,190	-46,123	-0,030	0,010
-242,176	-200,000	-0,019	0,094
-241,161	172,049	0,098	0,101
-240,146	196,415	-0,087	0,095
-239,132	800,000	-0,042	0,095
-238,117	195,085	-0,045	-0,048
-237,103	616,784	0,064	-0,115
-236,088	22,443	0,146	0,085
-235,073	396,064	-0,042	0,063
-234,059	-146,002	0,076	0,005
-233,044	170,950	0,059	0,060
-232,030	800,000	0,036	0,096
-231,015	-77,981	-0,028	-0,007
-230,000	-29,026	-0,078	0,032
-228,986	-150,607	-0,111	-0,006
-227,971	-63,120	0,130	-0,038
-226,957	-154,510	-0,035	0,002
-225,942	196,537	-0,034	-0,037
-224,927	396,614	0,016	-0,024
-223,913	800,000	-0,016	-0,045
-222,898	43,616	-0,055	0,036
-221,884	-200,000	-0,003	-0,029
-220,869	-58,247	-0,059	0,018
-219,855	-102,233	0,048	0,008
-218,840	-200,000	-0,017	0,169
-217,825	91,169	0,098	-0,078
-216,811	800,000	0,022	-0,060
-215,796	-200,000	-0,041	0,133
-214,782	-200,000	0,014	-0,099
-213,767	-72,687	0,065	0,017
-212,752	30,833	0,039	0,024
-211,738	-200,000	-0,038	0,135
-210,723	23,354	-0,019	-0,011
-209,709	236,815	-0,035	-0,042
-208,694	-200,000	0,003	-0,038
-207,679	-200,000	0,018	-0,072
-206,665	800,000	0,042	0,092
-205,650	-63,206	-0,115	0,033
-204,636	630,138	-0,082	0,148
-203,621	-200,000	0,009	-0,087
-202,606	-93,336	-0,054	0,010
-201,592	-200,000	-0,009	-0,121
-200,577	800,000	0,036	-0,073
-199,563	318,713	0,042	0,057
-198,548	800,000	-0,050	0,142
-197,533	-85,340	0,124	0,027
-196,519	-46,404	0,082	0,028
-195,504	-159,960	0,015	0,001
-194,490	73,279	-0,091	0,067
-193,475	-200,000	-0,001	-0,053
-192,460	-79,557	0,102	0,024
-191,446	453,759	-0,053	0,084
-190,431	-36,561	0,126	0,048
-189,417	-28,329	-0,075	-0,031
-188,402	800,000	0,056	-0,163
-187,387	152,656	-0,124	-0,120
-186,373	64,421	0,117	0,084
-185,358	-200,000	-0,011	0,099
-184,344	59,071	-0,095	-0,066
-183,329	531,681	0,049	-0,082
-182,315	344,473	-0,005	-0,007
-181,300	-200,000	-0,003	0,020
-180,285	-59,099	-0,093	-0,028
-179,271	-17,180	-0,075	0,033
-178,256	-112,127	0,069	-0,010
-177,242	309,160	-0,035	-0,047
-176,227	-200,000	-0,000	0,093
-175,212	554,128	-0,042	-0,071
-174,198	-200,000	-0,007	-0,137
-173,183	-45,420	0,019	0,007
-172,169	327,353	-0,130	-0,177
-171,154	38,397	0,019	-0,012
-170,139	526,918	0,051	0,085
-169,125	-46,886	-0,052	0,018
-168,110	224,444	-0,107	0,123
-167,096	-63,265	-0,081	0,024
-166,081	85,081	-0,050	-0,039
-165,066	800,000	-0,059	-0,163
-164,052	800,000	0,015	0,044
-163,037	567,368	-0,023	0,039
-162,023	-79,983	0,260	0,061
-161,008	-200,000	-0,017	0,148
-159,993	-46,749	0,096	0,033
-158,979	797,173	0,044	0,087
-157,964	-137,512	0,082	0,007
-156,950	-54,751	0,053	0,017
-155,935	-99,824	-0,110	0,019
-154,920	-87,576	0,118	0,025
-153,906	800,000	0,037	0,102
-152,891	800,000	-0,009	0,023
-151,877	342,047	-0,073	0,101
-150,862	-200,000	0,001	-0,158
-149,847	-98,858	-0,076	-0,014
-148,833	-78,792	-0,009	0,002
-147,818	800,000	-0,045	-0,098
-146,804	-108,876	0,094	-0,014
-145,789	-149,153	-0,139	-0,008
-144,775	-200,000	-0,004	-0,043
-143,760	-200,000	0,015	0,064
-142,745	-81,604	-0,078	0,018
-141,731	-98,352	0,033	-0,006
-140,716	-177,141	0,033	0,001
-139,702	-32,095	0,071	-0,028
-138,687	257,087	0,054	0,066
-137,672	-200,000	-0,015	-0,058
-136,658	-200,000	-0,022	-0,142
-135,643	-92,440	-0,068	-0,013
-134,629	272,461	-0,037	0,046
-133,614	-30,940	0,076	-0,030
-132,599	-20,022	-0,050	0,022
-131,585	12,095	-0,020	0,011
-130,570	239,020	-0,021	-0,025
-129,556	800,000	-0,050	0,133
-128,541	-200,000	0,000	-0,175
-127,526	-35,905	0,038	0,014
-126,512	-200,000	-0,001	-0,019
-125,497	-200,000	-0,004	0,040
-124,483	-200,000	-0,015	0,117
-123,468	-43,636	0,046	-0,016
-122,453	-10,469	-0,118	0,055
-121,439	-200,000	-0,012	-0,100
-120,424	-138,720	-0,068	0,005
-119,410	204,589	-0,041	0,045
-118,395	-200,000	-0,012	0,073
-117,380	114,806	-0,014	0,012
-116,366	800,000	0,041	-0,093
-115,351	800,000	-0,042	-0,113
-114,337	800,000	-0,053	-0,127
-113,322	247,682	0,025	0,030
-112,307	800,000	-0,020	-0,062
-111,293	-200,000	0,018	0,155
-110,278	-200,000	-0,002	0,068
-109,264	-200,000	-0,020	0,075
-108,249	115,333	0,011	-0,009
-107,234	-101,418	0,096	-0,016
-106,220	376,630	-0,055	-0,080
-105,205	189,567	-0,029	-0,031
-104,191	66,760	-0,118	0,084
-103,176	800,000	-0,021	-0,047
-102,162	800,000	-0,028	0,084
-101,147	-82,704	-0,006	0,001
-100,132	117,232	-0,061	-0,053
-99,118	108,280	-0,024	-0,021
-98,103	656,498	0,076	0,139
-97,089	-50,853	0,017	-0,005
-96,074	-200,000	-0,007	0,122
-95,059	800,000	-0,034	0,086
-94,045	-137,116	0,138	-0,011
-93,030	169,552	0,037	0,038
-92,016	169,259	-0,071	-0,071
-91,001	-97,164	-0,109	-0,020
-89,986	-85,667	0,053	-0,012
-88,972	-48,109	-0,110	0,037
-87,957	-200,000	-0,037	0,173
-86,943	618,857	0,048	0,085
-85,928	-107,903	-0,059	0,009
-84,913	800,000	-0,013	0,037
-83,899	-122,591	0,039	0,004
-82,884	-200,000	0,039	-0,129
-81,870	-200,000	0,023	0,106
-80,855	-200,000	-0,029	-0,110
-79,840	-69,248	-0,241	-0,065
-78,826	210,098	0,047	-0,052
-77,811	-10,665	-0,105	-0,049
-76,797	-85,774	-0,073	0,016
-75,782	800,000	0,018	0,053
-74,767	-200,000	-0,003	0,070
-73,753	-200,000	0,030	0,133
-72,738	77,804	-0,003	-0,002
-71,724	96,914	-0,030	-0,024
-70,709	-17,729	-0,153	-0,068
-69,694	101,302	-0,016	0,013
-68,680	58,396	-0,049	-0,034
-67,665	800,000	-0,008	-0,021
-66,651	216,174	0,102	0,114
-65,636	383,780	0,088	0,128
-64,622	-51,497	-0,191	0,063
-63,607	-200,000	-0,013	-0,086
-62,592	-157,851	-0,101	0,004
-61,578	395,399	0,048	-0,071
-60,563	-200,000	0,101	-0,000
-59,549	-89,455	-0,079	-0,016
-58,534	24,363	-1,866	-1,086
-57,519	518,319	-1,287	-2,135
-56,505	-200,000	-0,316	-4,246
-55,490	689,320	0,762	1,413
-54,476	800,000	5,119	11,306
-53,461	-200,000	21,188	338,252
-52,446	800,000	758,382	2351,580
-51,432	558,525	1661,316	2839,127
-50,417	73,524	1661,131	1225,837
-49,403	18,030	1534,693	860,699
-48,388	12,011	1457,772	788,472
-47,373	19,268	1448,905	818,438
-46,359	15,426	1438,426	794,230
-45,344	10,249	1434,154	767,209
-44,330	10,188	1432,240	765,864
-43,315	10,190	1430,252	764,781
-42,300	10,174	1428,813	763,904
-41,286	10,231	1427,367	763,371
-40,271	10,149	1426,077	762,263
-39,257	10,205	1424,979	761,912
-38,242	10,214	1423,966	761,379
-37,227	10,264	1422,766	760,948
-36,213	10,223	1421,582	760,091
-35,198	10,271	1420,292	759,596
-34,184	10,258	1419,546	759,105
-33,169	10,183	1418,200	758,000
-32,154	10,237	1417,091	757,633
-31,140	10,301	1415,855	757,243
-30,125	10,279	1414,626	756,455
-29,111	10,279	1413,607	755,879
-28,096	10,242	1412,262	754,956
-27,082	10,154	1411,264	753,978
-26,067	10,183	1410,259	753,550
-25,052	10,169	1409,214	752,894
-24,038	10,237	1408,219	752,649
-23,023	10,184	1407,209	751,835
-22,009	10,135	1406,211	751,043
-20,994	10,175	1405,275	750,697
-19,979	10,183	1404,280	750,175
-18,965	10,144	1403,317	749,448
-17,950	10,167	1402,406	749,042
-16,936	10,147	1401,610	748,492
-15,921	10,084	1400,704	747,683
-14,906	10,066	1399,867	747,125
-13,892	10,117	1398,722	746,721
-12,877	10,107	1398,055	746,288
-11,863	10,087	1397,123	745,668
-10,848	10,108	1396,093	745,188
-9,833	10,062	1395,164	744,450
-8,819	9,991	1394,604	743,793
-7,804	10,006	1393,626	743,310
-6,790	10,039	1392,310	742,732
-5,775	10,055	1391,369	742,275
-4,760	10,028	1390,302	741,550
-3,746	9,961	1389,702	740,890
-2,731	10,021	1388,667	740,586
-1,717	9,959	1387,743	739,781
-0,702	9,967	1386,365	739,050
0,313	14,059	1299,305	711,336
1,327	30,511	690,023	415,034
2,342	47,336	119,405	78,287
3,356	-0,349	16,480	8,229
4,371	-2,082	3,525	1,740
5,386	-15,893	0,982	0,439
6,400	791,410	0,252	0,490
7,415	-23,532	-0,228	-0,096
8,429	91,044	-0,274	-0,216
9,444	38,211	-0,289	-0,181
10,459	52,384	-0,171	-0,115
11,473	-27,694	-0,322	-0,131
12,488	-97,348	-0,261	-0,047
13,502	139,895	-0,268	-0,249
14,517	-86,681	-0,377	-0,081
15,531	77,490	-0,349	-0,261
16,546	38,612	-0,419	-0,263
17,561	-97,785	-0,401	-0,072
18,575	140,442	-0,183	-0,170
19,590	84,307	-0,183	-0,141
20,604	-160,732	-0,332	-0,012
21,619	62,392	-0,441	-0,309
22,634	62,272	-0,464	-0,326
23,648	71,714	-0,439	-0,321
24,663	108,883	-0,331	-0,278
25,677	293,223	-0,243	-0,312
26,692	28,924	-0,398	-0,237
27,707	-36,831	-0,321	-0,121
28,721	51,179	-0,353	-0,235
29,736	17,615	-0,498	-0,278
30,750	39,354	-0,443	-0,278
31,765	1,429	-0,318	-0,160
32,780	52,769	-0,309	-0,207
33,794	-52,516	-0,347	-0,112
34,809	92,863	-0,304	-0,241
35,823	62,144	-0,288	-0,201
36,838	-13,823	-0,421	-0,190
37,853	-5,912	-0,371	-0,178
38,867	114,777	-0,342	-0,293
39,882	41,610	-0,252	-0,160
40,896	-35,067	-0,268	-0,102
41,911	14,747	-0,365	-0,200
42,926	84,917	-0,390	-0,300
43,940	71,862	-0,351	-0,256
44,955	167,483	-0,334	-0,333
45,969	-6,008	-0,419	-0,201
46,984	-26,493	-0,319	-0,131
47,999	-41,638	-0,412	-0,148
49,013	-38,828	-0,350	-0,129
50,028	-36,001	-0,465	-0,176
51,042	58,084	-0,379	-0,261
52,057	111,217	-0,297	-0,251
53,071	-8,819	-0,273	-0,128
54,086	190,459	-0,165	-0,174
55,101	61,350	-0,274	-0,191
56,115	82,985	-0,310	-0,236
57,130	148,552	-0,355	-0,337
58,144	39,463	-0,249	-0,156
59,159	69,555	-0,335	-0,242
60,174	98,992	-0,323	-0,261
61,188	2,991	-0,328	-0,167
62,203	152,838	-0,222	-0,213
63,217	128,062	-0,326	-0,291
64,232	34,570	-0,346	-0,212
65,247	207,658	-0,310	-0,339
66,261	35,452	-0,446	-0,274
67,276	68,834	-0,277	-0,199
68,290	293,700	-0,262	-0,336
69,305	62,824	-0,249	-0,174
70,320	78,220	-0,320	-0,239
71,334	-42,405	-0,358	-0,127
72,349	111,237	-0,364	-0,307
73,363	221,086	-0,374	-0,422
74,378	136,969	-0,286	-0,262
75,393	59,706	-0,365	-0,252
76,407	-39,995	-0,243	-0,088
77,422	33,419	-0,335	-0,203
78,436	6,264	-0,308	-0,159
79,451	116,904	-0,287	-0,246
80,466	-87,057	-0,301	-0,064
81,480	130,471	-0,257	-0,231
82,495	18,900	-0,256	-0,143
83,509	-14,068	-0,245	-0,110
84,524	-109,226	-0,255	-0,037
85,539	-89,704	-0,222	-0,045
86,553	-98,866	-0,411	-0,072
87,568	-32,567	-0,353	-0,137
88,582	62,287	-0,275	-0,192
89,597	-98,444	-0,349	-0,062
90,611	159,628	-0,232	-0,226
91,626	108,688	-0,262	-0,219
92,641	652,960	-0,120	-0,217
93,655	-24,939	-0,309	-0,128
94,670	44,572	-0,241	-0,154
95,684	162,182	-0,282	-0,277
96,699	62,887	-0,277	-0,194
97,714	-77,572	-0,336	-0,081
98,728	407,521	-0,079	-0,117
99,743	76,165	-0,291	-0,215
100,757	-11,219	-0,287	-0,132
101,772	30,844	-0,250	-0,149
102,787	41,963	-0,241	-0,153
103,801	75,891	-0,181	-0,134
104,816	43,055	-0,389	-0,247
105,830	-41,048	-0,362	-0,130
106,845	140,701	-0,193	-0,178
107,860	36,079	-0,235	-0,144
108,874	-79,876	-0,292	0,068
109,889	-32,093	-0,307	-0,119
110,903	83,208	-0,198	-0,150
111,918	194,883	-0,145	-0,154
112,933	-4,133	-0,279	-0,134
113,947	-151,250	-0,145	-0,007
114,962	-113,737	-0,207	0,028
115,976	-6,678	-0,351	-0,166
116,991	159,310	-0,259	-0,251
118,006	180,740	-0,181	-0,186
119,020	39,816	-0,211	-0,132
120,035	12,288	-0,124	-0,066
121,049	-89,039	-0,209	-0,043
122,064	12,980	-0,272	-0,146
123,079	639,611	-0,119	-0,212
124,093	1,949	-0,276	-0,138
125,108	53,779	-0,148	-0,099
126,122	800,000	-0,117	-0,338
127,137	391,533	-0,147	-0,213
128,151	239,271	-0,193	-0,224
129,166	71,128	-0,261	-0,188
130,181	130,950	-0,230	-0,206
131,195	178,337	-0,200	-0,204
132,210	125,322	-0,209	-0,184
133,224	-58,737	-0,365	-0,110
134,239	800,000	-0,116	-0,235
135,254	19,321	-0,283	-0,158
136,268	-99,304	-0,282	-0,049
137,283	-114,370	-0,176	-0,023
138,297	6,641	-0,221	-0,114
139,312	129,606	-0,284	-0,253
140,327	193,481	-0,277	-0,292
141,341	44,229	-0,278	-0,177
142,356	-52,084	-0,291	-0,094
143,370	-83,185	-0,338	-0,075
144,385	146,484	-0,180	-0,168
145,400	97,925	-0,245	-0,196
146,414	467,156	-0,186	-0,292
147,429	443,466	-0,130	-0,200
148,443	50,429	-0,278	-0,183
149,458	35,893	-0,231	-0,141
150,473	651,089	-0,138	-0,247
151,487	-144,564	-0,378	-0,024
152,502	385,043	-0,230	-0,331
153,516	429,616	-0,120	-0,181
154,531	187,737	-0,139	-0,145
155,546	145,264	-0,186	-0,173
156,560	2,618	-0,085	-0,043
157,575	-99,105	-0,266	-0,046
158,589	-79,965	-0,257	-0,060
159,604	20,460	-0,196	-0,110
160,619	268,782	-0,204	-0,249
161,633	-10,408	-0,289	-0,133
162,648	33,191	-0,255	-0,154
163,662	-45,174	-0,250	-0,086
164,677	151,752	-0,270	-0,256
165,692	-54,157	-0,253	-0,079
166,706	287,082	-0,168	-0,211
167,721	52,941	-0,269	-0,179
168,735	82,101	-0,194	-0,146
169,750	800,000	-0,108	-0,215
170,764	-65,553	-0,300	-0,083
171,779	135,861	-0,214	-0,194
172,794	-140,804	-0,133	0,009
173,808	25,296	-0,251	-0,144
174,823	42,576	-0,356	-0,225
175,837	-68,326	-0,261	-0,070
176,852	-61,314	-0,300	-0,087
177,867	-102,943	-0,296	-0,048
178,881	-200,000	-0,017	-0,227
179,896	670,341	-0,045	-0,082
180,910	78,488	-0,276	-0,205
181,925	114,450	-0,242	-0,205
182,940	10,294	-0,260	-0,137
183,954	135,549	-0,247	-0,223
184,969	104,536	-0,237	-0,194
185,983	97,354	-0,155	-0,123
186,998	800,000	-0,075	-0,186
188,013	-26,503	-0,185	-0,075
189,027	235,610	-0,176	-0,202
190,042	593,630	-0,138	-0,238
191,056	177,261	-0,097	-0,098
192,071	65,597	-0,101	-0,071
193,086	800,000	-0,066	-0,136
194,100	-139,093	-0,227	0,017
195,115	-121,898	-0,212	0,024
196,129	-53,121	-0,177	-0,056
197,144	50,380	-0,199	-0,130
198,159	-34,170	-0,276	-0,104
199,173	72,563	-0,336	-0,243
200,188	-110,265	-0,168	-0,024
201,202	-91,411	-0,215	0,042
202,217	262,496	-0,160	-0,193
203,232	64,380	-0,187	-0,131
204,246	-6,903	-0,171	-0,080
205,261	209,179	-0,141	-0,154
206,275	-35,283	-0,175	-0,066
207,290	403,845	-0,179	-0,262
208,304	118,190	-0,246	-0,210
209,319	800,000	-0,108	-0,218
210,334	299,002	-0,127	-0,162
211,348	59,609	-0,238	-0,162
212,363	-200,000	0,037	-0,131
213,377	800,000	-0,080	-0,154
214,392	54,704	-0,227	-0,151
215,407	9,483	-0,147	-0,077
216,421	-116,050	-0,247	-0,031
217,436	45,547	-0,243	-0,155
218,450	100,763	-0,202	-0,162
219,465	283,415	-0,168	-0,210
220,480	144,839	-0,237	-0,219
221,494	-200,000	-0,021	-0,075
222,509	377,085	-0,198	-0,281
223,523	483,300	-0,084	-0,133
224,538	-128,746	-0,082	-0,008
225,553	179,824	-0,120	-0,122
226,567	76,001	-0,214	-0,157
227,582	85,645	-0,201	-0,152
228,596	7,527	-0,162	-0,083
229,611	1,550	-0,106	0,053
230,626	-200,000	-0,024	-0,118
231,640	148,818	-0,120	-0,112
232,655	-43,841	-0,240	-0,083
233,669	9,444	-0,360	-0,188
234,684	-78,469	-0,281	-0,066
235,699	39,723	-0,203	-0,125
236,713	-44,083	-0,212	-0,073
237,728	-89,368	-0,270	-0,055
238,742	18,878	-0,181	-0,100
239,757	34,864	-0,205	-0,123
240,772	55,436	-0,194	-0,129
241,786	458,385	-0,133	-0,204
242,801	302,856	-0,172	-0,221
243,815	-137,014	-0,165	0,013
244,830	-89,592	-0,149	0,030
245,844	-135,531	-0,112	-0,009
246,859	278,245	-0,149	-0,184
247,874	336,433	-0,253	-0,340
248,888	-6,130	-0,375	-0,176
249,903	-42,774	-0,198	-0,069
250,917	800,000	-0,050	-0,144
251,932	109,258	-0,289	-0,238
252,947	-112,680	-0,127	0,017
253,961	64,393	-0,204	-0,141
254,976	105,055	-0,218	-0,178
255,990	18,195	-0,330	-0,181
257,005	673,891	-0,122	-0,219
258,020	34,869	-0,231	-0,139
259,034	177,175	-0,035	-0,035
260,049	177,048	-0,150	-0,151
261,063	27,704	-0,290	-0,168
262,078	-19,970	-0,258	-0,109
263,093	-2,292	-0,307	-0,148
264,107	-37,066	-0,188	-0,069
265,122	9,935	-0,125	-0,065
266,136	195,005	-0,118	-0,123
267,151	257,652	-0,172	-0,204
268,166	378,008	-0,121	-0,171
269,180	333,552	-0,202	-0,269
270,195	163,186	-0,186	-0,180
271,209	111,921	-0,242	-0,202
272,224	285,717	-0,091	-0,113
273,239	-43,718	-0,145	0,050
274,253	14,820	-0,129	0,069
275,268	-178,207	-0,166	0,003
276,282	70,166	-0,115	-0,082
277,297	-47,802	-0,225	-0,074
278,312	-41,518	-0,118	-0,041
279,326	62,086	-0,088	-0,060
280,341	-12,857	-0,066	-0,029
281,355	35,772	-0,152	-0,092
282,370	-200,000	0,003	-0,173
283,384	165,591	-0,137	-0,133
284,399	271,040	-0,161	-0,195
285,414	124,836	-0,173	-0,150
286,428	-200,000	-0,023	-0,191
287,443	41,016	-0,099	0,061
288,457	-42,150	-0,182	0,064
289,472	100,061	-0,115	-0,091
290,487	164,556	-0,092	-0,089
291,501	38,746	-0,266	-0,163
292,516	800,000	-0,082	-0,209
293,530	146,975	-0,129	-0,119
294,545	444,859	-0,087	-0,132
295,560	-200,000	-0,013	-0,080
296,574	60,618	-0,133	0,091
297,589	-200,000	-0,023	-0,230
298,603	257,890	-0,141	-0,167
299,618	-29,780	-0,138	-0,054
300,633	-177,543	-0,074	0,001
301,647	789,023	-0,072	-0,136
302,662	-73,325	-0,085	-0,021
303,676	-137,752	-0,183	-0,014
304,691	-43,273	-0,150	-0,052
305,706	72,991	-0,193	-0,138
306,720	305,883	-0,046	-0,058
307,735	117,363	-0,123	-0,103
308,749	97,537	-0,162	-0,128
309,764	-154,581	-0,184	-0,008
310,779	58,777	-0,146	0,098
311,793	-149,588	-0,182	-0,010
312,808	223,960	-0,162	-0,180
313,822	165,395	-0,099	-0,096
314,837	-107,488	-0,135	-0,020
315,852	-6,674	-0,124	-0,058
316,866	47,249	-0,117	-0,075
317,881	-93,206	-0,201	0,038
318,895	-118,238	-0,165	-0,020
319,910	-200,000	-0,033	-0,105
320,925	144,656	-0,136	-0,125
321,939	213,344	-0,119	-0,130
322,954	445,837	-0,099	-0,150
323,968	-24,796	-0,075	0,030
324,983	-17,471	-0,117	-0,050
325,997	-108,125	-0,153	-0,022
327,012	-29,927	-0,180	-0,070
328,027	-109,801	-0,149	0,021
329,041	299,054	-0,117	-0,148
330,056	-25,995	-0,081	-0,033
331,070	-167,337	-0,079	-0,002
332,085	-111,948	-0,065	-0,009
333,100	114,560	-0,066	-0,055
334,114	-159,725	-0,301	0,011
335,129	-146,037	-0,135	0,008
336,143	77,659	-0,100	-0,073
337,158	100,202	-0,031	-0,024
338,173	-51,148	-0,056	-0,018
339,187	-114,902	-0,121	-0,016
340,202	309,539	-0,165	-0,211
341,216	198,456	-0,105	-0,110
342,231	-200,000	-0,003	-0,028
343,246	-200,000	-0,050	-0,174
344,260	-59,853	-0,072	-0,021
345,275	-90,937	-0,070	0,014
346,289	-102,203	-0,118	0,019
347,304	-24,223	-0,182	-0,074
348,319	-200,000	-0,194	0,000
349,333	-75,185	-0,176	-0,043
350,348	608,064	-0,025	-0,043
351,362	-117,528	-0,076	-0,009
352,377	12,611	0,048	0,025
353,392	342,791	-0,092	-0,123
354,406	800,000	-0,048	-0,140
355,421	207,181	1308,342	1396,401
356,435	159,376	1468,250	1396,897
