DTS Sentinel unit serial number:	SN410029Multiplexer serial number:	ORYXHardware model number:	OX2-SRSoftware version number:	ORYX F/W v4,00 Oryx Data Collector v3.7.2.0data status	okinstallation	B3 Nyhavnadifferential loss correction	single-endedforward channel	channel 1reverse channel	N/Adate	2023/12/01time	21:52:30forward acquisition time	300,00reverse acquisition time	0,00gamma	499,1914k internal	0,3196k external	0,3196temperature offset calibration	1,0000default loss term (dB/km)	0,3820temperature slope calibration	1,0000multiplexer offset coefficient	1,0000multiplexer slope coefficient	1,0000fibre end	0,00T internal ref (°C)	16,00T ext. ref 1 (°C)	0,88T ext. ref 2 (°C)	0,87length (m)	temperature (°C)	Stokes	anti-Stokes-744,400	638,911	-0,176	-0,328
-743,385	-200,000	-0,060	0,429
-742,371	111,389	-0,254	-0,223
-741,356	800,000	0,130	0,322
-740,342	282,389	-0,219	-0,286
-739,327	-200,000	0,039	0,171
-738,312	126,015	-0,327	-0,301
-737,298	800,000	0,108	0,256
-736,283	282,000	-0,153	-0,201
-735,269	-200,000	0,054	0,415
-734,254	65,957	-0,246	-0,181
-733,239	555,189	-0,166	0,292
-732,225	130,168	-0,090	-0,084
-731,210	111,859	0,065	0,057
-730,196	539,132	-0,056	-0,097
-729,181	201,732	-0,147	0,165
-728,167	-46,383	-0,068	-0,024
-727,152	800,000	0,014	-0,030
-726,137	-54,160	-0,078	-0,026
-725,123	-128,290	-0,052	-0,005
-724,108	-200,000	0,019	-0,089
-723,094	-200,000	-0,013	-0,115
-722,079	-49,042	-0,041	0,014
-721,064	-200,000	0,010	0,052
-720,050	415,278	-0,034	0,053
-719,035	-200,000	-0,002	0,115
-718,021	200,493	-0,099	-0,111
-717,006	8,754	-0,057	-0,031
-715,991	-4,225	0,131	-0,066
-714,977	-200,000	0,025	-0,249
-713,962	108,511	-0,031	0,027
-712,948	226,111	-0,018	0,022
-711,933	65,604	-0,067	-0,049
-710,918	32,541	-0,094	-0,059
-709,904	564,583	-0,102	-0,180
-708,889	-200,000	0,043	-0,274
-707,875	13,051	-0,047	-0,026
-706,860	673,249	0,055	-0,105
-705,845	588,326	-0,062	0,111
-704,831	-154,809	-0,129	-0,006
-703,816	1,383	-0,207	0,108
-702,802	-54,648	-0,170	-0,056
-701,787	310,072	-0,121	-0,165
-700,772	800,000	-0,063	-0,191
-699,758	134,629	-0,063	0,059
-698,743	203,378	0,060	0,068
-697,729	-200,000	0,005	0,052
-696,714	-200,000	-0,028	0,092
-695,699	12,275	0,051	-0,028
-694,685	800,000	-0,046	-0,139
-693,670	-27,811	-0,067	0,028
-692,656	235,963	-0,066	-0,079
-691,641	-200,000	0,013	-0,100
-690,627	-182,823	0,091	0,001
-689,612	-200,000	0,019	0,166
-688,597	-6,920	-0,107	0,053
-687,583	-156,439	0,069	-0,003
-686,568	-113,031	-0,187	0,027
-685,554	275,969	0,039	-0,050
-684,539	300,516	0,034	0,045
-683,524	301,902	-0,044	-0,059
-682,510	-98,548	0,009	-0,002
-681,495	-200,000	-0,000	-0,127
-680,481	-10,403	-0,082	0,039
-679,466	392,594	-0,088	-0,133
-678,451	242,115	0,113	-0,138
-677,437	800,000	0,040	0,115
-676,422	89,110	-0,067	0,054
-675,408	52,668	-0,065	-0,045
-674,393	-40,859	0,071	0,027
-673,378	-200,000	0,030	0,106
-672,364	-200,000	0,050	-0,193
-671,349	-200,000	-0,002	-0,078
-670,335	153,422	0,105	-0,105
-669,320	-179,696	0,082	0,001
-668,305	-56,535	-0,125	-0,040
-667,291	800,000	0,033	0,079
-666,276	213,421	-0,040	-0,046
-665,262	-200,000	0,023	-0,100
-664,247	-40,679	0,162	0,061
-663,232	599,765	0,023	-0,042
-662,218	-86,468	0,082	0,018
-661,203	-72,339	0,077	-0,021
-660,189	383,601	-0,025	-0,037
-659,174	800,000	-0,053	-0,118
-658,159	-41,142	-0,078	-0,029
-657,145	332,075	-0,112	-0,157
-656,130	86,115	-0,005	0,004
-655,116	800,000	-0,018	0,038
-654,101	131,029	0,064	0,060
-653,086	-200,000	0,007	-0,190
-652,072	800,000	-0,075	0,223
-651,057	491,438	0,039	-0,065
-650,043	-200,000	-0,004	-0,043
-649,028	800,000	0,055	-0,119
-648,014	426,896	0,068	0,108
-646,999	-86,710	-0,049	0,011
-645,984	-200,000	-0,000	-0,017
-644,970	-200,000	0,008	0,126
-643,955	-200,000	0,003	-0,157
-642,941	-136,361	-0,051	-0,004
-641,926	19,191	0,048	0,028
-640,911	1,301	0,137	0,071
-639,897	800,000	0,052	0,128
-638,882	-101,109	-0,093	-0,016
-637,868	537,196	-0,001	0,002
-636,853	644,333	0,014	-0,026
-635,838	253,448	-0,110	0,137
-634,824	-143,748	0,093	-0,006
-633,809	-96,477	0,247	0,047
-632,795	137,784	-0,065	-0,062
-631,780	800,000	-0,014	0,035
-630,765	-162,793	-0,080	0,003
-629,751	124,852	-0,043	0,039
-628,736	-129,924	-0,035	0,003
-627,722	-200,000	-0,010	-0,060
-626,707	-200,000	-0,007	-0,025
-625,692	116,773	0,050	-0,044
-624,678	361,826	0,074	0,107
-623,663	-200,000	-0,036	-0,171
-622,649	-30,646	-0,175	-0,071
-621,634	161,192	0,043	0,044
-620,619	117,938	-0,103	-0,092
-619,605	-200,000	0,012	-0,103
-618,590	800,000	0,046	-0,100
-617,576	800,000	0,032	0,089
-616,561	-132,944	0,053	-0,005
-615,546	11,584	-0,104	-0,058
-614,532	61,984	0,076	-0,055
-613,517	800,000	0,034	-0,099
-612,503	-86,012	-0,028	0,006
-611,488	72,800	-0,083	0,063
-610,474	-31,292	0,028	-0,011
-609,459	-200,000	-0,002	0,014
-608,444	743,720	0,026	-0,051
-607,430	-200,000	0,042	-0,158
-606,415	101,591	0,038	-0,032
-605,401	117,881	0,065	-0,058
-604,386	38,899	0,089	0,058
-603,371	246,689	-0,087	0,106
-602,357	46,918	0,088	0,059
-601,342	-25,975	-0,138	0,059
-600,328	5,084	-0,119	-0,063
-599,313	-62,175	-0,029	0,009
-598,298	477,200	0,042	0,069
-597,284	-200,000	0,020	0,091
-596,269	617,536	0,080	0,147
-595,255	145,132	-0,118	0,114
-594,240	-200,000	-0,001	-0,112
-593,225	265,444	-0,068	-0,086
-592,211	78,070	-0,054	0,042
-591,196	273,694	0,082	0,105
-590,182	-200,000	0,021	0,091
-589,167	10,403	-0,025	0,014
-588,152	294,005	0,068	0,091
-587,138	104,965	-0,067	0,058
-586,123	-200,000	-0,007	0,031
-585,109	173,857	-0,104	0,109
-584,094	117,831	-0,129	-0,115
-583,079	-108,887	-0,129	0,020
-582,065	-200,000	0,003	0,083
-581,050	538,892	0,085	0,147
-580,036	138,870	0,049	0,046
-579,021	10,357	-0,096	0,053
-578,006	547,519	0,059	0,103
-576,992	93,737	-0,069	-0,056
-575,977	-94,548	0,052	-0,010
-574,963	470,384	0,047	0,076
-573,948	74,544	0,111	0,084
-572,934	103,196	-0,066	-0,056
-571,919	-200,000	0,024	-0,112
-570,904	170,392	-0,045	-0,047
-569,890	-200,000	-0,036	-0,197
-568,875	-46,996	-0,038	0,013
-567,861	-72,074	0,124	0,033
-566,846	377,295	0,067	0,100
-565,831	-119,263	-0,053	0,007
-564,817	800,000	0,041	-0,100
-563,802	98,821	-0,099	-0,083
-562,788	-200,000	0,006	-0,061
-561,773	-200,000	-0,032	-0,253
-560,758	-200,000	-0,007	0,042
-559,744	-153,919	-0,142	0,007
-558,729	-25,800	0,129	-0,055
-557,715	-62,644	-0,058	-0,017
-556,700	-200,000	0,014	-0,084
-555,685	40,483	0,115	0,075
-554,671	-3,808	-0,085	0,042
-553,656	26,977	-0,093	0,056
-552,642	225,856	0,139	0,163
-551,627	-7,796	-0,100	0,048
-550,612	450,294	-0,010	-0,016
-549,598	89,438	-0,118	-0,095
-548,583	-162,393	-0,042	0,001
-547,569	68,508	-0,082	0,061
-546,554	-88,898	0,040	-0,009
-545,539	-200,000	0,046	0,152
-544,525	-200,000	-0,026	0,085
-543,510	-53,481	0,007	-0,002
-542,496	-106,235	-0,184	0,030
-541,481	153,098	-0,067	0,066
-540,466	-200,000	0,023	0,083
-539,452	-135,935	-0,036	0,003
-538,437	-18,831	-0,122	0,055
-537,423	347,435	-0,041	0,059
-536,408	53,674	0,118	0,082
-535,393	-109,324	-0,094	-0,014
-534,379	-200,000	0,019	-0,146
-533,364	-169,835	-0,022	-0,001
-532,350	332,360	0,024	0,034
-531,335	-66,264	0,102	-0,029
-530,321	189,954	-0,050	-0,054
-529,306	-118,153	-0,037	0,005
-528,291	-200,000	-0,017	0,077
-527,277	-200,000	0,018	-0,136
-526,262	-200,000	-0,033	-0,189
-525,248	-90,896	0,056	0,012
-524,233	-41,809	0,044	-0,016
-523,218	74,929	0,005	0,004
-522,204	-200,000	0,020	0,077
-521,189	225,557	0,048	0,057
-520,175	189,153	-0,107	-0,116
-519,160	800,000	0,007	0,022
-518,145	-153,125	-0,010	0,001
-517,131	-121,246	-0,122	-0,015
-516,116	800,000	0,045	-0,094
-515,102	104,219	0,065	-0,056
-514,087	105,110	0,026	0,022
-513,072	-156,036	0,068	-0,003
-512,058	-29,155	0,096	-0,040
-511,043	-166,883	-0,051	0,001
-510,029	-94,721	0,043	0,008
-509,014	-11,953	0,181	0,086
-507,999	18,333	-0,103	0,059
-506,985	-49,396	-0,198	-0,068
-505,970	-200,000	0,005	0,055
-504,956	83,718	-0,121	0,095
-503,941	800,000	-0,027	-0,072
-502,926	-200,000	0,010	-0,038
-501,912	-40,509	0,072	0,027
-500,897	-62,452	-0,132	0,039
-499,883	169,054	-0,047	-0,049
-498,868	-200,000	0,000	-0,069
-497,853	-200,000	-0,022	0,093
-496,839	9,263	0,055	-0,030
-495,824	252,817	-0,025	0,031
-494,810	-200,000	0,034	0,148
-493,795	-200,000	-0,024	0,159
-492,781	78,310	0,101	-0,078
-491,766	-200,000	-0,009	0,037
-490,751	223,539	0,034	-0,039
-489,737	282,607	-0,087	-0,113
-488,722	-19,846	0,106	0,047
-487,708	-95,981	0,079	-0,015
-486,693	-5,961	-0,057	0,028
-485,678	43,565	-0,035	-0,023
-484,664	553,341	0,055	-0,095
-483,649	92,720	-0,131	-0,107
-482,635	-114,096	-0,081	-0,011
-481,620	-200,000	-0,015	0,054
-480,605	-154,716	0,116	0,005
-479,591	-146,866	0,096	-0,006
-478,576	-9,125	-0,119	0,057
-477,562	-167,493	0,156	0,004
-476,547	50,599	-0,128	-0,087
-475,532	130,480	-0,024	-0,022
-474,518	-200,000	-0,002	0,042
-473,503	-161,277	0,060	-0,002
-472,489	591,914	-0,031	0,055
-471,474	-200,000	0,018	0,079
-470,459	-8,984	-0,087	-0,042
-469,445	235,913	0,086	-0,102
-468,430	304,441	0,035	-0,047
-467,416	-200,000	-0,001	-0,040
-466,401	-200,000	-0,023	0,082
-465,386	-200,000	-0,001	0,138
-464,372	109,470	0,061	0,053
-463,357	-5,421	-0,042	-0,021
-462,343	-200,000	0,003	-0,044
-461,328	-200,000	0,017	-0,111
-460,313	800,000	0,013	0,033
-459,299	477,014	0,039	-0,064
-458,284	-200,000	0,006	0,134
-457,270	-102,259	-0,052	-0,009
-456,255	-200,000	0,003	-0,013
-455,241	480,777	-0,052	-0,085
-454,226	800,000	-0,032	-0,084
-453,211	615,525	0,051	-0,092
-452,197	558,767	0,041	0,072
-451,182	800,000	-0,046	0,093
-450,168	-135,217	0,041	-0,003
-449,153	356,276	-0,047	0,068
-448,138	72,450	-0,076	0,057
-447,124	-200,000	-0,010	-0,062
-446,109	-137,802	0,130	0,010
-445,095	475,326	-0,026	0,043
-444,080	560,533	0,054	0,094
-443,065	-68,328	0,008	0,002
-442,051	280,817	-0,009	0,011
-441,036	422,779	0,038	0,059
-440,022	76,845	-0,056	0,043
-439,007	-84,560	0,098	0,022
-437,992	-200,000	-0,011	-0,132
-436,978	94,547	0,035	0,029
-435,963	73,261	0,063	0,047
-434,949	-200,000	-0,012	-0,145
-433,934	-139,030	-0,095	-0,007
-432,919	-101,076	0,096	-0,017
-431,905	-200,000	0,003	-0,108
-430,890	-62,983	-0,065	-0,019
-429,876	121,915	0,006	-0,005
-428,861	-145,628	0,090	0,006
-427,846	-43,363	0,047	-0,017
-426,832	-36,360	-0,167	0,064
-425,817	-146,424	-0,070	-0,004
-424,803	26,715	-0,066	-0,040
-423,788	-200,000	-0,023	-0,149
-422,773	-40,097	-0,032	-0,012
-421,759	562,701	-0,020	0,035
-420,744	105,355	-0,097	-0,083
-419,730	-24,277	0,122	-0,052
-418,715	-155,087	0,017	-0,001
-417,701	474,738	-0,072	-0,117
-416,686	10,815	0,059	-0,032
-415,671	187,631	0,032	0,034
-414,657	-200,000	-0,009	0,202
-413,642	-143,644	0,177	-0,012
-412,628	-142,802	0,047	-0,003
-411,613	-63,889	-0,082	0,024
-410,598	155,768	-0,053	0,053
-409,584	-200,000	0,034	0,123
-408,569	-36,433	0,041	-0,016
-407,555	-5,911	0,134	0,066
-406,540	800,000	0,043	0,093
-405,525	800,000	0,061	-0,156
-404,511	800,000	0,036	-0,078
-403,496	104,302	-0,061	0,051
-402,482	-200,000	-0,002	-0,023
-401,467	342,666	0,088	0,124
-400,452	377,507	0,092	-0,136
-399,438	-46,173	-0,079	-0,028
-398,423	35,066	-0,035	-0,022
-397,409	28,180	-0,014	0,009
-396,394	-200,000	-0,022	-0,076
-395,379	-105,333	0,082	0,013
-394,365	-200,000	-0,002	0,075
-393,350	-96,870	-0,051	-0,010
-392,336	-200,000	0,032	0,121
-391,321	-128,367	-0,081	0,008
-390,306	417,887	0,049	-0,075
-389,292	111,785	0,035	-0,031
-388,277	-58,930	0,094	0,029
-387,263	132,928	-0,034	-0,032
-386,248	-200,000	0,010	-0,084
-385,233	366,646	0,049	0,072
-384,219	-134,611	-0,130	0,011
-383,204	800,000	-0,038	0,106
-382,190	800,000	0,033	0,090
-381,175	-200,000	0,006	0,115
-380,160	56,989	0,065	0,045
-379,146	-0,247	-0,078	0,040
-378,131	-200,000	0,005	0,079
-377,117	60,199	-0,097	-0,069
-376,102	-85,280	-0,098	-0,022
-375,088	-200,000	0,026	-0,120
-374,073	-32,295	0,057	-0,023
-373,058	-148,432	0,065	0,004
-372,044	-94,912	0,025	-0,005
-371,029	246,663	0,089	0,108
-370,015	-200,000	-0,022	0,081
-369,000	-200,000	0,004	-0,113
-367,985	-17,768	-0,101	0,045
-366,971	-200,000	-0,005	-0,039
-365,956	212,119	0,145	0,165
-364,942	-200,000	0,005	-0,101
-363,927	163,182	0,072	-0,073
-362,912	-29,386	-0,139	-0,057
-361,898	253,696	0,043	-0,052
-360,883	-200,000	0,004	-0,036
-359,869	-46,659	-0,086	-0,030
-358,854	-98,762	-0,020	0,004
-357,839	619,729	0,100	0,182
-356,825	-117,672	0,099	0,013
-355,810	-200,000	-0,011	0,068
-354,796	586,204	0,029	0,051
-353,781	-200,000	0,015	-0,072
-352,766	-200,000	-0,023	0,167
-351,752	601,078	0,034	-0,061
-350,737	-78,402	0,044	0,011
-349,723	98,152	0,025	0,021
-348,708	-200,000	-0,008	-0,137
-347,693	18,580	0,091	0,052
-346,679	260,020	0,026	-0,033
-345,664	800,000	-0,018	0,039
-344,650	58,924	0,055	0,039
-343,635	-200,000	0,005	-0,100
-342,620	670,791	0,060	0,112
-341,606	800,000	-0,023	0,062
-340,591	-70,137	0,050	-0,014
-339,577	75,412	-0,036	0,027
-338,562	-200,000	-0,002	-0,182
-337,548	241,885	-0,041	0,049
-336,533	108,430	0,069	0,059
-335,518	-200,000	0,010	-0,048
-334,504	-200,000	0,014	0,095
-333,489	204,342	0,041	-0,046
-332,475	80,540	-0,121	-0,093
-331,460	320,477	-0,058	-0,079
-330,445	-25,825	-0,079	-0,033
-329,431	-200,000	0,000	0,075
-328,416	-12,695	0,077	-0,036
-327,402	-87,262	0,167	0,036
-326,387	52,005	0,096	0,066
-325,372	382,965	-0,074	-0,109
-324,358	-200,000	0,002	-0,083
-323,343	-200,000	0,018	0,116
-322,329	-200,000	0,012	0,074
-321,314	-200,000	-0,014	-0,050
-320,299	733,442	-0,037	-0,072
-319,285	32,775	-0,067	0,041
-318,270	111,645	0,030	0,026
-317,256	-200,000	-0,015	0,067
-316,241	-29,954	0,039	-0,016
-315,226	-200,000	0,040	-0,140
-314,212	-141,578	0,116	-0,008
-313,197	25,111	-0,075	-0,044
-312,183	139,022	-0,032	-0,030
-311,168	-7,924	0,083	0,040
-310,153	800,000	-0,057	-0,144
-309,139	-6,539	-0,068	-0,033
-308,124	140,966	-0,114	0,108
-307,110	70,212	0,053	0,040
-306,095	-47,745	0,116	-0,040
-305,080	25,922	0,092	0,055
-304,066	800,000	0,007	-0,022
-303,051	61,768	-0,056	0,040
-302,037	84,094	-0,041	0,032
-301,022	52,472	-0,103	0,071
-300,008	-200,000	0,057	0,214
-298,993	-145,811	-0,156	0,010
-297,978	-200,000	0,028	0,145
-296,964	-200,000	0,003	0,034
-295,949	82,789	-0,140	-0,109
-294,935	800,000	0,002	0,006
-293,920	-122,797	0,069	0,008
-292,905	791,803	-0,013	-0,026
-291,891	800,000	-0,026	-0,057
-290,876	-96,141	0,171	0,032
-289,862	300,191	0,139	0,184
-288,847	207,222	0,026	0,029
-287,832	-200,000	0,008	0,026
-286,818	92,888	0,089	-0,072
-285,803	800,000	0,022	-0,048
-284,789	800,000	0,036	0,097
-283,774	-4,867	-0,025	0,012
-282,759	281,326	0,019	-0,025
-281,745	800,000	0,030	-0,082
-280,730	-200,000	-0,029	-0,102
-279,716	800,000	-0,006	-0,016
-278,701	-200,000	0,024	0,117
-277,686	95,637	0,085	0,069
-276,672	-200,000	-0,015	0,052
-275,657	800,000	0,059	-0,123
-274,643	60,763	-0,030	-0,021
-273,628	23,078	0,055	0,032
-272,613	-157,344	-0,090	-0,004
-271,599	-200,000	0,000	-0,052
-270,584	-117,959	-0,113	-0,014
-269,570	-105,615	-0,045	-0,007
-268,555	-18,831	-0,075	0,033
-267,540	13,936	-0,110	-0,061
-266,526	-200,000	-0,002	-0,163
-265,511	-200,000	0,005	-0,100
-264,497	-33,852	0,098	0,038
-263,482	-126,546	0,107	0,011
-262,467	-100,417	0,088	-0,015
-261,453	182,995	-0,113	0,120
-260,438	491,233	-0,072	-0,118
-259,424	-35,884	-0,095	-0,037
-258,409	800,000	-0,035	0,097
-257,395	-200,000	-0,001	-0,004
-256,380	452,766	0,035	-0,055
-255,365	800,000	-0,054	0,118
-254,351	-200,000	0,002	0,057
-253,336	-200,000	0,001	-0,027
-252,322	-200,000	0,026	-0,193
-251,307	-12,979	0,092	-0,043
-250,292	98,036	0,098	-0,081
-249,278	0,377	0,081	0,041
-248,263	184,392	0,121	0,128
-247,249	-200,000	0,003	0,127
-246,234	-200,000	-0,053	-0,188
-245,219	-25,702	-0,080	-0,034
-244,205	800,000	0,068	-0,176
-243,190	85,330	0,037	-0,029
-242,176	800,000	0,054	-0,156
-241,161	356,227	0,037	0,053
-240,146	-200,000	0,000	-0,010
-239,132	88,845	-0,091	0,072
-238,117	-72,944	-0,085	-0,022
-237,103	-3,017	-0,098	-0,049
-236,088	-27,435	-0,086	-0,035
-235,073	800,000	0,026	-0,071
-234,059	359,547	-0,029	-0,042
-233,044	-183,842	0,048	-0,001
-232,030	-200,000	-0,029	-0,128
-231,015	272,080	-0,030	0,038
-230,000	594,995	-0,091	-0,161
-228,986	226,752	0,083	-0,096
-227,971	-72,252	0,147	-0,039
-226,957	-200,000	-0,021	0,110
-225,942	-113,029	-0,050	0,007
-224,927	-200,000	-0,002	0,076
-223,913	-166,490	0,040	0,001
-222,898	800,000	-0,048	-0,111
-221,884	-200,000	0,012	-0,069
-220,869	399,132	0,060	-0,090
-219,855	-164,208	0,158	-0,005
-218,840	-200,000	-0,011	-0,065
-217,825	-200,000	0,001	0,073
-216,811	741,503	-0,001	0,003
-215,796	472,118	-0,060	-0,096
-214,782	800,000	0,035	-0,085
-213,767	55,957	-0,025	0,017
-212,752	-61,644	-0,032	0,010
-211,738	800,000	-0,040	0,108
-210,723	40,587	-0,145	0,093
-209,709	83,617	0,128	-0,100
-208,694	-54,111	-0,103	0,033
-207,679	34,342	0,039	0,024
-206,665	-200,000	0,003	0,067
-205,650	-107,222	0,089	0,014
-204,636	-189,709	-0,023	0,000
-203,621	800,000	0,049	0,120
-202,606	17,002	-0,070	0,039
-201,592	-200,000	-0,004	-0,104
-200,577	800,000	-0,034	-0,078
-199,563	-200,000	0,009	0,091
-198,548	-0,913	-0,052	0,026
-197,533	-185,303	-0,033	-0,000
-196,519	-26,336	0,124	0,052
-195,504	563,967	-0,096	0,167
-194,490	-200,000	-0,009	0,093
-193,475	291,662	0,073	-0,095
-192,460	-200,000	0,058	-0,191
-191,446	-49,605	-0,108	0,036
-190,431	-200,000	0,034	-0,113
-189,417	624,415	-0,022	0,040
-188,402	-200,000	0,003	-0,091
-187,387	-200,000	-0,014	-0,089
-186,373	115,929	0,049	0,043
-185,358	800,000	0,040	-0,104
-184,344	256,267	-0,084	-0,103
-183,329	101,059	-0,063	0,052
-182,315	-200,000	-0,029	0,107
-181,300	800,000	0,018	-0,041
-180,285	69,003	-0,141	-0,103
-179,271	375,840	-0,054	-0,079
-178,256	764,984	0,052	0,101
-177,242	-200,000	-0,010	-0,060
-176,227	-82,356	0,057	-0,013
-175,212	251,227	-0,107	0,130
-174,198	259,419	-0,089	-0,110
-173,183	156,194	-0,095	-0,094
-172,169	351,998	-0,028	0,040
-171,154	-200,000	-0,040	-0,260
-170,139	-200,000	-0,020	-0,134
-169,125	800,000	0,017	0,041
-168,110	-200,000	0,013	0,134
-167,096	800,000	0,031	0,096
-166,081	350,928	-0,095	0,134
-165,066	-71,911	-0,072	0,019
-164,052	-200,000	0,035	-0,160
-163,037	800,000	0,021	-0,055
-162,023	-37,284	0,101	0,038
-161,008	13,804	0,052	0,029
-159,993	-85,220	0,086	-0,019
-158,979	332,019	-0,025	0,034
-157,964	-200,000	-0,011	0,075
-156,950	491,234	0,092	0,151
-155,935	-200,000	0,022	0,072
-154,920	-200,000	-0,063	0,219
-153,906	800,000	0,021	0,044
-152,891	-102,681	0,058	-0,010
-151,877	-200,000	-0,004	0,105
-150,862	291,214	0,053	0,069
-149,847	233,074	0,085	-0,100
-148,833	-129,054	0,203	-0,020
-147,818	409,531	0,046	-0,070
-146,804	137,985	-0,066	-0,061
-145,789	21,172	0,137	0,079
-144,775	800,000	-0,022	-0,053
-143,760	-200,000	-0,008	-0,150
-142,745	426,653	0,020	0,030
-141,731	290,812	0,024	0,031
-140,716	-151,154	0,112	-0,006
-139,702	339,660	0,046	-0,064
-138,687	-200,000	-0,012	0,043
-137,672	388,310	0,026	-0,039
-136,658	4,116	-0,073	0,038
-135,643	8,939	-0,088	-0,047
-134,629	-141,484	-0,120	0,009
-133,614	51,921	0,079	0,053
-132,599	-1,385	-0,099	-0,049
-131,585	-200,000	0,011	0,064
-130,570	-200,000	0,018	-0,070
-129,556	-17,431	-0,091	0,040
-128,541	113,666	-0,053	-0,046
-127,526	245,937	0,117	0,140
-126,512	-9,027	0,081	0,038
-125,497	164,586	0,048	-0,048
-124,483	-200,000	-0,002	0,115
-123,468	131,395	-0,060	0,055
-122,453	-67,105	-0,101	-0,028
-121,439	-200,000	0,007	-0,070
-120,424	-200,000	0,034	-0,227
-119,410	-200,000	-0,001	-0,055
-118,395	-140,350	0,133	-0,010
-117,380	-200,000	0,029	0,112
-116,366	-151,797	-0,052	0,003
-115,351	151,035	0,008	-0,008
-114,337	-104,595	-0,048	0,008
-113,322	21,815	-0,098	-0,057
-112,307	-50,495	0,145	0,048
-111,293	318,742	-0,021	0,028
-110,278	800,000	0,014	0,033
-109,264	281,966	0,090	-0,115
-108,249	-64,027	0,017	-0,005
-107,234	-64,519	-0,162	-0,047
-106,220	-200,000	0,014	-0,142
-105,205	-200,000	-0,005	-0,029
-104,191	-101,088	0,111	0,019
-103,176	230,772	-0,085	-0,099
-102,162	221,912	0,062	-0,071
-101,147	-145,518	-0,049	-0,003
-100,132	-200,000	-0,040	0,185
-99,118	350,794	-0,031	0,044
-98,103	800,000	-0,038	0,111
-97,089	800,000	0,053	0,166
-96,074	49,609	0,056	-0,038
-95,059	-29,811	-0,118	0,048
-94,045	-138,129	0,137	-0,011
-93,030	372,558	-0,055	-0,079
-92,016	-200,000	-0,011	0,041
-91,001	164,492	-0,072	0,073
-89,986	46,436	0,086	0,056
-88,972	-88,985	-0,059	-0,012
-87,957	255,388	-0,066	-0,081
-86,943	-104,056	0,154	0,025
-85,928	33,973	-0,158	-0,098
-84,913	-43,525	0,039	-0,014
-83,899	-119,025	-0,056	-0,007
-82,884	183,731	0,064	0,067
-81,870	-64,073	0,049	-0,014
-80,855	117,125	0,089	0,077
-79,840	-89,491	0,020	-0,004
-78,826	215,906	-0,054	0,061
-77,811	-200,000	0,007	0,057
-76,797	289,198	0,096	-0,124
-75,782	800,000	0,033	0,065
-74,767	34,623	0,080	0,049
-73,753	172,779	-0,075	0,076
-72,738	143,769	-0,102	-0,097
-71,724	256,627	-0,150	-0,183
-70,709	800,000	0,027	-0,076
-69,694	800,000	-0,066	-0,146
-68,680	-5,653	0,130	-0,063
-67,665	153,474	0,096	-0,093
-66,651	159,834	-0,035	0,035
-65,636	-25,997	0,085	0,036
-64,622	800,000	-0,061	-0,149
-63,607	-11,309	-0,141	-0,066
-62,592	-143,009	0,134	0,009
-61,578	-47,846	0,034	-0,012
-60,563	79,333	-0,151	0,115
-59,549	-200,000	0,015	0,193
-58,534	-69,402	-1,404	-0,379
-57,519	321,710	-1,673	-2,263
-56,505	-200,000	-0,461	-4,458
-55,490	142,438	0,913	0,860
-54,476	800,000	4,800	11,309
-53,461	-200,000	17,652	280,374
-52,446	800,000	720,140	2218,447
-51,432	560,397	1634,297	2810,803
-50,417	80,997	1657,710	1267,404
-49,403	23,808	1532,231	892,939
-48,388	17,799	1455,810	819,421
-47,373	18,283	1444,956	815,600
-46,359	17,917	1435,731	808,614
-45,344	16,142	1430,863	797,408
-44,330	16,058	1429,067	795,975
-43,315	16,044	1427,446	794,973
-42,300	16,068	1425,708	794,087
-41,286	16,135	1424,416	793,656
-40,271	16,130	1423,249	792,948
-39,257	16,038	1422,080	791,831
-38,242	16,118	1420,630	791,371
-37,227	16,101	1419,333	790,539
-36,213	16,127	1418,019	789,896
-35,198	16,113	1416,948	789,205
-34,184	16,125	1415,882	788,636
-33,169	16,062	1414,829	787,719
-32,154	16,074	1413,842	787,194
-31,140	16,104	1412,385	786,493
-30,125	16,174	1411,235	786,152
-29,111	16,116	1410,105	785,216
-28,096	16,091	1409,006	784,458
-27,082	16,093	1407,815	783,773
-26,067	16,031	1406,914	782,951
-25,052	16,042	1405,698	782,294
-24,038	16,032	1404,729	781,677
-23,023	16,020	1403,778	781,062
-22,009	15,985	1402,810	780,330
-20,994	15,947	1401,957	779,646
-19,979	15,964	1400,880	779,096
-18,965	15,983	1399,884	778,599
-17,950	15,913	1398,943	777,718
-16,936	15,969	1398,071	777,465
-15,921	15,918	1396,776	776,476
-14,906	15,923	1395,853	775,954
-13,892	15,987	1394,702	775,580
-12,877	15,946	1394,042	774,994
-11,863	15,960	1393,016	774,458
-10,848	15,909	1392,354	773,824
-9,833	15,932	1391,266	773,294
-8,819	15,907	1390,206	772,556
-7,804	15,834	1389,443	771,766
-6,790	15,806	1388,441	771,049
-5,775	15,808	1387,292	770,393
-4,760	15,785	1386,645	769,897
-3,746	15,845	1385,600	769,558
-2,731	15,799	1385,093	769,038
-1,717	15,843	1383,880	768,534
-0,702	15,795	1382,002	767,243
0,313	19,614	1302,686	740,811
1,327	36,051	706,604	439,916
2,342	55,635	125,146	85,770
3,356	4,557	16,511	8,558
4,371	17,112	3,090	1,731
5,386	-112,718	0,508	0,071
6,400	-69,941	-0,055	0,015
7,415	128,534	-0,222	-0,201
8,429	0,781	-0,288	-0,146
9,444	235,028	-0,234	-0,274
10,459	91,349	-0,321	-0,255
11,473	178,509	-0,290	-0,300
12,488	-57,601	-0,263	-0,081
13,502	-51,646	-0,284	-0,093
14,517	10,994	-0,263	-0,142
15,531	75,326	-0,377	-0,281
16,546	310,260	-0,225	-0,299
17,561	165,885	-0,376	-0,377
18,575	-167,937	-0,297	0,008
19,590	-20,376	-0,217	-0,094
20,604	-34,694	-0,349	-0,134
21,619	23,576	-0,476	-0,277
22,634	-30,354	-0,482	-0,193
23,648	141,504	-0,375	-0,351
24,663	115,410	-0,395	-0,341
25,677	163,107	-0,345	-0,343
26,692	43,882	-0,390	-0,252
27,707	-8,473	-0,368	-0,174
28,721	130,873	-0,428	-0,388
29,736	156,694	-0,366	-0,357
30,750	48,262	-0,439	-0,290
31,765	369,102	-0,306	-0,439
32,780	146,140	-0,419	-0,397
33,794	-92,721	-0,437	-0,086
34,809	52,169	-0,302	-0,203
35,823	-19,243	-0,435	-0,190
36,838	42,940	-0,399	-0,256
37,853	10,618	-0,352	-0,189
38,867	35,133	-0,387	-0,239
39,882	77,699	-0,373	-0,281
40,896	112,805	-0,285	-0,244
41,911	156,314	-0,330	-0,322
42,926	81,717	-0,402	-0,307
43,940	-63,842	-0,411	-0,118
44,955	71,722	-0,414	-0,303
45,969	0,224	-0,571	-0,287
46,984	40,356	-0,399	-0,253
47,999	144,304	-0,249	-0,235
49,013	35,733	-0,347	-0,215
50,028	101,717	-0,286	-0,235
51,042	19,102	-0,409	-0,231
52,057	274,396	-0,251	-0,314
53,071	177,724	-0,308	-0,317
54,086	154,972	-0,293	-0,284
55,101	-29,737	-0,354	-0,142
56,115	-33,822	-0,406	-0,157
57,130	58,410	-0,286	-0,197
58,144	214,124	-0,290	-0,324
59,159	22,676	-0,368	-0,212
60,174	260,990	-0,317	-0,387
61,188	122,565	-0,447	-0,394
62,203	292,776	-0,274	-0,353
63,217	67,705	-0,354	-0,255
64,232	16,542	-0,348	-0,193
65,247	-39,363	-0,431	-0,159
66,261	61,688	-0,294	-0,206
67,276	101,769	-0,426	-0,350
68,290	32,194	-0,369	-0,224
69,305	-152,523	-0,393	-0,019
70,320	21,732	-0,294	-0,168
71,334	-9,071	-0,297	-0,140
72,349	241,406	-0,238	-0,281
73,363	28,882	-0,431	-0,257
74,378	278,152	-0,233	-0,293
75,393	41,945	-0,356	-0,227
76,407	12,777	-0,308	-0,167
77,422	58,054	-0,356	-0,245
78,436	-52,525	-0,308	-0,100
79,451	18,485	-0,237	-0,133
80,466	387,306	-0,207	-0,302
81,480	179,746	-0,264	-0,272
82,495	100,452	-0,211	-0,172
83,509	60,064	-0,357	-0,248
84,524	-28,381	-0,335	-0,135
85,539	-22,785	-0,277	-0,117
86,553	-6,364	-0,286	-0,137
87,568	-30,438	-0,375	-0,149
88,582	262,772	-0,246	-0,301
89,597	22,099	-0,350	-0,200
90,611	63,938	-0,271	-0,191
91,626	-45,661	-0,379	-0,131
92,641	-16,280	-0,282	-0,125
93,655	-13,070	-0,341	-0,155
94,670	19,203	-0,297	-0,167
95,684	31,020	-0,325	-0,196
96,699	175,091	-0,223	-0,227
97,714	51,032	-0,261	-0,174
98,728	-200,000	-0,063	-0,206
99,743	141,147	-0,160	-0,149
100,757	4,518	-0,297	-0,153
101,772	30,510	-0,319	-0,191
102,787	-45,863	-0,277	-0,096
103,801	136,091	-0,246	-0,226
104,816	12,797	-0,271	-0,147
105,830	18,506	-0,202	-0,113
106,845	78,433	-0,230	-0,172
107,860	-36,894	-0,248	-0,093
108,874	242,298	-0,266	-0,313
109,889	314,926	-0,277	-0,367
110,903	141,427	-0,233	-0,217
111,918	252,184	-0,196	-0,235
112,933	62,443	-0,298	-0,208
113,947	-34,419	-0,383	-0,147
114,962	156,653	-0,178	-0,173
115,976	-32,359	-0,243	-0,095
116,991	415,987	-0,101	-0,152
118,006	58,444	-0,261	-0,179
119,020	33,283	-0,362	-0,220
120,035	-39,720	-0,252	-0,092
121,049	-42,453	-0,184	0,066
122,064	62,134	-0,309	-0,216
123,079	-151,888	-0,355	0,018
124,093	120,880	-0,193	-0,168
125,108	-42,588	-0,270	-0,096
126,122	197,811	-0,162	-0,173
127,137	30,450	-0,183	-0,109
128,151	0,543	-0,283	-0,141
129,166	159,570	-0,239	-0,233
130,181	-65,422	-0,317	-0,089
131,195	130,047	-0,240	-0,215
132,210	210,695	-0,302	-0,332
133,224	170,344	-0,184	-0,184
134,239	-48,106	-0,172	-0,058
135,254	91,264	-0,264	-0,207
136,268	231,938	-0,231	-0,266
137,283	10,927	-0,182	-0,097
138,297	223,179	-0,281	-0,317
139,312	242,089	-0,265	-0,311
140,327	-82,447	-0,205	-0,046
141,341	470,675	-0,077	-0,122
142,356	128,498	-0,205	-0,183
143,370	3,461	-0,401	-0,204
144,385	181,751	-0,144	-0,148
145,400	49,277	-0,327	-0,215
146,414	300,739	-0,250	-0,324
147,429	200,161	-0,213	-0,229
148,443	76,349	-0,263	-0,195
149,458	102,317	-0,136	-0,111
150,473	45,437	-0,146	-0,094
151,487	58,186	-0,291	-0,199
152,502	54,759	-0,257	-0,173
153,516	83,300	-0,208	-0,159
154,531	73,011	-0,296	-0,216
155,546	-12,931	-0,209	-0,095
156,560	77,169	-0,254	-0,188
157,575	31,684	-0,255	-0,153
158,589	605,589	-0,131	-0,230
159,604	44,998	-0,275	-0,177
160,619	274,546	-0,190	-0,236
161,633	382,055	-0,191	-0,275
162,648	72,273	-0,326	-0,237
163,662	489,006	-0,156	-0,250
164,677	-20,052	-0,306	-0,131
165,692	27,869	-0,302	-0,177
166,706	-81,241	-0,396	-0,091
167,721	73,745	-0,158	-0,116
168,735	-10,110	-0,275	-0,127
169,750	179,174	-0,242	-0,248
170,764	93,360	-0,201	-0,158
171,779	270,144	-0,151	-0,186
172,794	-45,026	-0,135	-0,047
173,808	-2,162	-0,274	-0,134
174,823	38,433	-0,257	-0,159
175,837	51,996	-0,307	-0,204
176,852	48,808	-0,300	-0,196
177,867	68,054	-0,153	-0,109
178,881	-35,280	-0,148	-0,056
179,896	153,656	-0,169	-0,162
180,910	152,096	-0,196	-0,186
181,925	67,508	-0,300	-0,213
182,940	477,282	-0,178	-0,281
183,954	54,437	-0,229	-0,154
184,969	113,616	-0,198	-0,167
185,983	9,806	-0,272	-0,143
186,998	-118,819	-0,201	-0,024
188,013	-28,542	-0,241	-0,096
189,027	-48,113	-0,235	-0,079
190,042	800,000	-0,167	-0,354
191,056	253,754	-0,217	-0,259
192,071	465,528	-0,121	-0,189
193,086	-117,335	-0,164	-0,020
194,100	-56,080	-0,221	-0,068
195,115	-65,922	-0,194	-0,054
196,129	-159,974	-0,184	0,007
197,144	800,000	-0,092	-0,185
198,159	-24,673	-0,212	-0,087
199,173	338,330	-0,182	-0,247
200,188	-14,527	-0,146	-0,065
201,202	-24,345	-0,195	-0,081
202,217	146,896	-0,109	-0,102
203,232	128,097	-0,260	-0,230
204,246	89,555	-0,274	-0,213
205,261	294,943	-0,165	-0,211
206,275	36,783	-0,196	-0,120
207,290	243,324	-0,123	-0,143
208,304	-200,000	-0,026	-0,150
209,319	192,879	-0,217	-0,228
210,334	-16,015	-0,234	-0,103
211,348	41,633	-0,257	-0,162
212,363	182,827	-0,129	-0,133
213,377	139,821	-0,121	-0,111
214,392	90,525	-0,199	-0,155
215,407	222,605	-0,213	-0,239
216,421	-5,792	-0,241	-0,114
217,436	41,147	-0,189	-0,119
218,450	-49,178	-0,323	-0,107
219,465	165,417	-0,241	-0,237
220,480	110,289	-0,196	-0,164
221,494	107,281	-0,227	-0,188
222,509	-141,959	-0,139	0,009
223,523	305,632	-0,102	-0,132
224,538	35,953	-0,190	-0,116
225,553	163,847	-0,255	-0,249
226,567	224,994	-0,171	-0,193
227,582	800,000	-0,122	-0,296
228,596	39,391	-0,233	-0,145
229,611	-58,366	-0,117	-0,035
230,626	35,530	-0,232	-0,141
231,640	62,945	-0,305	-0,212
232,655	662,350	-0,173	-0,312
233,669	270,093	-0,279	-0,342
234,684	31,068	-0,300	-0,178
235,699	286,307	-0,149	-0,187
236,713	522,302	-0,157	-0,256
237,728	71,041	-0,202	-0,145
238,742	132,566	-0,166	-0,149
239,757	54,456	-0,276	-0,184
240,772	66,939	-0,185	-0,131
241,786	21,142	-0,152	-0,085
242,801	800,000	-0,072	-0,172
243,815	-115,293	-0,078	-0,010
244,830	-17,955	-0,169	-0,073
245,844	-7,688	-0,236	-0,110
246,859	160,841	-0,135	-0,131
247,874	326,445	-0,135	-0,180
248,888	82,579	-0,143	-0,108
249,903	-61,941	-0,239	-0,069
250,917	25,259	-0,190	-0,109
251,932	-15,390	-0,146	-0,065
252,947	-131,757	-0,170	0,015
253,961	295,869	-0,183	-0,233
254,976	-38,001	-0,206	-0,075
255,990	-66,455	-0,182	-0,050
257,005	6,144	-0,248	-0,127
258,020	-40,767	-0,244	-0,087
259,034	285,458	-0,184	-0,231
260,049	257,841	-0,182	-0,217
261,063	-88,359	-0,132	-0,027
262,078	64,682	-0,273	-0,190
263,093	49,105	-0,293	-0,190
264,107	43,331	-0,212	-0,134
265,122	46,725	-0,226	-0,145
266,136	-85,351	-0,219	-0,047
267,151	-42,724	-0,160	0,056
268,166	195,595	-0,113	-0,119
269,180	583,212	-0,062	-0,105
270,195	45,926	-0,297	-0,190
271,209	-42,749	-0,200	-0,070
272,224	216,184	-0,189	-0,208
273,239	-11,444	-0,214	-0,097
274,253	256,319	-0,132	-0,157
275,268	-13,217	-0,255	-0,114
276,282	300,188	-0,150	-0,192
277,297	393,260	-0,138	-0,199
278,312	81,840	-0,204	-0,153
279,326	173,384	-0,180	-0,180
280,341	-33,718	-0,149	-0,057
281,355	118,062	-0,191	-0,163
282,370	62,892	-0,200	-0,138
283,384	144,577	-0,108	-0,100
284,399	82,566	-0,202	-0,152
285,414	338,526	-0,204	-0,276
286,428	173,083	-0,165	-0,164
287,443	-25,403	-0,154	-0,063
288,457	210,926	-0,162	-0,176
289,472	359,984	-0,108	-0,150
290,487	163,942	-0,182	-0,177
291,501	-11,238	-0,291	-0,132
292,516	738,489	-0,103	-0,192
293,530	-9,877	-0,131	-0,060
294,545	-40,850	-0,202	-0,072
295,560	397,841	-0,098	-0,142
296,574	24,910	-0,188	-0,107
297,589	411,025	-0,075	-0,110
298,603	-33,436	-0,212	-0,080
299,618	-8,898	-0,127	-0,058
300,633	800,000	-0,051	-0,126
301,647	-17,867	-0,045	-0,019
302,662	-200,000	-0,044	-0,137
303,676	-83,475	-0,233	-0,051
304,691	800,000	-0,092	-0,185
305,706	24,832	-0,246	-0,140
306,720	38,862	-0,208	-0,128
307,735	-200,000	-0,037	-0,129
308,749	-115,817	-0,237	-0,030
309,764	800,000	-0,068	-0,144
310,779	800,000	-0,066	-0,161
311,793	465,099	-0,143	-0,222
312,808	93,929	-0,253	-0,198
313,822	81,273	-0,110	-0,082
314,837	373,938	-0,080	-0,113
315,852	-200,000	-0,050	-0,165
316,866	800,000	-0,060	-0,132
317,881	-1,485	-0,151	-0,073
318,895	217,405	-0,141	-0,155
319,910	800,000	-0,136	-0,264
320,925	143,689	-0,139	-0,127
321,939	-200,000	-0,001	-0,091
322,954	-200,000	0,003	-0,243
323,968	-80,819	-0,056	-0,013
324,983	-173,921	-0,143	-0,003
325,997	119,373	-0,114	-0,097
327,012	6,957	-0,142	0,073
328,027	-78,247	-0,181	-0,042
329,041	8,073	-0,142	-0,073
330,056	66,986	-0,200	-0,140
331,070	-83,900	-0,102	0,022
332,085	489,958	-0,048	0,076
333,100	108,752	-0,160	-0,132
334,114	127,339	-0,099	-0,086
335,129	800,000	-0,092	-0,211
336,143	710,495	-0,112	-0,204
337,158	228,948	-0,115	-0,129
338,173	-78,202	-0,084	-0,020
339,187	800,000	-0,061	-0,143
340,202	800,000	-0,055	-0,126
341,216	-50,633	-0,193	-0,062
342,231	67,496	-0,217	-0,152
343,246	288,869	-0,120	-0,150
344,260	800,000	-0,035	-0,092
345,275	264,049	-0,064	-0,077
346,289	-30,402	-0,127	-0,049
347,304	22,931	-0,074	0,042
348,319	-52,540	-0,137	-0,043
349,333	800,000	-0,098	-0,216
350,348	-200,000	-0,095	-0,303
351,362	316,826	-0,139	-0,181
352,377	-200,000	-0,013	0,085
353,392	-50,344	-0,152	-0,049
354,406	800,000	-0,117	-0,226
355,421	209,941	1313,856	1417,735
356,435	161,597	1474,521	1418,262
