DTS Sentinel unit serial number:	SN410029Multiplexer serial number:	ORYXHardware model number:	OX2-SRSoftware version number:	ORYX F/W v4,00 Oryx Data Collector v3.7.2.0data status	okinstallation	B3 Nyhavnadifferential loss correction	single-endedforward channel	channel 1reverse channel	N/Adate	2023/12/02time	22:47:30forward acquisition time	300,00reverse acquisition time	0,00gamma	499,1914k internal	0,3201k external	0,3201temperature offset calibration	1,0000default loss term (dB/km)	0,3820temperature slope calibration	1,0000multiplexer offset coefficient	1,0000multiplexer slope coefficient	1,0000fibre end	0,00T internal ref (°C)	13,22T ext. ref 1 (°C)	-1,75T ext. ref 2 (°C)	-1,76length (m)	temperature (°C)	Stokes	anti-Stokes-744,400	42,373	-0,145	-0,096
-743,385	-200,000	0,042	0,162
-742,371	800,000	-0,129	-0,377
-741,356	-200,000	0,025	0,424
-740,342	-200,000	-0,102	-0,328
-739,327	-200,000	-0,069	0,427
-738,312	491,269	-0,114	-0,190
-737,298	-200,000	-0,081	0,274
-736,283	185,648	-0,266	-0,288
-735,269	-200,000	0,050	0,392
-734,254	151,133	-0,248	-0,245
-733,239	0,328	-0,158	0,082
-732,225	-200,000	-0,089	-0,425
-731,210	-100,120	0,060	-0,011
-730,196	-15,415	0,081	0,037
-729,181	-140,508	-0,156	-0,012
-728,167	530,280	0,017	0,030
-727,152	-113,979	-0,047	0,007
-726,137	245,594	-0,019	-0,024
-725,123	328,805	-0,102	-0,143
-724,108	245,354	-0,130	-0,159
-723,094	-200,000	-0,039	-0,155
-722,079	-175,538	0,037	0,001
-721,064	-167,067	-0,036	0,001
-720,050	800,000	0,034	0,091
-719,035	-200,000	0,013	0,141
-718,021	687,010	-0,039	-0,075
-717,006	-200,000	-0,007	-0,121
-715,991	10,259	-0,130	-0,072
-714,977	184,956	-0,116	-0,125
-713,962	800,000	-0,023	-0,053
-712,948	383,110	0,039	-0,059
-711,933	-143,483	-0,094	-0,006
-710,918	259,094	0,048	-0,060
-709,904	196,060	-0,041	0,046
-708,889	155,602	-0,099	0,099
-707,875	-200,000	-0,008	-0,105
-706,860	79,084	-0,029	0,023
-705,845	-72,587	-0,118	-0,031
-704,831	-64,076	0,138	0,041
-703,816	78,370	-0,009	0,007
-702,802	-200,000	0,005	-0,124
-701,787	-99,742	-0,143	-0,026
-700,772	64,784	-0,063	-0,046
-699,758	800,000	0,021	0,043
-698,743	-200,000	0,028	0,164
-697,729	90,668	0,061	0,049
-696,714	-200,000	0,012	0,135
-695,699	152,468	-0,048	-0,047
-694,685	129,893	-0,047	-0,043
-693,670	30,796	-0,078	0,049
-692,656	-200,000	0,005	-0,029
-691,641	-200,000	0,007	0,026
-690,627	-21,136	0,057	0,025
-689,612	-169,083	-0,133	0,004
-688,597	186,576	0,025	-0,027
-687,583	800,000	-0,073	-0,180
-686,568	-31,537	-0,237	-0,096
-685,554	-107,046	-0,073	0,012
-684,539	-106,882	0,108	0,017
-683,524	522,782	-0,034	0,058
-682,510	245,804	-0,079	-0,097
-681,495	349,710	0,083	-0,119
-680,481	-94,916	-0,089	0,017
-679,466	-200,000	-0,018	0,066
-678,451	-134,344	-0,183	-0,016
-677,437	386,163	0,030	0,044
-676,422	5,618	0,079	0,042
-675,408	3,462	0,020	-0,010
-674,393	-60,697	-0,071	0,022
-673,378	800,000	-0,053	-0,119
-672,364	125,182	-0,092	-0,084
-671,349	-200,000	-0,003	-0,102
-670,335	5,457	0,022	0,012
-669,320	-80,439	0,051	0,012
-668,305	-200,000	0,011	0,053
-667,291	37,553	0,046	0,029
-666,276	217,964	0,071	-0,082
-665,262	-115,891	-0,109	0,015
-664,247	-200,000	-0,036	0,182
-663,232	-74,180	-0,170	-0,044
-662,218	-114,851	0,056	-0,008
-661,203	-21,316	0,098	0,043
-660,189	2,198	-0,055	0,029
-659,174	-112,993	0,033	-0,005
-658,159	800,000	-0,065	-0,203
-657,145	-182,056	0,029	0,000
-656,130	800,000	-0,060	-0,146
-655,116	800,000	0,018	0,042
-654,101	-200,000	0,023	0,102
-653,086	172,214	-0,114	-0,119
-652,072	-200,000	0,001	0,011
-651,057	540,049	0,123	-0,214
-650,043	800,000	-0,032	-0,099
-649,028	-111,950	-0,048	0,007
-648,014	-138,154	0,128	0,010
-646,999	364,766	0,040	-0,058
-645,984	-134,671	-0,064	-0,006
-644,970	-176,569	-0,085	-0,002
-643,955	800,000	-0,041	-0,126
-642,941	-200,000	0,014	-0,051
-641,926	-55,399	0,114	-0,037
-640,911	-25,271	0,125	0,053
-639,897	115,213	0,093	0,082
-638,882	-200,000	0,031	-0,153
-637,868	95,571	0,058	-0,048
-636,853	800,000	-0,074	-0,156
-635,838	-11,688	-0,104	-0,049
-634,824	-63,948	-0,118	0,035
-633,809	800,000	0,077	0,199
-632,795	800,000	-0,047	-0,106
-631,780	800,000	0,045	-0,119
-630,765	256,227	-0,046	-0,057
-629,751	281,353	-0,019	0,025
-628,736	305,118	0,070	-0,094
-627,722	-14,278	-0,131	-0,061
-626,707	286,763	0,051	-0,066
-625,692	-44,022	0,053	-0,019
-624,678	-177,119	0,045	-0,001
-623,663	-62,512	-0,152	0,045
-622,649	83,736	-0,047	-0,037
-621,634	-128,784	-0,079	0,008
-620,619	659,026	0,063	0,118
-619,605	8,494	-0,163	-0,088
-618,590	50,756	0,114	0,078
-617,576	493,940	-0,032	-0,053
-616,561	240,810	-0,034	-0,041
-615,546	382,807	0,006	-0,009
-614,532	-58,815	0,125	-0,039
-613,517	-40,048	-0,002	-0,001
-612,503	179,603	-0,111	-0,118
-611,488	-132,624	0,114	-0,010
-610,474	87,869	0,030	0,024
-609,459	734,700	0,032	-0,063
-608,444	201,739	-0,072	-0,080
-607,430	64,863	-0,146	-0,107
-606,415	800,000	0,042	-0,109
-605,401	274,715	0,030	-0,038
-604,386	800,000	0,016	0,042
-603,371	-113,411	-0,045	0,006
-602,357	-87,360	-0,082	-0,018
-601,342	-200,000	0,005	-0,119
-600,328	515,746	-0,085	0,144
-599,313	-10,182	0,009	-0,004
-598,298	80,139	-0,067	-0,052
-597,284	300,362	0,052	-0,069
-596,269	-164,925	-0,087	-0,003
-595,255	108,833	0,131	0,113
-594,240	-200,000	-0,033	0,104
-593,225	34,033	0,093	-0,058
-592,211	-186,315	0,091	0,001
-591,196	224,410	-0,053	-0,062
-590,182	-37,699	-0,101	0,039
-589,167	275,923	-0,032	0,041
-588,152	800,000	0,019	-0,044
-587,138	-40,231	-0,207	-0,078
-586,123	800,000	0,039	0,120
-585,109	-200,000	-0,021	0,125
-584,094	-74,942	-0,036	0,009
-583,079	-89,844	-0,064	-0,013
-582,065	-200,000	0,028	0,115
-581,050	-82,397	0,111	0,026
-580,036	630,662	0,014	0,025
-579,021	800,000	-0,066	-0,135
-578,006	-200,000	-0,006	-0,152
-576,992	800,000	-0,054	-0,134
-575,977	800,000	-0,023	-0,052
-574,963	134,320	0,084	-0,078
-573,948	-63,250	0,076	0,022
-572,934	-200,000	-0,007	-0,116
-571,919	-108,269	-0,146	-0,023
-570,904	-51,669	0,132	-0,044
-569,890	-200,000	0,006	-0,097
-568,875	-122,172	-0,129	0,015
-567,861	433,055	-0,053	0,083
-566,846	-38,400	-0,047	0,018
-565,831	310,474	-0,130	0,177
-564,817	-101,698	-0,047	0,008
-563,802	66,477	-0,036	0,027
-562,788	35,248	-0,112	0,071
-561,773	-200,000	-0,010	-0,042
-560,758	-74,193	-0,032	-0,008
-559,744	-200,000	0,025	-0,100
-558,729	-200,000	0,009	0,112
-557,715	-27,389	-0,039	0,016
-556,700	388,036	0,025	-0,037
-555,685	6,982	-0,024	0,013
-554,671	141,058	-0,055	-0,052
-553,656	-200,000	-0,006	-0,160
-552,642	671,958	0,111	0,209
-551,627	53,119	0,039	-0,027
-550,612	99,822	-0,103	0,086
-549,598	338,917	0,057	0,081
-548,583	800,000	-0,003	0,009
-547,569	-92,094	-0,057	-0,011
-546,554	800,000	-0,013	-0,029
-545,539	88,248	0,114	0,092
-544,525	35,045	0,115	-0,072
-543,510	14,356	-0,131	-0,074
-542,496	-112,052	0,099	-0,014
-541,481	800,000	0,046	-0,099
-540,466	88,031	-0,044	-0,035
-539,452	74,448	0,142	0,108
-538,437	72,209	-0,060	0,045
-537,423	20,880	-0,025	0,015
-536,408	390,730	0,043	0,065
-535,393	82,472	-0,104	-0,081
-534,379	-200,000	-0,003	-0,026
-533,364	-200,000	-0,011	-0,058
-532,350	72,942	-0,081	-0,061
-531,335	423,496	0,056	0,087
-530,321	-200,000	0,010	0,067
-529,306	652,212	0,019	-0,036
-528,291	-52,514	0,090	0,030
-527,277	123,111	-0,050	0,045
-526,262	201,623	-0,049	-0,055
-525,248	-200,000	-0,026	-0,135
-524,233	530,346	0,045	-0,078
-523,218	-55,630	0,176	0,056
-522,204	53,236	0,125	0,086
-521,189	-60,967	-0,094	0,029
-520,175	75,496	0,059	-0,045
-519,160	-70,753	0,102	0,028
-518,145	-200,000	0,015	0,075
-517,131	-48,951	0,085	0,029
-516,116	-64,274	0,050	-0,015
-515,102	-200,000	0,002	0,082
-514,087	14,348	-0,124	0,070
-513,072	-105,004	0,047	0,008
-512,058	-46,657	-0,042	-0,015
-511,043	199,351	0,074	0,082
-510,029	-200,000	-0,042	-0,282
-509,014	-200,000	-0,004	0,043
-507,999	-200,000	-0,104	0,000
-506,985	-200,000	-0,018	-0,058
-505,970	463,327	-0,122	-0,197
-504,956	216,709	0,036	-0,041
-503,941	381,057	0,037	0,056
-502,926	-111,617	0,129	0,019
-501,912	800,000	0,019	-0,058
-500,897	-200,000	-0,010	0,080
-499,883	28,781	-0,119	-0,072
-498,868	-200,000	-0,010	-0,108
-497,853	800,000	-0,038	-0,087
-496,839	800,000	-0,048	-0,100
-495,824	430,103	-0,059	0,093
-494,810	33,923	-0,037	0,023
-493,795	275,521	0,043	0,055
-492,781	119,569	0,064	-0,057
-491,766	772,704	-0,018	-0,036
-490,751	221,483	0,021	-0,024
-489,737	-75,954	-0,105	0,026
-488,722	800,000	0,046	-0,102
-487,708	62,788	0,021	0,015
-486,693	800,000	0,011	0,032
-485,678	800,000	0,057	0,149
-484,664	-26,064	-0,220	-0,093
-483,649	249,041	0,088	-0,108
-482,635	797,815	-0,025	0,050
-481,620	-31,325	0,115	-0,047
-480,605	514,289	0,044	0,074
-479,591	167,033	-0,062	0,063
-478,576	-13,430	-0,044	0,021
-477,562	800,000	-0,037	-0,081
-476,547	-200,000	-0,020	-0,076
-475,532	-25,262	0,124	-0,053
-474,518	-200,000	0,002	0,041
-473,503	641,253	-0,024	0,044
-472,489	225,431	0,080	-0,093
-471,474	-167,480	0,034	0,001
-470,459	-76,088	-0,114	-0,029
-469,445	646,888	0,099	-0,183
-468,430	153,577	-0,088	0,087
-467,416	53,884	-0,054	0,037
-466,401	5,173	0,083	-0,044
-465,386	-200,000	-0,015	0,099
-464,372	-200,000	0,016	0,065
-463,357	-61,982	0,054	0,016
-462,343	-200,000	0,025	-0,136
-461,328	-66,693	-0,109	-0,031
-460,313	800,000	-0,033	-0,075
-459,299	-23,831	-0,046	0,020
-458,284	-200,000	-0,001	0,064
-457,270	-19,840	0,108	0,048
-456,255	-200,000	-0,037	0,128
-455,241	588,645	-0,043	0,076
-454,226	3,287	0,104	-0,054
-453,211	2,180	-0,071	-0,037
-452,197	470,200	-0,025	-0,040
-451,182	-116,049	0,071	-0,009
-450,168	-11,321	0,124	0,058
-449,153	-200,000	-0,008	-0,136
-448,138	119,991	-0,060	-0,054
-447,124	286,592	0,007	0,009
-446,109	42,140	0,132	0,086
-445,095	-200,000	-0,048	0,168
-444,080	-101,676	0,122	0,021
-443,065	800,000	0,019	0,042
-442,051	42,885	0,080	0,052
-441,036	642,387	0,109	-0,200
-440,022	116,267	-0,054	0,047
-439,007	-117,593	0,094	0,012
-437,992	-200,000	-0,006	0,149
-436,978	-20,567	0,181	-0,080
-435,963	-12,041	0,084	-0,039
-434,949	-122,630	-0,057	-0,007
-433,934	578,181	0,021	-0,036
-432,919	-3,673	0,012	0,006
-431,905	39,286	-0,035	-0,022
-430,890	-33,436	-0,109	-0,043
-429,876	-200,000	0,019	0,164
-428,861	148,901	0,074	0,072
-427,846	800,000	0,018	-0,048
-426,832	28,787	-0,068	-0,041
-425,817	50,915	-0,106	-0,072
-424,803	-200,000	-0,010	-0,131
-423,788	433,093	0,068	0,107
-422,773	-200,000	-0,002	0,132
-421,759	-200,000	-0,025	0,085
-420,744	-3,455	-0,069	-0,034
-419,730	800,000	0,009	-0,029
-418,715	259,176	-0,039	-0,049
-417,701	62,784	0,058	-0,041
-416,686	151,591	-0,067	0,065
-415,671	160,999	0,016	0,016
-414,657	97,422	0,055	-0,045
-413,642	800,000	-0,048	0,111
-412,628	195,750	-0,038	0,042
-411,613	245,360	-0,093	-0,112
-410,598	-74,416	-0,073	0,019
-409,584	-152,458	0,103	-0,005
-408,569	-28,737	-0,068	0,028
-407,555	-200,000	-0,004	0,111
-406,540	-200,000	0,022	0,108
-405,525	800,000	-0,027	-0,063
-404,511	-108,323	-0,014	-0,002
-403,496	800,000	0,043	-0,123
-402,482	-108,285	0,100	-0,015
-401,467	-200,000	0,061	0,202
-400,452	-8,965	0,236	0,113
-399,438	232,070	0,094	0,110
-398,423	-19,985	-0,023	0,010
-397,409	75,220	-0,049	-0,037
-396,394	-200,000	0,003	-0,086
-395,379	-68,863	-0,018	-0,005
-394,365	-200,000	0,003	0,039
-393,350	800,000	-0,034	0,102
-392,336	85,262	0,096	0,076
-391,321	-72,437	-0,135	-0,035
-390,306	174,217	0,025	0,026
-389,292	114,006	0,065	-0,057
-388,277	413,633	0,051	-0,078
-387,263	-173,213	0,069	0,001
-386,248	800,000	0,028	0,057
-385,233	195,254	0,078	0,085
-384,219	-29,837	-0,066	-0,027
-383,204	43,226	-0,087	-0,057
-382,190	42,258	-0,056	-0,036
-381,175	-151,755	-0,176	-0,009
-380,160	29,791	0,062	-0,038
-379,146	-110,476	-0,041	0,006
-378,131	800,000	0,103	0,210
-377,117	-200,000	0,015	-0,062
-376,102	472,623	-0,103	-0,167
-375,088	800,000	0,029	-0,072
-374,073	66,717	0,081	-0,059
-373,058	20,470	0,092	-0,053
-372,044	-200,000	0,017	0,120
-371,029	210,882	0,074	-0,083
-370,015	-200,000	-0,005	-0,062
-369,000	-200,000	0,018	0,073
-367,985	389,515	-0,017	-0,026
-366,971	-79,488	0,099	0,024
-365,956	-8,278	-0,059	0,028
-364,942	66,859	0,102	0,075
-363,927	800,000	0,023	-0,046
-362,912	16,374	0,071	-0,040
-361,898	-24,269	-0,087	0,037
-360,883	1,542	-0,026	-0,014
-359,869	-33,277	0,045	-0,018
-358,854	-62,908	0,100	0,029
-357,839	-200,000	-0,001	0,045
-356,825	191,395	0,058	0,062
-355,810	565,822	0,027	-0,048
-354,796	-163,619	0,012	0,000
-353,781	-200,000	0,010	0,078
-352,766	-107,458	0,041	-0,006
-351,752	-200,000	0,023	0,133
-350,737	281,711	0,023	-0,029
-349,723	59,787	-0,063	-0,045
-348,708	800,000	-0,046	-0,096
-347,693	5,071	-0,100	-0,053
-346,679	26,977	-0,103	-0,062
-345,664	-39,805	0,085	-0,032
-344,650	-200,000	0,009	0,039
-343,635	-153,099	0,053	-0,003
-342,620	285,093	0,077	-0,099
-341,606	-200,000	0,002	0,158
-340,591	40,932	0,048	-0,031
-339,577	49,952	0,048	0,033
-338,562	83,846	-0,015	0,012
-337,548	800,000	-0,029	0,090
-336,533	800,000	-0,078	0,168
-335,518	-164,885	-0,037	0,001
-334,504	201,012	0,113	-0,124
-333,489	-200,000	0,006	0,147
-332,475	18,227	-0,075	0,043
-331,460	-31,611	-0,086	0,034
-330,445	-136,378	0,005	0,000
-329,431	-200,000	-0,013	0,114
-328,416	800,000	0,026	-0,065
-327,402	42,748	-0,026	0,017
-326,387	-200,000	-0,022	0,074
-325,372	450,733	0,053	-0,084
-324,358	47,723	-0,057	0,038
-323,343	-200,000	0,033	0,136
-322,329	-200,000	0,001	0,136
-321,314	113,348	0,092	0,080
-320,299	473,633	0,058	0,094
-319,285	-57,459	0,101	-0,031
-318,270	-49,507	-0,032	0,011
-317,256	800,000	-0,014	-0,032
-316,241	-62,975	0,067	-0,020
-315,226	-95,650	0,013	0,002
-314,212	151,051	-0,047	-0,046
-313,197	-25,634	0,059	0,025
-312,183	18,814	-0,153	0,088
-311,168	800,000	-0,029	0,071
-310,153	79,593	-0,067	-0,051
-309,139	175,130	-0,092	-0,096
-308,124	-200,000	-0,019	0,099
-307,110	97,976	-0,069	0,057
-306,095	254,015	0,101	-0,124
-305,080	25,378	0,037	-0,022
-304,066	-54,307	0,099	-0,032
-303,051	251,090	0,016	-0,020
-302,037	-200,000	0,017	-0,216
-301,022	-86,490	0,060	-0,013
-300,008	-91,129	0,140	0,028
-298,993	-200,000	0,015	0,059
-297,978	698,986	0,091	0,172
-296,964	-120,742	0,089	0,011
-295,949	415,595	-0,054	0,082
-294,935	800,000	-0,040	-0,107
-293,920	-53,750	-0,064	0,021
-292,905	-200,000	-0,032	0,108
-291,891	-200,000	-0,007	-0,070
-290,876	244,156	-0,111	-0,133
-289,862	-200,000	-0,010	-0,063
-288,847	-87,370	0,058	0,013
-287,832	-193,986	0,012	0,000
-286,818	-200,000	0,008	0,058
-285,803	-200,000	0,007	-0,059
-284,789	800,000	0,025	0,077
-283,774	-141,523	-0,058	-0,004
-282,759	423,272	0,041	0,063
-281,745	621,633	-0,040	0,071
-280,730	-200,000	-0,023	-0,152
-279,716	-200,000	-0,071	0,000
-278,701	75,075	-0,076	0,057
-277,686	-200,000	-0,000	0,069
-276,672	-200,000	-0,003	-0,052
-275,657	-36,335	-0,031	-0,012
-274,643	7,231	-0,059	0,032
-273,628	800,000	-0,008	0,023
-272,613	-70,808	0,048	-0,013
-271,599	-58,684	-0,094	-0,029
-270,584	-200,000	-0,021	-0,141
-269,570	-200,000	-0,023	0,221
-268,555	633,431	-0,055	-0,099
-267,540	800,000	-0,089	-0,215
-266,526	-116,882	-0,055	-0,007
-265,511	-1,207	0,044	0,022
-264,497	74,837	-0,041	-0,031
-263,482	317,869	0,116	-0,157
-262,467	-111,221	0,112	0,016
-261,453	-200,000	0,010	0,154
-260,438	-27,828	-0,048	-0,020
-259,424	-200,000	-0,003	0,142
-258,409	-200,000	-0,001	0,081
-257,395	85,229	-0,085	0,066
-256,380	216,835	-0,058	-0,066
-255,365	49,639	0,165	0,111
-254,351	162,572	0,042	0,042
-253,336	84,131	-0,068	-0,053
-252,322	-161,904	-0,107	-0,004
-251,307	800,000	-0,046	-0,121
-250,292	404,776	-0,057	-0,086
-249,278	-43,946	0,036	-0,013
-248,263	-200,000	-0,001	0,022
-247,249	226,975	0,066	-0,077
-246,234	29,949	-0,088	0,054
-245,219	21,980	-0,036	0,021
-244,205	-60,491	-0,084	-0,025
-243,190	-26,447	-0,072	-0,030
-242,176	602,306	0,023	-0,040
-241,161	-126,798	0,046	-0,005
-240,146	270,119	-0,055	-0,068
-239,132	-14,367	-0,078	0,036
-238,117	539,869	0,015	0,026
-237,103	-200,000	-0,013	0,099
-236,088	-53,918	-0,134	0,043
-235,073	-19,436	-0,056	0,024
-234,059	-200,000	-0,002	0,112
-233,044	800,000	0,043	0,088
-232,030	-143,225	-0,133	-0,009
-231,015	179,261	-0,084	-0,088
-230,000	800,000	-0,045	-0,090
-228,986	-16,313	-0,089	-0,040
-227,971	-158,566	0,043	-0,002
-226,957	193,844	0,060	-0,064
-225,942	800,000	0,023	0,069
-224,927	-1,608	0,074	-0,037
-223,913	0,961	0,067	0,034
-222,898	800,000	0,014	-0,029
-221,884	-200,000	-0,011	0,122
-220,869	-200,000	0,032	0,118
-219,855	-200,000	-0,002	-0,044
-218,840	-113,654	0,052	0,007
-217,825	135,367	-0,005	0,004
-216,811	-200,000	0,011	-0,081
-215,796	-30,447	0,186	0,075
-214,782	-122,199	0,069	0,008
-213,767	-158,217	0,081	0,003
-212,752	-200,000	-0,015	0,147
-211,738	167,838	0,068	0,069
-210,723	257,139	-0,063	0,077
-209,709	800,000	0,005	-0,013
-208,694	136,117	0,058	0,054
-207,679	-200,000	-0,011	-0,035
-206,665	5,631	-0,127	-0,066
-205,650	-59,366	-0,077	0,023
-204,636	-200,000	0,013	0,118
-203,621	-200,000	0,025	0,182
-202,606	181,402	-0,033	0,034
-201,592	-101,933	-0,081	-0,014
-200,577	552,642	0,021	-0,037
-199,563	-200,000	0,003	0,028
-198,548	5,528	0,077	0,040
-197,533	-14,479	0,107	-0,049
-196,519	-104,084	-0,168	0,028
-195,504	788,789	0,012	-0,023
-194,490	290,820	-0,037	-0,048
-193,475	-100,959	-0,106	0,018
-192,460	-200,000	0,001	-0,065
-191,446	251,795	-0,073	-0,088
-190,431	800,000	0,036	0,099
-189,417	94,709	0,040	0,033
-188,402	253,893	-0,070	0,085
-187,387	29,714	0,090	0,055
-186,373	165,527	-0,133	-0,134
-185,358	-40,074	-0,009	-0,003
-184,344	-88,530	-0,067	-0,014
-183,329	453,571	0,030	0,047
-182,315	-200,000	-0,027	-0,167
-181,300	87,256	0,162	0,128
-180,285	-58,987	-0,105	-0,032
-179,271	800,000	-0,054	-0,109
-178,256	800,000	-0,003	0,007
-177,242	512,416	-0,084	0,140
-176,227	-200,000	0,028	0,142
-175,212	-179,112	0,099	-0,002
-174,198	-200,000	-0,001	-0,091
-173,183	800,000	0,080	0,172
-172,169	-2,038	-0,104	0,052
-171,154	-200,000	0,050	-0,167
-170,139	159,580	0,053	-0,053
-169,125	-141,820	0,079	-0,006
-168,110	-73,959	0,156	-0,040
-167,096	87,360	0,018	0,014
-166,081	-200,000	-0,019	-0,105
-165,066	144,168	0,048	-0,046
-164,052	-62,286	0,091	0,027
-163,037	434,949	-0,028	-0,044
-162,023	-200,000	-0,006	0,052
-161,008	15,046	-0,060	-0,033
-159,993	256,723	-0,038	-0,046
-158,979	-39,174	-0,046	0,017
-157,964	800,000	-0,069	-0,198
-156,950	-200,000	-0,007	0,128
-155,935	36,407	-0,133	0,083
-154,920	-65,378	0,143	-0,041
-153,906	479,187	0,093	0,150
-152,891	208,883	-0,012	0,014
-151,877	800,000	0,052	-0,104
-150,862	36,717	0,052	0,032
-149,847	441,583	-0,045	-0,070
-148,833	-113,429	-0,028	-0,004
-147,818	-33,814	-0,087	0,034
-146,804	20,182	0,083	-0,048
-145,789	-200,000	-0,007	0,164
-144,775	-62,149	0,027	-0,008
-143,760	-51,235	-0,156	0,051
-142,745	-87,668	-0,072	-0,015
-141,731	-35,416	0,158	0,061
-140,716	-96,622	0,189	-0,035
-139,702	800,000	0,070	0,204
-138,687	-200,000	-0,024	0,109
-137,672	21,902	0,142	0,082
-136,658	108,045	-0,111	-0,094
-135,643	-14,876	-0,043	0,020
-134,629	-70,332	0,034	-0,009
-133,614	94,793	0,068	0,054
-132,599	800,000	-0,028	-0,063
-131,585	238,634	-0,053	0,062
-130,570	-130,191	0,014	-0,001
-129,556	445,133	-0,005	0,008
-128,541	800,000	0,042	0,094
-127,526	661,600	-0,013	0,024
-126,512	-81,477	0,014	-0,003
-125,497	800,000	0,009	-0,027
-124,483	204,509	0,061	-0,068
-123,468	-200,000	-0,001	-0,130
-122,453	-131,573	0,086	-0,008
-121,439	46,645	0,042	0,027
-120,424	-200,000	-0,014	-0,168
-119,410	-200,000	0,017	0,123
-118,395	-200,000	0,030	0,194
-117,380	403,956	0,049	0,073
-116,366	800,000	0,040	-0,096
-115,351	-200,000	0,012	-0,102
-114,337	61,298	-0,086	-0,061
-113,322	302,803	-0,034	-0,045
-112,307	800,000	-0,092	0,188
-111,293	170,650	-0,067	0,068
-110,278	21,834	-0,043	0,025
-109,264	190,483	0,126	0,135
-108,249	272,572	0,066	0,082
-107,234	505,207	-0,055	-0,091
-106,220	-200,000	0,002	-0,115
-105,205	619,060	0,049	0,088
-104,191	-78,551	0,115	-0,028
-103,176	-68,491	0,089	-0,024
-102,162	247,217	-0,073	0,088
-101,147	223,374	-0,056	0,064
-100,132	-200,000	-0,001	0,126
-99,118	-46,757	-0,113	-0,039
-98,103	-113,090	0,054	0,008
-97,089	153,887	-0,065	0,063
-96,074	-59,274	0,206	0,063
-95,059	-83,881	-0,052	0,012
-94,045	-200,000	-0,002	-0,048
-93,030	-54,588	-0,194	-0,062
-92,016	-60,439	-0,123	0,037
-91,001	-200,000	0,017	0,058
-89,986	156,903	-0,042	-0,042
-88,972	-31,793	0,103	0,041
-87,957	-55,247	0,104	-0,033
-86,943	20,086	0,041	0,023
-85,928	-200,000	-0,037	-0,156
-84,913	-200,000	-0,016	-0,095
-83,899	24,175	0,145	0,084
-82,884	292,610	0,043	-0,056
-81,870	-39,355	0,183	0,068
-80,855	800,000	0,055	0,119
-79,840	262,584	-0,060	0,074
-78,826	800,000	0,013	-0,030
-77,811	-26,005	-0,112	-0,047
-76,797	130,057	-0,024	0,021
-75,782	-112,744	-0,057	-0,008
-74,767	800,000	-0,032	0,074
-73,753	219,537	-0,083	0,094
-72,738	-16,978	-0,058	-0,026
-71,724	35,043	-0,026	0,016
-70,709	-32,031	-0,095	-0,037
-69,694	-200,000	-0,001	-0,093
-68,680	800,000	-0,059	0,171
-67,665	19,224	-0,036	-0,020
-66,651	554,733	0,024	0,041
-65,636	-60,457	0,030	0,009
-64,622	678,487	0,014	0,026
-63,607	800,000	-0,018	-0,044
-62,592	-200,000	-0,002	-0,103
-61,578	-200,000	0,036	0,126
-60,563	-200,000	0,026	0,115
-59,549	502,535	0,057	0,094
-58,534	-17,921	-1,694	-0,749
-57,519	413,018	-1,293	-1,953
-56,505	-200,000	-0,461	-4,606
-55,490	160,112	1,088	1,074
-54,476	800,000	5,063	11,450
-53,461	-200,000	19,314	320,907
-52,446	-200,000	741,917	2334,362
-51,432	572,089	1656,240	2867,532
-50,417	78,001	1670,951	1260,190
-49,403	21,199	1544,132	885,110
-48,388	15,114	1466,312	810,917
-47,373	17,957	1456,671	819,290
-46,359	16,680	1446,363	807,338
-45,344	13,353	1441,913	788,886
-44,330	13,225	1440,093	787,246
-43,315	13,297	1438,156	786,498
-42,300	13,249	1436,602	785,390
-41,286	13,285	1435,115	784,715
-40,271	13,240	1434,027	783,878
-39,257	13,255	1432,583	783,126
-38,242	13,306	1431,536	782,766
-37,227	13,312	1430,142	782,000
-36,213	13,295	1428,899	781,210
-35,198	13,355	1427,490	780,694
-34,184	13,356	1426,737	780,255
-33,169	13,257	1425,573	779,119
-32,154	13,308	1424,370	778,672
-31,140	13,389	1423,162	778,364
-30,125	13,372	1422,083	777,665
-29,111	13,326	1420,903	776,771
-28,096	13,335	1419,607	776,073
-27,082	13,249	1418,796	775,191
-26,067	13,220	1417,630	774,388
-25,052	13,212	1416,410	773,651
-24,038	13,223	1415,515	773,185
-23,023	13,231	1414,519	772,648
-22,009	13,212	1413,601	772,027
-20,994	13,198	1412,701	771,437
-19,979	13,190	1411,741	770,847
-18,965	13,211	1410,839	770,420
-17,950	13,173	1409,852	769,675
-16,936	13,210	1408,801	769,244
-15,921	13,137	1407,619	768,225
-14,906	13,148	1407,014	767,918
-13,892	13,184	1405,918	767,457
-12,877	13,153	1405,064	766,816
-11,863	13,178	1404,134	766,393
-10,848	13,145	1403,303	765,758
-9,833	13,078	1402,462	764,956
-8,819	13,060	1401,677	764,413
-7,804	13,044	1400,749	763,801
-6,790	13,111	1399,460	763,378
-5,775	13,040	1398,542	762,517
-4,760	13,059	1397,623	762,075
-3,746	13,031	1396,727	761,427
-2,731	13,023	1395,901	760,909
-1,717	13,016	1395,046	760,379
-0,702	12,986	1393,124	759,161
0,313	17,062	1309,890	732,618
1,327	33,620	703,065	431,441
2,342	52,063	122,975	82,753
3,356	5,034	16,593	8,613
4,371	-1,952	3,239	1,605
5,386	-73,076	0,587	0,151
6,400	800,000	0,086	0,198
7,415	-60,420	-0,220	-0,066
8,429	753,059	-0,139	-0,266
9,444	37,148	-0,191	-0,120
10,459	-6,972	-0,257	-0,123
11,473	-51,039	-0,456	-0,150
12,488	-25,232	-0,370	-0,154
13,502	86,945	-0,195	-0,152
14,517	220,401	-0,219	-0,248
15,531	136,327	-0,369	-0,340
16,546	154,729	-0,269	-0,261
17,561	151,335	-0,332	-0,320
18,575	-120,588	-0,198	-0,023
19,590	76,606	-0,168	-0,126
20,604	-166,122	-0,406	0,012
21,619	89,606	-0,372	-0,293
22,634	180,100	-0,388	-0,402
23,648	14,959	-0,521	-0,287
24,663	190,696	-0,331	-0,352
25,677	73,599	-0,313	-0,232
26,692	113,784	-0,336	-0,288
27,707	-29,090	-0,469	-0,189
28,721	99,112	-0,427	-0,348
29,736	-16,333	-0,517	-0,231
30,750	74,404	-0,416	-0,308
31,765	21,499	-0,472	-0,270
32,780	51,023	-0,238	-0,159
33,794	113,506	-0,334	-0,286
34,809	-13,601	-0,388	-0,177
35,823	143,199	-0,354	-0,333
36,838	94,216	-0,359	-0,288
37,853	98,187	-0,380	-0,309
38,867	198,376	-0,279	-0,302
39,882	32,056	-0,362	-0,219
40,896	42,130	-0,245	-0,157
41,911	119,641	-0,286	-0,250
42,926	165,358	-0,237	-0,236
43,940	46,507	-0,454	-0,296
44,955	2,000	-0,409	-0,207
45,969	42,617	-0,353	-0,226
46,984	-0,601	-0,386	-0,192
47,999	-50,776	-0,314	-0,103
49,013	8,017	-0,325	-0,171
50,028	62,589	-0,352	-0,247
51,042	-23,401	-0,346	-0,146
52,057	13,945	-0,341	-0,186
53,071	167,474	-0,282	-0,283
54,086	-52,944	-0,309	-0,099
55,101	32,230	-0,326	-0,198
56,115	-17,557	-0,383	-0,169
57,130	178,573	-0,253	-0,261
58,144	47,373	-0,369	-0,241
59,159	88,736	-0,425	-0,332
60,174	128,590	-0,352	-0,316
61,188	-80,414	-0,331	-0,077
62,203	84,866	-0,261	-0,201
63,217	45,387	-0,273	-0,177
64,232	-56,877	-0,327	-0,101
65,247	122,334	-0,356	-0,313
66,261	-28,286	-0,366	-0,148
67,276	151,207	-0,384	-0,368
68,290	25,850	-0,322	-0,188
69,305	21,884	-0,296	-0,169
70,320	-11,956	-0,332	-0,152
71,334	-24,066	-0,353	-0,148
72,349	296,823	-0,174	-0,225
73,363	40,372	-0,303	-0,191
74,378	5,367	-0,408	-0,211
75,393	226,024	-0,148	-0,169
76,407	-28,487	-0,333	-0,134
77,422	149,284	-0,297	-0,283
78,436	-13,721	-0,331	-0,150
79,451	45,641	-0,363	-0,235
80,466	49,928	-0,338	-0,224
81,480	-18,324	-0,406	-0,177
82,495	-18,812	-0,354	-0,154
83,509	13,938	-0,315	-0,172
84,524	82,903	-0,313	-0,239
85,539	-111,143	-0,303	-0,043
86,553	-76,118	-0,275	-0,068
87,568	-49,674	-0,236	-0,078
88,582	62,844	-0,526	-0,369
89,597	106,900	-0,334	-0,278
90,611	76,847	-0,165	-0,123
91,626	59,223	-0,205	-0,142
92,641	800,000	-0,166	-0,334
93,655	7,883	-0,316	-0,165
94,670	-9,230	-0,296	-0,138
95,684	75,097	-0,338	-0,250
96,699	-85,956	-0,358	-0,077
97,714	-14,118	-0,309	-0,139
98,728	191,742	-0,312	-0,331
99,743	70,347	-0,131	-0,095
100,757	-145,947	-0,188	-0,011
101,772	-27,567	-0,232	-0,094
102,787	174,623	-0,191	-0,194
103,801	5,839	-0,300	-0,155
104,816	-108,528	-0,246	-0,037
105,830	-34,781	-0,241	-0,092
106,845	-146,802	-0,343	-0,020
107,860	-34,365	-0,197	-0,075
108,874	67,547	-0,245	-0,175
109,889	197,285	-0,220	-0,235
110,903	177,178	-0,197	-0,201
111,918	335,736	-0,194	-0,265
112,933	328,083	-0,261	-0,352
113,947	29,899	-0,222	-0,132
114,962	-33,450	-0,145	-0,056
115,976	-44,717	-0,257	-0,089
116,991	252,527	-0,238	-0,284
118,006	-13,859	-0,325	-0,147
119,020	105,602	-0,360	-0,298
120,035	203,229	-0,263	-0,285
121,049	-1,862	-0,346	-0,170
122,064	800,000	-0,081	-0,207
123,079	33,343	-0,256	-0,155
124,093	263,339	-0,282	-0,343
125,108	-16,219	-0,312	-0,138
126,122	54,218	-0,207	-0,139
127,137	-75,256	-0,265	-0,066
128,151	-153,757	-0,243	-0,011
129,166	-17,700	-0,263	-0,115
130,181	150,826	-0,189	-0,180
131,195	338,060	-0,223	-0,304
132,210	-200,000	-0,060	-0,242
133,224	-128,014	-0,297	-0,029
134,239	-26,130	-0,234	-0,096
135,254	114,014	-0,155	-0,131
136,268	156,630	-0,293	-0,283
137,283	-64,139	-0,329	-0,093
138,297	530,845	-0,191	-0,316
139,312	-100,385	-0,275	-0,047
140,327	233,215	-0,167	-0,192
141,341	35,560	-0,252	-0,154
142,356	130,556	-0,247	-0,222
143,370	-62,747	-0,290	-0,083
144,385	42,715	-0,384	-0,244
145,400	23,537	-0,291	-0,167
146,414	311,811	-0,167	-0,220
147,429	65,014	-0,191	-0,135
148,443	103,927	-0,202	-0,166
149,458	-4,840	-0,366	-0,175
150,473	304,403	-0,093	-0,121
151,487	116,163	-0,200	-0,171
152,502	526,863	-0,126	-0,209
153,516	101,855	-0,291	-0,237
154,531	526,109	-0,138	-0,228
155,546	97,399	-0,160	-0,128
156,560	126,874	-0,214	-0,189
157,575	44,389	-0,163	-0,104
158,589	-18,213	-0,267	-0,116
159,604	177,666	-0,183	-0,186
160,619	289,248	-0,168	-0,213
161,633	-109,006	-0,224	-0,033
162,648	72,606	-0,218	-0,159
163,662	117,189	-0,237	-0,203
164,677	72,069	-0,266	-0,193
165,692	-7,992	-0,312	-0,146
166,706	35,588	-0,228	-0,140
167,721	72,967	-0,175	-0,127
168,735	69,549	-0,184	-0,132
169,750	468,126	-0,076	-0,120
170,764	-190,599	-0,213	-0,002
171,779	261,014	-0,127	-0,153
172,794	-25,269	-0,198	-0,081
173,808	-29,918	-0,336	-0,133
174,823	167,400	-0,210	-0,208
175,837	227,956	-0,188	-0,214
176,852	128,741	-0,194	-0,172
177,867	194,058	-0,149	-0,157
178,881	370,109	-0,196	-0,277
179,896	-93,442	-0,100	-0,019
180,910	-72,550	-0,328	-0,084
181,925	211,950	-0,196	-0,215
182,940	377,811	-0,216	-0,309
183,954	52,304	-0,218	-0,145
184,969	143,428	-0,169	-0,157
185,983	-60,171	-0,241	-0,071
186,998	184,891	-0,153	-0,158
188,013	33,577	-0,280	-0,169
189,027	79,410	-0,210	-0,156
190,042	7,280	-0,288	-0,149
191,056	287,371	-0,183	-0,230
192,071	-10,560	-0,226	-0,104
193,086	-200,000	-0,038	-0,195
194,100	53,757	-0,336	-0,224
195,115	175,169	-0,170	-0,171
196,129	-16,526	-0,191	-0,084
197,144	800,000	-0,134	-0,289
198,159	256,185	-0,128	-0,153
199,173	-26,092	-0,304	-0,124
200,188	-70,705	-0,271	-0,071
201,202	109,380	-0,259	-0,216
202,217	-18,654	-0,268	-0,116
203,232	13,371	-0,341	-0,183
204,246	-74,657	-0,281	-0,070
205,261	25,093	-0,344	-0,198
206,275	-30,756	-0,170	-0,066
207,290	-117,618	-0,067	-0,008
208,304	125,514	-0,110	-0,096
209,319	-32,825	-0,172	-0,066
210,334	-10,942	-0,263	-0,120
211,348	164,147	-0,254	-0,249
212,363	163,310	-0,208	-0,203
213,377	0,530	-0,245	-0,121
214,392	-46,716	-0,153	-0,052
215,407	118,306	-0,212	-0,182
216,421	-61,808	-0,250	0,072
217,436	99,169	-0,233	-0,187
218,450	156,351	-0,276	-0,265
219,465	115,242	-0,120	-0,102
220,480	-43,546	-0,209	-0,073
221,494	-153,370	-0,090	-0,004
222,509	-149,867	-0,196	0,010
223,523	-16,821	-0,256	-0,112
224,538	-28,987	-0,149	0,059
225,553	-200,000	-0,260	0,001
226,567	-10,477	-0,243	-0,111
227,582	6,794	-0,230	-0,118
228,596	8,302	-0,215	-0,112
229,611	103,169	-0,154	-0,125
230,626	413,140	-0,168	-0,248
231,640	87,917	-0,202	-0,155
232,655	-34,381	-0,293	-0,111
233,669	-5,690	-0,152	-0,072
234,684	399,404	-0,124	-0,181
235,699	19,694	-0,316	-0,176
236,713	-3,908	-0,096	-0,046
237,728	-25,404	-0,159	0,065
238,742	7,296	-0,216	-0,111
239,757	42,631	-0,205	-0,129
240,772	292,815	-0,220	-0,279
241,786	-6,235	-0,368	-0,173
242,801	99,825	-0,210	-0,168
243,815	81,600	-0,187	-0,140
244,830	-24,803	-0,171	-0,070
245,844	-19,016	-0,260	-0,111
246,859	244,658	-0,183	-0,213
247,874	213,391	-0,229	-0,251
248,888	143,157	-0,311	-0,287
249,903	220,193	-0,144	-0,160
250,917	-138,637	-0,172	0,013
251,932	-64,141	-0,165	-0,046
252,947	-93,508	-0,159	-0,030
253,961	272,065	-0,148	-0,181
254,976	30,879	-0,262	-0,155
255,990	306,532	-0,088	-0,114
257,005	35,179	-0,107	-0,065
258,020	-111,345	-0,150	-0,021
259,034	-60,970	-0,179	-0,052
260,049	-1,651	-0,143	-0,069
261,063	-110,024	-0,219	-0,031
262,078	125,143	-0,223	-0,195
263,093	178,500	-0,153	-0,155
264,107	158,713	-0,162	-0,156
265,122	-145,421	-0,201	-0,012
266,136	-125,903	-0,155	-0,016
267,151	-49,247	-0,287	-0,094
268,166	-50,917	-0,189	0,061
269,180	-109,173	-0,219	-0,032
270,195	334,748	-0,126	-0,169
271,209	-48,022	-0,205	-0,068
272,224	86,711	-0,182	-0,139
273,239	-187,724	-0,168	0,001
274,253	-8,212	-0,091	0,042
275,268	168,563	-0,098	-0,097
276,282	414,603	-0,134	-0,198
277,297	-162,551	-0,104	-0,003
278,312	152,688	-0,071	0,067
279,326	-134,610	-0,221	-0,018
280,341	-200,000	-0,036	-0,143
281,355	-200,000	-0,028	-0,112
282,370	-119,220	-0,216	-0,026
283,384	328,999	-0,097	-0,129
284,399	800,000	-0,123	-0,276
285,414	124,238	-0,184	-0,160
286,428	-55,527	-0,125	-0,038
287,443	40,755	-0,213	-0,132
288,457	-24,613	-0,121	-0,049
289,472	294,389	-0,142	-0,180
290,487	-200,000	-0,066	-0,243
291,501	-200,000	-0,026	-0,171
292,516	84,330	-0,104	-0,078
293,530	-12,619	-0,217	-0,097
294,545	87,954	-0,227	-0,173
295,560	-92,189	-0,121	-0,023
296,574	-200,000	-0,059	-0,299
297,589	5,866	-0,285	-0,145
298,603	23,459	-0,282	-0,159
299,618	167,400	-0,079	-0,077
300,633	-40,767	0,041	-0,015
301,647	106,695	-0,125	-0,102
302,662	159,943	-0,132	-0,127
303,676	153,150	-0,193	-0,182
304,691	303,749	-0,146	-0,187
305,706	33,900	-0,225	-0,134
306,720	-165,606	-0,152	-0,004
307,735	254,124	-0,145	-0,171
308,749	-84,555	-0,020	0,004
309,764	-95,536	-0,313	-0,057
310,779	31,142	-0,184	-0,108
311,793	-12,627	-0,204	-0,091
312,808	58,608	-0,199	-0,134
313,822	40,086	-0,190	-0,117
314,837	331,838	-0,136	-0,181
315,852	-200,000	-0,048	-0,168
316,866	-18,988	-0,272	-0,116
317,881	-102,758	-0,080	-0,013
318,895	126,084	-0,150	-0,131
319,910	-10,456	-0,141	-0,064
320,925	435,995	-0,174	-0,261
321,939	-200,000	-0,003	-0,172
322,954	300,506	-0,211	-0,269
323,968	585,150	-0,019	-0,033
324,983	112,237	-0,182	-0,152
325,997	-118,243	-0,163	0,020
327,012	47,312	-0,173	-0,111
328,027	800,000	-0,086	-0,247
329,041	-10,308	-0,210	-0,095
330,056	800,000	-0,043	-0,125
331,070	-47,171	-0,082	0,027
332,085	-91,127	-0,095	0,019
333,100	65,587	-0,153	-0,106
334,114	-25,725	-0,096	0,039
335,129	328,148	-0,114	-0,151
336,143	59,882	-0,154	-0,104
337,158	-3,811	-0,164	-0,078
338,173	-106,987	-0,152	-0,023
339,187	-200,000	-0,003	-0,052
340,202	-78,244	-0,197	-0,046
341,216	-90,339	-0,220	-0,043
342,231	800,000	-0,048	-0,109
343,246	-42,119	-0,267	-0,093
344,260	-200,000	-0,045	-0,156
345,275	-200,000	-0,022	-0,142
346,289	-127,180	-0,130	-0,013
347,304	-200,000	0,024	-0,104
348,319	45,248	-0,158	-0,099
349,333	90,454	-0,182	-0,140
350,348	800,000	-0,094	-0,184
351,362	21,172	-0,154	-0,086
352,377	429,965	0,007	0,010
353,392	-147,672	-0,171	0,010
354,406	-88,805	-0,074	-0,015
355,421	210,372	1313,812	1416,670
356,435	161,952	1474,420	1417,169
