DTS Sentinel unit serial number:	SN410029Multiplexer serial number:	ORYXHardware model number:	OX2-SRSoftware version number:	ORYX F/W v4,00 Oryx Data Collector v3.7.2.0data status	okinstallation	B3 Nyhavnadifferential loss correction	single-endedforward channel	channel 1reverse channel	N/Adate	2023/11/29time	22:02:31forward acquisition time	300,00reverse acquisition time	0,00gamma	499,1914k internal	0,3210k external	0,3210temperature offset calibration	1,0000default loss term (dB/km)	0,3820temperature slope calibration	1,0000multiplexer offset coefficient	1,0000multiplexer slope coefficient	1,0000fibre end	0,00T internal ref (°C)	10,81T ext. ref 1 (°C)	-4,31T ext. ref 2 (°C)	-4,40length (m)	temperature (°C)	Stokes	anti-Stokes-744,400	176,238	-0,226	-0,239
-743,385	-200,000	0,058	0,187
-742,371	301,167	-0,132	-0,177
-741,356	-200,000	-0,085	0,419
-740,342	800,000	-0,061	-0,153
-739,327	-200,000	-0,070	0,296
-738,312	616,498	-0,142	-0,260
-737,298	800,000	0,079	0,230
-736,283	181,905	-0,242	-0,259
-735,269	-200,000	-0,026	0,319
-734,254	280,354	-0,217	-0,282
-733,239	193,988	-0,092	0,101
-732,225	150,957	-0,229	-0,226
-731,210	91,263	0,189	0,154
-730,196	408,334	-0,047	-0,073
-729,181	130,757	0,027	-0,025
-728,167	800,000	-0,060	-0,169
-727,152	471,943	-0,024	0,040
-726,137	165,443	-0,103	0,106
-725,123	210,781	-0,067	0,076
-724,108	-3,411	-0,062	0,031
-723,094	-67,428	-0,147	-0,042
-722,079	7,339	0,106	0,057
-721,064	107,890	-0,123	0,106
-720,050	118,375	0,026	-0,023
-719,035	299,882	-0,023	-0,030
-718,021	-133,451	-0,059	0,005
-717,006	560,297	-0,031	0,055
-715,991	800,000	0,042	-0,133
-714,977	-75,306	-0,028	0,007
-713,962	-200,000	-0,008	-0,028
-712,948	346,790	0,042	0,060
-711,933	-200,000	-0,001	0,084
-710,918	-200,000	-0,029	-0,120
-709,904	-200,000	0,020	-0,085
-708,889	800,000	-0,060	-0,128
-707,875	-200,000	-0,027	-0,096
-706,860	596,721	-0,079	0,142
-705,845	-120,827	0,075	-0,009
-704,831	-67,304	0,130	0,037
-703,816	-62,014	-0,126	-0,038
-702,802	-137,174	-0,137	-0,011
-701,787	-137,746	-0,116	-0,009
-700,772	80,653	0,042	0,033
-699,758	41,196	-0,153	-0,100
-698,743	137,227	0,085	-0,081
-697,729	800,000	-0,033	0,077
-696,714	800,000	-0,020	-0,040
-695,699	288,064	-0,061	-0,080
-694,685	-53,063	-0,193	-0,064
-693,670	800,000	-0,071	-0,174
-692,656	167,196	0,103	-0,106
-691,641	112,228	0,040	0,035
-690,627	8,721	0,167	-0,091
-689,612	800,000	-0,026	-0,054
-688,597	256,115	0,039	-0,049
-687,583	-200,000	0,015	0,089
-686,568	-200,000	-0,002	-0,068
-685,554	175,473	-0,026	0,028
-684,539	631,682	-0,057	-0,105
-683,524	-123,746	0,077	0,009
-682,510	-0,052	-0,182	0,094
-681,495	800,000	0,036	-0,079
-680,481	-200,000	-0,033	-0,113
-679,466	523,329	-0,106	-0,181
-678,451	800,000	-0,042	-0,116
-677,437	85,649	0,020	0,016
-676,422	110,119	-0,040	0,035
-675,408	800,000	-0,118	-0,293
-674,393	38,495	-0,081	-0,052
-673,378	-38,872	-0,227	-0,086
-672,364	89,255	-0,039	0,031
-671,349	223,177	-0,054	-0,063
-670,335	-147,997	0,199	0,012
-669,320	-46,319	-0,179	-0,063
-668,305	119,367	0,053	-0,048
-667,291	34,084	-0,129	-0,081
-666,276	-89,111	0,035	-0,007
-665,262	122,680	-0,156	-0,141
-664,247	29,012	0,135	-0,082
-663,232	800,000	-0,036	0,100
-662,218	-46,834	0,115	0,040
-661,203	-200,000	0,020	0,168
-660,189	-200,000	-0,047	0,170
-659,174	-4,997	-0,065	0,032
-658,159	350,090	-0,068	-0,097
-657,145	371,498	0,024	-0,035
-656,130	319,364	-0,065	-0,089
-655,116	-200,000	0,035	-0,126
-654,101	-200,000	0,041	0,145
-653,086	800,000	0,023	-0,056
-652,072	-29,053	0,027	0,011
-651,057	800,000	-0,029	0,060
-650,043	140,832	-0,042	-0,040
-649,028	107,201	-0,103	-0,088
-648,014	-200,000	0,001	0,158
-646,999	385,837	0,085	0,127
-645,984	-200,000	0,002	-0,025
-644,970	236,504	0,057	0,068
-643,955	-67,496	-0,075	-0,021
-642,941	-174,444	0,075	-0,002
-641,926	800,000	0,044	-0,132
-640,911	71,284	-0,064	-0,048
-639,897	-87,850	-0,095	0,021
-638,882	-159,803	0,078	-0,003
-637,868	800,000	0,053	-0,139
-636,853	-117,756	-0,057	-0,007
-635,838	-33,210	-0,065	0,026
-634,824	-110,037	-0,092	0,014
-633,809	135,693	0,155	0,146
-632,795	-200,000	0,003	0,039
-631,780	-200,000	0,002	0,061
-630,765	13,111	-0,065	0,036
-629,751	101,077	-0,037	0,031
-628,736	92,813	-0,136	-0,111
-627,722	247,831	-0,031	0,038
-626,707	-150,618	-0,137	-0,007
-625,692	71,173	0,047	0,035
-624,678	800,000	-0,090	-0,181
-623,663	44,443	-0,118	0,078
-622,649	304,377	-0,084	-0,113
-621,634	800,000	-0,059	-0,157
-620,619	-200,000	0,014	-0,138
-619,605	26,373	0,110	-0,066
-618,590	36,406	0,065	0,041
-617,576	-49,449	-0,052	0,018
-616,561	-1,187	0,057	-0,029
-615,546	-35,715	-0,150	-0,059
-614,532	-175,373	-0,112	0,002
-613,517	50,196	0,068	0,046
-612,503	-92,908	0,095	-0,019
-611,488	98,795	-0,042	-0,035
-610,474	439,668	0,072	0,114
-609,459	-50,483	-0,034	0,011
-608,444	318,569	-0,104	-0,142
-607,430	44,210	0,075	-0,050
-606,415	15,301	-0,061	-0,034
-605,401	45,759	-0,061	0,040
-604,386	-190,460	0,142	0,001
-603,371	800,000	-0,015	-0,036
-602,357	-91,503	0,058	0,012
-601,342	58,366	0,104	-0,073
-600,328	320,997	0,022	-0,030
-599,313	195,099	-0,169	-0,185
-598,298	397,396	0,066	-0,100
-597,284	-200,000	0,013	-0,086
-596,269	-143,701	-0,037	-0,002
-595,255	-133,740	-0,079	-0,007
-594,240	-77,753	0,034	-0,008
-593,225	-200,000	-0,018	-0,075
-592,211	-40,096	-0,058	-0,022
-591,196	536,369	-0,041	-0,071
-590,182	800,000	0,043	0,101
-589,167	387,754	-0,039	-0,058
-588,152	-200,000	0,042	0,159
-587,138	128,060	-0,100	-0,091
-586,123	-23,042	0,115	-0,050
-585,109	800,000	0,034	-0,095
-584,094	196,980	0,060	0,066
-583,079	-49,441	-0,025	0,009
-582,065	-200,000	-0,014	-0,062
-581,050	-200,000	0,023	-0,109
-580,036	-62,712	0,056	-0,017
-579,021	-8,120	-0,085	-0,041
-578,006	26,483	-0,096	-0,057
-576,992	611,519	-0,114	-0,207
-575,977	-200,000	-0,023	-0,143
-574,963	349,634	-0,059	0,084
-573,948	22,041	0,079	-0,046
-572,934	39,437	0,079	-0,051
-571,919	-65,607	0,064	-0,018
-570,904	-52,624	-0,167	0,055
-569,890	-44,682	-0,040	0,014
-568,875	-26,967	-0,040	0,017
-567,861	-106,236	0,030	0,005
-566,846	-200,000	0,004	-0,066
-565,831	-118,875	-0,057	-0,007
-564,817	-93,780	0,068	0,013
-563,802	172,684	0,133	-0,138
-562,788	800,000	-0,013	0,038
-561,773	77,470	-0,050	-0,038
-560,758	800,000	-0,031	-0,072
-559,744	-1,607	0,044	0,022
-558,729	-200,000	-0,002	0,109
-557,715	-200,000	0,003	-0,031
-556,700	85,705	-0,041	0,032
-555,685	94,889	-0,007	-0,006
-554,671	800,000	-0,014	-0,042
-553,656	149,646	0,082	0,080
-552,642	-19,520	-0,092	0,041
-551,627	-200,000	-0,011	0,081
-550,612	378,072	-0,056	-0,082
-549,598	-143,131	-0,147	-0,010
-548,583	19,436	-0,052	0,030
-547,569	-107,540	0,068	0,011
-546,554	-200,000	-0,053	0,232
-545,539	-172,071	0,090	0,002
-544,525	-138,863	0,078	-0,006
-543,510	800,000	0,045	-0,117
-542,496	-200,000	0,017	-0,118
-541,481	-139,649	0,126	-0,010
-540,466	-200,000	0,005	0,057
-539,452	80,224	0,022	-0,017
-538,437	-128,685	-0,115	0,012
-537,423	-200,000	-0,017	0,083
-536,408	-99,899	-0,087	-0,016
-535,393	-75,875	0,063	-0,016
-534,379	172,744	0,060	0,062
-533,364	800,000	-0,088	-0,179
-532,350	-59,082	-0,080	-0,025
-531,335	-156,585	-0,081	-0,004
-530,321	-200,000	0,004	0,104
-529,306	295,183	-0,062	0,081
-528,291	-130,605	-0,103	-0,010
-527,277	-134,947	-0,151	0,013
-526,262	191,538	0,034	0,037
-525,248	-25,317	0,139	-0,059
-524,233	-200,000	0,006	0,032
-523,218	225,199	0,071	-0,083
-522,204	-128,751	0,126	0,013
-521,189	208,020	-0,101	0,113
-520,175	-48,858	0,065	-0,022
-519,160	205,199	-0,085	-0,095
-518,145	99,266	-0,086	-0,071
-517,131	-200,000	-0,010	0,041
-516,116	-67,901	0,056	0,016
-515,102	659,919	0,006	-0,011
-514,087	-136,187	-0,109	-0,009
-513,072	800,000	-0,051	-0,113
-512,058	342,894	0,066	-0,093
-511,043	-158,908	0,094	0,004
-510,029	66,676	0,037	0,027
-509,014	-6,295	0,035	-0,017
-507,999	-200,000	-0,033	-0,106
-506,985	-128,801	0,036	0,004
-505,970	-200,000	0,016	0,102
-504,956	-93,728	0,056	0,011
-503,941	-86,310	0,102	-0,022
-502,926	-200,000	-0,025	0,143
-501,912	-122,927	0,200	0,023
-500,897	149,133	-0,042	-0,041
-499,883	30,583	0,137	0,084
-498,868	339,505	-0,055	0,078
-497,853	800,000	0,011	0,023
-496,839	800,000	0,038	-0,084
-495,824	181,034	0,090	-0,095
-494,810	60,441	-0,084	-0,060
-493,795	800,000	-0,037	0,099
-492,781	-66,216	-0,044	0,013
-491,766	270,646	0,063	-0,079
-490,751	-200,000	0,000	-0,070
-489,737	21,051	0,077	-0,045
-488,722	226,284	0,084	-0,098
-487,708	-63,537	0,045	-0,013
-486,693	22,880	-0,084	0,050
-485,678	-200,000	-0,040	-0,239
-484,664	733,094	-0,047	0,091
-483,649	-200,000	0,001	0,064
-482,635	398,660	-0,047	0,072
-481,620	-47,056	-0,106	-0,037
-480,605	-50,019	0,278	-0,094
-479,591	-86,808	-0,013	0,003
-478,576	78,883	0,019	0,014
-477,562	13,121	-0,036	-0,020
-476,547	-145,323	-0,078	0,005
-475,532	355,932	0,065	-0,094
-474,518	-109,928	0,126	-0,019
-473,503	800,000	-0,034	0,089
-472,489	324,391	0,078	-0,107
-471,474	-26,906	-0,072	0,030
-470,459	333,480	0,067	-0,093
-469,445	408,023	-0,108	-0,164
-468,430	82,313	0,017	0,013
-467,416	800,000	-0,044	0,138
-466,401	-25,675	-0,108	0,046
-465,386	-25,472	0,108	-0,046
-464,372	799,502	0,005	0,010
-463,357	-129,076	0,106	0,010
-462,343	704,332	-0,077	-0,145
-461,328	299,986	0,068	-0,090
-460,313	587,573	-0,073	-0,130
-459,299	-200,000	-0,006	-0,060
-458,284	-60,656	0,035	-0,011
-457,270	-17,309	-0,121	0,055
-456,255	800,000	-0,102	-0,222
-455,241	-73,825	-0,072	-0,019
-454,226	-76,771	-0,163	0,041
-453,211	245,033	0,071	-0,085
-452,197	-200,000	0,032	0,146
-451,182	474,264	-0,070	0,113
-450,168	-181,055	0,116	-0,002
-449,153	-200,000	-0,011	0,061
-448,138	-200,000	-0,014	-0,060
-447,124	57,138	-0,113	0,079
-446,109	-200,000	0,007	0,037
-445,095	68,065	-0,093	0,068
-444,080	-32,328	0,030	-0,012
-443,065	286,843	0,019	-0,025
-442,051	208,340	0,064	-0,072
-441,036	251,058	0,090	-0,110
-440,022	800,000	0,041	0,092
-439,007	-200,000	0,035	-0,225
-437,992	248,998	0,117	0,142
-436,978	156,930	0,093	0,092
-435,963	800,000	0,028	0,067
-434,949	-200,000	-0,048	0,181
-433,934	800,000	0,056	-0,145
-432,919	120,424	0,184	-0,164
-431,905	-166,486	-0,077	-0,002
-430,890	-41,831	0,093	0,034
-429,876	1,154	0,106	0,054
-428,861	-200,000	-0,049	-0,181
-427,846	165,203	-0,036	0,036
-426,832	-88,641	-0,149	-0,031
-425,817	-116,303	0,028	-0,004
-424,803	-111,114	0,065	-0,009
-423,788	208,649	-0,007	-0,008
-422,773	-64,869	0,103	0,030
-421,759	-200,000	0,031	0,170
-420,744	11,733	0,013	-0,007
-419,730	-157,363	-0,084	0,004
-418,715	-200,000	0,022	-0,079
-417,701	53,662	0,083	0,057
-416,686	231,517	-0,101	0,118
-415,671	10,298	0,184	0,100
-414,657	-44,207	0,063	0,022
-413,642	32,798	-0,146	-0,090
-412,628	10,911	0,076	0,041
-411,613	97,385	-0,057	-0,047
-410,598	-160,920	-0,248	0,009
-409,584	49,071	0,050	-0,033
-408,569	58,543	0,070	0,049
-407,555	-81,362	0,053	0,012
-406,540	82,494	0,094	-0,073
-405,525	742,831	-0,072	-0,139
-404,511	25,486	0,138	0,082
-403,496	800,000	-0,069	-0,141
-402,482	-200,000	-0,000	-0,002
-401,467	-39,722	-0,056	-0,021
-400,452	-14,897	0,103	0,047
-399,438	-89,206	-0,113	0,024
-398,423	566,901	-0,034	-0,059
-397,409	-22,216	-0,121	-0,052
-396,394	-119,278	0,046	-0,006
-395,379	120,022	-0,031	-0,028
-394,365	196,605	0,048	-0,052
-393,350	736,070	-0,047	0,091
-392,336	20,001	0,110	-0,063
-391,321	339,514	0,038	0,053
-390,306	-2,550	-0,100	-0,050
-389,292	252,282	-0,053	-0,065
-388,277	-77,607	0,036	0,009
-387,263	-100,429	0,138	-0,024
-386,248	-94,468	0,060	-0,012
-385,233	292,082	0,066	0,087
-384,219	141,355	0,101	0,096
-383,204	800,000	-0,055	-0,139
-382,190	428,480	-0,046	-0,072
-381,175	12,700	0,108	0,060
-380,160	-200,000	-0,023	0,151
-379,146	-93,433	0,072	0,014
-378,131	-80,605	-0,149	0,035
-377,117	800,000	-0,012	-0,032
-376,102	256,567	0,100	-0,123
-375,088	-200,000	0,047	-0,194
-374,073	163,443	-0,048	0,048
-373,058	-63,390	-0,061	0,018
-372,044	33,390	0,135	0,083
-371,029	-36,902	0,080	-0,030
-370,015	539,770	-0,026	0,044
-369,000	-157,385	0,056	-0,002
-367,985	-200,000	-0,025	-0,095
-366,971	117,507	0,096	0,084
-365,956	-105,713	-0,084	0,014
-364,942	-38,358	0,097	0,036
-363,927	3,747	0,139	0,072
-362,912	-200,000	0,068	0,226
-361,898	70,734	0,055	0,041
-360,883	228,567	-0,012	0,015
-359,869	-200,000	-0,005	0,020
-358,854	-200,000	-0,001	-0,010
-357,839	53,780	0,140	0,096
-356,825	800,000	0,049	0,133
-355,810	800,000	0,024	-0,050
-354,796	800,000	0,041	0,094
-353,781	-37,117	0,087	0,033
-352,766	62,620	-0,073	-0,052
-351,752	633,954	0,081	-0,148
-350,737	-200,000	0,011	-0,050
-349,723	-9,516	0,101	0,048
-348,708	-200,000	-0,025	0,098
-347,693	191,169	-0,052	-0,056
-346,679	170,328	0,050	0,052
-345,664	-132,261	-0,079	0,007
-344,650	-200,000	-0,033	-0,179
-343,635	-199,200	0,028	-0,000
-342,620	-78,287	0,037	0,009
-341,606	-10,654	0,056	0,026
-340,591	32,533	-0,097	0,060
-339,577	800,000	-0,027	-0,061
-338,562	41,785	-0,101	-0,066
-337,548	11,097	-0,041	-0,022
-336,533	371,586	0,054	-0,078
-335,518	643,911	0,017	-0,030
-334,504	-103,160	-0,115	0,019
-333,489	-200,000	-0,005	0,062
-332,475	193,701	-0,040	-0,043
-331,460	800,000	-0,044	0,117
-330,445	268,694	0,097	-0,122
-329,431	-169,805	0,043	0,001
-328,416	660,650	0,087	0,160
-327,402	78,928	0,097	0,074
-326,387	-34,546	-0,111	-0,043
-325,372	-200,000	-0,033	-0,107
-324,358	529,514	0,034	0,058
-323,343	-40,772	-0,079	-0,029
-322,329	-200,000	0,053	0,000
-321,314	-39,067	0,054	0,020
-320,299	134,618	-0,038	0,035
-319,285	-200,000	0,015	0,067
-318,270	271,642	-0,015	0,018
-317,256	-31,933	-0,063	-0,025
-316,241	10,773	-0,063	-0,034
-315,226	-200,000	-0,012	0,037
-314,212	261,161	-0,085	0,106
-313,197	-67,129	0,152	-0,042
-312,183	-200,000	0,059	0,186
-311,168	-121,831	-0,094	-0,011
-310,153	-92,835	-0,105	-0,021
-309,139	151,550	0,029	0,028
-308,124	-34,680	-0,139	0,054
-307,110	-200,000	0,007	0,104
-306,095	-138,587	0,046	-0,004
-305,080	-200,000	0,009	0,063
-304,066	-200,000	0,007	-0,110
-303,051	727,554	0,045	0,087
-302,037	-200,000	0,011	-0,119
-301,022	-74,765	-0,122	0,031
-300,008	800,000	-0,025	0,060
-298,993	17,441	0,143	-0,081
-297,978	-21,034	-0,104	0,045
-296,964	-200,000	0,001	0,109
-295,949	-121,679	-0,102	-0,012
-294,935	-200,000	-0,027	0,110
-293,920	21,545	0,105	0,061
-292,905	-135,114	-0,038	0,003
-291,891	594,055	0,013	-0,023
-290,876	125,770	-0,025	0,023
-289,862	179,928	-0,074	0,078
-288,847	2,415	-0,029	-0,015
-287,832	258,167	-0,040	0,049
-286,818	-128,149	-0,076	0,008
-285,803	-7,398	0,046	0,022
-284,789	-200,000	0,016	0,100
-283,774	-200,000	-0,028	0,105
-282,759	800,000	0,053	-0,112
-281,745	-200,000	0,010	-0,125
-280,730	159,526	-0,114	-0,113
-279,716	-71,869	-0,177	0,047
-278,701	-137,039	0,173	-0,014
-277,686	800,000	-0,031	-0,087
-276,672	27,972	0,044	0,026
-275,657	800,000	-0,016	0,037
-274,643	375,008	-0,060	-0,087
-273,628	317,978	-0,047	-0,063
-272,613	277,111	-0,023	-0,029
-271,599	422,950	0,035	-0,053
-270,584	-25,816	0,164	-0,068
-269,570	800,000	-0,038	-0,081
-268,555	143,789	0,089	-0,084
-267,540	800,000	-0,005	0,010
-266,526	451,760	-0,014	-0,023
-265,511	-80,746	-0,012	0,003
-264,497	-200,000	0,020	-0,167
-263,482	69,328	0,091	-0,066
-262,467	416,282	-0,032	0,049
-261,453	78,938	0,085	-0,064
-260,438	-200,000	-0,007	-0,064
-259,424	-200,000	-0,007	-0,028
-258,409	335,819	-0,037	0,052
-257,395	303,709	-0,020	-0,026
-256,380	163,473	0,102	0,102
-255,365	-200,000	0,053	0,168
-254,351	200,533	-0,047	0,052
-253,336	-151,641	-0,176	0,009
-252,322	53,677	-0,076	-0,052
-251,307	338,715	-0,064	0,090
-250,292	800,000	0,017	0,050
-249,278	-95,138	0,034	-0,006
-248,263	7,597	0,112	0,059
-247,249	286,724	0,036	0,047
-246,234	431,576	-0,074	0,115
-245,219	372,038	-0,101	-0,147
-244,205	-200,000	-0,010	0,084
-243,190	-25,977	0,092	0,038
-242,176	-40,733	-0,118	-0,043
-241,161	89,368	-0,059	-0,046
-240,146	-148,621	-0,085	-0,005
-239,132	605,032	0,036	0,065
-238,117	188,051	-0,018	-0,019
-237,103	-87,602	-0,063	0,013
-236,088	800,000	-0,006	0,014
-235,073	-200,000	0,023	0,276
-234,059	-200,000	0,022	0,107
-233,044	160,832	-0,013	0,013
-232,030	-100,205	-0,064	0,011
-231,015	212,022	0,068	-0,076
-230,000	40,589	-0,143	0,091
-228,986	53,437	-0,149	0,101
-227,971	-200,000	0,009	0,085
-226,957	-86,278	0,101	0,022
-225,942	302,429	0,101	0,133
-224,927	800,000	-0,044	0,095
-223,913	205,874	-0,044	0,049
-222,898	169,089	0,115	-0,117
-221,884	-200,000	0,006	-0,046
-220,869	-200,000	0,037	0,234
-219,855	-62,309	0,137	-0,040
-218,840	-132,248	0,090	0,008
-217,825	800,000	0,058	0,118
-216,811	322,165	0,027	0,036
-215,796	111,908	0,053	-0,045
-214,782	269,703	-0,017	-0,022
-213,767	11,132	-0,053	0,029
-212,752	133,138	0,075	0,069
-211,738	-82,492	0,034	0,008
-210,723	232,862	-0,038	0,045
-209,709	184,855	-0,099	0,104
-208,694	-200,000	-0,028	-0,148
-207,679	-200,000	-0,015	-0,166
-206,665	205,205	-0,131	-0,144
-205,650	142,714	0,076	0,072
-204,636	-62,457	0,098	0,029
-203,621	-44,955	-0,113	0,040
-202,606	105,097	-0,063	-0,053
-201,592	122,178	-0,049	-0,044
-200,577	88,448	-0,138	0,109
-199,563	146,024	-0,069	0,066
-198,548	-20,502	0,039	-0,017
-197,533	29,737	0,026	-0,016
-196,519	-200,000	0,008	0,052
-195,504	78,610	-0,098	0,075
-194,490	-114,358	0,049	0,007
-193,475	136,550	0,052	0,049
-192,460	243,709	0,054	-0,065
-191,446	-90,482	0,032	0,006
-190,431	188,624	-0,016	0,017
-189,417	-48,445	0,025	0,009
-188,402	800,000	-0,067	0,185
-187,387	-200,000	0,021	0,103
-186,373	270,132	-0,104	0,130
-185,358	459,548	0,007	0,011
-184,344	100,422	-0,134	0,110
-183,329	-200,000	-0,005	0,033
-182,315	-200,000	-0,021	-0,100
-181,300	56,817	-0,090	0,062
-180,285	-200,000	-0,013	0,044
-179,271	800,000	-0,028	0,072
-178,256	-200,000	-0,008	0,034
-177,242	-4,383	-0,046	-0,022
-176,227	-101,433	0,201	-0,034
-175,212	135,609	0,043	0,040
-174,198	-70,568	0,031	-0,008
-173,183	-34,837	-0,060	-0,023
-172,169	800,000	-0,066	0,139
-171,154	82,716	0,090	-0,069
-170,139	-100,209	0,144	-0,025
-169,125	230,743	0,050	0,058
-168,110	-93,830	-0,049	0,010
-167,096	597,080	-0,064	-0,112
-166,081	-48,741	0,145	-0,049
-165,066	800,000	0,033	-0,072
-164,052	65,737	-0,025	-0,018
-163,037	-200,000	-0,023	-0,109
-162,023	256,105	-0,079	0,096
-161,008	55,001	0,065	0,044
-159,993	314,229	0,046	0,061
-158,979	-117,299	-0,117	0,015
-157,964	15,980	0,104	0,058
-156,950	800,000	0,038	-0,089
-155,935	-7,130	-0,051	-0,025
-154,920	643,363	0,052	0,095
-153,906	303,611	0,037	0,049
-152,891	111,820	-0,038	0,032
-151,877	-170,597	-0,076	-0,002
-150,862	-200,000	0,031	-0,128
-149,847	-120,447	-0,117	0,014
-148,833	800,000	-0,049	-0,113
-147,818	-200,000	0,011	-0,092
-146,804	-126,689	0,027	0,003
-145,789	-200,000	0,002	-0,015
-144,775	10,356	-0,010	0,005
-143,760	-147,355	0,079	-0,005
-142,745	800,000	-0,044	-0,096
-141,731	-200,000	0,001	0,114
-140,716	-20,352	0,077	-0,033
-139,702	133,343	0,121	0,111
-138,687	32,224	0,063	-0,038
-137,672	153,723	-0,025	0,025
-136,658	-107,053	-0,013	-0,002
-135,643	114,670	-0,042	-0,037
-134,629	-59,540	0,033	-0,010
-133,614	800,000	-0,015	0,046
-132,599	800,000	0,004	0,010
-131,585	247,640	0,068	-0,081
-130,570	705,531	0,066	-0,124
-129,556	53,149	-0,137	-0,093
-128,541	800,000	-0,016	-0,035
-127,526	-158,501	-0,097	0,004
-126,512	800,000	-0,105	0,225
-125,497	-150,710	0,090	-0,005
-124,483	52,515	0,122	0,082
-123,468	800,000	-0,024	-0,050
-122,453	269,765	0,045	-0,056
-121,439	93,966	-0,038	0,030
-120,424	94,512	-0,104	0,084
-119,410	29,840	0,215	0,129
-118,395	98,187	0,102	0,083
-117,380	316,838	-0,082	0,111
-116,366	122,953	0,101	0,090
-115,351	98,079	-0,080	0,065
-114,337	7,876	-0,015	0,008
-113,322	678,957	-0,049	-0,091
-112,307	-64,114	0,113	0,033
-111,293	-200,000	0,019	-0,070
-110,278	800,000	0,027	0,077
-109,264	0,442	-0,089	-0,045
-108,249	540,587	-0,019	0,033
-107,234	-141,972	0,068	-0,005
-106,220	538,420	0,062	-0,105
-105,205	-111,116	-0,117	-0,017
-104,191	-102,297	-0,036	0,006
-103,176	-16,937	0,096	0,043
-102,162	-200,000	0,001	0,142
-101,147	-179,802	-0,058	0,001
-100,132	104,244	-0,080	0,067
-99,118	28,357	-0,130	0,077
-98,103	800,000	0,010	0,030
-97,089	285,286	0,071	0,091
-96,074	-200,000	-0,002	0,053
-95,059	-51,853	0,025	-0,008
-94,045	53,956	0,065	-0,044
-93,030	-200,000	-0,004	-0,024
-92,016	-69,050	-0,043	-0,012
-91,001	12,915	0,083	0,045
-89,986	-130,579	0,039	-0,004
-88,972	370,788	-0,040	0,058
-87,957	25,197	-0,088	-0,052
-86,943	0,964	-0,097	0,049
-85,928	84,121	-0,075	-0,058
-84,913	145,911	-0,064	-0,061
-83,899	149,367	0,078	0,074
-82,884	-200,000	0,015	-0,094
-81,870	463,737	-0,077	-0,123
-80,855	-59,728	-0,133	0,040
-79,840	56,926	0,125	0,086
-78,826	171,656	0,081	0,082
-77,811	-129,374	-0,100	-0,010
-76,797	-200,000	-0,006	0,034
-75,782	315,819	0,039	0,052
-74,767	-68,907	0,100	-0,027
-73,753	14,323	-0,048	0,026
-72,738	-200,000	-0,027	0,106
-71,724	692,535	-0,042	-0,077
-70,709	228,011	-0,044	0,051
-69,694	64,739	-0,072	0,051
-68,680	-200,000	-0,022	-0,107
-67,665	19,962	0,032	0,018
-66,651	-200,000	0,001	-0,010
-65,636	-134,629	-0,052	-0,004
-64,622	223,047	-0,023	0,027
-63,607	375,746	-0,031	-0,045
-62,592	-200,000	0,012	0,039
-61,578	-200,000	0,031	0,107
-60,563	-191,049	0,030	0,000
-59,549	-200,000	0,017	0,110
-58,534	18,376	-1,813	-1,020
-57,519	375,271	-1,484	-2,143
-56,505	-200,000	-0,403	-4,315
-55,490	290,662	1,102	1,418
-54,476	800,000	5,068	11,290
-53,461	-200,000	20,718	330,003
-52,446	800,000	757,811	2325,404
-51,432	550,129	1662,660	2825,937
-50,417	73,423	1663,968	1228,224
-49,403	18,686	1537,158	865,974
-48,388	12,693	1460,038	793,520
-47,373	19,063	1451,015	819,188
-46,359	15,824	1440,262	797,663
-45,344	10,937	1435,907	771,938
-44,330	10,872	1434,203	770,681
-43,315	10,787	1432,448	769,303
-42,300	10,866	1430,539	768,623
-41,286	10,876	1429,184	767,908
-40,271	10,825	1427,997	766,998
-39,257	10,852	1426,786	766,449
-38,242	10,873	1425,692	765,930
-37,227	10,859	1424,621	765,256
-36,213	10,867	1423,543	764,687
-35,198	10,897	1422,078	764,008
-34,184	10,962	1421,347	763,893
-33,169	10,883	1419,874	762,700
-32,154	10,896	1419,012	762,269
-31,140	10,911	1417,727	761,616
-30,125	10,942	1416,774	761,222
-29,111	10,935	1415,597	760,523
-28,096	10,944	1413,994	759,676
-27,082	10,865	1413,126	758,807
-26,067	10,825	1412,082	758,031
-25,052	10,851	1411,063	757,574
-24,038	10,838	1410,163	757,001
-23,023	10,823	1409,050	756,303
-22,009	10,836	1408,070	755,807
-20,994	10,809	1407,143	755,153
-19,979	10,860	1405,906	754,698
-18,965	10,777	1405,303	753,957
-17,950	10,799	1404,098	753,382
-16,936	10,802	1403,493	753,043
-15,921	10,759	1402,350	752,198
-14,906	10,736	1401,491	751,602
-13,892	10,778	1400,493	751,231
-12,877	10,758	1399,921	750,804
-11,863	10,710	1398,875	749,990
-10,848	10,722	1398,058	749,574
-9,833	10,692	1397,139	748,915
-8,819	10,674	1396,289	748,345
-7,804	10,672	1395,400	747,829
-6,790	10,695	1394,154	747,241
-5,775	10,656	1393,315	746,581
-4,760	10,685	1392,215	746,096
-3,746	10,693	1391,390	745,658
-2,731	10,665	1390,715	745,138
-1,717	10,640	1389,917	744,569
-0,702	10,632	1387,894	743,418
0,313	14,652	1301,679	715,660
1,327	30,846	692,520	417,565
2,342	48,217	119,889	78,991
3,356	0,273	16,627	8,342
4,371	-0,369	3,493	1,745
5,386	-12,864	0,895	0,409
6,400	800,000	0,163	0,447
7,415	-154,057	-0,151	-0,007
8,429	-16,258	-0,326	-0,145
9,444	54,363	-0,380	-0,258
10,459	93,455	-0,324	-0,258
11,473	88,071	-0,313	-0,244
12,488	-32,719	-0,305	-0,119
13,502	-41,048	-0,343	-0,124
14,517	-22,842	-0,418	-0,177
15,531	12,462	-0,336	-0,182
16,546	34,443	-0,440	-0,270
17,561	151,747	-0,258	-0,248
18,575	-105,466	-0,257	-0,041
19,590	201,617	-0,248	-0,269
20,604	57,270	-0,213	-0,146
21,619	92,009	-0,476	-0,377
22,634	271,541	-0,280	-0,348
23,648	-22,702	-0,488	-0,207
24,663	60,798	-0,431	-0,300
25,677	42,524	-0,391	-0,250
26,692	-31,053	-0,284	-0,112
27,707	22,413	-0,362	-0,208
28,721	-17,405	-0,416	-0,184
29,736	95,710	-0,360	-0,289
30,750	114,609	-0,371	-0,318
31,765	133,887	-0,398	-0,363
32,780	19,430	-0,362	-0,204
33,794	176,928	-0,303	-0,311
34,809	270,902	-0,276	-0,342
35,823	18,514	-0,497	-0,279
36,838	230,299	-0,393	-0,453
37,853	-1,449	-0,479	-0,237
38,867	345,922	-0,182	-0,252
39,882	-159,937	-0,389	-0,015
40,896	117,864	-0,258	-0,223
41,911	138,857	-0,303	-0,280
42,926	49,576	-0,396	-0,261
43,940	207,073	-0,428	-0,469
44,955	122,285	-0,396	-0,348
45,969	131,330	-0,347	-0,313
46,984	54,293	-0,400	-0,270
47,999	54,333	-0,371	-0,251
49,013	170,618	-0,257	-0,259
50,028	12,012	-0,354	-0,191
51,042	70,987	-0,390	-0,284
52,057	-17,191	-0,340	-0,150
53,071	10,492	-0,311	-0,166
54,086	140,862	-0,281	-0,261
55,101	156,043	-0,289	-0,280
56,115	-72,167	-0,358	-0,093
57,130	-66,698	-0,486	-0,134
58,144	178,999	-0,275	-0,283
59,159	272,671	-0,289	-0,359
60,174	83,260	-0,358	-0,274
61,188	-47,101	-0,374	-0,127
62,203	29,596	-0,326	-0,194
63,217	-27,211	-0,299	-0,122
64,232	-69,428	-0,337	-0,090
65,247	147,399	-0,341	-0,322
66,261	89,543	-0,249	-0,195
67,276	57,929	-0,452	-0,310
68,290	45,189	-0,264	-0,171
69,305	242,819	-0,226	-0,266
70,320	-28,763	-0,373	-0,150
71,334	-42,893	-0,432	-0,153
72,349	18,557	-0,317	-0,177
73,363	28,633	-0,273	-0,162
74,378	-47,448	-0,289	-0,098
75,393	427,016	-0,214	-0,325
76,407	64,922	-0,284	-0,201
77,422	-96,495	-0,254	-0,047
78,436	193,884	-0,296	-0,314
79,451	28,577	-0,388	-0,229
80,466	-52,816	-0,267	-0,086
81,480	-12,800	-0,349	-0,159
82,495	53,833	-0,283	-0,190
83,509	249,673	-0,256	-0,304
84,524	-1,136	-0,322	-0,159
85,539	-41,771	-0,301	-0,108
86,553	79,746	-0,297	-0,223
87,568	4,875	-0,376	-0,193
88,582	-141,077	-0,370	-0,026
89,597	273,412	-0,285	-0,353
90,611	-1,376	-0,297	-0,146
91,626	-0,797	-0,239	-0,118
92,641	-32,754	-0,222	-0,086
93,655	70,567	-0,203	-0,147
94,670	1,200	-0,473	-0,237
95,684	-55,625	-0,340	-0,106
96,699	800,000	-0,115	-0,239
97,714	214,368	-0,317	-0,352
98,728	-153,693	-0,183	-0,009
99,743	-38,907	-0,373	-0,137
100,757	281,838	-0,278	-0,349
101,772	228,408	-0,175	-0,200
102,787	-55,127	-0,406	-0,127
103,801	-130,055	-0,334	-0,032
104,816	17,592	-0,394	-0,219
105,830	-56,227	-0,296	-0,092
106,845	259,692	-0,090	-0,109
107,860	128,570	-0,234	-0,209
108,874	93,201	-0,317	-0,250
109,889	46,982	-0,407	-0,264
110,903	-13,288	-0,300	-0,136
111,918	26,839	-0,310	-0,181
112,933	47,854	-0,247	-0,161
113,947	-4,875	-0,238	-0,114
114,962	67,556	-0,249	-0,177
115,976	213,265	-0,158	-0,175
116,991	-16,104	-0,293	-0,129
118,006	124,484	-0,270	-0,237
119,020	-162,255	-0,294	0,010
120,035	34,868	-0,243	-0,148
121,049	33,670	-0,216	-0,131
122,064	54,033	-0,262	-0,175
123,079	181,180	-0,170	-0,174
124,093	265,699	-0,241	-0,294
125,108	10,702	-0,226	-0,120
126,122	109,022	-0,261	-0,218
127,137	800,000	-0,071	-0,172
128,151	-78,186	-0,238	-0,057
129,166	114,503	-0,174	-0,148
130,181	106,200	-0,229	-0,189
131,195	14,031	-0,247	-0,134
132,210	174,868	-0,284	-0,287
133,224	26,245	-0,198	-0,115
134,239	51,675	-0,286	-0,190
135,254	-86,492	-0,255	-0,054
136,268	120,977	-0,295	-0,256
137,283	168,301	-0,186	-0,185
138,297	39,272	-0,218	-0,136
139,312	1,732	-0,267	-0,134
140,327	135,435	-0,305	-0,277
141,341	18,169	-0,148	-0,082
142,356	-91,479	-0,303	-0,060
143,370	-82,740	-0,256	-0,057
144,385	189,445	-0,172	-0,180
145,400	70,319	-0,344	-0,247
146,414	-62,572	-0,317	-0,091
147,429	-25,566	-0,252	-0,103
148,443	796,700	-0,162	-0,313
149,458	82,585	-0,261	-0,198
150,473	800,000	-0,046	-0,139
151,487	-154,536	-0,260	-0,012
152,502	92,713	-0,287	-0,226
153,516	354,786	-0,114	-0,158
154,531	-43,480	-0,169	-0,059
155,546	243,757	-0,176	-0,205
156,560	13,273	-0,308	-0,166
157,575	157,045	-0,274	-0,264
158,589	577,141	-0,176	-0,300
159,604	145,596	-0,250	-0,233
160,619	-65,023	-0,328	-0,092
161,633	33,835	-0,247	-0,149
162,648	173,520	-0,274	-0,275
163,662	800,000	-0,084	-0,208
164,677	-70,947	-0,213	-0,055
165,692	365,646	-0,149	-0,210
166,706	-24,051	-0,366	-0,152
167,721	404,161	-0,135	-0,199
168,735	154,825	-0,286	-0,274
169,750	41,106	-0,190	-0,119
170,764	47,230	-0,116	-0,075
171,779	112,510	-0,208	-0,175
172,794	164,822	-0,134	-0,132
173,808	129,087	-0,181	-0,160
174,823	12,552	-0,357	-0,191
175,837	-35,783	-0,472	-0,177
176,852	-23,606	-0,201	-0,083
177,867	-168,893	-0,304	-0,008
178,881	175,090	-0,218	-0,220
179,896	-136,379	-0,202	-0,016
180,910	106,054	-0,197	-0,162
181,925	250,907	-0,163	-0,193
182,940	51,717	-0,181	-0,119
183,954	73,966	-0,304	-0,221
184,969	-103,011	-0,093	-0,015
185,983	21,834	-0,079	-0,045
186,998	-67,948	-0,297	-0,080
188,013	800,000	-0,098	-0,267
189,027	249,086	-0,110	-0,130
190,042	-57,533	-0,302	-0,091
191,056	111,547	-0,211	-0,176
192,071	-55,037	-0,189	-0,059
193,086	655,058	-0,120	-0,214
194,100	67,441	-0,186	-0,131
195,115	105,704	-0,238	-0,195
196,129	286,083	-0,236	-0,296
197,144	20,973	-0,312	-0,175
198,159	33,608	-0,255	-0,153
199,173	-54,642	-0,253	-0,079
200,188	604,263	-0,050	-0,086
201,202	126,815	-0,234	-0,206
202,217	33,962	-0,182	-0,109
203,232	-31,862	-0,274	-0,106
204,246	193,780	-0,219	-0,230
205,261	69,050	-0,186	-0,133
206,275	106,467	-0,184	-0,151
207,290	85,915	-0,188	-0,144
208,304	69,995	-0,285	-0,203
209,319	20,503	-0,095	-0,053
210,334	-200,000	-0,115	-0,354
211,348	410,879	-0,141	-0,208
212,363	116,466	-0,214	-0,182
213,377	145,003	-0,161	-0,149
214,392	-176,850	-0,233	0,004
215,407	80,438	-0,170	-0,127
216,421	151,892	-0,110	-0,104
217,436	-5,001	-0,304	-0,145
218,450	207,778	-0,191	-0,207
219,465	52,352	-0,148	-0,098
220,480	171,025	-0,184	-0,183
221,494	-73,552	-0,045	-0,011
222,509	-75,504	-0,049	0,012
223,523	-77,657	-0,198	-0,047
224,538	698,566	-0,059	-0,108
225,553	28,683	-0,204	-0,119
226,567	276,553	-0,111	-0,136
227,582	-90,273	-0,230	-0,046
228,596	240,040	-0,163	-0,188
229,611	39,505	-0,189	-0,117
230,626	25,508	-0,137	-0,078
231,640	13,094	-0,140	-0,075
232,655	29,271	-0,230	-0,135
233,669	379,017	-0,166	-0,235
234,684	800,000	-0,158	-0,346
235,699	-39,719	-0,241	-0,087
236,713	467,007	-0,144	-0,223
237,728	-125,039	-0,168	0,018
238,742	-195,268	-0,106	-0,001
239,757	753,700	-0,123	-0,231
240,772	166,357	-0,109	-0,107
241,786	800,000	-0,052	-0,103
242,801	3,206	-0,176	-0,088
243,815	283,347	-0,141	-0,175
244,830	-37,936	-0,199	-0,073
245,844	38,887	-0,239	-0,147
246,859	378,855	-0,081	-0,115
247,874	-16,651	-0,296	-0,129
248,888	105,120	-0,210	-0,171
249,903	-96,596	-0,122	-0,022
250,917	26,149	-0,246	-0,141
251,932	3,202	-0,079	0,039
252,947	-23,638	-0,128	-0,053
253,961	62,307	-0,389	-0,268
254,976	-173,921	-0,093	0,002
255,990	-81,288	-0,102	-0,023
257,005	-67,779	-0,197	-0,053
258,020	43,361	-0,091	0,058
259,034	87,775	-0,199	-0,152
260,049	-29,327	-0,193	-0,076
261,063	64,681	-0,112	-0,078
262,078	173,499	-0,192	-0,191
263,093	20,533	-0,274	-0,153
264,107	350,445	-0,174	-0,238
265,122	120,556	-0,153	-0,131
266,136	483,011	-0,055	-0,087
267,151	37,848	-0,175	-0,107
268,166	800,000	-0,056	-0,144
269,180	1,086	-0,256	-0,126
270,195	-7,501	-0,165	-0,077
271,209	276,919	-0,137	-0,169
272,224	71,787	-0,231	-0,166
273,239	167,829	-0,140	-0,137
274,253	-70,125	-0,231	-0,060
275,268	-53,771	-0,200	-0,063
276,282	-82,943	-0,271	-0,060
277,297	800,000	-0,127	-0,249
278,312	58,162	-0,145	-0,097
279,326	116,029	-0,123	-0,104
280,341	322,662	-0,061	-0,080
281,355	72,467	-0,146	-0,105
282,370	-200,000	-0,057	-0,217
283,384	800,000	-0,083	-0,219
284,399	-136,483	-0,293	0,023
285,414	18,412	-0,148	-0,081
286,428	113,853	-0,125	-0,105
287,443	-86,681	-0,163	-0,034
288,457	-99,663	-0,063	-0,011
289,472	-62,078	-0,124	-0,035
290,487	59,112	-0,158	-0,107
291,501	93,990	-0,052	-0,041
292,516	-39,744	-0,257	-0,092
293,530	-66,525	-0,017	0,005
294,545	420,712	-0,129	-0,191
295,560	-121,217	-0,126	-0,014
296,574	439,461	-0,101	-0,151
297,589	220,121	-0,081	-0,090
298,603	117,331	-0,193	-0,163
299,618	-48,697	-0,201	-0,066
300,633	589,974	-0,082	-0,140
301,647	111,982	-0,146	-0,121
302,662	280,781	-0,059	0,072
303,676	80,605	-0,160	-0,118
304,691	47,860	-0,153	-0,098
305,706	-107,112	-0,126	0,019
306,720	-64,788	-0,194	-0,054
307,735	686,619	-0,109	-0,196
308,749	25,616	-0,174	-0,099
309,764	122,567	-0,094	-0,081
310,779	545,109	-0,057	-0,093
311,793	-87,965	-0,116	0,024
312,808	41,578	-0,305	-0,190
313,822	-32,387	-0,235	-0,090
314,837	-200,000	-0,023	0,140
315,852	638,557	-0,130	-0,228
316,866	-169,036	-0,202	0,005
317,881	800,000	-0,106	-0,205
318,895	-71,158	-0,240	-0,061
319,910	318,763	-0,137	-0,179
320,925	273,771	-0,144	-0,175
321,939	255,760	-0,155	-0,182
322,954	76,264	-0,089	-0,064
323,968	-2,501	-0,112	0,054
324,983	-20,373	-0,141	-0,059
325,997	256,126	-0,056	-0,066
327,012	100,404	-0,206	-0,164
328,027	438,200	-0,058	-0,087
329,041	-88,291	-0,237	-0,048
330,056	-43,813	0,029	-0,010
331,070	800,000	-0,090	-0,199
332,085	800,000	-0,049	-0,119
333,100	57,919	-0,128	-0,086
334,114	-11,813	-0,156	-0,070
335,129	249,262	-0,085	-0,099
336,143	-52,219	-0,138	-0,044
337,158	376,212	-0,036	-0,050
338,173	-153,335	-0,053	-0,002
339,187	-94,190	-0,096	-0,018
340,202	167,911	-0,132	-0,129
341,216	-62,756	-0,039	-0,011
342,231	633,696	-0,029	-0,050
343,246	258,417	-0,114	-0,135
344,260	339,827	-0,076	-0,101
345,275	800,000	-0,067	-0,148
346,289	-31,451	-0,154	-0,059
347,304	-200,000	-0,068	-0,243
348,319	800,000	-0,043	-0,113
349,333	-76,201	-0,221	-0,053
350,348	-106,137	-0,197	0,030
351,362	101,187	-0,158	-0,126
352,377	272,165	-0,043	-0,053
353,392	-68,011	-0,117	-0,031
354,406	-95,359	-0,167	-0,030
355,421	208,126	1307,195	1398,941
356,435	160,132	1466,989	1399,428
