DTS Sentinel unit serial number:	SN410029Multiplexer serial number:	ORYXHardware model number:	OX2-SRSoftware version number:	ORYX F/W v4,00 Oryx Data Collector v3.7.2.0data status	okinstallation	B3 Nyhavnadifferential loss correction	single-endedforward channel	channel 1reverse channel	N/Adate	2023/11/29time	03:12:30forward acquisition time	300,00reverse acquisition time	0,00gamma	499,1914k internal	0,3211k external	0,3211temperature offset calibration	1,0000default loss term (dB/km)	0,3820temperature slope calibration	1,0000multiplexer offset coefficient	1,0000multiplexer slope coefficient	1,0000fibre end	0,00T internal ref (°C)	9,54T ext. ref 1 (°C)	-5,83T ext. ref 2 (°C)	-5,96length (m)	temperature (°C)	Stokes	anti-Stokes-744,400	22,716	-0,255	-0,151
-743,385	-200,000	-0,024	0,255
-742,371	202,816	-0,165	-0,185
-741,356	-200,000	0,080	0,329
-740,342	-124,546	-0,151	-0,017
-739,327	-200,000	-0,025	0,248
-738,312	441,792	-0,169	-0,269
-737,298	-200,000	-0,021	0,301
-736,283	81,859	-0,245	-0,192
-735,269	-200,000	-0,009	0,256
-734,254	77,777	-0,229	-0,177
-733,239	-37,403	-0,310	0,119
-732,225	-200,000	-0,011	-0,262
-731,210	1,055	0,055	-0,028
-730,196	-200,000	-0,005	-0,095
-729,181	-200,000	0,022	-0,154
-728,167	-2,441	-0,093	0,047
-727,152	-111,134	-0,094	0,014
-726,137	-200,000	0,004	-0,222
-725,123	800,000	-0,052	-0,154
-724,108	-200,000	-0,014	-0,206
-723,094	800,000	-0,027	-0,070
-722,079	-141,859	-0,140	-0,010
-721,064	90,574	0,094	-0,076
-720,050	215,871	0,034	0,040
-719,035	-200,000	0,015	-0,050
-718,021	-112,107	-0,082	-0,012
-717,006	244,131	0,078	-0,095
-715,991	-22,486	-0,067	-0,029
-714,977	64,774	-0,110	0,080
-713,962	-103,934	-0,071	0,012
-712,948	-200,000	-0,031	0,123
-711,933	-200,000	-0,005	-0,026
-710,918	416,683	0,096	0,149
-709,904	-60,613	-0,078	-0,024
-708,889	-200,000	0,015	-0,081
-707,875	-126,385	-0,105	-0,011
-706,860	-71,952	0,191	-0,051
-705,845	-6,124	-0,213	-0,105
-704,831	800,000	0,037	-0,079
-703,816	-200,000	-0,005	-0,050
-702,802	649,553	-0,087	-0,161
-701,787	800,000	-0,031	-0,084
-700,772	61,603	-0,032	0,023
-699,758	14,909	0,079	0,045
-698,743	800,000	0,029	0,063
-697,729	293,787	0,048	-0,064
-696,714	800,000	-0,047	-0,143
-695,699	-200,000	0,004	-0,178
-694,685	345,581	-0,064	-0,092
-693,670	173,817	-0,056	-0,058
-692,656	-64,935	0,043	0,012
-691,641	800,000	0,049	-0,147
-690,627	624,050	0,031	0,056
-689,612	-200,000	0,009	-0,088
-688,597	444,991	-0,041	-0,066
-687,583	800,000	-0,003	0,007
-686,568	242,741	-0,080	-0,097
-685,554	607,345	-0,066	-0,119
-684,539	-88,744	0,144	-0,031
-683,524	29,714	0,071	-0,044
-682,510	71,210	0,016	-0,012
-681,495	800,000	-0,038	-0,080
-680,481	63,061	-0,018	0,013
-679,466	31,210	-0,108	-0,067
-678,451	-200,000	-0,009	-0,139
-677,437	-115,556	0,109	0,015
-676,422	17,748	0,116	-0,067
-675,408	-200,000	-0,057	0,196
-674,393	-58,625	-0,081	0,025
-673,378	-200,000	-0,015	-0,125
-672,364	-200,000	-0,005	-0,071
-671,349	800,000	-0,101	-0,261
-670,335	-83,961	0,084	-0,019
-669,320	121,537	0,040	-0,036
-668,305	-51,973	0,067	0,022
-667,291	52,728	0,013	-0,009
-666,276	-22,404	0,042	-0,018
-665,262	800,000	0,004	-0,012
-664,247	-88,994	0,077	0,016
-663,232	360,215	0,051	-0,074
-662,218	-81,238	-0,037	-0,009
-661,203	255,250	-0,102	0,127
-660,189	-200,000	0,007	-0,062
-659,174	429,055	-0,048	-0,075
-658,159	124,157	0,082	-0,075
-657,145	2,091	-0,078	-0,041
-656,130	-82,811	-0,041	-0,010
-655,116	101,953	0,158	0,133
-654,101	-71,428	0,127	-0,034
-653,086	287,979	0,028	0,036
-652,072	65,793	-0,086	-0,063
-651,057	13,895	0,089	-0,050
-650,043	800,000	0,036	-0,100
-649,028	346,603	0,026	0,037
-648,014	-118,597	-0,111	-0,014
-646,999	-155,003	-0,108	-0,005
-645,984	13,335	-0,042	0,023
-644,970	-27,792	-0,019	-0,008
-643,955	-50,643	-0,091	-0,031
-642,941	-48,539	-0,106	-0,037
-641,926	800,000	-0,004	-0,009
-640,911	40,272	0,098	0,064
-639,897	-10,441	-0,097	0,046
-638,882	-119,361	0,082	-0,010
-637,868	437,764	0,036	0,057
-636,853	-6,757	-0,147	-0,072
-635,838	3,529	-0,013	-0,007
-634,824	-58,122	-0,277	0,087
-633,809	22,062	0,106	-0,062
-632,795	-49,604	0,172	0,059
-631,780	-200,000	-0,011	0,110
-630,765	54,250	0,018	-0,012
-629,751	439,042	-0,067	-0,106
-628,736	-171,149	-0,191	0,005
-627,722	-75,528	-0,103	0,026
-626,707	800,000	0,033	-0,082
-625,692	800,000	-0,017	0,048
-624,678	-84,177	0,064	-0,014
-623,663	234,252	0,120	0,143
-622,649	43,651	-0,077	-0,051
-621,634	-200,000	-0,017	-0,097
-620,619	100,842	-0,120	0,100
-619,605	-200,000	-0,076	0,000
-618,590	800,000	-0,020	0,054
-617,576	446,034	-0,033	0,053
-616,561	-97,689	-0,062	-0,012
-615,546	-200,000	-0,010	-0,073
-614,532	199,029	-0,084	-0,093
-613,517	-66,087	-0,092	0,026
-612,503	-33,353	-0,013	0,005
-611,488	259,754	0,015	-0,019
-610,474	118,408	-0,039	0,035
-609,459	155,068	0,043	-0,042
-608,444	189,037	-0,080	-0,087
-607,430	10,758	0,081	0,044
-606,415	108,656	-0,103	0,089
-605,401	21,310	0,054	0,032
-604,386	-200,000	-0,014	0,113
-603,371	-200,000	0,022	-0,136
-602,357	247,198	-0,064	0,078
-601,342	207,474	-0,080	0,090
-600,328	9,998	-0,074	0,041
-599,313	-169,673	-0,159	0,004
-598,298	-39,461	0,041	-0,015
-597,284	21,918	0,051	0,030
-596,269	-92,161	0,102	0,021
-595,255	800,000	-0,024	0,062
-594,240	-107,332	-0,075	-0,012
-593,225	129,056	0,097	0,089
-592,211	-9,417	-0,073	-0,035
-591,196	-82,036	0,106	-0,025
-590,182	-178,682	-0,022	0,000
-589,167	-153,589	0,103	0,005
-588,152	-200,000	-0,007	-0,038
-587,138	46,651	-0,216	-0,144
-586,123	0,505	-0,195	-0,100
-585,109	-40,831	0,068	-0,025
-584,094	181,736	0,052	-0,055
-583,079	-200,000	0,006	-0,084
-582,065	-200,000	-0,016	0,117
-581,050	-200,000	-0,016	0,126
-580,036	149,886	0,073	-0,071
-579,021	-85,161	-0,074	0,016
-578,006	74,968	0,103	-0,078
-576,992	-125,029	-0,037	0,004
-575,977	-126,215	0,066	-0,007
-574,963	-26,706	-0,046	0,019
-573,948	-200,000	-0,002	0,077
-572,934	307,622	0,037	0,050
-571,919	316,011	-0,070	0,095
-570,904	110,653	0,128	-0,111
-569,890	800,000	-0,028	-0,089
-568,875	-200,000	0,002	0,050
-567,861	-200,000	-0,013	0,044
-566,846	188,108	0,070	0,076
-565,831	-200,000	0,012	0,090
-564,817	800,000	-0,060	-0,167
-563,802	363,187	-0,087	-0,126
-562,788	66,670	-0,171	0,125
-561,773	-82,541	-0,033	-0,008
-560,758	-200,000	0,033	0,199
-559,744	-23,762	0,058	-0,025
-558,729	-200,000	-0,009	0,170
-557,715	-86,477	-0,116	0,026
-556,700	-66,210	-0,122	0,035
-555,685	-53,344	0,047	0,015
-554,671	-150,482	0,047	0,003
-553,656	-108,130	-0,032	0,005
-552,642	800,000	0,025	-0,073
-551,627	800,000	0,023	0,063
-550,612	30,210	-0,067	0,041
-549,598	336,105	-0,052	0,073
-548,583	-200,000	0,005	-0,053
-547,569	120,683	-0,041	0,036
-546,554	800,000	-0,009	0,024
-545,539	109,967	-0,009	0,007
-544,525	36,587	0,071	0,045
-543,510	-144,660	-0,066	-0,004
-542,496	-79,923	-0,099	0,024
-541,481	-200,000	-0,009	-0,169
-540,466	-200,000	-0,007	-0,111
-539,452	-99,241	0,114	-0,020
-538,437	162,619	0,065	-0,066
-537,423	137,985	0,014	-0,013
-536,408	-82,227	-0,093	0,022
-535,393	726,055	0,060	0,115
-534,379	53,651	-0,072	0,050
-533,364	-69,989	-0,026	-0,007
-532,350	800,000	-0,041	0,101
-531,335	-93,281	0,055	-0,011
-530,321	-200,000	0,035	0,185
-529,306	-200,000	-0,010	0,111
-528,291	-123,577	0,182	-0,021
-527,277	97,664	0,041	0,034
-526,262	-200,000	0,017	-0,068
-525,248	649,118	-0,011	-0,020
-524,233	279,528	0,028	0,036
-523,218	-133,795	0,057	-0,005
-522,204	218,187	-0,094	0,108
-521,189	43,080	-0,099	-0,065
-520,175	381,594	0,033	0,049
-519,160	37,131	0,086	-0,055
-518,145	-200,000	-0,002	0,084
-517,131	-43,085	-0,025	0,009
-516,116	397,013	0,015	-0,023
-515,102	-169,417	0,131	0,003
-514,087	-200,000	0,003	-0,085
-513,072	800,000	-0,055	-0,112
-512,058	-17,195	-0,047	0,021
-511,043	-148,119	-0,143	-0,008
-510,029	781,732	-0,085	0,169
-509,014	152,441	0,080	0,078
-507,999	-166,030	0,060	0,002
-506,985	765,710	-0,028	0,055
-505,970	106,742	0,064	0,055
-504,956	134,811	-0,025	0,024
-503,941	223,567	-0,076	0,088
-502,926	246,097	0,057	0,069
-501,912	30,691	-0,142	0,087
-500,897	-67,944	0,082	-0,023
-499,883	-109,923	0,073	0,011
-498,868	-179,841	-0,098	-0,001
-497,853	-200,000	0,013	-0,054
-496,839	88,452	-0,047	0,038
-495,824	27,700	0,138	0,083
-494,810	-92,724	0,135	0,027
-493,795	116,410	-0,068	0,060
-492,781	287,785	-0,062	-0,081
-491,766	74,983	0,037	-0,028
-490,751	144,638	-0,068	-0,065
-489,737	5,082	0,101	-0,053
-488,722	-33,398	0,232	-0,092
-487,708	-39,352	0,065	0,024
-486,693	-130,582	-0,066	0,006
-485,678	-43,099	-0,028	-0,010
-484,664	-200,000	0,034	-0,156
-483,649	-200,000	0,002	-0,039
-482,635	-200,000	0,000	-0,040
-481,620	-200,000	0,021	-0,075
-480,605	16,270	-0,083	0,047
-479,591	-200,000	0,004	0,045
-478,576	-200,000	0,059	-0,186
-477,562	-200,000	0,000	-0,078
-476,547	-112,900	-0,246	-0,035
-475,532	-200,000	0,014	-0,206
-474,518	-39,590	0,169	-0,063
-473,503	19,729	0,130	0,075
-472,489	-200,000	0,018	0,149
-471,474	-200,000	0,011	0,111
-470,459	13,145	-0,106	-0,059
-469,445	-23,577	-0,091	-0,039
-468,430	72,758	-0,077	-0,058
-467,416	-200,000	0,011	-0,100
-466,401	102,782	0,113	0,095
-465,386	221,236	0,082	0,094
-464,372	-17,554	0,067	0,030
-463,357	8,715	-0,147	0,079
-462,343	-84,794	-0,151	-0,034
-461,328	261,574	0,052	-0,065
-460,313	173,360	-0,088	-0,091
-459,299	411,268	-0,045	0,069
-458,284	-15,219	0,067	0,031
-457,270	-195,893	-0,075	-0,000
-456,255	-90,635	-0,105	-0,022
-455,241	800,000	-0,071	-0,163
-454,226	15,883	0,075	0,042
-453,211	462,021	-0,058	-0,093
-452,197	800,000	0,046	-0,100
-451,182	800,000	-0,030	0,080
-450,168	-151,063	0,087	-0,005
-449,153	81,838	-0,051	0,040
-448,138	800,000	0,057	-0,114
-447,124	-135,576	-0,107	-0,009
-446,109	97,886	-0,075	-0,062
-445,095	800,000	0,016	-0,050
-444,080	-96,475	-0,055	0,010
-443,065	277,454	0,051	-0,066
-442,051	-200,000	-0,039	-0,144
-441,036	-57,304	-0,050	0,016
-440,022	769,541	0,030	-0,058
-439,007	-5,304	-0,112	0,055
-437,992	753,124	0,043	-0,084
-436,978	22,638	-0,023	-0,013
-435,963	73,013	0,080	0,060
-434,949	189,184	0,041	-0,044
-433,934	260,696	0,058	0,072
-432,919	13,402	0,053	-0,029
-431,905	-200,000	0,039	0,146
-430,890	31,328	-0,055	0,034
-429,876	-126,256	-0,083	0,009
-428,861	-200,000	-0,026	0,159
-427,846	424,629	-0,078	-0,121
-426,832	189,459	0,020	-0,022
-425,817	-43,531	0,055	-0,020
-424,803	369,767	-0,012	-0,018
-423,788	264,200	0,042	0,052
-422,773	-153,717	0,209	0,010
-421,759	-200,000	-0,018	0,152
-420,744	800,000	-0,036	-0,087
-419,730	287,343	-0,051	-0,067
-418,715	-200,000	-0,028	-0,141
-417,701	85,228	0,072	-0,056
-416,686	582,337	0,076	0,134
-415,671	-200,000	0,017	-0,127
-414,657	170,136	-0,042	-0,043
-413,642	800,000	0,055	0,124
-412,628	-120,603	0,063	-0,007
-411,613	-36,371	0,094	-0,036
-410,598	-13,022	-0,082	-0,038
-409,584	202,269	0,046	0,051
-408,569	-200,000	-0,002	0,084
-407,555	800,000	0,028	-0,071
-406,540	-0,347	-0,082	0,042
-405,525	-4,832	-0,069	-0,034
-404,511	-112,091	0,081	-0,012
-403,496	147,000	0,036	0,035
-402,482	117,982	0,042	0,037
-401,467	-200,000	-0,050	0,167
-400,452	800,000	0,082	0,195
-399,438	-95,282	0,210	0,040
-398,423	531,031	0,058	0,098
-397,409	279,955	-0,077	-0,099
-396,394	443,674	-0,077	-0,120
-395,379	800,000	0,026	-0,082
-394,365	11,943	0,122	0,067
-393,350	-29,990	0,093	0,038
-392,336	800,000	-0,053	0,111
-391,321	800,000	0,024	0,072
-390,306	125,264	-0,106	-0,096
-389,292	-59,963	0,022	-0,007
-388,277	112,070	0,038	-0,033
-387,263	377,294	-0,028	-0,041
-386,248	-85,024	0,023	-0,005
-385,233	609,617	-0,064	0,114
-384,219	44,342	0,041	0,027
-383,204	-200,000	-0,009	-0,040
-382,190	800,000	-0,053	-0,141
-381,175	-50,211	0,063	-0,021
-380,160	512,746	0,007	0,012
-379,146	-200,000	-0,017	-0,101
-378,131	-200,000	0,042	0,152
-377,117	372,373	-0,046	-0,067
-376,102	19,180	0,013	-0,007
-375,088	736,285	-0,058	-0,112
-374,073	16,665	0,110	-0,062
-373,058	800,000	0,040	0,121
-372,044	800,000	0,014	0,042
-371,029	-200,000	-0,005	-0,028
-370,015	-147,376	-0,026	0,002
-369,000	66,573	-0,083	-0,060
-367,985	347,710	0,023	-0,033
-366,971	-200,000	-0,002	-0,046
-365,956	-133,678	-0,099	0,009
-364,942	111,506	-0,056	-0,048
-363,927	16,884	0,096	-0,054
-362,912	502,476	-0,033	0,055
-361,898	-88,472	-0,138	-0,029
-360,883	800,000	-0,010	0,020
-359,869	800,000	0,041	-0,104
-358,854	-163,139	0,119	0,004
-357,839	800,000	-0,012	0,027
-356,825	-200,000	-0,041	0,200
-355,810	-32,177	-0,073	-0,029
-354,796	-43,171	-0,072	0,026
-353,781	-200,000	0,043	-0,138
-352,766	-86,214	0,101	-0,022
-351,752	-200,000	0,024	-0,139
-350,737	-200,000	0,006	0,052
-349,723	-77,835	0,041	0,010
-348,708	800,000	-0,036	0,089
-347,693	464,741	-0,049	-0,079
-346,679	-137,018	-0,043	0,003
-345,664	77,671	-0,086	-0,065
-344,650	56,341	0,097	0,067
-343,635	-200,000	-0,010	0,224
-342,620	334,778	0,047	-0,065
-341,606	163,963	-0,069	-0,070
-340,591	72,366	-0,090	0,067
-339,577	-200,000	0,025	-0,164
-338,562	-200,000	-0,001	0,078
-337,548	800,000	-0,034	-0,070
-336,533	-80,281	0,180	-0,043
-335,518	140,729	0,066	-0,063
-334,504	-89,157	-0,097	-0,020
-333,489	-200,000	0,002	-0,095
-332,475	-1,150	-0,130	0,065
-331,460	-118,636	-0,113	0,014
-330,445	-140,540	0,115	-0,008
-329,431	114,934	0,057	-0,050
-328,416	800,000	0,065	0,158
-327,402	-95,616	-0,056	-0,011
-326,387	227,611	-0,086	-0,099
-325,372	512,465	0,013	-0,021
-324,358	375,887	0,104	-0,152
-323,343	-200,000	0,008	-0,082
-322,329	-107,619	0,156	-0,024
-321,314	-200,000	0,034	0,127
-320,299	9,855	0,021	0,012
-319,285	53,533	-0,211	0,144
-318,270	271,222	-0,054	-0,068
-317,256	800,000	-0,017	-0,035
-316,241	698,353	-0,056	-0,106
-315,226	776,192	-0,051	0,100
-314,212	-200,000	-0,010	-0,049
-313,197	800,000	0,048	0,150
-312,183	-200,000	-0,004	0,072
-311,168	-197,671	-0,066	0,000
-310,153	-200,000	0,003	0,060
-309,139	-200,000	-0,024	-0,125
-308,124	759,244	0,031	-0,060
-307,110	-23,430	0,056	-0,024
-306,095	-200,000	-0,021	0,081
-305,080	-32,828	-0,042	-0,017
-304,066	800,000	-0,054	-0,128
-303,051	163,950	0,178	-0,179
-302,037	800,000	-0,054	-0,157
-301,022	-200,000	-0,024	-0,081
-300,008	-200,000	-0,034	0,180
-298,993	243,822	0,051	-0,061
-297,978	-200,000	-0,011	0,065
-296,964	269,580	0,045	0,057
-295,949	-140,309	-0,100	-0,007
-294,935	190,961	-0,084	-0,090
-293,920	58,169	-0,023	-0,016
-292,905	-19,689	0,100	-0,044
-291,891	545,611	0,088	0,150
-290,876	-15,662	0,174	-0,079
-289,862	10,381	-0,124	-0,067
-288,847	236,006	0,102	-0,120
-287,832	-200,000	0,004	-0,013
-286,818	46,739	-0,018	-0,012
-285,803	-200,000	0,001	-0,010
-284,789	-20,799	0,152	-0,066
-283,774	-34,532	0,082	0,032
-282,759	800,000	0,056	-0,129
-281,745	22,226	0,061	-0,035
-280,730	-27,325	0,035	-0,014
-279,716	149,013	0,107	-0,104
-278,701	-67,661	0,103	-0,029
-277,686	54,015	0,139	0,095
-276,672	42,350	-0,063	-0,041
-275,657	-86,771	0,145	0,031
-274,643	74,049	-0,064	0,048
-273,628	-200,000	0,031	-0,147
-272,613	-200,000	0,001	-0,104
-271,599	-38,843	0,135	0,050
-270,584	-200,000	0,015	0,163
-269,570	-200,000	-0,002	0,026
-268,555	245,296	0,102	0,122
-267,540	-4,916	0,139	0,068
-266,526	125,565	-0,029	0,026
-265,511	800,000	0,072	-0,163
-264,497	57,116	-0,027	-0,019
-263,482	-200,000	-0,023	0,077
-262,467	41,787	-0,022	-0,014
-261,453	160,278	-0,038	-0,038
-260,438	-136,916	-0,053	-0,004
-259,424	-32,660	-0,080	0,031
-258,409	149,436	0,093	-0,089
-257,395	161,458	-0,102	0,102
-256,380	71,494	0,043	-0,032
-255,365	484,776	0,056	0,092
-254,351	43,376	-0,102	0,066
-253,336	42,836	-0,032	0,021
-252,322	314,510	-0,054	-0,073
-251,307	220,069	-0,125	-0,143
-250,292	20,278	-0,055	0,032
-249,278	270,513	0,037	0,046
-248,263	684,851	0,038	-0,070
-247,249	-165,855	0,052	0,002
-246,234	364,342	-0,033	0,047
-245,219	-200,000	-0,011	-0,053
-244,205	445,851	-0,081	-0,127
-243,190	-150,767	-0,133	0,007
-242,176	36,099	0,088	0,055
-241,161	-28,158	0,162	0,066
-240,146	-200,000	-0,008	0,192
-239,132	-200,000	-0,015	-0,071
-238,117	-200,000	-0,011	-0,091
-237,103	315,806	-0,071	0,095
-236,088	17,950	-0,046	0,026
-235,073	47,260	0,097	0,064
-234,059	-200,000	0,040	0,178
-233,044	25,160	0,178	0,105
-232,030	-200,000	-0,012	0,077
-231,015	192,799	-0,076	-0,081
-230,000	800,000	0,024	-0,057
-228,986	800,000	-0,021	0,056
-227,971	-57,991	-0,038	-0,012
-226,957	-200,000	-0,009	-0,058
-225,942	-200,000	-0,016	0,100
-224,927	94,920	-0,042	-0,034
-223,913	306,702	0,069	0,091
-222,898	-200,000	-0,052	-0,179
-221,884	197,418	-0,034	0,037
-220,869	-200,000	-0,040	0,162
-219,855	800,000	0,040	0,085
-218,840	-99,142	0,165	0,029
-217,825	-95,567	0,014	0,003
-216,811	-17,855	-0,136	-0,060
-215,796	173,001	-0,083	-0,085
-214,782	88,579	0,066	-0,052
-213,767	-41,538	0,056	-0,020
-212,752	391,162	0,082	0,122
-211,738	62,034	0,051	-0,036
-210,723	-66,657	-0,062	0,017
-209,709	-114,467	0,016	-0,002
-208,694	-144,611	0,057	0,004
-207,679	430,613	0,032	-0,049
-206,665	531,346	0,068	-0,115
-205,650	-200,000	0,008	0,109
-204,636	-26,020	0,147	0,061
-203,621	-25,509	-0,179	0,075
-202,606	93,674	0,086	-0,069
-201,592	800,000	-0,036	0,104
-200,577	107,384	0,067	-0,056
-199,563	-47,364	0,042	-0,015
-198,548	212,309	-0,090	0,101
-197,533	-164,129	0,099	-0,003
-196,519	42,256	-0,074	0,048
-195,504	-36,198	-0,026	0,010
-194,490	-119,279	-0,114	-0,014
-193,475	34,642	-0,071	-0,044
-192,460	-200,000	-0,020	0,070
-191,446	-200,000	-0,012	0,134
-190,431	456,050	-0,030	-0,047
-189,417	800,000	0,019	-0,051
-188,402	52,223	-0,040	-0,027
-187,387	-41,029	-0,047	-0,017
-186,373	-114,724	-0,088	0,012
-185,358	800,000	0,042	-0,089
-184,344	75,971	-0,088	0,066
-183,329	-200,000	0,007	-0,083
-182,315	-136,108	0,139	-0,011
-181,300	800,000	-0,028	0,089
-180,285	-200,000	0,000	0,079
-179,271	-200,000	0,021	-0,089
-178,256	-200,000	0,008	-0,087
-177,242	-200,000	-0,002	-0,100
-176,227	44,484	0,024	-0,015
-175,212	569,523	0,045	0,078
-174,198	-40,514	0,034	0,012
-173,183	800,000	0,079	-0,194
-172,169	64,687	0,142	-0,102
-171,154	147,288	-0,163	-0,156
-170,139	139,015	0,109	0,102
-169,125	-200,000	0,000	0,119
-168,110	-200,000	0,002	0,034
-167,096	-200,000	0,025	0,134
-166,081	-15,962	-0,085	-0,038
-165,066	97,616	0,054	-0,044
-164,052	232,141	-0,041	0,047
-163,037	-12,701	0,149	-0,069
-162,023	120,567	0,089	0,079
-161,008	-200,000	0,007	-0,042
-159,993	-200,000	-0,030	0,223
-158,979	-26,541	0,023	-0,010
-157,964	555,804	-0,065	-0,111
-156,950	191,018	0,058	0,062
-155,935	242,789	0,036	0,043
-154,920	-188,725	0,146	-0,001
-153,906	800,000	0,015	-0,032
-152,891	800,000	0,039	-0,089
-151,877	-149,186	-0,063	-0,004
-150,862	-200,000	-0,027	0,091
-149,847	167,191	-0,051	0,051
-148,833	-200,000	0,034	-0,152
-147,818	-38,135	0,037	0,014
-146,804	-200,000	0,004	-0,028
-145,789	11,365	0,105	0,057
-144,775	88,749	0,112	-0,088
-143,760	-9,473	-0,191	-0,090
-142,745	800,000	-0,035	-0,092
-141,731	800,000	-0,035	-0,091
-140,716	774,278	-0,031	0,060
-139,702	-200,000	0,003	-0,048
-138,687	35,264	0,073	0,045
-137,672	181,739	0,133	0,139
-136,658	-11,278	-0,099	-0,046
-135,643	173,587	-0,136	-0,139
-134,629	-56,089	0,103	-0,032
-133,614	-120,787	0,094	-0,011
-132,599	-17,143	0,114	0,051
-131,585	800,000	-0,078	0,158
-130,570	127,688	0,062	0,056
-129,556	-127,558	-0,198	-0,020
-128,541	-82,524	-0,148	0,034
-127,526	190,085	0,038	0,040
-126,512	259,404	-0,041	0,051
-125,497	70,884	0,046	0,034
-124,483	800,000	0,043	0,093
-123,468	28,461	-0,182	-0,109
-122,453	4,511	0,150	0,078
-121,439	-200,000	0,014	-0,064
-120,424	-200,000	0,006	-0,035
-119,410	-184,416	0,089	0,001
-118,395	-200,000	-0,022	-0,155
-117,380	-37,472	0,078	0,029
-116,366	-200,000	0,011	0,063
-115,351	-70,433	0,078	-0,021
-114,337	-159,263	0,120	-0,005
-113,322	-74,435	-0,120	-0,030
-112,307	-200,000	0,010	0,091
-111,293	-186,363	0,025	0,000
-110,278	-200,000	0,022	0,123
-109,264	-14,096	-0,067	0,031
-108,249	246,964	0,027	0,032
-107,234	-173,577	0,118	-0,002
-106,220	18,918	0,040	0,023
-105,205	-81,942	0,097	-0,022
-104,191	25,828	0,101	0,059
-103,176	420,983	0,106	0,161
-102,162	-200,000	0,007	0,166
-101,147	-67,284	-0,092	-0,025
-100,132	448,358	-0,019	-0,029
-99,118	-81,067	-0,022	-0,005
-98,103	259,353	0,028	0,034
-97,089	181,358	-0,015	-0,015
-96,074	-200,000	0,016	0,084
-95,059	5,703	-0,031	-0,016
-94,045	-87,975	-0,074	0,016
-93,030	568,086	0,012	0,021
-92,016	38,086	-0,149	-0,094
-91,001	800,000	0,018	-0,042
-89,986	-30,773	0,057	-0,023
-88,972	-12,035	-0,054	-0,025
-87,957	-200,000	0,036	-0,114
-86,943	31,698	-0,080	-0,049
-85,928	-44,540	-0,067	-0,023
-84,913	664,415	-0,034	0,062
-83,899	-200,000	-0,032	0,105
-82,884	800,000	-0,021	0,043
-81,870	88,883	-0,111	0,088
-80,855	-93,962	0,134	0,026
-79,840	-200,000	-0,052	0,175
-78,826	-57,230	0,041	0,013
-77,811	215,336	-0,085	0,095
-76,797	800,000	-0,036	0,091
-75,782	-127,602	0,162	0,016
-74,767	-200,000	-0,038	-0,155
-73,753	263,155	-0,046	-0,056
-72,738	361,290	0,055	0,078
-71,724	206,508	0,122	-0,134
-70,709	-118,390	-0,130	-0,016
-69,694	124,400	-0,120	0,107
-68,680	-200,000	0,001	-0,046
-67,665	-4,140	0,091	0,044
-66,651	-170,211	0,161	0,004
-65,636	800,000	-0,027	-0,071
-64,622	-200,000	-0,010	0,076
-63,607	120,053	-0,158	-0,138
-62,592	456,863	0,055	-0,087
-61,578	-200,000	0,039	0,149
-60,563	242,439	-0,051	-0,060
-59,549	740,590	0,093	0,177
-58,534	22,084	-2,082	-1,196
-57,519	430,331	-1,259	-1,929
-56,505	-200,000	-0,356	-4,415
-55,490	483,566	1,022	1,647
-54,476	800,000	5,029	11,114
-53,461	-200,000	21,783	343,304
-52,446	800,000	763,137	2348,825
-51,432	549,199	1662,113	2822,289
-50,417	71,794	1657,879	1215,095
-49,403	17,374	1531,201	855,747
-48,388	11,361	1455,299	784,289
-47,373	19,362	1446,786	817,998
-46,359	14,898	1435,978	790,667
-45,344	9,629	1431,883	763,332
-44,330	9,596	1429,850	762,061
-43,315	9,594	1428,126	761,103
-42,300	9,626	1426,289	760,244
-41,286	9,620	1424,942	759,467
-40,271	9,540	1423,933	758,518
-39,257	9,656	1422,544	758,298
-38,242	9,638	1421,473	757,613
-37,227	9,623	1420,425	756,953
-36,213	9,650	1419,261	756,429
-35,198	9,612	1418,122	755,613
-34,184	9,649	1417,037	755,179
-33,169	9,546	1415,670	753,939
-32,154	9,635	1414,576	753,744
-31,140	9,607	1413,591	753,057
-30,125	9,646	1412,310	752,528
-29,111	9,611	1411,096	751,685
-28,096	9,617	1410,019	751,114
-27,082	9,580	1408,608	750,157
-26,067	9,547	1407,747	749,513
-25,052	9,604	1406,549	749,113
-24,038	9,608	1405,716	748,660
-23,023	9,597	1404,777	748,075
-22,009	9,555	1403,718	747,288
-20,994	9,595	1402,545	746,820
-19,979	9,613	1401,685	746,416
-18,965	9,571	1400,896	745,772
-17,950	9,528	1400,013	745,073
-16,936	9,510	1399,176	744,512
-15,921	9,462	1398,277	743,782
-14,906	9,432	1397,343	743,113
-13,892	9,522	1396,216	742,906
-12,877	9,537	1395,311	742,465
-11,863	9,480	1394,805	741,899
-10,848	9,452	1393,748	741,180
-9,833	9,476	1392,647	740,676
-8,819	9,382	1392,013	739,871
-7,804	9,362	1391,125	739,279
-6,790	9,369	1390,233	738,807
-5,775	9,351	1388,998	738,039
-4,760	9,414	1388,001	737,770
-3,746	9,429	1387,012	737,286
-2,731	9,393	1386,211	736,665
-1,717	9,403	1385,345	736,220
-0,702	9,328	1383,876	735,065
0,313	13,396	1296,046	706,973
1,327	29,318	686,995	410,698
2,342	45,557	118,586	77,105
3,356	0,696	16,460	8,279
4,371	4,293	3,569	1,838
5,386	-11,708	1,083	0,500
6,400	559,527	0,318	0,544
7,415	-102,377	-0,133	-0,022
8,429	51,427	-0,221	-0,148
9,444	-50,841	-0,331	-0,109
10,459	39,134	-0,261	-0,164
11,473	106,070	-0,243	-0,203
12,488	-94,354	-0,238	-0,045
13,502	44,565	-0,306	-0,198
14,517	225,994	-0,227	-0,260
15,531	48,540	-0,389	-0,256
16,546	29,191	-0,329	-0,196
17,561	212,348	-0,322	-0,359
18,575	-48,646	-0,218	-0,073
19,590	67,417	-0,374	-0,269
20,604	-41,951	-0,207	-0,074
21,619	-42,575	-0,498	-0,178
22,634	167,210	-0,443	-0,443
23,648	223,446	-0,366	-0,416
24,663	-22,197	-0,390	-0,166
25,677	68,027	-0,278	-0,200
26,692	26,169	-0,286	-0,168
27,707	112,147	-0,308	-0,262
28,721	7,859	-0,397	-0,209
29,736	67,010	-0,409	-0,293
30,750	5,864	-0,501	-0,260
31,765	103,333	-0,388	-0,320
32,780	437,305	-0,271	-0,417
33,794	188,819	-0,289	-0,305
34,809	-200,000	-0,092	-0,290
35,823	145,041	-0,362	-0,341
36,838	145,605	-0,298	-0,280
37,853	122,994	-0,315	-0,277
38,867	23,494	-0,452	-0,261
39,882	6,847	-0,435	-0,227
40,896	181,662	-0,291	-0,301
41,911	-35,366	-0,338	-0,129
42,926	154,219	-0,235	-0,227
43,940	48,332	-0,416	-0,273
44,955	43,807	-0,399	-0,257
45,969	58,992	-0,388	-0,268
46,984	11,300	-0,346	-0,185
47,999	61,577	-0,311	-0,217
49,013	86,072	-0,281	-0,217
50,028	702,024	-0,081	-0,150
51,042	137,904	-0,265	-0,244
52,057	268,519	-0,253	-0,313
53,071	124,712	-0,312	-0,276
54,086	407,278	-0,165	-0,245
55,101	340,256	-0,228	-0,313
56,115	-3,514	-0,251	-0,122
57,130	77,644	-0,286	-0,214
58,144	164,864	-0,332	-0,329
59,159	113,872	-0,491	-0,419
60,174	29,677	-0,292	-0,174
61,188	-131,654	-0,445	-0,040
62,203	61,117	-0,256	-0,178
63,217	66,436	-0,259	-0,184
64,232	-58,770	-0,244	-0,074
65,247	230,773	-0,263	-0,303
66,261	11,525	-0,407	-0,218
67,276	48,976	-0,355	-0,233
68,290	17,433	-0,380	-0,211
69,305	109,034	-0,350	-0,293
70,320	-40,829	-0,176	-0,064
71,334	-30,073	-0,380	-0,151
72,349	-112,935	-0,344	-0,047
73,363	23,557	-0,273	-0,157
74,378	210,268	-0,283	-0,312
75,393	49,189	-0,349	-0,230
76,407	-31,178	-0,278	-0,109
77,422	34,423	-0,232	-0,142
78,436	-140,717	-0,308	0,022
79,451	97,296	-0,313	-0,252
80,466	28,549	-0,352	-0,208
81,480	101,681	-0,220	-0,179
82,495	-128,213	-0,299	-0,030
83,509	-14,169	-0,330	-0,149
84,524	125,550	-0,269	-0,238
85,539	156,019	-0,225	-0,218
86,553	-32,515	-0,290	-0,112
87,568	77,816	-0,349	-0,260
88,582	177,744	-0,259	-0,264
89,597	-59,768	-0,205	-0,061
90,611	-141,879	-0,217	0,015
91,626	549,696	-0,217	-0,365
92,641	-9,399	-0,374	-0,174
93,655	-187,135	-0,286	-0,003
94,670	87,446	-0,443	-0,343
95,684	103,591	-0,328	-0,269
96,699	60,639	-0,435	-0,301
97,714	147,967	-0,395	-0,372
98,728	29,633	-0,238	-0,142
99,743	-86,222	-0,179	-0,038
100,757	-43,063	-0,247	-0,087
101,772	204,459	-0,243	-0,263
102,787	-57,713	-0,359	-0,109
103,801	22,298	-0,438	-0,249
104,816	-109,153	-0,213	-0,031
105,830	13,848	-0,284	-0,154
106,845	-62,551	-0,257	-0,074
107,860	-200,000	-0,334	0,001
108,874	190,128	-0,234	-0,246
109,889	-0,118	-0,389	-0,193
110,903	399,307	-0,230	-0,337
111,918	195,845	-0,165	-0,175
112,933	-1,061	-0,160	-0,079
113,947	28,777	-0,300	-0,177
114,962	14,055	-0,233	-0,127
115,976	127,034	-0,275	-0,243
116,991	418,137	-0,179	-0,269
118,006	28,209	-0,267	-0,157
119,020	-15,786	-0,304	-0,135
120,035	-12,080	-0,189	-0,086
121,049	120,043	-0,299	-0,259
122,064	85,370	-0,196	-0,150
123,079	-26,413	-0,208	-0,085
124,093	206,232	-0,211	-0,229
125,108	8,781	-0,417	-0,219
126,122	-21,673	-0,197	-0,083
127,137	262,896	-0,156	-0,190
128,151	32,499	-0,259	-0,156
129,166	72,722	-0,225	-0,164
130,181	178,960	-0,160	-0,163
131,195	137,261	-0,300	-0,274
132,210	90,867	-0,223	-0,174
133,224	25,732	-0,226	-0,131
134,239	4,936	-0,132	-0,067
135,254	-200,000	-0,044	-0,233
136,268	176,276	-0,191	-0,194
137,283	-58,274	-0,376	-0,113
138,297	133,431	-0,269	-0,242
139,312	-17,986	-0,287	-0,125
140,327	-52,293	-0,259	-0,083
141,341	153,665	-0,279	-0,267
142,356	103,970	-0,301	-0,246
143,370	-1,554	-0,098	-0,048
144,385	272,274	-0,179	-0,220
145,400	136,579	-0,204	-0,185
146,414	16,176	-0,287	-0,157
147,429	-31,419	-0,225	-0,088
148,443	151,376	-0,254	-0,241
149,458	-84,901	-0,338	-0,073
150,473	503,650	-0,077	-0,124
151,487	58,947	-0,296	-0,202
152,502	599,991	-0,109	-0,189
153,516	3,795	-0,280	-0,142
154,531	209,485	-0,242	-0,264
155,546	-11,848	-0,254	-0,115
156,560	800,000	-0,111	-0,225
157,575	64,271	-0,077	0,054
158,589	166,248	-0,167	-0,165
159,604	147,156	-0,234	-0,219
160,619	353,439	-0,205	-0,284
161,633	358,022	-0,157	-0,218
162,648	93,845	-0,240	-0,189
163,662	5,959	-0,243	-0,125
164,677	140,561	-0,275	-0,252
165,692	-38,439	-0,214	-0,078
166,706	-62,792	-0,212	-0,061
167,721	466,709	-0,233	-0,364
168,735	511,423	-0,165	-0,268
169,750	-28,350	-0,176	-0,070
170,764	-160,401	-0,192	0,007
171,779	104,146	-0,207	-0,169
172,794	434,468	-0,073	-0,111
173,808	209,833	-0,162	-0,177
174,823	-46,587	-0,274	-0,093
175,837	131,862	-0,155	-0,138
176,852	323,173	-0,163	-0,216
177,867	796,580	-0,168	-0,323
178,881	740,187	-0,068	-0,127
179,896	26,401	-0,205	-0,118
180,910	203,605	-0,240	-0,258
181,925	-62,834	-0,365	-0,104
182,940	94,534	-0,193	-0,153
183,954	-10,529	-0,270	-0,123
184,969	216,385	-0,167	-0,184
185,983	375,364	-0,182	-0,259
186,998	-3,438	-0,132	-0,063
188,013	194,389	-0,103	-0,109
189,027	17,239	-0,324	-0,178
190,042	108,767	-0,170	-0,141
191,056	126,175	-0,261	-0,229
192,071	34,617	-0,261	-0,158
193,086	248,248	-0,137	-0,162
194,100	23,668	-0,195	-0,111
195,115	83,543	-0,219	-0,165
196,129	267,537	-0,191	-0,233
197,144	77,376	-0,211	-0,156
198,159	-22,017	-0,219	-0,092
199,173	187,520	-0,153	-0,158
200,188	283,960	-0,204	-0,255
201,202	90,546	-0,148	-0,115
202,217	-71,523	-0,213	0,055
203,232	606,996	-0,069	-0,119
204,246	132,687	-0,159	-0,142
205,261	134,429	-0,209	-0,188
206,275	279,628	-0,119	-0,147
207,290	-98,536	-0,256	-0,045
208,304	-33,877	-0,212	-0,080
209,319	274,325	-0,119	-0,146
210,334	-65,278	-0,199	-0,055
211,348	21,935	-0,219	-0,123
212,363	229,553	-0,157	-0,178
213,377	32,854	-0,242	-0,145
214,392	601,839	-0,099	-0,171
215,407	-2,935	-0,162	-0,078
216,421	67,898	-0,177	-0,125
217,436	-1,702	-0,195	-0,095
218,450	221,735	-0,206	-0,230
219,465	69,816	-0,224	-0,159
220,480	-85,682	-0,102	0,022
221,494	17,820	-0,175	-0,096
222,509	307,786	-0,050	-0,065
223,523	93,706	-0,103	-0,081
224,538	147,239	-0,266	-0,248
225,553	75,067	-0,261	-0,190
226,567	40,802	-0,195	-0,122
227,582	-40,745	-0,203	-0,072
228,596	-17,846	-0,101	-0,044
229,611	191,932	-0,081	-0,084
230,626	-18,012	-0,209	-0,090
231,640	-61,503	-0,207	-0,060
232,655	466,396	-0,139	-0,216
233,669	167,924	-0,157	-0,154
234,684	-200,000	0,015	-0,051
235,699	-108,190	-0,176	-0,026
236,713	359,088	-0,162	-0,224
237,728	53,368	-0,109	-0,072
238,742	-88,229	-0,181	-0,037
239,757	-52,321	-0,110	-0,035
240,772	243,129	-0,129	-0,150
241,786	103,334	-0,271	-0,219
242,801	63,173	-0,103	0,071
243,815	-84,281	-0,165	-0,036
244,830	-12,129	-0,185	-0,083
245,844	-109,170	-0,172	-0,025
246,859	69,296	-0,197	-0,139
247,874	-13,887	-0,222	-0,098
248,888	-29,764	-0,272	-0,106
249,903	-68,249	-0,208	-0,055
250,917	125,303	-0,150	-0,131
251,932	-87,296	-0,236	-0,049
252,947	-122,756	-0,103	0,011
253,961	47,423	-0,219	-0,141
254,976	65,118	-0,152	-0,106
255,990	800,000	-0,167	-0,338
257,005	-200,000	-0,019	-0,087
258,020	-200,000	-0,060	-0,241
259,034	-94,803	-0,158	-0,029
260,049	-182,309	-0,170	-0,002
261,063	53,826	-0,149	-0,099
262,078	43,513	-0,232	-0,146
263,093	-100,749	-0,315	-0,053
264,107	-200,000	-0,053	-0,164
265,122	105,560	-0,207	-0,168
266,136	-200,000	0,012	-0,250
267,151	-13,501	-0,090	-0,040
268,166	471,657	-0,108	-0,168
269,180	421,841	-0,153	-0,227
270,195	133,679	-0,161	-0,144
271,209	-44,239	-0,157	-0,054
272,224	395,874	-0,142	-0,204
273,239	137,667	-0,164	-0,148
274,253	-88,746	-0,071	-0,014
275,268	-13,825	-0,149	-0,066
276,282	10,972	-0,147	-0,077
277,297	-200,000	-0,056	-0,202
278,312	9,140	-0,126	-0,065
279,326	127,840	-0,174	-0,152
280,341	-28,794	-0,194	-0,076
281,355	-23,233	-0,116	-0,048
282,370	-200,000	-0,040	-0,157
283,384	336,308	-0,157	-0,210
284,399	-18,416	-0,205	-0,088
285,414	-62,233	-0,201	-0,057
286,428	-39,085	-0,215	-0,077
287,443	712,438	-0,018	-0,032
288,457	-200,000	-0,159	-0,001
289,472	-76,919	-0,129	0,031
290,487	-200,000	0,026	-0,188
291,501	-138,464	-0,192	-0,014
292,516	-65,855	-0,201	-0,055
293,530	17,172	-0,205	-0,112
294,545	174,993	-0,088	-0,087
295,560	800,000	-0,069	-0,139
296,574	-140,421	-0,089	0,006
297,589	86,109	-0,130	-0,098
298,603	800,000	-0,072	-0,212
299,618	-111,740	-0,160	-0,022
300,633	266,301	-0,126	-0,151
301,647	-200,000	0,003	-0,017
302,662	800,000	-0,073	-0,142
303,676	-16,497	-0,096	-0,042
304,691	647,680	-0,020	-0,035
305,706	348,263	-0,156	-0,212
306,720	89,837	-0,177	-0,136
307,735	385,469	-0,092	-0,131
308,749	800,000	-0,043	-0,096
309,764	800,000	-0,039	-0,107
310,779	-152,635	-0,127	-0,006
311,793	-97,350	-0,119	0,021
312,808	-0,330	-0,153	-0,074
313,822	629,155	-0,092	-0,160
314,837	-23,391	-0,104	-0,043
315,852	-55,679	-0,116	-0,035
316,866	-22,248	-0,122	0,051
317,881	181,684	-0,048	-0,049
318,895	-113,202	-0,150	0,020
319,910	406,340	-0,147	-0,213
320,925	224,265	-0,125	-0,139
321,939	-33,827	-0,111	-0,042
322,954	274,202	-0,082	-0,100
323,968	159,975	-0,093	-0,089
324,983	-56,467	0,117	-0,035
325,997	159,712	-0,184	-0,175
327,012	132,043	-0,124	-0,109
328,027	272,782	-0,120	-0,145
329,041	-200,000	-0,016	-0,199
330,056	-78,617	-0,184	-0,043
331,070	262,054	-0,149	-0,178
332,085	-80,879	-0,154	0,035
333,100	480,721	-0,045	-0,070
334,114	42,708	-0,153	-0,095
335,129	575,362	-0,072	-0,121
336,143	106,376	-0,108	-0,087
337,158	14,050	-0,068	-0,036
338,173	-200,000	-0,003	-0,027
339,187	-101,162	-0,177	-0,029
340,202	-129,584	-0,088	-0,008
341,216	-6,204	-0,247	-0,115
342,231	34,075	-0,243	-0,145
343,246	100,950	-0,198	-0,157
344,260	-64,971	-0,079	0,022
345,275	-4,607	-0,152	-0,072
346,289	-51,823	-0,213	-0,067
347,304	88,113	-0,165	-0,125
348,319	447,498	-0,093	-0,141
349,333	74,416	-0,173	-0,124
350,348	-22,118	-0,143	-0,059
351,362	-92,783	-0,110	0,021
352,377	-151,229	-0,117	-0,006
353,392	-200,000	-0,000	0,012
354,406	217,524	-0,091	-0,100
355,421	207,204	1307,138	1395,711
356,435	159,390	1466,909	1396,199
