DTS Sentinel unit serial number:	SN410029Multiplexer serial number:	ORYXHardware model number:	OX2-SRSoftware version number:	ORYX F/W v4,00 Oryx Data Collector v3.7.2.0data status	okinstallation	B3 Nyhavnadifferential loss correction	single-endedforward channel	channel 1reverse channel	N/Adate	2023/12/02time	05:47:30forward acquisition time	300,00reverse acquisition time	0,00gamma	499,1914k internal	0,3194k external	0,3194temperature offset calibration	1,0000default loss term (dB/km)	0,3820temperature slope calibration	1,0000multiplexer offset coefficient	1,0000multiplexer slope coefficient	1,0000fibre end	0,00T internal ref (°C)	16,16T ext. ref 1 (°C)	0,95T ext. ref 2 (°C)	0,93length (m)	temperature (°C)	Stokes	anti-Stokes-744,400	-43,659	-0,278	-0,102
-743,385	800,000	0,079	0,238
-742,371	491,837	-0,201	-0,337
-741,356	800,000	0,111	0,279
-740,342	118,571	-0,161	-0,144
-739,327	-200,000	0,028	0,206
-738,312	167,474	-0,190	-0,197
-737,298	-200,000	-0,097	0,360
-736,283	417,187	-0,095	-0,148
-735,269	-200,000	0,122	0,402
-734,254	-91,523	-0,210	-0,043
-733,239	328,603	-0,161	0,226
-732,225	800,000	-0,113	-0,274
-731,210	646,629	0,108	0,202
-730,196	-200,000	0,009	-0,068
-729,181	12,524	0,056	0,031
-728,167	196,254	0,051	0,056
-727,152	47,524	-0,124	0,084
-726,137	78,379	-0,131	-0,102
-725,123	77,081	-0,082	-0,063
-724,108	161,808	-0,100	-0,102
-723,094	-120,802	-0,110	0,013
-722,079	800,000	0,059	0,158
-721,064	-200,000	0,006	-0,066
-720,050	-200,000	0,018	0,115
-719,035	-115,568	0,092	0,012
-718,021	37,056	0,055	0,035
-717,006	27,774	-0,075	-0,046
-715,991	-97,806	-0,143	0,027
-714,977	-64,578	-0,151	-0,044
-713,962	360,126	0,061	-0,089
-712,948	-97,826	-0,021	-0,004
-711,933	-200,000	-0,008	0,055
-710,918	95,058	-0,116	0,096
-709,904	-200,000	-0,039	-0,131
-708,889	42,742	0,117	-0,077
-707,875	166,952	-0,039	-0,040
-706,860	412,467	0,046	-0,071
-705,845	-80,954	-0,037	0,009
-704,831	97,658	-0,035	-0,029
-703,816	-81,736	0,124	0,029
-702,802	-101,176	-0,035	0,006
-701,787	102,740	0,074	0,063
-700,772	169,797	-0,059	0,062
-699,758	-200,000	0,016	0,051
-698,743	-200,000	-0,033	0,185
-697,729	554,760	-0,029	0,051
-696,714	32,398	0,086	0,054
-695,699	-82,812	-0,091	0,021
-694,685	-54,747	-0,083	-0,027
-693,670	24,360	0,133	0,080
-692,656	-10,234	-0,080	0,038
-691,641	-99,154	0,143	-0,026
-690,627	10,902	-0,089	0,049
-689,612	-82,667	0,049	0,011
-688,597	-200,000	0,021	0,070
-687,583	259,296	-0,078	-0,098
-686,568	108,285	0,030	-0,026
-685,554	800,000	-0,038	0,079
-684,539	-28,669	0,018	0,008
-683,524	-200,000	0,024	0,155
-682,510	-200,000	0,005	0,057
-681,495	-16,613	0,108	-0,049
-680,481	172,815	-0,093	-0,098
-679,466	23,654	-0,013	-0,008
-678,451	-200,000	0,019	-0,264
-677,437	89,488	-0,090	0,073
-676,422	31,367	0,092	0,057
-675,408	-200,000	-0,009	0,046
-674,393	-107,382	-0,119	0,019
-673,378	-26,889	-0,035	0,015
-672,364	-159,709	-0,040	-0,002
-671,349	800,000	-0,046	0,124
-670,335	-57,547	-0,040	-0,013
-669,320	508,129	0,010	0,017
-668,305	74,428	0,039	-0,029
-667,291	800,000	-0,028	0,071
-666,276	800,000	-0,033	-0,101
-665,262	-200,000	-0,016	-0,148
-664,247	87,891	-0,132	-0,106
-663,232	189,571	0,054	-0,058
-662,218	467,583	0,022	0,036
-661,203	-112,993	0,095	-0,014
-660,189	745,898	0,078	0,152
-659,174	-200,000	0,016	-0,095
-658,159	-93,532	0,089	-0,018
-657,145	-23,442	0,035	0,015
-656,130	-71,742	-0,142	-0,038
-655,116	800,000	-0,058	0,137
-654,101	-200,000	0,032	0,211
-653,086	512,543	0,060	0,102
-652,072	-200,000	-0,024	0,091
-651,057	800,000	0,057	0,115
-650,043	-88,638	-0,129	0,028
-649,028	800,000	-0,037	0,116
-648,014	4,795	0,095	0,051
-646,999	303,894	0,046	0,062
-645,984	-23,056	0,121	-0,053
-644,970	187,982	-0,068	0,074
-643,955	800,000	-0,019	0,052
-642,941	2,665	-0,082	-0,043
-641,926	-200,000	-0,017	0,089
-640,911	778,604	0,047	-0,094
-639,897	800,000	0,014	0,036
-638,882	-200,000	-0,020	-0,095
-637,868	90,335	-0,085	-0,069
-636,853	-171,624	-0,159	-0,004
-635,838	-200,000	-0,009	0,127
-634,824	-200,000	-0,015	-0,079
-633,809	219,380	-0,016	-0,019
-632,795	451,948	-0,073	0,118
-631,780	-200,000	0,001	0,041
-630,765	-0,518	-0,079	-0,040
-629,751	61,498	-0,158	-0,114
-628,736	-135,706	0,134	0,011
-627,722	429,745	-0,123	-0,193
-626,707	-200,000	-0,029	-0,122
-625,692	435,022	0,090	0,143
-624,678	-200,000	-0,034	-0,120
-623,663	-45,781	-0,091	0,032
-622,649	-98,851	-0,035	-0,006
-621,634	-200,000	-0,035	0,129
-620,619	-200,000	0,013	0,071
-619,605	33,768	0,199	0,125
-618,590	-3,407	0,092	-0,046
-617,576	-200,000	0,026	0,082
-616,561	-70,417	0,020	-0,005
-615,546	-123,246	-0,176	0,020
-614,532	-29,518	-0,105	-0,043
-613,517	800,000	-0,014	-0,039
-612,503	185,349	-0,031	-0,033
-611,488	273,420	-0,075	-0,097
-610,474	42,302	-0,072	0,047
-609,459	-200,000	-0,018	0,084
-608,444	132,962	-0,085	-0,080
-607,430	126,092	0,016	-0,015
-606,415	-200,000	-0,029	0,246
-605,401	204,109	0,028	-0,032
-604,386	-200,000	-0,019	0,075
-603,371	-124,763	0,152	0,017
-602,357	-55,376	0,070	0,023
-601,342	-129,877	-0,105	-0,010
-600,328	331,576	-0,017	-0,024
-599,313	800,000	0,072	-0,223
-598,298	800,000	-0,061	-0,193
-597,284	288,928	-0,022	-0,029
-596,269	14,129	0,046	0,026
-595,255	-84,802	0,073	0,017
-594,240	113,110	0,083	0,073
-593,225	-133,004	-0,080	0,007
-592,211	800,000	0,035	-0,099
-591,196	66,199	0,089	-0,066
-590,182	588,714	-0,012	0,021
-589,167	800,000	-0,037	-0,100
-588,152	-200,000	0,013	-0,044
-587,138	82,255	-0,024	0,019
-586,123	-200,000	-0,047	-0,155
-585,109	51,461	-0,063	-0,043
-584,094	-85,737	-0,052	-0,012
-583,079	-20,030	-0,106	0,047
-582,065	5,770	0,077	0,041
-581,050	-200,000	-0,001	0,076
-580,036	-172,358	-0,055	-0,001
-579,021	334,613	-0,023	0,032
-578,006	319,686	-0,022	-0,030
-576,992	800,000	0,029	-0,061
-575,977	24,885	-0,095	-0,057
-574,963	-200,000	-0,003	0,080
-573,948	-124,747	-0,063	-0,007
-572,934	800,000	-0,023	0,054
-571,919	-17,054	-0,103	-0,047
-570,904	-200,000	-0,014	-0,156
-569,890	188,251	-0,029	-0,031
-568,875	148,240	-0,012	-0,011
-567,861	-24,633	-0,039	0,017
-566,846	-106,892	-0,102	0,016
-565,831	-200,000	0,026	-0,098
-564,817	-34,618	0,051	-0,020
-563,802	359,446	0,069	0,100
-562,788	170,788	0,012	0,013
-561,773	-54,151	0,074	-0,024
-560,758	-200,000	-0,030	0,152
-559,744	95,574	0,064	0,053
-558,729	800,000	0,039	0,087
-557,715	800,000	-0,015	-0,039
-556,700	151,186	-0,076	-0,075
-555,685	84,604	0,098	-0,077
-554,671	-41,130	0,107	-0,040
-553,656	-175,189	-0,180	-0,004
-552,642	-121,720	0,170	0,020
-551,627	43,751	0,096	0,063
-550,612	-200,000	-0,016	-0,149
-549,598	74,342	0,058	0,044
-548,583	-200,000	-0,025	-0,189
-547,569	19,306	0,115	0,067
-546,554	-91,800	-0,020	0,004
-545,539	37,364	0,137	0,088
-544,525	-75,212	0,059	-0,015
-543,510	200,527	-0,083	0,092
-542,496	-118,442	-0,111	-0,014
-541,481	-119,703	-0,060	-0,007
-540,466	800,000	-0,064	-0,135
-539,452	-200,000	0,008	0,028
-538,437	-200,000	0,011	0,064
-537,423	318,388	0,048	0,066
-536,408	800,000	-0,057	0,153
-535,393	-130,037	-0,070	-0,007
-534,379	800,000	0,037	0,100
-533,364	211,403	0,086	-0,098
-532,350	-155,710	0,058	-0,003
-531,335	248,387	0,064	-0,078
-530,321	96,475	0,053	0,044
-529,306	30,112	0,027	-0,017
-528,291	691,524	-0,019	-0,036
-527,277	-13,223	-0,126	-0,059
-526,262	800,000	0,036	0,080
-525,248	209,011	-0,073	0,083
-524,233	-200,000	-0,003	0,058
-523,218	-12,043	-0,119	-0,056
-522,204	648,821	0,052	-0,097
-521,189	290,519	-0,125	-0,165
-520,175	9,773	-0,164	-0,090
-519,160	751,988	0,042	-0,083
-518,145	-121,124	0,006	0,001
-517,131	-48,455	-0,064	-0,022
-516,116	-200,000	0,012	0,045
-515,102	-50,143	0,079	0,027
-514,087	36,919	-0,115	0,073
-513,072	59,358	-0,130	-0,092
-512,058	261,427	-0,078	-0,098
-511,043	-75,223	-0,083	-0,021
-510,029	-171,589	0,095	0,002
-509,014	-70,594	-0,143	0,039
-507,999	-162,773	-0,061	-0,002
-506,985	-32,573	0,064	0,026
-505,970	59,872	-0,119	-0,085
-504,956	800,000	0,085	-0,182
-503,941	800,000	0,022	0,056
-502,926	757,035	-0,073	0,144
-501,912	121,549	0,130	0,117
-500,897	297,867	-0,071	0,095
-499,883	575,899	-0,027	0,047
-498,868	751,322	-0,073	-0,144
-497,853	-42,076	0,047	-0,017
-496,839	-200,000	0,035	0,147
-495,824	-141,099	0,180	-0,013
-494,810	452,469	0,038	-0,062
-493,795	800,000	0,029	0,082
-492,781	608,355	-0,026	0,048
-491,766	113,385	-0,032	0,028
-490,751	-61,854	0,071	-0,021
-489,737	-74,258	-0,225	0,058
-488,722	-200,000	-0,020	-0,077
-487,708	-53,130	0,187	-0,062
-486,693	-200,000	-0,015	0,161
-485,678	800,000	-0,056	0,170
-484,664	29,883	0,000	-0,000
-483,649	8,827	0,085	-0,046
-482,635	94,044	0,115	0,094
-481,620	773,694	-0,040	0,079
-480,605	183,692	-0,098	0,105
-479,591	-200,000	0,006	0,031
-478,576	-46,528	-0,035	-0,012
-477,562	-200,000	-0,017	-0,081
-476,547	-31,327	-0,040	-0,016
-475,532	3,763	0,058	0,030
-474,518	18,735	-0,062	-0,036
-473,503	134,385	0,056	0,053
-472,489	800,000	-0,023	-0,055
-471,474	148,197	0,135	0,131
-470,459	-75,452	0,067	0,017
-469,445	-200,000	-0,012	-0,119
-468,430	-200,000	0,063	-0,235
-467,416	-200,000	0,020	-0,093
-466,401	-200,000	0,008	-0,175
-465,386	-123,239	0,085	0,010
-464,372	433,913	0,031	-0,048
-463,357	413,612	-0,030	-0,046
-462,343	-51,603	0,026	0,009
-461,328	800,000	0,046	-0,095
-460,313	88,868	0,080	0,064
-459,299	800,000	0,030	-0,081
-458,284	-6,746	0,098	0,048
-457,270	34,302	0,089	-0,056
-456,255	-121,310	0,114	0,014
-455,241	550,760	-0,064	-0,110
-454,226	-200,000	0,024	-0,133
-453,211	800,000	-0,033	-0,090
-452,197	-42,538	0,042	-0,015
-451,182	-200,000	0,029	0,202
-450,168	-200,000	-0,008	0,213
-449,153	-31,934	-0,045	0,018
-448,138	-153,088	-0,170	-0,008
-447,124	553,789	-0,076	-0,132
-446,109	-200,000	0,010	-0,033
-445,095	-76,121	-0,054	0,014
-444,080	14,672	0,112	-0,063
-443,065	62,107	-0,036	0,026
-442,051	-200,000	-0,011	-0,054
-441,036	-200,000	-0,017	-0,070
-440,022	-81,755	0,062	0,014
-439,007	800,000	0,013	0,039
-437,992	-200,000	-0,031	0,128
-436,978	166,536	-0,013	-0,013
-435,963	605,883	0,064	0,115
-434,949	378,746	-0,045	-0,066
-433,934	-200,000	0,007	-0,024
-432,919	-3,068	-0,077	-0,038
-431,905	800,000	0,049	-0,121
-430,890	-103,812	0,020	-0,003
-429,876	-200,000	-0,008	0,027
-428,861	-200,000	-0,040	0,200
-427,846	-40,256	-0,113	-0,042
-426,832	343,020	0,003	0,004
-425,817	213,809	-0,080	-0,091
-424,803	432,510	0,029	0,045
-423,788	412,257	-0,026	-0,040
-422,773	-134,191	0,141	0,012
-421,759	528,969	0,041	-0,069
-420,744	203,002	-0,081	0,090
-419,730	-200,000	-0,024	-0,085
-418,715	405,752	-0,024	-0,036
-417,701	800,000	-0,025	0,068
-416,686	6,852	0,052	0,028
-415,671	800,000	-0,064	0,135
-414,657	82,591	0,079	-0,062
-413,642	-82,003	0,005	-0,001
-412,628	182,919	-0,088	-0,094
-411,613	149,788	-0,134	-0,131
-410,598	-110,094	-0,120	-0,018
-409,584	768,446	0,071	0,140
-408,569	-200,000	0,021	0,104
-407,555	800,000	0,020	-0,044
-406,540	-23,384	-0,086	0,037
-405,525	800,000	-0,026	0,055
-404,511	87,781	0,068	-0,054
-403,496	102,276	-0,110	0,093
-402,482	50,357	0,197	0,134
-401,467	-99,173	-0,053	-0,010
-400,452	-175,431	0,031	-0,001
-399,438	-83,585	0,059	0,013
-398,423	55,913	-0,109	0,076
-397,409	800,000	0,041	-0,129
-396,394	157,064	-0,052	-0,051
-395,379	125,043	-0,094	-0,086
-394,365	-76,470	0,064	-0,016
-393,350	800,000	-0,034	0,074
-392,336	-25,905	0,132	0,055
-391,321	74,647	-0,073	0,055
-390,306	-200,000	-0,011	0,082
-389,292	-130,556	-0,036	-0,003
-388,277	-200,000	0,014	0,120
-387,263	-80,661	0,055	0,013
-386,248	260,351	-0,021	0,026
-385,233	-70,062	0,052	-0,014
-384,219	-200,000	-0,013	-0,128
-383,204	-54,622	0,028	-0,009
-382,190	-8,941	-0,032	0,015
-381,175	-200,000	0,010	-0,120
-380,160	-54,406	-0,090	0,029
-379,146	-200,000	0,026	0,117
-378,131	343,361	-0,066	-0,093
-377,117	-200,000	0,010	-0,055
-376,102	92,134	-0,133	-0,108
-375,088	9,186	-0,024	0,013
-374,073	-200,000	0,010	0,054
-373,058	-200,000	-0,016	-0,199
-372,044	-83,462	0,021	-0,005
-371,029	15,184	-0,136	0,077
-370,015	-182,746	0,055	0,001
-369,000	-68,103	0,076	0,021
-367,985	-126,021	-0,175	0,019
-366,971	285,277	-0,073	0,095
-365,956	-200,000	0,011	0,101
-364,942	-73,086	0,101	0,026
-363,927	-200,000	0,028	-0,111
-362,912	595,347	-0,086	0,154
-361,898	-200,000	-0,001	0,022
-360,883	-189,797	-0,116	-0,001
-359,869	-200,000	-0,009	-0,080
-358,854	800,000	-0,048	-0,132
-357,839	400,980	0,067	0,101
-356,825	144,812	0,057	0,055
-355,810	-200,000	-0,025	-0,112
-354,796	72,907	0,076	-0,057
-353,781	-80,066	-0,099	-0,024
-352,766	800,000	-0,065	-0,134
-351,752	-200,000	0,010	-0,085
-350,737	-31,591	0,093	-0,037
-349,723	-95,200	0,114	0,022
-348,708	800,000	-0,033	0,076
-347,693	-21,232	-0,115	-0,050
-346,679	-185,326	-0,116	-0,001
-345,664	629,516	0,028	-0,052
-344,650	534,355	0,054	0,092
-343,635	800,000	-0,029	-0,082
-342,620	-79,231	0,208	0,050
-341,606	427,712	-0,022	0,034
-340,591	180,679	-0,123	0,129
-339,577	-141,648	0,125	0,009
-338,562	800,000	-0,046	0,096
-337,548	347,687	0,040	0,057
-336,533	-164,911	0,043	0,001
-335,518	-200,000	0,037	-0,120
-334,504	-188,854	0,185	-0,002
-333,489	31,595	-0,119	0,073
-332,475	-2,212	-0,173	-0,087
-331,460	306,835	-0,078	0,104
-330,445	-154,734	0,073	0,003
-329,431	372,143	-0,038	-0,056
-328,416	588,428	-0,053	0,095
-327,402	-34,724	0,181	0,070
-326,387	140,143	0,046	-0,044
-325,372	-46,344	0,022	-0,008
-324,358	231,992	0,054	0,064
-323,343	800,000	0,034	-0,096
-322,329	-70,406	-0,039	-0,011
-321,314	-88,477	-0,120	0,026
-320,299	-93,354	0,151	0,030
-319,285	-8,777	-0,114	0,054
-318,270	-200,000	-0,004	0,074
-317,256	49,495	0,074	-0,050
-316,241	-23,400	-0,135	0,058
-315,226	458,653	-0,035	0,055
-314,212	190,154	0,131	0,141
-313,197	-200,000	0,006	0,067
-312,183	-124,768	0,055	-0,006
-311,168	-89,021	0,040	0,008
-310,153	-200,000	-0,003	-0,066
-309,139	-200,000	-0,014	-0,045
-308,124	-74,365	0,112	0,029
-307,110	-200,000	-0,032	-0,231
-306,095	-200,000	0,027	0,118
-305,080	-200,000	-0,002	0,061
-304,066	182,928	-0,038	0,041
-303,051	-137,980	-0,073	0,006
-302,037	-18,323	-0,060	-0,027
-301,022	-74,693	0,080	0,020
-300,008	486,803	0,015	-0,024
-298,993	769,822	0,042	-0,083
-297,978	62,280	0,148	-0,106
-296,964	-149,444	-0,092	0,005
-295,949	146,466	0,049	0,047
-294,935	333,001	-0,071	-0,099
-293,920	-200,000	0,013	-0,111
-292,905	137,091	0,084	0,079
-291,891	-200,000	0,017	0,088
-290,876	105,378	0,054	0,046
-289,862	-200,000	0,011	0,073
-288,847	-200,000	0,002	0,047
-287,832	63,255	0,048	-0,035
-286,818	800,000	0,028	-0,056
-285,803	-200,000	-0,025	-0,118
-284,789	-200,000	0,076	-0,000
-283,774	-106,735	0,039	0,006
-282,759	-133,349	-0,128	0,011
-281,745	45,726	0,085	-0,056
-280,730	-200,000	-0,005	-0,086
-279,716	800,000	-0,023	-0,056
-278,701	800,000	0,077	-0,176
-277,686	137,486	-0,098	0,092
-276,672	-56,226	0,046	0,015
-275,657	-85,061	0,075	-0,017
-274,643	-200,000	0,006	0,031
-273,628	800,000	-0,081	-0,212
-272,613	-200,000	-0,011	-0,043
-271,599	-182,237	0,087	0,001
-270,584	-200,000	-0,003	0,011
-269,570	-34,830	0,173	-0,067
-268,555	-200,000	-0,001	0,062
-267,540	-200,000	0,014	-0,057
-266,526	-200,000	-0,025	-0,126
-265,511	-104,452	0,065	-0,011
-264,497	50,014	-0,091	0,062
-263,482	-17,994	0,040	-0,018
-262,467	-200,000	-0,017	-0,056
-261,453	-71,804	-0,153	0,041
-260,438	10,575	-0,106	0,058
-259,424	-200,000	-0,012	-0,058
-258,409	-200,000	0,016	-0,057
-257,395	431,111	0,056	0,087
-256,380	-200,000	0,071	0,236
-255,365	447,926	0,096	0,151
-254,351	61,775	-0,051	-0,036
-253,336	8,257	-0,111	-0,060
-252,322	97,402	0,024	0,020
-251,307	98,867	0,067	-0,055
-250,292	58,625	0,043	-0,030
-249,278	650,386	0,042	-0,077
-248,263	-200,000	0,005	-0,040
-247,249	800,000	-0,029	0,062
-246,234	-200,000	0,015	-0,077
-245,219	-200,000	0,002	0,073
-244,205	2,092	-0,026	-0,014
-243,190	-129,222	0,106	-0,010
-242,176	-122,020	0,132	0,015
-241,161	-200,000	-0,046	0,147
-240,146	45,635	0,172	-0,113
-239,132	-200,000	-0,008	0,058
-238,117	83,017	-0,085	0,066
-237,103	8,672	-0,098	-0,053
-236,088	406,534	-0,048	-0,073
-235,073	800,000	-0,042	0,115
-234,059	525,170	-0,026	0,045
-233,044	-25,195	0,121	-0,051
-232,030	-200,000	-0,008	0,095
-231,015	-200,000	0,015	-0,085
-230,000	158,262	0,073	0,073
-228,986	-164,978	-0,085	0,003
-227,971	70,666	0,083	0,061
-226,957	111,371	-0,121	0,104
-225,942	422,876	0,035	0,054
-224,927	-200,000	0,030	0,160
-223,913	-200,000	0,013	-0,054
-222,898	-75,047	-0,048	-0,012
-221,884	-62,729	0,135	0,040
-220,869	800,000	-0,040	0,084
-219,855	-200,000	-0,001	0,006
-218,840	-103,116	-0,022	-0,004
-217,825	145,613	-0,031	0,030
-216,811	-8,764	0,063	-0,030
-215,796	368,233	0,069	-0,100
-214,782	-82,473	-0,164	0,038
-213,767	18,219	0,065	0,037
-212,752	633,663	-0,012	0,022
-211,738	-200,000	-0,032	0,114
-210,723	167,242	0,066	-0,067
-209,709	606,124	0,004	0,007
-208,694	-200,000	-0,029	-0,167
-207,679	324,672	0,007	0,010
-206,665	-200,000	0,004	0,037
-205,650	-121,735	0,099	0,011
-204,636	-200,000	0,026	0,083
-203,621	-130,458	0,116	0,011
-202,606	710,860	0,047	-0,089
-201,592	-192,732	-0,111	-0,001
-200,577	25,053	0,060	-0,036
-199,563	-47,703	0,024	0,008
-198,548	800,000	-0,046	-0,133
-197,533	-200,000	-0,021	-0,119
-196,519	-81,415	0,070	0,016
-195,504	-117,943	-0,039	0,005
-194,490	-200,000	-0,011	-0,103
-193,475	-200,000	0,008	-0,142
-192,460	-58,011	-0,142	0,044
-191,446	-200,000	0,002	0,062
-190,431	-70,673	0,094	0,025
-189,417	98,443	0,043	0,036
-188,402	-32,333	0,137	0,054
-187,387	78,064	-0,075	0,057
-186,373	-55,882	-0,022	0,007
-185,358	-79,721	0,103	-0,024
-184,344	337,262	-0,037	-0,052
-183,329	-200,000	0,006	0,069
-182,315	-200,000	0,005	0,110
-181,300	-200,000	0,006	-0,169
-180,285	-72,183	-0,175	-0,046
-179,271	734,322	-0,008	-0,016
-178,256	800,000	-0,016	0,042
-177,242	330,515	-0,012	0,017
-176,227	75,966	0,120	0,091
-175,212	-182,947	-0,048	0,001
-174,198	800,000	0,045	0,090
-173,183	-200,000	-0,004	-0,070
-172,169	-200,000	-0,024	-0,147
-171,154	296,442	0,046	-0,060
-170,139	124,663	-0,095	-0,085
-169,125	290,015	0,034	0,044
-168,110	-200,000	0,005	0,144
-167,096	53,440	0,026	0,018
-166,081	513,383	0,017	0,029
-165,066	-9,258	-0,083	0,039
-164,052	-48,620	0,044	0,015
-163,037	4,156	-0,060	0,031
-162,023	78,819	0,113	0,086
-161,008	47,799	0,054	0,036
-159,993	39,631	0,164	0,104
-158,979	-11,242	-0,194	0,091
-157,964	-106,368	0,031	-0,005
-156,950	-200,000	-0,015	-0,121
-155,935	68,102	0,094	-0,069
-154,920	285,427	0,075	0,097
-153,906	264,270	0,094	0,117
-152,891	-200,000	-0,007	0,063
-151,877	164,236	0,025	-0,025
-150,862	-200,000	0,005	-0,027
-149,847	-119,552	-0,070	-0,009
-148,833	319,094	0,039	0,053
-147,818	24,405	0,105	0,062
-146,804	138,872	0,092	0,086
-145,789	-200,000	0,005	0,087
-144,775	1,185	0,118	-0,060
-143,760	800,000	-0,022	0,060
-142,745	-200,000	-0,020	-0,075
-141,731	-95,453	0,090	0,017
-140,716	114,245	0,106	0,092
-139,702	42,520	0,043	0,027
-138,687	-200,000	-0,003	0,108
-137,672	-141,228	0,096	-0,007
-136,658	74,955	-0,111	-0,083
-135,643	-200,000	-0,029	-0,107
-134,629	800,000	-0,062	0,144
-133,614	-7,603	0,091	-0,044
-132,599	248,775	0,100	0,121
-131,585	-114,283	-0,031	-0,004
-130,570	252,606	0,117	-0,143
-129,556	97,547	0,066	0,054
-128,541	276,945	-0,049	-0,062
-127,526	-156,558	0,069	-0,003
-126,512	383,452	-0,052	0,076
-125,497	65,959	0,095	0,069
-124,483	-31,524	0,060	-0,024
-123,468	64,303	0,085	-0,061
-122,453	15,065	0,076	-0,042
-121,439	85,295	-0,042	-0,033
-120,424	-200,000	-0,005	-0,032
-119,410	800,000	0,031	-0,074
-118,395	-200,000	-0,002	0,081
-117,380	800,000	-0,031	0,094
-116,366	-29,172	0,038	-0,016
-115,351	90,794	-0,030	0,024
-114,337	-200,000	0,025	-0,099
-113,322	71,123	0,066	0,049
-112,307	-200,000	-0,003	-0,120
-111,293	800,000	-0,028	0,058
-110,278	78,634	-0,045	0,034
-109,264	514,140	-0,027	0,045
-108,249	13,999	0,152	0,084
-107,234	-200,000	-0,018	-0,122
-106,220	56,306	-0,049	-0,034
-105,205	-139,221	0,229	0,017
-104,191	800,000	0,042	0,096
-103,176	176,281	0,061	-0,063
-102,162	-200,000	-0,013	0,165
-101,147	-119,353	-0,130	0,016
-100,132	53,066	0,046	-0,031
-99,118	-100,120	-0,064	-0,011
-98,103	-95,520	-0,048	0,009
-97,089	-200,000	-0,005	-0,047
-96,074	800,000	0,028	0,071
-95,059	-67,025	0,035	-0,010
-94,045	-200,000	-0,028	0,125
-93,030	-32,978	-0,105	-0,041
-92,016	43,192	0,069	-0,045
-91,001	-175,333	0,104	0,002
-89,986	800,000	0,011	0,026
-88,972	-106,962	0,070	0,011
-87,957	-200,000	-0,041	0,166
-86,943	422,971	-0,032	0,049
-85,928	-200,000	-0,001	0,082
-84,913	-200,000	-0,079	0,314
-83,899	800,000	-0,050	-0,125
-82,884	-9,478	-0,097	0,046
-81,870	-158,226	-0,105	0,004
-80,855	-200,000	-0,003	0,022
-79,840	256,865	0,019	-0,023
-78,826	316,478	0,045	-0,061
-77,811	-200,000	-0,029	-0,116
-76,797	-91,384	0,122	0,024
-75,782	40,037	0,064	0,041
-74,767	800,000	-0,048	0,142
-73,753	-200,000	-0,017	0,073
-72,738	-200,000	0,030	0,128
-71,724	41,028	-0,026	0,017
-70,709	-200,000	-0,006	-0,026
-69,694	171,629	-0,109	-0,111
-68,680	144,504	0,053	0,050
-67,665	-110,869	-0,059	-0,009
-66,651	-116,422	0,084	0,011
-65,636	-200,000	-0,019	0,072
-64,622	-200,000	-0,050	0,208
-63,607	-200,000	0,001	-0,020
-62,592	-200,000	0,004	-0,041
-61,578	-200,000	-0,038	-0,184
-60,563	-200,000	0,017	0,107
-59,549	-50,863	0,142	-0,047
-58,534	-88,344	-1,362	-0,286
-57,519	376,360	-1,557	-2,262
-56,505	-200,000	-0,447	-4,507
-55,490	236,435	0,754	0,887
-54,476	800,000	4,764	11,283
-53,461	-200,000	17,525	279,213
-52,446	800,000	719,431	2218,323
-51,432	562,843	1633,467	2816,262
-50,417	81,286	1657,720	1269,753
-49,403	24,001	1531,936	894,362
-48,388	17,948	1455,417	820,488
-47,373	18,391	1444,659	816,516
-46,359	18,007	1435,470	809,461
-45,344	16,309	1430,692	798,662
-44,330	16,237	1428,715	797,184
-43,315	16,254	1426,985	796,270
-42,300	16,254	1425,436	795,372
-41,286	16,300	1424,234	794,886
-40,271	16,237	1423,031	793,887
-39,257	16,213	1421,710	793,003
-38,242	16,296	1420,309	792,583
-37,227	16,314	1419,002	791,906
-36,213	16,271	1417,857	791,034
-35,198	16,247	1416,591	790,186
-34,184	16,304	1415,689	789,916
-33,169	16,193	1414,637	788,775
-32,154	16,248	1413,455	788,347
-31,140	16,289	1412,059	787,727
-30,125	16,272	1411,003	787,026
-29,111	16,280	1409,708	786,313
-28,096	16,271	1408,787	785,725
-27,082	16,171	1407,760	784,651
-26,067	16,235	1406,392	784,157
-25,052	16,184	1405,528	783,407
-24,038	16,178	1404,631	782,849
-23,023	16,147	1403,484	782,032
-22,009	16,144	1402,583	781,486
-20,994	16,127	1401,616	780,839
-19,979	16,145	1400,673	780,367
-18,965	16,104	1399,622	779,559
-17,950	16,167	1398,568	779,234
-16,936	16,144	1397,482	778,488
-15,921	16,087	1396,462	777,626
-14,906	16,078	1395,573	777,058
-13,892	16,094	1394,699	776,614
-12,877	16,095	1393,687	776,023
-11,863	16,056	1392,969	775,414
-10,848	16,092	1391,816	774,909
-9,833	16,056	1391,128	774,330
-8,819	16,037	1390,051	773,610
-7,804	15,995	1388,999	772,800
-6,790	15,971	1388,023	772,116
-5,775	15,953	1387,263	771,579
-4,760	16,000	1386,268	771,211
-3,746	16,000	1385,341	770,666
-2,731	16,011	1384,573	770,259
-1,717	15,953	1383,671	769,457
-0,702	15,926	1381,776	768,253
0,313	19,695	1303,177	741,957
1,327	36,167	706,949	440,705
2,342	55,495	125,446	85,980
3,356	3,710	16,549	8,537
4,371	12,535	3,020	1,647
5,386	-21,552	0,575	0,247
6,400	43,997	0,060	0,039
7,415	-29,816	-0,205	-0,082
8,429	67,939	-0,377	-0,273
9,444	106,135	-0,331	-0,277
10,459	-56,582	-0,322	-0,100
11,473	-66,232	-0,422	-0,118
12,488	-14,192	-0,370	-0,168
13,502	20,911	-0,285	-0,163
14,517	176,291	-0,216	-0,222
15,531	37,590	-0,460	-0,289
16,546	242,218	-0,362	-0,430
17,561	228,785	-0,271	-0,313
18,575	-131,838	-0,262	-0,024
19,590	124,469	-0,214	-0,191
20,604	8,187	-0,283	-0,150
21,619	36,725	-0,491	-0,307
22,634	19,858	-0,569	-0,324
23,648	28,360	-0,573	-0,342
24,663	57,756	-0,417	-0,288
25,677	19,597	-0,354	-0,201
26,692	138,849	-0,304	-0,282
27,707	54,037	-0,411	-0,279
28,721	46,046	-0,292	-0,191
29,736	80,058	-0,372	-0,282
30,750	-39,247	-0,462	-0,171
31,765	87,144	-0,389	-0,304
32,780	21,920	-0,394	-0,226
33,794	202,848	-0,292	-0,319
34,809	246,974	-0,198	-0,236
35,823	123,788	-0,421	-0,373
36,838	159,335	-0,378	-0,372
37,853	146,119	-0,348	-0,330
38,867	127,878	-0,318	-0,286
39,882	31,576	-0,380	-0,231
40,896	96,114	-0,314	-0,254
41,911	15,500	-0,370	-0,205
42,926	78,320	-0,283	-0,213
43,940	210,144	-0,298	-0,330
44,955	45,306	-0,407	-0,265
45,969	129,656	-0,324	-0,293
46,984	39,852	-0,348	-0,220
47,999	168,410	-0,255	-0,256
49,013	180,419	-0,325	-0,337
50,028	115,627	-0,261	-0,225
51,042	69,934	-0,259	-0,188
52,057	27,214	-0,394	-0,233
53,071	237,121	-0,212	-0,249
54,086	93,592	-0,336	-0,268
55,101	-48,611	-0,393	-0,133
56,115	53,599	-0,410	-0,277
57,130	-5,304	-0,316	-0,153
58,144	9,997	-0,401	-0,214
59,159	177,210	-0,316	-0,325
60,174	96,252	-0,440	-0,355
61,188	358,874	-0,281	-0,398
62,203	14,068	-0,401	-0,219
63,217	-30,051	-0,273	-0,109
64,232	198,206	-0,224	-0,242
65,247	6,096	-0,314	-0,163
66,261	-10,910	-0,428	-0,199
67,276	18,665	-0,317	-0,178
68,290	59,881	-0,276	-0,192
69,305	300,432	-0,242	-0,315
70,320	-24,843	-0,380	-0,158
71,334	-37,632	-0,309	-0,116
72,349	6,915	-0,309	-0,162
73,363	168,792	-0,295	-0,297
74,378	138,102	-0,400	-0,370
75,393	26,531	-0,254	-0,149
76,407	-50,459	-0,534	-0,177
77,422	18,114	-0,219	-0,123
78,436	-18,180	-0,215	-0,094
79,451	107,769	-0,182	-0,153
80,466	19,885	-0,407	-0,230
81,480	364,326	-0,190	-0,269
82,495	31,969	-0,340	-0,206
83,509	199,737	-0,225	-0,244
84,524	65,277	-0,215	-0,153
85,539	30,035	-0,279	-0,167
86,553	-72,595	-0,339	-0,087
87,568	-73,463	-0,267	-0,068
88,582	-1,519	-0,322	-0,159
89,597	115,829	-0,299	-0,257
90,611	100,523	-0,274	-0,224
91,626	-61,464	-0,311	-0,091
92,641	40,346	-0,346	-0,219
93,655	92,359	-0,232	-0,184
94,670	212,121	-0,232	-0,258
95,684	-27,258	-0,327	-0,133
96,699	647,315	-0,102	-0,185
97,714	-82,349	-0,388	-0,088
98,728	-77,004	-0,263	-0,064
99,743	105,326	-0,272	-0,226
100,757	66,951	-0,246	-0,176
101,772	217,198	-0,273	-0,306
102,787	233,387	-0,275	-0,319
103,801	0,134	-0,208	-0,104
104,816	92,028	-0,335	-0,265
105,830	260,483	-0,158	-0,192
106,845	-103,534	-0,395	-0,065
107,860	-120,247	-0,316	-0,037
108,874	234,374	-0,284	-0,329
109,889	78,003	-0,258	-0,193
110,903	210,517	-0,256	-0,283
111,918	-143,892	-0,319	-0,021
112,933	-54,456	-0,151	-0,048
113,947	-46,438	-0,308	-0,106
114,962	-41,280	-0,256	-0,092
115,976	-43,315	-0,301	-0,106
116,991	65,180	-0,267	-0,189
118,006	49,695	-0,260	-0,171
119,020	368,483	-0,166	-0,236
120,035	45,046	-0,306	-0,197
121,049	-135,683	-0,207	-0,017
122,064	503,335	-0,168	-0,274
123,079	105,670	-0,234	-0,194
124,093	69,679	-0,181	-0,130
125,108	127,643	-0,301	-0,268
126,122	85,382	-0,177	-0,137
127,137	-50,708	-0,272	-0,089
128,151	269,024	-0,120	-0,148
129,166	-12,837	-0,249	-0,113
130,181	179,769	-0,286	-0,294
131,195	168,003	-0,245	-0,244
132,210	55,778	-0,208	-0,141
133,224	-126,583	-0,153	-0,016
134,239	108,504	-0,239	-0,200
135,254	335,863	-0,150	-0,205
136,268	-110,507	-0,239	-0,034
137,283	284,817	-0,243	-0,308
138,297	-3,966	-0,322	-0,156
139,312	11,703	-0,336	-0,180
140,327	78,459	-0,206	-0,154
141,341	3,334	-0,281	-0,143
142,356	91,941	-0,164	-0,129
143,370	-22,033	-0,262	-0,111
144,385	-53,344	-0,347	-0,111
145,400	10,628	-0,309	-0,165
146,414	-41,692	-0,345	-0,123
147,429	105,819	-0,229	-0,189
148,443	110,812	-0,197	-0,166
149,458	-6,775	-0,194	-0,092
150,473	12,939	-0,174	-0,094
151,487	-15,351	-0,356	-0,159
152,502	170,722	-0,165	-0,166
153,516	26,390	-0,257	-0,150
154,531	99,680	-0,260	-0,211
155,546	800,000	-0,096	-0,197
156,560	8,762	-0,257	-0,135
157,575	122,816	-0,176	-0,154
158,589	96,174	-0,220	-0,176
159,604	153,124	-0,259	-0,248
160,619	182,811	-0,295	-0,304
161,633	10,641	-0,318	-0,169
162,648	167,484	-0,226	-0,225
163,662	-125,009	-0,146	0,015
164,677	104,164	-0,249	-0,205
165,692	132,300	-0,105	-0,095
166,706	-93,284	-0,459	-0,088
167,721	-25,821	-0,256	-0,105
168,735	21,590	-0,219	-0,124
169,750	343,733	-0,168	-0,231
170,764	118,709	-0,161	-0,139
171,779	58,485	-0,322	-0,220
172,794	240,239	-0,146	-0,170
173,808	54,513	-0,354	-0,238
174,823	150,881	-0,154	-0,146
175,837	386,195	-0,180	-0,260
176,852	57,846	-0,314	-0,214
177,867	-16,297	-0,256	-0,113
178,881	456,439	-0,132	-0,205
179,896	80,509	-0,192	-0,144
180,910	-46,333	-0,235	-0,080
181,925	36,404	-0,336	-0,207
182,940	36,971	-0,343	-0,211
183,954	-45,773	-0,266	-0,091
184,969	7,414	-0,251	-0,130
185,983	-194,806	-0,276	0,001
186,998	-82,389	-0,202	-0,045
188,013	-81,851	-0,126	-0,028
189,027	68,015	-0,210	-0,150
190,042	155,467	-0,284	-0,273
191,056	364,161	-0,164	-0,231
192,071	136,623	-0,224	-0,204
193,086	800,000	-0,088	-0,192
194,100	462,792	-0,057	-0,089
195,115	93,605	-0,184	-0,145
196,129	-186,344	-0,182	-0,002
197,144	10,146	-0,304	-0,161
198,159	104,633	-0,188	-0,154
199,173	424,729	-0,193	-0,290
200,188	1,131	-0,247	-0,123
201,202	190,287	-0,145	-0,152
202,217	-15,736	-0,278	-0,123
203,232	-40,957	-0,171	-0,061
204,246	85,704	-0,188	-0,144
205,261	60,927	-0,269	-0,185
206,275	-35,120	-0,247	-0,093
207,290	49,446	-0,165	-0,108
208,304	-162,618	-0,230	0,008
209,319	-153,971	-0,282	-0,013
210,334	150,649	-0,137	-0,130
211,348	-105,067	-0,297	-0,047
212,363	3,092	-0,193	-0,097
213,377	-8,744	-0,241	-0,112
214,392	800,000	-0,086	-0,207
215,407	-200,000	-0,034	-0,132
216,421	-6,045	-0,297	-0,141
217,436	9,148	-0,265	-0,139
218,450	-14,039	-0,228	-0,102
219,465	182,214	-0,176	-0,181
220,480	52,619	-0,194	-0,129
221,494	246,511	-0,128	-0,150
222,509	18,333	-0,167	-0,093
223,523	221,538	-0,032	-0,035
224,538	-98,155	-0,226	-0,040
225,553	326,895	-0,224	-0,299
226,567	149,045	-0,135	-0,127
227,582	-169,635	-0,173	-0,004
228,596	182,096	-0,181	-0,186
229,611	-200,000	0,009	-0,074
230,626	38,416	-0,274	-0,170
231,640	35,980	-0,221	-0,135
232,655	-10,891	-0,211	-0,096
233,669	433,703	-0,269	-0,408
234,684	38,257	-0,236	-0,146
235,699	-99,374	-0,209	-0,036
236,713	-83,549	-0,177	0,039
237,728	800,000	-0,097	-0,240
238,742	92,134	-0,262	-0,205
239,757	-99,121	-0,204	-0,036
240,772	120,469	-0,199	-0,172
241,786	800,000	-0,124	-0,269
242,801	405,386	-0,160	-0,235
243,815	77,225	-0,174	-0,128
244,830	-128,675	-0,156	-0,015
245,844	149,830	-0,174	-0,163
246,859	339,830	-0,185	-0,250
247,874	232,087	-0,207	-0,236
248,888	-69,763	-0,228	-0,060
249,903	784,768	-0,166	-0,316
250,917	-200,000	-0,047	-0,193
251,932	-95,199	-0,236	-0,044
252,947	523,063	-0,082	-0,134
253,961	148,930	-0,170	-0,159
254,976	-52,620	-0,192	-0,061
255,990	45,503	-0,181	-0,116
257,005	67,593	-0,196	-0,138
258,020	133,384	-0,133	-0,119
259,034	10,082	-0,160	-0,084
260,049	-96,689	-0,168	-0,030
261,063	-40,455	-0,191	-0,068
262,078	-200,000	-0,056	-0,184
263,093	-16,846	-0,196	-0,086
264,107	631,900	-0,124	-0,219
265,122	-121,041	-0,155	-0,018
266,136	-68,370	-0,080	0,021
267,151	-46,778	-0,165	-0,056
268,166	29,769	-0,176	-0,104
269,180	252,993	-0,159	-0,189
270,195	-154,193	-0,163	-0,008
271,209	-102,601	-0,105	0,017
272,224	452,496	-0,130	-0,200
273,239	-37,387	-0,183	-0,067
274,253	92,173	-0,183	-0,142
275,268	-139,020	-0,201	0,015
276,282	369,522	-0,117	-0,164
277,297	181,749	-0,131	-0,134
278,312	130,115	-0,235	-0,208
279,326	50,772	-0,158	-0,103
280,341	213,469	-0,224	-0,245
281,355	-8,608	-0,213	-0,099
282,370	800,000	-0,069	-0,163
283,384	27,798	-0,178	-0,103
284,399	198,723	-0,192	-0,204
285,414	-30,336	-0,165	-0,065
286,428	-21,966	-0,102	-0,043
287,443	-200,000	-0,017	-0,133
288,457	800,000	-0,042	-0,123
289,472	-124,068	-0,151	0,016
290,487	-23,738	-0,145	-0,060
291,501	298,235	-0,104	-0,133
292,516	-83,718	-0,175	-0,038
293,530	-9,550	-0,099	-0,045
294,545	71,299	-0,065	0,047
295,560	51,720	-0,175	-0,115
296,574	6,521	-0,169	-0,086
297,589	-5,794	-0,210	-0,099
298,603	43,337	-0,122	-0,077
299,618	800,000	-0,095	-0,253
300,633	241,379	-0,138	-0,160
301,647	25,664	-0,045	0,026
302,662	17,372	-0,061	-0,033
303,676	236,373	-0,097	-0,111
304,691	70,242	-0,132	-0,094
305,706	177,700	-0,153	-0,154
306,720	382,898	-0,173	-0,246
307,735	163,988	-0,121	-0,118
308,749	-110,653	-0,071	0,010
309,764	-123,982	-0,208	-0,022
310,779	40,670	-0,043	-0,026
311,793	-11,071	-0,213	-0,096
312,808	-17,805	-0,210	-0,090
313,822	228,757	0,012	-0,013
314,837	265,428	-0,113	-0,136
315,852	800,000	-0,073	-0,161
316,866	288,510	-0,096	-0,120
317,881	421,112	-0,121	-0,179
318,895	332,213	-0,138	-0,184
319,910	800,000	-0,049	-0,118
320,925	-106,799	-0,110	-0,017
321,939	203,541	-0,095	-0,101
322,954	800,000	-0,082	-0,217
323,968	116,343	-0,072	-0,061
324,983	-152,033	-0,124	-0,006
325,997	-200,000	-0,055	-0,286
327,012	18,175	-0,156	-0,085
328,027	-89,453	-0,201	-0,040
329,041	-140,919	-0,248	0,017
330,056	800,000	-0,040	0,122
331,070	-73,274	-0,096	-0,024
332,085	-160,205	-0,184	0,007
333,100	590,899	-0,058	-0,098
334,114	104,819	-0,170	-0,138
335,129	17,731	-0,176	-0,096
336,143	145,863	-0,133	-0,123
337,158	415,194	-0,098	-0,144
338,173	800,000	-0,051	-0,153
339,187	85,805	-0,083	-0,063
340,202	-65,136	-0,074	0,020
341,216	-180,471	-0,167	-0,002
342,231	1,241	-0,163	-0,080
343,246	483,452	-0,115	-0,181
344,260	332,975	-0,084	-0,112
345,275	-31,054	-0,152	-0,059
346,289	-53,471	-0,260	-0,081
347,304	-143,777	-0,139	0,009
348,319	-67,692	-0,165	-0,044
349,333	295,356	-0,151	-0,190
350,348	168,925	-0,161	-0,158
351,362	36,805	-0,183	-0,111
352,377	800,000	0,040	-0,085
353,392	-75,029	-0,120	-0,029
354,406	-200,000	-0,003	-0,176
355,421	209,188	1315,433	1418,137
356,435	160,994	1476,258	1418,658
