DTS Sentinel unit serial number:	SN410029Multiplexer serial number:	ORYXHardware model number:	OX2-SRSoftware version number:	ORYX F/W v4,00 Oryx Data Collector v3.7.2.0data status	okinstallation	B3 Nyhavnadifferential loss correction	single-endedforward channel	channel 1reverse channel	N/Adate	2023/11/30time	16:47:30forward acquisition time	300,00reverse acquisition time	0,00gamma	499,1914k internal	0,3204k external	0,3204temperature offset calibration	1,0000default loss term (dB/km)	0,3820temperature slope calibration	1,0000multiplexer offset coefficient	1,0000multiplexer slope coefficient	1,0000fibre end	0,00T internal ref (°C)	13,02T ext. ref 1 (°C)	-1,49T ext. ref 2 (°C)	-1,53length (m)	temperature (°C)	Stokes	anti-Stokes-744,400	78,905	-0,269	-0,209
-743,385	-200,000	-0,018	0,469
-742,371	264,056	-0,225	-0,285
-741,356	-200,000	0,055	0,367
-740,342	-13,108	-0,196	-0,092
-739,327	-200,000	-0,038	0,395
-738,312	165,681	-0,238	-0,245
-737,298	-200,000	-0,017	0,254
-736,283	243,866	-0,257	-0,314
-735,269	800,000	0,119	0,331
-734,254	39,976	-0,200	-0,131
-733,239	-107,510	-0,318	0,050
-732,225	507,795	-0,162	-0,273
-731,210	202,683	0,157	0,177
-730,196	-53,981	-0,067	-0,022
-729,181	-200,000	-0,009	0,060
-728,167	228,442	-0,082	0,098
-727,152	-200,000	-0,010	-0,054
-726,137	-97,846	-0,065	0,012
-725,123	414,209	-0,115	-0,178
-724,108	-30,757	-0,078	-0,032
-723,094	375,841	-0,074	-0,109
-722,079	-200,000	0,027	-0,102
-721,064	291,833	0,085	-0,113
-720,050	146,495	-0,088	0,086
-719,035	124,888	-0,058	-0,053
-718,021	-200,000	0,012	0,113
-717,006	-200,000	-0,021	-0,144
-715,991	12,386	-0,119	-0,066
-714,977	-106,948	-0,080	-0,013
-713,962	111,590	-0,077	0,068
-712,948	-200,000	0,038	-0,145
-711,933	-200,000	0,010	0,063
-710,918	-38,542	-0,064	-0,024
-709,904	76,108	0,009	0,007
-708,889	-200,000	0,034	-0,115
-707,875	-112,299	-0,144	0,021
-706,860	-135,402	-0,146	-0,012
-705,845	442,409	-0,036	-0,057
-704,831	542,874	-0,058	-0,101
-703,816	800,000	0,018	0,058
-702,802	800,000	-0,030	-0,062
-701,787	-144,592	-0,074	0,005
-700,772	-27,782	-0,063	0,027
-699,758	-200,000	-0,027	-0,160
-698,743	132,610	0,014	-0,013
-697,729	-150,012	0,031	0,002
-696,714	800,000	0,031	0,072
-695,699	-63,206	-0,209	-0,062
-694,685	800,000	0,026	-0,071
-693,670	800,000	-0,048	-0,110
-692,656	23,316	-0,056	-0,033
-691,641	20,564	-0,010	-0,006
-690,627	-141,072	0,112	0,008
-689,612	299,049	-0,042	0,056
-688,597	236,110	0,090	-0,109
-687,583	381,076	0,033	-0,049
-686,568	343,105	-0,102	-0,146
-685,554	800,000	-0,038	-0,078
-684,539	800,000	0,036	-0,097
-683,524	368,296	0,109	-0,160
-682,510	-111,533	0,138	-0,020
-681,495	162,643	-0,077	-0,078
-680,481	-73,686	-0,179	-0,047
-679,466	-25,663	-0,057	-0,024
-678,451	190,328	-0,068	-0,074
-677,437	-99,244	-0,131	0,024
-676,422	-90,738	0,093	0,019
-675,408	-140,862	-0,061	-0,005
-674,393	145,226	-0,112	-0,109
-673,378	326,324	-0,080	-0,112
-672,364	800,000	0,046	-0,137
-671,349	21,333	-0,133	0,078
-670,335	-87,966	0,073	0,016
-669,320	800,000	0,012	0,030
-668,305	-110,485	-0,048	-0,007
-667,291	86,802	-0,064	0,052
-666,276	489,812	0,052	-0,086
-665,262	-39,555	-0,020	-0,008
-664,247	800,000	-0,056	-0,122
-663,232	-47,266	-0,052	-0,018
-662,218	-200,000	0,018	0,064
-661,203	178,199	0,026	0,028
-660,189	-96,515	0,091	-0,017
-659,174	-173,931	-0,113	-0,002
-658,159	553,057	0,066	-0,115
-657,145	-156,743	-0,078	-0,003
-656,130	556,742	0,016	-0,028
-655,116	243,650	0,036	0,044
-654,101	119,056	0,039	-0,035
-653,086	5,156	0,130	-0,069
-652,072	88,762	-0,137	0,110
-651,057	-200,000	-0,013	-0,071
-650,043	726,899	0,035	-0,067
-649,028	-78,834	-0,099	-0,024
-648,014	-34,499	0,045	0,018
-646,999	-200,000	-0,012	0,070
-645,984	-200,000	-0,000	0,100
-644,970	-200,000	-0,028	0,130
-643,955	-200,000	-0,021	-0,121
-642,941	800,000	0,022	0,062
-641,926	-124,830	-0,092	0,010
-640,911	800,000	-0,016	0,033
-639,897	-39,997	0,109	0,041
-638,882	-200,000	-0,017	0,093
-637,868	-200,000	-0,007	0,052
-636,853	-59,085	-0,041	-0,013
-635,838	800,000	0,044	-0,098
-634,824	249,323	-0,008	-0,010
-633,809	-200,000	0,008	0,146
-632,795	-200,000	0,009	0,100
-631,780	127,740	-0,102	-0,094
-630,765	-124,739	-0,078	-0,009
-629,751	800,000	-0,060	-0,135
-628,736	323,912	-0,096	-0,133
-627,722	187,806	-0,036	0,039
-626,707	800,000	0,009	0,022
-625,692	48,673	-0,076	-0,052
-624,678	129,708	0,058	-0,054
-623,663	-200,000	0,005	-0,048
-622,649	251,955	-0,174	-0,214
-621,634	-200,000	0,013	-0,236
-620,619	10,413	-0,014	-0,008
-619,605	423,853	-0,036	0,057
-618,590	-127,738	-0,022	-0,002
-617,576	-200,000	0,019	-0,091
-616,561	464,133	0,077	0,124
-615,546	11,488	0,027	0,015
-614,532	-87,112	-0,037	-0,008
-613,517	551,460	0,053	-0,093
-612,503	188,066	-0,086	0,093
-611,488	-69,512	0,164	0,045
-610,474	55,377	-0,067	-0,047
-609,459	-67,984	0,023	-0,006
-608,444	363,694	-0,015	0,021
-607,430	-200,000	0,004	-0,017
-606,415	-200,000	-0,019	-0,069
-605,401	95,226	0,079	0,065
-604,386	-136,113	-0,048	0,004
-603,371	141,374	0,111	0,107
-602,357	800,000	0,038	0,100
-601,342	-132,665	-0,049	-0,004
-600,328	-110,859	0,015	0,002
-599,313	-68,943	-0,074	0,021
-598,298	-200,000	0,073	0,000
-597,284	-200,000	0,026	0,168
-596,269	-200,000	-0,002	0,059
-595,255	800,000	-0,043	0,114
-594,240	55,775	-0,087	-0,061
-593,225	-200,000	0,012	0,132
-592,211	800,000	-0,033	-0,085
-591,196	-64,268	0,033	0,010
-590,182	6,757	0,113	-0,061
-589,167	270,897	-0,028	0,036
-588,152	82,549	0,163	-0,128
-587,138	-103,368	0,098	0,016
-586,123	-5,882	-0,039	-0,019
-585,109	109,050	-0,050	-0,043
-584,094	393,841	-0,105	-0,159
-583,079	88,254	0,099	-0,079
-582,065	616,492	-0,075	-0,136
-581,050	-200,000	0,023	0,147
-580,036	800,000	-0,016	-0,046
-579,021	80,863	0,071	-0,055
-578,006	-200,000	0,009	-0,042
-576,992	-95,893	-0,051	-0,010
-575,977	-193,619	0,123	-0,001
-574,963	-74,610	0,031	-0,008
-573,948	-200,000	0,020	0,109
-572,934	-43,933	0,087	0,031
-571,919	450,975	-0,033	-0,054
-570,904	800,000	-0,046	0,115
-569,890	600,954	-0,028	-0,051
-568,875	215,618	0,036	0,042
-567,861	800,000	-0,021	-0,059
-566,846	5,300	0,062	-0,033
-565,831	-200,000	0,041	0,141
-564,817	-200,000	-0,021	0,127
-563,802	-118,508	0,059	-0,007
-562,788	-144,558	-0,047	0,003
-561,773	260,107	0,032	-0,040
-560,758	68,513	0,102	0,075
-559,744	247,089	0,079	0,096
-558,729	800,000	-0,064	-0,189
-557,715	-77,185	-0,098	0,024
-556,700	469,296	-0,072	0,117
-555,685	92,116	0,093	-0,076
-554,671	665,357	0,031	0,058
-553,656	-200,000	0,009	0,076
-552,642	-35,787	-0,033	-0,013
-551,627	515,242	-0,077	0,131
-550,612	222,540	0,055	0,064
-549,598	-0,931	0,101	-0,051
-548,583	164,566	-0,056	-0,057
-547,569	27,843	0,082	-0,050
-546,554	555,620	0,027	0,046
-545,539	-23,674	-0,031	-0,013
-544,525	-66,268	-0,024	-0,007
-543,510	608,871	-0,026	0,046
-542,496	800,000	-0,032	-0,068
-541,481	38,442	-0,146	-0,093
-540,466	-200,000	-0,015	-0,133
-539,452	-108,748	0,126	0,019
-538,437	337,635	0,053	-0,074
-537,423	313,212	-0,077	0,104
-536,408	-200,000	-0,003	0,127
-535,393	-81,102	0,081	0,019
-534,379	66,550	-0,124	-0,091
-533,364	439,848	-0,043	-0,068
-532,350	-106,532	0,175	-0,028
-531,335	-120,806	0,148	0,018
-530,321	-70,311	-0,034	0,009
-529,306	238,709	0,035	0,042
-528,291	78,685	0,041	0,032
-527,277	573,188	0,029	-0,052
-526,262	800,000	-0,028	-0,086
-525,248	-200,000	0,021	0,000
-524,233	199,718	-0,061	0,067
-523,218	-200,000	-0,014	0,123
-522,204	-14,487	-0,086	-0,040
-521,189	-200,000	-0,003	0,096
-520,175	-200,000	-0,044	-0,203
-519,160	-119,949	0,146	-0,018
-518,145	472,834	0,063	0,103
-517,131	800,000	0,027	-0,081
-516,116	-64,007	0,175	-0,051
-515,102	-200,000	-0,003	-0,009
-514,087	-200,000	-0,002	0,100
-513,072	-200,000	0,002	-0,039
-512,058	94,394	-0,070	-0,057
-511,043	-88,094	0,064	0,014
-510,029	46,938	-0,022	-0,015
-509,014	362,294	-0,109	0,158
-507,999	-200,000	-0,014	-0,049
-506,985	-200,000	0,015	-0,065
-505,970	660,728	0,023	0,043
-504,956	-97,425	-0,034	-0,006
-503,941	170,000	0,038	0,039
-502,926	-200,000	0,005	0,076
-501,912	-90,696	0,106	0,022
-500,897	54,457	0,060	-0,042
-499,883	-64,012	-0,084	-0,025
-498,868	418,972	-0,030	-0,046
-497,853	-200,000	-0,019	-0,151
-496,839	789,331	-0,025	-0,049
-495,824	800,000	-0,027	-0,063
-494,810	-108,174	-0,062	0,010
-493,795	430,003	0,031	-0,048
-492,781	-162,190	0,061	-0,002
-491,766	-36,533	-0,078	-0,030
-490,751	-70,298	-0,063	-0,017
-489,737	273,960	-0,039	-0,050
-488,722	-140,097	0,026	-0,002
-487,708	-200,000	-0,002	0,085
-486,693	22,983	-0,221	0,130
-485,678	-137,642	0,155	0,012
-484,664	26,785	-0,168	-0,101
-483,649	-36,034	-0,020	-0,008
-482,635	-200,000	0,000	-0,019
-481,620	81,934	-0,060	-0,047
-480,605	143,065	-0,036	-0,034
-479,591	-99,193	0,023	0,004
-478,576	-183,521	-0,123	-0,001
-477,562	414,950	-0,034	0,052
-476,547	-52,645	-0,170	-0,056
-475,532	-200,000	-0,012	0,057
-474,518	800,000	-0,086	-0,173
-473,503	800,000	0,035	-0,103
-472,489	-47,565	0,035	0,012
-471,474	-35,170	-0,042	-0,016
-470,459	241,138	0,058	-0,070
-469,445	800,000	0,035	-0,073
-468,430	31,281	-0,058	0,036
-467,416	-109,185	-0,123	-0,019
-466,401	-60,007	0,128	0,039
-465,386	-200,000	-0,003	-0,033
-464,372	241,012	-0,054	0,064
-463,357	-200,000	-0,017	-0,106
-462,343	-61,898	-0,091	-0,027
-461,328	81,606	-0,117	-0,091
-460,313	800,000	0,018	-0,056
-459,299	-93,544	0,052	0,010
-458,284	800,000	-0,051	0,128
-457,270	257,245	0,038	0,047
-456,255	-119,723	-0,080	-0,010
-455,241	-2,251	-0,083	0,042
-454,226	-8,529	0,036	0,017
-453,211	111,475	-0,024	0,021
-452,197	800,000	0,068	0,158
-451,182	382,701	0,063	0,094
-450,168	-39,888	-0,056	0,021
-449,153	87,919	-0,055	-0,044
-448,138	-67,552	-0,088	0,025
-447,124	800,000	-0,111	-0,243
-446,109	120,165	0,051	0,045
-445,095	263,417	0,034	0,042
-444,080	-89,393	-0,103	0,022
-443,065	68,423	0,106	0,078
-442,051	315,538	-0,034	-0,047
-441,036	-200,000	0,010	-0,100
-440,022	-0,343	-0,060	-0,031
-439,007	150,248	-0,147	0,143
-437,992	67,408	0,097	0,071
-436,978	283,379	0,135	0,174
-435,963	197,098	0,097	0,107
-434,949	-200,000	-0,001	0,046
-433,934	-200,000	0,028	-0,121
-432,919	216,317	-0,096	-0,110
-431,905	83,726	0,078	-0,061
-430,890	-200,000	0,017	0,105
-429,876	-200,000	0,006	-0,060
-428,861	118,244	0,094	0,084
-427,846	800,000	-0,021	0,060
-426,832	-200,000	0,003	0,086
-425,817	-84,559	-0,080	0,018
-424,803	-68,183	-0,039	-0,011
-423,788	-43,550	0,018	0,006
-422,773	613,462	-0,009	0,016
-421,759	-78,222	-0,121	-0,030
-420,744	188,002	-0,009	0,010
-419,730	800,000	-0,021	-0,055
-418,715	800,000	0,036	0,114
-417,701	800,000	-0,050	-0,142
-416,686	82,714	-0,020	-0,015
-415,671	17,834	0,040	-0,023
-414,657	-200,000	-0,022	0,154
-413,642	-44,834	0,065	0,023
-412,628	20,627	0,146	0,085
-411,613	25,480	-0,076	-0,045
-410,598	304,103	-0,055	-0,074
-409,584	277,919	-0,052	-0,066
-408,569	-200,000	0,014	0,064
-407,555	22,440	0,172	0,100
-406,540	204,216	-0,052	-0,058
-405,525	-200,000	-0,005	0,110
-404,511	-200,000	-0,012	-0,069
-403,496	-18,429	0,055	0,024
-402,482	584,438	0,053	0,094
-401,467	203,248	0,065	0,072
-400,452	-111,960	0,139	0,020
-399,438	62,555	-0,070	-0,050
-398,423	85,618	0,049	0,038
-397,409	71,386	0,060	-0,044
-396,394	800,000	0,011	0,026
-395,379	308,400	-0,046	-0,062
-394,365	205,356	0,108	0,120
-393,350	-140,901	-0,010	-0,001
-392,336	267,817	0,095	0,119
-391,321	-73,220	0,053	0,014
-390,306	171,429	-0,034	-0,035
-389,292	-200,000	0,003	-0,211
-388,277	-200,000	0,009	-0,080
-387,263	-200,000	0,002	-0,047
-386,248	-21,272	-0,033	0,014
-385,233	-200,000	-0,021	0,116
-384,219	-45,709	-0,106	0,038
-383,204	291,345	0,030	0,040
-382,190	-116,326	0,135	0,018
-381,175	-67,117	0,082	0,023
-380,160	-9,755	-0,062	-0,029
-379,146	56,343	-0,020	-0,014
-378,131	-71,242	0,013	0,004
-377,117	139,774	-0,039	-0,037
-376,102	382,310	-0,029	-0,043
-375,088	-200,000	-0,001	-0,058
-374,073	469,213	0,115	-0,185
-373,058	800,000	0,048	0,110
-372,044	203,770	0,048	0,053
-371,029	190,978	0,039	0,042
-370,015	-200,000	-0,016	-0,098
-369,000	-200,000	0,001	-0,052
-367,985	-200,000	-0,018	-0,169
-366,971	-53,874	-0,096	0,031
-365,956	166,473	-0,044	0,044
-364,942	800,000	0,047	0,149
-363,927	-200,000	0,002	0,181
-362,912	8,604	-0,013	0,007
-361,898	-23,191	0,067	-0,029
-360,883	800,000	-0,029	-0,063
-359,869	188,297	0,054	0,058
-358,854	-200,000	-0,046	0,149
-357,839	-51,363	-0,050	0,017
-356,825	-64,079	0,153	0,045
-355,810	-200,000	-0,007	0,063
-354,796	-200,000	0,008	-0,029
-353,781	-200,000	-0,018	-0,060
-352,766	-87,973	-0,056	-0,012
-351,752	800,000	-0,023	0,048
-350,737	-83,627	0,068	-0,016
-349,723	62,290	0,091	0,065
-348,708	355,211	0,044	0,062
-347,693	-177,370	-0,060	0,001
-346,679	-20,508	-0,071	0,031
-345,664	382,877	0,028	0,041
-344,650	-200,000	0,014	0,056
-343,635	-104,671	0,051	0,008
-342,620	16,173	-0,044	-0,025
-341,606	514,364	-0,034	0,057
-340,591	-32,736	0,185	0,073
-339,577	372,229	-0,042	0,062
-338,562	-200,000	0,001	0,084
-337,548	322,976	0,061	-0,084
-336,533	-200,000	-0,001	0,047
-335,518	550,060	0,066	-0,114
-334,504	697,396	0,024	-0,046
-333,489	-115,144	-0,120	-0,016
-332,475	236,002	0,058	-0,069
-331,460	-78,448	0,027	-0,007
-330,445	-21,592	0,166	0,072
-329,431	-200,000	-0,049	-0,180
-328,416	-102,292	0,130	-0,022
-327,402	-99,082	-0,133	-0,024
-326,387	131,298	-0,071	0,066
-325,372	-167,542	0,102	-0,003
-324,358	36,455	-0,027	-0,017
-323,343	-167,889	0,116	-0,003
-322,329	-200,000	0,017	0,098
-321,314	147,661	-0,047	0,045
-320,299	345,331	0,119	0,167
-319,285	299,451	0,057	0,076
-318,270	1,927	-0,099	-0,051
-317,256	156,663	0,100	-0,099
-316,241	-200,000	-0,037	-0,150
-315,226	-0,773	0,070	0,036
-314,212	800,000	0,038	-0,085
-313,197	90,149	-0,101	0,081
-312,183	-103,997	-0,063	-0,010
-311,168	306,287	-0,023	0,030
-310,153	405,602	-0,025	0,037
-309,139	52,067	-0,075	0,051
-308,124	-200,000	-0,028	0,120
-307,110	-200,000	0,008	0,034
-306,095	450,864	-0,044	0,070
-305,080	260,111	-0,080	-0,099
-304,066	-200,000	-0,038	0,122
-303,051	53,610	-0,049	0,033
-302,037	-171,357	0,029	0,001
-301,022	31,008	0,026	0,016
-300,008	-200,000	-0,010	0,039
-298,993	19,512	-0,044	0,025
-297,978	-200,000	-0,003	0,027
-296,964	85,905	0,046	0,036
-295,949	328,189	0,057	-0,078
-294,935	-41,609	-0,033	0,012
-293,920	70,012	-0,100	-0,074
-292,905	-146,876	0,120	0,007
-291,891	-200,000	0,025	0,114
-290,876	-30,987	0,105	-0,042
-289,862	-200,000	0,007	0,049
-288,847	-200,000	0,012	-0,190
-287,832	-184,621	0,021	0,000
-286,818	596,915	0,066	-0,118
-285,803	-107,324	-0,016	-0,002
-284,789	328,959	-0,056	0,077
-283,774	-200,000	-0,011	0,059
-282,759	-200,000	-0,002	0,092
-281,745	-31,632	0,117	0,047
-280,730	-125,242	0,034	0,004
-279,716	800,000	0,048	-0,120
-278,701	-51,655	-0,067	0,022
-277,686	539,866	0,080	0,137
-276,672	800,000	0,016	-0,038
-275,657	-23,012	0,097	-0,041
-274,643	373,162	-0,042	0,061
-273,628	72,423	0,064	-0,048
-272,613	800,000	0,041	-0,126
-271,599	-200,000	0,003	0,047
-270,584	472,906	0,035	0,056
-269,570	800,000	0,022	0,060
-268,555	30,264	0,017	0,010
-267,540	-127,334	-0,104	0,011
-266,526	-107,631	-0,128	0,020
-265,511	36,220	-0,181	-0,114
-264,497	-53,590	0,170	0,055
-263,482	-52,796	0,213	-0,070
-262,467	44,224	0,040	0,026
-261,453	-200,000	0,016	0,075
-260,438	800,000	-0,019	0,046
-259,424	57,141	-0,058	0,040
-258,409	-98,039	-0,076	0,014
-257,395	800,000	0,008	0,020
-256,380	-200,000	-0,002	-0,067
-255,365	-200,000	0,028	-0,130
-254,351	221,929	-0,028	0,032
-253,336	79,691	0,118	0,090
-252,322	317,404	0,010	-0,014
-251,307	-159,457	-0,089	0,003
-250,292	-56,113	-0,032	0,010
-249,278	-65,507	0,121	0,034
-248,263	-200,000	-0,011	0,039
-247,249	800,000	0,033	0,073
-246,234	-106,087	-0,058	-0,009
-245,219	-200,000	-0,026	-0,093
-244,205	443,546	0,010	0,016
-243,190	8,364	-0,072	-0,039
-242,176	-200,000	-0,001	0,073
-241,161	334,505	-0,030	-0,041
-240,146	-200,000	-0,007	-0,095
-239,132	-200,000	-0,006	-0,091
-238,117	-200,000	0,014	-0,050
-237,103	-200,000	-0,010	-0,182
-236,088	-200,000	-0,013	-0,063
-235,073	800,000	-0,029	0,082
-234,059	448,719	-0,056	0,088
-233,044	138,696	-0,061	-0,057
-232,030	-200,000	-0,007	-0,188
-231,015	-11,148	-0,094	0,044
-230,000	-200,000	-0,005	-0,051
-228,986	632,043	-0,008	-0,015
-227,971	270,777	-0,028	0,035
-226,957	-116,295	0,080	0,010
-225,942	800,000	0,046	-0,117
-224,927	686,892	-0,015	0,027
-223,913	-57,031	-0,132	-0,041
-222,898	-154,049	-0,103	0,005
-221,884	151,436	0,016	0,015
-220,869	-200,000	0,006	0,066
-219,855	312,079	0,060	0,080
-218,840	-200,000	0,019	0,068
-217,825	397,006	-0,033	-0,049
-216,811	205,133	0,067	-0,074
-215,796	-200,000	0,012	-0,109
-214,782	11,133	0,035	-0,019
-213,767	-200,000	-0,021	0,204
-212,752	-85,930	0,058	0,013
-211,738	-200,000	-0,002	-0,009
-210,723	539,703	-0,020	-0,034
-209,709	-27,087	0,099	-0,041
-208,694	-157,917	-0,086	-0,004
-207,679	-200,000	0,036	0,000
-206,665	143,848	0,045	-0,043
-205,650	800,000	0,026	-0,060
-204,636	-168,629	0,164	0,004
-203,621	315,431	-0,072	-0,096
-202,606	-200,000	-0,016	-0,053
-201,592	-52,222	-0,072	-0,023
-200,577	-76,508	-0,178	-0,044
-199,563	800,000	-0,051	0,123
-198,548	-46,282	0,066	0,023
-197,533	-200,000	-0,022	0,116
-196,519	-200,000	-0,027	0,130
-195,504	-132,278	-0,148	-0,013
-194,490	-200,000	-0,001	0,047
-193,475	800,000	0,011	-0,025
-192,460	800,000	0,026	-0,054
-191,446	141,569	0,038	-0,036
-190,431	-200,000	-0,003	0,051
-189,417	-102,099	0,013	-0,002
-188,402	800,000	-0,017	-0,040
-187,387	415,687	-0,060	-0,092
-186,373	-200,000	-0,019	-0,183
-185,358	-81,782	0,229	0,053
-184,344	-200,000	0,029	0,097
-183,329	147,473	0,114	0,109
-182,315	57,529	0,091	0,063
-181,300	108,158	-0,054	0,046
-180,285	-200,000	0,006	-0,109
-179,271	651,968	-0,016	-0,029
-178,256	800,000	0,057	-0,125
-177,242	217,358	-0,032	-0,037
-176,227	95,551	0,075	-0,061
-175,212	9,426	0,048	-0,026
-174,198	-200,000	0,018	0,058
-173,183	-3,512	-0,090	-0,045
-172,169	380,500	-0,090	-0,131
-171,154	-200,000	-0,003	0,015
-170,139	576,131	0,017	0,030
-169,125	-110,475	0,143	-0,021
-168,110	252,144	0,043	0,052
-167,096	31,999	-0,080	-0,049
-166,081	265,620	0,060	-0,074
-165,066	-177,536	-0,156	-0,003
-164,052	-200,000	-0,041	-0,130
-163,037	29,020	-0,073	-0,044
-162,023	800,000	0,021	-0,049
-161,008	-71,969	-0,074	0,019
-159,993	107,368	-0,013	0,011
-158,979	-105,931	-0,103	0,016
-157,964	345,160	-0,062	-0,087
-156,950	24,345	-0,165	-0,097
-155,935	227,293	-0,054	0,062
-154,920	11,483	0,053	-0,029
-153,906	-1,894	0,041	0,020
-152,891	-27,696	-0,110	0,045
-151,877	-67,550	0,110	-0,030
-150,862	-18,796	-0,175	-0,077
-149,847	343,499	-0,040	0,056
-148,833	133,103	0,101	-0,093
-147,818	-107,930	-0,113	0,017
-146,804	-59,568	0,088	-0,027
-145,789	-200,000	-0,031	-0,101
-144,775	-200,000	0,001	0,035
-143,760	-66,675	-0,055	0,015
-142,745	461,311	-0,019	-0,030
-141,731	-200,000	0,009	-0,049
-140,716	44,692	0,091	0,059
-139,702	18,590	0,084	0,048
-138,687	279,843	-0,055	-0,070
-137,672	248,225	-0,048	-0,058
-136,658	282,280	-0,014	0,018
-135,643	517,108	-0,063	-0,105
-134,629	157,585	-0,107	-0,106
-133,614	-93,494	0,152	-0,030
-132,599	800,000	0,046	0,120
-131,585	67,974	-0,035	0,025
-130,570	3,120	0,084	-0,043
-129,556	-59,631	-0,068	0,021
-128,541	-150,639	0,092	0,005
-127,526	800,000	-0,074	0,178
-126,512	42,724	0,129	0,083
-125,497	800,000	0,008	0,018
-124,483	25,060	-0,076	0,045
-123,468	72,797	0,093	0,069
-122,453	372,899	-0,022	-0,031
-121,439	-200,000	-0,079	-0,270
-120,424	167,597	-0,064	-0,065
-119,410	-170,924	-0,042	0,001
-118,395	-103,977	0,103	0,017
-117,380	-22,420	-0,110	-0,047
-116,366	-58,505	0,094	-0,029
-115,351	-98,688	-0,163	-0,029
-114,337	245,037	-0,063	-0,076
-113,322	515,084	-0,061	-0,101
-112,307	-26,505	0,165	0,068
-111,293	257,876	-0,076	-0,092
-110,278	-197,380	0,037	-0,000
-109,264	37,837	-0,103	-0,065
-108,249	800,000	-0,086	-0,220
-107,234	552,567	-0,034	-0,058
-106,220	800,000	0,040	0,092
-105,205	-200,000	-0,014	0,162
-104,191	-30,668	0,175	-0,070
-103,176	262,912	0,065	-0,080
-102,162	-200,000	-0,021	0,108
-101,147	-136,479	-0,199	0,016
-100,132	89,723	-0,060	-0,048
-99,118	70,003	0,096	0,070
-98,103	192,870	-0,074	-0,079
-97,089	-200,000	-0,022	0,106
-96,074	223,515	-0,080	0,092
-95,059	179,274	-0,088	-0,092
-94,045	22,327	0,095	0,055
-93,030	-165,434	-0,095	-0,003
-92,016	-200,000	-0,005	-0,039
-91,001	800,000	0,020	-0,048
-89,986	-200,000	-0,003	-0,079
-88,972	800,000	0,033	-0,072
-87,957	-43,222	0,081	0,029
-86,943	-200,000	0,011	0,044
-85,928	-133,068	-0,119	-0,011
-84,913	118,418	0,033	0,029
-83,899	-117,712	-0,053	0,007
-82,884	75,704	0,080	0,060
-81,870	176,384	-0,102	0,105
-80,855	38,242	0,007	0,005
-79,840	-75,802	-0,136	-0,034
-78,826	56,398	0,037	-0,026
-77,811	800,000	0,019	0,056
-76,797	87,959	-0,133	0,104
-75,782	179,261	-0,030	0,031
-74,767	-86,668	0,161	0,035
-73,753	-12,274	0,079	0,036
-72,738	-73,164	0,098	-0,025
-71,724	548,363	0,069	0,117
-70,709	119,936	0,092	-0,081
-69,694	-29,646	0,046	-0,018
-68,680	800,000	-0,025	0,065
-67,665	-15,690	-0,023	-0,010
-66,651	-200,000	0,009	0,096
-65,636	-53,378	-0,107	0,035
-64,622	800,000	-0,022	0,049
-63,607	-55,811	0,097	-0,030
-62,592	328,281	-0,069	-0,094
-61,578	166,430	0,052	0,053
-60,563	-107,631	-0,089	-0,014
-59,549	800,000	-0,034	0,088
-58,534	-34,174	-1,783	-0,690
-57,519	430,728	-1,370	-2,106
-56,505	-200,000	-0,391	-4,472
-55,490	257,345	0,900	1,097
-54,476	800,000	4,969	11,410
-53,461	-200,000	19,289	326,382
-52,446	-200,000	740,638	2338,227
-51,432	572,762	1652,025	2859,386
-50,417	77,769	1666,975	1255,047
-49,403	20,974	1540,065	880,960
-48,388	14,867	1462,466	806,972
-47,373	18,358	1453,219	818,652
-46,359	16,848	1442,730	805,499
-45,344	13,118	1437,963	784,998
-44,330	13,102	1436,063	783,851
-43,315	13,081	1434,406	782,816
-42,300	13,117	1432,598	781,973
-41,286	13,092	1431,480	781,211
-40,271	13,067	1429,964	780,233
-39,257	13,035	1428,988	779,517
-38,242	13,105	1427,510	779,011
-37,227	13,142	1426,304	778,500
-36,213	13,110	1424,957	777,581
-35,198	13,093	1423,930	776,908
-34,184	13,130	1423,027	776,560
-33,169	13,088	1421,673	775,595
-32,154	13,150	1420,651	775,300
-31,140	13,144	1419,308	774,507
-30,125	13,161	1418,232	773,968
-29,111	13,110	1417,147	773,105
-28,096	13,142	1416,105	772,656
-27,082	13,072	1414,953	771,668
-26,067	13,000	1413,883	770,715
-25,052	13,023	1413,013	770,321
-24,038	12,964	1411,949	769,432
-23,023	13,026	1410,917	769,131
-22,009	13,046	1409,961	768,670
-20,994	12,977	1409,230	767,917
-19,979	13,003	1408,198	767,446
-18,965	13,004	1407,051	766,798
-17,950	12,999	1406,097	766,225
-16,936	13,017	1405,170	765,771
-15,921	12,962	1404,409	765,072
-14,906	12,929	1403,447	764,364
-13,892	12,977	1402,403	763,988
-12,877	12,998	1401,357	763,483
-11,863	12,967	1400,666	762,933
-10,848	12,949	1399,841	762,372
-9,833	12,920	1398,908	761,697
-8,819	12,866	1398,107	760,980
-7,804	12,872	1397,115	760,435
-6,790	12,859	1396,282	759,892
-5,775	12,838	1395,229	759,193
-4,760	12,823	1394,237	758,555
-3,746	12,877	1393,186	758,200
-2,731	12,777	1392,538	757,357
-1,717	12,765	1391,638	756,782
-0,702	12,796	1389,800	755,896
0,313	16,796	1306,037	728,753
1,327	33,214	700,675	428,718
2,342	51,154	122,681	82,137
3,356	2,819	16,571	8,472
4,371	1,111	3,377	1,707
5,386	-63,491	0,610	0,176
6,400	800,000	0,118	0,274
7,415	254,692	-0,203	-0,246
8,429	-37,985	-0,289	-0,108
9,444	-37,795	-0,454	-0,170
10,459	148,526	-0,293	-0,279
11,473	2,035	-0,370	-0,188
12,488	135,167	-0,193	-0,177
13,502	87,977	-0,389	-0,304
14,517	61,231	-0,290	-0,203
15,531	27,689	-0,488	-0,290
16,546	88,879	-0,362	-0,284
17,561	86,133	-0,426	-0,331
18,575	-68,181	-0,216	0,059
19,590	54,548	-0,215	-0,146
20,604	404,205	-0,108	-0,161
21,619	92,447	-0,489	-0,389
22,634	-13,461	-0,541	-0,246
23,648	133,431	-0,369	-0,337
24,663	119,199	-0,363	-0,316
25,677	180,071	-0,317	-0,328
26,692	-19,211	-0,321	-0,140
27,707	67,819	-0,303	-0,218
28,721	83,512	-0,260	-0,200
29,736	103,246	-0,324	-0,268
30,750	38,537	-0,364	-0,228
31,765	216,113	-0,330	-0,370
32,780	53,844	-0,353	-0,239
33,794	123,320	-0,315	-0,278
34,809	184,317	-0,238	-0,249
35,823	71,152	-0,414	-0,302
36,838	139,920	-0,364	-0,338
37,853	-4,166	-0,374	-0,182
38,867	58,220	-0,390	-0,269
39,882	252,797	-0,342	-0,412
40,896	56,448	-0,289	-0,197
41,911	-40,323	-0,414	-0,151
42,926	154,713	-0,260	-0,252
43,940	104,662	-0,444	-0,368
44,955	-52,609	-0,317	-0,102
45,969	-6,637	-0,308	-0,147
46,984	85,663	-0,284	-0,219
47,999	-53,206	-0,413	-0,133
49,013	30,314	-0,313	-0,188
50,028	-14,241	-0,362	-0,163
51,042	74,900	-0,367	-0,272
52,057	198,771	-0,370	-0,399
53,071	23,655	-0,279	-0,162
54,086	93,341	-0,334	-0,265
55,101	9,187	-0,334	-0,177
56,115	93,948	-0,225	-0,179
57,130	62,674	-0,319	-0,224
58,144	281,439	-0,314	-0,396
59,159	136,841	-0,420	-0,386
60,174	56,701	-0,431	-0,295
61,188	108,827	-0,311	-0,261
62,203	74,228	-0,360	-0,266
63,217	139,736	-0,285	-0,264
64,232	-67,253	-0,453	-0,124
65,247	-52,929	-0,455	-0,146
66,261	123,348	-0,391	-0,345
67,276	170,876	-0,275	-0,277
68,290	75,185	-0,330	-0,244
69,305	-6,040	-0,379	-0,182
70,320	179,545	-0,272	-0,280
71,334	86,348	-0,239	-0,185
72,349	36,899	-0,379	-0,235
73,363	196,216	-0,251	-0,268
74,378	-43,683	-0,320	-0,113
75,393	60,060	-0,286	-0,198
76,407	-163,746	-0,295	-0,010
77,422	256,540	-0,168	-0,203
78,436	96,451	-0,274	-0,220
79,451	32,502	-0,340	-0,206
80,466	170,972	-0,264	-0,266
81,480	40,533	-0,389	-0,246
82,495	26,529	-0,155	-0,091
83,509	83,166	-0,205	-0,157
84,524	-143,190	-0,316	0,021
85,539	-111,314	-0,231	-0,033
86,553	-32,307	-0,445	-0,174
87,568	65,777	-0,328	-0,233
88,582	301,115	-0,219	-0,284
89,597	92,752	-0,295	-0,233
90,611	134,102	-0,189	-0,172
91,626	-46,695	-0,348	-0,119
92,641	117,254	-0,214	-0,185
93,655	-92,209	-0,391	-0,077
94,670	46,124	-0,353	-0,229
95,684	152,488	-0,248	-0,237
96,699	139,283	-0,366	-0,338
97,714	23,232	-0,384	-0,221
98,728	30,203	-0,187	-0,112
99,743	12,681	-0,277	-0,150
100,757	-95,904	-0,366	-0,068
101,772	33,133	-0,246	-0,149
102,787	166,530	-0,301	-0,299
103,801	204,086	-0,232	-0,252
104,816	91,687	-0,264	-0,208
105,830	134,496	-0,191	-0,174
106,845	61,739	-0,280	-0,195
107,860	58,704	-0,365	-0,251
108,874	57,247	-0,311	-0,212
109,889	62,876	-0,304	-0,212
110,903	-2,323	-0,314	-0,154
111,918	269,819	-0,230	-0,284
112,933	-101,916	-0,285	-0,048
113,947	49,256	-0,265	-0,174
114,962	336,908	-0,048	-0,066
115,976	22,799	-0,288	-0,164
116,991	528,117	-0,153	-0,253
118,006	188,869	-0,300	-0,315
119,020	166,709	-0,248	-0,246
120,035	61,793	-0,220	-0,153
121,049	-108,485	-0,205	0,031
122,064	-6,601	-0,249	-0,118
123,079	133,757	-0,186	-0,169
124,093	89,429	-0,277	-0,216
125,108	-137,980	-0,315	-0,024
126,122	140,688	-0,149	-0,138
127,137	-12,418	-0,338	-0,154
128,151	101,134	-0,206	-0,167
129,166	58,194	-0,240	-0,164
130,181	310,337	-0,170	-0,222
131,195	5,392	-0,260	-0,134
132,210	-21,082	-0,233	-0,099
133,224	319,784	-0,170	-0,226
134,239	141,690	-0,315	-0,292
135,254	-111,911	-0,317	-0,044
136,268	-65,908	-0,310	-0,086
137,283	191,425	-0,210	-0,221
138,297	260,936	-0,192	-0,233
139,312	41,865	-0,219	-0,139
140,327	50,289	-0,288	-0,189
141,341	152,526	-0,260	-0,248
142,356	136,623	-0,291	-0,265
143,370	28,809	-0,332	-0,196
144,385	383,448	-0,164	-0,236
145,400	67,378	-0,249	-0,177
146,414	52,882	-0,237	-0,158
147,429	136,099	-0,205	-0,187
148,443	205,247	-0,185	-0,201
149,458	122,715	-0,293	-0,256
150,473	-52,971	-0,320	-0,102
151,487	138,426	-0,221	-0,202
152,502	102,136	-0,362	-0,295
153,516	187,513	-0,221	-0,230
154,531	296,068	-0,197	-0,253
155,546	-187,221	-0,403	-0,004
156,560	43,618	-0,239	-0,152
157,575	6,471	-0,290	-0,150
158,589	-45,029	-0,268	-0,093
159,604	200,066	-0,267	-0,286
160,619	120,414	-0,236	-0,205
161,633	153,439	-0,216	-0,206
162,648	275,362	-0,168	-0,208
163,662	-9,251	-0,311	-0,144
164,677	-58,138	-0,148	-0,045
165,692	-5,113	-0,321	-0,153
166,706	286,796	-0,159	-0,201
167,721	112,642	-0,172	-0,145
168,735	181,167	-0,079	-0,081
169,750	31,514	-0,215	-0,129
170,764	-49,574	-0,348	-0,115
171,779	-101,566	-0,261	-0,044
172,794	32,888	-0,262	-0,158
173,808	202,057	-0,219	-0,235
174,823	117,178	-0,305	-0,261
175,837	-31,847	-0,395	-0,153
176,852	266,999	-0,193	-0,236
177,867	502,674	-0,168	-0,271
178,881	480,072	-0,159	-0,251
179,896	-19,121	-0,207	-0,089
180,910	23,130	-0,242	-0,138
181,925	43,242	-0,260	-0,165
182,940	237,828	-0,165	-0,191
183,954	152,932	-0,344	-0,327
184,969	172,238	-0,169	-0,170
185,983	-67,898	-0,061	0,016
186,998	200,120	-0,160	-0,171
188,013	180,667	-0,219	-0,224
189,027	81,034	-0,207	-0,155
190,042	132,061	-0,200	-0,179
191,056	51,294	-0,284	-0,187
192,071	392,744	-0,133	-0,193
193,086	62,191	-0,243	-0,168
194,100	96,019	-0,154	-0,122
195,115	54,297	-0,247	-0,165
196,129	153,378	-0,156	-0,149
197,144	243,075	-0,214	-0,249
198,159	203,186	-0,235	-0,253
199,173	-149,151	-0,194	0,011
200,188	365,947	-0,075	-0,105
201,202	117,796	-0,188	-0,161
202,217	120,318	-0,217	-0,187
203,232	-25,777	-0,320	-0,130
204,246	118,680	-0,278	-0,238
205,261	27,974	-0,244	-0,142
206,275	-189,073	-0,193	-0,002
207,290	35,021	-0,191	-0,116
208,304	262,370	-0,158	-0,191
209,319	129,142	-0,118	-0,104
210,334	-44,807	-0,248	-0,085
211,348	104,949	-0,348	-0,285
212,363	211,932	-0,158	-0,173
213,377	103,202	-0,146	-0,119
214,392	-42,956	-0,191	-0,067
215,407	200,473	-0,077	-0,082
216,421	-42,591	-0,173	-0,061
217,436	-120,905	-0,250	-0,029
218,450	551,426	-0,123	-0,206
219,465	800,000	-0,182	-0,350
220,480	585,058	-0,039	-0,068
221,494	-86,374	-0,304	-0,064
222,509	199,178	-0,216	-0,230
223,523	-200,000	-0,011	-0,132
224,538	17,718	-0,140	-0,077
225,553	147,965	-0,246	-0,230
226,567	140,653	-0,163	-0,149
227,582	19,457	-0,168	-0,093
228,596	-200,000	-0,065	-0,261
229,611	221,886	-0,176	-0,197
230,626	25,361	-0,205	-0,118
231,640	375,309	-0,155	-0,219
232,655	174,299	-0,238	-0,238
233,669	168,678	-0,216	-0,213
234,684	80,252	-0,248	-0,184
235,699	216,160	-0,118	-0,130
236,713	399,042	-0,105	-0,153
237,728	173,074	-0,182	-0,182
238,742	128,066	-0,277	-0,244
239,757	174,983	-0,160	-0,161
240,772	63,525	-0,199	-0,138
241,786	148,453	-0,252	-0,236
242,801	94,934	-0,250	-0,197
243,815	443,931	-0,101	-0,153
244,830	23,702	-0,165	-0,094
245,844	-135,988	-0,152	-0,012
246,859	198,241	-0,174	-0,184
247,874	616,203	-0,087	-0,151
248,888	-200,000	-0,018	-0,065
249,903	150,877	-0,070	-0,066
250,917	800,000	-0,074	-0,150
251,932	688,993	-0,155	-0,282
252,947	374,741	-0,117	-0,165
253,961	800,000	-0,033	-0,072
254,976	5,094	-0,194	-0,098
255,990	74,987	-0,219	-0,160
257,005	232,681	-0,215	-0,245
258,020	-5,325	-0,189	-0,090
259,034	-76,868	-0,131	0,031
260,049	800,000	-0,047	-0,128
261,063	-6,486	-0,203	-0,095
262,078	-12,750	-0,169	-0,076
263,093	-21,504	-0,197	-0,083
264,107	126,654	-0,197	-0,173
265,122	14,216	-0,188	-0,101
266,136	800,000	-0,075	-0,175
267,151	-47,718	-0,237	-0,079
268,166	483,620	-0,177	-0,278
269,180	800,000	-0,108	-0,242
270,195	377,251	-0,180	-0,255
271,209	75,721	-0,162	-0,118
272,224	337,253	-0,077	-0,104
273,239	230,084	-0,108	-0,122
274,253	-41,310	-0,170	-0,060
275,268	70,303	-0,160	-0,114
276,282	379,352	-0,068	-0,096
277,297	0,104	-0,168	-0,082
278,312	-93,657	-0,228	0,043
279,326	323,889	-0,048	-0,064
280,341	-40,338	-0,183	-0,065
281,355	93,174	-0,075	-0,058
282,370	-32,803	-0,145	-0,055
283,384	326,094	-0,161	-0,213
284,399	-12,690	-0,261	-0,117
285,414	-12,906	-0,188	-0,084
286,428	685,677	-0,039	-0,071
287,443	238,837	-0,107	-0,123
288,457	79,496	-0,245	-0,181
289,472	172,377	-0,079	-0,078
290,487	1,530	-0,267	-0,132
291,501	176,901	-0,202	-0,203
292,516	409,736	-0,093	-0,136
293,530	-26,419	-0,163	-0,066
294,545	42,270	-0,097	-0,061
295,560	-45,832	-0,234	-0,079
296,574	-140,586	-0,019	0,001
297,589	800,000	-0,086	-0,174
298,603	800,000	-0,113	-0,325
299,618	247,400	-0,111	-0,129
300,633	-127,598	-0,168	-0,017
301,647	67,772	-0,188	-0,132
302,662	-200,000	-0,006	-0,114
303,676	396,025	-0,119	-0,171
304,691	-106,811	-0,097	-0,015
305,706	-17,547	-0,182	-0,078
306,720	-200,000	-0,009	-0,110
307,735	800,000	-0,054	-0,161
308,749	-123,594	-0,089	-0,010
309,764	-53,282	-0,119	-0,037
310,779	-200,000	0,004	-0,049
311,793	30,240	-0,244	-0,143
312,808	210,860	-0,134	-0,145
313,822	-93,851	-0,185	-0,035
314,837	376,764	-0,055	-0,078
315,852	800,000	-0,058	-0,115
316,866	57,403	-0,106	-0,071
317,881	288,822	-0,093	-0,116
318,895	800,000	-0,089	-0,187
319,910	169,813	-0,123	-0,121
320,925	113,447	-0,103	-0,086
321,939	-37,089	-0,201	0,074
322,954	36,325	-0,187	-0,113
323,968	-97,001	-0,055	0,010
324,983	332,394	-0,157	-0,209
325,997	506,001	-0,114	-0,181
327,012	-23,256	-0,081	-0,033
328,027	49,031	-0,111	-0,072
329,041	418,844	-0,183	-0,270
330,056	800,000	-0,097	-0,244
331,070	-118,192	-0,132	0,016
332,085	-14,840	-0,133	0,058
333,100	-55,809	-0,178	-0,054
334,114	-32,892	-0,151	-0,057
335,129	-200,000	-0,078	-0,264
336,143	75,719	-0,102	-0,074
337,158	350,480	-0,067	-0,091
338,173	184,697	-0,079	-0,080
339,187	35,503	-0,139	-0,084
340,202	122,930	-0,083	-0,071
341,216	800,000	-0,078	-0,178
342,231	800,000	-0,077	-0,167
343,246	-15,777	-0,152	0,066
344,260	-70,994	-0,204	-0,052
345,275	-145,236	-0,173	0,011
346,289	120,644	-0,076	-0,065
347,304	29,737	-0,125	-0,073
348,319	-66,223	-0,174	0,047
349,333	45,800	-0,168	-0,106
350,348	-4,646	-0,203	-0,096
351,362	-119,554	-0,224	0,026
352,377	-121,968	-0,141	0,016
353,392	429,045	-0,100	-0,148
354,406	93,742	-0,037	0,029
355,421	207,483	1312,492	1405,416
356,435	159,615	1472,934	1405,918
