DTS Sentinel unit serial number:	SN410029Multiplexer serial number:	ORYXHardware model number:	OX2-SRSoftware version number:	ORYX F/W v4,00 Oryx Data Collector v3.7.2.0data status	okinstallation	B3 Nyhavnadifferential loss correction	single-endedforward channel	channel 1reverse channel	N/Adate	2023/12/02time	13:47:30forward acquisition time	300,00reverse acquisition time	0,00gamma	499,1914k internal	0,3198k external	0,3198temperature offset calibration	1,0000default loss term (dB/km)	0,3820temperature slope calibration	1,0000multiplexer offset coefficient	1,0000multiplexer slope coefficient	1,0000fibre end	0,00T internal ref (°C)	14,68T ext. ref 1 (°C)	0,34T ext. ref 2 (°C)	0,32length (m)	temperature (°C)	Stokes	anti-Stokes-744,400	-3,239	-0,239	-0,121
-743,385	617,449	0,128	0,235
-742,371	58,289	-0,214	-0,152
-741,356	800,000	0,142	0,317
-740,342	-0,976	-0,270	-0,139
-739,327	-200,000	0,055	0,199
-738,312	76,227	-0,312	-0,240
-737,298	-200,000	-0,059	0,261
-736,283	171,582	-0,168	-0,176
-735,269	765,032	0,143	0,283
-734,254	690,023	-0,148	-0,283
-733,239	387,693	-0,111	0,167
-732,225	74,992	-0,188	-0,144
-731,210	-12,781	0,120	0,056
-730,196	217,382	-0,014	-0,017
-729,181	-200,000	-0,015	0,074
-728,167	-103,004	-0,048	-0,008
-727,152	212,833	-0,060	0,069
-726,137	624,181	0,020	0,037
-725,123	-92,767	-0,029	-0,006
-724,108	-70,149	-0,163	-0,045
-723,094	-130,462	0,088	0,009
-722,079	106,093	-0,068	-0,059
-721,064	-200,000	-0,019	-0,134
-720,050	757,971	-0,019	-0,037
-719,035	8,477	-0,065	-0,035
-718,021	244,535	-0,048	-0,059
-717,006	24,579	0,038	-0,023
-715,991	60,264	-0,156	-0,112
-714,977	-4,794	-0,097	-0,048
-713,962	-69,074	-0,043	0,012
-712,948	-79,493	0,093	-0,023
-711,933	-200,000	-0,003	-0,011
-710,918	800,000	0,037	-0,079
-709,904	108,283	0,046	0,040
-708,889	800,000	-0,034	-0,082
-707,875	-44,728	0,031	0,011
-706,860	-200,000	-0,029	0,105
-705,845	800,000	-0,071	-0,176
-704,831	-133,870	0,154	-0,014
-703,816	59,875	-0,059	0,042
-702,802	1,556	0,097	-0,051
-701,787	-116,358	-0,142	-0,019
-700,772	79,022	0,153	-0,119
-699,758	-200,000	-0,006	0,069
-698,743	800,000	0,037	-0,117
-697,729	-115,335	-0,142	0,019
-696,714	-200,000	-0,031	0,191
-695,699	-88,593	-0,126	-0,027
-694,685	800,000	0,030	-0,093
-693,670	-78,069	0,072	-0,018
-692,656	111,782	-0,084	0,074
-691,641	58,202	-0,083	0,059
-690,627	-0,715	0,075	-0,039
-689,612	39,900	-0,007	0,004
-688,597	-99,922	0,037	0,007
-687,583	124,039	-0,096	-0,087
-686,568	19,468	0,037	0,022
-685,554	-15,474	-0,087	-0,040
-684,539	90,392	0,046	0,038
-683,524	90,624	0,055	0,044
-682,510	338,839	0,026	0,037
-681,495	86,675	0,038	-0,030
-680,481	752,899	0,063	-0,124
-679,466	13,416	-0,128	-0,072
-678,451	353,824	0,089	-0,129
-677,437	-200,000	-0,019	-0,116
-676,422	47,789	0,011	-0,008
-675,408	-91,291	0,079	-0,016
-674,393	-11,855	-0,098	-0,047
-673,378	15,569	-0,074	-0,042
-672,364	95,558	-0,142	-0,118
-671,349	667,419	0,041	0,077
-670,335	466,797	-0,042	0,068
-669,320	800,000	0,057	0,179
-668,305	-200,000	-0,027	0,094
-667,291	800,000	0,021	0,046
-666,276	-33,920	-0,186	-0,074
-665,262	-200,000	-0,057	-0,189
-664,247	-16,456	-0,098	-0,045
-663,232	-200,000	0,004	-0,030
-662,218	307,843	-0,125	0,170
-661,203	-200,000	0,030	0,135
-660,189	406,320	0,110	0,169
-659,174	-59,625	-0,117	-0,036
-658,159	-84,897	-0,090	0,020
-657,145	39,550	-0,100	0,065
-656,130	317,576	0,054	0,074
-655,116	-165,990	0,126	-0,004
-654,101	-88,622	0,064	-0,014
-653,086	9,550	-0,131	-0,072
-652,072	-112,833	-0,097	0,014
-651,057	-96,918	-0,126	-0,024
-650,043	593,356	-0,020	0,035
-649,028	-13,232	-0,047	-0,022
-648,014	-48,021	0,095	-0,033
-646,999	-200,000	0,000	0,095
-645,984	31,667	0,121	0,075
-644,970	800,000	-0,037	0,093
-643,955	480,800	0,007	0,012
-642,941	795,510	0,029	-0,059
-641,926	272,282	-0,088	0,113
-640,911	-24,505	0,039	0,017
-639,897	-106,436	-0,106	0,017
-638,882	-200,000	0,013	0,068
-637,868	-200,000	-0,006	0,081
-636,853	257,101	-0,059	-0,074
-635,838	-200,000	-0,004	0,021
-634,824	120,252	0,063	0,057
-633,809	-200,000	0,008	0,058
-632,795	-200,000	-0,001	-0,016
-631,780	19,749	0,157	-0,091
-630,765	-127,907	-0,053	0,005
-629,751	-200,000	-0,002	-0,052
-628,736	660,704	0,091	-0,170
-627,722	9,718	-0,068	-0,037
-626,707	34,560	0,095	-0,060
-625,692	-30,946	0,098	-0,040
-624,678	155,468	-0,041	0,041
-623,663	221,597	-0,048	-0,056
-622,649	-94,580	0,122	-0,024
-621,634	-173,069	0,084	0,002
-620,619	-200,000	0,017	-0,070
-619,605	-37,233	0,028	0,011
-618,590	13,194	-0,092	0,052
-617,576	-65,187	-0,118	-0,034
-616,561	-200,000	-0,001	-0,029
-615,546	229,841	0,084	-0,099
-614,532	-200,000	-0,004	-0,023
-613,517	187,946	-0,082	-0,089
-612,503	64,182	-0,105	0,077
-611,488	-24,073	-0,074	-0,032
-610,474	800,000	0,005	0,014
-609,459	375,390	0,046	0,068
-608,444	-200,000	0,003	0,070
-607,430	-200,000	0,003	-0,105
-606,415	-86,391	-0,107	-0,024
-605,401	800,000	0,009	0,030
-604,386	24,180	-0,079	0,047
-603,371	79,805	0,048	0,037
-602,357	800,000	-0,071	0,190
-601,342	117,960	-0,066	-0,058
-600,328	539,688	0,006	-0,011
-599,313	289,059	-0,010	-0,014
-598,298	160,859	0,052	-0,053
-597,284	-200,000	0,007	-0,039
-596,269	398,648	0,047	0,071
-595,255	12,701	0,074	0,041
-594,240	-96,686	-0,025	0,005
-593,225	-47,546	-0,061	0,021
-592,211	-9,396	-0,174	-0,084
-591,196	278,972	-0,017	-0,023
-590,182	111,401	0,038	0,034
-589,167	800,000	0,014	0,037
-588,152	-122,724	0,058	-0,007
-587,138	767,805	0,019	-0,037
-586,123	-7,751	-0,124	-0,061
-585,109	800,000	-0,031	-0,069
-584,094	422,538	0,056	0,087
-583,079	-200,000	-0,001	0,131
-582,065	115,929	-0,047	-0,041
-581,050	239,949	-0,062	-0,075
-580,036	-54,679	0,089	0,029
-579,021	-200,000	-0,014	-0,192
-578,006	-200,000	0,005	-0,075
-576,992	184,948	-0,093	0,100
-575,977	-200,000	0,018	0,117
-574,963	-88,679	0,178	0,038
-573,948	126,744	0,056	0,051
-572,934	-6,400	0,128	0,063
-571,919	-50,986	-0,065	-0,022
-570,904	800,000	-0,046	-0,095
-569,890	-200,000	-0,007	-0,077
-568,875	800,000	0,072	-0,190
-567,861	3,170	-0,042	0,022
-566,846	-200,000	-0,011	0,041
-565,831	800,000	-0,027	-0,073
-564,817	379,724	-0,075	-0,111
-563,802	-200,000	-0,030	-0,159
-562,788	570,202	0,019	-0,033
-561,773	-101,173	0,156	-0,027
-560,758	-200,000	0,016	0,055
-559,744	142,335	-0,053	0,051
-558,729	-157,602	0,087	0,004
-557,715	-56,137	-0,177	-0,057
-556,700	54,308	-0,055	0,038
-555,685	-24,288	-0,128	-0,055
-554,671	27,271	0,072	-0,044
-553,656	800,000	-0,033	0,085
-552,642	87,102	-0,068	0,054
-551,627	-31,563	-0,150	0,061
-550,612	-41,321	-0,139	-0,051
-549,598	135,325	-0,037	-0,035
-548,583	35,554	0,102	-0,064
-547,569	252,792	-0,008	0,010
-546,554	-200,000	0,024	0,149
-545,539	80,846	0,265	0,207
-544,525	800,000	0,058	0,120
-543,510	-96,663	-0,164	-0,031
-542,496	375,741	-0,006	0,010
-541,481	482,874	0,092	-0,152
-540,466	-142,806	-0,069	0,005
-539,452	-179,255	0,163	-0,003
-538,437	218,038	-0,040	-0,046
-537,423	157,777	-0,034	0,034
-536,408	-200,000	0,013	-0,063
-535,393	-200,000	-0,011	0,046
-534,379	800,000	0,020	-0,042
-533,364	-200,000	0,004	0,065
-532,350	-200,000	-0,008	0,093
-531,335	33,444	0,150	0,094
-530,321	800,000	0,023	0,071
-529,306	-200,000	0,056	-0,187
-528,291	-135,235	-0,076	-0,006
-527,277	800,000	-0,019	-0,044
-526,262	-55,602	0,129	0,041
-525,248	37,766	-0,020	0,013
-524,233	-200,000	0,024	0,094
-523,218	154,742	0,020	0,020
-522,204	201,012	-0,006	0,007
-521,189	-200,000	0,017	-0,090
-520,175	-200,000	-0,001	-0,072
-519,160	800,000	0,019	-0,057
-518,145	-200,000	-0,011	0,043
-517,131	57,395	0,139	0,098
-516,116	-200,000	-0,009	0,055
-515,102	302,719	0,092	0,123
-514,087	-200,000	-0,007	0,041
-513,072	9,689	0,026	0,014
-512,058	-49,507	-0,079	-0,027
-511,043	-54,352	0,179	-0,058
-510,029	-200,000	-0,001	0,164
-509,014	289,232	-0,093	0,122
-507,999	800,000	0,003	-0,010
-506,985	-138,440	-0,071	0,006
-505,970	-30,148	0,074	0,030
-504,956	-163,041	-0,191	0,007
-503,941	248,875	0,009	-0,012
-502,926	-98,501	0,025	0,004
-501,912	800,000	-0,033	0,071
-500,897	-200,000	0,021	0,081
-499,883	-200,000	-0,017	0,061
-498,868	5,974	-0,010	0,005
-497,853	96,671	-0,104	-0,086
-496,839	30,575	-0,082	0,050
-495,824	42,039	0,119	0,078
-494,810	-109,522	-0,033	-0,005
-493,795	-87,266	0,067	-0,014
-492,781	-92,692	-0,010	0,002
-491,766	-200,000	-0,005	-0,061
-490,751	-200,000	0,008	0,029
-489,737	68,039	0,117	0,086
-488,722	800,000	-0,006	-0,017
-487,708	91,272	-0,091	0,074
-486,693	-126,024	0,094	-0,010
-485,678	-16,609	-0,129	-0,059
-484,664	-200,000	-0,019	-0,112
-483,649	340,135	-0,094	0,132
-482,635	800,000	0,012	0,034
-481,620	472,630	0,018	-0,030
-480,605	-157,649	0,126	0,005
-479,591	242,223	-0,036	-0,044
-478,576	140,105	-0,117	-0,111
-477,562	-111,475	-0,142	-0,021
-476,547	-200,000	-0,011	-0,115
-475,532	-77,378	-0,042	0,010
-474,518	-12,390	-0,080	0,038
-473,503	156,999	0,074	0,074
-472,489	800,000	0,047	0,117
-471,474	154,606	-0,092	-0,091
-470,459	214,664	-0,015	-0,017
-469,445	63,062	-0,031	-0,022
-468,430	344,803	0,068	-0,097
-467,416	434,814	0,020	0,031
-466,401	222,116	-0,041	-0,048
-465,386	800,000	-0,038	0,092
-464,372	218,850	-0,032	0,037
-463,357	-61,156	0,016	-0,005
-462,343	-5,609	-0,188	-0,093
-461,328	-200,000	-0,018	0,058
-460,313	800,000	0,037	0,097
-459,299	-135,571	0,072	0,006
-458,284	-200,000	0,017	0,096
-457,270	-200,000	0,013	0,055
-456,255	73,609	0,092	0,069
-455,241	173,304	-0,085	-0,088
-454,226	-200,000	-0,024	-0,107
-453,211	77,177	0,026	0,020
-452,197	122,396	0,071	-0,064
-451,182	53,259	0,022	-0,015
-450,168	800,000	0,037	-0,074
-449,153	800,000	0,020	0,057
-448,138	800,000	-0,016	0,037
-447,124	-157,459	-0,081	0,003
-446,109	75,889	-0,034	-0,026
-445,095	-200,000	0,021	-0,128
-444,080	-82,498	0,063	-0,015
-443,065	135,601	-0,084	0,079
-442,051	-91,256	-0,024	-0,005
-441,036	-27,960	-0,148	-0,062
-440,022	-200,000	-0,011	-0,050
-439,007	-11,119	0,105	-0,050
-437,992	-200,000	-0,015	0,081
-436,978	-95,957	0,192	0,036
-435,963	35,621	0,118	0,074
-434,949	-15,846	-0,097	-0,044
-433,934	38,665	-0,117	0,075
-432,919	141,527	-0,106	-0,101
-431,905	-5,206	-0,097	-0,048
-430,890	-85,085	0,076	-0,017
-429,876	-3,517	-0,081	0,040
-428,861	61,215	-0,131	0,093
-427,846	-111,003	0,091	-0,013
-426,832	300,321	-0,020	-0,027
-425,817	358,866	0,032	0,046
-424,803	259,766	-0,035	-0,044
-423,788	590,476	0,041	-0,074
-422,773	-65,331	0,039	0,011
-421,759	800,000	0,054	0,139
-420,744	800,000	-0,010	-0,022
-419,730	-200,000	0,001	0,020
-418,715	800,000	-0,068	-0,158
-417,701	41,169	0,040	0,026
-416,686	716,442	0,017	-0,032
-415,671	-17,692	-0,090	-0,040
-414,657	719,938	0,013	-0,025
-413,642	17,059	0,053	-0,030
-412,628	-123,192	-0,067	0,008
-411,613	-200,000	-0,055	-0,195
-410,598	602,883	0,042	-0,075
-409,584	800,000	-0,018	-0,039
-408,569	393,167	0,045	0,067
-407,555	-200,000	0,007	0,092
-406,540	800,000	-0,071	0,197
-405,525	-25,821	-0,010	-0,004
-404,511	170,180	0,006	-0,006
-403,496	-21,676	-0,077	-0,034
-402,482	-90,339	0,086	0,018
-401,467	-200,000	-0,005	0,239
-400,452	-179,402	0,217	-0,003
-399,438	254,891	0,024	0,029
-398,423	56,104	0,077	-0,054
-397,409	177,694	-0,039	0,041
-396,394	800,000	0,053	0,150
-395,379	-117,234	0,052	-0,007
-394,365	403,527	0,059	-0,090
-393,350	170,822	0,071	0,073
-392,336	777,194	-0,049	-0,096
-391,321	145,875	-0,028	-0,027
-390,306	-47,196	0,102	0,036
-389,292	-200,000	-0,003	-0,145
-388,277	800,000	-0,020	-0,043
-387,263	-125,742	0,086	0,009
-386,248	-200,000	0,010	0,196
-385,233	-75,632	0,171	0,043
-384,219	467,501	-0,035	0,056
-383,204	-23,317	-0,077	-0,033
-382,190	-101,897	-0,016	0,003
-381,175	25,597	-0,112	0,067
-380,160	-200,000	0,042	-0,139
-379,146	-46,051	0,136	0,048
-378,131	170,187	-0,033	-0,034
-377,117	212,186	-0,078	-0,088
-376,102	800,000	-0,020	-0,049
-375,088	-200,000	-0,005	0,026
-374,073	127,554	0,132	-0,121
-373,058	-200,000	0,023	-0,128
-372,044	534,127	0,031	0,053
-371,029	-129,270	0,041	-0,004
-370,015	-200,000	-0,013	-0,050
-369,000	-67,909	-0,101	0,028
-367,985	800,000	0,034	-0,078
-366,971	800,000	-0,032	-0,072
-365,956	225,861	0,044	0,051
-364,942	680,662	0,023	0,043
-363,927	-200,000	-0,014	0,105
-362,912	37,741	-0,110	-0,070
-361,898	800,000	0,031	-0,089
-360,883	-200,000	0,005	-0,076
-359,869	-131,393	-0,075	-0,007
-358,854	800,000	-0,031	-0,095
-357,839	111,530	-0,036	0,031
-356,825	-200,000	-0,012	-0,065
-355,810	456,899	-0,070	-0,112
-354,796	-200,000	0,010	0,044
-353,781	127,852	-0,085	-0,077
-352,766	800,000	0,030	-0,084
-351,752	-7,757	0,116	0,056
-350,737	-200,000	-0,008	0,088
-349,723	381,923	0,038	0,057
-348,708	523,582	0,073	0,123
-347,693	-139,453	-0,030	-0,002
-346,679	38,131	-0,069	-0,044
-345,664	338,170	0,043	-0,060
-344,650	-200,000	0,014	-0,059
-343,635	-200,000	0,007	0,070
-342,620	800,000	-0,020	0,044
-341,606	-7,274	-0,096	-0,047
-340,591	375,559	-0,038	0,056
-339,577	7,221	0,037	0,020
-338,562	610,399	-0,014	-0,025
-337,548	-140,370	0,091	0,007
-336,533	-200,000	0,030	0,128
-335,518	-0,674	0,090	0,045
-334,504	247,355	0,044	0,053
-333,489	119,295	0,037	0,032
-332,475	99,228	0,042	-0,034
-331,460	800,000	-0,031	0,063
-330,445	800,000	-0,023	0,064
-329,431	541,611	0,053	0,090
-328,416	698,578	-0,053	0,100
-327,402	466,115	-0,044	0,071
-326,387	-61,872	0,053	-0,016
-325,372	-200,000	-0,015	-0,081
-324,358	78,506	-0,097	0,074
-323,343	-200,000	-0,024	0,090
-322,329	-77,951	-0,138	0,034
-321,314	-200,000	-0,016	-0,067
-320,299	-164,846	0,043	-0,001
-319,285	253,031	-0,031	0,038
-318,270	482,129	0,030	-0,049
-317,256	-115,369	0,091	0,012
-316,241	747,189	0,040	0,078
-315,226	-200,000	0,011	0,063
-314,212	-75,232	0,130	0,033
-313,197	-200,000	0,022	-0,077
-312,183	-103,893	0,040	-0,007
-311,168	-22,294	-0,051	0,022
-310,153	139,515	0,051	-0,048
-309,139	-200,000	0,015	-0,127
-308,124	-116,266	-0,045	0,006
-307,110	37,734	-0,056	0,035
-306,095	268,492	0,044	0,055
-305,080	-116,358	-0,035	0,005
-304,066	-83,904	-0,177	0,040
-303,051	800,000	-0,038	-0,095
-302,037	77,493	0,079	-0,060
-301,022	-200,000	-0,030	-0,123
-300,008	753,818	-0,079	-0,153
-298,993	-79,281	-0,096	-0,023
-297,978	-200,000	0,026	0,108
-296,964	-48,713	-0,028	0,010
-295,949	800,000	0,051	-0,107
-294,935	-77,859	-0,113	-0,028
-293,920	504,114	-0,034	-0,056
-292,905	-200,000	-0,005	-0,075
-291,891	-12,966	0,165	0,076
-290,876	481,890	0,041	0,066
-289,862	-46,339	0,154	0,054
-288,847	-89,931	-0,170	-0,035
-287,832	394,345	0,008	0,011
-286,818	800,000	-0,036	-0,107
-285,803	220,942	-0,073	-0,083
-284,789	-56,457	-0,043	-0,014
-283,774	800,000	0,071	0,161
-282,759	-200,000	-0,004	0,124
-281,745	-52,447	-0,101	0,033
-280,730	-100,958	-0,021	-0,004
-279,716	-119,706	-0,030	-0,004
-278,701	-97,915	-0,079	-0,014
-277,686	-84,380	0,104	0,023
-276,672	-200,000	-0,008	-0,037
-275,657	-200,000	0,023	-0,100
-274,643	-20,939	0,095	0,041
-273,628	-52,912	0,024	-0,008
-272,613	-200,000	0,003	-0,052
-271,599	-200,000	0,043	-0,205
-270,584	800,000	-0,052	-0,132
-269,570	-159,637	-0,118	0,005
-268,555	-200,000	-0,008	0,044
-267,540	11,643	-0,094	-0,051
-266,526	-82,982	0,126	0,029
-265,511	30,811	-0,100	-0,061
-264,497	-1,210	0,027	-0,014
-263,482	402,721	0,063	0,096
-262,467	42,547	0,097	0,063
-261,453	339,961	0,018	-0,025
-260,438	-200,000	-0,047	-0,161
-259,424	-31,648	-0,050	0,020
-258,409	240,239	-0,080	0,096
-257,395	13,082	0,049	-0,027
-256,380	24,446	0,031	0,018
-255,365	-200,000	0,012	0,116
-254,351	166,561	-0,085	-0,087
-253,336	209,399	-0,066	-0,074
-252,322	492,161	-0,078	-0,127
-251,307	276,379	-0,081	0,103
-250,292	5,864	0,076	-0,040
-249,278	420,511	0,045	0,069
-248,263	800,000	-0,026	-0,060
-247,249	100,629	-0,043	-0,036
-246,234	382,092	0,025	0,037
-245,219	-200,000	0,043	-0,154
-244,205	-200,000	-0,007	0,122
-243,190	-200,000	0,001	-0,005
-242,176	1,797	0,145	0,074
-241,161	-103,213	-0,064	-0,011
-240,146	-73,505	-0,080	0,021
-239,132	-200,000	-0,002	0,023
-238,117	800,000	-0,029	-0,063
-237,103	-54,793	-0,082	0,026
-236,088	114,197	0,055	0,048
-235,073	800,000	0,029	0,080
-234,059	-54,816	0,034	0,011
-233,044	-37,146	0,146	0,056
-232,030	257,207	-0,068	0,084
-231,015	-34,237	-0,088	-0,034
-230,000	-36,525	-0,116	0,044
-228,986	-89,463	-0,133	0,028
-227,971	-200,000	-0,033	0,109
-226,957	-5,033	0,153	0,075
-225,942	-163,368	0,036	-0,001
-224,927	-200,000	-0,000	0,124
-223,913	800,000	-0,086	-0,248
-222,898	74,600	0,075	-0,056
-221,884	-200,000	0,019	-0,230
-220,869	-200,000	0,032	-0,139
-219,855	-146,191	0,084	-0,005
-218,840	800,000	-0,029	0,068
-217,825	349,609	-0,049	0,069
-216,811	142,239	0,063	-0,060
-215,796	-191,040	-0,120	0,001
-214,782	-200,000	0,010	-0,129
-213,767	-50,749	0,074	0,025
-212,752	-18,704	-0,041	-0,018
-211,738	-200,000	0,024	0,092
-210,723	800,000	-0,068	-0,189
-209,709	265,593	-0,061	0,076
-208,694	-86,499	0,039	0,008
-207,679	-200,000	-0,009	-0,114
-206,665	-200,000	0,009	-0,087
-205,650	-200,000	-0,013	0,054
-204,636	89,489	-0,049	-0,039
-203,621	32,489	0,121	0,075
-202,606	-200,000	-0,004	-0,132
-201,592	-200,000	-0,009	-0,052
-200,577	-14,933	0,068	-0,031
-199,563	24,774	0,099	0,058
-198,548	-98,978	0,009	-0,002
-197,533	17,516	0,020	-0,012
-196,519	450,026	0,093	0,147
-195,504	800,000	-0,053	-0,147
-194,490	-48,741	-0,035	-0,012
-193,475	800,000	-0,036	0,110
-192,460	294,426	-0,096	-0,125
-191,446	-200,000	0,021	0,135
-190,431	542,457	0,043	0,073
-189,417	-200,000	0,017	-0,100
-188,402	80,449	-0,119	0,091
-187,387	-123,542	-0,076	0,009
-186,373	328,761	-0,088	-0,121
-185,358	-200,000	0,009	0,059
-184,344	-7,755	0,031	-0,015
-183,329	-65,914	0,134	0,038
-182,315	223,711	0,114	0,131
-181,300	120,066	-0,060	0,053
-180,285	409,758	0,121	-0,183
-179,271	487,895	-0,037	-0,060
-178,256	-200,000	0,035	-0,122
-177,242	-200,000	-0,009	0,070
-176,227	109,228	0,048	0,041
-175,212	147,158	0,162	0,156
-174,198	-181,695	-0,069	-0,001
-173,183	-200,000	-0,013	-0,103
-172,169	73,212	0,071	-0,052
-171,154	800,000	0,058	-0,117
-170,139	-200,000	0,028	0,123
-169,125	-130,689	0,119	0,011
-168,110	61,997	-0,007	-0,005
-167,096	800,000	0,025	-0,056
-166,081	-200,000	-0,026	-0,134
-165,066	-10,370	-0,088	-0,041
-164,052	-200,000	0,009	-0,116
-163,037	-200,000	0,020	0,096
-162,023	99,936	0,113	0,093
-161,008	464,771	0,095	0,152
-159,993	-200,000	0,025	0,250
-158,979	-50,767	-0,040	0,013
-157,964	-110,657	-0,161	-0,023
-156,950	43,602	-0,095	0,062
-155,935	385,356	0,041	-0,061
-154,920	-73,830	0,075	0,019
-153,906	-200,000	-0,041	0,185
-152,891	53,775	0,040	0,027
-151,877	-200,000	0,006	0,096
-150,862	522,763	-0,018	0,030
-149,847	800,000	-0,030	-0,078
-148,833	380,538	0,050	-0,074
-147,818	800,000	0,031	-0,062
-146,804	-132,541	0,111	0,010
-145,789	544,713	0,058	0,098
-144,775	-200,000	0,023	0,078
-143,760	393,200	-0,107	-0,159
-142,745	28,969	-0,033	-0,020
-141,731	77,478	-0,033	0,025
-140,716	800,000	0,042	0,100
-139,702	-58,619	-0,085	0,026
-138,687	-111,745	0,121	0,017
-137,672	259,325	-0,125	-0,153
-136,658	800,000	-0,017	-0,039
-135,643	-12,231	-0,213	0,099
-134,629	-200,000	-0,015	-0,117
-133,614	800,000	0,074	0,203
-132,599	132,658	0,124	0,114
-131,585	24,947	-0,071	-0,042
-130,570	-200,000	-0,038	-0,138
-129,556	161,007	-0,063	0,063
-128,541	19,211	0,165	-0,094
-127,526	131,238	0,030	0,028
-126,512	-92,679	-0,095	0,019
-125,497	27,447	0,174	0,104
-124,483	800,000	0,043	-0,093
-123,468	-148,406	0,041	-0,002
-122,453	-113,732	-0,054	0,007
-121,439	-200,000	0,007	-0,138
-120,424	-127,469	0,099	0,010
-119,410	9,771	0,077	0,041
-118,395	-140,724	-0,064	0,005
-117,380	-200,000	0,009	0,028
-116,366	502,367	-0,045	0,074
-115,351	800,000	0,044	0,117
-114,337	-200,000	-0,007	-0,040
-113,322	800,000	-0,021	0,056
-112,307	-1,670	-0,060	0,030
-111,293	-200,000	-0,018	0,064
-110,278	-200,000	0,001	0,004
-109,264	-200,000	-0,010	0,153
-108,249	181,450	0,039	-0,041
-107,234	-105,559	-0,113	0,018
-106,220	-200,000	-0,002	0,133
-105,205	69,113	0,042	0,031
-104,191	-200,000	0,009	-0,040
-103,176	-200,000	0,010	-0,068
-102,162	800,000	0,033	0,081
-101,147	24,393	-0,054	-0,032
-100,132	-109,659	0,142	0,021
-99,118	101,057	-0,116	-0,096
-98,103	-11,621	0,100	-0,046
-97,089	119,197	0,083	0,073
-96,074	-121,412	0,063	0,007
-95,059	-169,531	-0,058	-0,001
-94,045	139,351	0,075	0,070
-93,030	-200,000	-0,149	-0,000
-92,016	138,627	0,169	-0,158
-91,001	-200,000	-0,010	-0,072
-89,986	-200,000	-0,044	0,174
-88,972	-196,320	0,147	0,001
-87,957	79,653	0,100	0,076
-86,943	-104,470	-0,080	-0,013
-85,928	140,610	0,115	-0,107
-84,913	-71,764	-0,066	0,017
-83,899	495,976	-0,027	-0,045
-82,884	-200,000	0,010	-0,044
-81,870	-65,031	0,088	0,025
-80,855	-87,907	0,092	0,019
-79,840	-34,234	-0,045	-0,018
-78,826	800,000	0,038	-0,106
-77,811	-143,537	-0,093	-0,006
-76,797	-200,000	0,015	0,082
-75,782	71,550	-0,070	-0,051
-74,767	800,000	-0,007	-0,016
-73,753	105,283	0,061	0,051
-72,738	-9,485	-0,004	0,002
-71,724	800,000	0,040	-0,105
-70,709	-173,832	-0,055	0,001
-69,694	800,000	0,006	-0,018
-68,680	-200,000	-0,018	0,207
-67,665	52,410	0,070	0,047
-66,651	225,625	-0,057	0,065
-65,636	-200,000	-0,009	0,048
-64,622	-200,000	0,016	-0,091
-63,607	-56,684	-0,157	-0,049
-62,592	-200,000	0,025	-0,114
-61,578	-200,000	-0,016	-0,102
-60,563	127,546	0,054	0,048
-59,549	-200,000	-0,023	0,141
-58,534	-42,765	-1,626	-0,583
-57,519	429,593	-1,476	-2,269
-56,505	-200,000	-0,506	-4,535
-55,490	165,060	0,879	0,880
-54,476	800,000	4,960	11,280
-53,461	-200,000	18,318	292,129
-52,446	800,000	728,728	2244,605
-51,432	559,611	1644,979	2825,563
-50,417	79,089	1665,984	1263,145
-49,403	22,643	1539,022	890,344
-48,388	16,541	1462,316	816,392
-47,373	17,873	1452,106	817,077
-46,359	17,139	1442,717	808,247
-45,344	14,778	1437,975	794,283
-44,330	14,751	1435,804	792,921
-43,315	14,727	1434,482	792,048
-42,300	14,753	1432,704	791,157
-41,286	14,819	1431,286	790,654
-40,271	14,767	1430,112	789,730
-39,257	14,756	1428,911	788,983
-38,242	14,799	1427,661	788,466
-37,227	14,779	1426,540	787,721
-36,213	14,781	1425,173	786,943
-35,198	14,750	1424,082	786,162
-34,184	14,811	1423,098	785,879
-33,169	14,739	1421,776	784,774
-32,154	14,802	1420,759	784,482
-31,140	14,802	1419,364	783,678
-30,125	14,839	1418,246	783,205
-29,111	14,792	1417,068	782,301
-28,096	14,757	1416,166	781,606
-27,082	14,708	1415,136	780,777
-26,067	14,735	1413,704	780,082
-25,052	14,734	1412,869	779,586
-24,038	14,749	1411,893	779,089
-23,023	14,685	1410,902	778,209
-22,009	14,686	1409,744	777,544
-20,994	14,645	1409,089	776,961
-19,979	14,650	1407,971	776,338
-18,965	14,615	1407,171	775,703
-17,950	14,640	1406,023	775,157
-16,936	14,673	1405,079	774,757
-15,921	14,582	1403,975	773,696
-14,906	14,619	1403,178	773,394
-13,892	14,631	1402,179	772,872
-12,877	14,590	1401,389	772,215
-11,863	14,589	1400,399	771,635
-10,848	14,596	1399,545	771,163
-9,833	14,618	1398,540	770,682
-8,819	14,514	1398,046	769,898
-7,804	14,488	1397,041	769,194
-6,790	14,529	1395,755	768,645
-5,775	14,509	1394,862	768,028
-4,760	14,510	1393,880	767,462
-3,746	14,475	1393,196	766,893
-2,731	14,531	1392,320	766,637
-1,717	14,516	1391,418	766,041
-0,702	14,486	1389,531	764,835
0,313	18,290	1308,640	737,927
1,327	34,546	706,535	436,102
2,342	53,127	124,432	84,231
3,356	0,698	16,623	8,394
4,371	0,350	3,052	1,538
5,386	103,923	0,379	0,315
6,400	179,585	0,072	0,074
7,415	352,736	-0,188	-0,264
8,429	-40,293	-0,334	-0,122
9,444	70,634	-0,305	-0,223
10,459	182,853	-0,166	-0,173
11,473	79,217	-0,385	-0,292
12,488	-87,722	-0,283	-0,060
13,502	477,592	-0,165	-0,265
14,517	68,565	-0,489	-0,354
15,531	143,345	-0,341	-0,321
16,546	217,739	-0,266	-0,301
17,561	88,240	-0,442	-0,347
18,575	800,000	-0,028	-0,066
19,590	212,415	-0,189	-0,211
20,604	-21,307	-0,332	-0,143
21,619	107,333	-0,338	-0,284
22,634	120,586	-0,393	-0,345
23,648	357,408	-0,292	-0,412
24,663	221,664	-0,320	-0,364
25,677	116,352	-0,351	-0,304
26,692	69,617	-0,352	-0,256
27,707	388,987	-0,299	-0,438
28,721	11,512	-0,418	-0,226
29,736	259,389	-0,287	-0,351
30,750	59,359	-0,391	-0,272
31,765	349,488	-0,250	-0,349
32,780	83,018	-0,430	-0,330
33,794	-6,107	-0,344	-0,165
34,809	120,629	-0,409	-0,359
35,823	556,083	-0,278	-0,475
36,838	8,864	-0,397	-0,211
37,853	117,394	-0,389	-0,338
38,867	82,424	-0,338	-0,259
39,882	193,399	-0,198	-0,211
40,896	321,853	-0,278	-0,374
41,911	5,190	-0,284	-0,147
42,926	22,398	-0,282	-0,162
43,940	3,985	-0,406	-0,209
44,955	-37,418	-0,403	-0,151
45,969	135,681	-0,218	-0,200
46,984	107,872	-0,267	-0,224
47,999	0,306	-0,286	-0,144
49,013	-34,863	-0,422	-0,162
50,028	209,693	-0,243	-0,269
51,042	203,629	-0,325	-0,355
52,057	4,797	-0,502	-0,259
53,071	28,894	-0,357	-0,213
54,086	2,467	-0,165	-0,084
55,101	-25,054	-0,370	-0,154
56,115	259,372	-0,174	-0,212
57,130	-71,920	-0,282	-0,073
58,144	227,831	-0,259	-0,298
59,159	14,932	-0,432	-0,238
60,174	153,980	-0,371	-0,358
61,188	89,616	-0,382	-0,300
62,203	119,744	-0,259	-0,226
63,217	102,966	-0,441	-0,363
64,232	24,409	-0,365	-0,212
65,247	-48,563	-0,331	-0,112
66,261	-37,781	-0,391	-0,146
67,276	10,477	-0,426	-0,228
68,290	52,155	-0,303	-0,203
69,305	78,466	-0,324	-0,244
70,320	-76,303	-0,332	-0,082
71,334	-85,645	-0,420	-0,091
72,349	95,258	-0,328	-0,263
73,363	35,713	-0,337	-0,208
74,378	249,116	-0,256	-0,305
75,393	89,398	-0,320	-0,251
76,407	-62,047	-0,340	-0,099
77,422	127,538	-0,368	-0,328
78,436	56,830	-0,284	-0,194
79,451	5,645	-0,367	-0,190
80,466	60,403	-0,330	-0,229
81,480	-9,078	-0,377	-0,177
82,495	76,315	-0,357	-0,265
83,509	33,235	-0,361	-0,220
84,524	-101,001	-0,293	-0,050
85,539	95,658	-0,253	-0,203
86,553	-30,028	-0,357	-0,142
87,568	-93,328	-0,277	-0,054
88,582	133,579	-0,233	-0,212
89,597	57,883	-0,246	-0,169
90,611	97,214	-0,263	-0,212
91,626	33,054	-0,273	-0,166
92,641	-115,336	-0,354	-0,046
93,655	283,660	-0,222	-0,281
94,670	-73,080	-0,326	-0,083
95,684	40,964	-0,284	-0,180
96,699	4,217	-0,271	-0,139
97,714	66,740	-0,370	-0,264
98,728	-8,714	-0,305	-0,143
99,743	139,973	-0,132	-0,122
100,757	303,238	-0,209	-0,273
101,772	24,952	-0,350	-0,203
102,787	11,691	-0,367	-0,197
103,801	-3,308	-0,334	-0,163
104,816	-66,319	-0,116	-0,032
105,830	-6,003	-0,115	-0,055
106,845	-125,610	-0,310	-0,033
107,860	151,756	-0,237	-0,227
108,874	193,843	-0,241	-0,257
109,889	0,075	-0,321	-0,160
110,903	141,361	-0,286	-0,265
111,918	200,268	-0,194	-0,209
112,933	118,222	-0,159	-0,137
113,947	146,484	-0,253	-0,238
114,962	-46,446	-0,266	-0,091
115,976	59,903	-0,359	-0,248
116,991	298,445	-0,153	-0,198
118,006	317,498	-0,210	-0,279
119,020	121,961	-0,165	-0,145
120,035	316,238	-0,225	-0,298
121,049	11,237	-0,223	-0,119
122,064	64,170	-0,189	-0,133
123,079	-30,819	-0,268	-0,106
124,093	465,708	-0,162	-0,254
125,108	224,294	-0,311	-0,352
126,122	40,718	-0,305	-0,193
127,137	32,051	-0,185	-0,111
128,151	-67,645	-0,255	-0,070
129,166	-37,243	-0,263	-0,098
130,181	114,086	-0,142	-0,121
131,195	118,252	-0,200	-0,173
132,210	136,306	-0,319	-0,291
133,224	18,544	-0,447	-0,249
134,239	68,518	-0,190	-0,136
135,254	341,133	-0,168	-0,230
136,268	77,849	-0,339	-0,253
137,283	94,210	-0,211	-0,168
138,297	18,482	-0,262	-0,146
139,312	-103,966	-0,267	-0,043
140,327	150,759	-0,275	-0,262
141,341	6,030	-0,308	-0,159
142,356	106,603	-0,226	-0,188
143,370	-26,632	-0,139	-0,057
144,385	64,875	-0,256	-0,181
145,400	452,511	-0,191	-0,297
146,414	62,473	-0,304	-0,212
147,429	424,936	-0,160	-0,242
148,443	182,601	-0,221	-0,228
149,458	-41,864	-0,242	-0,086
150,473	-46,422	-0,279	-0,095
151,487	-68,919	-0,228	-0,061
152,502	30,271	-0,216	-0,128
153,516	107,646	-0,229	-0,191
154,531	800,000	-0,159	-0,348
155,546	174,673	-0,190	-0,192
156,560	57,286	-0,246	-0,167
157,575	-110,456	-0,238	-0,034
158,589	134,221	-0,190	-0,172
159,604	112,783	-0,286	-0,242
160,619	39,726	-0,299	-0,187
161,633	-44,577	-0,294	-0,102
162,648	236,584	-0,201	-0,232
163,662	-47,713	-0,287	-0,096
164,677	73,272	-0,205	-0,149
165,692	-125,137	-0,148	0,016
166,706	69,353	-0,254	-0,182
167,721	382,805	-0,188	-0,270
168,735	65,361	-0,389	-0,274
169,750	-2,544	-0,250	-0,122
170,764	374,970	-0,216	-0,308
171,779	164,396	-0,232	-0,228
172,794	-48,383	-0,180	-0,060
173,808	62,267	-0,194	-0,135
174,823	116,162	-0,362	-0,309
175,837	153,676	-0,196	-0,187
176,852	155,985	-0,257	-0,247
177,867	59,733	-0,206	-0,141
178,881	-148,970	-0,277	-0,015
179,896	175,738	-0,204	-0,207
180,910	77,965	-0,250	-0,186
181,925	289,393	-0,120	-0,152
182,940	101,069	-0,226	-0,183
183,954	-32,942	-0,249	-0,096
184,969	222,345	-0,246	-0,276
185,983	28,013	-0,197	-0,116
186,998	50,068	-0,226	-0,148
188,013	-58,241	-0,250	-0,075
189,027	-169,275	-0,247	0,006
190,042	-37,175	-0,267	-0,099
191,056	77,342	-0,262	-0,194
192,071	4,140	-0,323	-0,164
193,086	21,573	-0,273	-0,154
194,100	252,475	-0,177	-0,210
195,115	39,543	-0,301	-0,188
196,129	472,546	-0,092	-0,145
197,144	19,772	-0,292	-0,163
198,159	-166,209	-0,094	-0,003
199,173	-60,535	-0,233	-0,068
200,188	-200,000	-0,037	-0,224
201,202	134,580	-0,204	-0,184
202,217	49,226	-0,119	-0,077
203,232	39,617	-0,210	-0,131
204,246	261,708	-0,070	-0,085
205,261	288,985	-0,135	-0,171
206,275	400,084	-0,156	-0,228
207,290	-200,000	-0,060	-0,245
208,304	47,251	-0,203	-0,131
209,319	-196,175	-0,149	0,001
210,334	135,790	-0,146	-0,132
211,348	392,857	-0,187	-0,272
212,363	35,254	-0,240	-0,146
213,377	59,574	-0,196	-0,134
214,392	218,634	-0,117	-0,130
215,407	567,268	-0,102	-0,173
216,421	201,912	-0,145	-0,156
217,436	16,364	-0,245	-0,134
218,450	327,433	-0,070	-0,094
219,465	357,011	-0,150	-0,209
220,480	46,678	-0,267	-0,172
221,494	28,160	-0,188	-0,110
222,509	150,553	-0,157	-0,148
223,523	15,206	-0,149	-0,081
224,538	362,771	-0,189	-0,264
225,553	-80,612	-0,289	-0,066
226,567	54,863	-0,314	-0,210
227,582	347,218	-0,161	-0,221
228,596	103,977	-0,072	-0,059
229,611	482,197	-0,112	-0,177
230,626	76,419	-0,210	-0,154
231,640	37,481	-0,197	-0,121
232,655	150,539	-0,108	-0,102
233,669	110,901	-0,191	-0,160
234,684	-16,348	-0,224	-0,098
235,699	-52,166	-0,198	-0,063
236,713	-55,146	-0,125	-0,039
237,728	96,897	-0,161	-0,128
238,742	-115,303	-0,238	-0,031
239,757	-161,375	-0,275	-0,010
240,772	-37,165	-0,241	-0,089
241,786	266,747	-0,133	-0,161
242,801	29,175	-0,273	-0,160
243,815	167,300	-0,162	-0,160
244,830	106,827	-0,139	-0,115
245,844	-91,913	-0,151	-0,029
246,859	-70,176	-0,307	-0,080
247,874	101,447	-0,179	-0,144
248,888	800,000	-0,067	-0,195
249,903	800,000	-0,126	-0,275
250,917	207,377	-0,046	-0,050
251,932	6,762	-0,244	-0,125
252,947	800,000	0,036	-0,094
253,961	-113,465	-0,149	-0,020
254,976	111,150	-0,247	-0,206
255,990	77,933	-0,254	-0,187
257,005	-64,522	-0,292	-0,081
258,020	-8,017	-0,129	-0,060
259,034	-66,328	-0,177	0,048
260,049	-101,621	-0,067	-0,011
261,063	53,277	-0,197	-0,130
262,078	39,069	-0,234	-0,144
263,093	150,209	-0,176	-0,165
264,107	178,258	-0,131	-0,133
265,122	-12,723	-0,186	-0,083
266,136	-69,456	-0,207	-0,054
267,151	-69,309	-0,070	-0,018
268,166	90,202	-0,170	-0,131
269,180	-77,209	-0,201	-0,048
270,195	174,932	-0,104	-0,104
271,209	-59,773	-0,152	-0,045
272,224	-69,993	-0,242	-0,063
273,239	68,629	-0,163	-0,116
274,253	76,059	-0,165	-0,120
275,268	-4,314	-0,293	-0,139
276,282	800,000	-0,143	-0,289
277,297	383,816	-0,115	-0,164
278,312	35,509	-0,140	-0,085
279,326	-65,787	-0,218	-0,060
280,341	66,647	-0,137	-0,096
281,355	287,917	-0,034	-0,043
282,370	49,111	-0,162	-0,105
283,384	742,260	-0,109	-0,203
284,399	648,227	-0,130	-0,231
285,414	92,536	-0,089	-0,070
286,428	519,819	-0,087	-0,141
287,443	68,510	-0,150	-0,106
288,457	-126,792	-0,070	-0,007
289,472	41,370	-0,074	-0,046
290,487	800,000	-0,138	-0,282
291,501	-200,000	-0,036	-0,217
292,516	84,931	-0,090	-0,068
293,530	41,551	-0,185	-0,116
294,545	800,000	-0,052	-0,129
295,560	800,000	-0,042	-0,111
296,574	141,857	-0,250	-0,228
297,589	616,156	-0,130	-0,227
298,603	800,000	-0,070	-0,147
299,618	781,602	-0,074	-0,141
300,633	381,179	-0,084	-0,119
301,647	207,324	-0,063	-0,068
302,662	-31,594	-0,113	-0,043
303,676	-86,150	-0,181	0,038
304,691	228,196	-0,122	-0,137
305,706	129,338	-0,174	-0,153
306,720	-4,195	-0,215	-0,102
307,735	157,460	-0,108	-0,104
308,749	496,282	-0,074	-0,117
309,764	800,000	-0,033	-0,086
310,779	-103,942	-0,157	-0,025
311,793	800,000	-0,063	-0,123
312,808	454,234	-0,138	-0,211
313,822	63,235	-0,114	-0,079
314,837	-65,656	-0,102	0,028
315,852	587,815	-0,035	0,059
316,866	800,000	-0,051	-0,147
317,881	-7,572	-0,081	-0,037
318,895	-125,674	-0,180	0,019
319,910	341,498	-0,038	-0,052
320,925	-153,662	-0,247	-0,012
321,939	-33,045	-0,266	-0,101
322,954	687,847	-0,104	-0,187
323,968	-21,840	-0,188	-0,078
324,983	164,994	-0,106	-0,103
325,997	-62,138	-0,286	-0,082
327,012	-73,440	-0,161	-0,040
328,027	564,877	-0,052	-0,087
329,041	754,662	-0,150	-0,281
330,056	152,571	-0,186	-0,175
331,070	150,001	-0,071	-0,066
332,085	-1,980	-0,214	-0,103
333,100	193,682	-0,201	-0,209
334,114	800,000	-0,045	-0,103
335,129	800,000	-0,071	-0,143
336,143	800,000	-0,104	-0,208
337,158	166,177	-0,104	-0,102
338,173	-15,437	-0,228	-0,100
339,187	-106,859	-0,153	0,023
340,202	-27,094	-0,238	-0,095
341,216	46,593	-0,212	-0,135
342,231	147,598	-0,169	-0,156
343,246	39,157	-0,186	-0,114
344,260	-26,649	-0,020	-0,008
345,275	376,479	-0,056	-0,079
346,289	731,350	-0,049	-0,090
347,304	-107,050	-0,182	-0,027
348,319	319,397	-0,138	-0,181
349,333	-89,993	-0,148	-0,029
350,348	222,528	-0,026	-0,028
351,362	-142,966	0,039	0,003
352,377	35,295	-0,144	-0,087
353,392	133,366	-0,098	-0,087
354,406	778,702	-0,072	-0,135
355,421	207,695	1312,800	1408,773
356,435	159,777	1473,315	1409,275
