DTS Sentinel unit serial number:	SN410029Multiplexer serial number:	ORYXHardware model number:	OX2-SRSoftware version number:	ORYX F/W v4,00 Oryx Data Collector v3.7.2.0data status	okinstallation	B3 Nyhavnadifferential loss correction	single-endedforward channel	channel 1reverse channel	N/Adate	2023/11/30time	18:17:30forward acquisition time	300,00reverse acquisition time	0,00gamma	499,1914k internal	0,3204k external	0,3204temperature offset calibration	1,0000default loss term (dB/km)	0,3820temperature slope calibration	1,0000multiplexer offset coefficient	1,0000multiplexer slope coefficient	1,0000fibre end	0,00T internal ref (°C)	12,80T ext. ref 1 (°C)	-2,41T ext. ref 2 (°C)	-2,50length (m)	temperature (°C)	Stokes	anti-Stokes-744,400	545,748	-0,173	-0,303
-743,385	-200,000	-0,059	0,222
-742,371	624,187	-0,140	-0,257
-741,356	-200,000	0,037	0,327
-740,342	-36,276	-0,132	-0,051
-739,327	-200,000	-0,035	0,191
-738,312	262,949	-0,184	-0,232
-737,298	581,693	-0,138	0,248
-736,283	274,121	-0,169	-0,218
-735,269	-200,000	0,106	0,372
-734,254	55,625	-0,247	-0,173
-733,239	91,086	-0,233	0,190
-732,225	86,267	-0,192	-0,154
-731,210	259,232	0,078	0,098
-730,196	-200,000	0,006	-0,124
-729,181	30,637	-0,074	-0,046
-728,167	65,637	-0,035	-0,026
-727,152	26,630	0,149	0,090
-726,137	62,049	-0,085	-0,062
-725,123	104,644	0,039	-0,033
-724,108	800,000	-0,009	0,022
-723,094	101,010	-0,006	0,005
-722,079	-200,000	-0,022	-0,161
-721,064	418,476	0,112	-0,174
-720,050	89,825	-0,017	0,014
-719,035	324,297	0,066	0,092
-718,021	-146,892	0,112	0,007
-717,006	-200,000	-0,038	-0,139
-715,991	800,000	-0,034	-0,074
-714,977	95,254	-0,186	-0,154
-713,962	69,136	-0,046	-0,034
-712,948	-200,000	-0,005	-0,034
-711,933	80,266	0,018	0,014
-710,918	-50,943	-0,048	-0,016
-709,904	-200,000	-0,033	-0,127
-708,889	383,436	-0,028	-0,042
-707,875	104,315	-0,088	0,075
-706,860	-200,000	0,004	-0,053
-705,845	-62,875	0,082	0,025
-704,831	9,980	0,058	-0,032
-703,816	406,423	-0,027	0,042
-702,802	-200,000	0,012	0,078
-701,787	-40,801	-0,115	0,043
-700,772	91,146	-0,056	0,045
-699,758	800,000	-0,013	-0,038
-698,743	800,000	0,034	-0,072
-697,729	113,111	-0,111	0,097
-696,714	-200,000	0,013	0,057
-695,699	162,874	-0,047	0,048
-694,685	-121,674	0,108	-0,013
-693,670	-138,110	0,016	-0,001
-692,656	797,095	-0,071	0,142
-691,641	-66,009	0,115	0,033
-690,627	-54,698	-0,063	0,021
-689,612	-6,636	-0,076	-0,037
-688,597	-200,000	0,001	-0,025
-687,583	-101,641	0,032	0,006
-686,568	514,879	0,099	0,168
-685,554	380,153	-0,118	-0,176
-684,539	179,736	-0,076	-0,080
-683,524	-200,000	0,020	0,078
-682,510	145,859	0,079	0,077
-681,495	187,807	-0,102	-0,111
-680,481	-200,000	-0,020	-0,088
-679,466	-200,000	0,026	-0,082
-678,451	-111,111	-0,067	-0,010
-677,437	191,817	0,039	-0,042
-676,422	604,903	-0,032	0,058
-675,408	800,000	-0,059	0,131
-674,393	56,006	-0,172	0,121
-673,378	142,114	-0,033	-0,032
-672,364	-150,124	-0,169	-0,009
-671,349	800,000	0,031	0,076
-670,335	-78,969	-0,096	-0,024
-669,320	-30,603	-0,060	-0,025
-668,305	-147,864	0,139	0,008
-667,291	-200,000	0,004	-0,068
-666,276	352,827	-0,087	-0,125
-665,262	-200,000	-0,015	-0,130
-664,247	-77,602	0,030	0,007
-663,232	229,217	-0,027	0,032
-662,218	336,662	-0,007	-0,009
-661,203	449,164	-0,045	-0,071
-660,189	55,845	0,038	-0,027
-659,174	-200,000	0,000	-0,069
-658,159	-200,000	0,001	0,031
-657,145	658,102	-0,048	-0,091
-656,130	172,029	-0,026	-0,027
-655,116	466,176	0,056	0,091
-654,101	-200,000	0,012	0,144
-653,086	93,077	0,067	0,055
-652,072	145,212	0,032	-0,031
-651,057	-200,000	-0,036	-0,130
-650,043	-200,000	-0,028	-0,090
-649,028	-87,029	-0,110	0,024
-648,014	106,881	0,004	-0,003
-646,999	800,000	-0,038	-0,084
-645,984	613,712	0,014	-0,026
-644,970	-0,581	-0,113	0,058
-643,955	800,000	-0,052	-0,126
-642,941	-164,344	-0,062	0,002
-641,926	25,392	0,009	0,006
-640,911	-200,000	0,009	-0,030
-639,897	60,439	-0,092	0,065
-638,882	370,731	-0,012	0,018
-637,868	-180,134	0,048	-0,001
-636,853	-91,580	-0,038	0,008
-635,838	-147,675	-0,133	0,008
-634,824	-200,000	-0,008	-0,071
-633,809	-200,000	-0,004	0,019
-632,795	297,301	0,102	0,136
-631,780	202,207	-0,093	-0,104
-630,765	-125,663	0,046	-0,005
-629,751	55,692	-0,101	-0,071
-628,736	218,091	0,047	-0,055
-627,722	124,145	0,019	0,018
-626,707	241,911	-0,026	0,031
-625,692	800,000	0,056	0,135
-624,678	253,493	0,057	-0,070
-623,663	-145,170	-0,093	0,006
-622,649	649,102	0,039	-0,073
-621,634	-200,000	0,007	-0,036
-620,619	64,263	-0,085	0,062
-619,605	246,110	0,031	-0,038
-618,590	-200,000	0,028	0,099
-617,576	-200,000	0,033	0,137
-616,561	-200,000	-0,004	-0,024
-615,546	216,899	-0,126	-0,145
-614,532	-200,000	0,014	-0,190
-613,517	800,000	-0,042	0,109
-612,503	196,458	0,048	-0,053
-611,488	-87,778	-0,032	-0,007
-610,474	-200,000	0,020	-0,081
-609,459	-200,000	-0,015	0,124
-608,444	-31,022	0,062	-0,025
-607,430	132,501	0,018	-0,016
-606,415	-38,722	0,063	0,024
-605,401	-137,100	0,066	-0,005
-604,386	162,568	-0,040	0,040
-603,371	199,961	0,047	0,052
-602,357	800,000	0,046	0,097
-601,342	800,000	0,063	-0,157
-600,328	800,000	-0,032	0,095
-599,313	800,000	0,022	-0,053
-598,298	43,664	0,022	0,014
-597,284	-19,352	-0,077	-0,034
-596,269	176,212	0,042	0,044
-595,255	800,000	0,065	0,172
-594,240	393,652	-0,010	0,016
-593,225	358,408	-0,047	-0,068
-592,211	-128,820	-0,089	-0,009
-591,196	85,103	-0,062	0,049
-590,182	42,536	-0,072	-0,047
-589,167	-79,946	0,143	0,034
-588,152	-56,054	0,108	0,035
-587,138	2,268	0,171	0,089
-586,123	-200,000	-0,011	0,189
-585,109	800,000	0,041	-0,085
-584,094	679,857	0,051	0,097
-583,079	-29,902	0,078	-0,032
-582,065	-200,000	0,027	0,093
-581,050	149,833	-0,016	0,015
-580,036	91,268	0,037	0,030
-579,021	764,029	0,031	-0,061
-578,006	-3,950	0,042	0,021
-576,992	114,864	-0,025	0,022
-575,977	-200,000	0,011	0,062
-574,963	-200,000	0,010	0,046
-573,948	761,560	0,027	0,053
-572,934	42,338	-0,067	0,044
-571,919	42,830	0,021	0,014
-570,904	-78,504	-0,146	0,036
-569,890	722,786	0,049	-0,094
-568,875	800,000	-0,075	-0,156
-567,861	164,562	-0,083	0,085
-566,846	175,484	0,054	0,057
-565,831	-146,095	-0,073	-0,005
-564,817	-200,000	0,014	-0,057
-563,802	-200,000	-0,002	-0,093
-562,788	-26,050	-0,069	-0,029
-561,773	348,256	-0,029	0,041
-560,758	-146,276	0,131	-0,008
-559,744	296,599	-0,048	-0,064
-558,729	-91,046	-0,066	0,014
-557,715	-200,000	0,006	-0,102
-556,700	-106,944	0,104	-0,016
-555,685	800,000	-0,020	-0,063
-554,671	-200,000	0,027	-0,098
-553,656	-38,643	0,057	-0,022
-552,642	70,430	0,071	-0,053
-551,627	-193,802	0,084	0,000
-550,612	-97,609	-0,151	0,028
-549,598	87,288	-0,102	-0,081
-548,583	-200,000	0,017	-0,144
-547,569	73,232	-0,140	-0,105
-546,554	-161,974	0,129	-0,005
-545,539	147,370	-0,112	0,109
-544,525	800,000	-0,062	0,133
-543,510	800,000	0,021	-0,048
-542,496	242,005	0,125	-0,151
-541,481	64,241	-0,087	-0,063
-540,466	800,000	-0,030	-0,087
-539,452	-94,962	0,076	-0,015
-538,437	-61,601	-0,099	0,030
-537,423	-2,147	0,096	-0,049
-536,408	-200,000	0,032	0,107
-535,393	800,000	0,027	0,062
-534,379	-200,000	-0,034	0,203
-533,364	-41,309	0,076	0,028
-532,350	-174,888	-0,063	-0,001
-531,335	106,795	0,018	0,016
-530,321	704,133	-0,069	0,133
-529,306	798,076	-0,023	0,045
-528,291	445,775	-0,082	0,131
-527,277	380,720	0,024	-0,036
-526,262	-25,154	-0,067	0,029
-525,248	800,000	-0,090	0,208
-524,233	437,822	0,084	0,133
-523,218	800,000	0,031	0,089
-522,204	-141,488	0,087	-0,006
-521,189	31,745	0,034	-0,021
-520,175	-200,000	0,014	-0,065
-519,160	800,000	-0,013	-0,033
-518,145	-200,000	-0,013	-0,140
-517,131	800,000	0,045	0,117
-516,116	-12,308	-0,082	0,038
-515,102	-106,478	0,096	-0,015
-514,087	-178,341	-0,075	0,001
-513,072	404,525	-0,035	-0,053
-512,058	89,142	-0,110	0,088
-511,043	-84,235	0,053	-0,012
-510,029	299,522	-0,045	0,059
-509,014	587,458	-0,021	0,037
-507,999	106,421	-0,143	0,122
-506,985	-200,000	0,004	0,054
-505,970	-200,000	0,016	-0,130
-504,956	800,000	0,022	-0,048
-503,941	-200,000	0,014	0,064
-502,926	172,024	0,054	0,055
-501,912	800,000	0,020	-0,054
-500,897	-140,537	-0,081	0,006
-499,883	94,566	0,103	-0,084
-498,868	800,000	-0,052	-0,132
-497,853	675,802	-0,077	-0,145
-496,839	-200,000	0,000	0,002
-495,824	-95,936	0,109	0,021
-494,810	-26,898	0,110	0,046
-493,795	-200,000	-0,020	0,205
-492,781	-115,635	-0,035	-0,005
-491,766	-94,944	-0,127	0,025
-490,751	-117,939	-0,152	-0,019
-489,737	-54,159	0,120	0,039
-488,722	556,930	-0,025	-0,043
-487,708	23,158	0,133	0,078
-486,693	-91,583	-0,014	-0,003
-485,678	250,377	-0,052	0,063
-484,664	245,405	0,073	-0,089
-483,649	-200,000	0,007	-0,120
-482,635	393,406	-0,070	-0,104
-481,620	3,150	0,112	-0,058
-480,605	-200,000	-0,007	0,145
-479,591	59,757	-0,043	-0,030
-478,576	336,835	-0,045	0,064
-477,562	-200,000	-0,048	-0,158
-476,547	800,000	-0,066	0,170
-475,532	-35,684	0,087	0,034
-474,518	134,457	0,092	0,086
-473,503	62,199	0,195	0,140
-472,489	57,236	-0,059	0,041
-471,474	-79,785	-0,093	-0,022
-470,459	-200,000	0,003	0,059
-469,445	509,437	-0,028	0,046
-468,430	-137,246	-0,140	0,011
-467,416	-200,000	0,021	-0,086
-466,401	-68,177	0,097	-0,027
-465,386	529,558	0,020	-0,034
-464,372	45,073	0,065	0,043
-463,357	212,463	-0,074	-0,084
-462,343	8,479	-0,063	-0,034
-461,328	-200,000	-0,008	0,031
-460,313	-179,917	-0,126	0,002
-459,299	-200,000	-0,007	0,046
-458,284	-8,845	0,129	-0,062
-457,270	-200,000	-0,006	0,065
-456,255	-200,000	-0,001	-0,080
-455,241	800,000	-0,036	-0,091
-454,226	-200,000	-0,008	-0,107
-453,211	789,567	0,063	0,126
-452,197	339,054	-0,025	-0,035
-451,182	-93,729	0,104	-0,020
-450,168	800,000	-0,010	-0,029
-449,153	800,000	0,037	0,082
-448,138	-115,871	-0,090	-0,012
-447,124	344,916	0,074	-0,105
-446,109	326,165	0,139	-0,192
-445,095	38,740	0,138	-0,088
-444,080	41,666	0,086	0,056
-443,065	-200,000	-0,008	-0,092
-442,051	-200,000	0,028	0,133
-441,036	218,529	-0,091	-0,104
-440,022	5,714	-0,088	-0,046
-439,007	0,639	0,088	-0,045
-437,992	181,808	-0,058	0,062
-436,978	38,595	0,140	-0,089
-435,963	754,930	-0,059	0,114
-434,949	28,311	-0,115	-0,070
-433,934	800,000	0,051	-0,130
-432,919	141,426	-0,011	-0,010
-431,905	363,458	0,014	0,020
-430,890	-46,700	-0,166	-0,058
-429,876	-200,000	0,058	0,242
-428,861	286,700	0,049	-0,064
-427,846	-40,816	0,071	0,026
-426,832	242,965	-0,026	-0,031
-425,817	-200,000	-0,005	-0,128
-424,803	67,024	-0,143	-0,105
-423,788	43,949	0,088	0,058
-422,773	7,874	-0,053	0,028
-421,759	-200,000	-0,012	-0,082
-420,744	179,749	0,012	0,013
-419,730	46,990	0,036	-0,024
-418,715	800,000	-0,038	-0,103
-417,701	193,057	-0,124	-0,134
-416,686	567,873	-0,022	0,039
-415,671	713,302	-0,036	0,068
-414,657	330,310	-0,072	0,100
-413,642	-69,956	0,034	0,009
-412,628	-109,718	0,065	0,010
-411,613	99,687	0,057	0,048
-410,598	-200,000	-0,007	0,096
-409,584	-200,000	0,004	-0,024
-408,569	-125,992	0,128	-0,014
-407,555	-200,000	0,019	0,076
-406,540	-84,632	0,100	-0,022
-405,525	185,047	-0,042	0,045
-404,511	87,946	-0,059	0,047
-403,496	-59,301	0,094	-0,029
-402,482	556,447	0,024	-0,042
-401,467	-186,973	0,094	-0,001
-400,452	219,195	-0,011	-0,013
-399,438	75,321	-0,049	-0,037
-398,423	11,093	0,101	0,055
-397,409	-200,000	0,008	-0,119
-396,394	-200,000	-0,020	-0,142
-395,379	367,237	-0,077	-0,111
-394,365	0,910	0,065	-0,033
-393,350	124,462	0,088	0,080
-392,336	17,940	-0,130	-0,074
-391,321	271,380	-0,054	0,068
-390,306	-3,689	-0,068	0,034
-389,292	800,000	-0,028	0,088
-388,277	58,359	0,119	0,084
-387,263	800,000	0,015	-0,034
-386,248	158,960	0,039	0,039
-385,233	66,243	-0,083	-0,060
-384,219	-46,344	0,063	0,022
-383,204	-200,000	0,002	0,023
-382,190	800,000	-0,038	0,080
-381,175	-5,789	-0,060	-0,029
-380,160	638,952	0,013	0,023
-379,146	-102,908	0,084	-0,014
-378,131	-200,000	0,002	0,156
-377,117	429,756	0,029	0,045
-376,102	800,000	0,003	-0,009
-375,088	-200,000	0,009	-0,103
-374,073	-200,000	-0,004	0,015
-373,058	-16,683	0,075	0,034
-372,044	73,417	0,058	0,043
-371,029	481,154	-0,022	0,037
-370,015	-200,000	0,003	0,067
-369,000	8,024	-0,016	-0,009
-367,985	78,367	0,026	0,020
-366,971	-134,544	0,065	0,006
-365,956	617,327	0,034	-0,061
-364,942	-125,899	0,136	0,015
-363,927	-200,000	-0,001	0,100
-362,912	-191,731	-0,103	0,001
-361,898	92,707	0,063	0,051
-360,883	65,734	-0,081	-0,059
-359,869	408,286	0,026	-0,040
-358,854	-76,485	0,104	-0,026
-357,839	-76,803	-0,097	0,024
-356,825	38,225	-0,022	0,014
-355,810	-200,000	0,011	0,047
-354,796	-94,658	0,105	0,020
-353,781	-16,338	-0,044	0,020
-352,766	-21,204	-0,116	0,050
-351,752	-200,000	0,005	-0,061
-350,737	344,193	0,046	-0,065
-349,723	258,632	0,062	0,076
-348,708	-160,748	0,036	-0,001
-347,693	-200,000	-0,002	-0,012
-346,679	129,033	-0,075	0,069
-345,664	-57,568	-0,067	0,021
-344,650	-59,962	-0,090	-0,027
-343,635	38,916	0,079	0,050
-342,620	800,000	0,061	0,152
-341,606	-4,190	-0,082	0,040
-340,591	-158,188	-0,130	-0,005
-339,577	-200,000	0,012	-0,057
-338,562	800,000	0,027	-0,061
-337,548	-34,334	0,178	0,069
-336,533	119,660	-0,013	0,011
-335,518	-200,000	-0,030	0,136
-334,504	42,801	0,091	0,059
-333,489	27,294	-0,049	0,029
-332,475	41,232	0,049	0,031
-331,460	-120,931	-0,150	0,018
-330,445	-69,851	-0,029	0,008
-329,431	125,186	0,110	-0,099
-328,416	-200,000	-0,005	0,040
-327,402	-83,589	0,080	0,018
-326,387	-14,043	0,101	-0,046
-325,372	-32,205	-0,052	-0,021
-324,358	580,100	-0,105	-0,185
-323,343	174,558	-0,041	-0,042
-322,329	-115,124	-0,063	0,008
-321,314	233,238	-0,021	0,024
-320,299	196,485	-0,087	0,095
-319,285	97,620	-0,057	0,047
-318,270	379,686	0,036	-0,053
-317,256	289,668	-0,119	0,154
-316,241	-58,751	-0,049	-0,015
-315,226	800,000	0,043	0,095
-314,212	-75,431	0,096	0,024
-313,197	73,429	0,131	0,098
-312,183	-200,000	0,005	0,146
-311,168	153,365	-0,102	0,100
-310,153	58,040	-0,052	-0,036
-309,139	352,969	0,072	-0,102
-308,124	-125,289	0,088	-0,009
-307,110	-200,000	-0,001	0,017
-306,095	-73,994	0,159	0,041
-305,080	-200,000	-0,111	0,000
-304,066	-118,936	-0,118	-0,015
-303,051	-200,000	-0,021	-0,092
-302,037	800,000	-0,036	-0,104
-301,022	-72,474	-0,105	-0,027
-300,008	22,730	0,082	0,048
-298,993	-200,000	0,014	0,127
-297,978	-147,735	0,118	-0,007
-296,964	-24,723	-0,035	0,015
-295,949	-100,436	-0,168	-0,029
-294,935	-8,797	-0,125	-0,060
-293,920	-37,776	0,086	-0,033
-292,905	107,880	0,067	0,057
-291,891	-200,000	0,003	0,073
-290,876	-200,000	0,013	0,071
-289,862	-200,000	-0,000	-0,143
-288,847	223,799	-0,037	0,043
-287,832	-200,000	0,007	0,060
-286,818	-22,924	-0,006	-0,003
-285,803	-200,000	0,021	0,183
-284,789	16,956	0,109	-0,062
-283,774	344,675	0,063	0,088
-282,759	373,800	0,056	0,082
-281,745	-169,742	0,058	0,001
-280,730	99,935	-0,165	0,137
-279,716	-40,855	0,142	0,052
-278,701	800,000	0,057	-0,162
-277,686	261,568	0,031	0,039
-276,672	-163,908	-0,071	0,002
-275,657	800,000	-0,061	-0,139
-274,643	-200,000	0,028	-0,101
-273,628	12,242	0,030	-0,017
-272,613	-175,933	0,119	0,002
-271,599	-200,000	0,020	0,078
-270,584	524,663	0,099	-0,167
-269,570	143,682	0,012	0,011
-268,555	173,689	0,070	0,072
-267,540	800,000	-0,032	0,077
-266,526	800,000	0,021	-0,061
-265,511	30,424	-0,173	-0,105
-264,497	63,079	0,094	-0,067
-263,482	461,684	0,064	-0,102
-262,467	101,416	0,062	0,051
-261,453	125,602	-0,080	-0,072
-260,438	210,000	-0,076	-0,086
-259,424	-108,392	0,098	-0,015
-258,409	-200,000	-0,000	0,067
-257,395	-101,326	0,104	0,018
-256,380	800,000	-0,017	-0,054
-255,365	-140,668	0,109	-0,008
-254,351	313,304	0,037	0,050
-253,336	-200,000	0,014	-0,072
-252,322	-200,000	-0,024	-0,082
-251,307	-200,000	0,027	0,117
-250,292	-200,000	0,001	-0,063
-249,278	-200,000	-0,002	0,168
-248,263	-6,083	0,085	0,041
-247,249	44,983	0,115	-0,075
-246,234	439,253	-0,008	-0,012
-245,219	217,207	0,096	0,109
-244,205	-68,865	0,015	-0,004
-243,190	-200,000	0,017	0,101
-242,176	-200,000	0,060	-0,236
-241,161	265,013	-0,100	-0,124
-240,146	-55,080	0,118	0,038
-239,132	151,689	0,028	-0,027
-238,117	180,357	-0,140	-0,147
-237,103	800,000	0,011	0,032
-236,088	-20,830	-0,093	0,040
-235,073	16,275	-0,029	-0,016
-234,059	-200,000	0,010	0,100
-233,044	-145,392	-0,068	0,004
-232,030	-200,000	-0,010	-0,139
-231,015	-57,430	-0,122	-0,038
-230,000	17,052	0,073	0,041
-228,986	-46,257	-0,055	-0,019
-227,971	-200,000	-0,002	0,038
-226,957	-172,362	-0,076	0,002
-225,942	-200,000	0,018	-0,116
-224,927	699,109	0,060	-0,114
-223,913	131,140	-0,040	-0,037
-222,898	800,000	0,047	-0,113
-221,884	-53,137	-0,095	-0,031
-220,869	800,000	0,012	0,025
-219,855	424,460	-0,048	-0,074
-218,840	-125,427	0,176	0,019
-217,825	-189,439	0,062	-0,000
-216,811	63,493	-0,088	-0,063
-215,796	-26,894	-0,173	-0,072
-214,782	579,016	-0,077	-0,134
-213,767	-187,832	-0,019	-0,000
-212,752	108,612	0,074	-0,063
-211,738	800,000	-0,040	0,101
-210,723	340,833	-0,113	0,158
-209,709	-200,000	-0,012	-0,076
-208,694	-200,000	-0,004	-0,022
-207,679	-15,636	-0,040	0,018
-206,665	-49,858	-0,076	0,026
-205,650	193,560	0,110	0,119
-204,636	-200,000	-0,005	-0,019
-203,621	-91,459	0,119	0,024
-202,606	-200,000	-0,049	-0,169
-201,592	-200,000	-0,048	-0,160
-200,577	126,352	0,056	0,050
-199,563	340,667	0,040	-0,055
-198,548	-200,000	-0,023	-0,084
-197,533	72,777	-0,042	0,031
-196,519	417,054	-0,056	0,086
-195,504	450,709	-0,084	-0,132
-194,490	24,517	-0,160	-0,094
-193,475	75,376	0,050	-0,038
-192,460	39,640	-0,153	0,097
-191,446	792,007	0,080	0,157
-190,431	-17,281	0,171	-0,076
-189,417	257,350	-0,055	-0,068
-188,402	-37,776	-0,053	-0,020
-187,387	-137,814	-0,081	-0,006
-186,373	-200,000	-0,019	-0,081
-185,358	800,000	-0,027	0,068
-184,344	-54,150	-0,083	-0,027
-183,329	800,000	0,019	-0,049
-182,315	-81,628	-0,076	0,018
-181,300	18,240	0,040	-0,023
-180,285	213,421	-0,026	-0,029
-179,271	6,736	0,039	-0,020
-178,256	800,000	0,029	0,079
-177,242	-200,000	0,009	0,047
-176,227	-200,000	0,022	0,175
-175,212	54,087	-0,114	0,078
-174,198	47,402	0,029	-0,019
-173,183	55,781	-0,082	0,056
-172,169	-200,000	-0,051	-0,160
-171,154	-200,000	-0,001	0,033
-170,139	715,631	-0,029	0,055
-169,125	-9,582	-0,092	0,043
-168,110	194,655	-0,074	0,080
-167,096	202,024	-0,051	0,056
-166,081	-200,000	0,030	-0,152
-165,066	-26,066	0,115	-0,048
-164,052	175,861	0,043	-0,044
-163,037	-66,593	0,052	-0,015
-162,023	-85,014	-0,168	0,037
-161,008	-200,000	0,006	0,076
-159,993	-10,659	0,097	-0,045
-158,979	266,857	0,012	-0,015
-157,964	-200,000	-0,005	-0,077
-156,950	-30,564	0,068	0,027
-155,935	97,250	0,106	-0,087
-154,920	-200,000	-0,010	-0,063
-153,906	284,507	-0,076	0,097
-152,891	-16,127	0,080	-0,036
-151,877	-56,036	0,100	0,031
-150,862	259,449	-0,090	0,111
-149,847	24,834	0,043	0,025
-148,833	800,000	0,073	-0,147
-147,818	122,189	0,027	0,024
-146,804	-20,442	-0,056	0,024
-145,789	226,727	-0,103	0,119
-144,775	205,814	-0,015	0,017
-143,760	-41,929	-0,065	-0,023
-142,745	183,948	0,029	-0,031
-141,731	221,605	-0,074	-0,084
-140,716	-53,784	0,049	0,016
-139,702	509,279	0,067	0,112
-138,687	268,057	-0,074	0,092
-137,672	-55,789	-0,057	-0,018
-136,658	-141,663	-0,162	0,011
-135,643	-200,000	-0,011	-0,034
-134,629	-10,497	-0,134	0,063
-133,614	-54,344	0,120	-0,038
-132,599	48,373	-0,031	-0,021
-131,585	337,676	-0,095	0,131
-130,570	-200,000	-0,016	0,136
-129,556	711,935	0,026	-0,049
-128,541	-200,000	0,008	-0,073
-127,526	-200,000	0,032	0,109
-126,512	800,000	-0,036	0,072
-125,497	800,000	0,017	-0,050
-124,483	146,643	0,049	-0,047
-123,468	728,374	-0,075	0,143
-122,453	-105,775	0,056	-0,009
-121,439	589,594	-0,100	0,176
-120,424	800,000	-0,016	0,042
-119,410	-109,349	-0,040	-0,006
-118,395	96,968	-0,036	0,030
-117,380	-31,042	0,088	0,035
-116,366	371,738	-0,059	0,085
-115,351	356,090	0,048	0,068
-114,337	21,799	-0,046	0,026
-113,322	-96,044	-0,048	-0,009
-112,307	123,643	0,027	0,024
-111,293	457,265	-0,121	0,192
-110,278	429,267	0,068	0,105
-109,264	788,430	0,037	-0,073
-108,249	800,000	-0,023	-0,050
-107,234	-200,000	-0,029	0,122
-106,220	-46,237	0,073	-0,025
-105,205	-139,489	-0,142	-0,011
-104,191	325,126	0,027	0,036
-103,176	-64,642	0,069	0,020
-102,162	168,185	-0,058	-0,059
-101,147	367,985	-0,037	-0,053
-100,132	63,117	-0,095	0,067
-99,118	504,706	0,093	-0,153
-98,103	763,604	-0,010	0,020
-97,089	13,357	0,124	0,068
-96,074	-106,226	-0,126	0,020
-95,059	66,459	0,014	0,010
-94,045	-48,719	-0,126	-0,043
-93,030	92,782	-0,103	-0,082
-92,016	41,068	0,065	-0,041
-91,001	-200,000	-0,029	-0,099
-89,986	-200,000	-0,003	0,092
-88,972	-200,000	-0,020	0,118
-87,957	196,226	-0,061	-0,066
-86,943	309,452	-0,018	0,023
-85,928	-77,036	0,017	0,004
-84,913	800,000	-0,063	-0,162
-83,899	39,330	0,097	-0,062
-82,884	218,705	-0,068	-0,077
-81,870	-200,000	0,018	-0,114
-80,855	83,357	-0,058	0,045
-79,840	800,000	0,017	0,035
-78,826	-31,578	-0,060	0,024
-77,811	58,637	-0,074	-0,051
-76,797	597,578	0,007	0,013
-75,782	382,503	0,053	-0,078
-74,767	-18,625	-0,052	0,023
-73,753	407,931	0,058	0,087
-72,738	800,000	0,036	0,100
-71,724	593,779	-0,063	0,111
-70,709	-83,689	-0,120	-0,027
-69,694	800,000	-0,051	-0,109
-68,680	-200,000	-0,005	-0,081
-67,665	-26,355	0,117	0,048
-66,651	608,130	0,049	0,086
-65,636	800,000	0,033	0,081
-64,622	-78,141	0,104	0,025
-63,607	800,000	-0,023	-0,068
-62,592	47,349	-0,105	-0,069
-61,578	-200,000	-0,006	-0,084
-60,563	498,446	0,023	0,037
-59,549	177,237	-0,076	0,079
-58,534	-16,490	-1,752	-0,783
-57,519	443,270	-1,299	-2,022
-56,505	-200,000	-0,482	-4,437
-55,490	248,757	0,937	1,125
-54,476	800,000	4,997	11,070
-53,461	-200,000	19,588	329,254
-52,446	-200,000	742,944	2339,230
-51,432	570,462	1652,849	2856,307
-50,417	77,293	1666,577	1252,366
-49,403	20,729	1540,206	879,823
-48,388	14,653	1462,668	806,066
-47,373	18,517	1453,033	819,340
-46,359	16,837	1442,423	805,300
-45,344	12,888	1438,217	784,061
-44,330	12,838	1436,135	782,656
-43,315	12,852	1434,427	781,763
-42,300	12,832	1432,857	780,780
-41,286	12,854	1431,604	780,169
-40,271	12,809	1430,259	779,193
-39,257	12,822	1428,971	778,520
-38,242	12,908	1427,606	778,155
-37,227	12,870	1426,622	777,410
-36,213	12,885	1425,297	776,724
-35,198	12,850	1424,141	775,902
-34,184	12,922	1423,095	775,639
-33,169	12,866	1421,683	774,576
-32,154	12,872	1420,619	773,995
-31,140	12,876	1419,551	773,402
-30,125	12,916	1418,402	772,930
-29,111	12,948	1417,016	772,296
-28,096	12,893	1415,951	771,425
-27,082	12,861	1415,088	770,776
-26,067	12,847	1413,930	770,048
-25,052	12,855	1412,960	769,528
-24,038	12,853	1411,714	768,808
-23,023	12,799	1410,901	768,080
-22,009	12,820	1409,824	767,564
-20,994	12,753	1409,183	766,871
-19,979	12,758	1408,442	766,459
-18,965	12,787	1407,175	765,875
-17,950	12,781	1406,215	765,293
-16,936	12,813	1405,219	764,870
-15,921	12,742	1404,386	764,058
-14,906	12,763	1403,563	763,677
-13,892	12,732	1402,514	762,933
-12,877	12,721	1401,726	762,421
-11,863	12,707	1400,629	761,728
-10,848	12,686	1400,058	761,289
-9,833	12,726	1398,915	760,823
-8,819	12,626	1398,437	760,069
-7,804	12,674	1397,265	759,626
-6,790	12,646	1396,129	758,847
-5,775	12,654	1395,204	758,351
-4,760	12,640	1394,282	757,755
-3,746	12,624	1393,451	757,199
-2,731	12,633	1392,523	756,708
-1,717	12,571	1391,751	755,971
-0,702	12,560	1389,765	754,809
0,313	16,432	1305,696	727,013
1,327	32,710	699,663	426,966
2,342	50,334	122,244	81,528
3,356	0,532	16,643	8,382
4,371	17,260	3,196	1,788
5,386	-32,146	0,622	0,244
6,400	211,256	0,253	0,281
7,415	294,905	-0,147	-0,191
8,429	199,376	-0,109	-0,119
9,444	78,921	-0,275	-0,208
10,459	21,851	-0,303	-0,174
11,473	-88,954	-0,334	-0,069
12,488	-40,358	-0,352	-0,128
13,502	167,600	-0,227	-0,228
14,517	-9,460	-0,371	-0,174
15,531	66,266	-0,454	-0,325
16,546	7,460	-0,426	-0,224
17,561	151,257	-0,335	-0,322
18,575	21,105	-0,227	-0,130
19,590	107,699	-0,194	-0,163
20,604	-87,987	-0,280	-0,059
21,619	93,009	-0,483	-0,385
22,634	122,585	-0,426	-0,376
23,648	77,828	-0,370	-0,278
24,663	202,450	-0,256	-0,279
25,677	28,542	-0,356	-0,212
26,692	110,777	-0,323	-0,274
27,707	163,847	-0,286	-0,284
28,721	173,621	-0,376	-0,383
29,736	58,521	-0,366	-0,253
30,750	4,295	-0,490	-0,252
31,765	55,155	-0,435	-0,296
32,780	100,613	-0,307	-0,251
33,794	21,441	-0,469	-0,268
34,809	89,794	-0,291	-0,229
35,823	94,416	-0,348	-0,278
36,838	34,334	-0,478	-0,293
37,853	62,790	-0,516	-0,363
38,867	116,118	-0,313	-0,270
39,882	292,306	-0,216	-0,278
40,896	86,891	-0,315	-0,245
41,911	372,022	-0,220	-0,316
42,926	-59,520	-0,478	-0,144
43,940	38,053	-0,414	-0,259
44,955	29,596	-0,274	-0,164
45,969	-47,089	-0,389	-0,133
46,984	142,787	-0,282	-0,264
47,999	172,414	-0,188	-0,190
49,013	-9,946	-0,261	-0,122
50,028	-44,190	-0,368	-0,129
51,042	40,986	-0,242	-0,154
52,057	-51,207	-0,433	-0,142
53,071	342,161	-0,228	-0,315
54,086	255,379	-0,244	-0,295
55,101	-19,638	-0,303	-0,132
56,115	27,383	-0,289	-0,170
57,130	117,307	-0,249	-0,215
58,144	-39,542	-0,447	-0,164
59,159	-77,610	-0,542	-0,131
60,174	-10,059	-0,345	-0,161
61,188	124,291	-0,247	-0,218
62,203	432,700	-0,118	-0,180
63,217	-23,994	-0,344	-0,144
64,232	-51,751	-0,333	-0,108
65,247	58,012	-0,261	-0,179
66,261	-12,570	-0,364	-0,166
67,276	122,369	-0,299	-0,262
68,290	11,156	-0,404	-0,217
69,305	33,942	-0,298	-0,182
70,320	-65,012	-0,339	-0,095
71,334	-85,940	-0,419	-0,090
72,349	-6,517	-0,272	-0,130
73,363	-63,205	-0,367	-0,105
74,378	40,367	-0,400	-0,252
75,393	130,471	-0,281	-0,253
76,407	-24,846	-0,336	-0,139
77,422	75,572	-0,324	-0,240
78,436	38,184	-0,267	-0,166
79,451	155,079	-0,243	-0,235
80,466	168,169	-0,263	-0,263
81,480	25,956	-0,269	-0,157
82,495	800,000	-0,102	-0,228
83,509	63,256	-0,348	-0,245
84,524	628,977	-0,110	-0,196
85,539	96,060	-0,330	-0,265
86,553	-45,844	-0,284	-0,098
87,568	3,577	-0,378	-0,193
88,582	240,783	-0,149	-0,174
89,597	140,757	-0,217	-0,201
90,611	596,543	-0,113	-0,198
91,626	800,000	-0,087	-0,260
92,641	143,800	-0,249	-0,233
93,655	-27,388	-0,231	-0,094
94,670	195,583	-0,181	-0,193
95,684	30,441	-0,423	-0,253
96,699	256,038	-0,316	-0,381
97,714	-91,898	-0,331	-0,065
98,728	72,858	-0,263	-0,193
99,743	-68,768	-0,254	-0,068
100,757	63,352	-0,217	-0,152
101,772	142,457	-0,302	-0,281
102,787	-55,979	-0,338	-0,105
103,801	12,068	-0,259	-0,139
104,816	64,563	-0,272	-0,192
105,830	-200,000	-0,067	-0,277
106,845	-22,948	-0,245	-0,103
107,860	156,495	-0,146	-0,141
108,874	115,410	-0,336	-0,288
109,889	36,816	-0,405	-0,250
110,903	187,871	-0,285	-0,298
111,918	15,195	-0,191	-0,104
112,933	1,383	-0,279	-0,140
113,947	-11,573	-0,216	-0,099
114,962	-29,895	-0,124	-0,049
115,976	68,443	-0,236	-0,169
116,991	145,630	-0,235	-0,220
118,006	34,085	-0,328	-0,199
119,020	-66,564	-0,414	-0,114
120,035	-15,753	-0,247	-0,110
121,049	158,492	-0,211	-0,205
122,064	64,660	-0,220	-0,155
123,079	84,196	-0,195	-0,149
124,093	217,445	-0,247	-0,276
125,108	57,849	-0,229	-0,157
126,122	612,273	-0,189	-0,333
127,137	3,452	-0,267	-0,135
128,151	-110,685	-0,292	-0,042
129,166	-43,009	-0,303	-0,107
130,181	46,049	-0,152	-0,098
131,195	155,934	-0,180	-0,174
132,210	297,405	-0,160	-0,206
133,224	438,969	-0,199	-0,304
134,239	30,951	-0,231	-0,138
135,254	106,739	-0,211	-0,175
136,268	-40,547	-0,184	-0,066
137,283	9,341	-0,250	-0,132
138,297	-73,274	-0,273	-0,069
139,312	137,445	-0,248	-0,227
140,327	248,789	-0,144	-0,171
141,341	-14,587	-0,260	-0,116
142,356	112,965	-0,177	-0,150
143,370	-0,660	-0,385	-0,190
144,385	68,182	-0,269	-0,192
145,400	93,456	-0,213	-0,168
146,414	240,656	-0,193	-0,225
147,429	-4,328	-0,423	-0,204
148,443	18,921	-0,220	-0,123
149,458	352,965	-0,161	-0,223
150,473	398,728	-0,130	-0,191
151,487	277,174	-0,154	-0,192
152,502	178,095	-0,291	-0,297
153,516	-200,000	-0,058	-0,259
154,531	-70,386	-0,349	-0,092
155,546	99,848	-0,177	-0,143
156,560	800,000	-0,048	-0,107
157,575	-38,764	-0,356	-0,130
158,589	-100,191	-0,291	-0,050
159,604	-44,240	-0,315	-0,109
160,619	172,945	-0,255	-0,257
161,633	84,896	-0,196	-0,149
162,648	-38,995	-0,259	-0,094
163,662	99,362	-0,146	-0,118
164,677	33,292	-0,229	-0,138
165,692	13,809	-0,171	-0,092
166,706	-4,913	-0,320	-0,153
167,721	14,449	-0,316	-0,171
168,735	12,708	-0,272	-0,146
169,750	-200,000	-0,092	-0,395
170,764	-65,163	-0,271	-0,076
171,779	-116,166	-0,163	-0,021
172,794	273,136	-0,191	-0,236
173,808	187,195	-0,165	-0,171
174,823	95,322	-0,316	-0,251
175,837	176,945	-0,298	-0,302
176,852	16,233	-0,350	-0,192
177,867	-8,290	-0,264	-0,123
178,881	800,000	-0,142	-0,288
179,896	66,060	-0,212	-0,149
180,910	327,390	-0,133	-0,178
181,925	40,434	-0,377	-0,236
182,940	187,300	-0,196	-0,203
183,954	-36,262	-0,302	-0,113
184,969	384,320	-0,169	-0,242
185,983	285,925	-0,106	-0,133
186,998	200,048	-0,165	-0,177
188,013	281,081	-0,160	-0,199
189,027	800,000	-0,075	-0,176
190,042	29,781	-0,222	-0,131
191,056	309,213	-0,243	-0,317
192,071	-91,507	-0,165	0,032
193,086	8,289	-0,083	-0,043
194,100	211,985	-0,147	-0,161
195,115	156,586	-0,196	-0,188
196,129	192,417	-0,189	-0,198
197,144	85,180	-0,292	-0,223
198,159	236,684	-0,197	-0,227
199,173	-72,965	-0,216	-0,055
200,188	40,911	-0,144	-0,090
201,202	-74,358	-0,208	0,052
202,217	-200,000	-0,059	-0,219
203,232	139,902	-0,260	-0,238
204,246	-27,496	-0,317	-0,127
205,261	132,789	-0,193	-0,173
206,275	92,701	-0,169	-0,133
207,290	592,730	-0,081	-0,140
208,304	-162,437	-0,085	-0,003
209,319	66,934	-0,274	-0,193
210,334	454,227	-0,124	-0,191
211,348	16,562	-0,252	-0,138
212,363	-7,751	-0,224	-0,105
213,377	39,470	-0,209	-0,130
214,392	768,243	-0,123	-0,233
215,407	376,142	-0,153	-0,217
216,421	-70,980	-0,216	-0,056
217,436	-29,636	-0,109	-0,043
218,450	716,929	-0,122	-0,226
219,465	765,472	-0,114	-0,216
220,480	122,601	-0,185	-0,160
221,494	-200,000	-0,015	-0,057
222,509	146,471	-0,178	-0,166
223,523	-142,563	-0,157	-0,011
224,538	-24,615	-0,229	-0,094
225,553	84,641	-0,223	-0,169
226,567	800,000	-0,117	-0,289
227,582	423,680	-0,143	-0,214
228,596	45,161	-0,189	-0,120
229,611	-31,662	-0,177	-0,069
230,626	-200,000	-0,050	-0,178
231,640	98,375	-0,063	-0,050
232,655	209,125	-0,156	-0,169
233,669	347,565	-0,202	-0,276
234,684	633,863	-0,153	-0,269
235,699	-136,553	-0,105	0,008
236,713	270,737	-0,149	-0,181
237,728	712,091	-0,104	-0,191
238,742	24,736	-0,150	-0,086
239,757	-147,685	-0,135	-0,008
240,772	6,438	-0,284	-0,145
241,786	12,854	-0,226	-0,120
242,801	65,377	-0,241	-0,169
243,815	-31,650	-0,141	-0,055
244,830	800,000	-0,090	-0,223
245,844	605,236	-0,120	-0,207
246,859	50,358	-0,256	-0,167
247,874	226,495	-0,151	-0,170
248,888	410,507	-0,171	-0,252
249,903	238,387	-0,207	-0,239
250,917	229,352	-0,123	-0,140
251,932	-81,581	-0,334	-0,075
252,947	-112,793	-0,192	-0,026
253,961	12,095	-0,276	-0,146
254,976	70,564	-0,270	-0,193
255,990	52,603	-0,214	-0,141
257,005	-6,210	-0,134	-0,063
258,020	-200,000	-0,050	-0,175
259,034	167,411	-0,096	-0,094
260,049	-70,875	-0,145	0,037
261,063	-7,460	-0,159	-0,074
262,078	140,359	-0,219	-0,200
263,093	470,817	-0,159	-0,249
264,107	716,204	-0,160	-0,294
265,122	161,292	-0,191	-0,185
266,136	80,805	-0,146	-0,108
267,151	-50,814	-0,183	-0,059
268,166	800,000	-0,093	-0,211
269,180	49,144	-0,102	-0,066
270,195	413,092	-0,126	-0,186
271,209	800,000	-0,043	-0,118
272,224	37,885	-0,147	-0,090
273,239	35,621	-0,198	-0,120
274,253	-67,159	-0,222	-0,060
275,268	287,297	-0,110	-0,137
276,282	125,427	-0,166	-0,145
277,297	-59,273	-0,203	-0,060
278,312	119,543	-0,144	-0,123
279,326	80,906	-0,093	-0,069
280,341	10,969	-0,213	-0,112
281,355	123,863	-0,036	-0,031
282,370	-179,277	-0,155	-0,002
283,384	-92,833	-0,172	-0,033
284,399	157,427	-0,197	-0,188
285,414	-76,578	-0,180	0,043
286,428	-200,000	-0,003	0,059
287,443	-138,102	-0,135	-0,010
288,457	-99,580	-0,201	0,034
289,472	-112,883	-0,179	-0,024
290,487	-130,609	-0,301	-0,028
291,501	569,788	-0,108	-0,181
292,516	110,757	-0,102	-0,084
293,530	-50,441	-0,149	0,048
294,545	304,019	-0,129	-0,166
295,560	-105,712	-0,108	-0,017
296,574	375,868	-0,169	-0,238
297,589	10,547	-0,191	-0,100
298,603	723,686	-0,132	-0,243
299,618	676,741	-0,164	-0,295
300,633	137,401	-0,096	-0,086
301,647	-72,490	-0,084	-0,021
302,662	-59,837	-0,126	0,037
303,676	392,611	-0,085	-0,122
304,691	-52,489	-0,231	-0,073
305,706	140,237	-0,146	-0,133
306,720	64,140	-0,145	-0,100
307,735	-37,640	-0,108	-0,039
308,749	185,346	-0,106	-0,109
309,764	-50,549	-0,125	0,040
310,779	165,374	-0,117	-0,114
311,793	136,595	-0,155	-0,139
312,808	-48,976	-0,157	-0,051
313,822	-200,000	-0,053	-0,197
314,837	800,000	-0,030	-0,085
315,852	-56,631	-0,082	0,025
316,866	45,095	-0,066	-0,042
317,881	128,690	-0,241	-0,211
318,895	800,000	-0,087	-0,209
319,910	92,778	-0,072	-0,056
320,925	100,587	-0,197	-0,157
321,939	-177,240	-0,152	0,003
322,954	800,000	-0,068	-0,157
323,968	-23,289	-0,146	-0,060
324,983	-200,000	-0,015	0,131
325,997	11,929	-0,167	-0,088
327,012	796,646	-0,054	-0,102
328,027	68,638	-0,193	-0,136
329,041	-91,623	-0,166	-0,032
330,056	800,000	-0,068	-0,153
331,070	10,218	-0,051	0,026
332,085	130,891	-0,123	-0,108
333,100	51,879	-0,168	-0,110
334,114	-200,000	-0,002	-0,030
335,129	168,894	-0,174	-0,170
336,143	-200,000	-0,013	-0,040
337,158	431,171	-0,156	-0,232
338,173	-128,695	-0,101	0,010
339,187	248,603	-0,036	0,042
340,202	-29,031	-0,155	-0,061
341,216	-132,307	-0,163	-0,014
342,231	800,000	-0,062	-0,150
343,246	542,648	-0,112	-0,184
344,260	192,317	-0,104	-0,108
345,275	416,133	-0,069	-0,102
346,289	-86,757	-0,074	0,015
347,304	-44,677	-0,134	0,046
348,319	240,786	-0,075	-0,086
349,333	-26,245	-0,136	0,055
350,348	-39,409	-0,131	0,047
351,362	800,000	-0,062	-0,129
352,377	-17,595	-0,061	-0,026
353,392	19,764	-0,217	-0,119
354,406	56,295	-0,142	-0,094
355,421	208,914	1310,812	1407,996
356,435	160,768	1471,069	1408,496
