DTS Sentinel unit serial number:	SN410029Multiplexer serial number:	ORYXHardware model number:	OX2-SRSoftware version number:	ORYX F/W v4,00 Oryx Data Collector v3.7.2.0data status	okinstallation	B3 Nyhavnadifferential loss correction	single-endedforward channel	channel 1reverse channel	N/Adate	2023/12/04time	20:27:30forward acquisition time	300,00reverse acquisition time	0,00gamma	499,1914k internal	0,3200k external	0,3200temperature offset calibration	1,0000default loss term (dB/km)	0,3820temperature slope calibration	1,0000multiplexer offset coefficient	1,0000multiplexer slope coefficient	1,0000fibre end	0,00T internal ref (°C)	14,44T ext. ref 1 (°C)	-0,50T ext. ref 2 (°C)	-0,52length (m)	temperature (°C)	Stokes	anti-Stokes-744,400	137,514	-0,274	-0,261
-743,385	800,000	0,068	0,175
-742,371	364,958	-0,129	-0,189
-741,356	-200,000	0,067	0,364
-740,342	-43,196	-0,206	-0,075
-739,327	-200,000	0,024	0,291
-738,312	-62,798	-0,304	-0,091
-737,298	-200,000	-0,025	0,266
-736,283	800,000	-0,099	-0,224
-735,269	279,594	0,186	0,242
-734,254	62,120	-0,274	-0,198
-733,239	-112,555	-0,210	0,030
-732,225	-200,000	-0,036	-0,199
-731,210	219,783	0,040	0,047
-730,196	-36,353	-0,069	0,027
-729,181	-200,000	-0,001	-0,077
-728,167	-46,670	-0,098	-0,035
-727,152	-200,000	-0,001	0,012
-726,137	582,496	-0,062	-0,112
-725,123	800,000	-0,037	-0,081
-724,108	-1,066	-0,093	0,047
-723,094	27,380	-0,032	0,020
-722,079	102,015	-0,081	-0,069
-721,064	536,449	-0,130	-0,225
-720,050	-159,273	-0,092	0,004
-719,035	0,021	-0,038	-0,019
-718,021	174,206	-0,094	-0,099
-717,006	-65,120	-0,046	-0,014
-715,991	-182,461	-0,097	-0,001
-714,977	192,283	0,051	-0,056
-713,962	153,547	0,040	0,040
-712,948	-200,000	0,000	-0,190
-711,933	-200,000	-0,004	-0,055
-710,918	401,821	0,075	-0,115
-709,904	7,857	-0,021	0,011
-708,889	-26,710	0,024	-0,010
-707,875	-200,000	0,001	-0,036
-706,860	561,659	-0,013	0,022
-705,845	535,204	-0,087	0,151
-704,831	-200,000	-0,035	0,262
-703,816	480,475	-0,094	0,155
-702,802	-200,000	-0,028	-0,163
-701,787	-197,975	0,058	0,000
-700,772	-89,809	-0,115	0,024
-699,758	-121,811	-0,107	-0,013
-698,743	800,000	-0,061	0,165
-697,729	-92,562	-0,142	-0,029
-696,714	28,423	-0,070	0,043
-695,699	-200,000	-0,001	-0,014
-694,685	-200,000	-0,029	-0,180
-693,670	800,000	-0,066	-0,143
-692,656	-14,290	0,112	-0,052
-691,641	117,996	0,055	-0,050
-690,627	-32,213	0,037	0,015
-689,612	-34,842	-0,120	0,047
-688,597	-93,488	0,137	-0,027
-687,583	-68,509	-0,122	-0,034
-686,568	-21,527	-0,052	-0,023
-685,554	-200,000	0,010	0,063
-684,539	203,464	-0,045	0,051
-683,524	87,737	-0,058	0,046
-682,510	143,753	0,043	0,041
-681,495	-78,502	-0,127	0,031
-680,481	-200,000	-0,013	0,094
-679,466	404,645	0,013	0,020
-678,451	-200,000	-0,008	-0,092
-677,437	800,000	-0,044	-0,101
-676,422	-107,521	0,051	0,008
-675,408	-71,961	-0,051	0,014
-674,393	800,000	-0,009	-0,021
-673,378	181,588	-0,097	-0,104
-672,364	88,402	-0,097	-0,078
-671,349	144,600	-0,046	0,045
-670,335	170,971	-0,056	0,058
-669,320	351,363	0,075	-0,107
-668,305	-200,000	0,013	-0,058
-667,291	-69,006	-0,065	-0,018
-666,276	-65,909	-0,113	-0,033
-665,262	173,845	-0,073	-0,077
-664,247	175,150	-0,115	-0,121
-663,232	498,775	-0,063	-0,106
-662,218	-200,000	0,000	0,142
-661,203	-200,000	0,029	0,104
-660,189	-200,000	0,003	0,161
-659,174	409,639	0,028	-0,043
-658,159	140,382	0,073	-0,070
-657,145	-200,000	-0,008	-0,244
-656,130	196,863	0,070	-0,077
-655,116	-36,754	-0,060	0,023
-654,101	-200,000	0,015	0,131
-653,086	800,000	-0,036	0,091
-652,072	335,453	-0,082	0,115
-651,057	-108,691	0,068	0,010
-650,043	-200,000	0,030	0,170
-649,028	-42,479	-0,133	0,049
-648,014	79,965	-0,068	-0,053
-646,999	-7,367	-0,172	0,084
-645,984	-200,000	-0,007	0,097
-644,970	592,368	-0,023	-0,042
-643,955	800,000	-0,068	0,184
-642,941	-156,252	-0,025	0,001
-641,926	751,067	0,081	0,159
-640,911	-67,034	-0,118	0,033
-639,897	-200,000	-0,029	-0,101
-638,882	-58,786	0,101	0,032
-637,868	29,213	0,047	-0,029
-636,853	800,000	-0,052	-0,158
-635,838	23,642	-0,071	0,042
-634,824	53,497	0,005	0,004
-633,809	-200,000	-0,024	-0,078
-632,795	-27,782	0,067	-0,028
-631,780	-200,000	0,011	0,040
-630,765	423,096	-0,010	0,015
-629,751	59,598	0,012	0,009
-628,736	198,417	0,092	-0,102
-627,722	53,638	0,030	0,021
-626,707	-200,000	0,003	-0,087
-625,692	221,342	-0,103	0,120
-624,678	373,700	-0,032	0,047
-623,663	300,139	-0,035	-0,046
-622,649	-200,000	-0,013	-0,060
-621,634	-4,995	0,071	0,035
-620,619	-200,000	0,016	0,080
-619,605	-200,000	0,024	-0,091
-618,590	-54,888	-0,134	0,043
-617,576	-200,000	0,017	0,068
-616,561	625,769	0,059	-0,108
-615,546	70,742	0,014	0,010
-614,532	307,084	-0,075	-0,101
-613,517	107,790	0,048	0,042
-612,503	800,000	0,005	-0,014
-611,488	-81,373	0,133	0,031
-610,474	-200,000	-0,010	-0,053
-609,459	93,510	-0,081	0,066
-608,444	110,849	-0,045	-0,040
-607,430	55,030	-0,136	-0,095
-606,415	-200,000	-0,025	-0,106
-605,401	800,000	0,041	-0,083
-604,386	-25,507	0,093	-0,040
-603,371	109,978	-0,031	0,027
-602,357	38,316	0,033	-0,021
-601,342	-14,901	0,137	-0,063
-600,328	118,350	-0,025	-0,022
-599,313	-200,000	-0,025	-0,102
-598,298	420,268	0,036	-0,055
-597,284	149,081	0,016	-0,015
-596,269	-200,000	-0,014	0,062
-595,255	800,000	-0,014	-0,029
-594,240	-17,068	0,112	0,051
-593,225	31,027	-0,184	-0,114
-592,211	3,003	-0,094	0,049
-591,196	-9,382	0,129	0,062
-590,182	167,182	-0,057	-0,059
-589,167	-106,244	0,146	0,023
-588,152	125,871	0,121	0,110
-587,138	-200,000	0,021	0,135
-586,123	33,357	0,104	0,065
-585,109	-105,294	-0,169	-0,028
-584,094	-200,000	-0,020	-0,070
-583,079	72,596	0,074	0,056
-582,065	-127,372	-0,053	-0,005
-581,050	-200,000	0,020	-0,093
-580,036	409,418	0,084	0,129
-579,021	-82,941	0,134	-0,031
-578,006	-40,696	-0,113	-0,042
-576,992	-48,795	-0,042	0,014
-575,977	800,000	0,080	-0,168
-574,963	-200,000	0,025	-0,174
-573,948	-43,182	-0,071	0,026
-572,934	107,126	-0,090	-0,077
-571,919	357,915	-0,028	0,041
-570,904	383,509	0,052	0,078
-569,890	147,291	-0,116	0,113
-568,875	341,422	-0,074	-0,105
-567,861	-200,000	0,050	0,167
-566,846	-91,696	0,044	-0,009
-565,831	781,876	-0,073	-0,145
-564,817	83,687	-0,131	-0,103
-563,802	-200,000	0,013	-0,061
-562,788	-2,436	0,118	0,059
-561,773	2,705	0,094	-0,049
-560,758	346,279	0,060	0,086
-559,744	-25,428	-0,052	0,022
-558,729	800,000	0,018	0,045
-557,715	-66,699	0,086	0,024
-556,700	-121,351	-0,088	-0,011
-555,685	123,569	0,015	-0,014
-554,671	-200,000	-0,010	0,102
-553,656	-5,109	0,125	-0,062
-552,642	57,064	0,118	0,083
-551,627	44,496	0,108	-0,071
-550,612	800,000	-0,023	-0,053
-549,598	-20,554	-0,117	-0,051
-548,583	106,743	-0,004	0,003
-547,569	-37,976	-0,102	-0,039
-546,554	-84,698	0,108	0,024
-545,539	530,115	0,037	-0,063
-544,525	800,000	-0,040	0,099
-543,510	71,283	-0,161	0,120
-542,496	-200,000	-0,014	0,084
-541,481	-9,897	-0,114	0,055
-540,466	-200,000	-0,008	-0,083
-539,452	102,793	-0,038	-0,032
-538,437	800,000	-0,039	0,123
-537,423	797,676	0,038	0,076
-536,408	-107,420	0,102	-0,016
-535,393	800,000	0,030	-0,087
-534,379	-58,563	-0,155	-0,048
-533,364	-200,000	-0,002	-0,044
-532,350	253,550	-0,029	-0,036
-531,335	-110,105	0,105	-0,016
-530,321	-200,000	-0,006	-0,022
-529,306	800,000	0,024	-0,058
-528,291	-24,985	-0,108	0,046
-527,277	675,738	0,035	-0,065
-526,262	136,718	-0,047	0,044
-525,248	74,335	-0,055	-0,042
-524,233	-2,114	-0,019	0,009
-523,218	-200,000	-0,009	-0,089
-522,204	-200,000	0,019	0,166
-521,189	-200,000	0,041	-0,154
-520,175	-8,287	-0,065	-0,031
-519,160	-11,877	-0,089	-0,042
-518,145	380,744	0,052	-0,077
-517,131	800,000	-0,008	0,024
-516,116	-200,000	0,009	-0,062
-515,102	-200,000	0,001	0,081
-514,087	377,932	0,088	-0,129
-513,072	-5,624	-0,085	-0,042
-512,058	471,182	0,084	-0,137
-511,043	-145,886	-0,120	0,008
-510,029	113,396	0,094	0,082
-509,014	-200,000	-0,025	0,103
-507,999	-4,899	0,174	0,086
-506,985	23,512	-0,058	-0,034
-505,970	800,000	-0,044	-0,128
-504,956	800,000	-0,108	-0,240
-503,941	260,839	0,115	0,143
-502,926	56,970	0,077	0,054
-501,912	-58,338	-0,131	0,041
-500,897	188,746	-0,040	-0,043
-499,883	-116,555	-0,143	0,019
-498,868	-126,993	-0,084	0,009
-497,853	-145,931	0,030	-0,002
-496,839	-163,095	-0,124	0,004
-495,824	-96,098	0,091	0,017
-494,810	10,720	-0,036	0,020
-493,795	69,832	-0,031	0,023
-492,781	374,711	0,040	0,059
-491,766	-39,425	-0,112	-0,042
-490,751	800,000	-0,054	-0,109
-489,737	-103,841	-0,055	0,009
-488,722	40,540	-0,030	-0,020
-487,708	-22,935	0,069	-0,030
-486,693	337,331	0,056	0,079
-485,678	-73,905	0,040	-0,010
-484,664	335,081	0,063	-0,088
-483,649	-200,000	-0,017	-0,108
-482,635	-200,000	0,001	0,005
-481,620	228,562	-0,056	-0,066
-480,605	129,603	0,052	0,048
-479,591	-30,497	-0,140	-0,057
-478,576	422,427	-0,006	0,010
-477,562	-38,130	0,153	-0,058
-476,547	145,071	-0,131	-0,127
-475,532	-200,000	0,024	0,123
-474,518	122,026	-0,073	-0,066
-473,503	800,000	-0,020	0,054
-472,489	20,995	0,064	-0,037
-471,474	69,453	0,038	-0,028
-470,459	-135,090	0,047	0,004
-469,445	-147,419	-0,034	0,002
-468,430	156,724	-0,072	-0,072
-467,416	-200,000	-0,003	0,085
-466,401	-115,760	0,025	-0,003
-465,386	89,291	-0,086	0,069
-464,372	510,137	-0,037	-0,062
-463,357	15,992	0,093	0,052
-462,343	-28,202	0,062	-0,026
-461,328	-32,626	0,061	0,024
-460,313	-200,000	-0,011	0,048
-459,299	800,000	-0,041	-0,093
-458,284	-200,000	-0,005	0,074
-457,270	800,000	-0,071	0,200
-456,255	36,891	-0,091	0,058
-455,241	61,689	-0,044	0,031
-454,226	134,559	-0,132	-0,123
-453,211	800,000	0,018	-0,044
-452,197	272,245	-0,047	0,059
-451,182	800,000	0,018	0,048
-450,168	-61,698	-0,128	0,038
-449,153	-29,832	-0,063	-0,026
-448,138	-200,000	0,010	-0,124
-447,124	800,000	-0,019	-0,043
-446,109	447,067	-0,007	0,012
-445,095	-200,000	-0,007	0,157
-444,080	180,186	0,136	-0,144
-443,065	-88,964	0,032	-0,007
-442,051	-200,000	-0,038	-0,122
-441,036	31,811	-0,157	-0,097
-440,022	-200,000	0,010	0,067
-439,007	-74,366	-0,042	0,011
-437,992	800,000	0,035	0,084
-436,978	800,000	0,079	0,166
-435,963	-24,834	0,109	0,046
-434,949	-40,844	-0,120	0,044
-433,934	36,155	-0,024	-0,015
-432,919	-160,981	0,206	0,008
-431,905	-56,849	0,004	0,001
-430,890	42,497	-0,044	0,029
-429,876	-56,175	0,050	-0,016
-428,861	-200,000	0,030	-0,191
-427,846	-74,280	0,084	0,022
-426,832	-71,205	-0,071	-0,019
-425,817	3,751	0,075	-0,039
-424,803	34,284	0,061	0,038
-423,788	-124,998	-0,134	0,015
-422,773	800,000	-0,047	0,118
-421,759	800,000	-0,001	-0,002
-420,744	733,198	0,007	0,013
-419,730	-0,289	-0,068	0,034
-418,715	-77,649	-0,059	-0,015
-417,701	-72,976	-0,140	0,037
-416,686	800,000	0,061	0,142
-415,671	-100,430	-0,125	0,022
-414,657	-28,272	-0,025	0,010
-413,642	-110,214	0,170	0,025
-412,628	57,088	-0,109	-0,076
-411,613	468,614	0,023	-0,036
-410,598	177,728	-0,070	-0,073
-409,584	-94,405	0,030	-0,006
-408,569	-200,000	0,008	-0,064
-407,555	48,795	0,181	0,122
-406,540	-200,000	-0,007	-0,209
-405,525	77,228	-0,037	-0,029
-404,511	800,000	0,073	-0,187
-403,496	-200,000	0,019	-0,173
-402,482	171,741	-0,027	0,028
-401,467	-130,420	0,041	0,004
-400,452	13,789	0,076	-0,042
-399,438	800,000	-0,049	0,120
-398,423	-200,000	-0,026	-0,089
-397,409	-104,986	-0,157	0,026
-396,394	-138,176	-0,094	0,007
-395,379	-200,000	-0,001	-0,085
-394,365	800,000	-0,039	0,081
-393,350	800,000	0,093	0,281
-392,336	-49,361	-0,153	0,052
-391,321	66,978	0,024	-0,017
-390,306	80,257	-0,071	-0,055
-389,292	277,494	0,025	-0,032
-388,277	139,467	-0,113	0,107
-387,263	64,034	0,105	0,076
-386,248	408,024	-0,007	-0,011
-385,233	-97,242	0,160	0,030
-384,219	-88,165	0,018	0,004
-383,204	111,969	-0,104	-0,090
-382,190	800,000	-0,032	-0,087
-381,175	-200,000	0,067	-0,220
-380,160	-200,000	-0,002	0,164
-379,146	800,000	-0,056	0,136
-378,131	27,483	0,045	-0,027
-377,117	-83,520	-0,085	-0,019
-376,102	79,700	0,074	-0,057
-375,088	-200,000	-0,016	0,144
-374,073	-81,861	0,148	-0,034
-373,058	-124,883	0,089	-0,010
-372,044	800,000	-0,027	0,081
-371,029	-19,137	-0,074	0,033
-370,015	-37,658	0,123	-0,047
-369,000	-58,527	0,103	0,032
-367,985	-118,315	0,079	0,010
-366,971	-99,342	0,069	-0,012
-365,956	-200,000	-0,026	-0,113
-364,942	-200,000	-0,003	0,061
-363,927	74,309	-0,021	0,016
-362,912	474,629	-0,041	-0,067
-361,898	800,000	-0,079	-0,236
-360,883	-200,000	-0,003	0,089
-359,869	-200,000	0,014	-0,064
-358,854	153,443	0,074	0,073
-357,839	107,348	0,030	0,026
-356,825	800,000	-0,036	0,083
-355,810	-27,867	0,075	-0,031
-354,796	-27,452	-0,173	-0,072
-353,781	-200,000	0,005	-0,043
-352,766	-200,000	-0,004	0,075
-351,752	-88,421	0,044	0,009
-350,737	190,588	0,049	0,053
-349,723	-200,000	0,010	0,064
-348,708	173,967	-0,114	-0,118
-347,693	-14,593	0,087	-0,040
-346,679	-200,000	0,017	-0,092
-345,664	-200,000	-0,024	0,080
-344,650	-109,081	0,078	-0,012
-343,635	-167,541	0,071	-0,002
-342,620	665,639	0,047	0,088
-341,606	104,898	-0,049	0,042
-340,591	-200,000	-0,004	0,118
-339,577	-121,794	-0,168	-0,020
-338,562	318,145	0,037	0,050
-337,548	266,767	-0,096	0,121
-336,533	800,000	-0,035	0,071
-335,518	708,757	-0,028	0,053
-334,504	-63,138	-0,109	0,032
-333,489	-74,052	0,082	-0,021
-332,475	-200,000	0,003	-0,164
-331,460	93,800	0,064	0,052
-330,445	516,392	0,042	0,070
-329,431	800,000	-0,010	-0,020
-328,416	37,162	-0,049	-0,031
-327,402	800,000	-0,042	-0,095
-326,387	-146,442	0,110	-0,007
-325,372	-25,916	-0,052	0,022
-324,358	-174,959	-0,101	0,002
-323,343	-200,000	0,032	-0,146
-322,329	44,857	0,050	0,033
-321,314	-90,839	0,151	0,031
-320,299	10,449	-0,071	-0,039
-319,285	-200,000	-0,020	0,121
-318,270	8,794	-0,122	0,066
-317,256	800,000	-0,047	-0,098
-316,241	595,241	-0,029	-0,051
-315,226	-42,973	0,106	-0,038
-314,212	73,504	-0,088	0,066
-313,197	-34,710	-0,081	-0,031
-312,183	-200,000	-0,019	0,102
-311,168	-150,068	-0,026	-0,001
-310,153	297,822	0,070	-0,092
-309,139	-200,000	0,019	0,062
-308,124	-14,562	0,039	-0,018
-307,110	12,165	0,129	0,071
-306,095	119,921	0,053	-0,047
-305,080	120,497	-0,086	0,076
-304,066	-144,160	-0,070	-0,005
-303,051	-200,000	0,022	-0,091
-302,037	436,418	-0,055	-0,085
-301,022	662,457	-0,025	0,046
-300,008	-75,647	0,145	0,037
-298,993	-200,000	-0,032	0,111
-297,978	-16,480	0,038	0,017
-296,964	-200,000	-0,010	-0,042
-295,949	-200,000	-0,002	-0,058
-294,935	800,000	-0,048	0,127
-293,920	-200,000	-0,034	0,195
-292,905	166,013	0,085	-0,086
-291,891	183,471	0,051	0,054
-290,876	-200,000	0,006	-0,024
-289,862	109,823	0,051	-0,044
-288,847	-200,000	-0,002	-0,065
-287,832	-149,752	-0,122	0,007
-286,818	800,000	0,013	0,029
-285,803	-146,877	-0,066	0,004
-284,789	-66,176	0,022	-0,006
-283,774	-200,000	0,036	0,213
-282,759	800,000	-0,070	-0,149
-281,745	-76,190	-0,146	-0,037
-280,730	58,534	0,048	0,034
-279,716	64,387	-0,106	0,076
-278,701	-200,000	0,001	0,122
-277,686	186,242	0,052	-0,056
-276,672	655,009	0,031	-0,057
-275,657	-200,000	-0,001	0,049
-274,643	600,781	0,027	0,049
-273,628	-200,000	0,006	-0,093
-272,613	-32,478	-0,105	-0,042
-271,599	96,154	0,068	-0,056
-270,584	85,484	-0,088	0,069
-269,570	-9,083	0,093	-0,044
-268,555	370,361	0,012	0,018
-267,540	30,948	0,075	0,046
-266,526	172,386	-0,122	-0,125
-265,511	40,199	0,061	0,039
-264,497	-200,000	-0,005	0,043
-263,482	-100,174	0,097	-0,017
-262,467	-200,000	0,010	0,186
-261,453	-200,000	-0,003	-0,011
-260,438	151,091	-0,111	-0,108
-259,424	-200,000	0,025	0,088
-258,409	270,006	-0,021	-0,027
-257,395	-200,000	0,029	-0,166
-256,380	800,000	-0,032	-0,066
-255,365	-200,000	0,001	0,055
-254,351	-31,188	-0,235	0,094
-253,336	54,877	0,019	0,013
-252,322	41,123	-0,181	-0,116
-251,307	97,970	0,039	0,032
-250,292	295,144	0,020	-0,026
-249,278	800,000	-0,072	-0,151
-248,263	-121,335	0,121	-0,014
-247,249	-200,000	-0,005	-0,030
-246,234	-200,000	-0,006	-0,051
-245,219	-200,000	-0,008	-0,124
-244,205	61,507	-0,028	-0,020
-243,190	-108,049	0,095	-0,015
-242,176	98,525	0,047	0,039
-241,161	-86,030	-0,048	-0,011
-240,146	-131,353	-0,068	-0,006
-239,132	215,028	0,047	-0,053
-238,117	49,529	-0,046	0,031
-237,103	-200,000	0,011	-0,041
-236,088	-200,000	0,013	-0,057
-235,073	-200,000	-0,016	-0,109
-234,059	800,000	0,060	-0,137
-233,044	-200,000	-0,006	0,059
-232,030	-200,000	-0,005	-0,064
-231,015	-200,000	-0,001	-0,100
-230,000	7,548	0,041	0,022
-228,986	800,000	0,047	0,110
-227,971	-11,934	0,025	0,012
-226,957	-200,000	0,024	0,094
-225,942	20,297	0,041	0,023
-224,927	71,576	0,067	0,049
-223,913	-77,548	-0,057	-0,014
-222,898	67,042	-0,051	-0,037
-221,884	800,000	0,057	-0,145
-220,869	800,000	-0,049	-0,114
-219,855	180,189	0,042	0,044
-218,840	349,566	0,065	0,091
-217,825	247,540	-0,008	-0,010
-216,811	119,726	0,078	-0,069
-215,796	177,410	0,059	0,061
-214,782	226,549	0,080	-0,093
-213,767	-18,101	0,162	0,072
-212,752	-200,000	-0,055	0,185
-211,738	709,784	0,062	0,117
-210,723	800,000	-0,056	0,112
-209,709	-5,549	0,030	0,015
-208,694	-83,286	-0,135	-0,031
-207,679	-200,000	-0,014	-0,145
-206,665	54,017	0,022	-0,015
-205,650	196,154	0,032	0,035
-204,636	-200,000	0,020	0,103
-203,621	205,413	0,026	0,029
-202,606	-200,000	0,028	0,092
-201,592	800,000	-0,011	0,033
-200,577	131,905	0,095	-0,087
-199,563	-154,735	0,032	0,001
-198,548	268,322	0,089	0,112
-197,533	-77,881	0,084	-0,020
-196,519	-200,000	-0,015	0,163
-195,504	-88,662	0,047	0,010
-194,490	-200,000	-0,008	0,089
-193,475	79,514	0,062	-0,047
-192,460	152,894	0,081	0,079
-191,446	800,000	0,071	0,172
-190,431	-93,729	0,113	0,022
-189,417	-106,456	0,024	0,004
-188,402	-62,421	0,129	0,038
-187,387	14,614	0,149	-0,083
-186,373	177,822	0,058	-0,060
-185,358	207,587	0,080	0,089
-184,344	406,768	0,055	0,082
-183,329	800,000	0,027	-0,061
-182,315	-200,000	-0,002	0,010
-181,300	52,993	0,058	-0,039
-180,285	337,260	-0,039	-0,054
-179,271	-1,657	-0,116	-0,058
-178,256	-200,000	-0,005	0,051
-177,242	98,064	0,079	0,065
-176,227	60,669	0,098	0,069
-175,212	397,100	0,058	0,086
-174,198	-44,891	0,061	-0,021
-173,183	-57,875	0,033	0,010
-172,169	-9,153	-0,147	0,070
-171,154	-69,732	-0,175	-0,047
-170,139	800,000	0,054	0,123
-169,125	800,000	0,042	0,110
-168,110	-200,000	-0,030	0,279
-167,096	374,637	0,060	0,087
-166,081	-200,000	0,001	-0,045
-165,066	56,595	-0,032	0,022
-164,052	-200,000	-0,005	-0,038
-163,037	-156,763	-0,079	-0,003
-162,023	-170,666	0,156	-0,004
-161,008	41,643	-0,114	-0,073
-159,993	800,000	-0,052	-0,134
-158,979	-200,000	0,006	-0,063
-157,964	28,217	0,058	-0,035
-156,950	800,000	-0,048	-0,100
-155,935	564,388	-0,020	-0,035
-154,920	-122,764	0,099	0,011
-153,906	-35,711	0,124	0,048
-152,891	-44,973	-0,036	-0,013
-151,877	-58,836	-0,104	0,032
-150,862	223,570	-0,047	-0,054
-149,847	800,000	-0,066	-0,146
-148,833	144,845	0,105	-0,100
-147,818	-200,000	0,009	0,039
-146,804	436,309	-0,074	-0,115
-145,789	179,050	0,028	0,029
-144,775	-59,955	0,070	-0,021
-143,760	704,613	-0,017	-0,032
-142,745	-77,143	-0,153	-0,038
-141,731	-115,337	-0,051	0,007
-140,716	718,364	-0,041	0,078
-139,702	800,000	0,062	0,137
-138,687	26,596	0,217	0,129
-137,672	-200,000	-0,015	0,090
-136,658	656,765	-0,056	-0,102
-135,643	201,468	-0,144	0,157
-134,629	-164,031	0,086	0,003
-133,614	-200,000	0,007	-0,093
-132,599	28,972	-0,004	-0,002
-131,585	549,033	0,043	-0,073
-130,570	123,744	-0,051	0,045
-129,556	-165,728	0,022	0,001
-128,541	-17,776	-0,182	-0,081
-127,526	-200,000	0,034	-0,148
-126,512	-18,231	-0,040	0,018
-125,497	160,920	-0,088	0,087
-124,483	-200,000	-0,017	0,075
-123,468	163,313	-0,042	-0,042
-122,453	762,893	0,068	0,132
-121,439	-50,654	0,090	0,030
-120,424	89,119	-0,064	0,051
-119,410	344,744	0,027	0,038
-118,395	800,000	-0,025	0,064
-117,380	100,419	0,097	0,079
-116,366	-38,266	-0,115	0,043
-115,351	196,706	0,061	-0,066
-114,337	-69,832	-0,113	0,031
-113,322	443,559	0,038	0,059
-112,307	-200,000	0,018	0,193
-111,293	-129,015	0,125	0,012
-110,278	-35,698	0,051	-0,020
-109,264	-116,016	-0,037	0,005
-108,249	44,029	-0,085	-0,055
-107,234	433,384	0,032	-0,050
-106,220	-54,583	-0,179	-0,057
-105,205	196,612	-0,015	-0,016
-104,191	65,004	0,120	-0,086
-103,176	76,165	-0,122	-0,091
-102,162	147,294	0,066	-0,063
-101,147	616,797	-0,012	-0,021
-100,132	48,682	-0,096	-0,064
-99,118	291,839	0,055	-0,071
-98,103	76,450	-0,045	0,034
-97,089	171,111	0,086	0,088
-96,074	-200,000	0,006	0,046
-95,059	-79,390	0,068	-0,016
-94,045	35,617	0,013	-0,008
-93,030	-99,428	0,084	0,015
-92,016	-200,000	0,036	-0,120
-91,001	3,532	-0,124	0,064
-89,986	70,489	0,040	-0,029
-88,972	-47,485	0,075	-0,026
-87,957	-13,997	0,131	0,060
-86,943	-200,000	-0,002	0,010
-85,928	403,613	-0,092	-0,137
-84,913	24,937	-0,098	0,058
-83,899	800,000	0,020	0,049
-82,884	270,524	0,070	-0,087
-81,870	334,646	-0,021	0,029
-80,855	-132,450	-0,106	-0,010
-79,840	73,315	-0,051	-0,038
-78,826	-9,315	-0,093	0,044
-77,811	800,000	0,042	0,083
-76,797	274,147	-0,016	-0,020
-75,782	-8,028	0,114	-0,054
-74,767	800,000	0,048	0,124
-73,753	-44,590	-0,018	0,006
-72,738	544,945	0,037	-0,063
-71,724	148,566	-0,105	-0,101
-70,709	-142,230	-0,183	0,013
-69,694	319,895	0,079	-0,106
-68,680	800,000	0,013	0,034
-67,665	82,970	0,104	0,080
-66,651	-84,445	0,110	-0,024
-65,636	-80,862	-0,058	-0,014
-64,622	6,318	-0,108	-0,057
-63,607	51,258	-0,075	0,050
-62,592	311,166	-0,053	-0,071
-61,578	800,000	0,047	0,135
-60,563	800,000	0,039	0,089
-59,549	-152,106	-0,044	0,002
-58,534	-39,448	-1,585	-0,586
-57,519	431,506	-1,362	-2,098
-56,505	-200,000	-0,603	-4,596
-55,490	153,075	0,947	0,917
-54,476	800,000	4,793	11,385
-53,461	-200,000	18,580	298,668
-52,446	800,000	732,554	2262,836
-51,432	559,365	1649,066	2830,245
-50,417	78,814	1668,829	1263,082
-49,403	22,371	1541,678	889,917
-48,388	16,311	1464,750	816,099
-47,373	17,844	1454,453	817,726
-46,359	17,026	1444,860	808,383
-45,344	14,610	1440,181	794,180
-44,330	14,467	1438,574	792,578
-43,315	14,512	1436,867	791,819
-42,300	14,548	1434,999	790,932
-41,286	14,591	1433,691	790,384
-40,271	14,483	1432,779	789,336
-39,257	14,541	1431,220	788,723
-38,242	14,547	1430,022	788,058
-37,227	14,571	1428,836	787,486
-36,213	14,579	1427,563	786,792
-35,198	14,546	1426,291	785,905
-34,184	14,578	1425,429	785,549
-33,169	14,528	1424,120	784,562
-32,154	14,530	1423,277	784,074
-31,140	14,550	1421,783	783,316
-30,125	14,670	1420,498	783,144
-29,111	14,569	1419,708	782,197
-28,096	14,559	1418,395	781,395
-27,082	14,441	1417,535	780,336
-26,067	14,476	1416,272	779,776
-25,052	14,496	1415,299	779,302
-24,038	14,467	1414,364	778,620
-23,023	14,445	1413,326	777,917
-22,009	14,472	1412,155	777,365
-20,994	14,378	1411,674	776,631
-19,979	14,422	1410,451	776,131
-18,965	14,392	1409,554	775,467
-17,950	14,341	1408,661	774,709
-16,936	14,382	1407,783	774,384
-15,921	14,398	1406,341	773,634
-14,906	14,324	1405,828	772,977
-13,892	14,385	1404,742	772,632
-12,877	14,384	1403,709	772,032
-11,863	14,373	1402,856	771,480
-10,848	14,360	1402,017	770,925
-9,833	14,318	1401,131	770,213
-8,819	14,306	1400,323	769,681
-7,804	14,245	1399,554	768,948
-6,790	14,261	1398,314	768,308
-5,775	14,283	1397,255	767,799
-4,760	14,278	1396,451	767,301
-3,746	14,250	1395,614	766,683
-2,731	14,277	1394,619	766,231
-1,717	14,230	1394,146	765,723
-0,702	14,287	1391,950	764,748
0,313	18,113	1310,290	737,609
1,327	34,574	705,864	435,469
2,342	53,011	124,199	83,973
3,356	2,941	16,538	8,471
4,371	9,031	3,147	1,676
5,386	-33,470	0,590	0,230
6,400	3,618	0,144	0,074
7,415	118,949	-0,193	-0,168
8,429	126,795	-0,314	-0,281
9,444	82,562	-0,226	-0,173
10,459	-34,440	-0,333	-0,128
11,473	-15,479	-0,329	-0,148
12,488	-62,722	-0,363	-0,106
13,502	211,198	-0,188	-0,210
14,517	18,396	-0,443	-0,250
15,531	800,000	-0,231	-0,500
16,546	93,971	-0,377	-0,302
17,561	-6,329	-0,437	-0,210
18,575	-16,112	-0,315	-0,141
19,590	800,000	-0,129	-0,277
20,604	131,269	-0,196	-0,178
21,619	195,494	-0,384	-0,413
22,634	-7,541	-0,455	-0,216
23,648	40,119	-0,467	-0,296
24,663	205,603	-0,358	-0,393
25,677	137,679	-0,316	-0,293
26,692	-12,502	-0,371	-0,171
27,707	0,083	-0,455	-0,228
28,721	28,216	-0,408	-0,242
29,736	191,192	-0,295	-0,313
30,750	77,121	-0,344	-0,257
31,765	442,935	-0,311	-0,483
32,780	446,360	-0,257	-0,400
33,794	163,916	-0,379	-0,377
34,809	4,323	-0,433	-0,223
35,823	220,300	-0,292	-0,331
36,838	55,216	-0,393	-0,268
37,853	485,736	-0,222	-0,359
38,867	121,633	-0,407	-0,358
39,882	108,080	-0,304	-0,255
40,896	254,013	-0,268	-0,324
41,911	-2,390	-0,310	-0,153
42,926	148,718	-0,403	-0,385
43,940	85,608	-0,372	-0,288
44,955	254,573	-0,287	-0,347
45,969	186,084	-0,358	-0,376
46,984	227,058	-0,172	-0,197
47,999	106,715	-0,268	-0,224
49,013	110,724	-0,307	-0,260
50,028	189,601	-0,308	-0,326
51,042	127,674	-0,308	-0,276
52,057	-19,889	-0,332	-0,144
53,071	78,116	-0,338	-0,254
54,086	307,473	-0,299	-0,393
55,101	106,532	-0,311	-0,260
56,115	68,590	-0,270	-0,195
57,130	24,806	-0,432	-0,251
58,144	272,210	-0,284	-0,354
59,159	71,329	-0,425	-0,310
60,174	8,917	-0,411	-0,217
61,188	78,380	-0,354	-0,266
62,203	-64,084	-0,362	-0,103
63,217	141,730	-0,294	-0,274
64,232	-0,533	-0,361	-0,180
65,247	280,641	-0,243	-0,307
66,261	133,885	-0,255	-0,232
67,276	123,184	-0,336	-0,296
68,290	55,516	-0,295	-0,201
69,305	5,043	-0,300	-0,155
70,320	82,456	-0,271	-0,207
71,334	179,639	-0,273	-0,282
72,349	-4,740	-0,353	-0,171
73,363	108,141	-0,350	-0,294
74,378	173,601	-0,320	-0,325
75,393	15,728	-0,277	-0,153
76,407	92,311	-0,257	-0,204
77,422	84,861	-0,299	-0,230
78,436	61,052	-0,266	-0,185
79,451	0,254	-0,361	-0,180
80,466	-59,688	-0,422	-0,126
81,480	152,219	-0,338	-0,324
82,495	66,640	-0,305	-0,218
83,509	251,098	-0,189	-0,227
84,524	-41,282	-0,261	-0,094
85,539	-0,911	-0,298	-0,148
86,553	52,147	-0,217	-0,145
87,568	289,216	-0,208	-0,266
88,582	36,748	-0,386	-0,239
89,597	283,502	-0,220	-0,278
90,611	-60,263	-0,293	-0,087
91,626	135,299	-0,186	-0,169
92,641	105,856	-0,293	-0,243
93,655	-27,851	-0,369	-0,149
94,670	268,570	-0,255	-0,314
95,684	26,840	-0,267	-0,157
96,699	91,199	-0,317	-0,249
97,714	-26,992	-0,219	-0,089
98,728	25,191	-0,249	-0,145
99,743	481,552	-0,186	-0,297
100,757	155,583	-0,232	-0,225
101,772	58,513	-0,187	-0,128
102,787	28,791	-0,367	-0,217
103,801	-99,046	-0,375	-0,066
104,816	35,410	-0,285	-0,175
105,830	190,832	-0,196	-0,207
106,845	321,120	-0,247	-0,330
107,860	143,116	-0,174	-0,162
108,874	421,951	-0,143	-0,217
109,889	82,530	-0,427	-0,325
110,903	25,962	-0,390	-0,227
111,918	56,982	-0,328	-0,224
112,933	160,927	-0,219	-0,215
113,947	111,724	-0,238	-0,201
114,962	117,212	-0,185	-0,159
115,976	-17,454	-0,276	-0,121
116,991	32,149	-0,216	-0,130
118,006	-59,514	-0,439	-0,131
119,020	167,160	-0,223	-0,221
120,035	26,182	-0,233	-0,136
121,049	23,703	-0,240	-0,138
122,064	70,328	-0,264	-0,191
123,079	-32,916	-0,337	-0,130
124,093	99,819	-0,271	-0,219
125,108	69,637	-0,331	-0,238
126,122	38,755	-0,164	-0,102
127,137	92,533	-0,235	-0,185
128,151	125,169	-0,165	-0,145
129,166	128,538	-0,272	-0,243
130,181	-127,372	-0,330	0,033
131,195	-19,419	-0,292	-0,126
132,210	146,224	-0,187	-0,176
133,224	226,651	-0,172	-0,196
134,239	309,302	-0,179	-0,235
135,254	57,841	-0,184	-0,126
136,268	523,939	-0,170	-0,281
137,283	-55,117	-0,275	-0,086
138,297	-42,081	-0,151	-0,054
139,312	57,269	-0,238	-0,162
140,327	191,001	-0,283	-0,298
141,341	-71,629	-0,268	-0,069
142,356	-48,199	-0,257	-0,086
143,370	49,581	-0,276	-0,181
144,385	106,608	-0,342	-0,284
145,400	63,417	-0,209	-0,146
146,414	302,322	-0,272	-0,352
147,429	97,228	-0,190	-0,152
148,443	99,283	-0,187	-0,151
149,458	-60,630	-0,152	-0,045
150,473	-47,311	-0,276	-0,093
151,487	78,086	-0,176	-0,131
152,502	-13,605	-0,272	-0,123
153,516	208,763	-0,240	-0,262
154,531	55,324	-0,325	-0,219
155,546	-2,656	-0,315	-0,153
156,560	262,258	-0,156	-0,189
157,575	35,829	-0,194	-0,119
158,589	208,801	-0,075	-0,081
159,604	206,481	-0,197	-0,214
160,619	98,446	-0,265	-0,213
161,633	-200,000	-0,108	-0,406
162,648	759,807	-0,121	-0,231
163,662	262,896	-0,148	-0,180
164,677	143,623	-0,158	-0,147
165,692	300,903	-0,150	-0,194
166,706	172,009	-0,232	-0,233
167,721	176,915	-0,194	-0,197
168,735	163,972	-0,205	-0,201
169,750	105,979	-0,092	-0,076
170,764	71,882	-0,198	-0,144
171,779	7,271	-0,218	-0,113
172,794	95,977	-0,251	-0,200
173,808	108,954	-0,201	-0,167
174,823	289,492	-0,229	-0,290
175,837	549,406	-0,210	-0,352
176,852	476,021	-0,218	-0,345
177,867	35,071	-0,258	-0,157
178,881	29,079	-0,163	-0,096
179,896	190,912	-0,095	-0,100
180,910	68,663	-0,142	-0,101
181,925	238,164	-0,108	-0,126
182,940	72,144	-0,206	-0,149
183,954	68,064	-0,213	-0,152
184,969	-134,354	-0,266	-0,022
185,983	213,304	-0,177	-0,195
186,998	148,496	-0,214	-0,202
188,013	178,476	-0,193	-0,197
189,027	5,911	-0,258	-0,132
190,042	11,010	-0,178	-0,094
191,056	113,007	-0,250	-0,211
192,071	240,420	-0,206	-0,239
193,086	800,000	-0,032	-0,070
194,100	97,383	-0,127	-0,102
195,115	-96,714	-0,265	-0,048
196,129	-2,048	-0,325	-0,158
197,144	-12,269	-0,345	-0,156
198,159	800,000	-0,104	-0,214
199,173	125,313	-0,179	-0,157
200,188	-15,959	-0,214	-0,095
201,202	26,358	-0,186	-0,108
202,217	-95,524	-0,270	-0,050
203,232	334,409	-0,205	-0,277
204,246	-77,437	-0,205	-0,049
205,261	202,553	-0,188	-0,202
206,275	-82,567	-0,305	-0,068
207,290	-52,041	-0,161	-0,052
208,304	-54,664	-0,136	-0,043
209,319	274,038	-0,143	-0,176
210,334	39,680	-0,303	-0,189
211,348	49,328	-0,186	-0,121
212,363	176,270	-0,343	-0,346
213,377	-31,899	-0,282	-0,109
214,392	243,852	-0,150	-0,175
215,407	340,474	-0,102	-0,139
216,421	153,825	-0,183	-0,175
217,436	-63,638	-0,200	-0,057
218,450	-66,246	-0,330	-0,091
219,465	800,000	-0,104	-0,208
220,480	6,438	-0,220	-0,113
221,494	68,676	-0,321	-0,228
222,509	16,213	-0,159	-0,087
223,523	771,887	-0,138	-0,262
224,538	465,171	-0,205	-0,319
225,553	-134,891	-0,330	-0,027
226,567	145,090	-0,156	-0,145
227,582	209,280	-0,111	-0,121
228,596	49,069	-0,287	-0,187
229,611	-7,989	-0,192	-0,090
230,626	288,215	-0,079	-0,099
231,640	4,491	-0,222	-0,112
232,655	800,000	-0,110	-0,238
233,669	512,996	-0,109	-0,177
234,684	354,163	-0,147	-0,203
235,699	699,253	-0,111	-0,202
236,713	154,148	-0,101	-0,096
237,728	372,320	-0,114	-0,161
238,742	110,258	-0,212	-0,177
239,757	432,088	-0,223	-0,336
240,772	370,735	-0,229	-0,322
241,786	-31,564	-0,215	-0,083
242,801	-100,890	-0,269	-0,045
243,815	40,970	-0,168	-0,105
244,830	72,666	-0,126	-0,091
245,844	-200,000	-0,045	-0,153
246,859	-115,382	-0,135	-0,017
247,874	551,241	-0,151	-0,252
248,888	49,573	-0,317	-0,206
249,903	800,000	-0,059	-0,120
250,917	-145,348	-0,207	0,013
251,932	260,390	-0,039	-0,047
252,947	-117,660	-0,114	-0,014
253,961	24,098	-0,184	-0,105
254,976	63,262	-0,189	-0,131
255,990	-47,780	-0,317	-0,106
257,005	-43,471	-0,203	-0,071
258,020	189,071	-0,100	-0,104
259,034	630,013	-0,121	-0,213
260,049	67,385	-0,148	-0,104
261,063	526,181	-0,141	-0,230
262,078	-60,499	-0,196	-0,057
263,093	-56,654	-0,156	-0,047
264,107	-173,097	-0,243	-0,005
265,122	-79,911	-0,182	0,042
266,136	2,503	-0,343	-0,171
267,151	224,493	-0,070	-0,078
268,166	107,801	-0,105	-0,087
269,180	18,611	-0,080	-0,044
270,195	410,739	-0,090	-0,133
271,209	-45,893	-0,126	-0,043
272,224	-16,989	-0,202	-0,088
273,239	114,592	-0,236	-0,199
274,253	42,559	-0,157	-0,098
275,268	-70,098	-0,179	-0,047
276,282	67,254	-0,256	-0,180
277,297	97,249	-0,211	-0,168
278,312	-46,462	-0,298	-0,101
279,326	8,974	-0,159	-0,083
280,341	223,292	-0,127	-0,142
281,355	-97,321	-0,181	0,032
282,370	-58,861	-0,204	-0,061
283,384	777,731	-0,085	-0,161
284,399	-113,404	-0,272	-0,036
285,414	339,449	-0,141	-0,190
286,428	-128,950	-0,090	0,009
287,443	204,875	-0,120	-0,129
288,457	209,729	-0,069	-0,075
289,472	-99,627	-0,183	-0,031
290,487	-145,755	-0,201	-0,012
291,501	-98,991	-0,299	-0,052
292,516	-13,027	-0,263	-0,118
293,530	-6,473	-0,126	0,059
294,545	108,148	-0,236	-0,194
295,560	446,400	-0,013	0,020
296,574	-200,000	-0,004	-0,018
297,589	153,804	-0,147	-0,139
298,603	84,366	-0,181	-0,136
299,618	40,471	-0,302	-0,187
300,633	158,875	-0,057	-0,055
301,647	-13,403	-0,143	-0,064
302,662	192,374	-0,149	-0,155
303,676	800,000	-0,093	-0,218
304,691	-10,247	-0,163	-0,074
305,706	266,270	-0,138	-0,167
306,720	12,215	-0,201	-0,107
307,735	-119,349	-0,226	-0,027
308,749	211,348	-0,177	-0,192
309,764	-143,311	-0,097	-0,006
310,779	21,846	-0,088	-0,049
311,793	62,250	-0,186	-0,128
312,808	222,523	-0,183	-0,203
313,822	800,000	-0,096	-0,188
314,837	-133,992	-0,103	0,009
315,852	-32,473	-0,158	-0,060
316,866	757,734	-0,062	-0,115
317,881	-200,000	0,039	-0,123
318,895	-81,970	-0,176	-0,039
319,910	63,272	-0,200	-0,138
320,925	441,135	-0,116	-0,175
321,939	800,000	-0,051	-0,151
322,954	-61,042	-0,212	-0,061
323,968	38,826	-0,146	-0,089
324,983	39,923	-0,133	-0,082
325,997	-93,535	-0,186	-0,035
327,012	-193,984	-0,141	0,001
328,027	-76,371	-0,198	-0,048
329,041	498,117	-0,054	-0,085
330,056	655,691	-0,069	-0,123
331,070	396,300	-0,093	-0,133
332,085	154,075	-0,066	0,063
333,100	120,318	-0,153	-0,131
334,114	800,000	-0,063	-0,188
335,129	-60,883	-0,161	-0,047
336,143	65,572	-0,210	-0,146
337,158	64,482	-0,143	-0,099
338,173	-101,934	-0,029	0,005
339,187	-162,317	-0,160	-0,005
340,202	-112,359	-0,127	-0,017
341,216	272,651	-0,113	-0,138
342,231	56,852	-0,136	-0,091
343,246	800,000	-0,063	-0,123
344,260	250,380	-0,097	-0,114
345,275	-33,651	-0,073	-0,028
346,289	800,000	0,010	-0,020
347,304	800,000	-0,045	0,087
348,319	69,213	-0,107	-0,075
349,333	800,000	-0,112	-0,239
350,348	-96,755	-0,173	-0,031
351,362	-163,415	-0,122	0,004
352,377	-73,791	-0,049	-0,012
353,392	-130,144	-0,130	-0,012
354,406	-143,507	-0,118	0,008
355,421	207,648	1316,871	1412,082
356,435	159,740	1477,868	1412,573
