DTS Sentinel unit serial number:	SN410029Multiplexer serial number:	ORYXHardware model number:	OX2-SRSoftware version number:	ORYX F/W v4,00 Oryx Data Collector v3.7.2.0data status	okinstallation	B3 Nyhavnadifferential loss correction	single-endedforward channel	channel 1reverse channel	N/Adate	2023/11/30time	16:12:30forward acquisition time	300,00reverse acquisition time	0,00gamma	499,1914k internal	0,3205k external	0,3205temperature offset calibration	1,0000default loss term (dB/km)	0,3820temperature slope calibration	1,0000multiplexer offset coefficient	1,0000multiplexer slope coefficient	1,0000fibre end	0,00T internal ref (°C)	12,76T ext. ref 1 (°C)	-1,71T ext. ref 2 (°C)	-1,75length (m)	temperature (°C)	Stokes	anti-Stokes-744,400	-200,000	-0,039	-0,177
-743,385	-200,000	-0,009	0,227
-742,371	15,700	-0,223	-0,127
-741,356	-200,000	0,008	0,318
-740,342	-200,000	0,015	-0,081
-739,327	-200,000	-0,052	0,281
-738,312	144,476	-0,159	-0,154
-737,298	-200,000	-0,005	0,211
-736,283	305,260	-0,188	-0,254
-735,269	-200,000	0,010	0,424
-734,254	98,581	-0,220	-0,184
-733,239	38,043	-0,255	0,165
-732,225	527,400	-0,156	-0,269
-731,210	-11,922	0,124	0,059
-730,196	502,423	0,022	0,037
-729,181	408,048	-0,020	0,031
-728,167	40,129	-0,076	0,049
-727,152	371,994	-0,046	-0,068
-726,137	-72,290	-0,055	0,015
-725,123	588,900	0,046	-0,083
-724,108	107,951	-0,019	0,016
-723,094	-200,000	-0,111	0,000
-722,079	-109,680	0,037	0,006
-721,064	-200,000	-0,007	0,026
-720,050	800,000	0,006	-0,018
-719,035	-33,977	0,100	-0,040
-718,021	800,000	-0,012	0,035
-717,006	-103,256	-0,162	-0,027
-715,991	-102,361	-0,119	0,021
-714,977	-16,082	-0,052	0,024
-713,962	800,000	-0,065	-0,140
-712,948	-200,000	0,016	0,189
-711,933	-200,000	0,021	0,073
-710,918	489,713	0,029	-0,049
-709,904	-200,000	0,032	-0,274
-708,889	157,345	0,135	-0,136
-707,875	-200,000	-0,024	-0,114
-706,860	-200,000	-0,038	-0,130
-705,845	-200,000	0,015	0,083
-704,831	-200,000	0,021	0,106
-703,816	-50,163	-0,177	-0,061
-702,802	360,296	0,071	-0,104
-701,787	219,171	-0,089	0,103
-700,772	177,941	-0,069	-0,073
-699,758	-146,575	-0,015	-0,001
-698,743	96,061	0,182	0,150
-697,729	-200,000	-0,016	0,064
-696,714	800,000	-0,037	0,079
-695,699	-200,000	0,006	-0,033
-694,685	800,000	-0,034	0,077
-693,670	-9,021	-0,113	0,055
-692,656	-200,000	0,009	0,038
-691,641	800,000	0,021	-0,059
-690,627	341,328	0,087	0,124
-689,612	27,498	-0,037	-0,022
-688,597	476,162	0,057	-0,094
-687,583	-200,000	0,035	-0,124
-686,568	800,000	0,026	-0,071
-685,554	-200,000	0,012	-0,081
-684,539	501,647	-0,058	-0,098
-683,524	-102,174	0,072	-0,012
-682,510	-61,677	0,119	0,036
-681,495	57,096	-0,049	0,034
-680,481	800,000	-0,031	-0,088
-679,466	-81,015	-0,126	-0,030
-678,451	-200,000	-0,002	-0,182
-677,437	-200,000	0,018	-0,078
-676,422	100,318	0,114	0,096
-675,408	-199,517	0,042	0,000
-674,393	800,000	-0,055	-0,114
-673,378	14,339	0,125	-0,070
-672,364	-37,685	-0,088	0,034
-671,349	20,159	-0,071	-0,042
-670,335	-56,791	0,043	0,014
-669,320	417,467	-0,047	-0,073
-668,305	130,650	0,084	-0,078
-667,291	800,000	0,028	-0,068
-666,276	130,576	0,048	-0,044
-665,262	247,924	0,037	0,045
-664,247	-44,419	0,090	0,032
-663,232	800,000	-0,051	-0,107
-662,218	800,000	-0,060	0,127
-661,203	-156,353	-0,052	0,002
-660,189	-149,728	0,076	-0,004
-659,174	-200,000	-0,007	-0,030
-658,159	-59,002	-0,067	-0,021
-657,145	338,358	0,061	-0,087
-656,130	800,000	0,045	0,118
-655,116	70,630	0,129	-0,097
-654,101	-28,713	0,052	-0,021
-653,086	134,216	-0,087	-0,082
-652,072	238,813	-0,065	-0,078
-651,057	-10,401	-0,118	-0,056
-650,043	-15,133	-0,112	-0,052
-649,028	-164,950	-0,118	-0,004
-648,014	-114,781	0,118	0,016
-646,999	478,929	-0,044	-0,073
-645,984	113,642	0,045	0,040
-644,970	-109,422	0,045	-0,007
-643,955	-59,280	-0,089	0,028
-642,941	800,000	-0,021	0,054
-641,926	-159,632	0,078	0,003
-640,911	-71,645	0,058	0,015
-639,897	-81,768	0,082	0,019
-638,882	-200,000	0,002	0,016
-637,868	394,129	0,052	-0,078
-636,853	-200,000	0,009	-0,046
-635,838	-200,000	-0,018	-0,063
-634,824	-200,000	-0,014	0,143
-633,809	137,380	-0,104	0,099
-632,795	800,000	-0,026	-0,082
-631,780	-86,475	-0,106	0,023
-630,765	-200,000	-0,003	-0,138
-629,751	102,352	-0,058	-0,049
-628,736	145,381	0,073	0,071
-627,722	800,000	-0,045	-0,094
-626,707	139,759	0,125	0,119
-625,692	52,670	0,054	-0,037
-624,678	529,083	-0,035	0,059
-623,663	363,618	0,085	0,123
-622,649	-200,000	0,004	-0,033
-621,634	-200,000	0,017	-0,092
-620,619	386,912	0,032	-0,048
-619,605	-98,054	0,021	0,004
-618,590	27,239	0,045	0,027
-617,576	87,926	-0,080	0,064
-616,561	-200,000	0,012	0,076
-615,546	113,964	0,076	-0,067
-614,532	-97,397	-0,213	-0,040
-613,517	-123,664	-0,025	0,003
-612,503	10,305	0,164	0,090
-611,488	250,220	0,053	0,066
-610,474	-51,104	-0,122	0,041
-609,459	-85,185	-0,007	-0,001
-608,444	513,657	-0,043	-0,072
-607,430	2,037	-0,082	-0,043
-606,415	-200,000	0,010	-0,108
-605,401	-64,222	0,033	-0,010
-604,386	-200,000	0,001	0,044
-603,371	-63,883	0,079	0,023
-602,357	72,233	0,074	0,055
-601,342	113,515	-0,046	-0,040
-600,328	-176,575	0,063	-0,001
-599,313	800,000	-0,034	-0,071
-598,298	114,040	0,024	0,021
-597,284	226,219	-0,060	0,070
-596,269	-49,412	-0,091	0,031
-595,255	7,015	0,088	0,047
-594,240	18,554	0,038	0,022
-593,225	50,202	-0,107	0,073
-592,211	79,420	-0,129	-0,100
-591,196	107,232	-0,092	-0,079
-590,182	-80,729	-0,102	-0,024
-589,167	-51,122	0,156	0,053
-588,152	-45,747	-0,073	0,026
-587,138	-15,411	-0,082	-0,038
-586,123	800,000	-0,010	-0,030
-585,109	2,299	-0,042	0,022
-584,094	150,071	-0,074	0,072
-583,079	-200,000	0,042	0,000
-582,065	-48,183	0,079	-0,027
-581,050	-200,000	0,002	0,059
-580,036	-200,000	-0,002	0,039
-579,021	319,685	-0,057	0,078
-578,006	45,926	-0,086	0,057
-576,992	8,676	0,065	0,035
-575,977	-53,434	0,045	-0,015
-574,963	67,287	0,069	0,051
-573,948	-34,232	0,097	-0,038
-572,934	-200,000	-0,017	-0,074
-571,919	464,239	-0,067	-0,108
-570,904	1,634	-0,132	0,069
-569,890	-12,287	0,023	-0,011
-568,875	-200,000	0,045	0,166
-567,861	-31,345	0,071	0,029
-566,846	-47,793	-0,111	0,039
-565,831	-200,000	0,011	0,101
-564,817	283,874	-0,059	-0,076
-563,802	139,253	-0,118	-0,112
-562,788	-138,865	0,101	0,008
-561,773	-27,444	0,055	-0,023
-560,758	-74,220	0,113	0,029
-559,744	800,000	-0,015	-0,037
-558,729	-200,000	0,019	0,125
-557,715	-196,421	-0,058	-0,000
-556,700	-60,888	0,036	0,011
-555,685	-200,000	0,000	0,068
-554,671	164,718	0,045	-0,046
-553,656	668,677	-0,025	0,047
-552,642	800,000	0,050	0,134
-551,627	800,000	-0,042	0,087
-550,612	-200,000	0,022	-0,094
-549,598	195,797	-0,149	-0,164
-548,583	32,211	0,027	0,017
-547,569	-200,000	-0,011	0,078
-546,554	361,825	0,034	-0,050
-545,539	3,992	0,058	0,030
-544,525	-200,000	0,014	0,109
-543,510	-65,973	-0,099	0,028
-542,496	-200,000	0,010	-0,040
-541,481	-200,000	-0,006	-0,024
-540,466	109,338	-0,056	-0,048
-539,452	110,160	-0,125	0,109
-538,437	556,999	0,060	-0,105
-537,423	-200,000	0,010	-0,153
-536,408	-200,000	-0,021	-0,140
-535,393	187,429	-0,148	-0,159
-534,379	261,310	-0,126	-0,157
-533,364	-81,106	0,166	-0,039
-532,350	-200,000	0,009	0,065
-531,335	-200,000	-0,009	0,084
-530,321	-200,000	0,023	0,079
-529,306	87,756	0,054	-0,043
-528,291	34,627	-0,016	-0,010
-527,277	28,243	0,040	-0,024
-526,262	-127,560	-0,044	-0,004
-525,248	381,491	0,030	0,045
-524,233	103,077	0,018	-0,015
-523,218	-106,262	0,194	0,031
-522,204	-42,486	0,096	-0,035
-521,189	800,000	-0,040	-0,103
-520,175	-200,000	-0,010	-0,129
-519,160	581,756	0,034	-0,061
-518,145	-15,054	-0,163	0,075
-517,131	641,638	0,030	-0,055
-516,116	-200,000	-0,037	-0,130
-515,102	-73,607	0,014	-0,004
-514,087	800,000	-0,029	-0,069
-513,072	275,031	0,062	0,079
-512,058	100,860	-0,097	0,081
-511,043	-48,194	-0,101	0,035
-510,029	22,143	-0,050	-0,030
-509,014	83,018	0,059	0,046
-507,999	69,961	-0,086	0,064
-506,985	330,886	0,041	0,057
-505,970	-200,000	0,004	-0,130
-504,956	-200,000	0,000	-0,039
-503,941	60,452	-0,116	-0,082
-502,926	-200,000	0,010	0,091
-501,912	218,668	0,016	0,018
-500,897	45,538	-0,030	-0,020
-499,883	180,131	0,072	-0,076
-498,868	-200,000	-0,005	-0,099
-497,853	48,228	0,066	-0,045
-496,839	521,831	-0,067	0,114
-495,824	425,103	0,044	0,068
-494,810	-200,000	0,002	-0,098
-493,795	56,800	0,026	0,018
-492,781	-33,190	-0,094	-0,037
-491,766	36,895	0,051	-0,032
-490,751	-67,943	-0,086	-0,024
-489,737	216,719	-0,049	-0,056
-488,722	800,000	-0,064	0,189
-487,708	800,000	0,075	0,174
-486,693	-98,987	0,019	-0,003
-485,678	-41,322	0,153	0,056
-484,664	-48,270	0,119	-0,041
-483,649	-46,103	-0,112	-0,040
-482,635	310,140	-0,068	-0,092
-481,620	-146,028	0,070	0,004
-480,605	-31,215	-0,038	0,015
-479,591	49,875	-0,100	0,068
-478,576	161,142	0,016	-0,016
-477,562	-200,000	-0,033	-0,152
-476,547	-200,000	-0,006	-0,097
-475,532	-200,000	0,002	-0,038
-474,518	-97,245	-0,046	-0,009
-473,503	9,617	0,100	0,054
-472,489	150,862	0,049	-0,048
-471,474	-59,454	-0,062	0,019
-470,459	800,000	-0,050	-0,121
-469,445	-200,000	0,015	0,085
-468,430	222,523	0,060	0,069
-467,416	79,407	-0,146	-0,112
-466,401	-44,214	0,073	-0,026
-465,386	800,000	-0,079	-0,194
-464,372	-54,181	-0,105	-0,034
-463,357	-200,000	-0,138	0,000
-462,343	-123,197	0,120	-0,014
-461,328	-44,498	-0,075	-0,027
-460,313	-126,441	-0,080	-0,008
-459,299	40,753	0,176	0,114
-458,284	-82,240	0,058	-0,013
-457,270	-200,000	0,001	0,067
-456,255	800,000	-0,048	-0,120
-455,241	-200,000	0,009	-0,047
-454,226	22,141	0,091	0,053
-453,211	-200,000	-0,014	0,143
-452,197	114,826	0,026	-0,023
-451,182	510,742	0,036	-0,060
-450,168	59,298	-0,061	0,043
-449,153	-200,000	0,007	-0,050
-448,138	-15,216	0,052	-0,024
-447,124	-200,000	0,056	0,000
-446,109	747,745	-0,021	-0,041
-445,095	-200,000	0,002	-0,043
-444,080	15,173	0,086	0,048
-443,065	-200,000	0,011	-0,069
-442,051	-168,318	0,186	-0,005
-441,036	35,344	-0,163	-0,103
-440,022	800,000	0,044	-0,135
-439,007	-200,000	0,001	-0,093
-437,992	-200,000	-0,019	0,091
-436,978	-135,867	0,143	-0,012
-435,963	130,059	-0,026	-0,024
-434,949	800,000	0,046	0,096
-433,934	508,446	-0,049	-0,082
-432,919	25,484	0,105	-0,063
-431,905	-7,175	-0,109	0,053
-430,890	800,000	0,025	0,053
-429,876	800,000	-0,041	0,109
-428,861	106,054	-0,055	-0,046
-427,846	-129,400	0,086	0,008
-426,832	-66,861	-0,124	-0,035
-425,817	-21,892	0,037	-0,016
-424,803	800,000	0,060	-0,138
-423,788	404,503	0,073	-0,111
-422,773	223,868	0,056	0,064
-421,759	800,000	0,030	0,067
-420,744	800,000	0,035	0,078
-419,730	458,799	0,064	0,102
-418,715	-3,187	-0,085	-0,042
-417,701	-53,409	-0,136	-0,044
-416,686	89,578	0,138	0,110
-415,671	-142,412	0,040	-0,003
-414,657	-200,000	0,004	0,091
-413,642	39,736	0,049	0,031
-412,628	-71,801	-0,093	0,025
-411,613	-150,235	-0,223	-0,012
-410,598	800,000	-0,035	-0,096
-409,584	-70,363	0,070	0,019
-408,569	800,000	-0,034	-0,097
-407,555	-200,000	0,009	0,106
-406,540	113,090	-0,043	0,037
-405,525	542,946	0,019	-0,033
-404,511	57,306	-0,115	0,080
-403,496	318,219	-0,079	-0,107
-402,482	-13,161	-0,070	-0,032
-401,467	79,195	-0,036	0,027
-400,452	281,334	0,022	0,029
-399,438	209,490	-0,057	0,064
-398,423	-200,000	0,028	-0,127
-397,409	-51,913	-0,174	-0,058
-396,394	391,213	0,099	-0,148
-395,379	43,325	-0,029	-0,019
-394,365	-44,417	0,108	0,038
-393,350	14,545	0,136	0,076
-392,336	-200,000	-0,028	0,110
-391,321	-48,886	-0,128	0,044
-390,306	800,000	0,048	-0,138
-389,292	538,529	-0,086	-0,147
-388,277	150,286	0,019	0,018
-387,263	-17,141	-0,105	0,047
-386,248	-200,000	0,004	-0,121
-385,233	-12,859	0,024	0,011
-384,219	-200,000	-0,028	0,113
-383,204	-200,000	-0,016	-0,106
-382,190	-8,662	0,083	0,040
-381,175	800,000	0,048	-0,103
-380,160	88,780	-0,037	0,030
-379,146	714,998	0,016	-0,031
-378,131	231,748	0,092	-0,108
-377,117	732,954	-0,014	0,028
-376,102	-76,632	0,093	-0,023
-375,088	99,540	-0,070	-0,058
-374,073	126,774	0,090	-0,082
-373,058	-85,734	0,052	-0,012
-372,044	8,474	0,064	0,034
-371,029	-200,000	-0,003	0,196
-370,015	-200,000	-0,028	0,122
-369,000	800,000	-0,067	-0,136
-367,985	800,000	-0,054	-0,113
-366,971	-200,000	0,009	0,029
-365,956	-55,755	0,141	0,045
-364,942	183,431	0,102	0,108
-363,927	383,776	0,076	-0,112
-362,912	-79,388	0,071	-0,017
-361,898	319,216	-0,063	-0,086
-360,883	-188,183	-0,031	-0,000
-359,869	-200,000	-0,012	0,102
-358,854	-12,000	0,136	0,064
-357,839	-200,000	0,033	0,119
-356,825	74,923	0,120	0,090
-355,810	370,865	0,012	-0,017
-354,796	-112,268	-0,067	-0,010
-353,781	194,294	0,062	0,067
-352,766	-200,000	-0,010	0,039
-351,752	800,000	-0,023	-0,050
-350,737	-200,000	-0,009	0,071
-349,723	-200,000	0,020	-0,091
-348,708	-12,246	0,022	0,010
-347,693	-200,000	0,000	-0,020
-346,679	-130,021	-0,037	0,004
-345,664	29,508	-0,147	0,089
-344,650	-69,780	0,077	-0,021
-343,635	-200,000	-0,051	0,179
-342,620	800,000	-0,048	0,112
-341,606	-200,000	0,024	0,121
-340,591	-200,000	0,055	0,188
-339,577	399,425	-0,030	-0,046
-338,562	309,801	-0,043	-0,057
-337,548	54,578	0,105	-0,072
-336,533	800,000	0,020	0,062
-335,518	-200,000	-0,001	0,128
-334,504	-110,509	0,038	0,006
-333,489	468,406	-0,019	0,030
-332,475	53,546	0,016	0,011
-331,460	-105,306	-0,155	0,025
-330,445	-61,518	0,080	-0,024
-329,431	167,055	-0,067	0,068
-328,416	457,535	-0,034	-0,054
-327,402	514,958	0,003	0,004
-326,387	-73,546	-0,207	-0,054
-325,372	-200,000	0,013	0,089
-324,358	-200,000	-0,036	-0,115
-323,343	71,211	-0,059	0,044
-322,329	-137,631	0,108	0,009
-321,314	784,065	-0,048	0,094
-320,299	-103,009	0,112	0,019
-319,285	-85,502	0,073	0,016
-318,270	-185,489	-0,220	-0,002
-317,256	31,298	-0,029	0,018
-316,241	-93,817	0,166	-0,032
-315,226	-57,476	-0,055	-0,017
-314,212	-64,088	-0,022	-0,006
-313,197	138,368	0,044	-0,041
-312,183	34,410	0,024	-0,015
-311,168	-200,000	-0,011	0,075
-310,153	-200,000	0,027	-0,158
-309,139	31,805	-0,086	0,053
-308,124	-200,000	-0,010	0,071
-307,110	335,958	-0,020	-0,028
-306,095	-200,000	0,007	0,078
-305,080	95,672	-0,035	0,028
-304,066	-200,000	0,002	0,135
-303,051	352,457	-0,079	-0,112
-302,037	207,952	-0,083	-0,093
-301,022	800,000	0,033	-0,090
-300,008	-132,964	0,066	0,006
-298,993	-200,000	0,008	-0,059
-297,978	-200,000	0,022	0,101
-296,964	800,000	0,057	-0,179
-295,949	-120,318	-0,076	0,009
-294,935	746,635	0,033	0,063
-293,920	-92,345	0,076	0,015
-292,905	-200,000	-0,002	0,103
-291,891	-165,273	0,040	0,001
-290,876	800,000	-0,027	0,075
-289,862	473,854	0,068	-0,109
-288,847	-156,094	-0,093	0,004
-287,832	-89,505	-0,063	0,013
-286,818	-150,164	-0,053	-0,003
-285,803	-200,000	0,020	0,149
-284,789	-200,000	0,063	0,231
-283,774	204,387	-0,106	0,117
-282,759	-200,000	0,011	-0,130
-281,745	-8,549	-0,084	-0,040
-280,730	800,000	-0,039	-0,102
-279,716	525,848	-0,023	-0,039
-278,701	-37,187	-0,012	0,004
-277,686	-97,912	0,148	-0,027
-276,672	-23,581	0,024	0,010
-275,657	-4,566	-0,125	-0,061
-274,643	-200,000	0,002	-0,017
-273,628	-200,000	-0,003	-0,074
-272,613	215,476	-0,064	-0,072
-271,599	-200,000	0,046	0,159
-270,584	536,960	-0,061	-0,104
-269,570	-75,383	0,132	0,033
-268,555	693,148	0,053	0,099
-267,540	800,000	0,052	-0,135
-266,526	-200,000	-0,031	-0,101
-265,511	-124,557	-0,038	0,004
-264,497	229,772	0,065	0,076
-263,482	-200,000	0,027	-0,104
-262,467	64,561	0,053	0,038
-261,453	-71,326	-0,023	-0,006
-260,438	32,933	0,112	-0,069
-259,424	-77,786	0,063	0,015
-258,409	95,050	-0,054	-0,044
-257,395	414,695	-0,045	0,069
-256,380	-67,844	0,067	0,019
-255,365	-200,000	0,003	0,129
-254,351	-103,548	0,085	-0,014
-253,336	187,923	0,029	0,031
-252,322	290,442	-0,031	0,040
-251,307	-200,000	-0,016	-0,081
-250,292	-3,885	0,055	0,027
-249,278	75,557	-0,059	-0,045
-248,263	27,591	-0,023	0,014
-247,249	75,079	0,028	-0,021
-246,234	419,544	0,031	-0,047
-245,219	-104,444	-0,080	0,013
-244,205	-200,000	0,007	-0,041
-243,190	-127,801	0,127	0,013
-242,176	-200,000	0,001	0,056
-241,161	397,198	-0,024	0,035
-240,146	207,029	0,097	0,108
-239,132	-11,694	-0,083	-0,039
-238,117	-51,834	-0,143	-0,047
-237,103	280,697	-0,058	0,074
-236,088	70,748	0,033	-0,024
-235,073	-200,000	0,013	0,079
-234,059	541,988	0,048	0,081
-233,044	-176,185	0,133	0,002
-232,030	402,002	0,075	-0,112
-231,015	112,294	0,065	-0,056
-230,000	-153,027	-0,110	0,005
-228,986	-111,242	0,098	0,014
-227,971	478,424	-0,050	0,080
-226,957	778,104	-0,033	-0,065
-225,942	-200,000	0,004	0,056
-224,927	-28,912	-0,059	-0,024
-223,913	148,634	-0,038	-0,036
-222,898	-200,000	-0,023	-0,137
-221,884	51,616	-0,069	0,047
-220,869	-75,329	-0,098	-0,025
-219,855	-200,000	0,005	-0,022
-218,840	800,000	-0,014	0,031
-217,825	-10,961	-0,121	-0,057
-216,811	-17,407	0,153	-0,068
-215,796	-67,706	-0,182	0,050
-214,782	61,371	0,011	-0,008
-213,767	167,230	0,070	0,071
-212,752	-120,767	0,137	-0,016
-211,738	-200,000	0,040	0,193
-210,723	230,370	0,053	0,062
-209,709	617,673	-0,026	-0,046
-208,694	-200,000	-0,022	0,105
-207,679	141,832	-0,054	-0,051
-206,665	800,000	-0,022	-0,050
-205,650	13,722	-0,141	0,078
-204,636	-32,497	0,113	-0,045
-203,621	-200,000	0,035	-0,136
-202,606	-95,343	-0,095	-0,018
-201,592	76,384	0,041	0,030
-200,577	328,797	0,043	0,058
-199,563	-200,000	0,007	-0,060
-198,548	110,636	0,153	0,131
-197,533	130,613	0,014	0,013
-196,519	82,046	-0,083	0,064
-195,504	27,541	-0,123	-0,073
-194,490	-200,000	0,013	-0,182
-193,475	800,000	0,034	-0,103
-192,460	-14,403	-0,109	-0,050
-191,446	399,577	0,015	0,023
-190,431	47,468	0,043	0,029
-189,417	-200,000	0,008	0,036
-188,402	-200,000	-0,007	-0,072
-187,387	800,000	0,036	-0,080
-186,373	-200,000	0,009	-0,064
-185,358	485,351	0,088	0,143
-184,344	430,640	-0,071	0,109
-183,329	-82,588	0,058	-0,013
-182,315	-138,772	-0,129	0,010
-181,300	-81,402	0,098	0,023
-180,285	465,144	0,062	-0,099
-179,271	-110,532	-0,069	-0,010
-178,256	800,000	-0,040	0,098
-177,242	-111,624	0,129	0,018
-176,227	-43,891	0,097	0,034
-175,212	248,410	-0,009	-0,011
-174,198	555,158	-0,057	0,098
-173,183	800,000	0,019	-0,039
-172,169	-200,000	0,004	0,012
-171,154	-61,374	-0,057	0,017
-170,139	-146,180	0,115	0,007
-169,125	800,000	-0,006	0,015
-168,110	-200,000	-0,018	0,074
-167,096	344,255	0,041	0,057
-166,081	-142,507	-0,068	0,005
-165,066	-200,000	0,014	0,063
-164,052	-200,000	-0,029	-0,114
-163,037	127,207	0,050	-0,045
-162,023	-200,000	0,026	0,098
-161,008	-200,000	-0,030	0,128
-159,993	109,657	0,062	0,053
-158,979	163,474	0,058	-0,058
-157,964	800,000	0,029	-0,085
-156,950	388,132	0,034	-0,051
-155,935	800,000	-0,041	-0,121
-154,920	-67,503	0,110	0,030
-153,906	31,210	0,052	0,032
-152,891	-92,885	-0,110	-0,022
-151,877	-200,000	-0,006	-0,046
-150,862	215,481	-0,100	-0,113
-149,847	-114,776	0,212	0,028
-148,833	-106,029	-0,104	-0,016
-147,818	128,821	0,062	0,056
-146,804	98,040	-0,112	0,091
-145,789	214,035	-0,069	-0,077
-144,775	136,733	-0,034	-0,032
-143,760	-95,815	-0,058	-0,011
-142,745	85,531	-0,082	-0,064
-141,731	-158,942	-0,179	-0,007
-140,716	0,341	0,125	-0,063
-139,702	-200,000	0,007	0,145
-138,687	213,203	0,101	0,113
-137,672	800,000	0,042	0,123
-136,658	256,629	0,073	0,089
-135,643	442,210	-0,066	0,102
-134,629	5,555	0,072	0,038
-133,614	-200,000	0,016	-0,144
-132,599	459,904	-0,073	0,116
-131,585	-87,895	0,060	-0,013
-130,570	-131,963	0,032	-0,003
-129,556	-46,007	-0,159	-0,055
-128,541	553,969	0,034	0,058
-127,526	-5,720	-0,069	0,034
-126,512	67,502	-0,033	-0,024
-125,497	-200,000	-0,006	0,091
-124,483	83,408	0,111	0,086
-123,468	111,261	-0,084	0,071
-122,453	190,451	0,132	0,141
-121,439	-200,000	0,008	-0,090
-120,424	149,309	-0,074	-0,071
-119,410	800,000	0,017	0,042
-118,395	254,240	0,109	0,132
-117,380	145,773	0,068	0,065
-116,366	584,194	-0,028	0,049
-115,351	66,334	-0,031	0,022
-114,337	800,000	-0,052	-0,161
-113,322	-54,388	-0,179	0,057
-112,307	76,354	0,110	0,083
-111,293	-200,000	-0,006	-0,047
-110,278	-115,505	0,058	0,008
-109,264	-200,000	0,001	0,031
-108,249	-92,842	0,137	0,027
-107,234	-29,023	-0,093	0,038
-106,220	-122,829	0,011	-0,001
-105,205	800,000	0,070	0,160
-104,191	244,740	0,025	-0,030
-103,176	60,711	0,150	0,105
-102,162	95,240	-0,021	-0,017
-101,147	-19,404	-0,099	-0,043
-100,132	-110,353	-0,161	-0,023
-99,118	157,595	-0,062	-0,061
-98,103	482,448	0,019	-0,031
-97,089	-6,967	0,089	0,042
-96,074	-67,051	-0,135	0,038
-95,059	-200,000	0,006	0,087
-94,045	-33,852	-0,089	-0,035
-93,030	185,674	-0,138	-0,146
-92,016	12,125	0,114	-0,062
-91,001	554,412	-0,072	0,123
-89,986	800,000	0,017	-0,035
-88,972	-200,000	-0,006	-0,021
-87,957	-200,000	-0,043	0,187
-86,943	800,000	-0,070	-0,187
-85,928	71,319	0,093	-0,068
-84,913	75,290	-0,087	0,065
-83,899	800,000	0,063	-0,177
-82,884	27,852	0,042	-0,025
-81,870	-200,000	0,049	0,185
-80,855	-200,000	-0,022	-0,097
-79,840	-13,988	-0,030	0,014
-78,826	181,035	-0,150	0,157
-77,811	-200,000	-0,011	-0,047
-76,797	800,000	0,038	-0,120
-75,782	120,572	0,019	0,017
-74,767	19,475	0,125	-0,071
-73,753	386,306	0,017	0,024
-72,738	-93,610	-0,069	0,013
-71,724	16,619	-0,033	-0,018
-70,709	82,294	-0,068	-0,052
-69,694	-116,476	-0,069	0,009
-68,680	-62,106	0,070	0,020
-67,665	800,000	-0,032	0,078
-66,651	-200,000	0,024	-0,116
-65,636	137,236	0,027	0,025
-64,622	492,867	-0,043	-0,070
-63,607	-200,000	-0,001	0,033
-62,592	24,637	-0,140	0,082
-61,578	-143,176	0,057	0,004
-60,563	52,985	0,019	0,013
-59,549	220,862	0,105	0,120
-58,534	-3,883	-1,844	-0,902
-57,519	484,818	-1,389	-2,244
-56,505	-200,000	-0,345	-4,496
-55,490	335,888	0,835	1,148
-54,476	800,000	5,036	11,332
-53,461	-200,000	19,450	327,474
-52,446	-200,000	741,624	2335,733
-51,432	570,505	1651,634	2852,869
-50,417	77,358	1665,650	1251,374
-49,403	20,710	1539,163	878,692
-48,388	14,663	1461,312	804,966
-47,373	18,431	1451,882	817,867
-46,359	16,740	1441,679	804,021
-45,344	12,855	1437,311	783,021
-44,330	12,811	1435,045	781,547
-43,315	12,799	1433,601	780,669
-42,300	12,829	1431,639	779,713
-41,286	12,857	1430,495	779,193
-40,271	12,778	1429,252	778,108
-39,257	12,766	1428,035	777,358
-38,242	12,829	1426,560	776,824
-37,227	12,821	1425,612	776,239
-36,213	12,841	1423,971	775,411
-35,198	12,898	1422,685	774,949
-34,184	12,856	1422,055	774,375
-33,169	12,832	1420,702	773,496
-32,154	12,864	1419,545	772,986
-31,140	12,893	1418,455	772,495
-30,125	12,885	1417,289	771,792
-29,111	12,921	1415,980	771,218
-28,096	12,877	1415,098	770,504
-27,082	12,817	1414,040	769,613
-26,067	12,786	1412,981	768,862
-25,052	12,802	1411,962	768,349
-24,038	12,782	1410,894	767,644
-23,023	12,754	1409,985	766,990
-22,009	12,778	1408,954	766,509
-20,994	12,701	1408,121	765,666
-19,979	12,737	1407,170	765,285
-18,965	12,710	1406,012	764,502
-17,950	12,739	1405,035	764,073
-16,936	12,746	1404,360	763,712
-15,921	12,700	1403,336	762,910
-14,906	12,693	1402,638	762,465
-13,892	12,703	1401,476	761,852
-12,877	12,710	1400,722	761,444
-11,863	12,694	1399,762	760,815
-10,848	12,688	1398,806	760,239
-9,833	12,648	1397,977	759,572
-8,819	12,616	1397,001	758,866
-7,804	12,643	1396,197	758,522
-6,790	12,603	1395,119	757,719
-5,775	12,635	1394,125	757,300
-4,760	12,588	1393,236	756,571
-3,746	12,569	1392,179	755,878
-2,731	12,554	1391,534	755,430
-1,717	12,539	1390,807	754,933
-0,702	12,542	1389,058	753,968
0,313	16,486	1305,091	726,544
1,327	32,780	699,334	426,712
2,342	50,397	122,324	81,566
3,356	2,537	16,497	8,415
4,371	2,069	3,341	1,699
5,386	-24,123	0,694	0,291
6,400	800,000	0,122	0,321
7,415	9,404	-0,226	-0,120
8,429	2,289	-0,318	-0,162
9,444	-24,026	-0,388	-0,163
10,459	-20,160	-0,267	-0,116
11,473	63,678	-0,126	-0,089
12,488	27,706	-0,207	-0,123
13,502	34,136	-0,244	-0,150
14,517	109,251	-0,226	-0,191
15,531	567,562	-0,167	-0,288
16,546	54,578	-0,429	-0,291
17,561	70,732	-0,333	-0,243
18,575	2,726	-0,246	-0,125
19,590	79,893	-0,300	-0,227
20,604	88,754	-0,234	-0,183
21,619	-55,742	-0,388	-0,122
22,634	192,171	-0,346	-0,369
23,648	7,328	-0,365	-0,192
24,663	11,457	-0,398	-0,214
25,677	135,358	-0,344	-0,316
26,692	19,186	-0,406	-0,229
27,707	66,973	-0,325	-0,233
28,721	249,005	-0,229	-0,274
29,736	78,046	-0,319	-0,239
30,750	95,841	-0,365	-0,294
31,765	-24,766	-0,435	-0,181
32,780	14,635	-0,399	-0,219
33,794	190,524	-0,193	-0,204
34,809	24,800	-0,361	-0,210
35,823	45,326	-0,390	-0,253
36,838	-25,799	-0,426	-0,176
37,853	456,737	-0,211	-0,331
38,867	184,507	-0,345	-0,360
39,882	114,966	-0,390	-0,335
40,896	89,188	-0,467	-0,366
41,911	146,269	-0,312	-0,295
42,926	-34,844	-0,440	-0,168
43,940	-35,487	-0,358	-0,136
44,955	93,752	-0,330	-0,263
45,969	33,186	-0,491	-0,299
46,984	433,575	-0,238	-0,365
47,999	-3,931	-0,333	-0,162
49,013	70,219	-0,386	-0,280
50,028	22,335	-0,424	-0,243
51,042	387,047	-0,287	-0,419
52,057	143,766	-0,384	-0,360
53,071	-49,121	-0,412	-0,138
54,086	-36,143	-0,399	-0,151
55,101	291,511	-0,275	-0,353
56,115	-49,098	-0,561	-0,188
57,130	63,911	-0,346	-0,244
58,144	47,665	-0,349	-0,229
59,159	33,668	-0,509	-0,311
60,174	120,362	-0,321	-0,280
61,188	7,456	-0,360	-0,188
62,203	24,023	-0,321	-0,186
63,217	195,950	-0,246	-0,263
64,232	27,313	-0,370	-0,218
65,247	154,349	-0,405	-0,391
66,261	42,587	-0,385	-0,246
67,276	8,062	-0,283	-0,149
68,290	348,532	-0,247	-0,344
69,305	326,318	-0,158	-0,213
70,320	106,102	-0,183	-0,152
71,334	-25,613	-0,304	-0,125
72,349	-38,218	-0,358	-0,133
73,363	79,714	-0,368	-0,278
74,378	52,302	-0,378	-0,253
75,393	222,265	-0,288	-0,326
76,407	109,161	-0,226	-0,190
77,422	22,358	-0,286	-0,164
78,436	22,870	-0,259	-0,149
79,451	10,612	-0,328	-0,175
80,466	190,369	-0,251	-0,265
81,480	184,838	-0,339	-0,353
82,495	13,402	-0,294	-0,159
83,509	533,994	-0,132	-0,220
84,524	96,582	-0,231	-0,185
85,539	-74,820	-0,383	-0,096
86,553	-45,390	-0,234	-0,081
87,568	16,103	-0,481	-0,265
88,582	57,803	-0,309	-0,211
89,597	61,097	-0,241	-0,168
90,611	214,446	-0,209	-0,233
91,626	299,362	-0,186	-0,240
92,641	49,566	-0,178	-0,117
93,655	-53,827	-0,360	-0,114
94,670	46,050	-0,368	-0,238
95,684	17,810	-0,337	-0,188
96,699	64,591	-0,406	-0,287
97,714	-22,582	-0,159	-0,067
98,728	76,069	-0,248	-0,183
99,743	7,381	-0,343	-0,179
100,757	63,576	-0,356	-0,250
101,772	58,362	-0,233	-0,160
102,787	-66,980	-0,371	-0,102
103,801	80,400	-0,327	-0,246
104,816	96,838	-0,251	-0,202
105,830	-81,223	-0,271	-0,062
106,845	-8,466	-0,332	-0,156
107,860	269,677	-0,116	-0,142
108,874	65,414	-0,275	-0,195
109,889	-92,806	-0,250	-0,048
110,903	14,656	-0,237	-0,129
111,918	150,677	-0,238	-0,226
112,933	245,683	-0,209	-0,246
113,947	75,377	-0,208	-0,153
114,962	150,001	-0,077	-0,073
115,976	24,022	-0,313	-0,180
116,991	-106,773	-0,305	-0,047
118,006	211,286	-0,086	-0,094
119,020	43,899	-0,266	-0,170
120,035	96,389	-0,191	-0,153
121,049	16,596	-0,179	-0,099
122,064	800,000	-0,083	-0,234
123,079	149,586	-0,138	-0,131
124,093	0,361	-0,380	-0,189
125,108	37,872	-0,236	-0,146
126,122	435,262	-0,209	-0,319
127,137	34,141	-0,237	-0,144
128,151	1,608	-0,188	-0,094
129,166	95,077	-0,147	-0,117
130,181	143,470	-0,260	-0,242
131,195	265,066	-0,159	-0,194
132,210	13,456	-0,364	-0,197
133,224	76,673	-0,186	-0,138
134,239	261,952	-0,202	-0,245
135,254	-26,779	-0,246	-0,100
136,268	-41,280	-0,258	-0,092
137,283	-107,029	-0,263	0,040
138,297	184,906	-0,237	-0,245
139,312	-64,034	-0,323	-0,092
140,327	-4,083	-0,135	-0,065
141,341	169,167	-0,225	-0,224
142,356	120,956	-0,246	-0,214
143,370	-3,634	-0,273	-0,132
144,385	72,317	-0,239	-0,173
145,400	253,371	-0,241	-0,288
146,414	159,103	-0,257	-0,250
147,429	71,529	-0,286	-0,207
148,443	54,502	-0,219	-0,147
149,458	130,171	-0,161	-0,144
150,473	92,809	-0,216	-0,170
151,487	171,065	-0,261	-0,261
152,502	202,695	-0,224	-0,242
153,516	55,597	-0,256	-0,173
154,531	226,859	-0,152	-0,172
155,546	388,750	-0,264	-0,383
156,560	13,181	-0,243	-0,131
157,575	-6,954	-0,256	-0,121
158,589	115,785	-0,219	-0,187
159,604	232,552	-0,104	-0,119
160,619	42,963	-0,223	-0,141
161,633	9,645	-0,266	-0,140
162,648	169,247	-0,204	-0,203
163,662	65,153	-0,203	-0,143
164,677	70,593	-0,188	-0,135
165,692	-8,285	-0,208	-0,097
166,706	89,981	-0,138	-0,107
167,721	-47,889	-0,342	-0,115
168,735	51,150	-0,230	-0,152
169,750	38,499	-0,251	-0,155
170,764	-7,863	-0,254	-0,119
171,779	68,206	-0,200	-0,142
172,794	-79,723	-0,148	-0,035
173,808	-193,682	-0,219	-0,001
174,823	69,859	-0,201	-0,144
175,837	-19,451	-0,236	-0,101
176,852	-104,536	-0,243	-0,039
177,867	48,037	-0,219	-0,142
178,881	-200,000	-0,103	-0,362
179,896	81,539	-0,207	-0,155
180,910	67,909	-0,175	-0,124
181,925	104,258	-0,289	-0,236
182,940	229,512	-0,233	-0,265
183,954	228,979	-0,199	-0,226
184,969	168,007	-0,228	-0,226
185,983	48,673	-0,198	-0,129
186,998	183,961	-0,172	-0,177
188,013	17,987	-0,206	-0,114
189,027	22,834	-0,263	-0,149
190,042	-104,568	-0,353	-0,056
191,056	310,120	-0,167	-0,218
192,071	185,470	-0,143	-0,148
193,086	300,328	-0,082	-0,105
194,100	9,383	-0,264	-0,138
195,115	-44,554	-0,172	-0,059
196,129	-165,617	-0,144	0,004
197,144	136,787	-0,284	-0,257
198,159	92,755	-0,208	-0,163
199,173	26,825	-0,327	-0,190
200,188	-56,503	-0,176	-0,054
201,202	-73,435	-0,247	-0,062
202,217	88,538	-0,181	-0,140
203,232	-93,956	-0,152	-0,029
204,246	-132,184	-0,207	0,018
205,261	800,000	-0,126	-0,246
206,275	162,213	-0,127	-0,123
207,290	-94,161	-0,220	-0,041
208,304	153,918	-0,135	-0,128
209,319	800,000	-0,060	-0,167
210,334	83,389	-0,174	-0,132
211,348	26,036	-0,279	-0,161
212,363	128,977	-0,220	-0,195
213,377	66,618	-0,223	-0,157
214,392	554,054	-0,090	-0,151
215,407	-34,713	-0,168	-0,063
216,421	260,228	-0,153	-0,184
217,436	178,375	-0,150	-0,152
218,450	158,534	-0,073	-0,070
219,465	34,993	-0,150	-0,091
220,480	33,599	-0,275	-0,166
221,494	196,722	-0,196	-0,207
222,509	-141,136	-0,207	-0,014
223,523	407,009	-0,106	-0,156
224,538	157,286	-0,092	-0,088
225,553	204,481	-0,204	-0,219
226,567	302,089	-0,181	-0,233
227,582	-3,033	-0,248	-0,119
228,596	261,598	-0,121	-0,145
229,611	-156,643	-0,122	-0,005
230,626	-36,054	-0,214	-0,080
231,640	-79,002	-0,248	-0,058
232,655	429,830	-0,153	-0,229
233,669	61,494	-0,199	-0,137
234,684	-102,340	-0,157	0,026
235,699	42,456	-0,181	-0,114
236,713	4,488	-0,157	-0,079
237,728	-147,758	-0,152	0,009
238,742	11,725	-0,253	-0,134
239,757	155,136	-0,178	-0,170
240,772	211,216	-0,202	-0,220
241,786	444,760	-0,167	-0,255
242,801	519,740	-0,098	-0,160
243,815	536,921	-0,041	-0,068
244,830	0,528	-0,102	-0,050
245,844	35,717	-0,118	-0,072
246,859	-12,447	-0,173	-0,078
247,874	230,552	-0,200	-0,226
248,888	-88,660	-0,245	-0,050
249,903	113,034	-0,135	-0,113
250,917	-200,000	-0,081	-0,320
251,932	136,654	-0,160	-0,144
252,947	558,992	-0,153	-0,256
253,961	-78,437	-0,206	0,048
254,976	800,000	-0,084	-0,207
255,990	-200,000	-0,022	-0,123
257,005	800,000	-0,069	-0,148
258,020	143,759	-0,075	-0,069
259,034	-149,559	-0,200	-0,011
260,049	52,661	-0,167	-0,110
261,063	2,962	-0,290	-0,145
262,078	205,727	-0,104	-0,111
263,093	-127,871	-0,093	0,009
264,107	69,474	-0,083	-0,059
265,122	-200,000	-0,161	0,000
266,136	-200,000	-0,178	0,000
267,151	-134,259	-0,185	0,015
268,166	225,626	-0,141	-0,158
269,180	-37,052	-0,235	-0,087
270,195	176,405	-0,233	-0,233
271,209	608,712	-0,107	-0,186
272,224	40,165	-0,228	-0,141
273,239	355,182	-0,160	-0,220
274,253	174,432	-0,171	-0,171
275,268	-43,352	-0,258	-0,090
276,282	99,623	-0,176	-0,140
277,297	15,016	-0,218	-0,117
278,312	737,713	-0,171	-0,319
279,326	410,723	-0,103	0,151
280,341	401,830	-0,124	-0,181
281,355	-75,782	-0,066	-0,016
282,370	524,185	-0,085	-0,138
283,384	103,394	-0,234	-0,189
284,399	-69,088	-0,280	-0,074
285,414	248,601	-0,149	-0,174
286,428	40,501	-0,070	-0,043
287,443	-92,823	-0,212	-0,040
288,457	-90,782	-0,196	-0,039
289,472	-125,011	-0,125	0,013
290,487	-65,428	-0,176	0,048
291,501	-71,799	-0,208	-0,053
292,516	184,859	-0,133	-0,136
293,530	123,518	-0,099	-0,085
294,545	-119,288	-0,137	-0,016
295,560	-130,322	-0,182	-0,017
296,574	-140,993	-0,144	-0,010
297,589	-143,330	-0,139	-0,009
298,603	-111,843	-0,176	-0,024
299,618	324,988	-0,125	-0,165
300,633	290,970	-0,081	-0,102
301,647	28,310	-0,102	-0,059
302,662	-67,861	-0,098	-0,026
303,676	-153,008	-0,103	-0,005
304,691	800,000	-0,051	-0,152
305,706	800,000	-0,129	-0,280
306,720	-43,493	-0,188	-0,065
307,735	-74,584	-0,083	0,020
308,749	-45,990	-0,105	-0,035
309,764	-43,030	-0,129	-0,045
310,779	621,739	-0,095	-0,166
311,793	-120,130	-0,158	-0,018
312,808	-17,311	-0,189	-0,082
313,822	80,902	-0,174	-0,129
314,837	-146,213	-0,251	0,015
315,852	-25,752	-0,213	-0,086
316,866	-200,000	-0,071	-0,223
317,881	-61,078	-0,095	-0,027
318,895	121,829	-0,167	-0,143
319,910	-200,000	-0,040	-0,126
320,925	177,125	-0,154	-0,154
321,939	88,329	-0,102	-0,077
322,954	75,638	-0,112	-0,081
323,968	71,467	-0,028	-0,020
324,983	88,396	-0,134	-0,102
325,997	85,477	-0,108	-0,081
327,012	-146,601	-0,273	-0,016
328,027	-83,593	-0,101	-0,022
329,041	800,000	-0,060	-0,175
330,056	188,581	-0,096	-0,099
331,070	36,814	-0,119	-0,072
332,085	-200,000	-0,012	-0,069
333,100	-200,000	-0,018	-0,136
334,114	84,338	-0,192	-0,144
335,129	-112,963	-0,231	-0,031
336,143	311,415	-0,146	-0,189
337,158	-93,922	-0,234	-0,044
338,173	-200,000	-0,044	-0,166
339,187	-200,000	-0,003	-0,094
340,202	124,080	-0,162	-0,140
341,216	-0,419	-0,168	-0,082
342,231	195,488	-0,129	-0,135
343,246	-108,410	-0,145	-0,021
344,260	293,164	-0,082	-0,103
345,275	-200,000	-0,034	-0,128
346,289	-84,982	-0,063	0,014
347,304	34,483	-0,203	-0,121
348,319	32,469	-0,172	-0,101
349,333	800,000	-0,032	-0,073
350,348	-200,000	-0,017	-0,077
351,362	24,126	-0,064	-0,036
352,377	306,754	-0,208	-0,266
353,392	-200,000	0,005	-0,065
354,406	-83,758	-0,108	-0,024
355,421	205,750	1313,348	1400,404
356,435	158,210	1473,907	1400,919
