DTS Sentinel unit serial number:	SN410029Multiplexer serial number:	ORYXHardware model number:	OX2-SRSoftware version number:	ORYX F/W v4,00 Oryx Data Collector v3.7.2.0data status	okinstallation	B3 Nyhavnadifferential loss correction	single-endedforward channel	channel 1reverse channel	N/Adate	2023/11/30time	05:42:31forward acquisition time	300,00reverse acquisition time	0,00gamma	499,1914k internal	0,3210k external	0,3210temperature offset calibration	1,0000default loss term (dB/km)	0,3820temperature slope calibration	1,0000multiplexer offset coefficient	1,0000multiplexer slope coefficient	1,0000fibre end	0,00T internal ref (°C)	10,25T ext. ref 1 (°C)	-5,01T ext. ref 2 (°C)	-5,08length (m)	temperature (°C)	Stokes	anti-Stokes-744,400	360,843	-0,168	-0,244
-743,385	800,000	-0,066	0,188
-742,371	213,804	-0,303	-0,348
-741,356	482,462	0,127	0,210
-740,342	16,141	-0,167	-0,095
-739,327	-200,000	0,068	0,246
-738,312	248,359	-0,180	-0,221
-737,298	-200,000	-0,044	0,144
-736,283	189,922	-0,228	-0,248
-735,269	-200,000	-0,075	0,324
-734,254	309,427	-0,183	-0,249
-733,239	-3,881	-0,230	0,115
-732,225	-200,000	-0,007	-0,215
-731,210	-200,000	0,009	0,211
-730,196	800,000	0,016	0,040
-729,181	133,206	0,062	0,058
-728,167	-40,913	-0,046	-0,017
-727,152	-106,832	0,064	-0,010
-726,137	-80,646	-0,095	0,023
-725,123	-139,385	-0,031	-0,002
-724,108	-102,259	0,059	-0,010
-723,094	-200,000	-0,004	-0,020
-722,079	534,251	-0,068	-0,118
-721,064	-89,975	0,131	0,027
-720,050	-27,013	0,121	-0,051
-719,035	800,000	-0,043	-0,100
-718,021	227,705	-0,096	-0,114
-717,006	-200,000	-0,013	-0,101
-715,991	51,217	-0,075	-0,051
-714,977	64,323	0,100	-0,073
-713,962	-80,352	-0,171	-0,041
-712,948	-200,000	-0,006	-0,077
-711,933	99,211	0,066	0,056
-710,918	-108,969	-0,176	0,027
-709,904	800,000	-0,022	-0,058
-708,889	144,957	-0,083	-0,081
-707,875	-106,674	0,088	0,014
-706,860	256,264	0,069	0,086
-705,845	403,001	0,059	0,090
-704,831	138,939	0,068	0,064
-703,816	82,325	-0,068	0,053
-702,802	800,000	-0,018	-0,046
-701,787	75,589	-0,135	-0,103
-700,772	-101,822	0,124	0,022
-699,758	-69,866	0,043	0,012
-698,743	103,367	0,129	0,110
-697,729	506,848	-0,008	0,014
-696,714	-103,312	-0,066	0,011
-695,699	800,000	-0,012	-0,037
-694,685	-155,887	-0,040	0,002
-693,670	626,107	-0,066	-0,120
-692,656	141,227	0,063	-0,061
-691,641	-200,000	0,001	-0,029
-690,627	800,000	0,010	0,025
-689,612	-200,000	-0,015	0,092
-688,597	-76,733	-0,092	-0,023
-687,583	104,630	0,027	0,023
-686,568	-200,000	-0,005	-0,138
-685,554	-88,006	-0,129	-0,028
-684,539	169,951	0,137	0,142
-683,524	-25,987	0,121	-0,051
-682,510	35,514	-0,168	0,106
-681,495	-124,120	-0,087	0,010
-680,481	59,562	-0,095	-0,068
-679,466	28,515	-0,014	-0,009
-678,451	-106,833	0,118	-0,019
-677,437	-200,000	0,003	-0,093
-676,422	155,631	0,035	0,035
-675,408	8,790	-0,059	-0,032
-674,393	-200,000	-0,011	0,044
-673,378	-142,122	-0,071	-0,005
-672,364	-125,776	-0,127	-0,014
-671,349	-200,000	-0,001	-0,080
-670,335	800,000	-0,032	-0,075
-669,320	35,177	-0,042	0,027
-668,305	123,430	-0,068	-0,062
-667,291	171,566	0,043	0,045
-666,276	-41,727	-0,106	-0,039
-665,262	17,424	-0,121	-0,070
-664,247	-117,233	-0,086	-0,011
-663,232	-200,000	-0,005	0,050
-662,218	-164,833	0,085	-0,003
-661,203	-200,000	-0,034	-0,140
-660,189	636,868	0,018	-0,033
-659,174	-200,000	0,013	-0,175
-658,159	-129,532	-0,081	-0,008
-657,145	96,959	-0,103	-0,085
-656,130	148,231	-0,024	0,023
-655,116	195,447	-0,089	0,098
-654,101	-151,638	0,153	-0,008
-653,086	100,415	0,065	-0,055
-652,072	-150,081	-0,026	-0,001
-651,057	-118,792	-0,129	0,016
-650,043	-36,941	-0,090	-0,035
-649,028	800,000	-0,030	0,083
-648,014	716,437	0,044	0,084
-646,999	-19,172	0,110	-0,049
-645,984	-98,145	0,075	-0,014
-644,970	-154,667	0,054	-0,003
-643,955	-91,578	0,066	0,013
-642,941	800,000	0,016	0,036
-641,926	247,486	-0,074	0,091
-640,911	800,000	-0,061	0,167
-639,897	-45,789	0,095	0,034
-638,882	-152,256	0,077	0,004
-637,868	143,088	-0,123	0,118
-636,853	800,000	0,048	-0,124
-635,838	-72,643	0,061	0,016
-634,824	-200,000	-0,009	-0,035
-633,809	-32,211	-0,188	-0,076
-632,795	206,434	-0,082	0,092
-631,780	174,837	0,044	0,047
-630,765	261,100	-0,015	-0,018
-629,751	136,329	-0,051	0,048
-628,736	441,834	-0,072	-0,114
-627,722	-94,297	-0,055	-0,011
-626,707	55,659	0,036	0,025
-625,692	-33,990	0,089	0,035
-624,678	257,776	-0,080	-0,099
-623,663	98,599	-0,056	-0,047
-622,649	-200,000	-0,000	0,025
-621,634	5,839	-0,077	-0,041
-620,619	386,182	0,019	-0,029
-619,605	800,000	0,044	-0,096
-618,590	800,000	0,024	-0,048
-617,576	282,097	-0,049	0,064
-616,561	-55,649	-0,064	-0,020
-615,546	125,973	-0,078	0,071
-614,532	800,000	0,016	-0,038
-613,517	-102,100	-0,106	-0,018
-612,503	-165,513	-0,034	0,001
-611,488	4,910	-0,100	0,053
-610,474	3,691	0,046	0,024
-609,459	23,759	0,062	0,036
-608,444	279,855	-0,054	-0,070
-607,430	17,890	0,111	-0,064
-606,415	-200,000	0,007	-0,166
-605,401	563,413	-0,042	0,073
-604,386	-200,000	-0,004	0,021
-603,371	-85,315	-0,047	-0,010
-602,357	194,873	0,165	-0,181
-601,342	16,938	-0,086	0,049
-600,328	800,000	0,047	-0,140
-599,313	61,867	-0,159	-0,114
-598,298	761,823	0,033	-0,064
-597,284	-45,882	-0,077	-0,027
-596,269	-89,224	-0,079	0,017
-595,255	87,839	-0,066	0,053
-594,240	800,000	-0,085	-0,221
-593,225	-200,000	0,029	0,117
-592,211	-14,737	-0,099	-0,046
-591,196	-114,347	-0,139	-0,019
-590,182	800,000	-0,044	-0,129
-589,167	-70,707	0,122	-0,033
-588,152	119,699	-0,098	0,088
-587,138	351,598	0,087	-0,125
-586,123	639,335	-0,062	-0,114
-585,109	-62,897	-0,185	0,055
-584,094	-200,000	0,018	0,171
-583,079	-153,252	0,063	0,003
-582,065	97,093	-0,056	-0,046
-581,050	-127,079	0,079	-0,008
-580,036	129,011	0,092	-0,084
-579,021	-102,048	-0,131	-0,022
-578,006	800,000	0,055	0,133
-576,992	-200,000	-0,010	0,068
-575,977	772,504	-0,031	0,061
-574,963	267,344	-0,020	0,025
-573,948	800,000	0,010	-0,028
-572,934	107,951	-0,041	0,036
-571,919	-87,389	-0,092	0,020
-570,904	-150,841	-0,106	0,006
-569,890	-200,000	-0,022	-0,105
-568,875	59,773	-0,102	-0,073
-567,861	312,008	0,082	0,111
-566,846	-0,287	-0,071	0,036
-565,831	164,973	-0,095	0,097
-564,817	41,654	0,059	0,038
-563,802	-200,000	-0,022	0,172
-562,788	79,478	0,024	-0,018
-561,773	193,087	0,046	-0,050
-560,758	188,781	-0,030	-0,033
-559,744	-200,000	-0,005	0,119
-558,729	721,606	-0,101	0,194
-557,715	-200,000	0,012	0,132
-556,700	498,116	-0,122	-0,202
-555,685	-100,325	-0,096	0,017
-554,671	657,160	-0,050	-0,092
-553,656	46,816	-0,053	0,036
-552,642	-200,000	-0,006	-0,160
-551,627	-73,270	0,107	-0,028
-550,612	-200,000	0,009	-0,177
-549,598	401,770	0,021	0,032
-548,583	800,000	-0,063	-0,186
-547,569	-132,427	0,107	-0,010
-546,554	71,358	0,047	-0,035
-545,539	18,864	0,147	0,085
-544,525	119,343	0,083	-0,074
-543,510	800,000	-0,052	0,109
-542,496	800,000	0,052	-0,121
-541,481	343,751	-0,063	-0,089
-540,466	663,693	-0,056	-0,104
-539,452	-86,200	-0,010	0,002
-538,437	-15,729	0,130	0,059
-537,423	-121,262	-0,093	0,011
-536,408	-200,000	0,006	-0,080
-535,393	-160,174	0,100	0,004
-534,379	0,781	0,040	0,020
-533,364	-165,382	-0,131	0,004
-532,350	183,359	0,061	0,065
-531,335	379,232	0,009	-0,014
-530,321	-21,005	-0,132	-0,058
-529,306	-158,028	0,028	0,001
-528,291	265,435	0,078	-0,099
-527,277	-65,308	-0,178	-0,051
-526,262	800,000	0,029	-0,060
-525,248	-34,926	-0,067	0,026
-524,233	-200,000	-0,030	0,103
-523,218	-105,444	0,120	-0,019
-522,204	357,146	0,046	-0,066
-521,189	417,317	-0,037	-0,057
-520,175	-36,111	0,051	-0,020
-519,160	675,700	-0,015	0,029
-518,145	-200,000	-0,004	0,019
-517,131	435,472	0,114	-0,179
-516,116	-27,946	0,033	-0,014
-515,102	253,707	0,080	0,098
-514,087	32,020	-0,126	0,078
-513,072	8,364	-0,022	-0,012
-512,058	-200,000	0,014	0,094
-511,043	54,098	-0,032	0,022
-510,029	455,445	0,114	0,182
-509,014	-200,000	0,041	0,153
-507,999	236,327	0,046	-0,055
-506,985	60,944	-0,024	-0,017
-505,970	-33,087	-0,028	-0,011
-504,956	566,355	0,021	-0,036
-503,941	360,834	0,072	0,104
-502,926	577,650	0,040	0,071
-501,912	176,943	-0,123	0,129
-500,897	-127,281	0,053	-0,005
-499,883	697,208	0,013	-0,025
-498,868	-200,000	-0,072	-0,271
-497,853	-105,334	0,045	-0,007
-496,839	235,802	-0,105	0,125
-495,824	-103,019	0,067	0,011
-494,810	800,000	-0,045	0,099
-493,795	152,495	-0,204	0,201
-492,781	800,000	-0,021	0,060
-491,766	-78,713	-0,059	0,014
-490,751	-111,253	0,015	0,002
-489,737	800,000	0,021	0,060
-488,722	800,000	-0,051	0,153
-487,708	-136,830	-0,042	0,003
-486,693	-200,000	0,010	0,085
-485,678	76,705	0,101	0,077
-484,664	-143,627	-0,054	0,004
-483,649	-200,000	0,018	-0,075
-482,635	107,980	0,055	0,047
-481,620	800,000	-0,056	0,139
-480,605	-26,506	0,158	0,066
-479,591	782,007	-0,006	0,012
-478,576	-200,000	0,001	0,058
-477,562	125,868	0,131	0,119
-476,547	800,000	-0,019	-0,056
-475,532	567,393	0,038	0,066
-474,518	69,398	0,109	0,081
-473,503	163,111	0,040	-0,040
-472,489	-200,000	-0,015	0,175
-471,474	-16,188	-0,104	0,047
-470,459	461,496	-0,093	-0,149
-469,445	387,562	0,051	-0,076
-468,430	-31,475	0,076	-0,030
-467,416	-200,000	-0,001	0,006
-466,401	-200,000	0,003	0,011
-465,386	30,659	-0,014	-0,009
-464,372	800,000	0,039	0,079
-463,357	-156,538	0,051	0,002
-462,343	-72,215	-0,072	-0,019
-461,328	-200,000	0,030	-0,136
-460,313	-200,000	-0,003	-0,046
-459,299	-71,054	0,071	0,019
-458,284	42,354	0,050	0,032
-457,270	400,501	-0,019	0,029
-456,255	800,000	-0,041	-0,103
-455,241	206,579	0,046	-0,051
-454,226	-142,270	-0,093	-0,007
-453,211	-200,000	-0,014	-0,053
-452,197	-200,000	-0,023	-0,103
-451,182	159,820	-0,048	0,048
-450,168	800,000	0,048	-0,100
-449,153	284,489	-0,096	0,124
-448,138	-24,201	-0,102	0,043
-447,124	3,451	0,062	0,032
-446,109	800,000	-0,019	0,042
-445,095	709,294	-0,038	0,072
-444,080	72,680	0,109	0,081
-443,065	-200,000	-0,021	0,068
-442,051	74,249	-0,207	-0,155
-441,036	-162,921	-0,133	-0,005
-440,022	156,363	-0,047	0,046
-439,007	-156,971	-0,076	-0,003
-437,992	-200,000	-0,011	0,054
-436,978	-177,803	0,116	-0,002
-435,963	-200,000	0,023	0,093
-434,949	-200,000	-0,018	-0,129
-433,934	1,392	-0,047	-0,024
-432,919	-200,000	0,024	-0,123
-431,905	-200,000	-0,003	-0,044
-430,890	-95,767	-0,156	0,030
-429,876	-200,000	-0,000	0,183
-428,861	358,806	0,075	-0,107
-427,846	-59,673	0,091	0,028
-426,832	386,630	-0,071	-0,106
-425,817	800,000	0,023	-0,047
-424,803	-143,269	-0,105	0,007
-423,788	-200,000	0,003	0,026
-422,773	-116,532	0,096	-0,013
-421,759	-75,991	-0,069	-0,017
-420,744	437,056	-0,025	-0,039
-419,730	-200,000	-0,002	-0,090
-418,715	-200,000	0,015	0,182
-417,701	594,087	-0,032	0,057
-416,686	220,144	0,030	0,034
-415,671	353,243	-0,047	0,066
-414,657	17,642	-0,068	-0,038
-413,642	296,945	-0,047	0,062
-412,628	-200,000	-0,009	0,041
-411,613	800,000	-0,069	-0,140
-410,598	213,226	0,057	-0,065
-409,584	623,857	0,048	0,087
-408,569	322,285	0,022	0,030
-407,555	245,445	0,017	-0,021
-406,540	-37,191	-0,047	-0,018
-405,525	-42,002	0,128	-0,047
-404,511	-200,000	0,003	-0,079
-403,496	-64,425	-0,009	0,003
-402,482	800,000	-0,020	0,052
-401,467	99,730	-0,103	0,085
-400,452	-200,000	0,002	0,058
-399,438	98,669	-0,045	0,037
-398,423	-200,000	-0,016	-0,063
-397,409	-104,109	-0,122	0,020
-396,394	-200,000	-0,008	0,168
-395,379	-200,000	0,033	0,114
-394,365	-86,254	0,130	0,028
-393,350	-200,000	-0,005	0,037
-392,336	-49,604	0,163	0,055
-391,321	-97,924	-0,122	-0,022
-390,306	-18,070	0,078	0,035
-389,292	-71,965	0,177	0,047
-388,277	-112,694	-0,107	-0,015
-387,263	57,012	0,027	0,019
-386,248	756,058	0,017	-0,032
-385,233	235,531	0,067	-0,079
-384,219	44,144	0,052	-0,034
-383,204	800,000	-0,045	-0,103
-382,190	-57,208	-0,119	-0,037
-381,175	-74,509	0,035	0,009
-380,160	52,138	-0,043	0,029
-379,146	-200,000	0,010	0,108
-378,131	266,813	-0,068	0,086
-377,117	800,000	-0,021	0,053
-376,102	-200,000	0,008	0,075
-375,088	-200,000	0,007	0,026
-374,073	-60,680	-0,049	-0,015
-373,058	-200,000	0,006	0,046
-372,044	581,620	0,015	0,026
-371,029	72,668	-0,070	0,052
-370,015	-131,303	0,067	0,006
-369,000	431,150	-0,073	-0,113
-367,985	-200,000	0,037	-0,117
-366,971	-9,615	-0,021	0,010
-365,956	800,000	0,034	0,095
-364,942	394,789	0,033	0,049
-363,927	-128,606	0,072	0,007
-362,912	-200,000	-0,003	0,099
-361,898	-165,807	0,189	0,006
-360,883	273,749	-0,077	-0,098
-359,869	45,831	0,107	-0,071
-358,854	182,654	0,030	-0,032
-357,839	-29,016	-0,057	-0,023
-356,825	626,616	0,045	-0,082
-355,810	601,131	0,085	0,151
-354,796	193,524	-0,020	0,022
-353,781	-200,000	0,002	0,045
-352,766	163,056	-0,062	-0,062
-351,752	-200,000	-0,003	0,067
-350,737	748,744	0,045	-0,088
-349,723	800,000	0,071	0,150
-348,708	-200,000	-0,001	0,076
-347,693	301,675	0,010	0,013
-346,679	-15,363	-0,111	-0,050
-345,664	-3,387	0,113	-0,056
-344,650	345,002	0,036	0,050
-343,635	-200,000	-0,022	0,135
-342,620	-200,000	-0,017	0,102
-341,606	-106,158	0,075	0,012
-340,591	-200,000	-0,023	-0,118
-339,577	81,086	-0,066	-0,051
-338,562	-200,000	0,002	0,067
-337,548	-99,480	-0,115	0,021
-336,533	-48,489	0,122	0,042
-335,518	496,188	0,078	0,128
-334,504	92,874	0,063	-0,050
-333,489	642,746	0,066	0,121
-332,475	-115,865	-0,121	-0,016
-331,460	-200,000	0,010	-0,104
-330,445	-200,000	-0,006	0,078
-329,431	-200,000	-0,000	0,061
-328,416	-61,476	-0,059	-0,018
-327,402	-130,744	0,037	-0,003
-326,387	800,000	-0,031	-0,077
-325,372	44,102	-0,105	0,069
-324,358	-143,860	0,092	-0,006
-323,343	800,000	-0,037	0,097
-322,329	-200,000	0,015	0,067
-321,314	-35,096	-0,091	-0,035
-320,299	16,992	0,055	0,031
-319,285	-161,478	-0,084	-0,003
-318,270	-29,466	-0,053	0,022
-317,256	68,644	-0,065	0,048
-316,241	-76,032	-0,036	0,009
-315,226	-11,459	0,146	0,068
-314,212	800,000	0,022	-0,066
-313,197	80,493	-0,020	-0,016
-312,183	-63,923	0,021	0,006
-311,168	-87,038	-0,105	-0,023
-310,153	5,464	0,118	-0,062
-309,139	299,235	-0,090	-0,118
-308,124	800,000	0,045	0,130
-307,110	800,000	0,062	0,161
-306,095	101,417	0,069	0,057
-305,080	-17,602	0,014	0,006
-304,066	689,369	-0,036	0,067
-303,051	279,115	-0,047	-0,060
-302,037	-112,271	-0,071	0,010
-301,022	800,000	0,044	-0,105
-300,008	16,417	0,059	-0,033
-298,993	800,000	0,060	0,172
-297,978	-200,000	-0,002	-0,124
-296,964	-38,154	0,123	-0,046
-295,949	-200,000	0,005	-0,104
-294,935	253,965	-0,085	-0,103
-293,920	360,518	0,075	-0,107
-292,905	-200,000	0,052	-0,201
-291,891	71,280	0,122	0,090
-290,876	-48,700	0,076	-0,026
-289,862	-200,000	-0,005	-0,031
-288,847	-200,000	-0,013	-0,078
-287,832	-200,000	-0,022	-0,087
-286,818	164,607	0,025	-0,025
-285,803	-200,000	-0,035	0,146
-284,789	201,948	-0,083	0,091
-283,774	-200,000	0,014	0,159
-282,759	-50,403	-0,080	0,027
-281,745	250,629	0,032	-0,039
-280,730	582,626	-0,084	-0,148
-279,716	-84,004	0,122	-0,027
-278,701	214,607	-0,025	-0,028
-277,686	-200,000	-0,009	0,032
-276,672	-64,331	0,129	-0,037
-275,657	428,953	0,043	0,067
-274,643	175,904	-0,139	-0,143
-273,628	-156,647	-0,101	-0,004
-272,613	-67,232	-0,151	-0,042
-271,599	275,529	0,051	-0,064
-270,584	92,068	0,006	-0,005
-269,570	495,199	0,022	-0,036
-268,555	474,231	0,086	-0,138
-267,540	-66,402	-0,066	0,018
-266,526	95,296	-0,021	-0,017
-265,511	-200,000	0,025	-0,100
-264,497	239,312	0,104	0,124
-263,482	-94,201	0,106	0,020
-262,467	29,822	0,127	0,077
-261,453	117,586	-0,087	-0,077
-260,438	800,000	0,066	-0,147
-259,424	238,599	-0,086	0,102
-258,409	276,690	0,060	-0,076
-257,395	-200,000	0,006	-0,028
-256,380	-200,000	0,005	0,092
-255,365	-200,000	-0,007	0,076
-254,351	-148,903	-0,079	-0,004
-253,336	189,592	0,079	-0,084
-252,322	-200,000	-0,013	-0,105
-251,307	800,000	0,032	-0,071
-250,292	-200,000	0,032	-0,119
-249,278	-200,000	0,016	-0,091
-248,263	75,634	0,036	0,027
-247,249	289,325	0,001	-0,002
-246,234	-200,000	-0,009	-0,037
-245,219	297,495	0,006	0,008
-244,205	132,133	0,089	-0,081
-243,190	-105,918	0,116	-0,018
-242,176	-200,000	-0,012	-0,052
-241,161	477,614	0,025	-0,040
-240,146	-200,000	0,029	0,167
-239,132	-56,943	-0,100	0,031
-238,117	-200,000	0,001	-0,050
-237,103	-85,802	0,126	-0,027
-236,088	20,277	0,018	0,010
-235,073	800,000	-0,007	-0,022
-234,059	800,000	0,011	-0,029
-233,044	102,947	0,089	0,074
-232,030	800,000	0,053	-0,154
-231,015	662,913	-0,015	0,028
-230,000	800,000	0,065	0,161
-228,986	503,558	0,072	0,118
-227,971	-200,000	-0,010	0,081
-226,957	-123,249	0,065	0,007
-225,942	-200,000	0,001	0,016
-224,927	-64,499	0,087	-0,025
-223,913	451,288	-0,065	-0,103
-222,898	-200,000	0,006	-0,114
-221,884	125,560	0,026	-0,023
-220,869	-200,000	0,001	0,033
-219,855	-200,000	-0,010	0,081
-218,840	-200,000	-0,007	-0,042
-217,825	712,831	-0,060	0,113
-216,811	-106,612	0,038	-0,006
-215,796	-200,000	0,016	0,101
-214,782	-200,000	0,029	-0,108
-213,767	-200,000	0,020	-0,070
-212,752	-141,734	0,107	-0,007
-211,738	451,944	-0,041	0,065
-210,723	-200,000	-0,014	-0,079
-209,709	-82,079	0,017	0,004
-208,694	-92,520	-0,030	0,006
-207,679	800,000	-0,065	0,201
-206,665	-200,000	-0,008	0,130
-205,650	152,184	0,082	0,079
-204,636	-51,133	0,063	0,021
-203,621	-131,841	-0,021	-0,002
-202,606	136,764	-0,050	0,046
-201,592	105,611	0,096	-0,080
-200,577	-200,000	-0,016	-0,080
-199,563	367,025	-0,053	-0,077
-198,548	-76,657	0,217	0,054
-197,533	-137,651	0,097	0,008
-196,519	-200,000	-0,006	-0,125
-195,504	148,518	-0,111	-0,107
-194,490	26,061	-0,031	-0,019
-193,475	-200,000	-0,013	-0,072
-192,460	78,541	-0,138	0,104
-191,446	291,250	0,046	0,059
-190,431	107,918	-0,123	-0,104
-189,417	784,253	0,032	-0,062
-188,402	-75,193	-0,103	0,026
-187,387	-124,809	-0,041	-0,004
-186,373	-200,000	0,018	-0,096
-185,358	99,012	0,068	-0,056
-184,344	800,000	-0,025	-0,063
-183,329	-97,278	0,148	0,027
-182,315	-90,285	0,035	0,007
-181,300	-200,000	-0,010	-0,039
-180,285	-142,161	-0,210	0,015
-179,271	-200,000	-0,023	-0,145
-178,256	-200,000	0,001	-0,040
-177,242	-200,000	0,027	0,187
-176,227	-200,000	0,030	0,135
-175,212	-200,000	0,010	0,084
-174,198	-200,000	-0,032	0,135
-173,183	-64,544	0,062	-0,018
-172,169	653,719	0,058	-0,106
-171,154	800,000	-0,017	-0,044
-170,139	800,000	0,027	-0,053
-169,125	214,033	0,081	0,091
-168,110	-118,176	-0,078	0,010
-167,096	-200,000	-0,039	-0,151
-166,081	77,117	0,068	-0,051
-165,066	-200,000	-0,003	-0,026
-164,052	-19,636	0,056	-0,024
-163,037	800,000	0,116	-0,231
-162,023	-200,000	-0,017	-0,057
-161,008	331,498	0,026	-0,036
-159,993	-20,339	0,040	-0,017
-158,979	457,430	-0,017	-0,026
-157,964	-28,644	-0,027	0,011
-156,950	800,000	-0,012	-0,031
-155,935	37,046	0,076	0,048
-154,920	625,105	0,047	-0,084
-153,906	397,537	-0,045	-0,067
-152,891	-94,562	-0,061	0,012
-151,877	49,748	-0,049	-0,033
-150,862	-200,000	-0,027	-0,098
-149,847	-200,000	0,011	0,049
-148,833	-19,983	-0,041	0,018
-147,818	-102,715	-0,049	0,008
-146,804	725,697	0,059	0,112
-145,789	66,801	0,076	0,055
-144,775	-13,872	-0,113	-0,052
-143,760	800,000	-0,021	0,060
-142,745	271,023	0,055	-0,069
-141,731	90,503	0,002	-0,001
-140,716	-131,223	0,071	-0,007
-139,702	-4,165	0,078	-0,038
-138,687	800,000	0,005	-0,011
-137,672	-200,000	-0,000	0,033
-136,658	-200,000	0,013	0,049
-135,643	-60,958	-0,076	-0,023
-134,629	285,442	-0,019	-0,025
-133,614	219,242	-0,061	0,069
-132,599	-113,815	0,150	0,020
-131,585	-200,000	0,042	0,150
-130,570	267,152	0,049	-0,061
-129,556	-200,000	0,010	-0,038
-128,541	-200,000	0,003	-0,043
-127,526	-200,000	-0,031	0,182
-126,512	-67,274	-0,061	-0,017
-125,497	-200,000	0,021	0,098
-124,483	-132,135	-0,018	-0,002
-123,468	-71,815	0,175	-0,046
-122,453	3,204	0,052	0,027
-121,439	-179,196	-0,067	0,001
-120,424	-181,246	0,070	0,001
-119,410	210,326	0,109	-0,121
-118,395	-200,000	0,038	-0,181
-117,380	-59,382	0,140	0,042
-116,366	-200,000	-0,003	0,060
-115,351	149,428	0,124	-0,119
-114,337	285,777	-0,064	-0,081
-113,322	-200,000	0,002	-0,080
-112,307	-200,000	-0,005	0,059
-111,293	800,000	-0,051	0,134
-110,278	566,327	0,053	0,092
-109,264	800,000	0,014	-0,030
-108,249	436,414	0,014	-0,022
-107,234	-82,949	-0,044	0,010
-106,220	140,740	0,035	0,033
-105,205	-200,000	0,005	-0,091
-104,191	162,539	0,088	-0,087
-103,176	358,410	-0,037	0,052
-102,162	800,000	0,033	0,083
-101,147	-200,000	0,011	-0,107
-100,132	800,000	-0,027	0,060
-99,118	183,578	-0,061	-0,064
-98,103	800,000	0,031	-0,076
-97,089	-200,000	0,007	0,061
-96,074	-27,918	0,057	0,023
-95,059	13,797	0,168	0,092
-94,045	54,725	-0,076	-0,052
-93,030	800,000	0,038	-0,083
-92,016	-40,374	-0,092	-0,034
-91,001	42,659	0,047	-0,030
-89,986	800,000	-0,037	0,078
-88,972	66,287	0,123	0,089
-87,957	227,412	-0,057	0,066
-86,943	800,000	0,078	-0,169
-85,928	-4,002	-0,032	-0,015
-84,913	238,691	-0,124	0,146
-83,899	-49,306	0,095	0,032
-82,884	800,000	0,038	-0,103
-81,870	-25,734	0,108	-0,045
-80,855	-200,000	-0,006	-0,052
-79,840	258,887	-0,016	0,020
-78,826	51,924	-0,040	0,027
-77,811	-101,871	0,072	-0,012
-76,797	-61,386	0,076	0,022
-75,782	215,645	0,054	-0,060
-74,767	-99,024	-0,046	0,008
-73,753	419,368	-0,065	0,098
-72,738	284,287	0,054	0,069
-71,724	525,389	0,018	0,030
-70,709	400,105	0,026	-0,039
-69,694	-135,238	-0,111	-0,009
-68,680	-38,153	0,104	-0,039
-67,665	-200,000	-0,004	-0,013
-66,651	99,977	0,061	0,050
-65,636	-200,000	-0,001	-0,094
-64,622	261,439	0,104	-0,127
-63,607	-200,000	-0,014	-0,099
-62,592	-74,531	-0,142	0,036
-61,578	-200,000	0,027	-0,085
-60,563	-101,408	0,099	-0,017
-59,549	101,767	-0,121	0,099
-58,534	27,678	-2,068	-1,227
-57,519	564,008	-1,155	-1,983
-56,505	-200,000	-0,291	-4,411
-55,490	668,237	0,814	1,493
-54,476	800,000	4,960	11,194
-53,461	-200,000	21,100	338,188
-52,446	800,000	759,031	2352,018
-51,432	557,683	1661,785	2839,711
-50,417	73,536	1661,610	1226,904
-49,403	18,156	1534,779	861,841
-48,388	12,064	1458,287	789,427
-47,373	19,333	1449,158	819,328
-46,359	15,471	1438,652	794,991
-45,344	10,311	1434,755	768,236
-44,330	10,329	1432,695	767,186
-43,315	10,297	1430,749	765,963
-42,300	10,282	1429,098	764,975
-41,286	10,309	1427,850	764,407
-40,271	10,263	1426,510	763,442
-39,257	10,255	1425,391	762,773
-38,242	10,328	1424,367	762,540
-37,227	10,291	1423,211	761,719
-36,213	10,315	1421,937	761,120
-35,198	10,315	1420,665	760,408
-34,184	10,323	1420,066	760,093
-33,169	10,310	1418,632	759,235
-32,154	10,375	1417,384	758,842
-31,140	10,410	1416,024	758,250
-30,125	10,411	1415,060	757,708
-29,111	10,378	1413,932	756,917
-28,096	10,367	1412,716	756,184
-27,082	10,267	1411,772	755,182
-26,067	10,274	1410,825	754,676
-25,052	10,318	1409,588	754,191
-24,038	10,260	1408,645	753,385
-23,023	10,286	1407,506	752,868
-22,009	10,277	1406,547	752,284
-20,994	10,285	1405,329	751,640
-19,979	10,297	1404,853	751,409
-18,965	10,249	1403,625	750,501
-17,950	10,236	1402,889	750,017
-16,936	10,271	1401,858	749,598
-15,921	10,178	1401,256	748,816
-14,906	10,184	1400,415	748,364
-13,892	10,255	1399,158	747,990
-12,877	10,186	1398,382	747,225
-11,863	10,149	1397,494	746,550
-10,848	10,138	1396,714	746,052
-9,833	10,121	1395,689	745,395
-8,819	10,090	1394,841	744,772
-7,804	10,084	1393,959	744,243
-6,790	10,074	1393,144	743,731
-5,775	10,095	1391,944	743,158
-4,760	10,120	1390,907	742,692
-3,746	10,090	1390,062	742,071
-2,731	10,110	1389,195	741,674
-1,717	10,070	1388,217	740,938
-0,702	10,104	1386,359	740,070
0,313	14,161	1299,313	712,155
1,327	30,461	690,075	415,174
2,342	47,438	119,283	78,287
3,356	-3,165	16,585	8,129
4,371	1,187	3,472	1,752
5,386	-26,753	1,063	0,437
6,400	800,000	0,186	0,412
7,415	96,175	-0,204	-0,164
8,429	95,755	-0,340	-0,274
9,444	212,406	-0,244	-0,271
10,459	74,089	-0,239	-0,176
11,473	-107,684	-0,405	-0,062
12,488	3,870	-0,279	-0,143
13,502	-126,739	-0,341	0,035
14,517	28,266	-0,297	-0,176
15,531	-30,768	-0,319	-0,127
16,546	60,653	-0,370	-0,258
17,561	39,489	-0,329	-0,207
18,575	119,747	-0,151	-0,132
19,590	246,830	-0,217	-0,259
20,604	13,415	-0,312	-0,170
21,619	8,802	-0,474	-0,251
22,634	60,738	-0,538	-0,375
23,648	234,719	-0,391	-0,454
24,663	490,030	-0,302	-0,488
25,677	182,167	-0,412	-0,428
26,692	196,630	-0,355	-0,381
27,707	62,262	-0,372	-0,261
28,721	1,254	-0,273	-0,137
29,736	358,115	-0,262	-0,369
30,750	360,311	-0,309	-0,436
31,765	196,957	-0,239	-0,256
32,780	176,493	-0,250	-0,256
33,794	98,822	-0,229	-0,186
34,809	36,237	-0,387	-0,240
35,823	-1,688	-0,462	-0,228
36,838	127,087	-0,285	-0,254
37,853	84,613	-0,320	-0,246
38,867	71,942	-0,410	-0,300
39,882	79,489	-0,408	-0,308
40,896	145,277	-0,172	-0,162
41,911	181,806	-0,239	-0,247
42,926	421,361	-0,235	-0,355
43,940	37,176	-0,465	-0,289
44,955	75,908	-0,403	-0,299
45,969	150,159	-0,323	-0,308
46,984	-32,038	-0,323	-0,126
47,999	94,405	-0,378	-0,302
49,013	612,964	-0,171	-0,301
50,028	80,972	-0,325	-0,246
51,042	126,411	-0,201	-0,179
52,057	93,343	-0,294	-0,234
53,071	76,082	-0,322	-0,239
54,086	78,516	-0,298	-0,223
55,101	-44,800	-0,352	-0,123
56,115	21,604	-0,314	-0,179
57,130	-117,102	-0,358	-0,045
58,144	-64,905	-0,380	-0,107
59,159	-66,290	-0,521	-0,145
60,174	173,308	-0,279	-0,283
61,188	146,564	-0,370	-0,349
62,203	-32,101	-0,238	-0,093
63,217	120,059	-0,183	-0,159
64,232	55,254	-0,241	-0,163
65,247	-45,557	-0,471	-0,163
66,261	167,873	-0,289	-0,289
67,276	155,937	-0,292	-0,282
68,290	53,777	-0,321	-0,216
69,305	135,228	-0,314	-0,286
70,320	4,968	-0,337	-0,173
71,334	119,697	-0,306	-0,266
72,349	-65,091	-0,362	-0,102
73,363	159,789	-0,304	-0,297
74,378	98,450	-0,347	-0,280
75,393	144,831	-0,276	-0,259
76,407	-59,340	-0,317	-0,095
77,422	631,038	-0,149	-0,266
78,436	24,852	-0,391	-0,226
79,451	27,534	-0,328	-0,193
80,466	41,883	-0,453	-0,288
81,480	48,084	-0,351	-0,230
82,495	-3,444	-0,353	-0,172
83,509	18,454	-0,286	-0,160
84,524	-101,633	-0,325	-0,055
85,539	40,755	-0,270	-0,170
86,553	-31,393	-0,320	-0,125
87,568	800,000	-0,091	-0,255
88,582	56,031	-0,312	-0,212
89,597	150,045	-0,274	-0,260
90,611	198,590	-0,181	-0,194
91,626	0,255	-0,196	-0,098
92,641	-29,275	-0,290	-0,116
93,655	800,000	-0,137	-0,299
94,670	199,232	-0,248	-0,266
95,684	-0,035	-0,382	-0,190
96,699	94,093	-0,290	-0,230
97,714	191,715	-0,232	-0,245
98,728	-1,515	-0,259	-0,127
99,743	-74,868	-0,328	-0,082
100,757	-56,857	-0,333	-0,102
101,772	9,650	-0,346	-0,183
102,787	140,915	-0,281	-0,260
103,801	81,597	-0,220	-0,166
104,816	-46,740	-0,369	-0,126
105,830	-0,506	-0,170	-0,084
106,845	-18,625	-0,353	-0,153
107,860	-10,366	-0,283	-0,130
108,874	165,671	-0,269	-0,266
109,889	51,135	-0,210	-0,139
110,903	-26,282	-0,297	-0,121
111,918	-56,872	-0,342	-0,105
112,933	-50,729	-0,357	-0,117
113,947	24,824	-0,160	-0,092
114,962	-132,493	-0,361	-0,032
115,976	-49,767	-0,245	-0,081
116,991	154,182	-0,292	-0,280
118,006	57,609	-0,363	-0,248
119,020	-84,536	-0,358	-0,078
120,035	38,734	-0,192	-0,119
121,049	132,615	-0,243	-0,219
122,064	-0,076	-0,253	-0,126
123,079	-80,383	-0,393	-0,091
124,093	95,111	-0,171	-0,136
125,108	126,866	-0,196	-0,173
126,122	160,989	-0,187	-0,183
127,137	-5,805	-0,226	-0,108
128,151	99,493	-0,232	-0,188
129,166	91,308	-0,231	-0,181
130,181	-97,215	-0,229	-0,041
131,195	-40,258	-0,295	-0,106
132,210	108,417	-0,253	-0,210
133,224	137,962	-0,255	-0,233
134,239	-113,673	-0,222	-0,030
135,254	-46,686	-0,261	-0,089
136,268	35,089	-0,297	-0,181
137,283	78,466	-0,179	-0,133
138,297	-123,385	-0,233	-0,026
139,312	80,503	-0,244	-0,183
140,327	15,115	-0,260	-0,142
141,341	44,168	-0,206	-0,131
142,356	-62,108	-0,375	-0,108
143,370	-110,026	-0,264	-0,038
144,385	-91,342	-0,264	-0,052
145,400	800,000	-0,107	-0,229
146,414	277,259	-0,302	-0,375
147,429	161,602	-0,206	-0,201
148,443	70,105	-0,307	-0,220
149,458	169,234	-0,151	-0,150
150,473	305,001	-0,123	-0,160
151,487	89,874	-0,288	-0,224
152,502	24,689	-0,366	-0,210
153,516	70,005	-0,368	-0,264
154,531	414,614	-0,193	-0,286
155,546	-10,668	-0,413	-0,189
156,560	89,555	-0,118	-0,092
157,575	-90,669	-0,203	0,040
158,589	197,811	-0,250	-0,266
159,604	31,851	-0,220	-0,131
160,619	-31,985	-0,304	-0,118
161,633	-35,393	-0,285	-0,107
162,648	267,346	-0,218	-0,266
163,662	289,416	-0,142	-0,179
164,677	-66,358	-0,318	-0,087
165,692	800,000	-0,128	-0,248
166,706	40,081	-0,217	-0,135
167,721	331,404	-0,225	-0,303
168,735	260,220	-0,219	-0,264
169,750	86,879	-0,265	-0,203
170,764	88,450	-0,204	-0,158
171,779	270,157	-0,140	-0,171
172,794	92,632	-0,277	-0,217
173,808	-1,404	-0,189	-0,092
174,823	317,576	-0,148	-0,195
175,837	92,287	-0,167	-0,131
176,852	52,413	-0,311	-0,206
177,867	201,334	-0,094	-0,100
178,881	40,673	-0,079	-0,049
179,896	-55,040	-0,120	-0,037
180,910	53,304	-0,214	-0,142
181,925	170,098	-0,176	-0,175
182,940	-105,383	-0,285	-0,045
183,954	800,000	-0,133	-0,257
184,969	-75,389	-0,148	-0,036
185,983	15,641	-0,135	-0,074
186,998	166,366	-0,098	-0,097
188,013	-2,198	-0,125	-0,060
189,027	-21,784	-0,308	-0,129
190,042	154,885	-0,270	-0,257
191,056	75,107	-0,147	-0,107
192,071	800,000	-0,065	-0,187
193,086	220,279	-0,244	-0,272
194,100	52,168	-0,267	-0,176
195,115	147,948	-0,126	-0,118
196,129	100,409	-0,282	-0,227
197,144	228,713	-0,187	-0,212
198,159	-13,290	-0,230	-0,103
199,173	95,397	-0,200	-0,158
200,188	62,785	-0,127	-0,088
201,202	35,382	-0,190	-0,115
202,217	102,565	-0,211	-0,171
203,232	274,475	-0,071	-0,087
204,246	14,114	-0,120	-0,065
205,261	102,689	-0,198	-0,160
206,275	154,042	-0,116	-0,110
207,290	264,262	-0,116	-0,140
208,304	800,000	-0,060	-0,137
209,319	-22,077	-0,205	-0,086
210,334	800,000	-0,086	-0,179
211,348	-124,847	-0,228	-0,024
212,363	16,420	-0,155	-0,084
213,377	-102,316	-0,126	0,021
214,392	141,717	-0,063	0,058
215,407	639,506	-0,120	-0,212
216,421	486,528	-0,126	-0,200
217,436	334,446	-0,196	-0,264
218,450	-57,389	-0,174	-0,053
219,465	15,894	-0,288	-0,157
220,480	-1,344	-0,231	-0,112
221,494	-195,160	-0,073	-0,000
222,509	10,727	-0,151	-0,080
223,523	-80,242	-0,178	-0,041
224,538	88,131	-0,193	-0,148
225,553	-6,232	-0,267	-0,126
226,567	71,559	-0,143	0,102
227,582	30,602	-0,146	-0,086
228,596	-126,481	-0,271	0,028
229,611	646,831	-0,060	-0,106
230,626	800,000	-0,097	-0,218
231,640	113,229	-0,239	-0,201
232,655	178,990	-0,144	-0,145
233,669	87,080	-0,259	-0,197
234,684	193,159	-0,218	-0,228
235,699	91,398	-0,185	-0,143
236,713	-84,160	-0,176	-0,038
237,728	-71,120	-0,079	-0,020
238,742	138,599	-0,150	-0,136
239,757	176,414	-0,122	-0,123
240,772	-32,983	-0,234	-0,089
241,786	62,085	-0,231	-0,159
242,801	-99,609	-0,245	-0,042
243,815	-107,817	-0,128	-0,019
244,830	539,148	-0,079	-0,131
245,844	800,000	-0,060	-0,127
246,859	60,452	-0,227	-0,155
247,874	-67,358	-0,257	-0,069
248,888	118,769	-0,158	-0,134
249,903	-125,828	-0,040	-0,004
250,917	38,388	-0,138	-0,085
251,932	46,990	-0,140	-0,090
252,947	140,049	-0,107	-0,097
253,961	351,998	-0,198	-0,272
254,976	29,681	-0,325	-0,190
255,990	291,045	-0,108	-0,136
257,005	46,007	-0,209	-0,133
258,020	331,651	-0,109	-0,146
259,034	-2,443	-0,255	-0,123
260,049	98,007	-0,155	-0,123
261,063	33,407	-0,236	-0,141
262,078	-13,865	-0,347	-0,154
263,093	-76,371	-0,145	-0,035
264,107	8,165	-0,249	-0,128
265,122	-108,774	-0,200	0,029
266,136	298,053	-0,189	-0,240
267,151	208,514	-0,222	-0,240
268,166	-115,526	-0,182	-0,023
269,180	59,949	-0,202	-0,137
270,195	-200,000	-0,057	-0,206
271,209	-125,288	-0,138	-0,014
272,224	-200,000	0,030	-0,115
273,239	-165,261	-0,153	-0,005
274,253	81,927	-0,092	-0,069
275,268	800,000	-0,095	-0,189
276,282	50,944	-0,032	-0,021
277,297	-200,000	-0,038	-0,154
278,312	405,840	-0,144	-0,210
279,326	-6,138	-0,054	-0,025
280,341	383,387	-0,064	0,091
281,355	-200,000	-0,046	-0,143
282,370	93,445	-0,193	-0,150
283,384	-55,839	-0,291	-0,089
284,399	85,947	-0,221	-0,167
285,414	387,760	-0,072	-0,103
286,428	55,737	-0,072	0,048
287,443	280,100	-0,073	-0,089
288,457	1,323	-0,147	-0,073
289,472	234,553	-0,104	-0,118
290,487	-121,919	-0,343	-0,038
291,501	184,724	-0,202	-0,207
292,516	28,434	-0,152	-0,088
293,530	512,839	-0,085	-0,137
294,545	469,241	-0,092	-0,142
295,560	-16,350	-0,181	-0,079
296,574	-60,483	-0,178	-0,052
297,589	66,094	-0,196	-0,136
298,603	-43,904	-0,234	-0,081
299,618	-28,050	-0,099	-0,039
300,633	256,127	-0,180	-0,213
301,647	-88,142	-0,120	0,025
302,662	747,704	-0,075	-0,139
303,676	-37,787	-0,198	-0,072
304,691	800,000	-0,022	-0,060
305,706	80,975	-0,249	-0,184
306,720	-14,586	-0,194	-0,085
307,735	-117,135	-0,096	0,012
308,749	101,533	-0,091	-0,073
309,764	-200,000	-0,027	-0,100
310,779	-200,000	0,025	-0,100
311,793	113,158	-0,254	-0,211
312,808	156,753	-0,215	-0,204
313,822	285,254	-0,132	-0,163
314,837	-63,665	-0,214	-0,060
315,852	-134,562	-0,081	0,007
316,866	45,592	-0,122	-0,077
317,881	-95,717	-0,022	-0,004
318,895	800,000	-0,046	-0,092
319,910	39,719	-0,180	-0,110
320,925	31,314	-0,200	-0,118
321,939	-87,343	-0,217	0,045
322,954	453,735	-0,029	-0,045
323,968	-120,868	-0,206	0,024
324,983	-99,590	-0,095	0,016
325,997	-58,263	-0,112	-0,033
327,012	229,971	-0,097	-0,109
328,027	506,014	-0,076	-0,122
329,041	157,581	-0,149	-0,141
330,056	-16,879	-0,108	-0,047
331,070	83,806	-0,126	0,094
332,085	170,124	-0,122	0,120
333,100	-79,198	-0,177	-0,041
334,114	252,786	-0,190	-0,222
335,129	-200,000	-0,062	-0,191
336,143	-118,944	-0,017	-0,002
337,158	155,118	-0,205	-0,194
338,173	-200,000	-0,002	-0,027
339,187	-200,000	-0,154	-0,000
340,202	203,141	-0,133	-0,141
341,216	800,000	-0,069	-0,143
342,231	114,293	-0,107	-0,089
343,246	-200,000	0,004	-0,016
344,260	375,328	-0,097	-0,136
345,275	269,604	-0,102	-0,122
346,289	800,000	-0,033	-0,067
347,304	-89,876	-0,109	-0,022
348,319	73,503	-0,172	-0,123
349,333	800,000	-0,125	-0,264
350,348	474,194	-0,107	-0,166
351,362	800,000	-0,045	-0,088
352,377	70,055	-0,096	-0,068
353,392	-200,000	-0,061	-0,206
354,406	2,521	-0,171	0,085
355,421	206,888	1310,544	1398,606
356,435	159,131	1470,739	1399,092
