DTS Sentinel unit serial number:	SN410029Multiplexer serial number:	ORYXHardware model number:	OX2-SRSoftware version number:	ORYX F/W v4,00 Oryx Data Collector v3.7.2.0data status	okinstallation	B3 Nyhavnadifferential loss correction	single-endedforward channel	channel 1reverse channel	N/Adate	2023/12/05time	03:37:30forward acquisition time	300,00reverse acquisition time	0,00gamma	499,1914k internal	0,3201k external	0,3201temperature offset calibration	1,0000default loss term (dB/km)	0,3820temperature slope calibration	1,0000multiplexer offset coefficient	1,0000multiplexer slope coefficient	1,0000fibre end	0,00T internal ref (°C)	14,12T ext. ref 1 (°C)	-0,63T ext. ref 2 (°C)	-0,67length (m)	temperature (°C)	Stokes	anti-Stokes-744,400	54,743	-0,207	-0,145
-743,385	-200,000	-0,071	0,253
-742,371	800,000	-0,149	-0,309
-741,356	-200,000	0,010	0,378
-740,342	91,779	-0,221	-0,181
-739,327	-200,000	0,010	0,242
-738,312	55,291	-0,340	-0,239
-737,298	122,356	-0,190	0,173
-736,283	108,791	-0,296	-0,257
-735,269	-200,000	0,078	0,362
-734,254	29,672	-0,133	-0,082
-733,239	-43,525	-0,211	0,077
-732,225	800,000	-0,112	-0,286
-731,210	326,804	0,093	0,129
-730,196	292,523	-0,071	-0,094
-729,181	206,796	0,028	-0,032
-728,167	44,494	-0,035	0,023
-727,152	800,000	-0,053	-0,132
-726,137	13,006	-0,065	-0,036
-725,123	800,000	0,036	-0,091
-724,108	-200,000	0,004	-0,099
-723,094	73,591	-0,148	-0,113
-722,079	574,898	-0,075	-0,134
-721,064	-200,000	-0,011	-0,183
-720,050	-200,000	-0,020	0,075
-719,035	800,000	0,029	0,085
-718,021	-200,000	0,021	-0,086
-717,006	121,654	-0,134	-0,122
-715,991	800,000	-0,084	-0,177
-714,977	-69,807	-0,113	-0,031
-713,962	-121,031	-0,056	0,007
-712,948	-138,463	-0,109	-0,009
-711,933	800,000	-0,021	-0,053
-710,918	490,423	-0,037	-0,062
-709,904	462,606	-0,090	-0,146
-708,889	371,070	-0,052	-0,076
-707,875	95,592	-0,018	-0,015
-706,860	800,000	0,048	-0,123
-705,845	-54,505	-0,064	-0,021
-704,831	-40,491	-0,054	-0,020
-703,816	-200,000	-0,008	-0,071
-702,802	-200,000	0,017	0,069
-701,787	-152,064	-0,171	0,009
-700,772	213,599	0,014	-0,017
-699,758	26,304	-0,045	0,027
-698,743	-200,000	0,001	-0,032
-697,729	153,359	0,149	0,148
-696,714	-19,927	0,043	0,019
-695,699	800,000	-0,016	0,047
-694,685	800,000	-0,025	-0,052
-693,670	-200,000	0,015	-0,075
-692,656	800,000	-0,022	-0,058
-691,641	800,000	-0,039	-0,091
-690,627	-200,000	0,006	0,050
-689,612	735,011	0,050	0,097
-688,597	-200,000	-0,029	-0,170
-687,583	172,367	0,051	-0,053
-686,568	-80,990	-0,073	0,018
-685,554	-12,271	-0,082	-0,039
-684,539	46,955	0,108	-0,073
-683,524	-48,823	0,049	0,017
-682,510	800,000	0,015	-0,039
-681,495	-133,640	-0,121	-0,011
-680,481	88,908	-0,063	0,050
-679,466	-46,837	-0,140	-0,049
-678,451	41,658	0,038	-0,025
-677,437	-200,000	-0,011	0,140
-676,422	-176,117	0,120	-0,002
-675,408	-120,897	-0,160	0,019
-674,393	26,214	-0,060	-0,036
-673,378	-200,000	-0,032	-0,181
-672,364	107,050	-0,074	-0,064
-671,349	-82,099	-0,175	0,041
-670,335	-200,000	0,013	0,043
-669,320	118,277	0,098	-0,088
-668,305	800,000	-0,015	0,044
-667,291	-200,000	0,014	-0,104
-666,276	171,902	0,098	-0,102
-665,262	800,000	-0,084	-0,199
-664,247	376,138	-0,062	-0,092
-663,232	-200,000	0,021	0,112
-662,218	246,165	0,035	0,043
-661,203	800,000	0,050	0,142
-660,189	-100,271	0,084	0,015
-659,174	81,338	-0,027	-0,021
-658,159	-200,000	-0,022	0,084
-657,145	-129,096	-0,039	-0,004
-656,130	17,264	0,077	-0,044
-655,116	-94,455	-0,080	-0,016
-654,101	800,000	0,008	0,019
-653,086	-200,000	0,004	-0,087
-652,072	-65,318	-0,094	0,027
-651,057	81,315	-0,055	-0,043
-650,043	354,059	-0,024	0,034
-649,028	-4,185	0,041	-0,020
-648,014	-176,492	0,113	0,002
-646,999	-77,460	0,066	-0,016
-645,984	-131,306	0,069	-0,007
-644,970	-152,883	-0,118	-0,006
-643,955	18,656	-0,053	0,031
-642,941	367,637	-0,097	-0,143
-641,926	-200,000	0,007	-0,084
-640,911	3,154	0,151	-0,079
-639,897	-32,154	-0,086	0,034
-638,882	-74,287	-0,087	-0,023
-637,868	557,178	-0,042	0,073
-636,853	-0,347	-0,187	0,096
-635,838	-200,000	-0,021	-0,070
-634,824	96,137	0,066	0,055
-633,809	-71,412	-0,054	-0,014
-632,795	-200,000	-0,005	0,046
-631,780	-200,000	-0,008	-0,058
-630,765	99,040	0,036	-0,030
-629,751	-163,785	-0,153	0,005
-628,736	-200,000	0,023	-0,084
-627,722	276,450	0,080	-0,104
-626,707	800,000	0,037	-0,085
-625,692	653,387	0,046	0,086
-624,678	366,216	-0,069	0,102
-623,663	85,475	0,022	-0,018
-622,649	160,391	0,115	-0,116
-621,634	223,669	-0,068	-0,079
-620,619	-97,557	-0,153	0,028
-619,605	12,252	0,035	-0,019
-618,590	205,902	0,058	0,065
-617,576	374,773	-0,022	-0,032
-616,561	-200,000	-0,013	0,135
-615,546	93,287	-0,081	0,066
-614,532	35,887	0,040	-0,025
-613,517	-200,000	-0,018	-0,190
-612,503	349,853	0,040	0,058
-611,488	583,924	0,031	-0,055
-610,474	580,981	-0,019	0,033
-609,459	144,889	-0,107	0,103
-608,444	158,118	0,059	-0,060
-607,430	-200,000	-0,014	0,046
-606,415	-200,000	0,032	-0,119
-605,401	54,084	-0,047	-0,032
-604,386	-95,771	0,149	-0,029
-603,371	402,361	0,072	0,110
-602,357	-144,872	0,146	-0,009
-601,342	583,613	0,021	-0,037
-600,328	-71,383	-0,067	0,018
-599,313	392,724	-0,103	-0,155
-598,298	-200,000	-0,008	-0,124
-597,284	-100,924	0,082	-0,014
-596,269	-200,000	0,001	-0,004
-595,255	-89,477	0,020	-0,004
-594,240	-200,000	-0,078	-0,000
-593,225	-101,241	-0,047	-0,008
-592,211	194,072	-0,058	-0,063
-591,196	-200,000	0,030	-0,154
-590,182	-30,701	0,178	0,073
-589,167	45,925	0,133	0,089
-588,152	-200,000	-0,038	-0,131
-587,138	800,000	-0,029	-0,070
-586,123	-200,000	-0,015	-0,066
-585,109	800,000	-0,052	0,117
-584,094	126,295	-0,047	-0,043
-583,079	-200,000	-0,006	-0,028
-582,065	-29,496	0,022	0,009
-581,050	243,301	0,042	-0,051
-580,036	-124,989	-0,041	0,005
-579,021	36,787	0,087	0,056
-578,006	800,000	0,020	-0,056
-576,992	800,000	0,006	0,014
-575,977	800,000	0,048	0,103
-574,963	79,950	0,063	0,049
-573,948	272,993	-0,086	0,110
-572,934	-8,707	0,154	0,074
-571,919	-91,487	-0,048	-0,010
-570,904	800,000	-0,034	-0,078
-569,890	246,957	0,024	0,030
-568,875	202,959	-0,046	0,051
-567,861	408,020	-0,018	0,027
-566,846	-85,312	-0,066	0,015
-565,831	-68,022	-0,113	0,032
-564,817	-200,000	-0,014	0,059
-563,802	-84,573	-0,004	0,001
-562,788	-200,000	0,004	0,033
-561,773	-69,945	0,105	0,029
-560,758	-200,000	0,009	0,060
-559,744	-200,000	0,005	0,164
-558,729	-200,000	-0,003	0,181
-557,715	-35,955	-0,043	-0,017
-556,700	-200,000	0,006	-0,222
-555,685	491,489	-0,096	-0,160
-554,671	187,299	0,052	0,056
-553,656	-200,000	0,019	0,128
-552,642	-167,031	0,087	0,003
-551,627	-200,000	-0,024	0,122
-550,612	800,000	0,013	-0,030
-549,598	-121,295	0,042	-0,005
-548,583	104,310	-0,163	0,138
-547,569	126,088	0,094	0,085
-546,554	800,000	0,058	0,147
-545,539	497,302	-0,023	-0,039
-544,525	-110,111	0,075	0,011
-543,510	222,721	0,026	0,030
-542,496	-200,000	0,015	0,056
-541,481	72,327	0,045	0,033
-540,466	-86,677	0,040	-0,009
-539,452	-41,332	-0,039	0,014
-538,437	-200,000	0,022	0,112
-537,423	180,056	0,091	0,096
-536,408	-200,000	-0,022	0,115
-535,393	-200,000	-0,001	0,070
-534,379	3,098	0,106	-0,055
-533,364	-200,000	0,030	0,099
-532,350	31,829	0,138	0,086
-531,335	117,525	-0,051	0,045
-530,321	-60,002	0,155	0,048
-529,306	-154,309	0,133	-0,006
-528,291	-200,000	0,012	-0,055
-527,277	-69,267	0,097	0,027
-526,262	364,133	-0,030	-0,044
-525,248	-143,415	0,194	0,013
-524,233	-200,000	-0,033	-0,106
-523,218	-19,089	-0,073	-0,032
-522,204	136,321	0,012	0,012
-521,189	-80,072	0,070	-0,017
-520,175	153,863	-0,138	-0,136
-519,160	411,844	0,055	-0,084
-518,145	97,671	-0,114	0,094
-517,131	652,777	-0,042	-0,077
-516,116	246,780	0,068	0,083
-515,102	800,000	0,083	-0,170
-514,087	-76,737	0,062	-0,016
-513,072	549,926	-0,051	-0,089
-512,058	-200,000	-0,014	-0,205
-511,043	-200,000	-0,005	0,179
-510,029	-101,732	0,038	0,006
-509,014	434,936	0,053	-0,083
-507,999	374,238	-0,109	0,161
-506,985	167,933	-0,033	0,034
-505,970	-200,000	-0,047	-0,265
-504,956	516,849	0,081	-0,136
-503,941	345,814	-0,021	-0,030
-502,926	-170,001	0,181	0,005
-501,912	93,406	-0,110	-0,090
-500,897	-72,683	0,080	0,021
-499,883	800,000	-0,064	0,141
-498,868	-200,000	-0,001	-0,038
-497,853	179,632	0,082	0,086
-496,839	-139,734	-0,034	0,003
-495,824	-200,000	-0,020	0,101
-494,810	-22,209	0,050	0,022
-493,795	-200,000	-0,006	-0,096
-492,781	-200,000	-0,010	-0,060
-491,766	800,000	0,041	0,094
-490,751	37,031	-0,104	-0,066
-489,737	800,000	0,070	-0,148
-488,722	-200,000	-0,041	0,129
-487,708	-94,489	-0,020	0,004
-486,693	525,560	-0,050	-0,085
-485,678	-165,229	0,039	0,001
-484,664	616,447	-0,044	-0,079
-483,649	800,000	0,035	-0,093
-482,635	252,400	-0,107	-0,132
-481,620	60,621	0,110	0,079
-480,605	674,678	0,050	0,093
-479,591	-81,540	0,228	0,053
-478,576	33,396	-0,108	-0,067
-477,562	287,685	0,087	-0,114
-476,547	-200,000	-0,041	-0,151
-475,532	-29,616	0,069	-0,028
-474,518	-151,795	0,102	-0,005
-473,503	-200,000	0,000	-0,040
-472,489	664,330	0,038	-0,071
-471,474	-200,000	-0,019	-0,094
-470,459	-200,000	-0,012	-0,103
-469,445	800,000	-0,034	-0,077
-468,430	455,749	-0,066	-0,105
-467,416	456,462	0,039	-0,063
-466,401	800,000	-0,025	0,068
-465,386	-200,000	0,006	-0,061
-464,372	123,638	-0,187	0,169
-463,357	148,559	0,063	-0,061
-462,343	-200,000	0,015	-0,130
-461,328	144,286	0,112	-0,108
-460,313	103,769	0,055	0,046
-459,299	-200,000	0,012	0,046
-458,284	70,713	0,114	0,085
-457,270	-200,000	0,004	0,100
-456,255	139,497	0,045	-0,042
-455,241	-200,000	-0,019	-0,107
-454,226	-200,000	0,018	-0,069
-453,211	-176,937	-0,084	-0,001
-452,197	-200,000	0,040	0,128
-451,182	800,000	0,032	0,094
-450,168	-200,000	-0,004	0,068
-449,153	-200,000	0,004	-0,022
-448,138	-164,834	-0,161	0,005
-447,124	132,087	-0,137	-0,127
-446,109	-68,299	0,064	0,018
-445,095	152,940	-0,077	0,076
-444,080	711,229	0,032	0,062
-443,065	-10,254	0,053	-0,025
-442,051	261,351	0,074	0,092
-441,036	-200,000	-0,006	0,105
-440,022	-170,558	-0,075	0,002
-439,007	-191,777	0,097	0,001
-437,992	-32,622	0,100	0,040
-436,978	-200,000	-0,020	0,087
-435,963	-200,000	0,009	0,081
-434,949	800,000	0,030	0,083
-433,934	233,076	-0,045	0,053
-432,919	-92,070	0,075	0,015
-431,905	-200,000	0,004	-0,035
-430,890	-200,000	0,025	0,141
-429,876	286,971	-0,034	0,044
-428,861	800,000	0,069	-0,159
-427,846	-43,375	0,155	0,056
-426,832	121,756	-0,101	-0,090
-425,817	145,131	-0,037	0,035
-424,803	-44,357	-0,084	-0,030
-423,788	-200,000	-0,009	-0,047
-422,773	-64,151	0,026	-0,008
-421,759	-74,075	-0,043	0,011
-420,744	546,495	0,020	-0,035
-419,730	185,983	0,127	0,136
-418,715	-24,972	-0,202	-0,086
-417,701	-200,000	0,013	0,063
-416,686	-200,000	-0,013	0,112
-415,671	276,659	-0,017	-0,022
-414,657	-200,000	-0,006	0,042
-413,642	-1,371	-0,053	0,027
-412,628	124,659	-0,088	0,080
-411,613	-178,363	0,033	0,001
-410,598	-200,000	-0,041	-0,161
-409,584	-200,000	-0,003	-0,024
-408,569	-200,000	0,012	0,076
-407,555	800,000	-0,014	-0,036
-406,540	-200,000	0,049	0,166
-405,525	250,612	0,022	-0,027
-404,511	145,978	-0,152	-0,147
-403,496	-200,000	0,049	-0,158
-402,482	-200,000	0,038	-0,146
-401,467	33,929	-0,063	0,040
-400,452	-186,952	0,047	0,000
-399,438	-52,836	0,101	-0,033
-398,423	800,000	-0,029	-0,070
-397,409	99,574	-0,050	-0,041
-396,394	-50,652	0,074	-0,025
-395,379	-12,057	0,049	-0,023
-394,365	800,000	-0,037	0,096
-393,350	170,980	0,056	-0,057
-392,336	-180,525	0,058	-0,001
-391,321	-184,392	0,114	0,001
-390,306	121,747	0,067	0,060
-389,292	-53,094	-0,085	-0,028
-388,277	120,056	-0,076	-0,067
-387,263	451,224	0,020	0,031
-386,248	-200,000	-0,021	-0,104
-385,233	605,363	-0,096	0,173
-384,219	38,464	-0,139	-0,089
-383,204	13,343	0,016	0,009
-382,190	124,606	-0,121	-0,109
-381,175	209,285	0,010	0,011
-380,160	-200,000	0,022	-0,080
-379,146	-96,632	0,076	-0,014
-378,131	215,307	0,117	0,134
-377,117	721,138	-0,024	-0,045
-376,102	157,182	-0,141	-0,140
-375,088	800,000	-0,050	-0,105
-374,073	73,273	-0,026	-0,019
-373,058	-82,183	0,111	-0,026
-372,044	-114,724	-0,046	0,006
-371,029	800,000	0,065	-0,145
-370,015	-200,000	-0,032	0,201
-369,000	-102,542	-0,032	0,005
-367,985	373,791	-0,079	0,116
-366,971	-200,000	-0,002	0,013
-365,956	623,339	-0,009	-0,017
-364,942	800,000	-0,080	0,191
-363,927	-25,675	-0,060	0,025
-362,912	4,045	-0,012	0,006
-361,898	58,970	-0,135	-0,095
-360,883	800,000	-0,083	-0,181
-359,869	-7,426	0,030	-0,015
-358,854	-144,407	-0,086	0,006
-357,839	156,566	-0,052	0,051
-356,825	-200,000	-0,018	0,103
-355,810	-200,000	-0,005	0,048
-354,796	602,667	0,072	0,128
-353,781	-200,000	0,045	0,144
-352,766	607,649	0,081	-0,145
-351,752	-10,096	-0,082	-0,039
-350,737	-104,100	-0,062	0,010
-349,723	-200,000	0,015	0,086
-348,708	-200,000	0,006	-0,076
-347,693	270,600	0,023	-0,029
-346,679	433,541	-0,026	-0,040
-345,664	361,020	-0,034	0,049
-344,650	-137,009	-0,040	0,003
-343,635	-200,000	0,028	0,163
-342,620	160,743	0,064	0,064
-341,606	323,779	0,032	-0,044
-340,591	16,695	0,057	0,032
-339,577	16,228	-0,039	0,022
-338,562	537,260	0,037	0,064
-337,548	800,000	0,011	-0,024
-336,533	-31,516	-0,019	-0,008
-335,518	-200,000	0,008	0,033
-334,504	-200,000	-0,001	0,051
-333,489	-200,000	-0,011	0,046
-332,475	-200,000	-0,009	-0,120
-331,460	169,427	-0,065	-0,067
-330,445	331,781	0,108	0,149
-329,431	472,865	0,106	0,171
-328,416	128,993	0,028	0,026
-327,402	149,251	-0,083	0,080
-326,387	114,629	-0,076	0,066
-325,372	-200,000	-0,015	-0,070
-324,358	751,270	-0,030	-0,057
-323,343	584,585	-0,038	-0,067
-322,329	52,279	0,035	-0,024
-321,314	723,438	0,066	0,126
-320,299	137,812	-0,056	-0,052
-319,285	-126,369	-0,055	0,006
-318,270	-200,000	-0,029	0,147
-317,256	800,000	-0,037	-0,091
-316,241	-200,000	-0,063	0,213
-315,226	8,463	0,167	-0,090
-314,212	800,000	-0,014	-0,040
-313,197	154,469	-0,153	0,151
-312,183	41,561	-0,031	-0,020
-311,168	335,096	0,116	-0,161
-310,153	-19,495	0,163	-0,072
-309,139	-98,862	-0,039	-0,007
-308,124	-50,124	-0,018	-0,006
-307,110	438,677	0,057	0,090
-306,095	800,000	0,046	0,108
-305,080	-134,904	0,182	-0,016
-304,066	-182,548	-0,135	-0,002
-303,051	-200,000	0,017	-0,143
-302,037	-11,415	-0,136	-0,064
-301,022	78,214	0,094	-0,071
-300,008	-168,170	0,055	-0,002
-298,993	800,000	-0,045	0,102
-297,978	800,000	-0,036	0,071
-296,964	523,615	-0,032	0,053
-295,949	-70,242	-0,168	-0,045
-294,935	-62,901	-0,117	0,034
-293,920	472,201	-0,031	0,050
-292,905	-200,000	0,007	0,117
-291,891	487,156	-0,065	0,107
-290,876	206,019	0,103	0,115
-289,862	800,000	0,069	-0,193
-288,847	-0,787	-0,137	-0,069
-287,832	-200,000	0,025	-0,091
-286,818	176,233	-0,123	-0,127
-285,803	-200,000	-0,005	0,023
-284,789	722,982	0,025	-0,049
-283,774	800,000	0,036	0,087
-282,759	420,561	0,022	0,034
-281,745	-200,000	-0,023	-0,096
-280,730	3,099	-0,072	0,037
-279,716	135,193	-0,047	-0,044
-278,701	-200,000	0,023	-0,102
-277,686	542,892	-0,031	0,053
-276,672	83,377	0,083	0,064
-275,657	-200,000	0,000	-0,046
-274,643	779,873	0,026	-0,051
-273,628	800,000	0,024	0,053
-272,613	-180,482	0,106	0,002
-271,599	365,027	-0,050	0,073
-270,584	158,334	-0,047	0,047
-269,570	-113,133	0,116	-0,016
-268,555	56,556	-0,038	-0,026
-267,540	-146,690	0,064	0,004
-266,526	-200,000	-0,010	-0,072
-265,511	-85,664	-0,070	0,015
-264,497	800,000	-0,022	0,046
-263,482	295,250	0,068	0,089
-262,467	800,000	0,044	0,088
-261,453	800,000	-0,027	0,060
-260,438	-98,607	0,135	0,024
-259,424	43,173	-0,051	-0,033
-258,409	800,000	-0,026	-0,075
-257,395	-64,661	-0,147	0,042
-256,380	126,771	0,118	-0,107
-255,365	307,373	-0,073	0,097
-254,351	357,218	0,066	0,094
-253,336	-130,619	-0,101	-0,010
-252,322	90,783	-0,120	0,096
-251,307	224,962	-0,028	-0,033
-250,292	800,000	0,048	-0,139
-249,278	68,833	0,022	0,016
-248,263	-107,695	-0,016	-0,002
-247,249	338,524	-0,039	0,054
-246,234	185,857	-0,045	-0,048
-245,219	800,000	-0,056	-0,125
-244,205	-200,000	-0,006	-0,122
-243,190	800,000	-0,009	0,024
-242,176	641,918	-0,047	0,085
-241,161	-95,273	-0,024	0,005
-240,146	411,535	0,031	-0,048
-239,132	800,000	-0,048	-0,111
-238,117	412,671	-0,086	-0,131
-237,103	128,142	-0,119	-0,108
-236,088	-200,000	-0,009	-0,038
-235,073	127,237	0,088	-0,080
-234,059	-13,104	0,174	0,080
-233,044	-143,096	-0,084	-0,006
-232,030	254,792	-0,064	0,078
-231,015	-118,833	0,028	0,003
-230,000	569,935	0,042	-0,073
-228,986	-200,000	-0,002	-0,132
-227,971	-200,000	0,062	0,232
-226,957	-130,696	0,127	0,012
-225,942	-200,000	-0,020	0,107
-224,927	64,416	-0,092	0,066
-223,913	246,755	-0,028	-0,034
-222,898	-200,000	-0,018	-0,086
-221,884	-200,000	0,001	-0,082
-220,869	341,410	-0,062	0,087
-219,855	105,252	0,080	-0,067
-218,840	-91,416	0,022	-0,005
-217,825	153,279	0,043	0,042
-216,811	800,000	0,044	-0,128
-215,796	-200,000	0,012	-0,074
-214,782	160,237	-0,094	-0,094
-213,767	764,608	-0,033	-0,065
-212,752	-114,077	-0,016	-0,002
-211,738	-200,000	-0,018	0,158
-210,723	-41,350	0,139	0,051
-209,709	49,546	-0,146	-0,098
-208,694	40,026	-0,128	-0,082
-207,679	112,315	0,056	0,048
-206,665	109,415	0,016	-0,014
-205,650	731,103	0,066	0,127
-204,636	48,761	0,131	0,087
-203,621	-186,629	-0,035	0,000
-202,606	421,606	-0,036	-0,055
-201,592	147,370	-0,072	-0,069
-200,577	180,829	0,026	0,027
-199,563	729,771	0,064	-0,123
-198,548	378,672	0,055	-0,081
-197,533	132,837	-0,031	-0,028
-196,519	129,701	0,068	0,062
-195,504	85,172	-0,085	-0,066
-194,490	-124,566	-0,129	0,014
-193,475	-200,000	-0,007	-0,036
-192,460	-118,425	-0,147	0,018
-191,446	-200,000	0,003	0,041
-190,431	-115,240	-0,047	0,006
-189,417	-174,125	-0,006	0,000
-188,402	-52,845	0,052	0,017
-187,387	375,114	-0,028	-0,041
-186,373	48,717	-0,082	0,054
-185,358	800,000	0,037	-0,106
-184,344	800,000	0,036	0,082
-183,329	-77,706	0,045	-0,011
-182,315	321,419	0,048	0,065
-181,300	800,000	-0,026	0,075
-180,285	242,149	-0,036	-0,043
-179,271	-200,000	0,013	-0,103
-178,256	263,528	0,020	0,024
-177,242	-200,000	-0,034	0,135
-176,227	431,147	0,045	-0,070
-175,212	-41,569	-0,147	0,054
-174,198	-63,990	0,123	0,036
-173,183	800,000	-0,056	0,130
-172,169	-153,643	-0,170	-0,008
-171,154	-130,691	0,165	0,016
-170,139	0,774	0,065	-0,033
-169,125	-200,000	-0,002	0,149
-168,110	78,958	0,089	0,067
-167,096	-200,000	0,003	0,051
-166,081	-84,290	-0,137	0,031
-165,066	-200,000	-0,002	0,073
-164,052	310,157	-0,014	-0,019
-163,037	-157,937	0,112	-0,005
-162,023	129,691	-0,095	0,086
-161,008	-200,000	-0,004	0,071
-159,993	60,904	-0,077	-0,054
-158,979	800,000	-0,101	-0,218
-157,964	-200,000	0,011	-0,080
-156,950	-4,157	-0,130	0,064
-155,935	96,116	0,078	-0,063
-154,920	85,733	0,088	0,068
-153,906	22,059	0,164	0,095
-152,891	95,189	-0,002	0,001
-151,877	220,327	-0,068	0,078
-150,862	303,420	-0,096	0,126
-149,847	800,000	0,029	0,059
-148,833	800,000	-0,016	0,050
-147,818	800,000	-0,037	-0,109
-146,804	63,010	-0,061	0,043
-145,789	66,444	0,110	-0,079
-144,775	-25,913	-0,062	-0,026
-143,760	314,678	-0,077	0,103
-142,745	280,340	0,065	-0,083
-141,731	800,000	-0,018	0,056
-140,716	21,200	0,115	0,066
-139,702	91,674	-0,131	-0,105
-138,687	472,829	0,052	0,084
-137,672	9,918	-0,068	0,036
-136,658	-200,000	-0,019	-0,119
-135,643	-119,151	-0,122	-0,015
-134,629	800,000	0,041	-0,106
-133,614	800,000	0,051	-0,107
-132,599	-200,000	0,053	0,198
-131,585	-200,000	0,026	0,138
-130,570	-39,566	-0,131	0,049
-129,556	800,000	-0,008	-0,018
-128,541	-200,000	0,008	0,030
-127,526	21,062	-0,080	-0,046
-126,512	-200,000	0,017	-0,111
-125,497	157,129	-0,043	0,043
-124,483	800,000	-0,028	-0,056
-123,468	-162,321	0,103	0,004
-122,453	-83,000	0,012	0,003
-121,439	800,000	-0,007	0,021
-120,424	-20,326	-0,042	-0,018
-119,410	23,891	0,051	0,029
-118,395	800,000	0,067	0,144
-117,380	148,029	0,107	-0,103
-116,366	800,000	0,007	-0,016
-115,351	72,564	0,024	0,017
-114,337	-200,000	-0,009	-0,085
-113,322	108,423	0,022	0,018
-112,307	168,415	0,131	-0,133
-111,293	109,019	0,061	0,052
-110,278	-200,000	0,010	-0,078
-109,264	357,128	0,056	0,079
-108,249	641,938	0,029	0,053
-107,234	125,712	-0,082	-0,074
-106,220	-200,000	0,019	-0,117
-105,205	31,892	-0,052	-0,032
-104,191	-200,000	0,006	-0,066
-103,176	12,581	0,037	-0,020
-102,162	253,306	0,032	0,038
-101,147	-180,317	-0,142	0,002
-100,132	104,343	-0,028	-0,023
-99,118	-200,000	-0,006	-0,054
-98,103	-58,219	0,012	-0,004
-97,089	800,000	-0,015	0,034
-96,074	-11,438	0,061	0,028
-95,059	-200,000	0,016	0,163
-94,045	-31,713	-0,049	0,019
-93,030	-200,000	-0,010	-0,055
-92,016	800,000	0,017	-0,037
-91,001	-200,000	0,004	-0,046
-89,986	800,000	0,024	0,053
-88,972	33,617	0,064	0,039
-87,957	22,457	0,162	0,094
-86,943	4,937	0,204	-0,106
-85,928	400,735	0,061	-0,091
-84,913	41,842	0,070	-0,045
-83,899	-88,662	-0,147	0,031
-82,884	-200,000	0,014	0,090
-81,870	-200,000	-0,020	0,063
-80,855	-109,952	-0,074	0,011
-79,840	-200,000	0,022	-0,074
-78,826	800,000	0,016	-0,047
-77,811	15,619	0,059	0,033
-76,797	800,000	-0,047	0,120
-75,782	-200,000	0,013	0,105
-74,767	-200,000	0,003	-0,195
-73,753	-133,732	0,125	-0,011
-72,738	-44,268	-0,103	0,037
-71,724	221,052	-0,087	-0,099
-70,709	-120,749	-0,051	-0,006
-69,694	-200,000	-0,016	-0,102
-68,680	-200,000	0,025	0,101
-67,665	164,786	0,114	0,114
-66,651	113,620	0,022	-0,019
-65,636	800,000	0,010	-0,027
-64,622	-149,468	-0,158	-0,009
-63,607	-30,732	0,068	-0,027
-62,592	-73,661	-0,086	0,022
-61,578	106,388	-0,018	-0,015
-60,563	-200,000	-0,006	0,133
-59,549	800,000	-0,043	0,126
-58,534	-16,855	-1,573	-0,701
-57,519	396,781	-1,352	-2,006
-56,505	-200,000	-0,662	-4,737
-55,490	201,443	0,890	0,972
-54,476	800,000	4,899	11,411
-53,461	-200,000	18,803	304,468
-52,446	800,000	736,005	2290,904
-51,432	567,151	1652,465	2850,981
-50,417	78,979	1669,957	1264,376
-49,403	22,096	1542,912	888,950
-48,388	15,977	1465,903	814,860
-47,373	17,757	1455,746	817,777
-46,359	16,873	1445,982	808,021
-45,344	14,248	1441,514	792,930
-44,330	14,152	1439,543	791,354
-43,315	14,193	1437,805	790,564
-42,300	14,208	1436,045	789,634
-41,286	14,254	1434,747	789,112
-40,271	14,238	1433,403	788,264
-39,257	14,152	1432,313	787,222
-38,242	14,213	1431,018	786,771
-37,227	14,222	1429,885	786,157
-36,213	14,221	1428,445	785,329
-35,198	14,230	1427,453	784,799
-34,184	14,242	1426,528	784,316
-33,169	14,186	1425,356	783,375
-32,154	14,264	1424,047	782,992
-31,140	14,274	1422,569	782,194
-30,125	14,243	1421,633	781,504
-29,111	14,256	1420,370	780,841
-28,096	14,238	1419,180	780,068
-27,082	14,210	1418,161	779,349
-26,067	14,131	1417,373	778,510
-25,052	14,188	1416,153	778,076
-24,038	14,095	1415,335	777,162
-23,023	14,168	1414,131	776,812
-22,009	14,134	1413,207	776,114
-20,994	14,080	1412,351	775,358
-19,979	14,121	1411,381	774,990
-18,965	14,089	1410,498	774,322
-17,950	14,113	1409,468	773,838
-16,936	14,089	1408,497	773,161
-15,921	14,072	1407,422	772,462
-14,906	14,030	1406,813	771,901
-13,892	14,083	1405,741	771,529
-12,877	14,071	1404,982	771,025
-11,863	14,051	1403,912	770,317
-10,848	14,074	1403,097	769,946
-9,833	14,001	1402,218	769,091
-8,819	13,975	1401,416	768,503
-7,804	13,979	1400,183	767,812
-6,790	13,948	1399,279	767,143
-5,775	13,961	1398,306	766,639
-4,760	13,989	1397,173	766,116
-3,746	13,928	1396,592	765,486
-2,731	13,973	1395,753	765,206
-1,717	13,935	1394,738	764,441
-0,702	13,964	1392,974	763,578
0,313	17,755	1311,079	736,268
1,327	34,017	706,140	434,224
2,342	51,982	124,181	83,529
3,356	-0,203	16,679	8,364
4,371	8,043	3,177	1,681
5,386	8,350	0,591	0,313
6,400	800,000	0,118	0,292
7,415	42,716	-0,276	-0,177
8,429	-2,175	-0,398	-0,197
9,444	167,092	-0,332	-0,333
10,459	800,000	-0,131	-0,266
11,473	-30,159	-0,363	-0,145
12,488	207,482	-0,184	-0,203
13,502	144,667	-0,283	-0,268
14,517	55,361	-0,324	-0,221
15,531	152,711	-0,288	-0,278
16,546	92,332	-0,388	-0,309
17,561	120,838	-0,402	-0,353
18,575	32,613	-0,265	-0,162
19,590	384,736	-0,214	-0,312
20,604	145,853	-0,227	-0,215
21,619	83,654	-0,421	-0,324
22,634	26,372	-0,517	-0,305
23,648	-0,490	-0,518	-0,259
24,663	110,771	-0,423	-0,359
25,677	308,897	-0,211	-0,279
26,692	49,524	-0,387	-0,257
27,707	94,126	-0,390	-0,312
28,721	112,337	-0,296	-0,252
29,736	87,154	-0,413	-0,322
30,750	66,894	-0,468	-0,336
31,765	31,107	-0,446	-0,269
32,780	148,281	-0,258	-0,245
33,794	183,614	-0,255	-0,266
34,809	124,658	-0,340	-0,302
35,823	393,246	-0,269	-0,396
36,838	176,949	-0,420	-0,432
37,853	211,816	-0,441	-0,491
38,867	150,186	-0,392	-0,375
39,882	237,814	-0,283	-0,331
40,896	147,517	-0,302	-0,287
41,911	86,889	-0,338	-0,263
42,926	50,258	-0,316	-0,210
43,940	120,373	-0,302	-0,264
44,955	151,740	-0,338	-0,325
45,969	95,092	-0,408	-0,327
46,984	-70,729	-0,431	-0,114
47,999	460,407	-0,199	-0,314
49,013	-3,089	-0,327	-0,160
50,028	-9,734	-0,332	-0,155
51,042	116,095	-0,362	-0,312
52,057	137,224	-0,367	-0,338
53,071	55,945	-0,349	-0,238
54,086	21,446	-0,287	-0,164
55,101	335,593	-0,225	-0,308
56,115	201,540	-0,283	-0,307
57,130	165,089	-0,364	-0,362
58,144	82,534	-0,283	-0,216
59,159	179,325	-0,360	-0,372
60,174	-20,290	-0,400	-0,172
61,188	101,388	-0,327	-0,268
62,203	108,510	-0,211	-0,177
63,217	-32,996	-0,321	-0,125
64,232	134,805	-0,328	-0,300
65,247	173,104	-0,249	-0,253
66,261	-61,710	-0,474	-0,139
67,276	140,141	-0,313	-0,290
68,290	68,499	-0,301	-0,217
69,305	21,327	-0,468	-0,266
70,320	-60,453	-0,400	-0,119
71,334	29,272	-0,255	-0,152
72,349	88,767	-0,170	-0,133
73,363	-8,932	-0,232	-0,109
74,378	-46,701	-0,304	-0,104
75,393	-41,282	-0,324	-0,117
76,407	201,895	-0,263	-0,285
77,422	12,581	-0,368	-0,199
78,436	249,141	-0,182	-0,217
79,451	128,154	-0,284	-0,254
80,466	-5,100	-0,335	-0,161
81,480	15,444	-0,400	-0,220
82,495	-45,691	-0,318	-0,110
83,509	227,685	-0,272	-0,311
84,524	155,653	-0,272	-0,263
85,539	72,866	-0,288	-0,211
86,553	130,231	-0,136	-0,122
87,568	105,610	-0,311	-0,258
88,582	53,068	-0,272	-0,182
89,597	75,280	-0,300	-0,222
90,611	40,165	-0,199	-0,125
91,626	66,021	-0,368	-0,262
92,641	47,491	-0,317	-0,207
93,655	178,484	-0,304	-0,312
94,670	-37,944	-0,338	-0,125
95,684	103,683	-0,369	-0,304
96,699	151,167	-0,279	-0,266
97,714	67,938	-0,285	-0,204
98,728	45,263	-0,211	-0,136
99,743	253,088	-0,185	-0,222
100,757	-102,462	-0,217	-0,036
101,772	31,826	-0,425	-0,256
102,787	254,233	-0,221	-0,266
103,801	15,127	-0,243	-0,133
104,816	31,022	-0,295	-0,177
105,830	49,399	-0,314	-0,207
106,845	71,722	-0,298	-0,217
107,860	173,723	-0,145	-0,147
108,874	31,362	-0,254	-0,152
109,889	157,720	-0,332	-0,322
110,903	-15,990	-0,335	-0,149
111,918	-29,615	-0,318	-0,127
112,933	16,741	-0,217	-0,120
113,947	95,433	-0,206	-0,164
114,962	234,024	-0,267	-0,309
115,976	170,676	-0,244	-0,245
116,991	54,887	-0,306	-0,206
118,006	97,658	-0,319	-0,257
119,020	244,462	-0,201	-0,237
120,035	74,751	-0,186	-0,137
121,049	-40,319	-0,396	-0,143
122,064	-21,457	-0,279	-0,119
123,079	288,357	-0,227	-0,289
124,093	26,938	-0,323	-0,189
125,108	81,488	-0,297	-0,224
126,122	-33,942	-0,275	-0,106
127,137	166,323	-0,178	-0,177
128,151	0,111	-0,224	-0,112
129,166	149,802	-0,226	-0,215
130,181	42,445	-0,219	-0,139
131,195	17,175	-0,210	-0,116
132,210	69,183	-0,229	-0,165
133,224	9,039	-0,236	-0,124
134,239	53,064	-0,252	-0,168
135,254	16,713	-0,292	-0,161
136,268	35,637	-0,320	-0,196
137,283	-135,883	-0,214	-0,017
138,297	88,010	-0,249	-0,193
139,312	114,902	-0,276	-0,235
140,327	-64,901	-0,265	-0,074
141,341	462,844	-0,137	-0,215
142,356	-40,235	-0,292	-0,106
143,370	213,589	-0,185	-0,204
144,385	-132,399	-0,376	-0,033
145,400	38,407	-0,381	-0,237
146,414	96,649	-0,238	-0,191
147,429	169,674	-0,256	-0,256
148,443	-18,654	-0,341	-0,148
149,458	125,350	-0,181	-0,159
150,473	86,674	-0,187	-0,144
151,487	109,731	-0,289	-0,242
152,502	37,414	-0,326	-0,202
153,516	79,690	-0,286	-0,214
154,531	2,417	-0,288	-0,145
155,546	52,661	-0,250	-0,166
156,560	-16,183	-0,340	-0,150
157,575	-28,791	-0,223	-0,089
158,589	42,937	-0,324	-0,206
159,604	156,336	-0,185	-0,178
160,619	54,165	-0,310	-0,208
161,633	-26,593	-0,243	-0,099
162,648	648,673	-0,159	-0,285
163,662	52,660	-0,197	-0,131
164,677	69,751	-0,248	-0,178
165,692	32,007	-0,207	-0,124
166,706	51,780	-0,270	-0,179
167,721	95,518	-0,322	-0,256
168,735	201,755	-0,297	-0,320
169,750	-72,445	-0,219	-0,056
170,764	128,063	-0,193	-0,171
171,779	-58,444	-0,304	-0,091
172,794	-104,400	-0,366	-0,058
173,808	40,438	-0,223	-0,140
174,823	126,888	-0,322	-0,284
175,837	-17,047	-0,254	-0,111
176,852	123,545	-0,286	-0,250
177,867	148,360	-0,173	-0,163
178,881	-2,936	-0,168	-0,082
179,896	45,395	-0,229	-0,147
180,910	287,793	-0,215	-0,271
181,925	266,898	-0,176	-0,214
182,940	158,025	-0,189	-0,183
183,954	-200,000	-0,230	0,000
184,969	170,406	-0,161	-0,160
185,983	365,191	-0,121	-0,171
186,998	-44,338	-0,134	-0,046
188,013	-95,664	-0,260	0,048
189,027	-17,508	-0,263	-0,115
190,042	109,928	-0,268	-0,224
191,056	-200,000	-0,076	-0,277
192,071	-3,831	-0,263	-0,127
193,086	0,459	-0,222	-0,110
194,100	433,197	-0,093	-0,141
195,115	657,919	-0,104	-0,187
196,129	800,000	-0,105	-0,282
197,144	382,827	-0,221	-0,318
198,159	535,576	-0,151	-0,250
199,173	-107,532	-0,247	-0,037
200,188	76,725	-0,170	-0,125
201,202	226,892	-0,117	-0,132
202,217	57,652	-0,210	-0,143
203,232	-67,832	-0,207	-0,056
204,246	271,822	-0,140	-0,172
205,261	800,000	-0,092	-0,235
206,275	15,236	-0,211	-0,115
207,290	328,580	-0,161	-0,216
208,304	214,460	-0,196	-0,216
209,319	-11,050	-0,065	0,030
210,334	57,912	-0,263	-0,179
211,348	484,239	-0,140	-0,223
212,363	54,784	-0,255	-0,170
213,377	-54,281	-0,234	-0,073
214,392	-122,844	-0,168	-0,019
215,407	103,900	-0,211	-0,172
216,421	331,620	-0,106	-0,142
217,436	-33,166	-0,259	-0,099
218,450	-51,843	-0,160	-0,051
219,465	12,404	-0,243	-0,130
220,480	-127,361	-0,160	-0,016
221,494	588,481	-0,092	-0,159
222,509	-56,657	-0,012	0,004
223,523	87,775	-0,210	-0,161
224,538	-10,683	-0,138	-0,063
225,553	89,294	-0,288	-0,222
226,567	484,725	-0,133	-0,210
227,582	-14,535	-0,291	-0,129
228,596	700,962	-0,099	-0,181
229,611	38,946	-0,077	-0,048
230,626	-9,527	-0,111	-0,051
231,640	259,593	-0,159	-0,191
232,655	169,016	-0,225	-0,223
233,669	419,691	-0,154	-0,230
234,684	290,855	-0,119	-0,150
235,699	-140,838	-0,259	-0,018
236,713	61,610	-0,147	-0,101
237,728	89,892	-0,108	-0,083
238,742	95,047	-0,195	-0,154
239,757	-3,160	-0,174	-0,084
240,772	94,880	-0,205	-0,162
241,786	126,984	-0,185	-0,163
242,801	593,343	-0,119	-0,204
243,815	332,768	-0,043	-0,058
244,830	-121,591	-0,183	0,021
245,844	92,400	-0,190	-0,148
246,859	250,927	-0,174	-0,206
247,874	13,072	-0,162	-0,087
248,888	65,644	-0,223	-0,156
249,903	288,166	-0,088	-0,111
250,917	800,000	-0,068	-0,147
251,932	-182,662	-0,062	0,001
252,947	490,918	-0,178	-0,283
253,961	-53,951	-0,195	-0,061
254,976	190,332	-0,216	-0,225
255,990	4,018	-0,304	-0,153
257,005	91,913	-0,156	-0,121
258,020	127,148	-0,177	-0,156
259,034	-173,860	-0,130	0,003
260,049	44,239	-0,193	-0,122
261,063	250,367	-0,184	-0,216
262,078	142,358	-0,216	-0,198
263,093	587,291	-0,093	-0,160
264,107	114,700	-0,238	-0,201
265,122	21,053	-0,203	-0,113
266,136	66,553	-0,083	-0,058
267,151	122,246	-0,124	-0,107
268,166	-41,104	-0,222	-0,079
269,180	72,566	-0,220	-0,158
270,195	226,262	-0,144	-0,162
271,209	169,097	-0,156	-0,154
272,224	402,751	-0,119	-0,173
273,239	81,788	-0,146	-0,109
274,253	18,349	-0,264	-0,145
275,268	509,073	-0,074	-0,120
276,282	-136,622	-0,310	0,024
277,297	-9,345	-0,282	-0,130
278,312	116,076	-0,119	-0,101
279,326	75,594	-0,141	-0,103
280,341	321,172	-0,150	-0,197
281,355	368,277	-0,103	-0,144
282,370	-200,000	-0,253	-0,000
283,384	174,051	-0,153	-0,153
284,399	-200,000	0,010	-0,107
285,414	-200,000	-0,067	-0,224
286,428	38,211	-0,146	-0,090
287,443	103,750	-0,100	-0,081
288,457	-113,901	-0,144	-0,019
289,472	223,342	-0,032	-0,036
290,487	21,530	-0,144	-0,080
291,501	-74,324	-0,163	-0,040
292,516	-23,562	-0,110	-0,045
293,530	29,775	-0,131	-0,077
294,545	-93,173	-0,078	0,015
295,560	66,193	-0,189	-0,132
296,574	73,097	-0,102	-0,073
297,589	197,379	-0,051	-0,054
298,603	-59,625	-0,273	-0,080
299,618	-3,554	-0,153	-0,073
300,633	223,030	-0,148	-0,164
301,647	800,000	-0,034	-0,093
302,662	-52,718	-0,198	-0,063
303,676	800,000	-0,057	-0,173
304,691	224,289	-0,084	-0,094
305,706	18,076	-0,160	-0,088
306,720	44,428	-0,121	-0,076
307,735	-200,000	0,027	-0,130
308,749	800,000	-0,062	-0,144
309,764	800,000	-0,055	-0,157
310,779	230,926	-0,094	-0,106
311,793	-200,000	-0,026	-0,156
312,808	122,237	-0,202	-0,174
313,822	115,386	-0,092	0,077
314,837	426,776	-0,122	-0,181
315,852	-200,000	-0,046	-0,140
316,866	-32,120	-0,091	-0,035
317,881	-40,305	-0,107	-0,038
318,895	108,724	-0,152	-0,125
319,910	48,316	-0,126	-0,081
320,925	46,332	-0,180	-0,114
321,939	156,685	-0,246	-0,234
322,954	380,380	-0,109	-0,154
323,968	4,596	0,041	-0,020
324,983	736,651	-0,082	-0,151
325,997	78,956	-0,206	-0,151
327,012	119,796	-0,157	-0,134
328,027	161,364	-0,125	-0,120
329,041	123,606	-0,174	-0,150
330,056	35,471	-0,056	-0,034
331,070	148,593	-0,146	-0,136
332,085	121,228	-0,170	-0,146
333,100	186,582	-0,107	-0,110
334,114	800,000	-0,136	-0,269
335,129	10,057	-0,254	-0,132
336,143	35,795	-0,179	-0,108
337,158	18,678	-0,148	-0,081
338,173	-200,000	-0,041	-0,146
339,187	147,852	-0,102	-0,094
340,202	-181,550	-0,151	0,002
341,216	-62,512	-0,244	-0,069
342,231	800,000	-0,029	-0,059
343,246	428,143	-0,093	-0,138
344,260	-116,197	-0,153	-0,019
345,275	-200,000	0,013	-0,081
346,289	-0,726	-0,173	-0,084
347,304	800,000	-0,058	-0,132
348,319	-140,720	-0,190	-0,013
349,333	198,003	-0,163	-0,171
350,348	131,597	-0,196	-0,173
351,362	471,896	-0,142	-0,220
352,377	-74,027	-0,131	-0,032
353,392	-9,836	-0,175	-0,079
354,406	502,745	-0,094	-0,149
355,421	209,155	1315,119	1414,339
356,435	160,958	1475,908	1414,827
