DTS Sentinel unit serial number:	SN410029Multiplexer serial number:	ORYXHardware model number:	OX2-SRSoftware version number:	ORYX F/W v4,00 Oryx Data Collector v3.7.2.0data status	okinstallation	B3 Nyhavnadifferential loss correction	single-endedforward channel	channel 1reverse channel	N/Adate	2023/11/28time	20:32:30forward acquisition time	300,00reverse acquisition time	0,00gamma	499,1914k internal	0,3212k external	0,3212temperature offset calibration	1,0000default loss term (dB/km)	0,3820temperature slope calibration	1,0000multiplexer offset coefficient	1,0000multiplexer slope coefficient	1,0000fibre end	0,00T internal ref (°C)	8,00T ext. ref 1 (°C)	-6,61T ext. ref 2 (°C)	-6,76length (m)	temperature (°C)	Stokes	anti-Stokes-744,400	153,605	-0,184	-0,183
-743,385	-200,000	0,008	0,247
-742,371	800,000	-0,102	-0,242
-741,356	-200,000	-0,027	0,306
-740,342	800,000	-0,118	-0,259
-739,327	800,000	0,049	0,111
-738,312	111,782	-0,197	-0,172
-737,298	271,679	-0,084	0,108
-736,283	111,922	-0,196	-0,172
-735,269	-200,000	0,018	0,177
-734,254	-33,270	-0,126	-0,050
-733,239	49,561	-0,261	0,178
-732,225	800,000	-0,089	-0,266
-731,210	74,535	0,170	0,129
-730,196	-200,000	-0,035	-0,119
-729,181	-131,552	-0,066	0,006
-728,167	-0,027	-0,084	-0,043
-727,152	-200,000	-0,006	-0,038
-726,137	143,084	0,090	-0,087
-725,123	-200,000	-0,030	-0,127
-724,108	-69,211	-0,107	0,030
-723,094	96,535	-0,101	-0,084
-722,079	-90,725	-0,097	0,020
-721,064	-148,990	-0,085	0,005
-720,050	-70,012	-0,014	0,004
-719,035	-33,022	-0,062	-0,025
-718,021	-200,000	-0,023	-0,109
-717,006	719,099	-0,073	-0,142
-715,991	-148,203	-0,102	0,006
-714,977	-200,000	-0,043	-0,148
-713,962	341,148	0,068	-0,096
-712,948	-200,000	-0,003	-0,037
-711,933	-49,048	0,104	-0,036
-710,918	-58,330	0,019	0,006
-709,904	347,333	0,002	0,003
-708,889	-165,491	-0,097	0,003
-707,875	99,748	-0,033	-0,027
-706,860	-34,474	0,104	-0,041
-705,845	800,000	0,056	0,120
-704,831	-113,005	0,148	-0,021
-703,816	800,000	0,049	-0,137
-702,802	-200,000	0,009	0,054
-701,787	-145,081	-0,118	0,008
-700,772	-87,479	0,181	0,039
-699,758	800,000	0,007	0,017
-698,743	-200,000	0,005	0,136
-697,729	-75,043	0,025	0,006
-696,714	534,477	0,027	0,046
-695,699	-36,014	0,033	-0,013
-694,685	-200,000	0,013	-0,044
-693,670	800,000	0,016	-0,051
-692,656	-47,244	-0,084	-0,029
-691,641	167,457	0,064	-0,065
-690,627	10,175	0,105	0,058
-689,612	-41,205	0,033	-0,012
-688,597	-63,151	0,057	-0,017
-687,583	435,017	-0,065	-0,102
-686,568	-5,453	-0,053	-0,026
-685,554	-172,782	-0,045	-0,001
-684,539	91,080	0,089	0,072
-683,524	-100,185	-0,116	0,021
-682,510	13,934	0,088	-0,049
-681,495	-200,000	-0,009	-0,091
-680,481	-0,804	-0,192	0,098
-679,466	-200,000	0,001	-0,015
-678,451	-87,046	-0,093	-0,020
-677,437	-158,784	0,095	0,004
-676,422	65,992	0,078	0,057
-675,408	248,551	0,095	0,117
-674,393	-16,234	-0,095	-0,043
-673,378	-200,000	-0,007	-0,071
-672,364	-123,983	0,086	0,010
-671,349	267,803	0,050	-0,064
-670,335	800,000	0,041	-0,094
-669,320	792,721	-0,030	-0,060
-668,305	77,148	0,090	-0,069
-667,291	-200,000	0,025	0,089
-666,276	169,656	-0,018	0,019
-665,262	-200,000	-0,005	-0,016
-664,247	-15,729	0,083	-0,038
-663,232	276,192	0,053	0,069
-662,218	-114,048	0,152	0,021
-661,203	137,483	0,031	0,030
-660,189	-200,000	-0,032	-0,180
-659,174	704,599	0,019	-0,035
-658,159	-58,143	-0,169	-0,053
-657,145	-200,000	0,010	0,049
-656,130	241,426	-0,044	-0,054
-655,116	-6,546	-0,111	-0,054
-654,101	20,708	0,080	0,047
-653,086	145,629	-0,067	0,065
-652,072	-92,828	-0,051	0,010
-651,057	800,000	0,006	-0,015
-650,043	48,335	-0,046	-0,031
-649,028	-200,000	0,050	-0,191
-648,014	-14,504	-0,067	-0,031
-646,999	-56,683	0,146	-0,046
-645,984	199,332	0,096	-0,107
-644,970	-37,222	-0,114	0,044
-643,955	65,241	-0,063	-0,046
-642,941	339,674	-0,007	-0,010
-641,926	-200,000	0,022	0,098
-640,911	110,551	0,017	-0,015
-639,897	800,000	0,029	0,085
-638,882	331,874	-0,077	0,108
-637,868	423,037	0,011	0,017
-636,853	-200,000	0,018	0,126
-635,838	-94,447	0,040	-0,008
-634,824	-80,042	-0,087	0,021
-633,809	-41,014	0,105	-0,039
-632,795	108,685	0,030	0,025
-631,780	-200,000	-0,002	0,020
-630,765	271,572	-0,063	-0,081
-629,751	-200,000	-0,002	-0,094
-628,736	120,782	-0,052	0,047
-627,722	-200,000	-0,011	-0,074
-626,707	449,268	0,042	-0,066
-625,692	91,011	0,165	0,133
-624,678	65,747	0,097	0,071
-623,663	-154,063	-0,051	0,002
-622,649	800,000	-0,076	-0,223
-621,634	-172,601	0,059	-0,001
-620,619	-200,000	-0,025	-0,128
-619,605	-125,578	0,061	0,007
-618,590	34,942	-0,078	-0,049
-617,576	-111,810	-0,055	0,008
-616,561	147,471	-0,035	-0,034
-615,546	-200,000	-0,001	-0,025
-614,532	65,684	-0,096	-0,070
-613,517	-5,101	-0,093	0,046
-612,503	-48,680	0,066	-0,023
-611,488	800,000	-0,053	0,163
-610,474	329,146	-0,037	0,052
-609,459	-21,364	0,127	-0,056
-608,444	47,209	-0,041	-0,027
-607,430	531,856	0,025	-0,042
-606,415	-62,828	-0,046	-0,014
-605,401	130,631	0,074	-0,068
-604,386	-200,000	0,011	0,074
-603,371	-74,948	0,152	0,039
-602,357	72,390	-0,163	-0,122
-601,342	-200,000	0,000	0,006
-600,328	-77,491	0,078	-0,019
-599,313	-62,652	-0,088	-0,026
-598,298	210,796	0,048	0,054
-597,284	12,931	-0,146	0,081
-596,269	461,488	0,070	0,113
-595,255	234,453	-0,166	0,197
-594,240	-125,355	-0,024	-0,003
-593,225	-130,914	0,025	0,002
-592,211	-32,313	-0,127	0,051
-591,196	-55,867	0,128	-0,041
-590,182	83,965	-0,095	0,074
-589,167	-104,221	0,056	-0,009
-588,152	800,000	-0,034	0,097
-587,138	371,961	-0,062	-0,091
-586,123	-76,139	-0,087	-0,022
-585,109	-200,000	0,022	-0,128
-584,094	-200,000	-0,011	-0,092
-583,079	-200,000	0,021	-0,168
-582,065	119,135	-0,043	-0,038
-581,050	800,000	0,028	-0,065
-580,036	98,763	-0,115	0,095
-579,021	-200,000	0,026	-0,104
-578,006	97,469	-0,081	-0,067
-576,992	165,705	-0,054	-0,055
-575,977	-29,639	0,186	0,076
-574,963	-117,913	0,105	-0,013
-573,948	283,547	-0,140	0,181
-572,934	-200,000	0,005	0,059
-571,919	204,679	0,066	-0,073
-570,904	800,000	-0,036	-0,088
-569,890	353,735	-0,049	-0,070
-568,875	-200,000	0,006	-0,157
-567,861	95,556	0,067	0,055
-566,846	321,223	0,028	-0,038
-565,831	-200,000	0,002	-0,046
-564,817	68,861	-0,092	-0,068
-563,802	-200,000	-0,017	-0,072
-562,788	696,579	-0,057	0,109
-561,773	45,605	0,084	-0,056
-560,758	413,376	0,043	0,066
-559,744	-67,789	0,192	0,054
-558,729	-71,329	0,088	-0,023
-557,715	389,787	-0,094	-0,141
-556,700	-21,036	-0,033	-0,014
-555,685	800,000	-0,038	0,102
-554,671	-8,301	0,036	0,017
-553,656	-138,547	-0,027	0,002
-552,642	381,299	-0,078	0,116
-551,627	4,608	0,053	-0,028
-550,612	800,000	0,003	0,006
-549,598	800,000	0,044	-0,135
-548,583	-200,000	0,011	0,036
-547,569	160,684	0,040	-0,040
-546,554	-200,000	-0,006	-0,037
-545,539	-173,388	0,062	-0,001
-544,525	-126,234	0,085	-0,009
-543,510	18,974	-0,115	-0,066
-542,496	44,524	-0,089	-0,059
-541,481	-1,321	-0,100	-0,050
-540,466	800,000	0,029	-0,087
-539,452	-200,000	-0,050	0,241
-538,437	-200,000	-0,014	0,077
-537,423	203,702	-0,041	0,046
-536,408	87,476	-0,054	-0,043
-535,393	-61,354	-0,058	-0,017
-534,379	-7,693	0,042	-0,020
-533,364	800,000	0,048	-0,097
-532,350	32,380	0,008	-0,005
-531,335	-164,031	0,044	-0,001
-530,321	-200,000	0,010	0,082
-529,306	418,851	0,056	-0,087
-528,291	346,751	0,048	0,068
-527,277	800,000	-0,049	-0,129
-526,262	10,965	-0,088	-0,048
-525,248	-200,000	-0,011	-0,040
-524,233	-200,000	0,007	0,063
-523,218	800,000	0,022	0,054
-522,204	68,345	-0,136	0,100
-521,189	-200,000	0,179	-0,000
-520,175	800,000	-0,007	0,017
-519,160	800,000	-0,009	0,020
-518,145	636,066	0,021	0,038
-517,131	-200,000	0,023	0,149
-516,116	800,000	-0,021	0,068
-515,102	-200,000	-0,010	-0,051
-514,087	12,099	-0,127	-0,070
-513,072	-100,644	0,127	-0,022
-512,058	364,115	0,064	-0,093
-511,043	-44,130	-0,062	-0,022
-510,029	800,000	0,070	0,152
-509,014	-200,000	-0,016	-0,080
-507,999	-200,000	0,002	0,029
-506,985	727,831	-0,029	0,056
-505,970	-105,986	-0,173	0,028
-504,956	-71,495	-0,031	0,008
-503,941	295,767	0,036	-0,048
-502,926	81,116	0,072	-0,056
-501,912	17,122	0,212	-0,121
-500,897	-53,382	-0,089	-0,029
-499,883	242,628	0,020	-0,024
-498,868	38,547	-0,088	0,056
-497,853	643,587	0,059	-0,108
-496,839	105,361	0,089	-0,075
-495,824	231,357	0,162	-0,191
-494,810	385,633	-0,022	0,033
-493,795	-81,391	-0,087	0,020
-492,781	117,063	0,068	0,060
-491,766	-90,416	-0,066	0,014
-490,751	71,368	0,038	0,028
-489,737	497,858	-0,026	0,043
-488,722	-200,000	-0,003	-0,052
-487,708	-200,000	-0,012	-0,114
-486,693	800,000	0,075	0,155
-485,678	43,118	-0,078	-0,051
-484,664	-200,000	-0,010	-0,060
-483,649	104,526	-0,064	-0,054
-482,635	67,884	-0,126	0,093
-481,620	630,124	-0,033	0,060
-480,605	-80,460	0,141	0,033
-479,591	800,000	-0,047	0,123
-478,576	-170,363	0,117	0,003
-477,562	-41,293	-0,085	0,031
-476,547	-154,695	-0,070	-0,003
-475,532	54,395	0,089	-0,061
-474,518	-200,000	-0,026	0,152
-473,503	-103,364	0,020	-0,003
-472,489	800,000	0,019	0,058
-471,474	1,362	0,095	0,049
-470,459	-200,000	-0,011	-0,060
-469,445	-200,000	0,006	-0,059
-468,430	242,761	0,032	-0,039
-467,416	-200,000	-0,014	-0,057
-466,401	800,000	0,060	-0,173
-465,386	-200,000	0,039	-0,199
-464,372	800,000	0,052	0,115
-463,357	546,789	-0,060	-0,103
-462,343	-200,000	0,007	-0,177
-461,328	-200,000	-0,019	-0,107
-460,313	4,515	0,011	0,006
-459,299	70,059	0,169	0,125
-458,284	-62,371	0,216	0,064
-457,270	-108,793	-0,164	-0,025
-456,255	800,000	0,033	0,066
-455,241	-200,000	0,012	-0,103
-454,226	31,397	-0,097	0,060
-453,211	45,483	0,054	0,035
-452,197	-137,915	-0,139	-0,011
-451,182	17,939	0,162	-0,092
-450,168	-43,252	-0,083	-0,030
-449,153	124,904	-0,101	-0,091
-448,138	91,762	-0,046	-0,037
-447,124	-157,944	0,128	-0,005
-446,109	-44,522	-0,084	0,030
-445,095	156,598	-0,048	0,047
-444,080	-200,000	0,011	0,136
-443,065	-200,000	-0,012	0,162
-442,051	172,715	-0,054	0,056
-441,036	155,953	-0,102	-0,101
-440,022	-200,000	-0,006	-0,089
-439,007	673,003	0,089	-0,167
-437,992	-129,381	0,272	0,027
-436,978	28,713	-0,062	-0,037
-435,963	-155,524	0,101	-0,005
-434,949	125,245	-0,038	0,035
-433,934	398,756	0,028	0,042
-432,919	-200,000	0,001	-0,085
-431,905	29,829	0,078	-0,048
-430,890	140,936	-0,082	0,078
-429,876	-159,229	0,152	0,006
-428,861	-128,872	-0,083	0,008
-427,846	-27,995	0,043	0,018
-426,832	800,000	-0,028	0,069
-425,817	58,314	-0,038	-0,026
-424,803	70,818	0,060	-0,044
-423,788	14,019	0,070	0,039
-422,773	-200,000	0,007	-0,038
-421,759	-34,570	0,046	0,018
-420,744	800,000	-0,056	0,172
-419,730	800,000	0,011	0,025
-418,715	75,156	-0,048	0,036
-417,701	-18,834	0,110	-0,049
-416,686	199,694	0,042	0,046
-415,671	-200,000	0,013	0,093
-414,657	800,000	-0,093	0,212
-413,642	-200,000	-0,015	0,099
-412,628	-200,000	-0,002	0,087
-411,613	-200,000	-0,003	0,019
-410,598	800,000	0,042	0,121
-409,584	-13,487	0,059	-0,027
-408,569	-129,208	-0,064	0,006
-407,555	-200,000	0,009	-0,122
-406,540	800,000	-0,031	-0,064
-405,525	149,302	-0,061	0,059
-404,511	-200,000	-0,019	0,114
-403,496	106,341	-0,112	-0,095
-402,482	-105,230	0,057	-0,009
-401,467	51,303	0,093	-0,063
-400,452	57,096	-0,068	-0,048
-399,438	-200,000	-0,001	-0,025
-398,423	20,434	0,116	0,067
-397,409	120,429	-0,047	-0,042
-396,394	-5,747	-0,087	-0,043
-395,379	-177,709	0,027	-0,000
-394,365	-2,946	0,038	0,019
-393,350	-200,000	0,004	-0,021
-392,336	475,884	0,080	0,130
-391,321	-39,135	0,076	-0,028
-390,306	-182,940	0,069	0,001
-389,292	128,705	-0,019	0,017
-388,277	341,293	-0,084	-0,117
-387,263	-120,980	0,046	0,005
-386,248	-200,000	0,010	0,150
-385,233	-200,000	-0,009	-0,079
-384,219	61,352	-0,103	-0,073
-383,204	-200,000	-0,001	-0,058
-382,190	-200,000	0,010	0,034
-381,175	-0,198	0,008	-0,004
-380,160	-103,365	-0,052	0,009
-379,146	-71,094	0,043	0,011
-378,131	100,464	0,045	0,037
-377,117	474,652	-0,032	0,052
-376,102	-200,000	-0,020	0,141
-375,088	-107,766	-0,089	-0,014
-374,073	184,015	0,047	-0,050
-373,058	-200,000	-0,023	-0,103
-372,044	-102,926	0,108	-0,018
-371,029	800,000	0,041	0,099
-370,015	44,963	0,085	-0,056
-369,000	-200,000	0,013	-0,109
-367,985	800,000	0,058	0,119
-366,971	769,283	-0,039	-0,075
-365,956	800,000	-0,007	0,017
-364,942	49,272	0,096	-0,065
-363,927	-160,466	0,046	-0,002
-362,912	344,551	-0,027	0,038
-361,898	265,451	-0,050	0,063
-360,883	-41,093	-0,060	-0,022
-359,869	30,965	0,071	0,044
-358,854	-200,000	0,018	-0,165
-357,839	202,446	0,041	0,045
-356,825	-200,000	-0,034	0,121
-355,810	359,479	0,033	0,047
-354,796	-44,596	0,043	0,015
-353,781	-34,295	0,078	-0,030
-352,766	-37,834	0,028	-0,011
-351,752	800,000	0,037	-0,081
-350,737	-200,000	-0,007	0,118
-349,723	800,000	-0,009	0,020
-348,708	114,549	-0,054	-0,047
-347,693	-200,000	0,018	-0,160
-346,679	29,526	0,019	-0,011
-345,664	62,024	-0,010	0,007
-344,650	514,864	0,032	0,054
-343,635	292,229	0,097	-0,126
-342,620	-200,000	-0,007	0,054
-341,606	168,944	0,014	0,014
-340,591	106,158	-0,052	-0,044
-339,577	800,000	0,027	-0,053
-338,562	-200,000	0,011	0,064
-337,548	96,680	-0,046	0,037
-336,533	800,000	-0,037	-0,094
-335,518	-200,000	-0,026	0,109
-334,504	-200,000	-0,004	0,099
-333,489	-200,000	-0,000	-0,072
-332,475	-200,000	-0,046	0,165
-331,460	-8,561	-0,018	0,009
-330,445	-200,000	-0,005	0,096
-329,431	17,394	0,098	-0,055
-328,416	-200,000	-0,004	0,048
-327,402	800,000	0,036	-0,088
-326,387	800,000	-0,021	0,049
-325,372	123,150	0,046	0,041
-324,358	-25,091	-0,188	0,079
-323,343	39,048	-0,097	-0,062
-322,329	132,112	-0,041	-0,038
-321,314	-135,438	0,044	0,004
-320,299	241,085	0,128	0,152
-319,285	137,112	0,055	0,051
-318,270	-145,466	0,031	-0,002
-317,256	-200,000	-0,011	0,113
-316,241	-200,000	0,029	-0,109
-315,226	800,000	0,011	-0,030
-314,212	-93,936	-0,040	0,008
-313,197	68,306	0,116	0,085
-312,183	-200,000	0,026	0,118
-311,168	-200,000	0,006	0,028
-310,153	24,945	-0,144	0,085
-309,139	-141,898	-0,063	-0,004
-308,124	636,411	-0,042	0,076
-307,110	-200,000	0,020	0,134
-306,095	661,208	0,037	0,068
-305,080	177,449	-0,077	0,080
-304,066	191,331	-0,079	0,085
-303,051	79,749	-0,041	-0,032
-302,037	354,355	-0,027	0,038
-301,022	-200,000	0,011	-0,041
-300,008	-26,580	0,092	-0,038
-298,993	-32,287	0,030	-0,012
-297,978	30,107	-0,065	-0,039
-296,964	800,000	-0,040	-0,106
-295,949	227,479	-0,057	-0,066
-294,935	146,212	-0,070	-0,067
-293,920	-14,333	0,010	-0,005
-292,905	507,386	0,110	0,183
-291,891	-29,594	0,064	-0,026
-290,876	-90,758	-0,080	0,016
-289,862	263,786	0,143	0,177
-288,847	800,000	0,051	-0,109
-287,832	800,000	-0,031	0,082
-286,818	-144,326	0,058	0,004
-285,803	800,000	0,065	-0,148
-284,789	6,359	0,073	0,038
-283,774	-200,000	-0,018	0,128
-282,759	-200,000	-0,011	-0,089
-281,745	800,000	0,023	-0,062
-280,730	-200,000	-0,002	-0,059
-279,716	774,709	-0,056	0,109
-278,701	-53,262	0,073	0,024
-277,686	207,600	-0,044	0,049
-276,672	-152,480	0,150	0,008
-275,657	-103,345	-0,103	0,017
-274,643	-200,000	-0,021	-0,104
-273,628	106,253	-0,017	-0,015
-272,613	-167,658	0,067	-0,002
-271,599	-43,467	0,098	0,035
-270,584	314,824	-0,039	-0,053
-269,570	101,877	-0,092	-0,076
-268,555	-81,995	-0,082	-0,019
-267,540	-200,000	0,007	-0,101
-266,526	-112,392	-0,035	0,005
-265,511	-200,000	-0,023	-0,092
-264,497	149,715	-0,016	-0,016
-263,482	-200,000	0,034	0,130
-262,467	-74,179	-0,061	0,016
-261,453	-36,056	0,076	-0,029
-260,438	-123,576	0,077	0,009
-259,424	68,040	-0,051	0,037
-258,409	54,623	-0,008	0,006
-257,395	335,444	0,118	-0,163
-256,380	-200,000	0,009	-0,047
-255,365	-65,748	-0,145	-0,041
-254,351	423,720	-0,054	0,083
-253,336	167,045	-0,024	0,025
-252,322	-200,000	0,007	-0,079
-251,307	-152,680	-0,099	0,005
-250,292	800,000	-0,007	0,019
-249,278	800,000	0,076	0,165
-248,263	-200,000	-0,013	-0,070
-247,249	321,906	-0,038	0,051
-246,234	-156,709	-0,095	-0,004
-245,219	133,993	0,119	-0,110
-244,205	358,336	-0,064	-0,091
-243,190	-12,421	0,073	0,034
-242,176	567,043	-0,042	0,073
-241,161	800,000	0,022	0,065
-240,146	-57,236	-0,083	-0,026
-239,132	735,306	0,040	-0,077
-238,117	-200,000	-0,000	0,059
-237,103	35,671	-0,052	0,032
-236,088	-29,234	0,077	0,031
-235,073	-10,782	0,118	0,055
-234,059	-0,988	-0,189	-0,095
-233,044	-200,000	0,018	-0,136
-232,030	39,959	0,031	-0,020
-231,015	159,724	-0,088	-0,087
-230,000	-68,774	-0,078	-0,021
-228,986	57,246	-0,108	-0,075
-227,971	-12,565	0,067	0,031
-226,957	-84,103	0,090	0,020
-225,942	-200,000	-0,032	0,107
-224,927	-200,000	-0,003	-0,018
-223,913	505,980	-0,049	-0,081
-222,898	35,576	-0,124	-0,077
-221,884	255,610	0,028	-0,034
-220,869	26,148	0,085	0,050
-219,855	-200,000	-0,014	0,059
-218,840	-17,144	0,126	0,056
-217,825	-200,000	0,000	0,084
-216,811	8,355	-0,128	0,068
-215,796	215,931	-0,030	-0,034
-214,782	310,670	-0,015	-0,021
-213,767	75,784	0,033	-0,025
-212,752	-27,627	0,173	0,071
-211,738	51,093	-0,081	-0,055
-210,723	93,590	-0,120	0,096
-209,709	-20,429	0,034	-0,015
-208,694	-200,000	-0,009	-0,047
-207,679	-131,673	-0,148	0,014
-206,665	208,443	-0,042	0,047
-205,650	800,000	-0,048	0,103
-204,636	208,488	0,022	-0,025
-203,621	-8,626	-0,108	0,051
-202,606	800,000	0,042	0,096
-201,592	-28,668	-0,069	0,028
-200,577	-200,000	-0,003	-0,133
-199,563	-200,000	0,012	0,046
-198,548	-83,991	0,137	-0,031
-197,533	-200,000	-0,040	0,158
-196,519	800,000	-0,017	0,036
-195,504	84,155	-0,090	-0,070
-194,490	-110,906	-0,107	0,015
-193,475	-92,338	0,014	-0,003
-192,460	212,552	0,034	-0,038
-191,446	28,522	0,110	-0,066
-190,431	-200,000	0,027	-0,108
-189,417	30,464	0,049	0,029
-188,402	113,753	0,031	0,027
-187,387	394,506	0,036	-0,053
-186,373	-69,504	-0,066	-0,018
-185,358	276,635	-0,132	-0,167
-184,344	-200,000	-0,005	0,051
-183,329	800,000	0,016	0,043
-182,315	-178,753	0,186	-0,003
-181,300	141,144	-0,041	-0,038
-180,285	-169,261	-0,035	-0,001
-179,271	43,998	-0,062	0,040
-178,256	157,283	-0,065	-0,064
-177,242	-128,973	0,134	0,013
-176,227	62,999	0,066	0,047
-175,212	95,501	-0,049	0,040
-174,198	-200,000	0,004	-0,152
-173,183	198,487	0,067	0,073
-172,169	76,078	-0,157	-0,118
-171,154	466,793	0,058	0,093
-170,139	105,965	-0,056	-0,047
-169,125	-31,737	0,044	-0,017
-168,110	800,000	0,044	0,090
-167,096	34,288	-0,009	-0,006
-166,081	-41,698	-0,081	-0,029
-165,066	-200,000	-0,021	-0,066
-164,052	-77,905	0,079	0,019
-163,037	189,783	-0,050	-0,053
-162,023	-19,228	-0,083	-0,036
-161,008	-200,000	-0,002	0,022
-159,993	-12,195	0,090	-0,042
-158,979	-200,000	0,010	0,216
-157,964	-200,000	0,004	-0,076
-156,950	800,000	0,018	-0,050
-155,935	45,436	-0,120	0,078
-154,920	800,000	-0,038	0,109
-153,906	-109,699	-0,019	0,003
-152,891	-200,000	-0,035	0,162
-151,877	29,399	0,037	-0,022
-150,862	-165,188	-0,158	0,005
-149,847	-115,323	0,100	-0,013
-148,833	-200,000	-0,001	-0,076
-147,818	-187,537	0,185	0,002
-146,804	383,373	0,005	0,008
-145,789	278,015	0,183	0,231
-144,775	717,030	0,035	0,066
-143,760	232,399	0,031	-0,036
-142,745	588,166	-0,057	-0,101
-141,731	800,000	-0,028	-0,080
-140,716	-8,286	0,101	-0,048
-139,702	-200,000	-0,006	0,040
-138,687	86,133	-0,066	0,051
-137,672	-200,000	0,016	-0,151
-136,658	657,005	-0,122	-0,222
-135,643	-52,010	-0,041	0,013
-134,629	-131,112	-0,077	-0,007
-133,614	576,098	0,076	-0,132
-132,599	800,000	-0,023	-0,057
-131,585	-200,000	0,022	-0,132
-130,570	49,004	-0,076	0,050
-129,556	28,526	0,147	0,088
-128,541	488,572	-0,084	-0,137
-127,526	29,696	0,070	-0,042
-126,512	323,316	0,083	0,112
-125,497	115,312	0,110	0,095
-124,483	300,910	0,036	-0,047
-123,468	308,520	0,043	-0,057
-122,453	-101,570	-0,117	0,020
-121,439	-200,000	-0,005	0,058
-120,424	24,957	-0,044	-0,025
-119,410	-18,664	0,081	-0,035
-118,395	-148,783	-0,025	0,001
-117,380	-18,213	-0,163	-0,072
-116,366	32,148	0,045	0,027
-115,351	315,957	-0,017	0,023
-114,337	-170,728	-0,145	0,003
-113,322	800,000	0,021	-0,055
-112,307	800,000	0,034	0,088
-111,293	-200,000	-0,004	0,056
-110,278	-200,000	0,023	-0,122
-109,264	264,237	-0,010	0,013
-108,249	-95,325	-0,049	-0,009
-107,234	-200,000	-0,032	-0,103
-106,220	452,351	0,047	-0,073
-105,205	0,641	0,027	0,013
-104,191	66,928	0,147	-0,106
-103,176	444,212	0,034	-0,053
-102,162	-200,000	0,019	-0,116
-101,147	279,741	-0,040	0,051
-100,132	-37,857	0,067	-0,025
-99,118	230,678	0,011	-0,012
-98,103	800,000	-0,066	0,166
-97,089	14,786	0,138	0,076
-96,074	-119,723	-0,190	0,023
-95,059	800,000	0,038	-0,077
-94,045	800,000	-0,025	-0,056
-93,030	-200,000	0,014	0,107
-92,016	-118,057	-0,125	0,016
-91,001	-100,223	0,095	-0,016
-89,986	-200,000	0,007	0,143
-88,972	-200,000	-0,002	-0,066
-87,957	503,259	-0,070	-0,115
-86,943	-58,710	-0,091	-0,028
-85,928	724,632	0,087	-0,165
-84,913	-200,000	0,004	-0,041
-83,899	7,418	0,081	-0,043
-82,884	-138,954	0,080	-0,006
-81,870	148,502	-0,110	-0,105
-80,855	-200,000	0,008	0,033
-79,840	-164,507	0,192	-0,006
-78,826	-113,731	-0,013	-0,002
-77,811	-65,465	-0,120	-0,034
-76,797	-199,499	0,130	-0,000
-75,782	800,000	0,068	0,133
-74,767	248,568	-0,115	0,138
-73,753	-118,228	0,185	-0,023
-72,738	67,127	0,088	0,063
-71,724	-199,030	-0,027	0,000
-70,709	9,759	-0,048	0,026
-69,694	-3,473	0,085	-0,041
-68,680	385,869	0,038	0,055
-67,665	255,208	0,074	0,089
-66,651	-118,401	-0,060	-0,007
-65,636	-200,000	-0,010	0,121
-64,622	161,183	-0,112	-0,111
-63,607	-200,000	-0,000	-0,082
-62,592	221,491	-0,118	-0,134
-61,578	646,500	0,097	-0,175
-60,563	800,000	0,036	0,077
-59,549	-60,933	0,028	-0,008
-58,534	65,764	-2,201	-1,572
-57,519	607,646	-1,093	-1,932
-56,505	-200,000	-0,412	-4,351
-55,490	800,000	0,858	1,795
-54,476	800,000	5,258	11,094
-53,461	-200,000	22,377	344,898
-52,446	800,000	755,833	2291,005
-51,432	533,379	1640,397	2751,069
-50,417	67,840	1638,696	1180,457
-49,403	15,657	1515,969	838,204
-48,388	9,856	1441,790	769,409
-47,373	19,201	1434,361	809,807
-46,359	13,354	1422,793	775,736
-45,344	8,175	1418,770	749,095
-44,330	8,121	1417,076	747,915
-43,315	8,049	1415,191	746,552
-42,300	8,073	1413,344	745,664
-41,286	8,150	1412,007	745,289
-40,271	8,098	1410,809	744,382
-39,257	8,063	1409,946	743,733
-38,242	8,125	1408,435	743,196
-37,227	8,111	1407,805	742,770
-36,213	8,045	1406,371	741,675
-35,198	8,135	1405,009	741,350
-34,184	8,111	1404,207	740,784
-33,169	8,046	1402,868	739,744
-32,154	8,126	1401,766	739,509
-31,140	8,072	1400,596	738,609
-30,125	8,118	1399,371	738,147
-29,111	8,098	1398,137	737,375
-28,096	8,017	1397,396	736,580
-27,082	8,008	1395,970	735,754
-26,067	8,054	1394,933	735,394
-25,052	8,002	1393,814	734,530
-24,038	8,032	1392,924	734,174
-23,023	8,027	1392,187	733,732
-22,009	8,056	1391,042	733,235
-20,994	8,012	1389,999	732,454
-19,979	7,994	1389,135	731,886
-18,965	7,993	1388,098	731,303
-17,950	7,974	1387,234	730,733
-16,936	7,929	1386,423	730,068
-15,921	7,941	1385,317	729,512
-14,906	7,940	1384,440	729,016
-13,892	7,996	1383,219	728,601
-12,877	7,899	1382,852	727,933
-11,863	7,951	1381,934	727,662
-10,848	7,879	1381,127	726,876
-9,833	7,918	1379,801	726,327
-8,819	7,826	1379,231	725,580
-7,804	7,851	1378,166	725,102
-6,790	7,863	1377,148	724,594
-5,775	7,827	1376,299	723,956
-4,760	7,851	1375,254	723,485
-3,746	7,828	1374,299	722,847
-2,731	7,841	1373,419	722,418
-1,717	7,819	1372,722	721,921
-0,702	7,864	1370,817	721,098
0,313	11,821	1281,569	692,031
1,327	27,599	674,871	399,462
2,342	42,826	115,756	74,216
3,356	-2,373	16,376	8,065
4,371	6,220	3,724	1,941
5,386	-3,600	1,341	0,655
6,400	800,000	0,308	0,697
7,415	-179,952	-0,295	-0,004
8,429	57,348	-0,226	-0,155
9,444	107,177	-0,298	-0,250
10,459	84,985	-0,237	-0,183
11,473	56,202	-0,220	-0,150
12,488	-62,988	-0,276	-0,080
13,502	128,881	-0,286	-0,257
14,517	57,749	-0,318	-0,219
15,531	180,196	-0,365	-0,377
16,546	0,126	-0,335	-0,167
17,561	5,971	-0,300	-0,156
18,575	-77,491	-0,247	-0,060
19,590	37,415	-0,210	-0,131
20,604	50,056	-0,252	-0,167
21,619	42,454	-0,540	-0,345
22,634	139,735	-0,409	-0,379
23,648	85,196	-0,372	-0,287
24,663	51,629	-0,384	-0,257
25,677	369,223	-0,235	-0,335
26,692	98,315	-0,281	-0,228
27,707	221,331	-0,197	-0,223
28,721	28,914	-0,493	-0,293
29,736	266,201	-0,266	-0,328
30,750	57,369	-0,553	-0,379
31,765	299,215	-0,264	-0,343
32,780	-38,640	-0,312	-0,115
33,794	90,225	-0,285	-0,224
34,809	9,991	-0,390	-0,208
35,823	138,981	-0,303	-0,280
36,838	110,062	-0,326	-0,275
37,853	76,494	-0,308	-0,229
38,867	143,047	-0,351	-0,328
39,882	-13,734	-0,312	-0,141
40,896	21,380	-0,279	-0,159
41,911	-39,800	-0,388	-0,142
42,926	60,336	-0,326	-0,226
43,940	-2,960	-0,428	-0,209
44,955	-9,480	-0,384	-0,179
45,969	252,332	-0,262	-0,315
46,984	-18,901	-0,353	-0,153
47,999	-43,871	-0,366	-0,129
49,013	86,331	-0,386	-0,298
50,028	19,322	-0,274	-0,154
51,042	330,764	-0,285	-0,387
52,057	42,482	-0,281	-0,179
53,071	110,411	-0,232	-0,195
54,086	2,501	-0,311	-0,158
55,101	127,085	-0,331	-0,295
56,115	-62,907	-0,386	-0,111
57,130	-29,233	-0,284	-0,114
58,144	-77,843	-0,455	-0,109
59,159	147,487	-0,318	-0,301
60,174	26,882	-0,493	-0,289
61,188	48,282	-0,289	-0,190
62,203	66,161	-0,375	-0,266
63,217	-171,705	-0,298	-0,007
64,232	-125,422	-0,369	-0,039
65,247	-39,953	-0,455	-0,166
66,261	70,343	-0,378	-0,273
67,276	97,052	-0,290	-0,233
68,290	-17,874	-0,315	-0,138
69,305	38,780	-0,227	-0,141
70,320	-69,001	-0,339	-0,091
71,334	8,677	-0,310	-0,163
72,349	-77,194	-0,363	-0,088
73,363	-9,328	-0,360	-0,168
74,378	181,383	-0,233	-0,240
75,393	79,642	-0,285	-0,214
76,407	21,526	-0,299	-0,170
77,422	17,232	-0,293	-0,163
78,436	-35,969	-0,252	-0,095
79,451	129,456	-0,327	-0,293
80,466	158,555	-0,216	-0,210
81,480	144,678	-0,291	-0,272
82,495	-47,955	-0,442	-0,149
83,509	76,786	-0,201	-0,149
84,524	-158,608	-0,229	-0,009
85,539	100,785	-0,278	-0,226
86,553	-55,781	-0,189	-0,059
87,568	284,777	-0,232	-0,293
88,582	33,753	-0,256	-0,155
89,597	-49,139	-0,279	-0,093
90,611	-84,315	-0,307	-0,067
91,626	-80,628	-0,288	-0,067
92,641	-53,395	-0,267	-0,085
93,655	3,527	-0,249	-0,126
94,670	63,490	-0,294	-0,206
95,684	219,197	-0,288	-0,322
96,699	345,549	-0,179	-0,247
97,714	-9,055	-0,209	-0,097
98,728	19,773	-0,327	-0,184
99,743	165,862	-0,254	-0,251
100,757	38,434	-0,209	-0,130
101,772	-200,000	-0,323	0,000
102,787	80,037	-0,249	-0,187
103,801	-11,456	-0,260	-0,119
104,816	501,170	-0,136	-0,220
105,830	59,997	-0,289	-0,199
106,845	37,534	-0,287	-0,178
107,860	-50,878	-0,289	-0,094
108,874	-0,214	-0,226	-0,112
109,889	67,153	-0,279	-0,198
110,903	65,120	-0,206	-0,145
111,918	-18,907	-0,284	-0,123
112,933	-113,166	-0,182	-0,025
113,947	-17,809	-0,182	-0,079
114,962	490,826	-0,124	-0,199
115,976	-83,515	-0,316	-0,070
116,991	-7,610	-0,253	-0,119
118,006	273,528	-0,181	-0,223
119,020	-4,308	-0,334	-0,160
120,035	-52,139	-0,252	-0,081
121,049	76,709	-0,152	-0,113
122,064	579,871	-0,166	-0,285
123,079	353,746	-0,172	-0,238
124,093	217,491	-0,180	-0,200
125,108	32,755	-0,230	-0,138
126,122	76,817	-0,288	-0,213
127,137	133,487	-0,234	-0,211
128,151	161,402	-0,226	-0,221
129,166	-88,469	-0,314	-0,065
130,181	174,937	-0,176	-0,178
131,195	96,752	-0,268	-0,214
132,210	-200,000	-0,107	-0,332
133,224	-39,364	-0,238	-0,087
134,239	4,611	-0,290	-0,148
135,254	236,753	-0,221	-0,255
136,268	13,704	-0,268	-0,145
137,283	379,064	-0,163	-0,233
138,297	52,918	-0,301	-0,200
139,312	21,367	-0,265	-0,150
140,327	3,387	-0,203	-0,103
141,341	114,456	-0,186	-0,158
142,356	-15,981	-0,274	-0,121
143,370	385,369	-0,083	-0,120
144,385	20,490	-0,224	-0,126
145,400	23,873	-0,193	-0,110
146,414	-38,521	-0,324	-0,118
147,429	28,318	-0,276	-0,162
148,443	134,928	-0,233	-0,211
149,458	159,362	-0,208	-0,202
150,473	218,718	-0,167	-0,186
151,487	-200,000	-0,317	0,000
152,502	508,024	-0,146	-0,237
153,516	17,913	-0,308	-0,170
154,531	-106,412	-0,259	-0,040
155,546	800,000	-0,140	-0,360
156,560	-13,306	-0,238	-0,107
157,575	81,810	-0,200	-0,151
158,589	-88,036	-0,246	-0,051
159,604	356,942	-0,188	-0,262
160,619	108,496	-0,284	-0,236
161,633	-123,397	-0,263	-0,029
162,648	275,717	-0,127	-0,156
163,662	262,368	-0,092	-0,112
164,677	-88,647	-0,220	-0,045
165,692	-18,333	-0,256	-0,111
166,706	13,150	-0,216	-0,116
167,721	101,064	-0,284	-0,229
168,735	92,859	-0,206	-0,162
169,750	259,160	-0,156	-0,188
170,764	-51,438	-0,059	0,019
171,779	272,479	-0,197	-0,242
172,794	64,762	-0,157	-0,110
173,808	112,309	-0,137	-0,115
174,823	77,139	-0,156	-0,115
175,837	157,963	-0,245	-0,236
176,852	169,319	-0,158	-0,157
177,867	-32,458	-0,180	0,069
178,881	102,627	-0,216	-0,175
179,896	181,111	-0,133	-0,136
180,910	-200,000	-0,067	-0,279
181,925	81,600	-0,309	-0,232
182,940	332,119	-0,188	-0,253
183,954	-19,992	-0,291	-0,124
184,969	7,616	-0,304	-0,157
185,983	133,647	-0,096	0,086
186,998	68,787	-0,166	-0,118
188,013	176,984	-0,154	-0,155
189,027	361,473	-0,189	-0,264
190,042	709,087	-0,156	-0,288
191,056	800,000	-0,119	-0,285
192,071	43,836	-0,241	-0,153
193,086	303,673	-0,166	-0,213
194,100	239,917	-0,132	-0,153
195,115	32,013	-0,261	-0,155
196,129	14,744	-0,229	-0,124
197,144	89,230	-0,242	-0,187
198,159	206,564	-0,146	-0,158
199,173	111,861	-0,201	-0,168
200,188	127,828	-0,153	-0,134
201,202	-61,594	-0,096	0,028
202,217	-124,504	-0,131	-0,014
203,232	-113,328	-0,261	-0,035
204,246	25,890	-0,176	-0,101
205,261	49,922	-0,258	-0,168
206,275	86,947	-0,164	-0,125
207,290	36,427	-0,239	-0,146
208,304	41,521	-0,148	-0,093
209,319	-128,229	-0,182	-0,018
210,334	454,198	-0,120	-0,184
211,348	196,087	-0,166	-0,175
212,363	800,000	-0,122	-0,250
213,377	87,824	-0,323	-0,247
214,392	87,745	-0,200	-0,154
215,407	235,190	-0,097	-0,111
216,421	-145,456	-0,266	-0,016
217,436	-100,221	-0,288	-0,049
218,450	34,122	-0,267	-0,161
219,465	284,897	-0,218	-0,272
220,480	472,272	-0,091	-0,142
221,494	138,313	-0,096	-0,087
222,509	800,000	-0,093	-0,215
223,523	-80,699	-0,155	-0,035
224,538	800,000	-0,111	-0,215
225,553	800,000	-0,170	-0,357
226,567	16,509	-0,280	-0,152
227,582	212,732	-0,165	-0,180
228,596	339,809	-0,084	-0,114
229,611	82,161	-0,125	-0,094
230,626	85,964	-0,129	-0,098
231,640	-105,379	-0,253	-0,039
232,655	13,777	-0,166	-0,089
233,669	253,487	-0,178	-0,210
234,684	-56,401	-0,124	-0,038
235,699	150,661	-0,140	-0,131
236,713	148,930	-0,116	-0,108
237,728	-66,367	-0,196	-0,053
238,742	-49,220	-0,241	-0,079
239,757	103,737	-0,144	-0,116
240,772	25,238	-0,176	-0,101
241,786	44,892	-0,194	-0,123
242,801	-200,000	-0,004	-0,097
243,815	579,224	-0,083	-0,140
244,830	59,855	-0,115	-0,078
245,844	-139,246	-0,213	-0,016
246,859	-81,935	-0,231	-0,052
247,874	25,946	-0,152	-0,087
248,888	374,390	-0,217	-0,305
249,903	-81,639	-0,193	-0,043
250,917	104,184	-0,227	-0,184
251,932	78,631	-0,113	-0,084
252,947	436,919	-0,125	-0,188
253,961	-146,918	-0,233	0,014
254,976	-12,664	-0,251	-0,112
255,990	19,727	-0,131	-0,073
257,005	-121,165	-0,149	-0,017
258,020	-115,275	-0,026	0,003
259,034	323,141	-0,109	-0,144
260,049	-134,432	-0,140	0,012
261,063	-131,685	-0,223	-0,020
262,078	-51,544	-0,193	-0,062
263,093	546,456	-0,175	-0,289
264,107	52,323	-0,158	-0,103
265,122	-200,000	-0,004	-0,227
266,136	144,590	-0,063	-0,058
267,151	-51,596	-0,145	-0,046
268,166	-11,731	-0,138	-0,062
269,180	107,737	-0,147	-0,120
270,195	305,863	-0,161	-0,206
271,209	-12,372	-0,177	-0,079
272,224	141,021	-0,136	-0,124
273,239	-65,290	-0,106	0,029
274,253	287,510	-0,146	-0,182
275,268	-39,151	-0,316	-0,114
276,282	91,189	-0,248	-0,191
277,297	-34,751	-0,130	-0,049
278,312	220,756	-0,208	-0,229
279,326	-140,790	-0,242	0,017
280,341	-200,000	-0,002	-0,178
281,355	27,776	-0,252	-0,146
282,370	23,100	-0,269	-0,152
283,384	390,511	-0,080	-0,114
284,399	-113,016	-0,185	-0,025
285,414	42,110	-0,160	-0,100
286,428	110,836	-0,237	-0,196
287,443	178,562	-0,080	-0,081
288,457	75,162	-0,094	-0,068
289,472	313,515	0,040	-0,051
290,487	436,610	-0,097	-0,145
291,501	58,114	-0,177	-0,119
292,516	-200,000	-0,018	-0,126
293,530	800,000	-0,074	-0,153
294,545	211,973	-0,100	-0,108
295,560	256,185	-0,099	-0,117
296,574	84,419	-0,074	-0,056
297,589	99,428	-0,254	-0,202
298,603	-117,824	-0,207	0,025
299,618	75,930	-0,211	-0,153
300,633	469,749	-0,065	-0,100
301,647	-200,000	-0,004	-0,086
302,662	337,545	-0,129	-0,172
303,676	384,170	-0,173	-0,246
304,691	102,913	-0,133	-0,107
305,706	45,948	-0,105	-0,067
306,720	239,129	-0,073	-0,083
307,735	244,520	-0,105	-0,121
308,749	0,882	-0,104	-0,051
309,764	101,308	-0,217	-0,173
310,779	64,322	-0,105	-0,072
311,793	-132,109	-0,134	0,012
312,808	149,080	-0,236	-0,219
313,822	113,449	-0,204	-0,170
314,837	118,140	-0,183	-0,155
315,852	-37,773	-0,124	-0,045
316,866	138,729	-0,086	-0,077
317,881	-98,641	-0,122	0,021
318,895	-67,118	-0,155	-0,041
319,910	-18,351	-0,259	-0,111
320,925	47,660	-0,247	-0,157
321,939	-102,975	-0,142	-0,023
322,954	12,149	0,083	0,044
323,968	-200,000	-0,051	-0,162
324,983	-1,119	-0,121	-0,059
325,997	-29,501	-0,025	-0,010
327,012	-36,456	-0,154	-0,057
328,027	43,902	-0,149	-0,093
329,041	-67,726	-0,126	0,033
330,056	-200,000	-0,022	-0,123
331,070	-81,524	-0,133	-0,030
332,085	73,635	-0,133	-0,095
333,100	378,034	-0,060	-0,084
334,114	800,000	-0,084	-0,171
335,129	-110,594	-0,224	0,031
336,143	-27,518	-0,193	-0,076
337,158	109,809	-0,123	-0,101
338,173	-9,835	-0,011	-0,005
339,187	498,438	-0,058	-0,091
340,202	-106,382	-0,085	-0,013
341,216	800,000	-0,017	-0,039
342,231	296,486	-0,166	-0,208
343,246	341,126	-0,191	-0,256
344,260	149,879	-0,034	0,032
345,275	-134,672	-0,161	-0,013
346,289	27,106	-0,109	-0,062
347,304	-24,456	-0,182	-0,074
348,319	-167,652	-0,174	0,005
349,333	278,576	-0,105	-0,128
350,348	45,979	-0,163	-0,103
351,362	-95,418	-0,129	-0,023
352,377	-200,000	-0,000	0,089
353,392	-174,552	-0,157	0,003
354,406	-10,211	-0,111	-0,050
355,421	206,446	1305,137	1390,591
356,435	158,770	1464,650	1391,049
