DTS Sentinel unit serial number:	SN410029Multiplexer serial number:	ORYXHardware model number:	OX2-SRSoftware version number:	ORYX F/W v4,00 Oryx Data Collector v3.7.2.0data status	okinstallation	B3 Nyhavnadifferential loss correction	single-endedforward channel	channel 1reverse channel	N/Adate	2023/12/04time	16:17:30forward acquisition time	300,00reverse acquisition time	0,00gamma	499,1914k internal	0,3200k external	0,3200temperature offset calibration	1,0000default loss term (dB/km)	0,3820temperature slope calibration	1,0000multiplexer offset coefficient	1,0000multiplexer slope coefficient	1,0000fibre end	0,00T internal ref (°C)	15,20T ext. ref 1 (°C)	0,31T ext. ref 2 (°C)	0,30length (m)	temperature (°C)	Stokes	anti-Stokes-744,400	800,000	-0,139	-0,287
-743,385	-200,000	0,045	0,241
-742,371	-35,336	-0,089	-0,035
-741,356	-200,000	0,042	0,286
-740,342	-200,000	-0,030	-0,351
-739,327	-200,000	0,058	0,316
-738,312	358,088	-0,217	-0,317
-737,298	-200,000	0,033	0,209
-736,283	21,755	-0,172	-0,102
-735,269	-200,000	0,040	0,318
-734,254	800,000	-0,121	-0,271
-733,239	27,748	-0,106	0,065
-732,225	671,212	-0,118	-0,223
-731,210	64,928	0,039	0,029
-730,196	185,770	-0,087	-0,094
-729,181	-200,000	0,025	-0,096
-728,167	212,041	0,046	0,053
-727,152	-117,335	0,129	-0,017
-726,137	412,437	-0,103	0,160
-725,123	-200,000	-0,016	-0,083
-724,108	-130,523	0,026	0,003
-723,094	-66,047	-0,026	0,008
-722,079	800,000	-0,068	-0,172
-721,064	49,271	0,132	-0,090
-720,050	-16,774	0,077	-0,035
-719,035	8,792	-0,137	-0,075
-718,021	-57,142	-0,109	-0,035
-717,006	800,000	0,032	0,098
-715,991	-200,000	-0,023	-0,073
-714,977	466,738	0,059	-0,097
-713,962	-200,000	0,009	-0,108
-712,948	149,227	-0,045	-0,045
-711,933	-71,157	-0,103	-0,028
-710,918	-59,184	-0,085	-0,026
-709,904	427,417	-0,079	-0,124
-708,889	800,000	0,052	-0,110
-707,875	800,000	0,024	-0,053
-706,860	-187,829	0,055	0,001
-705,845	-200,000	0,040	-0,138
-704,831	-120,384	0,090	-0,011
-703,816	176,605	0,127	0,134
-702,802	96,575	0,014	-0,012
-701,787	-72,985	-0,056	0,015
-700,772	24,903	-0,069	-0,042
-699,758	-71,261	-0,110	0,030
-698,743	4,055	0,123	-0,065
-697,729	-49,650	-0,075	0,026
-696,714	366,654	0,063	0,093
-695,699	-200,000	-0,006	0,098
-694,685	391,552	-0,044	-0,067
-693,670	-200,000	-0,048	-0,174
-692,656	116,711	-0,069	0,061
-691,641	322,626	0,045	-0,062
-690,627	-151,969	0,052	-0,003
-689,612	229,975	-0,061	0,073
-688,597	800,000	0,034	-0,078
-687,583	362,555	0,064	0,093
-686,568	288,916	-0,044	-0,058
-685,554	800,000	-0,050	0,107
-684,539	437,055	0,047	0,075
-683,524	375,681	-0,048	-0,071
-682,510	58,805	0,088	0,063
-681,495	-131,540	-0,152	0,014
-680,481	800,000	0,038	-0,086
-679,466	-200,000	0,025	-0,120
-678,451	-152,183	0,109	-0,006
-677,437	-157,282	-0,083	0,004
-676,422	301,020	0,037	0,050
-675,408	244,525	-0,067	0,082
-674,393	-155,344	-0,012	-0,001
-673,378	-56,461	-0,174	0,056
-672,364	800,000	0,011	0,030
-671,349	-200,000	0,002	0,117
-670,335	-88,651	0,032	0,007
-669,320	193,066	-0,112	0,122
-668,305	130,467	0,016	0,015
-667,291	22,229	0,047	-0,028
-666,276	-174,003	-0,064	-0,001
-665,262	-66,081	-0,070	-0,020
-664,247	800,000	0,083	-0,226
-663,232	-200,000	-0,020	-0,102
-662,218	-200,000	-0,021	-0,080
-661,203	-66,350	-0,056	-0,016
-660,189	800,000	0,034	0,080
-659,174	-33,465	-0,047	0,019
-658,159	-200,000	0,004	-0,079
-657,145	785,073	0,085	-0,170
-656,130	23,599	-0,072	-0,043
-655,116	-200,000	-0,005	-0,084
-654,101	299,963	0,084	0,113
-653,086	783,854	-0,055	0,109
-652,072	629,352	-0,036	-0,066
-651,057	-67,970	-0,052	0,015
-650,043	173,639	-0,074	-0,078
-649,028	-84,886	0,043	0,010
-648,014	338,195	-0,093	0,131
-646,999	87,084	-0,066	0,053
-645,984	58,950	-0,049	-0,035
-644,970	40,050	0,102	-0,067
-643,955	-109,630	-0,196	-0,030
-642,941	123,050	0,061	-0,055
-641,926	352,648	-0,117	-0,169
-640,911	-39,159	0,005	0,002
-639,897	800,000	0,024	0,064
-638,882	132,337	0,024	0,023
-637,868	201,438	0,057	-0,064
-636,853	-70,507	0,055	0,015
-635,838	-200,000	-0,010	-0,140
-634,824	138,563	0,078	-0,074
-633,809	136,877	0,094	0,089
-632,795	-200,000	0,037	0,207
-631,780	49,741	0,012	0,008
-630,765	557,983	-0,012	-0,021
-629,751	-200,000	-0,007	0,027
-628,736	-140,329	-0,025	0,002
-627,722	800,000	-0,045	0,096
-626,707	-16,360	-0,064	0,029
-625,692	675,583	0,023	0,043
-624,678	-200,000	-0,011	0,138
-623,663	268,079	0,062	0,079
-622,649	327,569	0,013	-0,018
-621,634	-200,000	0,014	0,095
-620,619	533,166	-0,029	0,050
-619,605	-200,000	0,007	-0,055
-618,590	45,902	0,159	-0,106
-617,576	91,843	0,062	0,050
-616,561	464,370	-0,042	0,068
-615,546	-200,000	-0,030	0,131
-614,532	-135,791	-0,077	-0,006
-613,517	-200,000	0,038	-0,162
-612,503	25,493	-0,049	0,029
-611,488	-160,396	0,117	-0,004
-610,474	-200,000	0,003	-0,059
-609,459	52,327	-0,026	0,018
-608,444	519,013	0,040	-0,068
-607,430	9,921	0,074	-0,041
-606,415	-162,753	-0,159	0,006
-605,401	-200,000	-0,010	-0,104
-604,386	405,509	-0,037	0,056
-603,371	214,601	-0,040	-0,045
-602,357	-200,000	-0,024	0,190
-601,342	800,000	-0,056	-0,157
-600,328	-200,000	-0,011	-0,083
-599,313	234,129	0,007	-0,008
-598,298	-109,173	0,009	0,001
-597,284	-200,000	0,024	0,092
-596,269	84,187	0,161	0,127
-595,255	37,114	-0,048	-0,031
-594,240	-200,000	-0,037	-0,141
-593,225	-200,000	-0,009	-0,134
-592,211	-137,981	-0,139	0,011
-591,196	800,000	0,020	0,043
-590,182	30,196	-0,020	-0,013
-589,167	-69,615	0,051	-0,014
-588,152	-18,064	-0,090	0,041
-587,138	-113,006	-0,124	0,018
-586,123	-200,000	0,002	-0,037
-585,109	-157,597	-0,123	-0,005
-584,094	204,421	0,071	-0,079
-583,079	-47,698	-0,089	0,031
-582,065	-200,000	0,007	-0,028
-581,050	503,707	0,095	0,160
-580,036	-200,000	-0,003	-0,093
-579,021	-117,596	0,051	0,007
-578,006	-200,000	0,005	-0,078
-576,992	-145,944	0,056	0,004
-575,977	-99,910	0,089	-0,016
-574,963	-200,000	-0,018	0,139
-573,948	-59,088	-0,002	-0,001
-572,934	-74,140	0,094	0,024
-571,919	197,870	-0,060	-0,066
-570,904	-39,792	-0,018	0,007
-569,890	-99,264	0,130	0,024
-568,875	800,000	0,034	0,088
-567,861	-200,000	0,007	0,060
-566,846	-4,593	-0,049	0,024
-565,831	698,174	-0,043	-0,081
-564,817	227,152	0,144	-0,169
-563,802	800,000	-0,033	-0,071
-562,788	-200,000	-0,004	-0,028
-561,773	13,874	-0,219	-0,123
-560,758	57,786	0,060	-0,042
-559,744	-20,095	0,085	-0,038
-558,729	19,552	-0,051	0,029
-557,715	73,465	-0,085	-0,064
-556,700	213,603	0,059	-0,067
-555,685	-150,605	-0,150	0,008
-554,671	-144,850	0,136	-0,009
-553,656	-107,038	-0,115	-0,018
-552,642	-32,370	0,053	0,021
-551,627	410,809	0,044	-0,068
-550,612	-200,000	0,014	-0,145
-549,598	43,034	-0,061	0,040
-548,583	-200,000	0,021	-0,108
-547,569	-200,000	-0,017	-0,192
-546,554	800,000	0,060	-0,180
-545,539	-200,000	-0,031	-0,100
-544,525	359,141	-0,076	0,110
-543,510	185,462	-0,099	0,106
-542,496	226,135	-0,008	0,009
-541,481	-200,000	0,011	-0,054
-540,466	-200,000	0,020	-0,100
-539,452	-200,000	-0,017	0,175
-538,437	-60,806	-0,040	0,012
-537,423	-53,587	0,125	0,041
-536,408	-200,000	-0,030	0,124
-535,393	304,887	-0,036	0,049
-534,379	125,020	-0,040	-0,037
-533,364	677,848	-0,038	-0,071
-532,350	87,904	-0,044	0,035
-531,335	-200,000	0,052	-0,169
-530,321	-200,000	0,016	-0,055
-529,306	800,000	-0,012	0,033
-528,291	-152,782	-0,099	-0,005
-527,277	-131,774	0,045	0,004
-526,262	120,574	0,045	0,040
-525,248	197,040	-0,012	0,013
-524,233	-133,289	-0,033	0,003
-523,218	800,000	0,024	0,060
-522,204	188,665	-0,076	-0,082
-521,189	54,665	0,051	0,036
-520,175	800,000	-0,004	-0,012
-519,160	800,000	-0,031	0,075
-518,145	800,000	0,029	-0,088
-517,131	-200,000	-0,001	0,034
-516,116	800,000	0,075	0,183
-515,102	-165,536	-0,147	-0,005
-514,087	-106,839	-0,125	0,020
-513,072	800,000	0,009	-0,020
-512,058	188,296	-0,046	0,050
-511,043	347,583	0,019	-0,028
-510,029	66,234	0,217	0,159
-509,014	315,373	-0,050	-0,068
-507,999	470,424	0,056	0,092
-506,985	-200,000	0,024	0,106
-505,970	-200,000	-0,021	-0,107
-504,956	186,032	-0,022	-0,023
-503,941	19,685	0,013	0,007
-502,926	-200,000	0,002	-0,033
-501,912	122,049	0,054	0,049
-500,897	280,023	0,076	0,098
-499,883	-200,000	-0,036	-0,156
-498,868	800,000	-0,023	-0,073
-497,853	19,022	-0,090	-0,052
-496,839	-156,549	-0,196	-0,009
-495,824	178,559	0,039	-0,041
-494,810	800,000	0,049	0,101
-493,795	-200,000	0,013	0,093
-492,781	-56,244	-0,086	0,027
-491,766	53,319	-0,191	-0,132
-490,751	-13,381	0,064	0,030
-489,737	-49,440	0,087	-0,030
-488,722	-119,740	-0,129	0,016
-487,708	-200,000	-0,005	0,134
-486,693	508,902	0,041	0,069
-485,678	-27,452	0,036	-0,015
-484,664	118,665	-0,042	0,037
-483,649	798,460	0,045	-0,090
-482,635	71,261	-0,028	-0,021
-481,620	-200,000	-0,011	0,131
-480,605	57,369	0,036	0,025
-479,591	-78,952	-0,031	-0,008
-478,576	70,057	-0,063	-0,047
-477,562	-200,000	0,012	-0,076
-476,547	-200,000	0,003	0,044
-475,532	800,000	0,022	0,066
-474,518	226,714	0,070	0,082
-473,503	130,578	0,061	-0,057
-472,489	148,007	0,129	-0,125
-471,474	800,000	-0,033	-0,083
-470,459	-77,863	-0,062	-0,015
-469,445	48,822	-0,042	-0,029
-468,430	-22,578	-0,138	-0,060
-467,416	-33,898	-0,102	0,040
-466,401	-65,087	0,067	-0,019
-465,386	57,345	0,086	0,060
-464,372	-200,000	0,008	0,179
-463,357	-48,901	-0,070	-0,024
-462,343	372,094	-0,017	0,025
-461,328	800,000	0,018	0,052
-460,313	-88,542	0,049	0,010
-459,299	391,115	0,088	0,131
-458,284	0,034	-0,057	-0,029
-457,270	607,826	-0,016	-0,028
-456,255	-200,000	-0,032	-0,183
-455,241	800,000	-0,016	-0,050
-454,226	664,248	0,021	0,038
-453,211	260,581	0,072	0,089
-452,197	445,588	0,114	0,181
-451,182	641,239	0,014	0,025
-450,168	-200,000	0,007	0,118
-449,153	140,303	-0,089	-0,084
-448,138	-56,245	0,122	0,039
-447,124	-46,790	-0,203	-0,071
-446,109	-200,000	-0,008	-0,040
-445,095	800,000	0,074	-0,157
-444,080	-200,000	0,008	-0,036
-443,065	413,829	-0,016	0,025
-442,051	-200,000	0,007	-0,031
-441,036	-16,122	0,042	0,019
-440,022	197,701	-0,060	-0,066
-439,007	-200,000	0,015	0,141
-437,992	12,852	0,126	0,070
-436,978	-21,922	0,259	0,113
-435,963	242,939	0,048	0,058
-434,949	302,852	0,030	-0,040
-433,934	-172,890	-0,124	0,003
-432,919	800,000	-0,023	0,050
-431,905	81,271	-0,032	-0,025
-430,890	-116,447	0,069	0,009
-429,876	-38,710	0,003	0,001
-428,861	-200,000	-0,029	0,093
-427,846	26,378	0,049	-0,030
-426,832	183,735	-0,136	-0,144
-425,817	800,000	0,021	0,047
-424,803	-76,356	-0,050	0,013
-423,788	-200,000	0,025	0,092
-422,773	800,000	-0,038	0,119
-421,759	-50,592	0,156	-0,053
-420,744	665,082	-0,057	-0,107
-419,730	-200,000	-0,036	-0,118
-418,715	800,000	0,015	-0,038
-417,701	-200,000	0,009	0,182
-416,686	-91,886	-0,152	0,031
-415,671	183,204	-0,070	0,074
-414,657	-200,000	0,036	0,123
-413,642	63,794	-0,004	-0,003
-412,628	238,022	-0,023	0,027
-411,613	201,930	0,100	-0,111
-410,598	-200,000	0,006	0,056
-409,584	-200,000	-0,008	-0,107
-408,569	-200,000	0,003	0,046
-407,555	-54,201	0,089	-0,029
-406,540	-200,000	0,004	-0,056
-405,525	44,251	-0,107	-0,070
-404,511	800,000	-0,032	-0,066
-403,496	-91,891	-0,108	-0,022
-402,482	-152,893	-0,096	-0,005
-401,467	13,599	0,118	0,066
-400,452	19,020	0,035	0,020
-399,438	-200,000	-0,006	0,043
-398,423	124,708	0,070	-0,064
-397,409	-199,567	-0,065	0,000
-396,394	173,281	0,103	-0,107
-395,379	474,860	-0,012	-0,020
-394,365	-200,000	-0,023	-0,086
-393,350	-200,000	-0,013	0,093
-392,336	-9,806	-0,060	0,028
-391,321	25,509	0,105	-0,063
-390,306	-200,000	-0,041	-0,166
-389,292	222,681	-0,144	-0,166
-388,277	-200,000	0,008	0,100
-387,263	19,265	0,105	0,060
-386,248	91,250	0,105	0,085
-385,233	-200,000	-0,012	-0,144
-384,219	800,000	-0,045	-0,097
-383,204	-200,000	-0,009	-0,071
-382,190	-69,526	0,053	-0,014
-381,175	-71,977	0,159	0,042
-380,160	103,430	0,075	0,063
-379,146	-82,811	0,099	-0,023
-378,131	411,918	-0,105	-0,161
-377,117	28,732	-0,129	0,078
-376,102	-168,058	0,023	0,001
-375,088	800,000	-0,030	-0,063
-374,073	337,862	-0,038	-0,053
-373,058	-200,000	0,028	0,202
-372,044	94,983	0,022	0,018
-371,029	36,941	0,106	-0,067
-370,015	-200,000	-0,004	-0,139
-369,000	800,000	-0,030	-0,082
-367,985	-200,000	0,012	-0,148
-366,971	93,601	0,010	-0,008
-365,956	19,358	0,056	0,032
-364,942	800,000	-0,047	-0,105
-363,927	-176,470	0,169	-0,003
-362,912	-200,000	-0,007	0,107
-361,898	-200,000	-0,031	0,117
-360,883	41,759	-0,080	-0,052
-359,869	608,908	-0,054	0,098
-358,854	-49,738	-0,056	-0,019
-357,839	18,836	-0,076	0,044
-356,825	67,259	0,076	-0,056
-355,810	194,221	-0,023	0,025
-354,796	-200,000	0,024	-0,158
-353,781	703,819	-0,044	-0,084
-352,766	342,032	0,019	-0,027
-351,752	751,673	0,084	-0,163
-350,737	-15,654	0,168	0,077
-349,723	-50,525	0,097	0,033
-348,708	339,227	0,035	-0,048
-347,693	-77,717	-0,078	-0,019
-346,679	206,839	-0,047	-0,053
-345,664	-37,709	0,181	0,069
-344,650	-200,000	-0,001	-0,055
-343,635	-4,681	0,033	0,016
-342,620	800,000	0,098	0,196
-341,606	-53,445	0,031	-0,010
-340,591	179,883	0,075	0,079
-339,577	9,511	0,090	-0,048
-338,562	-47,663	-0,170	-0,059
-337,548	84,602	-0,050	-0,039
-336,533	800,000	0,018	0,045
-335,518	31,602	0,116	0,071
-334,504	-200,000	0,010	0,045
-333,489	-35,775	-0,104	-0,040
-332,475	54,500	0,122	0,084
-331,460	156,478	-0,081	0,080
-330,445	-200,000	-0,001	-0,004
-329,431	-44,475	-0,005	0,002
-328,416	13,490	0,137	-0,076
-327,402	800,000	-0,067	0,146
-326,387	-67,958	-0,094	-0,026
-325,372	-88,910	-0,039	0,008
-324,358	800,000	0,014	0,036
-323,343	-200,000	0,016	0,062
-322,329	338,053	0,089	0,125
-321,314	323,394	-0,018	0,024
-320,299	-149,297	0,083	0,005
-319,285	-14,902	-0,100	0,046
-318,270	221,145	-0,084	-0,097
-317,256	-200,000	0,006	-0,031
-316,241	-200,000	-0,015	0,163
-315,226	185,320	-0,108	-0,115
-314,212	-144,479	0,114	-0,007
-313,197	89,604	0,110	0,088
-312,183	139,263	0,131	0,123
-311,168	800,000	-0,053	-0,114
-310,153	103,076	0,009	0,008
-309,139	-200,000	0,023	-0,076
-308,124	-164,769	0,099	-0,003
-307,110	-200,000	0,006	0,075
-306,095	-200,000	0,002	0,010
-305,080	800,000	0,014	-0,039
-304,066	-74,323	-0,136	-0,035
-303,051	-31,781	0,044	-0,017
-302,037	-200,000	0,025	0,111
-301,022	-200,000	-0,004	0,029
-300,008	-116,161	0,136	-0,018
-298,993	-200,000	-0,008	0,072
-297,978	402,028	0,057	0,086
-296,964	-31,460	0,078	0,031
-295,949	-96,922	-0,093	0,017
-294,935	125,950	0,058	-0,052
-293,920	134,294	-0,024	0,022
-292,905	332,131	-0,012	-0,017
-291,891	-103,468	0,121	0,020
-290,876	419,767	0,026	0,040
-289,862	405,801	-0,040	-0,060
-288,847	141,641	-0,064	0,060
-287,832	-147,641	-0,121	0,007
-286,818	-9,737	-0,152	-0,072
-285,803	-37,791	-0,143	-0,054
-284,789	800,000	0,035	0,071
-283,774	-200,000	0,026	-0,151
-282,759	694,157	-0,026	0,049
-281,745	582,912	0,055	-0,096
-280,730	297,427	-0,029	0,038
-279,716	434,922	0,064	-0,100
-278,701	683,407	-0,032	0,060
-277,686	-200,000	0,022	0,150
-276,672	8,146	0,078	-0,042
-275,657	588,907	-0,049	-0,086
-274,643	710,484	-0,035	-0,066
-273,628	800,000	0,034	-0,074
-272,613	37,712	0,077	0,049
-271,599	35,126	0,092	0,057
-270,584	800,000	-0,029	-0,068
-269,570	170,856	0,103	0,105
-268,555	441,009	-0,081	0,128
-267,540	-200,000	-0,012	-0,041
-266,526	-200,000	0,000	-0,112
-265,511	-200,000	-0,016	-0,066
-264,497	-143,845	0,029	0,002
-263,482	-200,000	0,017	0,124
-262,467	330,835	0,084	0,115
-261,453	129,896	0,041	0,037
-260,438	324,478	0,045	0,061
-259,424	52,954	-0,095	-0,065
-258,409	-58,942	-0,096	-0,029
-257,395	-62,313	-0,071	0,021
-256,380	-200,000	0,030	0,166
-255,365	800,000	0,021	0,043
-254,351	-200,000	0,023	0,130
-253,336	279,663	-0,042	0,053
-252,322	-64,379	-0,126	0,036
-251,307	800,000	-0,065	-0,162
-250,292	380,124	-0,019	-0,028
-249,278	587,317	-0,049	0,086
-248,263	800,000	-0,010	0,021
-247,249	800,000	0,019	0,049
-246,234	800,000	-0,056	0,119
-245,219	-100,677	-0,103	-0,018
-244,205	-49,027	-0,041	0,014
-243,190	800,000	0,040	-0,089
-242,176	-81,129	0,098	-0,023
-241,161	29,091	0,138	0,083
-240,146	800,000	-0,031	0,095
-239,132	182,001	-0,037	-0,039
-238,117	-92,996	-0,063	0,012
-237,103	403,305	-0,081	-0,122
-236,088	282,536	0,054	0,069
-235,073	800,000	-0,012	0,034
-234,059	70,852	-0,026	0,020
-233,044	82,559	-0,070	-0,054
-232,030	-200,000	-0,004	0,034
-231,015	133,650	-0,050	0,046
-230,000	800,000	-0,008	-0,020
-228,986	92,173	0,065	-0,052
-227,971	357,340	-0,016	0,023
-226,957	-142,315	0,152	-0,011
-225,942	294,969	0,039	0,051
-224,927	32,423	0,080	-0,049
-223,913	-200,000	-0,043	-0,148
-222,898	-148,060	-0,048	-0,003
-221,884	302,755	-0,062	-0,082
-220,869	-156,172	0,101	0,004
-219,855	-20,868	0,092	-0,040
-218,840	372,486	-0,054	0,079
-217,825	-200,000	0,004	-0,036
-216,811	-200,000	-0,012	-0,068
-215,796	-200,000	-0,003	0,070
-214,782	800,000	-0,044	-0,106
-213,767	-163,761	0,060	-0,002
-212,752	-164,761	0,168	-0,005
-211,738	-31,249	0,068	0,027
-210,723	-163,799	-0,020	0,001
-209,709	-24,567	-0,019	0,008
-208,694	-103,001	-0,217	-0,036
-207,679	183,174	-0,077	-0,082
-206,665	449,741	-0,049	0,078
-205,650	-191,216	0,072	0,001
-204,636	-6,098	-0,081	-0,039
-203,621	-161,455	0,089	0,003
-202,606	800,000	-0,025	0,070
-201,592	450,260	0,090	-0,143
-200,577	217,172	0,013	-0,014
-199,563	-200,000	-0,042	0,140
-198,548	-5,350	0,107	0,052
-197,533	-200,000	-0,037	0,140
-196,519	-94,580	0,077	0,015
-195,504	-44,974	-0,097	-0,034
-194,490	-113,229	-0,194	-0,027
-193,475	785,763	-0,029	0,057
-192,460	-200,000	-0,021	-0,141
-191,446	-89,718	0,122	-0,025
-190,431	-200,000	-0,021	0,118
-189,417	12,548	-0,036	-0,020
-188,402	-73,141	-0,052	0,014
-187,387	250,006	-0,108	-0,131
-186,373	-200,000	-0,003	0,031
-185,358	-13,981	-0,096	0,044
-184,344	129,029	-0,020	-0,018
-183,329	-142,355	0,145	0,010
-182,315	-50,002	-0,073	-0,024
-181,300	800,000	-0,048	-0,110
-180,285	45,856	-0,146	-0,096
-179,271	800,000	0,034	-0,074
-178,256	-127,428	0,130	-0,013
-177,242	341,828	-0,020	-0,028
-176,227	82,200	0,027	0,021
-175,212	110,041	0,118	0,101
-174,198	800,000	0,019	0,050
-173,183	800,000	-0,042	-0,124
-172,169	603,918	-0,014	0,024
-171,154	323,334	-0,068	-0,093
-170,139	-200,000	0,015	0,058
-169,125	236,331	-0,040	0,047
-168,110	266,523	-0,110	0,138
-167,096	106,747	0,093	0,078
-166,081	128,442	0,134	0,122
-165,066	40,589	0,111	-0,071
-164,052	15,724	-0,129	-0,072
-163,037	30,100	-0,074	-0,045
-162,023	800,000	0,007	0,019
-161,008	304,060	-0,106	0,140
-159,993	-57,652	0,150	-0,046
-158,979	-200,000	0,022	-0,179
-157,964	68,992	-0,058	0,043
-156,950	72,826	-0,049	0,036
-155,935	-200,000	-0,019	-0,066
-154,920	559,594	0,011	0,018
-153,906	-200,000	-0,020	0,090
-152,891	414,496	0,050	-0,076
-151,877	96,866	-0,044	0,036
-150,862	800,000	-0,014	-0,045
-149,847	-116,684	-0,043	0,006
-148,833	-200,000	0,029	-0,108
-147,818	305,529	0,066	0,087
-146,804	54,603	0,041	0,028
-145,789	144,492	-0,069	-0,066
-144,775	-200,000	0,007	-0,098
-143,760	116,382	0,089	-0,077
-142,745	11,833	0,029	-0,016
-141,731	96,444	0,051	0,041
-140,716	-200,000	0,005	0,015
-139,702	-36,646	0,166	0,063
-138,687	71,178	-0,091	0,067
-137,672	-171,607	-0,009	-0,000
-136,658	-200,000	-0,022	0,081
-135,643	6,863	-0,123	-0,065
-134,629	-29,458	-0,028	0,011
-133,614	-75,957	0,029	-0,007
-132,599	-200,000	0,003	0,097
-131,585	332,162	-0,011	-0,016
-130,570	97,514	0,060	0,049
-129,556	-175,429	0,102	-0,002
-128,541	642,094	-0,080	-0,145
-127,526	10,543	-0,044	0,024
-126,512	9,887	0,066	-0,035
-125,497	-59,688	0,065	0,020
-124,483	-32,100	-0,057	-0,023
-123,468	-200,000	-0,025	0,103
-122,453	800,000	-0,077	-0,163
-121,439	95,856	-0,074	-0,060
-120,424	174,768	0,065	-0,067
-119,410	79,100	0,089	-0,068
-118,395	-55,269	0,099	0,032
-117,380	-200,000	0,025	0,125
-116,366	-15,247	-0,087	0,039
-115,351	-1,961	-0,091	-0,045
-114,337	-47,487	-0,078	0,027
-113,322	430,278	-0,024	-0,037
-112,307	16,702	0,045	-0,025
-111,293	-0,475	0,148	0,074
-110,278	-200,000	0,022	0,076
-109,264	800,000	0,055	-0,126
-108,249	564,442	-0,085	-0,146
-107,234	-200,000	-0,061	-0,198
-106,220	115,442	-0,138	-0,120
-105,205	800,000	0,052	-0,155
-104,191	218,597	0,009	-0,010
-103,176	800,000	-0,037	-0,076
-102,162	-136,873	0,119	0,010
-101,147	74,534	-0,080	-0,060
-100,132	-53,704	-0,144	-0,046
-99,118	800,000	0,038	-0,116
-98,103	208,652	0,041	-0,045
-97,089	-200,000	-0,004	-0,025
-96,074	-49,429	0,122	0,041
-95,059	189,485	0,087	-0,092
-94,045	87,396	-0,090	-0,071
-93,030	-24,790	-0,097	-0,041
-92,016	-200,000	0,018	-0,109
-91,001	-57,013	0,121	0,038
-89,986	-81,639	0,139	-0,032
-88,972	90,659	0,092	0,073
-87,957	-200,000	-0,019	0,147
-86,943	800,000	-0,024	-0,057
-85,928	-200,000	0,044	0,151
-84,913	800,000	0,047	0,134
-83,899	-67,679	0,065	0,018
-82,884	-200,000	0,052	0,178
-81,870	195,700	-0,072	0,078
-80,855	43,556	0,034	0,022
-79,840	-14,204	-0,067	0,031
-78,826	201,990	-0,106	-0,116
-77,811	216,017	0,067	-0,075
-76,797	150,674	-0,116	0,112
-75,782	-28,872	-0,033	-0,014
-74,767	-51,142	-0,078	-0,026
-73,753	250,618	0,132	0,159
-72,738	-200,000	-0,032	0,111
-71,724	143,792	-0,129	-0,122
-70,709	742,481	0,026	-0,050
-69,694	-200,000	0,017	0,109
-68,680	383,479	0,024	0,035
-67,665	141,057	0,070	0,065
-66,651	800,000	0,029	0,080
-65,636	-32,780	0,069	0,027
-64,622	-200,000	-0,010	-0,092
-63,607	-97,380	-0,107	0,020
-62,592	-74,225	0,129	0,033
-61,578	-200,000	-0,011	-0,122
-60,563	-200,000	0,055	0,174
-59,549	-86,273	-0,066	0,014
-58,534	-64,156	-1,582	-0,454
-57,519	374,322	-1,479	-2,139
-56,505	-200,000	-0,510	-4,479
-55,490	113,022	0,981	0,842
-54,476	800,000	4,767	11,466
-53,461	-200,000	18,145	285,822
-52,446	800,000	726,358	2222,332
-51,432	553,928	1641,840	2807,093
-50,417	79,518	1664,394	1263,445
-49,403	23,065	1538,312	891,602
-48,388	17,069	1461,535	818,082
-47,373	17,886	1451,262	816,232
-46,359	17,333	1441,948	808,321
-45,344	15,319	1437,314	796,082
-44,330	15,183	1435,429	794,354
-43,315	15,254	1433,530	793,611
-42,300	15,292	1432,187	793,018
-41,286	15,312	1430,682	792,247
-40,271	15,257	1429,684	791,403
-39,257	15,256	1428,337	790,621
-38,242	15,335	1427,010	790,229
-37,227	15,329	1425,788	789,491
-36,213	15,299	1424,608	788,666
-35,198	15,284	1423,486	787,945
-34,184	15,383	1422,227	787,680
-33,169	15,306	1421,043	786,634
-32,154	15,304	1420,046	786,040
-31,140	15,334	1418,949	785,540
-30,125	15,374	1417,515	784,907
-29,111	15,306	1416,672	784,086
-28,096	15,310	1415,460	783,403
-27,082	15,241	1414,456	782,492
-26,067	15,241	1413,396	781,877
-25,052	15,243	1412,263	781,230
-24,038	15,203	1411,372	780,516
-23,023	15,195	1410,340	779,877
-22,009	15,195	1409,191	779,212
-20,994	15,199	1408,170	778,636
-19,979	15,192	1407,476	778,187
-18,965	15,117	1406,607	777,325
-17,950	15,148	1405,532	776,845
-16,936	15,148	1404,427	776,203
-15,921	15,152	1403,292	775,566
-14,906	15,070	1402,590	774,765
-13,892	15,147	1401,701	774,600
-12,877	15,158	1400,517	773,968
-11,863	15,097	1399,827	773,271
-10,848	15,093	1398,988	772,760
-9,833	15,083	1397,991	772,129
-8,819	15,053	1397,064	771,449
-7,804	15,035	1396,104	770,804
-6,790	15,063	1395,000	770,291
-5,775	15,043	1394,055	769,648
-4,760	15,037	1393,124	769,078
-3,746	15,042	1392,422	768,682
-2,731	15,075	1391,543	768,318
-1,717	15,020	1390,626	767,530
-0,702	15,019	1388,676	766,414
0,313	18,887	1308,279	739,920
1,327	35,249	707,624	438,160
2,342	53,975	124,981	84,894
3,356	2,384	16,673	8,510
4,371	0,069	3,239	1,628
5,386	-75,042	0,536	0,135
6,400	-200,000	-0,020	0,200
7,415	-79,687	-0,145	-0,034
8,429	-162,167	-0,351	-0,012
9,444	178,268	-0,270	-0,279
10,459	-5,536	-0,236	-0,114
11,473	51,916	-0,290	-0,195
12,488	-92,273	-0,282	-0,056
13,502	-64,058	-0,183	-0,053
14,517	86,635	-0,300	-0,234
15,531	-9,849	-0,253	-0,119
16,546	183,008	-0,192	-0,201
17,561	269,735	-0,270	-0,337
18,575	729,701	-0,124	-0,234
19,590	117,352	-0,191	-0,166
20,604	38,916	-0,349	-0,220
21,619	-23,737	-0,610	-0,257
22,634	-14,408	-0,385	-0,174
23,648	5,380	-0,464	-0,241
24,663	-12,997	-0,423	-0,194
25,677	165,925	-0,262	-0,262
26,692	94,499	-0,227	-0,182
27,707	-5,745	-0,303	-0,146
28,721	31,782	-0,452	-0,274
29,736	48,429	-0,451	-0,297
30,750	109,343	-0,320	-0,270
31,765	359,186	-0,295	-0,418
32,780	55,990	-0,520	-0,355
33,794	117,373	-0,351	-0,305
34,809	-46,125	-0,415	-0,143
35,823	154,645	-0,330	-0,320
36,838	78,838	-0,381	-0,287
37,853	78,247	-0,511	-0,385
38,867	69,907	-0,424	-0,308
39,882	84,151	-0,387	-0,298
40,896	6,933	-0,380	-0,199
41,911	178,367	-0,170	-0,175
42,926	55,334	-0,381	-0,259
43,940	50,352	-0,334	-0,222
44,955	16,094	-0,313	-0,173
45,969	55,913	-0,462	-0,315
46,984	86,184	-0,312	-0,242
47,999	175,046	-0,278	-0,284
49,013	142,329	-0,289	-0,271
50,028	69,411	-0,332	-0,241
51,042	140,373	-0,310	-0,289
52,057	156,048	-0,317	-0,308
53,071	220,883	-0,287	-0,325
54,086	24,013	-0,341	-0,198
55,101	-30,806	-0,347	-0,138
56,115	-34,518	-0,434	-0,167
57,130	6,402	-0,485	-0,253
58,144	181,705	-0,294	-0,305
59,159	135,968	-0,360	-0,331
60,174	-19,274	-0,415	-0,180
61,188	-18,475	-0,276	-0,121
62,203	-95,512	-0,326	-0,061
63,217	-118,767	-0,319	-0,039
64,232	322,418	-0,220	-0,296
65,247	2,718	-0,424	-0,216
66,261	94,808	-0,405	-0,324
67,276	268,986	-0,366	-0,453
68,290	52,612	-0,407	-0,273
69,305	-92,176	-0,240	-0,047
70,320	13,354	-0,319	-0,174
71,334	83,797	-0,344	-0,264
72,349	45,757	-0,287	-0,186
73,363	30,482	-0,318	-0,190
74,378	209,300	-0,299	-0,330
75,393	192,823	-0,208	-0,221
76,407	176,125	-0,236	-0,241
77,422	-11,525	-0,304	-0,140
78,436	201,305	-0,195	-0,211
79,451	65,143	-0,257	-0,183
80,466	-8,850	-0,308	-0,145
81,480	295,009	-0,179	-0,230
82,495	42,144	-0,198	-0,126
83,509	-37,227	-0,295	-0,110
84,524	6,101	-0,280	-0,145
85,539	14,550	-0,243	-0,133
86,553	90,510	-0,265	-0,209
87,568	-33,642	-0,346	-0,133
88,582	2,323	-0,339	-0,172
89,597	-30,302	-0,435	-0,173
90,611	-79,080	-0,332	-0,079
91,626	57,630	-0,138	-0,095
92,641	18,592	-0,260	-0,145
93,655	125,195	-0,333	-0,295
94,670	204,691	-0,276	-0,300
95,684	6,771	-0,307	-0,160
96,699	221,759	-0,214	-0,242
97,714	222,246	-0,161	-0,182
98,728	62,892	-0,188	-0,132
99,743	237,552	-0,246	-0,286
100,757	354,575	-0,193	-0,271
101,772	-17,989	-0,335	-0,147
102,787	109,187	-0,307	-0,258
103,801	135,058	-0,139	-0,126
104,816	144,637	-0,263	-0,246
105,830	165,144	-0,223	-0,221
106,845	207,659	-0,304	-0,333
107,860	-47,403	-0,098	-0,033
108,874	-50,355	-0,228	-0,075
109,889	-66,670	-0,390	-0,108
110,903	176,387	-0,229	-0,233
111,918	77,960	-0,333	-0,249
112,933	-16,729	-0,150	-0,066
113,947	69,023	-0,302	-0,217
114,962	435,666	-0,177	-0,270
115,976	7,530	-0,280	-0,146
116,991	258,899	-0,293	-0,355
118,006	53,345	-0,316	-0,212
119,020	145,287	-0,220	-0,206
120,035	-39,191	-0,270	-0,099
121,049	-87,815	-0,322	-0,067
122,064	-71,363	-0,325	-0,085
123,079	-11,728	-0,351	-0,161
124,093	248,695	-0,203	-0,241
125,108	-31,621	-0,383	-0,150
126,122	-99,354	-0,282	-0,049
127,137	67,368	-0,186	-0,133
128,151	-40,700	-0,181	-0,065
129,166	199,348	-0,147	-0,158
130,181	337,825	-0,171	-0,233
131,195	194,320	-0,272	-0,289
132,210	171,224	-0,233	-0,234
133,224	81,100	-0,201	-0,152
134,239	800,000	-0,150	-0,341
135,254	4,802	-0,336	-0,172
136,268	-19,109	-0,223	-0,097
137,283	114,768	-0,256	-0,219
138,297	153,312	-0,291	-0,279
139,312	45,725	-0,208	-0,134
140,327	-55,099	-0,194	-0,061
141,341	100,693	-0,220	-0,178
142,356	-26,100	-0,210	-0,086
143,370	6,998	-0,189	-0,098
144,385	144,364	-0,292	-0,272
145,400	123,305	-0,171	-0,149
146,414	136,814	-0,296	-0,270
147,429	185,125	-0,292	-0,303
148,443	275,026	-0,247	-0,306
149,458	-77,957	-0,190	-0,045
150,473	94,001	-0,185	-0,146
151,487	194,739	-0,245	-0,260
152,502	91,865	-0,287	-0,226
153,516	28,906	-0,248	-0,147
154,531	-11,333	-0,229	-0,105
155,546	220,404	-0,125	-0,141
156,560	541,784	-0,186	-0,311
157,575	219,954	-0,158	-0,177
158,589	436,382	-0,144	-0,219
159,604	69,258	-0,209	-0,150
160,619	-20,498	-0,207	-0,089
161,633	139,468	-0,334	-0,307
162,648	-108,972	-0,361	-0,053
163,662	-83,111	-0,319	-0,071
164,677	-41,713	-0,298	-0,106
165,692	-142,962	-0,242	-0,016
166,706	427,217	-0,227	-0,342
167,721	353,949	-0,216	-0,301
168,735	59,492	-0,299	-0,205
169,750	115,452	-0,229	-0,195
170,764	-200,000	-0,026	-0,180
171,779	306,495	-0,211	-0,274
172,794	701,254	-0,121	-0,224
173,808	-37,741	-0,365	-0,135
174,823	-24,501	-0,275	-0,114
175,837	3,073	-0,310	-0,156
176,852	-1,348	-0,175	-0,086
177,867	46,335	-0,237	-0,153
178,881	-88,576	-0,276	-0,057
179,896	135,407	-0,236	-0,214
180,910	26,565	-0,165	-0,096
181,925	-96,017	-0,249	-0,046
182,940	78,051	-0,183	-0,136
183,954	759,201	-0,105	-0,199
184,969	124,679	-0,186	-0,163
185,983	-54,839	-0,235	-0,073
186,998	27,524	-0,269	-0,157
188,013	323,836	-0,161	-0,215
189,027	-56,578	-0,348	-0,107
190,042	117,813	-0,337	-0,289
191,056	200,821	-0,138	-0,148
192,071	-36,111	-0,271	-0,101
193,086	-96,532	-0,200	-0,036
194,100	48,709	-0,201	-0,131
195,115	800,000	-0,149	-0,323
196,129	40,367	-0,205	-0,128
197,144	645,343	-0,175	-0,312
198,159	297,809	-0,130	-0,167
199,173	-45,113	-0,258	-0,089
200,188	-9,466	-0,231	-0,107
201,202	-84,785	-0,280	-0,061
202,217	153,343	-0,201	-0,191
203,232	185,748	-0,223	-0,231
204,246	148,915	-0,220	-0,206
205,261	166,679	-0,151	-0,149
206,275	265,338	-0,233	-0,283
207,290	393,275	-0,090	-0,131
208,304	311,572	-0,162	-0,212
209,319	44,502	-0,217	-0,139
210,334	218,888	-0,181	-0,202
211,348	230,206	-0,170	-0,193
212,363	-39,006	-0,253	-0,092
213,377	-98,396	-0,181	-0,032
214,392	36,439	-0,209	-0,128
215,407	205,390	-0,156	-0,169
216,421	-108,398	-0,145	-0,021
217,436	1,736	-0,353	-0,176
218,450	44,074	-0,227	-0,144
219,465	254,893	-0,116	-0,139
220,480	9,143	-0,180	-0,094
221,494	2,050	-0,123	-0,062
222,509	338,329	-0,081	-0,109
223,523	320,459	-0,141	-0,186
224,538	378,237	-0,154	-0,219
225,553	800,000	-0,133	-0,290
226,567	429,964	-0,182	-0,274
227,582	338,939	-0,164	-0,223
228,596	199,423	-0,079	-0,084
229,611	9,347	-0,182	-0,095
230,626	800,000	-0,088	-0,223
231,640	-15,064	-0,293	-0,130
232,655	-138,608	-0,173	-0,013
233,669	0,097	-0,163	-0,081
234,684	454,767	-0,157	-0,241
235,699	306,348	-0,137	-0,177
236,713	-84,869	-0,066	-0,014
237,728	-15,490	-0,259	-0,114
238,742	27,390	-0,080	-0,046
239,757	14,291	-0,296	-0,159
240,772	108,450	-0,185	-0,153
241,786	724,031	-0,102	-0,189
242,801	83,356	-0,191	-0,144
243,815	297,241	-0,145	-0,184
244,830	95,695	-0,180	-0,142
245,844	-93,092	-0,190	-0,036
246,859	10,567	-0,131	-0,069
247,874	422,709	-0,144	-0,216
248,888	349,265	-0,120	-0,164
249,903	-119,915	-0,218	-0,026
250,917	446,285	-0,084	-0,128
251,932	-143,370	0,038	-0,002
252,947	72,723	-0,259	-0,187
253,961	13,691	-0,158	-0,085
254,976	800,000	-0,098	-0,247
255,990	195,485	-0,103	-0,109
257,005	51,601	-0,237	-0,156
258,020	-14,282	-0,137	-0,061
259,034	128,325	-0,120	-0,106
260,049	141,105	-0,215	-0,197
261,063	-131,800	-0,243	-0,022
262,078	130,350	-0,144	-0,128
263,093	147,034	-0,221	-0,206
264,107	800,000	-0,049	-0,109
265,122	34,529	-0,218	-0,131
266,136	33,749	-0,074	-0,044
267,151	75,121	-0,153	-0,111
268,166	-47,254	-0,214	-0,072
269,180	187,913	-0,163	-0,169
270,195	800,000	-0,104	-0,273
271,209	-124,330	-0,289	-0,031
272,224	96,565	-0,132	-0,105
273,239	382,736	-0,049	-0,070
274,253	457,194	-0,149	-0,230
275,268	405,952	-0,108	-0,158
276,282	-10,655	-0,196	-0,089
277,297	325,751	-0,173	-0,229
278,312	223,237	-0,189	-0,210
279,326	-200,000	-0,052	-0,203
280,341	162,252	-0,176	-0,171
281,355	800,000	-0,063	-0,141
282,370	-110,524	-0,140	0,020
283,384	175,796	-0,183	-0,183
284,399	426,570	-0,090	-0,135
285,414	225,703	-0,123	-0,137
286,428	-11,743	-0,305	-0,138
287,443	795,996	-0,060	-0,115
288,457	-32,387	-0,081	-0,031
289,472	-163,918	-0,155	-0,005
290,487	60,366	-0,191	-0,130
291,501	435,406	-0,089	-0,133
292,516	410,373	-0,207	-0,303
293,530	-200,000	-0,048	-0,187
294,545	-37,610	-0,158	-0,058
295,560	-157,221	-0,119	-0,005
296,574	-33,392	-0,133	-0,050
297,589	-200,000	-0,008	-0,157
298,603	-81,665	-0,112	-0,025
299,618	-41,473	-0,164	-0,058
300,633	258,186	-0,105	-0,125
301,647	94,955	-0,125	-0,098
302,662	-200,000	-0,019	-0,132
303,676	197,117	-0,166	-0,175
304,691	227,138	-0,190	-0,213
305,706	107,028	-0,198	-0,162
306,720	-5,431	-0,095	-0,045
307,735	511,279	-0,062	-0,100
308,749	-177,289	-0,176	0,003
309,764	-16,848	-0,126	-0,055
310,779	800,000	-0,056	-0,138
311,793	97,922	-0,227	-0,180
312,808	-43,668	-0,138	-0,047
313,822	31,384	-0,193	-0,114
314,837	223,443	-0,109	-0,121
315,852	800,000	-0,062	-0,173
316,866	800,000	0,003	-0,006
317,881	119,679	-0,101	-0,087
318,895	115,280	-0,138	-0,116
319,910	201,780	-0,138	-0,147
320,925	-105,182	-0,215	-0,033
321,939	271,841	-0,132	-0,160
322,954	160,872	-0,049	-0,047
323,968	-71,307	-0,219	-0,056
324,983	-104,582	-0,074	0,012
325,997	-59,622	-0,121	-0,036
327,012	-200,000	-0,022	-0,243
328,027	800,000	-0,052	-0,131
329,041	90,195	-0,220	-0,169
330,056	-1,296	-0,178	-0,086
331,070	-7,425	-0,137	-0,064
332,085	29,553	-0,188	-0,110
333,100	-200,000	-0,026	0,112
334,114	-200,000	-0,043	-0,175
335,129	153,571	-0,186	-0,175
336,143	-131,648	-0,057	0,005
337,158	-200,000	0,033	-0,123
338,173	299,620	-0,032	-0,040
339,187	52,647	-0,088	-0,058
340,202	-1,370	-0,243	-0,118
341,216	-143,341	-0,155	-0,010
342,231	-200,000	-0,044	-0,192
343,246	400,746	-0,154	-0,222
344,260	-118,927	-0,160	0,019
345,275	-98,377	-0,064	-0,011
346,289	-60,060	-0,067	-0,019
347,304	-149,067	-0,233	-0,013
348,319	-115,210	-0,200	0,026
349,333	148,122	-0,217	-0,201
350,348	179,425	-0,090	-0,090
351,362	16,818	-0,150	-0,082
352,377	30,457	-0,196	0,114
353,392	-200,000	0,008	0,065
354,406	-25,033	-0,062	-0,025
355,421	207,243	1320,409	1414,804
356,435	159,410	1481,848	1415,301
