DTS Sentinel unit serial number:	SN410029Multiplexer serial number:	ORYXHardware model number:	OX2-SRSoftware version number:	ORYX F/W v4,00 Oryx Data Collector v3.7.2.0data status	okinstallation	B3 Nyhavnadifferential loss correction	single-endedforward channel	channel 1reverse channel	N/Adate	2023/11/28time	22:22:30forward acquisition time	300,00reverse acquisition time	0,00gamma	499,1914k internal	0,3212k external	0,3212temperature offset calibration	1,0000default loss term (dB/km)	0,3820temperature slope calibration	1,0000multiplexer offset coefficient	1,0000multiplexer slope coefficient	1,0000fibre end	0,00T internal ref (°C)	8,56T ext. ref 1 (°C)	-5,97T ext. ref 2 (°C)	-6,12length (m)	temperature (°C)	Stokes	anti-Stokes-744,400	50,748	-0,240	-0,165
-743,385	-135,014	-0,065	0,006
-742,371	800,000	-0,097	-0,293
-741,356	-200,000	0,049	0,274
-740,342	800,000	-0,214	-0,440
-739,327	371,120	-0,146	0,216
-738,312	67,720	-0,267	-0,197
-737,298	-200,000	-0,034	0,216
-736,283	695,757	-0,172	-0,329
-735,269	-200,000	-0,118	0,377
-734,254	37,595	-0,225	-0,144
-733,239	37,327	-0,222	0,142
-732,225	269,317	-0,175	-0,223
-731,210	-200,000	-0,008	0,137
-730,196	134,379	-0,044	0,042
-729,181	800,000	-0,043	-0,111
-728,167	674,152	-0,046	-0,086
-727,152	-50,289	0,045	-0,015
-726,137	34,924	-0,135	0,086
-725,123	-200,000	-0,032	-0,151
-724,108	-72,315	-0,163	0,043
-723,094	-177,078	-0,064	-0,001
-722,079	-200,000	0,004	0,069
-721,064	-26,312	-0,126	-0,054
-720,050	554,179	-0,056	0,098
-719,035	347,568	0,052	-0,075
-718,021	-75,764	-0,046	-0,012
-717,006	-79,986	-0,151	-0,036
-715,991	-8,555	-0,120	-0,058
-714,977	800,000	0,029	-0,066
-713,962	130,413	0,068	-0,063
-712,948	800,000	-0,061	0,141
-711,933	-190,422	-0,044	0,000
-710,918	-51,714	-0,085	0,028
-709,904	-43,751	-0,068	0,025
-708,889	77,739	-0,056	-0,043
-707,875	-200,000	0,044	-0,223
-706,860	83,219	-0,058	-0,046
-705,845	423,227	-0,008	-0,012
-704,831	-16,909	-0,085	-0,039
-703,816	235,846	0,028	-0,033
-702,802	-64,347	0,091	-0,027
-701,787	23,268	-0,076	0,045
-700,772	719,235	-0,083	-0,160
-699,758	-0,414	-0,071	0,037
-698,743	-136,360	0,024	0,002
-697,729	-44,849	0,102	0,037
-696,714	76,882	0,077	-0,059
-695,699	-74,955	0,064	0,017
-694,685	-200,000	0,007	-0,089
-693,670	34,979	-0,072	-0,046
-692,656	-161,451	-0,134	0,005
-691,641	74,755	0,032	0,024
-690,627	-200,000	-0,007	0,031
-689,612	-182,850	0,058	-0,001
-688,597	85,925	-0,062	-0,050
-687,583	-195,899	0,018	0,000
-686,568	800,000	-0,061	-0,172
-685,554	-13,788	0,150	-0,070
-684,539	-200,000	0,011	0,116
-683,524	-20,677	-0,130	0,058
-682,510	-53,811	-0,080	0,026
-681,495	-200,000	0,003	-0,042
-680,481	-90,917	-0,168	0,035
-679,466	28,762	-0,062	0,038
-678,451	249,137	-0,016	-0,020
-677,437	800,000	0,023	-0,054
-676,422	-200,000	0,008	0,101
-675,408	52,526	-0,057	0,039
-674,393	202,256	-0,097	0,108
-673,378	800,000	0,039	-0,118
-672,364	-106,162	-0,205	-0,033
-671,349	-200,000	-0,004	0,046
-670,335	522,492	-0,054	0,092
-669,320	165,285	0,074	0,076
-668,305	-200,000	0,015	0,145
-667,291	101,269	0,063	0,053
-666,276	-131,768	-0,110	0,010
-665,262	800,000	-0,011	-0,030
-664,247	228,895	0,130	-0,153
-663,232	-200,000	0,011	0,090
-662,218	800,000	-0,085	0,177
-661,203	-45,942	-0,135	0,048
-660,189	-200,000	0,001	0,012
-659,174	106,922	-0,076	-0,065
-658,159	-200,000	-0,001	0,003
-657,145	-101,614	0,104	0,018
-656,130	-188,874	-0,056	-0,000
-655,116	431,147	0,103	0,161
-654,101	104,075	0,059	-0,050
-653,086	-200,000	-0,012	0,061
-652,072	192,510	-0,093	-0,101
-651,057	-29,904	-0,111	-0,045
-650,043	-200,000	-0,008	-0,162
-649,028	-200,000	-0,004	-0,085
-648,014	203,712	0,022	-0,024
-646,999	-200,000	0,008	-0,047
-645,984	536,868	0,039	0,067
-644,970	28,206	-0,054	0,033
-643,955	374,846	-0,065	-0,095
-642,941	-137,673	-0,099	0,008
-641,926	-200,000	-0,016	-0,068
-640,911	-200,000	0,009	0,122
-639,897	800,000	-0,043	-0,131
-638,882	32,090	-0,153	0,095
-637,868	-200,000	0,011	0,078
-636,853	136,032	-0,095	-0,090
-635,838	800,000	0,055	0,113
-634,824	158,694	0,073	0,073
-633,809	7,873	0,019	0,010
-632,795	-16,156	-0,042	0,019
-631,780	199,682	-0,090	0,100
-630,765	175,168	-0,128	-0,133
-629,751	-200,000	0,007	-0,095
-628,736	-35,680	-0,101	-0,039
-627,722	-6,618	-0,051	-0,025
-626,707	-64,661	0,143	0,042
-625,692	19,639	0,102	-0,059
-624,678	99,451	-0,019	0,016
-623,663	-200,000	0,014	0,055
-622,649	-28,381	-0,083	-0,034
-621,634	47,639	-0,009	0,006
-620,619	514,257	0,082	-0,138
-619,605	249,527	-0,087	-0,107
-618,590	150,086	0,094	-0,092
-617,576	-200,000	0,001	0,041
-616,561	233,206	0,042	-0,050
-615,546	-148,680	-0,065	0,004
-614,532	782,769	0,002	-0,003
-613,517	-30,580	-0,111	0,045
-612,503	11,524	0,030	-0,017
-611,488	-17,984	-0,021	-0,010
-610,474	-54,946	-0,090	0,029
-609,459	68,237	0,079	0,058
-608,444	223,654	-0,031	0,036
-607,430	123,610	-0,109	0,099
-606,415	126,033	-0,082	-0,075
-605,401	32,889	0,229	0,143
-604,386	-107,269	0,089	-0,014
-603,371	-72,349	-0,034	-0,009
-602,357	-19,165	0,094	-0,042
-601,342	800,000	-0,027	-0,066
-600,328	83,886	-0,142	0,112
-599,313	361,575	-0,045	0,065
-598,298	-84,381	-0,046	-0,010
-597,284	800,000	-0,017	-0,052
-596,269	-151,954	0,025	-0,001
-595,255	-142,971	-0,100	-0,007
-594,240	-31,586	0,079	0,032
-593,225	-29,495	-0,094	-0,038
-592,211	-200,000	0,051	-0,180
-591,196	-10,378	0,068	-0,033
-590,182	-200,000	0,000	-0,017
-589,167	95,718	0,031	-0,026
-588,152	800,000	-0,016	-0,036
-587,138	-19,261	-0,155	0,069
-586,123	-100,510	-0,088	-0,016
-585,109	-200,000	-0,023	-0,101
-584,094	504,922	-0,022	-0,037
-583,079	-62,498	0,101	0,030
-582,065	800,000	0,055	-0,111
-581,050	-162,881	-0,140	0,005
-580,036	-200,000	0,052	0,173
-579,021	345,592	0,104	-0,147
-578,006	-33,988	-0,157	-0,062
-576,992	-200,000	0,004	-0,120
-575,977	371,283	-0,040	0,059
-574,963	183,121	-0,025	0,026
-573,948	-148,527	0,031	-0,002
-572,934	-3,656	0,136	0,068
-571,919	-32,625	-0,057	-0,023
-570,904	53,455	0,038	-0,026
-569,890	800,000	0,033	0,091
-568,875	800,000	-0,039	0,087
-567,861	182,499	-0,033	-0,035
-566,846	-200,000	-0,018	0,103
-565,831	33,309	-0,074	0,046
-564,817	411,777	0,063	-0,097
-563,802	-200,000	0,020	-0,135
-562,788	251,007	0,076	-0,093
-561,773	-46,539	-0,098	0,034
-560,758	683,107	0,073	0,137
-559,744	-84,240	0,118	0,027
-558,729	-200,000	0,002	0,054
-557,715	261,151	0,057	0,071
-556,700	-55,729	-0,038	-0,012
-555,685	81,869	-0,125	0,097
-554,671	755,213	-0,050	0,098
-553,656	-149,344	0,168	-0,009
-552,642	-0,483	0,040	0,020
-551,627	-200,000	0,033	0,174
-550,612	-200,000	-0,014	0,076
-549,598	312,755	-0,114	0,155
-548,583	92,942	-0,044	0,036
-547,569	344,014	0,068	0,095
-546,554	202,110	0,105	0,117
-545,539	-200,000	0,022	0,187
-544,525	261,178	0,062	0,077
-543,510	207,448	-0,071	-0,080
-542,496	-110,313	-0,037	-0,005
-541,481	800,000	-0,044	-0,117
-540,466	-4,485	0,036	0,018
-539,452	-84,472	-0,062	-0,014
-538,437	68,106	0,097	0,071
-537,423	681,708	0,048	0,090
-536,408	800,000	0,047	0,098
-535,393	-111,737	-0,039	0,006
-534,379	-200,000	0,017	-0,065
-533,364	-200,000	-0,010	0,149
-532,350	150,692	0,091	-0,089
-531,335	-26,905	0,079	-0,033
-530,321	-113,950	0,054	-0,008
-529,306	176,611	0,063	-0,066
-528,291	7,098	-0,132	-0,070
-527,277	-34,456	-0,121	-0,047
-526,262	-5,480	-0,031	-0,015
-525,248	319,930	-0,042	-0,057
-524,233	-10,473	-0,016	-0,008
-523,218	33,430	0,027	-0,017
-522,204	-90,844	0,076	0,016
-521,189	800,000	0,052	-0,108
-520,175	800,000	0,034	0,082
-519,160	800,000	-0,057	0,170
-518,145	109,339	0,017	-0,015
-517,131	-200,000	-0,009	0,092
-516,116	175,935	0,025	0,026
-515,102	-143,827	0,097	0,006
-514,087	-53,856	-0,137	-0,045
-513,072	-200,000	0,005	-0,068
-512,058	365,943	0,096	0,139
-511,043	67,402	0,092	-0,068
-510,029	-124,991	-0,090	-0,010
-509,014	71,575	0,067	0,050
-507,999	-200,000	0,030	0,154
-506,985	-200,000	-0,003	-0,068
-505,970	-76,314	0,012	-0,003
-504,956	800,000	-0,028	0,073
-503,941	420,294	-0,030	0,046
-502,926	-15,178	0,128	0,059
-501,912	98,020	0,080	0,066
-500,897	684,050	-0,052	0,098
-499,883	30,389	0,062	0,038
-498,868	134,861	0,029	-0,027
-497,853	800,000	-0,060	-0,137
-496,839	-86,849	0,127	-0,028
-495,824	-200,000	0,001	0,090
-494,810	-200,000	-0,010	0,041
-493,795	800,000	-0,037	0,084
-492,781	676,616	-0,085	0,160
-491,766	800,000	-0,009	-0,018
-490,751	115,443	-0,036	0,031
-489,737	-99,185	-0,116	0,021
-488,722	800,000	0,047	0,097
-487,708	95,565	0,044	0,036
-486,693	42,876	0,088	0,057
-485,678	-187,045	-0,017	0,000
-484,664	-31,815	-0,124	-0,050
-483,649	-70,974	-0,150	0,040
-482,635	81,828	0,056	-0,043
-481,620	-117,404	-0,062	-0,008
-480,605	-200,000	0,007	-0,073
-479,591	-68,754	-0,139	-0,038
-478,576	-180,573	0,089	-0,001
-477,562	-200,000	0,001	0,065
-476,547	596,049	0,011	-0,019
-475,532	-117,236	-0,083	0,011
-474,518	800,000	-0,012	-0,030
-473,503	-200,000	0,029	-0,102
-472,489	15,097	0,174	0,097
-471,474	-200,000	-0,022	-0,144
-470,459	356,928	-0,051	-0,073
-469,445	-113,464	-0,054	-0,008
-468,430	-25,616	0,028	-0,012
-467,416	-200,000	-0,001	0,153
-466,401	-127,769	0,092	0,009
-465,386	464,708	0,060	0,097
-464,372	-45,363	0,010	0,003
-463,357	278,898	-0,039	0,050
-462,343	-200,000	0,014	-0,329
-461,328	790,418	-0,074	0,146
-460,313	-148,072	0,107	0,006
-459,299	-55,152	-0,035	-0,011
-458,284	-56,147	0,075	0,024
-457,270	623,035	0,014	-0,025
-456,255	-8,761	-0,186	-0,089
-455,241	158,008	-0,059	0,059
-454,226	196,077	0,095	-0,103
-453,211	21,968	0,041	0,024
-452,197	800,000	0,009	0,023
-451,182	800,000	0,073	0,165
-450,168	324,540	-0,035	0,047
-449,153	-200,000	0,006	-0,066
-448,138	94,265	0,009	0,007
-447,124	246,215	-0,121	0,146
-446,109	-55,617	0,091	0,029
-445,095	483,418	0,032	-0,053
-444,080	138,294	0,124	0,117
-443,065	-31,832	0,027	-0,011
-442,051	-10,649	-0,059	-0,028
-441,036	-200,000	0,004	-0,032
-440,022	-200,000	0,006	0,055
-439,007	208,667	-0,068	-0,076
-437,992	-28,481	0,065	0,027
-436,978	-61,350	-0,102	0,031
-435,963	-7,870	-0,129	0,062
-434,949	-200,000	0,001	-0,038
-433,934	154,601	0,084	-0,083
-432,919	458,348	-0,058	-0,092
-431,905	800,000	-0,032	-0,074
-430,890	800,000	0,009	0,027
-429,876	135,548	0,030	0,028
-428,861	52,874	0,042	0,029
-427,846	-64,082	0,067	0,019
-426,832	-24,784	0,161	0,068
-425,817	49,882	-0,100	0,067
-424,803	326,224	-0,070	0,096
-423,788	528,485	0,088	0,150
-422,773	-200,000	0,035	0,152
-421,759	800,000	0,021	-0,063
-420,744	-200,000	-0,012	-0,145
-419,730	71,070	-0,147	0,109
-418,715	436,435	-0,040	-0,062
-417,701	285,952	-0,075	0,098
-416,686	-45,674	0,031	0,011
-415,671	-34,093	0,066	-0,026
-414,657	-200,000	-0,011	-0,084
-413,642	800,000	0,011	0,024
-412,628	-36,965	0,078	-0,030
-411,613	244,743	-0,022	0,026
-410,598	-200,000	0,009	-0,121
-409,584	-156,251	-0,086	0,004
-408,569	-200,000	0,005	0,082
-407,555	-131,508	-0,065	-0,006
-406,540	-200,000	-0,018	0,076
-405,525	-58,128	-0,045	0,014
-404,511	-200,000	-0,009	-0,175
-403,496	250,825	0,099	-0,121
-402,482	40,807	-0,092	-0,059
-401,467	213,451	0,078	0,088
-400,452	-52,846	0,135	0,044
-399,438	-70,610	0,074	0,020
-398,423	340,693	0,018	-0,025
-397,409	220,860	0,119	0,136
-396,394	800,000	-0,012	-0,032
-395,379	800,000	0,021	-0,047
-394,365	189,198	0,032	0,034
-393,350	114,064	0,157	0,136
-392,336	-67,401	0,098	0,027
-391,321	-200,000	-0,010	-0,086
-390,306	127,558	0,023	-0,021
-389,292	800,000	-0,077	0,195
-388,277	297,543	0,048	-0,063
-387,263	86,771	0,070	-0,055
-386,248	-2,871	0,126	0,063
-385,233	-194,160	0,092	-0,001
-384,219	573,896	-0,043	-0,075
-383,204	49,753	0,071	-0,048
-382,190	-72,262	-0,028	0,007
-381,175	-200,000	0,015	0,080
-380,160	288,008	-0,078	0,101
-379,146	321,072	0,049	0,067
-378,131	-79,622	-0,024	0,006
-377,117	15,108	0,052	0,029
-376,102	800,000	-0,037	-0,088
-375,088	800,000	-0,055	-0,144
-374,073	118,485	-0,059	-0,052
-373,058	307,790	-0,040	-0,053
-372,044	-99,203	0,146	-0,026
-371,029	-200,000	0,002	-0,024
-370,015	-200,000	-0,028	-0,090
-369,000	-200,000	0,017	0,096
-367,985	295,139	-0,029	-0,038
-366,971	-200,000	0,002	-0,038
-365,956	231,821	-0,025	0,029
-364,942	4,588	0,015	0,008
-363,927	86,873	0,072	0,057
-362,912	-50,746	-0,106	0,036
-361,898	228,491	0,147	-0,172
-360,883	4,920	-0,113	-0,059
-359,869	162,742	0,110	-0,110
-358,854	-78,690	0,113	0,027
-357,839	10,729	0,100	0,054
-356,825	-46,112	0,073	0,026
-355,810	-22,730	-0,067	0,029
-354,796	409,030	-0,065	-0,099
-353,781	-200,000	0,037	-0,151
-352,766	145,993	0,041	0,039
-351,752	89,872	-0,052	-0,041
-350,737	-28,243	-0,149	-0,061
-349,723	69,278	0,039	0,028
-348,708	800,000	0,066	-0,130
-347,693	-131,444	-0,192	0,018
-346,679	332,416	0,054	0,075
-345,664	182,178	0,066	-0,069
-344,650	-151,884	0,154	0,008
-343,635	-112,298	-0,106	-0,015
-342,620	-200,000	0,003	-0,074
-341,606	-200,000	-0,005	0,228
-340,591	-128,861	0,143	-0,014
-339,577	800,000	0,044	-0,123
-338,562	-6,461	-0,104	0,051
-337,548	-200,000	0,008	-0,071
-336,533	-200,000	0,014	-0,081
-335,518	555,824	0,040	0,068
-334,504	-200,000	-0,013	0,136
-333,489	239,015	-0,049	0,058
-332,475	-27,629	-0,123	-0,051
-331,460	466,126	-0,087	-0,140
-330,445	-95,179	-0,069	0,013
-329,431	-200,000	0,008	-0,099
-328,416	-200,000	-0,036	-0,122
-327,402	0,759	0,035	0,018
-326,387	-200,000	-0,016	0,105
-325,372	-127,432	-0,133	-0,014
-324,358	128,372	0,053	-0,048
-323,343	-16,354	-0,029	-0,013
-322,329	-200,000	-0,040	-0,182
-321,314	97,861	0,081	0,067
-320,299	10,380	-0,108	0,058
-319,285	-78,201	0,064	0,016
-318,270	-200,000	-0,011	0,111
-317,256	800,000	-0,024	-0,052
-316,241	20,434	0,054	0,031
-315,226	379,269	0,016	0,024
-314,212	-16,424	0,077	-0,035
-313,197	-200,000	-0,010	0,064
-312,183	-200,000	0,025	0,100
-311,168	171,088	-0,032	-0,032
-310,153	800,000	-0,045	-0,134
-309,139	209,231	0,136	-0,152
-308,124	-200,000	-0,006	0,031
-307,110	-37,257	-0,139	0,053
-306,095	-71,562	-0,083	0,022
-305,080	-73,738	-0,101	0,026
-304,066	109,561	0,125	-0,107
-303,051	800,000	-0,065	0,150
-302,037	520,563	-0,092	-0,154
-301,022	-200,000	-0,002	-0,015
-300,008	-95,755	-0,088	0,017
-298,993	-22,101	-0,043	0,019
-297,978	-200,000	0,006	0,120
-296,964	-200,000	-0,002	0,028
-295,949	172,285	-0,152	-0,156
-294,935	-200,000	0,006	-0,115
-293,920	-200,000	-0,024	-0,166
-292,905	105,055	0,130	0,109
-291,891	398,958	0,040	0,060
-290,876	-28,302	-0,054	0,022
-289,862	-78,613	-0,130	0,031
-288,847	-200,000	0,008	-0,077
-287,832	-113,478	-0,082	0,011
-286,818	298,559	-0,049	-0,064
-285,803	-24,878	0,112	-0,047
-284,789	59,287	0,053	0,037
-283,774	800,000	-0,004	-0,008
-282,759	395,427	0,042	-0,063
-281,745	218,452	-0,072	-0,082
-280,730	800,000	-0,044	-0,102
-279,716	-200,000	0,043	-0,138
-278,701	-155,925	0,084	0,004
-277,686	551,264	0,008	0,014
-276,672	800,000	0,065	0,160
-275,657	-40,430	-0,212	-0,078
-274,643	-200,000	0,034	-0,138
-273,628	165,524	-0,091	-0,092
-272,613	200,362	-0,102	-0,112
-271,599	800,000	0,010	-0,028
-270,584	-27,008	-0,097	0,040
-269,570	-200,000	0,001	-0,075
-268,555	800,000	-0,061	-0,146
-267,540	-200,000	-0,001	-0,054
-266,526	125,538	0,083	-0,074
-265,511	66,918	-0,043	-0,031
-264,497	-29,011	0,181	-0,074
-263,482	-117,257	0,015	0,002
-262,467	699,720	0,065	-0,122
-261,453	24,565	0,032	-0,019
-260,438	-8,494	-0,157	-0,075
-259,424	-200,000	-0,101	-0,000
-258,409	-200,000	-0,022	-0,085
-257,395	286,966	-0,057	0,074
-256,380	-62,819	0,191	-0,056
-255,365	800,000	-0,031	0,090
-254,351	38,418	-0,030	0,019
-253,336	-200,000	-0,025	-0,142
-252,322	300,087	0,026	0,034
-251,307	-99,020	-0,041	-0,007
-250,292	-200,000	0,004	-0,031
-249,278	26,845	0,049	0,029
-248,263	109,160	-0,095	-0,081
-247,249	-57,685	-0,057	0,018
-246,234	-89,268	0,078	0,016
-245,219	106,328	-0,129	-0,109
-244,205	800,000	-0,029	-0,070
-243,190	-200,000	0,024	0,117
-242,176	272,556	0,111	0,139
-241,161	32,662	-0,087	-0,054
-240,146	800,000	0,041	0,117
-239,132	800,000	0,041	-0,092
-238,117	142,474	-0,068	-0,064
-237,103	29,982	-0,109	0,066
-236,088	297,805	-0,066	0,087
-235,073	-89,785	-0,034	0,007
-234,059	130,835	0,025	0,023
-233,044	-77,082	0,016	0,004
-232,030	-186,152	-0,080	-0,001
-231,015	-200,000	0,004	0,014
-230,000	-137,671	0,029	-0,002
-228,986	-200,000	0,021	0,088
-227,971	321,820	0,045	0,061
-226,957	800,000	-0,038	0,103
-225,942	-200,000	0,005	0,030
-224,927	41,246	0,018	0,011
-223,913	-200,000	0,014	-0,073
-222,898	-200,000	0,001	-0,067
-221,884	-200,000	-0,028	-0,109
-220,869	655,659	0,032	-0,058
-219,855	-123,592	0,033	-0,004
-218,840	-200,000	-0,007	-0,025
-217,825	84,619	0,076	-0,059
-216,811	-108,863	0,082	-0,012
-215,796	25,840	-0,039	0,023
-214,782	3,757	-0,143	0,074
-213,767	-200,000	-0,003	-0,054
-212,752	800,000	-0,020	-0,044
-211,738	-200,000	-0,003	-0,014
-210,723	-200,000	0,024	0,119
-209,709	24,101	0,049	0,029
-208,694	800,000	-0,036	0,103
-207,679	55,849	-0,023	-0,015
-206,665	-31,743	-0,101	0,040
-205,650	-66,361	0,111	0,031
-204,636	219,544	0,031	-0,036
-203,621	194,898	-0,037	0,040
-202,606	-33,185	-0,058	0,023
-201,592	-34,660	-0,179	-0,069
-200,577	482,258	0,055	0,090
-199,563	112,288	-0,101	-0,086
-198,548	-49,232	0,119	-0,040
-197,533	68,352	0,125	-0,091
-196,519	-130,440	0,130	-0,012
-195,504	-200,000	-0,018	-0,077
-194,490	19,836	0,082	0,047
-193,475	-200,000	-0,029	-0,133
-192,460	800,000	0,035	0,089
-191,446	44,484	0,094	0,061
-190,431	110,167	-0,069	0,059
-189,417	-200,000	0,015	0,091
-188,402	-11,010	0,085	0,040
-187,387	800,000	-0,003	-0,008
-186,373	-200,000	-0,006	0,075
-185,358	-200,000	-0,036	0,126
-184,344	-45,294	0,063	-0,022
-183,329	12,062	-0,213	0,116
-182,315	-200,000	0,006	-0,031
-181,300	46,502	0,051	0,033
-180,285	502,320	0,026	0,042
-179,271	506,953	0,013	0,022
-178,256	112,283	0,064	-0,055
-177,242	-50,443	0,040	0,013
-176,227	-200,000	0,010	0,079
-175,212	27,468	0,109	0,065
-174,198	800,000	-0,040	0,085
-173,183	-200,000	-0,048	0,164
-172,169	-24,834	-0,107	-0,045
-171,154	211,981	0,095	-0,106
-170,139	-200,000	-0,002	-0,041
-169,125	97,602	0,134	0,109
-168,110	308,111	0,098	-0,130
-167,096	386,008	-0,035	-0,051
-166,081	-5,561	-0,171	-0,083
-165,066	-40,732	0,095	-0,035
-164,052	-200,000	-0,011	-0,162
-163,037	12,751	0,054	-0,029
-162,023	-91,278	0,137	0,028
-161,008	184,593	-0,031	-0,033
-159,993	800,000	-0,034	-0,094
-158,979	31,051	-0,063	-0,038
-157,964	-200,000	-0,005	0,122
-156,950	-200,000	0,011	-0,052
-155,935	20,392	0,135	-0,077
-154,920	-200,000	-0,036	0,118
-153,906	-71,240	0,168	0,044
-152,891	483,206	-0,077	0,124
-151,877	658,936	-0,011	0,020
-150,862	450,496	0,082	-0,129
-149,847	-35,256	0,086	-0,033
-148,833	671,398	-0,019	0,035
-147,818	-168,457	-0,041	0,001
-146,804	8,588	0,112	0,060
-145,789	800,000	0,034	0,089
-144,775	800,000	0,041	-0,103
-143,760	-200,000	-0,009	-0,183
-142,745	2,208	0,074	0,038
-141,731	333,384	0,013	0,018
-140,716	-200,000	-0,010	0,073
-139,702	-62,279	0,089	0,026
-138,687	249,538	0,102	0,123
-137,672	311,583	0,117	0,156
-136,658	20,974	-0,100	-0,057
-135,643	347,974	-0,073	0,102
-134,629	-200,000	-0,026	-0,093
-133,614	90,077	-0,125	0,099
-132,599	437,820	-0,035	-0,055
-131,585	-4,394	0,021	0,010
-130,570	800,000	0,068	0,163
-129,556	-89,752	-0,098	0,020
-128,541	-200,000	0,015	-0,054
-127,526	-200,000	0,010	-0,045
-126,512	-59,871	-0,032	-0,010
-125,497	-51,443	0,130	0,043
-124,483	-75,583	-0,076	-0,019
-123,468	-200,000	0,012	-0,064
-122,453	-8,794	-0,193	-0,091
-121,439	-200,000	-0,021	-0,197
-120,424	-130,570	0,065	0,006
-119,410	-29,544	0,064	-0,026
-118,395	-73,794	-0,177	-0,045
-117,380	-7,992	0,153	0,072
-116,366	62,569	-0,070	-0,049
-115,351	-124,082	-0,175	0,019
-114,337	800,000	-0,059	-0,171
-113,322	-68,529	-0,115	0,031
-112,307	-200,000	0,023	0,253
-111,293	-200,000	-0,002	0,050
-110,278	-196,003	-0,035	0,000
-109,264	-38,350	0,050	-0,019
-108,249	-200,000	-0,010	-0,064
-107,234	800,000	-0,093	-0,191
-106,220	-200,000	0,015	-0,061
-105,205	800,000	-0,047	-0,092
-104,191	32,556	0,148	-0,090
-103,176	-132,737	0,010	-0,001
-102,162	53,771	-0,122	0,083
-101,147	757,270	-0,044	0,085
-100,132	52,491	-0,095	-0,064
-99,118	-111,100	-0,092	-0,013
-98,103	427,310	0,054	0,083
-97,089	244,723	0,035	-0,042
-96,074	-17,668	-0,075	-0,033
-95,059	800,000	0,083	0,173
-94,045	-30,584	-0,017	-0,007
-93,030	659,459	-0,057	-0,104
-92,016	37,105	-0,094	-0,058
-91,001	-72,099	0,099	-0,026
-89,986	-139,343	0,096	-0,007
-88,972	-200,000	0,007	0,032
-87,957	263,703	0,056	0,069
-86,943	171,780	0,028	0,029
-85,928	528,854	-0,079	-0,132
-84,913	-200,000	-0,001	-0,035
-83,899	-200,000	0,045	-0,194
-82,884	517,265	0,043	0,071
-81,870	-66,199	0,109	0,030
-80,855	800,000	-0,071	0,147
-79,840	-200,000	0,024	-0,080
-78,826	105,785	0,047	-0,039
-77,811	-200,000	-0,008	-0,090
-76,797	-200,000	0,028	-0,118
-75,782	-200,000	-0,004	0,118
-74,767	-35,820	0,100	-0,038
-73,753	-71,797	0,098	0,026
-72,738	-200,000	-0,010	0,104
-71,724	-36,521	-0,058	-0,022
-70,709	-190,615	-0,159	-0,001
-69,694	800,000	-0,049	-0,119
-68,680	22,033	0,129	-0,074
-67,665	800,000	0,063	0,142
-66,651	-200,000	-0,022	0,161
-65,636	-200,000	-0,011	-0,085
-64,622	23,959	-0,038	0,022
-63,607	-55,438	-0,106	0,033
-62,592	30,373	-0,112	0,068
-61,578	414,543	0,068	-0,103
-60,563	-200,000	0,027	-0,103
-59,549	800,000	0,030	0,081
-58,534	51,579	-2,072	-1,388
-57,519	527,374	-1,158	-1,935
-56,505	-200,000	-0,454	-4,186
-55,490	602,258	0,969	1,708
-54,476	800,000	5,108	11,022
-53,461	-200,000	21,893	339,751
-52,446	800,000	757,121	2296,690
-51,432	534,153	1648,402	2766,811
-50,417	68,734	1646,475	1190,903
-49,403	16,261	1521,613	844,571
-48,388	10,414	1446,526	774,806
-47,373	19,124	1438,924	812,219
-46,359	13,816	1427,511	780,688
-45,344	8,724	1423,425	754,340
-44,330	8,668	1421,445	752,997
-43,315	8,633	1419,936	751,998
-42,300	8,641	1418,122	751,049
-41,286	8,710	1416,723	750,602
-40,271	8,648	1415,515	749,639
-39,257	8,644	1414,333	748,966
-38,242	8,647	1413,229	748,364
-37,227	8,657	1412,195	747,838
-36,213	8,708	1410,658	747,229
-35,198	8,671	1409,467	746,398
-34,184	8,732	1408,689	746,243
-33,169	8,618	1407,225	744,904
-32,154	8,652	1406,463	744,629
-31,140	8,618	1405,144	743,741
-30,125	8,666	1403,827	743,238
-29,111	8,638	1402,736	742,500
-28,096	8,632	1401,635	741,862
-27,082	8,579	1400,282	740,869
-26,067	8,570	1399,354	740,307
-25,052	8,582	1398,367	739,812
-24,038	8,594	1397,264	739,254
-23,023	8,601	1396,170	738,678
-22,009	8,565	1395,381	738,064
-20,994	8,559	1394,395	737,486
-19,979	8,581	1393,300	736,980
-18,965	8,517	1392,537	736,251
-17,950	8,510	1391,505	735,644
-16,936	8,550	1390,532	735,283
-15,921	8,433	1390,128	734,500
-14,906	8,505	1388,721	734,058
-13,892	8,547	1387,625	733,644
-12,877	8,530	1387,001	733,206
-11,863	8,475	1386,340	732,576
-10,848	8,514	1385,107	732,074
-9,833	8,462	1384,327	731,396
-8,819	8,466	1383,411	730,900
-7,804	8,406	1382,624	730,178
-6,790	8,412	1381,464	729,564
-5,775	8,414	1380,371	728,969
-4,760	8,455	1379,534	728,688
-3,746	8,454	1378,606	728,163
-2,731	8,490	1377,716	727,826
-1,717	8,450	1376,880	727,175
-0,702	8,443	1375,137	726,194
0,313	12,503	1287,066	698,082
1,327	28,440	679,923	404,419
2,342	44,419	116,883	75,553
3,356	1,635	16,505	8,352
4,371	4,261	3,799	1,955
5,386	-27,111	1,242	0,508
6,400	800,000	0,212	0,647
7,415	-65,213	-0,320	-0,090
8,429	-73,514	-0,317	-0,081
9,444	68,818	-0,319	-0,230
10,459	-38,725	-0,264	-0,098
11,473	63,103	-0,231	-0,163
12,488	20,561	-0,263	-0,149
13,502	-43,562	-0,295	-0,104
14,517	252,372	-0,187	-0,225
15,531	-122,575	-0,468	-0,053
16,546	78,518	-0,339	-0,255
17,561	17,426	-0,313	-0,174
18,575	-29,752	-0,206	-0,082
19,590	-19,668	-0,363	-0,158
20,604	9,030	-0,244	-0,129
21,619	197,467	-0,294	-0,316
22,634	15,372	-0,515	-0,284
23,648	335,160	-0,280	-0,383
24,663	46,859	-0,483	-0,315
25,677	143,203	-0,305	-0,286
26,692	115,703	-0,351	-0,302
27,707	204,666	-0,223	-0,244
28,721	72,190	-0,364	-0,266
29,736	25,523	-0,439	-0,256
30,750	120,104	-0,316	-0,275
31,765	2,951	-0,401	-0,204
32,780	103,690	-0,265	-0,219
33,794	245,141	-0,252	-0,299
34,809	19,469	-0,372	-0,210
35,823	75,158	-0,395	-0,292
36,838	447,201	-0,206	-0,320
37,853	153,191	-0,333	-0,321
38,867	-109,483	-0,332	-0,049
39,882	82,275	-0,370	-0,282
40,896	129,012	-0,239	-0,215
41,911	16,521	-0,377	-0,209
42,926	57,117	-0,338	-0,231
43,940	297,330	-0,221	-0,285
44,955	140,025	-0,432	-0,400
45,969	81,621	-0,350	-0,266
46,984	369,804	-0,193	-0,276
47,999	50,733	-0,297	-0,197
49,013	120,538	-0,369	-0,322
50,028	679,088	-0,163	-0,300
51,042	136,232	-0,392	-0,359
52,057	100,760	-0,415	-0,339
53,071	130,379	-0,345	-0,310
54,086	174,397	-0,321	-0,326
55,101	230,849	-0,260	-0,299
56,115	38,465	-0,242	-0,151
57,130	-11,991	-0,417	-0,191
58,144	35,800	-0,326	-0,201
59,159	3,018	-0,391	-0,199
60,174	102,036	-0,377	-0,309
61,188	35,979	-0,263	-0,162
62,203	-2,971	-0,266	-0,130
63,217	126,297	-0,250	-0,222
64,232	-49,688	-0,329	-0,109
65,247	60,933	-0,340	-0,236
66,261	-59,138	-0,437	-0,131
67,276	-79,820	-0,368	-0,086
68,290	9,795	-0,444	-0,235
69,305	127,597	-0,244	-0,218
70,320	-56,138	-0,327	-0,101
71,334	-46,835	-0,288	-0,098
72,349	117,426	-0,370	-0,319
73,363	20,244	-0,324	-0,183
74,378	44,233	-0,298	-0,191
75,393	171,644	-0,259	-0,261
76,407	88,908	-0,220	-0,172
77,422	-97,075	-0,398	-0,072
78,436	-107,571	-0,328	-0,050
79,451	-13,493	-0,327	-0,148
80,466	41,483	-0,354	-0,224
81,480	263,798	-0,248	-0,303
82,495	22,988	-0,223	-0,128
83,509	-13,037	-0,262	-0,119
84,524	429,850	-0,148	-0,224
85,539	-37,903	-0,327	-0,121
86,553	150,351	-0,209	-0,199
87,568	243,964	-0,278	-0,327
88,582	139,810	-0,260	-0,240
89,597	311,865	-0,190	-0,250
90,611	227,183	-0,162	-0,185
91,626	338,899	-0,166	-0,227
92,641	-52,969	-0,367	-0,118
93,655	176,113	-0,248	-0,252
94,670	13,640	-0,342	-0,185
95,684	60,392	-0,215	-0,149
96,699	-48,734	-0,332	-0,111
97,714	415,458	-0,221	-0,330
98,728	-7,293	-0,244	-0,115
99,743	-117,962	-0,154	0,019
100,757	-37,336	-0,339	-0,126
101,772	75,147	-0,226	-0,166
102,787	224,265	-0,276	-0,312
103,801	50,232	-0,303	-0,200
104,816	-25,978	-0,202	-0,083
105,830	-55,041	-0,279	-0,087
106,845	-37,185	-0,280	-0,104
107,860	-26,164	-0,295	-0,121
108,874	-16,154	-0,306	-0,135
109,889	86,111	-0,131	-0,101
110,903	309,966	-0,182	-0,239
111,918	751,326	-0,116	-0,220
112,933	37,862	-0,174	-0,108
113,947	410,468	-0,220	-0,327
114,962	65,964	-0,166	-0,117
115,976	22,146	-0,299	-0,170
116,991	337,652	-0,248	-0,338
118,006	177,989	-0,251	-0,256
119,020	153,860	-0,066	-0,064
120,035	4,411	-0,337	-0,172
121,049	-200,000	0,009	-0,134
122,064	-46,856	-0,246	-0,083
123,079	108,215	-0,170	-0,141
124,093	1,875	-0,292	-0,147
125,108	-14,545	-0,257	-0,115
126,122	46,945	-0,189	-0,122
127,137	69,954	-0,300	-0,215
128,151	247,279	-0,227	-0,268
129,166	26,091	-0,292	-0,170
130,181	-26,693	-0,323	-0,131
131,195	-74,880	-0,178	-0,044
132,210	135,610	-0,227	-0,206
133,224	-22,674	-0,322	-0,135
134,239	61,488	-0,230	-0,159
135,254	52,956	-0,186	-0,124
136,268	-1,112	-0,213	-0,104
137,283	176,248	-0,171	-0,174
138,297	-27,546	-0,295	-0,119
139,312	234,437	-0,246	-0,283
140,327	18,961	-0,217	-0,121
141,341	136,579	-0,169	-0,154
142,356	127,036	-0,202	-0,179
143,370	84,875	-0,273	-0,208
144,385	18,101	-0,297	-0,164
145,400	-136,235	-0,224	-0,018
146,414	79,236	-0,237	-0,177
147,429	127,696	-0,163	-0,144
148,443	172,793	-0,243	-0,244
149,458	-43,543	-0,228	-0,080
150,473	709,353	-0,116	-0,214
151,487	98,450	-0,236	-0,189
152,502	-55,528	-0,290	-0,090
153,516	8,691	-0,312	-0,163
154,531	-27,191	-0,213	-0,086
155,546	29,053	-0,233	-0,137
156,560	9,100	-0,244	-0,128
157,575	-34,563	-0,123	-0,047
158,589	-8,466	-0,210	-0,098
159,604	-94,243	-0,241	-0,046
160,619	800,000	-0,177	-0,381
161,633	71,848	-0,197	-0,142
162,648	58,777	-0,195	-0,133
163,662	366,846	-0,184	-0,259
164,677	86,308	-0,225	-0,172
165,692	56,598	-0,164	-0,111
166,706	145,489	-0,237	-0,221
167,721	-11,318	-0,301	-0,137
168,735	800,000	-0,124	-0,247
169,750	26,445	-0,205	-0,119
170,764	122,964	-0,250	-0,217
171,779	9,694	-0,268	-0,141
172,794	107,202	-0,225	-0,186
173,808	396,757	-0,130	-0,190
174,823	224,021	-0,205	-0,230
175,837	-89,149	-0,286	0,058
176,852	45,220	-0,224	-0,143
177,867	-200,000	-0,061	-0,282
178,881	124,369	-0,308	-0,269
179,896	-111,999	-0,213	0,030
180,910	237,850	-0,120	-0,139
181,925	143,987	-0,186	-0,173
182,940	61,624	-0,191	-0,132
183,954	-43,011	-0,307	0,107
184,969	56,594	-0,160	-0,108
185,983	-200,000	0,047	-0,210
186,998	24,793	-0,198	-0,114
188,013	265,936	-0,114	-0,138
189,027	-71,830	-0,162	-0,041
190,042	87,733	-0,205	-0,158
191,056	710,217	-0,096	-0,177
192,071	800,000	-0,078	-0,166
193,086	104,937	-0,201	-0,164
194,100	86,176	-0,081	-0,062
195,115	800,000	-0,046	-0,123
196,129	800,000	-0,140	-0,271
197,144	443,924	-0,216	-0,330
198,159	-49,443	-0,256	-0,084
199,173	196,762	-0,101	-0,107
200,188	-113,918	-0,160	-0,021
201,202	57,293	-0,193	-0,130
202,217	53,010	-0,128	-0,085
203,232	102,298	-0,255	-0,206
204,246	163,576	-0,320	-0,312
205,261	348,182	-0,177	-0,242
206,275	-141,520	-0,143	0,010
207,290	576,872	-0,130	-0,220
208,304	225,516	-0,123	-0,139
209,319	19,534	-0,210	-0,117
210,334	-200,000	-0,011	-0,171
211,348	157,008	-0,159	-0,153
212,363	800,000	-0,081	-0,211
213,377	-66,934	-0,200	-0,054
214,392	-44,116	-0,109	-0,038
215,407	40,991	-0,169	-0,105
216,421	343,779	-0,046	-0,062
217,436	26,014	-0,200	-0,115
218,450	-138,669	-0,124	0,009
219,465	180,860	-0,206	-0,210
220,480	91,724	-0,276	-0,215
221,494	558,523	-0,109	-0,183
222,509	506,356	-0,072	-0,117
223,523	-193,463	-0,183	-0,001
224,538	-21,316	-0,147	-0,062
225,553	-37,430	-0,264	-0,097
226,567	92,556	-0,138	-0,108
227,582	-90,456	-0,226	-0,045
228,596	-200,000	-0,025	-0,166
229,611	15,240	-0,124	-0,067
230,626	27,814	-0,202	-0,117
231,640	-61,388	-0,184	-0,053
232,655	31,993	-0,355	-0,211
233,669	800,000	-0,131	-0,324
234,684	-31,896	-0,138	-0,053
235,699	-49,932	-0,104	-0,034
236,713	-105,535	-0,168	0,026
237,728	63,608	-0,223	-0,154
238,742	33,716	-0,190	-0,114
239,757	166,954	-0,217	-0,212
240,772	145,859	-0,210	-0,194
241,786	-38,262	-0,270	-0,098
242,801	800,000	-0,114	-0,277
243,815	-11,180	-0,093	-0,042
244,830	142,036	-0,166	-0,152
245,844	-163,871	-0,218	-0,007
246,859	-1,550	-0,127	-0,061
247,874	52,769	-0,304	-0,200
248,888	1,797	-0,283	-0,140
249,903	339,696	-0,148	-0,199
250,917	-197,086	-0,215	0,001
251,932	-55,799	-0,110	0,034
252,947	-33,323	-0,150	-0,057
253,961	193,235	-0,066	-0,069
254,976	35,627	-0,195	-0,118
255,990	-47,051	-0,216	-0,072
257,005	800,000	-0,090	-0,204
258,020	-11,659	-0,133	-0,060
259,034	-40,912	-0,233	-0,083
260,049	-66,190	-0,142	-0,039
261,063	-23,892	-0,167	-0,069
262,078	764,855	-0,090	-0,169
263,093	185,727	-0,091	-0,094
264,107	108,123	-0,188	-0,155
265,122	-125,457	-0,190	-0,020
266,136	-200,000	-0,014	-0,151
267,151	426,975	-0,095	-0,142
268,166	157,905	-0,154	-0,147
269,180	124,069	-0,214	-0,185
270,195	-84,092	-0,133	-0,029
271,209	176,398	-0,176	-0,177
272,224	149,490	-0,185	-0,173
273,239	-90,586	-0,211	-0,042
274,253	273,883	-0,153	-0,187
275,268	63,781	-0,195	-0,135
276,282	-158,997	-0,208	-0,008
277,297	92,357	-0,187	-0,145
278,312	-125,978	-0,217	-0,022
279,326	57,528	-0,158	-0,106
280,341	-16,645	-0,094	-0,041
281,355	-64,691	-0,199	-0,055
282,370	116,999	-0,108	-0,091
283,384	-8,563	-0,241	-0,111
284,399	21,793	-0,144	-0,080
285,414	-140,802	-0,237	0,017
286,428	244,842	-0,053	-0,061
287,443	-200,000	-0,039	-0,133
288,457	-119,988	-0,195	0,023
289,472	-82,529	-0,168	-0,037
290,487	-46,491	-0,123	-0,041
291,501	473,716	-0,192	-0,299
292,516	174,319	-0,106	-0,106
293,530	-138,602	-0,201	-0,015
294,545	223,348	-0,142	-0,158
295,560	-78,351	-0,242	-0,057
296,574	-48,058	-0,178	-0,059
297,589	-22,378	-0,081	-0,034
298,603	-200,000	-0,052	-0,190
299,618	-68,811	-0,234	-0,062
300,633	549,615	-0,082	-0,136
301,647	175,784	-0,065	-0,065
302,662	-91,194	-0,146	-0,028
303,676	93,800	-0,123	-0,096
304,691	-60,399	-0,135	0,039
305,706	-27,623	-0,140	-0,056
306,720	86,652	-0,139	-0,105
307,735	208,155	-0,105	-0,113
308,749	3,561	-0,258	-0,129
309,764	800,000	-0,059	-0,136
310,779	95,152	-0,105	-0,082
311,793	-5,084	-0,132	-0,062
312,808	147,331	-0,212	-0,196
313,822	-189,068	-0,222	-0,002
314,837	-200,000	0,013	-0,139
315,852	2,833	-0,179	-0,089
316,866	-200,000	-0,043	-0,173
317,881	-6,489	-0,113	0,053
318,895	-37,648	-0,157	-0,057
319,910	-93,804	-0,192	-0,036
320,925	800,000	-0,052	-0,109
321,939	-200,000	-0,036	-0,158
322,954	-200,000	0,010	-0,133
323,968	-29,438	-0,290	-0,113
324,983	70,691	-0,137	0,097
325,997	185,162	-0,119	-0,121
327,012	-126,909	-0,206	-0,021
328,027	-92,054	-0,248	-0,048
329,041	-200,000	-0,035	-0,154
330,056	3,371	-0,135	-0,067
331,070	-135,388	-0,178	0,014
332,085	-140,061	-0,177	0,013
333,100	139,568	-0,161	-0,145
334,114	800,000	-0,055	-0,123
335,129	26,754	-0,216	-0,124
336,143	-105,717	-0,151	-0,023
337,158	-43,445	-0,176	-0,061
338,173	800,000	-0,049	-0,128
339,187	-43,940	-0,187	-0,064
340,202	597,059	-0,119	-0,202
341,216	85,748	-0,170	-0,128
342,231	800,000	-0,138	-0,267
343,246	800,000	-0,123	-0,275
344,260	-152,297	-0,075	0,004
345,275	-1,452	-0,122	-0,059
346,289	-167,932	-0,137	-0,004
347,304	-73,020	-0,178	0,044
348,319	424,184	-0,062	-0,091
349,333	800,000	-0,093	-0,226
350,348	79,149	-0,143	-0,104
351,362	-200,000	-0,042	-0,128
352,377	800,000	-0,040	-0,116
353,392	119,049	-0,152	-0,128
354,406	48,520	-0,197	-0,126
355,421	207,381	1305,846	1394,508
356,435	159,530	1465,454	1394,980
