DTS Sentinel unit serial number:	SN410029Multiplexer serial number:	ORYXHardware model number:	OX2-SRSoftware version number:	ORYX F/W v4,00 Oryx Data Collector v3.7.2.0data status	okinstallation	B3 Nyhavnadifferential loss correction	single-endedforward channel	channel 1reverse channel	N/Adate	2023/12/04time	14:27:30forward acquisition time	300,00reverse acquisition time	0,00gamma	499,1914k internal	0,3201k external	0,3201temperature offset calibration	1,0000default loss term (dB/km)	0,3820temperature slope calibration	1,0000multiplexer offset coefficient	1,0000multiplexer slope coefficient	1,0000fibre end	0,00T internal ref (°C)	15,00T ext. ref 1 (°C)	0,19T ext. ref 2 (°C)	0,18length (m)	temperature (°C)	Stokes	anti-Stokes-744,400	24,969	-0,285	-0,171
-743,385	-200,000	-0,038	0,284
-742,371	189,387	-0,174	-0,190
-741,356	-200,000	0,060	0,322
-740,342	-1,782	-0,134	-0,068
-739,327	-200,000	0,010	0,361
-738,312	328,188	-0,238	-0,333
-737,298	800,000	-0,098	0,289
-736,283	347,214	-0,152	-0,218
-735,269	800,000	0,129	0,288
-734,254	147,940	-0,238	-0,234
-733,239	50,240	-0,159	0,109
-732,225	-10,829	-0,144	-0,069
-731,210	65,311	0,146	0,107
-730,196	-200,000	0,023	-0,135
-729,181	-120,316	-0,129	-0,016
-728,167	-143,202	-0,047	-0,003
-727,152	800,000	-0,021	0,067
-726,137	4,192	-0,084	-0,044
-725,123	-71,347	-0,073	-0,020
-724,108	236,832	-0,085	-0,103
-723,094	-200,000	-0,046	-0,152
-722,079	-17,031	-0,116	-0,053
-721,064	-200,000	0,009	-0,088
-720,050	151,975	-0,074	0,073
-719,035	-84,110	0,014	0,003
-718,021	-200,000	0,002	-0,058
-717,006	34,938	-0,127	-0,080
-715,991	2,369	-0,075	-0,039
-714,977	-24,579	-0,068	-0,029
-713,962	143,868	-0,097	0,094
-712,948	-200,000	-0,016	0,072
-711,933	-149,703	0,079	-0,004
-710,918	50,972	0,074	-0,051
-709,904	592,274	-0,082	0,148
-708,889	-200,000	-0,001	-0,020
-707,875	-8,264	-0,146	-0,071
-706,860	800,000	0,056	-0,117
-705,845	-200,000	0,010	0,033
-704,831	-64,163	0,077	-0,023
-703,816	48,842	0,056	-0,038
-702,802	612,414	-0,052	-0,094
-701,787	-200,000	0,011	-0,043
-700,772	-51,794	-0,097	-0,032
-699,758	-149,243	0,115	-0,007
-698,743	800,000	0,021	0,046
-697,729	-159,399	0,071	-0,003
-696,714	-165,772	0,150	-0,005
-695,699	357,413	0,066	0,096
-694,685	6,614	-0,105	-0,056
-693,670	-200,000	0,015	-0,172
-692,656	-200,000	0,047	-0,164
-691,641	244,550	0,074	-0,090
-690,627	-125,901	0,065	-0,007
-689,612	-89,084	-0,151	-0,032
-688,597	89,458	-0,103	-0,083
-687,583	800,000	0,035	-0,111
-686,568	-150,202	0,048	-0,003
-685,554	219,517	0,123	-0,144
-684,539	-26,359	0,088	-0,037
-683,524	-200,000	-0,038	-0,159
-682,510	800,000	0,043	-0,091
-681,495	-200,000	-0,015	0,048
-680,481	800,000	-0,037	-0,083
-679,466	-20,044	0,026	-0,012
-678,451	-56,626	0,074	0,024
-677,437	-86,884	0,059	0,013
-676,422	-68,884	0,087	-0,024
-675,408	-77,056	0,083	0,021
-674,393	800,000	0,031	-0,071
-673,378	-134,590	0,098	-0,009
-672,364	-169,991	-0,104	0,003
-671,349	800,000	-0,075	-0,204
-670,335	140,266	0,098	0,093
-669,320	121,755	-0,009	0,008
-668,305	-125,987	-0,130	-0,014
-667,291	-16,366	0,028	-0,013
-666,276	62,767	-0,092	-0,067
-665,262	800,000	-0,016	-0,032
-664,247	-200,000	0,053	-0,177
-663,232	-110,605	0,079	-0,012
-662,218	800,000	-0,035	0,083
-661,203	800,000	0,042	0,099
-660,189	-62,909	0,056	0,017
-659,174	-20,793	0,017	0,008
-658,159	-83,344	-0,088	-0,020
-657,145	236,015	0,060	-0,071
-656,130	71,951	0,076	-0,058
-655,116	-200,000	-0,011	0,112
-654,101	252,422	0,076	0,094
-653,086	-17,112	0,049	-0,022
-652,072	83,235	-0,090	-0,071
-651,057	137,205	-0,058	-0,055
-650,043	286,942	-0,022	-0,028
-649,028	-200,000	-0,024	-0,084
-648,014	-13,459	0,115	0,054
-646,999	9,549	0,050	-0,027
-645,984	-200,000	0,012	-0,054
-644,970	-200,000	-0,016	-0,056
-643,955	248,635	0,073	-0,090
-642,941	800,000	0,028	-0,074
-641,926	800,000	-0,041	-0,091
-640,911	-200,000	0,029	-0,134
-639,897	-111,868	0,055	0,008
-638,882	251,860	-0,037	-0,046
-637,868	144,277	-0,121	-0,117
-636,853	6,903	0,055	-0,030
-635,838	499,980	-0,094	-0,157
-634,824	154,214	0,104	0,103
-633,809	-200,000	0,002	-0,078
-632,795	342,276	-0,048	-0,068
-631,780	-200,000	0,006	0,022
-630,765	-200,000	-0,009	-0,077
-629,751	152,635	-0,102	-0,101
-628,736	-151,610	0,117	0,006
-627,722	-136,863	-0,140	0,011
-626,707	-41,459	0,062	-0,023
-625,692	93,937	0,021	-0,017
-624,678	-96,901	-0,150	0,028
-623,663	-200,000	0,011	-0,042
-622,649	178,493	0,059	0,062
-621,634	800,000	-0,019	-0,043
-620,619	-200,000	0,034	-0,123
-619,605	14,282	-0,101	-0,057
-618,590	2,645	-0,057	0,030
-617,576	-200,000	0,012	0,094
-616,561	-200,000	-0,002	0,126
-615,546	-200,000	-0,017	-0,098
-614,532	800,000	-0,055	-0,145
-613,517	800,000	-0,028	-0,082
-612,503	296,659	0,055	0,073
-611,488	-200,000	0,014	0,072
-610,474	-200,000	0,020	0,215
-609,459	188,764	0,066	-0,072
-608,444	-34,146	0,038	0,015
-607,430	-200,000	-0,062	-0,235
-606,415	220,738	-0,034	-0,040
-605,401	-200,000	0,018	0,090
-604,386	101,543	0,016	-0,014
-603,371	270,541	-0,119	-0,151
-602,357	-77,743	-0,057	0,014
-601,342	-29,381	-0,165	0,068
-600,328	-93,182	-0,093	0,019
-599,313	800,000	0,011	0,029
-598,298	189,301	0,078	-0,085
-597,284	-119,853	0,018	0,002
-596,269	-79,002	-0,090	0,022
-595,255	97,763	-0,033	-0,027
-594,240	24,445	0,057	0,034
-593,225	32,772	0,046	-0,029
-592,211	-113,123	0,019	-0,003
-591,196	-200,000	-0,006	-0,069
-590,182	-81,474	0,072	-0,017
-589,167	-200,000	0,021	-0,127
-588,152	297,806	0,048	0,064
-587,138	77,495	0,060	-0,046
-586,123	62,071	-0,165	-0,118
-585,109	340,563	-0,031	0,044
-584,094	-73,971	-0,022	0,006
-583,079	-177,033	-0,058	-0,001
-582,065	800,000	-0,020	0,059
-581,050	-200,000	-0,014	0,141
-580,036	436,451	0,035	0,055
-579,021	-176,251	-0,131	0,002
-578,006	269,873	-0,117	-0,149
-576,992	106,121	0,036	0,031
-575,977	-92,358	0,096	0,019
-574,963	164,262	-0,019	0,019
-573,948	-111,613	-0,049	0,007
-572,934	-123,059	-0,026	0,003
-571,919	-55,011	-0,083	-0,027
-570,904	-76,533	-0,251	-0,063
-569,890	-45,758	-0,154	0,055
-568,875	-26,067	0,016	0,007
-567,861	466,900	0,119	0,193
-566,846	-56,459	-0,064	-0,020
-565,831	-79,918	0,110	0,027
-564,817	-117,877	-0,155	0,020
-563,802	800,000	-0,047	0,100
-562,788	-75,787	0,061	-0,015
-561,773	-200,000	-0,006	0,040
-560,758	-87,953	0,180	0,039
-559,744	-93,288	0,023	0,005
-558,729	-200,000	0,005	-0,036
-557,715	304,227	0,096	-0,129
-556,700	-22,334	-0,236	-0,103
-555,685	800,000	-0,050	-0,106
-554,671	553,292	0,022	-0,038
-553,656	439,047	-0,031	0,049
-552,642	-47,109	0,117	-0,041
-551,627	226,247	-0,101	-0,119
-550,612	800,000	-0,028	-0,069
-549,598	800,000	-0,022	-0,049
-548,583	-200,000	0,005	0,041
-547,569	-25,887	-0,157	-0,066
-546,554	-108,400	0,159	0,025
-545,539	88,776	-0,021	0,017
-544,525	-200,000	-0,000	0,034
-543,510	-88,365	0,031	-0,007
-542,496	-200,000	0,003	-0,104
-541,481	-200,000	0,011	-0,076
-540,466	-47,160	-0,106	-0,037
-539,452	77,060	0,095	0,073
-538,437	-81,804	0,048	-0,011
-537,423	800,000	-0,024	-0,054
-536,408	-200,000	0,006	-0,072
-535,393	-200,000	0,010	-0,119
-534,379	-16,049	-0,115	-0,053
-533,364	138,768	-0,139	-0,131
-532,350	221,264	-0,056	-0,064
-531,335	657,436	0,113	0,210
-530,321	-200,000	-0,003	0,085
-529,306	180,249	0,109	0,116
-528,291	-146,264	-0,089	-0,006
-527,277	-116,014	-0,188	0,025
-526,262	174,053	-0,094	-0,098
-525,248	170,814	-0,051	-0,053
-524,233	-88,546	0,017	-0,004
-523,218	-3,189	-0,015	0,007
-522,204	800,000	-0,005	0,014
-521,189	-200,000	0,038	-0,201
-520,175	-200,000	-0,017	-0,104
-519,160	-200,000	-0,006	0,047
-518,145	64,124	-0,081	0,059
-517,131	-62,194	0,130	0,039
-516,116	419,742	-0,052	0,080
-515,102	-200,000	0,003	0,028
-514,087	153,696	-0,127	0,125
-513,072	800,000	0,062	-0,159
-512,058	800,000	0,009	0,027
-511,043	-21,118	-0,159	0,070
-510,029	-200,000	-0,010	0,054
-509,014	382,334	0,030	-0,045
-507,999	800,000	-0,030	0,063
-506,985	539,391	0,030	0,052
-505,970	-200,000	-0,152	0,000
-504,956	604,608	0,053	0,095
-503,941	47,861	0,096	-0,065
-502,926	-200,000	0,001	-0,014
-501,912	-71,554	0,089	0,024
-500,897	-200,000	0,011	-0,070
-499,883	243,749	-0,046	-0,055
-498,868	-13,103	-0,085	-0,040
-497,853	-15,109	-0,078	0,036
-496,839	-44,833	0,081	0,029
-495,824	-113,807	-0,034	0,005
-494,810	-102,607	-0,105	-0,018
-493,795	-94,153	-0,224	0,044
-492,781	59,095	-0,113	-0,080
-491,766	-38,826	-0,058	0,022
-490,751	49,680	0,092	-0,062
-489,737	261,995	0,051	0,064
-488,722	-54,551	0,071	0,023
-487,708	-200,000	0,011	0,042
-486,693	215,989	-0,075	-0,086
-485,678	153,311	-0,043	-0,043
-484,664	43,479	-0,114	-0,075
-483,649	-115,257	0,045	0,006
-482,635	-78,651	-0,128	0,031
-481,620	103,889	0,058	-0,049
-480,605	-200,000	0,018	0,094
-479,591	119,013	-0,063	0,056
-478,576	-24,318	-0,061	0,026
-477,562	-200,000	0,002	-0,150
-476,547	513,559	-0,031	-0,052
-475,532	-200,000	0,003	-0,034
-474,518	-200,000	-0,003	-0,086
-473,503	-200,000	0,019	0,109
-472,489	108,931	0,057	0,049
-471,474	394,503	0,078	-0,117
-470,459	-200,000	0,016	0,079
-469,445	162,795	-0,025	-0,025
-468,430	-94,150	-0,130	0,025
-467,416	28,631	0,023	-0,014
-466,401	800,000	0,034	0,091
-465,386	153,695	0,059	-0,058
-464,372	800,000	-0,038	-0,112
-463,357	-21,239	0,093	0,041
-462,343	800,000	-0,020	0,058
-461,328	-40,394	0,162	0,060
-460,313	-106,781	-0,079	-0,012
-459,299	393,679	0,071	0,106
-458,284	190,127	-0,030	0,032
-457,270	-200,000	-0,011	0,144
-456,255	120,338	0,028	-0,025
-455,241	-73,742	-0,178	0,046
-454,226	82,503	-0,025	0,019
-453,211	623,754	-0,032	0,058
-452,197	-200,000	0,000	0,087
-451,182	-200,000	-0,003	0,065
-450,168	-109,144	0,034	-0,005
-449,153	800,000	-0,033	-0,091
-448,138	192,172	0,023	0,025
-447,124	-200,000	-0,015	-0,075
-446,109	-67,666	0,081	0,023
-445,095	-46,965	0,167	-0,058
-444,080	367,101	0,021	-0,030
-443,065	-181,696	-0,067	0,001
-442,051	-81,869	-0,055	0,013
-441,036	-73,062	-0,076	-0,020
-440,022	-200,000	0,010	-0,060
-439,007	-200,000	-0,018	0,067
-437,992	21,350	-0,119	-0,069
-436,978	-200,000	0,008	0,100
-435,963	-200,000	-0,048	0,161
-434,949	-37,855	0,058	0,022
-433,934	-200,000	-0,002	-0,147
-432,919	286,876	-0,026	-0,034
-431,905	-38,859	-0,090	0,034
-430,890	-69,247	0,024	0,007
-429,876	-10,125	0,062	0,030
-428,861	10,760	0,132	-0,072
-427,846	466,639	-0,072	-0,116
-426,832	82,897	-0,087	-0,068
-425,817	-124,547	0,105	0,012
-424,803	-94,227	-0,109	-0,021
-423,788	140,738	-0,093	0,089
-422,773	-127,458	0,112	-0,012
-421,759	150,898	0,120	0,117
-420,744	-154,546	-0,061	-0,003
-419,730	-200,000	-0,019	-0,066
-418,715	280,471	0,044	-0,057
-417,701	82,534	-0,019	-0,015
-416,686	-54,960	-0,087	0,028
-415,671	469,575	0,019	0,030
-414,657	-200,000	0,029	0,191
-413,642	-30,779	-0,039	-0,016
-412,628	20,131	0,069	0,040
-411,613	281,053	-0,160	-0,206
-410,598	800,000	-0,064	-0,165
-409,584	-94,897	0,145	-0,028
-408,569	800,000	-0,037	-0,079
-407,555	-133,395	-0,101	0,009
-406,540	-200,000	-0,004	-0,017
-405,525	-200,000	-0,006	-0,103
-404,511	-79,362	0,092	0,022
-403,496	-200,000	-0,005	0,040
-402,482	-91,646	0,052	-0,010
-401,467	-200,000	0,047	0,191
-400,452	800,000	0,069	0,144
-399,438	238,237	0,066	0,079
-398,423	-106,609	0,067	0,011
-397,409	256,577	0,040	-0,049
-396,394	-138,801	-0,055	0,004
-395,379	800,000	-0,028	0,069
-394,365	-97,410	0,122	-0,023
-393,350	-20,014	0,089	0,039
-392,336	-200,000	0,003	0,045
-391,321	751,610	0,009	0,018
-390,306	800,000	-0,017	-0,040
-389,292	49,616	0,079	0,053
-388,277	800,000	-0,037	0,104
-387,263	-43,932	0,015	0,005
-386,248	10,464	0,030	-0,017
-385,233	31,998	0,071	0,044
-384,219	-26,125	-0,078	0,033
-383,204	12,133	0,018	0,010
-382,190	-200,000	0,055	-0,187
-381,175	324,816	0,009	0,012
-380,160	-56,849	0,121	0,038
-379,146	-200,000	-0,010	0,135
-378,131	-200,000	0,021	0,091
-377,117	-67,071	0,056	-0,016
-376,102	134,145	-0,025	0,024
-375,088	134,844	-0,072	-0,067
-374,073	336,447	0,052	0,073
-373,058	-163,741	0,056	0,002
-372,044	55,693	-0,016	0,011
-371,029	-200,000	-0,034	0,194
-370,015	-190,635	0,122	0,001
-369,000	-70,093	-0,098	-0,026
-367,985	-51,074	-0,026	-0,009
-366,971	-200,000	-0,007	-0,023
-365,956	-128,493	0,232	-0,023
-364,942	-200,000	-0,024	0,091
-363,927	-200,000	-0,005	0,125
-362,912	481,480	0,036	-0,058
-361,898	121,138	-0,099	0,088
-360,883	646,708	0,058	-0,107
-359,869	112,683	-0,109	-0,094
-358,854	642,441	0,066	0,121
-357,839	-119,753	0,077	-0,009
-356,825	10,602	0,058	-0,031
-355,810	-200,000	-0,005	0,112
-354,796	-45,832	-0,168	-0,059
-353,781	609,089	0,053	-0,095
-352,766	-86,263	-0,046	-0,010
-351,752	-200,000	0,004	-0,036
-350,737	800,000	-0,014	-0,038
-349,723	420,086	0,038	-0,058
-348,708	-200,000	0,029	0,142
-347,693	65,056	-0,041	-0,030
-346,679	800,000	0,066	-0,152
-345,664	-49,338	-0,045	0,015
-344,650	-200,000	0,007	0,076
-343,635	650,156	-0,062	0,115
-342,620	-91,520	0,148	-0,030
-341,606	-200,000	0,000	0,172
-340,591	-200,000	-0,007	0,127
-339,577	-35,168	-0,051	0,020
-338,562	-65,620	-0,134	-0,038
-337,548	800,000	-0,003	0,010
-336,533	61,671	-0,087	0,062
-335,518	158,841	-0,038	0,038
-334,504	367,282	0,034	0,050
-333,489	-190,190	0,163	-0,001
-332,475	800,000	0,047	0,096
-331,460	-200,000	-0,000	-0,099
-330,445	-146,842	-0,068	0,004
-329,431	45,975	0,060	-0,039
-328,416	-45,604	-0,151	0,053
-327,402	-200,000	-0,005	0,028
-326,387	-200,000	0,003	0,019
-325,372	-59,145	-0,083	0,026
-324,358	-200,000	-0,007	-0,166
-323,343	800,000	0,007	0,019
-322,329	-63,308	0,107	0,031
-321,314	-200,000	0,008	0,165
-320,299	207,020	0,132	-0,147
-319,285	-200,000	0,011	-0,119
-318,270	-102,531	0,077	0,013
-317,256	253,802	-0,119	-0,146
-316,241	-194,235	0,114	0,001
-315,226	-200,000	0,005	-0,070
-314,212	358,326	-0,012	0,017
-313,197	29,823	-0,070	0,043
-312,183	-200,000	0,014	0,111
-311,168	800,000	0,033	0,076
-310,153	800,000	0,034	-0,087
-309,139	507,073	0,020	-0,033
-308,124	-200,000	0,009	-0,084
-307,110	-14,587	0,100	0,046
-306,095	-200,000	0,007	0,029
-305,080	376,715	-0,060	0,088
-304,066	-200,000	0,010	-0,050
-303,051	-200,000	-0,048	0,209
-302,037	-29,843	0,051	-0,021
-301,022	-10,117	0,042	-0,020
-300,008	-200,000	-0,010	0,214
-298,993	90,410	0,175	0,140
-297,978	613,902	0,039	0,070
-296,964	-200,000	0,005	-0,037
-295,949	-200,000	0,009	-0,191
-294,935	-36,954	-0,076	-0,029
-293,920	-133,103	0,108	-0,010
-292,905	81,559	-0,043	-0,034
-291,891	58,487	-0,178	0,125
-290,876	216,544	0,050	0,057
-289,862	-200,000	0,000	0,057
-288,847	-200,000	-0,013	-0,078
-287,832	154,606	-0,064	-0,063
-286,818	57,414	-0,142	-0,099
-285,803	182,493	-0,070	-0,074
-284,789	-79,220	0,168	-0,040
-283,774	-75,620	0,077	0,019
-282,759	-200,000	-0,031	0,201
-281,745	509,910	-0,036	-0,060
-280,730	-200,000	-0,024	-0,199
-279,716	204,268	0,056	0,063
-278,701	-65,732	-0,053	0,015
-277,686	-200,000	-0,030	-0,200
-276,672	88,086	-0,041	-0,032
-275,657	-45,321	-0,081	0,029
-274,643	-200,000	0,012	-0,112
-273,628	800,000	-0,035	0,078
-272,613	-178,025	-0,082	-0,001
-271,599	177,197	-0,051	-0,053
-270,584	-146,107	0,081	0,005
-269,570	56,384	0,036	-0,025
-268,555	-67,951	0,198	0,055
-267,540	-67,480	-0,072	0,020
-266,526	258,562	0,078	0,096
-265,511	118,603	-0,049	-0,043
-264,497	-130,573	0,164	-0,016
-263,482	800,000	-0,022	0,062
-262,467	-200,000	0,028	0,088
-261,453	-124,358	-0,108	0,012
-260,438	-10,702	-0,053	-0,025
-259,424	-200,000	-0,027	-0,088
-258,409	800,000	0,026	-0,060
-257,395	800,000	0,032	-0,094
-256,380	-200,000	-0,021	0,099
-255,365	112,732	-0,098	0,085
-254,351	-25,764	0,080	-0,034
-253,336	-200,000	0,000	-0,025
-252,322	800,000	0,031	-0,096
-251,307	192,148	0,094	-0,102
-250,292	-200,000	0,001	-0,009
-249,278	-134,031	0,073	0,006
-248,263	273,004	-0,095	0,120
-247,249	92,782	0,041	0,033
-246,234	-38,143	-0,073	0,027
-245,219	41,203	-0,088	-0,056
-244,205	-39,534	-0,115	0,043
-243,190	-200,000	-0,008	0,134
-242,176	800,000	0,027	0,054
-241,161	-63,936	-0,130	0,038
-240,146	-49,073	-0,013	0,004
-239,132	-200,000	0,006	0,152
-238,117	-39,432	-0,090	0,033
-237,103	134,619	0,082	-0,076
-236,088	-142,221	0,136	0,009
-235,073	-200,000	-0,009	0,138
-234,059	-48,129	0,167	0,057
-233,044	-152,080	0,110	-0,006
-232,030	800,000	-0,031	0,087
-231,015	-128,226	-0,049	0,005
-230,000	800,000	0,033	-0,084
-228,986	-200,000	-0,000	-0,036
-227,971	114,022	0,007	0,006
-226,957	800,000	-0,078	0,184
-225,942	-105,156	0,091	0,015
-224,927	800,000	-0,054	0,156
-223,913	-147,887	-0,080	-0,005
-222,898	-109,476	-0,035	0,005
-221,884	-131,705	-0,118	0,011
-220,869	-65,457	0,202	-0,057
-219,855	81,964	0,123	0,095
-218,840	4,164	-0,111	0,058
-217,825	800,000	0,049	-0,117
-216,811	-82,517	-0,047	-0,011
-215,796	-116,765	0,033	0,004
-214,782	-96,918	0,245	-0,045
-213,767	800,000	0,034	0,098
-212,752	-200,000	0,013	0,117
-211,738	-200,000	-0,012	-0,129
-210,723	800,000	-0,036	0,074
-209,709	-47,833	-0,017	-0,006
-208,694	565,042	0,053	-0,093
-207,679	-200,000	0,006	-0,050
-206,665	-200,000	-0,001	0,085
-205,650	96,098	0,108	0,088
-204,636	49,439	-0,023	0,016
-203,621	-138,289	-0,137	-0,011
-202,606	-200,000	0,013	0,070
-201,592	800,000	0,059	0,157
-200,577	681,191	0,051	-0,095
-199,563	-53,383	0,083	0,027
-198,548	399,767	0,115	-0,172
-197,533	119,778	0,079	0,070
-196,519	450,338	0,045	-0,071
-195,504	-51,154	-0,111	0,037
-194,490	509,230	-0,050	-0,084
-193,475	173,846	0,077	0,079
-192,460	295,779	0,093	-0,122
-191,446	-200,000	0,003	-0,016
-190,431	-200,000	0,034	0,115
-189,417	-138,147	-0,098	0,008
-188,402	-68,078	-0,038	0,011
-187,387	118,165	0,086	0,075
-186,373	800,000	0,037	-0,088
-185,358	-200,000	-0,005	-0,056
-184,344	-81,538	0,023	0,005
-183,329	-200,000	0,026	-0,110
-182,315	800,000	-0,022	0,065
-181,300	-200,000	0,005	0,044
-180,285	-200,000	0,004	0,028
-179,271	800,000	-0,020	0,041
-178,256	-29,533	0,074	-0,030
-177,242	2,265	0,162	-0,083
-176,227	38,756	0,096	0,061
-175,212	373,920	0,029	0,042
-174,198	139,260	-0,089	0,083
-173,183	-195,074	0,029	0,000
-172,169	-11,210	0,038	-0,018
-171,154	43,537	0,139	-0,090
-170,139	-200,000	0,014	0,083
-169,125	-200,000	0,020	0,099
-168,110	-1,379	0,131	-0,066
-167,096	-16,907	-0,053	-0,024
-166,081	-200,000	0,010	-0,087
-165,066	9,306	0,066	-0,035
-164,052	271,817	-0,073	-0,091
-163,037	-200,000	-0,005	-0,083
-162,023	-200,000	-0,006	-0,071
-161,008	-200,000	0,025	-0,122
-159,993	291,967	0,084	-0,109
-158,979	-200,000	-0,013	0,123
-157,964	-200,000	0,019	0,092
-156,950	-200,000	-0,019	0,084
-155,935	800,000	0,014	-0,030
-154,920	-62,601	0,048	0,014
-153,906	-200,000	0,011	0,075
-152,891	-200,000	0,004	0,041
-151,877	-200,000	-0,035	-0,235
-150,862	-194,764	0,089	0,000
-149,847	225,893	-0,052	-0,060
-148,833	800,000	0,025	-0,056
-147,818	5,745	0,225	0,118
-146,804	-200,000	0,003	0,029
-145,789	-200,000	-0,005	-0,030
-144,775	-160,581	-0,164	0,006
-143,760	-138,976	-0,034	0,003
-142,745	-200,000	-0,014	-0,124
-141,731	-86,262	0,123	-0,027
-140,716	49,750	-0,102	0,068
-139,702	-162,846	0,086	-0,003
-138,687	128,461	-0,029	0,026
-137,672	636,389	0,015	-0,028
-136,658	48,259	-0,109	-0,073
-135,643	44,843	0,042	-0,028
-134,629	66,295	0,067	-0,049
-133,614	148,507	0,036	-0,034
-132,599	125,960	0,132	0,119
-131,585	800,000	-0,012	0,029
-130,570	800,000	-0,021	-0,057
-129,556	329,459	-0,087	-0,119
-128,541	-167,927	0,049	0,001
-127,526	372,269	0,044	-0,064
-126,512	-200,000	-0,012	0,052
-125,497	227,209	0,044	0,051
-124,483	800,000	0,028	0,077
-123,468	-200,000	0,011	-0,103
-122,453	-23,968	-0,054	-0,023
-121,439	290,211	-0,059	0,077
-120,424	800,000	0,031	-0,089
-119,410	192,944	0,016	0,017
-118,395	55,834	-0,009	0,006
-117,380	-125,690	0,020	0,002
-116,366	-71,073	0,100	0,027
-115,351	90,772	-0,024	-0,019
-114,337	-41,149	-0,094	0,034
-113,322	-56,261	0,139	-0,044
-112,307	-200,000	-0,008	-0,039
-111,293	85,380	-0,036	-0,028
-110,278	99,382	0,074	0,060
-109,264	-200,000	-0,003	-0,060
-108,249	-200,000	-0,000	0,004
-107,234	-200,000	-0,030	-0,129
-106,220	-13,903	-0,068	-0,031
-105,205	40,377	0,067	-0,043
-104,191	-9,457	0,070	-0,033
-103,176	309,678	-0,041	0,055
-102,162	800,000	-0,081	0,182
-101,147	485,848	0,085	0,138
-100,132	183,289	-0,065	-0,068
-99,118	744,904	-0,019	-0,036
-98,103	-98,013	0,124	0,023
-97,089	-98,572	0,036	0,006
-96,074	-200,000	0,012	0,089
-95,059	-40,768	0,048	0,017
-94,045	-200,000	0,029	0,153
-93,030	369,874	-0,045	0,065
-92,016	449,749	-0,047	0,074
-91,001	-108,542	-0,020	-0,003
-89,986	139,766	-0,029	-0,027
-88,972	40,591	-0,137	0,087
-87,957	-200,000	-0,034	-0,118
-86,943	-67,053	0,145	0,040
-85,928	-45,238	-0,045	0,016
-84,913	191,349	-0,051	-0,054
-83,899	-200,000	0,021	-0,071
-82,884	210,273	0,043	0,048
-81,870	-129,399	0,064	-0,006
-80,855	374,029	-0,061	0,089
-79,840	-153,810	-0,026	0,001
-78,826	800,000	0,011	-0,031
-77,811	-200,000	0,012	0,155
-76,797	-115,087	-0,053	0,007
-75,782	282,386	-0,012	0,015
-74,767	661,556	0,086	0,158
-73,753	-200,000	-0,002	-0,017
-72,738	-200,000	0,022	0,116
-71,724	-45,114	-0,092	-0,032
-70,709	-200,000	0,032	-0,110
-69,694	-200,000	-0,009	0,156
-68,680	429,046	0,039	0,059
-67,665	-200,000	0,014	-0,053
-66,651	-17,612	-0,092	0,041
-65,636	-200,000	-0,040	0,128
-64,622	-84,775	-0,052	0,011
-63,607	94,141	-0,101	0,081
-62,592	111,923	-0,043	-0,037
-61,578	-200,000	-0,009	-0,076
-60,563	70,944	0,047	0,035
-59,549	800,000	-0,031	0,079
-58,534	-43,182	-1,581	-0,564
-57,519	406,198	-1,500	-2,250
-56,505	-200,000	-0,655	-4,589
-55,490	155,955	0,946	0,924
-54,476	800,000	4,872	11,391
-53,461	-200,000	18,325	287,845
-52,446	800,000	727,618	2227,979
-51,432	554,393	1643,251	2809,847
-50,417	79,282	1665,028	1262,455
-49,403	22,905	1538,967	890,978
-48,388	16,826	1462,492	817,263
-47,373	17,870	1452,188	816,497
-46,359	17,238	1442,747	808,136
-45,344	15,127	1438,006	795,374
-44,330	15,054	1436,071	793,923
-43,315	15,089	1434,370	793,119
-42,300	15,069	1432,942	792,201
-41,286	15,085	1431,670	791,544
-40,271	15,040	1430,474	790,634
-39,257	15,037	1429,293	789,935
-38,242	15,079	1427,958	789,366
-37,227	15,101	1426,750	788,773
-36,213	15,123	1425,350	788,070
-35,198	15,117	1424,085	787,314
-34,184	15,109	1423,253	786,784
-33,169	15,071	1421,911	785,830
-32,154	15,098	1420,892	785,363
-31,140	15,121	1419,718	784,794
-30,125	15,154	1418,543	784,269
-29,111	15,137	1417,172	783,400
-28,096	15,084	1416,212	782,586
-27,082	15,014	1415,342	781,744
-26,067	15,060	1414,014	781,198
-25,052	15,045	1412,907	780,485
-24,038	15,008	1412,105	779,836
-23,023	15,023	1410,865	779,190
-22,009	14,995	1410,089	778,603
-20,994	14,980	1409,188	778,004
-19,979	14,941	1408,240	777,264
-18,965	14,965	1407,053	776,693
-17,950	14,956	1406,237	776,167
-16,936	14,958	1405,537	775,759
-15,921	14,946	1404,199	774,935
-14,906	14,946	1403,411	774,469
-13,892	14,946	1402,328	773,841
-12,877	14,931	1401,446	773,257
-11,863	14,952	1400,520	772,811
-10,848	14,930	1399,529	772,133
-9,833	14,915	1398,707	771,576
-8,819	14,879	1397,962	770,967
-7,804	14,876	1396,958	770,372
-6,790	14,822	1395,920	769,516
-5,775	14,836	1394,964	769,024
-4,760	14,845	1394,112	768,566
-3,746	14,863	1393,226	768,128
-2,731	14,800	1392,315	767,308
-1,717	14,800	1391,454	766,800
-0,702	14,882	1389,501	766,074
0,313	18,565	1308,616	738,557
1,327	34,741	706,667	436,306
2,342	53,185	124,656	84,343
3,356	4,773	16,556	8,581
4,371	-2,345	3,153	1,559
5,386	-35,822	0,576	0,220
6,400	309,065	0,158	0,209
7,415	-14,970	-0,239	-0,108
8,429	-56,069	-0,363	-0,114
9,444	172,457	-0,194	-0,198
10,459	79,069	-0,211	-0,160
11,473	-1,744	-0,475	-0,235
12,488	274,043	-0,183	-0,230
13,502	110,340	-0,270	-0,229
14,517	31,649	-0,158	-0,096
15,531	4,144	-0,410	-0,211
16,546	20,536	-0,385	-0,220
17,561	-84,442	-0,358	-0,079
18,575	-69,806	-0,237	0,063
19,590	101,493	-0,273	-0,225
20,604	47,831	-0,239	-0,157
21,619	137,635	-0,374	-0,346
22,634	36,938	-0,558	-0,348
23,648	153,591	-0,293	-0,284
24,663	23,419	-0,446	-0,258
25,677	81,287	-0,247	-0,189
26,692	48,140	-0,193	-0,127
27,707	137,462	-0,243	-0,225
28,721	74,815	-0,367	-0,272
29,736	148,631	-0,301	-0,287
30,750	100,321	-0,381	-0,312
31,765	134,990	-0,397	-0,364
32,780	800,000	-0,188	-0,393
33,794	160,915	-0,358	-0,353
34,809	85,993	-0,326	-0,253
35,823	41,373	-0,408	-0,260
36,838	275,935	-0,243	-0,305
37,853	77,562	-0,315	-0,236
38,867	52,908	-0,387	-0,260
39,882	113,318	-0,400	-0,342
40,896	195,141	-0,254	-0,273
41,911	-53,855	-0,472	-0,151
42,926	114,150	-0,432	-0,370
43,940	562,217	-0,258	-0,441
44,955	137,692	-0,301	-0,278
45,969	228,245	-0,296	-0,341
46,984	178,523	-0,301	-0,310
47,999	-20,656	-0,414	-0,179
49,013	48,382	-0,301	-0,198
50,028	-106,455	-0,433	-0,067
51,042	42,802	-0,320	-0,205
52,057	69,059	-0,417	-0,302
53,071	125,665	-0,250	-0,223
54,086	124,203	-0,308	-0,273
55,101	0,576	-0,334	-0,168
56,115	245,505	-0,259	-0,308
57,130	-72,527	-0,351	-0,091
58,144	190,131	-0,295	-0,312
59,159	5,199	-0,447	-0,231
60,174	-11,691	-0,397	-0,183
61,188	-2,883	-0,319	-0,156
62,203	34,321	-0,322	-0,197
63,217	76,869	-0,321	-0,239
64,232	-47,327	-0,292	-0,099
65,247	-51,349	-0,321	-0,105
66,261	169,698	-0,379	-0,381
67,276	26,048	-0,428	-0,251
68,290	19,176	-0,365	-0,206
69,305	106,909	-0,358	-0,299
70,320	59,227	-0,315	-0,218
71,334	119,359	-0,320	-0,278
72,349	91,183	-0,328	-0,258
73,363	152,175	-0,328	-0,315
74,378	63,973	-0,356	-0,252
75,393	152,067	-0,368	-0,353
76,407	68,537	-0,255	-0,183
77,422	21,770	-0,220	-0,125
78,436	196,343	-0,261	-0,279
79,451	-8,704	-0,461	-0,216
80,466	-60,490	-0,376	-0,112
81,480	173,039	-0,254	-0,257
82,495	800,000	-0,140	-0,343
83,509	257,805	-0,302	-0,366
84,524	466,221	-0,170	-0,269
85,539	-11,775	-0,272	-0,125
86,553	-40,102	-0,355	-0,129
87,568	409,974	-0,151	-0,226
88,582	-29,725	-0,394	-0,157
89,597	85,064	-0,296	-0,228
90,611	45,631	-0,363	-0,235
91,626	158,333	-0,248	-0,241
92,641	24,335	-0,325	-0,188
93,655	-100,953	-0,294	-0,050
94,670	-179,433	-0,154	0,002
95,684	190,132	-0,270	-0,285
96,699	115,760	-0,307	-0,263
97,714	49,596	-0,262	-0,173
98,728	238,190	-0,143	-0,167
99,743	147,234	-0,225	-0,213
100,757	-17,314	-0,305	-0,134
101,772	11,201	-0,406	-0,217
102,787	-39,458	-0,404	-0,148
103,801	286,715	-0,194	-0,246
104,816	251,613	-0,192	-0,229
105,830	56,625	-0,246	-0,167
106,845	180,826	-0,115	-0,118
107,860	256,903	-0,207	-0,250
108,874	2,931	-0,208	-0,105
109,889	104,597	-0,356	-0,294
110,903	80,695	-0,253	-0,191
111,918	34,657	-0,282	-0,172
112,933	-164,572	-0,202	0,006
113,947	-2,066	-0,245	-0,120
114,962	35,859	-0,257	-0,158
115,976	258,667	-0,229	-0,276
116,991	299,593	-0,150	-0,194
118,006	47,983	-0,173	-0,113
119,020	0,100	-0,329	-0,164
120,035	666,666	-0,134	-0,243
121,049	-33,508	-0,241	-0,093
122,064	137,728	-0,194	-0,178
123,079	55,966	-0,218	-0,148
124,093	38,881	-0,369	-0,230
125,108	91,230	-0,265	-0,208
126,122	162,907	-0,263	-0,258
127,137	217,576	-0,231	-0,258
128,151	-26,073	-0,174	-0,071
129,166	-142,468	-0,218	-0,015
130,181	131,487	-0,235	-0,211
131,195	44,046	-0,240	-0,153
132,210	490,673	-0,182	-0,292
133,224	-89,572	-0,335	-0,068
134,239	-48,761	-0,218	-0,073
135,254	141,696	-0,275	-0,255
136,268	25,091	-0,228	-0,132
137,283	7,410	-0,285	-0,149
138,297	103,652	-0,246	-0,202
139,312	35,675	-0,270	-0,166
140,327	109,482	-0,186	-0,156
141,341	27,472	-0,227	-0,133
142,356	-32,649	-0,172	-0,067
143,370	800,000	-0,036	-0,107
144,385	-37,211	-0,428	-0,159
145,400	800,000	-0,085	-0,203
146,414	247,135	-0,219	-0,259
147,429	146,318	-0,197	-0,185
148,443	411,087	-0,184	-0,274
149,458	223,743	-0,266	-0,300
150,473	417,914	-0,149	-0,223
151,487	136,748	-0,204	-0,186
152,502	-53,877	-0,237	-0,075
153,516	59,202	-0,339	-0,232
154,531	176,386	-0,133	-0,135
155,546	800,000	-0,061	-0,135
156,560	-18,049	-0,337	-0,147
157,575	297,507	-0,157	-0,201
158,589	-75,146	-0,309	-0,076
159,604	-5,678	-0,310	-0,148
160,619	157,080	-0,193	-0,186
161,633	-83,953	-0,316	-0,070
162,648	-51,503	-0,382	-0,124
163,662	94,536	-0,258	-0,204
164,677	2,059	-0,209	-0,105
165,692	189,229	-0,120	-0,125
166,706	142,977	-0,242	-0,225
167,721	91,179	-0,283	-0,222
168,735	-13,528	-0,298	-0,134
169,750	6,620	-0,199	-0,103
170,764	35,754	-0,289	-0,177
171,779	-89,113	-0,306	-0,062
172,794	129,033	-0,224	-0,199
173,808	2,093	-0,222	-0,112
174,823	-16,950	-0,336	-0,147
175,837	129,945	-0,275	-0,246
176,852	117,629	-0,227	-0,195
177,867	-13,791	-0,190	-0,085
178,881	-26,826	-0,220	-0,089
179,896	1,997	-0,198	-0,099
180,910	-10,291	-0,296	-0,136
181,925	6,169	-0,247	-0,127
182,940	37,305	-0,306	-0,188
183,954	160,127	-0,138	-0,134
184,969	-109,545	-0,210	-0,031
185,983	800,000	-0,059	-0,155
186,998	-39,896	-0,172	-0,062
188,013	130,387	-0,183	-0,164
189,027	-17,946	-0,205	-0,089
190,042	56,384	-0,155	-0,104
191,056	800,000	-0,128	-0,262
192,071	800,000	-0,043	-0,128
193,086	519,600	-0,120	-0,197
194,100	-20,487	-0,236	-0,100
195,115	-52,244	-0,266	-0,085
196,129	-54,436	-0,204	-0,064
197,144	264,371	-0,202	-0,245
198,159	90,488	-0,288	-0,224
199,173	317,997	-0,113	-0,149
200,188	25,994	-0,073	0,042
201,202	-45,001	-0,199	-0,068
202,217	-75,750	-0,234	-0,057
203,232	-67,482	-0,115	0,031
204,246	-44,979	-0,308	-0,106
205,261	196,673	-0,156	-0,165
206,275	800,000	-0,128	-0,255
207,290	12,775	-0,316	-0,169
208,304	135,764	-0,107	-0,097
209,319	715,929	-0,100	-0,185
210,334	-192,425	-0,195	0,001
211,348	-29,645	-0,230	-0,091
212,363	126,552	-0,200	-0,176
213,377	190,519	-0,116	-0,122
214,392	-142,171	-0,165	-0,011
215,407	59,576	-0,199	-0,136
216,421	258,388	-0,133	-0,159
217,436	-56,376	-0,162	-0,050
218,450	-28,517	-0,272	-0,108
219,465	74,637	-0,212	-0,155
220,480	39,048	-0,237	-0,147
221,494	65,901	-0,223	-0,156
222,509	145,152	-0,110	-0,102
223,523	-144,773	-0,126	0,008
224,538	201,926	-0,197	-0,211
225,553	-18,588	-0,305	-0,131
226,567	174,440	-0,224	-0,225
227,582	477,656	-0,150	-0,237
228,596	131,336	-0,107	-0,095
229,611	250,081	-0,111	-0,130
230,626	-1,416	-0,135	-0,066
231,640	-200,000	-0,030	-0,165
232,655	657,429	-0,137	-0,245
233,669	800,000	-0,179	-0,386
234,684	-54,938	-0,131	-0,041
235,699	-28,232	-0,167	-0,067
236,713	-200,000	-0,045	-0,216
237,728	-7,254	-0,195	-0,091
238,742	-82,257	-0,214	-0,048
239,757	-200,000	-0,074	-0,284
240,772	31,141	-0,328	-0,194
241,786	13,280	-0,319	-0,171
242,801	400,266	-0,105	-0,153
243,815	419,461	-0,033	-0,048
244,830	464,707	-0,111	-0,172
245,844	224,523	-0,236	-0,264
246,859	159,868	-0,234	-0,226
247,874	123,225	-0,158	-0,137
248,888	202,116	-0,180	-0,193
249,903	75,008	-0,117	-0,086
250,917	345,217	-0,117	-0,159
251,932	800,000	-0,055	-0,167
252,947	14,206	-0,218	-0,117
253,961	34,286	-0,172	-0,104
254,976	-55,991	-0,114	-0,035
255,990	80,833	-0,155	-0,116
257,005	-137,677	-0,178	0,014
258,020	-200,000	-0,058	-0,187
259,034	112,086	-0,137	-0,115
260,049	691,452	-0,040	-0,074
261,063	111,956	-0,204	-0,170
262,078	63,419	-0,186	-0,129
263,093	595,939	-0,160	-0,275
264,107	-59,647	-0,335	-0,099
265,122	-22,188	-0,155	-0,065
266,136	800,000	-0,066	-0,151
267,151	-93,611	-0,274	-0,052
268,166	-98,970	-0,231	0,040
269,180	307,818	-0,147	-0,190
270,195	231,499	-0,214	-0,243
271,209	84,581	-0,169	-0,128
272,224	-39,147	-0,245	-0,089
273,239	52,434	-0,131	-0,086
274,253	353,154	-0,138	-0,190
275,268	165,855	-0,185	-0,181
276,282	382,958	-0,190	-0,271
277,297	85,411	-0,178	-0,135
278,312	73,576	-0,230	-0,166
279,326	16,371	-0,276	-0,150
280,341	-44,459	-0,096	-0,033
281,355	-165,959	-0,166	-0,005
282,370	-75,741	-0,249	-0,060
283,384	200,695	-0,181	-0,192
284,399	94,979	-0,067	-0,053
285,414	23,480	-0,204	-0,115
286,428	701,983	-0,087	-0,159
287,443	-141,549	-0,110	-0,008
288,457	28,211	-0,088	-0,051
289,472	74,647	-0,157	-0,114
290,487	-200,000	-0,040	-0,171
291,501	204,695	-0,095	-0,102
292,516	-153,881	-0,245	-0,011
293,530	-103,410	-0,297	-0,048
294,545	-4,118	-0,130	-0,062
295,560	60,793	-0,129	-0,088
296,574	37,635	-0,158	-0,097
297,589	230,628	-0,112	-0,126
298,603	86,528	-0,085	-0,064
299,618	116,154	-0,187	-0,158
300,633	800,000	-0,038	-0,082
301,647	42,125	-0,168	-0,105
302,662	-180,295	-0,154	-0,002
303,676	59,453	-0,186	-0,126
304,691	-58,217	-0,189	-0,056
305,706	305,166	-0,160	-0,205
306,720	392,397	-0,099	-0,142
307,735	37,105	-0,180	-0,109
308,749	-200,000	-0,030	-0,142
309,764	800,000	0,012	-0,034
310,779	39,494	-0,139	-0,085
311,793	12,287	-0,207	-0,109
312,808	-92,494	-0,166	-0,032
313,822	-67,934	-0,094	0,025
314,837	-83,742	-0,089	-0,019
315,852	-70,271	-0,150	-0,039
316,866	-200,000	-0,042	-0,158
317,881	-68,365	-0,148	0,039
318,895	-55,253	-0,150	0,046
319,910	-96,868	-0,160	-0,029
320,925	430,481	-0,160	-0,238
321,939	800,000	-0,085	-0,207
322,954	-200,000	0,003	-0,058
323,968	800,000	-0,052	-0,139
324,983	19,091	-0,153	-0,084
325,997	603,642	-0,114	-0,197
327,012	383,267	-0,067	-0,095
328,027	195,382	-0,129	-0,135
329,041	-107,845	-0,122	-0,018
330,056	102,759	-0,069	-0,055
331,070	320,039	-0,110	-0,144
332,085	2,074	-0,197	-0,097
333,100	46,125	-0,181	-0,115
334,114	40,251	-0,273	-0,168
335,129	-1,129	-0,145	-0,070
336,143	106,628	-0,152	-0,124
337,158	800,000	-0,084	-0,186
338,173	800,000	-0,093	-0,209
339,187	-200,000	-0,029	-0,327
340,202	483,568	-0,093	-0,145
341,216	58,820	-0,195	-0,131
342,231	712,946	-0,143	-0,261
343,246	-200,000	-0,081	-0,326
344,260	-200,000	-0,032	-0,115
345,275	574,414	-0,047	-0,079
346,289	-71,614	-0,077	0,020
347,304	-94,446	-0,109	0,020
348,319	155,842	-0,045	-0,043
349,333	800,000	-0,097	-0,197
350,348	-34,395	-0,193	-0,072
351,362	340,978	-0,226	-0,303
352,377	336,887	-0,076	-0,102
353,392	800,000	-0,051	-0,141
354,406	-127,069	-0,247	-0,025
355,421	209,169	1315,594	1415,201
356,435	160,972	1476,453	1415,708
