DTS Sentinel unit serial number:	SN410029Multiplexer serial number:	ORYXHardware model number:	OX2-SRSoftware version number:	ORYX F/W v4,00 Oryx Data Collector v3.7.2.0data status	okinstallation	B3 Nyhavnadifferential loss correction	single-endedforward channel	channel 1reverse channel	N/Adate	2023/12/01time	10:52:30forward acquisition time	300,00reverse acquisition time	0,00gamma	499,1914k internal	0,3213k external	0,3213temperature offset calibration	1,0000default loss term (dB/km)	0,3820temperature slope calibration	1,0000multiplexer offset coefficient	1,0000multiplexer slope coefficient	1,0000fibre end	0,00T internal ref (°C)	8,18T ext. ref 1 (°C)	-6,11T ext. ref 2 (°C)	-6,20length (m)	temperature (°C)	Stokes	anti-Stokes-744,400	672,172	-0,145	-0,273
-743,385	-200,000	0,020	0,330
-742,371	800,000	-0,079	-0,203
-741,356	800,000	-0,095	0,256
-740,342	139,415	-0,163	-0,155
-739,327	-200,000	0,035	0,213
-738,312	290,056	-0,218	-0,287
-737,298	274,989	-0,140	0,180
-736,283	415,997	-0,173	-0,269
-735,269	800,000	0,123	0,358
-734,254	-200,000	-0,027	-0,154
-733,239	-21,737	-0,322	0,141
-732,225	65,927	-0,121	-0,089
-731,210	404,567	0,103	0,158
-730,196	-200,000	0,020	-0,107
-729,181	-200,000	-0,062	-0,207
-728,167	0,079	-0,060	-0,031
-727,152	103,373	-0,080	-0,068
-726,137	-17,321	0,078	0,035
-725,123	-200,000	0,015	-0,077
-724,108	-12,265	-0,151	-0,071
-723,094	190,536	-0,064	0,070
-722,079	-24,933	-0,047	-0,020
-721,064	-200,000	0,003	-0,072
-720,050	-157,815	-0,073	-0,003
-719,035	-200,000	0,005	-0,109
-718,021	294,242	-0,141	-0,187
-717,006	102,803	0,124	-0,105
-715,991	21,629	-0,123	-0,072
-714,977	-64,507	0,008	0,002
-713,962	317,285	0,121	-0,166
-712,948	526,838	-0,019	0,033
-711,933	-40,537	0,083	-0,031
-710,918	-126,537	-0,013	0,001
-709,904	49,240	-0,101	0,069
-708,889	-200,000	0,017	-0,057
-707,875	102,978	-0,112	0,095
-706,860	-68,095	0,026	0,007
-705,845	800,000	-0,025	0,059
-704,831	418,008	-0,044	-0,068
-703,816	96,442	-0,052	-0,043
-702,802	-39,434	-0,088	0,033
-701,787	262,576	0,103	-0,130
-700,772	-32,558	0,049	-0,020
-699,758	-200,000	-0,009	0,108
-698,743	4,924	-0,013	0,007
-697,729	-27,252	-0,164	0,069
-696,714	322,970	0,020	0,027
-695,699	135,208	-0,076	-0,071
-694,685	780,997	0,018	-0,037
-693,670	210,579	-0,086	-0,098
-692,656	183,449	0,113	-0,121
-691,641	800,000	-0,044	-0,117
-690,627	45,892	-0,046	0,031
-689,612	-200,000	0,021	0,155
-688,597	187,986	-0,040	0,043
-687,583	240,041	0,035	-0,042
-686,568	105,859	-0,041	0,035
-685,554	53,514	0,084	0,058
-684,539	800,000	0,040	-0,117
-683,524	800,000	0,021	0,045
-682,510	-200,000	-0,015	0,138
-681,495	286,176	0,053	-0,069
-680,481	-200,000	0,008	-0,037
-679,466	-58,598	-0,182	-0,057
-678,451	-200,000	-0,004	-0,077
-677,437	595,558	-0,034	-0,061
-676,422	800,000	0,008	-0,017
-675,408	-55,184	-0,158	-0,051
-674,393	358,924	0,066	0,096
-673,378	650,733	0,037	-0,069
-672,364	19,844	-0,071	0,041
-671,349	-162,418	0,057	-0,002
-670,335	-169,059	0,044	-0,001
-669,320	-200,000	-0,002	0,074
-668,305	-200,000	0,024	0,119
-667,291	-46,269	-0,068	0,024
-666,276	737,293	0,021	0,041
-665,262	192,868	-0,068	-0,074
-664,247	-34,743	0,023	-0,009
-663,232	198,272	0,096	0,107
-662,218	220,005	0,040	0,046
-661,203	6,774	-0,131	0,070
-660,189	272,571	0,086	-0,109
-659,174	174,448	-0,074	0,077
-658,159	-11,922	0,051	0,024
-657,145	36,958	0,077	0,049
-656,130	800,000	0,006	-0,014
-655,116	340,526	0,077	0,109
-654,101	-200,000	-0,014	0,152
-653,086	87,312	-0,078	0,062
-652,072	256,041	-0,069	-0,086
-651,057	-137,616	-0,071	-0,006
-650,043	-77,348	-0,038	0,010
-649,028	800,000	0,027	-0,069
-648,014	123,287	-0,035	-0,032
-646,999	800,000	0,019	0,043
-645,984	-54,337	0,094	-0,031
-644,970	-200,000	0,000	0,003
-643,955	800,000	0,071	-0,162
-642,941	800,000	-0,042	-0,093
-641,926	-121,319	-0,014	-0,002
-640,911	3,022	0,064	0,034
-639,897	-65,076	-0,137	-0,040
-638,882	319,492	-0,014	-0,020
-637,868	325,340	-0,049	-0,068
-636,853	-200,000	0,017	-0,063
-635,838	-133,159	0,020	-0,002
-634,824	771,727	-0,031	-0,062
-633,809	50,497	0,064	0,043
-632,795	-200,000	0,018	0,078
-631,780	-38,080	0,131	0,050
-630,765	-12,373	-0,043	-0,020
-629,751	-143,436	-0,086	-0,006
-628,736	-200,000	0,001	-0,130
-627,722	80,952	-0,015	0,012
-626,707	-3,180	0,083	-0,042
-625,692	-145,120	0,048	-0,003
-624,678	-200,000	0,005	-0,142
-623,663	-11,466	-0,035	0,017
-622,649	-33,810	-0,045	-0,018
-621,634	-97,737	-0,109	0,020
-620,619	-97,188	-0,140	-0,026
-619,605	146,039	-0,053	0,051
-618,590	800,000	0,011	0,030
-617,576	-200,000	-0,003	-0,062
-616,561	354,211	-0,093	0,134
-615,546	336,147	-0,103	-0,144
-614,532	-126,942	-0,102	-0,011
-613,517	297,434	0,012	-0,016
-612,503	12,168	0,079	0,044
-611,488	800,000	0,035	0,073
-610,474	178,154	0,032	0,034
-609,459	800,000	0,058	0,122
-608,444	-37,512	-0,151	0,058
-607,430	381,371	-0,060	-0,089
-606,415	215,841	-0,104	-0,120
-605,401	-200,000	0,032	-0,200
-604,386	-40,051	0,056	0,021
-603,371	102,922	0,097	0,082
-602,357	92,460	-0,133	0,108
-601,342	800,000	-0,045	0,095
-600,328	614,886	-0,064	-0,115
-599,313	81,821	-0,112	-0,087
-598,298	19,734	-0,046	-0,027
-597,284	189,325	0,059	0,064
-596,269	-86,414	-0,039	-0,008
-595,255	800,000	-0,019	-0,044
-594,240	800,000	-0,025	-0,072
-593,225	417,223	0,028	0,044
-592,211	17,539	-0,029	-0,016
-591,196	173,323	-0,087	-0,090
-590,182	45,256	0,050	-0,033
-589,167	-200,000	0,001	0,052
-588,152	-69,627	-0,092	-0,025
-587,138	-92,364	0,043	0,009
-586,123	-200,000	-0,029	-0,169
-585,109	-89,982	-0,101	0,021
-584,094	16,011	-0,125	-0,071
-583,079	-200,000	0,019	-0,129
-582,065	631,816	-0,042	-0,076
-581,050	28,954	0,085	-0,052
-580,036	474,211	-0,034	0,056
-579,021	395,342	-0,096	0,144
-578,006	736,520	0,052	-0,100
-576,992	800,000	0,043	0,094
-575,977	35,772	-0,059	0,037
-574,963	352,234	0,100	0,143
-573,948	408,995	-0,010	0,016
-572,934	68,962	-0,064	-0,047
-571,919	-71,542	0,104	-0,028
-570,904	28,343	-0,057	-0,035
-569,890	-33,463	0,055	0,022
-568,875	-26,669	0,061	-0,026
-567,861	-125,117	0,062	0,007
-566,846	184,828	0,080	0,085
-565,831	31,647	-0,097	0,060
-564,817	-54,071	-0,025	0,008
-563,802	-200,000	0,003	0,060
-562,788	-42,630	-0,081	0,029
-561,773	-200,000	0,015	0,158
-560,758	-200,000	0,031	-0,172
-559,744	-200,000	-0,023	0,126
-558,729	180,470	0,048	0,051
-557,715	3,518	-0,036	0,019
-556,700	-200,000	-0,019	-0,122
-555,685	-200,000	0,109	0,000
-554,671	-46,656	-0,108	0,038
-553,656	186,801	-0,017	-0,018
-552,642	800,000	-0,004	0,009
-551,627	440,483	-0,052	-0,083
-550,612	42,660	0,116	-0,076
-549,598	84,191	-0,098	-0,077
-548,583	-81,131	0,074	-0,017
-547,569	435,557	0,043	0,067
-546,554	335,992	0,044	0,061
-545,539	-200,000	0,035	0,130
-544,525	-17,972	-0,089	-0,040
-543,510	563,796	-0,058	-0,102
-542,496	123,485	0,085	-0,076
-541,481	263,800	-0,143	-0,179
-540,466	800,000	-0,029	0,080
-539,452	318,942	0,067	0,092
-538,437	-135,590	-0,049	0,004
-537,423	9,035	0,071	0,038
-536,408	170,717	-0,084	-0,087
-535,393	-200,000	-0,005	0,037
-534,379	101,392	-0,045	-0,037
-533,364	-78,170	-0,026	-0,006
-532,350	-127,211	-0,048	0,005
-531,335	800,000	0,033	-0,089
-530,321	-200,000	-0,036	0,145
-529,306	131,126	-0,056	-0,051
-528,291	-48,671	-0,009	-0,003
-527,277	-50,734	-0,109	-0,037
-526,262	493,094	-0,065	-0,107
-525,248	-126,425	-0,101	-0,011
-524,233	-141,492	-0,036	-0,003
-523,218	261,497	0,014	0,017
-522,204	-200,000	0,017	0,087
-521,189	166,725	0,071	0,072
-520,175	81,019	-0,008	0,006
-519,160	298,833	0,107	-0,142
-518,145	-200,000	-0,009	0,032
-517,131	800,000	0,032	0,070
-516,116	322,689	0,111	0,153
-515,102	-133,214	0,127	0,011
-514,087	-200,000	0,004	-0,154
-513,072	-89,091	-0,087	0,018
-512,058	-52,478	-0,084	0,028
-511,043	-200,000	0,008	0,038
-510,029	800,000	-0,036	0,113
-509,014	-96,626	-0,024	0,004
-507,999	2,033	0,112	0,058
-506,985	437,571	-0,092	-0,145
-505,970	-92,964	-0,105	0,021
-504,956	41,864	0,019	-0,013
-503,941	-58,552	-0,075	-0,023
-502,926	-52,048	0,048	-0,016
-501,912	42,216	0,105	0,068
-500,897	384,513	0,081	0,121
-499,883	54,225	-0,112	0,077
-498,868	-112,008	-0,149	0,021
-497,853	-44,389	-0,095	0,034
-496,839	143,584	0,033	0,031
-495,824	413,343	-0,062	-0,094
-494,810	800,000	-0,021	-0,060
-493,795	83,946	-0,083	0,065
-492,781	252,613	0,029	0,035
-491,766	-200,000	0,025	-0,176
-490,751	342,484	0,009	0,013
-489,737	284,422	-0,075	-0,096
-488,722	143,793	-0,090	0,086
-487,708	-200,000	-0,008	0,103
-486,693	-136,045	0,078	-0,006
-485,678	211,425	-0,093	-0,105
-484,664	-121,839	-0,188	-0,022
-483,649	15,558	0,055	-0,031
-482,635	800,000	-0,065	-0,134
-481,620	-186,806	-0,168	0,002
-480,605	380,689	0,086	0,128
-479,591	125,848	0,048	-0,044
-478,576	-162,154	0,097	-0,003
-477,562	61,232	-0,057	-0,041
-476,547	-200,000	-0,048	-0,177
-475,532	-200,000	-0,015	-0,051
-474,518	-25,570	0,059	-0,025
-473,503	-200,000	0,013	0,062
-472,489	433,920	-0,053	0,083
-471,474	111,820	-0,038	0,033
-470,459	692,561	-0,022	-0,042
-469,445	124,741	-0,015	-0,013
-468,430	-89,949	0,069	0,014
-467,416	-139,951	0,199	0,015
-466,401	-200,000	0,000	-0,033
-465,386	80,339	-0,140	0,108
-464,372	132,581	0,132	0,122
-463,357	176,928	-0,145	-0,152
-462,343	-200,000	0,004	0,051
-461,328	800,000	-0,032	0,098
-460,313	115,543	-0,058	-0,051
-459,299	-200,000	0,002	0,104
-458,284	95,785	0,030	0,024
-457,270	-185,085	0,120	0,001
-456,255	90,484	-0,041	0,033
-455,241	-62,258	-0,105	0,031
-454,226	13,482	-0,074	-0,041
-453,211	-128,539	0,074	-0,007
-452,197	-200,000	-0,008	-0,078
-451,182	262,021	0,080	0,100
-450,168	-26,715	0,072	0,030
-449,153	2,195	-0,086	-0,045
-448,138	-200,000	-0,017	-0,077
-447,124	-173,785	-0,087	-0,002
-446,109	-67,135	-0,048	-0,014
-445,095	800,000	0,029	0,063
-444,080	244,845	0,063	-0,077
-443,065	-200,000	-0,015	-0,052
-442,051	-88,831	0,083	0,017
-441,036	81,587	-0,132	-0,102
-440,022	-200,000	0,003	-0,052
-439,007	-23,180	-0,089	0,038
-437,992	164,672	0,041	-0,042
-436,978	-114,823	-0,043	0,006
-435,963	800,000	-0,025	0,051
-434,949	687,083	0,010	-0,018
-433,934	747,691	0,032	-0,062
-432,919	800,000	-0,014	0,041
-431,905	-26,350	-0,068	0,028
-430,890	-52,850	-0,056	0,018
-429,876	-200,000	-0,001	0,134
-428,861	367,932	-0,074	-0,107
-427,846	29,331	-0,027	-0,016
-426,832	43,873	-0,115	-0,075
-425,817	104,282	0,132	0,111
-424,803	-116,167	0,123	0,016
-423,788	-200,000	0,267	0,000
-422,773	101,000	-0,059	0,049
-421,759	347,621	-0,032	0,045
-420,744	-200,000	-0,017	0,070
-419,730	285,544	-0,034	-0,044
-418,715	-200,000	-0,003	0,055
-417,701	800,000	-0,046	-0,124
-416,686	766,598	-0,036	-0,070
-415,671	-200,000	0,001	0,088
-414,657	98,955	0,076	0,063
-413,642	248,626	0,050	0,060
-412,628	249,672	-0,122	-0,148
-411,613	-98,911	0,066	-0,012
-410,598	146,377	0,054	0,052
-409,584	53,506	-0,038	-0,026
-408,569	-200,000	0,003	0,047
-407,555	327,102	0,134	0,184
-406,540	800,000	0,042	0,131
-405,525	-200,000	-0,012	-0,042
-404,511	35,980	-0,041	0,026
-403,496	-200,000	0,010	-0,044
-402,482	-200,000	0,003	0,084
-401,467	-40,734	-0,026	-0,010
-400,452	-183,019	0,115	0,001
-399,438	274,810	-0,110	-0,139
-398,423	-200,000	0,002	-0,190
-397,409	800,000	-0,019	0,045
-396,394	800,000	0,046	-0,127
-395,379	-31,115	0,059	-0,024
-394,365	502,004	0,012	0,019
-393,350	800,000	0,050	0,113
-392,336	800,000	0,045	0,095
-391,321	-200,000	0,007	0,088
-390,306	-148,627	-0,153	0,009
-389,292	-200,000	-0,014	-0,059
-388,277	-200,000	-0,006	-0,181
-387,263	-6,422	0,081	0,040
-386,248	67,106	-0,033	-0,024
-385,233	-149,600	0,106	-0,006
-384,219	117,342	0,060	-0,053
-383,204	-89,773	-0,068	0,014
-382,190	755,715	0,055	0,106
-381,175	28,524	-0,033	0,020
-380,160	130,237	0,118	-0,108
-379,146	800,000	0,049	0,103
-378,131	-3,756	-0,112	0,056
-377,117	-200,000	0,025	0,083
-376,102	56,528	0,053	-0,037
-375,088	108,771	-0,037	0,031
-374,073	-64,913	-0,041	0,012
-373,058	-116,448	0,128	0,017
-372,044	-200,000	0,010	0,044
-371,029	-75,335	0,060	-0,015
-370,015	-200,000	-0,011	-0,143
-369,000	-91,399	-0,128	0,026
-367,985	-200,000	0,035	-0,117
-366,971	11,080	0,103	-0,056
-365,956	26,902	-0,026	0,015
-364,942	-200,000	0,017	0,056
-363,927	-58,527	0,098	0,030
-362,912	-200,000	-0,017	0,067
-361,898	-200,000	0,002	-0,060
-360,883	56,998	0,064	0,044
-359,869	255,215	-0,027	-0,033
-358,854	-105,673	0,178	-0,028
-357,839	162,034	0,045	0,045
-356,825	-200,000	-0,006	-0,084
-355,810	53,372	0,076	0,052
-354,796	366,558	-0,105	-0,152
-353,781	-200,000	0,007	-0,096
-352,766	-200,000	-0,023	-0,083
-351,752	7,901	-0,041	-0,022
-350,737	203,368	-0,033	-0,037
-349,723	104,004	0,005	0,004
-348,708	744,178	-0,020	0,039
-347,693	-118,114	-0,071	-0,009
-346,679	77,588	0,115	0,087
-345,664	-115,547	-0,202	0,027
-344,650	-28,434	-0,058	-0,024
-343,635	-2,165	0,034	0,017
-342,620	202,322	0,022	-0,025
-341,606	65,316	0,041	0,030
-340,591	-24,222	0,128	-0,054
-339,577	-200,000	0,009	0,034
-338,562	-22,035	-0,116	-0,050
-337,548	-10,466	0,145	0,068
-336,533	46,358	-0,091	0,060
-335,518	-47,880	0,147	-0,050
-334,504	53,498	-0,031	0,021
-333,489	-62,561	0,100	0,029
-332,475	800,000	0,013	0,031
-331,460	800,000	0,021	-0,042
-330,445	2,739	-0,056	-0,029
-329,431	-169,250	0,089	0,002
-328,416	800,000	-0,053	0,111
-327,402	-31,446	0,129	0,052
-326,387	326,749	-0,026	0,036
-325,372	147,090	-0,008	0,007
-324,358	417,687	-0,024	0,037
-323,343	1,285	-0,060	-0,031
-322,329	88,405	-0,017	-0,014
-321,314	34,192	0,126	0,078
-320,299	-200,000	-0,001	0,068
-319,285	-200,000	0,022	-0,129
-318,270	-108,343	0,169	-0,026
-317,256	-79,944	-0,034	-0,008
-316,241	298,659	0,034	-0,045
-315,226	367,997	-0,021	0,031
-314,212	476,943	-0,041	-0,067
-313,197	-170,751	0,064	0,002
-312,183	-200,000	0,007	-0,033
-311,168	79,814	0,036	-0,028
-310,153	-31,405	0,012	0,005
-309,139	135,851	0,102	0,094
-308,124	-105,213	0,086	-0,014
-307,110	28,146	0,118	0,071
-306,095	226,286	-0,056	-0,065
-305,080	-200,000	0,003	-0,064
-304,066	-200,000	0,003	-0,048
-303,051	-75,366	-0,152	-0,038
-302,037	-200,000	0,022	0,132
-301,022	106,631	0,022	-0,018
-300,008	-46,796	0,031	-0,011
-298,993	239,086	0,026	0,031
-297,978	800,000	-0,015	-0,038
-296,964	629,766	0,023	-0,042
-295,949	115,530	-0,102	-0,089
-294,935	69,586	-0,077	0,056
-293,920	-200,000	0,001	-0,048
-292,905	79,912	0,088	0,068
-291,891	-87,009	0,206	0,044
-290,876	-79,994	-0,112	-0,027
-289,862	718,748	0,027	-0,052
-288,847	51,691	-0,087	-0,059
-287,832	102,780	-0,033	-0,028
-286,818	-200,000	0,000	-0,164
-285,803	777,956	0,018	-0,035
-284,789	605,806	0,052	0,093
-283,774	-200,000	-0,013	0,077
-282,759	800,000	0,010	0,024
-281,745	351,107	0,088	-0,124
-280,730	420,163	-0,106	-0,163
-279,716	-120,316	-0,084	-0,010
-278,701	251,242	-0,025	-0,031
-277,686	527,517	0,067	0,113
-276,672	4,231	0,041	-0,021
-275,657	-200,000	0,001	-0,102
-274,643	-130,050	0,049	0,005
-273,628	-200,000	-0,017	-0,062
-272,613	-81,514	-0,040	-0,009
-271,599	-200,000	0,011	-0,059
-270,584	707,070	-0,020	-0,039
-269,570	361,655	0,047	0,068
-268,555	134,118	-0,039	-0,036
-267,540	-37,678	-0,059	0,022
-266,526	-38,975	-0,069	0,026
-265,511	-200,000	-0,005	0,022
-264,497	-39,406	0,119	0,044
-263,482	371,802	0,062	0,090
-262,467	223,810	0,108	0,125
-261,453	800,000	0,015	0,044
-260,438	800,000	-0,051	0,117
-259,424	447,351	-0,027	-0,043
-258,409	800,000	-0,035	-0,101
-257,395	366,759	0,088	0,127
-256,380	-57,117	-0,052	-0,016
-255,365	800,000	-0,050	0,116
-254,351	-55,892	0,083	0,026
-253,336	215,840	0,039	-0,044
-252,322	-200,000	-0,015	-0,093
-251,307	19,511	0,055	0,031
-250,292	-50,246	0,025	0,008
-249,278	55,498	0,120	-0,083
-248,263	204,339	0,051	0,056
-247,249	-91,473	-0,172	0,034
-246,234	800,000	-0,010	-0,026
-245,219	-200,000	-0,012	-0,055
-244,205	-108,330	-0,013	-0,002
-243,190	-200,000	0,022	0,119
-242,176	800,000	0,024	0,068
-241,161	-70,209	0,107	0,029
-240,146	-200,000	-0,009	0,088
-239,132	5,241	0,012	-0,006
-238,117	800,000	0,036	-0,085
-237,103	800,000	-0,012	-0,035
-236,088	534,666	0,023	-0,038
-235,073	509,245	0,044	0,072
-234,059	800,000	-0,072	0,174
-233,044	-92,014	-0,089	-0,018
-232,030	-200,000	-0,007	0,173
-231,015	800,000	-0,057	-0,164
-230,000	-200,000	-0,004	-0,047
-228,986	-74,273	-0,087	-0,022
-227,971	583,080	0,027	-0,048
-226,957	-116,135	0,081	0,011
-225,942	-200,000	0,035	-0,152
-224,927	4,820	-0,069	-0,036
-223,913	-158,258	0,139	0,006
-222,898	49,752	-0,115	0,077
-221,884	224,255	0,089	0,103
-220,869	46,434	0,058	-0,038
-219,855	19,156	-0,049	-0,028
-218,840	112,795	-0,068	-0,059
-217,825	175,396	0,143	0,147
-216,811	-106,097	-0,044	0,007
-215,796	26,375	-0,099	0,059
-214,782	153,167	0,081	0,079
-213,767	49,937	0,103	-0,069
-212,752	-20,676	0,053	-0,023
-211,738	-200,000	-0,012	-0,098
-210,723	91,039	0,048	-0,038
-209,709	296,530	0,057	-0,074
-208,694	-200,000	-0,026	-0,092
-207,679	-116,499	0,127	0,016
-206,665	613,778	0,042	0,075
-205,650	362,044	0,038	0,055
-204,636	800,000	-0,035	0,100
-203,621	-200,000	-0,038	0,125
-202,606	1,543	-0,073	-0,037
-201,592	227,559	0,079	0,091
-200,577	206,939	0,020	-0,022
-199,563	-200,000	-0,027	-0,087
-198,548	-200,000	-0,015	0,049
-197,533	651,650	0,035	0,064
-196,519	512,832	-0,038	0,064
-195,504	-200,000	-0,012	0,057
-194,490	19,624	-0,141	0,080
-193,475	77,950	-0,141	-0,106
-192,460	30,206	0,037	-0,022
-191,446	102,926	0,065	0,054
-190,431	171,127	0,151	0,153
-189,417	-200,000	-0,041	0,134
-188,402	198,183	-0,047	-0,051
-187,387	-174,851	0,149	-0,003
-186,373	-126,855	-0,090	-0,009
-185,358	63,894	0,109	0,077
-184,344	800,000	0,045	0,124
-183,329	-200,000	-0,000	0,031
-182,315	-10,740	-0,059	-0,028
-181,300	-39,647	-0,095	-0,035
-180,285	-77,825	-0,077	0,019
-179,271	-200,000	0,021	-0,077
-178,256	-200,000	0,013	-0,083
-177,242	-59,819	0,059	-0,018
-176,227	-200,000	-0,021	0,068
-175,212	-47,640	-0,077	0,026
-174,198	-200,000	-0,021	0,121
-173,183	800,000	0,032	-0,090
-172,169	-200,000	-0,004	0,012
-171,154	-200,000	0,029	0,157
-170,139	12,167	0,047	0,026
-169,125	321,945	0,064	0,086
-168,110	-62,515	0,083	0,024
-167,096	68,637	-0,019	-0,014
-166,081	280,385	0,060	-0,076
-165,066	800,000	-0,052	-0,132
-164,052	-200,000	0,044	-0,173
-163,037	800,000	0,035	-0,104
-162,023	21,266	0,045	0,026
-161,008	2,079	0,092	-0,047
-159,993	-200,000	-0,018	0,107
-158,979	-154,807	-0,122	0,006
-157,964	-200,000	0,002	-0,087
-156,950	-104,523	-0,126	0,020
-155,935	-200,000	-0,014	0,044
-154,920	-200,000	0,053	0,172
-153,906	-200,000	-0,009	0,111
-152,891	-136,539	0,100	-0,008
-151,877	-200,000	-0,004	-0,016
-150,862	-87,330	-0,028	0,006
-149,847	761,394	-0,040	-0,077
-148,833	800,000	0,076	0,192
-147,818	199,715	-0,097	-0,105
-146,804	-149,732	-0,052	0,003
-145,789	-39,590	0,147	-0,054
-144,775	-200,000	0,010	-0,211
-143,760	-200,000	-0,057	-0,248
-142,745	252,846	0,073	0,089
-141,731	-70,297	-0,119	-0,032
-140,716	236,867	0,031	-0,036
-139,702	-200,000	-0,027	0,208
-138,687	507,469	0,093	-0,154
-137,672	-200,000	-0,001	-0,054
-136,658	-6,242	-0,140	-0,067
-135,643	163,276	-0,061	-0,061
-134,629	25,306	0,088	0,051
-133,614	391,947	-0,029	0,043
-132,599	-200,000	0,035	0,174
-131,585	800,000	0,041	0,124
-130,570	-130,589	0,163	0,015
-129,556	83,218	-0,030	0,023
-128,541	-200,000	0,035	-0,111
-127,526	139,065	-0,047	0,043
-126,512	-53,029	0,188	0,061
-125,497	-119,396	-0,187	0,023
-124,483	-91,158	0,083	0,017
-123,468	-36,081	0,120	-0,045
-122,453	54,766	-0,053	-0,036
-121,439	348,071	-0,121	-0,169
-120,424	-200,000	-0,007	-0,102
-119,410	133,243	-0,065	0,060
-118,395	800,000	0,073	0,150
-117,380	-66,528	0,108	-0,030
-116,366	63,055	0,017	-0,012
-115,351	236,885	-0,096	0,112
-114,337	-200,000	-0,017	0,091
-113,322	-132,635	0,054	0,005
-112,307	40,285	-0,029	0,018
-111,293	393,655	-0,020	-0,030
-110,278	-154,006	0,140	0,007
-109,264	-200,000	0,021	-0,095
-108,249	-200,000	-0,040	-0,235
-107,234	-123,506	-0,085	0,009
-106,220	205,526	-0,074	0,081
-105,205	69,389	0,055	0,040
-104,191	457,156	0,073	-0,116
-103,176	-37,882	0,170	0,064
-102,162	-200,000	-0,028	-0,093
-101,147	-29,978	-0,078	-0,031
-100,132	-102,700	-0,138	-0,023
-99,118	-200,000	-0,159	-0,000
-98,103	-77,724	0,076	0,018
-97,089	-47,367	0,112	0,038
-96,074	632,213	-0,049	0,089
-95,059	-200,000	0,016	0,093
-94,045	-200,000	-0,024	0,122
-93,030	-200,000	0,001	-0,045
-92,016	-66,234	0,028	0,008
-91,001	136,290	0,067	-0,062
-89,986	186,642	0,070	0,074
-88,972	53,602	-0,065	0,044
-87,957	118,938	0,110	-0,096
-86,943	630,146	0,053	0,096
-85,928	67,547	-0,120	-0,086
-84,913	30,511	-0,040	0,024
-83,899	800,000	0,044	0,088
-82,884	-200,000	-0,024	0,181
-81,870	-200,000	0,020	0,069
-80,855	127,007	0,074	-0,066
-79,840	-200,000	-0,039	0,129
-78,826	-9,929	0,108	-0,050
-77,811	-51,182	-0,053	-0,017
-76,797	-19,216	0,032	0,014
-75,782	64,357	-0,001	0,001
-74,767	-200,000	-0,034	-0,239
-73,753	-91,954	-0,027	0,005
-72,738	-200,000	0,013	0,092
-71,724	102,575	0,103	-0,085
-70,709	800,000	-0,037	0,075
-69,694	401,688	0,063	0,094
-68,680	166,027	0,112	0,112
-67,665	180,611	-0,058	-0,060
-66,651	224,280	0,168	0,192
-65,636	-200,000	0,050	0,174
-64,622	41,660	-0,084	-0,053
-63,607	-98,008	-0,055	0,010
-62,592	69,902	-0,067	-0,049
-61,578	57,157	0,093	-0,064
-60,563	-32,520	0,006	0,003
-59,549	-156,411	0,064	-0,003
-58,534	41,808	-2,239	-1,429
-57,519	437,358	-1,163	-1,794
-56,505	-200,000	-0,523	-4,575
-55,490	800,000	0,864	1,806
-54,476	800,000	5,345	11,425
-53,461	-200,000	22,473	346,431
-52,446	800,000	758,475	2299,347
-51,432	534,898	1646,490	2763,729
-50,417	68,349	1644,954	1187,224
-49,403	15,882	1521,805	842,326
-48,388	9,999	1447,726	773,047
-47,373	19,257	1440,054	813,062
-46,359	13,539	1428,581	779,551
-45,344	8,335	1424,760	752,809
-44,330	8,397	1422,357	751,802
-43,315	8,245	1420,857	750,258
-42,300	8,276	1419,109	749,452
-41,286	8,290	1417,862	748,830
-40,271	8,211	1416,719	747,824
-39,257	8,264	1415,348	747,321
-38,242	8,280	1414,401	746,867
-37,227	8,282	1413,133	746,176
-36,213	8,278	1411,754	745,401
-35,198	8,276	1410,553	744,728
-34,184	8,332	1409,639	744,478
-33,169	8,221	1408,388	743,270
-32,154	8,276	1407,538	743,047
-31,140	8,279	1406,217	742,335
-30,125	8,307	1404,996	741,793
-29,111	8,231	1404,014	740,889
-28,096	8,230	1402,699	740,161
-27,082	8,241	1401,364	739,477
-26,067	8,166	1400,474	738,631
-25,052	8,201	1399,376	738,184
-24,038	8,251	1398,419	737,884
-23,023	8,164	1397,723	737,082
-22,009	8,172	1396,669	736,534
-20,994	8,189	1395,493	735,962
-19,979	8,183	1394,492	735,380
-18,965	8,175	1393,486	734,783
-17,950	8,142	1392,551	734,107
-16,936	8,124	1391,912	733,656
-15,921	8,071	1390,878	732,839
-14,906	8,130	1389,847	732,536
-13,892	8,166	1388,711	732,077
-12,877	8,151	1388,101	731,656
-11,863	8,139	1387,238	731,118
-10,848	8,102	1386,545	730,554
-9,833	8,081	1385,285	729,763
-8,819	8,026	1384,745	729,197
-7,804	8,052	1383,569	728,669
-6,790	7,997	1382,776	727,970
-5,775	8,004	1381,538	727,321
-4,760	8,035	1380,546	726,912
-3,746	8,066	1379,710	726,586
-2,731	8,069	1378,794	726,088
-1,717	8,048	1378,080	725,586
-0,702	8,011	1376,228	724,414
0,313	12,106	1286,639	695,789
1,327	27,954	678,389	402,219
2,342	43,500	116,695	75,049
3,356	-2,319	16,669	8,210
4,371	6,404	3,859	2,013
5,386	45,696	1,316	0,855
6,400	800,000	0,217	0,640
7,415	-192,120	-0,069	0,000
8,429	-109,922	-0,315	-0,046
9,444	81,132	-0,295	-0,224
10,459	146,077	-0,260	-0,246
11,473	53,422	-0,317	-0,214
12,488	-60,458	-0,276	-0,082
13,502	50,996	-0,285	-0,190
14,517	60,600	-0,249	-0,173
15,531	49,032	-0,420	-0,277
16,546	82,625	-0,355	-0,271
17,561	94,935	-0,343	-0,275
18,575	16,880	-0,232	-0,129
19,590	56,547	-0,211	-0,144
20,604	-65,153	-0,323	-0,091
21,619	34,254	-0,426	-0,261
22,634	107,867	-0,443	-0,372
23,648	-47,599	-0,481	-0,163
24,663	66,977	-0,566	-0,405
25,677	-86,540	-0,391	-0,084
26,692	-21,165	-0,315	-0,135
27,707	-51,067	-0,381	-0,125
28,721	154,168	-0,379	-0,366
29,736	4,093	-0,443	-0,227
30,750	83,743	-0,412	-0,316
31,765	59,676	-0,451	-0,313
32,780	26,165	-0,292	-0,171
33,794	-18,307	-0,284	-0,124
34,809	51,648	-0,388	-0,259
35,823	7,099	-0,483	-0,252
36,838	90,943	-0,334	-0,263
37,853	63,695	-0,437	-0,308
38,867	120,400	-0,406	-0,354
39,882	433,339	-0,246	-0,377
40,896	109,784	-0,358	-0,302
41,911	89,710	-0,358	-0,280
42,926	128,587	-0,384	-0,343
43,940	25,502	-0,300	-0,175
44,955	1,092	-0,373	-0,187
45,969	27,167	-0,439	-0,258
46,984	249,179	-0,204	-0,243
47,999	91,525	-0,230	-0,181
49,013	-54,493	-0,310	-0,098
50,028	19,586	-0,221	-0,124
51,042	10,722	-0,266	-0,142
52,057	-19,144	-0,488	-0,212
53,071	66,080	-0,419	-0,298
54,086	43,083	-0,260	-0,166
55,101	156,668	-0,228	-0,221
56,115	-107,288	-0,416	-0,063
57,130	48,211	-0,366	-0,240
58,144	39,789	-0,368	-0,231
59,159	21,196	-0,409	-0,232
60,174	17,138	-0,484	-0,269
61,188	267,290	-0,260	-0,319
62,203	-10,777	-0,281	-0,130
63,217	4,849	-0,356	-0,183
64,232	57,437	-0,266	-0,182
65,247	61,971	-0,445	-0,310
66,261	218,911	-0,306	-0,343
67,276	86,707	-0,309	-0,238
68,290	106,199	-0,294	-0,244
69,305	117,406	-0,302	-0,260
70,320	42,139	-0,249	-0,158
71,334	537,741	-0,156	-0,260
72,349	64,384	-0,331	-0,233
73,363	190,447	-0,370	-0,389
74,378	36,361	-0,357	-0,220
75,393	45,111	-0,288	-0,186
76,407	38,176	-0,298	-0,186
77,422	-13,452	-0,242	-0,110
78,436	66,383	-0,173	-0,123
79,451	72,398	-0,350	-0,255
80,466	-1,303	-0,449	-0,221
81,480	88,788	-0,316	-0,246
82,495	-130,460	-0,200	-0,019
83,509	42,898	-0,202	-0,129
84,524	61,709	-0,224	-0,155
85,539	21,947	-0,232	-0,132
86,553	296,810	-0,148	-0,191
87,568	350,009	-0,198	-0,275
88,582	-87,692	-0,400	-0,084
89,597	-11,574	-0,255	-0,117
90,611	-5,464	-0,307	-0,147
91,626	126,173	-0,214	-0,189
92,641	-53,452	-0,397	-0,126
93,655	-53,218	-0,207	-0,066
94,670	99,447	-0,224	-0,181
95,684	613,721	-0,147	-0,258
96,699	150,205	-0,143	-0,136
97,714	183,639	-0,146	-0,151
98,728	461,993	-0,215	-0,336
99,743	51,499	-0,306	-0,203
100,757	197,074	-0,166	-0,177
101,772	-128,218	-0,412	-0,041
102,787	88,142	-0,139	-0,108
103,801	-15,703	-0,288	-0,128
104,816	71,505	-0,262	-0,190
105,830	-0,938	-0,284	-0,140
106,845	-111,494	-0,254	-0,036
107,860	210,111	-0,231	-0,254
108,874	-46,542	-0,206	-0,070
109,889	70,895	-0,316	-0,228
110,903	-88,915	-0,307	-0,063
111,918	-76,925	-0,311	-0,075
112,933	19,850	-0,247	-0,138
113,947	-88,722	-0,304	-0,062
114,962	-51,207	-0,220	-0,071
115,976	148,686	-0,147	-0,138
116,991	16,974	-0,347	-0,191
118,006	220,718	-0,195	-0,218
119,020	-121,737	-0,171	-0,020
120,035	151,242	-0,264	-0,251
121,049	800,000	-0,130	-0,297
122,064	167,500	-0,175	-0,173
123,079	339,090	-0,210	-0,286
124,093	-37,793	-0,261	-0,096
125,108	-89,963	-0,322	-0,065
126,122	206,687	-0,210	-0,229
127,137	-200,000	-0,078	-0,312
128,151	-35,146	-0,216	-0,081
129,166	32,798	-0,228	-0,137
130,181	84,424	-0,255	-0,195
131,195	-48,067	-0,235	-0,079
132,210	189,006	-0,276	-0,288
133,224	81,595	-0,215	-0,162
134,239	334,379	-0,203	-0,275
135,254	210,126	-0,257	-0,281
136,268	3,831	-0,285	-0,145
137,283	-101,580	-0,299	0,050
138,297	57,398	-0,296	-0,201
139,312	27,161	-0,378	-0,220
140,327	-35,391	-0,281	-0,106
141,341	493,534	-0,190	-0,304
142,356	65,988	-0,306	-0,216
143,370	360,321	-0,106	-0,148
144,385	31,347	-0,213	-0,127
145,400	-35,650	-0,315	-0,118
146,414	52,639	-0,258	-0,172
147,429	40,795	-0,240	-0,150
148,443	488,713	-0,105	-0,168
149,458	63,326	-0,257	-0,179
150,473	183,509	-0,173	-0,178
151,487	-101,798	-0,330	-0,055
152,502	-44,356	-0,298	-0,103
153,516	53,429	-0,378	-0,252
154,531	31,889	-0,312	-0,187
155,546	46,060	-0,191	-0,123
156,560	-21,729	-0,135	-0,057
157,575	15,423	-0,275	-0,150
158,589	-3,858	-0,247	-0,119
159,604	124,926	-0,158	-0,139
160,619	35,266	-0,196	-0,119
161,633	-49,068	-0,273	-0,090
162,648	-35,830	-0,140	-0,052
163,662	255,158	-0,142	-0,169
164,677	-62,568	-0,246	-0,070
165,692	22,568	-0,147	-0,083
166,706	24,413	-0,343	-0,197
167,721	176,146	-0,255	-0,258
168,735	-50,774	-0,286	-0,093
169,750	751,330	-0,113	-0,213
170,764	272,570	-0,150	-0,184
171,779	94,615	-0,193	-0,153
172,794	67,015	-0,204	-0,144
173,808	-119,978	-0,262	-0,031
174,823	-106,172	-0,107	-0,016
175,837	-99,777	-0,182	-0,031
176,852	212,485	-0,223	-0,244
177,867	16,784	-0,204	-0,112
178,881	-85,485	-0,206	-0,044
179,896	-23,225	-0,165	-0,069
180,910	-37,824	-0,267	-0,098
181,925	62,927	-0,345	-0,239
182,940	22,412	-0,212	-0,120
183,954	556,085	-0,152	-0,255
184,969	-21,830	-0,209	-0,088
185,983	-125,970	-0,112	-0,012
186,998	259,096	-0,175	-0,210
188,013	37,843	-0,292	-0,179
189,027	110,154	-0,171	-0,142
190,042	800,000	-0,056	-0,168
191,056	201,728	-0,179	-0,192
192,071	120,863	-0,220	-0,189
193,086	399,603	-0,101	-0,147
194,100	23,120	-0,150	-0,085
195,115	105,491	-0,175	-0,143
196,129	202,967	-0,218	-0,234
197,144	800,000	-0,084	-0,246
198,159	285,791	-0,205	-0,256
199,173	800,000	-0,046	-0,117
200,188	476,414	-0,158	-0,248
201,202	501,545	-0,133	-0,214
202,217	215,914	-0,121	-0,134
203,232	-96,526	-0,311	-0,056
204,246	297,078	-0,152	-0,194
205,261	-82,152	-0,197	-0,044
206,275	-148,305	-0,133	0,007
207,290	-98,834	-0,243	-0,042
208,304	128,410	-0,209	-0,184
209,319	99,917	-0,124	-0,099
210,334	-31,454	-0,247	-0,096
211,348	-61,834	-0,226	-0,065
212,363	267,602	-0,149	-0,181
213,377	144,234	-0,185	-0,171
214,392	52,435	-0,116	-0,077
215,407	-20,476	-0,127	-0,054
216,421	-200,000	-0,024	-0,195
217,436	-73,085	-0,191	-0,048
218,450	230,986	-0,211	-0,240
219,465	408,876	-0,167	-0,246
220,480	-129,924	-0,145	0,014
221,494	-43,423	-0,283	-0,098
222,509	9,065	-0,101	-0,052
223,523	-144,305	-0,184	-0,012
224,538	35,336	-0,190	-0,115
225,553	-111,911	-0,184	-0,025
226,567	100,017	-0,190	-0,152
227,582	196,762	-0,168	-0,177
228,596	-47,184	-0,152	-0,051
229,611	-200,000	-0,011	-0,062
230,626	-81,939	-0,186	0,042
231,640	218,052	-0,232	-0,256
232,655	3,838	-0,206	-0,103
233,669	133,051	-0,108	-0,097
234,684	320,764	-0,150	-0,198
235,699	800,000	-0,097	-0,208
236,713	-133,572	-0,164	0,014
237,728	5,338	-0,180	-0,091
238,742	-118,249	-0,264	0,032
239,757	207,340	-0,222	-0,239
240,772	-34,237	-0,192	-0,073
241,786	-98,707	-0,187	-0,033
242,801	70,471	-0,174	-0,124
243,815	335,495	-0,140	-0,187
244,830	-28,634	-0,169	-0,067
245,844	87,773	-0,191	-0,146
246,859	6,563	-0,138	-0,070
247,874	137,647	-0,170	-0,154
248,888	-7,359	-0,240	-0,112
249,903	-56,990	-0,220	-0,066
250,917	-42,660	-0,147	-0,051
251,932	-200,000	0,004	0,032
252,947	-100,242	-0,146	-0,025
253,961	111,620	-0,140	-0,117
254,976	134,712	-0,192	-0,172
255,990	-118,015	-0,272	-0,033
257,005	-171,433	-0,092	0,002
258,020	-200,000	-0,093	-0,290
259,034	789,900	-0,027	-0,052
260,049	-31,168	-0,218	-0,084
261,063	-117,994	-0,142	-0,017
262,078	166,140	-0,179	-0,175
263,093	121,937	-0,152	-0,131
264,107	-45,455	-0,181	-0,062
265,122	457,366	-0,107	-0,165
266,136	104,618	-0,090	-0,073
267,151	-140,272	-0,190	-0,013
268,166	800,000	-0,122	-0,240
269,180	20,300	-0,198	-0,110
270,195	9,209	-0,217	-0,112
271,209	-53,682	-0,307	-0,096
272,224	-69,983	-0,209	-0,054
273,239	-92,934	-0,145	0,028
274,253	267,485	-0,119	-0,144
275,268	112,886	-0,170	-0,142
276,282	-57,058	-0,267	-0,081
277,297	-106,908	-0,211	-0,032
278,312	724,280	-0,102	-0,188
279,326	280,910	-0,119	-0,147
280,341	35,980	-0,190	-0,115
281,355	41,270	-0,180	-0,112
282,370	-149,294	-0,168	-0,009
283,384	-81,441	-0,152	-0,034
284,399	605,665	-0,077	-0,133
285,414	508,283	-0,088	-0,142
286,428	-115,993	-0,192	-0,024
287,443	-71,150	-0,045	-0,012
288,457	227,941	-0,154	-0,173
289,472	86,013	-0,181	-0,137
290,487	687,261	-0,065	-0,117
291,501	-72,561	-0,242	-0,061
292,516	-43,243	-0,159	-0,055
293,530	5,523	-0,185	-0,094
294,545	-134,814	-0,113	0,009
295,560	136,119	-0,052	0,046
296,574	48,689	-0,140	-0,090
297,589	-7,770	-0,027	-0,012
298,603	13,592	-0,165	-0,088
299,618	-50,010	-0,265	-0,086
300,633	-83,969	-0,196	-0,043
301,647	-85,580	-0,075	-0,016
302,662	-58,725	-0,161	0,048
303,676	-176,081	-0,032	0,001
304,691	14,370	-0,116	-0,062
305,706	-47,075	-0,116	0,039
306,720	401,190	-0,089	-0,129
307,735	-141,613	-0,179	-0,012
308,749	-155,625	-0,296	-0,013
309,764	114,518	-0,145	-0,121
310,779	17,383	-0,055	-0,030
311,793	-24,856	-0,203	-0,082
312,808	37,425	-0,198	-0,120
313,822	-110,185	-0,245	0,035
314,837	-79,620	-0,192	-0,044
315,852	176,439	-0,128	-0,128
316,866	30,973	-0,152	-0,089
317,881	73,394	-0,193	-0,138
318,895	-81,908	-0,026	0,006
319,910	243,205	-0,225	-0,258
320,925	27,722	-0,342	-0,197
321,939	-64,005	-0,235	-0,065
322,954	-106,167	-0,157	0,024
323,968	93,082	-0,150	-0,116
324,983	-200,000	-0,041	0,147
325,997	-200,000	-0,008	-0,128
327,012	-200,000	0,004	-0,150
328,027	39,691	-0,101	0,062
329,041	112,774	-0,230	-0,190
330,056	-108,194	-0,142	-0,021
331,070	592,079	-0,085	-0,144
332,085	-200,000	-0,040	-0,127
333,100	155,308	-0,090	-0,085
334,114	520,860	-0,113	-0,183
335,129	-101,578	-0,147	-0,024
336,143	133,722	0,040	-0,036
337,158	180,053	-0,100	-0,101
338,173	-200,000	0,021	-0,188
339,187	474,838	-0,126	-0,195
340,202	800,000	-0,062	-0,147
341,216	171,369	-0,022	0,022
342,231	-114,352	-0,216	-0,028
343,246	132,246	-0,197	-0,174
344,260	-200,000	-0,007	-0,133
345,275	-144,356	-0,199	0,012
346,289	232,719	-0,077	-0,087
347,304	50,994	-0,303	-0,196
348,319	-168,009	-0,174	0,005
349,333	558,562	-0,112	-0,185
350,348	318,330	-0,101	-0,131
351,362	564,382	-0,089	-0,148
352,377	81,480	0,024	-0,018
353,392	-95,735	-0,115	0,021
354,406	-102,009	-0,058	0,009
355,421	208,091	1311,422	1401,878
356,435	160,107	1471,678	1402,323
