DTS Sentinel unit serial number:	SN410029Multiplexer serial number:	ORYXHardware model number:	OX2-SRSoftware version number:	ORYX F/W v4,00 Oryx Data Collector v3.7.2.0data status	okinstallation	B3 Nyhavnadifferential loss correction	single-endedforward channel	channel 1reverse channel	N/Adate	2023/12/02time	14:57:30forward acquisition time	300,00reverse acquisition time	0,00gamma	499,1914k internal	0,3197k external	0,3197temperature offset calibration	1,0000default loss term (dB/km)	0,3820temperature slope calibration	1,0000multiplexer offset coefficient	1,0000multiplexer slope coefficient	1,0000fibre end	0,00T internal ref (°C)	14,84T ext. ref 1 (°C)	-0,52T ext. ref 2 (°C)	-0,54length (m)	temperature (°C)	Stokes	anti-Stokes-744,400	89,209	-0,239	-0,194
-743,385	-200,000	-0,017	0,275
-742,371	243,536	-0,111	-0,136
-741,356	-200,000	0,031	0,306
-740,342	-200,000	-0,038	-0,261
-739,327	800,000	0,117	0,319
-738,312	103,214	-0,284	-0,243
-737,298	-200,000	-0,022	0,252
-736,283	306,256	-0,197	-0,268
-735,269	-200,000	0,012	0,330
-734,254	269,514	-0,130	-0,166
-733,239	179,229	-0,234	0,249
-732,225	-200,000	-0,055	-0,259
-731,210	-117,081	0,169	-0,022
-730,196	-200,000	0,020	-0,169
-729,181	145,867	0,035	-0,035
-728,167	-200,000	0,014	-0,149
-727,152	-130,234	-0,073	-0,007
-726,137	43,521	0,079	-0,052
-725,123	154,734	-0,054	-0,054
-724,108	-2,242	0,071	-0,036
-723,094	582,670	0,057	-0,102
-722,079	68,627	-0,080	-0,060
-721,064	697,543	0,075	0,143
-720,050	800,000	0,034	-0,079
-719,035	45,080	0,118	-0,079
-718,021	-200,000	0,006	0,060
-717,006	-36,567	0,068	0,027
-715,991	-37,564	-0,095	-0,037
-714,977	-200,000	-0,005	0,080
-713,962	-146,547	0,215	-0,013
-712,948	800,000	-0,026	0,053
-711,933	800,000	-0,029	0,084
-710,918	-154,951	-0,103	-0,005
-709,904	-200,000	0,007	-0,069
-708,889	-9,510	-0,084	0,041
-707,875	239,011	-0,092	-0,111
-706,860	-200,000	-0,032	-0,114
-705,845	-75,373	-0,041	-0,011
-704,831	-200,000	-0,000	0,085
-703,816	-200,000	0,002	-0,055
-702,802	159,098	-0,125	-0,126
-701,787	671,348	0,036	-0,068
-700,772	-94,782	-0,085	-0,017
-699,758	-31,494	0,113	-0,046
-698,743	755,578	-0,051	0,102
-697,729	-200,000	0,001	0,065
-696,714	447,541	0,066	0,105
-695,699	-40,397	-0,147	0,055
-694,685	-51,361	0,065	0,022
-693,670	436,546	0,008	-0,013
-692,656	800,000	0,017	0,043
-691,641	354,534	0,075	0,108
-690,627	-200,000	-0,005	-0,091
-689,612	-89,563	0,103	-0,022
-688,597	49,637	-0,067	0,046
-687,583	276,493	-0,095	-0,123
-686,568	-41,104	0,009	0,003
-685,554	288,879	0,008	0,010
-684,539	172,815	0,091	0,095
-683,524	157,012	0,028	0,028
-682,510	-51,976	0,036	0,012
-681,495	142,418	0,046	-0,045
-680,481	160,612	-0,098	-0,099
-679,466	491,872	0,055	0,093
-678,451	323,748	-0,039	0,054
-677,437	372,328	0,113	0,167
-676,422	-79,492	0,095	-0,023
-675,408	90,974	-0,081	0,066
-674,393	-66,044	-0,228	0,066
-673,378	800,000	0,020	0,051
-672,364	-177,864	-0,100	-0,002
-671,349	243,036	0,011	0,013
-670,335	-99,893	0,018	0,003
-669,320	-200,000	0,027	-0,094
-668,305	197,959	0,084	0,094
-667,291	178,095	0,060	0,063
-666,276	25,616	-0,061	-0,037
-665,262	-200,000	0,032	-0,139
-664,247	800,000	0,031	0,084
-663,232	-200,000	-0,003	0,039
-662,218	-86,542	-0,022	-0,005
-661,203	-140,323	0,091	-0,007
-660,189	-200,000	-0,010	0,092
-659,174	-200,000	-0,020	-0,072
-658,159	139,335	-0,106	-0,101
-657,145	241,740	-0,060	-0,073
-656,130	758,919	0,076	-0,150
-655,116	132,239	-0,095	-0,089
-654,101	-200,000	0,034	0,178
-653,086	-200,000	-0,005	0,070
-652,072	-200,000	-0,005	0,035
-651,057	36,896	-0,048	-0,030
-650,043	724,084	0,018	0,035
-649,028	250,728	-0,122	0,150
-648,014	184,242	0,091	0,098
-646,999	-124,276	0,093	0,010
-645,984	-60,025	-0,054	0,017
-644,970	-200,000	0,009	0,042
-643,955	-133,150	-0,149	0,014
-642,941	-113,407	-0,062	0,009
-641,926	353,216	-0,116	0,167
-640,911	-200,000	0,008	-0,076
-639,897	-147,539	-0,152	-0,009
-638,882	-132,016	0,093	0,009
-637,868	-6,324	0,086	-0,043
-636,853	-19,270	-0,099	0,044
-635,838	-62,553	-0,046	0,014
-634,824	-24,673	-0,120	0,051
-633,809	-54,369	0,043	0,014
-632,795	-98,087	0,073	-0,013
-631,780	115,647	0,063	0,056
-630,765	-97,721	-0,123	0,023
-629,751	303,440	0,002	0,003
-628,736	386,188	-0,108	-0,162
-627,722	-54,841	0,064	-0,021
-626,707	-200,000	-0,007	-0,183
-625,692	54,812	0,067	-0,047
-624,678	508,195	0,042	0,070
-623,663	800,000	-0,035	0,105
-622,649	571,688	0,036	0,064
-621,634	-71,708	-0,086	0,023
-620,619	203,477	0,111	0,125
-619,605	800,000	-0,027	0,062
-618,590	718,585	0,036	-0,070
-617,576	-200,000	0,035	0,150
-616,561	-4,093	0,084	0,042
-615,546	122,886	-0,032	-0,029
-614,532	-132,323	-0,143	0,013
-613,517	472,568	-0,036	-0,060
-612,503	84,208	0,051	0,040
-611,488	15,608	0,088	-0,050
-610,474	-7,843	0,095	0,046
-609,459	-181,818	-0,106	0,001
-608,444	-200,000	0,012	0,089
-607,430	-38,129	-0,080	-0,031
-606,415	-95,736	-0,093	-0,018
-605,401	238,051	0,072	-0,087
-604,386	156,379	-0,067	0,067
-603,371	647,315	0,053	0,098
-602,357	103,805	0,078	0,067
-601,342	103,588	-0,100	-0,085
-600,328	109,430	-0,088	-0,076
-599,313	221,763	-0,066	0,077
-598,298	237,423	0,038	-0,045
-597,284	-143,500	0,053	0,004
-596,269	-200,000	0,030	0,097
-595,255	-42,895	0,082	0,030
-594,240	23,075	-0,147	0,087
-593,225	36,017	-0,100	-0,064
-592,211	177,435	0,035	-0,037
-591,196	99,161	0,083	0,070
-590,182	-71,479	-0,061	0,016
-589,167	-200,000	-0,009	0,039
-588,152	-200,000	0,009	-0,076
-587,138	77,692	0,074	0,057
-586,123	103,173	-0,049	-0,042
-585,109	380,547	-0,038	0,057
-584,094	250,651	0,069	-0,085
-583,079	-17,954	0,117	-0,053
-582,065	37,699	0,123	0,079
-581,050	275,935	-0,102	0,131
-580,036	11,373	0,040	0,022
-579,021	301,800	0,133	-0,178
-578,006	103,647	0,054	0,046
-576,992	-124,717	0,070	0,008
-575,977	-106,493	-0,054	0,009
-574,963	-146,566	-0,057	-0,004
-573,948	-77,951	0,108	-0,027
-572,934	58,777	-0,067	-0,047
-571,919	-200,000	-0,018	-0,078
-570,904	6,581	-0,018	-0,010
-569,890	800,000	0,044	0,098
-568,875	58,836	-0,110	0,078
-567,861	739,341	-0,024	0,046
-566,846	-200,000	-0,002	-0,036
-565,831	-8,514	-0,104	-0,050
-564,817	14,396	-0,098	0,055
-563,802	-193,546	0,058	0,000
-562,788	57,067	-0,136	0,096
-561,773	15,130	-0,074	0,042
-560,758	-123,567	0,083	0,009
-559,744	800,000	0,012	-0,032
-558,729	-200,000	0,009	-0,078
-557,715	800,000	-0,007	0,022
-556,700	198,566	-0,085	-0,095
-555,685	-51,019	-0,060	0,020
-554,671	-200,000	0,000	-0,008
-553,656	-155,165	-0,040	0,002
-552,642	800,000	-0,026	-0,078
-551,627	-101,137	-0,150	0,026
-550,612	102,855	-0,036	-0,030
-549,598	-200,000	-0,031	-0,185
-548,583	243,199	-0,054	-0,066
-547,569	-87,205	0,101	-0,022
-546,554	446,101	0,089	0,141
-545,539	800,000	0,058	-0,174
-544,525	-39,386	-0,065	0,025
-543,510	694,224	-0,036	0,068
-542,496	800,000	0,006	-0,018
-541,481	-125,585	0,038	-0,004
-540,466	-35,410	0,147	-0,058
-539,452	130,227	-0,056	0,052
-538,437	-26,467	0,072	0,030
-537,423	800,000	-0,021	-0,047
-536,408	127,577	-0,060	-0,055
-535,393	189,833	-0,112	0,122
-534,379	74,350	0,009	0,007
-533,364	-54,296	-0,052	-0,017
-532,350	-200,000	0,040	0,135
-531,335	293,084	0,114	0,151
-530,321	511,607	0,047	0,079
-529,306	7,816	-0,070	0,038
-528,291	154,178	-0,039	0,039
-527,277	-69,191	-0,068	0,019
-526,262	-200,000	0,003	-0,112
-525,248	-27,721	0,190	0,079
-524,233	208,191	0,056	0,064
-523,218	-200,000	-0,028	0,121
-522,204	-200,000	0,023	-0,096
-521,189	105,827	0,069	-0,059
-520,175	43,170	-0,107	-0,071
-519,160	-200,000	-0,009	-0,094
-518,145	117,253	-0,097	-0,086
-517,131	31,926	0,087	-0,054
-516,116	-200,000	-0,029	0,100
-515,102	-200,000	-0,013	0,055
-514,087	-200,000	-0,009	-0,108
-513,072	-21,173	-0,034	0,015
-512,058	335,232	0,103	-0,145
-511,043	152,833	0,051	-0,050
-510,029	24,306	-0,037	-0,022
-509,014	-200,000	0,020	0,188
-507,999	-55,176	0,105	-0,034
-506,985	800,000	0,038	-0,081
-505,970	26,795	-0,170	-0,103
-504,956	-200,000	-0,003	-0,046
-503,941	-92,670	-0,167	-0,034
-502,926	79,697	0,091	0,070
-501,912	567,405	0,014	0,025
-500,897	108,414	-0,077	0,066
-499,883	-200,000	-0,012	0,054
-498,868	73,268	0,032	-0,024
-497,853	8,686	-0,057	0,031
-496,839	-200,000	-0,002	0,078
-495,824	-200,000	0,020	-0,096
-494,810	-153,482	-0,066	0,003
-493,795	-200,000	-0,047	-0,188
-492,781	-118,773	-0,073	0,009
-491,766	67,416	-0,110	-0,081
-490,751	-136,947	-0,136	-0,011
-489,737	-17,595	0,077	-0,035
-488,722	-56,685	-0,086	-0,027
-487,708	662,246	-0,040	0,075
-486,693	-48,260	0,210	0,073
-485,678	209,900	0,055	-0,062
-484,664	122,284	-0,125	-0,113
-483,649	531,962	-0,018	0,031
-482,635	-145,368	0,034	0,002
-481,620	-200,000	0,010	0,050
-480,605	800,000	0,059	0,138
-479,591	-200,000	0,015	0,072
-478,576	161,255	-0,138	-0,139
-477,562	29,848	-0,033	0,020
-476,547	800,000	-0,033	-0,082
-475,532	121,209	0,029	-0,026
-474,518	-200,000	-0,014	-0,101
-473,503	506,661	0,049	0,082
-472,489	208,966	0,061	0,069
-471,474	-106,688	-0,198	-0,031
-470,459	-126,977	-0,051	-0,005
-469,445	-130,657	0,052	0,005
-468,430	-200,000	-0,032	-0,144
-467,416	-133,830	0,096	-0,008
-466,401	215,100	-0,036	0,041
-465,386	-200,000	0,015	0,083
-464,372	-41,570	0,026	0,010
-463,357	278,788	0,057	0,073
-462,343	-87,338	-0,133	-0,029
-461,328	-155,638	-0,060	0,003
-460,313	-165,802	0,114	0,003
-459,299	346,384	-0,049	-0,069
-458,284	-200,000	-0,008	0,038
-457,270	11,888	0,085	-0,047
-456,255	-103,465	-0,103	0,017
-455,241	-139,671	-0,093	0,007
-454,226	-200,000	0,016	-0,074
-453,211	234,486	0,048	0,058
-452,197	8,506	0,091	0,049
-451,182	800,000	-0,013	-0,031
-450,168	-200,000	-0,031	0,101
-449,153	78,676	-0,120	0,092
-448,138	56,871	-0,100	-0,070
-447,124	59,166	0,063	-0,045
-446,109	800,000	0,017	-0,041
-445,095	37,135	0,079	0,050
-444,080	395,772	-0,116	0,175
-443,065	800,000	-0,065	0,151
-442,051	-89,880	-0,111	-0,023
-441,036	-200,000	0,030	-0,143
-440,022	403,504	-0,063	-0,095
-439,007	-148,052	0,038	-0,002
-437,992	156,404	0,047	0,046
-436,978	-92,690	-0,119	0,024
-435,963	200,400	-0,122	0,135
-434,949	-115,087	-0,072	-0,010
-433,934	-130,484	0,084	-0,008
-432,919	220,296	0,096	-0,110
-431,905	-95,100	-0,040	0,008
-430,890	-64,505	0,047	0,014
-429,876	-200,000	0,004	-0,034
-428,861	213,368	0,040	0,046
-427,846	800,000	0,027	-0,060
-426,832	62,546	-0,091	-0,065
-425,817	70,349	-0,075	-0,056
-424,803	690,056	0,016	0,030
-423,788	356,185	0,098	0,141
-422,773	-181,349	0,045	-0,001
-421,759	258,895	0,051	-0,063
-420,744	80,054	0,092	-0,071
-419,730	-200,000	-0,000	-0,065
-418,715	-156,175	0,047	0,002
-417,701	229,504	-0,129	0,152
-416,686	-143,453	0,052	0,003
-415,671	-107,162	0,185	0,029
-414,657	-113,709	-0,093	0,013
-413,642	-92,568	0,074	-0,015
-412,628	-136,878	-0,088	-0,007
-411,613	800,000	0,021	0,060
-410,598	-13,258	-0,044	0,021
-409,584	-174,497	0,069	-0,001
-408,569	244,512	0,112	-0,135
-407,555	800,000	-0,020	0,044
-406,540	-148,206	-0,049	-0,003
-405,525	-27,915	0,027	0,011
-404,511	14,459	0,064	-0,036
-403,496	143,986	-0,052	0,050
-402,482	-200,000	-0,006	-0,020
-401,467	-200,000	0,008	-0,065
-400,452	-91,173	0,087	0,018
-399,438	-200,000	-0,025	0,130
-398,423	168,137	-0,050	0,051
-397,409	-56,889	-0,047	0,015
-396,394	-72,083	-0,033	-0,009
-395,379	43,792	0,051	-0,034
-394,365	46,307	-0,056	0,037
-393,350	378,316	0,023	0,034
-392,336	-200,000	0,007	0,054
-391,321	800,000	0,038	-0,079
-390,306	-75,300	0,070	-0,018
-389,292	-4,140	-0,059	0,029
-388,277	-90,934	0,238	-0,049
-387,263	800,000	-0,009	0,027
-386,248	-200,000	-0,029	0,150
-385,233	-27,176	0,120	0,050
-384,219	120,517	0,105	-0,093
-383,204	72,537	-0,193	-0,144
-382,190	800,000	0,011	-0,028
-381,175	-153,321	0,074	-0,004
-380,160	36,548	-0,125	-0,079
-379,146	16,904	0,097	-0,055
-378,131	-40,921	0,055	-0,020
-377,117	94,680	-0,059	0,048
-376,102	800,000	-0,039	-0,086
-375,088	234,491	0,107	-0,127
-374,073	356,709	-0,037	0,053
-373,058	-28,357	-0,096	-0,039
-372,044	-200,000	0,026	-0,106
-371,029	130,527	-0,108	-0,100
-370,015	-200,000	0,020	0,237
-369,000	800,000	0,073	0,177
-367,985	-200,000	0,035	-0,137
-366,971	-200,000	0,028	-0,151
-365,956	66,805	0,042	-0,031
-364,942	232,986	0,058	-0,068
-363,927	247,680	0,090	0,109
-362,912	18,404	0,062	0,036
-361,898	118,182	-0,055	0,049
-360,883	669,697	-0,071	-0,132
-359,869	68,646	0,093	0,069
-358,854	-200,000	-0,000	-0,004
-357,839	800,000	0,036	-0,096
-356,825	672,932	-0,089	0,165
-355,810	-173,475	-0,058	0,001
-354,796	215,641	0,073	0,083
-353,781	314,564	-0,102	0,138
-352,766	457,054	-0,022	-0,035
-351,752	800,000	-0,035	0,070
-350,737	-200,000	0,011	-0,052
-349,723	131,755	0,125	0,115
-348,708	-200,000	0,002	0,113
-347,693	3,735	-0,124	-0,065
-346,679	-18,290	0,056	-0,025
-345,664	-72,200	-0,153	-0,040
-344,650	-172,376	0,129	-0,003
-343,635	-200,000	0,003	-0,051
-342,620	-136,412	0,115	-0,009
-341,606	21,852	0,089	-0,052
-340,591	-51,091	-0,011	-0,004
-339,577	-52,647	-0,044	-0,014
-338,562	-200,000	-0,008	0,130
-337,548	114,388	-0,065	0,056
-336,533	202,293	0,118	-0,130
-335,518	-135,229	0,086	-0,007
-334,504	702,924	0,040	0,075
-333,489	28,453	-0,086	0,052
-332,475	15,302	0,109	-0,061
-331,460	139,498	-0,065	0,062
-330,445	800,000	-0,064	-0,138
-329,431	60,428	-0,050	-0,036
-328,416	-100,714	0,108	0,019
-327,402	380,023	-0,056	0,082
-326,387	-200,000	0,008	-0,040
-325,372	-186,703	0,058	0,001
-324,358	522,742	-0,087	0,147
-323,343	310,598	0,079	-0,106
-322,329	82,246	0,090	-0,070
-321,314	177,444	-0,031	0,033
-320,299	205,205	-0,087	0,097
-319,285	90,205	-0,078	0,062
-318,270	-29,170	0,145	0,059
-317,256	195,867	-0,087	-0,095
-316,241	454,350	-0,018	0,028
-315,226	544,725	0,014	0,025
-314,212	-200,000	-0,028	-0,088
-313,197	18,482	-0,047	-0,027
-312,183	-185,558	0,141	-0,001
-311,168	-200,000	0,062	-0,222
-310,153	-70,713	-0,126	-0,034
-309,139	535,884	-0,038	-0,065
-308,124	-116,683	0,102	-0,013
-307,110	-30,332	0,165	-0,067
-306,095	132,428	0,016	0,015
-305,080	-200,000	0,018	-0,061
-304,066	143,956	-0,077	-0,074
-303,051	222,412	-0,046	-0,053
-302,037	-64,568	-0,125	-0,036
-301,022	800,000	0,074	0,185
-300,008	-32,478	-0,061	-0,024
-298,993	-65,434	0,091	-0,026
-297,978	-3,981	-0,066	0,032
-296,964	-62,980	-0,172	-0,050
-295,949	-14,219	0,026	-0,012
-294,935	800,000	0,006	0,014
-293,920	80,827	-0,106	-0,082
-292,905	-200,000	0,024	0,105
-291,891	75,604	0,089	0,067
-290,876	136,283	0,043	-0,040
-289,862	-200,000	0,011	-0,186
-288,847	100,348	0,121	-0,101
-287,832	342,892	0,065	-0,091
-286,818	334,936	-0,019	0,026
-285,803	-56,620	-0,087	-0,028
-284,789	233,500	0,087	0,102
-283,774	-200,000	0,039	0,206
-282,759	-200,000	0,014	-0,068
-281,745	282,580	-0,045	-0,058
-280,730	-200,000	0,034	-0,119
-279,716	717,725	-0,018	0,033
-278,701	-20,713	0,146	0,064
-277,686	-8,552	0,049	0,023
-276,672	696,306	-0,051	-0,095
-275,657	-200,000	0,002	0,143
-274,643	800,000	-0,023	-0,059
-273,628	-200,000	0,032	-0,161
-272,613	212,665	-0,038	0,043
-271,599	297,814	0,071	0,094
-270,584	205,725	-0,146	0,163
-269,570	800,000	0,016	-0,035
-268,555	34,914	0,054	-0,034
-267,540	-200,000	0,020	0,133
-266,526	-109,730	-0,135	-0,020
-265,511	800,000	0,020	-0,064
-264,497	-123,907	-0,082	0,009
-263,482	-149,719	0,062	-0,003
-262,467	-56,564	0,078	-0,025
-261,453	-200,000	0,021	-0,085
-260,438	800,000	-0,046	-0,127
-259,424	-15,335	0,016	0,007
-258,409	171,658	0,053	-0,054
-257,395	10,518	-0,026	-0,014
-256,380	-200,000	0,010	-0,075
-255,365	-89,715	0,144	-0,030
-254,351	800,000	-0,035	-0,072
-253,336	-200,000	-0,021	-0,118
-252,322	104,334	0,055	-0,046
-251,307	800,000	0,032	0,083
-250,292	452,663	0,054	-0,085
-249,278	-200,000	0,020	-0,080
-248,263	31,386	0,090	-0,055
-247,249	148,293	0,142	0,137
-246,234	800,000	0,026	0,066
-245,219	-138,394	-0,142	0,011
-244,205	136,087	0,110	0,102
-243,190	-74,616	-0,143	-0,037
-242,176	-200,000	0,017	0,122
-241,161	142,381	0,091	0,086
-240,146	800,000	0,055	0,144
-239,132	-89,261	-0,066	-0,014
-238,117	68,421	-0,099	-0,072
-237,103	110,579	-0,028	-0,024
-236,088	-81,761	0,031	0,007
-235,073	60,461	0,060	-0,043
-234,059	-136,981	0,093	0,007
-233,044	105,284	-0,052	0,044
-232,030	-51,755	0,096	-0,032
-231,015	-130,459	-0,101	0,010
-230,000	-200,000	-0,014	-0,120
-228,986	-57,583	0,009	-0,003
-227,971	-200,000	0,007	-0,101
-226,957	-71,265	0,044	0,012
-225,942	-53,661	0,162	0,053
-224,927	-62,881	-0,045	0,013
-223,913	287,658	-0,015	-0,020
-222,898	-200,000	0,002	-0,147
-221,884	-139,993	-0,171	0,013
-220,869	32,506	0,111	0,068
-219,855	14,354	0,096	-0,053
-218,840	-177,735	0,088	-0,001
-217,825	200,749	-0,008	-0,009
-216,811	-200,000	-0,025	-0,094
-215,796	800,000	-0,021	-0,047
-214,782	-137,069	0,007	0,001
-213,767	115,907	-0,076	0,066
-212,752	-57,070	0,094	-0,029
-211,738	-47,374	-0,042	-0,014
-210,723	-200,000	0,017	0,074
-209,709	124,520	-0,098	0,088
-208,694	72,811	-0,044	-0,033
-207,679	-91,869	0,038	0,008
-206,665	800,000	0,020	-0,053
-205,650	-200,000	0,009	0,057
-204,636	-17,609	0,149	0,067
-203,621	-200,000	0,043	0,147
-202,606	274,640	-0,050	-0,064
-201,592	-33,929	0,139	-0,054
-200,577	122,038	0,008	0,007
-199,563	800,000	-0,015	0,030
-198,548	55,790	-0,072	0,049
-197,533	68,831	-0,047	0,035
-196,519	377,336	0,029	0,043
-195,504	542,457	0,041	0,070
-194,490	-200,000	-0,004	-0,037
-193,475	23,194	-0,099	0,058
-192,460	55,281	-0,072	-0,050
-191,446	304,655	0,091	0,121
-190,431	494,202	0,011	0,019
-189,417	800,000	0,009	0,029
-188,402	-200,000	0,021	-0,138
-187,387	-200,000	0,034	-0,117
-186,373	-200,000	0,012	-0,049
-185,358	258,244	0,074	0,091
-184,344	322,576	0,067	-0,091
-183,329	236,099	0,021	0,025
-182,315	-178,267	-0,032	-0,001
-181,300	43,007	-0,150	-0,097
-180,285	-103,105	-0,092	-0,015
-179,271	800,000	0,023	-0,055
-178,256	800,000	0,028	0,076
-177,242	187,070	0,043	-0,046
-176,227	-98,941	0,063	0,011
-175,212	-46,386	-0,139	0,048
-174,198	611,342	-0,034	-0,061
-173,183	379,576	-0,065	-0,095
-172,169	355,555	-0,038	0,054
-171,154	344,686	0,076	-0,107
-170,139	-115,982	-0,104	-0,014
-169,125	-133,795	0,055	0,005
-168,110	-87,586	-0,027	-0,006
-167,096	24,557	-0,119	0,070
-166,081	292,614	0,067	0,087
-165,066	-200,000	0,013	0,064
-164,052	-34,835	-0,057	-0,022
-163,037	-200,000	0,008	0,090
-162,023	186,921	0,011	0,012
-161,008	73,315	0,078	0,058
-159,993	-200,000	0,019	-0,121
-158,979	7,568	0,117	0,062
-157,964	-129,794	-0,210	-0,020
-156,950	-200,000	0,001	0,027
-155,935	800,000	-0,007	0,020
-154,920	109,110	0,024	-0,020
-153,906	260,662	0,057	-0,070
-152,891	-200,000	0,010	0,133
-151,877	-200,000	0,017	-0,061
-150,862	-67,925	-0,138	-0,038
-149,847	-200,000	0,011	-0,073
-148,833	-200,000	0,016	-0,085
-147,818	-200,000	-0,040	0,134
-146,804	800,000	-0,011	0,030
-145,789	191,252	-0,036	-0,038
-144,775	93,221	-0,057	-0,046
-143,760	-188,044	0,046	-0,000
-142,745	64,874	-0,106	-0,076
-141,731	-148,781	-0,086	0,005
-140,716	800,000	-0,056	0,138
-139,702	-17,806	0,073	-0,033
-138,687	-6,361	-0,065	-0,032
-137,672	40,141	0,086	-0,055
-136,658	-34,905	-0,147	0,057
-135,643	-200,000	0,021	-0,172
-134,629	482,945	-0,065	-0,105
-133,614	-129,551	0,196	-0,019
-132,599	68,569	0,192	0,140
-131,585	69,834	0,139	0,102
-130,570	-146,157	0,044	0,003
-129,556	-200,000	0,006	0,090
-128,541	-200,000	0,025	0,161
-127,526	800,000	0,035	0,069
-126,512	353,704	0,035	-0,050
-125,497	204,677	0,049	0,054
-124,483	332,695	-0,102	-0,141
-123,468	-168,841	-0,007	-0,000
-122,453	184,750	-0,058	-0,061
-121,439	627,707	0,028	-0,051
-120,424	142,690	-0,066	-0,062
-119,410	800,000	0,060	0,147
-118,395	-200,000	-0,015	0,074
-117,380	155,356	0,069	0,068
-116,366	518,461	-0,040	0,068
-115,351	577,587	0,032	0,056
-114,337	800,000	0,030	0,074
-113,322	387,197	-0,025	-0,037
-112,307	800,000	-0,020	0,049
-111,293	676,592	0,044	-0,082
-110,278	-64,381	-0,161	0,046
-109,264	71,428	0,070	-0,051
-108,249	249,220	-0,006	0,007
-107,234	-200,000	-0,017	-0,098
-106,220	800,000	-0,058	-0,172
-105,205	1,148	0,124	-0,063
-104,191	87,552	0,070	-0,055
-103,176	40,940	-0,050	0,032
-102,162	-200,000	-0,023	-0,097
-101,147	-200,000	-0,006	0,023
-100,132	68,233	-0,035	-0,025
-99,118	157,763	-0,143	0,141
-98,103	34,205	-0,043	-0,026
-97,089	800,000	0,008	-0,022
-96,074	73,459	0,092	0,068
-95,059	800,000	-0,023	-0,069
-94,045	-200,000	-0,006	0,101
-93,030	14,434	0,209	-0,115
-92,016	67,245	-0,170	-0,123
-91,001	-200,000	0,000	-0,012
-89,986	800,000	0,021	0,054
-88,972	-200,000	0,006	-0,092
-87,957	239,061	0,053	0,062
-86,943	-200,000	0,031	0,145
-85,928	-75,049	-0,220	-0,055
-84,913	-200,000	0,014	-0,066
-83,899	800,000	-0,003	0,010
-82,884	187,654	0,049	0,052
-81,870	-34,868	-0,068	-0,026
-80,855	526,976	0,048	0,081
-79,840	-200,000	-0,013	0,072
-78,826	708,847	-0,042	0,079
-77,811	523,090	-0,052	-0,088
-76,797	-40,208	0,031	-0,011
-75,782	499,882	-0,085	-0,140
-74,767	800,000	-0,027	-0,079
-73,753	131,629	-0,042	0,038
-72,738	-91,109	-0,071	-0,014
-71,724	86,359	0,103	-0,080
-70,709	-1,643	-0,100	0,050
-69,694	-41,625	-0,104	0,038
-68,680	800,000	-0,029	-0,085
-67,665	94,560	0,044	-0,036
-66,651	800,000	0,030	-0,082
-65,636	-48,868	-0,141	-0,048
-64,622	-200,000	-0,014	-0,094
-63,607	-200,000	0,015	-0,076
-62,592	800,000	-0,034	-0,081
-61,578	348,691	0,064	-0,090
-60,563	-65,363	0,116	0,033
-59,549	800,000	0,036	0,095
-58,534	-27,713	-1,499	-0,614
-57,519	380,269	-1,424	-2,077
-56,505	-200,000	-0,441	-4,423
-55,490	246,683	0,871	1,043
-54,476	800,000	4,784	11,190
-53,461	-200,000	18,349	290,131
-52,446	800,000	728,398	2239,038
-51,432	557,984	1644,348	2822,073
-50,417	79,119	1665,299	1263,181
-49,403	22,688	1539,227	890,974
-48,388	16,698	1462,178	817,339
-47,373	17,861	1452,062	817,258
-46,359	17,222	1442,494	808,784
-45,344	14,983	1437,857	795,451
-44,330	14,907	1435,854	793,951
-43,315	14,929	1434,128	793,068
-42,300	14,924	1432,530	792,127
-41,286	14,951	1431,360	791,580
-40,271	14,923	1430,007	790,666
-39,257	14,880	1428,920	789,828
-38,242	14,919	1427,649	789,283
-37,227	14,952	1426,119	788,559
-36,213	14,975	1424,898	787,963
-35,198	14,930	1423,886	787,161
-34,184	14,980	1422,985	786,868
-33,169	14,918	1421,757	785,865
-32,154	14,971	1420,691	785,495
-31,140	15,004	1419,088	784,733
-30,125	14,968	1418,041	783,951
-29,111	14,947	1416,928	783,208
-28,096	14,944	1416,027	782,661
-27,082	14,893	1414,823	781,729
-26,067	14,876	1413,682	780,986
-25,052	14,854	1412,704	780,309
-24,038	14,871	1411,724	779,818
-23,023	14,823	1410,784	779,041
-22,009	14,846	1409,690	778,516
-20,994	14,828	1408,762	777,888
-19,979	14,818	1407,848	777,305
-18,965	14,807	1407,043	776,780
-17,950	14,800	1406,085	776,185
-16,936	14,796	1405,072	775,578
-15,921	14,759	1403,966	774,764
-14,906	14,761	1402,957	774,187
-13,892	14,806	1402,176	773,935
-12,877	14,773	1401,178	773,196
-11,863	14,795	1400,276	772,773
-10,848	14,789	1399,494	772,280
-9,833	14,758	1398,611	771,622
-8,819	14,739	1397,464	770,870
-7,804	14,706	1396,703	770,267
-6,790	14,678	1395,627	769,511
-5,775	14,665	1394,692	768,905
-4,760	14,685	1393,668	768,404
-3,746	14,682	1392,911	767,940
-2,731	14,698	1392,246	767,617
-1,717	14,643	1391,168	766,736
-0,702	14,691	1389,305	765,903
0,313	18,430	1308,339	738,601
1,327	34,711	706,178	436,401
2,342	52,762	124,595	84,224
3,356	3,730	16,650	8,581
4,371	-4,274	3,213	1,569
5,386	31,521	0,453	0,275
6,400	-78,520	0,196	0,047
7,415	195,271	-0,188	-0,202
8,429	34,627	-0,273	-0,169
9,444	-19,591	-0,451	-0,197
10,459	122,515	-0,235	-0,208
11,473	7,964	-0,321	-0,170
12,488	-21,688	-0,220	-0,095
13,502	-14,794	-0,389	-0,176
14,517	25,799	-0,312	-0,184
15,531	98,714	-0,327	-0,267
16,546	-36,060	-0,277	-0,105
17,561	245,393	-0,289	-0,345
18,575	-9,292	-0,171	-0,081
19,590	80,506	-0,255	-0,194
20,604	-88,139	-0,276	-0,058
21,619	31,538	-0,368	-0,223
22,634	87,273	-0,347	-0,271
23,648	25,909	-0,488	-0,287
24,663	119,873	-0,396	-0,347
25,677	92,632	-0,360	-0,287
26,692	222,880	-0,221	-0,252
27,707	168,558	-0,321	-0,324
28,721	-25,733	-0,429	-0,178
29,736	134,745	-0,344	-0,316
30,750	141,626	-0,370	-0,346
31,765	295,464	-0,274	-0,355
32,780	257,203	-0,214	-0,260
33,794	77,206	-0,320	-0,240
34,809	116,613	-0,325	-0,281
35,823	53,502	-0,325	-0,220
36,838	-67,841	-0,414	-0,113
37,853	27,244	-0,387	-0,229
38,867	36,371	-0,283	-0,176
39,882	16,443	-0,345	-0,192
40,896	127,458	-0,304	-0,272
41,911	144,753	-0,259	-0,245
42,926	92,809	-0,215	-0,171
43,940	46,900	-0,291	-0,191
44,955	220,409	-0,231	-0,261
45,969	-33,664	-0,386	-0,149
46,984	50,850	-0,266	-0,177
47,999	201,361	-0,169	-0,184
49,013	11,537	-0,320	-0,173
50,028	118,711	-0,281	-0,245
51,042	76,309	-0,399	-0,298
52,057	103,138	-0,313	-0,259
53,071	2,728	-0,341	-0,174
54,086	-28,774	-0,405	-0,163
55,101	274,245	-0,281	-0,351
56,115	16,104	-0,305	-0,169
57,130	74,311	-0,312	-0,231
58,144	31,467	-0,466	-0,282
59,159	104,036	-0,369	-0,305
60,174	611,892	-0,259	-0,458
61,188	247,444	-0,226	-0,270
62,203	245,106	-0,213	-0,252
63,217	10,789	-0,400	-0,215
64,232	105,645	-0,291	-0,242
65,247	259,877	-0,329	-0,401
66,261	12,318	-0,450	-0,243
67,276	31,548	-0,392	-0,237
68,290	41,530	-0,333	-0,212
69,305	800,000	-0,150	-0,311
70,320	58,972	-0,174	-0,121
71,334	-23,250	-0,428	-0,181
72,349	39,200	-0,391	-0,246
73,363	176,358	-0,230	-0,235
74,378	25,694	-0,407	-0,238
75,393	119,352	-0,256	-0,223
76,407	50,234	-0,342	-0,227
77,422	-12,764	-0,456	-0,208
78,436	8,033	-0,323	-0,170
79,451	-7,855	-0,290	-0,137
80,466	0,998	-0,336	-0,169
81,480	167,595	-0,264	-0,264
82,495	188,357	-0,287	-0,302
83,509	185,604	-0,294	-0,308
84,524	4,762	-0,287	-0,148
85,539	-66,684	-0,228	-0,063
86,553	179,764	-0,292	-0,301
87,568	90,402	-0,316	-0,248
88,582	-56,030	-0,422	-0,131
89,597	388,758	-0,239	-0,348
90,611	261,830	-0,185	-0,225
91,626	50,565	-0,282	-0,187
92,641	-147,426	-0,093	0,005
93,655	5,377	-0,267	-0,138
94,670	359,217	-0,246	-0,347
95,684	33,700	-0,362	-0,220
96,699	-35,106	-0,427	-0,163
97,714	548,660	-0,171	-0,288
98,728	308,890	-0,187	-0,245
99,743	22,039	-0,275	-0,157
100,757	-11,477	-0,327	-0,151
101,772	71,552	-0,313	-0,228
102,787	264,797	-0,320	-0,392
103,801	241,378	-0,220	-0,258
104,816	256,151	-0,238	-0,288
105,830	120,648	-0,314	-0,274
106,845	18,552	-0,383	-0,214
107,860	10,755	-0,260	-0,139
108,874	41,006	-0,371	-0,235
109,889	-3,150	-0,287	-0,140
110,903	-93,036	-0,385	-0,075
111,918	-42,588	-0,324	-0,115
112,933	130,185	-0,223	-0,200
113,947	179,705	-0,222	-0,228
114,962	30,227	-0,252	-0,150
115,976	81,672	-0,125	-0,095
116,991	170,840	-0,207	-0,208
118,006	800,000	-0,168	-0,358
119,020	-53,904	-0,294	-0,093
120,035	-119,630	-0,231	-0,028
121,049	288,717	-0,193	-0,246
122,064	64,737	-0,164	-0,116
123,079	-98,529	-0,165	-0,029
124,093	129,135	-0,281	-0,251
125,108	114,023	-0,288	-0,246
126,122	32,893	-0,318	-0,193
127,137	50,335	-0,206	-0,136
128,151	-4,787	-0,262	-0,126
129,166	200,773	-0,145	-0,156
130,181	-34,375	-0,273	-0,105
131,195	26,713	-0,199	-0,116
132,210	-98,198	-0,205	-0,036
133,224	-37,686	-0,318	-0,118
134,239	-28,469	-0,188	-0,076
135,254	-13,321	-0,377	-0,171
136,268	400,526	-0,153	-0,225
137,283	152,666	-0,212	-0,203
138,297	156,350	-0,179	-0,173
139,312	100,347	-0,391	-0,318
140,327	0,030	-0,362	-0,180
141,341	35,711	-0,246	-0,151
142,356	279,274	-0,149	-0,186
143,370	303,277	-0,152	-0,197
144,385	44,881	-0,206	-0,133
145,400	-0,536	-0,351	-0,174
146,414	78,905	-0,226	-0,169
147,429	0,976	-0,327	-0,163
148,443	490,464	-0,142	-0,228
149,458	444,440	-0,090	-0,139
150,473	800,000	-0,127	-0,327
151,487	268,098	-0,130	-0,159
152,502	800,000	-0,136	-0,356
153,516	-12,586	-0,278	-0,126
154,531	73,542	-0,231	-0,169
155,546	225,419	-0,289	-0,327
156,560	130,007	-0,242	-0,216
157,575	-97,424	-0,191	-0,034
158,589	104,169	-0,192	-0,158
159,604	99,493	-0,254	-0,205
160,619	-62,180	-0,337	-0,097
161,633	74,417	-0,252	-0,185
162,648	166,983	-0,278	-0,276
163,662	279,588	-0,181	-0,226
164,677	-200,000	-0,097	-0,336
165,692	403,273	-0,122	-0,180
166,706	172,712	-0,271	-0,273
167,721	6,821	-0,265	-0,137
168,735	-19,970	-0,214	-0,092
169,750	48,470	-0,222	-0,145
170,764	536,578	-0,160	-0,266
171,779	33,846	-0,225	-0,136
172,794	-123,360	-0,215	0,024
173,808	-55,369	-0,155	-0,048
174,823	-9,626	-0,266	-0,123
175,837	159,956	-0,282	-0,274
176,852	218,572	-0,276	-0,307
177,867	800,000	-0,132	-0,310
178,881	800,000	-0,111	-0,238
179,896	800,000	-0,094	-0,196
180,910	126,725	-0,172	-0,152
181,925	12,526	-0,377	-0,202
182,940	155,640	-0,272	-0,261
183,954	103,143	-0,201	-0,164
184,969	340,198	-0,201	-0,274
185,983	45,635	-0,216	-0,139
186,998	-113,128	-0,194	0,026
188,013	-52,496	-0,107	-0,034
189,027	336,628	-0,147	-0,199
190,042	800,000	-0,057	-0,149
191,056	58,295	-0,195	-0,133
192,071	287,852	-0,129	-0,164
193,086	45,589	-0,241	-0,155
194,100	-53,176	-0,204	0,065
195,115	173,468	-0,134	-0,135
196,129	104,846	-0,205	-0,168
197,144	270,451	-0,204	-0,251
198,159	54,554	-0,248	-0,166
199,173	-78,541	-0,225	-0,053
200,188	800,000	-0,093	-0,213
201,202	-77,071	-0,271	-0,065
202,217	-38,349	-0,317	-0,116
203,232	134,852	-0,214	-0,193
204,246	266,351	-0,203	-0,247
205,261	52,436	-0,282	-0,187
206,275	23,025	-0,196	-0,112
207,290	-48,939	-0,131	-0,043
208,304	346,609	-0,067	-0,091
209,319	800,000	-0,159	-0,322
210,334	489,394	-0,166	-0,265
211,348	-200,000	-0,099	-0,305
212,363	-141,677	-0,199	-0,014
213,377	107,841	-0,193	-0,160
214,392	109,379	-0,104	0,086
215,407	-82,350	-0,163	-0,036
216,421	-60,382	-0,152	0,045
217,436	43,260	-0,222	-0,141
218,450	800,000	-0,065	-0,192
219,465	197,079	-0,225	-0,239
220,480	-71,970	-0,273	-0,070
221,494	431,124	-0,166	-0,250
222,509	-98,612	-0,157	0,028
223,523	63,221	-0,169	0,118
224,538	-200,000	-0,023	-0,143
225,553	45,274	-0,207	-0,132
226,567	-65,183	-0,335	-0,093
227,582	331,160	-0,155	-0,208
228,596	-1,061	-0,203	0,099
229,611	-160,710	-0,137	-0,005
230,626	121,881	-0,173	-0,150
231,640	490,615	-0,193	-0,307
232,655	151,705	-0,165	-0,156
233,669	800,000	-0,059	-0,162
234,684	299,748	-0,132	-0,169
235,699	-200,000	-0,049	-0,182
236,713	-51,003	-0,134	-0,043
237,728	170,716	-0,097	-0,097
238,742	-200,000	-0,041	-0,130
239,757	25,141	-0,138	-0,079
240,772	74,123	-0,338	-0,246
241,786	666,810	-0,124	-0,223
242,801	106,348	-0,225	-0,185
243,815	318,762	-0,184	-0,243
244,830	135,242	-0,128	-0,115
245,844	-190,241	-0,142	-0,001
246,859	76,660	-0,233	-0,171
247,874	436,030	-0,256	-0,387
248,888	529,347	-0,117	-0,193
249,903	608,027	-0,118	-0,205
250,917	595,356	-0,138	-0,237
251,932	800,000	-0,047	-0,106
252,947	39,372	-0,253	-0,157
253,961	-3,056	-0,283	-0,136
254,976	-200,000	-0,091	-0,337
255,990	505,147	-0,197	-0,318
257,005	280,318	-0,119	-0,147
258,020	30,960	-0,069	-0,041
259,034	23,682	-0,111	-0,063
260,049	-108,740	-0,276	-0,041
261,063	-5,636	-0,234	-0,111
262,078	40,129	-0,275	-0,171
263,093	277,738	-0,214	-0,265
264,107	252,760	-0,182	-0,215
265,122	53,454	-0,149	-0,099
266,136	52,045	-0,221	-0,146
267,151	-200,000	-0,005	-0,106
268,166	90,905	-0,080	-0,062
269,180	54,040	-0,297	-0,197
270,195	-12,664	-0,203	-0,091
271,209	101,900	-0,078	-0,063
272,224	-200,000	-0,000	-0,288
273,239	8,413	-0,119	-0,062
274,253	587,557	-0,020	-0,035
275,268	237,711	-0,135	-0,155
276,282	800,000	-0,084	-0,214
277,297	-104,657	-0,190	-0,030
278,312	201,150	-0,190	-0,203
279,326	-101,976	-0,226	-0,037
280,341	148,743	-0,166	-0,155
281,355	91,997	-0,103	-0,080
282,370	800,000	-0,105	-0,284
283,384	53,250	-0,207	-0,137
284,399	7,108	-0,171	-0,088
285,414	-43,570	-0,305	-0,106
286,428	-200,000	-0,038	-0,154
287,443	-200,000	0,015	-0,081
288,457	317,828	-0,135	-0,176
289,472	428,672	-0,220	-0,330
290,487	-38,665	-0,135	-0,049
291,501	717,203	-0,120	-0,222
292,516	-70,265	-0,146	-0,038
293,530	55,648	-0,197	-0,132
294,545	261,614	-0,063	-0,076
295,560	26,200	-0,143	-0,082
296,574	21,205	-0,165	-0,092
297,589	0,540	-0,196	-0,096
298,603	-55,283	-0,281	-0,087
299,618	-114,766	-0,171	-0,022
300,633	733,198	-0,056	-0,104
301,647	411,623	-0,040	-0,059
302,662	-146,404	-0,057	0,003
303,676	-58,339	-0,149	0,044
304,691	141,069	-0,130	-0,118
305,706	3,239	-0,116	-0,058
306,720	355,871	-0,110	-0,151
307,735	345,901	-0,092	-0,124
308,749	800,000	-0,046	-0,135
309,764	72,030	-0,104	-0,074
310,779	-200,000	-0,034	-0,222
311,793	800,000	-0,092	-0,186
312,808	309,741	-0,129	-0,166
313,822	-200,000	-0,024	-0,171
314,837	800,000	-0,066	-0,131
315,852	569,326	-0,118	-0,199
316,866	-200,000	-0,004	-0,183
317,881	523,204	-0,007	0,011
318,895	184,273	-0,173	-0,176
319,910	132,029	-0,146	-0,129
320,925	-5,588	-0,103	0,049
321,939	-40,182	-0,183	-0,065
322,954	-63,282	-0,236	-0,067
323,968	-49,280	-0,091	-0,030
324,983	-200,000	-0,026	-0,143
325,997	800,000	-0,085	-0,227
327,012	500,349	-0,106	-0,169
328,027	319,021	-0,107	-0,140
329,041	800,000	-0,053	-0,127
330,056	521,550	-0,123	-0,200
331,070	172,065	-0,084	-0,083
332,085	132,216	-0,090	-0,080
333,100	251,858	-0,133	-0,156
334,114	26,837	-0,234	-0,135
335,129	72,858	-0,186	-0,133
336,143	-43,969	-0,233	-0,080
337,158	456,352	-0,108	-0,165
338,173	-119,149	-0,153	-0,018
339,187	245,566	-0,019	0,022
340,202	247,749	-0,124	-0,144
341,216	105,976	-0,153	-0,124
342,231	-200,000	-0,032	-0,131
343,246	-127,768	-0,145	-0,014
344,260	-200,000	-0,012	-0,076
345,275	43,717	-0,150	-0,094
346,289	-18,977	-0,043	-0,018
347,304	96,072	-0,092	-0,072
348,319	160,608	-0,190	-0,183
349,333	82,940	-0,231	-0,172
350,348	502,806	-0,104	-0,165
351,362	-136,760	-0,204	0,016
352,377	189,421	-0,055	-0,056
353,392	498,997	-0,112	-0,178
354,406	233,590	-0,117	-0,132
355,421	209,057	1312,436	1412,974
356,435	160,886	1472,895	1413,485
