DTS Sentinel unit serial number:	SN410029Multiplexer serial number:	ORYXHardware model number:	OX2-SRSoftware version number:	ORYX F/W v4,00 Oryx Data Collector v3.7.2.0data status	okinstallation	B3 Nyhavnadifferential loss correction	single-endedforward channel	channel 1reverse channel	N/Adate	2023/12/04time	20:22:30forward acquisition time	300,00reverse acquisition time	0,00gamma	499,1914k internal	0,3200k external	0,3200temperature offset calibration	1,0000default loss term (dB/km)	0,3820temperature slope calibration	1,0000multiplexer offset coefficient	1,0000multiplexer slope coefficient	1,0000fibre end	0,00T internal ref (°C)	14,44T ext. ref 1 (°C)	-0,54T ext. ref 2 (°C)	-0,57length (m)	temperature (°C)	Stokes	anti-Stokes-744,400	276,683	-0,293	-0,379
-743,385	-200,000	-0,006	0,338
-742,371	224,000	-0,104	-0,123
-741,356	-200,000	0,024	0,416
-740,342	800,000	-0,041	-0,117
-739,327	-200,000	0,077	0,364
-738,312	147,262	-0,344	-0,337
-737,298	800,000	-0,063	0,146
-736,283	91,067	-0,230	-0,188
-735,269	-200,000	0,094	0,325
-734,254	19,735	-0,237	-0,138
-733,239	-2,679	-0,260	0,132
-732,225	177,208	-0,137	-0,146
-731,210	-200,000	0,045	0,199
-730,196	691,169	-0,024	0,046
-729,181	471,372	-0,119	-0,196
-728,167	317,705	-0,097	-0,134
-727,152	110,159	-0,034	-0,030
-726,137	-56,111	-0,169	-0,054
-725,123	-14,288	-0,102	0,047
-724,108	-24,351	-0,122	-0,053
-723,094	-200,000	0,009	0,030
-722,079	800,000	-0,056	-0,117
-721,064	253,355	-0,053	-0,066
-720,050	-173,822	-0,044	0,001
-719,035	566,368	-0,039	-0,068
-718,021	800,000	0,013	-0,037
-717,006	-200,000	-0,009	-0,097
-715,991	-106,922	-0,018	0,003
-714,977	800,000	-0,061	-0,155
-713,962	-158,312	0,056	0,002
-712,948	330,407	-0,030	-0,043
-711,933	-104,207	-0,064	0,011
-710,918	-35,578	-0,119	-0,047
-709,904	-49,611	0,058	0,020
-708,889	423,975	0,003	0,004
-707,875	2,822	-0,035	-0,018
-706,860	800,000	0,021	-0,067
-705,845	21,288	0,134	0,079
-704,831	-200,000	0,008	0,155
-703,816	-43,986	-0,065	0,024
-702,802	-200,000	-0,008	-0,035
-701,787	-162,534	-0,146	-0,005
-700,772	77,653	-0,058	-0,045
-699,758	91,789	0,126	-0,103
-698,743	-200,000	0,039	0,148
-697,729	-200,000	-0,027	-0,092
-696,714	585,100	0,031	0,055
-695,699	9,411	0,050	-0,027
-694,685	-127,329	0,053	-0,006
-693,670	800,000	-0,032	0,090
-692,656	90,888	-0,039	-0,031
-691,641	-29,820	-0,035	0,015
-690,627	71,419	0,053	-0,040
-689,612	122,097	-0,111	-0,100
-688,597	168,507	0,077	-0,079
-687,583	69,765	0,065	0,049
-686,568	-200,000	0,017	-0,053
-685,554	800,000	-0,023	-0,061
-684,539	113,190	-0,059	-0,052
-683,524	67,686	0,044	-0,032
-682,510	-200,000	-0,012	0,077
-681,495	-140,524	-0,076	0,006
-680,481	62,310	0,061	-0,044
-679,466	800,000	0,034	0,098
-678,451	-0,153	-0,147	-0,076
-677,437	73,243	0,079	-0,060
-676,422	49,090	0,050	0,034
-675,408	2,439	-0,072	-0,038
-674,393	164,389	0,078	-0,079
-673,378	203,525	-0,104	-0,117
-672,364	171,850	-0,073	-0,076
-671,349	490,717	-0,070	-0,117
-670,335	95,895	0,043	-0,035
-669,320	-200,000	0,044	-0,157
-668,305	-200,000	-0,009	0,028
-667,291	-40,623	-0,096	-0,036
-666,276	95,213	-0,056	0,046
-665,262	359,402	-0,095	-0,139
-664,247	-200,000	0,006	-0,041
-663,232	114,321	-0,058	0,051
-662,218	30,835	-0,120	0,075
-661,203	-102,725	0,022	0,004
-660,189	800,000	0,017	-0,041
-659,174	-148,189	-0,204	-0,012
-658,159	-145,542	-0,071	0,005
-657,145	-67,271	-0,094	-0,027
-656,130	125,892	-0,152	-0,139
-655,116	800,000	0,028	-0,077
-654,101	800,000	-0,035	-0,093
-653,086	-154,133	-0,079	0,004
-652,072	-41,620	-0,063	0,023
-651,057	-200,000	0,017	0,074
-650,043	-200,000	0,028	-0,163
-649,028	182,184	-0,039	0,042
-648,014	800,000	-0,049	0,113
-646,999	-142,411	0,045	-0,003
-645,984	57,322	-0,061	-0,043
-644,970	420,225	-0,039	-0,061
-643,955	644,036	-0,041	0,076
-642,941	148,641	-0,208	-0,203
-641,926	33,264	-0,051	-0,032
-640,911	687,609	-0,064	-0,121
-639,897	-10,270	0,024	0,011
-638,882	-200,000	0,007	-0,140
-637,868	-200,000	0,007	-0,027
-636,853	752,987	0,093	-0,183
-635,838	277,093	0,024	-0,032
-634,824	-200,000	0,011	-0,236
-633,809	743,797	0,071	-0,139
-632,795	663,299	0,021	0,039
-631,780	-84,190	0,086	0,020
-630,765	-34,956	-0,114	-0,045
-629,751	-39,117	-0,110	-0,042
-628,736	575,869	-0,048	-0,086
-627,722	52,874	0,109	0,075
-626,707	467,024	-0,056	0,091
-625,692	-188,131	-0,111	0,001
-624,678	26,376	0,074	-0,045
-623,663	303,319	0,038	-0,051
-622,649	-200,000	-0,024	-0,138
-621,634	800,000	0,004	-0,008
-620,619	800,000	0,049	-0,102
-619,605	88,901	-0,050	0,041
-618,590	-200,000	0,048	0,191
-617,576	722,179	-0,028	-0,055
-616,561	-200,000	0,036	0,129
-615,546	226,450	-0,038	-0,044
-614,532	-106,054	-0,174	-0,028
-613,517	32,258	-0,052	0,033
-612,503	-200,000	-0,028	-0,126
-611,488	-88,090	0,088	0,019
-610,474	6,482	-0,019	-0,010
-609,459	-141,958	-0,136	-0,010
-608,444	-132,593	-0,188	0,017
-607,430	-200,000	-0,028	-0,113
-606,415	800,000	0,060	-0,131
-605,401	-99,447	-0,040	0,007
-604,386	-108,475	-0,074	0,011
-603,371	621,696	-0,020	-0,037
-602,357	800,000	0,050	0,113
-601,342	-101,213	0,051	0,009
-600,328	98,525	-0,068	-0,057
-599,313	800,000	-0,028	0,079
-598,298	-80,140	0,135	-0,033
-597,284	-200,000	0,024	0,106
-596,269	-200,000	0,035	-0,117
-595,255	74,625	-0,069	-0,052
-594,240	-131,579	-0,094	-0,009
-593,225	-127,360	-0,220	0,023
-592,211	-200,000	-0,002	0,012
-591,196	82,936	0,099	0,078
-590,182	800,000	-0,045	0,102
-589,167	109,509	-0,048	0,041
-588,152	-62,564	0,070	-0,021
-587,138	800,000	0,025	-0,057
-586,123	-161,459	-0,084	0,003
-585,109	-200,000	-0,014	-0,145
-584,094	70,978	0,081	-0,061
-583,079	227,144	-0,014	-0,017
-582,065	42,393	-0,015	-0,010
-581,050	-2,084	-0,108	0,055
-580,036	-13,612	-0,031	-0,015
-579,021	-107,114	0,150	-0,024
-578,006	-29,455	-0,059	-0,024
-576,992	360,111	0,049	0,071
-575,977	-121,885	0,033	-0,004
-574,963	76,251	-0,021	0,016
-573,948	-200,000	-0,011	0,126
-572,934	686,030	0,016	0,030
-571,919	-58,197	-0,040	0,013
-570,904	-48,266	-0,077	0,027
-569,890	-200,000	0,029	-0,122
-568,875	-108,159	0,087	0,013
-567,861	111,517	0,150	0,130
-566,846	1,668	0,017	0,009
-565,831	-47,079	-0,011	-0,004
-564,817	-7,303	0,081	0,039
-563,802	-200,000	-0,001	-0,036
-562,788	131,765	-0,041	0,039
-561,773	800,000	0,057	-0,142
-560,758	-104,550	0,106	0,018
-559,744	-200,000	-0,008	-0,067
-558,729	763,146	0,028	-0,055
-557,715	19,281	-0,037	-0,021
-556,700	-127,214	0,072	-0,008
-555,685	185,381	0,119	0,127
-554,671	-79,774	-0,048	-0,012
-553,656	-102,430	0,126	0,022
-552,642	-200,000	-0,013	0,051
-551,627	-70,092	-0,030	0,008
-550,612	-134,005	-0,063	-0,006
-549,598	75,053	0,048	0,037
-548,583	-42,689	-0,136	0,050
-547,569	-200,000	0,006	0,095
-546,554	77,079	0,036	0,028
-545,539	-200,000	-0,002	-0,026
-544,525	-78,605	0,126	0,031
-543,510	-112,195	0,174	0,025
-542,496	470,238	0,022	-0,036
-541,481	219,767	-0,111	-0,129
-540,466	55,086	0,096	-0,067
-539,452	-200,000	0,001	-0,121
-538,437	-87,124	0,082	0,018
-537,423	206,916	-0,068	-0,076
-536,408	6,268	0,065	0,035
-535,393	202,406	-0,033	0,037
-534,379	-200,000	-0,009	-0,082
-533,364	26,870	-0,027	-0,016
-532,350	-68,491	0,015	-0,004
-531,335	-8,184	-0,039	-0,019
-530,321	265,329	0,039	-0,049
-529,306	800,000	-0,011	-0,022
-528,291	183,484	0,001	0,001
-527,277	-6,842	0,104	0,051
-526,262	264,254	-0,005	0,007
-525,248	800,000	0,050	-0,105
-524,233	536,598	0,041	-0,071
-523,218	800,000	-0,040	0,085
-522,204	-200,000	0,005	-0,034
-521,189	209,894	-0,048	0,054
-520,175	-200,000	-0,012	0,097
-519,160	-122,197	-0,096	0,011
-518,145	-82,806	0,122	0,028
-517,131	-144,748	-0,070	0,005
-516,116	654,727	-0,031	-0,058
-515,102	122,248	-0,045	-0,040
-514,087	-89,918	-0,082	-0,017
-513,072	-81,598	-0,147	-0,034
-512,058	-200,000	0,001	0,132
-511,043	-29,884	0,138	-0,056
-510,029	-200,000	-0,011	0,043
-509,014	-200,000	-0,025	0,087
-507,999	-25,999	0,111	0,047
-506,985	-103,477	-0,023	0,004
-505,970	-28,795	-0,085	0,035
-504,956	-35,866	-0,054	0,021
-503,941	-200,000	0,041	-0,229
-502,926	-200,000	0,007	0,043
-501,912	193,445	0,089	0,097
-500,897	800,000	-0,024	-0,063
-499,883	105,642	0,114	-0,097
-498,868	800,000	-0,024	-0,055
-497,853	-144,140	-0,137	0,009
-496,839	800,000	-0,043	0,088
-495,824	-145,397	0,190	0,012
-494,810	-21,899	0,184	0,080
-493,795	-27,472	-0,077	0,032
-492,781	-18,406	-0,126	0,056
-491,766	-200,000	0,023	-0,088
-490,751	0,737	-0,133	-0,069
-489,737	142,104	0,056	-0,054
-488,722	-86,118	0,115	-0,025
-487,708	126,001	0,051	-0,046
-486,693	276,655	-0,042	-0,054
-485,678	-200,000	-0,014	0,058
-484,664	-200,000	-0,005	-0,113
-483,649	-200,000	-0,001	-0,083
-482,635	83,383	-0,051	-0,040
-481,620	-133,752	0,131	0,012
-480,605	429,787	0,058	0,091
-479,591	-200,000	-0,017	0,098
-478,576	47,414	0,114	0,076
-477,562	800,000	0,036	0,083
-476,547	89,829	0,103	-0,083
-475,532	-172,693	0,135	-0,003
-474,518	-133,338	0,109	-0,010
-473,503	-95,943	-0,060	0,011
-472,489	-200,000	-0,013	0,083
-471,474	-18,011	0,154	0,069
-470,459	-35,470	-0,068	0,026
-469,445	203,742	-0,032	-0,036
-468,430	800,000	-0,075	0,186
-467,416	-0,520	-0,059	-0,030
-466,401	800,000	0,064	-0,156
-465,386	31,427	0,105	-0,065
-464,372	800,000	-0,011	0,032
-463,357	-145,816	-0,183	-0,012
-462,343	800,000	-0,005	-0,010
-461,328	140,411	0,056	-0,054
-460,313	-200,000	0,017	-0,080
-459,299	800,000	-0,050	-0,141
-458,284	295,153	0,048	0,063
-457,270	-65,366	-0,047	0,014
-456,255	-200,000	-0,019	0,079
-455,241	-200,000	0,002	-0,022
-454,226	-200,000	0,019	-0,073
-453,211	354,196	0,020	-0,029
-452,197	-96,917	0,058	0,011
-451,182	69,744	-0,066	-0,049
-450,168	124,361	0,128	0,116
-449,153	34,703	0,015	0,010
-448,138	171,470	-0,056	-0,057
-447,124	192,138	0,041	-0,045
-446,109	298,287	-0,106	-0,141
-445,095	-38,377	-0,045	0,017
-444,080	-200,000	-0,024	0,123
-443,065	-89,958	-0,072	0,015
-442,051	-200,000	0,009	-0,080
-441,036	800,000	-0,052	-0,119
-440,022	202,101	0,101	-0,112
-439,007	-140,941	0,072	0,005
-437,992	-12,849	-0,089	0,042
-436,978	75,444	0,090	-0,068
-435,963	800,000	-0,033	0,072
-434,949	138,590	0,021	-0,020
-433,934	-72,608	-0,048	-0,013
-432,919	-200,000	-0,001	-0,013
-431,905	-115,792	0,139	-0,019
-430,890	-200,000	0,002	0,047
-429,876	-135,004	-0,031	-0,003
-428,861	-200,000	0,034	0,178
-427,846	-50,880	0,100	0,034
-426,832	398,818	0,013	-0,020
-425,817	-200,000	0,008	0,050
-424,803	-200,000	-0,014	-0,077
-423,788	-200,000	0,023	-0,089
-422,773	-48,857	0,167	0,057
-421,759	100,296	-0,025	-0,021
-420,744	800,000	-0,039	-0,108
-419,730	80,147	0,067	0,052
-418,715	-135,372	-0,048	0,004
-417,701	-107,928	0,014	-0,002
-416,686	94,980	-0,094	-0,077
-415,671	178,552	0,026	0,027
-414,657	-200,000	-0,021	0,072
-413,642	302,973	-0,033	0,045
-412,628	-91,472	-0,035	0,007
-411,613	146,230	-0,018	-0,017
-410,598	-156,039	-0,112	0,005
-409,584	-200,000	0,027	0,160
-408,569	-200,000	0,011	0,131
-407,555	-163,582	0,063	0,002
-406,540	774,631	-0,076	-0,149
-405,525	800,000	-0,055	-0,155
-404,511	-92,867	-0,108	-0,021
-403,496	19,532	-0,087	-0,050
-402,482	-200,000	-0,014	0,118
-401,467	31,781	-0,081	0,050
-400,452	800,000	0,023	0,056
-399,438	-2,727	0,058	-0,029
-398,423	-200,000	-0,041	-0,129
-397,409	406,767	-0,064	0,098
-396,394	800,000	-0,027	0,059
-395,379	249,143	-0,057	-0,070
-394,365	-200,000	-0,008	-0,047
-393,350	794,407	-0,038	-0,076
-392,336	402,131	0,056	-0,084
-391,321	96,013	-0,043	0,035
-390,306	-200,000	0,030	-0,157
-389,292	-200,000	-0,017	0,113
-388,277	-16,398	0,029	-0,013
-387,263	-43,231	0,020	0,007
-386,248	11,115	0,209	0,115
-385,233	200,221	-0,027	0,030
-384,219	30,365	-0,038	0,023
-383,204	-27,534	-0,118	0,049
-382,190	-56,433	0,027	0,009
-381,175	800,000	0,026	-0,077
-380,160	-64,495	-0,096	0,028
-379,146	-51,210	0,145	-0,049
-378,131	-10,784	-0,062	-0,029
-377,117	-200,000	0,016	0,070
-376,102	-200,000	-0,031	-0,110
-375,088	-0,931	-0,122	-0,062
-374,073	-79,220	-0,042	-0,010
-373,058	76,444	-0,029	0,022
-372,044	-52,096	0,180	0,059
-371,029	64,216	-0,069	0,050
-370,015	-104,376	0,123	-0,020
-369,000	-11,166	0,109	-0,051
-367,985	-77,562	-0,105	0,026
-366,971	-127,866	0,076	-0,008
-365,956	112,243	0,096	-0,084
-364,942	-200,000	0,008	0,043
-363,927	800,000	-0,054	0,139
-362,912	-92,331	0,116	-0,023
-361,898	-47,097	0,160	0,056
-360,883	12,596	-0,053	-0,029
-359,869	-37,005	-0,020	0,007
-358,854	-105,916	0,114	0,018
-357,839	800,000	-0,022	0,061
-356,825	-200,000	-0,013	0,143
-355,810	-200,000	-0,009	-0,033
-354,796	46,547	0,048	0,032
-353,781	87,727	0,037	0,029
-352,766	-97,524	-0,079	0,015
-351,752	554,693	0,026	-0,044
-350,737	240,552	-0,073	-0,087
-349,723	-115,759	0,154	-0,020
-348,708	-200,000	0,007	0,097
-347,693	-62,326	-0,038	0,011
-346,679	140,695	0,004	-0,004
-345,664	-124,303	-0,083	-0,009
-344,650	800,000	0,021	0,063
-343,635	148,041	0,018	0,017
-342,620	-200,000	-0,003	0,121
-341,606	-122,392	0,054	0,006
-340,591	186,204	0,060	0,064
-339,577	111,649	-0,129	-0,112
-338,562	-79,402	-0,134	0,032
-337,548	-75,280	-0,087	0,022
-336,533	97,483	-0,076	0,062
-335,518	-200,000	-0,011	0,042
-334,504	-20,250	0,136	0,060
-333,489	-200,000	-0,179	0,000
-332,475	-108,498	-0,151	-0,023
-331,460	411,654	0,027	-0,041
-330,445	-200,000	-0,003	-0,078
-329,431	729,929	0,012	-0,023
-328,416	-185,042	0,035	-0,000
-327,402	269,898	-0,084	0,106
-326,387	-200,000	0,023	-0,111
-325,372	112,340	0,051	-0,044
-324,358	38,858	0,094	-0,060
-323,343	60,091	0,049	-0,034
-322,329	800,000	0,051	0,155
-321,314	-200,000	0,022	0,145
-320,299	266,563	-0,018	-0,023
-319,285	-185,350	-0,073	0,001
-318,270	57,440	0,121	0,085
-317,256	-200,000	0,007	-0,043
-316,241	251,700	-0,038	-0,047
-315,226	279,985	-0,050	0,064
-314,212	-200,000	-0,001	-0,079
-313,197	214,132	-0,035	0,040
-312,183	88,306	0,094	-0,074
-311,168	800,000	-0,047	-0,102
-310,153	-112,391	-0,104	0,015
-309,139	-65,564	0,121	-0,034
-308,124	-200,000	0,027	0,088
-307,110	-200,000	0,006	0,113
-306,095	352,814	0,032	0,045
-305,080	167,627	-0,062	0,063
-304,066	-1,602	-0,107	-0,054
-303,051	234,503	-0,078	0,092
-302,037	213,107	-0,088	-0,100
-301,022	-67,358	0,029	0,008
-300,008	-90,195	-0,098	-0,020
-298,993	-200,000	-0,003	0,080
-297,978	-171,165	0,039	-0,001
-296,964	800,000	0,037	0,108
-295,949	-200,000	-0,001	0,006
-294,935	243,396	-0,117	-0,141
-293,920	-34,893	0,098	-0,038
-292,905	800,000	-0,028	-0,082
-291,891	800,000	0,044	0,108
-290,876	60,549	-0,046	-0,032
-289,862	449,116	0,046	0,073
-288,847	800,000	0,042	-0,110
-287,832	-200,000	-0,016	0,050
-286,818	-141,624	0,041	-0,003
-285,803	-52,557	-0,149	-0,049
-284,789	-16,041	-0,041	-0,019
-283,774	330,192	0,109	0,150
-282,759	322,496	0,083	0,113
-281,745	11,932	-0,063	-0,034
-280,730	53,125	0,102	-0,070
-279,716	-116,971	-0,085	-0,011
-278,701	-133,751	0,149	0,013
-277,686	800,000	-0,023	0,062
-276,672	-35,869	-0,085	-0,033
-275,657	19,925	0,097	0,056
-274,643	-18,990	-0,100	0,044
-273,628	-29,274	-0,053	-0,021
-272,613	185,577	0,135	-0,144
-271,599	-92,087	0,100	0,020
-270,584	72,110	-0,228	0,169
-269,570	-0,267	-0,128	0,065
-268,555	-200,000	-0,028	0,128
-267,540	-68,356	0,045	0,012
-266,526	-200,000	0,003	0,082
-265,511	-21,858	0,097	0,042
-264,497	166,126	0,027	-0,028
-263,482	-19,169	-0,022	0,010
-262,467	-161,904	-0,162	0,006
-261,453	689,570	0,056	-0,105
-260,438	223,677	-0,035	0,040
-259,424	-56,384	0,026	0,008
-258,409	182,691	0,012	-0,013
-257,395	3,341	0,067	0,034
-256,380	749,265	-0,033	-0,063
-255,365	-65,392	0,148	0,042
-254,351	-200,000	0,031	0,114
-253,336	34,530	0,066	-0,041
-252,322	800,000	-0,029	-0,086
-251,307	63,061	0,102	-0,073
-250,292	168,698	0,069	0,070
-249,278	-200,000	0,009	0,179
-248,263	50,854	0,067	0,045
-247,249	669,965	-0,017	0,032
-246,234	85,261	0,057	-0,045
-245,219	800,000	0,029	-0,063
-244,205	-200,000	0,012	-0,054
-243,190	191,484	0,110	0,118
-242,176	-86,697	0,078	0,017
-241,161	-200,000	-0,023	0,112
-240,146	-156,301	0,089	0,004
-239,132	-78,620	0,026	-0,006
-238,117	92,905	-0,138	0,111
-237,103	-200,000	0,043	-0,182
-236,088	136,167	-0,074	0,069
-235,073	332,330	0,068	-0,094
-234,059	800,000	-0,056	0,158
-233,044	800,000	0,019	0,046
-232,030	800,000	-0,020	0,040
-231,015	-42,958	-0,027	0,010
-230,000	310,176	-0,085	-0,114
-228,986	-200,000	0,008	-0,049
-227,971	800,000	-0,041	-0,092
-226,957	-102,490	-0,037	0,006
-225,942	800,000	-0,068	0,164
-224,927	-200,000	0,008	-0,060
-223,913	365,082	0,007	-0,010
-222,898	-109,069	0,029	-0,004
-221,884	209,523	-0,090	0,101
-220,869	-37,033	0,114	-0,043
-219,855	0,194	0,063	0,032
-218,840	75,762	-0,009	0,007
-217,825	77,249	0,090	-0,068
-216,811	78,629	-0,064	-0,049
-215,796	-200,000	0,035	-0,122
-214,782	796,075	-0,033	-0,065
-213,767	-115,322	-0,105	0,014
-212,752	146,894	-0,026	0,025
-211,738	-200,000	0,033	0,118
-210,723	448,629	0,022	0,035
-209,709	702,930	-0,043	-0,081
-208,694	-82,135	0,013	-0,003
-207,679	800,000	-0,038	-0,104
-206,665	252,309	0,061	0,075
-205,650	574,347	0,079	0,138
-204,636	316,281	0,064	-0,086
-203,621	800,000	0,040	0,112
-202,606	143,015	-0,080	-0,076
-201,592	-45,214	-0,094	-0,033
-200,577	172,332	0,016	0,017
-199,563	52,153	0,050	0,034
-198,548	30,603	-0,042	-0,025
-197,533	-49,753	0,124	0,042
-196,519	449,566	-0,045	0,070
-195,504	800,000	-0,033	0,082
-194,490	-200,000	-0,010	0,138
-193,475	-200,000	-0,036	-0,174
-192,460	800,000	0,044	-0,111
-191,446	87,499	-0,104	0,082
-190,431	31,405	0,068	0,042
-189,417	514,549	-0,046	-0,077
-188,402	264,001	0,094	-0,116
-187,387	142,330	-0,014	0,013
-186,373	227,304	-0,026	0,030
-185,358	-101,409	0,136	-0,023
-184,344	12,021	-0,122	0,067
-183,329	99,273	0,047	0,038
-182,315	-200,000	0,032	0,102
-181,300	-200,000	0,042	0,000
-180,285	-64,987	-0,045	-0,013
-179,271	-28,855	-0,105	0,043
-178,256	96,171	0,115	0,093
-177,242	471,602	0,100	-0,161
-176,227	-80,206	-0,084	0,020
-175,212	-200,000	-0,001	-0,013
-174,198	-200,000	0,000	-0,003
-173,183	85,651	-0,164	-0,128
-172,169	46,799	0,009	-0,006
-171,154	800,000	0,021	-0,059
-170,139	0,983	-0,055	0,028
-169,125	-139,986	0,062	0,005
-168,110	-200,000	0,007	0,098
-167,096	35,844	-0,024	0,015
-166,081	-96,234	-0,191	0,036
-165,066	167,899	-0,140	-0,142
-164,052	101,071	-0,107	-0,088
-163,037	-113,197	0,192	0,027
-162,023	-200,000	-0,008	0,134
-161,008	-67,330	0,153	-0,043
-159,993	-151,300	-0,171	0,009
-158,979	460,086	-0,063	-0,099
-157,964	-2,145	0,082	-0,041
-156,950	-176,927	0,057	0,001
-155,935	-49,203	0,110	-0,037
-154,920	157,355	-0,112	0,110
-153,906	800,000	-0,080	0,214
-152,891	800,000	-0,028	0,080
-151,877	-200,000	-0,011	0,050
-150,862	-200,000	-0,016	-0,115
-149,847	145,613	0,046	-0,044
-148,833	416,166	0,049	0,075
-147,818	-200,000	-0,002	0,167
-146,804	-200,000	-0,009	0,045
-145,789	404,073	0,076	0,114
-144,775	479,338	0,005	-0,008
-143,760	-40,642	-0,092	-0,034
-142,745	221,537	0,038	0,043
-141,731	-69,056	-0,076	0,021
-140,716	438,897	0,069	-0,108
-139,702	-200,000	0,002	-0,054
-138,687	800,000	0,052	0,110
-137,672	208,030	0,030	-0,033
-136,658	320,024	-0,103	-0,139
-135,643	-200,000	-0,052	-0,184
-134,629	174,507	0,057	-0,059
-133,614	-139,520	0,175	0,013
-132,599	800,000	-0,028	0,073
-131,585	800,000	-0,019	0,044
-130,570	-200,000	0,016	0,077
-129,556	800,000	-0,029	-0,061
-128,541	-73,204	-0,233	-0,060
-127,526	182,888	0,017	0,018
-126,512	-99,237	0,085	0,015
-125,497	-73,511	0,128	0,033
-124,483	202,922	0,115	0,127
-123,468	-17,213	0,050	-0,023
-122,453	738,159	-0,008	0,015
-121,439	-200,000	-0,021	-0,079
-120,424	-84,313	-0,101	0,022
-119,410	-200,000	0,009	0,199
-118,395	228,482	-0,017	0,020
-117,380	564,670	0,040	0,069
-116,366	-200,000	0,013	0,108
-115,351	123,959	-0,062	0,055
-114,337	11,570	-0,064	-0,035
-113,322	-133,421	0,099	0,009
-112,307	190,390	-0,035	0,037
-111,293	-200,000	-0,059	0,232
-110,278	800,000	0,061	0,157
-109,264	75,578	-0,095	-0,071
-108,249	-58,766	-0,069	0,021
-107,234	73,173	-0,166	0,123
-106,220	-75,536	0,116	0,029
-105,205	-98,518	0,059	0,011
-104,191	800,000	0,053	-0,151
-103,176	-83,911	0,161	0,036
-102,162	-100,679	0,127	0,022
-101,147	800,000	-0,045	0,139
-100,132	-31,134	0,059	0,024
-99,118	142,457	0,025	-0,023
-98,103	347,213	-0,060	0,083
-97,089	110,224	0,139	0,119
-96,074	-200,000	0,039	0,139
-95,059	-13,972	-0,169	0,077
-94,045	92,204	-0,096	-0,077
-93,030	800,000	-0,058	-0,171
-92,016	-112,300	0,107	-0,015
-91,001	143,640	0,115	0,108
-89,986	160,496	0,116	0,115
-88,972	232,035	0,021	0,025
-87,957	65,095	0,049	0,035
-86,943	82,767	0,157	-0,121
-85,928	185,129	-0,125	0,132
-84,913	-96,916	-0,134	-0,025
-83,899	22,395	-0,118	0,068
-82,884	-200,000	0,002	0,116
-81,870	-200,000	-0,009	0,083
-80,855	58,125	0,175	0,122
-79,840	-200,000	0,003	0,022
-78,826	-200,000	-0,047	-0,147
-77,811	800,000	0,033	-0,075
-76,797	504,654	-0,047	0,078
-75,782	-200,000	0,025	0,088
-74,767	51,862	0,120	0,081
-73,753	-160,154	-0,096	-0,004
-72,738	-200,000	0,001	0,037
-71,724	-5,687	-0,094	0,045
-70,709	198,760	-0,061	-0,067
-69,694	-10,053	0,140	0,066
-68,680	-85,486	-0,086	-0,019
-67,665	48,106	0,142	0,094
-66,651	25,585	0,038	0,022
-65,636	800,000	-0,050	0,136
-64,622	402,210	0,050	0,075
-63,607	-20,018	-0,142	-0,062
-62,592	-30,951	-0,028	0,011
-61,578	-42,843	0,040	-0,014
-60,563	-47,529	0,129	0,044
-59,549	-200,000	0,028	0,104
-58,534	-69,315	-1,579	-0,427
-57,519	330,025	-1,443	-1,972
-56,505	-200,000	-0,648	-4,510
-55,490	111,051	1,048	0,894
-54,476	800,000	4,820	11,399
-53,461	-200,000	18,660	298,751
-52,446	800,000	732,289	2263,005
-51,432	559,851	1648,806	2831,210
-50,417	78,957	1668,729	1263,920
-49,403	22,400	1541,872	890,309
-48,388	16,312	1464,819	816,264
-47,373	17,797	1454,774	817,803
-46,359	17,039	1444,963	808,624
-45,344	14,564	1440,395	794,195
-44,330	14,538	1438,332	792,901
-43,315	14,518	1436,801	791,930
-42,300	14,571	1435,006	791,163
-41,286	14,527	1433,990	790,361
-40,271	14,515	1432,601	789,508
-39,257	14,514	1431,356	788,788
-38,242	14,552	1429,978	788,175
-37,227	14,568	1428,961	787,660
-36,213	14,553	1427,469	786,737
-35,198	14,537	1426,569	786,133
-34,184	14,526	1425,555	785,490
-33,169	14,519	1424,070	784,610
-32,154	14,564	1423,153	784,281
-31,140	14,529	1421,889	783,390
-30,125	14,595	1420,557	782,937
-29,111	14,566	1419,693	782,293
-28,096	14,537	1418,422	781,426
-27,082	14,481	1417,456	780,600
-26,067	14,487	1416,271	779,944
-25,052	14,435	1415,507	779,248
-24,038	14,429	1414,364	778,559
-23,023	14,486	1413,185	778,145
-22,009	14,394	1412,391	777,244
-20,994	14,395	1411,508	776,732
-19,979	14,415	1410,545	776,267
-18,965	14,390	1409,441	775,513
-17,950	14,407	1408,558	775,075
-16,936	14,406	1407,685	774,560
-15,921	14,378	1406,511	773,753
-14,906	14,371	1405,671	773,226
-13,892	14,391	1404,672	772,740
-12,877	14,359	1403,982	772,178
-11,863	14,350	1402,926	771,525
-10,848	14,335	1402,048	770,941
-9,833	14,354	1401,192	770,531
-8,819	14,316	1400,307	769,835
-7,804	14,280	1399,332	769,102
-6,790	14,302	1398,217	768,559
-5,775	14,285	1397,190	767,889
-4,760	14,250	1396,489	767,310
-3,746	14,260	1395,435	766,747
-2,731	14,265	1394,833	766,406
-1,717	14,256	1393,859	765,801
-0,702	14,216	1392,202	764,677
0,313	18,089	1310,400	737,677
1,327	34,453	706,359	435,563
2,342	52,767	124,272	83,939
3,356	3,597	16,570	8,525
4,371	-3,255	3,281	1,612
5,386	112,800	0,474	0,406
6,400	39,163	0,208	0,131
7,415	66,392	-0,197	-0,141
8,429	-2,432	-0,335	-0,165
9,444	73,061	-0,280	-0,207
10,459	58,817	-0,226	-0,157
11,473	17,746	-0,411	-0,231
12,488	-3,515	-0,246	-0,121
13,502	-19,461	-0,381	-0,166
14,517	55,710	-0,305	-0,209
15,531	56,243	-0,349	-0,239
16,546	12,634	-0,430	-0,234
17,561	142,976	-0,410	-0,386
18,575	-144,786	-0,273	-0,017
19,590	98,451	-0,127	-0,103
20,604	-79,429	-0,319	0,076
21,619	209,408	-0,343	-0,380
22,634	-1,697	-0,524	-0,260
23,648	100,819	-0,445	-0,365
24,663	97,880	-0,401	-0,325
25,677	4,396	-0,406	-0,209
26,692	83,417	-0,240	-0,184
27,707	29,773	-0,366	-0,219
28,721	74,077	-0,400	-0,296
29,736	81,876	-0,312	-0,238
30,750	-12,807	-0,424	-0,194
31,765	72,924	-0,440	-0,324
32,780	177,755	-0,280	-0,288
33,794	139,831	-0,327	-0,305
34,809	52,429	-0,318	-0,214
35,823	33,676	-0,314	-0,192
36,838	48,915	-0,480	-0,317
37,853	148,914	-0,303	-0,289
38,867	68,271	-0,353	-0,255
39,882	-51,560	-0,394	-0,129
40,896	73,703	-0,336	-0,248
41,911	160,949	-0,329	-0,324
42,926	139,559	-0,299	-0,278
43,940	111,555	-0,372	-0,316
44,955	215,228	-0,295	-0,330
45,969	139,255	-0,389	-0,361
46,984	-69,929	-0,247	-0,066
47,999	99,690	-0,304	-0,248
49,013	94,606	-0,304	-0,243
50,028	-6,843	-0,272	-0,130
51,042	35,003	-0,357	-0,220
52,057	41,533	-0,339	-0,216
53,071	86,413	-0,363	-0,282
54,086	12,993	-0,291	-0,158
55,101	-92,429	-0,332	-0,065
56,115	0,515	-0,452	-0,227
57,130	-71,229	-0,482	-0,126
58,144	44,497	-0,327	-0,211
59,159	160,532	-0,412	-0,405
60,174	30,941	-0,333	-0,201
61,188	161,655	-0,332	-0,327
62,203	203,350	-0,310	-0,338
63,217	228,584	-0,202	-0,232
64,232	324,160	-0,215	-0,290
65,247	-34,271	-0,419	-0,161
66,261	14,041	-0,370	-0,202
67,276	18,701	-0,316	-0,177
68,290	174,563	-0,299	-0,304
69,305	52,571	-0,270	-0,181
70,320	-10,758	-0,191	-0,089
71,334	95,730	-0,367	-0,295
72,349	96,197	-0,358	-0,288
73,363	-82,658	-0,427	-0,096
74,378	-39,977	-0,356	-0,130
75,393	-7,811	-0,324	-0,153
76,407	227,421	-0,183	-0,210
77,422	321,108	-0,185	-0,247
78,436	62,226	-0,334	-0,234
79,451	-58,218	-0,412	-0,125
80,466	-51,829	-0,360	-0,117
81,480	103,435	-0,347	-0,286
82,495	-5,260	-0,384	-0,185
83,509	-48,497	-0,203	-0,068
84,524	26,903	-0,330	-0,194
85,539	-62,494	-0,184	-0,053
86,553	-42,012	-0,441	-0,158
87,568	274,364	-0,284	-0,354
88,582	88,771	-0,322	-0,252
89,597	-27,711	-0,200	-0,081
90,611	27,693	-0,290	-0,171
91,626	33,756	-0,258	-0,157
92,641	-104,364	-0,324	-0,052
93,655	78,305	-0,297	-0,223
94,670	191,580	-0,288	-0,305
95,684	148,614	-0,275	-0,261
96,699	37,018	-0,244	-0,151
97,714	108,399	-0,341	-0,286
98,728	-57,241	-0,410	-0,126
99,743	-37,380	-0,268	-0,100
100,757	41,898	-0,327	-0,208
101,772	75,884	-0,210	-0,155
102,787	193,879	-0,269	-0,286
103,801	116,986	-0,284	-0,244
104,816	-43,965	-0,295	-0,103
105,830	208,051	-0,186	-0,204
106,845	6,892	-0,354	-0,184
107,860	-20,446	-0,369	-0,158
108,874	59,481	-0,216	-0,149
109,889	452,802	-0,183	-0,284
110,903	-11,073	-0,234	-0,108
111,918	156,464	-0,243	-0,235
112,933	17,590	-0,295	-0,164
113,947	-82,230	-0,461	-0,104
114,962	106,751	-0,313	-0,260
115,976	7,466	-0,153	-0,080
116,991	23,952	-0,303	-0,175
118,006	-121,242	-0,440	-0,051
119,020	223,031	-0,264	-0,298
120,035	3,573	-0,174	-0,088
121,049	97,540	-0,178	-0,143
122,064	325,774	-0,140	-0,188
123,079	-38,798	-0,351	-0,129
124,093	45,980	-0,331	-0,214
125,108	65,868	-0,274	-0,194
126,122	142,806	-0,299	-0,278
127,137	35,894	-0,226	-0,139
128,151	56,121	-0,199	-0,135
129,166	8,035	-0,192	-0,100
130,181	137,479	-0,114	-0,104
131,195	-55,709	-0,312	-0,097
132,210	230,909	-0,215	-0,247
133,224	29,817	-0,284	-0,169
134,239	64,216	-0,143	-0,100
135,254	151,460	-0,261	-0,248
136,268	79,698	-0,265	-0,199
137,283	754,512	-0,164	-0,312
138,297	151,561	-0,259	-0,246
139,312	262,324	-0,196	-0,238
140,327	-75,847	-0,256	-0,063
141,341	15,287	-0,262	-0,143
142,356	124,011	-0,224	-0,196
143,370	-164,370	-0,166	0,005
144,385	2,687	-0,318	-0,161
145,400	121,627	-0,202	-0,176
146,414	288,941	-0,149	-0,189
147,429	-16,416	-0,290	-0,128
148,443	-41,009	-0,356	-0,128
149,458	161,674	-0,260	-0,254
150,473	75,541	-0,229	-0,169
151,487	-45,476	-0,187	0,064
152,502	137,975	-0,218	-0,199
153,516	269,696	-0,200	-0,245
154,531	76,209	-0,268	-0,198
155,546	407,378	-0,187	-0,277
156,560	171,226	-0,189	-0,190
157,575	-20,960	-0,268	-0,114
158,589	78,408	-0,289	-0,216
159,604	5,398	-0,297	-0,152
160,619	140,245	-0,178	-0,164
161,633	226,755	-0,193	-0,219
162,648	101,681	-0,232	-0,188
163,662	161,906	-0,245	-0,240
164,677	137,487	-0,229	-0,209
165,692	-48,224	-0,188	-0,063
166,706	2,951	-0,239	-0,121
167,721	-37,784	-0,373	-0,138
168,735	413,963	-0,162	-0,241
169,750	-154,469	-0,301	-0,014
170,764	800,000	-0,085	-0,215
171,779	73,774	-0,239	-0,174
172,794	800,000	-0,045	-0,097
173,808	-64,478	-0,245	0,069
174,823	-24,843	-0,356	-0,147
175,837	42,921	-0,322	-0,204
176,852	50,493	-0,277	-0,182
177,867	-44,610	-0,019	0,007
178,881	800,000	-0,095	-0,237
179,896	12,570	-0,312	-0,167
180,910	52,531	-0,175	-0,116
181,925	145,762	-0,199	-0,186
182,940	92,006	-0,131	-0,102
183,954	-15,792	-0,156	-0,069
184,969	186,861	-0,145	-0,150
185,983	-117,208	-0,174	-0,022
186,998	101,831	-0,187	-0,152
188,013	249,595	-0,121	-0,143
189,027	274,775	-0,218	-0,269
190,042	75,439	-0,156	-0,114
191,056	109,089	-0,251	-0,209
192,071	33,361	-0,141	-0,085
193,086	-32,025	-0,208	-0,081
194,100	-116,866	-0,181	-0,023
195,115	800,000	-0,110	-0,219
196,129	345,702	-0,154	-0,212
197,144	3,820	-0,237	-0,120
198,159	287,378	-0,209	-0,264
199,173	228,957	-0,214	-0,243
200,188	135,685	-0,146	-0,133
201,202	-37,629	-0,187	-0,069
202,217	93,659	-0,184	-0,145
203,232	-92,987	-0,209	-0,040
204,246	71,588	-0,194	-0,140
205,261	800,000	-0,063	-0,131
206,275	-79,917	-0,224	-0,052
207,290	-38,711	-0,170	-0,062
208,304	-76,812	-0,159	-0,038
209,319	251,175	-0,187	-0,222
210,334	71,692	-0,195	-0,141
211,348	95,104	-0,280	-0,222
212,363	21,330	-0,264	-0,149
213,377	54,414	-0,244	-0,163
214,392	386,408	-0,115	-0,165
215,407	64,483	-0,213	-0,149
216,421	325,031	-0,084	-0,112
217,436	40,725	-0,245	-0,153
218,450	280,649	-0,148	-0,184
219,465	5,066	-0,227	-0,116
220,480	-12,183	-0,165	-0,075
221,494	-4,006	-0,091	0,044
222,509	800,000	-0,060	-0,141
223,523	291,725	-0,111	-0,140
224,538	64,813	-0,185	-0,129
225,553	200,103	-0,214	-0,229
226,567	115,929	-0,215	-0,183
227,582	800,000	-0,098	-0,281
228,596	-110,912	-0,118	-0,017
229,611	800,000	-0,099	-0,194
230,626	-59,501	-0,215	-0,064
231,640	222,684	-0,195	-0,218
232,655	-27,295	-0,246	-0,099
233,669	800,000	-0,156	-0,305
234,684	-37,855	-0,224	-0,082
235,699	39,440	-0,210	-0,130
236,713	-113,933	-0,195	-0,026
237,728	62,912	-0,138	-0,096
238,742	35,098	-0,220	-0,133
239,757	122,864	-0,200	-0,174
240,772	309,961	-0,184	-0,239
241,786	800,000	-0,089	-0,195
242,801	159,793	-0,170	-0,164
243,815	227,116	-0,100	-0,113
244,830	19,919	-0,146	-0,081
245,844	4,417	-0,140	-0,071
246,859	297,402	-0,156	-0,199
247,874	62,702	-0,317	-0,220
248,888	396,730	-0,154	-0,223
249,903	69,120	-0,130	-0,093
250,917	-98,908	-0,198	-0,035
251,932	224,071	-0,235	-0,264
252,947	158,274	-0,152	-0,146
253,961	800,000	-0,101	-0,235
254,976	218,903	-0,226	-0,251
255,990	800,000	-0,086	-0,187
257,005	70,332	-0,173	-0,123
258,020	24,217	-0,057	-0,033
259,034	539,469	-0,110	-0,182
260,049	-94,899	-0,164	-0,030
261,063	61,847	-0,262	-0,180
262,078	200,902	-0,083	-0,088
263,093	81,432	-0,209	-0,156
264,107	270,964	-0,130	-0,158
265,122	748,701	-0,111	-0,207
266,136	-137,815	-0,214	0,016
267,151	23,568	-0,165	0,093
268,166	-200,000	-0,012	-0,068
269,180	135,668	-0,180	-0,162
270,195	75,952	-0,227	-0,166
271,209	230,650	-0,149	-0,169
272,224	217,567	-0,115	-0,126
273,239	-86,724	-0,216	-0,045
274,253	680,847	-0,117	-0,211
275,268	-2,515	-0,199	-0,096
276,282	13,856	-0,169	-0,091
277,297	-200,000	0,018	-0,184
278,312	-71,601	-0,227	-0,058
279,326	113,960	-0,177	-0,149
280,341	84,264	-0,041	0,031
281,355	-31,811	-0,113	-0,043
282,370	-200,000	0,002	-0,185
283,384	96,008	-0,207	-0,163
284,399	221,621	-0,221	-0,245
285,414	209,848	-0,147	-0,159
286,428	-39,371	-0,153	-0,055
287,443	461,596	-0,140	-0,217
288,457	20,090	-0,161	-0,089
289,472	59,500	-0,210	-0,143
290,487	-4,248	-0,149	-0,071
291,501	-9,004	-0,244	-0,112
292,516	-200,000	-0,024	-0,272
293,530	-19,132	-0,125	-0,053
294,545	43,236	-0,193	-0,122
295,560	-123,889	-0,211	-0,023
296,574	-33,041	-0,143	-0,055
297,589	322,810	-0,172	-0,227
298,603	348,839	-0,147	-0,200
299,618	147,401	-0,147	-0,137
300,633	97,197	-0,129	-0,102
301,647	515,573	-0,093	-0,150
302,662	-160,473	-0,219	-0,008
303,676	-107,342	-0,132	-0,020
304,691	20,531	-0,128	-0,071
305,706	-82,638	-0,170	-0,038
306,720	-46,552	-0,187	-0,063
307,735	800,000	-0,102	-0,282
308,749	57,126	-0,221	-0,148
309,764	5,234	-0,038	-0,019
310,779	36,260	-0,103	-0,062
311,793	153,519	-0,067	-0,063
312,808	660,738	-0,151	-0,269
313,822	80,820	-0,249	-0,185
314,837	658,913	-0,089	-0,159
315,852	-200,000	0,016	-0,134
316,866	-79,952	-0,234	-0,054
317,881	-34,663	-0,152	-0,057
318,895	-200,000	-0,026	-0,111
319,910	204,953	-0,133	-0,143
320,925	120,620	-0,112	-0,095
321,939	59,148	-0,219	-0,148
322,954	188,843	-0,091	-0,094
323,968	-13,391	-0,165	-0,073
324,983	790,226	-0,088	-0,168
325,997	-82,530	-0,204	-0,045
327,012	800,000	-0,063	-0,131
328,027	800,000	-0,046	-0,098
329,041	421,509	-0,111	-0,164
330,056	252,795	-0,105	-0,124
331,070	102,524	-0,056	-0,045
332,085	128,333	-0,095	-0,083
333,100	468,316	-0,101	-0,157
334,114	30,412	-0,128	-0,075
335,129	167,474	-0,118	-0,116
336,143	-200,000	-0,055	-0,263
337,158	189,428	-0,121	-0,124
338,173	800,000	-0,099	-0,193
339,187	-87,941	-0,201	-0,041
340,202	11,641	-0,166	-0,087
341,216	-85,800	-0,020	0,004
342,231	-8,124	-0,185	-0,085
343,246	-60,400	-0,317	-0,092
344,260	-200,000	-0,001	0,022
345,275	637,234	-0,109	-0,191
346,289	-152,592	-0,157	0,008
347,304	-76,310	-0,212	-0,051
348,319	112,120	-0,172	-0,143
349,333	-106,893	-0,215	-0,032
350,348	-129,149	-0,109	0,010
351,362	139,672	-0,126	-0,114
352,377	14,239	-0,073	-0,039
353,392	-46,012	-0,048	-0,016
354,406	203,965	-0,079	0,084
355,421	207,522	1316,742	1411,771
356,435	159,643	1477,712	1412,271
