DTS Sentinel unit serial number:	SN410029Multiplexer serial number:	ORYXHardware model number:	OX2-SRSoftware version number:	ORYX F/W v4,00 Oryx Data Collector v3.7.2.0data status	okinstallation	B3 Nyhavnadifferential loss correction	single-endedforward channel	channel 1reverse channel	N/Adate	2023/11/29time	04:47:30forward acquisition time	300,00reverse acquisition time	0,00gamma	499,1914k internal	0,3211k external	0,3211temperature offset calibration	1,0000default loss term (dB/km)	0,3820temperature slope calibration	1,0000multiplexer offset coefficient	1,0000multiplexer slope coefficient	1,0000fibre end	0,00T internal ref (°C)	9,24T ext. ref 1 (°C)	-6,22T ext. ref 2 (°C)	-6,34length (m)	temperature (°C)	Stokes	anti-Stokes-744,400	254,539	-0,224	-0,278
-743,385	-200,000	0,058	0,273
-742,371	251,886	-0,209	-0,259
-741,356	-200,000	0,016	0,331
-740,342	40,499	-0,257	-0,167
-739,327	800,000	-0,108	0,312
-738,312	800,000	-0,192	-0,389
-737,298	-200,000	0,053	0,219
-736,283	800,000	-0,105	-0,277
-735,269	800,000	0,145	0,357
-734,254	42,438	-0,346	-0,228
-733,239	203,785	-0,156	0,175
-732,225	-200,000	-0,002	-0,030
-731,210	-200,000	-0,013	0,198
-730,196	-172,694	-0,120	-0,003
-729,181	-69,360	-0,128	-0,035
-728,167	-200,000	0,006	0,027
-727,152	-200,000	0,007	-0,099
-726,137	-71,278	0,106	-0,028
-725,123	705,560	0,052	-0,100
-724,108	698,561	-0,124	-0,238
-723,094	468,093	-0,057	-0,093
-722,079	101,190	-0,067	-0,057
-721,064	335,998	0,048	-0,067
-720,050	347,525	0,025	0,036
-719,035	-10,195	0,141	0,068
-718,021	77,772	-0,080	-0,062
-717,006	-0,253	-0,031	0,016
-715,991	-172,519	-0,146	0,003
-714,977	-14,622	-0,094	-0,044
-713,962	186,485	-0,066	0,072
-712,948	-200,000	0,003	0,110
-711,933	44,346	-0,057	-0,038
-710,918	-97,912	-0,071	-0,013
-709,904	-178,947	0,174	-0,003
-708,889	800,000	-0,066	-0,179
-707,875	-26,260	-0,094	-0,040
-706,860	17,533	-0,068	0,039
-705,845	99,991	0,030	0,025
-704,831	621,425	0,059	0,108
-703,816	33,525	-0,109	0,068
-702,802	558,189	0,037	0,065
-701,787	-197,797	-0,172	-0,001
-700,772	-52,202	0,052	-0,017
-699,758	86,450	0,040	0,032
-698,743	266,175	-0,021	0,027
-697,729	-200,000	-0,003	-0,024
-696,714	-162,775	0,038	-0,001
-695,699	-200,000	-0,029	-0,100
-694,685	-200,000	-0,022	-0,172
-693,670	116,285	-0,065	0,058
-692,656	25,456	0,094	-0,057
-691,641	-43,032	0,118	0,043
-690,627	202,810	0,094	0,105
-689,612	113,707	-0,102	-0,090
-688,597	2,353	0,078	-0,041
-687,583	144,871	-0,064	0,062
-686,568	198,244	-0,095	-0,105
-685,554	800,000	-0,053	0,126
-684,539	23,432	0,166	0,099
-683,524	-200,000	0,008	0,201
-682,510	21,232	0,141	0,083
-681,495	127,155	0,025	-0,023
-680,481	79,916	-0,064	-0,049
-679,466	58,617	-0,065	-0,046
-678,451	800,000	-0,040	-0,117
-677,437	-200,000	0,009	0,061
-676,422	800,000	0,034	0,100
-675,408	-23,389	0,067	-0,029
-674,393	147,446	0,010	0,010
-673,378	-75,175	-0,094	0,024
-672,364	-155,423	-0,055	-0,003
-671,349	-122,330	-0,041	0,005
-670,335	-75,248	-0,053	-0,014
-669,320	-200,000	0,023	-0,196
-668,305	288,062	0,040	-0,052
-667,291	2,564	0,103	0,054
-666,276	-43,705	0,061	-0,022
-665,262	210,276	-0,108	0,123
-664,247	436,606	-0,046	-0,073
-663,232	116,210	0,110	0,097
-662,218	-7,819	0,124	-0,060
-661,203	-200,000	0,014	-0,099
-660,189	-200,000	-0,046	-0,165
-659,174	143,358	-0,045	-0,044
-658,159	-200,000	-0,024	0,108
-657,145	49,939	-0,020	0,014
-656,130	-115,575	0,087	-0,012
-655,116	-71,740	-0,045	0,012
-654,101	800,000	0,031	0,066
-653,086	-119,732	-0,094	-0,012
-652,072	-166,940	-0,072	-0,002
-651,057	800,000	0,035	-0,099
-650,043	446,696	-0,056	-0,090
-649,028	621,044	0,051	-0,094
-648,014	106,413	-0,042	-0,036
-646,999	-200,000	-0,021	0,067
-645,984	-185,932	-0,101	0,001
-644,970	261,066	0,078	-0,098
-643,955	242,681	-0,140	-0,169
-642,941	-134,409	-0,169	-0,015
-641,926	10,037	-0,019	-0,011
-640,911	-72,046	-0,129	-0,034
-639,897	-78,959	-0,026	0,006
-638,882	306,012	-0,087	0,117
-637,868	91,829	0,080	-0,065
-636,853	-60,016	-0,172	-0,053
-635,838	-200,000	-0,012	-0,068
-634,824	408,307	-0,017	-0,026
-633,809	-200,000	-0,001	-0,115
-632,795	597,853	0,018	-0,033
-631,780	-200,000	0,027	0,092
-630,765	800,000	-0,060	0,126
-629,751	-200,000	0,004	-0,033
-628,736	-200,000	-0,001	-0,106
-627,722	-114,828	0,114	-0,015
-626,707	138,168	-0,097	-0,092
-625,692	124,660	0,104	0,095
-624,678	73,124	-0,069	-0,052
-623,663	41,163	-0,105	-0,068
-622,649	-69,294	-0,058	0,016
-621,634	800,000	-0,022	0,059
-620,619	18,981	-0,020	-0,012
-619,605	197,730	0,016	-0,017
-618,590	800,000	-0,052	0,142
-617,576	800,000	-0,027	0,063
-616,561	101,224	-0,112	0,094
-615,546	800,000	-0,036	0,093
-614,532	274,742	-0,058	0,074
-613,517	-75,961	0,112	-0,028
-612,503	-14,048	0,036	-0,017
-611,488	-124,658	-0,149	-0,016
-610,474	-200,000	-0,010	0,123
-609,459	-152,308	0,035	0,002
-608,444	561,595	-0,086	-0,151
-607,430	666,470	-0,076	-0,142
-606,415	-200,000	-0,026	-0,084
-605,401	-85,711	-0,066	-0,015
-604,386	800,000	0,034	0,077
-603,371	92,161	0,166	0,134
-602,357	-200,000	-0,007	0,060
-601,342	800,000	0,062	-0,158
-600,328	800,000	-0,091	-0,232
-599,313	-109,508	-0,068	0,010
-598,298	-200,000	0,002	-0,050
-597,284	-39,705	0,040	0,015
-596,269	800,000	-0,032	0,082
-595,255	-200,000	0,003	0,043
-594,240	507,590	-0,023	0,039
-593,225	-115,437	-0,041	0,005
-592,211	-66,955	0,073	0,021
-591,196	258,464	0,010	0,012
-590,182	-200,000	0,068	0,223
-589,167	-200,000	0,006	0,176
-588,152	-57,195	-0,132	0,041
-587,138	68,682	-0,063	-0,046
-586,123	107,803	-0,041	0,035
-585,109	800,000	-0,036	-0,099
-584,094	298,140	0,037	-0,049
-583,079	138,521	-0,057	-0,054
-582,065	800,000	-0,016	0,039
-581,050	800,000	0,029	0,082
-580,036	404,781	-0,042	0,064
-579,021	451,214	-0,046	-0,073
-578,006	103,505	-0,108	0,091
-576,992	-200,000	-0,002	0,116
-575,977	800,000	0,073	0,172
-574,963	458,283	-0,015	-0,024
-573,948	-200,000	0,032	0,217
-572,934	-102,085	-0,104	0,018
-571,919	210,291	0,038	0,043
-570,904	-160,380	0,110	0,004
-569,890	800,000	-0,086	-0,204
-568,875	137,378	0,016	0,015
-567,861	-111,386	0,102	-0,015
-566,846	800,000	0,029	0,064
-565,831	-200,000	0,010	0,129
-564,817	-12,333	0,079	-0,037
-563,802	-200,000	-0,036	-0,264
-562,788	-60,785	0,116	0,035
-561,773	639,084	-0,016	-0,029
-560,758	-120,561	-0,070	-0,008
-559,744	314,111	0,063	0,085
-558,729	-200,000	-0,020	0,063
-557,715	174,480	-0,057	-0,060
-556,700	-200,000	-0,022	-0,136
-555,685	85,596	0,141	-0,111
-554,671	-200,000	0,012	0,108
-553,656	-200,000	0,018	0,064
-552,642	-200,000	-0,009	0,120
-551,627	-200,000	0,016	0,071
-550,612	332,913	0,045	-0,063
-549,598	48,238	0,081	-0,054
-548,583	-29,598	-0,173	0,071
-547,569	-161,916	-0,128	0,005
-546,554	32,835	0,089	-0,055
-545,539	66,010	0,061	0,045
-544,525	12,755	-0,124	0,069
-543,510	-200,000	0,007	-0,053
-542,496	62,138	-0,133	0,095
-541,481	29,754	-0,113	-0,069
-540,466	104,736	0,060	-0,051
-539,452	800,000	0,032	0,098
-538,437	647,093	0,041	0,076
-537,423	90,328	0,104	0,084
-536,408	445,686	0,035	0,055
-535,393	315,549	-0,033	-0,045
-534,379	-50,200	-0,093	-0,032
-533,364	127,736	0,079	-0,072
-532,350	-50,865	-0,085	0,029
-531,335	420,879	0,103	0,160
-530,321	-47,500	0,065	-0,023
-529,306	-200,000	-0,038	-0,124
-528,291	-200,000	-0,008	-0,030
-527,277	-131,350	-0,085	0,008
-526,262	-200,000	-0,006	-0,086
-525,248	-200,000	0,020	-0,172
-524,233	-88,711	-0,123	0,026
-523,218	67,105	0,029	-0,021
-522,204	-3,327	0,143	0,072
-521,189	59,763	0,059	-0,042
-520,175	-5,554	-0,064	-0,031
-519,160	99,222	-0,056	0,047
-518,145	-107,272	0,015	-0,002
-517,131	-27,881	0,107	-0,044
-516,116	-155,935	0,030	-0,001
-515,102	-43,891	0,095	0,034
-514,087	-200,000	0,011	-0,135
-513,072	-147,131	-0,111	0,007
-512,058	-106,834	0,146	-0,023
-511,043	75,517	-0,088	-0,066
-510,029	-102,296	-0,156	-0,027
-509,014	-108,055	0,069	0,011
-507,999	-17,506	0,103	-0,047
-506,985	640,958	0,054	-0,099
-505,970	-200,000	0,001	-0,149
-504,956	-200,000	0,001	-0,018
-503,941	82,324	-0,077	-0,060
-502,926	-110,269	-0,090	-0,013
-501,912	-200,000	0,008	0,054
-500,897	-200,000	0,013	-0,100
-499,883	-14,126	-0,054	0,025
-498,868	-24,574	-0,176	0,075
-497,853	148,913	-0,127	-0,124
-496,839	20,999	-0,245	-0,142
-495,824	-28,721	0,188	0,077
-494,810	90,795	0,082	0,066
-493,795	199,883	0,140	0,155
-492,781	800,000	0,034	0,072
-491,766	-116,019	-0,083	-0,011
-490,751	15,074	-0,173	-0,097
-489,737	-9,486	0,054	-0,026
-488,722	-12,576	0,029	-0,014
-487,708	-200,000	0,041	0,144
-486,693	-189,144	0,153	-0,001
-485,678	60,116	-0,077	-0,054
-484,664	200,597	-0,058	-0,064
-483,649	192,627	0,033	-0,036
-482,635	129,636	0,027	-0,025
-481,620	800,000	0,039	-0,102
-480,605	682,676	-0,016	0,030
-479,591	709,391	-0,056	0,107
-478,576	168,571	-0,071	-0,072
-477,562	-124,953	0,132	-0,014
-476,547	-200,000	-0,027	0,144
-475,532	507,072	-0,061	-0,103
-474,518	-111,448	-0,025	-0,004
-473,503	800,000	0,051	0,108
-472,489	-85,031	0,076	-0,017
-471,474	-200,000	0,009	0,054
-470,459	-103,946	0,115	0,019
-469,445	-125,212	-0,072	0,008
-468,430	-61,018	0,154	-0,046
-467,416	455,814	-0,101	0,162
-466,401	213,688	0,031	0,035
-465,386	126,377	0,096	-0,087
-464,372	-200,000	-0,011	0,048
-463,357	200,324	-0,063	-0,070
-462,343	306,487	-0,068	-0,092
-461,328	42,995	0,083	0,055
-460,313	-200,000	0,013	0,150
-459,299	87,517	0,058	0,046
-458,284	-90,715	0,166	0,034
-457,270	-200,000	0,008	-0,046
-456,255	-154,651	0,059	-0,003
-455,241	31,956	-0,100	-0,062
-454,226	-2,799	0,096	-0,048
-453,211	-86,239	0,083	-0,018
-452,197	-200,000	-0,023	0,179
-451,182	-200,000	-0,015	0,114
-450,168	-24,792	-0,103	-0,044
-449,153	195,085	0,011	0,012
-448,138	20,425	-0,132	-0,077
-447,124	-200,000	0,026	0,116
-446,109	-4,546	0,089	-0,044
-445,095	607,710	0,089	-0,160
-444,080	12,838	0,115	0,063
-443,065	800,000	-0,038	0,107
-442,051	107,831	0,048	-0,041
-441,036	606,951	-0,087	-0,156
-440,022	-112,404	-0,250	-0,035
-439,007	125,336	-0,035	0,032
-437,992	-200,000	-0,004	0,039
-436,978	-45,504	0,040	0,014
-435,963	800,000	0,048	0,129
-434,949	469,017	-0,062	0,099
-433,934	181,491	0,032	-0,034
-432,919	261,770	0,061	0,076
-431,905	432,002	-0,059	0,091
-430,890	800,000	-0,055	-0,116
-429,876	409,865	0,067	0,102
-428,861	211,510	0,108	0,122
-427,846	-96,521	0,188	0,035
-426,832	5,633	-0,109	-0,058
-425,817	-33,738	0,165	0,065
-424,803	-134,281	-0,103	0,009
-423,788	413,502	0,052	-0,079
-422,773	-163,166	0,068	-0,002
-421,759	400,285	0,052	-0,078
-420,744	321,150	0,024	-0,033
-419,730	800,000	-0,008	-0,022
-418,715	161,315	-0,087	-0,087
-417,701	207,018	-0,077	-0,086
-416,686	800,000	0,057	-0,122
-415,671	-42,869	-0,014	-0,005
-414,657	-11,329	0,081	0,038
-413,642	-28,964	0,097	0,040
-412,628	800,000	-0,033	0,070
-411,613	65,783	-0,100	0,072
-410,598	118,671	0,130	0,115
-409,584	800,000	0,061	0,154
-408,569	598,516	-0,023	0,041
-407,555	325,382	0,109	0,150
-406,540	592,882	-0,037	0,066
-405,525	-200,000	-0,006	-0,084
-404,511	120,739	-0,020	-0,018
-403,496	-63,882	0,094	0,027
-402,482	544,000	-0,056	0,095
-401,467	-47,129	0,164	0,057
-400,452	345,835	-0,058	-0,081
-399,438	-200,000	-0,035	0,157
-398,423	-200,000	0,004	-0,089
-397,409	269,612	0,011	0,014
-396,394	108,911	-0,083	0,071
-395,379	340,582	-0,046	-0,064
-394,365	-82,818	0,112	-0,026
-393,350	-86,838	0,118	0,026
-392,336	71,865	-0,090	0,067
-391,321	38,318	-0,014	0,009
-390,306	-200,000	-0,055	0,000
-389,292	-24,200	-0,048	0,020
-388,277	533,327	-0,038	0,065
-387,263	-150,306	0,102	0,006
-386,248	-2,496	0,045	-0,022
-385,233	16,674	-0,050	0,028
-384,219	217,317	0,069	0,079
-383,204	800,000	0,053	-0,118
-382,190	-86,465	-0,088	-0,019
-381,175	585,152	-0,108	0,191
-380,160	-44,063	0,084	-0,030
-379,146	173,770	0,049	0,050
-378,131	46,158	0,060	-0,040
-377,117	-166,241	0,072	-0,002
-376,102	62,357	-0,036	0,025
-375,088	453,386	0,013	0,021
-374,073	-24,785	-0,035	0,015
-373,058	-200,000	-0,013	-0,073
-372,044	-107,714	-0,177	0,027
-371,029	800,000	0,067	0,154
-370,015	-98,865	0,162	-0,029
-369,000	-3,114	-0,066	0,033
-367,985	800,000	0,038	0,076
-366,971	-186,848	0,109	-0,001
-365,956	490,432	-0,011	-0,018
-364,942	-200,000	0,019	0,108
-363,927	800,000	-0,034	0,093
-362,912	-96,805	-0,056	0,010
-361,898	384,324	0,084	0,123
-360,883	-200,000	0,006	-0,122
-359,869	-4,093	0,133	-0,065
-358,854	-200,000	0,013	0,063
-357,839	-34,621	0,130	0,051
-356,825	14,898	-0,070	-0,039
-355,810	556,475	-0,052	-0,090
-354,796	-200,000	-0,002	-0,090
-353,781	90,527	-0,086	-0,069
-352,766	228,012	-0,078	-0,091
-351,752	-98,761	-0,053	0,010
-350,737	190,519	0,057	-0,061
-349,723	52,185	0,094	0,064
-348,708	14,247	-0,136	-0,075
-347,693	-37,012	-0,076	-0,029
-346,679	241,809	0,037	0,045
-345,664	205,760	0,050	-0,056
-344,650	55,920	-0,115	-0,080
-343,635	800,000	-0,057	0,127
-342,620	-200,000	-0,091	-0,000
-341,606	48,043	0,071	0,047
-340,591	800,000	-0,035	0,081
-339,577	93,802	0,071	0,058
-338,562	187,114	-0,042	-0,045
-337,548	800,000	0,028	0,062
-336,533	800,000	0,046	0,129
-335,518	278,293	0,088	0,112
-334,504	-3,666	0,111	0,055
-333,489	-50,298	0,151	-0,051
-332,475	-109,946	-0,102	0,015
-331,460	8,182	0,070	0,037
-330,445	-200,000	0,018	-0,093
-329,431	39,716	0,087	-0,056
-328,416	181,327	0,133	0,140
-327,402	196,189	0,063	0,068
-326,387	335,860	0,078	0,109
-325,372	-91,849	-0,017	-0,003
-324,358	312,242	0,046	-0,061
-323,343	38,722	0,086	-0,055
-322,329	-147,869	-0,042	-0,002
-321,314	66,972	0,076	0,055
-320,299	-50,344	-0,110	0,037
-319,285	-49,265	-0,054	-0,018
-318,270	-16,064	-0,106	-0,048
-317,256	48,530	0,150	-0,100
-316,241	-200,000	0,003	-0,127
-315,226	5,569	0,091	-0,048
-314,212	-200,000	-0,134	0,000
-313,197	800,000	0,020	-0,061
-312,183	164,320	0,102	-0,103
-311,168	549,224	-0,057	0,098
-310,153	-200,000	0,029	-0,137
-309,139	-178,988	-0,129	0,002
-308,124	218,400	-0,077	-0,088
-307,110	-87,719	-0,056	0,012
-306,095	800,000	0,024	-0,061
-305,080	45,848	0,163	0,108
-304,066	-200,000	-0,033	-0,123
-303,051	166,804	-0,060	-0,060
-302,037	456,574	-0,041	0,066
-301,022	-200,000	0,001	-0,077
-300,008	-160,542	0,106	-0,004
-298,993	185,288	0,039	-0,041
-297,978	-28,735	-0,083	0,034
-296,964	85,654	-0,012	-0,010
-295,949	-80,069	-0,143	0,034
-294,935	377,001	-0,067	-0,097
-293,920	350,287	0,038	-0,053
-292,905	-200,000	-0,006	-0,032
-291,891	-200,000	-0,027	0,140
-290,876	-200,000	0,011	0,102
-289,862	120,371	0,017	-0,015
-288,847	-176,429	-0,169	-0,003
-287,832	800,000	-0,086	-0,196
-286,818	-200,000	-0,016	-0,064
-285,803	-124,331	0,106	0,012
-284,789	-124,323	0,053	0,006
-283,774	208,416	0,090	-0,101
-282,759	-138,822	-0,102	-0,008
-281,745	-200,000	-0,010	-0,083
-280,730	-200,000	0,047	-0,000
-279,716	-200,000	0,000	0,056
-278,701	8,959	0,049	-0,026
-277,686	800,000	0,021	0,063
-276,672	563,459	-0,023	0,040
-275,657	-30,965	0,045	0,018
-274,643	-200,000	-0,024	-0,093
-273,628	148,522	-0,065	-0,062
-272,613	-165,267	-0,154	0,005
-271,599	800,000	-0,056	0,116
-270,584	48,444	0,051	-0,034
-269,570	-200,000	-0,004	-0,114
-268,555	8,536	-0,125	0,067
-267,540	-121,233	0,062	-0,007
-266,526	147,491	-0,082	0,078
-265,511	-161,577	0,174	-0,006
-264,497	157,432	0,089	-0,088
-263,482	71,456	-0,098	0,072
-262,467	37,114	0,078	0,049
-261,453	-200,000	0,022	-0,104
-260,438	-119,751	0,113	-0,014
-259,424	111,418	-0,086	-0,073
-258,409	-200,000	0,043	-0,148
-257,395	-200,000	0,006	-0,088
-256,380	20,520	-0,068	-0,039
-255,365	189,554	0,059	0,063
-254,351	100,929	-0,094	0,077
-253,336	142,860	-0,085	-0,081
-252,322	76,561	0,019	-0,014
-251,307	75,328	-0,037	0,028
-250,292	-89,316	0,143	0,030
-249,278	85,229	0,058	0,046
-248,263	-57,275	-0,030	0,009
-247,249	-93,193	0,095	-0,019
-246,234	-200,000	0,012	0,055
-245,219	326,591	-0,092	-0,126
-244,205	-181,293	-0,089	-0,001
-243,190	-66,318	-0,119	-0,033
-242,176	25,443	0,030	0,017
-241,161	-192,370	0,162	-0,001
-240,146	-200,000	0,000	-0,002
-239,132	-200,000	-0,004	0,073
-238,117	800,000	-0,022	-0,062
-237,103	-119,063	-0,096	0,012
-236,088	140,711	-0,129	-0,121
-235,073	-150,598	-0,028	-0,001
-234,059	25,812	0,180	0,106
-233,044	-200,000	0,002	0,058
-232,030	-0,772	-0,102	-0,051
-231,015	-200,000	0,001	0,016
-230,000	-200,000	0,030	-0,128
-228,986	112,312	-0,048	0,041
-227,971	800,000	0,024	0,049
-226,957	5,832	0,025	-0,013
-225,942	5,667	-0,080	0,042
-224,927	-87,494	-0,077	-0,016
-223,913	159,311	0,039	-0,038
-222,898	-8,020	-0,086	0,041
-221,884	-75,140	0,035	0,009
-220,869	183,931	0,078	0,082
-219,855	60,655	0,073	-0,051
-218,840	-13,374	0,050	-0,023
-217,825	-200,000	0,000	0,033
-216,811	-200,000	-0,014	-0,060
-215,796	361,173	0,014	0,019
-214,782	298,586	0,072	-0,095
-213,767	-200,000	-0,001	0,038
-212,752	-90,207	0,085	0,017
-211,738	-200,000	-0,008	-0,076
-210,723	76,190	0,039	0,029
-209,709	800,000	0,048	0,125
-208,694	800,000	0,028	-0,071
-207,679	177,336	-0,134	-0,139
-206,665	-200,000	-0,007	-0,098
-205,650	-4,485	0,067	0,033
-204,636	-86,056	0,073	0,016
-203,621	-200,000	0,019	-0,071
-202,606	800,000	-0,034	-0,101
-201,592	471,038	-0,080	-0,128
-200,577	26,943	0,029	0,017
-199,563	273,358	0,053	-0,067
-198,548	-200,000	0,009	0,067
-197,533	-200,000	-0,003	-0,022
-196,519	122,023	-0,034	-0,030
-195,504	724,373	-0,064	-0,121
-194,490	176,417	0,149	-0,153
-193,475	-200,000	-0,001	-0,088
-192,460	800,000	0,026	-0,069
-191,446	-77,729	0,118	0,029
-190,431	-200,000	-0,002	0,060
-189,417	210,895	-0,088	-0,099
-188,402	215,703	0,119	0,135
-187,387	-112,826	-0,028	0,004
-186,373	-18,249	0,067	-0,030
-185,358	-21,815	-0,062	0,027
-184,344	800,000	-0,034	-0,086
-183,329	800,000	0,022	0,055
-182,315	-200,000	0,004	0,118
-181,300	-200,000	-0,004	-0,017
-180,285	172,518	0,096	-0,098
-179,271	-120,301	-0,051	-0,006
-178,256	98,262	0,163	0,133
-177,242	181,363	0,026	0,027
-176,227	404,273	0,034	0,050
-175,212	93,324	-0,066	0,053
-174,198	173,173	0,060	0,061
-173,183	-137,858	-0,108	-0,008
-172,169	-46,711	-0,136	0,047
-171,154	-200,000	-0,061	0,243
-170,139	307,877	0,043	0,057
-169,125	800,000	-0,035	0,093
-168,110	-200,000	-0,044	-0,223
-167,096	800,000	0,018	-0,053
-166,081	240,618	0,074	-0,088
-165,066	800,000	-0,049	-0,135
-164,052	43,670	-0,003	-0,002
-163,037	-174,478	0,053	0,001
-162,023	-200,000	-0,006	-0,024
-161,008	-22,743	0,216	-0,092
-159,993	-28,799	-0,072	-0,029
-158,979	452,537	-0,040	-0,063
-157,964	-86,404	-0,054	0,012
-156,950	-76,670	0,049	-0,012
-155,935	-200,000	0,004	0,058
-154,920	391,701	-0,096	0,142
-153,906	134,198	-0,183	0,168
-152,891	46,998	-0,079	0,052
-151,877	800,000	-0,013	-0,034
-150,862	-145,024	0,049	0,003
-149,847	-25,099	-0,107	0,045
-148,833	415,003	-0,031	-0,047
-147,818	221,607	0,086	-0,099
-146,804	44,616	0,029	0,019
-145,789	-200,000	-0,005	-0,062
-144,775	123,964	0,205	-0,183
-143,760	453,726	0,052	-0,082
-142,745	358,446	-0,051	-0,072
-141,731	800,000	0,006	0,013
-140,716	800,000	0,062	0,127
-139,702	-73,960	0,115	-0,029
-138,687	82,745	0,039	0,030
-137,672	-152,207	-0,112	0,006
-136,658	-37,177	0,142	-0,054
-135,643	-200,000	0,019	-0,135
-134,629	-72,330	-0,074	0,019
-133,614	161,627	-0,086	-0,085
-132,599	306,527	0,037	0,049
-131,585	49,136	-0,074	0,049
-130,570	413,606	-0,031	-0,046
-129,556	231,430	-0,004	-0,005
-128,541	-200,000	-0,116	0,000
-127,526	-200,000	0,017	0,058
-126,512	-200,000	-0,017	-0,161
-125,497	-72,470	-0,068	-0,018
-124,483	119,538	0,033	0,029
-123,468	105,998	-0,065	0,054
-122,453	-200,000	0,021	-0,078
-121,439	-200,000	0,022	0,071
-120,424	800,000	0,063	0,156
-119,410	47,468	0,062	0,041
-118,395	800,000	0,029	0,074
-117,380	2,615	0,044	0,022
-116,366	-33,560	0,027	0,010
-115,351	800,000	-0,047	-0,142
-114,337	800,000	-0,020	0,055
-113,322	-200,000	-0,011	0,038
-112,307	-139,745	0,193	-0,014
-111,293	304,887	-0,068	0,090
-110,278	605,674	-0,035	-0,062
-109,264	-118,646	0,149	0,018
-108,249	-169,515	-0,095	-0,002
-107,234	-45,064	-0,047	-0,016
-106,220	100,568	-0,061	-0,050
-105,205	167,181	-0,094	-0,094
-104,191	16,611	0,093	-0,052
-103,176	-200,000	-0,017	0,087
-102,162	627,923	0,040	0,072
-101,147	-149,667	0,048	0,003
-100,132	32,153	-0,024	0,014
-99,118	-200,000	0,019	-0,126
-98,103	-200,000	0,004	0,041
-97,089	-158,419	0,046	0,002
-96,074	-200,000	0,004	0,055
-95,059	169,920	0,068	-0,069
-94,045	671,458	0,064	0,119
-93,030	-200,000	0,008	-0,056
-92,016	64,575	-0,097	-0,069
-91,001	-18,764	-0,142	-0,062
-89,986	107,096	-0,071	-0,060
-88,972	-65,619	0,032	-0,009
-87,957	-56,303	0,042	-0,013
-86,943	-200,000	0,000	0,157
-85,928	685,289	0,040	-0,074
-84,913	506,527	0,064	-0,105
-83,899	-20,638	0,117	0,051
-82,884	413,387	-0,014	-0,021
-81,870	188,848	-0,086	0,091
-80,855	204,166	-0,042	-0,046
-79,840	800,000	-0,027	0,068
-78,826	-200,000	-0,027	-0,087
-77,811	664,359	0,025	0,047
-76,797	-200,000	-0,008	-0,099
-75,782	47,576	0,135	-0,089
-74,767	395,255	0,019	-0,028
-73,753	76,241	-0,013	0,010
-72,738	113,088	-0,085	-0,073
-71,724	-109,982	-0,240	0,035
-70,709	-166,151	-0,109	-0,003
-69,694	-200,000	-0,020	0,086
-68,680	237,280	0,028	0,033
-67,665	-60,594	0,087	-0,026
-66,651	-107,742	-0,065	0,010
-65,636	-11,251	-0,113	0,052
-64,622	-88,504	0,112	-0,023
-63,607	-76,637	0,135	-0,033
-62,592	800,000	0,020	-0,039
-61,578	-200,000	0,008	-0,039
-60,563	-130,589	0,057	-0,005
-59,549	76,638	0,063	0,047
-58,534	41,425	-2,014	-1,284
-57,519	497,808	-1,164	-1,899
-56,505	-200,000	-0,397	-4,346
-55,490	777,332	0,900	1,743
-54,476	800,000	5,198	11,191
-53,461	-200,000	21,767	339,536
-52,446	800,000	761,418	2316,581
-51,432	539,156	1656,863	2792,195
-50,417	70,195	1653,518	1203,699
-49,403	16,973	1527,389	851,545
-48,388	11,036	1451,787	780,789
-47,373	19,067	1443,727	814,827
-46,359	14,458	1432,399	786,568
-45,344	9,385	1428,389	760,271
-44,330	9,298	1426,581	758,863
-43,315	9,266	1424,722	757,691
-42,300	9,293	1422,946	756,846
-41,286	9,316	1421,636	756,228
-40,271	9,305	1420,236	755,402
-39,257	9,272	1419,554	754,854
-38,242	9,348	1418,106	754,412
-37,227	9,359	1417,087	753,892
-36,213	9,335	1415,853	753,091
-35,198	9,311	1414,686	752,330
-34,184	9,339	1413,763	751,941
-33,169	9,242	1412,248	750,649
-32,154	9,332	1411,299	750,537
-31,140	9,358	1410,030	749,954
-30,125	9,349	1408,974	749,318
-29,111	9,318	1408,035	748,645
-28,096	9,315	1406,637	747,860
-27,082	9,272	1405,216	746,873
-26,067	9,187	1404,545	746,088
-25,052	9,336	1403,278	746,081
-24,038	9,284	1402,400	745,341
-23,023	9,281	1401,416	744,777
-22,009	9,239	1400,393	744,007
-20,994	9,269	1399,360	743,568
-19,979	9,279	1398,379	743,064
-18,965	9,260	1397,486	742,472
-17,950	9,253	1396,456	741,862
-16,936	9,228	1395,622	741,275
-15,921	9,152	1394,773	740,442
-14,906	9,187	1393,778	740,046
-13,892	9,217	1392,813	739,642
-12,877	9,181	1392,242	739,143
-11,863	9,203	1391,284	738,709
-10,848	9,163	1390,405	738,025
-9,833	9,131	1389,295	737,262
-8,819	9,084	1388,631	736,665
-7,804	9,079	1387,609	736,067
-6,790	9,072	1386,610	735,475
-5,775	9,092	1385,585	734,994
-4,760	9,093	1384,654	734,477
-3,746	9,118	1383,595	734,003
-2,731	9,122	1382,789	733,563
-1,717	9,081	1381,895	732,871
-0,702	9,071	1380,320	731,959
0,313	13,090	1292,211	703,533
1,327	29,094	684,133	408,466
2,342	45,318	117,984	76,620
3,356	0,738	16,332	8,217
4,371	1,830	3,646	1,848
5,386	-12,708	1,095	0,501
6,400	553,824	0,429	0,729
7,415	-19,209	-0,195	-0,085
8,429	83,999	-0,337	-0,260
9,444	257,943	-0,219	-0,267
10,459	-70,298	-0,232	-0,062
11,473	-41,728	-0,326	-0,117
12,488	197,947	-0,169	-0,182
13,502	111,253	-0,217	-0,184
14,517	-147,086	-0,295	-0,017
15,531	-191,419	-0,339	0,002
16,546	20,041	-0,393	-0,223
17,561	49,976	-0,204	-0,136
18,575	60,984	-0,110	-0,077
19,590	139,874	-0,293	-0,272
20,604	-31,682	-0,359	-0,141
21,619	100,409	-0,443	-0,362
22,634	93,108	-0,454	-0,361
23,648	29,964	-0,523	-0,313
24,663	316,450	-0,325	-0,433
25,677	129,528	-0,295	-0,265
26,692	44,897	-0,291	-0,188
27,707	116,231	-0,216	-0,186
28,721	52,320	-0,441	-0,296
29,736	5,094	-0,461	-0,238
30,750	28,230	-0,477	-0,282
31,765	38,367	-0,376	-0,235
32,780	156,748	-0,272	-0,264
33,794	187,672	-0,227	-0,238
34,809	241,438	-0,225	-0,264
35,823	12,090	-0,394	-0,212
36,838	285,174	-0,268	-0,341
37,853	70,200	-0,362	-0,263
38,867	55,691	-0,457	-0,311
39,882	38,003	-0,254	-0,159
40,896	92,129	-0,208	-0,164
41,911	102,567	-0,350	-0,287
42,926	182,204	-0,204	-0,211
43,940	95,085	-0,427	-0,341
44,955	235,108	-0,307	-0,356
45,969	95,814	-0,352	-0,282
46,984	142,908	-0,325	-0,304
47,999	-34,438	-0,406	-0,156
49,013	99,245	-0,301	-0,244
50,028	32,531	-0,287	-0,174
51,042	120,571	-0,350	-0,305
52,057	184,353	-0,339	-0,353
53,071	238,902	-0,329	-0,385
54,086	140,414	-0,259	-0,241
55,101	-72,430	-0,245	-0,063
56,115	-12,658	-0,278	-0,127
57,130	-96,226	-0,222	-0,041
58,144	48,397	-0,388	-0,254
59,159	37,363	-0,367	-0,228
60,174	50,258	-0,393	-0,260
61,188	56,602	-0,355	-0,242
62,203	-83,101	-0,470	-0,105
63,217	-57,336	-0,305	-0,094
64,232	-98,397	-0,226	0,040
65,247	-39,545	-0,473	-0,173
66,261	155,470	-0,315	-0,304
67,276	30,694	-0,385	-0,230
68,290	-76,337	-0,313	-0,077
69,305	18,299	-0,302	-0,169
70,320	340,099	-0,179	-0,245
71,334	161,410	-0,316	-0,310
72,349	47,344	-0,306	-0,200
73,363	107,396	-0,367	-0,306
74,378	175,232	-0,214	-0,218
75,393	302,766	-0,189	-0,246
76,407	-5,059	-0,343	-0,165
77,422	-52,474	-0,306	-0,098
78,436	-64,000	-0,341	-0,097
79,451	-23,122	-0,266	-0,112
80,466	36,201	-0,357	-0,220
81,480	-147,321	-0,366	0,021
82,495	182,779	-0,263	-0,272
83,509	-3,500	-0,323	-0,157
84,524	-172,347	-0,256	0,006
85,539	-13,984	-0,327	-0,147
86,553	140,279	-0,186	-0,172
87,568	177,381	-0,322	-0,328
88,582	30,537	-0,344	-0,205
89,597	79,844	-0,309	-0,232
90,611	120,195	-0,256	-0,223
91,626	518,555	-0,145	-0,238
92,641	-7,185	-0,411	-0,195
93,655	73,819	-0,250	-0,183
94,670	143,427	-0,209	-0,195
95,684	-98,556	-0,288	-0,051
96,699	122,745	-0,249	-0,218
97,714	134,204	-0,149	-0,135
98,728	-116,279	-0,127	0,016
99,743	132,897	-0,196	-0,177
100,757	53,510	-0,276	-0,185
101,772	-200,000	-0,059	-0,209
102,787	99,794	-0,166	-0,135
103,801	60,408	-0,326	-0,225
104,816	197,662	-0,158	-0,169
105,830	-66,684	-0,203	0,056
106,845	123,958	-0,116	-0,102
107,860	-96,370	-0,273	-0,050
108,874	49,513	-0,208	-0,137
109,889	-102,943	-0,331	-0,054
110,903	-200,000	-0,021	-0,283
111,918	-4,859	-0,220	-0,105
112,933	91,612	-0,217	-0,171
113,947	-32,536	-0,280	-0,109
114,962	111,673	-0,261	-0,220
115,976	160,539	-0,234	-0,228
116,991	-14,410	-0,295	-0,132
118,006	54,356	-0,229	-0,154
119,020	-55,603	-0,224	-0,069
120,035	209,824	-0,190	-0,208
121,049	2,066	-0,167	-0,084
122,064	110,589	-0,189	-0,159
123,079	-33,143	-0,219	-0,084
124,093	266,361	-0,136	-0,166
125,108	100,821	-0,342	-0,277
126,122	42,695	-0,273	-0,173
127,137	50,972	-0,224	-0,148
128,151	116,128	-0,243	-0,207
129,166	61,240	-0,128	-0,089
130,181	244,783	-0,147	-0,173
131,195	529,728	-0,226	-0,373
132,210	226,230	-0,177	-0,201
133,224	-13,232	-0,303	-0,137
134,239	11,885	-0,209	-0,112
135,254	-80,554	-0,328	-0,076
136,268	346,059	-0,150	-0,206
137,283	14,288	-0,212	-0,115
138,297	-23,704	-0,314	-0,130
139,312	76,320	-0,287	-0,211
140,327	-41,171	-0,391	-0,140
141,341	106,760	-0,145	-0,120
142,356	8,212	-0,224	-0,117
143,370	6,544	-0,345	-0,178
144,385	652,997	-0,126	-0,226
145,400	145,799	-0,183	-0,171
146,414	184,748	-0,223	-0,231
147,429	68,576	-0,272	-0,194
148,443	-25,171	-0,272	-0,112
149,458	-42,608	-0,206	-0,072
150,473	-66,604	-0,172	-0,047
151,487	33,212	-0,295	-0,178
152,502	175,965	-0,269	-0,272
153,516	108,274	-0,206	-0,171
154,531	41,723	-0,233	-0,146
155,546	161,872	-0,172	-0,168
156,560	239,314	-0,145	-0,168
157,575	-75,350	-0,204	-0,050
158,589	127,948	-0,191	-0,169
159,604	73,368	-0,213	-0,155
160,619	117,535	-0,224	-0,192
161,633	372,095	-0,180	-0,255
162,648	98,517	-0,232	-0,186
163,662	265,282	-0,112	-0,136
164,677	-60,882	-0,200	-0,058
165,692	-152,494	-0,232	-0,011
166,706	222,017	-0,192	-0,216
167,721	116,114	-0,196	-0,167
168,735	455,302	-0,163	-0,252
169,750	800,000	-0,129	-0,251
170,764	24,740	-0,250	-0,144
171,779	128,560	-0,269	-0,238
172,794	-5,165	-0,290	-0,138
173,808	176,365	-0,164	-0,166
174,823	800,000	-0,110	-0,304
175,837	198,903	-0,259	-0,276
176,852	-153,964	-0,363	0,017
177,867	176,633	-0,179	-0,181
178,881	124,975	-0,081	-0,070
179,896	800,000	-0,124	-0,341
180,910	164,418	-0,072	-0,071
181,925	180,969	-0,229	-0,234
182,940	396,392	-0,203	-0,295
183,954	106,170	-0,211	-0,174
184,969	134,348	-0,160	-0,144
185,983	-62,227	-0,135	-0,039
186,998	-44,293	-0,264	-0,091
188,013	-94,709	-0,238	-0,045
189,027	76,281	-0,166	-0,122
190,042	54,852	-0,220	-0,147
191,056	10,485	-0,226	-0,119
192,071	123,744	-0,207	-0,180
193,086	12,021	-0,174	-0,092
194,100	256,586	-0,155	-0,185
195,115	126,507	-0,245	-0,215
196,129	73,700	-0,211	-0,153
197,144	54,176	-0,248	-0,165
198,159	-44,941	-0,250	-0,086
199,173	-51,292	-0,062	-0,020
200,188	262,052	-0,142	-0,171
201,202	-30,389	-0,151	-0,059
202,217	-55,312	-0,196	-0,061
203,232	289,775	-0,221	-0,278
204,246	-25,142	-0,238	-0,097
205,261	260,000	-0,162	-0,194
206,275	3,725	-0,187	-0,094
207,290	0,631	-0,199	-0,098
208,304	402,705	-0,126	-0,184
209,319	5,230	-0,142	-0,072
210,334	18,089	-0,113	-0,062
211,348	369,759	-0,157	-0,221
212,363	169,113	-0,183	-0,180
213,377	685,296	-0,207	-0,376
214,392	108,796	-0,230	-0,190
215,407	-20,267	-0,037	-0,016
216,421	345,110	-0,093	-0,127
217,436	124,365	-0,210	-0,183
218,450	-30,870	-0,283	-0,110
219,465	25,585	-0,271	-0,156
220,480	116,682	-0,266	-0,226
221,494	-200,000	-0,016	-0,059
222,509	-78,921	-0,129	-0,030
223,523	-72,826	-0,211	-0,053
224,538	41,777	-0,264	-0,165
225,553	72,983	-0,217	-0,157
226,567	-123,349	-0,266	-0,029
227,582	170,052	-0,182	-0,180
228,596	800,000	-0,072	-0,196
229,611	-31,590	-0,219	-0,085
230,626	0,370	-0,123	-0,061
231,640	-19,172	-0,259	-0,111
232,655	-129,132	-0,260	0,025
233,669	73,903	-0,161	-0,116
234,684	96,198	-0,228	-0,180
235,699	6,712	-0,184	-0,094
236,713	41,259	-0,094	-0,059
237,728	-56,306	-0,115	-0,035
238,742	91,098	-0,162	-0,126
239,757	427,431	-0,109	-0,162
240,772	86,151	-0,183	-0,139
241,786	58,950	-0,117	-0,080
242,801	-162,538	-0,151	0,005
243,815	-137,204	-0,231	-0,018
244,830	-54,581	-0,198	0,061
245,844	158,483	-0,146	-0,140
246,859	138,619	-0,186	-0,169
247,874	800,000	-0,103	-0,204
248,888	152,246	-0,166	-0,157
249,903	257,362	-0,080	-0,095
250,917	-31,499	-0,141	-0,054
251,932	800,000	-0,034	-0,097
252,947	-117,152	-0,112	-0,014
253,961	68,792	-0,140	-0,099
254,976	208,852	-0,100	-0,108
255,990	7,964	-0,211	-0,109
257,005	498,270	-0,130	-0,207
258,020	0,506	-0,130	-0,064
259,034	800,000	-0,117	-0,284
260,049	139,972	-0,160	-0,146
261,063	424,777	-0,131	-0,195
262,078	379,988	-0,166	-0,235
263,093	-89,978	-0,192	-0,038
264,107	-12,780	-0,150	-0,067
265,122	800,000	-0,102	-0,195
266,136	-137,624	-0,237	-0,018
267,151	105,159	-0,173	-0,140
268,166	31,036	-0,127	-0,075
269,180	-104,810	-0,136	-0,021
270,195	231,264	-0,086	-0,097
271,209	99,141	-0,156	-0,124
272,224	-99,134	-0,222	-0,038
273,239	221,300	-0,103	-0,114
274,253	69,027	-0,154	0,109
275,268	-13,448	-0,112	-0,050
276,282	168,183	-0,133	-0,130
277,297	-23,203	-0,126	-0,052
278,312	419,041	-0,154	-0,228
279,326	-200,000	-0,062	-0,200
280,341	-109,764	-0,134	0,019
281,355	-95,217	-0,087	0,016
282,370	68,693	-0,084	-0,060
283,384	419,215	-0,123	-0,182
284,399	800,000	-0,079	-0,215
285,414	-7,361	-0,166	-0,077
286,428	-68,167	-0,195	-0,052
287,443	1,583	-0,072	-0,035
288,457	159,764	-0,155	-0,149
289,472	46,571	-0,083	0,053
290,487	-8,175	-0,258	-0,119
291,501	127,213	-0,131	-0,114
292,516	-24,817	-0,160	-0,065
293,530	70,606	-0,094	-0,066
294,545	659,267	-0,055	-0,097
295,560	49,887	-0,166	-0,107
296,574	505,187	-0,110	-0,175
297,589	-76,997	-0,127	0,030
298,603	76,180	-0,212	-0,154
299,618	-107,724	-0,339	-0,050
300,633	34,418	-0,154	-0,092
301,647	449,571	-0,074	-0,112
302,662	800,000	-0,079	-0,162
303,676	1,532	-0,189	-0,093
304,691	800,000	-0,059	-0,161
305,706	632,387	-0,094	-0,164
306,720	335,933	-0,120	-0,161
307,735	0,752	-0,206	-0,101
308,749	-72,688	-0,167	-0,042
309,764	-12,957	-0,131	0,058
310,779	-200,000	-0,004	-0,201
311,793	21,232	-0,151	-0,084
312,808	74,214	-0,355	-0,255
313,822	-57,586	-0,254	-0,076
314,837	-87,682	-0,105	0,022
315,852	-1,853	-0,118	-0,057
316,866	147,143	-0,152	-0,141
317,881	-200,000	-0,059	-0,217
318,895	566,899	-0,071	0,119
319,910	800,000	-0,025	-0,050
320,925	-21,347	-0,096	-0,040
321,939	-43,174	-0,190	-0,065
322,954	800,000	-0,075	-0,181
323,968	800,000	-0,018	-0,044
324,983	15,665	-0,152	-0,082
325,997	187,575	-0,142	-0,146
327,012	800,000	-0,022	0,063
328,027	472,621	-0,103	-0,159
329,041	682,423	-0,104	-0,187
330,056	226,329	-0,109	-0,122
331,070	194,175	-0,179	-0,186
332,085	12,620	-0,187	-0,099
333,100	57,021	-0,217	-0,145
334,114	800,000	-0,066	-0,141
335,129	-200,000	0,004	-0,206
336,143	-200,000	0,001	-0,100
337,158	747,348	-0,094	-0,175
338,173	97,451	-0,136	0,107
339,187	-116,284	-0,101	-0,013
340,202	129,102	-0,100	-0,087
341,216	-56,318	-0,122	-0,037
342,231	152,634	-0,070	-0,065
343,246	-73,037	0,023	0,006
344,260	56,707	-0,083	-0,055
345,275	199,362	-0,088	0,092
346,289	498,595	-0,118	-0,186
347,304	-80,011	-0,149	0,034
348,319	205,216	-0,073	-0,078
349,333	-97,128	-0,143	-0,025
350,348	-66,883	-0,079	-0,021
351,362	-121,847	-0,229	-0,026
352,377	179,824	-0,118	-0,119
353,392	90,122	-0,211	-0,161
354,406	-93,814	-0,067	0,012
355,421	207,122	1306,842	1395,075
356,435	159,323	1466,564	1395,553
