DTS Sentinel unit serial number:	SN410029Multiplexer serial number:	ORYXHardware model number:	OX2-SRSoftware version number:	ORYX F/W v4,00 Oryx Data Collector v3.7.2.0data status	okinstallation	B3 Nyhavnadifferential loss correction	single-endedforward channel	channel 1reverse channel	N/Adate	2023/11/30time	03:02:30forward acquisition time	300,00reverse acquisition time	0,00gamma	499,1914k internal	0,3210k external	0,3210temperature offset calibration	1,0000default loss term (dB/km)	0,3820temperature slope calibration	1,0000multiplexer offset coefficient	1,0000multiplexer slope coefficient	1,0000fibre end	0,00T internal ref (°C)	10,30T ext. ref 1 (°C)	-5,40T ext. ref 2 (°C)	-5,52length (m)	temperature (°C)	Stokes	anti-Stokes-744,400	146,716	-0,136	-0,133
-743,385	171,602	-0,146	0,152
-742,371	-200,000	-0,089	-0,339
-741,356	800,000	-0,104	0,252
-740,342	63,601	-0,326	-0,237
-739,327	-200,000	-0,011	0,398
-738,312	800,000	-0,102	-0,274
-737,298	76,131	-0,167	0,128
-736,283	-200,000	-0,040	-0,141
-735,269	-200,000	0,013	0,276
-734,254	185,166	-0,199	-0,214
-733,239	233,253	-0,135	0,161
-732,225	319,603	-0,120	-0,166
-731,210	-200,000	-0,012	0,140
-730,196	51,692	0,105	-0,072
-729,181	10,211	-0,195	0,107
-728,167	-200,000	-0,000	0,144
-727,152	800,000	-0,065	-0,173
-726,137	237,086	-0,112	-0,135
-725,123	-60,663	0,073	0,022
-724,108	-53,197	-0,083	-0,028
-723,094	-200,000	-0,021	-0,153
-722,079	217,088	-0,064	-0,074
-721,064	-58,212	0,079	0,025
-720,050	557,978	-0,008	-0,014
-719,035	-15,694	-0,062	-0,028
-718,021	103,807	-0,081	-0,069
-717,006	426,094	-0,086	-0,135
-715,991	800,000	-0,067	-0,160
-714,977	-200,000	-0,011	-0,101
-713,962	-200,000	-0,008	-0,077
-712,948	11,273	0,051	0,028
-711,933	236,610	-0,037	-0,044
-710,918	41,537	0,112	0,073
-709,904	137,288	-0,098	-0,092
-708,889	-200,000	-0,028	-0,236
-707,875	-200,000	0,017	-0,147
-706,860	369,110	0,109	-0,161
-705,845	313,843	-0,045	-0,061
-704,831	294,993	0,061	0,081
-703,816	298,522	0,009	0,013
-702,802	-36,174	0,053	0,021
-701,787	200,891	-0,127	0,142
-700,772	141,303	-0,020	-0,019
-699,758	257,725	-0,087	-0,109
-698,743	-140,040	-0,062	-0,005
-697,729	-72,999	-0,089	-0,024
-696,714	800,000	0,046	0,123
-695,699	-65,374	-0,106	-0,031
-694,685	-200,000	-0,005	-0,089
-693,670	117,695	-0,031	-0,028
-692,656	33,157	-0,063	-0,040
-691,641	-200,000	-0,016	0,105
-690,627	-162,755	-0,087	-0,003
-689,612	800,000	-0,038	0,121
-688,597	800,000	0,043	-0,099
-687,583	-124,470	0,118	0,013
-686,568	664,567	0,050	-0,094
-685,554	557,662	-0,096	-0,169
-684,539	-109,305	0,242	0,037
-683,524	166,412	-0,048	-0,050
-682,510	19,198	0,037	0,021
-681,495	-19,027	-0,124	-0,055
-680,481	290,045	0,013	0,017
-679,466	-200,000	-0,031	-0,127
-678,451	-200,000	-0,003	-0,122
-677,437	88,246	0,118	0,095
-676,422	94,044	-0,048	-0,039
-675,408	-200,000	0,005	0,044
-674,393	-200,000	0,009	0,053
-673,378	-53,232	-0,156	0,051
-672,364	-34,023	-0,038	0,015
-671,349	-44,514	-0,060	0,022
-670,335	-71,871	-0,074	0,020
-669,320	252,848	0,056	-0,069
-668,305	-94,094	0,072	-0,014
-667,291	6,095	0,054	0,029
-666,276	800,000	0,020	-0,056
-665,262	-118,364	0,032	0,004
-664,247	66,014	-0,131	-0,096
-663,232	130,474	0,039	0,036
-662,218	-200,000	0,034	-0,171
-661,203	-200,000	-0,016	0,064
-660,189	50,386	0,107	0,073
-659,174	800,000	-0,024	-0,068
-658,159	800,000	-0,071	-0,181
-657,145	66,014	-0,151	-0,111
-656,130	93,695	0,042	0,034
-655,116	-200,000	0,030	0,138
-654,101	13,760	0,092	0,052
-653,086	-200,000	-0,010	-0,061
-652,072	-61,339	-0,092	-0,028
-651,057	172,371	0,065	0,068
-650,043	-200,000	-0,033	-0,132
-649,028	-200,000	0,017	0,063
-648,014	36,464	-0,044	0,028
-646,999	350,755	0,036	0,052
-645,984	162,296	0,110	-0,112
-644,970	20,203	-0,054	-0,031
-643,955	800,000	-0,029	-0,059
-642,941	-200,000	-0,018	-0,081
-641,926	-1,807	-0,089	0,045
-640,911	59,019	-0,046	0,033
-639,897	-91,243	-0,085	-0,017
-638,882	113,826	0,059	0,052
-637,868	-200,000	-0,001	0,018
-636,853	-170,067	-0,168	-0,004
-635,838	-140,885	-0,072	0,005
-634,824	-67,169	-0,097	-0,027
-633,809	178,100	0,091	-0,096
-632,795	322,571	0,066	0,090
-631,780	287,760	-0,050	0,065
-630,765	-91,451	-0,115	0,023
-629,751	-40,099	0,166	0,062
-628,736	-200,000	-0,033	-0,128
-627,722	368,418	0,033	0,048
-626,707	-200,000	0,005	0,063
-625,692	-200,000	0,001	0,028
-624,678	-67,186	0,087	0,024
-623,663	456,572	0,076	-0,122
-622,649	-76,535	-0,085	-0,021
-621,634	-57,027	-0,271	-0,086
-620,619	-200,000	0,014	-0,106
-619,605	157,456	0,093	0,093
-618,590	180,546	-0,063	0,067
-617,576	310,468	-0,055	-0,074
-616,561	-96,768	0,086	-0,016
-615,546	307,835	0,028	-0,038
-614,532	236,364	-0,102	-0,122
-613,517	-200,000	0,013	0,041
-612,503	800,000	-0,032	0,087
-611,488	316,695	0,077	0,105
-610,474	-200,000	-0,009	-0,088
-609,459	183,997	-0,103	-0,110
-608,444	-200,000	-0,042	-0,178
-607,430	620,358	0,098	0,179
-606,415	-200,000	-0,010	-0,047
-605,401	-200,000	-0,027	0,184
-604,386	305,057	-0,044	0,059
-603,371	-103,178	0,070	-0,012
-602,357	-30,323	-0,076	-0,031
-601,342	315,245	-0,126	-0,172
-600,328	157,513	-0,146	-0,146
-599,313	-4,279	-0,101	0,050
-598,298	127,142	0,041	0,038
-597,284	-89,783	-0,076	0,016
-596,269	522,458	-0,037	-0,063
-595,255	-200,000	0,019	-0,072
-594,240	86,204	-0,028	0,022
-593,225	-82,873	-0,114	-0,026
-592,211	174,492	0,105	-0,110
-591,196	-153,682	0,091	-0,004
-590,182	268,401	0,036	-0,046
-589,167	-200,000	-0,011	0,108
-588,152	-200,000	0,003	0,011
-587,138	-22,291	-0,131	0,057
-586,123	-151,055	0,026	0,001
-585,109	-95,268	-0,160	-0,031
-584,094	-200,000	0,007	-0,064
-583,079	-101,379	0,123	0,021
-582,065	46,380	-0,126	-0,084
-581,050	-200,000	0,010	0,104
-580,036	152,558	0,074	-0,073
-579,021	425,744	-0,037	0,058
-578,006	43,005	-0,078	0,051
-576,992	-200,000	0,003	-0,014
-575,977	490,186	-0,014	-0,023
-574,963	591,520	0,067	0,120
-573,948	-200,000	0,001	0,020
-572,934	-178,885	-0,069	-0,001
-571,919	126,025	-0,093	0,084
-570,904	383,985	-0,034	0,050
-569,890	-200,000	-0,008	0,056
-568,875	-27,668	-0,102	0,043
-567,861	-200,000	-0,015	-0,056
-566,846	800,000	0,063	0,145
-565,831	4,686	0,024	0,013
-564,817	-68,491	-0,047	0,013
-563,802	-200,000	-0,028	-0,220
-562,788	-200,000	0,017	0,072
-561,773	245,823	-0,030	0,036
-560,758	-151,810	-0,110	0,006
-559,744	-200,000	0,003	0,100
-558,729	-1,333	-0,073	0,037
-557,715	300,568	-0,065	0,086
-556,700	-163,408	-0,241	-0,008
-555,685	32,813	-0,043	0,027
-554,671	41,034	-0,018	0,012
-553,656	191,676	0,062	0,067
-552,642	159,693	0,133	0,133
-551,627	800,000	0,035	0,108
-550,612	-200,000	-0,004	0,086
-549,598	800,000	0,032	-0,074
-548,583	-147,557	-0,059	0,004
-547,569	-200,000	0,011	0,112
-546,554	800,000	-0,056	0,155
-545,539	34,903	0,145	-0,091
-544,525	476,545	-0,052	0,085
-543,510	-92,906	-0,130	0,026
-542,496	-106,565	0,076	-0,012
-541,481	115,157	-0,133	-0,116
-540,466	45,330	0,071	-0,047
-539,452	800,000	0,071	0,144
-538,437	800,000	0,051	0,151
-537,423	-118,366	-0,091	-0,011
-536,408	312,233	-0,108	0,147
-535,393	101,341	0,022	-0,018
-534,379	305,238	0,076	-0,102
-533,364	115,386	0,037	0,033
-532,350	492,840	-0,026	-0,044
-531,335	100,428	0,051	0,042
-530,321	-111,048	0,176	0,026
-529,306	400,663	0,048	0,073
-528,291	22,802	-0,053	-0,031
-527,277	800,000	0,029	-0,083
-526,262	-24,537	0,039	-0,017
-525,248	800,000	-0,008	-0,016
-524,233	-200,000	-0,000	0,033
-523,218	131,459	0,012	-0,011
-522,204	546,807	-0,072	0,125
-521,189	403,856	-0,073	-0,111
-520,175	108,039	0,060	-0,052
-519,160	-130,400	-0,141	-0,014
-518,145	-153,138	0,107	-0,005
-517,131	51,739	-0,004	0,003
-516,116	412,709	0,042	-0,065
-515,102	459,040	-0,067	-0,107
-514,087	-184,196	-0,010	-0,000
-513,072	339,107	-0,103	-0,144
-512,058	-200,000	-0,002	-0,118
-511,043	-122,364	0,045	0,005
-510,029	-200,000	-0,009	0,152
-509,014	41,229	0,117	0,076
-507,999	120,778	0,091	0,081
-506,985	12,547	-0,074	-0,041
-505,970	-200,000	0,026	-0,173
-504,956	-200,000	0,020	-0,095
-503,941	-151,833	-0,044	-0,002
-502,926	3,052	0,070	-0,037
-501,912	40,118	0,059	-0,038
-500,897	104,639	-0,085	-0,072
-499,883	-200,000	0,013	-0,152
-498,868	-200,000	-0,026	-0,120
-497,853	341,397	-0,054	0,076
-496,839	-200,000	0,006	0,037
-495,824	352,449	-0,071	0,102
-494,810	439,902	-0,052	0,082
-493,795	-98,503	-0,097	-0,018
-492,781	-47,177	-0,071	0,025
-491,766	249,470	0,127	-0,155
-490,751	-200,000	0,034	-0,136
-489,737	-198,894	0,032	-0,000
-488,722	72,381	0,101	0,075
-487,708	-165,307	-0,056	-0,002
-486,693	152,905	0,045	-0,044
-485,678	67,458	0,122	0,089
-484,664	46,719	-0,019	-0,013
-483,649	-114,029	-0,058	-0,008
-482,635	-200,000	0,014	0,054
-481,620	-124,577	0,063	0,007
-480,605	-200,000	-0,008	0,073
-479,591	-15,528	0,096	0,044
-478,576	-40,094	-0,114	-0,042
-477,562	-200,000	0,019	-0,064
-476,547	-152,758	-0,051	0,003
-475,532	-86,588	-0,259	-0,056
-474,518	334,391	-0,080	-0,112
-473,503	-54,990	0,098	0,032
-472,489	800,000	-0,012	0,026
-471,474	800,000	-0,031	-0,085
-470,459	542,984	-0,020	-0,035
-469,445	234,176	-0,083	-0,099
-468,430	-132,507	-0,057	-0,005
-467,416	10,675	0,073	-0,040
-466,401	-31,108	-0,045	-0,018
-465,386	238,967	0,089	0,106
-464,372	-200,000	0,021	0,143
-463,357	-123,505	-0,108	-0,012
-462,343	-78,408	-0,080	0,020
-461,328	207,147	0,032	-0,036
-460,313	-41,713	0,046	0,017
-459,299	-178,616	0,081	-0,001
-458,284	-200,000	0,005	0,088
-457,270	-28,112	0,091	-0,038
-456,255	-4,940	-0,065	-0,032
-455,241	267,315	-0,017	0,022
-454,226	-200,000	-0,003	0,027
-453,211	-89,115	-0,104	0,022
-452,197	78,799	0,089	0,068
-451,182	-200,000	0,006	-0,067
-450,168	-160,689	-0,040	0,001
-449,153	232,158	-0,049	-0,057
-448,138	11,789	0,179	-0,098
-447,124	22,338	-0,105	-0,061
-446,109	265,517	0,123	0,154
-445,095	-24,215	0,035	-0,015
-444,080	257,647	0,090	0,112
-443,065	-200,000	0,011	-0,094
-442,051	-23,526	-0,144	0,062
-441,036	-200,000	0,020	-0,083
-440,022	242,575	-0,066	-0,079
-439,007	-200,000	-0,020	-0,068
-437,992	196,967	-0,104	-0,114
-436,978	2,924	-0,027	-0,014
-435,963	-166,919	-0,075	-0,002
-434,949	171,271	-0,098	0,101
-433,934	-200,000	-0,011	0,105
-432,919	91,249	0,031	0,025
-431,905	327,027	-0,016	0,021
-430,890	-159,411	0,077	-0,003
-429,876	316,674	0,024	0,032
-428,861	57,358	-0,043	-0,030
-427,846	-24,028	-0,152	-0,065
-426,832	-200,000	0,009	-0,150
-425,817	-163,733	0,134	-0,004
-424,803	-51,491	-0,169	-0,056
-423,788	232,589	0,101	-0,119
-422,773	155,767	-0,059	0,059
-421,759	-112,173	0,092	0,013
-420,744	-114,748	-0,009	0,001
-419,730	569,870	-0,060	-0,104
-418,715	8,985	0,003	-0,002
-417,701	-200,000	-0,009	-0,054
-416,686	-89,976	0,134	-0,028
-415,671	-149,559	0,068	0,004
-414,657	-200,000	-0,010	-0,033
-413,642	-67,479	-0,157	0,044
-412,628	585,447	-0,024	0,042
-411,613	329,675	-0,088	-0,122
-410,598	-200,000	0,026	0,108
-409,584	129,894	0,061	0,056
-408,569	509,876	0,062	0,104
-407,555	187,360	-0,079	0,085
-406,540	27,036	0,046	-0,028
-405,525	800,000	0,038	-0,090
-404,511	29,824	-0,105	0,064
-403,496	36,270	0,086	0,054
-402,482	800,000	0,040	-0,095
-401,467	-59,681	-0,055	0,017
-400,452	-200,000	0,004	0,016
-399,438	-66,386	-0,100	0,028
-398,423	640,027	-0,023	-0,042
-397,409	-200,000	0,184	-0,000
-396,394	300,974	-0,060	0,079
-395,379	-46,704	-0,022	0,008
-394,365	338,071	0,089	-0,124
-393,350	-125,377	-0,083	-0,009
-392,336	-32,742	-0,032	-0,013
-391,321	336,305	0,048	-0,067
-390,306	581,936	-0,009	0,017
-389,292	-72,726	0,037	0,010
-388,277	415,607	0,061	-0,094
-387,263	361,952	0,034	0,049
-386,248	-200,000	-0,002	0,094
-385,233	53,173	-0,031	0,021
-384,219	712,566	0,021	-0,041
-383,204	-5,848	0,046	-0,022
-382,190	-30,394	-0,045	-0,018
-381,175	134,626	-0,020	-0,019
-380,160	-2,248	-0,104	0,052
-379,146	-200,000	0,008	-0,069
-378,131	96,147	-0,072	-0,059
-377,117	-50,819	-0,047	0,016
-376,102	111,812	0,047	-0,040
-375,088	-200,000	-0,006	-0,140
-374,073	-200,000	-0,007	0,025
-373,058	800,000	-0,021	-0,046
-372,044	126,174	0,032	0,029
-371,029	560,299	0,048	0,084
-370,015	-200,000	-0,004	-0,060
-369,000	72,118	0,061	-0,045
-367,985	-200,000	0,017	-0,056
-366,971	-96,873	0,105	-0,020
-365,956	-200,000	-0,031	-0,112
-364,942	5,271	0,133	0,070
-363,927	-200,000	0,033	0,148
-362,912	-155,054	-0,133	0,006
-361,898	800,000	0,021	0,046
-360,883	-31,575	-0,059	0,024
-359,869	285,271	-0,023	-0,030
-358,854	377,165	0,086	0,127
-357,839	566,371	0,058	0,101
-356,825	-200,000	-0,018	0,075
-355,810	101,499	0,060	-0,050
-354,796	135,766	-0,038	0,035
-353,781	83,818	-0,096	-0,074
-352,766	800,000	-0,004	0,011
-351,752	222,621	0,034	-0,039
-350,737	-200,000	0,015	0,139
-349,723	273,685	0,139	0,175
-348,708	341,354	-0,021	0,029
-347,693	349,270	-0,052	-0,074
-346,679	-200,000	0,008	-0,077
-345,664	343,217	-0,060	-0,085
-344,650	-102,534	0,054	-0,009
-343,635	-200,000	0,013	0,050
-342,620	-101,528	-0,020	0,003
-341,606	207,244	-0,037	0,041
-340,591	130,518	-0,120	0,110
-339,577	-125,627	-0,153	0,016
-338,562	-200,000	0,024	0,151
-337,548	81,604	-0,073	-0,056
-336,533	-200,000	0,008	-0,064
-335,518	-71,853	0,084	-0,022
-334,504	800,000	0,043	0,117
-333,489	-82,532	0,083	-0,019
-332,475	800,000	-0,011	-0,033
-331,460	-200,000	-0,005	0,024
-330,445	44,174	0,051	-0,033
-329,431	800,000	-0,033	-0,100
-328,416	-26,210	0,202	-0,084
-327,402	800,000	-0,042	-0,120
-326,387	138,744	-0,059	-0,056
-325,372	479,200	-0,037	0,060
-324,358	800,000	-0,058	-0,163
-323,343	113,662	0,117	-0,102
-322,329	82,762	0,104	0,080
-321,314	-39,824	-0,030	0,011
-320,299	573,187	0,050	0,087
-319,285	2,627	-0,010	0,005
-318,270	800,000	0,055	-0,134
-317,256	162,843	-0,120	-0,120
-316,241	233,657	0,022	0,026
-315,226	-200,000	-0,037	-0,132
-314,212	-112,471	0,107	-0,015
-313,197	-200,000	-0,002	0,024
-312,183	-39,161	0,206	0,077
-311,168	69,818	-0,074	-0,055
-310,153	49,369	-0,090	-0,060
-309,139	-200,000	-0,003	-0,059
-308,124	-200,000	0,006	0,026
-307,110	-200,000	0,020	0,086
-306,095	292,983	-0,043	0,056
-305,080	-200,000	-0,001	-0,030
-304,066	800,000	0,006	-0,019
-303,051	-200,000	-0,012	0,075
-302,037	-183,931	0,195	-0,002
-301,022	30,682	-0,113	0,069
-300,008	-200,000	0,033	0,115
-298,993	-200,000	0,001	0,050
-297,978	72,412	0,127	-0,094
-296,964	41,278	0,061	0,039
-295,949	54,331	-0,026	-0,018
-294,935	97,334	0,070	0,057
-293,920	116,717	-0,088	-0,077
-292,905	800,000	0,056	-0,118
-291,891	-200,000	-0,020	0,125
-290,876	217,365	0,121	0,138
-289,862	-70,471	0,025	-0,007
-288,847	-200,000	-0,031	-0,117
-287,832	-200,000	0,001	-0,148
-286,818	-15,228	0,085	0,039
-285,803	800,000	0,026	0,077
-284,789	-94,012	0,052	0,010
-283,774	-200,000	-0,009	0,068
-282,759	800,000	-0,023	0,047
-281,745	-116,674	-0,084	-0,011
-280,730	800,000	-0,033	0,072
-279,716	22,373	-0,120	-0,070
-278,701	0,290	-0,024	0,012
-277,686	800,000	-0,045	0,128
-276,672	543,845	0,038	0,066
-275,657	107,447	0,083	0,070
-274,643	-200,000	-0,006	-0,046
-273,628	-79,041	-0,011	0,003
-272,613	-200,000	0,005	0,028
-271,599	-200,000	-0,015	0,155
-270,584	800,000	0,031	0,086
-269,570	-200,000	0,006	-0,057
-268,555	128,281	0,055	-0,050
-267,540	107,791	-0,003	-0,003
-266,526	540,640	0,048	-0,081
-265,511	-200,000	-0,040	0,137
-264,497	592,881	0,017	-0,030
-263,482	-96,770	0,079	0,015
-262,467	185,777	0,062	0,065
-261,453	-72,217	0,144	0,038
-260,438	-88,944	0,105	0,022
-259,424	158,282	-0,067	0,066
-258,409	-87,657	0,090	-0,019
-257,395	-200,000	0,015	0,123
-256,380	800,000	0,081	0,204
-255,365	-16,666	0,138	0,062
-254,351	800,000	0,086	0,225
-253,336	-200,000	-0,008	-0,067
-252,322	-200,000	0,002	-0,078
-251,307	-29,548	0,081	-0,033
-250,292	-62,272	0,062	0,018
-249,278	-148,194	0,110	0,006
-248,263	99,412	0,038	-0,032
-247,249	504,348	0,011	-0,018
-246,234	-200,000	-0,018	-0,161
-245,219	267,438	0,012	-0,015
-244,205	244,335	-0,092	-0,110
-243,190	-8,571	0,082	0,039
-242,176	-200,000	-0,009	0,102
-241,161	543,320	-0,032	0,054
-240,146	-200,000	-0,008	-0,157
-239,132	-33,044	0,025	-0,010
-238,117	471,383	0,054	-0,087
-237,103	369,044	-0,051	0,073
-236,088	-119,412	0,042	0,005
-235,073	-41,150	0,111	0,041
-234,059	-200,000	0,005	0,039
-233,044	-138,262	0,162	-0,013
-232,030	-43,420	0,093	-0,033
-231,015	-56,329	-0,191	0,060
-230,000	121,718	-0,060	-0,053
-228,986	-142,430	-0,082	-0,006
-227,971	800,000	0,037	-0,076
-226,957	118,032	-0,029	-0,025
-225,942	34,992	0,087	-0,054
-224,927	101,056	0,048	-0,039
-223,913	-85,764	-0,054	-0,012
-222,898	-87,385	-0,105	0,022
-221,884	-200,000	0,023	-0,162
-220,869	84,522	0,056	0,044
-219,855	34,276	0,175	0,108
-218,840	-200,000	0,011	-0,038
-217,825	-200,000	0,010	-0,082
-216,811	800,000	0,042	-0,102
-215,796	-27,257	-0,031	-0,013
-214,782	328,828	-0,036	0,049
-213,767	52,302	-0,099	0,067
-212,752	271,645	0,005	0,006
-211,738	800,000	-0,055	0,147
-210,723	800,000	0,015	0,036
-209,709	-200,000	0,015	-0,116
-208,694	-129,341	-0,180	0,018
-207,679	6,376	0,147	-0,077
-206,665	460,434	0,063	-0,099
-205,650	-154,615	-0,074	0,003
-204,636	-67,689	0,157	0,043
-203,621	-200,000	-0,007	-0,135
-202,606	218,133	-0,015	-0,017
-201,592	-200,000	-0,022	-0,124
-200,577	-133,290	0,052	0,005
-199,563	800,000	-0,054	0,131
-198,548	-100,223	0,096	-0,017
-197,533	-200,000	-0,042	0,148
-196,519	83,249	-0,053	0,041
-195,504	9,481	0,078	-0,042
-194,490	321,541	-0,056	-0,075
-193,475	-48,220	-0,054	0,018
-192,460	800,000	0,036	0,096
-191,446	269,055	0,033	0,041
-190,431	-73,476	0,067	-0,017
-189,417	800,000	-0,053	0,124
-188,402	581,920	0,048	-0,084
-187,387	-82,506	-0,096	-0,022
-186,373	800,000	-0,026	-0,058
-185,358	426,120	0,101	0,155
-184,344	-120,891	0,047	0,006
-183,329	114,360	0,073	-0,063
-182,315	49,724	-0,036	0,024
-181,300	175,707	-0,061	0,063
-180,285	67,013	-0,060	-0,043
-179,271	86,400	-0,035	-0,028
-178,256	701,799	-0,081	-0,153
-177,242	76,717	0,159	-0,120
-176,227	121,278	0,111	0,098
-175,212	375,780	-0,063	0,092
-174,198	-21,316	-0,076	0,033
-173,183	-26,248	-0,063	0,026
-172,169	246,990	-0,061	0,073
-171,154	73,302	-0,061	-0,045
-170,139	687,367	-0,030	0,057
-169,125	61,990	0,061	0,043
-168,110	-200,000	-0,000	0,068
-167,096	-200,000	0,029	-0,183
-166,081	-94,128	0,067	-0,013
-165,066	-200,000	0,048	0,169
-164,052	-200,000	0,121	-0,000
-163,037	-200,000	-0,012	-0,091
-162,023	-200,000	-0,016	0,115
-161,008	-120,493	0,081	0,010
-159,993	-200,000	0,027	-0,088
-158,979	-107,918	-0,115	-0,018
-157,964	-200,000	0,007	-0,093
-156,950	280,007	0,078	-0,099
-155,935	800,000	-0,034	-0,101
-154,920	-200,000	0,003	-0,067
-153,906	390,781	0,013	0,019
-152,891	800,000	-0,040	0,123
-151,877	70,322	-0,068	-0,050
-150,862	-200,000	0,023	-0,119
-149,847	70,798	-0,045	-0,033
-148,833	-109,729	0,147	0,022
-147,818	-112,227	0,123	-0,017
-146,804	-85,793	0,075	0,016
-145,789	157,872	-0,045	-0,044
-144,775	800,000	0,042	-0,120
-143,760	-200,000	-0,017	-0,106
-142,745	414,887	0,035	0,054
-141,731	2,568	-0,081	0,041
-140,716	250,956	-0,052	0,063
-139,702	-91,224	0,115	-0,023
-138,687	-110,003	-0,087	0,013
-137,672	-200,000	-0,004	0,109
-136,658	-0,956	-0,072	-0,036
-135,643	-200,000	0,000	-0,020
-134,629	123,225	0,062	0,055
-133,614	800,000	-0,013	0,038
-132,599	800,000	0,022	0,062
-131,585	-97,670	-0,047	0,009
-130,570	-61,865	0,223	-0,066
-129,556	-112,918	-0,028	-0,004
-128,541	-200,000	-0,013	-0,052
-127,526	518,465	0,041	-0,068
-126,512	-115,322	0,114	-0,015
-125,497	-36,396	0,077	0,029
-124,483	353,352	0,064	0,090
-123,468	-107,977	0,057	0,009
-122,453	504,674	-0,041	-0,067
-121,439	-40,312	-0,027	0,010
-120,424	-200,000	-0,013	-0,061
-119,410	334,409	0,088	0,121
-118,395	800,000	0,041	0,110
-117,380	-200,000	0,000	0,049
-116,366	217,980	-0,052	-0,059
-115,351	-96,034	-0,133	-0,025
-114,337	800,000	-0,105	-0,222
-113,322	-200,000	-0,004	0,031
-112,307	-161,334	0,069	0,002
-111,293	271,248	0,024	0,029
-110,278	3,620	0,081	0,041
-109,264	800,000	-0,018	0,050
-108,249	800,000	0,024	0,060
-107,234	116,654	-0,062	-0,054
-106,220	560,031	-0,059	-0,102
-105,205	569,547	-0,028	0,048
-104,191	218,556	-0,035	0,040
-103,176	-75,604	-0,049	0,012
-102,162	-105,560	-0,055	-0,009
-101,147	-200,000	-0,003	-0,037
-100,132	-200,000	-0,003	0,085
-99,118	167,909	-0,075	-0,075
-98,103	-41,182	0,106	-0,038
-97,089	340,380	0,062	0,085
-96,074	-81,164	0,086	-0,020
-95,059	-163,454	0,029	0,001
-94,045	485,572	-0,062	0,101
-93,030	800,000	0,047	0,098
-92,016	800,000	0,070	-0,167
-91,001	-63,033	-0,096	0,028
-89,986	-120,509	0,059	-0,007
-88,972	-6,620	-0,110	0,053
-87,957	-200,000	0,000	0,004
-86,943	712,359	0,019	-0,036
-85,928	28,966	0,083	-0,049
-84,913	800,000	0,019	-0,046
-83,899	656,677	0,043	0,078
-82,884	73,547	0,081	0,060
-81,870	95,060	0,080	0,064
-80,855	171,174	0,010	0,010
-79,840	270,930	-0,071	0,089
-78,826	-25,551	0,069	-0,029
-77,811	779,608	0,095	-0,184
-76,797	-200,000	0,006	-0,090
-75,782	-142,358	-0,099	-0,007
-74,767	-123,916	0,027	0,003
-73,753	-83,925	0,023	0,005
-72,738	52,475	-0,064	0,043
-71,724	142,080	0,005	-0,005
-70,709	800,000	-0,035	-0,108
-69,694	28,373	-0,088	0,052
-68,680	-99,258	-0,050	0,009
-67,665	-200,000	0,005	0,208
-66,651	654,176	0,087	0,159
-65,636	290,139	0,039	-0,050
-64,622	114,665	0,085	-0,073
-63,607	428,577	0,075	-0,115
-62,592	-93,612	0,078	-0,015
-61,578	-200,000	-0,017	-0,067
-60,563	-200,000	-0,004	0,155
-59,549	252,921	0,044	0,053
-58,534	35,771	-2,023	-1,253
-57,519	579,630	-1,167	-2,026
-56,505	-200,000	-0,415	-4,353
-55,490	497,772	0,975	1,591
-54,476	800,000	5,096	11,247
-53,461	-200,000	21,080	338,333
-52,446	800,000	759,552	2353,380
-51,432	558,045	1662,038	2840,911
-50,417	73,537	1661,761	1227,033
-49,403	18,156	1535,333	862,162
-48,388	12,165	1458,598	790,091
-47,373	19,330	1449,674	819,611
-46,359	15,527	1438,962	795,438
-45,344	10,390	1434,886	768,687
-44,330	10,346	1432,825	767,344
-43,315	10,305	1431,122	766,208
-42,300	10,348	1429,550	765,537
-41,286	10,381	1427,873	764,766
-40,271	10,353	1426,892	764,078
-39,257	10,333	1425,750	763,340
-38,242	10,370	1424,675	762,911
-37,227	10,353	1423,439	762,139
-36,213	10,409	1422,095	761,654
-35,198	10,419	1421,025	761,099
-34,184	10,406	1420,251	760,590
-33,169	10,313	1418,801	759,347
-32,154	10,405	1417,788	759,205
-31,140	10,402	1416,622	758,538
-30,125	10,392	1415,444	757,832
-29,111	10,400	1414,256	757,204
-28,096	10,378	1413,021	756,409
-27,082	10,359	1411,743	755,602
-26,067	10,324	1411,092	755,063
-25,052	10,364	1410,036	754,652
-24,038	10,367	1408,941	754,053
-23,023	10,333	1408,078	753,403
-22,009	10,315	1406,944	752,682
-20,994	10,326	1405,854	752,118
-19,979	10,311	1404,954	751,537
-18,965	10,258	1404,164	750,839
-17,950	10,326	1403,227	750,626
-16,936	10,224	1402,497	749,729
-15,921	10,204	1401,380	749,006
-14,906	10,221	1400,487	748,580
-13,892	10,273	1399,480	748,256
-12,877	10,281	1398,617	747,800
-11,863	10,228	1397,947	747,167
-10,848	10,181	1396,915	746,367
-9,833	10,174	1395,977	745,804
-8,819	10,125	1395,318	745,195
-7,804	10,149	1394,322	744,746
-6,790	10,140	1393,303	744,130
-5,775	10,163	1392,055	743,540
-4,760	10,171	1391,143	743,057
-3,746	10,134	1390,190	742,351
-2,731	10,118	1389,554	741,909
-1,717	10,091	1388,877	741,393
-0,702	10,137	1386,705	740,414
0,313	14,134	1299,564	712,184
1,327	30,277	689,787	414,590
2,342	46,375	119,402	77,960
3,356	-0,010	16,375	8,200
4,371	0,739	3,525	1,774
5,386	36,931	0,963	0,600
6,400	800,000	0,214	0,615
7,415	-59,487	-0,176	-0,053
8,429	5,709	-0,327	-0,170
9,444	209,835	-0,131	-0,146
10,459	76,079	-0,430	-0,320
11,473	-47,322	-0,306	-0,104
12,488	21,003	-0,267	-0,152
13,502	12,867	-0,262	-0,142
14,517	5,865	-0,349	-0,182
15,531	-27,439	-0,484	-0,197
16,546	-67,061	-0,407	-0,112
17,561	191,355	-0,318	-0,337
18,575	-95,693	-0,230	-0,043
19,590	800,000	-0,100	-0,210
20,604	-53,180	-0,278	-0,089
21,619	85,222	-0,373	-0,288
22,634	53,753	-0,403	-0,272
23,648	104,038	-0,440	-0,364
24,663	174,856	-0,332	-0,339
25,677	56,510	-0,344	-0,235
26,692	-42,267	-0,396	-0,141
27,707	800,000	-0,156	-0,316
28,721	-24,554	-0,525	-0,219
29,736	98,776	-0,366	-0,297
30,750	70,947	-0,346	-0,252
31,765	33,395	-0,459	-0,280
32,780	130,724	-0,328	-0,296
33,794	2,873	-0,339	-0,173
34,809	71,627	-0,397	-0,289
35,823	64,237	-0,390	-0,275
36,838	102,337	-0,308	-0,253
37,853	34,815	-0,359	-0,221
38,867	-17,255	-0,423	-0,187
39,882	36,267	-0,362	-0,224
40,896	122,259	-0,233	-0,205
41,911	59,810	-0,354	-0,245
42,926	49,327	-0,256	-0,169
43,940	17,750	-0,326	-0,182
44,955	99,000	-0,398	-0,323
45,969	297,330	-0,278	-0,360
46,984	91,071	-0,339	-0,267
47,999	192,041	-0,253	-0,268
49,013	118,383	-0,210	-0,182
50,028	108,489	-0,272	-0,228
51,042	45,001	-0,368	-0,238
52,057	116,836	-0,268	-0,231
53,071	57,810	-0,394	-0,271
54,086	55,472	-0,385	-0,261
55,101	-110,015	-0,426	-0,062
56,115	9,464	-0,304	-0,161
57,130	-13,142	-0,332	-0,151
58,144	-19,528	-0,401	-0,173
59,159	40,987	-0,469	-0,297
60,174	58,978	-0,408	-0,281
61,188	126,606	-0,308	-0,273
62,203	19,686	-0,321	-0,181
63,217	-10,522	-0,390	-0,181
64,232	-89,517	-0,303	-0,062
65,247	-51,325	-0,433	-0,141
66,261	67,370	-0,306	-0,219
67,276	438,570	-0,218	-0,334
68,290	18,504	-0,396	-0,221
69,305	89,935	-0,289	-0,226
70,320	167,698	-0,197	-0,197
71,334	131,005	-0,246	-0,222
72,349	36,885	-0,412	-0,255
73,363	232,949	-0,260	-0,300
74,378	-19,564	-0,282	-0,122
75,393	-8,600	-0,306	-0,144
76,407	156,773	-0,294	-0,285
77,422	73,918	-0,225	-0,165
78,436	355,712	-0,155	-0,217
79,451	215,721	-0,217	-0,242
80,466	173,523	-0,246	-0,249
81,480	21,152	-0,414	-0,235
82,495	81,330	-0,247	-0,187
83,509	673,954	-0,157	-0,286
84,524	7,391	-0,266	-0,139
85,539	245,336	-0,194	-0,229
86,553	40,353	-0,304	-0,191
87,568	155,223	-0,259	-0,250
88,582	205,794	-0,274	-0,299
89,597	104,420	-0,278	-0,229
90,611	10,549	-0,270	-0,144
91,626	47,332	-0,280	-0,182
92,641	206,959	-0,228	-0,249
93,655	213,807	-0,242	-0,268
94,670	218,437	-0,200	-0,224
95,684	7,092	-0,258	-0,134
96,699	172,700	-0,261	-0,263
97,714	-6,593	-0,339	-0,161
98,728	-87,432	-0,270	-0,057
99,743	32,881	-0,368	-0,223
100,757	-110,765	-0,260	0,037
101,772	237,692	-0,234	-0,272
102,787	364,266	-0,239	-0,337
103,801	30,502	-0,366	-0,218
104,816	149,322	-0,175	-0,166
105,830	-5,448	-0,280	-0,134
106,845	58,050	-0,276	-0,189
107,860	431,306	-0,116	-0,176
108,874	-19,923	-0,266	-0,114
109,889	184,091	-0,241	-0,249
110,903	-50,845	-0,289	-0,094
111,918	228,640	-0,233	-0,266
112,933	100,806	-0,194	-0,158
113,947	-41,519	-0,198	0,071
114,962	327,540	-0,204	-0,275
115,976	2,251	-0,289	-0,146
116,991	6,831	-0,175	-0,091
118,006	93,373	-0,344	-0,272
119,020	76,658	-0,313	-0,232
120,035	68,326	-0,235	-0,168
121,049	-50,404	-0,277	-0,091
122,064	-6,439	-0,221	-0,105
123,079	800,000	-0,116	-0,294
124,093	-32,559	-0,318	-0,123
125,108	160,346	-0,234	-0,228
126,122	-95,075	-0,351	-0,065
127,137	159,302	-0,161	-0,156
128,151	36,870	-0,209	-0,129
129,166	83,451	-0,166	-0,126
130,181	48,551	-0,275	-0,179
131,195	261,563	-0,188	-0,227
132,210	63,121	-0,363	-0,253
133,224	-105,086	-0,313	-0,049
134,239	-66,659	-0,285	-0,078
135,254	284,884	-0,152	-0,191
136,268	182,309	-0,272	-0,279
137,283	142,111	-0,242	-0,223
138,297	800,000	-0,146	-0,320
139,312	-41,691	-0,255	-0,091
140,327	-16,328	-0,256	-0,113
141,341	153,490	-0,202	-0,193
142,356	-15,216	-0,255	-0,113
143,370	-62,188	-0,250	-0,072
144,385	60,759	-0,240	-0,165
145,400	109,273	-0,195	-0,163
146,414	-45,006	-0,321	-0,111
147,429	67,000	-0,303	-0,215
148,443	70,410	-0,244	-0,175
149,458	800,000	-0,080	-0,207
150,473	-45,067	-0,109	-0,037
151,487	-15,861	-0,222	-0,098
152,502	-6,316	-0,277	-0,131
153,516	149,693	-0,282	-0,266
154,531	105,739	-0,293	-0,241
155,546	0,296	-0,292	-0,144
156,560	208,565	-0,182	-0,199
157,575	138,425	-0,125	-0,114
158,589	418,137	-0,227	-0,339
159,604	55,745	-0,231	-0,155
160,619	23,255	-0,368	-0,210
161,633	-9,260	-0,270	-0,125
162,648	114,189	-0,195	-0,165
163,662	15,951	-0,217	-0,119
164,677	259,844	-0,107	-0,128
165,692	-114,171	-0,283	-0,038
166,706	-12,096	-0,170	-0,077
167,721	-47,502	-0,327	-0,110
168,735	150,875	-0,232	-0,219
169,750	-13,156	-0,206	-0,093
170,764	-97,354	-0,155	-0,028
171,779	-22,968	-0,221	-0,092
172,794	101,690	-0,200	-0,162
173,808	58,135	-0,165	-0,112
174,823	35,424	-0,236	-0,144
175,837	369,849	-0,192	-0,270
176,852	27,840	-0,204	-0,119
177,867	-36,855	-0,210	-0,078
178,881	106,892	-0,181	-0,150
179,896	-75,917	-0,260	-0,064
180,910	-72,824	-0,187	-0,047
181,925	-84,278	-0,284	-0,062
182,940	-9,294	-0,393	-0,182
183,954	160,959	-0,204	-0,198
184,969	-37,732	-0,211	-0,078
185,983	465,680	-0,152	-0,237
186,998	277,075	-0,112	-0,139
188,013	-2,136	-0,280	-0,136
189,027	28,332	-0,120	-0,070
190,042	237,718	-0,239	-0,276
191,056	201,602	-0,244	-0,261
192,071	354,804	-0,207	-0,286
193,086	509,255	-0,136	-0,220
194,100	151,492	-0,091	-0,086
195,115	-200,000	0,007	-0,074
196,129	-58,217	-0,376	-0,113
197,144	52,778	-0,277	-0,183
198,159	68,355	-0,194	-0,137
199,173	-51,068	-0,193	-0,063
200,188	35,808	-0,146	-0,089
201,202	-142,375	-0,254	-0,017
202,217	-140,113	-0,166	-0,012
203,232	249,542	-0,266	-0,313
204,246	28,720	-0,222	-0,130
205,261	357,097	-0,239	-0,331
206,275	256,400	-0,129	-0,153
207,290	-48,318	-0,153	-0,051
208,304	-14,488	-0,083	0,037
209,319	743,306	-0,112	-0,209
210,334	99,400	-0,274	-0,220
211,348	800,000	-0,165	-0,348
212,363	47,810	-0,267	-0,172
213,377	88,825	-0,179	-0,138
214,392	115,040	-0,097	-0,082
215,407	49,482	-0,172	-0,112
216,421	490,157	-0,183	-0,291
217,436	-56,056	-0,278	-0,085
218,450	-61,097	-0,167	-0,048
219,465	221,756	-0,193	-0,215
220,480	13,468	-0,193	-0,103
221,494	-32,956	-0,202	-0,077
222,509	48,362	-0,145	-0,094
223,523	-90,682	-0,270	-0,054
224,538	-157,764	-0,187	0,008
225,553	34,844	-0,190	-0,115
226,567	123,096	-0,182	-0,158
227,582	149,571	-0,151	-0,141
228,596	564,118	-0,089	-0,149
229,611	59,772	-0,207	-0,141
230,626	344,464	-0,184	-0,251
231,640	-118,754	-0,333	-0,040
232,655	663,453	-0,107	-0,191
233,669	94,608	-0,209	-0,164
234,684	105,977	-0,182	-0,149
235,699	-32,007	-0,168	-0,065
236,713	-24,799	-0,184	-0,075
237,728	-200,000	-0,023	-0,131
238,742	239,077	-0,215	-0,247
239,757	338,245	-0,136	-0,183
240,772	85,131	-0,279	-0,212
241,786	-26,291	-0,193	-0,078
242,801	7,539	-0,104	-0,053
243,815	188,813	-0,164	-0,169
244,830	517,009	-0,125	-0,202
245,844	-3,778	-0,155	-0,074
246,859	222,394	-0,153	-0,171
247,874	305,104	-0,141	-0,181
248,888	-21,994	-0,220	-0,092
249,903	90,360	-0,159	-0,123
250,917	221,369	-0,115	-0,127
251,932	-26,832	-0,137	-0,055
252,947	83,688	-0,255	-0,192
253,961	-20,789	-0,269	-0,113
254,976	99,149	-0,238	-0,189
255,990	31,913	-0,141	-0,084
257,005	440,831	-0,108	-0,163
258,020	121,497	-0,156	-0,134
259,034	-93,643	-0,093	-0,018
260,049	309,320	-0,126	-0,162
261,063	231,077	-0,092	-0,105
262,078	97,261	-0,283	-0,224
263,093	136,717	-0,149	-0,134
264,107	-97,683	-0,181	-0,032
265,122	800,000	-0,041	-0,103
266,136	138,621	-0,131	-0,118
267,151	-200,000	-0,053	-0,208
268,166	446,658	-0,096	-0,146
269,180	518,999	-0,087	-0,141
270,195	741,066	-0,121	-0,224
271,209	-49,759	-0,237	-0,077
272,224	187,569	-0,095	-0,098
273,239	411,033	-0,152	-0,223
274,253	800,000	-0,070	0,160
275,268	-161,001	-0,140	0,005
276,282	-27,142	-0,255	-0,102
277,297	800,000	-0,094	-0,238
278,312	146,907	-0,137	-0,127
279,326	75,963	-0,158	-0,115
280,341	275,734	-0,103	-0,127
281,355	800,000	-0,079	-0,209
282,370	-49,881	-0,182	-0,059
283,384	152,182	-0,203	-0,191
284,399	57,346	-0,244	-0,163
285,414	-181,915	-0,109	0,001
286,428	479,002	-0,082	-0,128
287,443	800,000	-0,080	-0,217
288,457	800,000	-0,062	-0,158
289,472	-38,632	-0,217	-0,078
290,487	598,909	-0,121	-0,207
291,501	-70,577	-0,140	-0,036
292,516	399,137	-0,094	-0,136
293,530	281,718	-0,105	-0,130
294,545	521,754	-0,095	-0,155
295,560	-200,000	-0,039	-0,240
296,574	72,780	-0,155	-0,111
297,589	470,432	-0,091	-0,141
298,603	-38,279	-0,171	-0,062
299,618	136,105	-0,118	-0,106
300,633	-200,000	0,018	-0,077
301,647	-100,506	-0,086	0,014
302,662	-17,527	-0,152	-0,066
303,676	-200,000	-0,052	-0,168
304,691	-102,348	-0,185	-0,030
305,706	54,341	-0,147	-0,097
306,720	269,857	-0,155	-0,188
307,735	247,452	-0,064	-0,074
308,749	-120,817	-0,186	-0,021
309,764	41,953	-0,083	-0,052
310,779	222,756	-0,127	-0,140
311,793	-92,838	-0,178	0,034
312,808	14,101	-0,275	-0,147
313,822	157,531	-0,100	-0,095
314,837	138,284	-0,169	-0,153
315,852	292,351	-0,173	-0,216
316,866	-200,000	-0,020	-0,106
317,881	138,515	-0,181	-0,163
318,895	359,046	-0,137	-0,188
319,910	152,172	-0,180	-0,169
320,925	100,945	-0,197	-0,157
321,939	182,938	-0,214	-0,217
322,954	261,286	-0,085	0,101
323,968	-28,693	-0,191	0,075
324,983	134,653	-0,064	0,057
325,997	-200,000	0,009	-0,047
327,012	-187,774	-0,273	-0,002
328,027	-11,968	-0,149	-0,067
329,041	86,787	-0,208	-0,157
330,056	766,651	-0,048	-0,089
331,070	379,340	-0,157	-0,222
332,085	-161,239	-0,121	-0,004
333,100	76,917	-0,150	-0,109
334,114	800,000	-0,075	-0,215
335,129	-47,064	-0,137	-0,046
336,143	64,678	-0,070	-0,049
337,158	493,207	-0,094	-0,148
338,173	-200,000	-0,004	-0,084
339,187	309,837	-0,119	-0,152
340,202	31,579	-0,147	-0,086
341,216	65,407	-0,046	-0,032
342,231	45,882	-0,204	-0,129
343,246	78,759	-0,178	-0,130
344,260	800,000	-0,114	-0,241
345,275	-1,339	-0,033	0,016
346,289	-200,000	-0,017	-0,171
347,304	-69,776	-0,275	-0,071
348,319	-14,510	-0,104	-0,046
349,333	425,605	-0,103	-0,153
350,348	-67,311	-0,104	0,028
351,362	9,933	-0,079	0,041
352,377	800,000	-0,059	-0,135
353,392	143,714	-0,137	-0,125
354,406	-73,321	-0,187	-0,046
355,421	207,150	1310,903	1399,794
356,435	159,336	1471,157	1400,269
