DTS Sentinel unit serial number:	SN410029Multiplexer serial number:	ORYXHardware model number:	OX2-SRSoftware version number:	ORYX F/W v4,00 Oryx Data Collector v3.7.2.0data status	okinstallation	B3 Nyhavnadifferential loss correction	single-endedforward channel	channel 1reverse channel	N/Adate	2023/12/02time	10:07:30forward acquisition time	300,00reverse acquisition time	0,00gamma	499,1914k internal	0,3196k external	0,3196temperature offset calibration	1,0000default loss term (dB/km)	0,3820temperature slope calibration	1,0000multiplexer offset coefficient	1,0000multiplexer slope coefficient	1,0000fibre end	0,00T internal ref (°C)	14,74T ext. ref 1 (°C)	-0,99T ext. ref 2 (°C)	-1,01length (m)	temperature (°C)	Stokes	anti-Stokes-744,400	300,096	-0,341	-0,459
-743,385	800,000	0,068	0,200
-742,371	148,507	-0,193	-0,190
-741,356	-200,000	-0,043	0,214
-740,342	-37,198	-0,245	-0,095
-739,327	-200,000	-0,085	0,304
-738,312	-7,602	-0,277	-0,136
-737,298	-200,000	0,027	0,240
-736,283	549,739	-0,143	-0,250
-735,269	-200,000	0,030	0,284
-734,254	215,635	-0,179	-0,208
-733,239	-69,272	-0,181	0,050
-732,225	-200,000	-0,029	-0,222
-731,210	53,287	0,127	0,088
-730,196	800,000	0,009	0,023
-729,181	-113,548	-0,025	-0,003
-728,167	61,853	0,040	-0,029
-727,152	-200,000	0,006	-0,142
-726,137	174,318	-0,099	0,104
-725,123	-124,414	0,092	0,010
-724,108	800,000	-0,057	-0,115
-723,094	-121,300	0,089	-0,011
-722,079	192,226	-0,094	0,104
-721,064	-200,000	0,006	0,078
-720,050	800,000	-0,039	0,101
-719,035	1,199	0,117	0,061
-718,021	-200,000	-0,010	0,097
-717,006	518,889	0,020	-0,034
-715,991	800,000	0,025	0,068
-714,977	2,773	-0,088	-0,046
-713,962	-126,715	-0,027	0,003
-712,948	3,500	0,027	-0,014
-711,933	-200,000	-0,012	0,065
-710,918	-200,000	0,005	0,063
-709,904	278,259	0,064	0,083
-708,889	105,804	-0,023	-0,020
-707,875	-49,097	-0,106	-0,037
-706,860	-51,419	0,093	-0,032
-705,845	-200,000	0,007	0,162
-704,831	-56,468	-0,055	0,018
-703,816	378,769	-0,045	0,067
-702,802	-118,269	-0,064	-0,008
-701,787	-200,000	0,006	-0,045
-700,772	756,882	0,027	-0,053
-699,758	-78,527	-0,118	-0,029
-698,743	800,000	0,035	-0,087
-697,729	183,244	0,109	-0,118
-696,714	18,454	-0,027	-0,016
-695,699	-113,604	-0,082	-0,012
-694,685	-200,000	0,000	-0,101
-693,670	-200,000	0,009	-0,040
-692,656	800,000	-0,028	-0,060
-691,641	800,000	0,035	-0,097
-690,627	84,493	0,067	0,053
-689,612	-200,000	-0,013	0,074
-688,597	-120,211	-0,101	0,012
-687,583	563,860	0,071	-0,126
-686,568	169,574	-0,022	-0,022
-685,554	-200,000	-0,003	-0,131
-684,539	-200,000	0,000	-0,065
-683,524	34,346	0,105	0,066
-682,510	116,142	0,091	0,081
-681,495	800,000	0,018	-0,055
-680,481	87,345	-0,080	0,064
-679,466	27,007	-0,064	-0,039
-678,451	-200,000	-0,007	0,039
-677,437	359,707	0,054	0,078
-676,422	-200,000	-0,010	-0,040
-675,408	275,272	-0,036	0,046
-674,393	800,000	0,027	0,073
-673,378	800,000	-0,038	-0,082
-672,364	336,990	-0,032	-0,046
-671,349	-200,000	0,002	-0,112
-670,335	-52,731	-0,027	0,009
-669,320	32,305	-0,124	0,077
-668,305	59,602	-0,128	-0,091
-667,291	-200,000	0,002	-0,118
-666,276	69,065	0,064	0,048
-665,262	-89,151	-0,020	-0,004
-664,247	7,760	0,173	-0,094
-663,232	-65,257	-0,137	-0,040
-662,218	-4,108	0,008	-0,004
-661,203	-109,135	0,144	-0,022
-660,189	46,813	-0,056	0,037
-659,174	-133,700	0,010	-0,001
-658,159	800,000	-0,073	-0,152
-657,145	-200,000	0,005	-0,055
-656,130	800,000	0,014	0,034
-655,116	-200,000	0,010	0,116
-654,101	800,000	-0,040	0,094
-653,086	-200,000	0,016	0,072
-652,072	-200,000	-0,145	0,000
-651,057	-55,897	-0,129	-0,041
-650,043	800,000	0,087	-0,227
-649,028	-106,276	-0,115	-0,018
-648,014	800,000	0,051	-0,120
-646,999	-200,000	-0,028	0,140
-645,984	98,043	-0,035	-0,029
-644,970	-200,000	0,003	0,015
-643,955	179,505	-0,131	-0,139
-642,941	54,003	-0,093	0,065
-641,926	800,000	0,037	0,078
-640,911	800,000	-0,047	0,111
-639,897	-15,251	0,013	-0,006
-638,882	705,799	0,032	-0,061
-637,868	-65,175	-0,047	-0,014
-636,853	123,349	0,072	-0,066
-635,838	-130,125	-0,112	0,011
-634,824	-81,267	0,052	-0,012
-633,809	-78,002	0,108	0,027
-632,795	-142,478	0,106	-0,007
-631,780	523,390	0,027	-0,046
-630,765	41,380	-0,063	-0,041
-629,751	-183,522	-0,097	-0,001
-628,736	-200,000	0,026	0,114
-627,722	-151,216	0,055	0,003
-626,707	-77,261	0,083	0,021
-625,692	-55,635	-0,111	0,036
-624,678	-3,527	-0,092	0,046
-623,663	-55,932	-0,138	0,044
-622,649	306,045	-0,014	-0,019
-621,634	-200,000	0,021	-0,151
-620,619	-35,336	0,050	-0,020
-619,605	30,847	0,047	-0,029
-618,590	14,469	0,052	0,029
-617,576	-64,023	0,039	-0,012
-616,561	800,000	0,019	-0,046
-615,546	-200,000	-0,014	-0,219
-614,532	800,000	-0,037	-0,087
-613,517	800,000	-0,059	0,133
-612,503	-74,209	-0,166	-0,043
-611,488	0,301	0,060	-0,031
-610,474	-200,000	0,007	0,142
-609,459	-200,000	0,033	0,126
-608,444	26,786	-0,053	-0,032
-607,430	34,659	-0,164	-0,104
-606,415	16,158	0,046	-0,026
-605,401	-100,276	0,178	-0,032
-604,386	-130,736	-0,069	-0,007
-603,371	8,440	0,073	0,039
-602,357	147,481	-0,069	0,068
-601,342	-200,000	0,047	0,174
-600,328	-200,000	0,033	-0,108
-599,313	-58,259	-0,128	0,040
-598,298	-200,000	0,023	-0,083
-597,284	-134,112	0,116	-0,010
-596,269	31,877	0,057	-0,036
-595,255	667,580	0,007	0,013
-594,240	800,000	-0,052	-0,142
-593,225	-89,692	-0,087	-0,018
-592,211	318,176	-0,106	-0,146
-591,196	-101,406	0,138	-0,024
-590,182	-121,047	0,113	-0,014
-589,167	63,491	0,068	0,049
-588,152	800,000	0,038	0,119
-587,138	490,773	-0,010	0,016
-586,123	188,729	-0,067	-0,072
-585,109	240,251	-0,073	-0,088
-584,094	-140,718	-0,185	-0,014
-583,079	-17,861	-0,060	-0,027
-582,065	123,149	0,113	0,102
-581,050	36,574	-0,041	-0,026
-580,036	-137,189	-0,125	-0,010
-579,021	97,591	0,135	-0,112
-578,006	-200,000	0,002	0,021
-576,992	16,846	0,058	-0,033
-575,977	248,875	0,079	0,097
-574,963	800,000	0,011	0,026
-573,948	-62,283	0,198	0,059
-572,934	586,051	-0,056	0,100
-571,919	-17,236	0,132	-0,060
-570,904	-133,638	0,028	0,002
-569,890	-78,070	-0,108	-0,027
-568,875	-200,000	-0,002	-0,055
-567,861	800,000	0,060	0,146
-566,846	-200,000	-0,013	0,151
-565,831	-106,266	0,134	-0,022
-564,817	-200,000	0,002	-0,062
-563,802	-86,695	-0,131	0,029
-562,788	-109,295	0,066	0,010
-561,773	800,000	0,029	-0,062
-560,758	-200,000	0,012	0,094
-559,744	181,450	0,033	0,035
-558,729	-200,000	-0,002	-0,170
-557,715	-28,585	0,009	-0,004
-556,700	307,807	-0,025	-0,034
-555,685	-41,009	-0,064	-0,024
-554,671	-47,006	-0,046	0,016
-553,656	5,514	0,112	0,059
-552,642	135,751	-0,061	0,058
-551,627	-200,000	-0,008	-0,051
-550,612	10,184	-0,193	-0,106
-549,598	-200,000	-0,046	-0,193
-548,583	-200,000	-0,032	-0,125
-547,569	-200,000	-0,016	-0,097
-546,554	800,000	0,028	0,088
-545,539	6,776	0,106	0,057
-544,525	94,102	0,138	0,113
-543,510	-81,665	-0,111	-0,026
-542,496	-79,849	-0,111	-0,027
-541,481	213,540	0,014	-0,017
-540,466	195,498	-0,087	-0,096
-539,452	185,835	0,024	0,026
-538,437	800,000	-0,031	0,082
-537,423	800,000	-0,008	0,020
-536,408	510,130	0,047	0,079
-535,393	-200,000	0,005	-0,057
-534,379	419,682	-0,039	-0,060
-533,364	-105,965	-0,130	0,021
-532,350	316,524	0,054	0,074
-531,335	419,873	-0,045	-0,070
-530,321	-200,000	0,025	0,154
-529,306	800,000	-0,052	0,115
-528,291	436,425	0,014	-0,022
-527,277	-6,481	0,066	-0,032
-526,262	647,408	-0,039	-0,072
-525,248	800,000	0,031	0,080
-524,233	800,000	0,060	0,130
-523,218	-200,000	0,020	-0,074
-522,204	-200,000	-0,012	-0,054
-521,189	174,841	-0,082	-0,086
-520,175	19,899	-0,057	0,033
-519,160	-94,092	0,125	-0,025
-518,145	49,250	0,112	0,076
-517,131	104,627	-0,075	0,064
-516,116	56,488	0,033	-0,023
-515,102	-10,077	-0,026	0,012
-514,087	9,080	-0,112	0,061
-513,072	119,013	0,122	-0,109
-512,058	12,122	-0,102	0,056
-511,043	-85,190	-0,043	-0,010
-510,029	356,142	-0,028	0,041
-509,014	208,352	-0,075	-0,085
-507,999	5,746	0,207	0,110
-506,985	-85,981	-0,121	0,027
-505,970	-71,094	0,103	0,028
-504,956	-161,549	0,125	-0,005
-503,941	-56,853	0,061	0,019
-502,926	-104,253	-0,123	-0,020
-501,912	-200,000	-0,023	-0,163
-500,897	-66,264	0,051	0,015
-499,883	543,552	-0,027	-0,047
-498,868	-172,270	-0,109	0,002
-497,853	-10,831	-0,065	-0,031
-496,839	-103,417	0,090	0,015
-495,824	10,179	0,086	-0,047
-494,810	58,774	0,157	0,111
-493,795	-200,000	-0,043	0,140
-492,781	350,587	-0,037	0,053
-491,766	47,105	0,132	-0,088
-490,751	289,694	-0,029	-0,039
-489,737	516,785	0,054	-0,091
-488,722	-53,556	-0,129	-0,042
-487,708	485,366	0,075	0,123
-486,693	-56,461	-0,112	0,036
-485,678	119,072	0,050	-0,044
-484,664	-13,607	-0,131	0,061
-483,649	-200,000	-0,010	-0,074
-482,635	120,917	0,131	0,118
-481,620	76,226	0,065	-0,050
-480,605	-200,000	-0,006	-0,042
-479,591	21,094	0,066	-0,039
-478,576	236,767	0,029	0,035
-477,562	-200,000	0,001	-0,017
-476,547	207,826	-0,087	-0,098
-475,532	800,000	-0,029	0,076
-474,518	800,000	-0,017	-0,046
-473,503	-43,774	0,096	0,035
-472,489	244,255	0,086	0,105
-471,474	78,820	0,080	-0,062
-470,459	-80,088	-0,050	0,012
-469,445	134,450	-0,032	-0,030
-468,430	220,527	-0,036	-0,041
-467,416	127,158	0,066	0,061
-466,401	-200,000	0,004	-0,034
-465,386	800,000	0,011	-0,027
-464,372	339,315	-0,057	0,081
-463,357	181,902	-0,085	-0,090
-462,343	-200,000	-0,022	0,099
-461,328	-200,000	-0,002	-0,010
-460,313	-55,461	0,060	-0,019
-459,299	168,868	0,032	0,032
-458,284	-200,000	-0,002	0,170
-457,270	-43,267	-0,146	0,053
-456,255	-14,462	-0,073	0,034
-455,241	-57,261	0,052	-0,017
-454,226	113,589	0,070	-0,062
-453,211	-200,000	-0,014	-0,113
-452,197	-10,217	-0,049	-0,023
-451,182	-153,044	0,108	-0,005
-450,168	104,456	-0,013	0,011
-449,153	-94,764	-0,133	0,026
-448,138	317,525	-0,087	-0,118
-447,124	-95,241	-0,034	0,006
-446,109	8,745	0,082	-0,045
-445,095	728,110	0,063	0,122
-444,080	105,538	0,071	-0,061
-443,065	-25,902	0,003	-0,001
-442,051	800,000	-0,044	0,092
-441,036	-10,756	0,127	0,060
-440,022	486,668	-0,030	-0,049
-439,007	-72,773	0,093	-0,024
-437,992	-134,653	0,111	-0,010
-436,978	248,978	-0,039	-0,048
-435,963	689,193	0,006	-0,011
-434,949	-7,580	0,107	0,052
-433,934	3,189	-0,045	-0,024
-432,919	-151,095	-0,039	0,002
-431,905	-97,178	0,081	-0,015
-430,890	800,000	0,022	0,063
-429,876	800,000	0,055	0,112
-428,861	267,903	0,038	0,048
-427,846	337,132	0,051	-0,072
-426,832	-200,000	-0,003	0,040
-425,817	-21,429	-0,090	0,039
-424,803	-200,000	0,008	-0,035
-423,788	2,161	0,070	0,036
-422,773	117,069	0,070	-0,062
-421,759	270,407	0,098	0,125
-420,744	14,993	-0,069	0,039
-419,730	433,068	-0,048	0,076
-418,715	122,305	-0,095	-0,085
-417,701	800,000	0,044	-0,130
-416,686	200,114	-0,057	-0,063
-415,671	800,000	0,021	-0,048
-414,657	-200,000	0,017	0,090
-413,642	-200,000	0,005	0,061
-412,628	45,384	-0,062	0,041
-411,613	-200,000	-0,018	-0,121
-410,598	800,000	-0,016	-0,035
-409,584	-200,000	0,005	-0,074
-408,569	800,000	-0,010	0,025
-407,555	52,502	0,052	-0,035
-406,540	-170,076	0,160	-0,004
-405,525	800,000	-0,060	0,127
-404,511	-200,000	0,002	-0,053
-403,496	-74,457	-0,114	-0,029
-402,482	152,971	0,031	0,031
-401,467	585,858	-0,045	-0,080
-400,452	-42,073	-0,050	-0,018
-399,438	-107,166	0,050	-0,008
-398,423	-31,947	0,055	0,022
-397,409	-200,000	0,002	-0,050
-396,394	-117,832	-0,058	-0,007
-395,379	-13,232	-0,087	0,040
-394,365	-105,964	0,147	-0,024
-393,350	237,902	0,068	-0,081
-392,336	356,148	-0,045	-0,065
-391,321	800,000	0,008	-0,016
-390,306	29,880	0,055	-0,034
-389,292	-200,000	-0,007	0,055
-388,277	683,056	-0,016	0,030
-387,263	64,071	-0,037	0,027
-386,248	800,000	-0,037	0,114
-385,233	-123,568	0,091	-0,010
-384,219	-22,544	0,082	0,035
-383,204	-191,086	-0,131	0,001
-382,190	-200,000	-0,040	-0,221
-381,175	-95,005	-0,054	-0,010
-380,160	-110,059	0,098	0,015
-379,146	329,760	0,041	0,056
-378,131	800,000	0,050	0,104
-377,117	-146,560	-0,043	-0,003
-376,102	31,284	-0,051	0,031
-375,088	-200,000	0,002	-0,027
-374,073	800,000	-0,043	0,102
-373,058	81,666	0,077	-0,060
-372,044	-200,000	0,010	0,056
-371,029	435,155	0,077	0,121
-370,015	800,000	0,018	0,055
-369,000	787,872	0,043	0,086
-367,985	542,575	-0,027	-0,046
-366,971	800,000	-0,029	-0,062
-365,956	-200,000	-0,010	0,052
-364,942	114,318	0,130	0,114
-363,927	-200,000	-0,002	-0,032
-362,912	-93,142	0,104	0,021
-361,898	-111,504	-0,076	0,011
-360,883	-200,000	-0,008	-0,034
-359,869	800,000	-0,068	-0,175
-358,854	-200,000	-0,018	-0,126
-357,839	800,000	-0,047	0,110
-356,825	-200,000	0,029	0,103
-355,810	800,000	-0,013	-0,029
-354,796	-34,383	-0,120	0,047
-353,781	800,000	-0,036	-0,093
-352,766	49,804	0,101	-0,068
-351,752	146,855	-0,062	0,060
-350,737	193,690	-0,068	-0,074
-349,723	800,000	0,030	-0,079
-348,708	-11,875	0,075	-0,035
-347,693	-68,096	-0,133	-0,037
-346,679	800,000	0,045	-0,141
-345,664	800,000	-0,014	-0,040
-344,650	-118,056	0,079	-0,010
-343,635	381,235	0,049	0,073
-342,620	76,669	0,093	-0,070
-341,606	37,298	-0,111	0,070
-340,591	-37,289	0,094	-0,036
-339,577	-200,000	-0,008	0,158
-338,562	-161,719	-0,091	-0,003
-337,548	49,393	-0,030	0,020
-336,533	-153,436	-0,129	-0,006
-335,518	-41,939	0,095	-0,035
-334,504	-200,000	-0,016	0,101
-333,489	-47,296	-0,109	0,038
-332,475	-200,000	-0,014	-0,104
-331,460	-76,035	-0,033	-0,008
-330,445	649,950	-0,041	-0,076
-329,431	-200,000	0,030	-0,193
-328,416	174,923	0,053	0,055
-327,402	141,156	0,115	0,109
-326,387	-15,876	0,069	0,032
-325,372	-200,000	-0,018	-0,110
-324,358	99,946	-0,104	0,087
-323,343	-140,383	-0,103	0,008
-322,329	8,138	0,050	-0,027
-321,314	146,594	0,040	0,039
-320,299	-200,000	-0,032	0,105
-319,285	-200,000	-0,016	0,152
-318,270	86,237	-0,027	-0,021
-317,256	58,852	0,052	-0,036
-316,241	-66,772	-0,025	0,007
-315,226	48,718	0,103	0,069
-314,212	800,000	-0,046	0,122
-313,197	127,955	-0,102	0,093
-312,183	-200,000	-0,049	0,189
-311,168	-200,000	0,013	-0,079
-310,153	96,472	-0,113	-0,092
-309,139	16,649	-0,037	-0,021
-308,124	-30,720	0,111	-0,045
-307,110	391,809	0,088	-0,132
-306,095	199,506	-0,026	0,028
-305,080	223,225	0,112	0,129
-304,066	19,920	0,051	-0,029
-303,051	9,510	0,131	-0,071
-302,037	198,773	-0,102	-0,112
-301,022	-200,000	0,023	0,081
-300,008	-200,000	0,013	-0,116
-298,993	-26,125	0,087	-0,036
-297,978	348,616	0,034	0,048
-296,964	-15,303	-0,089	-0,040
-295,949	319,372	-0,100	0,137
-294,935	27,341	-0,072	-0,043
-293,920	46,595	0,086	-0,057
-292,905	-60,339	-0,079	-0,024
-291,891	-143,373	-0,037	-0,003
-290,876	-132,693	-0,118	-0,011
-289,862	428,861	-0,019	-0,030
-288,847	47,625	0,092	-0,061
-287,832	-40,293	-0,103	0,038
-286,818	-130,863	0,054	-0,005
-285,803	-144,615	0,040	0,003
-284,789	186,939	-0,065	0,070
-283,774	-19,504	0,108	-0,048
-282,759	-95,115	-0,055	-0,011
-281,745	532,785	-0,062	-0,105
-280,730	-96,987	-0,062	-0,012
-279,716	-23,389	-0,019	-0,008
-278,701	294,224	0,165	0,216
-277,686	-200,000	-0,021	0,144
-276,672	228,276	0,029	0,033
-275,657	800,000	0,046	0,126
-274,643	-70,097	0,083	-0,022
-273,628	800,000	0,034	0,073
-272,613	-68,381	-0,161	0,044
-271,599	517,303	-0,003	0,005
-270,584	800,000	-0,043	0,115
-269,570	3,474	0,052	0,027
-268,555	-200,000	-0,016	-0,094
-267,540	151,553	0,051	0,050
-266,526	32,685	0,128	0,079
-265,511	-200,000	-0,050	-0,176
-264,497	-116,456	-0,093	-0,012
-263,482	-69,355	0,152	-0,041
-262,467	800,000	0,026	0,070
-261,453	-200,000	0,002	0,049
-260,438	-54,590	0,085	-0,027
-259,424	-29,012	-0,069	0,028
-258,409	376,321	-0,048	-0,070
-257,395	-200,000	-0,011	-0,070
-256,380	-123,719	-0,034	0,004
-255,365	31,528	0,062	-0,038
-254,351	-166,559	0,163	-0,005
-253,336	-200,000	0,006	0,153
-252,322	-52,240	-0,109	0,036
-251,307	-1,611	0,044	-0,022
-250,292	125,132	-0,044	-0,039
-249,278	279,774	-0,016	-0,021
-248,263	48,351	-0,021	-0,014
-247,249	-200,000	-0,011	0,101
-246,234	203,682	0,092	0,102
-245,219	800,000	-0,029	0,057
-244,205	216,112	0,051	-0,058
-243,190	-200,000	-0,023	0,079
-242,176	-11,471	0,123	-0,058
-241,161	222,741	0,173	0,199
-240,146	11,178	-0,121	0,066
-239,132	800,000	0,041	0,092
-238,117	-112,915	-0,188	-0,026
-237,103	-200,000	-0,027	-0,103
-236,088	-85,782	-0,167	-0,037
-235,073	-11,974	-0,065	0,030
-234,059	151,627	0,028	0,027
-233,044	156,678	-0,032	-0,031
-232,030	37,131	-0,090	-0,057
-231,015	800,000	0,046	-0,144
-230,000	-31,036	-0,075	-0,030
-228,986	-82,557	-0,154	-0,035
-227,971	-200,000	0,013	0,075
-226,957	800,000	0,068	0,185
-225,942	800,000	0,004	0,010
-224,927	264,493	0,103	-0,128
-223,913	8,594	-0,102	0,055
-222,898	-200,000	-0,007	-0,048
-221,884	-166,359	-0,062	0,002
-220,869	496,555	-0,031	-0,051
-219,855	388,384	0,057	-0,084
-218,840	-200,000	0,011	0,176
-217,825	-53,929	-0,068	0,022
-216,811	158,202	-0,110	-0,109
-215,796	-4,303	-0,130	-0,064
-214,782	350,409	-0,018	0,026
-213,767	-29,138	-0,032	0,013
-212,752	-200,000	0,014	-0,078
-211,738	163,026	0,045	-0,045
-210,723	-200,000	0,011	-0,090
-209,709	-200,000	0,006	-0,104
-208,694	-72,922	0,063	0,016
-207,679	-200,000	0,014	-0,094
-206,665	800,000	0,044	-0,131
-205,650	-4,267	0,106	0,052
-204,636	-200,000	0,017	-0,061
-203,621	-17,843	0,057	-0,026
-202,606	-154,574	0,050	0,002
-201,592	52,615	0,105	0,071
-200,577	-200,000	-0,012	0,061
-199,563	60,681	0,100	0,070
-198,548	-8,422	0,025	0,012
-197,533	800,000	0,049	0,107
-196,519	-24,521	0,080	-0,034
-195,504	137,196	0,129	0,121
-194,490	800,000	0,010	-0,019
-193,475	-88,657	-0,108	-0,023
-192,460	206,614	-0,132	0,147
-191,446	354,060	-0,047	0,067
-190,431	40,945	0,107	0,069
-189,417	565,513	0,035	-0,060
-188,402	19,137	-0,027	0,016
-187,387	20,757	-0,061	-0,035
-186,373	-200,000	0,025	0,085
-185,358	-200,000	-0,078	0,000
-184,344	-8,410	-0,040	-0,019
-183,329	-163,220	-0,097	-0,003
-182,315	-27,682	0,019	0,008
-181,300	174,490	0,049	-0,050
-180,285	800,000	-0,044	-0,092
-179,271	800,000	0,071	-0,147
-178,256	-200,000	-0,011	0,086
-177,242	-137,328	0,039	0,003
-176,227	599,072	-0,009	-0,016
-175,212	800,000	0,021	0,045
-174,198	155,300	-0,070	0,068
-173,183	32,375	-0,068	0,042
-172,169	800,000	-0,032	-0,082
-171,154	-30,897	-0,097	-0,039
-170,139	66,046	-0,096	-0,069
-169,125	-68,896	-0,085	-0,023
-168,110	-15,562	0,063	-0,029
-167,096	800,000	0,006	-0,016
-166,081	-200,000	0,024	-0,083
-165,066	-119,697	-0,032	-0,004
-164,052	-95,134	0,125	-0,024
-163,037	-200,000	-0,010	-0,164
-162,023	46,939	-0,055	0,036
-161,008	-200,000	-0,014	0,076
-159,993	201,210	0,035	0,039
-158,979	-98,736	-0,065	0,012
-157,964	-200,000	-0,042	0,000
-156,950	186,935	-0,022	-0,024
-155,935	-200,000	-0,012	-0,057
-154,920	-142,148	0,132	0,009
-153,906	60,969	-0,009	0,006
-152,891	800,000	0,048	-0,096
-151,877	800,000	0,008	0,022
-150,862	-173,961	0,032	-0,001
-149,847	363,216	0,054	0,078
-148,833	800,000	-0,044	-0,114
-147,818	117,032	-0,020	0,017
-146,804	-65,278	0,107	-0,030
-145,789	97,976	0,103	0,084
-144,775	199,055	-0,009	-0,010
-143,760	-200,000	-0,154	-0,000
-142,745	233,355	-0,089	-0,104
-141,731	433,532	-0,020	-0,030
-140,716	-129,119	0,116	0,011
-139,702	772,062	0,049	-0,096
-138,687	-93,244	0,109	-0,021
-137,672	-83,337	-0,077	-0,017
-136,658	-200,000	0,018	-0,105
-135,643	75,644	0,127	-0,095
-134,629	-68,358	-0,067	0,018
-133,614	-200,000	-0,011	-0,107
-132,599	488,445	0,047	0,076
-131,585	-57,682	0,097	-0,030
-130,570	-197,165	-0,049	-0,000
-129,556	154,551	0,037	-0,036
-128,541	-200,000	-0,040	-0,168
-127,526	-200,000	0,021	-0,092
-126,512	-56,839	-0,038	-0,012
-125,497	91,637	0,181	0,145
-124,483	548,306	0,068	-0,116
-123,468	800,000	-0,076	0,163
-122,453	-151,575	-0,063	0,003
-121,439	-79,475	-0,166	-0,040
-120,424	261,847	-0,045	0,056
-119,410	28,815	0,054	0,032
-118,395	91,666	0,168	0,134
-117,380	-200,000	0,024	0,088
-116,366	57,924	0,080	-0,056
-115,351	135,277	-0,018	-0,017
-114,337	229,985	0,132	-0,154
-113,322	135,099	-0,078	-0,072
-112,307	66,803	0,061	0,044
-111,293	-200,000	0,038	-0,125
-110,278	-35,739	0,075	0,029
-109,264	-200,000	0,010	-0,071
-108,249	688,929	-0,005	-0,010
-107,234	-138,373	-0,125	0,010
-106,220	-200,000	-0,013	-0,121
-105,205	261,888	0,088	0,109
-104,191	-200,000	0,025	0,127
-103,176	126,731	0,235	0,211
-102,162	225,252	0,045	0,052
-101,147	-176,468	0,041	0,001
-100,132	-76,361	-0,091	0,023
-99,118	194,541	0,063	0,068
-98,103	-69,774	-0,122	-0,033
-97,089	-200,000	0,019	-0,071
-96,074	-16,008	-0,052	-0,023
-95,059	34,981	-0,020	-0,012
-94,045	727,877	-0,059	-0,113
-93,030	394,210	-0,029	0,043
-92,016	-180,618	0,083	-0,001
-91,001	800,000	-0,066	-0,200
-89,986	-86,796	-0,086	-0,019
-88,972	800,000	-0,021	-0,042
-87,957	66,869	-0,028	-0,020
-86,943	219,920	0,066	0,075
-85,928	21,067	-0,136	0,078
-84,913	-155,276	-0,093	-0,004
-83,899	-46,674	0,067	0,023
-82,884	54,800	0,168	-0,115
-81,870	-200,000	0,001	-0,135
-80,855	376,293	0,056	0,082
-79,840	121,168	-0,092	-0,081
-78,826	16,094	0,007	-0,004
-77,811	-200,000	0,015	-0,198
-76,797	-68,215	0,077	0,021
-75,782	198,769	0,054	-0,059
-74,767	-40,475	0,048	-0,018
-73,753	85,272	0,098	0,076
-72,738	358,192	0,099	-0,141
-71,724	800,000	-0,034	-0,075
-70,709	270,375	0,100	-0,125
-69,694	635,393	0,047	0,084
-68,680	-200,000	0,038	-0,138
-67,665	396,577	0,077	-0,115
-66,651	77,896	0,016	0,012
-65,636	161,267	0,084	-0,084
-64,622	-200,000	0,013	-0,044
-63,607	540,780	-0,017	-0,029
-62,592	598,140	0,051	0,090
-61,578	262,632	0,063	0,078
-60,563	499,024	-0,051	0,083
-59,549	301,554	-0,011	0,014
-58,534	-80,464	-1,568	-0,368
-57,519	441,721	-1,455	-2,266
-56,505	-200,000	-0,628	-4,458
-55,490	105,792	1,024	0,859
-54,476	800,000	4,838	11,268
-53,461	-200,000	18,429	292,578
-52,446	800,000	729,778	2246,965
-51,432	558,835	1646,125	2827,852
-50,417	78,946	1666,229	1263,451
-49,403	22,627	1539,574	891,179
-48,388	16,607	1462,574	817,405
-47,373	17,866	1452,619	817,882
-46,359	17,170	1443,021	809,111
-45,344	14,888	1438,285	795,511
-44,330	14,799	1436,500	794,069
-43,315	14,772	1434,715	792,922
-42,300	14,794	1433,086	792,097
-41,286	14,859	1432,031	791,792
-40,271	14,812	1430,746	790,822
-39,257	14,807	1429,351	789,999
-38,242	14,832	1428,359	789,536
-37,227	14,852	1426,874	788,782
-36,213	14,889	1425,566	788,203
-35,198	14,839	1424,265	787,212
-34,184	14,841	1423,465	786,751
-33,169	14,774	1422,141	785,672
-32,154	14,831	1421,365	785,480
-31,140	14,859	1419,773	784,701
-30,125	14,821	1418,862	783,985
-29,111	14,869	1417,624	783,498
-28,096	14,818	1416,396	782,548
-27,082	14,795	1415,449	781,884
-26,067	14,745	1414,412	781,048
-25,052	14,721	1413,284	780,280
-24,038	14,749	1412,537	779,966
-23,023	14,726	1411,132	779,053
-22,009	14,742	1410,254	778,615
-20,994	14,719	1409,386	777,992
-19,979	14,761	1408,334	777,580
-18,965	14,693	1407,432	776,733
-17,950	14,668	1406,707	776,184
-16,936	14,734	1405,377	775,729
-15,921	14,690	1404,424	774,967
-14,906	14,698	1403,454	774,438
-13,892	14,704	1402,778	774,062
-12,877	14,725	1401,580	773,469
-11,863	14,639	1400,991	772,711
-10,848	14,644	1399,869	772,085
-9,833	14,644	1399,083	771,620
-8,819	14,623	1398,174	770,991
-7,804	14,590	1397,229	770,287
-6,790	14,599	1396,196	769,728
-5,775	14,583	1395,185	769,066
-4,760	14,582	1394,409	768,604
-3,746	14,557	1393,645	768,034
-2,731	14,524	1392,895	767,441
-1,717	14,521	1391,924	766,861
-0,702	14,548	1390,101	765,950
0,313	18,250	1308,766	738,322
1,327	34,496	705,907	435,893
2,342	52,726	124,213	83,981
3,356	1,273	16,549	8,395
4,371	4,569	3,144	1,630
5,386	-64,305	0,491	0,141
6,400	190,708	0,160	0,170
7,415	104,458	-0,233	-0,194
8,429	258,335	-0,208	-0,254
9,444	23,611	-0,371	-0,216
10,459	115,986	-0,237	-0,205
11,473	421,329	-0,129	-0,196
12,488	-8,289	-0,310	-0,147
13,502	17,166	-0,376	-0,211
14,517	-56,421	-0,367	-0,115
15,531	34,647	-0,388	-0,239
16,546	167,293	-0,294	-0,296
17,561	147,139	-0,329	-0,314
18,575	183,819	-0,080	-0,084
19,590	183,152	-0,271	-0,283
20,604	-57,672	-0,263	-0,081
21,619	57,047	-0,500	-0,345
22,634	139,613	-0,441	-0,411
23,648	281,155	-0,334	-0,423
24,663	283,315	-0,393	-0,501
25,677	5,550	-0,407	-0,212
26,692	313,064	-0,216	-0,287
27,707	-22,359	-0,398	-0,170
28,721	-14,302	-0,421	-0,191
29,736	75,469	-0,378	-0,282
30,750	126,969	-0,451	-0,404
31,765	57,454	-0,404	-0,279
32,780	459,003	-0,252	-0,397
33,794	51,785	-0,417	-0,280
34,809	117,456	-0,303	-0,264
35,823	19,452	-0,371	-0,210
36,838	221,487	-0,326	-0,370
37,853	66,845	-0,396	-0,284
38,867	56,676	-0,299	-0,205
39,882	117,912	-0,325	-0,283
40,896	179,274	-0,361	-0,373
41,911	-29,976	-0,450	-0,180
42,926	275,037	-0,274	-0,344
43,940	166,753	-0,341	-0,342
44,955	116,592	-0,402	-0,348
45,969	4,710	-0,460	-0,238
46,984	205,821	-0,364	-0,400
47,999	555,582	-0,204	-0,348
49,013	49,397	-0,278	-0,184
50,028	303,075	-0,269	-0,352
51,042	113,873	-0,263	-0,225
52,057	102,784	-0,371	-0,307
53,071	137,955	-0,312	-0,289
54,086	182,684	-0,321	-0,334
55,101	111,240	-0,277	-0,235
56,115	-99,588	-0,439	-0,077
57,130	-14,289	-0,357	-0,162
58,144	-25,660	-0,332	-0,138
59,159	67,835	-0,320	-0,230
60,174	199,751	-0,274	-0,297
61,188	105,383	-0,332	-0,276
62,203	45,422	-0,364	-0,237
63,217	65,974	-0,184	-0,131
64,232	-50,592	-0,383	-0,127
65,247	54,369	-0,392	-0,265
66,261	171,930	-0,372	-0,377
67,276	-25,677	-0,474	-0,196
68,290	222,924	-0,262	-0,298
69,305	-72,694	-0,317	-0,082
70,320	-42,212	-0,388	-0,139
71,334	116,419	-0,223	-0,193
72,349	114,947	-0,304	-0,261
73,363	64,762	-0,385	-0,273
74,378	191,528	-0,272	-0,289
75,393	247,367	-0,286	-0,340
76,407	170,243	-0,285	-0,287
77,422	32,730	-0,228	-0,138
78,436	83,731	-0,243	-0,187
79,451	51,443	-0,216	-0,144
80,466	97,898	-0,310	-0,251
81,480	-53,349	-0,399	-0,128
82,495	23,722	-0,293	-0,169
83,509	117,420	-0,215	-0,186
84,524	146,180	-0,188	-0,177
85,539	-76,229	-0,222	-0,055
86,553	53,131	-0,324	-0,218
87,568	13,016	-0,374	-0,203
88,582	105,729	-0,249	-0,207
89,597	-19,747	-0,304	-0,132
90,611	-62,091	-0,097	-0,028
91,626	172,235	-0,184	-0,186
92,641	30,858	-0,230	-0,138
93,655	31,817	-0,287	-0,173
94,670	132,025	-0,283	-0,256
95,684	127,776	-0,304	-0,272
96,699	129,056	-0,274	-0,246
97,714	139,343	-0,275	-0,254
98,728	52,704	-0,269	-0,181
99,743	78,146	-0,318	-0,238
100,757	-29,876	-0,285	-0,113
101,772	111,222	-0,260	-0,220
102,787	154,186	-0,389	-0,375
103,801	96,435	-0,217	-0,175
104,816	206,541	-0,204	-0,223
105,830	26,185	-0,394	-0,230
106,845	41,546	-0,215	-0,136
107,860	773,104	-0,147	-0,282
108,874	10,589	-0,283	-0,151
109,889	-98,193	-0,235	-0,042
110,903	222,651	-0,249	-0,282
111,918	49,240	-0,349	-0,230
112,933	800,000	-0,135	-0,273
113,947	-25,891	-0,185	-0,076
114,962	5,671	-0,223	-0,115
115,976	205,019	-0,248	-0,270
116,991	31,197	-0,354	-0,213
118,006	166,396	-0,225	-0,223
119,020	-4,335	-0,338	-0,164
120,035	213,415	-0,183	-0,203
121,049	86,819	-0,253	-0,195
122,064	23,330	-0,242	-0,139
123,079	0,167	-0,365	-0,182
124,093	99,539	-0,331	-0,269
125,108	80,188	-0,209	-0,158
126,122	-127,046	-0,345	-0,035
127,137	-7,265	-0,257	-0,122
128,151	-15,791	-0,270	-0,120
129,166	29,219	-0,232	-0,137
130,181	-57,186	-0,340	-0,104
131,195	506,717	-0,137	-0,223
132,210	157,841	-0,211	-0,205
133,224	-25,050	-0,305	-0,126
134,239	-82,564	-0,302	-0,068
135,254	-102,810	-0,111	0,018
136,268	79,044	-0,230	-0,172
137,283	-118,209	-0,184	-0,023
138,297	1,507	-0,143	-0,072
139,312	184,341	-0,288	-0,299
140,327	-81,753	-0,314	-0,071
141,341	215,726	-0,205	-0,228
142,356	-112,680	-0,085	-0,012
143,370	541,844	-0,131	-0,219
144,385	19,578	-0,375	-0,211
145,400	54,043	-0,229	-0,154
146,414	12,402	-0,308	-0,165
147,429	226,370	-0,331	-0,376
148,443	137,154	-0,237	-0,216
149,458	261,925	-0,189	-0,230
150,473	117,845	-0,213	-0,184
151,487	-15,060	-0,318	-0,142
152,502	442,567	-0,122	-0,188
153,516	13,074	-0,380	-0,205
154,531	800,000	-0,139	-0,271
155,546	326,835	-0,201	-0,269
156,560	153,570	-0,252	-0,241
157,575	12,012	-0,144	-0,077
158,589	26,656	-0,292	-0,170
159,604	0,688	-0,264	-0,132
160,619	218,559	-0,256	-0,286
161,633	17,393	-0,277	-0,153
162,648	-56,853	-0,261	-0,080
163,662	38,536	-0,180	-0,112
164,677	62,789	-0,219	-0,153
165,692	-37,356	-0,173	-0,064
166,706	-61,212	-0,246	-0,072
167,721	5,226	-0,274	-0,140
168,735	292,653	-0,269	-0,344
169,750	95,776	-0,149	-0,119
170,764	57,010	-0,185	-0,126
171,779	150,969	-0,209	-0,198
172,794	45,407	-0,302	-0,195
173,808	-17,205	-0,284	-0,124
174,823	-55,551	-0,288	-0,090
175,837	12,836	-0,207	-0,111
176,852	83,875	-0,240	-0,183
177,867	-22,393	-0,181	-0,076
178,881	687,487	-0,113	-0,208
179,896	-39,965	-0,311	-0,113
180,910	130,268	-0,262	-0,234
181,925	384,524	-0,172	-0,248
182,940	104,555	-0,235	-0,193
183,954	332,403	-0,131	-0,177
184,969	141,990	-0,133	-0,123
185,983	306,568	-0,142	-0,185
186,998	329,685	-0,149	-0,200
188,013	229,396	-0,091	-0,104
189,027	255,321	-0,180	-0,215
190,042	109,801	-0,220	-0,184
191,056	-74,566	-0,181	-0,045
192,071	102,120	-0,207	-0,169
193,086	121,654	-0,080	-0,070
194,100	402,204	-0,143	-0,210
195,115	56,034	-0,263	-0,177
196,129	150,838	-0,238	-0,225
197,144	80,815	-0,245	-0,184
198,159	76,123	-0,227	-0,167
199,173	100,446	-0,168	-0,136
200,188	-48,376	-0,228	-0,076
201,202	387,864	-0,158	-0,229
202,217	108,518	-0,223	-0,185
203,232	585,089	-0,072	-0,125
204,246	153,018	-0,127	-0,121
205,261	209,586	-0,235	-0,257
206,275	248,184	-0,149	-0,176
207,290	213,900	-0,116	-0,128
208,304	91,565	-0,135	-0,105
209,319	-12,395	-0,193	-0,087
210,334	5,050	-0,191	-0,097
211,348	73,511	-0,264	-0,192
212,363	513,015	-0,156	-0,253
213,377	-4,774	-0,116	-0,056
214,392	217,633	-0,119	-0,132
215,407	217,118	-0,099	-0,109
216,421	-15,108	-0,184	-0,082
217,436	76,851	-0,157	-0,116
218,450	343,088	-0,140	-0,191
219,465	-19,365	-0,333	-0,143
220,480	-168,779	-0,290	-0,007
221,494	-17,339	-0,152	-0,066
222,509	-69,839	-0,135	0,036
223,523	243,980	-0,137	-0,160
224,538	85,439	-0,189	-0,144
225,553	800,000	-0,088	-0,221
226,567	253,948	-0,165	-0,197
227,582	310,178	-0,091	-0,118
228,596	-1,464	-0,242	-0,118
229,611	800,000	-0,076	-0,151
230,626	-21,879	-0,201	-0,084
231,640	0,980	-0,201	-0,100
232,655	-200,000	-0,078	-0,298
233,669	800,000	-0,099	-0,219
234,684	148,236	-0,168	-0,158
235,699	-200,000	-0,062	-0,194
236,713	488,863	-0,083	-0,132
237,728	10,142	-0,241	-0,127
238,742	304,874	-0,101	-0,131
239,757	152,749	-0,210	-0,199
240,772	253,849	-0,215	-0,256
241,786	271,729	-0,201	-0,247
242,801	-110,130	-0,158	0,023
243,815	4,172	-0,133	-0,067
244,830	-99,758	-0,100	0,017
245,844	24,084	-0,193	-0,110
246,859	3,431	-0,203	-0,102
247,874	141,307	-0,207	-0,190
248,888	169,305	-0,207	-0,205
249,903	-88,693	-0,172	-0,035
250,917	-44,619	-0,207	-0,071
251,932	45,330	-0,130	-0,083
252,947	-62,048	-0,107	-0,031
253,961	396,122	-0,094	-0,136
254,976	532,262	-0,102	-0,168
255,990	14,049	-0,188	-0,101
257,005	257,407	-0,163	-0,194
258,020	-102,011	-0,069	-0,011
259,034	-76,091	-0,100	0,024
260,049	112,701	-0,215	-0,181
261,063	-103,889	-0,250	-0,040
262,078	-0,045	-0,281	-0,138
263,093	228,926	-0,163	-0,184
264,107	507,768	-0,150	-0,242
265,122	-128,558	-0,135	-0,013
266,136	-12,407	-0,205	-0,092
267,151	-41,628	-0,203	-0,072
268,166	606,095	-0,072	-0,124
269,180	55,505	-0,116	-0,078
270,195	135,986	-0,203	-0,183
271,209	371,233	-0,112	-0,158
272,224	23,868	-0,185	-0,105
273,239	-1,236	-0,048	0,023
274,253	11,787	-0,145	-0,077
275,268	800,000	-0,087	-0,176
276,282	640,734	-0,095	-0,168
277,297	-27,165	-0,254	-0,102
278,312	90,531	-0,244	-0,188
279,326	256,985	-0,147	-0,175
280,341	-53,024	-0,086	-0,027
281,355	74,742	-0,128	-0,093
282,370	7,735	-0,133	-0,069
283,384	219,145	-0,095	-0,106
284,399	709,316	-0,139	-0,256
285,414	334,848	-0,183	-0,246
286,428	17,891	-0,197	-0,108
287,443	66,923	-0,076	-0,054
288,457	38,403	-0,129	-0,079
289,472	800,000	-0,066	-0,130
290,487	346,144	-0,151	-0,206
291,501	79,213	-0,201	-0,148
292,516	-47,692	-0,154	-0,051
293,530	324,477	-0,111	-0,146
294,545	471,942	-0,131	-0,204
295,560	800,000	-0,053	-0,149
296,574	-200,000	-0,015	-0,074
297,589	-27,731	-0,219	-0,087
298,603	-79,895	-0,236	-0,054
299,618	123,382	-0,212	-0,184
300,633	239,292	-0,142	-0,164
301,647	61,027	-0,221	-0,151
302,662	-28,870	-0,133	-0,053
303,676	800,000	-0,059	-0,120
304,691	-77,793	-0,187	-0,044
305,706	332,453	-0,166	-0,221
306,720	341,442	-0,135	-0,183
307,735	-200,000	-0,035	-0,278
308,749	406,198	-0,074	-0,108
309,764	247,051	-0,134	-0,156
310,779	-15,382	-0,183	-0,080
311,793	-1,766	-0,137	-0,066
312,808	-200,000	-0,042	-0,238
313,822	162,319	-0,240	-0,232
314,837	-200,000	-0,012	-0,094
315,852	-29,824	-0,192	-0,075
316,866	64,179	-0,039	-0,027
317,881	800,000	-0,082	-0,198
318,895	-149,434	-0,119	-0,006
319,910	-15,413	-0,262	-0,115
320,925	-200,000	-0,034	-0,116
321,939	21,457	-0,147	-0,082
322,954	-38,373	-0,131	-0,047
323,968	100,065	-0,075	-0,060
324,983	615,987	-0,099	-0,172
325,997	800,000	-0,065	-0,167
327,012	149,133	-0,119	-0,111
328,027	-200,000	-0,029	-0,282
329,041	-106,682	-0,027	-0,004
330,056	800,000	-0,015	0,028
331,070	145,546	-0,088	0,081
332,085	416,741	-0,098	-0,145
333,100	-200,000	0,010	-0,100
334,114	279,812	-0,122	-0,150
335,129	561,690	-0,103	-0,172
336,143	101,362	-0,212	-0,170
337,158	-15,604	-0,071	0,031
338,173	800,000	-0,028	-0,059
339,187	518,990	-0,073	-0,119
340,202	52,943	-0,115	-0,076
341,216	98,774	-0,186	-0,147
342,231	800,000	-0,109	-0,298
343,246	25,763	-0,112	-0,064
344,260	111,275	-0,154	-0,128
345,275	-79,854	-0,059	-0,014
346,289	150,373	-0,134	0,125
347,304	800,000	-0,090	-0,183
348,319	138,984	-0,121	-0,109
349,333	-126,824	-0,206	-0,021
350,348	-89,365	-0,111	-0,022
351,362	800,000	-0,090	-0,212
352,377	474,580	-0,094	-0,146
353,392	170,234	-0,063	0,062
354,406	421,549	-0,071	-0,105
355,421	209,621	1312,624	1415,381
356,435	161,343	1473,098	1415,886
