DTS Sentinel unit serial number:	SN410029Multiplexer serial number:	ORYXHardware model number:	OX2-SRSoftware version number:	ORYX F/W v4,00 Oryx Data Collector v3.7.2.0data status	okinstallation	B3 Nyhavnadifferential loss correction	single-endedforward channel	channel 1reverse channel	N/Adate	2023/11/30time	04:52:30forward acquisition time	300,00reverse acquisition time	0,00gamma	499,1914k internal	0,3211k external	0,3211temperature offset calibration	1,0000default loss term (dB/km)	0,3820temperature slope calibration	1,0000multiplexer offset coefficient	1,0000multiplexer slope coefficient	1,0000fibre end	0,00T internal ref (°C)	10,16T ext. ref 1 (°C)	-5,23T ext. ref 2 (°C)	-5,31length (m)	temperature (°C)	Stokes	anti-Stokes-744,400	800,000	-0,093	-0,200
-743,385	434,595	-0,107	0,169
-742,371	-200,000	-0,089	-0,290
-741,356	-200,000	0,075	0,254
-740,342	77,314	-0,316	-0,243
-739,327	-200,000	0,015	0,192
-738,312	295,605	-0,169	-0,224
-737,298	737,667	-0,164	0,321
-736,283	105,971	-0,205	-0,176
-735,269	-200,000	0,006	0,093
-734,254	190,925	-0,209	-0,229
-733,239	239,717	-0,144	0,174
-732,225	162,843	-0,138	-0,140
-731,210	462,355	0,074	0,121
-730,196	17,021	-0,116	-0,067
-729,181	-67,822	0,105	-0,030
-728,167	-26,264	-0,039	0,016
-727,152	398,196	0,092	-0,140
-726,137	-57,784	-0,189	0,060
-725,123	-200,000	-0,001	-0,027
-724,108	-200,000	0,019	0,069
-723,094	-49,108	-0,134	-0,046
-722,079	493,633	0,004	-0,006
-721,064	-200,000	-0,016	-0,093
-720,050	-33,157	-0,036	-0,014
-719,035	3,798	-0,003	-0,002
-718,021	1,796	-0,043	0,022
-717,006	309,625	0,072	-0,097
-715,991	443,812	-0,110	-0,176
-714,977	-200,000	-0,011	-0,166
-713,962	-53,277	-0,003	-0,001
-712,948	800,000	-0,056	-0,161
-711,933	28,674	-0,029	0,018
-710,918	-2,286	-0,048	0,024
-709,904	-200,000	-0,031	-0,177
-708,889	-200,000	-0,006	-0,039
-707,875	6,225	-0,123	-0,066
-706,860	-79,531	-0,187	-0,045
-705,845	-200,000	-0,009	0,104
-704,831	-200,000	0,002	-0,070
-703,816	18,713	-0,117	-0,068
-702,802	71,011	-0,073	-0,054
-701,787	150,431	-0,096	-0,094
-700,772	-8,672	0,148	-0,072
-699,758	-200,000	0,004	0,067
-698,743	121,082	-0,094	0,085
-697,729	226,174	0,043	0,051
-696,714	-72,110	0,059	-0,016
-695,699	232,070	0,044	-0,053
-694,685	-200,000	0,043	-0,193
-693,670	800,000	-0,047	-0,144
-692,656	800,000	-0,039	0,086
-691,641	-148,966	0,008	-0,000
-690,627	-200,000	-0,015	0,096
-689,612	-10,552	-0,070	-0,033
-688,597	203,820	0,070	0,078
-687,583	227,239	-0,053	-0,063
-686,568	-74,678	-0,141	-0,036
-685,554	-200,000	-0,005	-0,044
-684,539	-193,765	-0,023	-0,000
-683,524	270,678	0,031	0,040
-682,510	-200,000	0,051	0,196
-681,495	222,169	-0,092	-0,107
-680,481	-15,189	-0,108	-0,050
-679,466	-77,691	-0,166	0,041
-678,451	-104,418	0,070	-0,012
-677,437	-200,000	0,027	0,118
-676,422	737,726	0,027	0,052
-675,408	6,684	-0,089	0,048
-674,393	-0,766	-0,063	0,032
-673,378	-86,057	-0,090	-0,020
-672,364	47,929	-0,102	-0,069
-671,349	649,276	0,097	-0,180
-670,335	552,678	0,043	0,076
-669,320	-91,712	-0,073	-0,015
-668,305	150,937	0,023	0,022
-667,291	67,508	-0,043	-0,032
-666,276	-37,242	-0,050	-0,019
-665,262	-55,714	-0,022	-0,007
-664,247	212,156	-0,063	0,072
-663,232	800,000	0,002	0,004
-662,218	-120,343	0,033	0,004
-661,203	800,000	0,030	-0,073
-660,189	69,204	-0,092	0,068
-659,174	-75,771	0,038	0,010
-658,159	-22,964	0,045	0,020
-657,145	-200,000	-0,004	-0,085
-656,130	60,369	0,044	-0,032
-655,116	-154,111	0,063	0,003
-654,101	-148,842	0,111	-0,006
-653,086	-200,000	-0,020	0,086
-652,072	-200,000	0,017	-0,058
-651,057	-200,000	0,004	-0,086
-650,043	-1,312	-0,087	-0,044
-649,028	185,939	-0,055	-0,059
-648,014	-29,162	-0,048	0,020
-646,999	276,406	0,029	0,037
-645,984	-200,000	0,011	-0,052
-644,970	800,000	-0,039	-0,115
-643,955	-200,000	0,002	-0,103
-642,941	-200,000	0,010	-0,120
-641,926	119,105	-0,097	-0,086
-640,911	-91,209	-0,058	-0,012
-639,897	800,000	-0,032	0,091
-638,882	-200,000	0,004	-0,133
-637,868	446,054	-0,023	0,037
-636,853	169,669	-0,045	-0,046
-635,838	54,738	-0,152	-0,106
-634,824	487,396	-0,046	-0,076
-633,809	-121,209	0,019	-0,002
-632,795	223,219	0,046	0,054
-631,780	83,040	-0,033	-0,026
-630,765	378,356	-0,066	-0,097
-629,751	0,521	-0,157	0,081
-628,736	-87,273	-0,091	-0,020
-627,722	373,269	0,057	-0,084
-626,707	-63,028	0,058	0,017
-625,692	-77,604	0,177	0,044
-624,678	120,422	-0,124	0,111
-623,663	314,210	-0,081	0,110
-622,649	-200,000	-0,002	-0,054
-621,634	800,000	0,011	-0,028
-620,619	-200,000	0,021	-0,072
-619,605	-200,000	-0,012	-0,066
-618,590	-200,000	-0,014	0,085
-617,576	-48,989	-0,129	-0,044
-616,561	-200,000	-0,019	0,110
-615,546	39,964	-0,044	0,029
-614,532	684,116	-0,023	-0,043
-613,517	658,322	-0,042	-0,077
-612,503	685,839	-0,065	0,122
-611,488	101,728	0,125	0,105
-610,474	193,048	-0,043	-0,047
-609,459	315,464	-0,062	-0,084
-608,444	-142,392	-0,231	0,016
-607,430	-200,000	-0,033	-0,185
-606,415	12,363	-0,102	-0,057
-605,401	198,400	0,110	-0,122
-604,386	-200,000	0,007	-0,162
-603,371	-200,000	0,002	-0,032
-602,357	-144,814	-0,144	0,009
-601,342	764,361	0,101	-0,199
-600,328	319,942	0,009	-0,012
-599,313	-200,000	-0,000	-0,154
-598,298	-200,000	0,017	-0,137
-597,284	734,747	0,033	-0,063
-596,269	60,651	0,047	-0,034
-595,255	109,577	0,038	0,032
-594,240	-45,003	-0,154	0,055
-593,225	676,081	-0,014	0,027
-592,211	-81,566	-0,132	-0,031
-591,196	-96,041	0,116	-0,022
-590,182	134,616	-0,065	0,061
-589,167	800,000	-0,061	0,130
-588,152	800,000	-0,014	-0,039
-587,138	800,000	-0,061	-0,156
-586,123	-111,676	-0,145	-0,021
-585,109	-200,000	-0,024	0,098
-584,094	-27,319	-0,105	0,044
-583,079	-200,000	-0,018	0,184
-582,065	353,778	0,130	0,186
-581,050	65,477	0,168	0,123
-580,036	217,730	-0,091	0,104
-579,021	245,107	0,065	0,079
-578,006	11,329	0,127	-0,070
-576,992	800,000	-0,026	0,055
-575,977	-61,089	0,110	0,033
-574,963	7,536	0,082	0,044
-573,948	97,847	0,100	0,083
-572,934	121,381	-0,130	-0,117
-571,919	800,000	-0,079	-0,169
-570,904	-1,791	0,096	-0,049
-569,890	-186,854	-0,101	-0,001
-568,875	306,344	0,011	-0,014
-567,861	-200,000	-0,004	0,059
-566,846	142,316	0,070	0,067
-565,831	-200,000	-0,019	0,145
-564,817	60,746	-0,112	0,080
-563,802	222,917	-0,058	-0,068
-562,788	800,000	0,019	-0,051
-561,773	-200,000	-0,036	0,164
-560,758	-200,000	0,006	0,079
-559,744	-89,110	0,150	-0,032
-558,729	3,513	-0,034	0,018
-557,715	-200,000	-0,002	-0,064
-556,700	-114,417	-0,075	-0,010
-555,685	761,860	0,039	-0,077
-554,671	800,000	0,050	0,112
-553,656	156,172	0,092	0,091
-552,642	426,811	-0,051	-0,079
-551,627	-99,250	0,073	0,013
-550,612	223,099	-0,090	-0,105
-549,598	136,822	0,145	-0,137
-548,583	278,541	-0,057	-0,073
-547,569	-88,882	0,086	-0,018
-546,554	86,781	0,036	-0,029
-545,539	-200,000	0,002	0,189
-544,525	86,864	-0,059	0,047
-543,510	800,000	0,036	-0,084
-542,496	-135,696	0,083	-0,007
-541,481	582,171	-0,084	-0,149
-540,466	-107,270	0,035	-0,006
-539,452	-200,000	0,051	-0,162
-538,437	-200,000	-0,020	-0,092
-537,423	-71,941	0,129	-0,034
-536,408	-200,000	-0,031	-0,193
-535,393	-200,000	-0,027	-0,089
-534,379	87,150	-0,020	-0,016
-533,364	-200,000	0,016	-0,061
-532,350	99,994	0,100	0,083
-531,335	800,000	0,035	0,105
-530,321	-200,000	-0,027	0,129
-529,306	42,782	-0,053	-0,035
-528,291	-200,000	0,015	-0,156
-527,277	127,319	0,067	-0,061
-526,262	245,728	-0,081	0,098
-525,248	800,000	-0,042	-0,110
-524,233	676,613	0,053	-0,100
-523,218	-200,000	-0,008	0,074
-522,204	800,000	0,041	0,126
-521,189	-57,126	-0,100	-0,031
-520,175	-157,320	0,115	-0,005
-519,160	76,579	-0,063	0,048
-518,145	-200,000	-0,015	-0,153
-517,131	-114,244	-0,044	0,006
-516,116	-149,578	0,063	0,004
-515,102	-149,056	-0,063	-0,004
-514,087	218,092	-0,108	0,124
-513,072	250,528	-0,008	-0,009
-512,058	-105,391	-0,043	0,007
-511,043	-65,126	0,098	-0,028
-510,029	-12,591	-0,097	-0,045
-509,014	-46,095	0,075	-0,026
-507,999	121,753	0,092	-0,083
-506,985	-200,000	0,019	-0,068
-505,970	-51,454	-0,034	0,011
-504,956	291,733	-0,072	-0,094
-503,941	800,000	0,070	-0,153
-502,926	703,744	0,012	0,023
-501,912	160,234	0,026	0,026
-500,897	-127,099	-0,206	-0,021
-499,883	42,664	-0,036	-0,023
-498,868	-127,071	-0,138	-0,014
-497,853	171,048	0,088	-0,091
-496,839	-83,723	0,113	0,026
-495,824	163,172	0,082	0,083
-494,810	208,544	0,002	-0,003
-493,795	-200,000	0,025	-0,103
-492,781	-200,000	0,006	-0,067
-491,766	-49,024	-0,097	-0,033
-490,751	-200,000	0,013	-0,176
-489,737	800,000	0,013	-0,036
-488,722	-113,069	-0,077	0,011
-487,708	397,111	0,042	0,063
-486,693	519,595	0,031	0,052
-485,678	10,794	0,009	-0,005
-484,664	124,027	-0,040	-0,036
-483,649	258,307	-0,054	-0,066
-482,635	-200,000	0,002	0,027
-481,620	144,049	0,089	-0,086
-480,605	-109,201	0,036	0,005
-479,591	205,663	-0,028	-0,031
-478,576	50,406	0,116	-0,079
-477,562	196,452	-0,086	-0,094
-476,547	5,818	-0,079	-0,042
-475,532	235,173	-0,038	0,045
-474,518	159,448	0,043	-0,043
-473,503	194,724	0,013	-0,015
-472,489	800,000	0,060	0,139
-471,474	-200,000	-0,018	0,103
-470,459	-200,000	-0,148	0,000
-469,445	800,000	0,025	0,074
-468,430	187,651	0,112	-0,120
-467,416	-37,652	0,045	-0,017
-466,401	-200,000	0,003	0,078
-465,386	124,819	-0,076	0,069
-464,372	13,891	-0,061	-0,034
-463,357	21,965	-0,105	0,061
-462,343	598,654	-0,056	-0,099
-461,328	194,045	-0,025	-0,027
-460,313	70,750	-0,039	-0,029
-459,299	800,000	-0,025	0,072
-458,284	177,629	0,067	0,070
-457,270	616,592	0,073	0,133
-456,255	84,959	-0,117	0,092
-455,241	-200,000	-0,026	-0,099
-454,226	-200,000	0,009	0,077
-453,211	800,000	0,015	0,036
-452,197	-132,644	0,061	0,005
-451,182	800,000	-0,029	-0,063
-450,168	-92,790	0,192	0,038
-449,153	-200,000	-0,048	0,245
-448,138	-12,963	0,101	-0,047
-447,124	-44,605	-0,057	0,020
-446,109	-115,634	0,153	0,020
-445,095	22,692	-0,129	-0,076
-444,080	36,278	0,124	0,078
-443,065	-200,000	0,005	0,168
-442,051	800,000	-0,018	-0,054
-441,036	-200,000	0,014	0,076
-440,022	800,000	-0,063	0,148
-439,007	84,341	0,072	-0,056
-437,992	-200,000	0,001	0,047
-436,978	800,000	-0,045	0,092
-435,963	81,718	0,041	-0,032
-434,949	-145,895	0,131	0,008
-433,934	196,674	0,125	-0,137
-432,919	-131,997	-0,092	-0,008
-431,905	6,661	-0,075	-0,040
-430,890	-200,000	0,020	-0,073
-429,876	-26,654	-0,068	-0,028
-428,861	-200,000	-0,012	0,100
-427,846	67,983	0,131	-0,096
-426,832	-26,682	-0,080	-0,033
-425,817	-88,451	0,114	-0,024
-424,803	34,900	-0,026	0,016
-423,788	-200,000	-0,020	-0,074
-422,773	-22,961	0,037	-0,016
-421,759	-200,000	0,043	0,139
-420,744	-42,858	0,085	-0,031
-419,730	-200,000	-0,023	0,112
-418,715	-119,422	-0,122	0,015
-417,701	539,675	-0,061	-0,105
-416,686	19,189	0,113	-0,065
-415,671	-200,000	0,014	0,135
-414,657	-200,000	0,000	-0,099
-413,642	-200,000	0,014	0,070
-412,628	-81,816	-0,098	-0,023
-411,613	172,357	-0,043	0,045
-410,598	-200,000	0,007	-0,025
-409,584	138,464	-0,046	-0,043
-408,569	-200,000	-0,005	-0,046
-407,555	776,929	0,015	0,029
-406,540	256,094	0,037	0,045
-405,525	-25,099	-0,160	-0,068
-404,511	-200,000	0,025	-0,136
-403,496	800,000	-0,022	-0,070
-402,482	-200,000	0,016	-0,087
-401,467	-21,958	-0,049	-0,021
-400,452	-200,000	-0,003	0,079
-399,438	171,627	0,025	0,025
-398,423	800,000	0,057	0,134
-397,409	-200,000	-0,014	0,127
-396,394	-37,009	-0,111	-0,042
-395,379	-108,547	0,135	0,021
-394,365	800,000	-0,049	0,135
-393,350	-200,000	-0,005	0,031
-392,336	-152,370	0,091	0,005
-391,321	169,391	-0,036	0,037
-390,306	523,353	-0,063	0,107
-389,292	235,959	-0,074	-0,087
-388,277	-200,000	0,023	-0,082
-387,263	-118,627	0,095	0,012
-386,248	720,476	0,036	0,068
-385,233	-200,000	-0,001	-0,021
-384,219	-12,219	0,049	-0,023
-383,204	560,337	-0,089	-0,154
-382,190	-200,000	0,012	0,080
-381,175	469,446	0,017	-0,027
-380,160	31,666	0,117	0,072
-379,146	-113,882	0,122	0,017
-378,131	253,789	0,042	0,052
-377,117	-200,000	-0,001	0,059
-376,102	85,768	0,013	0,010
-375,088	-76,269	-0,119	0,030
-374,073	-52,872	0,059	0,019
-373,058	800,000	-0,020	-0,053
-372,044	-81,340	0,017	0,004
-371,029	68,906	0,075	-0,055
-370,015	57,162	0,021	-0,015
-369,000	-200,000	-0,009	-0,119
-367,985	297,298	0,004	-0,005
-366,971	280,466	-0,019	-0,024
-365,956	775,743	-0,056	0,111
-364,942	36,519	0,010	0,006
-363,927	-200,000	-0,003	0,081
-362,912	195,685	0,039	-0,042
-361,898	-47,930	0,140	-0,048
-360,883	-200,000	0,003	-0,071
-359,869	-200,000	-0,002	0,010
-358,854	194,617	0,074	0,081
-357,839	-200,000	-0,008	0,145
-356,825	-21,886	0,087	0,038
-355,810	-182,196	-0,027	-0,000
-354,796	-136,265	0,083	-0,007
-353,781	170,906	-0,035	0,036
-352,766	52,531	0,011	-0,008
-351,752	0,651	-0,057	0,029
-350,737	75,748	-0,088	-0,066
-349,723	800,000	0,042	0,086
-348,708	-200,000	0,026	0,083
-347,693	800,000	-0,025	-0,049
-346,679	-60,054	-0,072	-0,022
-345,664	800,000	-0,004	0,008
-344,650	-45,226	0,130	-0,046
-343,635	406,115	-0,089	0,135
-342,620	361,749	0,060	0,086
-341,606	116,184	0,049	0,043
-340,591	-71,416	-0,044	-0,012
-339,577	198,337	-0,091	-0,099
-338,562	-18,687	-0,118	0,052
-337,548	-150,924	-0,068	-0,004
-336,533	-133,972	0,103	-0,009
-335,518	33,862	0,060	0,037
-334,504	-171,633	0,098	0,002
-333,489	-54,597	0,091	-0,029
-332,475	-200,000	-0,001	-0,068
-331,460	17,988	0,045	0,026
-330,445	-200,000	0,004	-0,043
-329,431	387,804	0,060	-0,089
-328,416	800,000	0,026	0,059
-327,402	800,000	0,049	0,122
-326,387	-39,871	0,191	0,071
-325,372	800,000	0,018	-0,042
-324,358	13,544	-0,060	-0,033
-323,343	93,571	-0,057	0,046
-322,329	195,203	0,095	-0,103
-321,314	-200,000	-0,001	0,016
-320,299	-200,000	0,005	-0,039
-319,285	-200,000	0,004	0,120
-318,270	-200,000	-0,008	0,040
-317,256	425,925	-0,069	-0,106
-316,241	-200,000	0,013	-0,057
-315,226	800,000	0,021	0,064
-314,212	-200,000	-0,024	0,098
-313,197	109,006	0,235	0,200
-312,183	486,066	-0,033	0,053
-311,168	109,679	-0,095	-0,081
-310,153	-158,078	-0,170	0,007
-309,139	-121,408	0,107	-0,013
-308,124	-23,201	-0,038	0,016
-307,110	-200,000	-0,007	0,142
-306,095	17,411	0,055	-0,031
-305,080	60,042	-0,064	0,045
-304,066	-18,624	-0,043	0,019
-303,051	800,000	-0,027	-0,056
-302,037	800,000	0,041	-0,087
-301,022	800,000	-0,012	0,033
-300,008	375,402	-0,042	0,061
-298,993	-200,000	-0,004	-0,049
-297,978	-200,000	0,027	0,133
-296,964	312,386	0,066	0,088
-295,949	-200,000	-0,012	-0,064
-294,935	-200,000	-0,011	-0,110
-293,920	269,738	-0,062	0,077
-292,905	800,000	0,045	0,102
-291,891	-200,000	0,013	0,054
-290,876	-117,915	-0,168	0,021
-289,862	78,205	-0,100	-0,076
-288,847	-200,000	-0,008	-0,100
-287,832	-200,000	0,010	-0,126
-286,818	125,095	0,072	-0,065
-285,803	-200,000	-0,003	-0,015
-284,789	168,672	-0,057	-0,058
-283,774	193,018	0,117	0,127
-282,759	77,709	0,100	0,076
-281,745	800,000	-0,061	-0,185
-280,730	-200,000	0,013	0,083
-279,716	329,547	0,012	0,016
-278,701	-123,532	0,147	0,016
-277,686	-200,000	-0,030	-0,135
-276,672	-6,241	0,016	-0,008
-275,657	-200,000	0,005	0,117
-274,643	-200,000	0,014	0,088
-273,628	-200,000	0,015	0,079
-272,613	-200,000	-0,009	-0,070
-271,599	800,000	0,047	0,126
-270,584	-200,000	0,020	0,084
-269,570	40,379	-0,119	-0,076
-268,555	57,321	0,047	-0,033
-267,540	-76,968	-0,057	0,014
-266,526	-149,790	-0,069	-0,004
-265,511	800,000	0,015	0,032
-264,497	-5,802	0,078	-0,038
-263,482	-183,366	-0,072	-0,001
-262,467	-200,000	-0,015	-0,080
-261,453	-16,524	-0,063	0,029
-260,438	536,205	0,080	-0,135
-259,424	10,901	-0,065	0,035
-258,409	-68,934	-0,122	-0,033
-257,395	79,639	0,134	-0,102
-256,380	-85,968	0,212	-0,046
-255,365	-200,000	0,018	0,079
-254,351	659,924	-0,021	0,040
-253,336	-35,643	-0,049	0,019
-252,322	97,202	-0,054	-0,044
-251,307	173,215	0,052	-0,053
-250,292	13,431	0,106	-0,058
-249,278	80,701	0,050	-0,039
-248,263	-200,000	-0,001	-0,008
-247,249	-87,252	-0,120	0,026
-246,234	-151,737	-0,128	0,007
-245,219	200,178	0,108	-0,118
-244,205	212,246	-0,048	-0,054
-243,190	93,129	-0,113	-0,091
-242,176	-149,744	-0,083	-0,005
-241,161	-94,696	-0,048	-0,009
-240,146	253,931	0,076	-0,093
-239,132	-200,000	-0,025	0,149
-238,117	195,077	-0,078	-0,084
-237,103	-149,511	-0,142	0,008
-236,088	-52,332	0,056	-0,018
-235,073	800,000	-0,032	0,064
-234,059	-170,486	0,077	-0,002
-233,044	118,644	0,086	0,076
-232,030	9,545	-0,080	-0,043
-231,015	800,000	0,016	-0,050
-230,000	-63,754	-0,107	0,031
-228,986	145,050	-0,105	-0,100
-227,971	800,000	-0,029	-0,089
-226,957	-42,808	0,093	0,034
-225,942	95,718	0,071	0,058
-224,927	800,000	-0,035	0,079
-223,913	126,849	-0,035	0,031
-222,898	-166,110	-0,091	0,003
-221,884	18,603	0,053	-0,030
-220,869	-82,197	0,135	0,031
-219,855	800,000	0,026	0,051
-218,840	800,000	0,077	0,163
-217,825	-112,972	-0,068	-0,009
-216,811	148,566	-0,020	-0,019
-215,796	-200,000	-0,039	-0,130
-214,782	-200,000	-0,017	0,071
-213,767	453,701	-0,067	0,105
-212,752	91,959	0,071	0,056
-211,738	160,741	-0,100	0,099
-210,723	36,750	-0,080	0,050
-209,709	138,940	-0,113	0,105
-208,694	-76,074	0,082	-0,021
-207,679	115,572	0,076	-0,066
-206,665	-200,000	0,004	0,076
-205,650	104,041	-0,079	-0,066
-204,636	-120,159	-0,103	0,012
-203,621	-48,276	0,101	0,034
-202,606	-200,000	0,008	-0,039
-201,592	-200,000	-0,018	-0,139
-200,577	11,285	-0,085	-0,046
-199,563	-111,234	-0,164	-0,024
-198,548	356,342	-0,051	0,072
-197,533	-85,640	0,064	0,014
-196,519	-200,000	-0,018	0,151
-195,504	179,149	-0,048	-0,050
-194,490	147,585	-0,021	-0,020
-193,475	-200,000	0,004	-0,052
-192,460	4,564	0,112	-0,058
-191,446	-23,979	0,061	-0,026
-190,431	621,595	0,105	0,188
-189,417	298,809	-0,044	-0,057
-188,402	-200,000	-0,008	0,058
-187,387	-4,785	-0,054	-0,026
-186,373	38,695	-0,063	0,040
-185,358	-200,000	0,010	0,213
-184,344	-200,000	0,010	0,036
-183,329	-112,154	0,078	-0,011
-182,315	-122,149	0,160	0,018
-181,300	-23,546	0,064	0,027
-180,285	-72,944	-0,055	0,014
-179,271	-200,000	-0,005	-0,022
-178,256	-76,992	0,063	0,015
-177,242	-200,000	0,020	-0,073
-176,227	-9,609	0,068	-0,032
-175,212	-200,000	0,013	0,070
-174,198	-76,951	-0,098	0,024
-173,183	266,525	-0,019	-0,024
-172,169	779,620	0,065	-0,126
-171,154	108,107	-0,052	0,044
-170,139	647,144	0,100	0,181
-169,125	800,000	0,022	0,049
-168,110	592,888	0,083	0,147
-167,096	120,199	0,013	-0,012
-166,081	-38,404	-0,074	0,028
-165,066	-200,000	0,041	-0,128
-164,052	-132,017	0,088	0,008
-163,037	800,000	0,033	0,103
-162,023	-15,781	0,108	0,049
-161,008	-47,647	-0,064	0,022
-159,993	-200,000	0,004	0,049
-158,979	800,000	0,032	-0,069
-157,964	112,841	0,113	-0,097
-156,950	294,763	0,059	-0,076
-155,935	-145,429	0,048	-0,003
-154,920	511,477	0,033	0,054
-153,906	-200,000	0,038	0,125
-152,891	800,000	-0,069	0,155
-151,877	293,253	0,046	-0,059
-150,862	-200,000	-0,057	-0,182
-149,847	-200,000	-0,017	-0,097
-148,833	226,139	0,051	0,059
-147,818	-26,274	-0,051	-0,021
-146,804	150,453	-0,055	0,053
-145,789	800,000	-0,051	0,138
-144,775	-200,000	-0,015	-0,052
-143,760	-200,000	-0,007	-0,082
-142,745	141,693	-0,068	-0,064
-141,731	300,908	-0,042	0,055
-140,716	-146,299	-0,091	0,006
-139,702	-200,000	0,020	0,064
-138,687	-39,083	0,123	-0,046
-137,672	176,952	0,068	-0,070
-136,658	-200,000	-0,007	-0,054
-135,643	-27,173	-0,084	-0,035
-134,629	233,501	-0,027	0,032
-133,614	172,442	0,112	0,115
-132,599	81,308	0,076	-0,058
-131,585	135,550	-0,003	-0,003
-130,570	370,182	-0,139	0,200
-129,556	-0,377	-0,129	0,065
-128,541	53,822	-0,067	-0,046
-127,526	264,162	-0,109	-0,135
-126,512	190,597	-0,106	0,113
-125,497	78,394	0,041	-0,031
-124,483	-141,895	0,104	-0,007
-123,468	-200,000	0,017	-0,071
-122,453	-54,724	-0,090	0,029
-121,439	800,000	0,021	-0,044
-120,424	408,990	-0,054	0,082
-119,410	-200,000	0,004	-0,043
-118,395	0,548	-0,085	0,043
-117,380	-200,000	0,043	0,163
-116,366	600,936	0,071	0,125
-115,351	-200,000	-0,025	-0,082
-114,337	-15,859	-0,110	-0,049
-113,322	614,790	-0,031	-0,056
-112,307	91,332	0,079	0,063
-111,293	-39,936	0,019	0,007
-110,278	-84,630	0,130	-0,029
-109,264	27,199	-0,027	0,016
-108,249	38,458	-0,088	0,055
-107,234	-200,000	0,014	0,097
-106,220	-108,242	-0,109	-0,017
-105,205	-200,000	-0,014	-0,053
-104,191	-200,000	0,037	0,154
-103,176	800,000	-0,044	0,135
-102,162	109,704	0,134	0,114
-101,147	118,535	-0,120	0,104
-100,132	27,528	-0,080	-0,048
-99,118	56,847	-0,027	0,018
-98,103	-69,689	-0,076	0,020
-97,089	236,132	-0,044	0,051
-96,074	-74,943	0,067	0,017
-95,059	17,942	-0,015	-0,009
-94,045	-200,000	-0,006	-0,099
-93,030	73,463	-0,150	-0,111
-92,016	132,521	0,083	0,075
-91,001	21,797	-0,140	-0,081
-89,986	-123,626	0,129	-0,014
-88,972	298,054	-0,079	-0,103
-87,957	-200,000	-0,037	0,197
-86,943	405,812	-0,065	0,097
-85,928	106,387	0,098	-0,082
-84,913	428,431	-0,016	-0,025
-83,899	-200,000	-0,012	-0,058
-82,884	345,193	0,030	0,041
-81,870	800,000	-0,072	0,177
-80,855	252,844	0,056	0,068
-79,840	-200,000	0,018	0,069
-78,826	-120,176	-0,117	-0,014
-77,811	-151,604	-0,131	-0,007
-76,797	-200,000	0,010	-0,266
-75,782	-138,161	0,028	-0,002
-74,767	-200,000	0,019	0,110
-73,753	-33,716	0,082	0,032
-72,738	-14,546	-0,101	-0,045
-71,724	-23,204	0,103	-0,044
-70,709	273,623	0,045	0,056
-69,694	800,000	0,020	0,046
-68,680	-17,595	0,149	0,066
-67,665	-200,000	-0,005	0,045
-66,651	-85,296	-0,095	0,021
-65,636	202,854	0,052	0,057
-64,622	-44,853	-0,200	0,070
-63,607	-1,014	-0,034	-0,017
-62,592	-59,009	-0,176	-0,053
-61,578	84,453	0,070	0,054
-60,563	-116,198	-0,037	0,005
-59,549	-200,000	0,010	0,110
-58,534	35,253	-2,033	-1,256
-57,519	546,956	-1,190	-2,018
-56,505	-200,000	-0,401	-4,454
-55,490	403,416	1,049	1,564
-54,476	800,000	5,126	11,007
-53,461	-200,000	21,219	339,705
-52,446	800,000	759,379	2358,169
-51,432	559,966	1662,351	2845,130
-50,417	73,681	1661,171	1227,221
-49,403	18,061	1535,058	861,449
-48,388	11,992	1458,479	789,117
-47,373	19,341	1449,490	819,491
-46,359	15,434	1438,919	794,899
-45,344	10,250	1434,645	767,821
-44,330	10,226	1432,693	766,633
-43,315	10,153	1430,878	765,284
-42,300	10,185	1429,244	764,532
-41,286	10,236	1427,859	764,000
-40,271	10,167	1426,725	763,039
-39,257	10,153	1425,521	762,299
-38,242	10,239	1424,235	761,988
-37,227	10,244	1423,222	761,437
-36,213	10,224	1422,004	760,660
-35,198	10,202	1420,931	759,953
-34,184	10,274	1419,763	759,641
-33,169	10,171	1418,633	758,517
-32,154	10,200	1417,705	758,131
-31,140	10,258	1416,098	757,511
-30,125	10,327	1414,971	757,206
-29,111	10,252	1413,788	756,190
-28,096	10,239	1412,861	755,604
-27,082	10,153	1411,815	754,607
-26,067	10,189	1410,675	754,138
-25,052	10,237	1409,451	753,680
-24,038	10,212	1408,699	753,130
-23,023	10,231	1407,505	752,548
-22,009	10,186	1406,718	751,891
-20,994	10,174	1405,689	751,253
-19,979	10,242	1404,680	751,003
-18,965	10,148	1403,757	750,040
-17,950	10,130	1402,817	749,424
-16,936	10,102	1402,222	748,947
-15,921	10,073	1401,145	748,206
-14,906	10,124	1400,202	747,910
-13,892	10,141	1398,988	747,309
-12,877	10,115	1398,241	746,763
-11,863	10,106	1397,589	746,340
-10,848	10,080	1396,537	745,631
-9,833	10,058	1395,671	745,037
-8,819	9,953	1394,900	744,107
-7,804	10,002	1394,109	743,885
-6,790	10,007	1393,086	743,333
-5,775	10,005	1391,772	742,591
-4,760	9,997	1390,873	742,044
-3,746	9,998	1390,040	741,576
-2,731	10,012	1389,026	741,069
-1,717	10,019	1388,174	740,618
-0,702	9,976	1386,567	739,535
0,313	14,058	1299,295	711,645
1,327	30,397	690,093	415,008
2,342	46,622	119,481	78,099
3,356	3,571	16,503	8,461
4,371	-1,860	3,469	1,715
5,386	-28,785	1,033	0,417
6,400	800,000	0,223	0,580
7,415	-75,971	-0,220	-0,054
8,429	191,050	-0,228	-0,242
9,444	76,123	-0,366	-0,273
10,459	260,917	-0,200	-0,244
11,473	-24,915	-0,378	-0,157
12,488	-53,636	-0,137	-0,044
13,502	-39,696	-0,340	-0,125
14,517	-50,310	-0,209	-0,069
15,531	116,639	-0,376	-0,325
16,546	18,486	-0,310	-0,174
17,561	23,508	-0,375	-0,217
18,575	-135,152	-0,204	-0,017
19,590	156,758	-0,378	-0,368
20,604	220,007	-0,193	-0,218
21,619	92,127	-0,501	-0,397
22,634	104,600	-0,483	-0,400
23,648	96,730	-0,499	-0,402
24,663	69,264	-0,339	-0,246
25,677	299,873	-0,269	-0,350
26,692	207,652	-0,331	-0,364
27,707	53,999	-0,320	-0,216
28,721	26,834	-0,285	-0,168
29,736	6,764	-0,469	-0,245
30,750	94,328	-0,368	-0,293
31,765	16,103	-0,449	-0,248
32,780	58,948	-0,479	-0,331
33,794	119,853	-0,254	-0,222
34,809	149,006	-0,354	-0,337
35,823	67,860	-0,379	-0,272
36,838	260,462	-0,324	-0,394
37,853	64,358	-0,430	-0,304
38,867	95,145	-0,425	-0,340
39,882	-85,241	-0,380	-0,083
40,896	11,162	-0,420	-0,225
41,911	14,785	-0,244	-0,134
42,926	-41,538	-0,395	-0,142
43,940	366,794	-0,212	-0,301
44,955	307,279	-0,264	-0,346
45,969	29,880	-0,389	-0,232
46,984	7,482	-0,299	-0,156
47,999	50,142	-0,206	-0,137
49,013	29,654	-0,395	-0,235
50,028	47,198	-0,388	-0,253
51,042	92,634	-0,356	-0,282
52,057	123,774	-0,404	-0,356
53,071	44,575	-0,263	-0,169
54,086	-1,173	-0,437	-0,216
55,101	12,326	-0,313	-0,169
56,115	-13,686	-0,331	-0,150
57,130	-47,614	-0,370	-0,125
58,144	62,186	-0,402	-0,281
59,159	138,741	-0,337	-0,311
60,174	233,361	-0,389	-0,450
61,188	73,502	-0,350	-0,257
62,203	-65,729	-0,346	-0,097
63,217	-32,566	-0,334	-0,130
64,232	-148,716	-0,284	-0,016
65,247	69,880	-0,277	-0,200
66,261	14,935	-0,382	-0,209
67,276	4,888	-0,444	-0,229
68,290	-61,101	-0,379	-0,111
69,305	111,333	-0,302	-0,255
70,320	-46,411	-0,179	-0,061
71,334	13,347	-0,322	-0,174
72,349	61,057	-0,281	-0,196
73,363	-19,437	-0,328	-0,142
74,378	-61,457	-0,368	-0,108
75,393	119,583	-0,326	-0,283
76,407	71,875	-0,182	-0,133
77,422	-131,672	-0,200	0,018
78,436	36,481	-0,229	-0,141
79,451	144,054	-0,297	-0,277
80,466	138,243	-0,322	-0,296
81,480	-2,926	-0,480	-0,234
82,495	-10,247	-0,234	-0,108
83,509	-48,654	-0,276	-0,092
84,524	41,001	-0,321	-0,203
85,539	31,349	-0,282	-0,169
86,553	90,347	-0,249	-0,195
87,568	22,987	-0,404	-0,232
88,582	117,495	-0,338	-0,291
89,597	195,910	-0,195	-0,208
90,611	49,211	-0,306	-0,201
91,626	180,038	-0,154	-0,158
92,641	-75,812	-0,270	-0,066
93,655	120,418	-0,207	-0,180
94,670	-55,987	-0,301	-0,093
95,684	-44,953	-0,365	-0,127
96,699	506,126	-0,192	-0,312
97,714	142,949	-0,290	-0,269
98,728	68,716	-0,303	-0,217
99,743	192,160	-0,131	-0,138
100,757	770,976	-0,172	-0,328
101,772	228,104	-0,221	-0,252
102,787	55,783	-0,266	-0,180
103,801	84,084	-0,342	-0,261
104,816	138,213	-0,280	-0,257
105,830	800,000	-0,087	-0,221
106,845	-131,743	-0,248	-0,022
107,860	-28,822	-0,270	-0,108
108,874	185,370	-0,243	-0,252
109,889	70,514	-0,238	-0,172
110,903	-32,704	-0,251	-0,097
111,918	6,678	-0,244	-0,126
112,933	-42,735	-0,278	-0,098
113,947	11,735	-0,191	-0,102
114,962	-6,845	-0,233	-0,110
115,976	212,006	-0,164	-0,180
116,991	-58,944	-0,393	-0,118
118,006	202,823	-0,208	-0,224
119,020	405,950	-0,214	-0,316
120,035	169,640	-0,158	-0,158
121,049	-68,103	-0,202	-0,055
122,064	438,179	-0,171	-0,261
123,079	37,995	-0,262	-0,162
124,093	165,043	-0,183	-0,181
125,108	-0,730	-0,445	-0,219
126,122	89,388	-0,312	-0,242
127,137	-26,482	-0,228	-0,093
128,151	-4,295	-0,195	-0,094
129,166	38,855	-0,168	-0,105
130,181	782,600	-0,146	-0,280
131,195	-28,032	-0,372	-0,150
132,210	59,725	-0,158	-0,108
133,224	452,113	-0,188	-0,290
134,239	800,000	-0,087	-0,202
135,254	-7,348	-0,254	-0,119
136,268	93,761	-0,209	-0,165
137,283	266,960	-0,185	-0,226
138,297	560,900	-0,102	-0,172
139,312	87,191	-0,288	-0,222
140,327	217,034	-0,276	-0,307
141,341	800,000	-0,077	-0,183
142,356	-101,573	-0,231	-0,039
143,370	-56,768	-0,197	-0,060
144,385	243,118	-0,263	-0,308
145,400	88,687	-0,278	-0,215
146,414	158,040	-0,274	-0,265
147,429	-200,000	-0,084	-0,269
148,443	-68,941	-0,276	-0,074
149,458	800,000	-0,071	-0,191
150,473	800,000	-0,079	-0,173
151,487	117,469	-0,205	-0,176
152,502	-27,447	-0,353	-0,142
153,516	216,138	-0,170	-0,188
154,531	-68,270	-0,273	-0,073
155,546	12,860	-0,142	-0,076
156,560	-147,148	-0,285	-0,017
157,575	-70,592	-0,244	-0,064
158,589	25,551	-0,176	-0,102
159,604	0,445	-0,282	-0,140
160,619	102,297	-0,204	-0,166
161,633	1,054	-0,224	-0,111
162,648	160,550	-0,209	-0,203
163,662	462,822	-0,098	-0,153
164,677	59,440	-0,159	-0,109
165,692	71,715	-0,203	-0,147
166,706	5,002	-0,226	-0,115
167,721	444,956	-0,181	-0,277
168,735	121,662	-0,164	-0,142
169,750	114,272	-0,212	-0,180
170,764	140,121	-0,103	-0,095
171,779	538,045	-0,114	-0,189
172,794	136,783	-0,211	-0,191
173,808	-5,588	-0,228	-0,108
174,823	-36,520	-0,220	-0,082
175,837	13,124	-0,265	-0,142
176,852	-34,184	-0,274	-0,104
177,867	152,150	-0,180	-0,171
178,881	150,000	-0,132	-0,124
179,896	-47,601	-0,268	-0,090
180,910	56,913	-0,319	-0,216
181,925	-72,756	-0,320	-0,081
182,940	-200,000	-0,071	-0,279
183,954	-72,479	-0,130	-0,033
184,969	294,928	-0,211	-0,269
185,983	778,983	-0,081	-0,155
186,998	163,698	-0,159	-0,155
188,013	146,578	-0,125	-0,117
189,027	141,033	-0,211	-0,194
190,042	285,190	-0,145	-0,181
191,056	60,042	-0,295	-0,202
192,071	81,041	-0,152	-0,114
193,086	343,791	-0,177	-0,242
194,100	136,836	-0,282	-0,256
195,115	20,150	-0,187	-0,105
196,129	13,725	-0,160	-0,086
197,144	61,442	-0,203	-0,140
198,159	105,645	-0,242	-0,198
199,173	112,930	-0,178	-0,150
200,188	-23,808	-0,168	-0,069
201,202	83,232	-0,264	-0,199
202,217	-27,735	-0,146	-0,058
203,232	204,640	-0,147	-0,158
204,246	239,008	-0,270	-0,312
205,261	302,730	-0,169	-0,217
206,275	-6,879	-0,213	-0,100
207,290	179,018	-0,099	-0,100
208,304	81,902	-0,197	-0,148
209,319	-82,959	-0,231	-0,051
210,334	244,091	-0,153	-0,178
211,348	453,266	-0,167	-0,256
212,363	-120,086	-0,193	-0,023
213,377	-91,995	-0,180	-0,035
214,392	254,585	-0,138	-0,163
215,407	119,894	-0,082	-0,070
216,421	286,368	-0,160	-0,200
217,436	100,400	-0,220	-0,177
218,450	-88,600	-0,236	0,048
219,465	-90,100	-0,351	-0,070
220,480	-44,405	-0,184	-0,063
221,494	-102,238	-0,285	-0,047
222,509	118,494	-0,084	0,072
223,523	39,443	-0,309	-0,191
224,538	73,123	-0,229	-0,166
225,553	26,414	-0,238	-0,137
226,567	136,938	-0,297	-0,269
227,582	362,372	-0,165	-0,229
228,596	800,000	-0,066	-0,197
229,611	53,846	-0,177	-0,118
230,626	-126,152	-0,161	-0,016
231,640	255,087	-0,127	-0,150
232,655	358,630	-0,090	-0,125
233,669	-72,122	-0,139	-0,035
234,684	248,975	-0,164	-0,192
235,699	-2,835	-0,132	-0,064
236,713	296,274	-0,062	-0,078
237,728	100,457	-0,190	-0,153
238,742	265,460	-0,201	-0,242
239,757	62,159	-0,139	-0,096
240,772	89,645	-0,161	-0,124
241,786	73,730	-0,258	-0,187
242,801	167,764	-0,154	-0,151
243,815	193,014	-0,092	-0,096
244,830	139,033	-0,165	-0,149
245,844	183,959	-0,251	-0,257
246,859	800,000	-0,067	-0,183
247,874	127,611	-0,081	-0,071
248,888	-151,414	-0,169	0,009
249,903	-100,556	-0,281	-0,048
250,917	0,444	-0,120	-0,059
251,932	-54,393	-0,135	-0,042
252,947	-26,119	-0,213	-0,086
253,961	-46,378	-0,121	-0,041
254,976	670,335	-0,176	-0,316
255,990	564,969	-0,128	-0,216
257,005	165,295	-0,118	-0,115
258,020	-200,000	-0,014	-0,131
259,034	-121,174	-0,196	-0,022
260,049	-63,034	-0,119	-0,034
261,063	55,227	-0,152	-0,101
262,078	77,079	-0,187	-0,137
263,093	205,225	-0,148	-0,159
264,107	21,336	-0,226	-0,126
265,122	122,527	-0,253	-0,218
266,136	193,704	-0,101	-0,105
267,151	-123,143	-0,241	0,026
268,166	-70,950	-0,277	-0,071
269,180	381,050	-0,127	-0,181
270,195	445,914	-0,127	-0,192
271,209	104,653	-0,139	-0,113
272,224	144,841	-0,175	-0,161
273,239	324,653	-0,087	-0,115
274,253	-76,182	-0,121	0,029
275,268	175,042	-0,063	-0,063
276,282	42,381	-0,329	-0,206
277,297	172,628	-0,155	-0,154
278,312	229,235	-0,121	-0,136
279,326	282,124	-0,084	-0,104
280,341	36,723	-0,163	-0,099
281,355	60,736	-0,141	-0,096
282,370	-95,819	-0,192	-0,035
283,384	29,302	-0,196	-0,114
284,399	800,000	-0,134	-0,284
285,414	123,619	-0,159	-0,137
286,428	27,412	-0,168	-0,097
287,443	-114,045	-0,035	-0,005
288,457	92,995	-0,116	-0,090
289,472	187,897	-0,156	-0,161
290,487	-66,736	-0,156	-0,042
291,501	66,880	-0,186	-0,130
292,516	800,000	-0,042	-0,095
293,530	62,453	-0,103	-0,071
294,545	8,972	-0,128	-0,066
295,560	176,295	-0,077	-0,077
296,574	151,285	-0,146	-0,137
297,589	-197,468	-0,228	0,001
298,603	68,119	-0,249	-0,175
299,618	203,745	-0,169	-0,181
300,633	800,000	-0,116	-0,260
301,647	-71,514	-0,170	0,043
302,662	117,995	-0,179	0,152
303,676	-151,124	-0,260	-0,013
304,691	-102,470	-0,266	-0,043
305,706	800,000	-0,047	-0,108
306,720	64,476	-0,295	-0,204
307,735	800,000	-0,069	-0,139
308,749	800,000	0,044	-0,095
309,764	72,730	-0,049	-0,035
310,779	-48,794	-0,184	-0,060
311,793	-160,798	-0,240	-0,009
312,808	-200,000	0,011	-0,174
313,822	800,000	-0,110	-0,210
314,837	-200,000	-0,001	-0,106
315,852	-20,731	-0,152	-0,064
316,866	-130,944	-0,073	0,007
317,881	14,469	-0,109	-0,058
318,895	5,828	-0,174	-0,088
319,910	-89,892	-0,042	0,008
320,925	800,000	-0,032	-0,060
321,939	291,432	-0,153	-0,191
322,954	37,878	-0,072	-0,044
323,968	542,941	-0,076	-0,125
324,983	-151,109	-0,281	0,014
325,997	336,863	-0,091	-0,121
327,012	-48,276	-0,270	-0,089
328,027	123,533	-0,120	-0,103
329,041	-120,495	-0,194	0,022
330,056	-112,893	-0,108	-0,015
331,070	207,740	-0,046	0,049
332,085	-29,184	-0,151	-0,059
333,100	235,512	-0,105	-0,119
334,114	-143,812	-0,170	-0,011
335,129	13,707	-0,163	-0,087
336,143	-9,919	-0,245	-0,111
337,158	4,797	-0,178	-0,089
338,173	118,448	-0,068	-0,057
339,187	-63,118	-0,058	-0,016
340,202	-92,597	-0,144	-0,027
341,216	96,486	-0,075	-0,059
342,231	800,000	-0,055	-0,160
343,246	112,363	-0,144	-0,119
344,260	-171,419	-0,158	0,004
345,275	-3,059	-0,068	0,032
346,289	-200,000	0,023	-0,079
347,304	285,946	-0,024	0,030
348,319	-119,867	-0,125	0,015
349,333	524,331	-0,069	-0,112
350,348	-139,604	-0,196	-0,014
351,362	69,124	-0,177	-0,125
352,377	-46,486	-0,106	-0,035
353,392	-99,337	-0,219	0,037
354,406	-7,094	-0,127	-0,059
355,421	208,035	1310,671	1402,098
356,435	160,059	1470,879	1402,577
