DTS Sentinel unit serial number:	SN410029Multiplexer serial number:	ORYXHardware model number:	OX2-SRSoftware version number:	ORYX F/W v4,00 Oryx Data Collector v3.7.2.0data status	okinstallation	B3 Nyhavnadifferential loss correction	single-endedforward channel	channel 1reverse channel	N/Adate	2023/12/04time	11:32:30forward acquisition time	300,00reverse acquisition time	0,00gamma	499,1914k internal	0,3202k external	0,3202temperature offset calibration	1,0000default loss term (dB/km)	0,3820temperature slope calibration	1,0000multiplexer offset coefficient	1,0000multiplexer slope coefficient	1,0000fibre end	0,00T internal ref (°C)	14,04T ext. ref 1 (°C)	-0,28T ext. ref 2 (°C)	-0,31length (m)	temperature (°C)	Stokes	anti-Stokes-744,400	-200,000	-0,027	-0,307
-743,385	-200,000	0,055	0,368
-742,371	1,202	-0,252	-0,131
-741,356	-200,000	0,079	0,377
-740,342	623,131	-0,136	-0,249
-739,327	-200,000	-0,033	0,187
-738,312	61,396	-0,299	-0,216
-737,298	-200,000	-0,084	0,308
-736,283	-12,018	-0,160	-0,076
-735,269	-200,000	0,053	0,223
-734,254	282,904	-0,184	-0,241
-733,239	-143,130	-0,234	0,016
-732,225	-200,000	-0,009	-0,130
-731,210	81,250	0,182	0,143
-730,196	-200,000	0,018	0,122
-729,181	-45,639	-0,105	-0,038
-728,167	-200,000	-0,003	0,013
-727,152	-144,689	0,025	0,002
-726,137	-35,331	-0,080	-0,031
-725,123	0,320	-0,073	0,038
-724,108	4,188	-0,096	-0,051
-723,094	-200,000	0,019	-0,199
-722,079	-78,016	0,027	0,007
-721,064	98,722	-0,056	-0,047
-720,050	169,393	0,046	-0,048
-719,035	-144,576	0,069	0,005
-718,021	223,992	0,066	0,078
-717,006	112,739	-0,093	-0,082
-715,991	800,000	-0,057	-0,164
-714,977	800,000	0,021	-0,058
-713,962	800,000	0,062	-0,191
-712,948	800,000	-0,032	0,074
-711,933	-200,000	0,006	0,121
-710,918	-92,081	-0,075	-0,015
-709,904	484,298	-0,071	-0,117
-708,889	138,870	-0,127	-0,122
-707,875	-200,000	0,030	-0,125
-706,860	734,700	0,065	-0,128
-705,845	123,628	-0,053	-0,048
-704,831	60,196	-0,247	0,177
-703,816	303,926	0,027	-0,036
-702,802	-200,000	-0,012	-0,042
-701,787	800,000	0,010	0,029
-700,772	-200,000	-0,024	-0,094
-699,758	-51,888	-0,020	0,007
-698,743	80,162	-0,011	-0,009
-697,729	-71,903	0,141	0,038
-696,714	114,780	0,005	0,004
-695,699	-200,000	-0,008	0,036
-694,685	238,407	-0,023	0,028
-693,670	379,116	0,041	0,061
-692,656	-112,035	-0,083	0,012
-691,641	800,000	0,038	-0,078
-690,627	694,085	-0,023	0,044
-689,612	-43,802	-0,070	0,025
-688,597	-74,535	-0,127	0,033
-687,583	-60,971	-0,126	-0,038
-686,568	-200,000	0,030	-0,147
-685,554	-92,616	-0,132	-0,027
-684,539	-61,009	0,041	0,012
-683,524	-95,551	0,194	-0,037
-682,510	800,000	-0,019	0,060
-681,495	-200,000	0,033	-0,174
-680,481	161,040	-0,070	-0,071
-679,466	5,691	-0,055	-0,029
-678,451	-200,000	0,002	-0,059
-677,437	-200,000	-0,010	0,064
-676,422	800,000	-0,063	-0,140
-675,408	146,715	0,047	-0,046
-674,393	-200,000	0,006	-0,202
-673,378	-200,000	0,007	-0,141
-672,364	-200,000	0,015	-0,055
-671,349	-37,553	-0,082	-0,032
-670,335	392,824	-0,064	-0,096
-669,320	496,260	-0,046	-0,077
-668,305	-8,593	0,108	0,053
-667,291	-200,000	0,026	0,110
-666,276	-87,780	-0,080	-0,017
-665,262	-137,204	-0,080	0,007
-664,247	733,586	-0,030	-0,059
-663,232	-200,000	-0,025	-0,080
-662,218	800,000	0,011	-0,023
-661,203	-200,000	-0,030	-0,143
-660,189	149,776	-0,099	-0,098
-659,174	-24,273	-0,087	-0,037
-658,159	177,960	0,077	-0,081
-657,145	350,924	-0,041	0,060
-656,130	800,000	0,021	0,064
-655,116	26,604	0,178	0,108
-654,101	-110,950	-0,049	0,007
-653,086	-200,000	-0,014	-0,082
-652,072	468,513	0,021	0,035
-651,057	-105,581	-0,124	0,020
-650,043	-200,000	0,015	-0,060
-649,028	-200,000	-0,014	-0,086
-648,014	-200,000	0,028	0,109
-646,999	112,577	-0,194	0,170
-645,984	195,532	0,118	0,130
-644,970	-200,000	-0,006	0,070
-643,955	201,185	-0,089	-0,100
-642,941	-200,000	-0,016	-0,057
-641,926	76,545	-0,108	0,083
-640,911	-200,000	-0,022	0,081
-639,897	-170,747	0,154	-0,004
-638,882	-200,000	0,018	-0,068
-637,868	136,221	-0,106	-0,100
-636,853	274,308	0,094	-0,121
-635,838	-55,707	0,070	-0,022
-634,824	-13,055	-0,083	0,039
-633,809	-89,398	-0,125	-0,026
-632,795	8,604	0,031	-0,017
-631,780	45,993	0,063	0,042
-630,765	-109,868	0,087	-0,013
-629,751	105,198	-0,071	0,061
-628,736	-200,000	-0,007	-0,025
-627,722	-13,800	-0,035	0,016
-626,707	-150,702	0,138	0,007
-625,692	76,513	0,057	0,043
-624,678	-200,000	0,014	0,116
-623,663	-109,749	-0,129	0,019
-622,649	77,041	-0,088	-0,067
-621,634	12,675	-0,085	-0,047
-620,619	-200,000	0,016	-0,109
-619,605	13,576	-0,045	-0,025
-618,590	-200,000	0,012	0,040
-617,576	-200,000	-0,027	0,121
-616,561	-14,434	-0,079	-0,037
-615,546	60,127	-0,139	-0,100
-614,532	-162,068	0,141	-0,005
-613,517	100,170	-0,091	-0,076
-612,503	34,357	-0,104	0,065
-611,488	800,000	-0,042	-0,104
-610,474	-200,000	-0,002	-0,047
-609,459	1,957	-0,061	0,032
-608,444	0,402	-0,066	-0,034
-607,430	-165,203	-0,108	0,003
-606,415	193,393	0,036	0,039
-605,401	-48,280	0,148	0,051
-604,386	800,000	0,052	-0,124
-603,371	394,416	0,071	0,107
-602,357	-75,911	0,062	-0,016
-601,342	-99,057	-0,164	-0,030
-600,328	199,779	-0,089	-0,099
-599,313	-129,807	0,079	-0,008
-598,298	-69,096	-0,034	-0,009
-597,284	-200,000	-0,007	0,087
-596,269	186,947	-0,051	-0,055
-595,255	88,179	0,036	-0,029
-594,240	131,054	0,099	-0,092
-593,225	-200,000	-0,012	-0,136
-592,211	-200,000	0,012	-0,062
-591,196	-70,110	-0,094	-0,026
-590,182	-29,395	0,139	0,057
-589,167	-147,212	-0,041	-0,002
-588,152	-200,000	0,023	0,104
-587,138	800,000	-0,017	-0,051
-586,123	-73,859	-0,034	0,009
-585,109	-75,459	-0,083	0,021
-584,094	-200,000	-0,002	0,027
-583,079	251,152	0,049	-0,061
-582,065	-51,672	-0,053	0,018
-581,050	-200,000	-0,018	0,082
-580,036	110,302	0,041	-0,035
-579,021	-200,000	-0,019	0,076
-578,006	708,864	-0,052	0,101
-576,992	10,912	-0,144	-0,079
-575,977	35,164	0,065	-0,041
-574,963	-200,000	-0,024	0,112
-573,948	9,195	-0,109	-0,059
-572,934	63,195	-0,026	-0,019
-571,919	-1,423	0,054	0,028
-570,904	-200,000	-0,022	-0,100
-569,890	-85,253	-0,101	-0,023
-568,875	-200,000	0,004	-0,032
-567,861	800,000	0,054	0,110
-566,846	-200,000	-0,021	-0,097
-565,831	281,164	0,028	0,036
-564,817	-83,469	-0,028	-0,006
-563,802	-168,293	-0,106	-0,003
-562,788	-200,000	0,045	-0,191
-561,773	-33,499	0,082	-0,033
-560,758	132,518	-0,045	-0,042
-559,744	-200,000	-0,001	0,088
-558,729	127,810	-0,100	0,092
-557,715	-82,203	-0,197	0,046
-556,700	800,000	0,046	-0,136
-555,685	800,000	0,037	-0,088
-554,671	-31,365	0,080	-0,032
-553,656	-4,348	0,087	0,043
-552,642	258,872	0,062	0,077
-551,627	267,894	0,104	0,132
-550,612	800,000	-0,043	0,128
-549,598	-200,000	-0,003	-0,024
-548,583	-141,275	-0,147	-0,011
-547,569	105,608	-0,041	0,035
-546,554	595,330	-0,033	-0,059
-545,539	-61,694	-0,084	0,025
-544,525	264,740	-0,063	0,079
-543,510	66,036	-0,089	0,065
-542,496	-21,034	-0,134	-0,059
-541,481	580,070	-0,020	-0,036
-540,466	179,769	0,100	-0,105
-539,452	-200,000	-0,019	0,124
-538,437	41,415	0,076	0,049
-537,423	555,682	0,013	-0,022
-536,408	371,715	0,014	0,020
-535,393	76,240	-0,177	0,135
-534,379	-200,000	-0,007	-0,222
-533,364	88,485	-0,127	-0,102
-532,350	15,753	0,075	0,042
-531,335	96,900	-0,047	0,039
-530,321	-64,416	0,038	0,011
-529,306	800,000	-0,015	0,049
-528,291	-29,870	-0,115	-0,047
-527,277	277,098	-0,028	-0,036
-526,262	19,279	0,144	0,083
-525,248	-200,000	-0,007	-0,115
-524,233	94,555	0,146	-0,120
-523,218	351,333	-0,141	0,201
-522,204	192,583	0,008	0,009
-521,189	224,181	0,085	-0,099
-520,175	-167,096	-0,070	-0,002
-519,160	-38,475	-0,063	0,024
-518,145	800,000	-0,030	-0,064
-517,131	-200,000	-0,008	-0,090
-516,116	-102,114	-0,139	-0,024
-515,102	247,367	-0,061	0,074
-514,087	198,388	0,050	0,055
-513,072	106,205	-0,050	-0,043
-512,058	449,873	0,064	-0,103
-511,043	800,000	0,042	-0,113
-510,029	581,898	0,015	0,027
-509,014	-159,001	-0,030	0,001
-507,999	-200,000	-0,055	-0,223
-506,985	800,000	-0,017	-0,048
-505,970	-200,000	-0,007	0,085
-504,956	-48,408	-0,138	-0,048
-503,941	176,148	-0,090	-0,094
-502,926	127,135	0,103	0,094
-501,912	13,387	0,038	-0,021
-500,897	65,505	-0,119	-0,087
-499,883	352,388	-0,078	-0,112
-498,868	156,299	0,073	-0,073
-497,853	800,000	0,007	-0,017
-496,839	47,735	0,072	0,048
-495,824	44,130	0,107	0,071
-494,810	-88,615	0,179	-0,038
-493,795	-114,604	-0,071	0,010
-492,781	-71,053	-0,118	0,032
-491,766	-18,729	0,121	-0,054
-490,751	-200,000	0,004	0,028
-489,737	800,000	-0,030	-0,075
-488,722	245,680	-0,045	0,054
-487,708	-200,000	0,009	0,081
-486,693	58,540	0,024	-0,017
-485,678	649,207	0,062	-0,115
-484,664	-200,000	0,026	-0,092
-483,649	527,660	-0,028	0,048
-482,635	496,462	0,069	-0,114
-481,620	800,000	0,051	0,126
-480,605	208,340	0,120	-0,136
-479,591	-52,521	0,105	0,035
-478,576	-88,887	0,035	0,007
-477,562	-104,531	0,127	0,021
-476,547	55,966	0,064	-0,045
-475,532	-133,940	0,059	-0,005
-474,518	44,777	0,185	0,122
-473,503	800,000	-0,025	0,067
-472,489	-200,000	0,002	0,017
-471,474	17,479	0,083	0,047
-470,459	366,764	-0,028	-0,040
-469,445	-200,000	0,003	-0,019
-468,430	-138,487	-0,066	-0,005
-467,416	-14,400	0,089	0,041
-466,401	-200,000	-0,017	0,111
-465,386	44,281	0,043	0,028
-464,372	301,858	-0,058	0,078
-463,357	-19,922	-0,104	-0,046
-462,343	-200,000	-0,008	0,028
-461,328	-153,488	0,134	-0,007
-460,313	33,515	-0,060	0,037
-459,299	-161,313	0,200	-0,007
-458,284	193,387	-0,062	-0,068
-457,270	61,598	-0,045	-0,032
-456,255	-69,810	0,148	-0,040
-455,241	-200,000	-0,011	-0,104
-454,226	134,096	0,025	-0,023
-453,211	800,000	-0,022	-0,069
-452,197	-200,000	-0,025	0,088
-451,182	462,013	0,012	0,020
-450,168	39,321	0,023	0,015
-449,153	-200,000	-0,041	0,150
-448,138	-200,000	-0,044	-0,154
-447,124	-200,000	-0,016	-0,127
-446,109	-200,000	0,005	-0,134
-445,095	-200,000	0,001	0,064
-444,080	800,000	0,023	0,059
-443,065	-200,000	0,004	0,034
-442,051	101,421	0,050	-0,042
-441,036	800,000	-0,044	-0,111
-440,022	774,707	-0,083	-0,164
-439,007	26,685	0,036	-0,021
-437,992	106,200	0,087	0,074
-436,978	7,457	0,078	0,042
-435,963	-128,202	0,066	-0,007
-434,949	14,503	-0,066	-0,037
-433,934	468,261	0,030	-0,048
-432,919	305,552	-0,032	0,043
-431,905	7,303	0,020	0,011
-430,890	-200,000	-0,004	0,058
-429,876	-107,610	0,149	-0,023
-428,861	800,000	0,094	0,227
-427,846	-200,000	-0,011	0,048
-426,832	-134,090	-0,055	0,005
-425,817	121,949	0,067	-0,060
-424,803	686,090	0,025	0,047
-423,788	290,428	0,045	0,059
-422,773	800,000	-0,048	0,099
-421,759	-200,000	-0,006	0,183
-420,744	-119,305	0,042	0,005
-419,730	23,750	-0,103	0,061
-418,715	-71,911	-0,126	0,034
-417,701	9,946	-0,116	-0,063
-416,686	-68,021	0,119	0,033
-415,671	-77,803	0,129	-0,032
-414,657	511,213	0,064	0,107
-413,642	-200,000	0,009	0,055
-412,628	800,000	-0,059	-0,123
-411,613	-1,119	-0,076	-0,038
-410,598	19,745	-0,124	0,072
-409,584	-131,102	0,095	0,009
-408,569	5,941	-0,074	0,039
-407,555	36,163	0,127	-0,080
-406,540	587,906	-0,058	0,103
-405,525	459,188	0,062	0,100
-404,511	16,968	-0,064	-0,036
-403,496	-200,000	-0,002	0,030
-402,482	-132,245	0,037	-0,003
-401,467	306,438	0,085	0,113
-400,452	-200,000	-0,018	0,213
-399,438	-21,786	-0,094	0,041
-398,423	-138,023	0,129	-0,010
-397,409	311,681	-0,015	-0,021
-396,394	-200,000	-0,010	-0,055
-395,379	-92,286	0,138	0,028
-394,365	800,000	-0,049	0,142
-393,350	-200,000	0,017	0,114
-392,336	108,379	0,174	0,149
-391,321	506,214	0,106	0,177
-390,306	41,263	-0,099	-0,064
-389,292	-81,345	0,076	0,018
-388,277	595,310	-0,015	0,026
-387,263	-111,656	0,160	-0,023
-386,248	-200,000	-0,026	0,104
-385,233	-200,000	-0,026	-0,081
-384,219	219,301	0,048	0,055
-383,204	800,000	-0,027	0,079
-382,190	121,038	-0,015	0,014
-381,175	-200,000	-0,001	0,041
-380,160	599,447	0,077	-0,137
-379,146	-145,598	0,063	-0,004
-378,131	663,223	-0,027	-0,051
-377,117	49,548	-0,066	0,044
-376,102	501,620	0,042	-0,069
-375,088	272,540	-0,089	-0,113
-374,073	-200,000	0,004	-0,015
-373,058	-200,000	-0,022	0,156
-372,044	59,352	0,004	0,003
-371,029	-135,060	-0,087	0,007
-370,015	158,725	-0,098	-0,097
-369,000	-39,902	-0,105	-0,039
-367,985	-47,571	-0,082	-0,028
-366,971	-200,000	0,031	-0,118
-365,956	-200,000	0,002	-0,021
-364,942	-161,509	-0,119	-0,004
-363,927	800,000	0,056	0,167
-362,912	-89,902	-0,090	-0,019
-361,898	327,695	0,003	0,004
-360,883	237,737	0,057	-0,068
-359,869	-200,000	0,007	0,104
-358,854	359,650	-0,044	0,064
-357,839	-200,000	0,004	-0,089
-356,825	-94,018	0,075	-0,015
-355,810	-47,066	0,144	-0,050
-354,796	-200,000	-0,010	-0,034
-353,781	-3,965	-0,074	0,037
-352,766	800,000	-0,027	-0,072
-351,752	-48,776	0,059	-0,020
-350,737	-15,796	0,043	-0,019
-349,723	-200,000	0,008	0,100
-348,708	-113,907	0,075	0,010
-347,693	800,000	0,076	-0,160
-346,679	179,459	-0,027	-0,028
-345,664	-151,107	-0,025	0,001
-344,650	450,418	0,023	0,036
-343,635	-200,000	0,015	-0,067
-342,620	29,942	-0,091	0,056
-341,606	18,629	0,068	-0,039
-340,591	177,180	0,027	0,028
-339,577	-199,425	0,142	-0,001
-338,562	74,320	-0,065	-0,049
-337,548	-200,000	-0,004	-0,101
-336,533	-91,951	0,103	0,021
-335,518	311,783	0,043	0,058
-334,504	180,108	0,086	-0,091
-333,489	-200,000	0,015	0,052
-332,475	-200,000	0,033	-0,135
-331,460	51,334	-0,049	0,033
-330,445	20,776	-0,091	-0,052
-329,431	-200,000	-0,006	0,181
-328,416	55,850	0,099	0,069
-327,402	262,963	-0,018	-0,023
-326,387	800,000	0,036	0,073
-325,372	540,893	0,077	-0,132
-324,358	-11,454	-0,175	-0,082
-323,343	56,178	0,072	0,050
-322,329	-200,000	0,047	-0,209
-321,314	136,437	-0,034	-0,031
-320,299	0,519	0,068	-0,035
-319,285	-200,000	-0,005	-0,020
-318,270	800,000	0,049	-0,097
-317,256	126,115	-0,017	0,016
-316,241	254,037	0,109	-0,133
-315,226	-164,086	-0,084	0,003
-314,212	271,492	-0,024	0,030
-313,197	-17,575	0,145	-0,065
-312,183	-127,426	0,145	-0,015
-311,168	-200,000	-0,023	0,107
-310,153	-166,056	0,073	0,002
-309,139	-200,000	0,005	0,095
-308,124	-68,558	0,050	0,014
-307,110	-200,000	-0,000	0,124
-306,095	167,172	0,108	0,110
-305,080	-200,000	0,012	0,078
-304,066	38,585	-0,015	0,010
-303,051	-117,229	0,002	0,000
-302,037	332,784	-0,050	-0,069
-301,022	-200,000	0,034	-0,167
-300,008	-200,000	-0,001	0,030
-298,993	705,032	0,080	-0,151
-297,978	253,737	0,075	0,092
-296,964	-33,193	-0,182	0,072
-295,949	459,328	0,049	-0,078
-294,935	800,000	-0,052	-0,113
-293,920	-136,783	-0,050	-0,004
-292,905	119,549	0,166	-0,147
-291,891	33,618	0,073	-0,045
-290,876	-154,508	0,186	-0,009
-289,862	31,612	0,100	-0,061
-288,847	800,000	-0,041	-0,090
-287,832	302,976	-0,036	-0,047
-286,818	73,805	0,061	0,045
-285,803	-73,241	-0,066	-0,017
-284,789	192,216	0,071	0,077
-283,774	-200,000	-0,028	0,094
-282,759	800,000	-0,047	0,130
-281,745	-200,000	-0,010	0,054
-280,730	800,000	-0,021	-0,044
-279,716	253,673	-0,069	0,084
-278,701	-200,000	0,009	0,085
-277,686	213,761	-0,059	0,067
-276,672	-188,076	-0,100	0,001
-275,657	585,501	-0,031	0,054
-274,643	-200,000	-0,030	0,123
-273,628	708,440	-0,031	-0,059
-272,613	800,000	-0,018	0,042
-271,599	408,958	-0,048	0,073
-270,584	151,840	-0,091	0,089
-269,570	-200,000	-0,008	0,154
-268,555	149,961	0,093	0,090
-267,540	-42,738	-0,110	-0,040
-266,526	747,693	-0,039	0,076
-265,511	26,154	-0,198	-0,118
-264,497	-119,179	0,075	-0,009
-263,482	19,383	0,134	0,076
-262,467	800,000	0,023	-0,050
-261,453	-200,000	0,023	-0,075
-260,438	-136,673	0,011	0,001
-259,424	112,325	0,030	-0,026
-258,409	455,315	-0,030	-0,047
-257,395	-27,048	-0,043	0,018
-256,380	800,000	0,056	0,143
-255,365	-200,000	0,043	0,138
-254,351	800,000	-0,057	-0,122
-253,336	-200,000	0,004	-0,115
-252,322	433,992	0,091	-0,142
-251,307	736,367	-0,065	0,124
-250,292	-200,000	0,019	-0,073
-249,278	-200,000	-0,021	-0,072
-248,263	-13,676	0,138	0,064
-247,249	800,000	0,067	0,139
-246,234	-200,000	-0,005	0,037
-245,219	290,955	0,086	-0,112
-244,205	654,822	-0,050	-0,092
-243,190	-200,000	0,004	-0,031
-242,176	-200,000	-0,005	0,045
-241,161	-200,000	0,014	0,110
-240,146	73,107	0,188	0,140
-239,132	800,000	-0,024	-0,073
-238,117	-200,000	0,005	-0,171
-237,103	-200,000	0,007	-0,098
-236,088	412,479	-0,030	0,046
-235,073	248,417	0,066	0,080
-234,059	564,550	0,028	-0,048
-233,044	800,000	0,048	-0,113
-232,030	221,895	-0,040	-0,046
-231,015	-200,000	-0,011	-0,129
-230,000	415,914	0,094	-0,144
-228,986	589,351	-0,049	-0,087
-227,971	800,000	0,013	0,038
-226,957	-102,323	0,047	0,008
-225,942	0,102	-0,087	0,044
-224,927	800,000	0,025	-0,064
-223,913	9,321	-0,152	-0,082
-222,898	29,500	-0,032	-0,019
-221,884	41,650	0,031	0,020
-220,869	-17,587	-0,012	0,005
-219,855	386,411	-0,055	0,081
-218,840	419,828	0,041	0,062
-217,825	-36,697	-0,050	-0,019
-216,811	-21,734	0,070	-0,030
-215,796	-72,285	-0,134	-0,035
-214,782	-200,000	-0,007	-0,072
-213,767	-130,321	0,033	0,003
-212,752	-1,489	-0,102	0,051
-211,738	27,317	0,140	-0,084
-210,723	-76,841	0,035	-0,009
-209,709	-18,501	-0,081	0,036
-208,694	784,673	-0,027	0,052
-207,679	418,358	0,042	0,064
-206,665	37,325	-0,072	-0,045
-205,650	-200,000	-0,007	0,057
-204,636	-200,000	0,005	-0,059
-203,621	-200,000	-0,007	-0,071
-202,606	-86,526	-0,064	-0,014
-201,592	203,483	-0,115	-0,127
-200,577	-100,852	-0,099	0,017
-199,563	-200,000	-0,014	0,070
-198,548	-170,304	0,014	0,000
-197,533	-167,945	-0,104	0,003
-196,519	-76,654	0,030	0,007
-195,504	800,000	0,053	-0,117
-194,490	627,533	-0,021	-0,038
-193,475	-200,000	0,021	-0,131
-192,460	800,000	-0,024	-0,054
-191,446	43,193	0,077	0,050
-190,431	738,302	-0,072	0,137
-189,417	-200,000	-0,001	0,076
-188,402	-200,000	-0,002	-0,032
-187,387	-60,514	-0,041	-0,012
-186,373	-55,109	0,189	-0,060
-185,358	-200,000	-0,022	0,107
-184,344	146,789	0,066	0,063
-183,329	-4,681	-0,045	-0,022
-182,315	197,895	-0,063	-0,068
-181,300	-96,920	0,125	-0,023
-180,285	8,439	-0,107	-0,057
-179,271	-115,774	0,048	0,006
-178,256	-131,574	-0,181	0,017
-177,242	-169,154	-0,112	-0,003
-176,227	180,735	-0,038	0,039
-175,212	163,056	0,079	0,079
-174,198	-75,307	-0,054	0,014
-173,183	98,757	0,007	0,006
-172,169	800,000	0,064	-0,188
-171,154	74,249	-0,105	-0,078
-170,139	284,592	-0,064	0,082
-169,125	-200,000	-0,051	0,168
-168,110	119,141	-0,096	0,084
-167,096	800,000	-0,026	0,056
-166,081	-132,276	-0,094	0,009
-165,066	-200,000	-0,003	0,054
-164,052	800,000	0,039	0,117
-163,037	-200,000	0,008	-0,065
-162,023	196,439	0,132	0,143
-161,008	480,823	0,080	0,130
-159,993	800,000	-0,063	0,132
-158,979	800,000	0,062	-0,173
-157,964	-180,832	0,079	0,001
-156,950	95,734	0,052	-0,042
-155,935	214,916	-0,115	0,129
-154,920	-94,145	-0,065	0,013
-153,906	-200,000	0,021	0,110
-152,891	-60,953	-0,142	-0,043
-151,877	-76,832	0,094	-0,023
-150,862	182,440	-0,074	-0,078
-149,847	-200,000	0,024	-0,090
-148,833	-170,642	-0,037	0,001
-147,818	46,814	0,025	0,017
-146,804	800,000	-0,021	0,047
-145,789	68,956	-0,060	-0,044
-144,775	-29,154	-0,033	0,013
-143,760	-0,846	-0,042	-0,021
-142,745	106,402	-0,071	-0,060
-141,731	-124,469	-0,045	0,005
-140,716	39,211	0,089	0,056
-139,702	-63,354	0,040	-0,012
-138,687	-200,000	0,012	0,081
-137,672	800,000	-0,030	0,090
-136,658	-66,243	-0,029	0,008
-135,643	-200,000	0,001	-0,094
-134,629	800,000	-0,067	0,156
-133,614	-137,802	0,071	0,006
-132,599	200,342	-0,025	-0,027
-131,585	-200,000	0,018	-0,111
-130,570	-97,552	-0,003	-0,001
-129,556	-200,000	0,006	-0,104
-128,541	566,751	0,019	0,033
-127,526	87,314	-0,126	0,099
-126,512	-31,314	-0,097	-0,039
-125,497	347,845	-0,045	0,064
-124,483	74,936	0,120	0,090
-123,468	-200,000	0,020	0,095
-122,453	800,000	-0,027	0,068
-121,439	438,793	0,051	0,079
-120,424	26,583	-0,089	0,053
-119,410	-79,021	0,075	0,018
-118,395	-200,000	-0,005	-0,034
-117,380	334,805	0,107	0,148
-116,366	800,000	-0,053	-0,110
-115,351	800,000	-0,040	0,110
-114,337	-200,000	-0,034	-0,118
-113,322	-200,000	0,023	0,078
-112,307	-113,472	-0,022	0,003
-111,293	365,335	0,076	-0,109
-110,278	-113,055	0,031	0,004
-109,264	483,731	-0,050	0,082
-108,249	-1,029	0,021	-0,010
-107,234	65,003	-0,146	-0,104
-106,220	-6,354	-0,075	0,036
-105,205	34,832	0,107	0,066
-104,191	-59,998	-0,129	0,039
-103,176	-200,000	-0,006	-0,034
-102,162	-70,431	0,097	0,026
-101,147	-29,175	-0,150	-0,061
-100,132	107,660	-0,150	-0,127
-99,118	-200,000	0,031	-0,217
-98,103	-200,000	-0,002	0,088
-97,089	800,000	0,031	0,095
-96,074	800,000	0,014	-0,041
-95,059	-69,698	0,081	0,022
-94,045	-200,000	0,012	0,120
-93,030	504,434	-0,055	0,091
-92,016	130,909	-0,081	-0,074
-91,001	-95,834	0,052	0,010
-89,986	-61,483	0,005	-0,001
-88,972	91,142	0,053	-0,042
-87,957	-48,273	0,092	-0,031
-86,943	204,821	-0,085	-0,093
-85,928	-132,713	0,059	0,005
-84,913	626,758	-0,098	-0,176
-83,899	18,517	0,081	0,046
-82,884	12,783	0,054	0,030
-81,870	130,005	0,059	-0,053
-80,855	-200,000	0,013	0,079
-79,840	-200,000	-0,007	0,047
-78,826	-58,521	0,085	-0,026
-77,811	-200,000	-0,007	0,081
-76,797	800,000	-0,041	0,102
-75,782	624,321	-0,030	0,053
-74,767	-36,920	0,139	0,053
-73,753	-79,139	0,087	0,021
-72,738	-126,796	0,033	-0,003
-71,724	660,377	-0,060	0,110
-70,709	-200,000	-0,020	-0,065
-69,694	80,470	0,100	-0,076
-68,680	32,392	0,082	-0,050
-67,665	800,000	-0,030	0,085
-66,651	800,000	-0,016	0,049
-65,636	-166,976	-0,066	0,002
-64,622	433,622	-0,007	-0,010
-63,607	-200,000	0,029	-0,096
-62,592	800,000	-0,022	0,052
-61,578	-68,373	0,119	-0,032
-60,563	-200,000	-0,018	-0,066
-59,549	175,840	0,087	0,090
-58,534	-16,492	-1,508	-0,674
-57,519	415,882	-1,325	-2,006
-56,505	-200,000	-0,349	-4,483
-55,490	276,543	0,951	1,198
-54,476	800,000	4,796	11,087
-53,461	-200,000	18,846	304,621
-52,446	800,000	735,958	2289,051
-51,432	566,256	1652,071	2847,833
-50,417	78,917	1669,812	1263,654
-49,403	21,991	1542,766	888,122
-48,388	15,907	1465,617	814,174
-47,373	17,759	1455,678	817,560
-46,359	16,847	1445,683	807,541
-45,344	14,146	1441,188	792,079
-44,330	14,056	1439,207	790,526
-43,315	14,094	1437,330	789,647
-42,300	14,134	1435,646	788,880
-41,286	14,113	1434,763	788,265
-40,271	14,079	1433,344	787,290
-39,257	14,111	1431,877	786,604
-38,242	14,181	1430,634	786,226
-37,227	14,165	1429,631	785,568
-36,213	14,162	1428,338	784,811
-35,198	14,126	1427,087	783,922
-34,184	14,183	1426,188	783,665
-33,169	14,152	1424,782	782,714
-32,154	14,153	1423,778	782,140
-31,140	14,160	1422,391	781,377
-30,125	14,165	1421,354	780,800
-29,111	14,209	1420,066	780,270
-28,096	14,140	1419,041	779,351
-27,082	14,057	1417,904	778,302
-26,067	14,003	1417,143	777,599
-25,052	14,055	1415,941	777,154
-24,038	14,017	1414,935	776,395
-23,023	14,041	1414,022	775,973
-22,009	14,065	1412,937	775,462
-20,994	14,024	1412,235	774,853
-19,979	14,026	1411,237	774,283
-18,965	14,001	1410,277	773,607
-17,950	13,994	1409,246	772,979
-16,936	14,013	1408,222	772,476
-15,921	13,945	1407,363	771,658
-14,906	14,002	1406,250	771,280
-13,892	13,980	1405,457	770,713
-12,877	13,966	1404,530	770,110
-11,863	13,993	1403,420	769,595
-10,848	13,992	1402,850	769,251
-9,833	13,958	1401,751	768,459
-8,819	13,929	1400,825	767,786
-7,804	13,883	1400,112	767,151
-6,790	13,882	1398,930	766,469
-5,775	13,895	1397,843	765,902
-4,760	13,881	1397,102	765,400
-3,746	13,868	1396,335	764,890
-2,731	13,878	1395,426	764,407
-1,717	13,874	1394,483	763,841
-0,702	13,848	1392,805	762,773
0,313	17,708	1310,742	735,702
1,327	34,051	706,090	434,170
2,342	52,497	124,305	83,796
3,356	3,086	16,646	8,529
4,371	9,791	3,239	1,732
5,386	33,685	0,652	0,400
6,400	800,000	-0,082	0,244
7,415	-97,780	-0,293	-0,053
8,429	-7,876	-0,341	-0,162
9,444	351,656	-0,127	-0,178
10,459	111,092	-0,285	-0,242
11,473	-50,478	-0,419	-0,139
12,488	149,835	-0,192	-0,184
13,502	29,147	-0,269	-0,161
14,517	104,270	-0,323	-0,269
15,531	140,738	-0,304	-0,284
16,546	-27,012	-0,466	-0,191
17,561	5,254	-0,422	-0,219
18,575	90,290	-0,225	-0,177
19,590	103,193	-0,275	-0,228
20,604	27,236	-0,140	-0,083
21,619	103,858	-0,454	-0,377
22,634	66,583	-0,332	-0,238
23,648	177,813	-0,411	-0,424
24,663	199,425	-0,340	-0,368
25,677	0,979	-0,426	-0,215
26,692	371,282	-0,257	-0,369
27,707	73,466	-0,411	-0,303
28,721	68,964	-0,333	-0,241
29,736	35,485	-0,412	-0,254
30,750	369,148	-0,218	-0,312
31,765	-30,191	-0,309	-0,123
32,780	38,504	-0,292	-0,183
33,794	-39,180	-0,329	-0,121
34,809	69,967	-0,273	-0,198
35,823	32,454	-0,341	-0,207
36,838	-89,837	-0,374	-0,076
37,853	5,921	-0,463	-0,241
38,867	82,715	-0,384	-0,294
39,882	213,728	-0,268	-0,299
40,896	195,164	-0,282	-0,302
41,911	58,183	-0,410	-0,283
42,926	112,263	-0,347	-0,296
43,940	-3,292	-0,377	-0,185
44,955	361,327	-0,357	-0,506
45,969	147,845	-0,305	-0,290
46,984	-57,028	-0,414	-0,128
47,999	144,170	-0,313	-0,294
49,013	-39,164	-0,390	-0,144
50,028	11,882	-0,298	-0,161
51,042	178,731	-0,305	-0,314
52,057	145,339	-0,309	-0,291
53,071	-6,593	-0,410	-0,196
54,086	-68,664	-0,258	-0,070
55,101	-66,340	-0,341	-0,095
56,115	645,855	-0,230	-0,415
57,130	-55,059	-0,412	-0,130
58,144	-61,308	-0,436	-0,128
59,159	-112,462	-0,395	-0,055
60,174	-56,317	-0,330	-0,102
61,188	96,051	-0,257	-0,207
62,203	36,616	-0,418	-0,259
63,217	-7,752	-0,349	-0,165
64,232	165,867	-0,314	-0,313
65,247	-62,233	-0,346	-0,101
66,261	46,813	-0,285	-0,186
67,276	120,088	-0,325	-0,284
68,290	71,176	-0,379	-0,276
69,305	-35,042	-0,418	-0,159
70,320	162,377	-0,253	-0,250
71,334	96,960	-0,334	-0,269
72,349	-21,506	-0,328	-0,140
73,363	234,108	-0,285	-0,331
74,378	58,934	-0,245	-0,169
75,393	96,917	-0,250	-0,201
76,407	128,743	-0,271	-0,242
77,422	28,405	-0,248	-0,147
78,436	151,671	-0,153	-0,147
79,451	40,702	-0,357	-0,226
80,466	103,056	-0,350	-0,288
81,480	115,948	-0,267	-0,229
82,495	65,578	-0,405	-0,288
83,509	84,576	-0,158	-0,122
84,524	54,580	-0,266	-0,180
85,539	51,666	-0,264	-0,176
86,553	64,478	-0,214	-0,151
87,568	8,454	-0,214	-0,113
88,582	88,424	-0,312	-0,243
89,597	-19,979	-0,286	-0,123
90,611	387,442	-0,163	-0,237
91,626	83,336	-0,272	-0,208
92,641	-66,620	-0,239	-0,066
93,655	-53,578	-0,304	-0,097
94,670	100,294	-0,221	-0,180
95,684	-159,038	-0,226	-0,009
96,699	139,451	-0,222	-0,205
97,714	-35,004	-0,247	-0,094
98,728	205,407	-0,309	-0,337
99,743	-38,555	-0,317	-0,117
100,757	31,138	-0,428	-0,257
101,772	92,614	-0,336	-0,266
102,787	-132,731	-0,454	-0,040
103,801	253,216	-0,213	-0,255
104,816	-41,372	-0,386	-0,139
105,830	53,111	-0,272	-0,182
106,845	190,685	-0,218	-0,230
107,860	-179,837	-0,310	0,005
108,874	79,168	-0,263	-0,197
109,889	134,961	-0,238	-0,217
110,903	91,694	-0,440	-0,346
111,918	89,663	-0,237	-0,185
112,933	-21,473	-0,239	-0,102
113,947	-65,960	-0,230	-0,064
114,962	104,460	-0,229	-0,189
115,976	139,199	-0,206	-0,189
116,991	13,336	-0,220	-0,119
118,006	22,009	-0,253	-0,144
119,020	339,881	-0,099	-0,135
120,035	8,811	-0,252	-0,133
121,049	85,718	-0,205	-0,158
122,064	113,592	-0,213	-0,181
123,079	94,196	-0,244	-0,194
124,093	42,430	-0,267	-0,170
125,108	-53,106	-0,319	-0,102
126,122	71,589	-0,222	-0,161
127,137	-156,677	-0,347	-0,015
128,151	-35,426	-0,189	-0,071
129,166	27,492	-0,234	-0,137
130,181	316,896	-0,189	-0,250
131,195	33,748	-0,321	-0,195
132,210	249,698	-0,139	-0,165
133,224	124,055	-0,222	-0,195
134,239	167,459	-0,229	-0,228
135,254	125,491	-0,200	-0,176
136,268	319,080	-0,155	-0,205
137,283	-37,065	-0,134	-0,050
138,297	-6,978	-0,279	-0,132
139,312	136,609	-0,271	-0,247
140,327	20,926	-0,294	-0,166
141,341	-79,451	-0,292	-0,068
142,356	-200,000	-0,050	-0,188
143,370	-120,402	-0,277	-0,033
144,385	-0,297	-0,349	-0,173
145,400	89,166	-0,373	-0,290
146,414	132,237	-0,184	-0,165
147,429	92,447	-0,200	-0,157
148,443	-16,751	-0,213	-0,094
149,458	139,220	-0,230	-0,211
150,473	84,407	-0,167	-0,127
151,487	36,944	-0,266	-0,164
152,502	-45,030	-0,330	-0,114
153,516	-26,657	-0,367	-0,149
154,531	-53,600	-0,196	-0,062
155,546	-7,622	-0,244	-0,115
156,560	69,316	-0,235	-0,169
157,575	-23,452	-0,220	-0,092
158,589	112,147	-0,251	-0,211
159,604	45,158	-0,196	-0,126
160,619	478,770	-0,129	-0,205
161,633	69,087	-0,328	-0,235
162,648	342,954	-0,097	-0,132
163,662	-200,000	-0,075	-0,316
164,677	76,563	-0,220	-0,162
165,692	-80,198	-0,189	-0,044
166,706	167,044	-0,195	-0,193
167,721	-8,789	-0,223	-0,104
168,735	362,053	-0,206	-0,289
169,750	289,606	-0,100	-0,127
170,764	32,185	-0,135	-0,081
171,779	209,935	-0,102	-0,112
172,794	187,069	-0,244	-0,254
173,808	293,548	-0,199	-0,254
174,823	25,314	-0,254	-0,147
175,837	175,118	-0,224	-0,226
176,852	69,982	-0,213	-0,153
177,867	8,827	-0,303	-0,158
178,881	800,000	-0,088	-0,217
179,896	55,203	-0,211	-0,142
180,910	-5,085	-0,236	-0,113
181,925	306,364	-0,184	-0,239
182,940	207,320	-0,011	0,012
183,954	183,580	-0,208	-0,214
184,969	-86,050	-0,093	-0,020
185,983	98,546	-0,228	-0,183
186,998	-37,951	-0,111	-0,041
188,013	103,502	-0,268	-0,219
189,027	-21,682	-0,294	-0,124
190,042	102,344	-0,247	-0,200
191,056	88,810	-0,224	-0,173
192,071	681,945	-0,059	-0,108
193,086	-9,634	-0,276	-0,127
194,100	231,241	-0,172	-0,197
195,115	112,062	-0,072	-0,060
196,129	266,982	-0,201	-0,244
197,144	407,565	-0,161	-0,238
198,159	75,138	-0,217	-0,159
199,173	800,000	-0,117	-0,286
200,188	-153,551	-0,251	-0,012
201,202	74,707	-0,136	-0,099
202,217	-110,695	-0,280	-0,040
203,232	70,116	-0,170	-0,122
204,246	178,531	-0,128	-0,130
205,261	31,364	-0,254	-0,151
206,275	125,887	-0,257	-0,226
207,290	42,522	-0,270	-0,170
208,304	-84,794	-0,212	-0,046
209,319	721,049	-0,091	-0,168
210,334	55,440	-0,123	-0,083
211,348	800,000	-0,077	-0,193
212,363	276,722	-0,161	-0,199
213,377	154,794	-0,177	-0,169
214,392	120,489	-0,117	-0,101
215,407	-200,000	-0,047	-0,243
216,421	155,040	-0,149	-0,142
217,436	236,900	-0,179	-0,207
218,450	114,634	-0,279	-0,236
219,465	-13,738	-0,268	-0,120
220,480	90,449	-0,246	-0,191
221,494	800,000	-0,066	-0,143
222,509	800,000	-0,094	-0,263
223,523	14,979	-0,110	-0,059
224,538	95,144	-0,198	-0,156
225,553	644,102	-0,115	-0,204
226,567	-13,142	-0,348	-0,156
227,582	-102,682	-0,221	-0,036
228,596	-79,865	-0,214	-0,049
229,611	-40,446	-0,218	-0,078
230,626	800,000	-0,082	-0,192
231,640	225,855	-0,175	-0,197
232,655	155,404	-0,184	-0,176
233,669	98,758	-0,168	-0,134
234,684	332,237	-0,100	-0,134
235,699	-200,000	-0,014	-0,120
236,713	266,409	-0,142	-0,172
237,728	-111,317	-0,151	0,021
238,742	-47,339	-0,118	-0,039
239,757	165,821	-0,181	-0,177
240,772	-4,854	-0,275	-0,131
241,786	-76,530	-0,185	-0,045
242,801	-17,727	-0,155	-0,067
243,815	584,911	-0,069	-0,118
244,830	548,237	-0,110	-0,182
245,844	308,620	-0,094	-0,122
246,859	-19,705	-0,118	-0,050
247,874	-98,242	-0,114	0,020
248,888	54,555	-0,195	-0,130
249,903	-196,420	-0,160	-0,001
250,917	16,225	-0,226	-0,123
251,932	-200,000	-0,063	-0,245
252,947	-200,000	-0,012	-0,269
253,961	269,187	-0,084	-0,102
254,976	26,336	-0,199	-0,115
255,990	-106,840	-0,282	-0,043
257,005	-19,942	-0,277	-0,118
258,020	110,324	-0,138	-0,115
259,034	112,423	-0,134	-0,112
260,049	290,697	-0,075	-0,095
261,063	800,000	-0,071	-0,144
262,078	800,000	-0,120	-0,300
263,093	57,289	-0,154	-0,103
264,107	800,000	-0,090	-0,241
265,122	800,000	-0,069	-0,183
266,136	469,204	-0,065	-0,101
267,151	-39,167	-0,080	-0,029
268,166	-32,132	-0,304	-0,117
269,180	160,916	-0,079	-0,076
270,195	380,070	-0,144	-0,204
271,209	-10,393	-0,141	-0,064
272,224	4,685	-0,105	-0,053
273,239	-12,101	-0,117	-0,053
274,253	177,168	-0,103	0,104
275,268	-98,350	-0,180	-0,032
276,282	-69,493	-0,127	0,033
277,297	56,029	-0,178	-0,119
278,312	30,119	-0,236	-0,139
279,326	26,510	-0,119	-0,069
280,341	-33,487	-0,171	-0,065
281,355	47,415	-0,149	-0,096
282,370	83,203	-0,151	-0,113
283,384	31,343	-0,185	-0,109
284,399	103,112	-0,149	-0,120
285,414	55,713	-0,148	-0,098
286,428	37,636	-0,127	-0,078
287,443	185,190	-0,132	-0,136
288,457	441,595	-0,052	-0,078
289,472	353,057	-0,108	-0,148
290,487	309,712	-0,161	-0,208
291,501	284,536	-0,104	-0,130
292,516	-66,194	-0,155	0,042
293,530	-184,353	-0,154	-0,002
294,545	66,365	-0,076	-0,053
295,560	323,491	-0,125	-0,164
296,574	-200,000	-0,026	-0,086
297,589	-50,114	-0,105	-0,034
298,603	119,645	-0,192	-0,164
299,618	130,458	-0,210	-0,185
300,633	231,551	-0,203	-0,230
301,647	113,262	-0,157	-0,131
302,662	3,735	-0,114	-0,057
303,676	57,474	-0,121	-0,081
304,691	212,981	-0,097	-0,106
305,706	-200,000	-0,055	-0,222
306,720	20,386	-0,177	-0,098
307,735	710,372	-0,076	-0,138
308,749	277,448	-0,154	-0,189
309,764	28,837	-0,132	-0,077
310,779	197,236	-0,135	-0,142
311,793	310,057	-0,144	-0,186
312,808	-168,320	-0,124	-0,003
313,822	-200,000	-0,050	-0,200
314,837	-82,656	-0,117	-0,026
315,852	326,206	-0,014	-0,018
316,866	104,430	-0,097	-0,078
317,881	-22,439	-0,117	-0,049
318,895	26,178	-0,245	-0,140
319,910	-83,447	-0,196	-0,043
320,925	260,880	-0,127	-0,151
321,939	800,000	-0,098	-0,224
322,954	187,566	-0,140	-0,144
323,968	-200,000	-0,074	-0,265
324,983	-200,000	0,012	-0,063
325,997	-95,267	-0,169	-0,031
327,012	-0,451	-0,141	-0,069
328,027	124,985	-0,220	-0,191
329,041	-96,094	-0,132	-0,024
330,056	-69,943	-0,206	-0,054
331,070	430,506	-0,057	-0,085
332,085	152,041	-0,128	-0,120
333,100	-38,006	-0,178	-0,065
334,114	132,836	-0,109	-0,097
335,129	800,000	-0,088	-0,230
336,143	106,185	-0,164	-0,134
337,158	800,000	-0,108	-0,207
338,173	-200,000	-0,010	-0,114
339,187	-101,116	-0,228	-0,038
340,202	307,505	-0,048	0,061
341,216	292,724	-0,153	-0,192
342,231	428,657	-0,122	-0,181
343,246	-96,757	-0,256	-0,046
344,260	78,574	-0,167	-0,122
345,275	800,000	-0,043	-0,083
346,289	88,724	0,140	-0,107
347,304	34,833	-0,061	0,037
348,319	-92,019	-0,108	0,021
349,333	274,666	-0,132	-0,160
350,348	224,981	-0,163	-0,181
351,362	174,430	-0,088	-0,088
352,377	263,919	0,036	-0,043
353,392	31,272	-0,110	-0,065
354,406	167,026	-0,168	-0,163
355,421	208,152	1316,461	1412,404
356,435	160,148	1477,403	1412,890
