DTS Sentinel unit serial number:	SN410029Multiplexer serial number:	ORYXHardware model number:	OX2-SRSoftware version number:	ORYX F/W v4,00 Oryx Data Collector v3.7.2.0data status	okinstallation	B3 Nyhavnadifferential loss correction	single-endedforward channel	channel 1reverse channel	N/Adate	2023/12/03time	00:07:30forward acquisition time	300,00reverse acquisition time	0,00gamma	499,1914k internal	0,3201k external	0,3201temperature offset calibration	1,0000default loss term (dB/km)	0,3820temperature slope calibration	1,0000multiplexer offset coefficient	1,0000multiplexer slope coefficient	1,0000fibre end	0,00T internal ref (°C)	13,27T ext. ref 1 (°C)	-1,67T ext. ref 2 (°C)	-1,67length (m)	temperature (°C)	Stokes	anti-Stokes-744,400	221,892	-0,180	-0,211
-743,385	-200,000	-0,064	0,348
-742,371	68,575	-0,165	-0,123
-741,356	598,506	0,170	0,307
-740,342	332,457	-0,144	-0,203
-739,327	800,000	-0,137	0,364
-738,312	251,865	-0,184	-0,228
-737,298	800,000	0,113	0,233
-736,283	138,473	-0,127	-0,121
-735,269	-200,000	-0,029	0,347
-734,254	-12,472	-0,200	-0,094
-733,239	432,573	-0,113	0,179
-732,225	178,937	-0,166	-0,177
-731,210	800,000	-0,033	0,092
-730,196	-162,423	0,109	-0,004
-729,181	4,842	-0,031	-0,017
-728,167	139,188	-0,025	-0,024
-727,152	444,228	-0,082	0,131
-726,137	327,993	-0,046	0,064
-725,123	4,943	0,058	-0,031
-724,108	-44,582	-0,204	0,074
-723,094	-25,875	-0,163	0,069
-722,079	14,223	-0,039	-0,022
-721,064	95,305	-0,097	-0,080
-720,050	800,000	-0,036	0,098
-719,035	18,297	-0,036	0,021
-718,021	-200,000	0,013	-0,096
-717,006	19,782	-0,063	-0,037
-715,991	-81,148	-0,142	-0,034
-714,977	-79,494	-0,207	0,050
-713,962	-116,018	0,072	-0,010
-712,948	-126,695	-0,015	0,002
-711,933	-104,480	-0,166	-0,028
-710,918	800,000	-0,022	0,049
-709,904	339,122	-0,048	-0,069
-708,889	800,000	0,071	-0,163
-707,875	-97,518	-0,064	0,012
-706,860	96,859	0,034	0,028
-705,845	-183,353	-0,083	-0,001
-704,831	108,525	0,070	-0,060
-703,816	757,455	-0,049	0,097
-702,802	-93,625	0,139	-0,028
-701,787	-85,693	0,013	-0,003
-700,772	282,345	-0,118	-0,154
-699,758	-56,493	-0,061	0,020
-698,743	220,695	0,063	-0,074
-697,729	800,000	-0,033	0,074
-696,714	230,728	0,025	-0,030
-695,699	404,432	-0,074	0,114
-694,685	-200,000	0,019	-0,097
-693,670	162,668	-0,131	-0,134
-692,656	236,420	0,019	0,023
-691,641	-200,000	0,000	0,043
-690,627	-15,645	-0,037	0,017
-689,612	-200,000	0,017	0,110
-688,597	25,355	-0,077	-0,046
-687,583	349,207	0,023	0,033
-686,568	599,338	-0,124	-0,223
-685,554	18,607	-0,138	-0,080
-684,539	84,597	0,124	0,099
-683,524	-200,000	-0,005	0,069
-682,510	-31,250	0,058	0,024
-681,495	-67,021	-0,149	-0,042
-680,481	-41,295	0,117	-0,043
-679,466	-124,248	-0,171	0,019
-678,451	-200,000	-0,019	-0,082
-677,437	761,476	0,018	-0,036
-676,422	469,734	0,052	-0,084
-675,408	-61,622	-0,062	0,019
-674,393	800,000	0,011	0,028
-673,378	-171,197	-0,084	-0,002
-672,364	487,230	-0,116	-0,193
-671,349	312,537	-0,074	0,101
-670,335	317,510	-0,032	-0,043
-669,320	-170,723	0,068	0,002
-668,305	-174,829	0,127	0,003
-667,291	355,645	0,010	0,014
-666,276	222,142	-0,090	0,105
-665,262	800,000	0,062	-0,151
-664,247	-102,833	-0,087	-0,015
-663,232	-31,944	-0,084	-0,034
-662,218	-84,672	-0,076	0,017
-661,203	-74,664	0,081	0,021
-660,189	-135,361	-0,099	-0,008
-659,174	-159,169	0,098	-0,004
-658,159	134,894	-0,038	-0,036
-657,145	190,551	-0,035	0,038
-656,130	96,397	0,043	0,036
-655,116	343,070	0,063	-0,089
-654,101	168,347	0,066	-0,069
-653,086	351,271	-0,037	0,053
-652,072	16,590	-0,069	-0,039
-651,057	-105,170	-0,085	0,014
-650,043	-2,925	-0,123	0,062
-649,028	743,986	-0,068	-0,133
-648,014	235,245	0,064	-0,076
-646,999	-200,000	-0,028	-0,101
-645,984	389,361	-0,021	0,032
-644,970	800,000	0,029	0,069
-643,955	90,807	-0,117	-0,095
-642,941	432,552	0,050	-0,079
-641,926	-20,300	-0,039	0,017
-640,911	741,061	-0,022	-0,043
-639,897	800,000	-0,021	0,044
-638,882	35,886	0,076	0,048
-637,868	83,134	-0,087	-0,069
-636,853	10,669	-0,095	0,052
-635,838	275,600	-0,033	-0,043
-634,824	771,908	-0,033	-0,065
-633,809	183,554	-0,070	-0,075
-632,795	576,557	-0,013	0,023
-631,780	414,912	0,004	0,007
-630,765	800,000	-0,039	0,096
-629,751	-113,444	-0,103	-0,015
-628,736	-69,835	-0,106	0,029
-627,722	-53,557	-0,162	-0,053
-626,707	800,000	-0,015	0,040
-625,692	444,158	-0,059	0,094
-624,678	7,580	0,051	-0,028
-623,663	-200,000	-0,016	0,055
-622,649	-97,612	0,041	-0,008
-621,634	268,401	0,061	0,078
-620,619	101,501	0,046	-0,039
-619,605	196,915	-0,029	-0,032
-618,590	118,733	-0,052	0,047
-617,576	-200,000	-0,020	-0,064
-616,561	96,677	-0,168	0,140
-615,546	659,497	-0,028	0,052
-614,532	800,000	0,045	-0,093
-613,517	616,658	-0,075	0,136
-612,503	438,453	0,076	0,120
-611,488	-105,579	-0,105	0,017
-610,474	-153,793	-0,147	0,007
-609,459	85,802	-0,014	-0,011
-608,444	187,811	-0,076	-0,083
-607,430	318,530	0,040	0,055
-606,415	-148,021	-0,081	0,005
-605,401	-200,000	0,006	0,050
-604,386	-200,000	0,008	0,061
-603,371	-86,095	0,129	-0,029
-602,357	-200,000	0,004	0,137
-601,342	483,737	-0,033	-0,055
-600,328	-200,000	0,017	0,073
-599,313	800,000	-0,024	-0,057
-598,298	42,519	-0,066	-0,043
-597,284	-88,309	-0,083	-0,018
-596,269	-97,015	0,030	0,006
-595,255	-200,000	0,003	0,029
-594,240	-194,844	-0,090	-0,000
-593,225	-49,129	-0,056	-0,019
-592,211	-200,000	-0,004	-0,168
-591,196	15,146	-0,079	-0,045
-590,182	-46,215	0,062	0,022
-589,167	437,841	-0,022	0,035
-588,152	-200,000	0,000	0,092
-587,138	124,237	-0,092	0,083
-586,123	106,923	0,104	-0,089
-585,109	-200,000	0,027	-0,157
-584,094	800,000	-0,024	0,054
-583,079	800,000	0,046	0,107
-582,065	-200,000	-0,023	-0,144
-581,050	-15,544	0,058	-0,027
-580,036	469,553	-0,052	-0,084
-579,021	-168,603	-0,166	-0,004
-578,006	657,255	0,057	-0,106
-576,992	-172,354	-0,007	0,000
-575,977	64,476	0,059	-0,043
-574,963	800,000	-0,038	-0,077
-573,948	-200,000	-0,014	-0,065
-572,934	-80,176	-0,046	0,011
-571,919	800,000	0,048	-0,102
-570,904	-184,317	0,079	-0,001
-569,890	127,305	0,057	0,052
-568,875	-12,708	-0,086	-0,040
-567,861	-130,549	0,051	-0,005
-566,846	173,561	-0,079	-0,082
-565,831	101,116	-0,048	0,041
-564,817	-156,770	-0,107	-0,005
-563,802	-200,000	-0,012	-0,084
-562,788	-152,175	0,089	-0,005
-561,773	179,011	-0,130	-0,137
-560,758	67,098	-0,091	0,067
-559,744	-165,099	0,067	0,002
-558,729	-200,000	0,020	-0,141
-557,715	166,746	-0,003	0,003
-556,700	10,022	0,063	-0,034
-555,685	-150,002	-0,075	0,004
-554,671	-84,434	-0,036	-0,008
-553,656	62,574	0,059	0,042
-552,642	-200,000	0,006	0,100
-551,627	-200,000	0,001	0,065
-550,612	-126,891	0,027	-0,003
-549,598	-15,112	0,017	-0,008
-548,583	102,389	-0,050	-0,042
-547,569	-152,632	0,142	0,007
-546,554	-24,834	0,055	-0,023
-545,539	231,638	-0,062	0,073
-544,525	6,757	0,088	0,047
-543,510	46,247	-0,038	-0,025
-542,496	800,000	-0,042	-0,095
-541,481	-200,000	-0,013	0,085
-540,466	800,000	-0,006	-0,016
-539,452	40,877	-0,045	-0,029
-538,437	30,309	-0,053	-0,033
-537,423	-20,429	0,027	0,012
-536,408	-140,607	0,039	-0,003
-535,393	-45,054	-0,100	-0,036
-534,379	-32,891	0,129	-0,052
-533,364	50,013	-0,086	-0,058
-532,350	800,000	0,091	-0,191
-531,335	395,396	-0,020	0,030
-530,321	-200,000	0,009	0,125
-529,306	-114,135	0,029	-0,004
-528,291	-94,009	-0,055	-0,011
-527,277	-100,193	-0,152	0,027
-526,262	-51,503	0,146	-0,049
-525,248	-200,000	0,021	0,206
-524,233	96,639	0,086	0,071
-523,218	30,336	-0,070	-0,043
-522,204	92,234	-0,087	-0,071
-521,189	-200,000	-0,004	0,082
-520,175	-93,342	-0,068	-0,014
-519,160	208,719	-0,031	-0,035
-518,145	800,000	0,037	0,107
-517,131	338,006	0,058	-0,082
-516,116	-104,742	0,029	0,005
-515,102	-200,000	-0,007	-0,037
-514,087	687,147	-0,047	0,090
-513,072	340,440	-0,034	-0,048
-512,058	-45,328	0,068	0,024
-511,043	250,651	-0,045	0,055
-510,029	-87,162	0,216	0,047
-509,014	3,738	0,054	0,029
-507,999	-86,658	-0,043	0,009
-506,985	-200,000	-0,019	0,061
-505,970	52,599	0,054	-0,037
-504,956	800,000	-0,051	0,111
-503,941	404,688	-0,040	0,061
-502,926	108,452	0,047	-0,040
-501,912	15,641	-0,063	0,035
-500,897	-200,000	0,004	-0,034
-499,883	-126,074	0,122	-0,013
-498,868	578,112	-0,056	-0,099
-497,853	-200,000	-0,005	0,037
-496,839	255,269	0,041	0,050
-495,824	204,124	0,117	0,131
-494,810	-200,000	0,007	-0,079
-493,795	242,212	-0,063	0,077
-492,781	-156,882	-0,024	-0,001
-491,766	-200,000	-0,027	-0,097
-490,751	675,203	0,067	-0,127
-489,737	800,000	0,009	0,026
-488,722	800,000	-0,045	-0,101
-487,708	-200,000	-0,008	0,027
-486,693	60,301	-0,051	-0,037
-485,678	218,109	0,037	-0,043
-484,664	336,526	-0,086	0,121
-483,649	218,904	-0,142	-0,164
-482,635	90,353	-0,101	0,081
-481,620	196,155	-0,095	-0,104
-480,605	316,311	0,075	-0,103
-479,591	71,611	0,105	0,079
-478,576	800,000	-0,019	-0,047
-477,562	-200,000	0,001	-0,078
-476,547	-54,963	0,099	0,032
-475,532	155,606	-0,073	-0,073
-474,518	-200,000	0,012	0,076
-473,503	800,000	0,069	0,197
-472,489	-157,502	0,083	0,004
-471,474	-36,350	0,118	0,046
-470,459	-200,000	0,043	-0,350
-469,445	89,785	-0,015	0,012
-468,430	132,660	0,051	0,047
-467,416	-200,000	0,002	-0,051
-466,401	-200,000	0,007	0,065
-465,386	295,101	-0,037	-0,049
-464,372	-161,856	-0,101	-0,004
-463,357	25,976	0,048	-0,029
-462,343	-200,000	0,005	0,080
-461,328	-200,000	0,005	0,051
-460,313	99,525	-0,106	0,088
-459,299	255,351	-0,017	0,021
-458,284	110,088	-0,065	-0,056
-457,270	800,000	-0,029	-0,064
-456,255	800,000	0,036	-0,077
-455,241	-14,350	-0,120	0,055
-454,226	-49,240	-0,077	-0,026
-453,211	163,141	0,052	0,053
-452,197	-200,000	0,029	0,175
-451,182	-84,535	0,063	-0,014
-450,168	71,649	0,051	0,038
-449,153	-200,000	0,016	0,107
-448,138	-140,829	-0,027	0,002
-447,124	-200,000	-0,017	-0,110
-446,109	-37,469	0,096	0,037
-445,095	-63,392	-0,074	0,022
-444,080	-200,000	0,005	0,222
-443,065	51,897	-0,062	0,042
-442,051	800,000	-0,028	-0,072
-441,036	800,000	-0,035	-0,096
-440,022	-77,922	0,103	-0,025
-439,007	-200,000	-0,015	-0,059
-437,992	266,773	0,040	-0,051
-436,978	21,998	0,108	-0,063
-435,963	800,000	-0,053	0,116
-434,949	93,257	-0,196	-0,159
-433,934	386,259	-0,025	0,038
-432,919	-11,379	-0,125	0,059
-431,905	-86,724	0,116	-0,025
-430,890	-162,353	0,075	-0,003
-429,876	-141,226	-0,062	0,004
-428,861	115,839	0,038	0,033
-427,846	-42,674	0,077	0,028
-426,832	-0,934	0,062	0,032
-425,817	611,431	-0,038	0,069
-424,803	-200,000	-0,005	0,074
-423,788	-164,487	-0,109	0,004
-422,773	45,780	0,065	0,043
-421,759	800,000	0,058	0,118
-420,744	-24,765	0,102	0,043
-419,730	-30,715	0,085	0,034
-418,715	800,000	-0,049	0,115
-417,701	800,000	-0,007	-0,017
-416,686	-108,219	0,136	0,021
-415,671	-86,554	0,121	0,026
-414,657	12,753	-0,058	0,032
-413,642	-70,287	-0,088	0,024
-412,628	-200,000	-0,003	-0,040
-411,613	800,000	0,023	-0,048
-410,598	277,068	-0,053	0,068
-409,584	-53,006	0,032	-0,011
-408,569	134,004	0,098	0,091
-407,555	-32,926	-0,069	0,027
-406,540	4,247	-0,110	-0,057
-405,525	149,253	-0,059	0,058
-404,511	-200,000	0,007	-0,100
-403,496	205,613	-0,125	-0,140
-402,482	-137,573	-0,105	0,008
-401,467	-28,423	0,106	-0,044
-400,452	0,185	-0,043	-0,022
-399,438	448,177	0,056	0,089
-398,423	800,000	-0,047	0,109
-397,409	38,838	-0,094	0,060
-396,394	-95,963	-0,061	0,012
-395,379	541,235	-0,079	-0,135
-394,365	-200,000	0,113	0,000
-393,350	-200,000	-0,012	0,124
-392,336	-151,718	-0,105	-0,005
-391,321	-200,000	-0,013	0,174
-390,306	147,827	-0,061	0,059
-389,292	131,854	0,039	0,036
-388,277	-8,150	0,029	0,014
-387,263	-200,000	-0,002	-0,098
-386,248	179,532	0,081	0,085
-385,233	-11,638	0,096	0,045
-384,219	-67,412	-0,056	-0,016
-383,204	-200,000	0,002	0,034
-382,190	154,710	-0,172	0,170
-381,175	71,893	0,085	-0,064
-380,160	-122,443	0,059	0,007
-379,146	-155,788	0,133	-0,006
-378,131	-14,816	0,082	-0,038
-377,117	-200,000	0,003	0,112
-376,102	-33,771	0,075	-0,029
-375,088	800,000	-0,042	-0,090
-374,073	-200,000	-0,006	-0,032
-373,058	453,511	0,061	0,097
-372,044	364,030	-0,021	-0,030
-371,029	65,376	-0,029	-0,021
-370,015	37,760	0,048	-0,031
-369,000	-200,000	0,007	0,113
-367,985	-83,846	0,112	-0,025
-366,971	131,603	0,044	-0,040
-365,956	234,702	0,041	-0,049
-364,942	-128,758	0,150	-0,015
-363,927	576,341	-0,063	0,110
-362,912	-200,000	0,017	0,053
-361,898	-200,000	-0,005	-0,044
-360,883	-200,000	-0,003	0,067
-359,869	267,663	0,099	0,125
-358,854	-36,710	0,059	0,023
-357,839	6,707	-0,012	-0,006
-356,825	-81,427	0,146	0,034
-355,810	-3,516	-0,048	-0,024
-354,796	424,299	0,064	-0,099
-353,781	22,596	-0,019	0,011
-352,766	-10,809	0,165	0,078
-351,752	-200,000	-0,019	-0,086
-350,737	561,717	0,082	0,142
-349,723	800,000	0,032	0,089
-348,708	-200,000	-0,025	0,124
-347,693	584,445	-0,046	-0,081
-346,679	-200,000	-0,020	-0,076
-345,664	117,591	0,045	-0,040
-344,650	62,039	0,113	0,081
-343,635	35,948	0,112	0,070
-342,620	-112,039	0,075	0,011
-341,606	612,950	-0,036	0,065
-340,591	800,000	-0,033	-0,066
-339,577	591,015	-0,133	-0,236
-338,562	-200,000	0,001	-0,035
-337,548	800,000	-0,026	0,052
-336,533	-59,556	-0,032	-0,010
-335,518	117,650	0,023	0,020
-334,504	-200,000	-0,010	-0,069
-333,489	692,023	-0,053	-0,101
-332,475	-200,000	0,034	-0,110
-331,460	8,239	-0,139	0,075
-330,445	7,412	-0,051	-0,027
-329,431	48,785	0,054	0,036
-328,416	-32,398	0,123	0,049
-327,402	-56,507	-0,156	0,049
-326,387	339,466	-0,041	0,057
-325,372	438,994	0,025	0,039
-324,358	88,453	-0,106	-0,084
-323,343	-130,910	0,044	-0,004
-322,329	-82,355	-0,112	-0,026
-321,314	421,250	0,046	0,071
-320,299	-88,312	0,126	0,027
-319,285	-200,000	-0,010	0,075
-318,270	305,160	-0,056	-0,074
-317,256	-91,348	0,057	-0,011
-316,241	-200,000	0,029	-0,121
-315,226	800,000	0,058	0,128
-314,212	47,557	0,049	0,033
-313,197	-121,787	-0,080	-0,009
-312,183	-123,490	0,166	0,019
-311,168	-144,709	-0,061	0,004
-310,153	-200,000	-0,006	-0,124
-309,139	-200,000	-0,005	-0,045
-308,124	-41,617	-0,024	-0,009
-307,110	-78,559	0,210	-0,051
-306,095	-169,427	0,111	0,003
-305,080	-103,358	-0,105	0,017
-304,066	5,490	0,045	-0,024
-303,051	-51,596	-0,114	0,038
-302,037	-151,462	-0,045	-0,002
-301,022	800,000	0,068	0,136
-300,008	-200,000	-0,007	0,098
-298,993	-110,941	0,193	-0,028
-297,978	800,000	-0,021	0,063
-296,964	800,000	-0,026	-0,079
-295,949	-126,160	-0,082	-0,009
-294,935	32,881	-0,091	0,056
-293,920	194,344	-0,019	0,020
-292,905	-123,437	0,104	0,012
-291,891	252,708	0,024	-0,029
-290,876	-30,367	0,053	-0,022
-289,862	22,975	0,084	-0,049
-288,847	800,000	0,089	-0,195
-287,832	48,849	0,026	0,017
-286,818	268,280	0,055	0,069
-285,803	452,700	-0,047	0,075
-284,789	64,100	-0,039	0,028
-283,774	-128,583	-0,083	0,008
-282,759	-200,000	-0,014	-0,075
-281,745	-113,756	0,071	0,010
-280,730	-200,000	-0,005	-0,028
-279,716	-45,716	-0,045	0,016
-278,701	255,595	0,048	0,059
-277,686	-103,335	0,087	0,015
-276,672	-200,000	-0,002	0,018
-275,657	491,224	0,086	-0,142
-274,643	133,244	-0,134	-0,124
-273,628	-60,468	-0,069	-0,021
-272,613	800,000	-0,007	0,018
-271,599	-0,346	0,053	0,027
-270,584	115,393	0,056	-0,049
-269,570	800,000	0,021	0,057
-268,555	-200,000	-0,012	0,059
-267,540	694,810	-0,016	-0,029
-266,526	-174,131	-0,066	-0,001
-265,511	418,782	0,040	-0,061
-264,497	-200,000	-0,029	-0,098
-263,482	31,042	0,080	0,049
-262,467	-200,000	0,005	0,150
-261,453	800,000	-0,021	0,066
-260,438	-200,000	0,002	0,069
-259,424	-200,000	-0,013	-0,076
-258,409	-200,000	0,008	-0,078
-257,395	107,008	0,093	0,079
-256,380	119,297	0,029	0,026
-255,365	-200,000	0,061	0,000
-254,351	66,100	-0,021	0,015
-253,336	13,004	-0,088	0,048
-252,322	-95,241	-0,148	-0,028
-251,307	-200,000	-0,001	-0,124
-250,292	-186,413	0,048	-0,000
-249,278	-44,735	0,001	-0,000
-248,263	245,618	-0,026	-0,031
-247,249	-172,056	-0,117	0,003
-246,234	140,773	-0,052	-0,049
-245,219	-128,133	-0,124	-0,012
-244,205	-200,000	-0,003	-0,082
-243,190	-17,475	-0,041	-0,019
-242,176	-200,000	-0,024	0,121
-241,161	-200,000	-0,010	-0,051
-240,146	800,000	-0,075	0,172
-239,132	-200,000	0,017	0,071
-238,117	242,716	0,055	-0,066
-237,103	58,904	-0,049	-0,035
-236,088	-29,540	0,127	-0,051
-235,073	-200,000	0,020	0,114
-234,059	-200,000	0,014	0,184
-233,044	-130,455	-0,035	0,003
-232,030	-200,000	-0,009	0,064
-231,015	800,000	-0,028	-0,073
-230,000	63,992	0,094	-0,067
-228,986	-200,000	0,001	-0,033
-227,971	-58,266	-0,057	-0,018
-226,957	-141,883	0,138	0,010
-225,942	515,761	0,066	-0,110
-224,927	176,921	-0,070	-0,073
-223,913	207,326	0,057	-0,064
-222,898	143,356	0,031	-0,030
-221,884	658,131	0,024	0,043
-220,869	-200,000	-0,009	0,137
-219,855	-68,146	0,036	0,010
-218,840	124,835	0,098	0,088
-217,825	205,091	0,106	0,117
-216,811	-13,952	-0,161	-0,074
-215,796	783,728	-0,037	-0,073
-214,782	-155,330	-0,087	0,004
-213,767	-150,485	0,111	-0,006
-212,752	-200,000	-0,036	-0,126
-211,738	-107,786	0,123	0,019
-210,723	12,348	-0,062	-0,034
-209,709	50,415	-0,055	0,037
-208,694	-117,571	-0,119	-0,015
-207,679	-200,000	-0,001	-0,104
-206,665	800,000	0,030	0,092
-205,650	-129,190	0,106	0,010
-204,636	685,671	0,073	0,136
-203,621	-155,558	-0,097	-0,004
-202,606	-171,091	0,057	-0,001
-201,592	800,000	-0,035	-0,070
-200,577	-3,030	-0,205	-0,101
-199,563	-129,075	0,181	0,018
-198,548	464,131	0,043	0,069
-197,533	182,983	0,054	-0,057
-196,519	-200,000	-0,033	-0,107
-195,504	243,141	-0,013	0,015
-194,490	-200,000	0,008	-0,061
-193,475	530,894	-0,033	0,057
-192,460	18,329	-0,078	-0,044
-191,446	0,210	0,096	-0,048
-190,431	800,000	-0,031	0,063
-189,417	-200,000	-0,032	0,123
-188,402	-2,107	0,063	-0,032
-187,387	-200,000	-0,026	-0,108
-186,373	-99,096	-0,118	-0,021
-185,358	142,020	-0,094	-0,088
-184,344	-93,147	0,166	0,033
-183,329	-200,000	0,005	0,133
-182,315	24,007	0,099	0,058
-181,300	270,215	0,064	0,080
-180,285	-66,489	-0,171	-0,048
-179,271	-3,388	-0,060	-0,029
-178,256	-166,127	-0,075	0,002
-177,242	511,125	0,063	0,104
-176,227	278,876	-0,020	0,025
-175,212	205,674	0,068	0,075
-174,198	800,000	-0,060	-0,121
-173,183	-200,000	0,016	-0,111
-172,169	800,000	-0,063	-0,132
-171,154	800,000	0,035	-0,073
-170,139	-85,311	0,180	-0,040
-169,125	335,561	-0,064	0,088
-168,110	-84,544	0,122	-0,027
-167,096	-142,716	0,157	-0,011
-166,081	-112,297	-0,078	0,011
-165,066	-200,000	-0,043	-0,181
-164,052	-200,000	-0,008	-0,038
-163,037	-200,000	-0,012	-0,062
-162,023	-200,000	-0,003	0,033
-161,008	162,105	0,060	-0,060
-159,993	-24,724	-0,022	0,009
-158,979	317,041	0,067	-0,091
-157,964	25,178	0,026	0,015
-156,950	565,022	-0,062	-0,107
-155,935	250,418	0,044	-0,053
-154,920	25,006	0,145	0,085
-153,906	-200,000	0,015	0,049
-152,891	75,831	-0,008	-0,006
-151,877	-101,934	-0,183	0,031
-150,862	-21,248	0,142	0,062
-149,847	-76,595	0,132	-0,033
-148,833	-58,716	-0,035	-0,011
-147,818	-86,772	0,059	-0,013
-146,804	-7,740	0,127	0,061
-145,789	-200,000	-0,013	-0,052
-144,775	49,522	0,075	0,050
-143,760	-129,932	-0,123	-0,012
-142,745	296,466	-0,096	-0,125
-141,731	210,726	0,066	-0,074
-140,716	-83,044	-0,121	-0,027
-139,702	-200,000	0,009	0,044
-138,687	-111,887	0,047	-0,007
-137,672	800,000	-0,036	0,108
-136,658	27,305	-0,038	0,023
-135,643	175,907	0,147	-0,152
-134,629	32,666	0,151	-0,093
-133,614	643,768	0,028	-0,051
-132,599	-200,000	-0,022	0,174
-131,585	100,744	0,050	0,042
-130,570	800,000	-0,027	-0,076
-129,556	-200,000	0,002	-0,013
-128,541	-200,000	-0,026	-0,138
-127,526	-200,000	0,010	-0,149
-126,512	-154,895	0,083	0,004
-125,497	-200,000	0,003	0,068
-124,483	-200,000	0,013	-0,179
-123,468	-72,547	-0,092	0,024
-122,453	-200,000	0,005	0,039
-121,439	-200,000	-0,028	0,122
-120,424	-95,176	-0,087	-0,016
-119,410	-200,000	0,027	0,128
-118,395	-200,000	-0,004	-0,016
-117,380	800,000	0,046	-0,113
-116,366	-200,000	0,016	-0,068
-115,351	-200,000	-0,011	-0,077
-114,337	800,000	-0,044	0,100
-113,322	167,879	0,014	-0,014
-112,307	-200,000	-0,023	-0,101
-111,293	-30,289	0,074	0,030
-110,278	-200,000	0,003	-0,013
-109,264	-200,000	-0,030	0,155
-108,249	-161,549	-0,122	-0,004
-107,234	800,000	0,027	0,071
-106,220	752,716	0,008	-0,016
-105,205	144,215	0,081	-0,077
-104,191	-77,181	0,186	0,046
-103,176	587,334	0,031	-0,054
-102,162	800,000	0,049	-0,125
-101,147	220,098	0,101	-0,115
-100,132	-75,534	-0,059	-0,015
-99,118	800,000	-0,011	-0,033
-98,103	-200,000	-0,001	-0,090
-97,089	-200,000	-0,027	0,093
-96,074	25,357	0,043	0,025
-95,059	374,959	0,031	0,044
-94,045	56,023	0,034	-0,023
-93,030	798,329	0,006	-0,011
-92,016	800,000	0,034	-0,068
-91,001	68,372	0,098	0,071
-89,986	79,609	0,020	-0,015
-88,972	-200,000	-0,004	-0,015
-87,957	-200,000	-0,000	0,080
-86,943	-160,441	-0,033	0,001
-85,928	262,577	-0,051	-0,063
-84,913	226,777	-0,057	0,066
-83,899	11,689	0,110	-0,060
-82,884	329,376	-0,080	0,109
-81,870	667,851	0,037	0,068
-80,855	-200,000	-0,003	-0,108
-79,840	305,728	0,059	-0,077
-78,826	-9,374	-0,079	-0,037
-77,811	55,543	-0,098	-0,067
-76,797	800,000	-0,013	-0,037
-75,782	116,939	-0,089	0,078
-74,767	-93,561	0,096	0,019
-73,753	-200,000	0,021	0,145
-72,738	-26,128	0,086	-0,036
-71,724	-200,000	-0,029	-0,145
-70,709	158,696	-0,009	-0,009
-69,694	-0,337	-0,175	-0,088
-68,680	118,510	0,106	0,092
-67,665	-29,780	0,094	0,038
-66,651	-200,000	0,009	0,170
-65,636	242,471	-0,063	0,075
-64,622	-152,878	-0,036	-0,002
-63,607	800,000	-0,029	-0,078
-62,592	130,615	-0,036	0,032
-61,578	-200,000	-0,035	0,136
-60,563	-5,445	0,035	-0,017
-59,549	-200,000	-0,047	0,171
-58,534	-25,220	-1,729	-0,722
-57,519	487,047	-1,283	-2,080
-56,505	-200,000	-0,476	-4,606
-55,490	210,595	0,943	1,051
-54,476	800,000	5,093	11,520
-53,461	-200,000	19,233	320,216
-52,446	-200,000	740,547	2334,532
-51,432	573,696	1655,688	2870,257
-50,417	78,266	1671,394	1262,080
-49,403	21,288	1543,976	885,618
-48,388	15,156	1466,358	811,276
-47,373	17,962	1456,827	819,539
-46,359	16,703	1446,475	807,645
-45,344	13,393	1441,959	789,231
-44,330	13,300	1440,086	787,729
-43,315	13,294	1438,417	786,754
-42,300	13,340	1436,672	785,991
-41,286	13,298	1435,469	785,102
-40,271	13,296	1434,205	784,367
-39,257	13,324	1432,690	783,644
-38,242	13,367	1431,510	783,170
-37,227	13,359	1430,314	782,449
-36,213	13,368	1428,837	781,649
-35,198	13,335	1427,800	780,895
-34,184	13,419	1426,608	780,609
-33,169	13,357	1425,363	779,607
-32,154	13,401	1424,353	779,230
-31,140	13,390	1423,262	778,550
-30,125	13,395	1422,172	777,949
-29,111	13,405	1420,875	777,255
-28,096	13,368	1419,801	776,459
-27,082	13,329	1418,705	775,648
-26,067	13,351	1417,330	774,967
-25,052	13,304	1416,520	774,275
-24,038	13,275	1415,640	773,624
-23,023	13,281	1414,566	773,034
-22,009	13,254	1413,512	772,300
-20,994	13,256	1412,633	771,800
-19,979	13,257	1411,773	771,306
-18,965	13,262	1410,809	770,770
-17,950	13,262	1409,692	770,130
-16,936	13,271	1408,805	769,655
-15,921	13,221	1407,796	768,839
-14,906	13,189	1406,942	768,194
-13,892	13,230	1405,943	767,807
-12,877	13,191	1405,012	767,090
-11,863	13,231	1404,218	766,812
-10,848	13,253	1403,318	766,392
-9,833	13,179	1402,398	765,516
-8,819	13,094	1401,784	764,751
-7,804	13,104	1400,909	764,292
-6,790	13,095	1399,714	763,566
-5,775	13,116	1398,682	763,073
-4,760	13,116	1397,600	762,450
-3,746	13,088	1396,718	761,809
-2,731	13,111	1395,905	761,445
-1,717	13,053	1395,116	760,713
-0,702	13,079	1393,423	759,878
0,313	16,928	1310,232	732,347
1,327	33,168	704,037	431,071
2,342	50,719	123,568	82,637
3,356	4,400	16,689	8,629
4,371	13,430	3,171	1,735
5,386	48,843	0,453	0,300
6,400	-200,000	0,034	0,123
7,415	7,558	-0,283	-0,149
8,429	430,616	-0,141	-0,217
9,444	41,043	-0,378	-0,241
10,459	-40,980	-0,256	-0,093
11,473	-29,449	-0,380	-0,153
12,488	254,730	-0,149	-0,180
13,502	10,209	-0,368	-0,197
14,517	-34,758	-0,361	-0,139
15,531	146,699	-0,291	-0,276
16,546	-9,308	-0,417	-0,196
17,561	7,899	-0,411	-0,217
18,575	28,124	-0,112	0,067
19,590	344,885	-0,224	-0,311
20,604	120,168	-0,266	-0,233
21,619	137,684	-0,354	-0,327
22,634	97,901	-0,446	-0,362
23,648	134,056	-0,439	-0,402
24,663	-30,487	-0,430	-0,171
25,677	82,510	-0,330	-0,252
26,692	161,844	-0,270	-0,267
27,707	-3,865	-0,386	-0,188
28,721	73,579	-0,292	-0,216
29,736	-14,348	-0,447	-0,202
30,750	201,948	-0,273	-0,297
31,765	86,364	-0,328	-0,255
32,780	23,631	-0,359	-0,208
33,794	32,016	-0,431	-0,262
34,809	57,157	-0,287	-0,197
35,823	78,905	-0,393	-0,297
36,838	58,660	-0,382	-0,264
37,853	122,574	-0,289	-0,255
38,867	143,638	-0,354	-0,333
39,882	85,083	-0,274	-0,212
40,896	-12,576	-0,543	-0,249
41,911	-110,885	-0,593	-0,085
42,926	46,623	-0,287	-0,188
43,940	246,748	-0,331	-0,394
44,955	59,328	-0,314	-0,218
45,969	110,173	-0,359	-0,304
46,984	92,932	-0,362	-0,288
47,999	9,127	-0,304	-0,161
49,013	13,258	-0,374	-0,204
50,028	-34,846	-0,367	-0,140
51,042	110,856	-0,342	-0,290
52,057	219,556	-0,248	-0,280
53,071	38,665	-0,263	-0,165
54,086	375,840	-0,226	-0,325
55,101	13,436	-0,427	-0,233
56,115	36,145	-0,316	-0,196
57,130	59,906	-0,297	-0,206
58,144	144,165	-0,312	-0,293
59,159	89,581	-0,518	-0,407
60,174	78,328	-0,373	-0,280
61,188	-36,907	-0,324	-0,122
62,203	-3,727	-0,337	-0,164
63,217	73,542	-0,282	-0,207
64,232	211,492	-0,323	-0,358
65,247	-10,341	-0,438	-0,203
66,261	48,072	-0,384	-0,252
67,276	24,230	-0,296	-0,172
68,290	88,165	-0,301	-0,235
69,305	183,956	-0,194	-0,202
70,320	56,573	-0,344	-0,235
71,334	-62,005	-0,346	-0,101
72,349	-82,054	-0,309	-0,070
73,363	-10,057	-0,340	-0,158
74,378	170,207	-0,256	-0,258
75,393	40,558	-0,361	-0,228
76,407	41,828	-0,181	-0,115
77,422	-20,308	-0,309	-0,133
78,436	5,656	-0,377	-0,195
79,451	120,572	-0,300	-0,262
80,466	-9,183	-0,323	-0,151
81,480	21,337	-0,446	-0,254
82,495	69,181	-0,406	-0,293
83,509	34,795	-0,345	-0,212
84,524	-86,415	-0,246	-0,053
85,539	-46,755	-0,233	-0,080
86,553	10,077	-0,358	-0,190
87,568	221,506	-0,205	-0,232
88,582	13,234	-0,205	-0,111
89,597	92,727	-0,350	-0,277
90,611	123,641	-0,201	-0,177
91,626	499,063	-0,124	-0,202
92,641	81,682	-0,233	-0,176
93,655	-53,773	-0,348	-0,111
94,670	-42,107	-0,355	-0,127
95,684	121,990	-0,376	-0,329
96,699	192,930	-0,210	-0,223
97,714	82,866	-0,231	-0,176
98,728	800,000	-0,085	-0,191
99,743	171,420	-0,200	-0,202
100,757	46,196	-0,376	-0,244
101,772	99,405	-0,381	-0,309
102,787	368,593	-0,234	-0,333
103,801	6,761	-0,211	-0,110
104,816	32,286	-0,273	-0,165
105,830	460,118	-0,160	-0,251
106,845	-66,157	-0,240	-0,067
107,860	50,565	-0,238	-0,157
108,874	2,704	-0,207	-0,105
109,889	47,842	-0,203	-0,133
110,903	211,183	-0,298	-0,329
111,918	-30,385	-0,345	-0,137
112,933	-49,564	-0,350	-0,116
113,947	277,381	-0,164	-0,204
114,962	6,837	-0,213	-0,111
115,976	64,673	-0,370	-0,261
116,991	42,853	-0,258	-0,164
118,006	47,786	-0,256	-0,167
119,020	-116,865	-0,242	-0,031
120,035	20,036	-0,301	-0,170
121,049	176,573	-0,192	-0,196
122,064	25,807	-0,284	-0,165
123,079	-57,468	-0,266	-0,081
124,093	-90,492	-0,376	-0,076
125,108	800,000	-0,126	-0,271
126,122	36,416	-0,443	-0,273
127,137	74,400	-0,203	-0,149
128,151	51,629	-0,277	-0,184
129,166	-6,816	-0,384	-0,182
130,181	409,213	-0,162	-0,240
131,195	102,748	-0,296	-0,243
132,210	634,688	-0,132	-0,235
133,224	67,315	-0,233	-0,166
134,239	-44,785	-0,271	-0,094
135,254	-131,786	-0,285	-0,026
136,268	-10,553	-0,307	-0,142
137,283	30,021	-0,208	-0,124
138,297	63,270	-0,207	-0,145
139,312	53,626	-0,334	-0,224
140,327	3,203	-0,309	-0,157
141,341	37,761	-0,199	-0,123
142,356	41,630	-0,216	-0,136
143,370	304,970	-0,133	-0,174
144,385	57,607	-0,218	-0,149
145,400	140,616	-0,268	-0,248
146,414	18,802	-0,380	-0,212
147,429	93,045	-0,273	-0,215
148,443	85,265	-0,152	-0,116
149,458	-105,235	-0,143	-0,023
150,473	8,473	-0,177	-0,093
151,487	133,056	-0,298	-0,269
152,502	261,808	-0,277	-0,335
153,516	52,779	-0,251	-0,167
154,531	274,177	-0,240	-0,297
155,546	63,467	-0,262	-0,183
156,560	364,221	-0,110	-0,155
157,575	57,426	-0,257	-0,175
158,589	65,305	-0,170	-0,120
159,604	71,754	-0,248	-0,180
160,619	-66,978	-0,251	-0,069
161,633	340,853	-0,130	-0,178
162,648	-141,949	-0,261	-0,018
163,662	151,002	-0,164	-0,156
164,677	705,058	-0,093	-0,171
165,692	178,599	-0,196	-0,200
166,706	119,007	-0,214	-0,184
167,721	89,547	-0,218	-0,170
168,735	229,505	-0,186	-0,212
169,750	800,000	-0,073	-0,194
170,764	-85,731	-0,189	-0,041
171,779	9,589	-0,295	-0,156
172,794	-48,338	-0,304	-0,101
173,808	177,150	-0,202	-0,205
174,823	-94,206	-0,339	-0,064
175,837	24,342	-0,263	-0,151
176,852	508,250	-0,105	-0,171
177,867	46,971	-0,228	-0,147
178,881	800,000	-0,072	-0,177
179,896	37,138	-0,296	-0,182
180,910	25,844	-0,262	-0,152
181,925	33,499	-0,233	-0,141
182,940	-132,352	-0,250	-0,022
183,954	45,948	-0,205	-0,132
184,969	288,442	-0,243	-0,308
185,983	-200,000	-0,063	-0,252
186,998	-56,602	-0,255	-0,078
188,013	27,323	-0,289	-0,168
189,027	800,000	-0,017	-0,043
190,042	-5,303	-0,287	-0,137
191,056	280,219	-0,152	-0,189
192,071	600,687	-0,124	-0,216
193,086	-112,345	-0,150	-0,021
194,100	-35,865	-0,121	-0,046
195,115	117,848	-0,163	-0,139
196,129	34,908	-0,234	-0,142
197,144	-76,261	-0,379	-0,092
198,159	-13,073	-0,279	-0,126
199,173	-57,112	-0,157	-0,048
200,188	-200,000	0,023	-0,087
201,202	31,243	-0,170	-0,101
202,217	603,650	-0,152	-0,263
203,232	4,745	-0,147	-0,075
204,246	167,398	-0,260	-0,257
205,261	153,534	-0,212	-0,201
206,275	439,083	-0,110	-0,167
207,290	82,515	-0,227	-0,171
208,304	502,648	-0,121	-0,194
209,319	800,000	-0,055	-0,107
210,334	235,141	-0,092	-0,105
211,348	100,437	-0,211	-0,170
212,363	218,856	-0,214	-0,238
213,377	37,205	-0,196	-0,120
214,392	-49,520	-0,159	-0,052
215,407	-15,754	-0,304	-0,134
216,421	-122,289	-0,205	-0,023
217,436	-71,243	-0,190	-0,049
218,450	800,000	-0,139	-0,268
219,465	144,501	-0,230	-0,213
220,480	58,660	-0,143	-0,098
221,494	70,772	-0,150	-0,108
222,509	84,647	-0,162	-0,123
223,523	32,706	-0,190	-0,114
224,538	71,314	-0,191	-0,137
225,553	800,000	-0,071	-0,216
226,567	518,308	-0,101	-0,165
227,582	-200,000	-0,049	-0,167
228,596	76,472	-0,153	-0,112
229,611	-35,408	-0,128	0,048
230,626	58,396	-0,173	-0,118
231,640	-200,000	-0,008	-0,034
232,655	-51,963	-0,273	-0,088
233,669	527,974	-0,142	-0,233
234,684	181,229	-0,271	-0,277
235,699	-103,605	-0,277	-0,045
236,713	-37,579	-0,220	-0,081
237,728	-60,573	-0,109	-0,032
238,742	307,976	-0,152	-0,197
239,757	639,355	-0,111	-0,196
240,772	-68,903	-0,314	-0,083
241,786	270,163	-0,203	-0,248
242,801	800,000	-0,102	-0,212
243,815	-200,000	-0,039	-0,161
244,830	-187,189	-0,182	0,002
245,844	-58,856	-0,145	-0,043
246,859	151,405	-0,283	-0,267
247,874	458,607	-0,152	-0,234
248,888	-200,000	-0,086	-0,361
249,903	-64,067	-0,158	-0,044
250,917	31,135	-0,241	0,143
251,932	71,804	-0,219	-0,157
252,947	720,737	-0,088	-0,163
253,961	138,523	-0,146	-0,133
254,976	434,069	-0,166	-0,250
255,990	-4,000	-0,258	-0,123
257,005	-0,905	-0,103	-0,050
258,020	800,000	-0,049	-0,106
259,034	-17,188	-0,192	-0,083
260,049	-142,537	-0,232	-0,015
261,063	165,112	-0,170	-0,167
262,078	-68,171	-0,264	-0,071
263,093	-31,626	-0,228	-0,088
264,107	51,635	-0,141	-0,092
265,122	27,793	-0,102	-0,059
266,136	223,460	-0,131	-0,146
267,151	16,194	-0,155	-0,084
268,166	-13,017	-0,172	-0,077
269,180	26,140	-0,129	-0,074
270,195	105,283	-0,125	-0,102
271,209	68,973	-0,237	-0,168
272,224	127,923	-0,121	-0,106
273,239	50,242	-0,175	-0,114
274,253	246,511	-0,096	-0,112
275,268	322,943	-0,155	-0,205
276,282	-26,422	-0,117	-0,047
277,297	21,292	-0,254	-0,142
278,312	339,419	-0,142	-0,192
279,326	26,241	-0,198	-0,114
280,341	-3,931	-0,114	-0,054
281,355	-46,689	-0,088	-0,030
282,370	157,649	-0,115	-0,110
283,384	128,716	-0,254	-0,224
284,399	132,006	-0,146	-0,130
285,414	286,620	-0,116	-0,145
286,428	249,986	-0,134	-0,158
287,443	800,000	-0,032	-0,076
288,457	170,421	-0,234	-0,231
289,472	-200,000	-0,041	-0,170
290,487	-102,126	-0,085	-0,014
291,501	-195,664	-0,190	0,001
292,516	59,034	-0,090	-0,061
293,530	238,088	-0,076	-0,087
294,545	-76,432	-0,078	0,019
295,560	598,002	-0,046	-0,079
296,574	-7,896	-0,169	-0,078
297,589	-73,291	-0,233	-0,058
298,603	-129,978	-0,246	0,023
299,618	-22,472	-0,179	-0,074
300,633	772,036	-0,075	-0,142
301,647	297,332	-0,118	-0,149
302,662	800,000	-0,010	-0,020
303,676	201,786	-0,147	-0,156
304,691	287,144	-0,173	-0,216
305,706	514,691	-0,032	-0,051
306,720	122,390	-0,228	-0,197
307,735	191,853	0,009	0,009
308,749	-179,814	-0,131	-0,002
309,764	30,543	-0,186	-0,109
310,779	-200,000	-0,027	-0,105
311,793	412,414	-0,119	-0,174
312,808	44,566	-0,087	0,055
313,822	-20,232	-0,206	-0,087
314,837	177,191	-0,138	-0,139
315,852	267,305	-0,107	-0,129
316,866	72,858	-0,089	-0,064
317,881	-200,000	0,014	-0,211
318,895	-89,762	-0,152	-0,030
319,910	800,000	-0,084	-0,193
320,925	98,731	-0,168	-0,133
321,939	-91,164	-0,152	-0,030
322,954	800,000	-0,017	0,048
323,968	29,786	-0,032	0,019
324,983	-200,000	0,001	-0,108
325,997	-200,000	-0,030	-0,111
327,012	-25,670	-0,160	-0,065
328,027	-200,000	-0,028	-0,145
329,041	-18,302	-0,338	-0,145
330,056	-24,665	-0,107	0,043
331,070	475,135	-0,082	-0,128
332,085	-40,647	-0,124	-0,044
333,100	225,603	-0,061	-0,068
334,114	-143,542	-0,131	-0,008
335,129	-31,896	-0,260	-0,100
336,143	800,000	-0,019	0,038
337,158	-54,288	-0,206	-0,064
338,173	171,994	-0,130	-0,128
339,187	68,296	-0,126	-0,088
340,202	-123,145	-0,059	0,006
341,216	11,268	-0,216	-0,113
342,231	24,520	-0,316	-0,179
343,246	-200,000	-0,052	-0,183
344,260	88,660	-0,092	-0,070
345,275	-113,235	-0,156	-0,021
346,289	551,017	-0,113	-0,188
347,304	513,548	-0,084	-0,134
348,319	800,000	-0,088	-0,224
349,333	800,000	-0,120	-0,271
350,348	37,667	-0,123	-0,075
351,362	110,558	-0,189	-0,156
352,377	118,829	-0,051	-0,043
353,392	-174,925	-0,107	-0,002
354,406	105,177	-0,178	-0,144
355,421	210,720	1313,566	1417,687
356,435	162,226	1474,163	1418,175
