DTS Sentinel unit serial number:	SN410029Multiplexer serial number:	ORYXHardware model number:	OX2-SRSoftware version number:	ORYX F/W v4,00 Oryx Data Collector v3.7.2.0data status	okinstallation	B3 Nyhavnadifferential loss correction	single-endedforward channel	channel 1reverse channel	N/Adate	2023/12/01time	13:42:30forward acquisition time	300,00reverse acquisition time	0,00gamma	499,1914k internal	0,3214k external	0,3214temperature offset calibration	1,0000default loss term (dB/km)	0,3820temperature slope calibration	1,0000multiplexer offset coefficient	1,0000multiplexer slope coefficient	1,0000fibre end	0,00T internal ref (°C)	9,80T ext. ref 1 (°C)	-3,64T ext. ref 2 (°C)	-3,70length (m)	temperature (°C)	Stokes	anti-Stokes-744,400	159,852	-0,339	-0,342
-743,385	239,009	-0,199	0,241
-742,371	65,087	-0,303	-0,221
-741,356	-200,000	0,036	0,270
-740,342	787,557	-0,108	-0,217
-739,327	207,924	-0,212	0,240
-738,312	205,107	-0,249	-0,281
-737,298	357,349	-0,128	0,185
-736,283	525,334	-0,142	-0,243
-735,269	-200,000	-0,045	0,159
-734,254	184,535	-0,263	-0,283
-733,239	158,365	-0,232	0,234
-732,225	800,000	-0,036	-0,081
-731,210	-200,000	0,018	0,124
-730,196	-200,000	0,015	0,070
-729,181	-183,417	-0,101	0,001
-728,167	-200,000	-0,005	-0,038
-727,152	111,929	0,057	-0,050
-726,137	-19,168	0,124	-0,056
-725,123	-118,005	-0,099	-0,013
-724,108	365,230	-0,146	-0,214
-723,094	436,086	-0,086	-0,136
-722,079	16,880	-0,017	-0,010
-721,064	-200,000	-0,032	-0,183
-720,050	790,863	-0,064	0,129
-719,035	243,413	0,062	-0,075
-718,021	-10,703	-0,073	-0,035
-717,006	20,577	-0,062	-0,036
-715,991	111,045	0,035	-0,031
-714,977	-54,904	-0,155	-0,050
-713,962	-16,256	-0,094	0,043
-712,948	67,378	-0,068	0,050
-711,933	-102,966	-0,081	-0,014
-710,918	800,000	0,050	-0,154
-709,904	-200,000	-0,020	-0,086
-708,889	-90,144	0,089	0,019
-707,875	-22,041	-0,100	-0,044
-706,860	40,857	-0,085	0,056
-705,845	-65,235	0,046	-0,013
-704,831	-123,683	0,037	0,004
-703,816	213,357	0,043	0,049
-702,802	-11,478	-0,107	-0,051
-701,787	-200,000	0,001	-0,093
-700,772	-61,202	0,081	-0,025
-699,758	-171,072	-0,128	0,003
-698,743	222,279	0,012	0,014
-697,729	685,484	-0,030	0,057
-696,714	-20,500	-0,071	-0,032
-695,699	-125,763	-0,136	0,015
-694,685	284,048	-0,076	-0,099
-693,670	235,359	-0,111	-0,132
-692,656	330,157	-0,038	-0,053
-691,641	464,865	0,049	-0,080
-690,627	-0,889	0,051	-0,026
-689,612	459,637	-0,138	-0,223
-688,597	-153,681	-0,012	0,001
-687,583	327,943	-0,040	-0,055
-686,568	-38,251	-0,126	0,048
-685,554	-10,025	-0,201	-0,096
-684,539	-200,000	-0,003	-0,022
-683,524	172,196	-0,027	0,028
-682,510	247,727	-0,032	-0,039
-681,495	-97,435	-0,086	-0,016
-680,481	-200,000	0,006	-0,076
-679,466	800,000	-0,080	-0,198
-678,451	73,092	0,043	-0,032
-677,437	-38,926	-0,047	0,018
-676,422	117,166	-0,005	0,004
-675,408	54,042	0,080	0,056
-674,393	435,406	0,061	-0,097
-673,378	754,897	-0,114	-0,225
-672,364	800,000	-0,035	-0,105
-671,349	177,483	0,032	0,034
-670,335	121,956	-0,049	-0,044
-669,320	154,953	0,088	0,087
-668,305	-200,000	0,011	0,066
-667,291	-89,663	0,064	0,013
-666,276	-200,000	0,001	0,084
-665,262	-200,000	0,005	0,018
-664,247	-31,384	-0,038	-0,015
-663,232	-200,000	0,004	-0,035
-662,218	-192,651	-0,126	0,001
-661,203	95,964	-0,174	0,144
-660,189	-200,000	0,006	0,035
-659,174	800,000	0,021	-0,065
-658,159	-200,000	-0,010	0,045
-657,145	155,622	-0,091	0,090
-656,130	-200,000	0,008	0,046
-655,116	-116,196	0,024	-0,003
-654,101	22,743	0,086	-0,051
-653,086	-51,738	-0,056	0,019
-652,072	-200,000	-0,001	0,081
-651,057	-200,000	-0,023	-0,107
-650,043	153,088	-0,145	0,144
-649,028	44,907	0,087	-0,058
-648,014	33,739	0,055	0,034
-646,999	-64,166	-0,018	0,005
-645,984	-61,520	-0,106	0,032
-644,970	59,813	0,048	0,034
-643,955	370,516	-0,022	0,032
-642,941	800,000	-0,023	0,060
-641,926	-200,000	-0,006	-0,074
-640,911	196,754	-0,042	-0,046
-639,897	800,000	0,069	0,146
-638,882	-51,456	-0,150	0,050
-637,868	463,584	0,045	-0,072
-636,853	31,267	-0,157	-0,097
-635,838	673,683	0,058	0,110
-634,824	795,396	0,067	-0,135
-633,809	11,606	0,025	-0,014
-632,795	563,851	0,061	0,107
-631,780	266,407	-0,113	0,142
-630,765	283,755	-0,087	0,113
-629,751	-96,269	-0,084	-0,016
-628,736	376,302	-0,142	-0,210
-627,722	800,000	-0,035	0,099
-626,707	-148,666	0,065	-0,004
-625,692	129,129	-0,041	-0,038
-624,678	157,630	0,012	0,012
-623,663	464,590	-0,016	-0,026
-622,649	800,000	-0,042	-0,107
-621,634	17,874	-0,113	-0,065
-620,619	800,000	0,041	-0,094
-619,605	76,044	0,103	-0,079
-618,590	594,836	0,034	0,061
-617,576	-17,648	0,017	-0,008
-616,561	-43,870	-0,095	0,034
-615,546	800,000	-0,010	0,028
-614,532	76,116	-0,098	-0,074
-613,517	-200,000	-0,002	0,122
-612,503	-200,000	0,006	-0,041
-611,488	18,178	-0,093	0,054
-610,474	-200,000	0,003	0,103
-609,459	644,130	0,030	0,054
-608,444	114,702	-0,065	-0,057
-607,430	-200,000	-0,049	-0,000
-606,415	-62,320	0,114	-0,034
-605,401	-50,802	-0,176	-0,059
-604,386	-200,000	-0,011	-0,065
-603,371	48,451	-0,020	-0,014
-602,357	800,000	0,029	-0,087
-601,342	-47,876	0,043	-0,015
-600,328	226,066	0,100	-0,117
-599,313	355,829	-0,043	-0,062
-598,298	800,000	0,102	0,220
-597,284	-100,704	-0,084	0,015
-596,269	39,007	0,053	0,034
-595,255	141,835	0,129	0,123
-594,240	224,053	0,103	-0,120
-593,225	-131,706	-0,120	-0,011
-592,211	-200,000	-0,010	-0,040
-591,196	-151,082	-0,169	-0,009
-590,182	-58,474	0,068	0,021
-589,167	168,407	-0,040	-0,041
-588,152	-90,062	0,047	-0,010
-587,138	412,249	-0,120	0,184
-586,123	539,115	0,061	0,104
-585,109	-178,768	-0,057	0,001
-584,094	-45,926	-0,114	-0,040
-583,079	-61,950	0,099	-0,030
-582,065	156,763	-0,043	-0,043
-581,050	-200,000	-0,028	0,121
-580,036	-73,477	-0,074	-0,019
-579,021	89,811	-0,089	-0,072
-578,006	-200,000	-0,015	-0,100
-576,992	-90,606	-0,071	0,015
-575,977	-17,597	0,062	0,028
-574,963	-33,779	-0,008	0,003
-573,948	-200,000	-0,023	-0,125
-572,934	800,000	-0,024	0,071
-571,919	-15,992	-0,154	-0,070
-570,904	752,358	-0,032	-0,062
-569,890	-23,934	-0,050	0,021
-568,875	187,355	-0,032	-0,034
-567,861	23,205	0,032	0,019
-566,846	-30,753	0,110	0,045
-565,831	800,000	-0,019	0,059
-564,817	34,574	-0,106	-0,066
-563,802	-40,968	-0,066	-0,024
-562,788	50,020	-0,104	-0,071
-561,773	221,780	0,067	0,077
-560,758	78,491	-0,058	-0,045
-559,744	45,798	-0,068	-0,045
-558,729	454,851	-0,025	0,040
-557,715	800,000	-0,038	-0,076
-556,700	-165,106	-0,102	-0,003
-555,685	549,183	0,051	-0,088
-554,671	-200,000	-0,024	-0,109
-553,656	-200,000	0,039	-0,221
-552,642	-124,955	0,033	-0,004
-551,627	-161,518	-0,168	0,006
-550,612	223,559	-0,058	0,068
-549,598	800,000	-0,021	-0,055
-548,583	-13,443	-0,131	-0,061
-547,569	-40,639	-0,126	-0,047
-546,554	-156,445	0,136	0,006
-545,539	-200,000	0,019	0,130
-544,525	800,000	0,066	0,142
-543,510	-27,522	-0,177	-0,074
-542,496	207,488	-0,068	-0,076
-541,481	-200,000	0,013	-0,111
-540,466	174,521	-0,034	-0,035
-539,452	-26,159	-0,044	-0,019
-538,437	-68,328	0,127	-0,035
-537,423	-67,767	0,050	0,014
-536,408	218,539	0,094	-0,108
-535,393	-200,000	-0,019	0,084
-534,379	-19,653	-0,104	-0,046
-533,364	216,842	0,112	0,128
-532,350	44,501	0,046	0,031
-531,335	139,788	-0,038	-0,036
-530,321	384,619	0,060	0,089
-529,306	104,494	-0,132	-0,112
-528,291	-47,053	-0,023	-0,008
-527,277	800,000	-0,059	-0,151
-526,262	37,218	0,044	-0,028
-525,248	-87,166	0,109	0,024
-524,233	800,000	-0,055	0,139
-523,218	680,544	0,032	0,060
-522,204	2,478	0,064	0,033
-521,189	36,220	-0,102	-0,064
-520,175	800,000	0,089	-0,205
-519,160	-200,000	-0,003	0,104
-518,145	154,203	0,074	0,073
-517,131	-101,770	0,172	-0,030
-516,116	-70,590	-0,139	0,038
-515,102	-200,000	-0,006	0,061
-514,087	-20,544	0,006	0,002
-513,072	-67,029	0,043	0,012
-512,058	-52,624	-0,050	0,016
-511,043	-192,685	0,162	-0,001
-510,029	163,167	0,083	0,084
-509,014	-133,649	-0,110	0,010
-507,999	467,648	-0,068	-0,109
-506,985	-12,940	-0,096	0,045
-505,970	66,036	0,090	0,066
-504,956	39,395	0,149	0,095
-503,941	-100,093	-0,027	0,005
-502,926	800,000	0,043	0,119
-501,912	-200,000	0,006	0,084
-500,897	-114,622	0,012	-0,002
-499,883	4,688	-0,113	0,059
-498,868	800,000	0,028	-0,065
-497,853	-200,000	0,017	0,060
-496,839	69,498	-0,056	-0,042
-495,824	61,637	0,062	0,044
-494,810	480,311	0,047	-0,076
-493,795	-200,000	-0,015	-0,109
-492,781	-150,746	-0,039	-0,002
-491,766	-162,369	0,051	0,002
-490,751	383,858	-0,074	-0,109
-489,737	-63,966	0,053	-0,015
-488,722	72,393	0,168	0,126
-487,708	-131,227	-0,063	-0,006
-486,693	42,137	0,061	-0,040
-485,678	499,598	0,070	-0,117
-484,664	-153,863	-0,125	-0,006
-483,649	-42,874	0,142	0,051
-482,635	-126,579	0,014	0,001
-481,620	-137,546	0,112	-0,009
-480,605	-39,200	0,088	0,033
-479,591	-200,000	0,000	-0,078
-478,576	-48,890	-0,007	0,002
-477,562	135,106	0,058	-0,054
-476,547	800,000	-0,030	0,091
-475,532	29,018	0,139	-0,084
-474,518	-200,000	-0,008	0,035
-473,503	-200,000	0,019	-0,090
-472,489	34,476	0,043	0,027
-471,474	800,000	-0,039	-0,106
-470,459	-47,369	-0,066	0,023
-469,445	-200,000	0,027	-0,123
-468,430	-131,709	-0,056	0,005
-467,416	-200,000	-0,009	0,067
-466,401	800,000	-0,022	0,062
-465,386	327,928	-0,003	0,004
-464,372	110,545	0,075	-0,064
-463,357	-67,155	0,069	0,019
-462,343	800,000	-0,026	0,074
-461,328	800,000	-0,050	0,100
-460,313	31,307	0,074	0,045
-459,299	170,346	0,100	0,102
-458,284	800,000	0,062	0,174
-457,270	-47,942	-0,072	0,025
-456,255	31,232	-0,076	-0,047
-455,241	800,000	-0,055	-0,115
-454,226	48,992	-0,110	-0,074
-453,211	117,642	0,035	-0,031
-452,197	-200,000	-0,010	0,124
-451,182	-100,695	0,082	0,014
-450,168	800,000	0,029	0,063
-449,153	-98,085	0,083	-0,015
-448,138	-92,922	-0,088	-0,017
-447,124	800,000	0,017	-0,041
-446,109	87,054	0,065	0,051
-445,095	800,000	-0,033	0,093
-444,080	260,800	0,055	0,068
-443,065	-200,000	-0,029	0,184
-442,051	-162,590	0,173	0,006
-441,036	-200,000	-0,003	0,034
-440,022	78,939	-0,017	-0,013
-439,007	800,000	0,027	-0,084
-437,992	-200,000	0,022	0,148
-436,978	800,000	0,053	-0,109
-435,963	-200,000	-0,001	-0,052
-434,949	-39,628	-0,182	-0,068
-433,934	8,734	0,098	0,053
-432,919	800,000	-0,022	0,070
-431,905	-154,951	-0,048	0,002
-430,890	-200,000	-0,016	0,060
-429,876	411,653	-0,052	0,079
-428,861	80,048	0,101	0,078
-427,846	-200,000	-0,012	-0,081
-426,832	384,513	0,040	-0,059
-425,817	52,789	-0,024	-0,016
-424,803	-163,889	-0,134	0,004
-423,788	-66,031	0,181	0,051
-422,773	-200,000	-0,003	0,052
-421,759	188,001	0,055	0,059
-420,744	-134,138	-0,090	0,008
-419,730	-77,673	-0,144	-0,035
-418,715	800,000	-0,018	-0,042
-417,701	-200,000	-0,016	-0,139
-416,686	-200,000	0,008	0,160
-415,671	661,459	0,021	0,040
-414,657	619,850	-0,042	-0,076
-413,642	269,283	-0,044	-0,055
-412,628	-200,000	-0,010	-0,088
-411,613	-139,285	0,148	-0,011
-410,598	149,970	-0,121	0,117
-409,584	-64,942	0,042	0,012
-408,569	-200,000	0,007	-0,043
-407,555	100,490	-0,067	-0,056
-406,540	-200,000	-0,020	0,073
-405,525	371,879	-0,066	-0,097
-404,511	-200,000	0,030	-0,146
-403,496	523,675	-0,072	-0,121
-402,482	-42,928	0,076	-0,027
-401,467	2,421	-0,070	0,036
-400,452	-29,940	0,198	0,080
-399,438	359,176	-0,047	0,068
-398,423	-14,383	-0,091	0,042
-397,409	-200,000	-0,013	0,095
-396,394	122,445	-0,084	-0,075
-395,379	111,432	0,108	-0,093
-394,365	183,730	-0,011	-0,011
-393,350	800,000	0,039	0,115
-392,336	191,404	0,122	0,131
-391,321	118,505	0,050	0,044
-390,306	687,584	-0,061	-0,115
-389,292	129,188	-0,087	-0,080
-388,277	-128,389	-0,076	-0,008
-387,263	46,983	-0,073	0,048
-386,248	20,033	0,041	0,024
-385,233	800,000	0,039	0,086
-384,219	36,014	0,107	-0,067
-383,204	569,985	-0,066	-0,115
-382,190	-1,528	-0,147	0,074
-381,175	-12,433	0,021	0,010
-380,160	-6,207	0,043	0,021
-379,146	-101,408	0,123	0,021
-378,131	-200,000	-0,023	0,081
-377,117	-54,493	-0,083	0,027
-376,102	124,823	-0,035	-0,031
-375,088	-182,730	-0,055	0,001
-374,073	-33,278	-0,095	0,037
-373,058	206,244	-0,045	0,050
-372,044	68,764	-0,085	0,062
-371,029	-14,718	-0,095	0,043
-370,015	-200,000	0,003	-0,016
-369,000	90,911	-0,133	-0,107
-367,985	312,787	0,076	-0,102
-366,971	35,899	-0,082	-0,051
-365,956	-154,590	-0,082	-0,004
-364,942	-55,850	0,113	-0,036
-363,927	19,340	-0,093	0,053
-362,912	374,042	0,049	-0,072
-361,898	-42,016	-0,113	-0,041
-360,883	800,000	-0,071	-0,162
-359,869	-73,256	0,068	-0,018
-358,854	749,245	-0,025	0,049
-357,839	-15,595	0,026	0,012
-356,825	800,000	0,017	-0,046
-355,810	-200,000	-0,008	0,046
-354,796	800,000	0,054	-0,130
-353,781	-200,000	-0,017	-0,089
-352,766	27,720	-0,099	0,059
-351,752	-200,000	0,026	0,128
-350,737	-200,000	-0,016	0,082
-349,723	-200,000	0,016	0,082
-348,708	147,115	0,084	-0,081
-347,693	-45,683	0,019	-0,007
-346,679	307,332	0,041	0,055
-345,664	328,532	-0,043	-0,059
-344,650	286,881	-0,053	-0,069
-343,635	-45,262	0,060	0,021
-342,620	-93,340	0,102	-0,020
-341,606	779,169	-0,029	-0,057
-340,591	-99,077	0,094	0,017
-339,577	800,000	-0,020	-0,050
-338,562	-200,000	0,015	-0,088
-337,548	31,396	-0,031	-0,019
-336,533	84,631	0,017	0,013
-335,518	261,132	-0,054	-0,067
-334,504	31,938	0,019	0,012
-333,489	25,314	0,049	0,029
-332,475	450,062	-0,054	0,085
-331,460	-153,625	0,095	-0,005
-330,445	72,542	-0,034	-0,025
-329,431	564,013	-0,092	0,160
-328,416	-200,000	0,025	0,132
-327,402	230,237	-0,075	0,087
-326,387	183,418	0,091	0,096
-325,372	108,438	-0,084	0,071
-324,358	-200,000	0,010	-0,155
-323,343	622,524	0,058	0,104
-322,329	-139,361	0,074	-0,006
-321,314	53,323	0,177	0,121
-320,299	34,099	0,076	0,047
-319,285	-117,689	0,057	-0,007
-318,270	800,000	0,053	0,113
-317,256	-98,801	-0,091	0,016
-316,241	480,229	0,085	0,139
-315,226	-200,000	-0,031	-0,138
-314,212	49,602	0,079	-0,053
-313,197	55,502	0,076	0,052
-312,183	86,718	0,093	0,073
-311,168	-98,844	-0,105	0,019
-310,153	-26,556	-0,077	-0,032
-309,139	800,000	-0,050	-0,143
-308,124	104,601	-0,056	0,047
-307,110	800,000	-0,019	0,046
-306,095	-200,000	-0,003	0,031
-305,080	-185,649	-0,129	-0,001
-304,066	177,547	0,051	-0,053
-303,051	176,130	-0,092	-0,095
-302,037	-200,000	0,024	-0,180
-301,022	800,000	-0,047	-0,097
-300,008	122,373	-0,085	-0,076
-298,993	-91,736	-0,064	0,013
-297,978	521,543	0,023	0,039
-296,964	800,000	-0,019	0,054
-295,949	203,832	0,089	-0,098
-294,935	-89,198	0,063	0,013
-293,920	-83,721	0,083	0,019
-292,905	292,248	-0,036	-0,047
-291,891	-200,000	0,001	0,028
-290,876	-200,000	0,004	-0,084
-289,862	733,640	0,059	-0,114
-288,847	800,000	0,057	-0,121
-287,832	17,115	-0,128	0,072
-286,818	148,871	0,150	-0,144
-285,803	800,000	0,010	0,025
-284,789	-40,972	0,148	0,054
-283,774	-200,000	-0,048	0,195
-282,759	598,191	-0,036	0,064
-281,745	34,879	-0,045	0,028
-280,730	159,521	-0,109	0,108
-279,716	800,000	0,053	0,117
-278,701	74,424	-0,011	0,008
-277,686	110,521	0,084	-0,072
-276,672	179,779	0,093	0,097
-275,657	-34,864	-0,014	-0,006
-274,643	561,506	0,025	-0,044
-273,628	800,000	-0,008	-0,024
-272,613	-86,275	0,054	0,012
-271,599	-107,941	0,076	0,012
-270,584	-200,000	-0,013	0,077
-269,570	800,000	-0,025	-0,068
-268,555	-200,000	-0,020	0,073
-267,540	443,286	0,038	-0,059
-266,526	-52,100	-0,113	-0,037
-265,511	296,623	0,078	0,102
-264,497	118,021	-0,042	-0,037
-263,482	800,000	0,014	-0,039
-262,467	-200,000	0,002	-0,011
-261,453	-136,350	-0,071	-0,006
-260,438	-29,267	0,024	-0,010
-259,424	-90,648	-0,056	0,011
-258,409	-120,128	0,029	-0,004
-257,395	326,843	0,063	0,085
-256,380	-176,287	0,104	-0,002
-255,365	-200,000	-0,035	-0,142
-254,351	800,000	0,017	0,039
-253,336	-200,000	0,007	0,105
-252,322	-200,000	0,014	-0,118
-251,307	11,602	0,039	0,021
-250,292	-34,714	0,047	0,018
-249,278	380,090	-0,030	0,044
-248,263	280,184	0,038	-0,048
-247,249	-200,000	-0,001	0,039
-246,234	800,000	-0,008	0,025
-245,219	204,272	-0,087	0,096
-244,205	-62,747	0,144	0,042
-243,190	28,412	0,063	0,038
-242,176	-200,000	0,006	0,143
-241,161	374,661	0,106	0,154
-240,146	145,630	-0,086	-0,082
-239,132	-200,000	-0,025	0,102
-238,117	371,078	-0,015	-0,022
-237,103	-23,219	0,029	0,012
-236,088	800,000	-0,057	-0,141
-235,073	-51,407	0,092	0,030
-234,059	-87,491	0,075	0,016
-233,044	800,000	0,021	-0,052
-232,030	-47,589	-0,060	0,020
-231,015	800,000	-0,039	-0,116
-230,000	206,176	0,054	-0,060
-228,986	-200,000	0,004	0,040
-227,971	343,034	0,058	-0,080
-226,957	141,798	0,098	0,092
-225,942	-111,047	0,053	0,008
-224,927	579,458	-0,098	-0,170
-223,913	4,231	-0,092	-0,048
-222,898	-18,653	-0,101	-0,044
-221,884	-41,484	0,039	0,014
-220,869	8,812	-0,098	-0,052
-219,855	87,857	0,129	0,101
-218,840	-155,401	0,071	-0,003
-217,825	79,730	0,048	0,036
-216,811	800,000	0,017	-0,046
-215,796	-106,827	0,034	-0,005
-214,782	-200,000	0,009	0,093
-213,767	-200,000	-0,004	0,175
-212,752	44,413	0,117	0,076
-211,738	800,000	0,025	0,055
-210,723	-138,904	-0,034	-0,003
-209,709	-69,999	0,010	-0,003
-208,694	78,467	-0,162	0,123
-207,679	-124,477	0,087	-0,009
-206,665	-130,889	-0,018	-0,002
-205,650	-200,000	0,008	-0,059
-204,636	-200,000	0,010	0,039
-203,621	6,499	-0,090	0,047
-202,606	-200,000	-0,003	-0,206
-201,592	9,983	0,074	-0,040
-200,577	232,475	-0,075	-0,087
-199,563	175,635	-0,076	-0,078
-198,548	292,783	-0,008	0,010
-197,533	-112,991	0,144	-0,020
-196,519	-200,000	-0,019	-0,082
-195,504	800,000	0,022	-0,060
-194,490	-51,065	-0,037	-0,012
-193,475	242,465	0,062	0,074
-192,460	152,432	0,049	0,047
-191,446	-141,829	0,067	0,005
-190,431	800,000	-0,037	0,078
-189,417	-36,788	0,022	-0,008
-188,402	-29,659	-0,128	0,052
-187,387	-52,237	0,118	0,038
-186,373	-56,269	-0,139	-0,044
-185,358	800,000	0,028	-0,066
-184,344	-90,471	0,101	-0,020
-183,329	-2,953	-0,038	0,019
-182,315	-200,000	0,022	0,125
-181,300	174,679	-0,028	0,028
-180,285	495,734	-0,042	-0,069
-179,271	-91,079	0,119	-0,024
-178,256	-200,000	-0,025	0,153
-177,242	-200,000	-0,013	0,138
-176,227	571,127	-0,033	0,057
-175,212	-200,000	-0,034	-0,124
-174,198	800,000	-0,032	0,076
-173,183	41,585	0,085	-0,054
-172,169	-13,958	-0,044	0,020
-171,154	-113,997	-0,108	-0,015
-170,139	-98,714	0,011	-0,002
-169,125	-30,434	0,016	-0,007
-168,110	392,721	0,077	0,113
-167,096	35,778	0,133	-0,083
-166,081	-200,000	0,024	-0,130
-165,066	-200,000	-0,008	-0,093
-164,052	103,947	0,056	-0,046
-163,037	-74,238	0,140	-0,035
-162,023	40,223	0,025	-0,016
-161,008	-200,000	-0,003	-0,058
-159,993	-200,000	-0,015	0,157
-158,979	-200,000	-0,018	-0,132
-157,964	741,746	-0,052	-0,099
-156,950	-200,000	-0,013	-0,099
-155,935	-19,364	0,190	-0,083
-154,920	42,910	0,038	-0,025
-153,906	-39,958	-0,073	-0,027
-152,891	307,675	0,045	0,059
-151,877	81,940	0,047	-0,036
-150,862	484,606	-0,067	0,109
-149,847	-19,189	0,042	-0,018
-148,833	800,000	0,007	-0,013
-147,818	124,197	0,140	0,125
-146,804	800,000	0,018	-0,053
-145,789	552,704	0,047	-0,080
-144,775	-140,626	-0,032	0,002
-143,760	42,304	-0,137	-0,088
-142,745	-45,831	0,089	0,031
-141,731	6,459	-0,034	0,018
-140,716	217,774	0,088	0,100
-139,702	-91,857	-0,098	0,020
-138,687	-26,758	-0,125	0,052
-137,672	-200,000	-0,024	0,089
-136,658	87,143	-0,026	-0,021
-135,643	202,682	0,011	0,012
-134,629	-200,000	-0,004	0,018
-133,614	96,792	-0,043	-0,035
-132,599	101,960	0,152	0,126
-131,585	-200,000	-0,012	0,128
-130,570	-200,000	0,004	-0,016
-129,556	-123,662	-0,155	0,017
-128,541	122,964	-0,047	0,042
-127,526	-42,956	0,107	-0,038
-126,512	-200,000	-0,006	0,048
-125,497	-200,000	-0,013	0,109
-124,483	347,727	-0,066	0,093
-123,468	202,823	0,115	0,126
-122,453	800,000	-0,037	-0,094
-121,439	-200,000	-0,026	-0,101
-120,424	31,910	-0,110	-0,067
-119,410	-200,000	0,003	-0,028
-118,395	-87,406	0,159	-0,034
-117,380	10,201	0,121	-0,065
-116,366	800,000	-0,060	0,118
-115,351	-87,368	-0,129	0,027
-114,337	26,192	-0,048	-0,028
-113,322	-40,807	-0,088	-0,032
-112,307	800,000	-0,019	0,057
-111,293	-200,000	-0,018	-0,062
-110,278	15,140	0,142	0,079
-109,264	-200,000	0,041	-0,162
-108,249	27,028	-0,053	-0,031
-107,234	384,295	-0,017	-0,024
-106,220	-24,276	-0,206	-0,087
-105,205	-200,000	0,012	0,071
-104,191	-18,287	-0,061	-0,027
-103,176	-200,000	0,001	0,091
-102,162	-200,000	-0,001	0,037
-101,147	256,514	0,072	-0,087
-100,132	-180,795	-0,158	-0,002
-99,118	-200,000	-0,011	-0,129
-98,103	362,558	0,016	0,023
-97,089	-66,783	0,080	0,022
-96,074	481,015	0,088	-0,142
-95,059	-99,446	-0,042	-0,007
-94,045	800,000	0,057	-0,135
-93,030	-53,638	-0,030	0,010
-92,016	800,000	-0,052	0,125
-91,001	148,520	-0,064	0,061
-89,986	-54,806	-0,103	0,033
-88,972	34,031	-0,038	0,023
-87,957	-200,000	0,016	0,069
-86,943	-99,297	-0,115	-0,020
-85,928	-73,332	-0,163	-0,042
-84,913	13,777	-0,136	-0,074
-83,899	143,930	-0,101	-0,095
-82,884	37,561	-0,128	-0,080
-81,870	182,171	0,061	-0,063
-80,855	181,065	0,045	-0,047
-79,840	38,291	-0,125	0,078
-78,826	28,220	-0,116	0,069
-77,811	-115,710	-0,177	-0,023
-76,797	-200,000	-0,049	-0,153
-75,782	-200,000	-0,003	0,038
-74,767	297,391	-0,029	0,038
-73,753	330,118	-0,066	0,090
-72,738	28,049	-0,056	0,033
-71,724	683,789	0,024	0,045
-70,709	445,016	0,110	-0,172
-69,694	800,000	-0,020	-0,049
-68,680	-200,000	0,000	0,053
-67,665	800,000	-0,044	-0,088
-66,651	105,019	0,082	-0,068
-65,636	-200,000	0,023	0,176
-64,622	-200,000	0,003	0,015
-63,607	-30,771	-0,159	-0,063
-62,592	-117,990	-0,219	-0,027
-61,578	-141,007	0,084	0,006
-60,563	181,154	-0,100	0,103
-59,549	79,346	0,098	-0,074
-58,534	64,196	-1,885	-1,337
-57,519	408,374	-1,362	-2,039
-56,505	-200,000	-0,402	-4,436
-55,490	531,270	0,949	1,589
-54,476	800,000	4,941	11,307
-53,461	-200,000	21,349	343,784
-52,446	800,000	762,543	2361,992
-51,432	557,833	1664,787	2842,165
-50,417	73,056	1662,672	1223,956
-49,403	17,726	1535,928	859,403
-48,388	11,620	1459,832	787,282
-47,373	19,495	1451,019	820,296
-46,359	15,217	1440,249	793,827
-45,344	9,885	1436,167	766,148
-44,330	9,852	1434,213	764,920
-43,315	9,847	1432,415	763,908
-42,300	9,820	1430,502	762,727
-41,286	9,851	1429,493	762,306
-40,271	9,800	1428,199	761,344
-39,257	9,815	1427,135	760,819
-38,242	9,867	1425,952	760,404
-37,227	9,868	1424,803	759,766
-36,213	9,863	1423,498	759,017
-35,198	9,892	1422,228	758,448
-34,184	9,910	1421,197	757,951
-33,169	9,807	1419,873	756,729
-32,154	9,929	1418,876	756,741
-31,140	9,882	1417,821	755,931
-30,125	9,936	1416,500	755,447
-29,111	9,890	1415,392	754,613
-28,096	9,904	1414,162	753,989
-27,082	9,841	1412,843	752,962
-26,067	9,792	1412,044	752,277
-25,052	9,813	1410,989	751,781
-24,038	9,873	1409,941	751,476
-23,023	9,814	1409,114	750,728
-22,009	9,805	1408,001	750,063
-20,994	9,791	1407,074	749,476
-19,979	9,824	1406,198	749,131
-18,965	9,826	1405,049	748,498
-17,950	9,804	1404,302	747,969
-16,936	9,764	1403,533	747,343
-15,921	9,741	1402,455	746,635
-14,906	9,750	1401,341	746,052
-13,892	9,764	1400,293	745,531
-12,877	9,787	1399,675	745,280
-11,863	9,713	1398,995	744,544
-10,848	9,748	1398,001	744,145
-9,833	9,688	1397,006	743,309
-8,819	9,654	1396,155	742,669
-7,804	9,667	1395,119	742,149
-6,790	9,618	1394,393	741,505
-5,775	9,594	1393,547	740,917
-4,760	9,653	1392,243	740,468
-3,746	9,643	1391,430	739,958
-2,731	9,624	1390,517	739,354
-1,717	9,619	1389,757	738,901
-0,702	9,622	1387,996	737,946
0,313	13,706	1300,136	709,903
1,327	29,934	690,193	413,626
2,342	46,478	119,515	77,991
3,356	0,768	16,559	8,326
4,371	6,687	3,594	1,878
5,386	0,342	1,089	0,546
6,400	800,000	0,265	0,595
7,415	800,000	-0,087	-0,229
8,429	142,103	-0,230	-0,215
9,444	-49,249	-0,383	-0,128
10,459	158,318	-0,205	-0,200
11,473	-90,925	-0,300	-0,060
12,488	-55,134	-0,285	-0,090
13,502	-3,444	-0,305	-0,149
14,517	51,187	-0,355	-0,237
15,531	38,507	-0,350	-0,219
16,546	21,924	-0,261	-0,149
17,561	40,588	-0,418	-0,265
18,575	-43,333	-0,267	-0,094
19,590	254,955	-0,232	-0,280
20,604	-11,075	-0,263	-0,122
21,619	5,493	-0,436	-0,226
22,634	113,165	-0,386	-0,329
23,648	40,154	-0,399	-0,252
24,663	175,512	-0,406	-0,414
25,677	356,601	-0,217	-0,305
26,692	-15,666	-0,391	-0,174
27,707	32,032	-0,355	-0,215
28,721	12,238	-0,376	-0,203
29,736	-6,288	-0,517	-0,247
30,750	90,910	-0,317	-0,249
31,765	36,168	-0,414	-0,256
32,780	314,779	-0,227	-0,302
33,794	60,420	-0,374	-0,260
34,809	-15,889	-0,384	-0,171
35,823	113,594	-0,226	-0,192
36,838	131,322	-0,289	-0,260
37,853	64,711	-0,432	-0,306
38,867	99,595	-0,375	-0,304
39,882	106,322	-0,310	-0,258
40,896	85,712	-0,244	-0,188
41,911	25,721	-0,397	-0,231
42,926	126,323	-0,332	-0,295
43,940	-9,531	-0,403	-0,188
44,955	69,197	-0,415	-0,299
45,969	20,196	-0,455	-0,257
46,984	229,740	-0,272	-0,312
47,999	11,142	-0,362	-0,194
49,013	-7,007	-0,455	-0,216
50,028	154,348	-0,247	-0,238
51,042	-28,487	-0,402	-0,162
52,057	-25,848	-0,273	-0,112
53,071	-8,445	-0,325	-0,153
54,086	-45,430	-0,446	-0,154
55,101	31,822	-0,281	-0,170
56,115	-57,220	-0,352	-0,108
57,130	-75,712	-0,298	-0,074
58,144	4,695	-0,405	-0,208
59,159	148,256	-0,274	-0,259
60,174	111,879	-0,310	-0,262
61,188	63,276	-0,431	-0,302
62,203	207,524	-0,267	-0,292
63,217	19,439	-0,339	-0,191
64,232	50,227	-0,215	-0,142
65,247	144,086	-0,309	-0,289
66,261	15,485	-0,391	-0,215
67,276	101,637	-0,373	-0,305
68,290	115,238	-0,271	-0,232
69,305	73,077	-0,271	-0,198
70,320	-47,530	-0,394	-0,133
71,334	-35,028	-0,411	-0,156
72,349	109,590	-0,228	-0,191
73,363	19,180	-0,385	-0,216
74,378	261,150	-0,264	-0,321
75,393	-59,109	-0,347	-0,104
76,407	-92,920	-0,288	-0,056
77,422	-12,471	-0,292	-0,133
78,436	155,373	-0,223	-0,215
79,451	-20,972	-0,370	-0,158
80,466	-30,650	-0,248	-0,098
81,480	24,677	-0,335	-0,194
82,495	65,358	-0,304	-0,215
83,509	29,133	-0,276	-0,164
84,524	-96,905	-0,300	-0,055
85,539	-46,242	-0,300	-0,103
86,553	312,187	-0,148	-0,195
87,568	367,296	-0,199	-0,282
88,582	-3,925	-0,339	-0,164
89,597	-67,194	-0,434	-0,119
90,611	157,579	-0,177	-0,171
91,626	-67,162	-0,324	-0,088
92,641	149,605	-0,322	-0,305
93,655	5,496	-0,355	-0,183
94,670	11,655	-0,355	-0,190
95,684	18,963	-0,282	-0,158
96,699	51,242	-0,282	-0,187
97,714	-188,056	-0,341	-0,003
98,728	93,537	-0,294	-0,233
99,743	-77,208	-0,342	-0,082
100,757	-4,553	-0,290	-0,139
101,772	58,390	-0,237	-0,162
102,787	35,948	-0,483	-0,296
103,801	81,007	-0,427	-0,322
104,816	487,028	-0,180	-0,288
105,830	-73,563	-0,419	-0,106
106,845	-15,290	-0,284	-0,126
107,860	-75,316	-0,243	-0,060
108,874	-160,840	-0,318	0,012
109,889	101,524	-0,312	-0,254
110,903	41,614	-0,330	-0,208
111,918	116,660	-0,229	-0,196
112,933	-32,462	-0,164	-0,064
113,947	12,150	-0,371	-0,199
114,962	324,971	-0,254	-0,339
115,976	-5,421	-0,345	-0,165
116,991	-54,862	-0,290	-0,091
118,006	80,861	-0,229	-0,172
119,020	-52,980	-0,290	-0,093
120,035	-71,325	-0,314	-0,081
121,049	-23,368	-0,291	-0,121
122,064	-12,051	-0,261	-0,119
123,079	-86,362	-0,267	-0,057
124,093	122,088	-0,256	-0,223
125,108	170,955	-0,235	-0,235
126,122	224,874	-0,212	-0,239
127,137	-24,620	-0,355	-0,146
128,151	-11,401	-0,215	-0,098
129,166	222,952	-0,184	-0,207
130,181	55,435	-0,373	-0,251
131,195	155,459	-0,300	-0,288
132,210	651,996	-0,161	-0,289
133,224	99,827	-0,213	-0,172
134,239	427,185	-0,137	-0,207
135,254	12,186	-0,323	-0,173
136,268	122,346	-0,248	-0,216
137,283	-42,118	-0,346	-0,122
138,297	342,991	-0,175	-0,239
139,312	-11,454	-0,278	-0,127
140,327	82,387	-0,306	-0,231
141,341	288,409	-0,209	-0,264
142,356	188,495	-0,137	-0,143
143,370	-138,843	-0,337	-0,025
144,385	116,521	-0,170	-0,145
145,400	25,795	-0,192	-0,111
146,414	60,620	-0,224	-0,154
147,429	185,045	-0,224	-0,231
148,443	-71,102	-0,238	0,062
149,458	-47,481	-0,200	-0,067
150,473	177,954	-0,170	-0,172
151,487	62,583	-0,242	-0,168
152,502	26,175	-0,255	-0,148
153,516	18,568	-0,296	-0,164
154,531	11,072	-0,339	-0,180
155,546	167,412	-0,161	-0,160
156,560	193,250	-0,266	-0,280
157,575	332,538	-0,189	-0,254
158,589	545,586	-0,124	-0,206
159,604	63,021	-0,220	-0,153
160,619	163,809	-0,242	-0,237
161,633	21,237	-0,398	-0,224
162,648	-24,370	-0,253	-0,104
163,662	-200,000	-0,029	-0,291
164,677	10,508	-0,130	-0,069
165,692	-51,225	-0,276	-0,089
166,706	399,098	-0,171	-0,250
167,721	28,203	-0,292	-0,171
168,735	459,738	-0,161	-0,250
169,750	28,944	-0,147	-0,086
170,764	256,419	-0,291	-0,348
171,779	234,268	-0,126	-0,144
172,794	-191,598	-0,231	0,002
173,808	-10,407	-0,235	-0,108
174,823	204,941	-0,127	-0,137
175,837	252,234	-0,182	-0,215
176,852	420,611	-0,146	-0,218
177,867	98,206	-0,260	-0,208
178,881	107,478	-0,241	-0,199
179,896	-45,637	-0,358	-0,122
180,910	52,986	-0,276	-0,183
181,925	82,059	-0,220	-0,165
182,940	123,018	-0,283	-0,246
183,954	63,642	-0,200	-0,139
184,969	-26,592	-0,299	-0,121
185,983	70,192	-0,172	-0,123
186,998	-36,117	-0,272	-0,101
188,013	476,470	-0,148	-0,233
189,027	57,997	-0,261	-0,177
190,042	324,252	-0,214	-0,284
191,056	155,887	-0,139	-0,133
192,071	341,350	-0,183	-0,249
193,086	-200,000	0,034	-0,227
194,100	218,529	-0,123	-0,136
195,115	115,196	-0,190	-0,161
196,129	331,501	-0,177	-0,238
197,144	276,607	-0,232	-0,287
198,159	-36,997	-0,399	-0,147
199,173	-98,022	-0,256	0,045
200,188	84,543	-0,159	-0,121
201,202	176,424	-0,114	-0,114
202,217	-20,851	-0,254	-0,107
203,232	800,000	-0,150	-0,290
204,246	35,542	-0,254	-0,154
205,261	29,756	-0,161	-0,095
206,275	62,643	-0,224	-0,155
207,290	-25,272	-0,119	-0,049
208,304	106,752	-0,275	-0,226
209,319	795,076	-0,101	-0,194
210,334	320,473	-0,140	-0,185
211,348	130,424	-0,162	-0,143
212,363	-2,668	-0,217	-0,105
213,377	112,755	-0,220	-0,184
214,392	215,601	-0,154	-0,169
215,407	23,492	-0,251	-0,142
216,421	96,293	-0,093	-0,074
217,436	105,399	-0,190	-0,155
218,450	-13,385	-0,237	-0,106
219,465	800,000	-0,123	-0,270
220,480	106,561	-0,182	-0,149
221,494	190,021	-0,168	-0,175
222,509	417,390	-0,073	-0,108
223,523	-53,783	-0,175	-0,055
224,538	-41,909	-0,245	-0,086
225,553	42,174	-0,208	-0,130
226,567	520,088	-0,089	-0,145
227,582	-35,064	-0,170	-0,064
228,596	23,502	-0,263	-0,149
229,611	-99,385	-0,152	0,026
230,626	-102,210	-0,207	0,034
231,640	158,920	-0,091	-0,088
232,655	-53,864	-0,317	-0,099
233,669	-135,515	-0,365	0,030
234,684	132,106	-0,186	-0,166
235,699	346,523	-0,160	-0,218
236,713	-24,372	-0,067	-0,027
237,728	-112,187	-0,046	0,006
238,742	786,095	-0,147	-0,280
239,757	800,000	-0,065	-0,173
240,772	-137,859	-0,262	-0,020
241,786	42,476	-0,242	-0,152
242,801	-1,478	-0,139	-0,068
243,815	-27,327	-0,204	-0,082
244,830	-52,901	-0,075	-0,024
245,844	378,990	-0,153	-0,216
246,859	71,555	-0,236	-0,169
247,874	800,000	-0,105	-0,212
248,888	-13,388	-0,319	-0,142
249,903	220,649	-0,210	-0,233
250,917	378,579	-0,118	-0,168
251,932	46,080	-0,243	-0,155
252,947	-67,490	-0,169	-0,045
253,961	-14,382	-0,184	-0,081
254,976	-117,657	-0,113	-0,014
255,990	110,392	-0,194	-0,161
257,005	-104,021	-0,148	0,023
258,020	-96,713	-0,124	-0,022
259,034	123,714	-0,108	0,094
260,049	39,580	-0,037	0,023
261,063	60,479	-0,195	-0,133
262,078	-12,602	-0,217	-0,097
263,093	749,762	-0,112	-0,208
264,107	270,496	-0,199	-0,242
265,122	19,845	-0,192	0,106
266,136	33,160	-0,170	-0,101
267,151	48,729	-0,064	-0,042
268,166	-32,177	-0,062	-0,024
269,180	14,802	-0,217	-0,117
270,195	256,250	-0,186	-0,221
271,209	-99,378	-0,127	0,022
272,224	441,022	-0,197	-0,298
273,239	-78,693	-0,111	0,026
274,253	-0,220	-0,193	-0,094
275,268	-173,499	-0,200	-0,004
276,282	-59,630	-0,140	-0,041
277,297	79,773	-0,226	-0,167
278,312	800,000	-0,101	-0,288
279,326	-191,501	-0,249	-0,002
280,341	68,862	-0,113	-0,080
281,355	-34,194	-0,114	-0,043
282,370	800,000	-0,088	-0,174
283,384	-110,509	-0,271	-0,038
284,399	28,800	-0,285	-0,165
285,414	24,240	-0,245	-0,139
286,428	-200,000	-0,029	0,121
287,443	-200,000	-0,008	-0,046
288,457	0,210	-0,084	-0,041
289,472	-21,265	-0,171	0,072
290,487	-81,345	-0,178	-0,040
291,501	471,041	-0,130	-0,201
292,516	-60,273	-0,163	0,047
293,530	178,274	-0,139	-0,140
294,545	-55,713	-0,094	0,029
295,560	-129,708	-0,123	0,012
296,574	-4,872	-0,101	-0,048
297,589	62,129	-0,232	-0,159
298,603	730,106	-0,122	-0,224
299,618	800,000	-0,068	-0,142
300,633	800,000	-0,074	-0,191
301,647	384,610	-0,095	-0,135
302,662	46,071	-0,172	-0,109
303,676	-91,371	-0,279	0,054
304,691	167,541	-0,180	-0,176
305,706	91,543	-0,206	-0,159
306,720	125,894	-0,194	-0,169
307,735	84,513	-0,261	-0,195
308,749	-144,168	-0,190	0,012
309,764	-144,008	-0,135	0,009
310,779	-140,580	-0,192	-0,013
311,793	15,052	-0,242	-0,130
312,808	-15,925	-0,225	-0,098
313,822	-75,978	-0,100	0,024
314,837	214,745	-0,120	-0,130
315,852	51,636	-0,107	0,070
316,866	654,223	-0,045	-0,079
317,881	-72,698	-0,279	-0,070
318,895	33,413	-0,147	-0,087
319,910	785,883	-0,034	-0,064
320,925	105,372	-0,177	-0,143
321,939	800,000	-0,060	-0,133
322,954	800,000	-0,107	-0,223
323,968	800,000	-0,054	-0,141
324,983	243,627	-0,093	-0,107
325,997	73,373	-0,148	-0,106
327,012	-64,222	-0,132	-0,037
328,027	275,052	-0,113	-0,137
329,041	394,071	-0,097	-0,139
330,056	-0,527	-0,114	-0,055
331,070	58,116	-0,008	0,006
332,085	-200,000	0,016	0,088
333,100	-68,993	-0,236	-0,062
334,114	315,945	-0,063	-0,082
335,129	-114,345	-0,211	-0,027
336,143	214,931	-0,141	-0,154
337,158	382,961	-0,147	-0,207
338,173	-126,614	-0,171	0,017
339,187	-29,840	-0,217	-0,084
340,202	24,194	-0,152	-0,086
341,216	208,671	-0,105	-0,112
342,231	309,443	-0,150	-0,192
343,246	390,408	-0,072	-0,102
344,260	800,000	-0,060	-0,120
345,275	137,926	-0,116	-0,104
346,289	-37,133	-0,266	-0,097
347,304	-13,932	-0,107	-0,047
348,319	-17,574	-0,110	-0,047
349,333	146,120	-0,218	-0,200
350,348	253,163	-0,098	-0,115
351,362	204,226	-0,111	-0,118
352,377	-44,746	-0,099	-0,034
353,392	175,228	-0,092	-0,092
354,406	146,713	-0,074	-0,068
355,421	208,191	1312,070	1402,707
356,435	160,191	1472,418	1403,177
