DTS Sentinel unit serial number:	SN410029Multiplexer serial number:	ORYXHardware model number:	OX2-SRSoftware version number:	ORYX F/W v4,00 Oryx Data Collector v3.7.2.0data status	okinstallation	B3 Nyhavnadifferential loss correction	single-endedforward channel	channel 1reverse channel	N/Adate	2023/12/02time	03:27:30forward acquisition time	300,00reverse acquisition time	0,00gamma	499,1914k internal	0,3194k external	0,3194temperature offset calibration	1,0000default loss term (dB/km)	0,3820temperature slope calibration	1,0000multiplexer offset coefficient	1,0000multiplexer slope coefficient	1,0000fibre end	0,00T internal ref (°C)	16,65T ext. ref 1 (°C)	1,67T ext. ref 2 (°C)	1,66length (m)	temperature (°C)	Stokes	anti-Stokes-744,400	675,510	-0,156	-0,297
-743,385	-200,000	0,023	0,391
-742,371	-100,390	-0,318	-0,057
-741,356	-200,000	0,012	0,356
-740,342	-7,385	-0,181	-0,089
-739,327	-200,000	-0,034	0,376
-738,312	414,286	-0,194	-0,303
-737,298	-200,000	-0,034	0,280
-736,283	136,306	-0,245	-0,233
-735,269	390,247	0,200	0,303
-734,254	7,616	-0,212	-0,116
-733,239	98,315	-0,247	0,207
-732,225	348,547	-0,061	-0,088
-731,210	185,404	0,118	0,127
-730,196	800,000	0,035	-0,080
-729,181	-3,404	-0,084	0,043
-728,167	118,548	-0,029	-0,026
-727,152	-75,850	-0,107	0,027
-726,137	166,485	0,104	-0,108
-725,123	366,390	-0,041	-0,061
-724,108	-158,331	-0,048	-0,002
-723,094	261,588	-0,115	-0,145
-722,079	422,759	0,045	-0,070
-721,064	-18,234	0,020	-0,009
-720,050	29,393	0,018	-0,011
-719,035	107,882	-0,150	-0,130
-718,021	-57,492	-0,060	0,019
-717,006	800,000	-0,039	0,119
-715,991	-200,000	0,036	-0,128
-714,977	-200,000	-0,003	-0,064
-713,962	-131,899	-0,043	0,004
-712,948	357,900	-0,114	0,167
-711,933	-200,000	0,007	0,031
-710,918	76,913	-0,018	0,014
-709,904	-42,918	-0,179	-0,066
-708,889	-200,000	0,014	-0,088
-707,875	800,000	-0,084	-0,171
-706,860	800,000	-0,028	0,072
-705,845	-8,938	0,140	0,068
-704,831	-38,019	0,092	-0,036
-703,816	130,704	-0,029	-0,027
-702,802	130,588	0,101	-0,094
-701,787	676,167	0,042	-0,080
-700,772	-89,770	-0,076	0,016
-699,758	577,587	-0,046	0,082
-698,743	174,074	0,042	0,044
-697,729	-200,000	0,025	0,091
-696,714	10,262	0,090	0,050
-695,699	800,000	-0,038	0,078
-694,685	-99,751	-0,111	-0,020
-693,670	385,846	0,078	-0,117
-692,656	-200,000	-0,006	-0,047
-691,641	-9,500	0,050	-0,024
-690,627	-19,487	0,122	0,055
-689,612	-81,611	-0,136	-0,032
-688,597	598,899	0,045	0,082
-687,583	-200,000	-0,010	-0,095
-686,568	-110,766	0,056	0,008
-685,554	800,000	0,025	-0,063
-684,539	24,821	0,023	-0,014
-683,524	800,000	-0,024	-0,048
-682,510	-168,319	0,102	0,003
-681,495	21,192	0,134	0,079
-680,481	-16,539	-0,047	0,021
-679,466	227,579	-0,066	-0,078
-678,451	800,000	0,046	-0,122
-677,437	147,557	0,076	0,075
-676,422	172,629	-0,104	0,108
-675,408	105,624	0,105	0,090
-674,393	-52,303	-0,061	0,021
-673,378	176,422	0,075	-0,080
-672,364	800,000	-0,040	0,124
-671,349	62,812	0,092	0,067
-670,335	476,851	-0,080	0,132
-669,320	104,382	0,090	0,077
-668,305	800,000	0,034	0,095
-667,291	800,000	-0,047	0,150
-666,276	-200,000	-0,014	0,123
-665,262	0,150	0,020	0,011
-664,247	-200,000	0,008	0,089
-663,232	800,000	-0,012	0,037
-662,218	800,000	0,044	-0,093
-661,203	-157,736	-0,039	0,002
-660,189	800,000	-0,033	0,071
-659,174	-11,808	-0,081	0,039
-658,159	54,159	0,126	-0,088
-657,145	89,212	-0,006	-0,004
-656,130	342,709	-0,037	-0,053
-655,116	77,390	-0,048	-0,037
-654,101	78,540	0,178	0,138
-653,086	541,483	-0,012	-0,022
-652,072	57,759	-0,080	-0,057
-651,057	249,094	-0,076	-0,093
-650,043	112,399	-0,127	-0,112
-649,028	722,804	-0,042	0,082
-648,014	-41,272	-0,064	-0,024
-646,999	-42,751	0,147	0,054
-645,984	-200,000	-0,008	0,040
-644,970	357,827	-0,045	-0,066
-643,955	-200,000	0,021	-0,145
-642,941	453,188	-0,020	-0,032
-641,926	434,267	0,056	-0,089
-640,911	-200,000	-0,006	0,056
-639,897	-57,414	0,034	-0,011
-638,882	131,398	0,068	-0,063
-637,868	800,000	0,045	-0,106
-636,853	26,967	-0,128	-0,078
-635,838	-110,078	-0,061	-0,009
-634,824	-200,000	-0,033	-0,155
-633,809	84,082	0,060	0,048
-632,795	-31,140	-0,030	0,012
-631,780	777,415	-0,040	-0,080
-630,765	-143,890	-0,120	-0,008
-629,751	-72,272	-0,179	-0,048
-628,736	101,601	-0,175	-0,148
-627,722	800,000	0,018	-0,051
-626,707	800,000	-0,038	0,104
-625,692	-200,000	-0,023	0,110
-624,678	-200,000	0,004	0,189
-623,663	-200,000	0,004	0,069
-622,649	800,000	-0,023	0,069
-621,634	415,907	-0,110	0,171
-620,619	-200,000	-0,035	0,195
-619,605	800,000	0,032	-0,085
-618,590	173,592	-0,073	-0,076
-617,576	2,935	-0,036	0,019
-616,561	800,000	0,049	-0,115
-615,546	800,000	0,030	-0,072
-614,532	83,528	-0,161	-0,128
-613,517	707,069	0,034	-0,066
-612,503	97,105	-0,026	-0,021
-611,488	-58,874	-0,104	0,032
-610,474	7,758	-0,089	-0,048
-609,459	164,308	0,125	0,128
-608,444	-200,000	-0,009	-0,151
-607,430	40,858	-0,097	-0,063
-606,415	-200,000	-0,039	-0,139
-605,401	609,138	-0,047	-0,086
-604,386	163,019	0,067	0,068
-603,371	800,000	0,027	0,077
-602,357	800,000	-0,028	-0,079
-601,342	391,926	0,075	0,114
-600,328	574,482	-0,045	0,080
-599,313	-200,000	0,005	-0,041
-598,298	31,771	0,038	-0,024
-597,284	-162,017	0,057	-0,002
-596,269	-200,000	-0,002	-0,032
-595,255	-200,000	-0,001	-0,026
-594,240	-200,000	-0,035	-0,127
-593,225	-200,000	-0,029	-0,116
-592,211	800,000	-0,035	-0,091
-591,196	-40,187	-0,060	0,022
-590,182	-141,035	0,054	0,004
-589,167	112,117	0,048	-0,042
-588,152	83,364	-0,025	0,019
-587,138	-172,927	0,108	0,002
-586,123	256,205	0,058	-0,073
-585,109	800,000	-0,087	-0,191
-584,094	-200,000	-0,002	0,105
-583,079	-70,110	0,049	-0,013
-582,065	155,986	0,027	0,027
-581,050	340,360	0,062	-0,088
-580,036	80,629	-0,024	-0,019
-579,021	54,678	0,091	0,063
-578,006	800,000	-0,014	-0,030
-576,992	800,000	-0,029	0,059
-575,977	-114,722	-0,038	0,005
-574,963	6,194	0,077	0,041
-573,948	800,000	0,039	0,083
-572,934	-60,249	-0,056	0,017
-571,919	-200,000	-0,011	-0,047
-570,904	-114,966	0,071	-0,010
-569,890	-200,000	-0,001	-0,082
-568,875	-25,211	0,068	-0,029
-567,861	317,457	0,101	0,138
-566,846	800,000	0,059	0,124
-565,831	-200,000	-0,019	-0,082
-564,817	-165,458	-0,111	0,003
-563,802	0,166	0,055	-0,028
-562,788	-200,000	-0,018	-0,116
-561,773	472,677	0,047	-0,078
-560,758	-200,000	0,005	0,118
-559,744	139,121	0,061	0,058
-558,729	-55,936	-0,074	-0,024
-557,715	-120,710	-0,096	0,012
-556,700	-200,000	0,018	-0,067
-555,685	417,456	-0,027	-0,041
-554,671	549,889	-0,033	-0,057
-553,656	-187,925	-0,078	-0,001
-552,642	134,118	0,062	0,058
-551,627	581,576	-0,059	0,105
-550,612	-200,000	0,021	0,156
-549,598	172,639	-0,013	0,013
-548,583	103,233	-0,039	0,033
-547,569	-200,000	0,001	-0,112
-546,554	27,096	0,058	0,035
-545,539	52,349	0,048	-0,033
-544,525	-29,579	-0,033	0,013
-543,510	-92,179	0,085	-0,017
-542,496	-89,927	-0,157	0,033
-541,481	-1,925	-0,113	0,057
-540,466	232,535	-0,037	0,044
-539,452	138,401	-0,066	0,063
-538,437	800,000	0,033	0,070
-537,423	800,000	0,009	-0,019
-536,408	-200,000	-0,012	-0,093
-535,393	-200,000	0,001	-0,060
-534,379	-18,390	-0,055	0,025
-533,364	-200,000	-0,007	0,023
-532,350	308,928	0,026	-0,035
-531,335	515,893	0,072	0,122
-530,321	125,226	0,054	0,050
-529,306	192,833	-0,131	-0,143
-528,291	-97,079	-0,148	-0,028
-527,277	211,776	-0,060	-0,069
-526,262	-150,737	-0,128	0,007
-525,248	-200,000	-0,013	0,053
-524,233	151,687	0,167	0,165
-523,218	800,000	0,037	0,077
-522,204	344,279	0,034	-0,049
-521,189	-71,376	0,046	0,012
-520,175	49,386	0,101	0,069
-519,160	800,000	0,013	-0,034
-518,145	-134,894	0,056	0,005
-517,131	41,944	0,133	0,087
-516,116	800,000	0,036	-0,076
-515,102	-104,125	0,056	-0,009
-514,087	800,000	-0,062	-0,190
-513,072	488,144	-0,033	0,054
-512,058	-200,000	0,000	-0,024
-511,043	-200,000	0,008	-0,029
-510,029	800,000	0,024	0,055
-509,014	-200,000	0,003	0,013
-507,999	-200,000	-0,010	-0,096
-506,985	800,000	-0,070	-0,175
-505,970	-200,000	-0,008	-0,033
-504,956	800,000	0,047	-0,114
-503,941	-94,678	0,065	0,013
-502,926	69,233	-0,069	0,052
-501,912	800,000	0,031	0,077
-500,897	800,000	0,063	-0,141
-499,883	-200,000	-0,013	-0,068
-498,868	393,493	-0,078	-0,117
-497,853	-200,000	-0,001	0,017
-496,839	800,000	-0,008	0,023
-495,824	317,957	0,035	0,048
-494,810	-200,000	-0,002	-0,091
-493,795	140,200	0,145	0,138
-492,781	-200,000	0,008	0,082
-491,766	101,805	-0,051	-0,043
-490,751	800,000	-0,018	-0,037
-489,737	-83,839	-0,027	0,006
-488,722	568,871	0,073	0,129
-487,708	800,000	-0,051	0,123
-486,693	354,048	0,044	-0,064
-485,678	-200,000	-0,014	0,114
-484,664	-135,758	0,082	-0,007
-483,649	-3,504	-0,114	-0,057
-482,635	-21,149	0,052	-0,023
-481,620	230,755	0,065	0,077
-480,605	108,143	0,114	0,098
-479,591	92,476	0,101	-0,082
-478,576	-79,972	-0,067	-0,016
-477,562	546,162	-0,062	-0,108
-476,547	192,214	-0,033	-0,036
-475,532	31,334	-0,044	0,027
-474,518	-1,669	0,115	-0,058
-473,503	-94,111	-0,179	0,035
-472,489	800,000	-0,027	0,085
-471,474	141,851	0,056	0,053
-470,459	-200,000	-0,041	-0,147
-469,445	-77,916	-0,108	-0,027
-468,430	800,000	0,036	-0,080
-467,416	-136,558	0,256	-0,021
-466,401	325,450	-0,064	0,089
-465,386	-9,937	0,125	-0,060
-464,372	-130,454	0,048	-0,005
-463,357	-200,000	-0,005	0,024
-462,343	-0,982	-0,122	0,062
-461,328	789,531	-0,062	-0,124
-460,313	-200,000	0,026	-0,101
-459,299	270,277	-0,045	-0,058
-458,284	-134,666	-0,067	-0,006
-457,270	-78,761	0,058	0,014
-456,255	17,416	-0,090	-0,052
-455,241	206,147	-0,128	0,143
-454,226	364,672	0,091	-0,133
-453,211	-113,428	-0,081	-0,011
-452,197	800,000	-0,039	0,120
-451,182	-75,654	0,103	-0,026
-450,168	800,000	-0,049	0,144
-449,153	-200,000	-0,009	-0,062
-448,138	182,983	-0,083	-0,089
-447,124	291,186	-0,127	-0,166
-446,109	-21,029	-0,065	-0,029
-445,095	289,373	0,042	0,055
-444,080	289,980	0,111	0,145
-443,065	479,427	0,057	-0,094
-442,051	-33,574	-0,053	0,021
-441,036	72,182	-0,059	0,044
-440,022	-108,388	0,061	-0,009
-439,007	-200,000	-0,006	-0,129
-437,992	800,000	-0,005	0,012
-436,978	-61,429	0,052	-0,016
-435,963	-200,000	0,031	-0,136
-434,949	-81,199	-0,061	0,014
-433,934	-200,000	0,007	0,069
-432,919	-200,000	-0,020	0,205
-431,905	470,786	-0,005	-0,008
-430,890	47,650	0,097	-0,065
-429,876	-200,000	-0,000	0,098
-428,861	-97,400	0,046	-0,009
-427,846	-200,000	0,033	-0,106
-426,832	-200,000	0,008	0,142
-425,817	282,953	-0,019	0,024
-424,803	-152,190	-0,118	-0,006
-423,788	-120,553	0,135	0,016
-422,773	800,000	-0,004	-0,010
-421,759	-35,499	0,139	0,054
-420,744	-30,050	0,055	0,023
-419,730	342,802	-0,071	-0,100
-418,715	252,677	0,053	0,066
-417,701	-200,000	-0,008	0,106
-416,686	43,484	-0,079	0,052
-415,671	-200,000	0,021	0,000
-414,657	108,963	-0,040	0,034
-413,642	172,923	-0,067	-0,069
-412,628	-200,000	0,024	0,169
-411,613	-200,000	0,007	0,070
-410,598	-82,161	-0,021	-0,005
-409,584	551,966	-0,038	0,066
-408,569	-185,879	-0,156	-0,002
-407,555	13,929	0,087	-0,049
-406,540	800,000	-0,029	0,062
-405,525	123,024	0,035	0,032
-404,511	216,746	-0,059	-0,068
-403,496	-200,000	-0,009	0,069
-402,482	375,766	0,028	-0,041
-401,467	800,000	-0,013	0,030
-400,452	368,157	0,073	0,106
-399,438	-62,891	0,102	-0,030
-398,423	22,872	-0,065	-0,038
-397,409	7,612	-0,146	-0,078
-396,394	-73,007	0,037	-0,010
-395,379	-18,293	-0,020	0,009
-394,365	-200,000	-0,003	0,119
-393,350	130,375	0,129	0,119
-392,336	133,730	-0,057	0,053
-391,321	800,000	-0,018	-0,041
-390,306	171,631	-0,038	-0,039
-389,292	279,883	-0,116	-0,149
-388,277	70,987	-0,038	0,028
-387,263	176,751	0,039	0,041
-386,248	-88,905	0,081	-0,017
-385,233	-200,000	0,046	0,147
-384,219	-200,000	-0,022	0,126
-383,204	539,518	-0,029	-0,050
-382,190	-73,455	0,039	0,010
-381,175	-41,307	-0,096	-0,035
-380,160	89,869	0,078	-0,062
-379,146	800,000	-0,032	-0,077
-378,131	-86,910	-0,040	0,009
-377,117	-200,000	0,017	0,121
-376,102	-10,365	-0,091	0,043
-375,088	-74,601	-0,117	0,030
-374,073	-95,013	-0,035	-0,007
-373,058	-200,000	-0,011	-0,048
-372,044	90,536	0,201	0,162
-371,029	430,869	0,065	0,101
-370,015	9,810	-0,054	-0,029
-369,000	-200,000	-0,021	0,068
-367,985	198,543	-0,088	0,096
-366,971	501,338	-0,060	-0,100
-365,956	-77,513	-0,071	-0,018
-364,942	-35,007	0,087	-0,034
-363,927	171,374	-0,077	-0,080
-362,912	-40,460	0,133	0,049
-361,898	-31,112	-0,098	-0,040
-360,883	-200,000	0,003	0,049
-359,869	289,227	-0,053	-0,069
-358,854	-200,000	-0,000	-0,095
-357,839	-117,081	0,048	-0,006
-356,825	211,078	0,059	0,067
-355,810	369,238	0,091	-0,132
-354,796	800,000	-0,037	-0,104
-353,781	-200,000	0,000	-0,059
-352,766	117,348	-0,101	-0,089
-351,752	-200,000	-0,010	-0,167
-350,737	-6,919	-0,020	-0,010
-349,723	800,000	0,053	0,142
-348,708	800,000	-0,031	-0,085
-347,693	266,301	0,005	-0,007
-346,679	800,000	-0,017	-0,053
-345,664	-200,000	-0,004	-0,025
-344,650	1,134	-0,116	-0,060
-343,635	34,861	0,112	-0,070
-342,620	800,000	0,012	-0,033
-341,606	-64,175	-0,184	0,054
-340,591	-116,535	0,090	-0,012
-339,577	800,000	-0,047	-0,133
-338,562	-174,521	-0,068	-0,001
-337,548	-4,269	0,058	0,029
-336,533	-179,413	0,080	0,001
-335,518	-43,846	-0,061	0,022
-334,504	-200,000	0,037	0,120
-333,489	619,765	-0,100	-0,182
-332,475	-200,000	-0,013	-0,094
-331,460	-200,000	-0,003	-0,108
-330,445	193,513	0,174	0,190
-329,431	165,013	-0,053	0,053
-328,416	800,000	0,050	0,121
-327,402	162,354	-0,026	0,027
-326,387	-200,000	0,002	0,006
-325,372	800,000	0,017	-0,044
-324,358	514,785	-0,047	-0,078
-323,343	150,956	0,020	-0,020
-322,329	-67,835	0,208	0,058
-321,314	-71,546	0,096	-0,026
-320,299	800,000	0,029	0,092
-319,285	-137,696	-0,061	0,005
-318,270	40,694	-0,060	-0,039
-317,256	537,442	-0,068	-0,117
-316,241	-200,000	0,009	-0,098
-315,226	800,000	0,058	-0,123
-314,212	741,556	0,024	0,047
-313,197	-5,118	0,067	0,033
-312,183	-34,903	-0,049	0,019
-311,168	232,299	-0,045	0,053
-310,153	649,098	0,054	-0,099
-309,139	585,215	0,022	-0,038
-308,124	-119,130	0,051	-0,006
-307,110	-184,212	0,084	-0,001
-306,095	-22,645	0,114	0,049
-305,080	800,000	-0,009	-0,018
-304,066	67,755	-0,130	-0,095
-303,051	800,000	-0,017	-0,051
-302,037	-200,000	-0,021	-0,079
-301,022	144,338	-0,051	0,049
-300,008	-200,000	-0,029	0,107
-298,993	-200,000	0,049	0,162
-297,978	-200,000	-0,004	0,028
-296,964	800,000	-0,023	-0,048
-295,949	1,529	-0,062	-0,032
-294,935	44,371	-0,088	-0,058
-293,920	97,738	-0,137	0,113
-292,905	-108,108	-0,056	-0,009
-291,891	-200,000	-0,017	-0,113
-290,876	-200,000	0,011	0,098
-289,862	798,675	0,026	0,052
-288,847	778,764	0,043	-0,085
-287,832	174,179	0,058	-0,060
-286,818	-200,000	0,012	-0,045
-285,803	754,108	0,040	0,078
-284,789	154,781	0,074	0,073
-283,774	-117,194	0,084	-0,011
-282,759	479,023	0,077	-0,126
-281,745	-39,424	-0,107	0,040
-280,730	800,000	0,040	0,107
-279,716	281,595	0,072	-0,093
-278,701	-50,387	-0,085	-0,029
-277,686	228,167	0,113	0,132
-276,672	310,482	-0,114	0,153
-275,657	-200,000	0,010	-0,038
-274,643	-200,000	-0,012	0,131
-273,628	27,544	0,069	0,041
-272,613	177,871	-0,018	0,019
-271,599	800,000	0,009	0,023
-270,584	242,090	-0,037	0,044
-269,570	526,993	0,025	0,043
-268,555	800,000	-0,029	-0,087
-267,540	57,672	0,085	0,059
-266,526	260,275	-0,149	-0,184
-265,511	-13,251	-0,050	-0,023
-264,497	-17,748	0,109	0,049
-263,482	20,943	-0,074	0,043
-262,467	-200,000	-0,013	0,077
-261,453	800,000	0,043	0,126
-260,438	-200,000	-0,005	0,077
-259,424	800,000	-0,034	0,071
-258,409	-167,143	-0,057	0,002
-257,395	55,768	0,124	0,086
-256,380	276,173	0,080	-0,102
-255,365	340,170	-0,006	0,008
-254,351	800,000	-0,069	0,151
-253,336	234,494	-0,113	0,134
-252,322	-200,000	0,003	0,035
-251,307	-195,042	-0,013	0,000
-250,292	-200,000	0,052	0,179
-249,278	143,440	0,112	0,106
-248,263	345,354	0,059	0,084
-247,249	-200,000	0,000	0,040
-246,234	270,336	0,031	-0,039
-245,219	-64,982	-0,115	0,033
-244,205	417,821	-0,089	-0,137
-243,190	121,047	0,058	-0,051
-242,176	-24,933	-0,048	0,020
-241,161	220,185	-0,029	0,033
-240,146	-18,775	0,084	-0,037
-239,132	302,273	0,040	0,054
-238,117	-67,967	0,050	-0,014
-237,103	-200,000	-0,002	-0,058
-236,088	-131,127	-0,119	-0,011
-235,073	355,181	0,089	0,127
-234,059	106,926	-0,087	0,074
-233,044	-126,544	0,162	-0,017
-232,030	-200,000	-0,010	0,065
-231,015	-200,000	0,014	-0,112
-230,000	309,237	-0,043	0,057
-228,986	435,991	0,025	0,039
-227,971	737,231	0,023	-0,044
-226,957	-193,526	-0,134	0,001
-225,942	-131,547	0,062	0,006
-224,927	800,000	-0,019	-0,052
-223,913	-14,588	0,096	-0,044
-222,898	-200,000	0,014	0,048
-221,884	-36,268	0,043	-0,016
-220,869	-200,000	0,012	-0,038
-219,855	199,074	0,067	0,074
-218,840	-200,000	-0,004	-0,016
-217,825	800,000	-0,014	-0,029
-216,811	346,763	0,026	-0,037
-215,796	-200,000	-0,013	-0,047
-214,782	161,438	-0,015	0,015
-213,767	375,388	0,058	-0,084
-212,752	-36,200	-0,099	0,038
-211,738	-200,000	0,010	0,058
-210,723	95,412	-0,007	-0,006
-209,709	-100,823	0,020	0,004
-208,694	-42,267	0,111	-0,040
-207,679	86,471	-0,066	-0,052
-206,665	58,768	-0,185	-0,129
-205,650	800,000	-0,049	-0,115
-204,636	291,059	-0,017	-0,022
-203,621	-200,000	-0,012	0,057
-202,606	800,000	0,040	0,121
-201,592	618,551	-0,047	-0,084
-200,577	62,507	-0,060	0,042
-199,563	-20,078	0,020	-0,009
-198,548	-5,752	-0,114	-0,055
-197,533	-87,983	0,073	0,015
-196,519	-200,000	-0,008	0,074
-195,504	-161,375	0,086	0,003
-194,490	-35,812	-0,125	-0,048
-193,475	-36,017	0,093	-0,036
-192,460	262,313	0,041	-0,051
-191,446	-65,319	0,066	0,019
-190,431	-121,059	0,109	-0,013
-189,417	94,460	0,062	-0,050
-188,402	84,846	0,067	-0,052
-187,387	703,895	0,002	0,004
-186,373	-22,312	-0,067	-0,029
-185,358	-200,000	-0,026	0,108
-184,344	-171,597	-0,087	-0,002
-183,329	-177,802	0,026	-0,000
-182,315	388,438	-0,067	-0,099
-181,300	-113,904	0,023	0,003
-180,285	-200,000	0,021	0,177
-179,271	-200,000	-0,003	-0,045
-178,256	366,694	0,020	0,028
-177,242	-147,489	0,060	0,004
-176,227	457,427	-0,038	0,061
-175,212	-104,159	0,103	0,017
-174,198	546,580	0,046	0,078
-173,183	245,819	-0,042	-0,051
-172,169	-200,000	-0,001	-0,034
-171,154	-200,000	0,008	0,076
-170,139	0,927	0,048	0,025
-169,125	-6,785	0,104	0,050
-168,110	46,649	0,053	0,035
-167,096	-200,000	0,001	-0,030
-166,081	-22,330	-0,053	-0,023
-165,066	-200,000	-0,000	-0,076
-164,052	8,524	0,075	0,040
-163,037	-200,000	-0,016	0,063
-162,023	800,000	0,069	0,165
-161,008	-200,000	0,040	0,133
-159,993	-115,556	-0,030	-0,004
-158,979	318,922	0,079	-0,107
-157,964	305,483	0,076	-0,100
-156,950	192,095	-0,025	-0,027
-155,935	28,522	0,100	-0,060
-154,920	-36,727	0,139	-0,053
-153,906	318,632	0,051	0,069
-152,891	122,547	-0,071	0,063
-151,877	-200,000	0,027	-0,165
-150,862	-113,751	-0,109	0,015
-149,847	-65,394	0,104	0,030
-148,833	-47,833	0,028	-0,010
-147,818	611,805	-0,058	0,103
-146,804	-199,838	0,156	-0,001
-145,789	-19,545	0,065	-0,029
-144,775	372,356	-0,050	0,072
-143,760	800,000	-0,022	0,047
-142,745	-54,165	-0,042	0,013
-141,731	89,135	-0,069	0,054
-140,716	115,330	0,091	0,079
-139,702	-200,000	-0,025	0,138
-138,687	131,224	-0,019	-0,018
-137,672	21,203	0,109	-0,063
-136,658	6,974	-0,150	-0,080
-135,643	800,000	-0,069	-0,142
-134,629	499,545	-0,074	-0,121
-133,614	-120,101	0,019	0,002
-132,599	-63,722	-0,119	-0,034
-131,585	-80,211	-0,140	0,033
-130,570	-200,000	0,007	-0,055
-129,556	-148,669	-0,126	-0,007
-128,541	233,593	0,078	-0,091
-127,526	-19,426	-0,153	-0,067
-126,512	616,079	0,093	0,167
-125,497	273,095	-0,032	0,040
-124,483	-1,684	0,055	-0,027
-123,468	-61,631	0,041	0,012
-122,453	800,000	-0,025	-0,057
-121,439	-48,991	-0,075	-0,026
-120,424	55,547	0,119	-0,082
-119,410	-200,000	-0,015	-0,083
-118,395	-91,989	0,108	0,021
-117,380	800,000	0,033	-0,081
-116,366	-79,778	-0,036	0,009
-115,351	98,425	-0,100	-0,082
-114,337	800,000	-0,045	-0,131
-113,322	-200,000	0,001	-0,016
-112,307	-200,000	0,011	-0,067
-111,293	800,000	0,026	0,065
-110,278	18,161	0,089	0,050
-109,264	-67,155	0,028	0,008
-108,249	577,000	-0,061	0,107
-107,234	37,548	-0,085	-0,053
-106,220	-200,000	-0,011	0,060
-105,205	142,837	0,040	0,038
-104,191	539,700	-0,038	0,065
-103,176	-76,608	-0,089	-0,022
-102,162	-143,682	0,065	-0,004
-101,147	-200,000	0,038	-0,130
-100,132	384,735	-0,075	0,110
-99,118	-200,000	-0,008	-0,072
-98,103	338,670	0,074	0,103
-97,089	19,036	-0,098	0,056
-96,074	-51,996	0,156	0,051
-95,059	-200,000	-0,000	0,142
-94,045	800,000	0,027	0,061
-93,030	422,967	0,064	-0,098
-92,016	97,864	-0,042	0,034
-91,001	70,407	-0,026	-0,019
-89,986	94,910	-0,030	-0,024
-88,972	-200,000	0,003	0,107
-87,957	413,260	-0,067	-0,102
-86,943	-37,309	0,109	0,041
-85,928	36,446	-0,079	0,049
-84,913	290,242	0,042	-0,055
-83,899	-1,412	-0,060	0,030
-82,884	494,358	0,078	-0,127
-81,870	-200,000	0,006	0,045
-80,855	800,000	0,047	-0,098
-79,840	142,949	-0,018	-0,017
-78,826	800,000	0,070	-0,150
-77,811	-117,816	-0,046	-0,006
-76,797	1,249	-0,034	0,017
-75,782	142,116	0,093	0,088
-74,767	-69,427	0,051	-0,014
-73,753	451,739	-0,025	0,040
-72,738	-167,162	-0,055	0,002
-71,724	-200,000	0,003	-0,065
-70,709	-51,373	-0,082	0,027
-69,694	589,986	0,034	-0,060
-68,680	-120,003	-0,069	-0,008
-67,665	114,584	0,048	-0,042
-66,651	-66,261	0,097	0,027
-65,636	215,791	-0,077	0,087
-64,622	-200,000	-0,005	-0,045
-63,607	-200,000	-0,002	0,075
-62,592	-200,000	0,003	-0,022
-61,578	-82,063	-0,047	-0,011
-60,563	-200,000	-0,003	0,013
-59,549	-104,132	0,069	-0,011
-58,534	-58,750	-1,300	-0,397
-57,519	447,367	-1,564	-2,451
-56,505	-200,000	-0,440	-4,346
-55,490	115,629	0,881	0,765
-54,476	800,000	4,826	11,393
-53,461	-200,000	17,188	268,611
-52,446	800,000	714,514	2179,733
-51,432	552,254	1629,182	2787,342
-50,417	81,469	1655,055	1268,589
-49,403	24,457	1529,494	895,207
-48,388	18,443	1452,960	821,463
-47,373	18,564	1442,454	816,071
-46,359	18,290	1433,308	809,561
-45,344	16,779	1428,366	799,568
-44,330	16,685	1426,828	798,229
-43,315	16,719	1425,117	797,402
-42,300	16,757	1423,374	796,573
-41,286	16,797	1422,348	796,160
-40,271	16,764	1420,865	795,143
-39,257	16,690	1419,670	794,089
-38,242	16,767	1418,173	793,586
-37,227	16,805	1416,940	793,042
-36,213	16,799	1415,633	792,249
-35,198	16,723	1414,624	791,299
-34,184	16,783	1413,655	791,007
-33,169	16,693	1412,508	789,912
-32,154	16,766	1411,560	789,691
-31,140	16,783	1410,132	788,943
-30,125	16,769	1409,086	788,257
-29,111	16,759	1407,773	787,446
-28,096	16,686	1406,947	786,612
-27,082	16,628	1405,581	785,546
-26,067	16,656	1404,514	785,049
-25,052	16,730	1403,331	784,702
-24,038	16,678	1402,280	783,842
-23,023	16,672	1401,322	783,244
-22,009	16,619	1400,456	782,485
-20,994	16,600	1399,642	781,908
-19,979	16,594	1398,771	781,364
-18,965	16,622	1397,529	780,772
-17,950	16,584	1396,825	780,170
-16,936	16,627	1395,696	779,707
-15,921	16,622	1394,379	778,919
-14,906	16,575	1393,656	778,267
-13,892	16,628	1392,744	777,970
-12,877	16,598	1391,850	777,299
-11,863	16,589	1390,720	776,597
-10,848	16,612	1389,938	776,235
-9,833	16,560	1389,201	775,554
-8,819	16,501	1388,291	774,743
-7,804	16,479	1387,362	774,094
-6,790	16,462	1386,248	773,361
-5,775	16,483	1385,289	772,895
-4,760	16,412	1384,631	772,169
-3,746	16,447	1383,575	771,709
-2,731	16,413	1382,783	771,080
-1,717	16,440	1381,781	770,618
-0,702	16,424	1380,124	769,590
0,313	20,193	1301,762	743,269
1,327	36,586	707,770	442,164
2,342	56,518	125,794	86,623
3,356	5,195	16,621	8,656
4,371	-3,451	3,042	1,495
5,386	-21,927	0,461	0,198
6,400	347,112	-0,049	0,068
7,415	112,121	-0,269	-0,230
8,429	31,565	-0,259	-0,158
9,444	199,216	-0,258	-0,280
10,459	328,711	-0,195	-0,266
11,473	260,775	-0,219	-0,268
12,488	51,016	-0,281	-0,189
13,502	-10,454	-0,259	-0,121
14,517	220,001	-0,224	-0,254
15,531	130,802	-0,275	-0,250
16,546	102,725	-0,404	-0,335
17,561	29,634	-0,401	-0,241
18,575	-62,167	-0,189	-0,055
19,590	77,529	-0,300	-0,226
20,604	-1,342	-0,291	-0,145
21,619	104,896	-0,464	-0,388
22,634	142,912	-0,444	-0,418
23,648	100,310	-0,412	-0,338
24,663	137,162	-0,374	-0,346
25,677	154,395	-0,339	-0,330
26,692	115,145	-0,262	-0,226
27,707	109,255	-0,306	-0,259
28,721	106,471	-0,280	-0,235
29,736	-4,729	-0,414	-0,201
30,750	73,570	-0,496	-0,367
31,765	187,034	-0,320	-0,337
32,780	58,403	-0,359	-0,249
33,794	315,046	-0,254	-0,339
34,809	2,941	-0,406	-0,208
35,823	18,410	-0,367	-0,207
36,838	128,944	-0,361	-0,325
37,853	149,856	-0,419	-0,402
38,867	269,907	-0,356	-0,443
39,882	231,127	-0,369	-0,427
40,896	110,446	-0,386	-0,328
41,911	649,817	-0,184	-0,334
42,926	90,639	-0,357	-0,282
43,940	-10,458	-0,369	-0,172
44,955	-44,563	-0,350	-0,123
45,969	165,587	-0,208	-0,208
46,984	301,583	-0,279	-0,364
47,999	244,813	-0,229	-0,272
49,013	-10,894	-0,357	-0,166
50,028	56,836	-0,444	-0,305
51,042	10,976	-0,340	-0,183
52,057	89,439	-0,375	-0,295
53,071	107,247	-0,279	-0,234
54,086	129,861	-0,259	-0,234
55,101	200,814	-0,293	-0,318
56,115	30,042	-0,269	-0,161
57,130	175,256	-0,263	-0,269
58,144	119,213	-0,343	-0,299
59,159	-22,693	-0,525	-0,223
60,174	71,531	-0,368	-0,269
61,188	16,417	-0,448	-0,249
62,203	-36,925	-0,263	-0,099
63,217	4,615	-0,278	-0,143
64,232	66,913	-0,306	-0,220
65,247	108,179	-0,338	-0,284
66,261	-40,968	-0,300	-0,109
67,276	63,517	-0,314	-0,222
68,290	162,382	-0,290	-0,287
69,305	-69,381	-0,222	-0,060
70,320	87,967	-0,338	-0,264
71,334	-38,334	-0,380	-0,141
72,349	18,721	-0,428	-0,241
73,363	19,155	-0,408	-0,230
74,378	301,577	-0,212	-0,277
75,393	37,583	-0,378	-0,236
76,407	292,049	-0,222	-0,285
77,422	-39,496	-0,301	-0,110
78,436	4,587	-0,297	-0,153
79,451	-26,063	-0,356	-0,147
80,466	361,092	-0,268	-0,379
81,480	4,500	-0,283	-0,146
82,495	195,273	-0,205	-0,219
83,509	-28,855	-0,349	-0,140
84,524	-6,824	-0,244	-0,116
85,539	72,284	-0,263	-0,192
86,553	16,376	-0,268	-0,148
87,568	-74,171	-0,345	-0,087
88,582	31,168	-0,348	-0,209
89,597	-20,842	-0,310	-0,133
90,611	-78,212	-0,274	-0,066
91,626	135,271	-0,204	-0,187
92,641	24,776	-0,227	-0,132
93,655	36,512	-0,212	-0,132
94,670	-82,932	-0,297	-0,067
95,684	88,293	-0,269	-0,210
96,699	-86,330	-0,275	-0,059
97,714	-16,526	-0,267	-0,118
98,728	3,860	-0,366	-0,187
99,743	37,399	-0,292	-0,182
100,757	116,413	-0,168	-0,145
101,772	-43,412	-0,355	-0,125
102,787	125,686	-0,329	-0,292
103,801	170,206	-0,289	-0,291
104,816	5,630	-0,265	-0,137
105,830	-58,710	-0,375	-0,113
106,845	-200,000	-0,051	-0,164
107,860	75,460	-0,206	-0,152
108,874	8,925	-0,337	-0,178
109,889	56,901	-0,244	-0,167
110,903	-6,905	-0,215	-0,102
111,918	-45,649	-0,377	-0,130
112,933	164,769	-0,203	-0,201
113,947	136,825	-0,206	-0,189
114,962	-68,323	-0,325	-0,088
115,976	67,716	-0,382	-0,273
116,991	23,997	-0,303	-0,175
118,006	184,003	-0,298	-0,310
119,020	113,464	-0,193	-0,164
120,035	182,572	-0,209	-0,216
121,049	44,954	-0,248	-0,160
122,064	34,301	-0,228	-0,139
123,079	-50,190	-0,206	-0,068
124,093	38,769	-0,317	-0,198
125,108	81,188	-0,262	-0,199
126,122	265,467	-0,180	-0,221
127,137	76,631	-0,264	-0,196
128,151	34,962	-0,179	-0,110
129,166	118,580	-0,165	-0,143
130,181	-72,023	-0,315	-0,081
131,195	-7,904	-0,176	-0,083
132,210	-2,488	-0,223	-0,109
133,224	230,307	-0,235	-0,269
134,239	37,064	-0,272	-0,168
135,254	86,037	-0,223	-0,172
136,268	22,304	-0,271	-0,155
137,283	-176,418	-0,170	0,003
138,297	-29,346	-0,345	-0,138
139,312	465,018	-0,181	-0,285
140,327	627,387	-0,116	-0,207
141,341	-89,742	-0,179	-0,036
142,356	-153,787	-0,175	-0,008
143,370	-34,683	-0,365	-0,139
144,385	267,458	-0,290	-0,356
145,400	249,013	-0,189	-0,225
146,414	-8,506	-0,139	-0,065
147,429	222,811	-0,183	-0,207
148,443	3,720	-0,213	-0,108
149,458	164,467	-0,197	-0,194
150,473	193,913	-0,181	-0,192
151,487	800,000	0,017	-0,053
152,502	12,284	-0,247	-0,133
153,516	380,500	-0,235	-0,338
154,531	54,897	-0,275	-0,185
155,546	319,501	-0,194	-0,259
156,560	-52,372	-0,283	-0,091
157,575	184,380	-0,193	-0,200
158,589	194,600	-0,163	-0,173
159,604	236,079	-0,161	-0,187
160,619	223,697	-0,261	-0,295
161,633	84,643	-0,219	-0,168
162,648	43,331	-0,258	-0,164
163,662	298,599	-0,205	-0,264
164,677	105,792	-0,179	-0,148
165,692	-35,344	-0,249	-0,094
166,706	95,985	-0,292	-0,233
167,721	241,171	-0,236	-0,276
168,735	52,951	-0,211	-0,141
169,750	240,270	-0,170	-0,198
170,764	69,121	-0,126	-0,090
171,779	150,305	-0,201	-0,191
172,794	112,855	-0,210	-0,178
173,808	-107,369	-0,332	0,050
174,823	3,703	-0,348	-0,177
175,837	-48,981	-0,210	-0,070
176,852	42,149	-0,311	-0,197
177,867	233,769	-0,145	-0,167
178,881	-79,475	-0,166	-0,039
179,896	668,992	-0,121	-0,220
180,910	54,799	-0,188	-0,127
181,925	42,573	-0,243	-0,154
182,940	229,628	-0,241	-0,275
183,954	214,238	-0,265	-0,293
184,969	66,645	-0,177	-0,125
185,983	273,524	-0,054	-0,067
186,998	355,190	-0,148	-0,206
188,013	9,411	-0,189	-0,100
189,027	355,160	-0,190	-0,265
190,042	-61,227	-0,215	-0,063
191,056	85,992	-0,241	-0,185
192,071	86,607	-0,144	-0,111
193,086	330,674	-0,151	-0,203
194,100	401,212	-0,132	-0,193
195,115	286,164	-0,149	-0,188
196,129	-24,402	-0,271	-0,112
197,144	355,096	-0,211	-0,294
198,159	723,989	-0,074	-0,137
199,173	91,619	-0,222	-0,174
200,188	171,835	-0,230	-0,230
201,202	180,833	-0,226	-0,232
202,217	260,725	-0,181	-0,219
203,232	800,000	-0,130	-0,293
204,246	113,140	-0,295	-0,249
205,261	144,126	-0,268	-0,249
206,275	756,195	-0,098	-0,186
207,290	583,387	-0,068	-0,116
208,304	-49,923	-0,213	-0,070
209,319	-12,872	-0,147	-0,066
210,334	8,301	-0,221	-0,115
211,348	10,410	-0,266	-0,141
212,363	-200,000	-0,238	-0,000
213,377	121,357	-0,185	-0,161
214,392	659,435	-0,145	-0,260
215,407	44,783	-0,187	-0,119
216,421	-18,370	-0,135	-0,059
217,436	71,141	-0,293	-0,211
218,450	-44,483	-0,357	-0,123
219,465	-0,176	-0,217	-0,107
220,480	-61,670	-0,154	-0,044
221,494	-31,352	-0,248	-0,097
222,509	120,573	-0,155	-0,134
223,523	75,468	-0,134	-0,098
224,538	24,918	-0,124	-0,071
225,553	-114,130	-0,308	-0,041
226,567	-46,933	-0,219	-0,074
227,582	23,083	-0,196	-0,112
228,596	100,519	-0,188	-0,151
229,611	183,984	-0,162	-0,167
230,626	57,377	-0,151	-0,103
231,640	185,486	-0,193	-0,199
232,655	-64,064	-0,200	-0,056
233,669	72,646	-0,208	-0,151
234,684	431,431	-0,199	-0,301
235,699	340,243	-0,169	-0,230
236,713	-26,645	-0,112	-0,045
237,728	90,482	-0,165	-0,129
238,742	-83,807	-0,212	-0,047
239,757	-45,870	-0,216	-0,074
240,772	-26,109	-0,145	-0,059
241,786	-85,260	-0,202	-0,043
242,801	-24,185	-0,207	-0,086
243,815	64,175	-0,170	-0,119
244,830	606,030	-0,081	-0,141
245,844	31,498	-0,072	-0,043
246,859	-3,000	-0,232	-0,112
247,874	28,074	-0,140	-0,082
248,888	-16,651	-0,281	-0,123
249,903	-37,405	-0,235	-0,087
250,917	-46,525	-0,222	-0,075
251,932	800,000	-0,081	-0,237
252,947	68,802	-0,188	-0,133
253,961	511,431	-0,129	-0,209
254,976	-94,549	-0,322	-0,060
255,990	189,553	-0,218	-0,227
257,005	133,104	-0,193	-0,173
258,020	-42,768	-0,188	0,066
259,034	114,050	-0,142	-0,120
260,049	795,706	-0,157	-0,301
261,063	420,955	-0,154	-0,230
262,078	395,560	-0,142	-0,206
263,093	61,777	-0,236	-0,162
264,107	800,000	-0,098	-0,279
265,122	-58,262	-0,214	-0,064
266,136	-31,536	-0,186	-0,072
267,151	800,000	-0,092	-0,181
268,166	-18,868	-0,111	0,048
269,180	-14,550	-0,183	-0,081
270,195	160,598	-0,183	-0,177
271,209	167,295	-0,063	-0,062
272,224	26,855	-0,210	-0,122
273,239	-178,268	-0,082	-0,001
274,253	192,556	-0,073	-0,076
275,268	424,004	-0,167	-0,250
276,282	126,838	-0,255	-0,224
277,297	195,214	-0,208	-0,219
278,312	606,871	-0,118	-0,204
279,326	57,568	-0,197	-0,133
280,341	173,576	-0,153	-0,153
281,355	-69,558	-0,193	-0,051
282,370	800,000	-0,162	-0,332
283,384	169,446	-0,151	-0,150
284,399	66,094	-0,162	-0,114
285,414	212,614	-0,152	-0,166
286,428	454,996	-0,175	-0,269
287,443	189,486	-0,136	-0,141
288,457	46,775	-0,126	-0,081
289,472	-71,202	-0,150	0,039
290,487	-61,634	-0,203	-0,058
291,501	390,373	-0,137	-0,197
292,516	-14,324	-0,187	-0,083
293,530	-200,000	0,010	-0,191
294,545	-200,000	-0,074	-0,000
295,560	388,730	-0,131	-0,188
296,574	73,415	-0,178	-0,129
297,589	3,156	-0,202	-0,101
298,603	377,432	-0,145	-0,206
299,618	-44,699	-0,237	-0,081
300,633	486,806	-0,136	-0,216
301,647	391,568	-0,143	-0,206
302,662	66,305	-0,223	-0,156
303,676	800,000	-0,094	-0,252
304,691	325,963	-0,140	-0,186
305,706	119,268	-0,290	-0,248
306,720	568,475	-0,124	-0,209
307,735	800,000	0,055	-0,136
308,749	-3,665	-0,078	0,037
309,764	107,065	-0,124	-0,101
310,779	586,049	-0,037	-0,063
311,793	317,202	-0,178	-0,233
312,808	301,734	-0,208	-0,266
313,822	177,319	-0,208	-0,210
314,837	95,989	-0,110	-0,087
315,852	-200,000	0,063	-0,246
316,866	89,634	-0,106	-0,082
317,881	-128,523	-0,173	0,017
318,895	254,348	-0,049	-0,058
319,910	10,849	-0,160	-0,084
320,925	411,175	-0,190	-0,279
321,939	800,000	-0,101	-0,275
322,954	-141,213	-0,205	0,014
323,968	-56,540	-0,141	-0,043
324,983	198,227	-0,095	-0,100
325,997	35,064	-0,095	-0,057
327,012	513,173	-0,085	-0,138
328,027	-39,045	-0,152	0,055
329,041	-139,353	-0,190	0,014
330,056	-38,233	-0,173	-0,063
331,070	358,516	-0,185	-0,255
332,085	195,455	-0,106	-0,111
333,100	-200,000	0,017	0,094
334,114	628,124	-0,145	-0,254
335,129	375,415	-0,129	-0,181
336,143	-200,000	-0,036	-0,135
337,158	6,838	-0,129	-0,066
338,173	-12,123	-0,083	0,037
339,187	-23,147	-0,230	-0,095
340,202	-174,356	-0,100	0,002
341,216	94,070	-0,206	-0,160
342,231	24,463	0,025	0,014
343,246	800,000	-0,094	-0,214
344,260	146,094	-0,097	-0,090
345,275	-200,000	-0,017	-0,052
346,289	-150,590	-0,163	0,008
347,304	3,092	-0,113	-0,056
348,319	-200,000	-0,249	-0,001
349,333	91,586	-0,133	-0,103
350,348	-33,246	-0,156	0,059
351,362	-162,189	-0,148	0,005
352,377	-200,000	-0,047	-0,198
353,392	-9,410	-0,130	0,060
354,406	731,550	-0,112	-0,207
355,421	210,067	1315,196	1420,504
356,435	161,699	1476,029	1421,036
