DTS Sentinel unit serial number:	SN410029Multiplexer serial number:	ORYXHardware model number:	OX2-SRSoftware version number:	ORYX F/W v4,00 Oryx Data Collector v3.7.2.0data status	okinstallation	B3 Nyhavnadifferential loss correction	single-endedforward channel	channel 1reverse channel	N/Adate	2023/12/05time	01:27:30forward acquisition time	300,00reverse acquisition time	0,00gamma	499,1914k internal	0,3201k external	0,3201temperature offset calibration	1,0000default loss term (dB/km)	0,3820temperature slope calibration	1,0000multiplexer offset coefficient	1,0000multiplexer slope coefficient	1,0000fibre end	0,00T internal ref (°C)	13,81T ext. ref 1 (°C)	-0,98T ext. ref 2 (°C)	-1,01length (m)	temperature (°C)	Stokes	anti-Stokes-744,400	303,246	-0,172	-0,232
-743,385	-200,000	0,051	0,256
-742,371	-200,000	-0,014	-0,052
-741,356	-200,000	0,095	0,380
-740,342	231,653	-0,166	-0,198
-739,327	-200,000	-0,039	0,310
-738,312	-200,000	-0,057	-0,259
-737,298	-200,000	-0,039	0,199
-736,283	-2,890	-0,134	-0,068
-735,269	800,000	-0,085	0,240
-734,254	421,770	-0,111	-0,174
-733,239	-11,281	-0,193	0,092
-732,225	800,000	-0,094	-0,280
-731,210	242,843	0,106	0,130
-730,196	-72,449	0,002	0,000
-729,181	-104,164	0,134	-0,022
-728,167	165,528	0,095	-0,098
-727,152	-200,000	0,000	-0,077
-726,137	303,960	-0,051	-0,069
-725,123	-200,000	-0,004	-0,021
-724,108	188,893	-0,087	-0,095
-723,094	-200,000	-0,003	-0,080
-722,079	535,380	-0,044	0,075
-721,064	-100,041	-0,039	-0,007
-720,050	800,000	0,026	-0,057
-719,035	-2,856	-0,012	-0,006
-718,021	800,000	-0,023	0,054
-717,006	-187,681	-0,081	-0,001
-715,991	578,096	0,037	-0,066
-714,977	-200,000	0,024	-0,184
-713,962	-96,560	-0,142	0,027
-712,948	-74,825	-0,016	-0,004
-711,933	-200,000	0,002	0,057
-710,918	89,294	0,059	0,048
-709,904	-129,129	-0,078	0,008
-708,889	-59,488	-0,134	-0,042
-707,875	800,000	-0,040	-0,119
-706,860	-40,894	-0,084	0,031
-705,845	-89,876	-0,051	-0,011
-704,831	32,203	-0,073	-0,045
-703,816	117,548	-0,023	-0,021
-702,802	6,087	-0,123	-0,066
-701,787	-200,000	-0,004	-0,122
-700,772	20,777	-0,110	-0,065
-699,758	-200,000	-0,006	-0,082
-698,743	221,465	-0,145	-0,169
-697,729	77,238	-0,043	-0,033
-696,714	-200,000	0,016	0,081
-695,699	321,220	-0,024	0,033
-694,685	795,961	-0,017	-0,035
-693,670	67,823	-0,072	0,054
-692,656	-87,537	-0,137	0,030
-691,641	704,608	0,012	0,023
-690,627	4,550	0,048	0,026
-689,612	-100,301	-0,096	0,017
-688,597	-22,846	-0,038	0,017
-687,583	-200,000	0,004	-0,024
-686,568	8,616	-0,040	-0,022
-685,554	-200,000	-0,015	-0,108
-684,539	468,631	0,044	-0,072
-683,524	295,794	0,065	0,087
-682,510	40,772	-0,042	0,027
-681,495	-21,977	0,070	0,031
-680,481	-200,000	0,018	-0,106
-679,466	800,000	-0,045	-0,092
-678,451	-200,000	-0,008	-0,108
-677,437	-45,172	0,032	0,012
-676,422	800,000	0,032	0,074
-675,408	379,665	0,093	0,138
-674,393	-58,917	-0,044	0,014
-673,378	-200,000	0,013	0,092
-672,364	225,821	-0,116	-0,137
-671,349	-200,000	0,002	-0,189
-670,335	15,170	-0,078	-0,044
-669,320	134,848	0,088	0,083
-668,305	-200,000	-0,002	-0,061
-667,291	-30,839	-0,233	-0,095
-666,276	-200,000	-0,012	-0,071
-665,262	-200,000	-0,029	-0,142
-664,247	-165,539	-0,150	-0,005
-663,232	-46,913	0,163	0,058
-662,218	756,214	0,032	-0,063
-661,203	-78,736	-0,061	0,015
-660,189	800,000	0,060	0,155
-659,174	-200,000	0,001	0,025
-658,159	-121,456	-0,111	0,013
-657,145	-200,000	-0,012	-0,047
-656,130	626,659	-0,028	-0,052
-655,116	601,047	0,053	0,096
-654,101	-200,000	0,054	0,226
-653,086	159,482	0,071	-0,071
-652,072	-200,000	-0,018	0,060
-651,057	229,308	-0,012	-0,014
-650,043	107,582	0,025	-0,022
-649,028	800,000	-0,019	0,042
-648,014	-200,000	0,018	0,069
-646,999	8,376	0,045	-0,024
-645,984	347,910	-0,042	-0,061
-644,970	-200,000	0,006	0,032
-643,955	800,000	-0,047	0,109
-642,941	-200,000	-0,039	-0,181
-641,926	800,000	0,047	-0,143
-640,911	800,000	0,032	0,083
-639,897	-114,847	-0,088	-0,012
-638,882	800,000	-0,037	-0,087
-637,868	157,766	0,072	-0,072
-636,853	-105,741	-0,100	0,016
-635,838	800,000	-0,023	-0,053
-634,824	-76,308	0,100	-0,025
-633,809	-104,643	0,189	0,031
-632,795	-14,941	0,181	0,084
-631,780	565,161	0,011	-0,020
-630,765	7,061	-0,122	-0,066
-629,751	669,609	0,052	-0,098
-628,736	-200,000	0,007	-0,101
-627,722	-200,000	0,012	-0,190
-626,707	-45,682	0,100	-0,036
-625,692	-107,154	0,042	0,007
-624,678	85,303	0,007	0,005
-623,663	95,380	0,140	0,115
-622,649	800,000	-0,030	0,069
-621,634	-200,000	0,042	-0,194
-620,619	216,260	-0,132	-0,153
-619,605	-200,000	0,030	0,116
-618,590	-200,000	0,020	0,131
-617,576	594,919	-0,100	-0,179
-616,561	-200,000	0,019	-0,151
-615,546	-200,000	-0,046	-0,159
-614,532	-200,000	0,002	-0,103
-613,517	-200,000	-0,003	-0,135
-612,503	478,677	-0,082	0,134
-611,488	210,956	0,122	0,139
-610,474	8,800	-0,061	-0,033
-609,459	-200,000	-0,009	0,062
-608,444	-200,000	-0,030	0,129
-607,430	231,348	-0,038	0,045
-606,415	-200,000	0,014	-0,090
-605,401	119,948	-0,092	-0,083
-604,386	81,043	0,049	0,038
-603,371	169,016	-0,060	0,062
-602,357	35,351	0,116	0,073
-601,342	277,311	-0,049	0,063
-600,328	-127,648	0,073	0,007
-599,313	134,988	-0,055	0,052
-598,298	-55,936	-0,130	0,042
-597,284	-51,367	0,144	-0,048
-596,269	79,422	0,124	0,096
-595,255	271,070	-0,047	0,060
-594,240	-200,000	-0,007	-0,037
-593,225	58,735	-0,027	-0,019
-592,211	-200,000	-0,013	-0,063
-591,196	-200,000	0,013	-0,146
-590,182	38,234	0,141	0,091
-589,167	-48,506	0,017	-0,006
-588,152	-200,000	0,003	-0,011
-587,138	800,000	0,038	-0,095
-586,123	148,312	-0,013	-0,013
-585,109	-102,593	-0,085	-0,015
-584,094	158,892	-0,086	-0,087
-583,079	90,124	-0,102	0,082
-582,065	-129,457	0,153	0,015
-581,050	405,666	-0,012	0,019
-580,036	-200,000	-0,040	0,162
-579,021	800,000	-0,032	-0,073
-578,006	-71,775	-0,043	-0,012
-576,992	168,623	-0,043	-0,044
-575,977	-106,350	-0,046	-0,007
-574,963	-200,000	0,026	-0,143
-573,948	-143,630	-0,125	0,008
-572,934	-144,953	-0,171	-0,011
-571,919	-127,138	-0,025	-0,003
-570,904	176,761	-0,074	-0,077
-569,890	-108,872	0,069	0,011
-568,875	800,000	0,010	0,029
-567,861	55,015	-0,060	0,042
-566,846	19,936	0,130	0,076
-565,831	-90,738	0,100	-0,021
-564,817	384,155	-0,029	-0,044
-563,802	135,198	0,104	-0,098
-562,788	-19,158	0,027	-0,012
-561,773	-95,593	-0,038	0,007
-560,758	-200,000	-0,005	0,042
-559,744	-200,000	-0,014	-0,151
-558,729	215,192	0,039	0,044
-557,715	-200,000	0,014	-0,146
-556,700	151,238	-0,076	0,075
-555,685	-3,560	-0,083	-0,042
-554,671	760,332	-0,047	-0,092
-553,656	-200,000	-0,019	-0,067
-552,642	360,727	0,039	-0,056
-551,627	187,695	-0,046	0,050
-550,612	76,819	-0,052	-0,040
-549,598	283,238	-0,060	-0,078
-548,583	-42,466	-0,029	-0,011
-547,569	-200,000	-0,021	-0,169
-546,554	-99,507	0,127	0,023
-545,539	-200,000	0,006	0,022
-544,525	-127,198	-0,108	0,011
-543,510	-52,353	-0,142	0,047
-542,496	49,116	-0,023	-0,016
-541,481	-200,000	-0,005	-0,055
-540,466	245,565	0,037	0,045
-539,452	-200,000	0,016	0,069
-538,437	-200,000	0,070	0,244
-537,423	800,000	-0,054	0,117
-536,408	71,346	0,077	0,058
-535,393	5,378	0,109	-0,058
-534,379	625,201	-0,085	-0,155
-533,364	800,000	-0,035	0,092
-532,350	63,196	0,119	0,086
-531,335	-200,000	0,030	-0,126
-530,321	-200,000	-0,004	0,027
-529,306	5,262	0,082	-0,043
-528,291	353,893	0,049	0,071
-527,277	-3,585	0,063	-0,031
-526,262	275,447	0,022	0,028
-525,248	-19,317	-0,068	0,030
-524,233	11,312	0,100	-0,055
-523,218	148,495	0,123	0,120
-522,204	329,453	0,011	-0,015
-521,189	-46,044	-0,105	0,037
-520,175	-200,000	0,005	-0,101
-519,160	438,343	0,045	-0,072
-518,145	800,000	0,053	-0,148
-517,131	450,365	0,011	-0,017
-516,116	-200,000	-0,005	0,015
-515,102	-179,347	0,051	0,001
-514,087	-115,644	-0,166	0,022
-513,072	-200,000	0,013	0,052
-512,058	-86,045	-0,020	-0,004
-511,043	-137,200	-0,209	0,017
-510,029	-200,000	-0,025	0,146
-509,014	-200,000	0,023	0,140
-507,999	-99,421	0,160	0,029
-506,985	251,167	0,013	-0,016
-505,970	109,588	-0,067	0,058
-504,956	-200,000	-0,008	0,040
-503,941	800,000	0,038	0,106
-502,926	-127,190	0,078	0,008
-501,912	60,686	-0,095	0,068
-500,897	-55,649	-0,103	-0,033
-499,883	-12,681	-0,109	-0,051
-498,868	-200,000	0,013	-0,150
-497,853	57,605	0,074	0,052
-496,839	-79,196	-0,090	0,022
-495,824	-200,000	0,042	0,169
-494,810	-200,000	0,031	0,102
-493,795	782,004	0,056	0,110
-492,781	480,389	-0,017	0,027
-491,766	800,000	0,014	-0,031
-490,751	-61,871	-0,068	-0,020
-489,737	164,531	-0,028	-0,029
-488,722	800,000	0,002	-0,006
-487,708	-3,727	-0,099	-0,050
-486,693	-200,000	-0,034	-0,163
-485,678	-200,000	0,018	-0,191
-484,664	451,786	0,065	-0,104
-483,649	-7,573	-0,134	-0,065
-482,635	600,202	0,068	-0,122
-481,620	116,024	0,057	0,050
-480,605	336,589	0,093	0,131
-479,591	800,000	0,031	0,068
-478,576	-200,000	0,024	-0,082
-477,562	266,196	-0,077	-0,097
-476,547	80,159	-0,121	-0,093
-475,532	-80,962	0,053	-0,013
-474,518	800,000	0,038	0,102
-473,503	-183,914	0,091	0,001
-472,489	-200,000	0,006	0,048
-471,474	-115,967	-0,109	0,014
-470,459	-200,000	-0,009	-0,051
-469,445	134,531	-0,070	-0,065
-468,430	123,817	0,037	0,033
-467,416	-200,000	0,008	0,040
-466,401	-165,039	0,178	-0,006
-465,386	-200,000	-0,008	0,138
-464,372	-200,000	0,023	0,078
-463,357	121,892	-0,028	0,025
-462,343	313,238	-0,041	-0,056
-461,328	-84,845	-0,045	0,010
-460,313	181,168	-0,031	-0,033
-459,299	83,434	-0,023	0,018
-458,284	-19,087	0,043	-0,019
-457,270	-200,000	0,043	-0,148
-456,255	-200,000	-0,014	0,141
-455,241	723,712	-0,094	-0,180
-454,226	800,000	0,051	-0,126
-453,211	385,208	-0,079	0,118
-452,197	574,800	0,040	0,071
-451,182	-200,000	-0,002	0,021
-450,168	-200,000	-0,001	-0,074
-449,153	-21,088	-0,057	0,025
-448,138	800,000	-0,037	-0,098
-447,124	9,019	0,036	0,020
-446,109	-107,503	-0,072	-0,011
-445,095	559,853	0,060	-0,104
-444,080	800,000	-0,046	0,100
-443,065	-142,627	0,081	0,006
-442,051	-73,782	-0,102	-0,026
-441,036	-200,000	-0,011	0,121
-440,022	116,354	-0,134	0,118
-439,007	224,695	0,058	-0,068
-437,992	262,883	0,067	-0,084
-436,978	-200,000	-0,005	0,096
-435,963	-200,000	0,009	0,161
-434,949	251,647	-0,032	-0,039
-433,934	-200,000	0,015	-0,128
-432,919	140,723	-0,079	-0,075
-431,905	-200,000	0,014	-0,076
-430,890	-20,767	0,042	0,018
-429,876	-120,748	-0,086	0,010
-428,861	73,365	0,123	0,093
-427,846	-200,000	-0,005	0,054
-426,832	115,674	-0,106	0,093
-425,817	41,679	-0,113	-0,073
-424,803	774,831	-0,066	0,130
-423,788	-119,192	0,041	0,005
-422,773	353,612	0,075	0,107
-421,759	-72,221	-0,112	0,030
-420,744	-200,000	-0,041	-0,157
-419,730	400,962	0,066	-0,100
-418,715	800,000	-0,053	-0,131
-417,701	800,000	0,022	-0,059
-416,686	-92,475	-0,036	0,007
-415,671	800,000	0,025	-0,077
-414,657	399,059	-0,055	-0,082
-413,642	325,535	-0,058	0,079
-412,628	-8,496	-0,050	-0,024
-411,613	-129,190	-0,016	0,002
-410,598	-200,000	-0,005	0,133
-409,584	-26,227	-0,063	0,027
-408,569	-200,000	0,016	-0,074
-407,555	-200,000	0,008	0,039
-406,540	-115,502	0,087	0,012
-405,525	-148,175	0,016	-0,001
-404,511	-200,000	0,020	-0,076
-403,496	21,363	0,052	0,030
-402,482	-49,490	-0,076	0,026
-401,467	-124,432	0,053	-0,006
-400,452	50,863	0,060	0,041
-399,438	-200,000	0,004	-0,022
-398,423	-200,000	-0,001	-0,010
-397,409	-52,839	-0,150	0,049
-396,394	87,769	0,139	-0,110
-395,379	-123,859	0,115	0,013
-394,365	209,446	-0,028	0,032
-393,350	-200,000	-0,005	0,097
-392,336	-200,000	0,009	-0,068
-391,321	520,105	-0,059	-0,099
-390,306	-200,000	-0,024	0,140
-389,292	-134,050	-0,049	-0,004
-388,277	800,000	0,022	0,067
-387,263	800,000	0,128	0,273
-386,248	-182,602	0,144	-0,002
-385,233	114,591	-0,087	0,076
-384,219	800,000	0,032	0,071
-383,204	-200,000	-0,013	0,064
-382,190	34,338	-0,065	-0,041
-381,175	-100,579	-0,059	0,010
-380,160	-200,000	-0,020	0,075
-379,146	-200,000	-0,016	0,058
-378,131	800,000	0,067	0,157
-377,117	-158,316	-0,144	-0,006
-376,102	-132,939	-0,190	-0,017
-375,088	800,000	0,038	-0,108
-374,073	27,453	0,078	-0,047
-373,058	198,587	0,016	0,018
-372,044	129,581	0,068	0,062
-371,029	-153,992	0,143	0,007
-370,015	-200,000	-0,012	-0,168
-369,000	-13,435	-0,122	-0,056
-367,985	-200,000	-0,027	-0,114
-366,971	-155,797	0,140	0,006
-365,956	-200,000	-0,033	0,166
-364,942	800,000	-0,039	0,092
-363,927	-61,120	-0,118	-0,035
-362,912	505,517	0,036	0,060
-361,898	-86,047	0,118	-0,026
-360,883	30,449	-0,046	-0,028
-359,869	373,049	0,034	-0,050
-358,854	94,250	0,045	0,037
-357,839	800,000	-0,013	-0,040
-356,825	-200,000	-0,019	0,094
-355,810	-32,335	-0,058	-0,023
-354,796	800,000	-0,028	-0,071
-353,781	-108,483	-0,067	-0,010
-352,766	800,000	0,026	-0,082
-351,752	-200,000	0,021	-0,132
-350,737	-200,000	-0,037	-0,122
-349,723	52,520	0,132	0,090
-348,708	-103,432	0,055	0,009
-347,693	800,000	-0,046	0,129
-346,679	-158,308	-0,099	-0,004
-345,664	800,000	-0,039	0,105
-344,650	88,007	0,044	0,035
-343,635	-200,000	0,032	-0,112
-342,620	-55,762	0,094	-0,030
-341,606	142,105	-0,049	0,047
-340,591	-71,227	-0,135	0,036
-339,577	-128,981	-0,031	-0,003
-338,562	-148,275	-0,088	0,005
-337,548	-16,013	0,059	0,027
-336,533	-0,157	0,044	0,022
-335,518	9,595	-0,011	-0,006
-334,504	-200,000	-0,001	0,275
-333,489	107,420	0,017	-0,014
-332,475	-200,000	-0,022	-0,095
-331,460	-200,000	0,003	-0,039
-330,445	415,417	0,055	-0,084
-329,431	523,856	0,048	-0,081
-328,416	165,499	-0,044	-0,044
-327,402	-200,000	0,001	0,067
-326,387	-58,100	-0,069	0,021
-325,372	-31,034	-0,073	-0,029
-324,358	276,044	-0,060	0,076
-323,343	-10,954	-0,106	-0,050
-322,329	-135,314	0,023	-0,002
-321,314	-200,000	-0,017	0,089
-320,299	150,877	0,020	-0,019
-319,285	21,277	-0,059	-0,034
-318,270	-24,901	0,104	0,044
-317,256	-200,000	-0,010	-0,063
-316,241	-200,000	-0,020	-0,071
-315,226	253,691	0,095	-0,117
-314,212	-74,592	0,140	-0,036
-313,197	214,512	-0,093	0,106
-312,183	83,727	0,015	-0,011
-311,168	68,197	-0,098	0,072
-310,153	-200,000	-0,015	0,113
-309,139	-200,000	0,018	-0,059
-308,124	-120,304	0,035	-0,004
-307,110	-71,233	-0,105	0,028
-306,095	146,436	0,055	0,053
-305,080	473,765	-0,025	0,040
-304,066	51,564	-0,088	0,060
-303,051	-150,152	0,103	0,006
-302,037	67,325	0,054	-0,039
-301,022	-200,000	0,059	-0,193
-300,008	80,918	-0,131	0,101
-298,993	-19,526	0,219	0,096
-297,978	800,000	0,024	-0,050
-296,964	184,819	0,138	0,146
-295,949	-200,000	0,020	0,120
-294,935	-123,719	-0,224	0,025
-293,920	-200,000	0,012	0,132
-292,905	-38,534	0,145	0,055
-291,891	127,154	0,065	-0,059
-290,876	335,554	-0,081	0,112
-289,862	438,346	-0,016	-0,026
-288,847	-147,356	-0,152	-0,009
-287,832	-200,000	-0,006	-0,136
-286,818	184,242	0,051	-0,054
-285,803	-24,228	0,049	0,021
-284,789	245,320	-0,066	0,080
-283,774	-70,005	-0,087	0,023
-282,759	34,481	0,073	0,045
-281,745	800,000	0,007	-0,020
-280,730	-200,000	0,012	-0,065
-279,716	800,000	0,039	-0,113
-278,701	323,411	0,035	0,048
-277,686	-48,175	0,209	-0,072
-276,672	-117,482	0,114	0,015
-275,657	-104,937	0,139	-0,023
-274,643	72,260	-0,116	0,086
-273,628	-59,567	0,039	0,012
-272,613	-97,684	0,031	-0,006
-271,599	-200,000	0,006	-0,049
-270,584	-21,160	0,074	0,032
-269,570	316,305	0,127	0,171
-268,555	625,800	-0,048	0,087
-267,540	-115,771	-0,129	0,017
-266,526	800,000	-0,053	-0,161
-265,511	800,000	-0,072	-0,149
-264,497	234,074	0,013	-0,016
-263,482	-55,400	0,110	-0,035
-262,467	-51,383	0,078	-0,026
-261,453	98,902	0,083	0,068
-260,438	176,493	0,016	-0,017
-259,424	-200,000	0,006	-0,054
-258,409	-200,000	-0,009	0,147
-257,395	9,165	0,099	-0,053
-256,380	535,143	0,018	0,031
-255,365	-200,000	0,033	0,164
-254,351	-200,000	0,032	0,134
-253,336	471,638	0,036	-0,058
-252,322	-8,325	-0,102	0,049
-251,307	32,407	0,085	0,052
-250,292	-90,731	0,093	0,019
-249,278	121,223	0,047	0,042
-248,263	75,598	0,041	0,031
-247,249	-200,000	-0,025	0,170
-246,234	440,538	-0,064	-0,100
-245,219	1,611	-0,053	-0,027
-244,205	49,894	0,098	0,066
-243,190	-154,274	-0,111	-0,005
-242,176	-200,000	0,012	0,098
-241,161	-147,899	0,058	0,003
-240,146	348,228	-0,064	-0,090
-239,132	65,827	0,072	0,052
-238,117	201,590	0,065	0,072
-237,103	291,408	-0,070	0,091
-236,088	-200,000	0,009	-0,090
-235,073	699,958	-0,044	0,083
-234,059	-107,104	0,106	0,017
-233,044	281,205	-0,104	-0,133
-232,030	-200,000	0,007	-0,035
-231,015	541,009	0,053	0,090
-230,000	-200,000	0,001	0,022
-228,986	249,522	0,049	0,059
-227,971	212,008	-0,043	-0,048
-226,957	-95,715	-0,036	-0,007
-225,942	671,887	0,080	0,148
-224,927	-88,233	0,206	0,044
-223,913	261,809	-0,050	0,062
-222,898	-200,000	0,017	0,088
-221,884	327,787	0,058	-0,080
-220,869	800,000	-0,053	-0,143
-219,855	-200,000	0,037	-0,116
-218,840	35,093	0,081	0,050
-217,825	108,936	-0,098	0,084
-216,811	-200,000	-0,042	-0,182
-215,796	12,343	-0,089	0,049
-214,782	76,372	0,072	-0,054
-213,767	-26,948	0,103	-0,043
-212,752	59,616	-0,148	0,104
-211,738	513,321	-0,013	0,021
-210,723	41,377	0,047	0,030
-209,709	-200,000	0,001	-0,135
-208,694	-103,429	-0,056	-0,009
-207,679	-200,000	-0,006	0,046
-206,665	129,461	0,132	-0,120
-205,650	800,000	0,064	-0,130
-204,636	-174,319	0,018	0,000
-203,621	-200,000	0,028	0,107
-202,606	625,778	0,077	0,139
-201,592	-38,805	-0,134	-0,050
-200,577	416,034	-0,045	-0,068
-199,563	-146,388	-0,101	-0,006
-198,548	117,919	-0,132	-0,116
-197,533	-117,190	0,087	0,011
-196,519	371,217	0,044	-0,064
-195,504	258,814	0,058	0,071
-194,490	-1,083	-0,170	-0,085
-193,475	-90,504	0,068	0,014
-192,460	-200,000	0,009	0,126
-191,446	-166,033	0,134	0,004
-190,431	196,291	0,058	0,063
-189,417	-138,549	-0,042	-0,003
-188,402	48,467	-0,030	0,020
-187,387	615,230	-0,073	-0,130
-186,373	800,000	-0,040	-0,094
-185,358	-111,063	0,074	0,011
-184,344	-63,594	-0,040	0,012
-183,329	120,790	0,130	-0,115
-182,315	-95,223	0,126	-0,024
-181,300	21,387	-0,088	-0,051
-180,285	-200,000	0,020	-0,106
-179,271	8,859	-0,081	0,043
-178,256	349,094	-0,013	0,019
-177,242	534,442	0,028	0,048
-176,227	45,977	-0,038	0,025
-175,212	-200,000	0,032	0,102
-174,198	-124,581	-0,125	-0,014
-173,183	161,036	-0,056	0,056
-172,169	-200,000	-0,020	-0,112
-171,154	-200,000	-0,018	-0,076
-170,139	1,736	0,064	-0,032
-169,125	-159,737	0,028	0,001
-168,110	40,406	0,054	-0,034
-167,096	-100,291	0,065	-0,011
-166,081	-66,927	-0,059	-0,017
-165,066	-42,193	0,127	-0,046
-164,052	800,000	-0,036	0,071
-163,037	-65,977	-0,071	0,020
-162,023	362,546	0,049	0,069
-161,008	4,898	-0,016	-0,008
-159,993	108,719	-0,019	0,016
-158,979	-200,000	-0,001	-0,098
-157,964	-65,475	-0,124	0,035
-156,950	-140,568	-0,070	-0,005
-155,935	-46,420	-0,088	0,030
-154,920	-46,251	-0,066	-0,023
-153,906	800,000	-0,016	0,042
-152,891	-40,620	-0,085	0,031
-151,877	-200,000	0,004	0,125
-150,862	334,269	0,085	-0,117
-149,847	491,099	0,086	0,141
-148,833	-200,000	-0,002	0,115
-147,818	-12,616	0,042	0,019
-146,804	-200,000	-0,021	0,146
-145,789	800,000	-0,033	-0,067
-144,775	209,394	0,066	0,074
-143,760	21,713	-0,123	0,071
-142,745	-200,000	-0,002	-0,035
-141,731	-28,849	0,060	-0,024
-140,716	-200,000	-0,022	0,084
-139,702	-200,000	0,021	0,084
-138,687	-200,000	0,023	0,134
-137,672	61,481	-0,045	-0,032
-136,658	-34,342	0,033	0,013
-135,643	300,969	-0,004	-0,006
-134,629	726,327	0,035	0,067
-133,614	31,580	0,064	-0,039
-132,599	26,684	-0,055	-0,033
-131,585	-58,139	0,099	-0,030
-130,570	800,000	0,038	-0,078
-129,556	800,000	-0,047	-0,096
-128,541	218,377	0,051	0,058
-127,526	-152,891	0,089	-0,004
-126,512	800,000	0,029	0,076
-125,497	-157,148	0,106	-0,004
-124,483	-104,408	0,087	-0,014
-123,468	313,500	-0,088	-0,118
-122,453	684,729	-0,083	-0,154
-121,439	30,018	0,084	0,051
-120,424	800,000	0,024	0,054
-119,410	179,687	0,079	0,083
-118,395	27,491	0,078	0,047
-117,380	-79,547	-0,038	-0,009
-116,366	800,000	-0,010	-0,029
-115,351	-200,000	-0,011	0,116
-114,337	-200,000	0,008	-0,096
-113,322	77,558	0,012	0,009
-112,307	-115,278	-0,051	0,007
-111,293	-151,923	0,052	-0,003
-110,278	171,079	0,104	0,106
-109,264	-31,567	-0,087	-0,035
-108,249	-0,403	-0,097	-0,049
-107,234	-200,000	-0,018	-0,101
-106,220	75,003	0,073	0,055
-105,205	-15,500	-0,066	-0,030
-104,191	-28,859	0,090	0,036
-103,176	149,528	0,022	-0,021
-102,162	-7,064	-0,069	-0,033
-101,147	-76,213	-0,159	-0,039
-100,132	-200,000	0,031	-0,151
-99,118	44,684	0,070	-0,045
-98,103	-200,000	-0,045	-0,165
-97,089	-144,107	0,067	0,004
-96,074	-87,638	0,110	-0,023
-95,059	-84,077	0,098	-0,022
-94,045	-200,000	0,007	0,041
-93,030	-128,994	-0,061	0,006
-92,016	83,994	-0,133	0,103
-91,001	-92,831	-0,139	0,027
-89,986	231,806	0,058	0,068
-88,972	93,313	0,157	0,126
-87,957	-200,000	-0,049	0,199
-86,943	-47,289	-0,049	0,017
-85,928	495,242	-0,024	0,040
-84,913	61,109	0,065	-0,046
-83,899	-7,964	-0,024	-0,012
-82,884	800,000	0,061	-0,143
-81,870	-200,000	0,005	0,109
-80,855	-200,000	-0,009	-0,055
-79,840	795,583	0,024	-0,047
-78,826	44,696	0,045	-0,029
-77,811	-117,581	-0,077	0,010
-76,797	-200,000	0,003	0,071
-75,782	131,200	-0,054	-0,049
-74,767	428,758	0,088	0,136
-73,753	-125,408	-0,207	0,022
-72,738	800,000	0,031	0,084
-71,724	42,904	0,099	0,064
-70,709	124,203	-0,036	-0,032
-69,694	800,000	0,017	0,040
-68,680	63,040	0,112	0,079
-67,665	800,000	-0,035	0,091
-66,651	-200,000	-0,003	-0,026
-65,636	-200,000	0,015	0,144
-64,622	169,676	-0,082	0,083
-63,607	124,848	0,043	0,039
-62,592	-200,000	0,012	-0,091
-61,578	-60,150	0,216	-0,065
-60,563	-77,921	0,047	-0,011
-59,549	-90,721	0,065	-0,013
-58,534	-23,508	-1,550	-0,656
-57,519	462,927	-1,347	-2,137
-56,505	-200,000	-0,555	-4,657
-55,490	168,405	0,958	0,967
-54,476	800,000	4,920	11,352
-53,461	-200,000	18,887	314,217
-52,446	-200,000	739,594	2325,588
-51,432	574,583	1655,715	2872,061
-50,417	79,090	1671,827	1266,605
-49,403	21,809	1544,589	888,626
-48,388	15,701	1467,155	814,371
-47,373	17,878	1457,129	819,297
-46,359	16,859	1447,195	808,792
-45,344	13,978	1442,532	792,348
-44,330	13,857	1440,680	790,722
-43,315	13,894	1438,907	789,891
-42,300	13,893	1437,249	788,944
-41,286	13,907	1435,963	788,278
-40,271	13,858	1434,733	787,334
-39,257	13,840	1433,548	786,570
-38,242	13,933	1431,970	786,113
-37,227	13,874	1431,167	785,363
-36,213	13,937	1429,699	784,823
-35,198	13,899	1428,673	784,052
-34,184	13,917	1427,683	783,562
-33,169	13,896	1426,434	782,743
-32,154	13,939	1425,204	782,243
-31,140	13,962	1423,773	781,536
-30,125	13,964	1422,812	780,983
-29,111	13,955	1421,518	780,200
-28,096	13,898	1420,788	779,502
-27,082	13,852	1419,559	778,580
-26,067	13,856	1418,240	777,843
-25,052	13,835	1417,246	777,168
-24,038	13,818	1416,324	776,550
-23,023	13,813	1415,287	775,928
-22,009	13,836	1414,213	775,416
-20,994	13,784	1413,571	774,788
-19,979	13,804	1412,530	774,283
-18,965	13,780	1411,765	773,721
-17,950	13,815	1410,655	773,245
-16,936	13,802	1409,677	772,617
-15,921	13,724	1408,774	771,727
-14,906	13,758	1407,879	771,364
-13,892	13,754	1406,902	770,782
-12,877	13,734	1406,228	770,286
-11,863	13,773	1404,796	769,652
-10,848	13,762	1404,017	769,145
-9,833	13,669	1403,313	768,295
-8,819	13,681	1402,338	767,786
-7,804	13,636	1401,573	767,126
-6,790	13,601	1400,644	766,427
-5,775	13,658	1399,360	765,958
-4,760	13,658	1398,379	765,389
-3,746	13,673	1397,551	764,977
-2,731	13,637	1396,788	764,364
-1,717	13,603	1395,948	763,714
-0,702	13,620	1394,108	762,754
0,313	17,327	1311,635	734,863
1,327	33,476	705,524	432,687
2,342	51,357	123,869	83,089
3,356	3,990	16,610	8,565
4,371	17,598	3,203	1,797
5,386	40,740	0,571	0,363
6,400	800,000	-0,084	0,217
7,415	218,886	-0,164	-0,186
8,429	-13,343	-0,287	-0,131
9,444	-20,701	-0,321	-0,139
10,459	73,818	-0,190	-0,140
11,473	143,232	-0,234	-0,220
12,488	-45,364	-0,234	-0,082
13,502	-16,999	-0,384	-0,171
14,517	116,249	-0,299	-0,259
15,531	124,150	-0,347	-0,308
16,546	-58,939	-0,362	-0,110
17,561	199,698	-0,237	-0,257
18,575	-4,584	-0,187	-0,091
19,590	-1,058	-0,350	-0,174
20,604	44,023	-0,174	-0,112
21,619	10,591	-0,572	-0,307
22,634	168,672	-0,378	-0,381
23,648	224,147	-0,313	-0,358
24,663	3,147	-0,514	-0,263
25,677	62,245	-0,412	-0,290
26,692	158,949	-0,263	-0,258
27,707	144,971	-0,342	-0,323
28,721	38,807	-0,449	-0,282
29,736	148,893	-0,341	-0,326
30,750	200,522	-0,373	-0,405
31,765	188,596	-0,302	-0,319
32,780	63,523	-0,375	-0,266
33,794	114,242	-0,306	-0,263
34,809	293,978	-0,305	-0,394
35,823	174,552	-0,333	-0,341
36,838	160,178	-0,317	-0,312
37,853	103,413	-0,422	-0,349
38,867	56,296	-0,376	-0,257
39,882	90,172	-0,314	-0,248
40,896	59,225	-0,329	-0,228
41,911	114,079	-0,359	-0,307
42,926	143,734	-0,350	-0,329
43,940	29,362	-0,314	-0,188
44,955	166,228	-0,338	-0,338
45,969	56,840	-0,227	-0,155
46,984	59,536	-0,230	-0,159
47,999	128,877	-0,245	-0,220
49,013	83,895	-0,377	-0,290
50,028	4,491	-0,433	-0,223
51,042	148,876	-0,272	-0,260
52,057	75,098	-0,276	-0,205
53,071	73,828	-0,369	-0,272
54,086	3,378	-0,463	-0,237
55,101	120,334	-0,333	-0,291
56,115	12,736	-0,284	-0,154
57,130	11,703	-0,328	-0,177
58,144	140,325	-0,268	-0,249
59,159	141,228	-0,367	-0,342
60,174	59,734	-0,411	-0,285
61,188	65,361	-0,334	-0,237
62,203	-38,856	-0,410	-0,151
63,217	-7,792	-0,354	-0,168
64,232	-85,152	-0,402	-0,088
65,247	19,617	-0,287	-0,162
66,261	39,896	-0,269	-0,170
67,276	38,780	-0,482	-0,302
68,290	-39,534	-0,296	-0,108
69,305	120,369	-0,264	-0,231
70,320	200,660	-0,203	-0,220
71,334	-61,813	-0,316	-0,092
72,349	91,682	-0,353	-0,279
73,363	52,369	-0,283	-0,189
74,378	-13,696	-0,300	-0,136
75,393	-18,594	-0,375	-0,164
76,407	498,195	-0,181	-0,294
77,422	87,221	-0,151	-0,117
78,436	105,336	-0,257	-0,213
79,451	128,410	-0,340	-0,304
80,466	36,977	-0,250	-0,155
81,480	438,100	-0,267	-0,410
82,495	12,188	-0,335	-0,181
83,509	51,315	-0,382	-0,254
84,524	150,260	-0,236	-0,225
85,539	-11,671	-0,296	-0,136
86,553	-118,250	-0,431	-0,053
87,568	-40,744	-0,269	-0,097
88,582	-19,865	-0,376	-0,162
89,597	211,087	-0,237	-0,262
90,611	-30,417	-0,312	-0,124
91,626	-96,934	-0,279	-0,051
92,641	800,000	-0,095	-0,191
93,655	-49,085	-0,291	-0,097
94,670	21,762	-0,389	-0,222
95,684	-23,513	-0,263	-0,110
96,699	22,687	-0,235	-0,134
97,714	581,184	-0,105	-0,182
98,728	51,427	-0,240	-0,159
99,743	-17,225	-0,217	-0,096
100,757	555,231	-0,127	-0,215
101,772	67,829	-0,307	-0,220
102,787	82,110	-0,310	-0,236
103,801	-41,687	-0,379	-0,136
104,816	494,854	-0,217	-0,351
105,830	-24,387	-0,265	-0,110
106,845	-51,475	-0,263	-0,086
107,860	52,752	-0,211	-0,141
108,874	83,230	-0,339	-0,259
109,889	6,151	-0,340	-0,176
110,903	-15,385	-0,355	-0,158
111,918	-26,616	-0,320	-0,131
112,933	93,088	-0,209	-0,166
113,947	325,425	-0,190	-0,256
114,962	23,352	-0,272	-0,156
115,976	-102,025	-0,299	-0,050
116,991	65,519	-0,240	-0,170
118,006	221,414	-0,222	-0,250
119,020	-39,327	-0,274	-0,100
120,035	-1,893	-0,383	-0,188
121,049	423,748	-0,169	-0,255
122,064	113,949	-0,187	-0,159
123,079	-50,439	-0,355	-0,117
124,093	89,512	-0,301	-0,235
125,108	18,963	-0,212	-0,119
126,122	5,191	-0,270	-0,139
127,137	93,996	-0,194	-0,154
128,151	207,022	-0,313	-0,342
129,166	-53,196	-0,359	-0,114
130,181	37,881	-0,171	-0,106
131,195	364,202	-0,217	-0,307
132,210	260,303	-0,267	-0,323
133,224	203,036	-0,222	-0,241
134,239	633,905	-0,134	-0,239
135,254	201,446	-0,257	-0,277
136,268	-50,572	-0,303	-0,099
137,283	33,969	-0,309	-0,188
138,297	-7,447	-0,207	-0,098
139,312	-12,133	-0,319	-0,146
140,327	345,473	-0,217	-0,299
141,341	-15,874	-0,255	-0,113
142,356	-55,489	-0,290	-0,090
143,370	14,443	-0,184	-0,100
144,385	-58,872	-0,252	-0,076
145,400	13,102	-0,373	-0,201
146,414	175,113	-0,302	-0,306
147,429	109,848	-0,283	-0,237
148,443	504,612	-0,118	-0,192
149,458	69,105	-0,209	-0,150
150,473	349,843	-0,146	-0,202
151,487	181,521	-0,209	-0,214
152,502	-90,581	-0,302	-0,061
153,516	160,272	-0,302	-0,294
154,531	351,689	-0,216	-0,299
155,546	6,630	-0,229	-0,119
156,560	19,920	-0,256	-0,144
157,575	123,437	-0,191	-0,167
158,589	284,959	-0,124	-0,156
159,604	-46,005	-0,249	-0,085
160,619	44,211	-0,283	-0,181
161,633	114,598	-0,380	-0,323
162,648	5,585	-0,301	-0,155
163,662	455,944	-0,121	-0,187
164,677	44,726	-0,238	-0,152
165,692	-39,671	-0,281	-0,102
166,706	107,894	-0,201	-0,167
167,721	131,154	-0,342	-0,307
168,735	339,146	-0,225	-0,306
169,750	198,676	-0,213	-0,227
170,764	-101,536	-0,270	-0,045
171,779	123,400	-0,134	-0,117
172,794	300,398	-0,155	-0,200
173,808	472,415	-0,128	-0,202
174,823	36,668	-0,183	-0,112
175,837	-83,397	-0,222	-0,049
176,852	41,542	-0,276	-0,174
177,867	62,080	-0,156	-0,108
178,881	100,913	-0,219	-0,178
179,896	-152,836	-0,058	0,003
180,910	327,142	-0,164	-0,219
181,925	626,289	-0,110	-0,193
182,940	-9,918	-0,390	-0,180
183,954	100,721	-0,278	-0,225
184,969	14,037	-0,250	-0,135
185,983	186,652	-0,149	-0,154
186,998	174,562	-0,139	-0,140
188,013	136,971	-0,190	-0,173
189,027	356,099	-0,210	-0,292
190,042	18,331	-0,187	-0,103
191,056	81,971	-0,390	-0,294
192,071	259,998	-0,193	-0,233
193,086	177,101	-0,208	-0,211
194,100	-107,849	-0,208	-0,031
195,115	41,108	-0,227	-0,142
196,129	7,483	-0,246	-0,127
197,144	284,965	-0,139	-0,174
198,159	112,061	-0,259	-0,218
199,173	0,714	-0,135	-0,067
200,188	11,328	-0,173	-0,092
201,202	-200,000	-0,049	-0,229
202,217	516,099	-0,105	-0,172
203,232	109,644	-0,141	-0,117
204,246	99,313	-0,188	-0,151
205,261	171,357	-0,240	-0,239
206,275	-118,595	-0,103	-0,013
207,290	127,943	-0,133	-0,118
208,304	800,000	-0,049	-0,112
209,319	-148,865	-0,107	-0,006
210,334	-33,230	-0,337	-0,129
211,348	-73,713	-0,173	-0,043
212,363	-17,638	-0,236	-0,103
213,377	56,348	-0,217	-0,147
214,392	297,471	-0,033	-0,043
215,407	-89,868	-0,174	-0,035
216,421	-110,457	-0,155	-0,022
217,436	-94,601	-0,184	0,034
218,450	38,570	-0,159	-0,098
219,465	96,705	-0,184	-0,146
220,480	800,000	-0,078	-0,225
221,494	-22,621	-0,361	-0,151
222,509	20,565	-0,159	-0,089
223,523	168,565	-0,086	-0,085
224,538	40,166	-0,253	-0,158
225,553	-65,856	-0,160	0,044
226,567	-36,295	-0,343	-0,128
227,582	261,371	-0,205	-0,247
228,596	-53,492	-0,325	-0,102
229,611	95,776	-0,109	-0,086
230,626	-12,949	-0,305	-0,137
231,640	173,410	-0,201	-0,201
232,655	7,517	-0,296	-0,153
233,669	133,307	-0,285	-0,255
234,684	84,864	-0,232	-0,176
235,699	232,817	-0,152	-0,174
236,713	-41,913	-0,145	-0,051
237,728	136,645	-0,152	-0,137
238,742	316,396	-0,191	-0,251
239,757	134,286	-0,203	-0,182
240,772	3,756	-0,190	-0,096
241,786	54,266	-0,172	-0,114
242,801	512,108	-0,094	-0,152
243,815	800,000	-0,111	-0,233
244,830	654,783	-0,092	-0,164
245,844	-20,706	-0,288	-0,122
246,859	-24,468	-0,268	-0,110
247,874	210,802	-0,252	-0,274
248,888	41,662	-0,239	-0,149
249,903	-31,020	-0,106	-0,041
250,917	-200,000	-0,000	-0,019
251,932	48,677	-0,208	-0,135
252,947	-200,000	-0,051	-0,223
253,961	24,913	-0,152	-0,087
254,976	-82,936	-0,211	-0,047
255,990	314,086	-0,129	-0,168
257,005	-7,056	-0,193	-0,090
258,020	-135,707	-0,299	0,024
259,034	800,000	-0,059	-0,150
260,049	-153,387	-0,106	-0,005
261,063	446,224	-0,108	-0,165
262,078	475,585	-0,123	-0,193
263,093	113,750	-0,216	-0,182
264,107	45,357	-0,250	-0,159
265,122	172,236	-0,111	-0,110
266,136	296,414	-0,078	-0,100
267,151	-164,614	-0,158	0,005
268,166	-133,156	-0,246	0,021
269,180	351,832	-0,183	-0,251
270,195	66,520	-0,183	-0,128
271,209	20,284	-0,178	-0,099
272,224	511,325	-0,137	-0,221
273,239	121,284	-0,178	-0,153
274,253	177,217	-0,165	-0,166
275,268	107,000	-0,254	-0,209
276,282	800,000	-0,060	-0,120
277,297	618,214	-0,130	-0,226
278,312	649,008	-0,092	-0,163
279,326	-22,915	-0,090	0,037
280,341	227,772	-0,142	-0,160
281,355	-200,000	-0,110	-0,000
282,370	-113,900	-0,205	-0,027
283,384	401,409	-0,138	-0,201
284,399	445,173	-0,197	-0,300
285,414	99,661	-0,205	-0,164
286,428	800,000	-0,072	-0,151
287,443	-154,088	-0,141	-0,006
288,457	-86,142	-0,166	0,035
289,472	-34,426	-0,187	-0,070
290,487	-6,683	-0,233	-0,109
291,501	-23,164	-0,225	-0,093
292,516	85,029	-0,210	-0,159
293,530	800,000	-0,089	-0,240
294,545	94,778	-0,253	-0,199
295,560	-200,000	-0,008	-0,064
296,574	55,773	-0,171	-0,114
297,589	64,224	-0,121	-0,084
298,603	139,381	-0,212	-0,192
299,618	648,975	-0,113	-0,201
300,633	-20,342	-0,239	-0,101
301,647	-21,130	-0,127	-0,053
302,662	38,206	-0,102	-0,062
303,676	-200,000	0,025	-0,169
304,691	-200,000	-0,049	-0,195
305,706	13,720	-0,179	-0,096
306,720	42,756	-0,156	-0,098
307,735	-146,600	-0,141	0,008
308,749	14,500	-0,129	0,069
309,764	-200,000	-0,012	-0,063
310,779	-94,297	-0,114	-0,021
311,793	-58,350	-0,195	-0,058
312,808	267,847	-0,244	-0,295
313,822	-128,954	-0,104	0,010
314,837	-82,487	-0,146	-0,032
315,852	60,484	-0,068	-0,046
316,866	368,424	-0,052	-0,073
317,881	-126,563	-0,166	-0,017
318,895	97,020	-0,185	-0,146
319,910	-200,000	-0,033	-0,136
320,925	79,150	-0,226	-0,167
321,939	117,380	-0,112	-0,095
322,954	-128,905	-0,182	-0,017
323,968	-62,413	-0,127	-0,036
324,983	264,563	-0,152	-0,183
325,997	566,612	-0,006	-0,010
327,012	800,000	-0,115	-0,224
328,027	24,230	-0,212	-0,120
329,041	800,000	-0,086	-0,230
330,056	800,000	-0,072	-0,195
331,070	-25,655	-0,168	-0,068
332,085	372,985	-0,089	-0,125
333,100	45,079	-0,197	-0,124
334,114	23,360	-0,142	-0,080
335,129	382,319	-0,136	-0,192
336,143	-37,730	-0,119	-0,043
337,158	-54,087	-0,166	-0,052
338,173	-200,000	-0,010	-0,074
339,187	478,229	-0,093	-0,146
340,202	-88,811	-0,160	-0,032
341,216	175,580	-0,111	-0,111
342,231	339,322	-0,057	-0,077
343,246	7,815	-0,162	-0,083
344,260	173,043	-0,180	-0,178
345,275	-119,294	0,094	-0,011
346,289	-200,000	0,022	-0,101
347,304	-26,043	-0,069	-0,028
348,319	197,228	-0,205	-0,215
349,333	241,950	-0,192	-0,221
350,348	-129,215	-0,169	-0,016
351,362	174,779	-0,205	-0,204
352,377	275,599	-0,094	-0,114
353,392	293,295	0,040	-0,051
354,406	-107,403	-0,189	0,028
355,421	206,776	1315,821	1408,126
356,435	159,032	1476,686	1408,613
