DTS Sentinel unit serial number:	SN410029Multiplexer serial number:	ORYXHardware model number:	OX2-SRSoftware version number:	ORYX F/W v4,00 Oryx Data Collector v3.7.2.0data status	okinstallation	B3 Nyhavnadifferential loss correction	single-endedforward channel	channel 1reverse channel	N/Adate	2023/12/01time	20:27:30forward acquisition time	300,00reverse acquisition time	0,00gamma	499,1914k internal	0,3197k external	0,3197temperature offset calibration	1,0000default loss term (dB/km)	0,3820temperature slope calibration	1,0000multiplexer offset coefficient	1,0000multiplexer slope coefficient	1,0000fibre end	0,00T internal ref (°C)	15,87T ext. ref 1 (°C)	1,47T ext. ref 2 (°C)	1,45length (m)	temperature (°C)	Stokes	anti-Stokes-744,400	800,000	-0,154	-0,329
-743,385	-200,000	0,066	0,315
-742,371	293,156	-0,157	-0,209
-741,356	-200,000	0,065	0,241
-740,342	76,896	-0,256	-0,198
-739,327	-200,000	-0,010	0,323
-738,312	15,214	-0,435	-0,248
-737,298	-200,000	0,054	0,287
-736,283	42,041	-0,247	-0,163
-735,269	800,000	0,128	0,264
-734,254	247,994	-0,189	-0,233
-733,239	-62,791	-0,167	0,050
-732,225	278,079	-0,153	-0,199
-731,210	693,410	0,035	0,067
-730,196	-200,000	-0,001	-0,042
-729,181	800,000	-0,074	-0,225
-728,167	29,778	-0,202	0,125
-727,152	105,858	0,067	-0,057
-726,137	107,890	0,039	-0,034
-725,123	-61,444	-0,046	-0,014
-724,108	35,468	-0,045	-0,029
-723,094	-55,163	-0,182	-0,059
-722,079	97,290	-0,073	-0,061
-721,064	148,395	-0,027	0,026
-720,050	-79,754	-0,059	0,014
-719,035	673,338	0,017	-0,032
-718,021	-31,372	-0,201	-0,082
-717,006	-140,876	-0,050	0,004
-715,991	346,956	0,020	-0,029
-714,977	536,880	-0,041	-0,071
-713,962	122,380	-0,061	0,056
-712,948	-132,425	0,045	0,004
-711,933	800,000	0,006	0,016
-710,918	78,252	-0,017	-0,013
-709,904	800,000	-0,031	-0,077
-708,889	-10,327	-0,014	0,007
-707,875	129,452	-0,096	0,089
-706,860	-162,455	0,127	-0,004
-705,845	1,295	-0,135	-0,070
-704,831	-200,000	0,001	-0,037
-703,816	800,000	-0,035	0,090
-702,802	-200,000	-0,019	0,064
-701,787	-145,358	-0,092	-0,006
-700,772	713,496	-0,036	0,070
-699,758	-200,000	-0,002	0,031
-698,743	275,874	0,118	0,153
-697,729	-99,165	-0,089	0,016
-696,714	36,037	-0,050	-0,032
-695,699	101,956	-0,078	0,066
-694,685	-66,178	-0,120	0,034
-693,670	17,977	0,047	0,027
-692,656	54,028	-0,069	-0,048
-691,641	260,008	-0,010	-0,012
-690,627	800,000	-0,028	-0,074
-689,612	-200,000	-0,002	0,017
-688,597	494,405	-0,053	-0,089
-687,583	64,642	-0,086	0,063
-686,568	146,646	-0,085	0,083
-685,554	-95,029	-0,056	-0,011
-684,539	155,494	-0,084	0,084
-683,524	10,758	0,138	-0,076
-682,510	-0,661	0,031	-0,016
-681,495	800,000	-0,012	0,031
-680,481	-200,000	-0,023	-0,091
-679,466	206,432	-0,113	-0,128
-678,451	-85,774	0,021	0,005
-677,437	-67,960	-0,132	0,037
-676,422	-101,958	0,110	0,019
-675,408	-114,178	-0,041	-0,006
-674,393	-60,484	0,050	0,015
-673,378	-200,000	0,004	-0,045
-672,364	-200,000	-0,002	-0,089
-671,349	98,985	-0,021	0,018
-670,335	-200,000	-0,000	-0,138
-669,320	-97,924	-0,182	-0,034
-668,305	-200,000	0,005	0,024
-667,291	215,775	-0,053	-0,061
-666,276	305,764	-0,041	-0,055
-665,262	-145,198	-0,108	0,007
-664,247	250,061	-0,011	-0,013
-663,232	800,000	0,022	-0,067
-662,218	-200,000	-0,009	0,053
-661,203	84,717	-0,025	0,020
-660,189	188,465	0,084	-0,091
-659,174	327,691	-0,057	-0,079
-658,159	12,794	0,065	-0,036
-657,145	-119,561	-0,094	0,012
-656,130	-26,875	0,054	-0,023
-655,116	800,000	-0,053	0,116
-654,101	315,476	-0,057	0,079
-653,086	345,661	-0,068	0,098
-652,072	800,000	-0,048	-0,121
-651,057	800,000	-0,064	-0,144
-650,043	42,716	-0,072	-0,047
-649,028	-27,123	0,006	-0,002
-648,014	265,945	-0,068	-0,087
-646,999	499,470	-0,048	0,081
-645,984	-200,000	-0,028	0,129
-644,970	562,475	0,024	0,043
-643,955	-200,000	0,010	-0,066
-642,941	117,485	-0,088	-0,078
-641,926	386,343	-0,024	0,036
-640,911	122,030	0,080	-0,073
-639,897	322,012	0,067	0,093
-638,882	106,865	-0,018	0,015
-637,868	-200,000	-0,009	0,080
-636,853	-74,074	-0,092	-0,024
-635,838	-67,964	-0,092	0,026
-634,824	-34,988	0,042	0,017
-633,809	553,559	-0,048	0,084
-632,795	-200,000	0,021	0,069
-631,780	64,474	0,087	0,063
-630,765	-200,000	-0,010	-0,052
-629,751	800,000	-0,023	-0,052
-628,736	388,781	-0,022	0,033
-627,722	368,111	0,072	0,106
-626,707	-200,000	-0,022	-0,113
-625,692	-200,000	-0,003	0,131
-624,678	800,000	-0,045	0,113
-623,663	193,768	-0,046	0,050
-622,649	-146,816	0,051	0,003
-621,634	-125,480	-0,079	-0,009
-620,619	-32,829	-0,038	-0,015
-619,605	-200,000	-0,009	0,204
-618,590	800,000	0,053	0,111
-617,576	-200,000	-0,029	-0,133
-616,561	233,119	0,018	-0,022
-615,546	25,832	-0,071	0,043
-614,532	70,280	0,049	-0,036
-613,517	3,152	0,065	0,034
-612,503	-200,000	0,006	-0,022
-611,488	417,469	-0,079	0,123
-610,474	697,947	0,070	0,133
-609,459	-47,376	0,112	0,039
-608,444	-118,292	0,108	0,014
-607,430	40,267	0,093	0,060
-606,415	-15,527	0,041	0,019
-605,401	-45,492	0,103	-0,037
-604,386	263,576	0,044	0,056
-603,371	800,000	-0,031	0,089
-602,357	147,041	0,053	-0,052
-601,342	64,098	0,017	-0,012
-600,328	-24,037	0,039	-0,017
-599,313	-66,737	0,083	-0,024
-598,298	-152,757	-0,062	-0,003
-597,284	-200,000	-0,036	-0,125
-596,269	-146,301	-0,135	-0,008
-595,255	-124,633	-0,090	0,010
-594,240	-125,000	-0,027	-0,003
-593,225	-116,023	-0,094	-0,012
-592,211	-200,000	0,000	-0,045
-591,196	158,146	0,069	0,069
-590,182	519,001	0,037	0,063
-589,167	17,869	-0,132	0,076
-588,152	-200,000	-0,010	-0,096
-587,138	106,829	0,082	-0,070
-586,123	-51,941	-0,122	0,041
-585,109	-149,217	-0,099	0,006
-584,094	301,612	-0,028	0,038
-583,079	800,000	-0,025	-0,051
-582,065	472,319	0,025	0,041
-581,050	159,822	0,053	-0,053
-580,036	-108,739	0,118	0,018
-579,021	-35,525	-0,155	0,061
-578,006	251,426	-0,064	-0,079
-576,992	800,000	0,015	-0,039
-575,977	800,000	-0,041	-0,109
-574,963	-60,277	-0,046	-0,014
-573,948	800,000	-0,032	0,068
-572,934	106,199	0,045	0,038
-571,919	63,704	-0,182	-0,132
-570,904	-135,872	0,128	-0,011
-569,890	-34,349	0,073	0,029
-568,875	800,000	0,028	0,070
-567,861	-3,139	-0,135	-0,068
-566,846	49,805	0,072	0,049
-565,831	666,389	0,040	0,074
-564,817	-49,409	-0,065	-0,022
-563,802	-77,816	0,052	-0,013
-562,788	8,112	-0,075	0,041
-561,773	-200,000	-0,017	-0,073
-560,758	800,000	0,038	0,093
-559,744	-154,376	0,054	0,003
-558,729	538,853	-0,036	-0,063
-557,715	195,969	-0,094	-0,104
-556,700	115,604	-0,212	-0,187
-555,685	546,653	0,033	-0,057
-554,671	2,759	0,083	-0,043
-553,656	-200,000	0,028	-0,125
-552,642	610,806	0,046	0,084
-551,627	-200,000	0,001	0,066
-550,612	-30,925	0,026	0,011
-549,598	-200,000	-0,020	-0,149
-548,583	554,088	-0,106	-0,185
-547,569	123,417	-0,093	-0,084
-546,554	-200,000	0,004	0,116
-545,539	-66,905	0,020	0,006
-544,525	147,465	-0,050	0,049
-543,510	800,000	-0,070	-0,181
-542,496	-125,194	0,010	-0,001
-541,481	-2,801	0,012	-0,006
-540,466	-41,825	-0,196	0,072
-539,452	21,418	-0,079	-0,046
-538,437	-200,000	-0,027	0,106
-537,423	358,826	0,084	0,122
-536,408	800,000	-0,045	-0,120
-535,393	-80,612	-0,083	0,020
-534,379	-48,387	-0,163	0,056
-533,364	800,000	-0,035	0,100
-532,350	101,387	-0,012	0,010
-531,335	-200,000	-0,014	-0,068
-530,321	77,323	0,050	0,038
-529,306	-200,000	-0,004	0,129
-528,291	-56,220	-0,114	0,036
-527,277	-9,934	-0,075	0,036
-526,262	-140,521	-0,095	0,007
-525,248	149,500	0,057	-0,056
-524,233	-26,370	0,118	-0,050
-523,218	24,118	-0,079	-0,047
-522,204	-142,269	-0,167	-0,012
-521,189	134,184	-0,021	0,020
-520,175	562,520	0,067	-0,118
-519,160	601,679	0,066	0,120
-518,145	-107,589	0,046	0,007
-517,131	29,612	0,167	-0,103
-516,116	-200,000	-0,004	0,068
-515,102	-5,738	0,102	0,050
-514,087	-72,571	0,093	-0,025
-513,072	3,541	-0,067	0,035
-512,058	-44,344	-0,073	0,026
-511,043	800,000	-0,009	-0,027
-510,029	-22,020	0,064	0,028
-509,014	-159,974	0,100	0,004
-507,999	528,882	0,023	0,040
-506,985	112,756	-0,104	0,091
-505,970	62,632	-0,127	0,091
-504,956	291,316	0,080	-0,105
-503,941	651,604	0,030	-0,055
-502,926	355,121	0,056	-0,081
-501,912	29,568	0,104	0,064
-500,897	-32,491	0,057	0,023
-499,883	-93,134	-0,190	-0,038
-498,868	303,091	-0,083	-0,111
-497,853	-20,045	-0,125	-0,056
-496,839	-11,203	0,021	-0,010
-495,824	-163,144	-0,081	-0,003
-494,810	-200,000	0,008	0,047
-493,795	-200,000	-0,021	0,161
-492,781	37,006	0,045	-0,029
-491,766	-200,000	-0,008	0,059
-490,751	35,875	-0,075	-0,048
-489,737	-118,166	-0,213	-0,027
-488,722	95,414	0,057	-0,046
-487,708	113,342	0,124	0,109
-486,693	-200,000	-0,012	-0,050
-485,678	54,103	-0,129	0,089
-484,664	800,000	-0,048	-0,123
-483,649	130,434	-0,125	-0,115
-482,635	-86,055	0,196	-0,043
-481,620	-55,970	-0,035	-0,011
-480,605	72,770	0,132	0,099
-479,591	283,353	0,051	-0,066
-478,576	800,000	0,013	0,036
-477,562	61,247	-0,017	-0,012
-476,547	290,024	-0,057	-0,074
-475,532	-88,693	0,052	-0,011
-474,518	-200,000	0,012	0,114
-473,503	-2,016	0,072	0,036
-472,489	800,000	0,041	0,099
-471,474	390,851	0,050	-0,076
-470,459	209,157	-0,066	-0,075
-469,445	-200,000	0,031	-0,118
-468,430	118,743	0,096	-0,086
-467,416	164,693	0,107	0,108
-466,401	-49,980	0,033	-0,011
-465,386	-200,000	0,023	-0,104
-464,372	800,000	0,051	0,132
-463,357	-200,000	-0,021	-0,082
-462,343	-48,384	-0,101	-0,035
-461,328	-200,000	0,000	0,003
-460,313	154,294	0,114	0,113
-459,299	800,000	0,038	0,107
-458,284	203,862	-0,042	0,047
-457,270	-38,958	-0,060	0,023
-456,255	-200,000	-0,044	-0,162
-455,241	-16,952	0,023	0,010
-454,226	-46,754	0,050	-0,018
-453,211	-200,000	0,034	0,146
-452,197	155,381	0,060	0,059
-451,182	-55,683	0,026	0,008
-450,168	34,734	0,007	0,004
-449,153	416,174	0,060	-0,092
-448,138	-200,000	0,004	-0,148
-447,124	-54,944	0,115	0,037
-446,109	405,807	-0,011	-0,017
-445,095	-200,000	0,013	0,159
-444,080	31,102	0,076	-0,047
-443,065	91,062	-0,053	-0,043
-442,051	-37,129	0,051	-0,020
-441,036	-77,020	-0,109	-0,027
-440,022	480,257	-0,039	-0,064
-439,007	54,792	0,045	-0,031
-437,992	312,950	0,083	-0,113
-436,978	-200,000	0,011	0,065
-435,963	-100,874	-0,089	-0,016
-434,949	684,162	0,018	-0,034
-433,934	-131,431	0,069	0,006
-432,919	102,696	-0,096	0,081
-431,905	800,000	-0,013	0,030
-430,890	-200,000	-0,019	-0,135
-429,876	-49,864	-0,108	-0,037
-428,861	-200,000	-0,013	-0,052
-427,846	85,647	-0,016	0,013
-426,832	228,642	-0,022	0,025
-425,817	71,959	-0,076	-0,057
-424,803	102,579	0,140	-0,118
-423,788	792,044	-0,035	0,069
-422,773	-54,408	-0,099	0,032
-421,759	74,605	0,096	0,072
-420,744	-35,161	-0,058	0,022
-419,730	-13,081	-0,067	0,031
-418,715	-75,687	-0,152	-0,039
-417,701	-19,065	0,057	-0,025
-416,686	-154,127	0,049	-0,002
-415,671	-69,151	0,099	0,027
-414,657	800,000	-0,082	-0,177
-413,642	55,073	-0,039	-0,027
-412,628	178,520	0,070	-0,074
-411,613	-147,059	-0,104	-0,006
-410,598	346,337	-0,065	-0,092
-409,584	-129,714	-0,094	0,009
-408,569	-31,347	-0,110	0,044
-407,555	800,000	0,057	0,137
-406,540	-67,313	0,082	0,023
-405,525	-200,000	0,007	-0,091
-404,511	-200,000	-0,019	-0,064
-403,496	800,000	0,047	-0,142
-402,482	-40,008	0,075	-0,028
-401,467	85,035	-0,079	-0,062
-400,452	164,160	0,065	0,066
-399,438	-16,731	0,148	0,067
-398,423	-46,207	0,078	-0,027
-397,409	800,000	-0,050	-0,116
-396,394	-78,181	0,065	-0,016
-395,379	-200,000	-0,028	0,111
-394,365	-138,197	0,116	0,009
-393,350	-52,154	-0,123	0,041
-392,336	-200,000	-0,008	-0,113
-391,321	97,690	-0,114	-0,094
-390,306	-200,000	0,028	-0,185
-389,292	328,270	-0,066	-0,091
-388,277	-49,612	0,091	0,031
-387,263	-180,603	0,053	-0,001
-386,248	800,000	-0,064	-0,155
-385,233	-200,000	0,012	0,077
-384,219	83,018	0,029	-0,023
-383,204	800,000	0,017	-0,053
-382,190	402,743	0,029	-0,045
-381,175	534,809	-0,047	-0,080
-380,160	27,577	0,071	-0,043
-379,146	-161,305	0,083	-0,003
-378,131	-200,000	0,034	-0,116
-377,117	531,139	0,080	0,136
-376,102	800,000	-0,026	0,066
-375,088	800,000	-0,018	0,044
-374,073	-45,352	-0,087	-0,031
-373,058	-48,963	-0,047	0,016
-372,044	13,322	0,250	0,138
-371,029	351,169	0,066	0,093
-370,015	224,560	0,013	0,015
-369,000	-200,000	-0,020	0,097
-367,985	125,377	-0,079	0,072
-366,971	-200,000	-0,015	0,150
-365,956	-118,159	0,026	-0,003
-364,942	544,866	-0,024	0,041
-363,927	800,000	-0,017	-0,039
-362,912	-200,000	-0,034	0,134
-361,898	29,411	0,119	0,073
-360,883	800,000	-0,044	-0,096
-359,869	-200,000	0,033	-0,113
-358,854	25,381	0,098	-0,058
-357,839	-13,187	0,021	0,010
-356,825	96,335	0,047	0,038
-355,810	64,921	0,060	0,043
-354,796	156,576	0,044	0,043
-353,781	-200,000	0,026	-0,116
-352,766	800,000	0,009	-0,025
-351,752	-116,737	-0,041	-0,005
-350,737	-200,000	0,018	0,075
-349,723	-15,915	0,093	0,042
-348,708	-53,872	0,107	0,035
-347,693	-200,000	-0,017	-0,116
-346,679	-38,542	0,044	0,017
-345,664	-129,897	0,096	0,009
-344,650	-139,032	-0,089	0,007
-343,635	59,718	-0,072	0,051
-342,620	355,310	-0,020	0,028
-341,606	-38,781	0,039	0,015
-340,591	108,857	-0,065	0,056
-339,577	427,875	0,010	0,015
-338,562	199,280	0,042	0,047
-337,548	70,499	0,106	-0,078
-336,533	259,397	0,145	0,179
-335,518	-57,560	0,049	0,015
-334,504	422,372	-0,081	0,125
-333,489	646,056	0,026	-0,048
-332,475	12,019	0,049	-0,027
-331,460	800,000	-0,065	-0,149
-330,445	644,866	0,060	-0,110
-329,431	-127,122	0,131	-0,014
-328,416	-200,000	0,032	0,137
-327,402	22,626	0,085	-0,050
-326,387	-200,000	0,004	-0,064
-325,372	800,000	-0,011	0,025
-324,358	249,303	-0,014	0,017
-323,343	800,000	0,043	0,123
-322,329	-82,544	-0,057	0,013
-321,314	800,000	-0,009	0,026
-320,299	-154,464	0,137	0,006
-319,285	800,000	-0,038	-0,080
-318,270	800,000	-0,031	-0,078
-317,256	101,048	0,054	-0,045
-316,241	800,000	-0,073	-0,182
-315,226	-200,000	0,022	-0,091
-314,212	-200,000	0,024	0,100
-313,197	-184,371	0,139	-0,002
-312,183	440,499	0,016	-0,025
-311,168	-200,000	-0,005	0,068
-310,153	-74,553	-0,149	0,038
-309,139	136,209	-0,093	-0,087
-308,124	-1,414	-0,011	-0,006
-307,110	-40,169	0,056	-0,021
-306,095	233,736	-0,088	0,104
-305,080	-200,000	-0,003	0,081
-304,066	-3,360	0,038	-0,019
-303,051	-178,858	-0,229	-0,004
-302,037	-200,000	0,018	0,097
-301,022	-200,000	-0,000	-0,017
-300,008	-69,618	-0,137	0,037
-298,993	43,756	-0,034	-0,022
-297,978	800,000	-0,077	0,180
-296,964	-200,000	0,008	0,097
-295,949	-200,000	-0,050	-0,169
-294,935	-200,000	0,014	-0,094
-293,920	5,658	0,120	0,063
-292,905	-133,961	0,103	0,009
-291,891	291,771	0,060	0,078
-290,876	800,000	0,023	0,061
-289,862	800,000	-0,049	-0,110
-288,847	-35,872	0,074	0,028
-287,832	-85,641	-0,040	0,009
-286,818	-200,000	-0,014	-0,110
-285,803	-46,895	-0,067	-0,023
-284,789	-19,878	0,059	-0,026
-283,774	159,994	-0,025	0,025
-282,759	277,086	-0,031	0,040
-281,745	-158,596	-0,115	0,005
-280,730	32,343	-0,032	0,020
-279,716	800,000	-0,025	-0,078
-278,701	41,567	-0,041	-0,026
-277,686	-200,000	-0,009	0,084
-276,672	293,425	-0,066	0,086
-275,657	-200,000	-0,024	0,123
-274,643	369,650	0,038	-0,056
-273,628	-200,000	0,000	-0,091
-272,613	-97,971	0,040	-0,007
-271,599	800,000	0,059	0,152
-270,584	-37,392	0,104	0,040
-269,570	-200,000	0,003	0,080
-268,555	-25,694	0,054	-0,023
-267,540	-200,000	0,009	-0,036
-266,526	-119,514	-0,049	-0,006
-265,511	2,669	-0,032	-0,016
-264,497	-61,663	0,103	-0,031
-263,482	336,114	-0,053	-0,074
-262,467	43,864	-0,063	-0,041
-261,453	127,446	0,080	0,073
-260,438	423,526	-0,095	0,146
-259,424	72,293	-0,107	-0,080
-258,409	-200,000	0,019	0,070
-257,395	-40,123	0,132	-0,049
-256,380	-107,770	0,117	-0,018
-255,365	800,000	-0,044	-0,125
-254,351	-94,539	-0,064	-0,012
-253,336	188,678	-0,061	0,065
-252,322	800,000	-0,014	-0,036
-251,307	-128,865	-0,046	0,005
-250,292	800,000	-0,064	-0,138
-249,278	460,072	0,045	0,072
-248,263	-83,467	-0,046	0,010
-247,249	-124,197	0,048	0,005
-246,234	138,594	-0,054	-0,051
-245,219	325,693	-0,066	-0,091
-244,205	-127,958	0,058	0,006
-243,190	-89,742	-0,050	0,010
-242,176	-200,000	0,004	-0,027
-241,161	-168,601	0,032	0,001
-240,146	73,249	-0,030	0,022
-239,132	-200,000	0,008	-0,133
-238,117	800,000	-0,052	-0,106
-237,103	116,622	0,099	0,086
-236,088	-200,000	-0,010	-0,097
-235,073	-64,719	0,114	0,033
-234,059	441,266	0,087	0,137
-233,044	-81,158	0,151	-0,035
-232,030	-49,718	0,118	-0,040
-231,015	-200,000	-0,012	-0,143
-230,000	661,284	-0,039	0,073
-228,986	800,000	0,023	0,049
-227,971	112,700	0,031	-0,027
-226,957	112,420	0,083	0,072
-225,942	-200,000	-0,002	0,129
-224,927	14,289	0,009	-0,005
-223,913	800,000	-0,011	-0,029
-222,898	223,937	-0,038	-0,044
-221,884	179,428	0,050	-0,053
-220,869	271,278	-0,046	-0,059
-219,855	-200,000	-0,021	0,082
-218,840	20,611	-0,059	-0,034
-217,825	156,099	-0,064	0,063
-216,811	170,310	-0,106	0,108
-215,796	800,000	0,047	-0,133
-214,782	-200,000	-0,004	-0,048
-213,767	212,161	0,103	0,116
-212,752	-63,833	0,124	-0,036
-211,738	-200,000	0,002	0,142
-210,723	761,315	-0,071	0,138
-209,709	48,784	-0,113	-0,075
-208,694	74,655	0,055	0,041
-207,679	-106,562	-0,066	-0,010
-206,665	242,658	-0,047	-0,056
-205,650	49,223	0,086	0,058
-204,636	96,215	-0,136	-0,110
-203,621	800,000	-0,043	0,111
-202,606	800,000	-0,030	0,074
-201,592	-200,000	0,008	-0,097
-200,577	800,000	0,043	-0,087
-199,563	800,000	-0,035	-0,075
-198,548	-200,000	0,032	0,108
-197,533	188,721	-0,035	-0,038
-196,519	-151,652	0,102	0,005
-195,504	-35,874	-0,081	-0,031
-194,490	320,325	-0,051	0,070
-193,475	-200,000	0,011	-0,056
-192,460	-132,125	0,103	0,009
-191,446	147,780	-0,073	0,070
-190,431	-65,720	0,131	-0,037
-189,417	133,994	0,159	0,147
-188,402	65,934	-0,063	0,046
-187,387	-136,736	-0,048	0,004
-186,373	-200,000	0,009	-0,087
-185,358	800,000	0,013	0,042
-184,344	-200,000	-0,035	0,133
-183,329	-200,000	0,025	0,080
-182,315	96,478	-0,051	0,042
-181,300	800,000	-0,030	-0,089
-180,285	-79,017	0,003	0,001
-179,271	237,911	0,052	-0,062
-178,256	-5,995	-0,016	-0,008
-177,242	731,282	0,052	0,099
-176,227	-119,450	-0,066	-0,008
-175,212	-24,568	0,010	0,004
-174,198	800,000	-0,051	0,144
-173,183	800,000	-0,032	-0,073
-172,169	320,156	-0,014	-0,018
-171,154	-74,623	0,086	0,022
-170,139	-200,000	-0,012	0,075
-169,125	15,926	0,060	-0,034
-168,110	169,491	0,010	-0,010
-167,096	6,380	0,070	0,037
-166,081	329,421	0,004	-0,005
-165,066	48,886	0,009	-0,006
-164,052	800,000	-0,022	-0,064
-163,037	-124,305	0,100	0,011
-162,023	-0,970	0,069	-0,035
-161,008	336,023	0,044	-0,061
-159,993	244,374	-0,024	-0,029
-158,979	-52,469	-0,127	0,042
-157,964	-111,524	-0,034	0,005
-156,950	-200,000	-0,011	-0,084
-155,935	-200,000	0,002	-0,195
-154,920	36,397	-0,009	0,006
-153,906	-148,832	0,046	-0,003
-152,891	-107,477	-0,180	-0,028
-151,877	599,716	0,035	0,062
-150,862	800,000	-0,073	-0,160
-149,847	285,077	0,090	-0,115
-148,833	647,562	-0,005	0,010
-147,818	267,809	-0,095	0,118
-146,804	-70,049	0,115	0,031
-145,789	137,994	-0,054	0,050
-144,775	-200,000	0,041	-0,135
-143,760	-200,000	0,017	-0,069
-142,745	669,374	-0,067	-0,124
-141,731	-118,489	-0,151	0,019
-140,716	264,432	-0,077	0,096
-139,702	-116,999	-0,025	-0,003
-138,687	-200,000	-0,024	-0,104
-137,672	-200,000	0,013	-0,182
-136,658	45,341	-0,089	0,058
-135,643	378,338	0,081	-0,118
-134,629	189,918	0,053	-0,056
-133,614	-200,000	0,009	0,038
-132,599	-91,862	0,084	-0,017
-131,585	-41,185	0,040	-0,014
-130,570	4,095	-0,018	0,009
-129,556	800,000	-0,049	-0,102
-128,541	-39,774	-0,076	0,028
-127,526	-200,000	-0,008	-0,097
-126,512	-200,000	0,014	0,086
-125,497	-200,000	0,002	0,081
-124,483	146,715	-0,057	0,054
-123,468	65,874	-0,053	0,038
-122,453	800,000	-0,002	0,006
-121,439	-200,000	-0,045	0,149
-120,424	67,227	-0,099	0,071
-119,410	-200,000	-0,013	0,048
-118,395	-200,000	-0,003	0,119
-117,380	-83,853	-0,047	0,010
-116,366	2,286	0,054	0,028
-115,351	234,523	-0,168	-0,198
-114,337	-78,631	-0,194	-0,047
-113,322	-200,000	0,007	-0,060
-112,307	-200,000	-0,025	0,092
-111,293	3,725	0,074	0,038
-110,278	600,421	0,017	0,030
-109,264	-200,000	-0,020	-0,103
-108,249	1,803	-0,099	0,051
-107,234	514,122	-0,081	-0,134
-106,220	523,702	-0,066	-0,110
-105,205	-96,508	0,088	0,016
-104,191	-200,000	0,009	0,046
-103,176	-200,000	-0,004	0,062
-102,162	12,173	-0,129	0,071
-101,147	-99,845	-0,101	-0,018
-100,132	-200,000	-0,009	-0,054
-99,118	593,411	0,037	-0,066
-98,103	-70,253	0,101	-0,027
-97,089	224,494	0,056	-0,064
-96,074	97,667	0,051	-0,042
-95,059	-152,947	-0,062	-0,003
-94,045	168,906	-0,066	-0,067
-93,030	800,000	0,034	0,083
-92,016	-70,916	-0,078	0,021
-91,001	5,725	-0,134	-0,070
-89,986	-193,056	0,187	-0,001
-88,972	33,795	-0,061	0,038
-87,957	119,052	0,086	0,075
-86,943	303,630	-0,090	0,119
-85,928	149,853	-0,159	-0,153
-84,913	-125,929	-0,186	-0,020
-83,899	-44,648	0,033	0,012
-82,884	-6,910	0,140	0,067
-81,870	217,436	0,015	-0,017
-80,855	-193,967	-0,186	0,001
-79,840	550,594	-0,056	0,096
-78,826	-200,000	-0,002	-0,104
-77,811	1,880	-0,085	-0,043
-76,797	175,810	-0,076	0,078
-75,782	-200,000	0,021	0,124
-74,767	119,933	-0,060	0,053
-73,753	800,000	-0,037	0,113
-72,738	58,057	-0,126	-0,088
-71,724	781,864	-0,063	-0,123
-70,709	34,624	-0,059	0,037
-69,694	-200,000	0,002	0,037
-68,680	-52,508	-0,177	-0,058
-67,665	292,830	0,035	-0,045
-66,651	201,563	0,055	-0,060
-65,636	-52,592	0,054	-0,017
-64,622	-2,956	-0,210	-0,104
-63,607	-200,000	0,004	-0,043
-62,592	82,808	-0,102	-0,078
-61,578	-200,000	-0,038	-0,163
-60,563	267,093	-0,069	-0,086
-59,549	-200,000	-0,005	0,084
-58,534	-71,101	-1,428	-0,378
-57,519	356,788	-1,564	-2,216
-56,505	-200,000	-0,465	-4,443
-55,490	128,399	0,907	0,819
-54,476	800,000	4,691	11,196
-53,461	-200,000	17,629	282,174
-52,446	800,000	721,145	2223,039
-51,432	560,467	1634,961	2811,160
-50,417	80,798	1658,098	1266,279
-49,403	23,727	1532,129	892,176
-48,388	17,710	1455,714	818,664
-47,373	18,243	1445,282	815,322
-46,359	17,811	1435,978	807,983
-45,344	15,976	1431,212	796,552
-44,330	15,929	1429,159	795,152
-43,315	15,943	1427,341	794,176
-42,300	15,950	1425,809	793,326
-41,286	15,967	1424,726	792,770
-40,271	15,957	1423,340	791,921
-39,257	15,965	1422,102	791,238
-38,242	15,998	1420,970	790,731
-37,227	16,037	1419,478	790,058
-36,213	15,972	1418,225	789,022
-35,198	15,923	1417,138	788,155
-34,184	15,945	1416,426	787,829
-33,169	15,944	1415,011	787,006
-32,154	16,000	1413,905	786,622
-31,140	15,991	1412,412	785,721
-30,125	16,029	1411,248	785,221
-29,111	16,000	1410,206	784,472
-28,096	15,954	1409,085	783,602
-27,082	15,879	1408,184	782,721
-26,067	15,868	1407,021	781,989
-25,052	15,935	1405,911	781,655
-24,038	15,884	1404,946	780,851
-23,023	15,905	1403,801	780,280
-22,009	15,894	1402,897	779,697
-20,994	15,846	1401,929	778,902
-19,979	15,867	1400,893	778,396
-18,965	15,856	1400,155	777,905
-17,950	15,825	1399,246	777,223
-16,936	15,830	1398,250	776,663
-15,921	15,796	1396,943	775,746
-14,906	15,776	1395,990	775,097
-13,892	15,802	1394,873	774,563
-12,877	15,817	1394,162	774,209
-11,863	15,841	1393,310	773,816
-10,848	15,799	1392,351	773,059
-9,833	15,774	1391,366	772,365
-8,819	15,716	1390,491	771,583
-7,804	15,750	1389,530	771,172
-6,790	15,738	1388,486	770,506
-5,775	15,638	1387,741	769,604
-4,760	15,686	1386,617	769,169
-3,746	15,731	1385,750	768,866
-2,731	15,695	1385,116	768,317
-1,717	15,687	1384,222	767,754
-0,702	15,690	1382,064	766,542
0,313	19,440	1302,914	739,943
1,327	35,743	706,051	438,719
2,342	54,978	125,032	85,404
3,356	1,360	16,587	8,417
4,371	5,214	3,097	1,611
5,386	-24,720	0,505	0,212
6,400	196,472	0,111	-0,120
7,415	206,642	-0,230	-0,254
8,429	78,108	-0,272	-0,205
9,444	28,850	-0,367	-0,219
10,459	10,069	-0,359	-0,193
11,473	68,250	-0,266	-0,192
12,488	-53,243	-0,196	-0,063
13,502	26,069	-0,337	-0,198
14,517	89,589	-0,384	-0,303
15,531	164,139	-0,291	-0,290
16,546	89,096	-0,444	-0,350
17,561	201,715	-0,309	-0,337
18,575	-86,983	-0,253	-0,054
19,590	252,707	-0,234	-0,282
20,604	52,384	-0,155	-0,104
21,619	3,751	-0,371	-0,191
22,634	227,162	-0,302	-0,348
23,648	63,931	-0,375	-0,266
24,663	52,695	-0,438	-0,295
25,677	117,407	-0,238	-0,207
26,692	-14,146	-0,420	-0,191
27,707	199,880	-0,275	-0,298
28,721	36,018	-0,399	-0,248
29,736	147,785	-0,285	-0,272
30,750	92,628	-0,390	-0,311
31,765	20,798	-0,453	-0,259
32,780	65,395	-0,324	-0,231
33,794	163,603	-0,263	-0,262
34,809	-7,490	-0,351	-0,167
35,823	83,777	-0,356	-0,274
36,838	-1,819	-0,490	-0,243
37,853	90,839	-0,423	-0,335
38,867	107,701	-0,383	-0,322
39,882	60,736	-0,320	-0,224
40,896	128,586	-0,263	-0,237
41,911	-106,429	-0,353	-0,055
42,926	-27,879	-0,382	-0,156
43,940	176,316	-0,272	-0,280
44,955	8,342	-0,483	-0,256
45,969	68,924	-0,312	-0,226
46,984	78,711	-0,380	-0,286
47,999	506,000	-0,187	-0,308
49,013	4,209	-0,422	-0,217
50,028	2,027	-0,365	-0,185
51,042	124,998	-0,324	-0,288
52,057	34,223	-0,346	-0,213
53,071	23,084	-0,348	-0,201
54,086	289,710	-0,183	-0,235
55,101	199,228	-0,278	-0,301
56,115	120,267	-0,396	-0,347
57,130	-124,400	-0,318	-0,035
58,144	139,327	-0,299	-0,277
59,159	-9,765	-0,405	-0,189
60,174	142,198	-0,347	-0,324
61,188	13,475	-0,332	-0,181
62,203	20,500	-0,397	-0,226
63,217	-0,125	-0,385	-0,192
64,232	399,480	-0,208	-0,308
65,247	121,699	-0,346	-0,304
66,261	-21,163	-0,441	-0,189
67,276	-19,849	-0,492	-0,213
68,290	60,469	-0,403	-0,281
69,305	292,210	-0,190	-0,244
70,320	17,005	-0,296	-0,165
71,334	155,910	-0,230	-0,223
72,349	19,713	-0,467	-0,264
73,363	44,739	-0,295	-0,191
74,378	12,862	-0,292	-0,158
75,393	-10,643	-0,360	-0,167
76,407	27,941	-0,297	-0,176
77,422	45,085	-0,283	-0,183
78,436	2,248	-0,313	-0,159
79,451	165,854	-0,237	-0,236
80,466	106,505	-0,299	-0,249
81,480	37,892	-0,372	-0,232
82,495	21,231	-0,398	-0,227
83,509	-34,162	-0,322	-0,124
84,524	1,934	-0,385	-0,195
85,539	17,496	-0,411	-0,229
86,553	21,344	-0,242	-0,138
87,568	69,285	-0,292	-0,211
88,582	115,317	-0,335	-0,288
89,597	214,710	-0,271	-0,302
90,611	201,542	-0,137	-0,149
91,626	202,302	-0,232	-0,252
92,641	-64,083	-0,251	-0,071
93,655	26,393	-0,300	-0,176
94,670	11,249	-0,241	-0,129
95,684	115,202	-0,336	-0,288
96,699	143,527	-0,250	-0,234
97,714	80,348	-0,168	-0,127
98,728	163,265	-0,261	-0,258
99,743	37,508	-0,264	-0,164
100,757	192,009	-0,106	-0,112
101,772	197,717	-0,287	-0,308
102,787	20,034	-0,324	-0,183
103,801	-78,276	-0,344	-0,082
104,816	35,842	-0,167	-0,103
105,830	10,464	-0,258	-0,138
106,845	800,000	-0,083	-0,166
107,860	59,191	-0,263	-0,181
108,874	22,697	-0,323	-0,185
109,889	310,409	-0,246	-0,324
110,903	108,771	-0,281	-0,235
111,918	37,702	-0,335	-0,208
112,933	-70,475	-0,274	-0,072
113,947	-49,116	-0,321	-0,107
114,962	146,545	-0,294	-0,277
115,976	800,000	-0,074	-0,167
116,991	-8,489	-0,148	-0,069
118,006	-21,907	-0,346	-0,147
119,020	112,328	-0,290	-0,246
120,035	431,640	-0,091	-0,139
121,049	66,274	-0,187	-0,133
122,064	-35,908	-0,219	-0,083
123,079	163,647	-0,278	-0,274
124,093	44,056	-0,370	-0,237
125,108	90,684	-0,312	-0,244
126,122	16,701	-0,310	-0,171
127,137	-4,936	-0,221	-0,106
128,151	228,870	-0,136	-0,156
129,166	202,540	-0,205	-0,222
130,181	48,329	-0,301	-0,197
131,195	64,959	-0,406	-0,287
132,210	-60,053	-0,544	-0,162
133,224	76,638	-0,314	-0,233
134,239	800,000	-0,119	-0,274
135,254	106,243	-0,171	-0,141
136,268	42,437	-0,232	-0,147
137,283	83,035	-0,186	-0,142
138,297	188,228	-0,286	-0,299
139,312	143,698	-0,283	-0,264
140,327	113,013	-0,201	-0,171
141,341	-110,490	-0,236	-0,034
142,356	800,000	-0,127	-0,247
143,370	171,836	-0,172	-0,174
144,385	122,912	-0,202	-0,176
145,400	322,301	-0,215	-0,287
146,414	189,816	-0,256	-0,269
147,429	249,820	-0,267	-0,317
148,443	55,350	-0,313	-0,211
149,458	100,837	-0,161	-0,131
150,473	607,884	-0,176	-0,309
151,487	247,457	-0,172	-0,204
152,502	69,113	-0,326	-0,234
153,516	-93,388	-0,258	0,050
154,531	38,209	-0,256	-0,159
155,546	290,019	-0,257	-0,327
156,560	-26,772	-0,271	-0,110
157,575	19,280	-0,271	-0,152
158,589	374,877	-0,178	-0,254
159,604	6,736	-0,226	-0,117
160,619	197,512	-0,194	-0,207
161,633	128,184	-0,292	-0,259
162,648	63,410	-0,239	-0,167
163,662	384,154	-0,077	-0,111
164,677	-65,069	-0,133	-0,037
165,692	30,015	-0,127	-0,075
166,706	-4,066	-0,321	-0,155
167,721	800,000	-0,162	-0,374
168,735	301,371	-0,243	-0,314
169,750	84,304	-0,206	-0,157
170,764	101,348	-0,194	-0,157
171,779	631,483	-0,189	-0,336
172,794	-54,331	-0,216	-0,068
173,808	169,660	-0,077	-0,077
174,823	41,548	-0,231	-0,146
175,837	105,602	-0,238	-0,196
176,852	76,250	-0,259	-0,191
177,867	-17,948	-0,238	-0,104
178,881	31,784	-0,304	-0,182
179,896	2,735	-0,150	-0,076
180,910	435,429	-0,151	-0,230
181,925	296,012	-0,107	-0,137
182,940	37,227	-0,310	-0,191
183,954	67,951	-0,191	-0,136
184,969	221,335	-0,204	-0,229
185,983	272,832	-0,144	-0,178
186,998	13,204	-0,224	-0,121
188,013	196,452	-0,183	-0,195
189,027	104,773	-0,262	-0,215
190,042	198,177	-0,356	-0,380
191,056	155,384	-0,174	-0,167
192,071	800,000	-0,078	-0,203
193,086	427,445	-0,098	-0,147
194,100	120,362	-0,048	-0,042
195,115	449,617	-0,134	-0,206
196,129	9,090	-0,186	-0,097
197,144	150,270	-0,198	-0,187
198,159	157,130	-0,157	-0,151
199,173	23,992	-0,145	-0,083
200,188	460,607	-0,138	-0,215
201,202	-169,441	-0,135	-0,003
202,217	286,065	-0,149	-0,188
203,232	167,108	-0,257	-0,254
204,246	800,000	-0,117	-0,231
205,261	59,373	-0,191	-0,131
206,275	-36,096	-0,289	-0,108
207,290	693,522	-0,109	-0,199
208,304	132,524	-0,193	-0,173
209,319	-190,269	-0,219	-0,002
210,334	-62,211	-0,269	-0,077
211,348	-54,203	-0,221	-0,069
212,363	-36,023	-0,314	-0,117
213,377	3,340	-0,233	-0,118
214,392	3,356	-0,290	-0,146
215,407	106,036	-0,143	-0,118
216,421	-200,000	-0,065	-0,231
217,436	-63,772	-0,314	-0,089
218,450	-116,880	-0,236	-0,030
219,465	168,834	-0,280	-0,278
220,480	298,267	-0,198	-0,254
221,494	-11,116	-0,248	-0,113
222,509	-199,908	-0,214	-0,001
223,523	-117,868	-0,152	0,019
224,538	60,632	-0,227	-0,156
225,553	8,166	-0,252	-0,131
226,567	-68,836	-0,199	-0,053
227,582	213,908	-0,235	-0,258
228,596	800,000	-0,202	-0,402
229,611	286,011	-0,122	-0,153
230,626	69,680	-0,113	-0,081
231,640	-43,198	-0,258	-0,090
232,655	800,000	-0,086	-0,190
233,669	228,528	-0,117	-0,132
234,684	-168,146	-0,288	0,008
235,699	251,182	-0,108	-0,128
236,713	322,369	-0,075	-0,099
237,728	64,413	-0,374	-0,261
238,742	88,191	-0,149	-0,114
239,757	-84,076	-0,245	-0,054
240,772	110,757	-0,189	-0,157
241,786	250,246	-0,165	-0,194
242,801	77,066	-0,140	0,103
243,815	106,199	-0,212	-0,174
244,830	20,256	-0,153	-0,086
245,844	-3,933	-0,236	-0,113
246,859	-40,025	-0,182	-0,066
247,874	-9,165	-0,175	-0,081
248,888	16,142	-0,157	-0,086
249,903	128,126	-0,138	-0,122
250,917	-34,203	-0,068	-0,026
251,932	490,041	-0,128	-0,204
252,947	800,000	-0,059	-0,144
253,961	153,663	-0,223	-0,211
254,976	48,632	-0,223	-0,144
255,990	171,178	-0,146	-0,145
257,005	-16,581	-0,084	-0,037
258,020	-198,651	-0,147	-0,001
259,034	-18,388	-0,179	-0,077
260,049	195,191	-0,188	-0,198
261,063	322,437	-0,159	-0,211
262,078	438,186	-0,130	-0,197
263,093	800,000	-0,040	-0,096
264,107	285,262	-0,109	-0,136
265,122	225,427	-0,116	-0,130
266,136	-60,890	-0,150	-0,044
267,151	280,291	-0,105	-0,130
268,166	5,720	-0,138	-0,070
269,180	113,620	-0,249	-0,209
270,195	240,894	-0,205	-0,237
271,209	-66,558	-0,204	-0,055
272,224	-24,970	-0,177	-0,072
273,239	160,484	-0,093	-0,090
274,253	-1,389	-0,117	-0,057
275,268	65,282	-0,130	-0,091
276,282	108,394	-0,259	-0,213
277,297	210,416	-0,198	-0,215
278,312	38,137	-0,141	-0,087
279,326	174,526	-0,099	-0,100
280,341	-84,442	-0,124	-0,027
281,355	-100,902	-0,116	-0,020
282,370	155,203	-0,236	-0,225
283,384	-23,634	-0,330	-0,136
284,399	174,092	-0,208	-0,208
285,414	670,153	-0,124	-0,224
286,428	-116,562	-0,239	0,030
287,443	167,933	-0,200	-0,197
288,457	-19,425	-0,138	-0,059
289,472	-81,696	-0,205	-0,046
290,487	-76,780	-0,163	-0,039
291,501	308,272	-0,077	-0,099
292,516	267,061	-0,219	-0,265
293,530	302,382	-0,174	-0,222
294,545	224,657	-0,116	-0,130
295,560	-154,674	-0,265	-0,012
296,574	71,789	-0,141	-0,101
297,589	37,015	-0,212	-0,129
298,603	146,308	-0,182	-0,169
299,618	83,573	-0,234	-0,176
300,633	-110,834	-0,108	0,015
301,647	-16,721	-0,075	0,033
302,662	-59,579	-0,167	-0,049
303,676	-114,990	-0,178	0,023
304,691	32,508	-0,253	-0,151
305,706	12,823	-0,090	-0,048
306,720	384,878	-0,127	-0,180
307,735	266,392	-0,148	-0,179
308,749	244,565	-0,071	-0,083
309,764	157,893	-0,177	-0,169
310,779	91,872	-0,207	-0,161
311,793	-122,845	-0,108	0,012
312,808	149,729	-0,216	-0,201
313,822	-200,000	0,021	-0,067
314,837	458,845	-0,115	-0,177
315,852	293,462	-0,130	-0,163
316,866	88,358	-0,183	-0,140
317,881	736,608	-0,095	-0,177
318,895	-200,000	-0,024	-0,131
319,910	451,699	-0,110	-0,169
320,925	383,248	-0,088	-0,125
321,939	425,311	-0,079	-0,117
322,954	800,000	-0,079	-0,163
323,968	-200,000	-0,004	-0,136
324,983	260,286	-0,179	-0,214
325,997	249,680	-0,059	-0,069
327,012	-200,000	-0,024	-0,213
328,027	-68,950	-0,231	-0,061
329,041	73,266	-0,147	-0,105
330,056	521,192	-0,101	-0,164
331,070	9,333	-0,167	-0,086
332,085	-127,563	-0,217	-0,021
333,100	73,311	-0,165	-0,119
334,114	57,952	-0,220	-0,148
335,129	-60,736	-0,231	-0,067
336,143	800,000	-0,060	-0,120
337,158	113,187	-0,003	0,002
338,173	-5,296	-0,172	-0,081
339,187	169,713	-0,155	-0,153
340,202	112,755	-0,123	-0,103
341,216	139,904	-0,125	-0,113
342,231	72,566	-0,197	-0,141
343,246	178,076	-0,161	-0,162
344,260	800,000	-0,075	-0,143
345,275	91,726	-0,137	-0,106
346,289	191,677	-0,099	-0,103
347,304	83,787	-0,143	-0,107
348,319	239,505	-0,114	-0,131
349,333	-25,967	-0,121	-0,049
350,348	664,289	-0,069	-0,122
351,362	-72,900	-0,113	0,028
352,377	191,339	-0,095	-0,099
353,392	-155,086	-0,107	0,005
354,406	-175,866	-0,213	0,004
355,421	209,243	1313,337	1414,595
356,435	161,027	1473,961	1415,122
