DTS Sentinel unit serial number:	SN410029Multiplexer serial number:	ORYXHardware model number:	OX2-SRSoftware version number:	ORYX F/W v4,00 Oryx Data Collector v3.7.2.0data status	okinstallation	B3 Nyhavnadifferential loss correction	single-endedforward channel	channel 1reverse channel	N/Adate	2023/12/03time	01:47:30forward acquisition time	300,00reverse acquisition time	0,00gamma	499,1914k internal	0,3201k external	0,3201temperature offset calibration	1,0000default loss term (dB/km)	0,3820temperature slope calibration	1,0000multiplexer offset coefficient	1,0000multiplexer slope coefficient	1,0000fibre end	0,00T internal ref (°C)	13,33T ext. ref 1 (°C)	-1,66T ext. ref 2 (°C)	-1,67length (m)	temperature (°C)	Stokes	anti-Stokes-744,400	800,000	-0,127	-0,289
-743,385	-200,000	-0,028	0,358
-742,371	182,445	-0,168	-0,181
-741,356	-200,000	0,096	0,332
-740,342	237,638	-0,140	-0,169
-739,327	-200,000	-0,019	0,228
-738,312	301,859	-0,208	-0,280
-737,298	-200,000	-0,063	0,300
-736,283	145,163	-0,266	-0,259
-735,269	-200,000	0,094	0,344
-734,254	645,151	-0,109	-0,204
-733,239	44,314	-0,228	0,152
-732,225	-40,643	-0,234	-0,088
-731,210	28,722	0,227	0,139
-730,196	-200,000	0,008	-0,060
-729,181	-82,183	0,075	0,018
-728,167	518,222	-0,011	0,018
-727,152	-200,000	-0,024	0,085
-726,137	-71,477	0,063	-0,017
-725,123	-200,000	-0,031	-0,110
-724,108	-134,789	-0,150	-0,013
-723,094	73,606	-0,074	-0,056
-722,079	13,836	0,117	-0,066
-721,064	3,962	0,035	0,018
-720,050	204,073	-0,119	-0,134
-719,035	-143,030	0,075	-0,005
-718,021	405,824	-0,117	-0,180
-717,006	800,000	-0,019	0,042
-715,991	216,237	-0,070	-0,081
-714,977	-66,551	-0,191	-0,055
-713,962	216,324	0,052	-0,061
-712,948	800,000	0,008	-0,018
-711,933	59,223	-0,136	0,097
-710,918	-9,495	0,065	-0,031
-709,904	338,566	0,045	-0,063
-708,889	-200,000	0,020	-0,116
-707,875	205,240	-0,073	0,083
-706,860	800,000	-0,034	0,088
-705,845	72,929	-0,037	0,028
-704,831	800,000	-0,033	0,101
-703,816	550,812	0,014	-0,025
-702,802	800,000	-0,014	-0,042
-701,787	800,000	-0,016	-0,051
-700,772	192,817	-0,066	-0,073
-699,758	800,000	0,046	-0,139
-698,743	418,785	-0,098	-0,152
-697,729	105,311	0,062	-0,053
-696,714	-70,524	-0,075	-0,020
-695,699	800,000	-0,038	-0,114
-694,685	-200,000	-0,003	0,054
-693,670	800,000	0,027	-0,075
-692,656	-200,000	0,007	0,045
-691,641	-140,811	0,188	0,014
-690,627	230,740	-0,046	-0,054
-689,612	190,390	-0,092	-0,100
-688,597	800,000	-0,049	-0,106
-687,583	-162,988	-0,150	0,005
-686,568	520,706	-0,032	0,054
-685,554	5,490	-0,118	-0,063
-684,539	-84,531	0,103	0,024
-683,524	245,576	-0,090	0,110
-682,510	617,302	-0,035	0,065
-681,495	55,061	0,086	-0,060
-680,481	49,089	-0,167	-0,114
-679,466	20,481	-0,097	-0,057
-678,451	46,201	-0,045	0,030
-677,437	-200,000	0,014	-0,076
-676,422	266,927	0,086	-0,109
-675,408	373,903	-0,055	-0,082
-674,393	267,952	-0,102	-0,130
-673,378	127,616	-0,199	-0,183
-672,364	98,451	-0,030	-0,025
-671,349	-200,000	-0,009	-0,034
-670,335	-91,514	0,124	0,025
-669,320	800,000	-0,029	-0,068
-668,305	-2,248	0,151	0,077
-667,291	19,672	0,065	0,038
-666,276	58,104	-0,085	-0,061
-665,262	-200,000	-0,005	-0,027
-664,247	-200,000	-0,030	0,146
-663,232	-7,719	0,091	-0,045
-662,218	-63,049	0,217	-0,065
-661,203	83,105	-0,057	0,045
-660,189	-200,000	0,025	-0,126
-659,174	20,989	0,070	-0,041
-658,159	47,745	-0,066	-0,045
-657,145	-200,000	0,015	0,105
-656,130	-200,000	0,118	-0,000
-655,116	-200,000	-0,002	-0,096
-654,101	-48,671	0,047	0,016
-653,086	135,584	-0,115	-0,109
-652,072	16,895	-0,050	-0,029
-651,057	-52,266	-0,220	-0,073
-650,043	-58,990	-0,019	0,006
-649,028	442,194	-0,041	-0,066
-648,014	-114,918	-0,158	-0,022
-646,999	-200,000	0,018	0,074
-645,984	89,073	-0,079	-0,064
-644,970	-200,000	-0,016	0,136
-643,955	-162,640	-0,064	0,002
-642,941	-200,000	-0,003	-0,082
-641,926	648,953	0,015	-0,028
-640,911	-200,000	0,015	0,058
-639,897	800,000	-0,040	0,111
-638,882	475,447	0,109	0,179
-637,868	785,878	-0,064	-0,128
-636,853	510,118	-0,073	-0,123
-635,838	-200,000	0,020	-0,142
-634,824	-200,000	-0,017	-0,133
-633,809	139,478	0,118	0,113
-632,795	280,376	-0,030	0,039
-631,780	-4,474	-0,095	-0,047
-630,765	-7,737	-0,030	0,015
-629,751	-39,042	-0,067	-0,025
-628,736	312,959	0,015	0,020
-627,722	-33,622	-0,087	-0,035
-626,707	-200,000	-0,001	-0,038
-625,692	-200,000	0,012	0,054
-624,678	-200,000	-0,042	0,164
-623,663	159,012	0,048	-0,048
-622,649	-45,828	-0,155	0,055
-621,634	-87,957	0,159	0,034
-620,619	-19,130	-0,156	0,070
-619,605	800,000	-0,022	0,047
-618,590	612,633	0,062	0,113
-617,576	47,709	0,054	0,036
-616,561	197,348	-0,119	0,132
-615,546	-200,000	0,000	-0,101
-614,532	-48,866	-0,100	-0,035
-613,517	800,000	-0,029	-0,080
-612,503	-200,000	0,001	-0,021
-611,488	800,000	-0,051	0,113
-610,474	222,743	0,054	-0,063
-609,459	181,139	0,046	0,049
-608,444	222,602	-0,062	-0,072
-607,430	-200,000	0,035	-0,128
-606,415	111,483	-0,056	-0,049
-605,401	10,257	-0,076	-0,042
-604,386	37,581	0,096	0,062
-603,371	800,000	0,051	0,126
-602,357	34,489	0,103	-0,065
-601,342	-116,802	-0,165	-0,022
-600,328	-143,132	0,033	-0,002
-599,313	-23,210	-0,072	0,031
-598,298	-10,978	-0,092	-0,044
-597,284	-26,573	0,107	-0,045
-596,269	-200,000	0,023	0,101
-595,255	-99,703	-0,080	0,014
-594,240	30,029	0,102	-0,063
-593,225	19,401	-0,078	-0,045
-592,211	800,000	0,063	-0,153
-591,196	-200,000	-0,023	-0,098
-590,182	800,000	0,036	0,086
-589,167	-12,766	-0,045	0,021
-588,152	-49,731	0,031	0,011
-587,138	466,894	0,047	0,076
-586,123	800,000	0,014	0,029
-585,109	-161,950	-0,032	0,001
-584,094	-57,940	0,045	0,014
-583,079	-38,796	-0,055	-0,021
-582,065	800,000	0,041	0,123
-581,050	-200,000	-0,011	0,044
-580,036	64,126	-0,020	-0,015
-579,021	524,753	-0,024	0,041
-578,006	800,000	-0,026	-0,063
-576,992	-200,000	-0,002	-0,051
-575,977	-200,000	-0,025	0,121
-574,963	431,429	0,123	0,193
-573,948	281,554	0,122	0,158
-572,934	126,516	0,079	0,073
-571,919	-200,000	0,002	-0,042
-570,904	518,647	-0,047	-0,080
-569,890	37,345	0,089	-0,057
-568,875	142,459	-0,031	-0,029
-567,861	800,000	0,016	0,048
-566,846	-47,644	0,028	0,010
-565,831	-200,000	0,006	-0,030
-564,817	334,402	0,026	0,036
-563,802	216,282	-0,048	-0,055
-562,788	-14,316	-0,051	0,024
-561,773	237,657	0,042	0,051
-560,758	26,072	0,129	0,077
-559,744	207,861	-0,114	0,129
-558,729	68,222	-0,060	-0,044
-557,715	3,769	-0,027	0,014
-556,700	345,499	-0,067	-0,095
-555,685	219,867	0,040	0,046
-554,671	-200,000	0,007	0,083
-553,656	-35,266	0,032	0,013
-552,642	101,297	0,040	0,034
-551,627	-200,000	-0,003	0,034
-550,612	5,764	-0,091	0,049
-549,598	-200,000	0,018	-0,090
-548,583	617,810	-0,006	-0,011
-547,569	-200,000	0,020	-0,064
-546,554	-200,000	-0,006	0,055
-545,539	56,844	0,066	0,046
-544,525	307,121	0,022	0,030
-543,510	268,816	-0,082	-0,103
-542,496	229,947	0,056	0,066
-541,481	44,353	-0,058	-0,038
-540,466	144,864	-0,029	-0,028
-539,452	-200,000	-0,001	0,005
-538,437	-200,000	0,022	0,097
-537,423	800,000	0,067	-0,167
-536,408	652,410	-0,020	0,036
-535,393	800,000	-0,067	-0,170
-534,379	-93,098	-0,076	-0,015
-533,364	-200,000	-0,002	0,038
-532,350	279,474	0,095	0,122
-531,335	800,000	0,127	0,258
-530,321	-133,452	-0,085	0,008
-529,306	-56,308	-0,122	0,039
-528,291	-200,000	-0,015	-0,132
-527,277	-155,987	-0,180	0,008
-526,262	615,152	-0,014	-0,025
-525,248	800,000	-0,043	-0,104
-524,233	800,000	0,011	-0,030
-523,218	102,088	0,051	0,043
-522,204	-200,000	0,009	-0,035
-521,189	-200,000	0,005	-0,185
-520,175	-200,000	-0,001	-0,039
-519,160	75,016	-0,026	0,020
-518,145	-24,186	-0,083	0,035
-517,131	416,469	0,091	-0,140
-516,116	364,427	0,022	0,032
-515,102	800,000	-0,026	-0,062
-514,087	358,698	0,036	0,052
-513,072	48,191	-0,174	-0,117
-512,058	160,699	-0,029	0,029
-511,043	90,987	-0,064	0,052
-510,029	-200,000	0,001	-0,024
-509,014	-200,000	0,010	0,128
-507,999	800,000	0,058	0,161
-506,985	-139,670	-0,018	-0,001
-505,970	-200,000	0,018	0,072
-504,956	-200,000	-0,017	-0,155
-503,941	-113,646	0,118	0,016
-502,926	725,757	-0,037	0,072
-501,912	800,000	-0,039	-0,118
-500,897	800,000	-0,039	0,106
-499,883	-200,000	0,001	-0,065
-498,868	-1,577	-0,147	-0,074
-497,853	322,983	-0,038	-0,052
-496,839	-200,000	-0,003	-0,113
-495,824	115,397	0,060	0,053
-494,810	-67,828	0,128	0,036
-493,795	352,720	-0,067	0,096
-492,781	27,253	0,046	0,028
-491,766	-60,566	0,100	-0,030
-490,751	357,370	-0,093	-0,133
-489,737	800,000	-0,041	0,116
-488,722	104,643	-0,053	-0,045
-487,708	-200,000	0,045	-0,213
-486,693	373,867	0,050	-0,073
-485,678	800,000	-0,041	-0,120
-484,664	-92,396	-0,103	0,021
-483,649	107,041	0,097	-0,083
-482,635	-62,153	0,169	0,050
-481,620	82,132	-0,069	-0,054
-480,605	207,595	0,066	-0,075
-479,591	-200,000	-0,002	0,060
-478,576	300,979	-0,050	0,067
-477,562	112,888	-0,109	-0,095
-476,547	70,609	-0,129	0,096
-475,532	57,036	-0,129	0,091
-474,518	-46,579	0,092	-0,032
-473,503	-62,081	0,081	0,024
-472,489	-169,636	0,088	-0,002
-471,474	-129,456	-0,050	0,005
-470,459	702,200	0,085	-0,161
-469,445	-43,156	-0,111	-0,040
-468,430	292,346	-0,062	-0,081
-467,416	160,546	0,024	-0,024
-466,401	800,000	0,019	0,055
-465,386	68,728	0,011	0,008
-464,372	75,184	0,040	0,030
-463,357	-35,396	-0,105	-0,041
-462,343	-200,000	-0,005	-0,053
-461,328	594,899	-0,016	0,029
-460,313	-200,000	-0,044	0,154
-459,299	103,249	0,098	-0,083
-458,284	800,000	-0,033	0,102
-457,270	-200,000	0,015	0,058
-456,255	-28,077	-0,106	0,044
-455,241	47,726	0,098	-0,066
-454,226	88,975	-0,031	-0,025
-453,211	-100,366	-0,009	-0,002
-452,197	84,309	-0,069	0,054
-451,182	20,737	0,078	0,045
-450,168	-200,000	0,006	0,075
-449,153	800,000	0,010	-0,024
-448,138	-200,000	0,026	-0,124
-447,124	-24,630	0,070	0,030
-446,109	1,120	-0,087	0,045
-445,095	40,959	0,091	0,059
-444,080	-89,329	0,092	0,019
-443,065	45,917	0,033	-0,022
-442,051	-28,535	0,090	0,037
-441,036	800,000	-0,063	-0,136
-440,022	-82,245	-0,033	-0,008
-439,007	-122,990	-0,147	-0,017
-437,992	-200,000	0,012	0,043
-436,978	3,485	0,167	-0,087
-435,963	-200,000	0,004	0,085
-434,949	-200,000	0,003	0,137
-433,934	122,248	0,063	0,057
-432,919	-200,000	-0,012	-0,103
-431,905	-200,000	-0,004	-0,081
-430,890	-200,000	0,013	-0,111
-429,876	-200,000	0,001	-0,043
-428,861	800,000	-0,050	0,102
-427,846	-200,000	-0,015	0,051
-426,832	106,497	-0,115	-0,098
-425,817	729,177	-0,015	-0,030
-424,803	-70,887	0,081	0,022
-423,788	-69,180	-0,089	0,024
-422,773	-200,000	0,047	0,229
-421,759	10,675	-0,069	0,038
-420,744	82,463	-0,014	-0,011
-419,730	800,000	0,037	-0,101
-418,715	280,200	0,043	-0,055
-417,701	-103,457	-0,093	-0,016
-416,686	146,530	0,079	0,076
-415,671	30,706	0,167	0,102
-414,657	-131,384	-0,134	0,013
-413,642	800,000	-0,054	-0,112
-412,628	8,232	-0,047	0,025
-411,613	-20,960	-0,133	-0,058
-410,598	-200,000	-0,011	-0,073
-409,584	-61,514	-0,105	-0,032
-408,569	-200,000	0,056	0,184
-407,555	306,187	0,030	0,040
-406,540	723,663	-0,077	-0,147
-405,525	-80,702	0,084	-0,020
-404,511	800,000	-0,037	0,088
-403,496	-200,000	0,001	-0,029
-402,482	611,992	0,061	-0,111
-401,467	31,493	0,113	-0,069
-400,452	187,669	-0,079	0,084
-399,438	-92,812	0,064	-0,013
-398,423	-200,000	0,021	0,084
-397,409	45,079	-0,041	-0,027
-396,394	41,248	-0,027	-0,018
-395,379	-138,902	-0,112	0,009
-394,365	-200,000	0,015	0,213
-393,350	-41,119	0,015	0,005
-392,336	353,696	0,011	-0,015
-391,321	-45,956	-0,084	-0,030
-390,306	10,115	-0,057	-0,031
-389,292	207,772	-0,020	-0,023
-388,277	59,038	-0,067	-0,048
-387,263	9,127	0,112	0,060
-386,248	87,918	0,076	0,060
-385,233	81,509	-0,029	-0,023
-384,219	-108,311	-0,081	0,012
-383,204	-48,656	-0,081	0,028
-382,190	800,000	-0,068	0,149
-381,175	379,038	-0,075	-0,110
-380,160	-200,000	0,003	-0,024
-379,146	800,000	0,019	0,042
-378,131	800,000	0,030	0,061
-377,117	-200,000	0,023	0,079
-376,102	-74,918	-0,045	-0,011
-375,088	-200,000	-0,014	-0,206
-374,073	258,393	0,032	-0,040
-373,058	800,000	0,015	-0,041
-372,044	154,812	0,068	-0,067
-371,029	800,000	0,005	0,013
-370,015	-200,000	-0,018	-0,099
-369,000	280,200	0,028	-0,036
-367,985	-13,351	0,070	-0,032
-366,971	-200,000	0,005	-0,107
-365,956	56,645	0,186	0,130
-364,942	445,013	0,054	0,086
-363,927	-175,002	0,131	0,003
-362,912	800,000	-0,022	0,053
-361,898	520,203	0,038	-0,064
-360,883	-200,000	-0,042	0,135
-359,869	-3,305	-0,074	0,037
-358,854	69,035	0,137	0,101
-357,839	-47,067	0,067	0,023
-356,825	800,000	0,030	0,090
-355,810	-200,000	-0,002	0,077
-354,796	-126,141	0,091	-0,010
-353,781	18,094	-0,102	-0,058
-352,766	-42,823	0,032	-0,012
-351,752	800,000	-0,057	0,153
-350,737	-143,952	0,073	0,005
-349,723	-200,000	0,031	0,103
-348,708	-136,193	0,120	-0,010
-347,693	-2,059	0,004	0,002
-346,679	-200,000	0,002	0,012
-345,664	-92,746	0,031	0,006
-344,650	28,497	-0,016	-0,010
-343,635	70,072	0,052	-0,038
-342,620	2,875	0,149	0,077
-341,606	-200,000	0,037	-0,135
-340,591	319,930	-0,084	-0,115
-339,577	800,000	-0,059	-0,137
-338,562	17,065	-0,074	0,042
-337,548	800,000	0,056	-0,120
-336,533	-100,297	-0,064	-0,011
-335,518	800,000	0,034	-0,087
-334,504	532,751	0,054	0,092
-333,489	-15,033	-0,040	-0,018
-332,475	800,000	-0,062	0,171
-331,460	-200,000	0,000	0,019
-330,445	121,293	0,065	0,058
-329,431	-55,459	-0,140	0,045
-328,416	657,897	0,065	0,121
-327,402	555,380	-0,046	0,080
-326,387	7,202	-0,020	0,011
-325,372	691,354	-0,081	0,153
-324,358	68,568	-0,049	-0,036
-323,343	483,694	0,107	-0,174
-322,329	23,771	0,087	0,051
-321,314	378,592	0,052	0,077
-320,299	-200,000	-0,002	-0,085
-319,285	-81,770	-0,035	-0,008
-318,270	189,155	-0,053	-0,057
-317,256	26,889	-0,123	-0,074
-316,241	36,647	0,038	-0,024
-315,226	-39,212	0,051	0,019
-314,212	-200,000	0,020	0,135
-313,197	800,000	0,069	-0,174
-312,183	-48,832	-0,155	-0,053
-311,168	27,688	0,125	0,075
-310,153	121,097	0,054	-0,048
-309,139	-200,000	0,006	-0,081
-308,124	-200,000	0,042	-0,225
-307,110	-200,000	-0,036	0,141
-306,095	800,000	-0,069	0,149
-305,080	248,711	-0,021	0,026
-304,066	477,394	0,029	-0,046
-303,051	-200,000	0,027	-0,113
-302,037	-200,000	-0,001	-0,035
-301,022	-111,876	0,108	-0,015
-300,008	-200,000	-0,025	-0,138
-298,993	154,953	0,058	-0,057
-297,978	49,943	-0,065	0,044
-296,964	-18,479	0,049	0,022
-295,949	-90,390	-0,036	0,007
-294,935	-46,702	0,141	0,049
-293,920	-142,466	0,094	0,006
-292,905	-2,387	-0,009	-0,005
-291,891	-200,000	0,019	0,065
-290,876	-200,000	-0,010	0,135
-289,862	-200,000	-0,008	-0,104
-288,847	242,378	-0,131	-0,156
-287,832	444,020	0,024	-0,038
-286,818	-166,280	-0,079	0,002
-285,803	265,091	0,013	0,016
-284,789	72,842	0,121	0,090
-283,774	-98,905	-0,103	0,019
-282,759	800,000	-0,025	-0,063
-281,745	-42,400	-0,127	-0,046
-280,730	-200,000	-0,054	0,182
-279,716	230,056	-0,067	-0,078
-278,701	-200,000	0,015	0,129
-277,686	248,474	0,063	0,076
-276,672	164,967	0,052	0,053
-275,657	47,583	0,128	-0,085
-274,643	800,000	-0,059	-0,130
-273,628	-200,000	-0,014	0,086
-272,613	171,014	-0,050	-0,052
-271,599	20,191	0,100	0,058
-270,584	260,464	0,073	-0,090
-269,570	800,000	0,035	-0,089
-268,555	139,804	0,033	-0,031
-267,540	-95,941	-0,080	0,015
-266,526	-200,000	-0,011	-0,161
-265,511	-15,150	-0,012	0,006
-264,497	-200,000	-0,001	-0,038
-263,482	76,342	0,155	0,117
-262,467	-93,056	-0,076	-0,015
-261,453	-130,677	0,017	0,002
-260,438	171,573	0,059	-0,061
-259,424	-200,000	0,049	-0,185
-258,409	38,889	-0,093	0,059
-257,395	-200,000	0,020	-0,074
-256,380	286,584	0,069	-0,089
-255,365	800,000	0,039	0,095
-254,351	29,286	0,126	0,076
-253,336	-109,017	-0,073	0,011
-252,322	-200,000	-0,013	-0,255
-251,307	-200,000	-0,005	-0,017
-250,292	25,609	-0,089	0,053
-249,278	800,000	0,013	-0,034
-248,263	107,801	-0,089	-0,075
-247,249	-200,000	-0,012	0,075
-246,234	452,692	0,114	0,180
-245,219	9,044	0,039	-0,021
-244,205	-36,988	-0,123	-0,047
-243,190	2,452	0,052	0,027
-242,176	91,772	0,120	0,096
-241,161	95,308	0,015	0,013
-240,146	-16,626	0,016	-0,007
-239,132	277,395	0,039	0,049
-238,117	81,650	0,083	0,064
-237,103	-200,000	-0,001	-0,003
-236,088	-88,260	0,044	-0,009
-235,073	800,000	0,031	-0,090
-234,059	-200,000	0,040	0,221
-233,044	-97,591	0,086	0,016
-232,030	-112,359	-0,092	0,013
-231,015	65,847	-0,040	-0,029
-230,000	-200,000	-0,025	0,160
-228,986	-200,000	0,012	0,147
-227,971	62,860	0,074	-0,053
-226,957	417,059	0,061	0,093
-225,942	17,385	0,056	-0,031
-224,927	-3,839	-0,103	-0,051
-223,913	199,684	0,019	0,020
-222,898	-200,000	0,003	0,029
-221,884	736,305	0,074	-0,141
-220,869	537,873	-0,074	0,126
-219,855	-147,443	0,119	-0,007
-218,840	-128,539	-0,095	-0,009
-217,825	-112,476	0,059	-0,008
-216,811	-155,635	-0,039	0,002
-215,796	263,857	-0,054	-0,067
-214,782	800,000	0,027	-0,078
-213,767	-12,441	-0,062	-0,029
-212,752	-200,000	-0,016	0,146
-211,738	800,000	0,020	0,043
-210,723	327,686	-0,059	0,081
-209,709	-100,170	-0,161	0,028
-208,694	-19,700	-0,068	0,030
-207,679	75,383	0,030	0,022
-206,665	-90,598	0,033	0,007
-205,650	154,973	0,073	0,071
-204,636	123,996	-0,056	0,051
-203,621	-178,385	0,011	0,000
-202,606	444,092	-0,025	-0,039
-201,592	800,000	0,051	-0,100
-200,577	373,213	-0,073	-0,106
-199,563	800,000	-0,025	-0,073
-198,548	225,949	0,053	0,062
-197,533	148,156	0,057	0,055
-196,519	27,648	0,063	-0,038
-195,504	-200,000	0,009	0,055
-194,490	-200,000	-0,002	-0,025
-193,475	-200,000	-0,039	-0,166
-192,460	-200,000	0,004	0,036
-191,446	-200,000	-0,004	-0,042
-190,431	-96,347	0,146	-0,027
-189,417	108,751	-0,057	0,049
-188,402	800,000	-0,027	-0,062
-187,387	50,568	0,016	-0,011
-186,373	800,000	-0,029	-0,090
-185,358	-200,000	0,001	-0,013
-184,344	-114,822	0,128	-0,017
-183,329	-24,579	0,003	-0,001
-182,315	-3,556	0,079	-0,039
-181,300	-46,429	0,060	-0,021
-180,285	-96,085	-0,031	0,006
-179,271	183,264	-0,076	0,080
-178,256	-200,000	-0,007	-0,116
-177,242	98,675	0,063	0,052
-176,227	163,402	0,021	0,021
-175,212	-138,801	-0,053	0,004
-174,198	339,094	-0,050	0,070
-173,183	-82,996	-0,024	0,005
-172,169	800,000	0,018	-0,043
-171,154	94,850	0,070	-0,057
-170,139	-10,931	-0,107	-0,050
-169,125	-84,282	0,066	-0,015
-168,110	319,053	-0,046	-0,062
-167,096	-200,000	-0,029	0,136
-166,081	-21,248	-0,011	-0,005
-165,066	-177,367	-0,118	0,002
-164,052	70,421	0,096	-0,070
-163,037	22,272	0,055	-0,032
-162,023	293,856	0,083	0,108
-161,008	275,495	0,048	0,061
-159,993	-122,528	-0,060	-0,007
-158,979	110,037	-0,178	-0,152
-157,964	348,905	0,053	-0,074
-156,950	224,072	-0,090	-0,103
-155,935	223,642	0,074	-0,085
-154,920	-141,645	0,081	0,006
-153,906	169,700	0,073	0,074
-152,891	597,396	-0,015	0,026
-151,877	-200,000	0,014	0,204
-150,862	-200,000	0,027	-0,123
-149,847	43,048	-0,106	-0,069
-148,833	52,402	-0,067	0,045
-147,818	-200,000	-0,009	0,153
-146,804	-200,000	-0,040	0,131
-145,789	10,313	0,111	0,060
-144,775	-200,000	-0,013	0,076
-143,760	-49,503	-0,066	0,022
-142,745	159,415	0,016	0,016
-141,731	23,395	0,077	-0,045
-140,716	153,835	0,063	-0,061
-139,702	-61,690	0,037	0,011
-138,687	582,349	-0,061	-0,106
-137,672	-125,211	-0,050	0,005
-136,658	112,664	-0,060	0,052
-135,643	-124,826	-0,107	-0,012
-134,629	50,101	0,007	-0,005
-133,614	273,289	0,016	-0,020
-132,599	-82,099	0,093	-0,021
-131,585	-158,734	0,114	0,005
-130,570	55,165	0,022	0,015
-129,556	-93,161	-0,151	-0,030
-128,541	451,009	0,041	-0,065
-127,526	-26,930	-0,030	0,013
-126,512	375,173	0,041	0,059
-125,497	-118,075	-0,048	0,006
-124,483	42,919	0,176	0,113
-123,468	800,000	0,024	-0,049
-122,453	-200,000	-0,043	-0,179
-121,439	281,361	-0,020	0,025
-120,424	-200,000	0,009	-0,053
-119,410	-200,000	0,004	-0,092
-118,395	-10,576	-0,119	-0,056
-117,380	-200,000	0,020	-0,063
-116,366	58,184	-0,100	0,069
-115,351	101,491	0,111	-0,092
-114,337	55,633	-0,082	-0,057
-113,322	185,117	0,042	-0,044
-112,307	606,628	0,102	0,181
-111,293	-200,000	0,005	0,037
-110,278	-200,000	-0,011	0,073
-109,264	125,538	-0,060	-0,054
-108,249	-59,827	0,034	-0,010
-107,234	-27,384	-0,086	-0,035
-106,220	44,550	0,126	0,082
-105,205	177,334	-0,018	-0,019
-104,191	800,000	0,036	0,082
-103,176	60,198	0,043	-0,030
-102,162	-121,208	-0,191	-0,022
-101,147	-17,599	-0,037	-0,016
-100,132	446,200	-0,065	0,102
-99,118	39,443	0,107	-0,068
-98,103	-9,113	-0,177	-0,084
-97,089	-200,000	0,004	0,021
-96,074	-200,000	-0,024	0,079
-95,059	800,000	0,063	0,152
-94,045	800,000	-0,023	-0,054
-93,030	74,804	0,015	0,011
-92,016	-141,179	-0,065	0,005
-91,001	-82,339	0,014	-0,003
-89,986	-101,568	-0,064	-0,011
-88,972	314,828	0,101	0,135
-87,957	-200,000	-0,068	0,229
-86,943	-22,095	-0,086	0,037
-85,928	-166,227	-0,056	-0,002
-84,913	-200,000	0,025	-0,141
-83,899	346,296	0,081	0,113
-82,884	-200,000	0,009	-0,113
-81,870	254,071	-0,085	-0,104
-80,855	73,422	0,062	0,046
-79,840	-200,000	0,030	-0,150
-78,826	800,000	-0,021	-0,050
-77,811	-200,000	-0,021	-0,133
-76,797	-200,000	-0,015	-0,143
-75,782	-200,000	-0,015	0,159
-74,767	-58,891	-0,027	-0,008
-73,753	-11,492	0,111	-0,052
-72,738	-124,241	-0,132	-0,014
-71,724	-200,000	-0,005	-0,182
-70,709	-98,464	0,083	0,015
-69,694	-200,000	-0,023	-0,085
-68,680	-200,000	0,012	0,147
-67,665	-104,719	0,039	-0,006
-66,651	90,422	0,125	0,099
-65,636	-149,273	0,078	-0,004
-64,622	60,899	0,145	0,102
-63,607	325,003	0,078	0,106
-62,592	29,869	-0,120	0,072
-61,578	-132,794	0,087	0,008
-60,563	335,985	0,038	-0,053
-59,549	800,000	-0,018	0,036
-58,534	-13,668	-1,631	-0,745
-57,519	433,692	-1,323	-2,041
-56,505	-200,000	-0,397	-4,517
-55,490	275,114	0,876	1,102
-54,476	800,000	4,942	11,402
-53,461	-200,000	19,051	320,092
-52,446	-200,000	740,871	2335,399
-51,432	573,647	1655,504	2869,923
-50,417	78,275	1670,989	1261,858
-49,403	21,337	1543,893	885,850
-48,388	15,194	1466,417	811,521
-47,373	17,959	1456,646	819,442
-46,359	16,664	1446,554	807,525
-45,344	13,446	1441,942	789,497
-44,330	13,417	1439,852	788,184
-43,315	13,375	1438,131	787,012
-42,300	13,387	1436,425	786,101
-41,286	13,383	1435,358	785,466
-40,271	13,418	1433,947	784,834
-39,257	13,398	1432,547	783,937
-38,242	13,403	1431,414	783,310
-37,227	13,431	1430,219	782,760
-36,213	13,429	1428,780	781,931
-35,198	13,451	1427,721	781,425
-34,184	13,459	1426,864	780,966
-33,169	13,419	1425,485	779,987
-32,154	13,446	1424,287	779,431
-31,140	13,476	1422,901	778,782
-30,125	13,455	1421,849	778,076
-29,111	13,430	1420,977	777,450
-28,096	13,371	1419,925	776,563
-27,082	13,333	1418,518	775,587
-26,067	13,351	1417,705	775,197
-25,052	13,366	1416,464	774,556
-24,038	13,338	1415,610	773,927
-23,023	13,322	1414,541	773,238
-22,009	13,345	1413,421	772,702
-20,994	13,332	1412,522	772,119
-19,979	13,338	1411,767	771,702
-18,965	13,294	1410,782	770,929
-17,950	13,308	1409,737	770,393
-16,936	13,327	1408,742	769,904
-15,921	13,284	1407,720	769,116
-14,906	13,286	1406,890	768,640
-13,892	13,293	1405,969	768,138
-12,877	13,274	1405,124	767,560
-11,863	13,305	1404,142	767,135
-10,848	13,241	1403,289	766,343
-9,833	13,244	1402,340	765,805
-8,819	13,187	1401,640	765,127
-7,804	13,189	1400,658	764,574
-6,790	13,182	1399,613	763,941
-5,775	13,203	1398,589	763,446
-4,760	13,181	1397,526	762,734
-3,746	13,170	1396,822	762,271
-2,731	13,143	1395,974	761,653
-1,717	13,181	1394,988	761,261
-0,702	13,140	1393,198	760,060
0,313	17,004	1309,976	732,554
1,327	33,170	703,574	430,805
2,342	50,983	123,244	82,527
3,356	0,678	16,654	8,403
4,371	11,055	3,220	1,736
5,386	41,173	0,606	0,386
6,400	-200,000	-0,028	0,236
7,415	33,532	-0,147	-0,090
8,429	184,504	-0,250	-0,263
9,444	81,081	-0,226	-0,172
10,459	2,099	-0,347	-0,177
11,473	8,466	-0,297	-0,157
12,488	57,584	-0,225	-0,155
13,502	-92,094	-0,327	-0,065
14,517	-33,403	-0,278	-0,108
15,531	29,812	-0,389	-0,234
16,546	249,908	-0,245	-0,295
17,561	39,378	-0,326	-0,206
18,575	-156,380	-0,174	-0,008
19,590	133,024	-0,334	-0,305
20,604	515,238	-0,133	-0,220
21,619	27,705	-0,421	-0,250
22,634	95,639	-0,506	-0,407
23,648	334,853	-0,230	-0,316
24,663	115,269	-0,406	-0,350
25,677	85,674	-0,447	-0,347
26,692	35,273	-0,410	-0,253
27,707	-3,074	-0,417	-0,205
28,721	239,337	-0,229	-0,269
29,736	69,944	-0,375	-0,273
30,750	127,609	-0,361	-0,324
31,765	47,853	-0,370	-0,243
32,780	103,276	-0,444	-0,367
33,794	26,084	-0,304	-0,179
34,809	62,351	-0,307	-0,216
35,823	168,814	-0,328	-0,330
36,838	249,589	-0,336	-0,403
37,853	162,653	-0,402	-0,398
38,867	71,971	-0,280	-0,205
39,882	140,515	-0,357	-0,333
40,896	118,687	-0,410	-0,357
41,911	46,748	-0,450	-0,294
42,926	162,211	-0,357	-0,353
43,940	55,314	-0,340	-0,231
44,955	-18,479	-0,392	-0,172
45,969	66,089	-0,266	-0,190
46,984	97,905	-0,292	-0,236
47,999	303,015	-0,240	-0,314
49,013	-48,891	-0,356	-0,120
50,028	56,429	-0,330	-0,226
51,042	-66,459	-0,268	-0,075
52,057	120,528	-0,308	-0,270
53,071	121,417	-0,373	-0,327
54,086	162,093	-0,228	-0,226
55,101	177,542	-0,204	-0,209
56,115	-33,655	-0,274	-0,106
57,130	-3,497	-0,397	-0,194
58,144	189,035	-0,343	-0,362
59,159	220,761	-0,328	-0,371
60,174	-13,440	-0,436	-0,198
61,188	4,784	-0,373	-0,192
62,203	-27,091	-0,381	-0,156
63,217	163,655	-0,305	-0,302
64,232	136,113	-0,245	-0,225
65,247	50,602	-0,335	-0,223
66,261	225,928	-0,377	-0,431
67,276	120,373	-0,319	-0,278
68,290	81,866	-0,366	-0,279
69,305	198,900	-0,284	-0,306
70,320	61,716	-0,218	-0,153
71,334	47,851	-0,373	-0,245
72,349	8,321	-0,289	-0,152
73,363	261,456	-0,304	-0,371
74,378	229,180	-0,283	-0,325
75,393	-68,537	-0,409	-0,111
76,407	57,232	-0,302	-0,207
77,422	145,028	-0,264	-0,249
78,436	34,043	-0,355	-0,217
79,451	23,962	-0,290	-0,168
80,466	-68,007	-0,421	-0,114
81,480	57,710	-0,463	-0,318
82,495	72,794	-0,357	-0,262
83,509	-67,438	-0,314	-0,086
84,524	14,001	-0,319	-0,174
85,539	-51,374	-0,325	-0,106
86,553	111,556	-0,290	-0,246
87,568	86,637	-0,331	-0,256
88,582	169,874	-0,294	-0,295
89,597	-83,165	-0,347	-0,078
90,611	196,977	-0,198	-0,213
91,626	-61,406	-0,266	-0,078
92,641	32,609	-0,299	-0,181
93,655	2,157	-0,354	-0,179
94,670	125,158	-0,227	-0,200
95,684	116,004	-0,370	-0,318
96,699	123,807	-0,270	-0,238
97,714	160,073	-0,192	-0,187
98,728	47,986	-0,168	-0,110
99,743	-28,178	-0,249	-0,100
100,757	1,925	-0,239	-0,120
101,772	223,745	-0,260	-0,295
102,787	-66,630	-0,288	-0,079
103,801	303,914	-0,263	-0,343
104,816	63,538	-0,284	-0,199
105,830	-6,396	-0,332	-0,158
106,845	229,928	-0,256	-0,294
107,860	154,028	-0,233	-0,224
108,874	55,878	-0,328	-0,222
109,889	780,475	-0,133	-0,256
110,903	127,566	-0,344	-0,306
111,918	-10,248	-0,326	-0,151
112,933	179,926	-0,202	-0,207
113,947	69,445	-0,237	-0,170
114,962	60,011	-0,237	-0,164
115,976	-0,267	-0,306	-0,152
116,991	-13,613	-0,331	-0,150
118,006	13,276	-0,386	-0,209
119,020	9,456	-0,312	-0,165
120,035	180,265	-0,170	-0,175
121,049	389,886	-0,174	-0,253
122,064	10,672	-0,275	-0,146
123,079	378,152	-0,208	-0,299
124,093	-1,354	-0,266	-0,131
125,108	201,560	-0,287	-0,310
126,122	142,728	-0,255	-0,237
127,137	-96,564	-0,328	-0,060
128,151	179,148	-0,145	-0,149
129,166	-8,195	-0,319	-0,150
130,181	52,583	-0,198	-0,132
131,195	671,930	-0,159	-0,290
132,210	18,311	-0,253	-0,141
133,224	133,465	-0,319	-0,289
134,239	409,516	-0,173	-0,257
135,254	24,023	-0,267	-0,154
136,268	155,420	-0,229	-0,221
137,283	310,413	-0,199	-0,262
138,297	-73,368	-0,400	-0,101
139,312	7,896	-0,229	-0,120
140,327	160,206	-0,229	-0,223
141,341	88,111	-0,274	-0,213
142,356	-86,868	-0,307	-0,065
143,370	186,875	-0,278	-0,290
144,385	-38,798	-0,258	-0,095
145,400	32,437	-0,269	-0,162
146,414	232,981	-0,229	-0,263
147,429	625,113	-0,106	-0,188
148,443	139,375	-0,218	-0,201
149,458	-84,724	-0,212	-0,046
150,473	62,014	-0,244	-0,170
151,487	72,218	-0,129	-0,094
152,502	136,920	-0,306	-0,279
153,516	9,988	-0,369	-0,195
154,531	25,198	-0,275	-0,159
155,546	-149,485	-0,271	0,015
156,560	-76,671	-0,236	-0,057
157,575	-158,538	-0,133	0,005
158,589	38,393	-0,165	-0,102
159,604	60,421	-0,266	-0,184
160,619	323,166	-0,198	-0,265
161,633	-18,103	-0,295	-0,129
162,648	30,197	-0,184	-0,109
163,662	442,595	-0,199	-0,305
164,677	-44,589	-0,300	-0,104
165,692	-46,566	-0,230	-0,078
166,706	800,000	-0,122	-0,293
167,721	111,012	-0,222	-0,187
168,735	296,599	-0,240	-0,308
169,750	208,900	-0,224	-0,245
170,764	269,920	-0,208	-0,255
171,779	-5,220	-0,191	-0,091
172,794	-68,062	-0,211	-0,057
173,808	-200,000	-0,103	-0,319
174,823	83,035	-0,179	-0,135
175,837	198,305	-0,198	-0,211
176,852	235,170	-0,231	-0,266
177,867	324,348	-0,133	-0,178
178,881	-200,000	0,017	-0,212
179,896	175,925	-0,240	-0,243
180,910	213,690	-0,209	-0,230
181,925	47,237	-0,287	-0,186
182,940	800,000	-0,089	-0,264
183,954	-6,879	-0,242	-0,114
184,969	133,449	-0,196	-0,177
185,983	0,617	-0,221	-0,110
186,998	174,547	-0,258	-0,260
188,013	148,408	-0,182	-0,171
189,027	16,347	-0,301	-0,165
190,042	-42,014	-0,128	-0,045
191,056	65,755	-0,231	-0,163
192,071	63,079	-0,109	-0,076
193,086	155,258	-0,162	-0,155
194,100	-41,327	-0,208	-0,074
195,115	133,970	-0,210	-0,189
196,129	-31,778	-0,226	-0,088
197,144	-17,374	-0,276	-0,120
198,159	-27,308	-0,246	-0,099
199,173	-23,815	-0,291	-0,121
200,188	-55,449	-0,202	-0,063
201,202	-200,000	-0,076	-0,238
202,217	-78,014	-0,201	-0,048
203,232	-77,369	-0,306	-0,073
204,246	155,751	-0,188	-0,180
205,261	-110,661	-0,248	-0,035
206,275	252,636	-0,083	-0,099
207,290	243,108	-0,114	-0,133
208,304	575,494	-0,139	-0,236
209,319	20,108	-0,233	-0,130
210,334	-22,420	-0,204	-0,086
211,348	464,391	-0,129	-0,202
212,363	168,421	-0,237	-0,235
213,377	55,128	-0,215	-0,144
214,392	74,063	-0,151	-0,110
215,407	-109,209	-0,259	-0,038
216,421	800,000	-0,088	-0,212
217,436	48,900	-0,171	-0,111
218,450	-11,794	-0,169	-0,077
219,465	285,234	-0,167	-0,209
220,480	54,749	-0,126	-0,084
221,494	157,860	-0,133	-0,128
222,509	-9,489	-0,071	-0,033
223,523	-200,000	-0,005	0,052
224,538	113,778	-0,316	-0,267
225,553	153,053	-0,237	-0,225
226,567	-49,065	-0,315	-0,104
227,582	-94,368	-0,113	-0,021
228,596	28,741	-0,245	-0,144
229,611	388,274	-0,080	-0,115
230,626	-57,816	-0,246	-0,074
231,640	224,219	-0,099	-0,111
232,655	14,427	-0,153	-0,083
233,669	731,920	-0,150	-0,279
234,684	176,545	-0,232	-0,234
235,699	48,987	-0,243	-0,158
236,713	386,215	-0,090	-0,129
237,728	98,067	-0,128	-0,102
238,742	-136,094	-0,147	-0,012
239,757	399,233	-0,205	-0,299
240,772	410,429	-0,206	-0,304
241,786	291,403	-0,156	-0,197
242,801	73,342	-0,192	-0,139
243,815	95,847	-0,144	-0,114
244,830	-93,990	-0,162	-0,031
245,844	-77,176	-0,211	-0,051
246,859	279,982	-0,189	-0,234
247,874	547,357	-0,146	-0,243
248,888	342,513	-0,153	-0,208
249,903	127,122	-0,196	-0,172
250,917	-5,940	-0,150	-0,071
251,932	-119,717	-0,144	0,017
252,947	-163,406	-0,128	-0,004
253,961	-31,598	-0,147	-0,057
254,976	236,285	-0,186	-0,213
255,990	737,486	-0,115	-0,214
257,005	353,031	-0,193	-0,265
258,020	-145,639	-0,179	-0,011
259,034	-119,510	-0,173	0,020
260,049	38,017	-0,198	-0,122
261,063	-116,070	-0,235	-0,030
262,078	145,605	-0,133	-0,123
263,093	487,312	-0,145	-0,230
264,107	-77,034	-0,192	-0,046
265,122	217,822	-0,151	-0,167
266,136	30,702	-0,105	-0,062
267,151	-5,192	-0,227	0,108
268,166	-24,626	-0,187	-0,077
269,180	476,326	-0,079	-0,124
270,195	23,247	-0,274	-0,155
271,209	800,000	-0,098	-0,247
272,224	-98,448	-0,157	-0,027
273,239	224,944	-0,160	-0,179
274,253	78,479	-0,141	-0,104
275,268	-172,095	-0,191	0,004
276,282	800,000	-0,088	-0,195
277,297	43,724	-0,190	-0,120
278,312	366,553	-0,151	-0,211
279,326	-200,000	-0,006	-0,045
280,341	-14,008	0,060	-0,026
281,355	-113,239	-0,094	0,013
282,370	77,465	-0,156	-0,114
283,384	-6,943	-0,135	-0,063
284,399	5,126	-0,160	-0,081
285,414	401,277	-0,119	-0,173
286,428	-42,778	-0,267	-0,093
287,443	-59,126	-0,214	-0,063
288,457	0,251	-0,265	0,130
289,472	122,174	-0,153	-0,132
290,487	-48,807	-0,187	-0,062
291,501	79,390	-0,237	-0,175
292,516	150,660	-0,155	-0,145
293,530	216,349	-0,069	-0,075
294,545	422,017	-0,109	-0,162
295,560	-2,733	-0,137	0,066
296,574	106,207	-0,149	-0,121
297,589	-200,000	0,030	-0,294
298,603	47,129	-0,155	-0,099
299,618	-46,392	-0,146	-0,049
300,633	-103,147	-0,192	-0,031
301,647	7,335	-0,090	0,046
302,662	45,184	-0,194	-0,123
303,676	-146,447	-0,194	-0,011
304,691	538,284	-0,131	-0,215
305,706	-43,496	-0,129	-0,045
306,720	575,742	-0,056	-0,094
307,735	403,485	-0,103	-0,149
308,749	40,276	-0,151	-0,094
309,764	-33,744	-0,031	0,012
310,779	-55,750	-0,122	0,037
311,793	36,668	-0,153	-0,093
312,808	-91,587	-0,229	-0,044
313,822	472,510	-0,147	-0,228
314,837	64,112	-0,248	-0,172
315,852	-200,000	-0,023	-0,128
316,866	15,935	-0,159	-0,086
317,881	378,496	-0,147	-0,208
318,895	171,404	-0,153	-0,151
319,910	226,302	-0,066	-0,074
320,925	3,653	-0,120	-0,060
321,939	59,928	-0,254	-0,172
322,954	-21,793	-0,152	0,063
323,968	52,696	-0,088	-0,058
324,983	14,257	-0,107	0,057
325,997	100,846	-0,137	-0,110
327,012	800,000	-0,069	-0,189
328,027	112,696	-0,140	-0,117
329,041	483,865	-0,123	-0,193
330,056	-64,409	-0,116	-0,032
331,070	217,606	-0,066	-0,072
332,085	22,198	-0,060	-0,034
333,100	-28,491	-0,295	0,116
334,114	476,688	-0,101	-0,157
335,129	98,595	-0,159	-0,126
336,143	-164,514	-0,082	-0,003
337,158	191,175	-0,130	-0,135
338,173	499,415	-0,078	-0,124
339,187	-93,621	-0,201	-0,038
340,202	59,156	-0,154	-0,104
341,216	21,735	-0,137	0,076
342,231	14,003	-0,131	-0,070
343,246	-41,081	-0,123	-0,043
344,260	-200,000	-0,005	-0,158
345,275	49,411	-0,129	-0,083
346,289	-41,416	-0,222	-0,078
347,304	42,406	-0,158	-0,099
348,319	-111,717	-0,216	0,030
349,333	-84,124	-0,146	-0,032
350,348	127,405	-0,251	-0,219
351,362	-143,303	-0,083	0,005
352,377	-128,451	-0,053	-0,005
353,392	-137,158	-0,084	-0,006
354,406	-98,037	-0,196	-0,034
355,421	210,305	1313,473	1416,373
356,435	161,891	1474,062	1416,870
