DTS Sentinel unit serial number:	SN410029Multiplexer serial number:	ORYXHardware model number:	OX2-SRSoftware version number:	ORYX F/W v4,00 Oryx Data Collector v3.7.2.0data status	okinstallation	B3 Nyhavnadifferential loss correction	single-endedforward channel	channel 1reverse channel	N/Adate	2023/12/01time	16:22:30forward acquisition time	300,00reverse acquisition time	0,00gamma	499,1914k internal	0,3207k external	0,3207temperature offset calibration	1,0000default loss term (dB/km)	0,3820temperature slope calibration	1,0000multiplexer offset coefficient	1,0000multiplexer slope coefficient	1,0000fibre end	0,00T internal ref (°C)	13,10T ext. ref 1 (°C)	-0,45T ext. ref 2 (°C)	-0,48length (m)	temperature (°C)	Stokes	anti-Stokes-744,400	684,543	-0,111	-0,210
-743,385	738,859	0,147	0,289
-742,371	551,660	-0,167	-0,292
-741,356	187,538	0,237	0,257
-740,342	266,811	-0,175	-0,222
-739,327	800,000	0,136	0,384
-738,312	174,229	-0,333	-0,350
-737,298	800,000	-0,087	0,193
-736,283	413,125	-0,140	-0,217
-735,269	800,000	0,126	0,314
-734,254	87,247	-0,252	-0,202
-733,239	26,539	-0,031	-0,019
-732,225	800,000	-0,089	-0,191
-731,210	-56,409	0,161	0,051
-730,196	800,000	-0,028	0,076
-729,181	-113,650	0,082	0,011
-728,167	175,429	0,062	0,065
-727,152	683,068	-0,024	-0,045
-726,137	800,000	-0,023	-0,048
-725,123	137,633	0,054	0,051
-724,108	-119,961	-0,255	-0,031
-723,094	351,345	-0,042	-0,061
-722,079	113,910	0,012	-0,010
-721,064	-129,989	0,156	0,015
-720,050	-200,000	0,005	-0,056
-719,035	202,430	-0,026	-0,029
-718,021	105,328	-0,060	0,051
-717,006	50,730	-0,134	-0,092
-715,991	-58,620	-0,133	-0,041
-714,977	800,000	-0,041	-0,104
-713,962	-159,603	-0,096	0,004
-712,948	201,447	0,021	-0,023
-711,933	-66,504	0,049	-0,014
-710,918	22,530	-0,017	-0,010
-709,904	92,795	-0,056	0,046
-708,889	115,522	0,095	-0,084
-707,875	-8,628	0,126	-0,061
-706,860	-89,332	0,075	0,016
-705,845	443,368	0,054	0,086
-704,831	8,905	0,090	0,049
-703,816	-86,261	0,019	0,004
-702,802	-56,921	-0,075	-0,024
-701,787	20,029	-0,059	0,034
-700,772	323,602	0,048	-0,067
-699,758	-118,798	-0,185	0,023
-698,743	396,372	0,050	0,076
-697,729	-54,590	-0,117	0,038
-696,714	-123,997	-0,136	0,015
-695,699	-71,168	-0,034	0,009
-694,685	226,911	-0,034	-0,040
-693,670	119,499	-0,024	-0,021
-692,656	777,051	-0,054	0,107
-691,641	-200,000	-0,002	-0,106
-690,627	-200,000	0,016	0,089
-689,612	800,000	-0,029	-0,075
-688,597	67,325	-0,123	-0,091
-687,583	161,427	-0,119	-0,121
-686,568	130,958	-0,054	-0,050
-685,554	-200,000	-0,016	-0,209
-684,539	-148,563	0,093	0,005
-683,524	-70,270	0,121	-0,033
-682,510	102,497	-0,077	0,065
-681,495	-200,000	0,028	-0,095
-680,481	-46,290	-0,096	0,034
-679,466	-200,000	-0,019	-0,218
-678,451	189,108	0,032	-0,035
-677,437	729,429	0,045	-0,087
-676,422	9,376	0,076	0,042
-675,408	-200,000	0,004	0,043
-674,393	-45,564	0,105	0,037
-673,378	-31,460	-0,077	-0,031
-672,364	-46,763	-0,086	-0,030
-671,349	-200,000	0,001	-0,073
-670,335	800,000	-0,040	0,101
-669,320	-200,000	-0,010	0,130
-668,305	24,399	0,056	-0,033
-667,291	359,592	0,060	0,087
-666,276	140,527	-0,091	-0,087
-665,262	-200,000	-0,004	0,082
-664,247	-128,870	-0,080	0,008
-663,232	800,000	0,015	-0,045
-662,218	717,023	0,074	0,143
-661,203	-200,000	0,010	0,121
-660,189	281,534	0,027	-0,035
-659,174	-79,019	-0,190	-0,046
-658,159	-60,175	-0,076	-0,023
-657,145	800,000	-0,017	-0,039
-656,130	69,490	0,040	0,030
-655,116	800,000	0,023	0,054
-654,101	316,527	0,118	0,161
-653,086	-200,000	0,038	0,144
-652,072	446,777	-0,084	0,134
-651,057	800,000	-0,059	-0,127
-650,043	-13,858	0,023	0,011
-649,028	-26,297	-0,129	-0,055
-648,014	-200,000	-0,014	0,057
-646,999	-111,711	0,024	-0,004
-645,984	-166,177	-0,075	-0,002
-644,970	206,946	-0,100	0,113
-643,955	-200,000	0,008	-0,079
-642,941	-200,000	0,016	-0,133
-641,926	-69,395	-0,052	0,014
-640,911	32,623	0,060	-0,037
-639,897	800,000	-0,038	0,078
-638,882	-144,550	-0,063	0,004
-637,868	-51,266	-0,151	-0,051
-636,853	395,408	-0,049	-0,075
-635,838	431,699	0,056	-0,088
-634,824	347,163	0,057	-0,081
-633,809	751,662	-0,079	0,155
-632,795	-47,121	0,029	-0,010
-631,780	-200,000	0,001	0,014
-630,765	405,205	-0,071	0,109
-629,751	-2,209	0,003	0,001
-628,736	-195,572	-0,166	-0,001
-627,722	-106,572	0,094	0,015
-626,707	-159,229	-0,206	0,008
-625,692	36,928	0,182	0,116
-624,678	-200,000	-0,016	0,061
-623,663	-200,000	-0,015	-0,056
-622,649	-97,996	0,032	0,006
-621,634	-200,000	-0,000	-0,039
-620,619	-114,728	-0,197	-0,027
-619,605	-200,000	0,007	0,070
-618,590	468,735	-0,036	0,059
-617,576	163,121	0,059	-0,060
-616,561	-75,007	-0,096	0,025
-615,546	-55,638	-0,157	0,051
-614,532	304,675	-0,043	0,058
-613,517	770,687	-0,049	0,098
-612,503	-41,575	0,049	0,018
-611,488	800,000	0,040	0,103
-610,474	234,340	0,048	0,057
-609,459	-47,058	0,161	-0,057
-608,444	92,006	-0,086	-0,070
-607,430	237,975	-0,052	-0,062
-606,415	-200,000	-0,031	-0,150
-605,401	-200,000	0,009	-0,060
-604,386	-101,973	0,114	-0,020
-603,371	319,159	0,035	-0,048
-602,357	131,650	0,001	-0,001
-601,342	260,840	-0,107	-0,134
-600,328	-9,367	-0,046	-0,022
-599,313	-85,323	-0,098	-0,022
-598,298	-200,000	0,037	-0,137
-597,284	-40,285	0,071	-0,026
-596,269	104,287	-0,017	0,015
-595,255	-34,556	-0,080	0,031
-594,240	726,880	0,065	0,126
-593,225	-200,000	-0,030	-0,200
-592,211	-182,172	-0,081	-0,001
-591,196	-200,000	0,005	-0,067
-590,182	-200,000	-0,006	-0,077
-589,167	-133,348	-0,027	0,002
-588,152	-200,000	0,004	0,068
-587,138	662,185	-0,036	-0,067
-586,123	-200,000	0,044	-0,184
-585,109	800,000	-0,013	-0,036
-584,094	-200,000	-0,003	-0,034
-583,079	-85,979	-0,022	0,005
-582,065	87,876	0,147	0,117
-581,050	84,463	0,106	0,084
-580,036	-200,000	-0,011	-0,137
-579,021	-200,000	0,025	-0,150
-578,006	147,456	0,100	-0,097
-576,992	-44,805	0,061	0,022
-575,977	28,850	-0,116	0,071
-574,963	-36,001	0,120	-0,047
-573,948	43,160	-0,026	-0,017
-572,934	800,000	0,067	-0,139
-571,919	99,618	-0,090	-0,075
-570,904	377,310	-0,089	-0,131
-569,890	-70,409	-0,070	-0,019
-568,875	800,000	0,085	0,175
-567,861	-200,000	0,055	0,218
-566,846	-200,000	0,001	-0,018
-565,831	110,785	-0,070	-0,060
-564,817	-25,786	-0,040	0,017
-563,802	-115,761	-0,165	0,022
-562,788	306,632	0,003	0,004
-561,773	212,299	0,069	-0,078
-560,758	178,483	0,059	-0,063
-559,744	20,214	0,036	-0,021
-558,729	-200,000	0,007	0,127
-557,715	-49,190	-0,064	-0,022
-556,700	-200,000	0,048	-0,263
-555,685	138,037	-0,075	0,071
-554,671	-71,400	-0,173	0,046
-553,656	-74,702	0,093	0,024
-552,642	1,608	0,030	-0,015
-551,627	-200,000	0,033	-0,155
-550,612	275,975	0,067	-0,086
-549,598	104,188	0,071	-0,060
-548,583	524,847	-0,027	0,046
-547,569	560,103	-0,027	-0,048
-546,554	-200,000	-0,033	0,157
-545,539	800,000	-0,066	0,136
-544,525	200,559	-0,078	0,086
-543,510	146,707	-0,063	0,061
-542,496	363,570	0,053	0,077
-541,481	197,921	-0,051	-0,057
-540,466	-200,000	-0,018	-0,118
-539,452	-200,000	0,002	0,099
-538,437	127,054	0,089	0,081
-537,423	-133,500	0,183	0,016
-536,408	800,000	0,041	0,112
-535,393	569,029	-0,033	-0,058
-534,379	800,000	-0,037	0,093
-533,364	-40,834	-0,077	0,029
-532,350	8,721	-0,043	-0,023
-531,335	800,000	0,060	0,135
-530,321	-85,323	-0,042	0,009
-529,306	-161,022	-0,032	0,001
-528,291	-12,311	0,069	-0,032
-527,277	-39,521	0,052	-0,020
-526,262	-75,859	-0,140	-0,035
-525,248	96,347	-0,114	0,094
-524,233	800,000	0,016	0,033
-523,218	800,000	0,038	0,083
-522,204	-151,895	-0,065	0,003
-521,189	-76,076	-0,093	-0,023
-520,175	63,738	0,045	0,033
-519,160	210,731	0,030	0,034
-518,145	-200,000	0,034	-0,138
-517,131	-130,604	0,179	0,017
-516,116	187,584	0,010	-0,010
-515,102	-81,769	0,134	-0,031
-514,087	497,379	0,035	-0,058
-513,072	800,000	-0,008	0,019
-512,058	-200,000	0,018	-0,107
-511,043	584,352	-0,023	-0,041
-510,029	-200,000	-0,006	0,130
-509,014	-102,907	0,067	-0,011
-507,999	-133,449	-0,063	0,006
-506,985	271,859	-0,036	0,046
-505,970	339,016	-0,087	-0,122
-504,956	12,712	-0,092	0,051
-503,941	218,556	0,009	0,010
-502,926	-64,976	0,107	0,031
-501,912	-70,563	0,085	0,023
-500,897	611,234	0,056	-0,102
-499,883	-131,550	-0,082	0,008
-498,868	-26,050	0,071	0,030
-497,853	-101,306	-0,032	-0,006
-496,839	-200,000	-0,013	0,128
-495,824	800,000	0,049	0,120
-494,810	-200,000	-0,046	0,155
-493,795	346,446	-0,023	0,032
-492,781	22,191	-0,057	0,034
-491,766	450,658	-0,032	-0,051
-490,751	-200,000	-0,020	-0,066
-489,737	209,205	-0,126	0,142
-488,722	-79,715	0,059	-0,014
-487,708	-169,966	-0,188	-0,005
-486,693	-177,530	0,152	0,003
-485,678	-17,504	0,109	0,049
-484,664	-200,000	-0,003	-0,108
-483,649	68,001	-0,101	0,074
-482,635	99,887	-0,098	-0,082
-481,620	180,296	0,057	0,060
-480,605	-200,000	-0,021	0,091
-479,591	800,000	0,069	0,160
-478,576	-47,350	-0,021	-0,007
-477,562	800,000	-0,051	-0,101
-476,547	33,017	-0,147	-0,091
-475,532	-200,000	-0,006	-0,079
-474,518	-200,000	-0,009	-0,210
-473,503	41,477	0,110	0,071
-472,489	-21,950	-0,065	0,028
-471,474	38,102	-0,054	-0,035
-470,459	100,538	-0,070	0,059
-469,445	24,934	0,050	0,030
-468,430	-200,000	-0,024	0,085
-467,416	800,000	0,043	0,114
-466,401	-200,000	0,019	0,094
-465,386	-200,000	0,031	0,121
-464,372	-54,623	-0,010	0,003
-463,357	-71,173	-0,163	-0,044
-462,343	-200,000	-0,007	-0,184
-461,328	-7,876	-0,184	-0,089
-460,313	-200,000	0,004	0,080
-459,299	272,298	-0,062	0,079
-458,284	-96,400	0,051	0,010
-457,270	800,000	0,053	0,156
-456,255	5,266	-0,057	-0,030
-455,241	800,000	0,027	-0,078
-454,226	-200,000	0,005	-0,125
-453,211	-200,000	-0,003	-0,119
-452,197	-53,621	-0,109	-0,035
-451,182	-98,041	0,081	-0,015
-450,168	-125,072	-0,091	0,010
-449,153	-200,000	-0,052	0,000
-448,138	-71,328	-0,111	-0,030
-447,124	180,080	0,086	-0,091
-446,109	-200,000	-0,001	0,035
-445,095	226,579	0,061	-0,071
-444,080	-99,938	0,152	-0,027
-443,065	-200,000	0,005	0,067
-442,051	-200,000	-0,005	0,044
-441,036	156,568	-0,021	0,020
-440,022	322,896	0,073	-0,101
-439,007	-200,000	-0,015	-0,087
-437,992	-125,449	0,044	-0,005
-436,978	-200,000	-0,001	-0,028
-435,963	-200,000	0,009	0,033
-434,949	521,479	-0,036	-0,061
-433,934	-200,000	0,011	-0,164
-432,919	-200,000	-0,013	-0,133
-431,905	-200,000	0,031	-0,127
-430,890	-87,290	0,072	0,016
-429,876	409,279	0,105	0,160
-428,861	8,266	0,057	0,031
-427,846	-15,875	-0,117	0,053
-426,832	52,106	-0,070	-0,048
-425,817	634,631	-0,011	-0,020
-424,803	332,615	-0,080	0,111
-423,788	800,000	-0,061	-0,124
-422,773	138,800	0,052	0,049
-421,759	800,000	0,014	-0,042
-420,744	-200,000	0,002	-0,082
-419,730	695,583	-0,059	-0,112
-418,715	333,887	0,033	0,045
-417,701	800,000	0,013	0,032
-416,686	568,337	-0,018	-0,032
-415,671	-200,000	0,029	0,136
-414,657	800,000	0,061	0,192
-413,642	110,099	-0,030	0,026
-412,628	319,985	-0,065	-0,088
-411,613	-200,000	0,016	0,094
-410,598	800,000	0,060	-0,167
-409,584	-134,492	0,057	-0,005
-408,569	65,446	-0,045	0,033
-407,555	-200,000	0,017	0,107
-406,540	118,164	0,178	-0,157
-405,525	-141,039	-0,066	0,005
-404,511	-200,000	0,025	-0,195
-403,496	294,023	0,109	-0,144
-402,482	-200,000	0,007	0,131
-401,467	336,626	0,027	0,038
-400,452	-200,000	-0,002	-0,018
-399,438	800,000	0,034	-0,101
-398,423	-11,111	-0,165	0,077
-397,409	-32,826	0,033	0,013
-396,394	558,689	0,030	0,052
-395,379	401,584	-0,092	0,139
-394,365	740,256	0,051	0,099
-393,350	-100,096	0,031	0,005
-392,336	238,172	-0,066	0,078
-391,321	3,672	-0,094	-0,049
-390,306	236,678	-0,067	-0,079
-389,292	482,194	-0,075	-0,122
-388,277	800,000	-0,039	0,097
-387,263	-156,071	0,133	-0,006
-386,248	499,289	-0,062	0,103
-385,233	123,490	0,095	0,085
-384,219	771,347	-0,051	-0,100
-383,204	-200,000	-0,024	-0,131
-382,190	29,612	0,113	-0,069
-381,175	-12,631	0,037	-0,017
-380,160	800,000	0,065	-0,198
-379,146	-157,695	0,158	0,007
-378,131	800,000	0,021	0,063
-377,117	800,000	-0,021	0,050
-376,102	52,325	0,085	0,058
-375,088	296,828	-0,052	0,068
-374,073	-106,613	0,068	0,011
-373,058	-200,000	0,010	0,096
-372,044	-200,000	-0,010	0,122
-371,029	-136,135	-0,091	-0,008
-370,015	800,000	0,023	0,069
-369,000	0,329	0,086	0,044
-367,985	268,132	-0,035	-0,044
-366,971	-114,213	0,093	0,013
-365,956	21,640	0,024	-0,014
-364,942	-200,000	0,003	0,110
-363,927	-120,264	0,083	-0,010
-362,912	-56,975	0,122	0,038
-361,898	-151,021	-0,030	-0,002
-360,883	100,510	-0,189	-0,157
-359,869	800,000	0,058	-0,128
-358,854	0,206	-0,051	0,026
-357,839	-155,931	-0,037	0,002
-356,825	298,540	-0,046	0,061
-355,810	-33,355	0,060	-0,024
-354,796	-36,226	-0,121	0,046
-353,781	651,409	0,024	0,044
-352,766	150,202	-0,015	0,015
-351,752	-200,000	0,020	0,109
-350,737	-45,901	-0,037	0,013
-349,723	-200,000	-0,030	0,111
-348,708	24,550	0,072	-0,042
-347,693	491,094	-0,066	-0,108
-346,679	-7,827	-0,074	0,035
-345,664	-118,809	0,076	-0,009
-344,650	195,330	0,003	0,003
-343,635	37,586	0,052	0,033
-342,620	21,448	0,149	0,087
-341,606	-200,000	-0,002	0,071
-340,591	-91,877	0,134	0,027
-339,577	800,000	0,008	0,017
-338,562	166,569	-0,082	-0,083
-337,548	188,539	-0,119	0,127
-336,533	-200,000	-0,013	0,081
-335,518	416,473	0,049	-0,075
-334,504	-20,908	-0,104	0,045
-333,489	162,475	0,096	-0,097
-332,475	800,000	0,111	-0,240
-331,460	260,436	-0,084	0,104
-330,445	800,000	0,045	0,104
-329,431	71,754	0,008	-0,006
-328,416	329,212	0,093	0,129
-327,402	-61,923	0,077	-0,023
-326,387	59,008	-0,024	-0,017
-325,372	48,143	0,062	0,041
-324,358	-25,063	-0,093	-0,039
-323,343	431,329	0,032	0,049
-322,329	31,438	0,120	0,073
-321,314	691,160	-0,007	0,013
-320,299	267,221	-0,016	0,020
-319,285	-200,000	0,015	-0,085
-318,270	-72,297	0,134	-0,035
-317,256	-65,593	-0,268	-0,076
-316,241	-25,558	0,055	-0,023
-315,226	-200,000	-0,011	0,066
-314,212	-200,000	-0,003	0,182
-313,197	-200,000	-0,010	0,053
-312,183	224,135	0,033	0,038
-311,168	19,116	-0,060	0,034
-310,153	-200,000	0,022	0,079
-309,139	22,305	0,037	0,022
-308,124	-200,000	-0,002	0,117
-307,110	-200,000	0,011	0,131
-306,095	-132,568	-0,056	-0,005
-305,080	-72,094	0,129	0,034
-304,066	703,741	-0,045	0,085
-303,051	-61,855	-0,046	-0,014
-302,037	-200,000	-0,004	-0,022
-301,022	-200,000	-0,030	-0,154
-300,008	-9,406	0,122	0,058
-298,993	193,662	-0,042	0,045
-297,978	296,987	-0,046	0,061
-296,964	-19,938	-0,124	0,054
-295,949	409,991	-0,051	-0,077
-294,935	127,212	-0,145	-0,131
-293,920	510,264	-0,026	-0,043
-292,905	180,386	0,058	-0,061
-291,891	-13,651	0,053	0,025
-290,876	-200,000	0,003	0,042
-289,862	228,721	0,044	-0,051
-288,847	-78,890	-0,085	0,020
-287,832	68,957	0,025	0,018
-286,818	800,000	-0,050	0,114
-285,803	499,905	-0,046	0,075
-284,789	-164,704	-0,025	0,001
-283,774	204,471	0,057	0,063
-282,759	265,769	-0,020	0,025
-281,745	343,876	-0,026	-0,037
-280,730	-76,684	-0,136	-0,034
-279,716	-200,000	-0,043	-0,178
-278,701	83,824	0,089	0,069
-277,686	265,107	-0,044	0,055
-276,672	800,000	0,048	-0,115
-275,657	12,350	-0,046	-0,025
-274,643	-200,000	-0,054	-0,185
-273,628	-200,000	-0,037	-0,139
-272,613	-200,000	0,016	0,102
-271,599	800,000	-0,073	0,200
-270,584	67,918	0,068	0,049
-269,570	-200,000	0,007	0,052
-268,555	800,000	-0,062	0,160
-267,540	-76,958	-0,035	-0,009
-266,526	-200,000	0,006	0,047
-265,511	170,693	0,100	-0,102
-264,497	-84,048	0,019	-0,004
-263,482	-200,000	0,002	0,042
-262,467	-200,000	0,016	-0,155
-261,453	6,918	-0,163	-0,086
-260,438	115,702	0,150	-0,130
-259,424	-200,000	0,022	0,158
-258,409	-4,468	-0,065	-0,032
-257,395	-200,000	0,013	0,047
-256,380	-200,000	-0,008	-0,040
-255,365	-120,975	0,066	0,008
-254,351	-183,249	0,037	0,000
-253,336	800,000	-0,027	-0,064
-252,322	359,511	-0,051	-0,072
-251,307	-57,447	0,157	0,049
-250,292	-39,999	0,096	0,035
-249,278	24,857	-0,051	0,030
-248,263	-200,000	0,029	0,099
-247,249	-140,490	0,077	-0,006
-246,234	259,334	0,055	-0,068
-245,219	232,497	0,034	0,039
-244,205	49,341	0,062	0,042
-243,190	63,687	-0,041	-0,029
-242,176	-116,121	0,118	-0,015
-241,161	438,210	0,018	-0,028
-240,146	181,378	0,038	0,040
-239,132	468,467	0,064	-0,102
-238,117	800,000	-0,045	-0,090
-237,103	-108,359	0,056	0,009
-236,088	217,996	0,100	-0,113
-235,073	-70,797	0,121	-0,032
-234,059	-59,662	0,038	-0,012
-233,044	102,509	0,079	0,066
-232,030	21,502	0,070	0,040
-231,015	56,072	-0,101	0,070
-230,000	-106,128	0,046	-0,007
-228,986	141,022	0,029	-0,027
-227,971	800,000	0,017	0,053
-226,957	-200,000	0,056	0,192
-225,942	800,000	0,026	0,054
-224,927	800,000	0,030	0,069
-223,913	82,338	0,126	-0,097
-222,898	-4,375	-0,131	-0,064
-221,884	-200,000	-0,022	-0,108
-220,869	362,603	0,070	0,100
-219,855	503,770	0,007	0,012
-218,840	160,321	0,054	0,053
-217,825	-2,552	-0,138	-0,069
-216,811	137,190	0,009	-0,008
-215,796	-90,883	-0,115	-0,023
-214,782	800,000	0,061	-0,139
-213,767	-200,000	-0,002	-0,141
-212,752	455,221	-0,008	-0,013
-211,738	174,229	0,060	0,062
-210,723	-50,523	-0,089	-0,030
-209,709	-200,000	-0,037	-0,134
-208,694	-87,556	-0,035	0,007
-207,679	415,929	0,056	-0,086
-206,665	-200,000	0,005	0,018
-205,650	49,852	-0,027	0,018
-204,636	800,000	0,044	-0,108
-203,621	674,037	-0,035	0,065
-202,606	272,971	0,036	0,045
-201,592	134,572	-0,082	0,075
-200,577	-200,000	0,036	-0,182
-199,563	-200,000	-0,005	0,020
-198,548	-200,000	-0,010	-0,087
-197,533	6,887	0,179	0,095
-196,519	403,295	0,060	0,090
-195,504	800,000	-0,009	-0,024
-194,490	-34,295	0,096	0,037
-193,475	-200,000	0,022	0,093
-192,460	484,733	-0,069	0,112
-191,446	800,000	-0,003	0,008
-190,431	-111,364	-0,053	-0,008
-189,417	327,476	-0,054	0,073
-188,402	204,752	0,062	-0,068
-187,387	-144,495	-0,180	0,012
-186,373	-115,801	0,100	0,013
-185,358	429,318	0,033	-0,051
-184,344	-81,510	-0,069	0,016
-183,329	93,218	-0,095	0,076
-182,315	-29,666	0,024	-0,009
-181,300	40,015	-0,098	-0,063
-180,285	-200,000	0,028	-0,098
-179,271	-58,038	-0,107	0,033
-178,256	269,206	-0,084	-0,105
-177,242	211,158	0,064	0,071
-176,227	-95,678	0,054	-0,010
-175,212	423,793	-0,075	0,114
-174,198	800,000	0,021	0,050
-173,183	-94,172	0,188	-0,036
-172,169	283,410	-0,046	-0,058
-171,154	227,121	-0,038	-0,044
-170,139	255,873	-0,044	0,054
-169,125	-108,993	0,074	-0,011
-168,110	288,743	0,039	-0,051
-167,096	-200,000	0,001	0,118
-166,081	-200,000	0,034	-0,211
-165,066	641,281	-0,024	-0,044
-164,052	-115,758	0,144	-0,019
-163,037	90,728	0,147	0,117
-162,023	800,000	0,024	0,073
-161,008	-180,031	0,112	0,002
-159,993	192,851	-0,013	0,014
-158,979	-200,000	-0,012	0,089
-157,964	241,993	-0,053	-0,063
-156,950	41,311	-0,016	-0,010
-155,935	-138,915	-0,115	0,009
-154,920	8,770	0,033	-0,018
-153,906	428,179	0,073	-0,113
-152,891	800,000	-0,045	-0,099
-151,877	800,000	-0,043	-0,095
-150,862	800,000	-0,036	-0,103
-149,847	800,000	-0,057	-0,126
-148,833	-10,266	-0,087	-0,041
-147,818	438,019	0,038	0,060
-146,804	234,484	0,028	0,033
-145,789	-91,621	-0,035	0,007
-144,775	800,000	0,036	0,077
-143,760	-28,718	0,093	-0,038
-142,745	12,412	-0,055	0,030
-141,731	-184,902	0,078	-0,001
-140,716	161,978	0,062	-0,061
-139,702	-200,000	-0,001	-0,072
-138,687	800,000	-0,023	-0,071
-137,672	441,123	-0,043	-0,067
-136,658	17,988	0,108	0,061
-135,643	-200,000	-0,022	0,154
-134,629	-200,000	0,018	0,129
-133,614	800,000	0,051	-0,132
-132,599	362,436	0,080	0,114
-131,585	-48,055	0,014	-0,005
-130,570	-41,040	0,101	-0,037
-129,556	-84,102	-0,138	-0,031
-128,541	101,187	0,122	-0,100
-127,526	-17,606	-0,116	-0,051
-126,512	-200,000	0,017	-0,113
-125,497	-119,843	0,045	0,005
-124,483	-200,000	-0,027	0,090
-123,468	277,779	-0,098	-0,124
-122,453	38,286	-0,043	0,027
-121,439	141,520	-0,082	-0,077
-120,424	-12,033	-0,082	-0,038
-119,410	23,877	0,033	-0,019
-118,395	161,282	0,080	-0,079
-117,380	-200,000	-0,000	0,070
-116,366	-28,143	0,050	0,020
-115,351	-200,000	-0,004	-0,137
-114,337	-200,000	0,010	-0,064
-113,322	509,654	-0,073	-0,121
-112,307	800,000	0,052	0,109
-111,293	439,393	0,020	0,031
-110,278	-124,806	-0,130	-0,014
-109,264	23,812	0,036	-0,021
-108,249	675,026	0,034	-0,063
-107,234	333,763	-0,013	-0,018
-106,220	-200,000	-0,049	0,185
-105,205	-200,000	-0,025	-0,080
-104,191	-200,000	0,167	-0,000
-103,176	145,103	0,069	0,066
-102,162	800,000	0,026	-0,062
-101,147	800,000	-0,058	0,165
-100,132	-200,000	0,026	0,117
-99,118	800,000	-0,019	-0,039
-98,103	-103,152	0,125	0,021
-97,089	-200,000	0,021	0,117
-96,074	-83,956	-0,097	0,022
-95,059	-200,000	0,011	-0,071
-94,045	-90,500	0,106	-0,022
-93,030	173,373	0,041	-0,041
-92,016	-200,000	0,008	0,041
-91,001	-200,000	0,007	0,026
-89,986	-200,000	0,022	0,090
-88,972	180,407	-0,037	-0,039
-87,957	62,446	0,098	0,069
-86,943	-200,000	0,005	-0,026
-85,928	81,368	-0,024	-0,018
-84,913	-200,000	-0,015	0,085
-83,899	-200,000	0,024	0,078
-82,884	0,620	0,031	0,016
-81,870	-200,000	0,009	0,079
-80,855	-63,398	0,076	-0,022
-79,840	380,174	-0,037	-0,054
-78,826	-200,000	-0,051	-0,214
-77,811	-21,656	-0,140	-0,060
-76,797	213,496	-0,096	0,107
-75,782	-200,000	-0,018	0,056
-74,767	800,000	0,034	0,091
-73,753	446,118	0,073	-0,114
-72,738	76,719	0,050	-0,037
-71,724	-6,099	-0,136	0,066
-70,709	485,461	-0,011	-0,019
-69,694	491,889	0,013	0,022
-68,680	137,340	-0,054	-0,050
-67,665	-200,000	-0,013	0,106
-66,651	561,439	-0,044	0,076
-65,636	-200,000	0,021	0,138
-64,622	44,402	-0,021	-0,014
-63,607	-151,382	-0,039	-0,002
-62,592	300,357	0,067	0,087
-61,578	-58,944	-0,130	0,039
-60,563	-200,000	-0,007	0,160
-59,549	-200,000	-0,041	0,247
-58,534	-36,530	-1,684	-0,637
-57,519	462,851	-1,308	-2,072
-56,505	-200,000	-0,432	-4,482
-55,490	164,867	1,093	1,091
-54,476	800,000	4,930	11,335
-53,461	-200,000	19,113	321,984
-52,446	-200,000	738,461	2333,313
-51,432	574,822	1651,036	2859,208
-50,417	78,112	1666,666	1255,431
-49,403	21,099	1539,980	880,756
-48,388	15,016	1462,233	806,840
-47,373	18,140	1452,830	816,654
-46,359	16,747	1442,671	804,258
-45,344	13,211	1438,012	784,765
-44,330	13,140	1436,132	783,370
-43,315	13,167	1434,460	782,555
-42,300	13,176	1432,622	781,564
-41,286	13,147	1431,595	780,836
-40,271	13,129	1430,249	779,983
-39,257	13,133	1428,956	779,269
-38,242	13,178	1427,471	778,640
-37,227	13,161	1426,330	777,907
-36,213	13,203	1425,053	777,377
-35,198	13,183	1423,761	776,548
-34,184	13,215	1423,055	776,280
-33,169	13,159	1421,635	775,212
-32,154	13,248	1420,454	774,957
-31,140	13,231	1419,369	774,255
-30,125	13,176	1418,492	773,486
-29,111	13,225	1417,049	772,900
-28,096	13,241	1416,092	772,420
-27,082	13,127	1414,914	771,213
-26,067	13,120	1413,854	770,573
-25,052	13,120	1412,945	770,046
-24,038	13,056	1411,986	769,192
-23,023	13,136	1410,764	768,869
-22,009	13,116	1409,826	768,236
-20,994	13,120	1408,976	767,762
-19,979	13,073	1408,255	767,116
-18,965	13,082	1407,159	766,533
-17,950	13,074	1406,031	765,851
-16,936	13,102	1405,256	765,527
-15,921	13,109	1404,117	764,912
-14,906	13,072	1403,190	764,203
-13,892	13,038	1402,420	763,594
-12,877	13,053	1401,522	763,146
-11,863	13,059	1400,511	762,594
-10,848	13,052	1399,797	762,138
-9,833	13,005	1398,844	761,375
-8,819	12,955	1398,122	760,720
-7,804	12,958	1397,017	760,102
-6,790	12,942	1395,938	759,408
-5,775	12,930	1394,978	758,800
-4,760	12,995	1393,986	758,531
-3,746	12,935	1393,245	757,824
-2,731	12,923	1392,409	757,281
-1,717	12,889	1391,666	756,689
-0,702	12,901	1389,838	755,719
0,313	17,006	1306,520	729,278
1,327	33,609	701,489	429,733
2,342	52,248	122,817	82,581
3,356	3,929	16,583	8,532
4,371	-2,500	3,256	1,605
5,386	29,855	0,590	0,354
6,400	-200,000	0,036	0,308
7,415	-46,890	-0,282	-0,097
8,429	26,114	-0,294	-0,173
9,444	179,777	-0,393	-0,406
10,459	6,321	-0,321	-0,168
11,473	25,851	-0,296	-0,173
12,488	11,552	-0,280	-0,151
13,502	54,863	-0,227	-0,155
14,517	1,905	-0,340	-0,173
15,531	5,182	-0,268	-0,139
16,546	254,041	-0,320	-0,387
17,561	322,987	-0,262	-0,353
18,575	-31,655	-0,300	-0,118
19,590	375,008	-0,250	-0,360
20,604	44,128	-0,224	-0,145
21,619	81,470	-0,432	-0,329
22,634	196,509	-0,408	-0,439
23,648	71,868	-0,495	-0,362
24,663	144,215	-0,385	-0,362
25,677	81,996	-0,243	-0,185
26,692	-29,618	-0,420	-0,168
27,707	1,076	-0,376	-0,190
28,721	125,243	-0,315	-0,280
29,736	267,909	-0,338	-0,418
30,750	499,926	-0,192	-0,313
31,765	29,197	-0,461	-0,275
32,780	106,364	-0,254	-0,212
33,794	146,220	-0,365	-0,345
34,809	-29,543	-0,351	-0,141
35,823	77,767	-0,329	-0,247
36,838	10,515	-0,350	-0,187
37,853	76,099	-0,338	-0,252
38,867	15,755	-0,516	-0,285
39,882	43,575	-0,334	-0,215
40,896	190,851	-0,262	-0,277
41,911	92,430	-0,437	-0,346
42,926	36,286	-0,383	-0,237
43,940	121,468	-0,246	-0,216
44,955	155,702	-0,503	-0,488
45,969	137,336	-0,421	-0,387
46,984	36,782	-0,310	-0,192
47,999	108,450	-0,264	-0,221
49,013	-38,884	-0,262	-0,097
50,028	-49,892	-0,368	-0,122
51,042	169,809	-0,251	-0,252
52,057	110,599	-0,355	-0,300
53,071	-85,844	-0,448	-0,097
54,086	68,606	-0,325	-0,234
55,101	36,862	-0,345	-0,214
56,115	-96,524	-0,324	-0,060
57,130	111,472	-0,329	-0,278
58,144	77,517	-0,403	-0,302
59,159	2,019	-0,433	-0,219
60,174	70,488	-0,337	-0,245
61,188	164,681	-0,269	-0,267
62,203	131,604	-0,319	-0,288
63,217	271,829	-0,226	-0,281
64,232	7,213	-0,378	-0,198
65,247	69,584	-0,316	-0,228
66,261	157,284	-0,353	-0,344
67,276	112,566	-0,358	-0,305
68,290	131,567	-0,343	-0,310
69,305	35,426	-0,392	-0,241
70,320	133,893	-0,194	-0,177
71,334	484,048	-0,155	-0,249
72,349	50,207	-0,314	-0,208
73,363	-59,658	-0,356	-0,107
74,378	-23,087	-0,406	-0,171
75,393	253,786	-0,211	-0,253
76,407	40,061	-0,344	-0,217
77,422	100,393	-0,182	-0,148
78,436	91,959	-0,184	-0,145
79,451	210,959	-0,257	-0,284
80,466	282,419	-0,216	-0,273
81,480	554,689	-0,213	-0,362
82,495	82,715	-0,290	-0,221
83,509	-10,226	-0,297	-0,138
84,524	59,026	-0,219	-0,151
85,539	155,673	-0,316	-0,305
86,553	167,546	-0,289	-0,288
87,568	-111,967	-0,352	0,049
88,582	62,039	-0,319	-0,223
89,597	100,896	-0,253	-0,206
90,611	39,599	-0,292	-0,183
91,626	23,611	-0,206	-0,119
92,641	109,472	-0,241	-0,202
93,655	-48,272	-0,267	-0,090
94,670	78,792	-0,334	-0,250
95,684	80,599	-0,321	-0,242
96,699	-133,213	-0,288	-0,025
97,714	28,605	-0,204	-0,121
98,728	51,335	-0,252	-0,168
99,743	233,952	-0,243	-0,281
100,757	-52,235	-0,290	-0,094
101,772	39,327	-0,160	-0,100
102,787	60,959	-0,329	-0,228
103,801	45,996	-0,329	-0,213
104,816	82,961	-0,173	-0,132
105,830	-65,525	-0,281	-0,079
106,845	-126,039	-0,248	-0,026
107,860	441,006	-0,155	-0,238
108,874	249,812	-0,212	-0,252
109,889	-8,270	-0,352	-0,165
110,903	160,443	-0,310	-0,303
111,918	44,611	-0,266	-0,170
112,933	-162,983	-0,197	-0,007
113,947	-49,746	-0,248	-0,082
114,962	-79,233	-0,199	-0,047
115,976	106,720	-0,185	-0,154
116,991	244,991	-0,175	-0,207
118,006	-38,554	-0,275	-0,101
119,020	254,603	-0,214	-0,256
120,035	18,570	-0,262	-0,146
121,049	229,409	-0,198	-0,226
122,064	24,763	-0,247	-0,142
123,079	309,181	-0,196	-0,257
124,093	-3,393	-0,360	-0,175
125,108	201,391	-0,237	-0,255
126,122	-11,665	-0,293	-0,134
127,137	71,403	-0,196	-0,142
128,151	-72,195	-0,287	-0,074
129,166	242,651	-0,188	-0,220
130,181	59,698	-0,258	-0,177
131,195	10,747	-0,295	-0,157
132,210	286,631	-0,232	-0,293
133,224	-158,460	-0,263	-0,010
134,239	-145,263	-0,279	-0,017
135,254	-200,000	-0,027	-0,128
136,268	232,163	-0,222	-0,254
137,283	62,308	-0,189	-0,132
138,297	121,638	-0,193	-0,168
139,312	59,626	-0,225	-0,154
140,327	23,141	-0,261	-0,149
141,341	125,442	-0,203	-0,178
142,356	82,355	-0,090	-0,068
143,370	91,535	-0,236	-0,185
144,385	132,669	-0,241	-0,217
145,400	85,855	-0,281	-0,215
146,414	53,534	-0,327	-0,218
147,429	50,117	-0,332	-0,218
148,443	576,698	-0,213	-0,364
149,458	800,000	-0,109	-0,221
150,473	126,353	-0,141	-0,124
151,487	22,276	-0,268	-0,152
152,502	78,933	-0,191	-0,142
153,516	439,895	-0,149	-0,227
154,531	107,693	-0,307	-0,255
155,546	1,946	-0,244	-0,122
156,560	-39,924	-0,178	-0,064
157,575	239,240	-0,131	-0,152
158,589	182,855	-0,227	-0,234
159,604	-76,606	-0,290	-0,070
160,619	577,699	-0,161	-0,276
161,633	117,572	-0,171	-0,147
162,648	324,362	-0,178	-0,238
163,662	76,386	-0,267	-0,197
164,677	419,546	-0,194	-0,289
165,692	135,622	-0,184	-0,167
166,706	99,220	-0,337	-0,271
167,721	162,066	-0,254	-0,248
168,735	800,000	-0,174	-0,402
169,750	149,304	-0,246	-0,232
170,764	272,402	-0,178	-0,219
171,779	-85,471	-0,217	-0,047
172,794	265,462	-0,153	-0,186
173,808	800,000	-0,076	-0,184
174,823	3,168	-0,269	-0,136
175,837	213,896	-0,140	-0,154
176,852	-4,278	-0,157	-0,075
177,867	-200,000	-0,081	-0,254
178,881	-200,000	-0,073	-0,239
179,896	3,179	-0,145	-0,073
180,910	-188,481	-0,283	0,002
181,925	222,853	-0,201	-0,226
182,940	800,000	-0,126	-0,327
183,954	254,884	-0,153	-0,182
184,969	87,348	-0,230	-0,177
185,983	-97,294	-0,284	-0,051
186,998	72,011	-0,135	-0,098
188,013	105,548	-0,265	-0,217
189,027	47,521	-0,188	-0,121
190,042	533,508	-0,151	-0,250
191,056	800,000	-0,118	-0,229
192,071	302,774	-0,145	-0,187
193,086	657,582	-0,127	-0,227
194,100	-59,931	-0,130	-0,038
195,115	166,908	-0,126	-0,124
196,129	25,882	-0,118	-0,068
197,144	38,510	-0,241	-0,149
198,159	389,599	-0,207	-0,298
199,173	94,770	-0,266	-0,210
200,188	389,312	-0,188	-0,271
201,202	15,565	-0,228	-0,124
202,217	8,852	-0,259	-0,135
203,232	453,578	-0,176	-0,272
204,246	100,575	-0,274	-0,221
205,261	465,787	-0,174	-0,272
206,275	-16,813	-0,206	-0,090
207,290	473,164	-0,133	-0,208
208,304	248,512	-0,113	-0,133
209,319	-140,886	-0,161	-0,011
210,334	111,922	-0,269	-0,225
211,348	-13,291	-0,227	-0,102
212,363	-158,648	-0,224	0,009
213,377	95,385	-0,242	-0,191
214,392	132,854	-0,192	-0,172
215,407	-78,953	-0,196	-0,046
216,421	-152,614	-0,238	0,012
217,436	34,271	-0,295	-0,178
218,450	427,607	-0,089	-0,133
219,465	227,584	-0,098	-0,111
220,480	311,891	-0,084	-0,110
221,494	-79,564	-0,210	-0,049
222,509	-113,923	-0,299	0,040
223,523	-69,204	-0,293	-0,078
224,538	65,918	-0,229	-0,161
225,553	391,669	-0,158	-0,228
226,567	16,016	-0,259	-0,141
227,582	33,319	-0,261	-0,156
228,596	-10,692	-0,146	-0,067
229,611	314,054	-0,158	-0,207
230,626	800,000	-0,044	-0,100
231,640	352,284	-0,178	-0,245
232,655	159,735	-0,231	-0,223
233,669	68,920	-0,263	-0,187
234,684	134,507	-0,141	-0,127
235,699	-200,000	-0,035	-0,144
236,713	70,227	-0,172	-0,123
237,728	260,306	-0,159	-0,190
238,742	-12,221	-0,155	-0,070
239,757	285,966	-0,110	-0,137
240,772	165,335	-0,079	-0,077
241,786	43,136	-0,257	-0,162
242,801	-5,545	-0,195	-0,092
243,815	323,581	-0,127	-0,169
244,830	-11,792	-0,237	-0,107
245,844	103,284	-0,156	-0,127
246,859	121,033	-0,246	-0,211
247,874	3,559	-0,181	-0,091
248,888	141,009	-0,138	-0,126
249,903	87,325	-0,211	-0,161
250,917	-46,792	-0,083	0,028
251,932	-102,632	-0,229	-0,037
252,947	-72,495	-0,170	-0,043
253,961	90,174	-0,157	-0,121
254,976	39,448	-0,228	-0,141
255,990	51,309	-0,186	-0,122
257,005	-200,000	-0,067	-0,281
258,020	85,825	-0,135	-0,103
259,034	-45,141	-0,325	-0,111
260,049	-63,576	-0,280	-0,079
261,063	-125,976	-0,152	0,016
262,078	-107,093	-0,205	-0,031
263,093	-111,137	-0,117	-0,016
264,107	180,125	-0,218	-0,221
265,122	222,294	-0,111	-0,124
266,136	298,697	-0,223	-0,283
267,151	107,802	-0,123	-0,101
268,166	-106,315	-0,143	0,022
269,180	134,222	-0,151	-0,135
270,195	-200,000	-0,058	-0,232
271,209	357,904	-0,137	-0,189
272,224	92,004	-0,166	-0,129
273,239	67,669	-0,150	-0,105
274,253	387,409	-0,063	-0,089
275,268	-200,000	-0,021	-0,223
276,282	-34,854	-0,245	-0,092
277,297	298,969	-0,199	-0,253
278,312	800,000	-0,080	-0,200
279,326	-80,897	-0,122	0,028
280,341	-86,439	-0,236	-0,050
281,355	-33,507	-0,125	-0,047
282,370	41,318	-0,166	-0,103
283,384	89,507	-0,179	-0,137
284,399	-47,899	-0,139	-0,046
285,414	457,693	-0,102	-0,156
286,428	-200,000	-0,035	-0,144
287,443	55,058	-0,105	-0,070
288,457	-157,658	-0,166	0,007
289,472	280,452	-0,220	-0,272
290,487	-200,000	0,001	-0,148
291,501	-64,515	-0,129	0,036
292,516	245,677	-0,105	-0,122
293,530	-93,572	-0,220	-0,041
294,545	-0,094	-0,080	-0,039
295,560	-89,462	-0,220	0,044
296,574	-109,579	-0,183	-0,026
297,589	81,398	-0,238	-0,177
298,603	-110,297	-0,206	-0,029
299,618	524,316	-0,102	-0,166
300,633	151,852	-0,134	-0,126
301,647	295,228	0,035	-0,045
302,662	181,508	-0,137	-0,139
303,676	35,127	-0,185	-0,111
304,691	59,428	-0,189	-0,128
305,706	339,015	-0,142	-0,191
306,720	158,467	-0,186	-0,178
307,735	-200,000	-0,024	-0,150
308,749	-133,199	-0,063	0,005
309,764	115,045	-0,062	-0,052
310,779	800,000	-0,073	-0,198
311,793	309,405	-0,082	-0,106
312,808	-98,001	-0,249	0,044
313,822	169,639	-0,218	-0,215
314,837	-63,413	-0,232	0,065
315,852	142,429	-0,043	-0,039
316,866	-149,100	-0,104	0,006
317,881	-44,289	-0,075	-0,026
318,895	116,900	-0,066	-0,055
319,910	-101,927	-0,104	-0,017
320,925	133,779	-0,142	-0,127
321,939	464,972	-0,127	-0,196
322,954	-141,085	-0,173	-0,012
323,968	82,293	-0,024	0,018
324,983	-96,064	-0,174	0,031
325,997	-86,622	-0,263	0,055
327,012	692,049	-0,119	-0,214
328,027	206,392	-0,186	-0,199
329,041	123,692	-0,134	-0,116
330,056	-8,040	-0,162	-0,075
331,070	344,436	-0,090	-0,122
332,085	-131,712	-0,129	-0,011
333,100	80,929	-0,086	-0,063
334,114	-32,942	-0,314	-0,119
335,129	800,000	-0,120	-0,235
336,143	335,901	-0,089	-0,119
337,158	-91,673	-0,101	0,019
338,173	-200,000	0,070	-0,232
339,187	800,000	-0,020	-0,057
340,202	-200,000	-0,101	-0,000
341,216	559,967	-0,133	-0,221
342,231	-48,813	-0,146	-0,048
343,246	335,268	-0,148	-0,198
344,260	93,949	-0,155	-0,121
345,275	33,613	-0,083	-0,049
346,289	-8,117	-0,084	-0,038
347,304	63,888	-0,207	-0,142
348,319	-140,822	-0,078	0,005
349,333	308,757	-0,129	-0,165
350,348	-200,000	-0,024	-0,139
351,362	43,162	-0,179	0,112
352,377	800,000	-0,095	-0,207
353,392	-200,000	-0,038	-0,126
354,406	-200,000	-0,003	-0,009
355,421	208,400	1313,760	1408,293
356,435	160,358	1474,359	1408,799
