DTS Sentinel unit serial number:	SN410029Multiplexer serial number:	ORYXHardware model number:	OX2-SRSoftware version number:	ORYX F/W v4,00 Oryx Data Collector v3.7.2.0data status	okinstallation	B3 Nyhavnadifferential loss correction	single-endedforward channel	channel 1reverse channel	N/Adate	2023/12/03time	08:17:30forward acquisition time	300,00reverse acquisition time	0,00gamma	499,1914k internal	0,3200k external	0,3200temperature offset calibration	1,0000default loss term (dB/km)	0,3820temperature slope calibration	1,0000multiplexer offset coefficient	1,0000multiplexer slope coefficient	1,0000fibre end	0,00T internal ref (°C)	13,32T ext. ref 1 (°C)	-1,72T ext. ref 2 (°C)	-1,73length (m)	temperature (°C)	Stokes	anti-Stokes-744,400	251,327	-0,199	-0,246
-743,385	800,000	-0,187	0,447
-742,371	800,000	-0,076	-0,173
-741,356	-200,000	0,004	0,304
-740,342	102,627	-0,169	-0,144
-739,327	-200,000	0,057	0,341
-738,312	54,093	-0,223	-0,156
-737,298	-200,000	-0,033	0,180
-736,283	92,800	-0,261	-0,214
-735,269	-200,000	-0,009	0,351
-734,254	88,434	-0,189	-0,153
-733,239	-159,037	-0,173	0,007
-732,225	72,413	-0,214	-0,162
-731,210	410,173	0,090	0,139
-730,196	-200,000	-0,011	-0,078
-729,181	-127,139	-0,124	0,013
-728,167	227,239	-0,048	-0,057
-727,152	-153,251	-0,149	0,007
-726,137	341,578	-0,045	0,064
-725,123	-29,394	-0,093	0,039
-724,108	-200,000	-0,012	0,063
-723,094	47,761	-0,110	0,074
-722,079	774,098	-0,035	0,070
-721,064	-200,000	0,002	0,027
-720,050	-200,000	0,005	0,114
-719,035	233,940	-0,030	-0,036
-718,021	-112,381	-0,137	-0,020
-717,006	288,770	-0,065	-0,086
-715,991	124,713	-0,109	-0,100
-714,977	-200,000	-0,036	-0,195
-713,962	285,046	0,086	-0,112
-712,948	-200,000	0,015	-0,102
-711,933	146,268	0,073	-0,071
-710,918	105,413	-0,039	0,033
-709,904	800,000	-0,024	0,076
-708,889	800,000	-0,019	-0,043
-707,875	-174,611	0,066	0,001
-706,860	-5,655	-0,139	-0,069
-705,845	327,760	0,036	-0,051
-704,831	537,400	-0,059	0,101
-703,816	-200,000	0,025	0,083
-702,802	109,105	-0,184	0,159
-701,787	-87,763	0,149	0,032
-700,772	-155,450	-0,105	0,005
-699,758	9,078	-0,083	0,045
-698,743	320,682	0,059	-0,081
-697,729	-9,938	0,096	0,046
-696,714	-63,893	0,155	0,046
-695,699	454,074	0,036	-0,058
-694,685	115,273	-0,044	-0,039
-693,670	106,047	0,077	0,066
-692,656	-200,000	-0,020	0,074
-691,641	139,264	0,169	0,161
-690,627	-78,947	0,081	0,020
-689,612	91,018	-0,068	0,055
-688,597	131,949	-0,081	-0,075
-687,583	313,123	0,067	-0,091
-686,568	-148,048	-0,111	-0,007
-685,554	-200,000	0,020	-0,069
-684,539	-200,000	-0,004	-0,100
-683,524	-71,190	0,069	-0,019
-682,510	70,392	-0,053	0,040
-681,495	-96,445	-0,035	0,007
-680,481	-87,737	-0,130	-0,028
-679,466	168,230	0,075	-0,078
-678,451	-46,441	0,055	-0,020
-677,437	-200,000	-0,006	0,072
-676,422	155,391	-0,017	0,017
-675,408	-200,000	0,023	-0,078
-674,393	-173,595	-0,040	0,001
-673,378	48,223	-0,087	0,059
-672,364	800,000	0,036	0,113
-671,349	72,311	-0,053	-0,040
-670,335	325,113	0,017	0,023
-669,320	-200,000	0,025	0,177
-668,305	-200,000	-0,024	-0,153
-667,291	638,966	-0,018	-0,034
-666,276	214,964	-0,067	-0,077
-665,262	800,000	-0,056	-0,153
-664,247	133,112	-0,063	-0,059
-663,232	-23,000	-0,090	-0,039
-662,218	221,229	0,084	-0,098
-661,203	243,099	-0,062	-0,075
-660,189	255,868	0,010	0,012
-659,174	-54,238	0,145	-0,047
-658,159	92,806	0,028	-0,023
-657,145	19,140	0,057	-0,033
-656,130	537,757	-0,001	-0,001
-655,116	59,191	0,096	0,068
-654,101	-111,818	-0,005	-0,001
-653,086	197,233	-0,036	0,039
-652,072	223,329	-0,113	-0,132
-651,057	3,789	0,057	-0,030
-650,043	3,721	-0,053	0,028
-649,028	-71,756	-0,082	-0,022
-648,014	800,000	0,038	0,088
-646,999	-93,457	0,142	0,028
-645,984	-200,000	0,013	0,109
-644,970	80,127	-0,078	-0,061
-643,955	-177,261	-0,087	-0,002
-642,941	-200,000	-0,010	0,044
-641,926	-103,068	0,018	0,003
-640,911	800,000	-0,042	-0,086
-639,897	-200,000	-0,001	0,017
-638,882	-80,014	0,057	-0,014
-637,868	-200,000	0,021	-0,129
-636,853	608,347	0,049	0,089
-635,838	-112,174	-0,097	-0,014
-634,824	-18,610	-0,006	0,003
-633,809	83,607	0,107	0,085
-632,795	-162,016	-0,071	-0,003
-631,780	80,475	0,021	-0,017
-630,765	267,683	0,066	-0,084
-629,751	123,976	-0,133	-0,121
-628,736	85,685	-0,095	0,075
-627,722	1,530	0,090	-0,047
-626,707	-200,000	-0,024	-0,082
-625,692	800,000	0,079	0,208
-624,678	800,000	0,018	-0,041
-623,663	64,236	0,066	0,048
-622,649	89,123	-0,083	-0,067
-621,634	132,086	0,070	-0,066
-620,619	800,000	-0,090	-0,203
-619,605	207,443	0,066	0,074
-618,590	-200,000	-0,012	0,151
-617,576	31,683	-0,117	0,073
-616,561	-175,630	-0,128	-0,002
-615,546	222,531	0,097	-0,114
-614,532	-100,573	-0,048	-0,008
-613,517	1,270	-0,084	-0,043
-612,503	-200,000	0,034	-0,120
-611,488	-200,000	0,017	0,062
-610,474	218,819	0,033	0,038
-609,459	-200,000	-0,013	0,057
-608,444	135,451	-0,021	0,020
-607,430	-135,998	-0,076	0,006
-606,415	-200,000	-0,022	0,122
-605,401	132,956	0,055	0,051
-604,386	-200,000	0,019	0,105
-603,371	755,508	0,051	0,101
-602,357	-200,000	0,028	-0,149
-601,342	800,000	0,021	0,047
-600,328	-90,747	-0,090	0,019
-599,313	7,044	0,015	0,008
-598,298	800,000	0,010	-0,022
-597,284	-200,000	-0,004	0,042
-596,269	68,527	0,044	0,032
-595,255	-113,569	-0,050	0,007
-594,240	-200,000	0,005	-0,056
-593,225	-43,223	-0,077	-0,028
-592,211	-8,030	-0,071	-0,034
-591,196	217,210	0,102	-0,118
-590,182	-9,070	0,084	-0,041
-589,167	-82,381	-0,050	0,012
-588,152	94,144	0,095	0,078
-587,138	-1,742	0,038	-0,019
-586,123	800,000	-0,075	-0,174
-585,109	-142,168	-0,147	-0,010
-584,094	-144,894	-0,034	-0,002
-583,079	29,771	-0,098	-0,060
-582,065	-200,000	0,004	0,079
-581,050	-180,275	0,080	0,001
-580,036	126,850	-0,122	0,112
-579,021	-17,591	-0,073	0,033
-578,006	-200,000	-0,015	-0,091
-576,992	-200,000	-0,022	-0,144
-575,977	-96,906	-0,078	0,015
-574,963	800,000	0,068	0,156
-573,948	423,201	-0,067	-0,104
-572,934	-200,000	0,009	-0,051
-571,919	-88,398	-0,094	0,020
-570,904	-200,000	-0,004	-0,075
-569,890	-94,330	0,113	-0,022
-568,875	766,160	-0,069	0,136
-567,861	-200,000	-0,013	0,047
-566,846	-76,200	-0,117	0,029
-565,831	-200,000	-0,020	-0,090
-564,817	212,538	-0,083	-0,094
-563,802	10,917	-0,049	-0,027
-562,788	296,530	0,047	0,063
-561,773	-49,508	-0,110	-0,038
-560,758	390,358	-0,063	-0,094
-559,744	403,246	0,070	0,106
-558,729	-79,739	0,101	0,024
-557,715	800,000	0,029	-0,081
-556,700	-41,963	-0,152	-0,056
-555,685	-200,000	-0,029	-0,103
-554,671	359,456	0,054	0,079
-553,656	-123,602	0,047	0,005
-552,642	232,956	0,048	-0,056
-551,627	288,488	0,078	0,102
-550,612	-92,975	-0,144	0,029
-549,598	800,000	0,019	-0,041
-548,583	54,807	-0,089	0,062
-547,569	462,451	0,025	-0,040
-546,554	717,512	-0,065	-0,125
-545,539	651,808	0,011	-0,020
-544,525	580,119	0,029	0,052
-543,510	76,573	-0,049	0,038
-542,496	-200,000	-0,049	-0,193
-541,481	122,242	-0,103	-0,093
-540,466	800,000	0,072	0,186
-539,452	-200,000	-0,016	-0,093
-538,437	-177,509	0,081	0,001
-537,423	-200,000	0,007	-0,040
-536,408	800,000	0,046	-0,122
-535,393	-62,769	-0,183	-0,054
-534,379	-93,394	-0,079	0,016
-533,364	3,576	0,064	-0,034
-532,350	-200,000	0,003	-0,029
-531,335	86,837	-0,008	-0,006
-530,321	-70,645	0,025	0,007
-529,306	-167,544	-0,171	-0,005
-528,291	350,249	-0,070	0,101
-527,277	201,772	-0,094	-0,105
-526,262	139,985	-0,073	0,070
-525,248	118,701	0,058	-0,051
-524,233	776,550	0,046	-0,091
-523,218	73,708	-0,047	0,035
-522,204	173,186	0,030	-0,031
-521,189	800,000	0,040	-0,118
-520,175	800,000	0,041	-0,109
-519,160	624,935	0,048	-0,087
-518,145	450,900	0,014	0,023
-517,131	-37,686	0,157	0,060
-516,116	794,633	-0,061	0,123
-515,102	641,617	-0,060	0,111
-514,087	-34,428	-0,056	0,022
-513,072	-200,000	-0,003	-0,032
-512,058	483,305	0,058	-0,096
-511,043	-200,000	-0,027	-0,144
-510,029	-122,617	0,063	-0,007
-509,014	-43,722	-0,061	-0,022
-507,999	-117,159	0,048	-0,006
-506,985	16,261	0,070	0,040
-505,970	800,000	0,014	-0,044
-504,956	172,517	0,040	0,042
-503,941	-18,115	0,044	0,020
-502,926	138,318	0,071	-0,067
-501,912	742,034	-0,028	-0,054
-500,897	800,000	0,017	0,038
-499,883	-165,850	0,036	-0,001
-498,868	-98,423	-0,034	0,006
-497,853	168,146	-0,086	0,088
-496,839	-200,000	0,007	0,060
-495,824	-200,000	0,005	0,135
-494,810	444,712	0,060	0,095
-493,795	-113,000	0,129	0,018
-492,781	-200,000	-0,004	0,029
-491,766	800,000	-0,023	-0,048
-490,751	-200,000	0,010	-0,043
-489,737	-200,000	-0,016	0,110
-488,722	-153,773	-0,161	0,008
-487,708	799,493	0,097	0,194
-486,693	-200,000	0,006	-0,053
-485,678	458,603	-0,088	-0,141
-484,664	800,000	-0,037	-0,079
-483,649	-200,000	-0,014	-0,104
-482,635	-200,000	0,004	0,038
-481,620	-200,000	0,009	-0,037
-480,605	-200,000	0,001	0,163
-479,591	-155,265	0,127	-0,006
-478,576	37,536	-0,023	0,015
-477,562	22,483	0,066	-0,039
-476,547	55,021	-0,070	0,049
-475,532	418,387	0,046	0,071
-474,518	53,709	-0,106	0,073
-473,503	107,148	0,095	0,081
-472,489	800,000	0,002	0,005
-471,474	-200,000	0,017	0,151
-470,459	96,749	0,038	-0,032
-469,445	72,363	0,092	-0,069
-468,430	553,531	0,009	0,015
-467,416	-200,000	-0,014	-0,059
-466,401	800,000	0,037	0,092
-465,386	800,000	0,034	-0,093
-464,372	-20,008	0,092	-0,041
-463,357	800,000	-0,035	0,100
-462,343	-200,000	-0,008	0,094
-461,328	800,000	0,024	-0,075
-460,313	357,696	-0,030	0,043
-459,299	148,291	-0,103	0,100
-458,284	216,685	0,075	0,087
-457,270	-200,000	0,006	-0,026
-456,255	-8,313	0,118	-0,057
-455,241	773,015	-0,025	-0,050
-454,226	-164,391	-0,049	-0,002
-453,211	269,351	-0,054	-0,068
-452,197	-200,000	-0,000	0,016
-451,182	-88,915	-0,115	-0,024
-450,168	242,298	0,092	0,111
-449,153	800,000	0,043	-0,126
-448,138	91,875	-0,118	-0,095
-447,124	800,000	0,051	-0,137
-446,109	70,428	0,053	0,039
-445,095	176,642	0,135	0,141
-444,080	666,478	-0,017	0,031
-443,065	-200,000	0,015	0,114
-442,051	218,959	-0,120	0,138
-441,036	-200,000	0,001	-0,167
-440,022	341,663	0,038	0,054
-439,007	-200,000	-0,023	-0,106
-437,992	327,585	0,038	0,052
-436,978	178,989	-0,010	0,011
-435,963	-200,000	-0,021	-0,073
-434,949	340,200	-0,023	-0,032
-433,934	-166,874	-0,139	0,004
-432,919	-200,000	0,009	-0,033
-431,905	-200,000	0,004	0,080
-430,890	800,000	0,040	0,090
-429,876	-121,177	0,256	0,030
-428,861	-40,486	-0,035	0,013
-427,846	-50,350	0,101	-0,034
-426,832	-200,000	-0,005	-0,080
-425,817	-200,000	0,001	0,012
-424,803	291,511	-0,062	0,081
-423,788	-141,045	0,050	-0,004
-422,773	800,000	0,047	0,117
-421,759	341,542	-0,104	0,147
-420,744	-43,767	-0,109	0,039
-419,730	-18,821	-0,083	-0,037
-418,715	11,019	-0,066	-0,036
-417,701	-109,765	0,074	-0,011
-416,686	53,625	0,093	0,064
-415,671	667,993	-0,068	-0,128
-414,657	40,114	-0,087	0,056
-413,642	706,186	0,027	-0,051
-412,628	171,629	-0,020	0,021
-411,613	-200,000	-0,015	-0,193
-410,598	32,287	-0,006	-0,004
-409,584	199,024	0,085	-0,093
-408,569	229,006	0,046	0,054
-407,555	116,666	0,029	0,025
-406,540	-123,468	-0,054	0,006
-405,525	-110,504	-0,093	0,014
-404,511	-200,000	-0,013	-0,257
-403,496	100,948	-0,068	0,057
-402,482	-5,726	-0,077	0,038
-401,467	800,000	-0,024	-0,057
-400,452	-28,355	0,170	0,070
-399,438	127,571	-0,084	0,076
-398,423	-200,000	-0,023	-0,075
-397,409	-93,841	-0,057	0,011
-396,394	800,000	-0,024	-0,060
-395,379	-79,087	0,115	-0,028
-394,365	-9,436	0,016	-0,008
-393,350	-35,165	0,080	0,031
-392,336	-200,000	-0,011	-0,067
-391,321	611,302	-0,056	-0,100
-390,306	-169,085	0,086	0,002
-389,292	86,232	-0,144	-0,114
-388,277	43,707	0,107	-0,070
-387,263	-110,945	-0,074	0,011
-386,248	317,414	0,061	0,084
-385,233	-200,000	-0,016	0,075
-384,219	734,216	-0,005	0,009
-383,204	230,408	-0,101	0,119
-382,190	-47,408	0,023	0,008
-381,175	-161,839	0,062	0,002
-380,160	28,803	0,051	-0,031
-379,146	23,756	0,041	-0,024
-378,131	409,623	-0,071	0,109
-377,117	700,236	0,077	-0,146
-376,102	-200,000	0,001	0,024
-375,088	-36,882	0,087	0,033
-374,073	79,493	-0,094	0,072
-373,058	-10,332	0,095	0,045
-372,044	-20,314	0,041	0,018
-371,029	-67,618	0,084	0,023
-370,015	-200,000	0,017	0,200
-369,000	-200,000	0,002	0,074
-367,985	-169,333	-0,076	-0,002
-366,971	-81,871	-0,048	-0,011
-365,956	800,000	-0,015	0,038
-364,942	-200,000	0,004	0,053
-363,927	-111,382	0,176	-0,025
-362,912	-200,000	-0,027	-0,123
-361,898	199,391	-0,054	0,059
-360,883	800,000	-0,025	0,075
-359,869	-44,082	-0,103	0,037
-358,854	124,594	0,063	0,057
-357,839	345,174	-0,088	0,124
-356,825	63,028	0,114	0,082
-355,810	-50,002	-0,038	0,013
-354,796	10,346	-0,026	-0,014
-353,781	-200,000	0,001	-0,010
-352,766	-139,328	-0,108	-0,008
-351,752	74,710	0,031	0,023
-350,737	218,655	0,042	0,048
-349,723	-200,000	0,012	0,186
-348,708	346,374	-0,048	0,067
-347,693	-94,223	-0,107	0,021
-346,679	88,690	0,048	-0,038
-345,664	-200,000	0,008	-0,060
-344,650	-200,000	-0,034	-0,198
-343,635	356,518	0,062	-0,088
-342,620	343,783	-0,035	0,049
-341,606	34,558	-0,033	0,021
-340,591	97,726	-0,031	-0,025
-339,577	-2,679	-0,130	-0,065
-338,562	-200,000	0,001	-0,005
-337,548	-155,626	0,045	0,002
-336,533	12,584	-0,047	0,026
-335,518	19,859	0,086	-0,050
-334,504	-74,103	-0,152	-0,039
-333,489	-200,000	-0,018	0,074
-332,475	-59,083	-0,142	-0,043
-331,460	-25,050	0,078	-0,033
-330,445	91,008	-0,128	0,102
-329,431	-200,000	-0,014	0,047
-328,416	-120,540	0,242	-0,029
-327,402	152,029	-0,092	-0,090
-326,387	-101,237	0,066	0,011
-325,372	800,000	0,030	-0,061
-324,358	82,465	-0,082	-0,064
-323,343	-71,634	0,100	0,026
-322,329	800,000	0,014	0,030
-321,314	-200,000	-0,054	0,173
-320,299	695,450	0,015	-0,028
-319,285	325,838	0,077	0,106
-318,270	320,505	0,052	0,070
-317,256	800,000	0,049	0,113
-316,241	336,187	-0,043	0,060
-315,226	-113,636	0,119	-0,016
-314,212	-200,000	0,012	-0,055
-313,197	128,929	0,049	-0,045
-312,183	298,396	0,064	-0,085
-311,168	-200,000	-0,014	-0,076
-310,153	22,781	-0,153	0,090
-309,139	800,000	0,049	0,128
-308,124	66,799	0,108	0,079
-307,110	630,649	-0,053	0,096
-306,095	800,000	0,024	0,049
-305,080	-200,000	-0,012	-0,109
-304,066	-33,736	-0,099	-0,039
-303,051	-200,000	0,007	-0,148
-302,037	118,111	-0,038	-0,033
-301,022	800,000	0,037	0,086
-300,008	159,780	0,112	0,111
-298,993	-89,269	-0,102	0,021
-297,978	-33,620	0,083	-0,033
-296,964	-97,599	-0,072	-0,013
-295,949	800,000	-0,036	-0,108
-294,935	-200,000	-0,003	0,033
-293,920	104,368	0,017	-0,015
-292,905	800,000	0,005	0,014
-291,891	50,267	0,154	0,104
-290,876	-200,000	-0,020	-0,129
-289,862	-1,920	0,040	0,020
-288,847	120,090	-0,144	0,128
-287,832	800,000	-0,039	0,077
-286,818	-38,618	-0,051	-0,019
-285,803	59,551	0,170	0,120
-284,789	-0,310	0,050	0,025
-283,774	677,435	0,038	0,072
-282,759	-200,000	-0,003	-0,072
-281,745	-117,654	0,059	0,007
-280,730	-200,000	-0,024	-0,102
-279,716	25,835	0,119	0,071
-278,701	-161,180	0,156	0,006
-277,686	185,549	0,110	0,117
-276,672	-102,417	0,113	0,019
-275,657	-104,005	-0,027	0,004
-274,643	800,000	0,020	0,061
-273,628	800,000	-0,060	-0,134
-272,613	-200,000	0,017	0,064
-271,599	800,000	0,027	0,080
-270,584	238,538	-0,054	0,064
-269,570	290,058	-0,064	0,084
-268,555	800,000	-0,028	-0,061
-267,540	140,316	-0,119	-0,112
-266,526	-200,000	0,007	-0,045
-265,511	49,013	-0,069	0,046
-264,497	-156,458	0,029	0,001
-263,482	-104,614	0,123	0,020
-262,467	87,705	0,057	-0,045
-261,453	-2,070	-0,054	0,027
-260,438	-42,992	0,116	0,042
-259,424	-200,000	-0,019	-0,132
-258,409	-200,000	0,012	-0,073
-257,395	137,700	-0,103	-0,097
-256,380	122,511	0,118	-0,106
-255,365	443,133	-0,022	-0,035
-254,351	-200,000	0,022	-0,101
-253,336	82,521	0,041	0,032
-252,322	310,854	0,040	0,054
-251,307	800,000	0,011	-0,032
-250,292	-77,226	-0,057	0,014
-249,278	-200,000	0,021	0,115
-248,263	800,000	-0,024	-0,052
-247,249	117,212	0,024	0,021
-246,234	-74,682	0,079	0,020
-245,219	-36,644	-0,040	-0,015
-244,205	-200,000	0,013	-0,122
-243,190	587,065	0,065	0,115
-242,176	263,609	-0,100	0,124
-241,161	-147,478	0,159	0,009
-240,146	-22,496	-0,097	-0,042
-239,132	-200,000	0,027	-0,106
-238,117	95,586	-0,025	-0,021
-237,103	565,099	0,025	-0,043
-236,088	-200,000	-0,033	-0,111
-235,073	-0,331	-0,025	-0,012
-234,059	-200,000	-0,001	0,022
-233,044	143,183	0,065	0,062
-232,030	800,000	-0,053	0,140
-231,015	65,380	0,085	-0,061
-230,000	-200,000	0,006	-0,103
-228,986	-200,000	0,027	-0,108
-227,971	-200,000	-0,022	0,081
-226,957	800,000	-0,025	0,071
-225,942	-200,000	-0,002	-0,110
-224,927	90,885	0,159	0,127
-223,913	239,550	-0,149	-0,178
-222,898	800,000	-0,059	-0,159
-221,884	205,886	0,011	-0,012
-220,869	407,213	-0,032	-0,049
-219,855	-28,004	0,076	-0,031
-218,840	171,545	-0,026	-0,026
-217,825	247,851	-0,057	0,069
-216,811	141,906	0,060	-0,057
-215,796	-133,701	-0,033	-0,003
-214,782	800,000	-0,061	-0,142
-213,767	453,653	0,055	-0,087
-212,752	284,469	-0,043	0,055
-211,738	311,313	0,091	-0,122
-210,723	116,346	-0,033	0,029
-209,709	-101,009	-0,144	0,025
-208,694	-200,000	-0,007	-0,034
-207,679	800,000	0,016	-0,036
-206,665	-152,794	0,086	0,004
-205,650	-21,678	0,185	0,080
-204,636	-175,394	-0,043	-0,001
-203,621	-32,269	-0,060	0,024
-202,606	-200,000	-0,049	0,166
-201,592	-105,667	0,118	-0,019
-200,577	800,000	0,060	-0,124
-199,563	-200,000	0,010	-0,075
-198,548	109,242	-0,068	0,058
-197,533	-116,343	0,077	0,010
-196,519	37,087	0,144	0,091
-195,504	-38,992	-0,160	-0,060
-194,490	210,890	-0,061	-0,069
-193,475	675,763	0,034	-0,063
-192,460	71,440	-0,040	-0,029
-191,446	145,063	0,018	-0,017
-190,431	-200,000	0,017	0,114
-189,417	111,691	-0,057	-0,049
-188,402	800,000	0,056	0,163
-187,387	-18,762	-0,128	0,056
-186,373	407,287	-0,015	-0,023
-185,358	78,360	0,018	-0,014
-184,344	-200,000	-0,002	0,076
-183,329	-159,389	0,092	-0,004
-182,315	-4,845	0,081	-0,040
-181,300	800,000	-0,026	0,078
-180,285	-40,260	-0,223	-0,082
-179,271	233,084	-0,067	-0,079
-178,256	39,534	0,111	-0,071
-177,242	-91,576	0,033	0,007
-176,227	319,370	0,018	0,025
-175,212	266,376	0,122	-0,152
-174,198	57,543	0,025	-0,017
-173,183	800,000	0,059	-0,143
-172,169	26,704	-0,042	0,025
-171,154	292,162	-0,016	-0,021
-170,139	-60,394	0,038	-0,011
-169,125	800,000	-0,010	0,023
-168,110	800,000	0,016	-0,046
-167,096	501,488	-0,028	0,047
-166,081	-200,000	-0,013	0,110
-165,066	-152,777	-0,185	0,009
-164,052	22,347	0,155	-0,090
-163,037	575,965	0,007	-0,012
-162,023	-200,000	0,005	-0,082
-161,008	-200,000	-0,025	0,133
-159,993	-200,000	0,027	0,100
-158,979	-62,181	-0,129	0,038
-157,964	-200,000	0,014	0,085
-156,950	-21,376	-0,132	0,057
-155,935	-200,000	-0,007	-0,024
-154,920	-33,060	0,098	0,039
-153,906	-15,977	0,067	0,030
-152,891	-32,646	0,106	-0,042
-151,877	800,000	0,012	0,034
-150,862	-75,042	-0,153	-0,039
-149,847	-101,333	0,038	-0,007
-148,833	-200,000	0,009	-0,147
-147,818	54,581	0,041	-0,028
-146,804	203,918	0,005	0,006
-145,789	54,171	-0,104	0,071
-144,775	766,445	-0,064	0,125
-143,760	-120,229	-0,135	-0,016
-142,745	10,578	-0,107	-0,058
-141,731	-9,087	0,090	-0,043
-140,716	-24,854	-0,054	0,023
-139,702	800,000	0,024	0,055
-138,687	393,235	-0,055	0,081
-137,672	-130,999	-0,077	0,007
-136,658	-42,737	0,096	-0,034
-135,643	-58,551	-0,090	0,028
-134,629	800,000	0,015	0,037
-133,614	-64,817	-0,039	0,011
-132,599	223,042	0,078	0,089
-131,585	-200,000	-0,013	0,130
-130,570	800,000	-0,055	0,156
-129,556	154,117	-0,041	0,040
-128,541	-138,665	-0,068	-0,005
-127,526	54,939	0,084	0,057
-126,512	-200,000	0,034	0,155
-125,497	79,668	-0,025	0,019
-124,483	-200,000	-0,017	-0,060
-123,468	67,852	-0,123	-0,089
-122,453	-74,676	-0,082	-0,021
-121,439	-200,000	0,023	-0,138
-120,424	228,424	-0,017	0,020
-119,410	42,161	0,060	-0,038
-118,395	-200,000	0,001	-0,006
-117,380	240,473	0,042	0,050
-116,366	201,791	0,075	0,082
-115,351	-200,000	0,021	0,076
-114,337	-39,458	-0,067	-0,025
-113,322	-131,536	0,078	-0,007
-112,307	-116,692	0,130	-0,017
-111,293	-67,987	0,043	-0,012
-110,278	247,124	-0,037	0,044
-109,264	-200,000	-0,020	0,145
-108,249	800,000	0,041	0,111
-107,234	-126,474	-0,058	0,006
-106,220	-144,597	-0,157	0,010
-105,205	271,686	-0,069	-0,087
-104,191	-199,189	0,173	0,001
-103,176	46,925	0,040	0,026
-102,162	16,890	0,049	-0,027
-101,147	669,319	-0,061	-0,113
-100,132	-200,000	0,015	0,070
-99,118	-109,714	-0,021	-0,003
-98,103	134,369	-0,098	-0,090
-97,089	-35,011	-0,110	0,042
-96,074	122,642	-0,101	0,090
-95,059	-200,000	0,004	0,039
-94,045	25,753	-0,062	0,037
-93,030	-56,453	-0,203	0,063
-92,016	34,771	-0,053	-0,033
-91,001	285,296	-0,003	-0,003
-89,986	22,687	0,024	0,014
-88,972	199,049	0,018	-0,020
-87,957	-200,000	0,028	0,110
-86,943	800,000	-0,025	0,069
-85,928	-146,123	-0,090	-0,006
-84,913	220,228	-0,082	0,093
-83,899	-200,000	0,005	0,051
-82,884	800,000	-0,053	0,123
-81,870	-128,931	0,103	-0,010
-80,855	257,153	0,014	0,017
-79,840	-200,000	-0,021	-0,096
-78,826	327,802	0,048	-0,066
-77,811	788,783	-0,037	0,072
-76,797	-200,000	0,022	-0,115
-75,782	5,520	-0,073	-0,038
-74,767	175,599	0,070	-0,072
-73,753	-200,000	0,001	0,006
-72,738	-53,950	-0,135	0,043
-71,724	132,529	-0,101	-0,093
-70,709	50,332	-0,177	-0,118
-69,694	800,000	-0,039	-0,089
-68,680	14,050	0,037	0,021
-67,665	99,211	0,166	0,136
-66,651	250,930	0,093	0,112
-65,636	-136,305	-0,122	0,010
-64,622	-141,897	-0,114	-0,008
-63,607	274,701	0,064	-0,080
-62,592	217,097	0,100	-0,112
-61,578	-47,442	0,030	0,010
-60,563	-200,000	-0,002	0,124
-59,549	-200,000	0,004	0,257
-58,534	-21,335	-1,666	-0,717
-57,519	390,152	-1,391	-2,049
-56,505	-200,000	-0,456	-4,498
-55,490	164,339	1,041	1,040
-54,476	800,000	4,983	11,446
-53,461	-200,000	19,219	320,409
-52,446	-200,000	740,579	2335,591
-51,432	573,612	1655,567	2870,083
-50,417	78,287	1671,215	1262,138
-49,403	21,342	1544,098	886,027
-48,388	15,170	1466,562	811,514
-47,373	17,956	1456,834	819,571
-46,359	16,670	1446,640	807,636
-45,344	13,470	1442,084	789,727
-44,330	13,387	1440,206	788,267
-43,315	13,329	1438,638	787,100
-42,300	13,329	1436,849	786,090
-41,286	13,378	1435,611	785,616
-40,271	13,397	1434,113	784,857
-39,257	13,326	1432,857	783,798
-38,242	13,389	1431,643	783,401
-37,227	13,431	1430,290	782,834
-36,213	13,403	1428,951	781,937
-35,198	13,438	1427,923	781,508
-34,184	13,436	1426,983	780,953
-33,169	13,386	1425,640	779,949
-32,154	13,423	1424,581	779,515
-31,140	13,481	1423,234	779,023
-30,125	13,452	1422,189	778,280
-29,111	13,442	1420,948	777,524
-28,096	13,445	1419,976	776,975
-27,082	13,360	1418,965	775,991
-26,067	13,350	1417,759	775,251
-25,052	13,354	1416,666	774,644
-24,038	13,337	1415,710	774,010
-23,023	13,316	1414,684	773,318
-22,009	13,299	1413,762	772,704
-20,994	13,302	1412,821	772,173
-19,979	13,278	1411,985	771,574
-18,965	13,281	1410,845	770,935
-17,950	13,273	1410,035	770,422
-16,936	13,287	1409,043	769,917
-15,921	13,262	1408,100	769,253
-14,906	13,255	1407,133	768,661
-13,892	13,283	1406,257	768,285
-12,877	13,239	1405,528	767,650
-11,863	13,245	1404,447	767,057
-10,848	13,214	1403,623	766,433
-9,833	13,193	1402,740	765,822
-8,819	13,167	1401,815	765,163
-7,804	13,174	1400,921	764,677
-6,790	13,185	1399,631	763,994
-5,775	13,158	1398,778	763,373
-4,760	13,194	1397,686	762,912
-3,746	13,130	1396,880	762,146
-2,731	13,132	1396,014	761,656
-1,717	13,108	1395,216	761,077
-0,702	13,137	1393,372	760,177
0,313	16,999	1310,247	732,717
1,327	33,307	703,847	431,303
2,342	50,804	123,422	82,579
3,356	2,113	16,672	8,493
4,371	11,551	3,300	1,785
5,386	-18,579	0,585	0,257
6,400	-200,000	0,082	0,269
7,415	-174,115	-0,374	0,008
8,429	39,994	-0,365	-0,232
9,444	69,057	-0,316	-0,229
10,459	76,581	-0,195	-0,146
11,473	72,530	-0,335	-0,247
12,488	-9,894	-0,363	-0,170
13,502	27,217	-0,310	-0,183
14,517	42,815	-0,392	-0,252
15,531	80,911	-0,347	-0,265
16,546	375,632	-0,224	-0,324
17,561	167,434	-0,279	-0,280
18,575	-23,361	-0,153	-0,065
19,590	7,313	-0,275	-0,145
20,604	-103,067	-0,294	0,049
21,619	29,865	-0,454	-0,273
22,634	84,498	-0,501	-0,387
23,648	99,521	-0,408	-0,333
24,663	76,951	-0,408	-0,306
25,677	-32,202	-0,400	-0,157
26,692	3,132	-0,356	-0,182
27,707	39,275	-0,328	-0,207
28,721	34,929	-0,373	-0,230
29,736	188,642	-0,376	-0,398
30,750	8,949	-0,344	-0,183
31,765	39,252	-0,417	-0,263
32,780	91,447	-0,405	-0,321
33,794	169,308	-0,385	-0,388
34,809	61,631	-0,397	-0,278
35,823	220,114	-0,299	-0,339
36,838	10,499	-0,452	-0,242
37,853	54,960	-0,399	-0,271
38,867	73,139	-0,278	-0,205
39,882	-10,020	-0,342	-0,160
40,896	360,389	-0,288	-0,407
41,911	9,253	-0,336	-0,179
42,926	295,595	-0,262	-0,338
43,940	79,661	-0,404	-0,306
44,955	117,669	-0,397	-0,344
45,969	95,013	-0,375	-0,301
46,984	79,324	-0,371	-0,280
47,999	2,322	-0,385	-0,196
49,013	93,012	-0,261	-0,208
50,028	-110,197	-0,362	-0,053
51,042	88,461	-0,332	-0,260
52,057	405,824	-0,277	-0,414
53,071	122,140	-0,313	-0,275
54,086	111,722	-0,272	-0,231
55,101	-28,576	-0,312	-0,126
56,115	77,966	-0,329	-0,247
57,130	113,557	-0,352	-0,301
58,144	30,172	-0,409	-0,245
59,159	63,098	-0,351	-0,247
60,174	50,823	-0,397	-0,264
61,188	85,081	-0,313	-0,241
62,203	-82,990	-0,322	-0,072
63,217	16,468	-0,295	-0,164
64,232	400,248	-0,264	-0,391
65,247	14,529	-0,406	-0,223
66,261	95,047	-0,429	-0,343
67,276	86,083	-0,266	-0,206
68,290	-27,105	-0,279	-0,114
69,305	15,851	-0,293	-0,162
70,320	-19,628	-0,432	-0,187
71,334	97,245	-0,245	-0,197
72,349	-11,604	-0,231	-0,106
73,363	211,175	-0,278	-0,308
74,378	-4,242	-0,280	-0,136
75,393	-28,331	-0,283	-0,114
76,407	309,382	-0,203	-0,268
77,422	18,545	-0,191	-0,107
78,436	55,140	-0,277	-0,188
79,451	-36,867	-0,237	-0,089
80,466	28,547	-0,318	-0,189
81,480	-57,585	-0,432	-0,132
82,495	-17,393	-0,273	-0,120
83,509	104,081	-0,212	-0,175
84,524	25,016	-0,333	-0,194
85,539	-8,570	-0,274	-0,129
86,553	-48,661	-0,266	-0,089
87,568	-48,315	-0,298	-0,100
88,582	-90,813	-0,234	-0,047
89,597	53,768	-0,339	-0,228
90,611	158,511	-0,224	-0,219
91,626	427,294	-0,111	-0,168
92,641	-46,699	-0,269	-0,092
93,655	99,830	-0,296	-0,241
94,670	113,936	-0,310	-0,265
95,684	7,622	-0,302	-0,158
96,699	26,943	-0,317	-0,186
97,714	50,554	-0,288	-0,191
98,728	375,506	-0,223	-0,319
99,743	143,999	-0,247	-0,231
100,757	157,512	-0,289	-0,281
101,772	191,935	-0,344	-0,364
102,787	16,743	-0,375	-0,208
103,801	171,178	-0,185	-0,186
104,816	71,620	-0,297	-0,216
105,830	-146,097	-0,054	-0,003
106,845	90,362	-0,268	-0,210
107,860	-37,705	-0,250	-0,093
108,874	-15,887	-0,220	-0,098
109,889	-91,475	-0,391	-0,078
110,903	33,599	-0,343	-0,209
111,918	-135,937	-0,355	-0,029
112,933	-71,406	-0,232	-0,060
113,947	94,078	-0,156	-0,124
114,962	-95,351	-0,319	-0,060
115,976	13,018	-0,394	-0,213
116,991	70,924	-0,217	-0,158
118,006	-165,089	-0,215	-0,007
119,020	-63,944	-0,314	-0,089
120,035	82,896	-0,271	-0,206
121,049	-162,267	-0,243	-0,008
122,064	103,673	-0,306	-0,251
123,079	166,757	-0,172	-0,171
124,093	26,729	-0,260	-0,152
125,108	622,257	-0,148	-0,262
126,122	20,888	-0,343	-0,194
127,137	94,144	-0,217	-0,172
128,151	-13,094	-0,199	-0,090
129,166	-89,428	-0,316	-0,064
130,181	-7,729	-0,290	-0,137
131,195	138,511	-0,212	-0,195
132,210	-82,185	-0,270	-0,061
133,224	212,939	-0,177	-0,196
134,239	-53,444	-0,282	-0,090
135,254	286,885	-0,178	-0,225
136,268	147,848	-0,164	-0,155
137,283	42,394	-0,252	-0,160
138,297	222,533	-0,190	-0,214
139,312	130,188	-0,251	-0,225
140,327	137,876	-0,211	-0,194
141,341	-200,000	-0,053	-0,171
142,356	-70,087	-0,303	-0,080
143,370	-89,011	-0,227	-0,047
144,385	-105,876	-0,395	-0,062
145,400	134,225	-0,269	-0,244
146,414	272,253	-0,142	-0,176
147,429	152,187	-0,250	-0,239
148,443	7,006	-0,231	-0,120
149,458	0,376	-0,328	-0,163
150,473	11,674	-0,095	-0,051
151,487	-68,033	-0,343	-0,093
152,502	189,789	-0,155	-0,162
153,516	204,244	-0,205	-0,223
154,531	125,519	-0,251	-0,221
155,546	-41,346	-0,307	-0,110
156,560	79,998	-0,268	-0,201
157,575	134,243	-0,181	-0,164
158,589	-31,376	-0,271	-0,106
159,604	-40,056	-0,224	-0,081
160,619	181,524	-0,214	-0,220
161,633	47,128	-0,227	-0,147
162,648	800,000	-0,196	-0,410
163,662	500,799	-0,175	-0,283
164,677	32,509	-0,164	-0,099
165,692	58,790	-0,115	-0,079
166,706	31,740	-0,256	-0,153
167,721	59,892	-0,238	-0,164
168,735	43,544	-0,324	-0,206
169,750	337,432	-0,176	-0,239
170,764	170,776	-0,253	-0,253
171,779	-10,142	-0,269	-0,124
172,794	-9,260	-0,277	-0,129
173,808	-66,517	-0,243	-0,067
174,823	17,125	-0,297	-0,163
175,837	-174,303	-0,285	-0,006
176,852	-20,662	-0,240	-0,102
177,867	220,595	-0,123	-0,138
178,881	121,648	-0,184	-0,160
179,896	-8,029	-0,133	-0,062
180,910	153,494	-0,169	-0,162
181,925	-96,433	-0,126	-0,023
182,940	138,963	-0,208	-0,191
183,954	-9,068	-0,134	-0,062
184,969	61,473	-0,251	-0,174
185,983	800,000	-0,086	-0,188
186,998	-194,470	-0,253	-0,001
188,013	-106,949	-0,294	-0,045
189,027	37,489	-0,242	-0,149
190,042	738,037	-0,219	-0,410
191,056	800,000	-0,130	-0,271
192,071	218,942	-0,183	-0,204
193,086	13,027	-0,211	-0,113
194,100	179,963	-0,162	-0,165
195,115	412,535	-0,133	-0,198
196,129	606,041	-0,152	-0,264
197,144	61,531	-0,250	-0,173
198,159	75,563	-0,229	-0,168
199,173	800,000	-0,051	-0,147
200,188	-115,489	-0,153	-0,020
201,202	-94,281	-0,147	-0,028
202,217	800,000	-0,095	-0,259
203,232	12,068	-0,298	-0,159
204,246	-28,396	-0,335	-0,134
205,261	305,396	-0,170	-0,221
206,275	121,975	-0,190	-0,165
207,290	2,701	-0,246	-0,124
208,304	135,960	-0,179	-0,162
209,319	-189,140	-0,259	0,002
210,334	508,413	-0,120	-0,195
211,348	-7,591	-0,294	-0,137
212,363	-104,494	-0,258	-0,041
213,377	105,219	-0,179	-0,147
214,392	-60,493	-0,111	-0,032
215,407	166,232	-0,216	-0,213
216,421	-76,716	-0,400	-0,097
217,436	22,957	-0,249	-0,141
218,450	54,943	-0,252	-0,169
219,465	243,393	-0,302	-0,352
220,480	-70,722	-0,197	0,051
221,494	676,850	-0,128	-0,232
222,509	800,000	-0,078	-0,194
223,523	-140,997	-0,178	0,012
224,538	84,820	-0,221	-0,168
225,553	-182,164	-0,176	-0,002
226,567	46,671	-0,301	-0,194
227,582	101,535	-0,142	-0,115
228,596	38,812	-0,232	-0,143
229,611	-200,000	-0,035	0,114
230,626	-49,313	-0,184	-0,060
231,640	96,375	-0,311	-0,246
232,655	244,073	-0,171	-0,200
233,669	48,377	-0,303	-0,196
234,684	-97,008	-0,216	-0,039
235,699	-48,693	-0,240	-0,079
236,713	-108,297	-0,113	-0,017
237,728	-147,727	-0,171	-0,010
238,742	-24,059	-0,264	-0,109
239,757	44,620	-0,177	-0,112
240,772	-58,685	-0,167	-0,050
241,786	437,626	-0,180	-0,272
242,801	800,000	-0,083	-0,186
243,815	75,713	-0,167	-0,122
244,830	-38,438	-0,223	-0,081
245,844	-2,287	-0,160	-0,078
246,859	148,083	-0,347	-0,324
247,874	-7,619	-0,144	-0,067
248,888	383,294	-0,142	-0,203
249,903	-57,514	-0,183	-0,055
250,917	-89,083	-0,150	-0,030
251,932	-163,507	-0,196	0,006
252,947	331,200	-0,130	-0,174
253,961	88,329	-0,146	-0,112
254,976	51,718	-0,304	-0,200
255,990	-200,000	-0,077	-0,302
257,005	178,186	-0,269	-0,272
258,020	251,385	-0,085	-0,100
259,034	377,540	-0,109	-0,154
260,049	-22,880	-0,201	-0,084
261,063	-47,428	-0,200	-0,067
262,078	178,894	-0,231	-0,234
263,093	56,687	-0,294	-0,197
264,107	-28,381	-0,186	-0,074
265,122	-152,609	-0,151	-0,007
266,136	94,152	-0,164	-0,129
267,151	-12,749	-0,204	-0,092
268,166	130,385	-0,127	-0,112
269,180	-200,000	-0,050	-0,168
270,195	38,592	-0,159	-0,098
271,209	411,581	-0,166	-0,245
272,224	45,783	-0,152	-0,097
273,239	149,661	-0,159	-0,149
274,253	243,527	-0,148	-0,171
275,268	-162,369	-0,102	0,003
276,282	451,001	-0,098	-0,150
277,297	-123,609	-0,214	-0,023
278,312	-1,752	-0,258	-0,125
279,326	4,101	-0,140	-0,071
280,341	-110,576	-0,254	-0,036
281,355	800,000	-0,088	-0,188
282,370	10,479	-0,185	-0,097
283,384	-24,089	-0,210	-0,086
284,399	23,217	-0,322	-0,182
285,414	-12,192	-0,262	-0,118
286,428	-9,420	-0,090	-0,041
287,443	27,799	-0,248	-0,144
288,457	-126,636	-0,215	0,022
289,472	-126,544	-0,234	-0,024
290,487	-14,095	-0,128	-0,057
291,501	-78,452	-0,065	-0,015
292,516	76,103	-0,194	-0,142
293,530	184,112	-0,170	-0,174
294,545	427,483	-0,081	-0,121
295,560	-56,543	-0,147	-0,045
296,574	-42,895	-0,184	-0,064
297,589	44,533	-0,158	-0,100
298,603	75,792	-0,264	-0,192
299,618	95,216	-0,159	-0,125
300,633	800,000	-0,030	-0,068
301,647	136,596	-0,147	-0,132
302,662	-64,459	-0,046	0,013
303,676	-57,723	-0,127	-0,038
304,691	106,706	-0,195	-0,159
305,706	267,549	-0,160	-0,193
306,720	-28,288	-0,110	-0,043
307,735	24,398	-0,227	-0,129
308,749	-124,130	-0,086	0,009
309,764	-145,516	-0,021	0,001
310,779	-200,000	0,003	-0,019
311,793	-146,751	-0,164	0,010
312,808	110,466	-0,144	-0,119
313,822	-129,566	-0,161	-0,015
314,837	15,248	-0,192	-0,103
315,852	283,655	-0,099	0,123
316,866	-188,457	-0,150	-0,001
317,881	50,489	-0,119	-0,077
318,895	220,676	-0,051	-0,056
319,910	76,622	-0,198	-0,145
320,925	250,881	-0,139	-0,163
321,939	-63,963	-0,200	-0,056
322,954	236,327	-0,123	-0,140
323,968	-40,355	-0,117	-0,042
324,983	-159,575	-0,091	-0,003
325,997	653,724	-0,076	-0,134
327,012	406,892	-0,122	-0,178
328,027	-4,183	-0,161	-0,076
329,041	103,822	-0,232	-0,187
330,056	604,652	-0,045	-0,078
331,070	448,399	0,055	-0,084
332,085	480,163	-0,028	-0,043
333,100	-59,749	-0,191	-0,056
334,114	50,915	-0,221	-0,144
335,129	457,004	-0,069	-0,106
336,143	307,665	-0,104	-0,133
337,158	125,292	-0,122	-0,105
338,173	-143,107	-0,185	0,012
339,187	-105,355	-0,145	-0,022
340,202	-11,084	-0,060	-0,027
341,216	48,546	-0,184	-0,118
342,231	-84,840	-0,211	-0,045
343,246	121,420	-0,214	-0,183
344,260	-27,573	-0,125	-0,050
345,275	71,242	-0,101	-0,072
346,289	-75,364	-0,226	-0,055
347,304	7,831	-0,149	-0,077
348,319	-71,164	-0,181	-0,046
349,333	-2,561	-0,167	-0,080
350,348	103,120	-0,181	-0,145
351,362	-200,000	-0,075	-0,249
352,377	774,927	-0,073	-0,137
353,392	113,126	-0,022	-0,018
354,406	-9,317	-0,084	-0,038
355,421	209,510	1312,164	1412,617
356,435	161,252	1472,571	1413,107
