DTS Sentinel unit serial number:	SN410029Multiplexer serial number:	ORYXHardware model number:	OX2-SRSoftware version number:	ORYX F/W v4,00 Oryx Data Collector v3.7.2.0data status	okinstallation	B3 Nyhavnadifferential loss correction	single-endedforward channel	channel 1reverse channel	N/Adate	2023/12/04time	05:57:30forward acquisition time	300,00reverse acquisition time	0,00gamma	499,1914k internal	0,3206k external	0,3206temperature offset calibration	1,0000default loss term (dB/km)	0,3820temperature slope calibration	1,0000multiplexer offset coefficient	1,0000multiplexer slope coefficient	1,0000fibre end	0,00T internal ref (°C)	12,03T ext. ref 1 (°C)	-2,93T ext. ref 2 (°C)	-2,95length (m)	temperature (°C)	Stokes	anti-Stokes-744,400	201,946	-0,250	-0,281
-743,385	-200,000	-0,061	0,405
-742,371	82,470	-0,262	-0,207
-741,356	-200,000	0,082	0,364
-740,342	62,279	-0,128	-0,093
-739,327	-200,000	-0,088	0,284
-738,312	800,000	-0,108	-0,258
-737,298	800,000	-0,109	0,298
-736,283	-200,000	-0,064	-0,219
-735,269	800,000	0,083	0,238
-734,254	444,947	-0,196	-0,313
-733,239	16,119	-0,298	0,170
-732,225	-200,000	0,005	-0,073
-731,210	65,640	0,105	0,077
-730,196	9,457	-0,077	0,042
-729,181	-200,000	0,011	-0,082
-728,167	-200,000	-0,006	-0,079
-727,152	800,000	-0,057	-0,154
-726,137	-200,000	-0,017	-0,059
-725,123	629,991	0,064	-0,118
-724,108	-100,090	-0,100	0,018
-723,094	347,796	-0,054	-0,077
-722,079	215,921	0,072	-0,083
-721,064	95,950	0,115	-0,095
-720,050	800,000	-0,041	-0,092
-719,035	-200,000	0,006	-0,066
-718,021	213,743	-0,047	-0,054
-717,006	125,837	-0,110	-0,100
-715,991	279,588	-0,086	-0,112
-714,977	-200,000	0,000	-0,178
-713,962	-200,000	-0,004	0,054
-712,948	-103,111	0,103	0,017
-711,933	-200,000	-0,020	0,115
-710,918	-140,024	-0,086	-0,007
-709,904	136,416	-0,011	-0,011
-708,889	-200,000	-0,007	-0,046
-707,875	-200,000	-0,042	-0,186
-706,860	246,014	0,046	-0,057
-705,845	-200,000	-0,003	0,035
-704,831	-60,290	-0,037	-0,011
-703,816	226,266	0,068	0,080
-702,802	35,087	-0,058	-0,037
-701,787	-200,000	0,000	-0,156
-700,772	-171,906	-0,064	0,001
-699,758	-40,553	0,037	-0,014
-698,743	-200,000	-0,019	0,102
-697,729	93,188	0,059	0,049
-696,714	631,755	-0,058	0,107
-695,699	-9,961	0,146	0,070
-694,685	800,000	-0,062	-0,157
-693,670	193,945	0,048	0,053
-692,656	-53,210	-0,056	-0,018
-691,641	-200,000	0,006	0,109
-690,627	-200,000	0,036	0,126
-689,612	800,000	-0,049	-0,125
-688,597	561,936	-0,061	-0,108
-687,583	-122,735	0,025	0,003
-686,568	800,000	-0,010	0,033
-685,554	571,077	0,066	0,116
-684,539	800,000	0,019	0,054
-683,524	-200,000	0,030	0,168
-682,510	-155,885	-0,114	0,005
-681,495	-200,000	0,029	-0,183
-680,481	56,998	-0,112	-0,079
-679,466	85,665	-0,037	-0,030
-678,451	70,074	-0,092	-0,068
-677,437	-25,309	0,053	0,023
-676,422	-146,587	-0,142	-0,009
-675,408	800,000	0,052	-0,116
-674,393	101,440	-0,126	-0,106
-673,378	-157,586	0,070	-0,003
-672,364	800,000	0,039	-0,110
-671,349	104,342	0,027	0,023
-670,335	256,270	0,072	0,090
-669,320	-72,524	0,103	0,027
-668,305	-200,000	0,005	-0,032
-667,291	158,850	0,062	-0,063
-666,276	275,608	-0,088	-0,113
-665,262	-200,000	0,008	-0,060
-664,247	259,799	-0,039	-0,049
-663,232	-61,387	0,081	0,024
-662,218	-200,000	0,028	-0,105
-661,203	800,000	0,036	-0,106
-660,189	60,234	-0,058	-0,042
-659,174	622,723	-0,072	0,132
-658,159	-10,654	-0,062	0,030
-657,145	120,721	0,083	-0,075
-656,130	-2,575	0,088	-0,045
-655,116	595,011	0,043	0,077
-654,101	-36,676	0,149	0,058
-653,086	542,850	-0,026	0,045
-652,072	-200,000	-0,037	0,161
-651,057	65,942	-0,130	-0,096
-650,043	28,524	-0,026	-0,016
-649,028	-200,000	-0,006	0,043
-648,014	350,530	-0,050	0,072
-646,999	413,916	0,060	-0,093
-645,984	-81,446	0,076	-0,018
-644,970	-200,000	-0,004	-0,129
-643,955	-200,000	-0,005	-0,194
-642,941	800,000	-0,096	-0,254
-641,926	128,275	-0,059	-0,055
-640,911	646,794	0,101	-0,188
-639,897	800,000	-0,009	-0,028
-638,882	760,331	0,052	0,102
-637,868	-200,000	-0,014	0,112
-636,853	62,223	-0,156	-0,112
-635,838	-40,426	-0,060	-0,023
-634,824	92,224	-0,082	-0,067
-633,809	241,494	0,073	0,089
-632,795	-200,000	0,020	0,063
-631,780	800,000	-0,050	-0,130
-630,765	401,970	-0,085	-0,129
-629,751	-145,731	-0,084	-0,005
-628,736	586,461	0,037	-0,066
-627,722	301,344	0,091	-0,121
-626,707	-200,000	0,051	-0,198
-625,692	-99,570	0,102	-0,018
-624,678	26,510	-0,122	0,074
-623,663	800,000	-0,039	-0,103
-622,649	800,000	-0,084	-0,230
-621,634	172,147	0,066	0,068
-620,619	-54,201	-0,058	-0,019
-619,605	147,928	-0,065	0,064
-618,590	-200,000	-0,020	0,087
-617,576	-150,238	0,007	0,000
-616,561	-117,957	0,040	-0,005
-615,546	66,015	-0,102	0,075
-614,532	-200,000	-0,028	0,091
-613,517	670,407	-0,022	0,042
-612,503	800,000	0,015	0,043
-611,488	302,701	0,099	0,133
-610,474	7,707	-0,133	-0,072
-609,459	118,055	0,201	0,179
-608,444	48,522	-0,082	-0,055
-607,430	-200,000	-0,008	0,073
-606,415	253,472	-0,079	0,098
-605,401	-100,369	-0,095	-0,017
-604,386	233,913	-0,038	0,045
-603,371	-200,000	0,005	0,095
-602,357	-200,000	-0,002	0,033
-601,342	197,291	-0,088	-0,097
-600,328	800,000	-0,033	-0,097
-599,313	800,000	-0,055	-0,113
-598,298	-200,000	0,009	-0,090
-597,284	497,676	-0,059	-0,099
-596,269	252,052	0,076	-0,093
-595,255	-180,820	-0,055	-0,001
-594,240	-108,185	-0,017	0,003
-593,225	52,178	-0,112	-0,077
-592,211	-67,686	-0,073	-0,021
-591,196	-78,939	0,072	0,017
-590,182	228,190	0,058	-0,069
-589,167	-200,000	-0,024	-0,097
-588,152	411,973	-0,045	0,070
-587,138	-200,000	-0,004	-0,117
-586,123	-200,000	-0,006	-0,087
-585,109	208,704	0,036	0,041
-584,094	-78,502	-0,107	0,026
-583,079	-135,368	-0,037	-0,003
-582,065	-200,000	0,003	0,086
-581,050	599,165	-0,052	0,093
-580,036	-200,000	0,019	0,075
-579,021	300,915	0,040	0,053
-578,006	-200,000	-0,002	-0,087
-576,992	617,261	-0,035	-0,064
-575,977	800,000	-0,062	0,129
-574,963	-116,462	-0,019	0,002
-573,948	-13,751	-0,058	0,027
-572,934	800,000	0,060	-0,127
-571,919	800,000	0,023	0,057
-570,904	800,000	0,025	-0,060
-569,890	-47,634	-0,050	0,018
-568,875	115,152	0,073	-0,064
-567,861	89,254	0,068	-0,055
-566,846	-60,081	-0,107	0,033
-565,831	-3,294	-0,097	0,048
-564,817	90,092	0,035	-0,028
-563,802	436,021	-0,025	0,040
-562,788	-200,000	0,001	0,019
-561,773	20,788	0,051	0,030
-560,758	-110,074	-0,051	0,008
-559,744	-200,000	0,004	0,027
-558,729	800,000	0,015	-0,036
-557,715	-167,047	0,093	-0,003
-556,700	-200,000	-0,017	0,113
-555,685	-95,356	-0,130	0,025
-554,671	-200,000	-0,005	-0,045
-553,656	800,000	-0,054	-0,129
-552,642	-200,000	0,002	0,061
-551,627	-200,000	0,002	0,064
-550,612	82,601	-0,020	0,016
-549,598	800,000	0,013	-0,039
-548,583	-200,000	0,019	-0,085
-547,569	79,277	-0,071	0,055
-546,554	-114,232	0,068	-0,009
-545,539	-200,000	0,012	0,062
-544,525	-200,000	-0,006	0,026
-543,510	-71,115	-0,056	-0,015
-542,496	297,541	0,044	-0,059
-541,481	14,328	-0,015	-0,009
-540,466	-200,000	0,000	-0,007
-539,452	256,676	0,152	0,189
-538,437	-147,823	-0,133	0,008
-537,423	485,939	0,031	-0,050
-536,408	-179,889	0,052	-0,001
-535,393	-64,216	-0,098	0,029
-534,379	-200,000	0,000	-0,012
-533,364	382,607	0,040	0,060
-532,350	-6,002	-0,066	0,033
-531,335	-57,188	0,105	0,033
-530,321	-200,000	0,003	-0,098
-529,306	-200,000	-0,025	-0,135
-528,291	-71,631	-0,089	-0,024
-527,277	-200,000	-0,014	-0,085
-526,262	-200,000	-0,004	0,035
-525,248	220,896	-0,054	0,063
-524,233	-200,000	-0,019	0,087
-523,218	-200,000	-0,006	0,046
-522,204	244,829	-0,055	0,066
-521,189	17,341	-0,067	0,038
-520,175	-200,000	0,004	-0,012
-519,160	-135,403	0,012	0,001
-518,145	175,000	-0,046	-0,048
-517,131	169,299	-0,034	0,035
-516,116	-111,330	0,142	0,021
-515,102	-144,336	0,081	0,005
-514,087	-22,506	0,080	0,035
-513,072	250,885	-0,101	0,124
-512,058	-200,000	0,038	-0,248
-511,043	235,132	0,057	-0,068
-510,029	4,046	0,090	0,047
-509,014	386,249	0,004	0,006
-507,999	289,835	-0,035	0,046
-506,985	-200,000	-0,020	-0,096
-505,970	39,795	-0,122	-0,078
-504,956	-200,000	0,005	-0,083
-503,941	-200,000	0,021	-0,082
-502,926	-200,000	-0,022	0,076
-501,912	-75,131	0,176	-0,045
-500,897	800,000	0,025	-0,056
-499,883	40,914	-0,075	-0,049
-498,868	695,275	-0,048	-0,091
-497,853	-200,000	0,029	0,097
-496,839	52,506	-0,043	0,029
-495,824	194,063	0,035	0,038
-494,810	800,000	0,075	0,196
-493,795	152,104	0,033	0,032
-492,781	-200,000	0,017	-0,096
-491,766	-200,000	-0,023	0,091
-490,751	-200,000	0,001	-0,067
-489,737	-10,582	-0,131	0,062
-488,722	150,232	0,099	0,096
-487,708	-150,138	0,059	0,003
-486,693	153,881	-0,015	0,015
-485,678	-200,000	-0,026	0,091
-484,664	54,227	-0,017	-0,012
-483,649	800,000	-0,083	-0,192
-482,635	-162,812	0,103	-0,004
-481,620	800,000	-0,018	0,037
-480,605	-35,958	0,096	0,037
-479,591	-45,942	0,069	0,024
-478,576	-132,271	0,133	0,012
-477,562	142,861	-0,032	0,030
-476,547	67,575	0,094	-0,069
-475,532	-1,366	-0,074	0,038
-474,518	390,506	0,083	0,124
-473,503	-107,839	0,038	-0,006
-472,489	236,843	-0,058	-0,069
-471,474	219,154	-0,088	0,101
-470,459	-200,000	0,042	0,137
-469,445	-62,977	-0,034	0,010
-468,430	800,000	0,038	-0,080
-467,416	-18,873	-0,015	-0,007
-466,401	137,520	0,068	0,064
-465,386	24,245	-0,091	0,054
-464,372	278,410	-0,062	0,080
-463,357	800,000	0,042	0,102
-462,343	-98,654	-0,060	0,011
-461,328	-62,668	0,079	-0,023
-460,313	-73,285	-0,069	0,018
-459,299	-122,143	0,090	-0,011
-458,284	-200,000	-0,008	0,126
-457,270	800,000	-0,064	-0,152
-456,255	-164,987	-0,135	0,004
-455,241	-69,496	-0,130	-0,036
-454,226	-164,569	-0,067	-0,002
-453,211	-92,658	-0,135	0,027
-452,197	366,475	0,043	0,063
-451,182	118,545	-0,063	0,056
-450,168	-200,000	-0,039	0,133
-449,153	426,880	-0,027	-0,043
-448,138	385,685	-0,035	-0,052
-447,124	-122,126	0,078	0,009
-446,109	-62,141	-0,148	0,044
-445,095	-1,952	0,094	-0,047
-444,080	-200,000	0,007	0,072
-443,065	460,840	0,077	-0,124
-442,051	800,000	0,032	0,071
-441,036	800,000	-0,057	-0,144
-440,022	-89,852	-0,100	0,021
-439,007	14,448	0,084	-0,047
-437,992	95,980	0,137	0,112
-436,978	-68,318	0,288	0,080
-435,963	485,110	-0,055	0,090
-434,949	-117,737	0,103	-0,013
-433,934	-200,000	0,025	-0,122
-432,919	-88,482	0,016	-0,003
-431,905	-139,623	0,121	-0,009
-430,890	800,000	0,019	0,056
-429,876	800,000	-0,004	0,010
-428,861	800,000	0,019	-0,049
-427,846	-200,000	0,020	0,152
-426,832	12,617	-0,078	-0,043
-425,817	527,749	-0,140	-0,237
-424,803	-200,000	-0,024	-0,171
-423,788	32,272	-0,047	-0,029
-422,773	610,204	0,053	-0,096
-421,759	-200,000	-0,032	0,157
-420,744	-61,261	0,042	0,013
-419,730	312,402	-0,050	-0,068
-418,715	106,750	-0,155	-0,132
-417,701	-109,132	-0,078	-0,012
-416,686	658,219	-0,023	-0,042
-415,671	-200,000	0,006	0,107
-414,657	-192,587	-0,038	-0,000
-413,642	800,000	0,047	0,144
-412,628	252,135	0,054	0,066
-411,613	800,000	-0,052	0,115
-410,598	800,000	-0,019	0,051
-409,584	192,744	0,043	0,047
-408,569	-78,309	0,038	-0,009
-407,555	348,832	0,009	-0,013
-406,540	-200,000	0,022	-0,077
-405,525	52,439	0,095	0,065
-404,511	479,731	-0,071	-0,115
-403,496	154,124	0,107	-0,105
-402,482	-143,615	0,035	0,002
-401,467	145,719	-0,076	-0,073
-400,452	-200,000	-0,009	0,032
-399,438	-140,853	-0,052	-0,004
-398,423	137,093	0,048	-0,045
-397,409	215,670	-0,034	-0,039
-396,394	-5,150	0,114	-0,056
-395,379	800,000	0,018	-0,057
-394,365	121,972	0,031	0,028
-393,350	93,077	0,029	0,023
-392,336	-45,678	-0,049	-0,017
-391,321	-200,000	0,023	-0,187
-390,306	800,000	-0,048	-0,114
-389,292	-200,000	0,002	-0,093
-388,277	-68,216	0,088	0,024
-387,263	328,524	0,086	0,118
-386,248	-200,000	0,022	0,168
-385,233	-46,014	0,154	0,054
-384,219	64,483	-0,119	0,086
-383,204	209,007	0,071	0,080
-382,190	-200,000	-0,170	0,000
-381,175	443,876	0,041	-0,065
-380,160	800,000	-0,025	-0,058
-379,146	130,781	0,027	0,025
-378,131	346,005	0,062	0,087
-377,117	-200,000	-0,017	-0,062
-376,102	330,396	-0,071	0,099
-375,088	-74,185	0,083	-0,021
-374,073	-18,631	0,087	-0,039
-373,058	-200,000	-0,004	-0,081
-372,044	576,168	-0,040	-0,071
-371,029	-200,000	0,049	0,194
-370,015	212,858	0,062	-0,071
-369,000	380,293	-0,029	-0,043
-367,985	235,345	-0,053	0,063
-366,971	-200,000	0,025	0,150
-365,956	523,812	0,092	0,156
-364,942	-143,663	0,060	0,004
-363,927	-178,537	0,015	-0,000
-362,912	630,874	-0,026	-0,047
-361,898	-200,000	0,009	-0,049
-360,883	546,657	-0,033	0,057
-359,869	800,000	-0,045	0,100
-358,854	60,296	0,084	-0,059
-357,839	-200,000	-0,009	0,034
-356,825	51,741	0,077	0,052
-355,810	800,000	0,020	0,046
-354,796	-51,552	-0,034	0,011
-353,781	-200,000	-0,004	-0,039
-352,766	-200,000	0,006	-0,177
-351,752	800,000	-0,067	0,141
-350,737	149,117	-0,108	0,105
-349,723	-200,000	0,015	0,199
-348,708	800,000	0,028	0,081
-347,693	284,253	-0,058	-0,075
-346,679	-162,695	0,081	-0,003
-345,664	12,139	-0,066	-0,036
-344,650	-113,084	0,085	-0,012
-343,635	-200,000	0,006	-0,068
-342,620	-200,000	-0,029	0,114
-341,606	128,287	-0,072	0,066
-340,591	150,072	0,013	0,012
-339,577	-200,000	0,004	0,047
-338,562	-49,598	-0,049	-0,017
-337,548	-200,000	0,000	0,051
-336,533	-76,473	0,237	0,059
-335,518	-200,000	-0,009	0,035
-334,504	31,935	0,075	0,046
-333,489	-200,000	0,033	-0,127
-332,475	-10,435	0,007	-0,003
-331,460	-15,369	0,091	-0,041
-330,445	-200,000	-0,009	-0,042
-329,431	208,389	0,020	0,023
-328,416	746,212	-0,050	-0,096
-327,402	-200,000	0,005	0,059
-326,387	-68,414	-0,043	-0,012
-325,372	-200,000	0,011	-0,079
-324,358	-169,930	-0,098	-0,002
-323,343	188,488	-0,036	-0,039
-322,329	-200,000	-0,013	0,066
-321,314	166,597	0,163	0,165
-320,299	-11,393	-0,099	-0,046
-319,285	445,368	0,016	-0,025
-318,270	13,151	-0,169	0,093
-317,256	193,541	-0,043	-0,046
-316,241	90,875	-0,049	-0,040
-315,226	-136,878	0,052	-0,004
-314,212	565,885	-0,022	-0,038
-313,197	-27,243	-0,112	0,046
-312,183	-200,000	0,016	0,100
-311,168	800,000	-0,006	-0,017
-310,153	358,651	0,028	-0,040
-309,139	800,000	-0,035	0,072
-308,124	221,483	0,063	-0,072
-307,110	-200,000	-0,012	0,050
-306,095	-172,440	0,154	-0,003
-305,080	78,645	-0,044	0,034
-304,066	285,581	-0,060	0,077
-303,051	28,710	-0,049	-0,030
-302,037	180,253	0,110	-0,115
-301,022	328,740	0,033	-0,046
-300,008	800,000	0,046	-0,123
-298,993	-200,000	-0,001	0,064
-297,978	-13,072	0,104	-0,048
-296,964	800,000	-0,009	0,029
-295,949	800,000	0,014	-0,040
-294,935	-200,000	-0,010	0,051
-293,920	-200,000	0,010	0,143
-292,905	176,804	0,046	0,048
-291,891	62,848	-0,089	0,063
-290,876	-104,016	0,167	0,028
-289,862	44,122	-0,158	-0,103
-288,847	-154,419	-0,083	-0,004
-287,832	-158,587	-0,037	-0,001
-286,818	-149,140	0,124	0,007
-285,803	-138,212	-0,157	0,012
-284,789	-200,000	-0,027	0,087
-283,774	-97,598	0,133	0,024
-282,759	-200,000	-0,013	-0,062
-281,745	-200,000	0,010	0,031
-280,730	48,702	-0,059	0,039
-279,716	-200,000	0,012	-0,093
-278,701	196,653	0,063	0,069
-277,686	-52,434	-0,117	0,038
-276,672	315,490	0,063	0,085
-275,657	-200,000	-0,002	0,024
-274,643	-136,980	0,043	0,003
-273,628	-13,333	0,039	-0,018
-272,613	23,076	0,031	-0,018
-271,599	-200,000	0,018	0,080
-270,584	-200,000	0,017	0,075
-269,570	116,485	0,066	0,057
-268,555	800,000	0,059	0,124
-267,540	154,761	-0,043	0,042
-266,526	-149,131	-0,079	-0,004
-265,511	-200,000	0,035	-0,116
-264,497	142,411	0,075	-0,071
-263,482	-200,000	0,012	0,056
-262,467	-199,797	-0,132	-0,000
-261,453	18,475	0,014	0,008
-260,438	-171,950	-0,039	-0,001
-259,424	783,272	-0,051	0,100
-258,409	-46,004	0,065	0,023
-257,395	-67,278	0,131	-0,036
-256,380	-103,978	0,116	0,019
-255,365	174,373	-0,094	0,097
-254,351	800,000	0,044	0,139
-253,336	365,502	-0,047	0,068
-252,322	152,387	0,125	-0,122
-251,307	467,161	-0,071	-0,114
-250,292	421,811	-0,049	0,074
-249,278	0,039	0,044	0,022
-248,263	119,893	0,050	-0,044
-247,249	38,658	0,128	0,081
-246,234	-200,000	0,019	-0,088
-245,219	-56,561	0,053	-0,017
-244,205	-200,000	-0,009	-0,050
-243,190	-164,050	-0,162	-0,005
-242,176	136,467	0,074	0,069
-241,161	86,810	0,063	0,049
-240,146	67,813	-0,133	0,097
-239,132	101,143	-0,078	0,065
-238,117	-200,000	-0,023	-0,146
-237,103	-93,104	-0,072	0,014
-236,088	-200,000	0,004	-0,042
-235,073	342,259	-0,027	-0,037
-234,059	-200,000	0,002	-0,011
-233,044	553,756	-0,020	0,034
-232,030	-57,543	-0,106	0,033
-231,015	227,401	-0,082	-0,095
-230,000	-7,420	0,005	-0,002
-228,986	-200,000	0,017	0,086
-227,971	246,248	0,030	-0,037
-226,957	-200,000	-0,013	0,068
-225,942	-127,866	0,077	0,008
-224,927	-169,401	-0,039	0,001
-223,913	282,610	-0,046	0,058
-222,898	-200,000	0,010	-0,063
-221,884	-200,000	-0,028	-0,124
-220,869	-128,275	-0,057	0,006
-219,855	800,000	0,033	0,081
-218,840	800,000	0,077	-0,162
-217,825	447,128	0,011	0,018
-216,811	452,159	-0,028	-0,044
-215,796	-91,614	0,064	0,013
-214,782	800,000	0,043	-0,130
-213,767	4,435	0,098	-0,051
-212,752	-73,782	0,125	0,032
-211,738	103,741	0,051	0,042
-210,723	800,000	0,027	0,054
-209,709	751,873	-0,051	-0,099
-208,694	800,000	-0,021	-0,062
-207,679	800,000	-0,066	-0,148
-206,665	392,715	0,043	-0,064
-205,650	570,305	0,014	0,025
-204,636	-111,052	0,065	0,009
-203,621	21,607	-0,077	0,045
-202,606	-200,000	0,015	-0,194
-201,592	-200,000	0,003	-0,122
-200,577	-200,000	-0,001	-0,106
-199,563	-35,738	-0,017	-0,007
-198,548	441,511	0,043	-0,068
-197,533	-200,000	0,037	0,185
-196,519	-188,052	0,089	0,001
-195,504	-23,222	-0,066	-0,028
-194,490	-200,000	-0,007	0,047
-193,475	-200,000	0,026	-0,089
-192,460	-200,000	-0,011	0,110
-191,446	95,562	-0,162	0,131
-190,431	78,470	0,049	0,037
-189,417	122,147	0,038	0,034
-188,402	61,801	0,099	-0,070
-187,387	-91,533	-0,100	0,020
-186,373	525,687	-0,042	-0,071
-185,358	192,277	-0,043	-0,047
-184,344	-200,000	0,001	-0,034
-183,329	-133,748	0,049	-0,004
-182,315	98,253	-0,039	0,032
-181,300	470,961	0,036	-0,057
-180,285	-132,255	-0,147	-0,013
-179,271	470,822	-0,036	0,057
-178,256	-200,000	0,005	0,068
-177,242	-200,000	0,000	-0,056
-176,227	32,915	0,123	-0,076
-175,212	458,476	0,066	0,104
-174,198	277,873	0,038	-0,049
-173,183	549,828	0,016	0,027
-172,169	800,000	0,039	-0,116
-171,154	51,749	-0,024	-0,016
-170,139	655,172	-0,031	0,056
-169,125	-200,000	0,004	0,025
-168,110	82,490	-0,053	0,041
-167,096	800,000	-0,036	-0,106
-166,081	-67,447	0,139	-0,039
-165,066	644,958	0,036	-0,065
-164,052	415,882	-0,033	-0,051
-163,037	-91,485	-0,066	-0,013
-162,023	-0,613	0,077	0,038
-161,008	112,910	0,070	0,060
-159,993	176,184	-0,021	0,021
-158,979	-199,962	-0,071	-0,000
-157,964	20,228	0,043	-0,025
-156,950	122,067	0,055	0,048
-155,935	-200,000	-0,005	0,032
-154,920	800,000	0,019	0,049
-153,906	-130,221	0,052	0,005
-152,891	175,389	0,029	-0,030
-151,877	-200,000	0,020	-0,089
-150,862	87,593	0,053	0,042
-149,847	491,599	-0,049	-0,079
-148,833	67,698	-0,040	-0,029
-147,818	-148,517	0,113	-0,006
-146,804	145,635	-0,066	0,063
-145,789	333,683	0,060	0,083
-144,775	104,375	0,050	0,042
-143,760	188,197	-0,124	-0,131
-142,745	444,399	-0,048	0,075
-141,731	800,000	-0,034	0,072
-140,716	-64,643	0,050	-0,014
-139,702	133,128	0,125	0,114
-138,687	201,681	0,045	0,049
-137,672	-70,750	0,101	0,027
-136,658	-200,000	-0,027	-0,130
-135,643	-163,999	-0,128	0,004
-134,629	-200,000	0,019	-0,081
-133,614	-27,040	-0,129	0,053
-132,599	320,231	0,048	0,065
-131,585	0,647	0,034	-0,017
-130,570	-200,000	-0,016	-0,050
-129,556	36,652	0,083	-0,052
-128,541	800,000	-0,036	-0,102
-127,526	214,849	-0,109	-0,123
-126,512	200,893	-0,011	0,012
-125,497	800,000	-0,055	0,110
-124,483	-81,998	0,056	-0,013
-123,468	-134,185	0,090	-0,008
-122,453	35,278	0,061	0,038
-121,439	800,000	-0,006	0,015
-120,424	-94,922	-0,148	-0,028
-119,410	150,056	-0,053	-0,051
-118,395	800,000	-0,052	0,102
-117,380	264,627	-0,022	0,027
-116,366	-58,679	-0,082	-0,025
-115,351	694,202	0,026	-0,049
-114,337	-200,000	-0,009	-0,040
-113,322	136,133	0,071	-0,066
-112,307	800,000	0,059	-0,119
-111,293	-96,600	-0,060	0,011
-110,278	190,639	-0,093	0,099
-109,264	-65,148	0,059	0,017
-108,249	3,239	-0,015	-0,007
-107,234	185,269	0,067	-0,071
-106,220	23,439	0,112	0,065
-105,205	-7,801	0,077	0,037
-104,191	800,000	0,047	-0,119
-103,176	0,215	-0,047	-0,024
-102,162	-200,000	-0,005	0,025
-101,147	148,343	0,089	0,085
-100,132	204,571	-0,088	-0,097
-99,118	-200,000	0,055	-0,178
-98,103	800,000	-0,074	0,218
-97,089	145,888	0,035	-0,033
-96,074	-200,000	0,031	0,159
-95,059	-200,000	0,016	0,087
-94,045	800,000	-0,016	0,039
-93,030	-123,494	-0,123	0,014
-92,016	166,097	0,066	-0,066
-91,001	224,051	0,034	-0,039
-89,986	800,000	-0,059	0,169
-88,972	-200,000	-0,021	0,070
-87,957	-140,484	0,116	-0,008
-86,943	-177,447	0,093	-0,002
-85,928	800,000	0,021	-0,045
-84,913	-134,088	-0,141	-0,012
-83,899	730,089	0,052	-0,099
-82,884	85,045	-0,082	0,064
-81,870	-1,185	0,063	-0,031
-80,855	-200,000	0,037	0,119
-79,840	-200,000	0,003	0,037
-78,826	-200,000	-0,010	0,037
-77,811	-200,000	-0,024	-0,085
-76,797	800,000	0,055	0,163
-75,782	-200,000	-0,003	0,074
-74,767	800,000	-0,023	0,049
-73,753	-56,654	0,067	0,021
-72,738	-72,150	-0,089	0,023
-71,724	-61,353	0,158	0,047
-70,709	38,003	0,068	0,043
-69,694	-91,746	-0,108	-0,022
-68,680	800,000	0,047	0,125
-67,665	-200,000	0,020	0,066
-66,651	61,353	-0,063	0,045
-65,636	167,830	0,105	0,105
-64,622	-200,000	-0,029	-0,144
-63,607	41,116	-0,014	0,009
-62,592	800,000	-0,039	-0,107
-61,578	800,000	-0,019	-0,041
-60,563	800,000	0,049	0,096
-59,549	-200,000	0,011	0,174
-58,534	9,096	-1,698	-0,904
-57,519	427,331	-1,316	-2,015
-56,505	-200,000	-0,598	-4,593
-55,490	442,025	1,024	1,591
-54,476	800,000	5,001	11,254
-53,461	-200,000	20,250	324,872
-52,446	800,000	752,640	2311,734
-51,432	548,090	1663,264	2826,606
-50,417	74,768	1671,832	1242,630
-49,403	19,873	1544,748	877,511
-48,388	13,901	1467,064	804,328
-47,373	18,425	1457,390	820,847
-46,359	16,351	1446,887	804,963
-45,344	12,158	1442,531	782,430
-44,330	12,087	1440,589	781,006
-43,315	12,068	1438,875	779,955
-42,300	12,100	1437,033	779,076
-41,286	12,114	1435,941	778,520
-40,271	12,063	1434,482	777,456
-39,257	12,064	1433,423	776,855
-38,242	12,113	1432,128	776,354
-37,227	12,098	1431,056	775,672
-36,213	12,077	1429,600	774,752
-35,198	12,099	1428,422	774,191
-34,184	12,173	1427,242	773,870
-33,169	12,096	1426,024	772,814
-32,154	12,151	1424,738	772,348
-31,140	12,117	1423,725	771,608
-30,125	12,163	1422,551	771,158
-29,111	12,125	1421,460	770,355
-28,096	12,164	1420,424	769,948
-27,082	12,080	1419,328	768,924
-26,067	12,010	1418,236	767,976
-25,052	12,069	1417,109	767,610
-24,038	12,015	1416,291	766,883
-23,023	12,068	1415,171	766,495
-22,009	12,060	1413,857	765,713
-20,994	12,038	1413,049	765,145
-19,979	12,100	1412,040	764,860
-18,965	12,016	1411,095	763,924
-17,950	12,026	1410,361	763,541
-16,936	12,004	1409,533	762,960
-15,921	11,963	1408,435	762,145
-14,906	11,995	1407,600	761,810
-13,892	11,967	1406,520	761,065
-12,877	11,981	1405,664	760,635
-11,863	11,977	1404,943	760,199
-10,848	11,933	1403,964	759,433
-9,833	11,912	1403,212	758,899
-8,819	11,872	1402,307	758,191
-7,804	11,835	1401,398	757,499
-6,790	11,842	1400,546	757,039
-5,775	11,896	1399,431	756,658
-4,760	11,911	1398,279	756,076
-3,746	11,846	1397,433	755,288
-2,731	11,871	1396,551	754,895
-1,717	11,857	1395,707	754,344
-0,702	11,838	1393,971	753,288
0,313	15,874	1308,672	725,801
1,327	32,248	699,267	425,410
2,342	49,976	121,861	81,084
3,356	-1,698	16,578	8,220
4,371	-10,496	3,277	1,527
5,386	25,994	0,660	0,388
6,400	-200,000	0,054	0,307
7,415	65,886	-0,124	0,089
8,429	730,982	-0,160	-0,304
9,444	28,242	-0,422	-0,251
10,459	35,606	-0,222	-0,137
11,473	87,468	-0,238	-0,185
12,488	-22,680	-0,312	-0,132
13,502	-41,435	-0,328	-0,118
14,517	204,080	-0,310	-0,339
15,531	82,817	-0,399	-0,306
16,546	237,404	-0,224	-0,263
17,561	72,501	-0,433	-0,318
18,575	48,411	-0,239	-0,158
19,590	52,440	-0,302	-0,203
20,604	-138,859	-0,373	-0,028
21,619	83,886	-0,340	-0,261
22,634	20,482	-0,412	-0,234
23,648	49,768	-0,363	-0,241
24,663	173,404	-0,367	-0,373
25,677	56,106	-0,433	-0,296
26,692	176,046	-0,262	-0,268
27,707	-41,283	-0,344	-0,124
28,721	36,447	-0,321	-0,199
29,736	95,665	-0,415	-0,333
30,750	107,096	-0,370	-0,309
31,765	36,940	-0,397	-0,247
32,780	82,512	-0,399	-0,305
33,794	52,579	-0,381	-0,256
34,809	102,139	-0,276	-0,227
35,823	45,006	-0,361	-0,234
36,838	141,618	-0,332	-0,310
37,853	186,795	-0,298	-0,313
38,867	-24,486	-0,489	-0,204
39,882	240,411	-0,339	-0,399
40,896	63,657	-0,302	-0,213
41,911	-39,108	-0,456	-0,168
42,926	58,595	-0,308	-0,212
43,940	40,485	-0,393	-0,249
44,955	29,647	-0,487	-0,291
45,969	128,189	-0,341	-0,305
46,984	43,460	-0,443	-0,284
47,999	15,217	-0,355	-0,195
49,013	329,246	-0,158	-0,214
50,028	84,573	-0,304	-0,234
51,042	134,914	-0,390	-0,356
52,057	108,079	-0,294	-0,246
53,071	205,082	-0,300	-0,327
54,086	73,698	-0,339	-0,249
55,101	30,377	-0,373	-0,224
56,115	-48,924	-0,473	-0,159
57,130	188,045	-0,200	-0,210
58,144	-17,702	-0,446	-0,196
59,159	30,797	-0,359	-0,216
60,174	35,105	-0,334	-0,205
61,188	-22,860	-0,305	-0,129
62,203	-70,171	-0,327	-0,087
63,217	-45,053	-0,259	-0,090
64,232	45,993	-0,307	-0,199
65,247	-63,595	-0,275	-0,079
66,261	50,333	-0,393	-0,261
67,276	79,722	-0,385	-0,290
68,290	401,166	-0,212	-0,313
69,305	78,155	-0,341	-0,255
70,320	52,428	-0,162	-0,109
71,334	24,903	-0,340	-0,197
72,349	-98,906	-0,391	-0,069
73,363	97,861	-0,392	-0,317
74,378	110,176	-0,163	-0,138
75,393	8,113	-0,390	-0,205
76,407	-135,775	-0,288	-0,024
77,422	-108,634	-0,267	0,040
78,436	-90,022	-0,286	-0,058
79,451	8,032	-0,384	-0,202
80,466	53,787	-0,271	-0,182
81,480	46,649	-0,418	-0,272
82,495	-13,634	-0,409	-0,185
83,509	66,760	-0,335	-0,239
84,524	-2,199	-0,236	-0,116
85,539	79,959	-0,332	-0,250
86,553	-78,734	-0,179	0,043
87,568	301,933	-0,222	-0,288
88,582	800,000	-0,152	-0,366
89,597	84,129	-0,255	-0,195
90,611	-51,647	-0,251	-0,081
91,626	143,404	-0,107	-0,100
92,641	-46,308	-0,365	-0,125
93,655	-86,383	-0,351	-0,075
94,670	34,123	-0,350	-0,213
95,684	45,624	-0,397	-0,256
96,699	240,441	-0,224	-0,262
97,714	22,479	-0,325	-0,186
98,728	75,094	-0,210	-0,155
99,743	-83,983	-0,229	-0,050
100,757	95,832	-0,265	-0,212
101,772	94,115	-0,190	-0,151
102,787	-12,022	-0,268	-0,123
103,801	10,530	-0,299	-0,159
104,816	-33,618	-0,332	-0,128
105,830	10,244	-0,182	-0,096
106,845	183,024	-0,280	-0,289
107,860	-26,904	-0,294	-0,119
108,874	167,030	-0,174	-0,173
109,889	265,277	-0,191	-0,234
110,903	-72,615	-0,334	-0,086
111,918	33,686	-0,372	-0,226
112,933	119,076	-0,077	-0,067
113,947	131,422	-0,171	-0,154
114,962	244,771	-0,192	-0,226
115,976	-34,749	-0,224	-0,085
116,991	64,174	-0,343	-0,241
118,006	46,333	-0,290	-0,188
119,020	6,031	-0,306	-0,158
120,035	381,699	-0,137	-0,197
121,049	-122,057	-0,342	-0,039
122,064	-84,298	-0,212	-0,047
123,079	-17,356	-0,200	-0,088
124,093	57,129	-0,242	-0,165
125,108	141,345	-0,317	-0,293
126,122	99,895	-0,268	-0,217
127,137	-48,479	-0,316	-0,106
128,151	179,985	-0,215	-0,221
129,166	73,131	-0,211	-0,154
130,181	-33,100	-0,240	-0,093
131,195	10,976	-0,299	-0,159
132,210	27,311	-0,277	-0,162
133,224	27,835	-0,299	-0,175
134,239	52,754	-0,337	-0,225
135,254	-159,556	-0,124	0,005
136,268	-52,410	-0,325	-0,104
137,283	148,788	-0,217	-0,205
138,297	-25,349	-0,262	-0,108
139,312	-36,431	-0,201	-0,075
140,327	63,083	-0,284	-0,199
141,341	518,071	-0,179	-0,294
142,356	734,059	-0,134	-0,251
143,370	-85,216	-0,313	-0,068
144,385	44,504	-0,101	-0,065
145,400	74,011	-0,251	-0,184
146,414	191,919	-0,250	-0,263
147,429	231,890	-0,242	-0,277
148,443	800,000	-0,166	-0,333
149,458	124,034	-0,273	-0,239
150,473	63,210	-0,173	-0,121
151,487	101,105	-0,163	-0,132
152,502	122,001	-0,221	-0,193
153,516	90,677	-0,213	-0,166
154,531	77,018	-0,338	-0,250
155,546	800,000	-0,088	-0,233
156,560	-4,375	-0,184	-0,088
157,575	117,074	-0,204	-0,175
158,589	-23,630	-0,379	-0,158
159,604	595,854	-0,183	-0,317
160,619	-5,288	-0,286	-0,137
161,633	51,117	-0,308	-0,203
162,648	-16,472	-0,225	-0,099
163,662	-85,692	-0,231	-0,049
164,677	-142,143	-0,106	-0,007
165,692	-21,952	-0,344	-0,145
166,706	26,187	-0,284	-0,165
167,721	43,438	-0,182	-0,116
168,735	327,654	-0,154	-0,206
169,750	68,114	-0,245	-0,174
170,764	17,547	-0,169	-0,093
171,779	136,730	-0,249	-0,226
172,794	4,815	-0,170	-0,087
173,808	8,331	-0,317	-0,166
174,823	156,027	-0,222	-0,213
175,837	99,610	-0,237	-0,191
176,852	93,008	-0,236	-0,185
177,867	614,679	-0,074	-0,130
178,881	48,295	-0,141	-0,092
179,896	-20,980	-0,208	-0,088
180,910	133,328	-0,205	-0,184
181,925	71,481	-0,219	-0,158
182,940	191,173	-0,183	-0,192
183,954	436,471	-0,158	-0,240
184,969	49,783	-0,315	-0,206
185,983	42,142	-0,101	0,064
186,998	444,158	-0,113	-0,173
188,013	40,422	-0,125	-0,078
189,027	141,373	-0,247	-0,228
190,042	538,445	-0,225	-0,374
191,056	-75,172	-0,310	-0,076
192,071	47,939	-0,230	-0,149
193,086	-104,598	-0,185	0,029
194,100	80,076	-0,146	-0,109
195,115	526,730	-0,122	-0,200
196,129	304,774	-0,176	-0,228
197,144	221,775	-0,229	-0,256
198,159	290,722	-0,162	-0,204
199,173	176,697	-0,168	-0,170
200,188	122,891	-0,224	-0,194
201,202	49,793	-0,202	-0,132
202,217	59,929	-0,205	-0,141
203,232	37,964	-0,263	-0,162
204,246	389,808	-0,159	-0,230
205,261	160,258	-0,226	-0,219
206,275	73,721	-0,243	-0,177
207,290	78,505	-0,117	-0,086
208,304	-200,000	-0,040	-0,135
209,319	46,691	-0,184	-0,118
210,334	378,597	-0,186	-0,265
211,348	64,654	-0,288	-0,201
212,363	-71,538	-0,256	-0,066
213,377	15,325	-0,339	-0,184
214,392	200,815	-0,143	-0,153
215,407	-76,600	-0,187	-0,045
216,421	64,470	-0,148	-0,104
217,436	-49,112	-0,297	-0,098
218,450	800,000	-0,121	-0,233
219,465	96,023	-0,292	-0,231
220,480	4,536	-0,224	-0,114
221,494	109,937	-0,202	-0,168
222,509	355,965	-0,146	-0,202
223,523	-64,359	-0,184	-0,052
224,538	-73,488	-0,182	-0,046
225,553	93,998	-0,198	-0,155
226,567	800,000	-0,153	-0,297
227,582	8,395	-0,078	-0,040
228,596	169,129	-0,234	-0,232
229,611	18,684	-0,112	-0,062
230,626	74,616	-0,174	-0,127
231,640	115,100	-0,232	-0,196
232,655	302,265	-0,134	-0,172
233,669	451,969	-0,152	-0,233
234,684	800,000	-0,060	-0,181
235,699	321,778	-0,053	-0,071
236,713	-25,322	-0,193	-0,079
237,728	-200,000	0,028	-0,179
238,742	-161,575	-0,263	0,009
239,757	-197,186	-0,311	0,001
240,772	553,803	-0,159	-0,265
241,786	143,159	-0,178	-0,163
242,801	96,553	-0,168	-0,133
243,815	750,436	-0,096	-0,181
244,830	140,093	-0,159	-0,145
245,844	-100,478	-0,255	-0,043
246,859	98,617	-0,194	-0,154
247,874	72,780	-0,259	-0,187
248,888	136,214	-0,326	-0,294
249,903	2,041	-0,178	-0,089
250,917	-142,561	-0,182	-0,012
251,932	252,716	-0,141	-0,166
252,947	800,000	-0,069	-0,152
253,961	-142,395	-0,109	-0,007
254,976	-57,248	-0,147	-0,045
255,990	295,421	-0,148	-0,188
257,005	57,083	-0,138	-0,093
258,020	-63,062	-0,132	-0,037
259,034	-4,363	-0,085	0,041
260,049	-148,569	-0,221	-0,012
261,063	-142,858	-0,268	-0,018
262,078	65,555	-0,211	-0,147
263,093	532,373	-0,169	-0,277
264,107	-99,140	-0,063	-0,011
265,122	239,312	-0,096	-0,111
266,136	226,660	-0,125	-0,140
267,151	188,987	-0,120	-0,125
268,166	51,160	-0,233	-0,152
269,180	141,792	-0,171	-0,157
270,195	136,641	-0,245	-0,221
271,209	-31,068	-0,295	-0,114
272,224	152,634	-0,262	-0,247
273,239	800,000	-0,084	-0,169
274,253	26,048	-0,112	-0,064
275,268	-30,919	-0,173	-0,067
276,282	61,344	-0,228	-0,156
277,297	81,796	-0,206	-0,153
278,312	90,554	-0,246	-0,189
279,326	203,301	-0,168	-0,180
280,341	323,560	-0,056	-0,074
281,355	-4,135	-0,247	-0,118
282,370	279,960	-0,068	-0,084
283,384	227,475	-0,153	-0,171
284,399	-70,160	-0,148	-0,038
285,414	-200,000	-0,020	-0,083
286,428	-39,677	-0,177	0,064
287,443	142,550	-0,117	-0,107
288,457	-124,106	-0,124	0,013
289,472	48,556	-0,138	-0,089
290,487	-55,744	-0,155	-0,048
291,501	339,703	-0,143	-0,193
292,516	-200,000	-0,072	-0,223
293,530	679,662	-0,072	-0,129
294,545	395,330	-0,067	-0,097
295,560	-83,814	-0,238	0,052
296,574	36,746	-0,119	-0,072
297,589	13,215	-0,273	-0,145
298,603	-72,026	-0,271	-0,069
299,618	95,118	-0,127	-0,099
300,633	14,750	-0,124	-0,067
301,647	-8,868	-0,208	-0,096
302,662	6,243	-0,097	-0,049
303,676	327,307	-0,138	-0,183
304,691	150,029	-0,148	-0,138
305,706	-162,419	-0,236	-0,008
306,720	172,325	-0,083	-0,082
307,735	48,170	-0,213	-0,137
308,749	-111,714	-0,168	-0,023
309,764	-108,680	-0,186	-0,027
310,779	170,305	-0,159	-0,157
311,793	266,434	-0,094	-0,114
312,808	-69,851	-0,306	-0,080
313,822	224,422	-0,149	-0,166
314,837	33,205	-0,281	-0,167
315,852	-55,020	-0,147	-0,045
316,866	-16,378	-0,090	0,039
317,881	-150,607	-0,096	0,005
318,895	103,306	-0,065	-0,052
319,910	67,004	-0,180	-0,126
320,925	179,363	-0,219	-0,220
321,939	-181,306	-0,120	0,002
322,954	-200,000	0,003	-0,034
323,968	18,944	-0,132	-0,072
324,983	-45,764	-0,030	0,010
325,997	-0,005	-0,203	-0,099
327,012	172,384	-0,116	-0,114
328,027	-120,616	-0,137	-0,016
329,041	44,650	-0,189	-0,119
330,056	161,224	-0,102	-0,098
331,070	-12,525	-0,180	0,080
332,085	-155,431	-0,200	0,009
333,100	-200,000	-0,017	-0,079
334,114	451,871	-0,127	-0,194
335,129	-116,303	-0,219	-0,028
336,143	-200,000	-0,034	-0,174
337,158	-66,525	-0,177	-0,048
338,173	181,252	-0,057	-0,058
339,187	421,044	-0,107	-0,158
340,202	-8,536	-0,111	-0,051
341,216	518,401	-0,118	-0,190
342,231	253,417	-0,219	-0,257
343,246	-108,187	-0,268	0,039
344,260	158,528	-0,043	0,041
345,275	-145,892	-0,198	-0,012
346,289	-200,000	-0,027	-0,137
347,304	21,277	-0,062	-0,034
348,319	487,059	-0,099	-0,155
349,333	-152,506	-0,234	-0,011
350,348	53,503	-0,218	-0,143
351,362	-87,119	-0,181	-0,037
352,377	-200,000	0,011	-0,197
353,392	800,000	-0,065	-0,150
354,406	41,621	-0,178	-0,110
355,421	207,394	1314,405	1406,373
356,435	159,535	1475,081	1406,848
