DTS Sentinel unit serial number:	SN410029Multiplexer serial number:	ORYXHardware model number:	OX2-SRSoftware version number:	ORYX F/W v4,00 Oryx Data Collector v3.7.2.0data status	okinstallation	B3 Nyhavnadifferential loss correction	single-endedforward channel	channel 1reverse channel	N/Adate	2023/12/02time	13:32:30forward acquisition time	300,00reverse acquisition time	0,00gamma	499,1914k internal	0,3198k external	0,3198temperature offset calibration	1,0000default loss term (dB/km)	0,3820temperature slope calibration	1,0000multiplexer offset coefficient	1,0000multiplexer slope coefficient	1,0000fibre end	0,00T internal ref (°C)	14,55T ext. ref 1 (°C)	0,20T ext. ref 2 (°C)	0,19length (m)	temperature (°C)	Stokes	anti-Stokes-744,400	330,109	-0,216	-0,303
-743,385	-200,000	0,025	0,174
-742,371	261,096	-0,187	-0,236
-741,356	-200,000	-0,025	0,447
-740,342	800,000	-0,143	-0,341
-739,327	-200,000	0,026	0,421
-738,312	15,004	-0,300	-0,171
-737,298	800,000	-0,070	0,178
-736,283	74,536	-0,262	-0,200
-735,269	800,000	0,144	0,387
-734,254	106,365	-0,218	-0,188
-733,239	334,624	-0,116	0,164
-732,225	150,707	-0,080	-0,079
-731,210	294,206	0,053	0,071
-730,196	298,743	-0,106	0,143
-729,181	55,964	0,059	0,042
-728,167	160,468	-0,076	-0,078
-727,152	-42,810	0,048	0,018
-726,137	-31,496	0,071	-0,029
-725,123	-25,448	-0,064	-0,027
-724,108	-132,530	-0,102	0,009
-723,094	-155,266	-0,091	0,004
-722,079	-200,000	-0,011	-0,192
-721,064	-111,632	-0,077	0,011
-720,050	-81,907	-0,114	0,027
-719,035	-200,000	-0,001	0,122
-718,021	-35,860	-0,044	0,017
-717,006	238,140	-0,159	-0,192
-715,991	-200,000	-0,005	-0,170
-714,977	-59,173	-0,111	-0,035
-713,962	-43,937	0,103	0,037
-712,948	-4,961	-0,104	0,052
-711,933	82,827	0,077	-0,061
-710,918	-37,633	0,043	0,017
-709,904	-200,000	0,002	-0,020
-708,889	-200,000	-0,016	0,077
-707,875	194,634	-0,013	-0,014
-706,860	98,274	0,091	0,076
-705,845	-128,086	0,062	0,006
-704,831	263,534	0,034	-0,043
-703,816	242,945	0,035	-0,042
-702,802	440,737	-0,116	0,186
-701,787	33,712	0,126	-0,080
-700,772	-200,000	-0,057	-0,188
-699,758	-200,000	-0,004	-0,076
-698,743	-200,000	0,010	0,107
-697,729	33,240	0,062	-0,039
-696,714	-200,000	-0,005	-0,159
-695,699	594,483	-0,059	-0,107
-694,685	784,546	-0,079	-0,159
-693,670	-200,000	0,032	-0,234
-692,656	800,000	-0,053	-0,141
-691,641	301,582	-0,071	0,095
-690,627	-200,000	-0,008	0,087
-689,612	345,613	0,040	0,057
-688,597	-131,622	0,057	0,005
-687,583	61,610	-0,090	-0,065
-686,568	-2,980	-0,057	-0,029
-685,554	-200,000	-0,005	-0,101
-684,539	-23,652	-0,008	-0,004
-683,524	-93,286	0,023	0,005
-682,510	202,260	-0,132	-0,148
-681,495	-200,000	-0,029	-0,162
-680,481	-101,201	-0,087	-0,015
-679,466	268,015	-0,124	-0,158
-678,451	701,606	-0,044	-0,085
-677,437	-126,852	0,132	-0,014
-676,422	21,090	-0,050	0,029
-675,408	31,784	-0,051	0,032
-674,393	-200,000	-0,017	-0,082
-673,378	800,000	-0,029	-0,068
-672,364	-100,493	-0,109	-0,019
-671,349	-200,000	-0,009	-0,036
-670,335	-77,335	-0,094	-0,024
-669,320	-200,000	-0,026	-0,090
-668,305	454,197	-0,041	0,065
-667,291	-200,000	-0,007	-0,025
-666,276	-200,000	0,010	-0,099
-665,262	-191,917	-0,035	0,000
-664,247	211,131	-0,075	-0,085
-663,232	313,207	0,113	0,155
-662,218	-38,644	-0,139	0,053
-661,203	800,000	0,035	-0,082
-660,189	431,747	-0,072	-0,114
-659,174	-22,878	-0,128	-0,056
-658,159	763,347	-0,048	-0,094
-657,145	800,000	-0,022	-0,065
-656,130	-8,764	-0,109	0,053
-655,116	402,770	-0,047	0,072
-654,101	800,000	0,056	-0,128
-653,086	134,111	-0,080	0,075
-652,072	-200,000	0,008	0,071
-651,057	-200,000	-0,018	-0,082
-650,043	18,982	-0,122	-0,071
-649,028	-144,442	-0,131	0,009
-648,014	-200,000	0,006	-0,031
-646,999	64,408	0,101	0,074
-645,984	-176,104	0,028	-0,001
-644,970	67,901	0,100	0,074
-643,955	-200,000	0,010	-0,071
-642,941	800,000	0,030	0,063
-641,926	227,585	0,017	0,020
-640,911	630,794	-0,046	-0,084
-639,897	-200,000	-0,005	0,089
-638,882	-200,000	0,031	0,102
-637,868	-200,000	-0,002	0,071
-636,853	24,966	-0,102	-0,061
-635,838	55,793	0,056	-0,040
-634,824	5,387	-0,195	-0,104
-633,809	-142,873	-0,089	-0,006
-632,795	800,000	0,050	0,129
-631,780	440,964	0,029	-0,046
-630,765	-34,879	-0,080	0,031
-629,751	79,967	-0,073	-0,057
-628,736	-200,000	0,021	-0,136
-627,722	201,443	0,061	0,068
-626,707	-200,000	-0,022	-0,082
-625,692	-45,208	0,144	0,051
-624,678	216,700	-0,052	0,060
-623,663	-200,000	0,015	-0,125
-622,649	-200,000	-0,001	-0,124
-621,634	800,000	0,013	0,033
-620,619	-115,112	-0,117	0,016
-619,605	-121,619	0,097	-0,012
-618,590	398,956	0,021	-0,032
-617,576	190,859	0,032	0,035
-616,561	800,000	0,005	-0,014
-615,546	-200,000	-0,010	-0,111
-614,532	-200,000	-0,030	-0,139
-613,517	136,587	-0,094	-0,089
-612,503	-27,188	-0,034	-0,014
-611,488	-200,000	0,001	0,024
-610,474	784,206	-0,036	0,073
-609,459	420,065	0,026	0,040
-608,444	372,414	-0,053	-0,079
-607,430	158,883	-0,093	-0,093
-606,415	-200,000	-0,019	0,164
-605,401	800,000	0,071	-0,182
-604,386	-183,398	0,064	0,001
-603,371	80,386	-0,112	0,087
-602,357	-200,000	0,021	0,068
-601,342	237,221	0,075	-0,090
-600,328	800,000	0,043	-0,109
-599,313	-37,097	-0,073	-0,028
-598,298	-200,000	0,048	-0,197
-597,284	-83,564	0,096	-0,022
-596,269	-2,160	-0,033	-0,017
-595,255	-73,550	0,035	0,009
-594,240	82,859	-0,005	0,004
-593,225	81,708	0,084	-0,066
-592,211	-200,000	0,000	-0,007
-591,196	-85,214	0,082	0,018
-590,182	54,219	-0,023	0,016
-589,167	-64,336	-0,106	0,031
-588,152	-71,516	-0,040	-0,011
-587,138	396,453	0,049	-0,074
-586,123	800,000	-0,031	-0,085
-585,109	-167,058	0,186	-0,005
-584,094	68,858	-0,043	-0,032
-583,079	-71,860	0,058	0,016
-582,065	532,855	-0,068	0,116
-581,050	-159,006	0,032	-0,001
-580,036	32,030	-0,111	-0,069
-579,021	121,221	-0,159	-0,143
-578,006	-47,230	-0,042	0,015
-576,992	-200,000	-0,024	-0,176
-575,977	260,503	0,030	-0,038
-574,963	401,589	-0,057	0,087
-573,948	701,549	0,038	0,072
-572,934	-143,594	-0,026	0,002
-571,919	-87,950	-0,130	-0,028
-570,904	-200,000	0,007	-0,051
-569,890	800,000	-0,019	-0,039
-568,875	346,784	0,016	0,022
-567,861	332,781	-0,044	0,061
-566,846	130,345	-0,124	0,115
-565,831	-155,910	-0,024	0,001
-564,817	187,270	-0,053	-0,057
-563,802	469,187	-0,053	0,086
-562,788	42,894	-0,050	-0,033
-561,773	-200,000	-0,007	-0,070
-560,758	-200,000	0,011	0,149
-559,744	-200,000	0,045	0,166
-558,729	548,653	-0,089	0,155
-557,715	-76,817	0,099	0,025
-556,700	130,475	-0,192	-0,178
-555,685	528,378	-0,012	-0,021
-554,671	161,461	-0,044	-0,045
-553,656	-54,615	0,058	0,019
-552,642	141,416	-0,020	0,019
-551,627	-70,182	0,072	0,020
-550,612	-200,000	-0,031	0,114
-549,598	646,319	0,032	0,059
-548,583	506,590	-0,015	-0,025
-547,569	800,000	0,032	0,094
-546,554	79,731	-0,064	0,049
-545,539	51,733	0,102	0,070
-544,525	133,411	0,084	-0,078
-543,510	174,588	-0,116	-0,121
-542,496	111,005	0,117	-0,102
-541,481	-200,000	0,014	0,057
-540,466	800,000	-0,034	-0,095
-539,452	201,161	0,061	-0,067
-538,437	-94,665	0,032	0,006
-537,423	-93,323	-0,058	-0,012
-536,408	-154,593	0,117	0,006
-535,393	800,000	-0,042	-0,083
-534,379	508,831	-0,029	0,049
-533,364	-189,031	-0,087	-0,001
-532,350	12,108	0,059	0,033
-531,335	2,355	0,082	-0,043
-530,321	-200,000	0,011	-0,122
-529,306	69,068	-0,033	-0,024
-528,291	22,428	0,056	-0,033
-527,277	-200,000	-0,004	-0,022
-526,262	-200,000	-0,024	0,112
-525,248	252,198	0,033	-0,040
-524,233	491,604	-0,052	0,086
-523,218	-39,694	0,026	-0,010
-522,204	127,888	0,083	-0,076
-521,189	510,759	0,036	-0,060
-520,175	73,535	-0,017	-0,013
-519,160	-25,875	0,090	-0,038
-518,145	143,533	0,109	-0,105
-517,131	800,000	-0,012	-0,024
-516,116	800,000	-0,013	-0,040
-515,102	231,794	0,054	-0,065
-514,087	-3,850	-0,072	-0,036
-513,072	-200,000	0,003	-0,124
-512,058	-200,000	-0,019	-0,067
-511,043	335,243	0,026	-0,036
-510,029	-32,411	0,086	-0,034
-509,014	-200,000	0,011	0,084
-507,999	-200,000	0,010	0,117
-506,985	128,219	-0,039	0,036
-505,970	109,748	0,102	-0,088
-504,956	800,000	0,070	-0,195
-503,941	185,854	-0,110	-0,119
-502,926	-120,119	-0,167	-0,020
-501,912	-30,106	-0,059	0,024
-500,897	-178,539	-0,061	0,001
-499,883	-117,652	0,008	-0,001
-498,868	800,000	0,023	-0,052
-497,853	-14,144	0,044	-0,021
-496,839	185,877	-0,051	-0,054
-495,824	76,850	0,076	0,058
-494,810	-68,811	0,151	-0,042
-493,795	-200,000	-0,011	-0,071
-492,781	330,638	-0,103	0,143
-491,766	205,540	-0,068	-0,076
-490,751	-200,000	0,010	-0,066
-489,737	148,111	-0,041	-0,040
-488,722	-200,000	-0,026	0,097
-487,708	-200,000	0,009	0,055
-486,693	-200,000	-0,015	0,106
-485,678	-200,000	-0,007	0,047
-484,664	-200,000	0,016	-0,105
-483,649	-79,736	-0,152	-0,037
-482,635	-200,000	-0,013	0,138
-481,620	-65,225	0,208	-0,060
-480,605	-69,717	-0,010	0,003
-479,591	11,065	-0,033	0,018
-478,576	-128,990	-0,105	-0,010
-477,562	-200,000	-0,032	-0,109
-476,547	-136,663	-0,006	0,000
-475,532	22,637	-0,048	-0,028
-474,518	401,900	-0,065	-0,098
-473,503	800,000	0,042	0,125
-472,489	800,000	0,054	0,108
-471,474	-200,000	0,003	-0,032
-470,459	-166,658	0,058	-0,002
-469,445	-22,417	-0,084	-0,036
-468,430	375,891	0,068	-0,100
-467,416	3,125	0,064	-0,033
-466,401	20,286	0,173	0,101
-465,386	-200,000	0,003	-0,012
-464,372	800,000	0,024	0,064
-463,357	185,621	0,028	0,030
-462,343	-127,813	-0,237	-0,024
-461,328	-200,000	0,042	-0,149
-460,313	540,840	-0,057	0,098
-459,299	-200,000	-0,005	0,030
-458,284	-200,000	-0,009	-0,069
-457,270	-49,556	-0,050	-0,017
-456,255	-200,000	-0,020	-0,083
-455,241	800,000	0,017	-0,053
-454,226	-200,000	0,014	0,088
-453,211	-200,000	-0,007	0,048
-452,197	180,925	0,057	0,060
-451,182	-200,000	0,015	0,178
-450,168	30,940	-0,113	0,070
-449,153	-200,000	-0,002	0,093
-448,138	-200,000	-0,012	0,070
-447,124	-30,442	-0,102	0,042
-446,109	-200,000	0,007	0,041
-445,095	-76,557	0,061	-0,015
-444,080	-200,000	-0,029	0,215
-443,065	470,370	-0,025	-0,040
-442,051	-148,378	-0,042	-0,002
-441,036	3,030	-0,114	-0,060
-440,022	93,868	0,055	-0,045
-439,007	-200,000	0,020	-0,104
-437,992	-80,669	0,134	0,032
-436,978	89,951	-0,028	-0,022
-435,963	-47,107	-0,055	-0,019
-434,949	-100,840	-0,098	0,017
-433,934	800,000	0,037	-0,107
-432,919	153,318	0,086	-0,084
-431,905	65,047	-0,033	-0,024
-430,890	-72,143	0,064	-0,017
-429,876	-27,940	0,049	-0,020
-428,861	89,482	0,081	0,065
-427,846	-57,756	0,110	-0,034
-426,832	581,454	-0,104	-0,184
-425,817	-200,000	0,001	-0,116
-424,803	654,590	-0,014	-0,025
-423,788	-41,123	-0,069	-0,025
-422,773	-39,509	0,069	-0,026
-421,759	-148,470	-0,101	0,006
-420,744	-129,415	-0,128	-0,013
-419,730	19,671	0,056	-0,032
-418,715	-200,000	-0,038	-0,119
-417,701	-34,944	-0,014	-0,006
-416,686	800,000	0,043	0,105
-415,671	800,000	0,035	0,070
-414,657	255,986	0,081	0,101
-413,642	-129,183	0,018	-0,002
-412,628	104,123	-0,073	-0,062
-411,613	-200,000	0,008	-0,043
-410,598	14,066	-0,032	-0,018
-409,584	415,197	-0,056	-0,087
-408,569	-200,000	0,018	0,182
-407,555	-70,930	0,033	0,009
-406,540	-23,247	0,013	-0,006
-405,525	415,040	0,034	0,052
-404,511	-200,000	0,003	0,038
-403,496	215,238	-0,093	0,106
-402,482	59,150	0,120	-0,085
-401,467	146,543	0,047	0,045
-400,452	192,400	0,059	0,064
-399,438	-200,000	0,009	-0,076
-398,423	544,301	-0,092	-0,158
-397,409	104,129	-0,068	-0,057
-396,394	-200,000	0,000	0,046
-395,379	800,000	0,017	-0,040
-394,365	16,991	-0,029	0,016
-393,350	800,000	-0,047	0,129
-392,336	-200,000	0,021	0,113
-391,321	-50,717	0,045	0,015
-390,306	-200,000	-0,037	-0,134
-389,292	800,000	-0,031	-0,079
-388,277	800,000	0,034	-0,087
-387,263	800,000	-0,033	0,082
-386,248	346,715	0,091	0,129
-385,233	67,820	0,053	0,039
-384,219	-200,000	0,015	0,054
-383,204	-48,571	-0,015	0,005
-382,190	217,936	-0,021	-0,024
-381,175	-46,353	0,137	0,048
-380,160	800,000	-0,066	0,135
-379,146	-71,623	0,063	0,017
-378,131	-200,000	-0,008	0,065
-377,117	1,405	-0,068	0,035
-376,102	317,936	0,042	-0,058
-375,088	-200,000	-0,008	-0,095
-374,073	-113,030	-0,029	-0,004
-373,058	-51,508	-0,055	-0,018
-372,044	-200,000	-0,003	0,013
-371,029	311,059	0,028	0,038
-370,015	194,850	-0,042	-0,045
-369,000	-200,000	-0,007	-0,055
-367,985	-145,552	-0,097	0,006
-366,971	399,472	0,109	-0,164
-365,956	800,000	0,037	-0,112
-364,942	-200,000	-0,073	0,000
-363,927	170,729	0,111	0,114
-362,912	-200,000	-0,004	0,016
-361,898	-82,117	0,105	-0,024
-360,883	-23,350	0,058	-0,025
-359,869	91,676	0,085	-0,068
-358,854	-200,000	0,015	0,088
-357,839	-12,422	0,033	0,016
-356,825	-5,799	0,054	-0,027
-355,810	180,409	0,045	-0,047
-354,796	198,091	-0,027	0,030
-353,781	120,118	-0,125	-0,111
-352,766	35,723	-0,107	0,067
-351,752	62,274	0,108	-0,077
-350,737	-200,000	0,014	0,072
-349,723	-43,480	0,091	0,033
-348,708	800,000	0,022	-0,065
-347,693	35,793	0,111	-0,070
-346,679	66,125	-0,120	-0,087
-345,664	-44,822	0,073	-0,026
-344,650	800,000	-0,012	-0,030
-343,635	-200,000	-0,008	-0,055
-342,620	-47,816	0,089	0,031
-341,606	-96,709	-0,198	0,037
-340,591	-200,000	0,002	-0,109
-339,577	540,582	0,048	-0,083
-338,562	138,362	0,038	0,036
-337,548	-24,117	0,113	0,048
-336,533	59,465	-0,106	0,075
-335,518	-200,000	0,021	0,077
-334,504	-95,814	0,084	0,016
-333,489	800,000	0,037	0,092
-332,475	547,539	-0,061	-0,104
-331,460	-59,003	-0,127	-0,039
-330,445	91,355	-0,084	-0,067
-329,431	-10,589	-0,115	0,054
-328,416	-200,000	0,003	-0,093
-327,402	97,648	-0,037	0,031
-326,387	-69,677	0,152	0,041
-325,372	-126,947	0,078	-0,008
-324,358	-77,785	-0,181	0,045
-323,343	-56,451	-0,205	0,065
-322,329	-200,000	0,020	-0,201
-321,314	-126,962	0,162	0,017
-320,299	323,352	0,151	0,207
-319,285	-200,000	-0,005	-0,041
-318,270	-46,227	-0,102	0,036
-317,256	-33,023	-0,142	-0,056
-316,241	-200,000	0,016	-0,059
-315,226	38,195	-0,098	-0,062
-314,212	-73,734	0,131	-0,034
-313,197	75,574	0,089	0,067
-312,183	-63,058	0,048	-0,014
-311,168	800,000	-0,003	-0,008
-310,153	55,228	0,106	-0,073
-309,139	253,444	-0,048	0,058
-308,124	-200,000	-0,005	0,123
-307,110	-200,000	0,011	0,173
-306,095	800,000	0,030	0,067
-305,080	-32,188	0,036	-0,014
-304,066	273,651	-0,107	0,136
-303,051	147,388	-0,034	-0,032
-302,037	581,908	0,031	-0,054
-301,022	-200,000	-0,009	-0,069
-300,008	-200,000	-0,005	-0,063
-298,993	-200,000	-0,018	0,086
-297,978	49,994	0,035	0,024
-296,964	800,000	-0,027	-0,063
-295,949	-46,879	0,097	-0,034
-294,935	5,691	-0,125	-0,066
-293,920	-124,226	-0,077	0,009
-292,905	-116,334	0,140	0,018
-291,891	-93,017	0,110	0,022
-290,876	112,680	-0,038	-0,033
-289,862	-200,000	0,007	-0,026
-288,847	297,478	-0,057	0,075
-287,832	33,536	0,080	-0,049
-286,818	166,529	0,090	-0,092
-285,803	13,621	0,042	0,023
-284,789	127,604	0,135	0,123
-283,774	111,448	-0,003	0,002
-282,759	-21,921	0,138	-0,060
-281,745	113,814	-0,099	0,086
-280,730	35,023	-0,111	0,070
-279,716	129,525	0,088	0,080
-278,701	-32,434	-0,050	0,020
-277,686	-88,469	0,062	0,013
-276,672	-39,605	0,052	-0,019
-275,657	-174,489	0,058	-0,001
-274,643	-86,034	-0,113	-0,025
-273,628	-200,000	0,067	-0,000
-272,613	-200,000	0,030	0,180
-271,599	800,000	0,016	-0,034
-270,584	-200,000	-0,003	0,102
-269,570	-20,722	0,060	0,026
-268,555	2,608	0,060	-0,031
-267,540	-19,263	-0,158	-0,070
-266,526	208,924	-0,144	0,161
-265,511	36,712	-0,010	0,007
-264,497	161,563	0,072	0,072
-263,482	58,910	0,039	-0,027
-262,467	-200,000	0,019	0,194
-261,453	800,000	-0,040	0,126
-260,438	-200,000	0,005	0,090
-259,424	86,367	0,006	-0,005
-258,409	-200,000	-0,010	0,140
-257,395	-200,000	0,001	-0,040
-256,380	800,000	-0,033	-0,067
-255,365	800,000	0,030	0,075
-254,351	-200,000	-0,004	0,014
-253,336	-81,909	0,057	-0,013
-252,322	-99,178	-0,132	-0,024
-251,307	800,000	-0,055	0,119
-250,292	7,060	0,115	0,061
-249,278	-57,989	0,059	0,018
-248,263	-135,701	0,061	0,005
-247,249	-61,183	0,100	-0,030
-246,234	363,468	0,063	-0,091
-245,219	-51,540	-0,042	-0,014
-244,205	125,786	-0,087	0,078
-243,190	800,000	-0,064	0,131
-242,176	-200,000	0,045	0,151
-241,161	-22,260	0,030	0,013
-240,146	800,000	-0,014	0,036
-239,132	89,918	-0,069	0,055
-238,117	-200,000	0,016	0,060
-237,103	-200,000	0,019	-0,126
-236,088	800,000	0,014	-0,037
-235,073	-200,000	0,027	-0,099
-234,059	83,837	0,065	0,051
-233,044	279,070	0,104	0,133
-232,030	-200,000	-0,028	-0,102
-231,015	-169,593	0,116	0,003
-230,000	31,731	-0,198	-0,121
-228,986	800,000	0,035	-0,090
-227,971	800,000	-0,065	0,135
-226,957	335,110	0,132	0,183
-225,942	800,000	0,031	0,067
-224,927	-80,020	-0,027	-0,006
-223,913	-27,280	-0,124	-0,051
-222,898	85,453	-0,127	-0,100
-221,884	220,430	-0,033	-0,037
-220,869	-27,935	0,016	0,007
-219,855	-22,309	-0,108	0,046
-218,840	102,377	0,111	0,093
-217,825	-200,000	0,012	-0,060
-216,811	358,611	-0,072	-0,103
-215,796	-200,000	0,071	0,000
-214,782	67,420	-0,042	-0,030
-213,767	-200,000	0,003	0,061
-212,752	-200,000	-0,014	-0,125
-211,738	-200,000	-0,011	-0,087
-210,723	160,009	-0,063	0,063
-209,709	131,130	-0,064	-0,059
-208,694	-29,381	-0,207	0,084
-207,679	-126,282	-0,031	-0,003
-206,665	113,229	0,130	0,112
-205,650	-200,000	-0,015	0,182
-204,636	-6,386	-0,063	0,030
-203,621	165,327	-0,082	0,083
-202,606	352,458	-0,057	-0,081
-201,592	444,218	-0,062	-0,098
-200,577	800,000	0,034	-0,097
-199,563	-174,180	0,086	0,002
-198,548	-59,961	0,035	0,010
-197,533	161,366	0,107	0,107
-196,519	-136,594	-0,128	0,010
-195,504	800,000	0,031	0,073
-194,490	130,984	-0,069	-0,063
-193,475	-200,000	0,000	-0,130
-192,460	38,693	0,074	0,047
-191,446	-67,223	0,181	-0,051
-190,431	83,222	0,037	-0,028
-189,417	800,000	-0,011	0,024
-188,402	-200,000	-0,013	0,085
-187,387	39,728	-0,075	0,048
-186,373	-200,000	-0,000	0,028
-185,358	800,000	-0,017	-0,050
-184,344	-76,783	0,068	0,017
-183,329	175,984	0,022	-0,023
-182,315	375,463	0,092	0,134
-181,300	800,000	-0,073	0,167
-180,285	-72,179	0,070	-0,018
-179,271	-200,000	0,010	-0,060
-178,256	-200,000	0,000	-0,047
-177,242	-32,744	0,103	0,041
-176,227	800,000	0,010	-0,023
-175,212	-200,000	0,020	0,078
-174,198	383,306	-0,069	-0,101
-173,183	-33,845	-0,084	0,033
-172,169	698,430	-0,020	-0,038
-171,154	-200,000	0,004	-0,033
-170,139	-48,264	0,212	0,072
-169,125	-200,000	0,024	0,113
-168,110	10,383	-0,021	0,011
-167,096	-64,280	-0,013	-0,004
-166,081	-61,436	-0,217	-0,065
-165,066	-33,423	-0,048	-0,019
-164,052	458,833	-0,042	-0,066
-163,037	-77,831	0,108	0,026
-162,023	436,353	-0,032	-0,050
-161,008	-89,570	0,056	-0,012
-159,993	320,410	-0,098	0,133
-158,979	-60,249	-0,084	0,025
-157,964	-126,069	0,111	-0,012
-156,950	-85,305	-0,153	0,034
-155,935	448,352	0,028	0,044
-154,920	92,539	0,121	0,097
-153,906	254,207	0,034	0,041
-152,891	409,594	0,056	-0,085
-151,877	63,942	-0,154	-0,110
-150,862	-17,561	-0,047	0,021
-149,847	-200,000	0,026	-0,100
-148,833	-16,961	0,128	-0,057
-147,818	800,000	0,066	0,167
-146,804	-200,000	-0,014	0,054
-145,789	40,000	0,102	-0,065
-144,775	-200,000	0,034	0,110
-143,760	800,000	-0,021	0,050
-142,745	105,992	0,067	-0,056
-141,731	800,000	-0,042	-0,097
-140,716	-105,342	0,158	0,025
-139,702	89,817	0,131	0,104
-138,687	-50,950	-0,064	-0,021
-137,672	219,529	0,123	-0,141
-136,658	536,132	-0,100	-0,170
-135,643	296,525	0,081	-0,106
-134,629	-28,943	0,080	-0,033
-133,614	73,301	0,068	-0,050
-132,599	-200,000	0,012	0,073
-131,585	-153,600	0,109	-0,005
-130,570	78,745	-0,100	0,076
-129,556	235,443	-0,067	0,079
-128,541	43,149	0,067	-0,044
-127,526	-6,573	0,015	-0,007
-126,512	62,227	0,059	0,042
-125,497	8,089	0,128	-0,068
-124,483	-63,143	0,057	0,017
-123,468	-171,248	0,130	0,003
-122,453	-200,000	-0,017	-0,114
-121,439	-33,360	-0,062	-0,024
-120,424	190,913	0,112	0,120
-119,410	130,055	0,030	-0,028
-118,395	800,000	0,057	0,147
-117,380	-67,107	-0,184	-0,051
-116,366	-200,000	0,019	0,113
-115,351	-200,000	-0,032	0,138
-114,337	-180,298	-0,021	-0,000
-113,322	56,406	0,128	0,088
-112,307	-200,000	-0,021	0,079
-111,293	64,493	0,025	0,018
-110,278	-100,437	0,093	0,016
-109,264	162,287	-0,025	-0,025
-108,249	408,366	0,098	0,147
-107,234	-109,523	-0,064	-0,009
-106,220	154,263	0,051	0,049
-105,205	800,000	0,033	-0,084
-104,191	-43,988	0,076	-0,027
-103,176	-133,406	-0,104	-0,009
-102,162	67,974	-0,050	0,037
-101,147	49,366	0,023	0,015
-100,132	800,000	0,051	-0,141
-99,118	245,563	-0,044	-0,053
-98,103	220,023	-0,057	-0,064
-97,089	362,213	0,050	0,072
-96,074	2,526	0,104	-0,053
-95,059	-200,000	-0,018	0,075
-94,045	-200,000	0,014	0,083
-93,030	342,510	-0,063	-0,088
-92,016	-46,940	0,046	-0,016
-91,001	-200,000	-0,038	-0,131
-89,986	-200,000	-0,004	0,031
-88,972	-200,000	0,027	-0,101
-87,957	-58,001	-0,101	-0,031
-86,943	-68,688	-0,040	-0,011
-85,928	-200,000	0,009	-0,081
-84,913	700,637	-0,060	-0,112
-83,899	256,351	-0,019	-0,023
-82,884	-102,244	0,019	-0,003
-81,870	60,993	-0,073	0,052
-80,855	-131,974	0,064	-0,006
-79,840	-96,528	0,098	0,018
-78,826	-158,871	-0,161	0,006
-77,811	-200,000	-0,001	-0,079
-76,797	-200,000	0,004	-0,087
-75,782	800,000	0,046	-0,110
-74,767	215,598	0,060	0,068
-73,753	183,690	-0,080	-0,084
-72,738	-93,353	0,142	-0,028
-71,724	106,094	-0,217	-0,182
-70,709	800,000	0,047	-0,099
-69,694	-16,898	-0,105	-0,047
-68,680	192,505	0,093	-0,099
-67,665	800,000	0,018	0,035
-66,651	-147,880	0,104	0,006
-65,636	-200,000	-0,016	-0,111
-64,622	-118,843	0,083	-0,010
-63,607	-158,944	-0,077	0,003
-62,592	800,000	-0,062	-0,148
-61,578	-13,165	-0,113	-0,052
-60,563	90,482	0,143	0,114
-59,549	40,594	-0,054	0,034
-58,534	-21,355	-1,385	-0,597
-57,519	330,901	-1,535	-2,101
-56,505	-200,000	-0,549	-4,612
-55,490	157,278	0,934	0,916
-54,476	800,000	4,868	11,284
-53,461	-200,000	18,388	295,111
-52,446	800,000	730,703	2252,223
-51,432	559,662	1646,449	2828,008
-50,417	78,872	1666,502	1262,350
-49,403	22,457	1539,699	889,730
-48,388	16,437	1462,644	816,017
-47,373	17,818	1452,736	817,115
-46,359	17,095	1443,055	808,174
-45,344	14,678	1438,347	793,956
-44,330	14,611	1436,634	792,659
-43,315	14,634	1434,489	791,553
-42,300	14,588	1433,189	790,588
-41,286	14,661	1431,756	790,113
-40,271	14,606	1430,741	789,258
-39,257	14,632	1429,484	788,657
-38,242	14,656	1428,008	787,924
-37,227	14,653	1426,927	787,282
-36,213	14,646	1425,732	786,560
-35,198	14,631	1424,425	785,737
-34,184	14,700	1423,393	785,464
-33,169	14,595	1422,200	784,277
-32,154	14,633	1421,132	783,839
-31,140	14,653	1419,938	783,243
-30,125	14,699	1418,507	782,637
-29,111	14,648	1417,615	781,874
-28,096	14,627	1416,378	781,060
-27,082	14,573	1415,310	780,187
-26,067	14,615	1414,194	779,740
-25,052	14,602	1413,152	779,075
-24,038	14,593	1412,438	778,605
-23,023	14,570	1411,187	777,777
-22,009	14,583	1410,266	777,300
-20,994	14,576	1409,277	776,692
-19,979	14,531	1408,443	775,988
-18,965	14,450	1407,522	775,075
-17,950	14,450	1406,633	774,551
-16,936	14,523	1405,594	774,292
-15,921	14,518	1404,401	773,578
-14,906	14,474	1403,685	772,950
-13,892	14,517	1402,595	772,518
-12,877	14,485	1401,786	771,895
-11,863	14,470	1400,951	771,335
-10,848	14,469	1399,985	770,768
-9,833	14,505	1399,001	770,363
-8,819	14,413	1398,150	769,435
-7,804	14,381	1397,205	768,734
-6,790	14,397	1396,132	768,187
-5,775	14,370	1395,148	767,492
-4,760	14,385	1394,369	767,101
-3,746	14,387	1393,512	766,612
-2,731	14,396	1392,766	766,212
-1,717	14,402	1391,772	765,663
-0,702	14,355	1390,042	764,460
0,313	18,266	1308,780	737,855
1,327	34,820	705,566	436,105
2,342	53,608	124,227	84,277
3,356	1,464	16,625	8,438
4,371	14,917	3,127	1,728
5,386	18,985	0,406	0,230
6,400	-200,000	0,004	0,104
7,415	800,000	-0,140	-0,310
8,429	202,148	-0,262	-0,286
9,444	-14,705	-0,409	-0,185
10,459	149,712	-0,191	-0,183
11,473	111,257	-0,260	-0,222
12,488	-76,255	-0,378	-0,093
13,502	-52,942	-0,277	-0,089
14,517	64,520	-0,326	-0,232
15,531	86,846	-0,404	-0,315
16,546	24,430	-0,286	-0,167
17,561	44,074	-0,337	-0,218
18,575	17,577	-0,142	-0,079
19,590	-15,327	-0,356	-0,160
20,604	399,834	-0,165	-0,246
21,619	23,175	-0,513	-0,297
22,634	76,299	-0,351	-0,263
23,648	64,592	-0,408	-0,290
24,663	229,372	-0,353	-0,407
25,677	-6,516	-0,319	-0,153
26,692	74,826	-0,308	-0,229
27,707	168,841	-0,317	-0,320
28,721	90,158	-0,397	-0,314
29,736	171,076	-0,359	-0,364
30,750	60,181	-0,460	-0,321
31,765	48,835	-0,433	-0,286
32,780	105,737	-0,295	-0,246
33,794	120,819	-0,316	-0,277
34,809	59,598	-0,302	-0,210
35,823	19,525	-0,431	-0,244
36,838	50,189	-0,341	-0,227
37,853	269,161	-0,332	-0,412
38,867	162,361	-0,314	-0,311
39,882	-29,350	-0,522	-0,210
40,896	171,776	-0,240	-0,244
41,911	43,833	-0,334	-0,215
42,926	-79,689	-0,455	-0,107
43,940	188,800	-0,317	-0,335
44,955	535,637	-0,220	-0,370
45,969	97,834	-0,412	-0,334
46,984	70,355	-0,289	-0,211
47,999	44,480	-0,402	-0,260
49,013	25,031	-0,302	-0,177
50,028	41,290	-0,334	-0,213
51,042	-112,077	-0,437	-0,061
52,057	37,308	-0,285	-0,178
53,071	69,938	-0,409	-0,297
54,086	-48,873	-0,479	-0,161
55,101	22,288	-0,377	-0,216
56,115	41,148	-0,288	-0,183
57,130	196,444	-0,208	-0,223
58,144	-38,614	-0,282	-0,104
59,159	40,560	-0,421	-0,267
60,174	22,531	-0,482	-0,277
61,188	15,527	-0,455	-0,251
62,203	149,173	-0,242	-0,231
63,217	-27,392	-0,340	-0,139
64,232	36,844	-0,324	-0,201
65,247	-7,871	-0,282	-0,134
66,261	36,176	-0,421	-0,261
67,276	-87,561	-0,332	-0,070
68,290	180,100	-0,324	-0,334
69,305	116,334	-0,183	-0,158
70,320	-106,084	-0,329	-0,051
71,334	12,663	-0,346	-0,188
72,349	1,255	-0,289	-0,145
73,363	-62,108	-0,357	-0,104
74,378	-19,765	-0,341	-0,148
75,393	23,889	-0,262	-0,152
76,407	-98,935	-0,371	-0,066
77,422	88,153	-0,234	-0,182
78,436	-94,674	-0,337	-0,064
79,451	46,766	-0,335	-0,218
80,466	26,535	-0,341	-0,200
81,480	-72,249	-0,377	-0,098
82,495	113,379	-0,341	-0,291
83,509	173,501	-0,230	-0,234
84,524	31,531	-0,293	-0,177
85,539	-40,656	-0,359	-0,130
86,553	-81,632	-0,273	-0,062
87,568	-68,191	-0,432	-0,117
88,582	50,363	-0,364	-0,241
89,597	600,004	-0,213	-0,373
90,611	41,257	-0,376	-0,239
91,626	-4,420	-0,270	-0,131
92,641	66,887	-0,177	-0,126
93,655	68,668	-0,271	-0,195
94,670	531,237	-0,110	-0,183
95,684	-20,527	-0,296	-0,127
96,699	129,333	-0,300	-0,269
97,714	502,795	-0,173	-0,282
98,728	-34,525	-0,191	-0,073
99,743	128,811	-0,230	-0,206
100,757	-4,577	-0,284	-0,137
101,772	41,103	-0,262	-0,166
102,787	45,365	-0,375	-0,243
103,801	38,620	-0,267	-0,167
104,816	170,958	-0,319	-0,321
105,830	119,721	-0,213	-0,185
106,845	-87,667	-0,313	-0,066
107,860	106,949	-0,268	-0,223
108,874	33,880	-0,314	-0,191
109,889	84,582	-0,339	-0,260
110,903	-23,253	-0,290	-0,122
111,918	71,780	-0,267	-0,194
112,933	-13,014	-0,274	-0,124
113,947	62,192	-0,305	-0,213
114,962	76,073	-0,265	-0,196
115,976	73,276	-0,306	-0,224
116,991	-1,120	-0,338	-0,167
118,006	339,287	-0,144	-0,197
119,020	22,970	-0,288	-0,165
120,035	-60,702	-0,232	-0,068
121,049	-3,146	-0,246	-0,120
122,064	131,221	-0,228	-0,205
123,079	-0,526	-0,246	-0,122
124,093	197,257	-0,241	-0,258
125,108	-128,732	-0,321	0,031
126,122	-21,650	-0,323	-0,137
127,137	169,693	-0,227	-0,227
128,151	178,815	-0,206	-0,211
129,166	-7,718	-0,309	-0,145
130,181	-98,944	-0,175	-0,031
131,195	79,995	-0,173	-0,130
132,210	-27,688	-0,355	-0,144
133,224	95,749	-0,167	-0,133
134,239	491,451	-0,128	-0,206
135,254	45,081	-0,322	-0,207
136,268	155,469	-0,137	-0,132
137,283	73,111	-0,085	-0,062
138,297	41,761	-0,316	-0,200
139,312	157,068	-0,107	-0,104
140,327	23,943	-0,323	-0,186
141,341	-147,680	-0,196	0,011
142,356	12,104	-0,207	-0,111
143,370	42,206	-0,375	-0,238
144,385	-22,081	-0,322	-0,136
145,400	220,095	-0,265	-0,297
146,414	203,625	-0,234	-0,253
147,429	-48,720	-0,202	-0,067
148,443	-135,270	-0,247	-0,020
149,458	158,416	-0,243	-0,236
150,473	337,041	-0,137	-0,187
151,487	-30,741	-0,235	-0,093
152,502	281,568	-0,268	-0,336
153,516	175,432	-0,207	-0,210
154,531	250,333	-0,296	-0,351
155,546	-57,938	-0,287	-0,087
156,560	648,264	-0,132	-0,237
157,575	-10,284	-0,297	-0,137
158,589	100,245	-0,259	-0,210
159,604	-13,354	-0,315	-0,142
160,619	54,425	-0,310	-0,208
161,633	72,651	-0,336	-0,244
162,648	422,349	-0,169	-0,255
163,662	800,000	0,040	-0,119
164,677	102,792	-0,200	-0,163
165,692	-51,707	-0,231	-0,075
166,706	88,055	-0,244	-0,189
167,721	4,071	-0,237	-0,121
168,735	-56,083	-0,260	-0,080
169,750	285,586	-0,137	-0,173
170,764	-77,266	-0,190	-0,046
171,779	-51,393	-0,202	-0,066
172,794	800,000	-0,079	-0,189
173,808	50,048	-0,215	-0,141
174,823	68,743	-0,322	-0,231
175,837	53,171	-0,285	-0,190
176,852	43,941	-0,226	-0,144
177,867	85,807	-0,223	-0,171
178,881	800,000	-0,126	-0,256
179,896	2,342	-0,175	-0,088
180,910	-110,088	-0,282	-0,041
181,925	171,478	-0,245	-0,246
182,940	277,487	-0,176	-0,219
183,954	800,000	-0,062	-0,155
184,969	216,482	-0,095	-0,106
185,983	-91,271	-0,229	-0,045
186,998	323,112	-0,148	-0,197
188,013	-18,975	-0,256	-0,111
189,027	35,708	-0,214	-0,131
190,042	91,937	-0,197	-0,154
191,056	477,370	-0,131	-0,207
192,071	25,034	-0,256	-0,147
193,086	-61,763	-0,057	-0,016
194,100	-27,427	-0,168	-0,068
195,115	178,479	-0,248	-0,252
196,129	18,618	-0,261	-0,145
197,144	244,345	-0,240	-0,281
198,159	79,352	-0,332	-0,248
199,173	185,353	-0,225	-0,233
200,188	317,648	-0,180	-0,238
201,202	154,650	-0,232	-0,222
202,217	616,282	-0,169	-0,295
203,232	184,818	-0,268	-0,276
204,246	36,431	-0,215	-0,132
205,261	13,308	-0,238	-0,128
206,275	156,210	-0,182	-0,175
207,290	472,076	-0,090	-0,142
208,304	100,416	-0,129	-0,104
209,319	264,002	-0,162	-0,196
210,334	62,174	-0,191	-0,132
211,348	130,077	-0,203	-0,181
212,363	489,723	-0,150	-0,239
213,377	180,202	-0,244	-0,249
214,392	111,610	-0,215	-0,180
215,407	-92,730	-0,148	0,029
216,421	187,479	-0,218	-0,226
217,436	211,546	-0,149	-0,164
218,450	232,710	-0,194	-0,221
219,465	327,034	-0,173	-0,231
220,480	74,038	-0,269	-0,196
221,494	64,514	-0,276	-0,193
222,509	-12,901	-0,210	-0,095
223,523	-139,896	-0,173	0,013
224,538	-9,941	-0,217	-0,100
225,553	800,000	-0,130	-0,256
226,567	722,458	-0,084	-0,156
227,582	99,749	-0,314	-0,253
228,596	157,984	-0,141	-0,136
229,611	33,057	-0,150	-0,090
230,626	124,944	-0,165	-0,144
231,640	135,858	-0,093	-0,084
232,655	79,718	-0,213	-0,159
233,669	253,714	-0,160	-0,191
234,684	245,783	-0,144	-0,168
235,699	249,094	-0,087	-0,102
236,713	191,052	-0,058	-0,061
237,728	153,929	-0,195	-0,186
238,742	78,253	-0,244	-0,180
239,757	42,050	-0,299	-0,188
240,772	173,562	-0,186	-0,186
241,786	29,298	-0,079	-0,047
242,801	-50,119	-0,197	-0,064
243,815	800,000	-0,080	-0,186
244,830	158,280	-0,192	-0,184
245,844	33,933	-0,136	-0,082
246,859	-10,134	-0,246	-0,113
247,874	146,633	-0,242	-0,225
248,888	-35,445	-0,277	-0,104
249,903	134,519	-0,221	-0,199
250,917	440,431	-0,080	-0,122
251,932	759,546	-0,044	-0,083
252,947	334,867	-0,155	-0,208
253,961	106,219	-0,225	-0,184
254,976	69,385	-0,174	-0,124
255,990	-19,541	-0,202	-0,086
257,005	-108,646	-0,251	-0,037
258,020	-68,492	-0,191	-0,051
259,034	30,611	-0,118	-0,070
260,049	209,462	-0,163	-0,177
261,063	-122,430	-0,277	0,031
262,078	-0,113	-0,234	-0,115
263,093	231,970	-0,102	-0,116
264,107	423,183	-0,125	-0,186
265,122	287,922	-0,180	-0,226
266,136	-158,150	-0,214	-0,009
267,151	-3,854	-0,155	-0,074
268,166	-48,741	-0,169	-0,056
269,180	800,000	-0,092	-0,190
270,195	98,619	-0,260	-0,207
271,209	173,038	-0,215	-0,214
272,224	-89,342	-0,185	-0,037
273,239	-112,585	-0,143	-0,020
274,253	8,514	-0,148	-0,077
275,268	-63,913	-0,318	-0,089
276,282	148,209	-0,214	-0,200
277,297	110,016	-0,203	-0,168
278,312	-164,724	-0,240	-0,007
279,326	-166,925	-0,066	-0,002
280,341	-122,106	-0,196	0,022
281,355	199,126	-0,125	-0,132
282,370	-86,652	-0,116	-0,024
283,384	355,670	-0,162	-0,224
284,399	-9,476	-0,294	-0,135
285,414	800,000	-0,052	-0,110
286,428	91,910	-0,191	-0,148
287,443	-0,659	-0,165	-0,080
288,457	104,895	-0,130	-0,106
289,472	-128,742	-0,191	-0,018
290,487	702,031	-0,091	-0,166
291,501	254,544	-0,107	-0,127
292,516	286,916	-0,147	-0,184
293,530	39,663	-0,192	-0,119
294,545	308,748	-0,055	-0,071
295,560	0,513	-0,093	0,046
296,574	-77,859	-0,141	0,033
297,589	-96,898	-0,054	-0,010
298,603	709,885	-0,069	-0,127
299,618	-146,348	-0,143	-0,009
300,633	-6,022	-0,100	-0,047
301,647	224,265	-0,120	-0,134
302,662	299,327	-0,149	-0,189
303,676	-38,209	-0,267	-0,097
304,691	108,989	-0,117	-0,097
305,706	209,717	-0,196	-0,212
306,720	222,589	-0,136	-0,151
307,735	387,554	-0,127	-0,181
308,749	-200,000	-0,020	-0,133
309,764	101,224	-0,208	-0,167
310,779	-82,780	-0,162	-0,036
311,793	348,927	-0,085	-0,116
312,808	140,581	-0,182	-0,166
313,822	-0,910	-0,219	-0,107
314,837	345,357	-0,112	-0,152
315,852	59,469	-0,122	-0,083
316,866	-200,000	-0,202	0,000
317,881	-31,304	-0,208	-0,080
318,895	-157,732	0,053	-0,002
319,910	800,000	-0,086	-0,193
320,925	108,961	-0,080	-0,066
321,939	-200,000	-0,009	-0,078
322,954	82,054	-0,058	-0,044
323,968	-200,000	-0,028	-0,112
324,983	445,230	-0,078	-0,119
325,997	-18,422	-0,202	-0,086
327,012	6,242	-0,068	-0,035
328,027	-84,306	-0,169	-0,036
329,041	800,000	-0,087	-0,234
330,056	22,995	-0,104	-0,058
331,070	-110,749	-0,224	0,031
332,085	-135,526	-0,114	-0,009
333,100	-37,754	-0,022	0,008
334,114	-44,850	-0,073	-0,025
335,129	231,775	-0,213	-0,241
336,143	182,270	-0,095	-0,096
337,158	272,729	0,021	0,025
338,173	-200,000	0,001	-0,074
339,187	8,101	-0,087	-0,045
340,202	-21,022	-0,067	-0,028
341,216	-2,042	-0,179	-0,086
342,231	629,970	-0,066	-0,116
343,246	-81,465	-0,147	-0,033
344,260	800,000	-0,037	-0,081
345,275	-95,745	-0,218	-0,040
346,289	721,534	-0,106	-0,195
347,304	-82,973	-0,078	0,017
348,319	-200,000	-0,020	-0,071
349,333	88,826	-0,248	-0,189
350,348	800,000	-0,029	-0,062
351,362	-16,954	-0,129	-0,056
352,377	172,608	-0,090	-0,089
353,392	75,755	-0,127	-0,092
354,406	-81,527	-0,194	-0,044
355,421	208,296	1313,700	1411,475
356,435	160,266	1474,325	1411,984
