DTS Sentinel unit serial number:	SN410029Multiplexer serial number:	ORYXHardware model number:	OX2-SRSoftware version number:	ORYX F/W v4,00 Oryx Data Collector v3.7.2.0data status	okinstallation	B3 Nyhavnadifferential loss correction	single-endedforward channel	channel 1reverse channel	N/Adate	2023/12/02time	12:32:30forward acquisition time	300,00reverse acquisition time	0,00gamma	499,1914k internal	0,3199k external	0,3199temperature offset calibration	1,0000default loss term (dB/km)	0,3820temperature slope calibration	1,0000multiplexer offset coefficient	1,0000multiplexer slope coefficient	1,0000fibre end	0,00T internal ref (°C)	14,07T ext. ref 1 (°C)	-0,47T ext. ref 2 (°C)	-0,47length (m)	temperature (°C)	Stokes	anti-Stokes-744,400	11,706	-0,224	-0,125
-743,385	-200,000	-0,033	0,279
-742,371	240,772	-0,222	-0,270
-741,356	800,000	0,125	0,288
-740,342	-72,348	-0,219	-0,059
-739,327	421,163	-0,154	0,241
-738,312	74,868	-0,193	-0,148
-737,298	-200,000	-0,033	0,295
-736,283	800,000	-0,079	-0,237
-735,269	800,000	0,098	0,279
-734,254	105,755	-0,152	-0,131
-733,239	-50,789	-0,289	0,098
-732,225	157,433	-0,168	-0,169
-731,210	800,000	0,043	0,114
-730,196	-145,252	-0,077	-0,005
-729,181	243,959	-0,107	0,131
-728,167	115,088	-0,074	0,066
-727,152	-106,543	0,050	0,008
-726,137	-20,275	-0,071	0,032
-725,123	657,985	-0,071	-0,134
-724,108	465,395	-0,080	-0,130
-723,094	-200,000	-0,040	-0,152
-722,079	-139,129	-0,150	-0,012
-721,064	368,966	0,007	0,011
-720,050	-200,000	-0,005	0,112
-719,035	800,000	0,061	-0,187
-718,021	40,991	-0,060	-0,039
-717,006	-95,136	-0,130	0,025
-715,991	-200,000	-0,003	0,027
-714,977	340,203	-0,047	-0,067
-713,962	55,275	-0,068	-0,048
-712,948	-200,000	0,022	-0,128
-711,933	28,789	-0,110	-0,068
-710,918	178,771	-0,098	0,104
-709,904	-96,450	-0,109	-0,021
-708,889	-66,366	-0,061	0,017
-707,875	106,896	-0,123	-0,106
-706,860	-139,036	-0,055	-0,004
-705,845	244,721	-0,042	0,052
-704,831	86,739	0,045	-0,036
-703,816	326,931	-0,042	-0,059
-702,802	-200,000	-0,008	-0,050
-701,787	295,544	0,031	-0,041
-700,772	-200,000	-0,006	0,071
-699,758	-200,000	0,009	0,073
-698,743	81,397	0,098	-0,077
-697,729	72,928	-0,033	-0,025
-696,714	262,561	0,067	-0,085
-695,699	-28,082	-0,101	-0,042
-694,685	-1,974	-0,146	0,074
-693,670	-200,000	0,036	-0,159
-692,656	-137,341	-0,066	0,005
-691,641	-200,000	-0,047	0,159
-690,627	229,427	-0,044	-0,052
-689,612	-112,513	-0,054	0,008
-688,597	-200,000	0,002	0,105
-687,583	-72,771	-0,148	-0,039
-686,568	91,143	0,053	0,043
-685,554	-200,000	-0,020	-0,088
-684,539	120,103	-0,017	-0,015
-683,524	-200,000	-0,004	0,020
-682,510	205,850	0,053	0,060
-681,495	283,298	-0,034	-0,045
-680,481	-200,000	-0,043	-0,209
-679,466	89,394	0,032	0,026
-678,451	276,770	-0,042	-0,055
-677,437	800,000	-0,043	-0,095
-676,422	-200,000	-0,010	-0,049
-675,408	-200,000	0,020	0,077
-674,393	-146,916	0,027	-0,002
-673,378	-200,000	-0,019	-0,158
-672,364	13,518	-0,082	0,046
-671,349	-200,000	0,003	-0,081
-670,335	712,097	-0,068	0,131
-669,320	-74,436	0,102	-0,026
-668,305	-200,000	-0,017	-0,073
-667,291	-68,951	-0,045	0,013
-666,276	365,316	-0,080	-0,118
-665,262	169,241	-0,067	-0,070
-664,247	-200,000	-0,033	-0,135
-663,232	-55,033	0,053	0,017
-662,218	-200,000	0,029	0,152
-661,203	-168,330	-0,080	-0,002
-660,189	-114,409	-0,087	0,012
-659,174	33,504	-0,084	0,053
-658,159	-71,571	-0,054	-0,015
-657,145	-108,092	-0,080	0,012
-656,130	-200,000	0,019	0,113
-655,116	348,826	0,028	-0,040
-654,101	800,000	-0,039	-0,125
-653,086	262,230	0,039	0,050
-652,072	800,000	-0,043	-0,125
-651,057	-150,246	0,105	0,006
-650,043	-200,000	0,002	-0,050
-649,028	122,104	-0,070	0,063
-648,014	800,000	-0,047	0,147
-646,999	800,000	0,032	0,078
-645,984	-113,680	-0,129	0,018
-644,970	-200,000	-0,010	0,039
-643,955	104,559	-0,028	0,024
-642,941	-200,000	0,033	-0,135
-641,926	19,684	0,101	-0,059
-640,911	77,997	-0,059	-0,046
-639,897	167,486	0,090	0,093
-638,882	800,000	0,029	-0,078
-637,868	527,985	0,055	0,094
-636,853	168,246	-0,029	-0,030
-635,838	93,608	-0,061	-0,050
-634,824	-105,150	-0,124	0,020
-633,809	800,000	0,017	0,052
-632,795	-142,580	0,092	0,006
-631,780	-200,000	-0,044	0,142
-630,765	800,000	0,070	0,149
-629,751	551,320	0,061	0,107
-628,736	-117,743	0,044	0,006
-627,722	107,293	-0,117	-0,101
-626,707	-60,188	0,093	-0,029
-625,692	160,332	0,065	0,066
-624,678	800,000	-0,015	0,031
-623,663	-31,926	-0,065	-0,026
-622,649	800,000	-0,050	-0,109
-621,634	436,454	-0,096	-0,152
-620,619	-200,000	0,001	-0,061
-619,605	-55,088	0,140	0,045
-618,590	454,394	0,020	0,032
-617,576	286,022	-0,020	-0,027
-616,561	800,000	0,017	0,043
-615,546	800,000	0,034	-0,097
-614,532	283,775	-0,107	-0,140
-613,517	-142,068	0,031	-0,002
-612,503	-138,200	-0,081	-0,006
-611,488	-200,000	0,001	-0,010
-610,474	27,768	0,070	-0,042
-609,459	-128,993	-0,079	0,008
-608,444	-27,740	-0,136	0,057
-607,430	69,187	0,121	-0,090
-606,415	36,803	0,036	-0,023
-605,401	502,336	-0,036	0,060
-604,386	-155,130	0,087	-0,004
-603,371	-25,404	0,102	-0,043
-602,357	-110,740	-0,106	-0,016
-601,342	-94,681	-0,137	-0,027
-600,328	253,221	-0,076	-0,094
-599,313	-21,432	-0,160	0,070
-598,298	800,000	-0,007	-0,014
-597,284	81,892	-0,077	0,061
-596,269	200,392	-0,120	0,134
-595,255	75,509	-0,102	-0,078
-594,240	323,693	-0,037	0,051
-593,225	-100,604	0,112	-0,020
-592,211	-200,000	-0,013	-0,099
-591,196	-3,827	0,084	-0,042
-590,182	54,473	0,135	0,094
-589,167	232,099	0,002	0,003
-588,152	-146,478	0,133	0,008
-587,138	34,356	-0,129	-0,081
-586,123	35,937	-0,138	-0,088
-585,109	-163,600	-0,046	-0,002
-584,094	-200,000	0,015	-0,071
-583,079	121,097	0,162	0,145
-582,065	-49,400	0,042	0,015
-581,050	235,799	-0,109	-0,130
-580,036	-33,673	-0,121	-0,048
-579,021	236,675	-0,099	-0,119
-578,006	401,125	-0,104	-0,159
-576,992	96,947	-0,079	-0,065
-575,977	-87,053	0,029	0,006
-574,963	-200,000	0,025	0,140
-573,948	-200,000	-0,015	0,072
-572,934	-81,830	0,078	-0,018
-571,919	-85,420	0,121	0,027
-570,904	-200,000	0,037	-0,140
-569,890	-200,000	0,033	-0,223
-568,875	291,678	-0,018	-0,024
-567,861	-120,873	-0,082	0,010
-566,846	403,630	-0,064	0,097
-565,831	-50,325	-0,139	0,047
-564,817	92,401	-0,024	0,019
-563,802	-66,560	0,021	-0,006
-562,788	11,668	-0,111	-0,061
-561,773	800,000	0,004	-0,009
-560,758	-200,000	-0,003	0,121
-559,744	13,942	0,204	0,115
-558,729	-136,698	-0,073	-0,006
-557,715	109,475	0,013	-0,011
-556,700	511,194	-0,049	-0,084
-555,685	238,197	-0,094	-0,112
-554,671	13,937	0,116	0,065
-553,656	-200,000	-0,003	-0,084
-552,642	-103,911	0,118	-0,020
-551,627	97,408	-0,052	0,043
-550,612	-137,341	-0,085	-0,007
-549,598	-72,775	-0,071	-0,019
-548,583	-64,188	-0,071	-0,021
-547,569	-29,397	0,093	0,038
-546,554	18,177	0,126	-0,072
-545,539	-164,672	-0,110	0,004
-544,525	200,855	-0,047	0,052
-543,510	-135,932	0,149	0,012
-542,496	-200,000	-0,004	-0,065
-541,481	-87,470	-0,015	-0,003
-540,466	800,000	0,021	0,064
-539,452	-82,942	-0,066	-0,015
-538,437	800,000	0,047	0,144
-537,423	393,498	-0,012	0,017
-536,408	240,995	-0,075	-0,090
-535,393	190,450	-0,088	-0,095
-534,379	134,383	0,059	-0,055
-533,364	624,045	-0,091	0,166
-532,350	-200,000	0,011	0,215
-531,335	573,433	0,047	0,084
-530,321	746,982	-0,028	-0,054
-529,306	247,063	-0,065	0,079
-528,291	-200,000	0,012	0,077
-527,277	108,454	-0,099	0,085
-526,262	800,000	0,023	0,066
-525,248	-81,481	0,180	0,042
-524,233	-34,572	0,095	-0,037
-523,218	-122,508	0,151	0,017
-522,204	800,000	-0,018	0,051
-521,189	-200,000	0,007	-0,050
-520,175	-167,206	-0,082	0,002
-519,160	93,128	0,060	-0,049
-518,145	348,106	-0,089	0,127
-517,131	69,704	-0,034	-0,025
-516,116	-200,000	0,006	-0,041
-515,102	-200,000	-0,001	0,006
-514,087	-200,000	0,012	-0,054
-513,072	-200,000	0,006	0,064
-512,058	110,886	0,041	-0,036
-511,043	-120,715	0,126	0,015
-510,029	353,054	0,058	-0,083
-509,014	-25,833	0,041	-0,017
-507,999	712,901	-0,054	0,104
-506,985	406,975	0,013	0,020
-505,970	118,977	0,013	0,012
-504,956	-55,922	-0,071	0,023
-503,941	291,421	0,032	0,043
-502,926	196,186	0,059	0,065
-501,912	-94,839	-0,013	0,003
-500,897	87,530	0,098	-0,078
-499,883	-200,000	0,012	-0,096
-498,868	-200,000	0,007	-0,130
-497,853	116,396	-0,041	0,036
-496,839	800,000	0,029	0,059
-495,824	182,237	0,076	0,081
-494,810	243,783	0,038	0,046
-493,795	-135,627	-0,048	0,004
-492,781	2,289	-0,063	0,033
-491,766	17,405	-0,087	-0,050
-490,751	701,329	0,078	-0,149
-489,737	-61,903	-0,062	0,019
-488,722	538,789	-0,030	-0,052
-487,708	-49,992	-0,078	0,026
-486,693	783,846	-0,050	0,099
-485,678	-200,000	0,024	0,092
-484,664	295,324	-0,142	-0,188
-483,649	244,528	0,005	0,006
-482,635	28,723	0,166	0,101
-481,620	-75,814	-0,057	-0,014
-480,605	3,219	0,078	-0,041
-479,591	800,000	-0,010	-0,024
-478,576	-49,192	0,079	-0,027
-477,562	800,000	0,022	-0,054
-476,547	19,291	-0,122	-0,071
-475,532	-200,000	-0,003	-0,164
-474,518	3,602	0,104	0,055
-473,503	-68,552	0,058	0,016
-472,489	800,000	-0,022	0,050
-471,474	722,229	-0,069	0,133
-470,459	-46,842	0,092	0,032
-469,445	800,000	-0,070	-0,150
-468,430	-8,126	0,046	0,022
-467,416	-200,000	0,027	-0,093
-466,401	-200,000	0,011	0,062
-465,386	87,425	0,047	0,037
-464,372	-200,000	0,008	-0,101
-463,357	-185,689	0,150	0,002
-462,343	-125,199	-0,081	-0,009
-461,328	800,000	-0,053	-0,112
-460,313	-66,371	0,091	0,026
-459,299	176,587	0,085	-0,089
-458,284	-105,629	0,023	0,004
-457,270	104,605	-0,041	-0,035
-456,255	-74,566	-0,108	-0,028
-455,241	800,000	0,043	-0,100
-454,226	800,000	-0,003	-0,009
-453,211	-121,858	-0,097	0,011
-452,197	-200,000	0,015	0,104
-451,182	114,857	-0,108	0,095
-450,168	17,659	-0,200	0,114
-449,153	464,297	-0,064	0,103
-448,138	147,820	0,092	-0,089
-447,124	571,342	0,068	-0,119
-446,109	173,376	-0,019	-0,020
-445,095	800,000	0,041	-0,116
-444,080	215,630	-0,038	-0,044
-443,065	640,356	-0,071	-0,130
-442,051	232,620	0,005	0,006
-441,036	77,405	0,022	-0,017
-440,022	-15,101	-0,060	-0,028
-439,007	800,000	0,049	-0,154
-437,992	-9,054	-0,067	0,032
-436,978	67,681	-0,044	-0,032
-435,963	590,536	0,038	0,068
-434,949	237,288	0,069	0,082
-433,934	35,969	-0,117	-0,074
-432,919	-80,068	-0,153	-0,037
-431,905	-200,000	0,010	0,116
-430,890	800,000	0,009	-0,025
-429,876	205,950	-0,039	-0,043
-428,861	-87,126	0,150	-0,032
-427,846	351,719	-0,022	0,031
-426,832	-4,196	-0,060	-0,030
-425,817	28,286	-0,087	0,052
-424,803	800,000	-0,002	0,004
-423,788	31,002	0,115	0,070
-422,773	-74,228	0,113	0,029
-421,759	49,292	-0,076	-0,051
-420,744	512,684	-0,031	0,052
-419,730	108,312	-0,088	0,075
-418,715	109,920	-0,079	0,068
-417,701	-200,000	0,001	0,024
-416,686	-117,914	0,025	0,003
-415,671	165,481	-0,070	-0,072
-414,657	71,069	0,113	0,084
-413,642	531,946	-0,075	0,128
-412,628	-104,904	-0,064	0,010
-411,613	800,000	0,024	-0,073
-410,598	-94,952	-0,124	-0,024
-409,584	431,585	0,071	-0,111
-408,569	-200,000	0,010	-0,065
-407,555	233,277	0,051	0,060
-406,540	147,165	0,060	0,058
-405,525	74,965	-0,059	0,044
-404,511	152,126	-0,048	-0,048
-403,496	262,751	0,029	-0,036
-402,482	195,117	0,116	0,127
-401,467	-139,054	0,132	-0,010
-400,452	29,397	0,139	0,085
-399,438	548,740	-0,072	-0,124
-398,423	800,000	0,013	0,032
-397,409	700,776	-0,005	-0,010
-396,394	-200,000	0,012	-0,050
-395,379	-159,355	-0,031	-0,001
-394,365	266,476	-0,039	0,049
-393,350	800,000	-0,040	-0,093
-392,336	-200,000	-0,018	0,127
-391,321	-90,066	0,065	-0,014
-390,306	-200,000	0,038	0,189
-389,292	504,183	0,025	0,042
-388,277	582,962	-0,029	-0,052
-387,263	-48,442	-0,072	-0,025
-386,248	-200,000	-0,001	-0,019
-385,233	305,087	-0,088	0,117
-384,219	-91,169	0,078	0,016
-383,204	-71,273	0,081	-0,022
-382,190	275,336	-0,070	0,089
-381,175	800,000	-0,054	-0,147
-380,160	-90,104	0,068	-0,014
-379,146	584,209	-0,038	0,067
-378,131	584,374	0,013	0,023
-377,117	189,882	-0,069	0,075
-376,102	212,429	-0,037	0,042
-375,088	101,160	0,026	-0,022
-374,073	68,982	-0,163	0,120
-373,058	94,115	0,096	0,078
-372,044	-173,775	0,040	0,001
-371,029	441,183	0,066	0,104
-370,015	-200,000	-0,001	0,088
-369,000	-200,000	-0,015	-0,084
-367,985	-37,331	0,122	-0,047
-366,971	181,219	-0,101	-0,107
-365,956	191,450	0,115	-0,124
-364,942	800,000	0,029	0,076
-363,927	800,000	-0,032	0,083
-362,912	-200,000	-0,009	-0,052
-361,898	187,044	0,041	-0,044
-360,883	800,000	-0,025	-0,078
-359,869	800,000	-0,019	-0,057
-358,854	267,570	0,130	0,164
-357,839	694,017	-0,039	0,073
-356,825	-64,099	0,137	-0,040
-355,810	55,221	0,106	0,074
-354,796	-128,917	-0,082	-0,008
-353,781	-19,079	0,100	-0,044
-352,766	-173,604	-0,091	0,002
-351,752	-169,614	0,078	-0,002
-350,737	-200,000	-0,023	0,103
-349,723	-200,000	-0,018	0,069
-348,708	-200,000	-0,016	0,088
-347,693	-200,000	-0,009	0,032
-346,679	51,135	-0,078	-0,053
-345,664	-65,053	-0,096	-0,028
-344,650	-138,577	0,083	0,006
-343,635	-134,453	0,199	-0,017
-342,620	-200,000	0,021	-0,087
-341,606	-13,667	0,106	0,049
-340,591	800,000	0,028	0,064
-339,577	-137,578	-0,112	0,009
-338,562	12,683	-0,113	-0,062
-337,548	343,435	0,087	-0,122
-336,533	101,941	-0,078	-0,065
-335,518	157,203	0,045	-0,044
-334,504	-200,000	0,045	0,149
-333,489	-200,000	0,006	-0,057
-332,475	-35,162	-0,031	0,012
-331,460	-6,357	-0,059	-0,029
-330,445	130,214	-0,038	0,035
-329,431	708,820	0,028	-0,053
-328,416	-200,000	-0,026	0,122
-327,402	-78,914	0,025	-0,006
-326,387	59,483	0,105	-0,074
-325,372	276,198	0,037	-0,047
-324,358	60,871	0,083	0,059
-323,343	800,000	-0,077	0,156
-322,329	614,080	-0,006	0,010
-321,314	-64,423	0,124	-0,036
-320,299	155,307	0,016	-0,016
-319,285	800,000	0,036	-0,104
-318,270	-41,394	-0,051	-0,019
-317,256	-200,000	0,007	-0,096
-316,241	800,000	0,003	-0,008
-315,226	-200,000	0,010	-0,067
-314,212	-200,000	0,015	0,133
-313,197	-96,256	0,039	0,007
-312,183	-97,485	-0,027	0,005
-311,168	-49,479	-0,061	0,021
-310,153	-44,946	0,118	0,042
-309,139	-200,000	0,012	-0,038
-308,124	800,000	-0,027	-0,060
-307,110	-200,000	0,010	0,118
-306,095	800,000	0,034	-0,097
-305,080	166,377	0,026	-0,026
-304,066	414,465	0,039	-0,059
-303,051	-128,243	-0,074	-0,007
-302,037	800,000	-0,015	-0,036
-301,022	164,053	0,114	0,115
-300,008	-8,739	0,141	0,067
-298,993	-200,000	0,025	-0,144
-297,978	800,000	-0,031	-0,074
-296,964	31,911	0,035	-0,022
-295,949	-11,277	-0,087	0,041
-294,935	567,623	-0,045	-0,079
-293,920	552,994	0,008	-0,015
-292,905	149,595	0,061	0,059
-291,891	106,347	0,080	0,068
-290,876	-200,000	0,010	-0,040
-289,862	-125,513	0,077	-0,008
-288,847	3,007	0,018	-0,009
-287,832	170,742	-0,059	-0,061
-286,818	-164,708	0,098	0,003
-285,803	67,052	0,028	0,020
-284,789	-86,833	-0,100	-0,022
-283,774	85,704	0,098	0,077
-282,759	493,310	0,052	0,085
-281,745	800,000	-0,023	-0,048
-280,730	90,393	0,048	0,038
-279,716	-200,000	-0,002	0,024
-278,701	5,815	0,155	-0,082
-277,686	676,774	-0,055	-0,103
-276,672	-200,000	-0,031	0,117
-275,657	55,164	0,101	0,070
-274,643	-200,000	-0,026	0,130
-273,628	-114,440	-0,055	0,008
-272,613	172,769	0,038	-0,039
-271,599	-200,000	-0,001	0,093
-270,584	522,227	0,063	0,106
-269,570	442,312	0,008	0,012
-268,555	48,380	0,073	-0,049
-267,540	-200,000	0,022	0,086
-266,526	49,543	-0,155	-0,104
-265,511	163,336	0,041	-0,042
-264,497	-58,299	-0,043	-0,013
-263,482	-61,883	0,032	0,010
-262,467	130,733	0,137	0,126
-261,453	-8,283	0,085	0,041
-260,438	-200,000	0,011	-0,048
-259,424	110,924	0,061	0,052
-258,409	800,000	-0,099	0,212
-257,395	-139,798	-0,086	-0,006
-256,380	-44,827	0,030	-0,011
-255,365	97,017	0,034	-0,028
-254,351	-200,000	0,028	-0,109
-253,336	243,824	0,011	-0,013
-252,322	-200,000	-0,015	-0,107
-251,307	396,656	-0,053	-0,079
-250,292	93,186	-0,067	-0,054
-249,278	189,723	0,099	0,106
-248,263	-200,000	-0,001	0,055
-247,249	84,049	-0,078	0,061
-246,234	-103,989	-0,125	-0,021
-245,219	-1,738	-0,285	0,143
-244,205	800,000	-0,035	-0,093
-243,190	-85,301	-0,046	-0,010
-242,176	321,519	-0,058	-0,079
-241,161	27,508	-0,075	-0,045
-240,146	-200,000	0,002	0,008
-239,132	48,652	-0,031	-0,020
-238,117	800,000	-0,022	-0,045
-237,103	-200,000	-0,026	-0,152
-236,088	800,000	-0,037	0,087
-235,073	-200,000	0,007	0,121
-234,059	-200,000	-0,023	0,086
-233,044	-91,375	-0,054	-0,011
-232,030	360,633	-0,030	0,043
-231,015	-200,000	-0,004	-0,018
-230,000	-200,000	-0,008	0,098
-228,986	-200,000	0,009	0,072
-227,971	35,639	0,088	-0,055
-226,957	-81,624	0,084	0,020
-225,942	800,000	0,037	0,090
-224,927	800,000	0,017	0,036
-223,913	705,400	-0,036	-0,069
-222,898	608,158	-0,010	-0,018
-221,884	290,250	-0,069	-0,089
-220,869	195,237	-0,018	0,020
-219,855	55,226	-0,010	-0,007
-218,840	-17,509	-0,109	0,049
-217,825	-200,000	-0,002	0,100
-216,811	-200,000	-0,012	-0,074
-215,796	-105,202	-0,072	0,012
-214,782	-200,000	0,032	-0,189
-213,767	-89,983	-0,108	0,022
-212,752	557,842	0,042	0,072
-211,738	-200,000	0,003	0,078
-210,723	-200,000	0,005	-0,055
-209,709	-75,835	-0,162	-0,041
-208,694	800,000	-0,046	0,130
-207,679	-78,468	0,053	0,013
-206,665	-9,670	0,119	0,056
-205,650	-31,782	-0,214	0,085
-204,636	-113,905	0,127	-0,017
-203,621	-81,473	0,043	0,010
-202,606	-200,000	0,031	-0,168
-201,592	132,297	-0,095	-0,087
-200,577	-200,000	-0,025	-0,092
-199,563	-142,643	-0,001	0,000
-198,548	383,080	-0,029	-0,042
-197,533	-200,000	-0,020	0,096
-196,519	800,000	0,019	0,059
-195,504	800,000	0,045	-0,089
-194,490	-103,769	-0,044	0,007
-193,475	40,746	0,063	0,041
-192,460	51,107	0,124	-0,084
-191,446	74,031	0,092	-0,069
-190,431	190,253	0,065	-0,070
-189,417	487,665	-0,066	-0,108
-188,402	151,074	-0,043	-0,042
-187,387	351,908	0,056	-0,080
-186,373	167,606	-0,172	-0,174
-185,358	54,648	-0,043	-0,030
-184,344	800,000	-0,034	-0,101
-183,329	800,000	0,014	-0,042
-182,315	-161,216	0,019	-0,001
-181,300	70,712	0,037	-0,028
-180,285	77,662	-0,042	-0,032
-179,271	-200,000	-0,001	-0,113
-178,256	-63,180	0,092	0,027
-177,242	800,000	-0,022	-0,056
-176,227	-200,000	0,006	0,091
-175,212	15,075	0,084	-0,046
-174,198	-200,000	0,004	0,025
-173,183	-94,394	-0,088	-0,017
-172,169	-40,927	0,125	-0,046
-171,154	97,074	-0,045	-0,037
-170,139	156,105	0,109	-0,107
-169,125	-159,717	-0,086	0,003
-168,110	98,836	0,083	0,068
-167,096	-168,235	0,134	-0,004
-166,081	-46,407	-0,065	-0,023
-165,066	800,000	0,010	-0,026
-164,052	-200,000	0,008	-0,127
-163,037	-200,000	-0,020	0,098
-162,023	-83,780	0,041	0,009
-161,008	-71,853	0,127	-0,033
-159,993	-111,743	0,131	-0,019
-158,979	-67,873	-0,095	0,026
-157,964	495,765	-0,089	0,146
-156,950	124,327	-0,087	0,078
-155,935	-200,000	-0,028	0,138
-154,920	38,750	0,120	-0,076
-153,906	-200,000	-0,025	0,142
-152,891	800,000	0,084	0,210
-151,877	-200,000	0,049	0,161
-150,862	749,380	-0,031	-0,060
-149,847	128,086	-0,117	0,106
-148,833	-200,000	0,018	-0,066
-147,818	-200,000	0,020	0,069
-146,804	-59,265	0,150	-0,045
-145,789	-183,750	0,031	-0,000
-144,775	-136,324	0,065	-0,005
-143,760	437,083	-0,031	-0,048
-142,745	620,283	0,055	-0,099
-141,731	-47,372	0,055	0,019
-140,716	-200,000	-0,027	0,187
-139,702	-200,000	0,023	-0,103
-138,687	643,817	0,053	0,097
-137,672	-86,070	-0,079	-0,017
-136,658	-200,000	-0,025	-0,100
-135,643	-45,073	-0,078	-0,027
-134,629	800,000	0,066	-0,157
-133,614	2,567	0,081	0,041
-132,599	800,000	-0,030	-0,061
-131,585	-200,000	-0,003	0,058
-130,570	-71,168	-0,080	0,021
-129,556	4,562	-0,018	0,009
-128,541	-200,000	0,016	-0,134
-127,526	-200,000	-0,008	-0,047
-126,512	34,393	-0,048	-0,029
-125,497	-33,386	0,210	0,082
-124,483	-85,184	0,069	0,015
-123,468	28,243	-0,008	0,005
-122,453	800,000	0,032	-0,082
-121,439	-200,000	-0,004	-0,018
-120,424	-98,422	-0,214	-0,038
-119,410	-200,000	0,023	0,175
-118,395	-76,558	0,038	-0,009
-117,380	-11,635	-0,069	-0,032
-116,366	800,000	-0,087	-0,189
-115,351	800,000	0,066	-0,181
-114,337	-200,000	0,006	-0,116
-113,322	-44,012	-0,219	0,078
-112,307	194,104	-0,069	0,075
-111,293	15,157	0,059	-0,033
-110,278	800,000	-0,011	0,024
-109,264	800,000	-0,055	-0,111
-108,249	-126,569	-0,124	0,013
-107,234	800,000	-0,029	-0,071
-106,220	800,000	-0,020	0,046
-105,205	23,364	0,069	-0,040
-104,191	-48,545	0,105	0,036
-103,176	-92,290	0,069	0,014
-102,162	-79,410	-0,227	-0,054
-101,147	-48,714	0,024	-0,008
-100,132	129,596	-0,066	0,060
-99,118	380,317	0,040	-0,058
-98,103	52,324	-0,054	-0,036
-97,089	-33,280	0,070	-0,027
-96,074	-54,417	0,053	0,017
-95,059	800,000	0,026	0,074
-94,045	-136,313	-0,056	-0,005
-93,030	-7,951	0,095	-0,045
-92,016	113,268	0,069	-0,060
-91,001	800,000	-0,020	0,053
-89,986	-28,334	0,039	-0,016
-88,972	31,517	0,030	0,018
-87,957	-200,000	-0,015	0,085
-86,943	221,254	-0,067	-0,077
-85,928	599,676	-0,051	0,091
-84,913	9,192	-0,058	-0,031
-83,899	-200,000	-0,012	-0,101
-82,884	102,513	0,061	-0,050
-81,870	-200,000	0,007	0,079
-80,855	-200,000	0,012	-0,058
-79,840	342,080	0,076	0,106
-78,826	800,000	-0,040	-0,081
-77,811	455,349	-0,089	-0,140
-76,797	-200,000	0,012	-0,086
-75,782	-200,000	-0,004	-0,047
-74,767	-200,000	0,009	-0,044
-73,753	-200,000	0,002	0,011
-72,738	197,445	0,044	-0,047
-71,724	800,000	0,010	0,028
-70,709	-49,963	0,096	-0,032
-69,694	144,919	-0,033	-0,031
-68,680	-200,000	-0,007	-0,035
-67,665	-200,000	-0,016	-0,117
-66,651	800,000	0,024	0,068
-65,636	264,853	0,137	-0,169
-64,622	-200,000	0,000	-0,017
-63,607	-177,022	-0,072	0,001
-62,592	800,000	-0,005	0,013
-61,578	-200,000	-0,014	0,071
-60,563	470,689	0,074	0,118
-59,549	-200,000	-0,003	0,073
-58,534	-25,105	-1,542	-0,645
-57,519	306,059	-1,502	-1,985
-56,505	-200,000	-0,583	-4,518
-55,490	157,230	1,039	1,019
-54,476	800,000	4,773	11,470
-53,461	-200,000	18,869	303,830
-52,446	800,000	736,755	2292,107
-51,432	567,797	1652,822	2855,249
-50,417	78,861	1669,516	1264,480
-49,403	22,045	1542,126	888,968
-48,388	15,972	1464,771	814,876
-47,373	17,778	1454,971	818,115
-46,359	16,942	1444,999	808,471
-45,344	14,204	1440,521	792,823
-44,330	14,081	1438,661	791,179
-43,315	14,109	1436,912	790,324
-42,300	14,157	1435,129	789,538
-41,286	14,183	1433,987	789,005
-40,271	14,137	1432,851	788,127
-39,257	14,153	1431,464	787,410
-38,242	14,190	1430,074	786,789
-37,227	14,182	1429,047	786,155
-36,213	14,197	1427,452	785,320
-35,198	14,154	1426,520	784,571
-34,184	14,203	1425,552	784,237
-33,169	14,199	1424,114	783,399
-32,154	14,206	1422,886	782,722
-31,140	14,160	1421,827	781,891
-30,125	14,193	1420,765	781,435
-29,111	14,194	1419,788	780,872
-28,096	14,178	1418,512	780,062
-27,082	14,094	1417,514	779,087
-26,067	14,137	1416,337	778,610
-25,052	14,085	1415,334	777,783
-24,038	14,040	1414,507	777,088
-23,023	14,077	1413,384	776,612
-22,009	14,060	1412,294	775,906
-20,994	14,094	1411,437	775,562
-19,979	14,085	1410,534	774,993
-18,965	14,016	1409,691	774,175
-17,950	14,068	1408,362	773,659
-16,936	14,071	1407,684	773,269
-15,921	14,003	1406,729	772,394
-14,906	14,017	1405,684	771,856
-13,892	14,022	1404,654	771,282
-12,877	14,018	1403,942	770,845
-11,863	13,993	1402,978	770,166
-10,848	13,992	1402,122	769,663
-9,833	13,984	1401,200	769,088
-8,819	13,889	1400,454	768,208
-7,804	13,933	1399,405	767,803
-6,790	13,876	1398,511	767,020
-5,775	13,923	1397,356	766,575
-4,760	13,907	1396,499	765,997
-3,746	13,926	1395,514	765,514
-2,731	13,891	1394,466	764,748
-1,717	13,910	1393,836	764,462
-0,702	13,929	1392,027	763,525
0,313	17,702	1310,591	736,371
1,327	34,092	706,130	434,746
2,342	52,093	124,247	83,686
3,356	3,139	16,673	8,555
4,371	6,158	3,251	1,701
5,386	16,943	0,538	0,301
6,400	680,926	-0,070	0,130
7,415	-11,755	-0,418	-0,194
8,429	155,769	-0,290	-0,283
9,444	80,256	-0,345	-0,262
10,459	-22,892	-0,259	-0,110
11,473	18,400	-0,347	-0,196
12,488	36,025	-0,272	-0,169
13,502	210,332	-0,206	-0,229
14,517	121,981	-0,336	-0,297
15,531	68,050	-0,397	-0,287
16,546	174,443	-0,276	-0,282
17,561	234,051	-0,318	-0,371
18,575	38,432	-0,144	-0,091
19,590	119,994	-0,258	-0,226
20,604	-54,469	-0,325	-0,103
21,619	33,633	-0,475	-0,291
22,634	86,278	-0,475	-0,370
23,648	342,480	-0,282	-0,390
24,663	80,547	-0,417	-0,317
25,677	189,832	-0,364	-0,387
26,692	46,050	-0,340	-0,222
27,707	235,219	-0,285	-0,333
28,721	56,879	-0,314	-0,216
29,736	132,874	-0,345	-0,314
30,750	188,643	-0,303	-0,320
31,765	143,158	-0,467	-0,439
32,780	468,305	-0,269	-0,428
33,794	-1,893	-0,279	-0,138
34,809	53,227	-0,314	-0,212
35,823	87,666	-0,369	-0,288
36,838	111,478	-0,356	-0,303
37,853	279,247	-0,323	-0,408
38,867	157,203	-0,369	-0,360
39,882	166,246	-0,247	-0,247
40,896	351,873	-0,263	-0,368
41,911	54,899	-0,302	-0,206
42,926	1,539	-0,322	-0,163
43,940	10,138	-0,330	-0,176
44,955	611,375	-0,302	-0,534
45,969	142,244	-0,371	-0,347
46,984	1,980	-0,365	-0,185
47,999	-18,430	-0,245	-0,108
49,013	454,581	-0,207	-0,324
50,028	68,056	-0,320	-0,231
51,042	28,949	-0,478	-0,285
52,057	-69,630	-0,430	-0,115
53,071	-3,629	-0,388	-0,189
54,086	53,597	-0,358	-0,242
55,101	255,810	-0,333	-0,403
56,115	126,435	-0,326	-0,291
57,130	114,185	-0,412	-0,353
58,144	48,217	-0,373	-0,246
59,159	43,453	-0,385	-0,248
60,174	159,319	-0,377	-0,370
61,188	31,669	-0,356	-0,215
62,203	144,289	-0,372	-0,349
63,217	3,037	-0,310	-0,158
64,232	373,808	-0,198	-0,284
65,247	204,735	-0,333	-0,364
66,261	183,978	-0,383	-0,400
67,276	-57,810	-0,456	-0,140
68,290	-136,133	-0,282	-0,023
69,305	59,102	-0,466	-0,322
70,320	-5,537	-0,218	-0,105
71,334	29,322	-0,349	-0,208
72,349	700,272	-0,154	-0,286
73,363	32,129	-0,371	-0,225
74,378	474,418	-0,222	-0,354
75,393	186,977	-0,320	-0,336
76,407	-43,201	-0,347	-0,123
77,422	80,462	-0,265	-0,200
78,436	-124,842	-0,180	-0,019
79,451	130,842	-0,309	-0,279
80,466	63,982	-0,376	-0,265
81,480	533,819	-0,260	-0,434
82,495	109,854	-0,379	-0,319
83,509	170,609	-0,237	-0,239
84,524	17,466	-0,332	-0,185
85,539	101,584	-0,282	-0,231
86,553	143,749	-0,304	-0,285
87,568	-34,406	-0,266	-0,102
88,582	91,437	-0,300	-0,237
89,597	52,067	-0,265	-0,177
90,611	35,655	-0,283	-0,174
91,626	21,748	-0,322	-0,184
92,641	144,119	-0,344	-0,322
93,655	35,392	-0,354	-0,218
94,670	488,970	-0,212	-0,341
95,684	-14,955	-0,218	-0,098
96,699	35,780	-0,178	-0,110
97,714	227,494	-0,183	-0,210
98,728	-25,449	-0,308	-0,127
99,743	-10,136	-0,140	-0,065
100,757	-71,013	-0,343	-0,090
101,772	42,151	-0,363	-0,231
102,787	72,107	-0,329	-0,240
103,801	126,144	-0,204	-0,181
104,816	15,013	-0,276	-0,151
105,830	-17,284	-0,334	-0,147
106,845	-78,455	-0,240	-0,057
107,860	-39,310	-0,374	-0,137
108,874	347,918	-0,186	-0,258
109,889	-21,306	-0,345	-0,147
110,903	23,483	-0,225	-0,129
111,918	128,413	-0,288	-0,258
112,933	11,621	-0,286	-0,153
113,947	-42,199	-0,170	-0,061
114,962	-22,077	-0,259	-0,110
115,976	9,159	-0,255	-0,134
116,991	88,396	-0,288	-0,224
118,006	-79,261	-0,284	-0,067
119,020	402,296	-0,112	-0,165
120,035	-2,304	-0,274	-0,134
121,049	99,735	-0,175	-0,142
122,064	800,000	-0,122	-0,287
123,079	-28,227	-0,256	-0,103
124,093	450,258	-0,235	-0,364
125,108	18,886	-0,376	-0,211
126,122	127,487	-0,265	-0,235
127,137	72,896	-0,228	-0,167
128,151	184,551	-0,185	-0,192
129,166	-10,113	-0,173	-0,080
130,181	288,442	-0,230	-0,292
131,195	51,314	-0,202	-0,134
132,210	156,850	-0,390	-0,377
133,224	426,805	-0,167	-0,252
134,239	264,731	-0,194	-0,236
135,254	88,522	-0,188	-0,146
136,268	62,454	-0,334	-0,233
137,283	406,364	-0,137	-0,204
138,297	-3,489	-0,257	-0,125
139,312	17,716	-0,290	-0,161
140,327	299,836	-0,243	-0,314
141,341	195,621	-0,247	-0,262
142,356	-110,611	-0,207	-0,030
143,370	720,122	-0,153	-0,286
144,385	-2,876	-0,280	-0,136
145,400	83,970	-0,299	-0,228
146,414	239,497	-0,231	-0,269
147,429	44,802	-0,265	-0,170
148,443	161,402	-0,235	-0,230
149,458	-10,517	-0,239	-0,110
150,473	28,619	-0,122	-0,072
151,487	0,294	-0,335	-0,166
152,502	94,527	-0,341	-0,270
153,516	-17,271	-0,357	-0,157
154,531	201,629	-0,224	-0,242
155,546	128,805	-0,208	-0,185
156,560	-88,635	-0,235	-0,048
157,575	-33,961	-0,301	-0,115
158,589	-134,998	-0,350	-0,029
159,604	85,430	-0,306	-0,234
160,619	-28,205	-0,211	-0,085
161,633	400,777	-0,181	-0,265
162,648	214,335	-0,159	-0,176
163,662	35,370	-0,214	-0,131
164,677	-15,081	-0,243	-0,108
165,692	366,381	-0,133	-0,188
166,706	71,325	-0,269	-0,194
167,721	251,915	-0,158	-0,189
168,735	84,487	-0,300	-0,229
169,750	-12,493	-0,251	-0,114
170,764	128,242	-0,179	-0,159
171,779	-132,961	-0,261	-0,023
172,794	110,383	-0,310	-0,260
173,808	-93,274	-0,258	-0,050
174,823	-43,027	-0,302	-0,106
175,837	276,668	-0,139	-0,173
176,852	288,485	-0,198	-0,250
177,867	32,338	-0,186	-0,112
178,881	-15,893	-0,164	-0,072
179,896	-83,621	-0,311	-0,069
180,910	332,904	-0,172	-0,232
181,925	-25,347	-0,330	-0,135
182,940	104,553	-0,294	-0,241
183,954	338,455	-0,186	-0,253
184,969	287,497	-0,224	-0,283
185,983	-10,329	-0,216	-0,100
186,998	-137,240	-0,217	0,017
188,013	-71,394	-0,163	-0,042
189,027	34,186	-0,311	-0,188
190,042	32,316	-0,259	-0,155
191,056	266,328	-0,208	-0,253
192,071	130,732	-0,246	-0,219
193,086	-123,459	-0,226	-0,025
194,100	-62,493	-0,218	-0,063
195,115	385,728	-0,178	-0,256
196,129	57,142	-0,222	-0,150
197,144	-72,902	-0,282	-0,072
198,159	47,892	-0,385	-0,250
199,173	26,709	-0,152	-0,088
200,188	800,000	-0,101	-0,255
201,202	53,752	-0,227	-0,152
202,217	22,974	-0,144	-0,082
203,232	-81,086	-0,260	-0,059
204,246	93,496	-0,264	-0,208
205,261	154,474	-0,174	-0,166
206,275	70,652	-0,091	-0,065
207,290	-19,138	-0,248	-0,107
208,304	-200,000	-0,044	-0,146
209,319	194,878	-0,189	-0,200
210,334	173,948	-0,164	-0,165
211,348	84,646	-0,196	-0,149
212,363	477,411	-0,075	-0,118
213,377	-37,974	-0,220	-0,081
214,392	-200,000	-0,008	-0,075
215,407	765,266	-0,126	-0,238
216,421	-200,000	-0,054	0,000
217,436	58,783	-0,203	-0,138
218,450	-52,798	-0,209	-0,067
219,465	89,874	-0,173	-0,134
220,480	-47,216	-0,166	-0,056
221,494	538,307	-0,146	-0,242
222,509	-41,381	-0,091	-0,032
223,523	267,968	-0,215	-0,261
224,538	74,295	-0,304	-0,222
225,553	27,358	-0,223	-0,130
226,567	326,256	-0,151	-0,201
227,582	96,266	-0,199	-0,158
228,596	151,736	-0,096	-0,091
229,611	16,031	-0,133	-0,072
230,626	6,779	-0,175	-0,090
231,640	407,842	-0,145	-0,214
232,655	-0,087	-0,198	-0,097
233,669	88,658	-0,171	-0,132
234,684	78,464	-0,200	-0,148
235,699	144,054	-0,212	-0,196
236,713	307,058	-0,155	-0,200
237,728	28,801	-0,187	-0,110
238,742	81,363	-0,185	-0,138
239,757	-64,347	-0,158	-0,044
240,772	-73,113	-0,261	0,066
241,786	66,242	-0,251	-0,177
242,801	-79,964	-0,190	-0,044
243,815	800,000	-0,048	-0,122
244,830	-88,322	-0,213	-0,044
245,844	14,617	-0,025	-0,014
246,859	-44,668	-0,221	-0,076
247,874	452,371	-0,166	-0,255
248,888	86,652	-0,243	-0,186
249,903	273,214	-0,154	-0,189
250,917	151,117	-0,152	-0,144
251,932	-99,159	-0,186	-0,032
252,947	-11,743	-0,097	-0,044
253,961	75,182	-0,172	-0,126
254,976	-26,977	-0,186	-0,075
255,990	751,984	-0,091	-0,172
257,005	67,861	-0,164	-0,116
258,020	181,962	-0,121	-0,124
259,034	-19,513	-0,155	-0,066
260,049	301,107	-0,111	-0,142
261,063	58,150	-0,222	-0,150
262,078	66,979	-0,315	-0,222
263,093	44,523	-0,211	-0,134
264,107	96,487	-0,187	-0,148
265,122	139,560	-0,123	-0,112
266,136	110,439	-0,168	-0,139
267,151	214,989	-0,201	-0,221
268,166	418,848	-0,074	-0,110
269,180	413,657	-0,068	-0,100
270,195	61,450	-0,300	-0,206
271,209	-200,000	-0,040	-0,149
272,224	800,000	-0,078	-0,187
273,239	800,000	-0,066	-0,149
274,253	786,632	-0,122	-0,233
275,268	139,309	-0,147	-0,134
276,282	258,598	-0,176	-0,210
277,297	142,994	-0,215	-0,198
278,312	230,484	-0,139	-0,157
279,326	-200,000	-0,039	-0,170
280,341	-200,000	-0,007	-0,096
281,355	64,938	-0,164	-0,114
282,370	-53,938	-0,158	-0,049
283,384	223,513	-0,136	-0,152
284,399	102,457	-0,314	-0,253
285,414	-50,178	-0,215	0,070
286,428	249,685	-0,190	-0,223
287,443	275,906	-0,091	-0,112
288,457	-166,773	-0,080	0,002
289,472	-97,126	-0,082	-0,015
290,487	-29,428	-0,172	0,068
291,501	293,638	-0,112	-0,142
292,516	800,000	-0,073	-0,146
293,530	261,043	-0,150	-0,180
294,545	699,425	-0,093	-0,169
295,560	-33,188	-0,082	-0,031
296,574	-84,907	-0,198	-0,043
297,589	-24,335	-0,208	-0,085
298,603	-113,419	-0,161	0,022
299,618	10,704	-0,161	-0,085
300,633	-107,606	-0,093	-0,014
301,647	89,999	-0,129	-0,099
302,662	432,238	-0,041	-0,062
303,676	110,802	-0,140	-0,116
304,691	96,749	-0,179	-0,141
305,706	209,350	-0,132	-0,143
306,720	800,000	-0,097	-0,212
307,735	284,324	-0,169	-0,210
308,749	38,793	-0,151	-0,093
309,764	179,133	-0,057	-0,058
310,779	-200,000	-0,037	-0,193
311,793	-69,574	-0,184	-0,048
312,808	149,501	-0,208	-0,195
313,822	276,291	-0,103	-0,126
314,837	62,008	-0,132	-0,091
315,852	-91,449	-0,154	-0,030
316,866	322,233	-0,095	-0,125
317,881	-27,858	-0,141	-0,056
318,895	93,653	-0,114	-0,089
319,910	-200,000	-0,071	-0,222
320,925	800,000	-0,075	-0,191
321,939	252,714	-0,183	-0,216
322,954	-109,620	-0,173	-0,025
323,968	-84,261	-0,200	0,043
324,983	-200,000	0,037	-0,124
325,997	0,609	-0,132	-0,065
327,012	151,356	-0,175	-0,164
328,027	54,700	-0,169	-0,112
329,041	-61,966	-0,137	-0,039
330,056	-122,196	-0,167	-0,019
331,070	-200,000	-0,035	-0,134
332,085	-200,000	-0,002	-0,117
333,100	80,777	-0,157	-0,116
334,114	-200,000	-0,039	-0,154
335,129	-49,277	-0,195	-0,064
336,143	435,371	-0,058	-0,087
337,158	220,018	-0,115	-0,127
338,173	402,134	-0,093	-0,135
339,187	-126,759	-0,115	0,012
340,202	270,911	-0,168	-0,203
341,216	308,935	-0,156	-0,201
342,231	230,753	-0,087	-0,099
343,246	-57,488	-0,171	-0,051
344,260	-159,364	-0,104	-0,004
345,275	-97,590	-0,116	-0,020
346,289	-34,146	-0,119	-0,045
347,304	800,000	-0,091	-0,188
348,319	-27,172	-0,081	-0,032
349,333	343,412	-0,101	-0,136
350,348	34,376	-0,228	-0,137
351,362	-70,829	-0,145	-0,037
352,377	-82,536	-0,106	0,023
353,392	-200,000	-0,004	-0,064
354,406	-67,791	-0,148	-0,039
355,421	209,240	1311,531	1411,901
356,435	161,031	1471,888	1412,409
