DTS Sentinel unit serial number:	SN410029Multiplexer serial number:	ORYXHardware model number:	OX2-SRSoftware version number:	ORYX F/W v4,00 Oryx Data Collector v3.7.2.0data status	okinstallation	B3 Nyhavnadifferential loss correction	single-endedforward channel	channel 1reverse channel	N/Adate	2023/12/01time	03:42:30forward acquisition time	300,00reverse acquisition time	0,00gamma	499,1914k internal	0,3212k external	0,3212temperature offset calibration	1,0000default loss term (dB/km)	0,3820temperature slope calibration	1,0000multiplexer offset coefficient	1,0000multiplexer slope coefficient	1,0000fibre end	0,00T internal ref (°C)	8,25T ext. ref 1 (°C)	-7,02T ext. ref 2 (°C)	-7,14length (m)	temperature (°C)	Stokes	anti-Stokes-744,400	180,169	-0,106	-0,113
-743,385	-200,000	-0,017	0,250
-742,371	800,000	-0,046	-0,097
-741,356	-200,000	-0,052	0,298
-740,342	113,706	-0,289	-0,254
-739,327	-200,000	0,037	0,273
-738,312	800,000	-0,126	-0,286
-737,298	-200,000	-0,047	0,319
-736,283	-10,273	-0,234	-0,112
-735,269	-200,000	-0,038	0,307
-734,254	275,566	-0,115	-0,148
-733,239	-52,225	-0,180	0,060
-732,225	800,000	-0,048	-0,098
-731,210	-200,000	-0,025	0,203
-730,196	800,000	-0,025	-0,076
-729,181	287,583	0,088	0,116
-728,167	-200,000	-0,004	0,075
-727,152	-82,008	0,145	-0,034
-726,137	800,000	0,015	-0,032
-725,123	-91,740	-0,153	-0,031
-724,108	-200,000	-0,026	-0,190
-723,094	316,798	-0,105	-0,144
-722,079	713,874	-0,103	-0,198
-721,064	-200,000	-0,018	-0,115
-720,050	150,557	0,075	-0,074
-719,035	301,224	-0,059	0,080
-718,021	142,053	0,040	0,039
-717,006	83,409	-0,069	-0,054
-715,991	-200,000	-0,004	-0,092
-714,977	443,860	-0,011	-0,018
-713,962	800,000	-0,020	0,058
-712,948	138,340	-0,128	0,122
-711,933	-6,195	0,201	0,099
-710,918	280,466	-0,090	-0,116
-709,904	-2,211	-0,052	0,027
-708,889	18,614	0,030	0,017
-707,875	800,000	-0,020	-0,054
-706,860	-200,000	0,006	0,024
-705,845	391,768	0,077	0,116
-704,831	800,000	0,043	0,106
-703,816	-200,000	-0,005	0,118
-702,802	9,048	0,078	0,042
-701,787	-141,401	-0,188	-0,014
-700,772	-200,000	-0,001	-0,036
-699,758	-74,662	-0,105	0,027
-698,743	-200,000	0,010	-0,034
-697,729	-18,294	-0,072	-0,033
-696,714	-200,000	0,000	0,015
-695,699	308,438	-0,038	0,052
-694,685	82,829	0,110	0,086
-693,670	1,640	-0,126	-0,065
-692,656	69,965	-0,068	0,051
-691,641	-200,000	0,006	0,074
-690,627	199,023	-0,080	0,088
-689,612	465,040	-0,030	0,048
-688,597	-29,679	-0,076	0,031
-687,583	800,000	-0,023	-0,048
-686,568	-8,692	-0,053	-0,026
-685,554	-23,422	0,036	0,015
-684,539	-200,000	0,006	0,108
-683,524	25,685	-0,039	0,023
-682,510	677,999	-0,029	-0,054
-681,495	-16,806	-0,110	-0,050
-680,481	-200,000	-0,008	-0,233
-679,466	-70,348	0,088	-0,024
-678,451	-200,000	-0,004	0,030
-677,437	-200,000	-0,025	-0,119
-676,422	243,638	0,030	0,036
-675,408	-200,000	0,033	-0,132
-674,393	156,124	-0,060	0,060
-673,378	238,415	-0,062	-0,075
-672,364	186,226	-0,067	-0,072
-671,349	282,593	-0,146	-0,190
-670,335	-124,599	-0,071	-0,008
-669,320	80,909	0,046	-0,036
-668,305	-26,705	0,169	-0,071
-667,291	-43,230	0,059	-0,021
-666,276	-2,281	-0,080	-0,040
-665,262	-143,620	-0,102	0,007
-664,247	-92,946	0,105	0,021
-663,232	-84,899	-0,056	0,013
-662,218	800,000	0,067	0,182
-661,203	9,911	-0,069	0,038
-660,189	-158,308	0,051	0,002
-659,174	-200,000	0,039	-0,132
-658,159	-200,000	-0,016	-0,066
-657,145	-32,770	0,015	0,006
-656,130	-19,548	0,064	-0,028
-655,116	39,792	0,086	0,056
-654,101	-65,311	-0,134	-0,039
-653,086	-4,687	0,027	0,013
-652,072	90,431	0,119	-0,096
-651,057	424,046	-0,029	-0,045
-650,043	-200,000	-0,006	-0,029
-649,028	-200,000	-0,006	0,027
-648,014	13,650	0,085	0,048
-646,999	563,533	0,037	-0,065
-645,984	800,000	-0,002	-0,007
-644,970	-71,333	-0,089	-0,024
-643,955	210,920	0,073	0,083
-642,941	45,718	-0,098	-0,065
-641,926	800,000	0,043	0,092
-640,911	-94,575	-0,088	0,017
-639,897	124,321	0,107	0,097
-638,882	35,604	-0,120	-0,076
-637,868	800,000	-0,014	-0,033
-636,853	28,569	-0,017	0,010
-635,838	800,000	-0,045	-0,109
-634,824	-200,000	0,016	0,061
-633,809	227,566	-0,063	-0,075
-632,795	-72,586	0,128	0,034
-631,780	-58,235	-0,017	-0,005
-630,765	-200,000	-0,024	-0,091
-629,751	-25,002	0,073	-0,031
-628,736	-200,000	-0,012	-0,056
-627,722	-200,000	-0,010	0,076
-626,707	-200,000	-0,008	0,051
-625,692	778,323	0,019	0,037
-624,678	-187,525	0,160	-0,001
-623,663	-89,039	-0,069	0,015
-622,649	634,355	-0,086	-0,158
-621,634	161,915	0,033	-0,034
-620,619	-200,000	-0,013	0,157
-619,605	4,497	0,104	-0,055
-618,590	99,020	0,104	0,087
-617,576	-200,000	-0,015	-0,087
-616,561	800,000	-0,022	0,061
-615,546	-67,770	-0,070	0,020
-614,532	-186,074	-0,095	0,001
-613,517	800,000	0,019	0,048
-612,503	-85,314	-0,057	-0,013
-611,488	-200,000	-0,008	-0,057
-610,474	5,652	0,205	0,109
-609,459	800,000	0,015	0,033
-608,444	426,743	-0,023	0,036
-607,430	32,588	-0,102	-0,064
-606,415	800,000	-0,027	0,071
-605,401	-18,513	-0,146	0,066
-604,386	132,836	-0,121	0,113
-603,371	317,182	0,100	0,136
-602,357	-179,199	0,130	-0,002
-601,342	254,681	0,062	0,076
-600,328	15,339	-0,172	0,097
-599,313	-91,708	-0,142	-0,029
-598,298	377,485	-0,106	-0,156
-597,284	-41,666	0,167	-0,062
-596,269	-200,000	0,004	0,050
-595,255	212,398	-0,040	-0,046
-594,240	-11,246	0,016	-0,008
-593,225	110,615	-0,134	-0,116
-592,211	466,709	-0,073	-0,118
-591,196	134,136	0,042	-0,039
-590,182	661,910	0,050	0,093
-589,167	99,392	-0,079	-0,065
-588,152	-58,537	0,108	-0,034
-587,138	368,024	0,053	-0,077
-586,123	-180,802	-0,143	-0,002
-585,109	-88,788	-0,140	0,030
-584,094	282,029	0,051	-0,066
-583,079	-58,005	-0,052	-0,016
-582,065	-83,538	0,084	-0,019
-581,050	800,000	0,036	-0,078
-580,036	-21,442	-0,120	-0,052
-579,021	-30,856	-0,066	-0,027
-578,006	-183,878	-0,138	0,002
-576,992	456,311	-0,036	0,058
-575,977	27,786	-0,072	0,044
-574,963	91,302	0,093	0,075
-573,948	126,321	0,040	-0,036
-572,934	-39,412	-0,083	-0,031
-571,919	377,973	-0,091	-0,135
-570,904	-200,000	-0,002	-0,036
-569,890	-148,979	-0,136	0,008
-568,875	-3,297	0,067	-0,034
-567,861	800,000	0,009	0,028
-566,846	60,449	-0,044	0,031
-565,831	-13,251	0,063	-0,029
-564,817	-112,269	0,072	-0,010
-563,802	-200,000	-0,028	-0,116
-562,788	-200,000	0,003	-0,020
-561,773	-157,779	-0,113	0,005
-560,758	-12,113	0,075	0,035
-559,744	-155,671	0,019	-0,001
-558,729	-200,000	0,008	-0,070
-557,715	185,429	0,045	-0,048
-556,700	800,000	-0,029	0,077
-555,685	381,373	-0,018	0,027
-554,671	-16,695	0,084	-0,038
-553,656	800,000	-0,041	-0,109
-552,642	-200,000	-0,016	0,088
-551,627	19,083	0,063	0,036
-550,612	-29,467	0,111	0,045
-549,598	-52,678	-0,091	-0,030
-548,583	-16,706	-0,064	0,029
-547,569	63,419	-0,031	-0,022
-546,554	-88,574	-0,099	0,021
-545,539	-200,000	0,016	0,087
-544,525	-200,000	-0,015	0,183
-543,510	69,979	0,119	-0,088
-542,496	-77,187	-0,137	0,034
-541,481	350,724	0,064	-0,091
-540,466	800,000	-0,035	0,076
-539,452	268,647	0,069	0,087
-538,437	37,186	-0,056	-0,036
-537,423	311,315	-0,101	0,136
-536,408	282,471	-0,060	0,078
-535,393	-22,796	-0,079	0,034
-534,379	374,998	0,039	-0,057
-533,364	444,456	-0,038	0,061
-532,350	244,282	-0,069	0,084
-531,335	800,000	0,027	0,060
-530,321	-200,000	-0,006	0,124
-529,306	800,000	0,051	-0,110
-528,291	-115,421	0,056	0,008
-527,277	800,000	-0,029	-0,084
-526,262	417,032	-0,038	-0,058
-525,248	-25,756	0,070	0,030
-524,233	-42,691	-0,057	0,021
-523,218	170,887	-0,081	0,083
-522,204	-14,909	0,058	0,026
-521,189	568,178	-0,050	-0,087
-520,175	-48,905	-0,162	0,056
-519,160	-34,085	0,132	-0,052
-518,145	10,436	0,127	-0,069
-517,131	312,144	-0,049	-0,067
-516,116	118,226	-0,121	0,108
-515,102	154,416	-0,033	0,032
-514,087	-94,840	-0,093	-0,018
-513,072	800,000	-0,032	-0,085
-512,058	88,170	0,059	0,047
-511,043	-200,000	0,009	0,050
-510,029	504,561	0,071	0,118
-509,014	800,000	0,035	0,071
-507,999	800,000	0,028	0,070
-506,985	-200,000	0,021	0,073
-505,970	-107,284	-0,035	-0,005
-504,956	-4,095	-0,133	-0,066
-503,941	-140,019	0,094	0,007
-502,926	-200,000	-0,002	0,059
-501,912	251,940	0,069	0,085
-500,897	-105,737	-0,119	0,019
-499,883	61,823	-0,080	-0,057
-498,868	479,166	0,060	-0,099
-497,853	-200,000	-0,010	0,067
-496,839	209,004	0,116	-0,131
-495,824	-81,680	-0,120	-0,028
-494,810	-51,493	0,215	-0,072
-493,795	111,361	-0,047	-0,041
-492,781	32,119	-0,070	0,043
-491,766	800,000	0,003	-0,010
-490,751	-200,000	0,018	-0,143
-489,737	301,939	0,009	-0,012
-488,722	-98,123	0,097	0,018
-487,708	197,088	0,120	-0,131
-486,693	-200,000	-0,017	0,074
-485,678	54,821	0,066	-0,045
-484,664	-129,109	-0,067	-0,007
-483,649	800,000	-0,071	-0,210
-482,635	-200,000	-0,005	-0,104
-481,620	31,783	0,038	-0,024
-480,605	4,351	0,105	-0,055
-479,591	-200,000	0,010	0,085
-478,576	254,620	-0,004	0,005
-477,562	-14,891	0,065	-0,030
-476,547	451,509	0,025	-0,040
-475,532	316,912	0,082	0,112
-474,518	-95,112	-0,055	-0,010
-473,503	379,474	-0,042	-0,061
-472,489	800,000	-0,036	0,106
-471,474	-200,000	-0,026	0,155
-470,459	34,510	-0,121	0,076
-469,445	44,716	-0,035	0,023
-468,430	15,024	-0,141	0,079
-467,416	-46,908	0,109	0,038
-466,401	-200,000	-0,015	-0,096
-465,386	-76,070	0,182	-0,046
-464,372	264,361	0,010	-0,013
-463,357	-200,000	0,014	0,051
-462,343	-200,000	-0,002	0,005
-461,328	49,724	0,024	0,016
-460,313	-200,000	0,009	-0,055
-459,299	7,459	0,059	0,031
-458,284	445,342	0,034	0,054
-457,270	-65,061	0,128	0,037
-456,255	800,000	-0,054	0,164
-455,241	-122,030	-0,187	-0,022
-454,226	-200,000	0,110	0,000
-453,211	-200,000	0,029	0,116
-452,197	-200,000	0,018	0,108
-451,182	-200,000	0,043	0,211
-450,168	80,169	-0,070	0,054
-449,153	154,992	0,096	-0,094
-448,138	-34,985	-0,097	-0,038
-447,124	-0,347	-0,125	0,064
-446,109	-200,000	0,033	0,151
-445,095	-11,032	0,135	0,064
-444,080	800,000	-0,022	-0,052
-443,065	703,498	0,076	0,144
-442,051	800,000	0,011	0,031
-441,036	-84,314	0,060	-0,013
-440,022	-200,000	-0,017	-0,074
-439,007	93,930	-0,038	-0,031
-437,992	153,687	0,010	0,010
-436,978	291,723	0,028	0,037
-435,963	-43,791	-0,045	-0,016
-434,949	102,614	-0,052	0,044
-433,934	58,176	0,061	0,043
-432,919	38,940	-0,169	-0,108
-431,905	800,000	-0,059	-0,167
-430,890	438,946	-0,077	0,121
-429,876	-97,449	0,141	-0,026
-428,861	-131,825	0,119	0,011
-427,846	800,000	0,018	0,042
-426,832	774,889	-0,017	-0,033
-425,817	87,615	0,006	-0,005
-424,803	-170,405	-0,113	0,003
-423,788	1,971	0,081	0,042
-422,773	728,943	0,030	0,058
-421,759	182,114	-0,033	0,035
-420,744	383,551	0,058	-0,086
-419,730	680,798	-0,028	-0,053
-418,715	99,878	-0,099	-0,082
-417,701	184,827	0,042	-0,044
-416,686	-33,111	-0,016	0,006
-415,671	-200,000	0,006	0,109
-414,657	800,000	-0,048	0,108
-413,642	7,247	-0,083	0,044
-412,628	89,938	-0,015	0,012
-411,613	166,900	-0,053	-0,054
-410,598	-200,000	0,178	-0,000
-409,584	800,000	0,028	-0,059
-408,569	364,329	0,131	0,189
-407,555	779,102	0,049	-0,097
-406,540	-200,000	-0,001	-0,052
-405,525	214,770	-0,076	-0,086
-404,511	68,327	-0,102	0,075
-403,496	-111,835	-0,153	0,022
-402,482	-200,000	-0,019	-0,103
-401,467	156,813	-0,022	-0,021
-400,452	800,000	-0,031	-0,068
-399,438	217,423	0,085	0,097
-398,423	-200,000	0,002	-0,016
-397,409	800,000	0,013	0,030
-396,394	-200,000	0,000	-0,046
-395,379	-200,000	0,046	-0,153
-394,365	705,044	0,054	0,102
-393,350	-90,193	0,086	0,018
-392,336	0,677	-0,040	0,020
-391,321	218,433	-0,053	-0,061
-390,306	121,905	0,029	-0,026
-389,292	776,443	-0,071	-0,139
-388,277	-54,138	0,181	-0,058
-387,263	100,446	-0,092	0,076
-386,248	-12,251	0,117	0,055
-385,233	-107,717	0,091	0,014
-384,219	266,191	0,034	-0,043
-383,204	-79,218	-0,047	-0,011
-382,190	108,015	0,103	0,088
-381,175	-200,000	-0,012	-0,040
-380,160	226,866	-0,040	0,046
-379,146	-200,000	-0,024	0,122
-378,131	-89,381	-0,142	0,030
-377,117	-16,161	0,083	0,038
-376,102	-200,000	0,041	-0,133
-375,088	-94,925	0,099	-0,019
-374,073	800,000	0,033	0,069
-373,058	47,516	0,110	0,073
-372,044	235,713	0,084	-0,099
-371,029	453,557	-0,052	0,083
-370,015	800,000	-0,060	0,142
-369,000	266,315	-0,033	-0,041
-367,985	-10,253	-0,056	0,026
-366,971	-144,935	0,094	-0,006
-365,956	73,976	-0,113	0,085
-364,942	71,791	0,055	-0,041
-363,927	-200,000	0,009	-0,087
-362,912	800,000	-0,042	0,103
-361,898	-172,261	0,132	-0,003
-360,883	800,000	0,054	-0,125
-359,869	302,697	-0,088	-0,117
-358,854	-200,000	-0,021	0,075
-357,839	-200,000	-0,013	-0,103
-356,825	18,563	0,076	-0,043
-355,810	27,244	-0,045	0,027
-354,796	152,988	-0,010	-0,010
-353,781	-31,574	0,077	-0,031
-352,766	800,000	-0,041	-0,093
-351,752	257,837	0,054	0,066
-350,737	40,692	0,039	0,025
-349,723	4,450	0,066	-0,035
-348,708	-200,000	0,038	0,122
-347,693	-200,000	0,032	0,128
-346,679	499,398	-0,037	0,062
-345,664	800,000	-0,032	-0,064
-344,650	-200,000	-0,008	-0,028
-343,635	367,937	0,050	0,072
-342,620	-59,115	-0,139	-0,043
-341,606	37,500	0,050	0,032
-340,591	-200,000	0,000	0,220
-339,577	800,000	-0,071	-0,171
-338,562	-79,579	0,113	-0,027
-337,548	-200,000	-0,017	-0,060
-336,533	98,170	-0,019	-0,016
-335,518	220,472	0,068	-0,078
-334,504	209,696	0,032	0,036
-333,489	-200,000	-0,002	-0,024
-332,475	-200,000	0,011	-0,156
-331,460	-51,953	-0,097	-0,032
-330,445	75,561	0,069	-0,052
-329,431	-200,000	-0,008	0,205
-328,416	-200,000	-0,022	0,107
-327,402	800,000	0,043	-0,135
-326,387	-187,384	-0,129	0,001
-325,372	800,000	0,029	-0,086
-324,358	-200,000	-0,031	0,098
-323,343	33,150	0,077	-0,047
-322,329	38,210	0,086	0,054
-321,314	-41,401	0,074	0,027
-320,299	183,999	0,048	-0,051
-319,285	800,000	0,020	0,055
-318,270	37,744	0,073	0,046
-317,256	666,986	0,047	-0,086
-316,241	263,670	0,061	-0,076
-315,226	800,000	0,055	-0,128
-314,212	-80,777	-0,071	-0,017
-313,197	30,971	0,076	0,046
-312,183	-157,069	0,243	-0,010
-311,168	-200,000	-0,008	-0,115
-310,153	800,000	0,060	-0,189
-309,139	-94,169	-0,068	0,013
-308,124	679,535	-0,009	0,016
-307,110	-16,329	-0,028	0,013
-306,095	800,000	-0,044	0,091
-305,080	800,000	-0,020	0,063
-304,066	800,000	-0,013	0,027
-303,051	-21,243	-0,069	-0,030
-302,037	7,416	-0,032	0,017
-301,022	-141,890	0,067	-0,005
-300,008	41,515	-0,140	0,090
-298,993	173,271	0,177	0,182
-297,978	-200,000	-0,008	-0,050
-296,964	516,846	0,031	-0,052
-295,949	-126,411	0,103	0,011
-294,935	-200,000	0,012	-0,127
-293,920	-44,776	0,141	0,050
-292,905	800,000	0,038	-0,091
-291,891	-58,540	0,055	-0,017
-290,876	-115,348	0,053	0,007
-289,862	37,723	0,044	0,028
-288,847	-35,538	0,130	0,050
-287,832	-200,000	-0,018	0,075
-286,818	-166,791	0,091	-0,003
-285,803	69,220	-0,055	-0,040
-284,789	-165,795	0,056	0,002
-283,774	-200,000	0,009	0,072
-282,759	-96,261	0,017	-0,003
-281,745	-80,933	-0,078	0,018
-280,730	123,071	-0,172	-0,153
-279,716	-121,077	0,115	0,014
-278,701	800,000	0,010	0,021
-277,686	-200,000	0,016	-0,094
-276,672	9,192	0,060	0,032
-275,657	145,213	-0,128	0,122
-274,643	-200,000	0,003	0,056
-273,628	-200,000	-0,028	-0,120
-272,613	-41,615	0,037	0,013
-271,599	-53,259	0,102	-0,033
-270,584	800,000	-0,047	0,120
-269,570	-142,479	0,016	0,001
-268,555	-36,572	-0,073	0,028
-267,540	524,845	-0,085	-0,143
-266,526	-81,203	-0,073	0,017
-265,511	-1,216	0,139	0,069
-264,497	800,000	0,065	0,134
-263,482	390,330	-0,043	0,064
-262,467	54,905	0,142	0,098
-261,453	261,546	-0,012	0,015
-260,438	-138,423	-0,041	0,003
-259,424	55,724	-0,099	-0,068
-258,409	800,000	-0,040	-0,093
-257,395	800,000	-0,042	0,082
-256,380	800,000	0,023	0,050
-255,365	-200,000	-0,019	-0,064
-254,351	800,000	0,059	-0,121
-253,336	-124,628	-0,012	-0,001
-252,322	357,672	0,092	-0,131
-251,307	188,485	-0,130	-0,139
-250,292	-33,226	0,043	-0,017
-249,278	-144,814	0,077	-0,005
-248,263	-200,000	0,006	0,046
-247,249	800,000	-0,037	0,085
-246,234	78,227	-0,206	-0,156
-245,219	36,140	-0,039	0,024
-244,205	800,000	-0,028	0,081
-243,190	-0,661	-0,025	0,013
-242,176	68,079	0,095	-0,069
-241,161	149,251	0,025	0,024
-240,146	-200,000	-0,015	0,060
-239,132	-200,000	-0,024	-0,094
-238,117	208,408	-0,151	-0,168
-237,103	129,112	0,009	-0,008
-236,088	-200,000	0,012	0,049
-235,073	800,000	-0,057	-0,159
-234,059	438,578	-0,056	-0,087
-233,044	-193,326	0,087	-0,001
-232,030	-200,000	-0,040	-0,223
-231,015	23,105	0,072	0,042
-230,000	287,993	-0,087	-0,112
-228,986	655,332	-0,061	-0,111
-227,971	-50,691	-0,091	0,030
-226,957	-200,000	0,024	0,111
-225,942	800,000	-0,037	0,078
-224,927	-29,638	0,123	0,049
-223,913	-200,000	-0,015	-0,120
-222,898	138,544	0,114	-0,106
-221,884	-5,747	-0,027	0,013
-220,869	-22,547	0,079	-0,034
-219,855	-23,667	0,090	0,038
-218,840	247,905	0,043	0,052
-217,825	145,516	0,032	-0,031
-216,811	-37,281	-0,128	-0,048
-215,796	220,939	-0,037	-0,042
-214,782	0,753	0,093	0,047
-213,767	-54,581	-0,082	0,026
-212,752	800,000	0,082	0,195
-211,738	-200,000	-0,007	-0,073
-210,723	800,000	-0,075	0,173
-209,709	135,543	0,097	-0,090
-208,694	5,161	0,120	0,063
-207,679	-129,859	0,117	-0,011
-206,665	800,000	0,017	0,037
-205,650	-200,000	0,004	0,226
-204,636	160,278	0,120	0,119
-203,621	-21,406	0,076	-0,033
-202,606	217,468	-0,007	-0,008
-201,592	0,813	-0,152	0,077
-200,577	44,277	-0,070	-0,046
-199,563	356,950	-0,038	-0,054
-198,548	58,309	0,037	0,025
-197,533	-76,570	-0,099	0,025
-196,519	-51,661	0,098	-0,032
-195,504	172,764	0,037	0,038
-194,490	231,899	-0,068	0,080
-193,475	-200,000	-0,027	-0,133
-192,460	29,266	0,060	-0,036
-191,446	263,502	0,059	0,073
-190,431	174,110	0,046	-0,047
-189,417	-200,000	-0,165	0,001
-188,402	460,783	0,030	-0,048
-187,387	45,381	-0,070	0,046
-186,373	-78,417	-0,109	0,026
-185,358	38,331	-0,116	-0,073
-184,344	-200,000	-0,002	-0,159
-183,329	-96,950	0,108	-0,020
-182,315	800,000	-0,009	0,027
-181,300	-200,000	-0,013	-0,073
-180,285	452,302	-0,025	0,039
-179,271	148,357	0,091	-0,087
-178,256	-200,000	0,005	0,049
-177,242	-200,000	0,020	-0,097
-176,227	212,242	0,102	0,114
-175,212	127,174	-0,046	-0,041
-174,198	-200,000	0,009	-0,048
-173,183	311,873	-0,157	-0,209
-172,169	246,755	-0,014	-0,016
-171,154	-151,869	-0,105	0,005
-170,139	-80,079	-0,179	-0,042
-169,125	-200,000	0,002	0,011
-168,110	-200,000	0,009	0,141
-167,096	72,724	-0,023	-0,017
-166,081	-61,565	-0,119	-0,035
-165,066	-200,000	-0,006	-0,029
-164,052	62,921	-0,103	-0,073
-163,037	800,000	-0,069	0,206
-162,023	-15,434	0,112	0,050
-161,008	-84,883	0,061	0,013
-159,993	-200,000	0,010	-0,051
-158,979	22,731	-0,050	0,029
-157,964	202,064	0,026	0,028
-156,950	51,807	-0,142	-0,096
-155,935	-200,000	-0,012	-0,087
-154,920	314,652	-0,007	0,010
-153,906	-131,798	0,099	-0,009
-152,891	-33,031	-0,144	0,056
-151,877	-177,217	-0,051	0,001
-150,862	34,400	-0,102	0,063
-149,847	192,054	-0,057	-0,061
-148,833	53,908	0,076	-0,052
-147,818	-30,665	-0,098	0,039
-146,804	192,802	0,029	0,031
-145,789	81,134	-0,117	0,089
-144,775	-200,000	-0,017	-0,129
-143,760	6,512	-0,108	0,057
-142,745	-109,485	0,130	-0,019
-141,731	-15,563	0,046	0,021
-140,716	-64,752	0,131	-0,037
-139,702	800,000	-0,013	0,028
-138,687	800,000	-0,012	0,026
-137,672	100,943	-0,078	-0,064
-136,658	-200,000	0,024	-0,084
-135,643	582,961	-0,042	-0,074
-134,629	-79,776	0,122	0,029
-133,614	350,266	0,086	-0,121
-132,599	-200,000	0,012	-0,065
-131,585	209,602	0,030	0,034
-130,570	109,023	0,065	-0,055
-129,556	-200,000	-0,008	0,033
-128,541	-99,379	-0,041	0,007
-127,526	-200,000	-0,003	-0,112
-126,512	184,440	0,070	0,073
-125,497	274,096	-0,150	-0,188
-124,483	800,000	0,002	-0,004
-123,468	783,506	0,052	0,102
-122,453	50,644	0,127	0,085
-121,439	-6,507	-0,132	-0,064
-120,424	-200,000	-0,010	-0,163
-119,410	28,946	-0,061	-0,036
-118,395	-200,000	-0,013	0,072
-117,380	-26,160	0,092	0,038
-116,366	423,951	0,024	0,037
-115,351	694,270	-0,078	-0,145
-114,337	148,173	0,094	-0,090
-113,322	-69,143	-0,093	-0,025
-112,307	800,000	0,006	-0,017
-111,293	651,644	0,049	0,090
-110,278	800,000	0,029	0,071
-109,264	164,598	-0,064	-0,064
-108,249	109,651	0,030	-0,026
-107,234	800,000	0,058	-0,148
-106,220	315,842	0,056	-0,076
-105,205	800,000	0,018	-0,054
-104,191	47,978	0,039	-0,026
-103,176	555,531	0,068	-0,116
-102,162	-154,294	-0,108	0,005
-101,147	131,479	0,051	-0,046
-100,132	174,512	-0,147	-0,150
-99,118	800,000	0,035	-0,103
-98,103	-70,392	-0,104	0,028
-97,089	-200,000	0,006	-0,066
-96,074	-200,000	-0,031	0,116
-95,059	46,637	0,052	-0,034
-94,045	800,000	-0,044	0,117
-93,030	93,880	-0,080	0,064
-92,016	350,424	0,102	-0,143
-91,001	-200,000	-0,018	-0,091
-89,986	-67,773	0,025	0,007
-88,972	-82,707	0,192	0,044
-87,957	574,100	-0,072	0,124
-86,943	-200,000	-0,008	-0,065
-85,928	584,808	-0,022	-0,039
-84,913	800,000	0,013	0,027
-83,899	-16,246	-0,147	-0,066
-82,884	-200,000	0,017	-0,076
-81,870	574,523	0,041	0,072
-80,855	66,834	0,030	0,021
-79,840	-44,534	0,055	-0,019
-78,826	800,000	-0,023	0,051
-77,811	-46,955	0,037	0,013
-76,797	175,910	0,076	-0,078
-75,782	81,791	0,052	0,040
-74,767	333,335	0,031	0,043
-73,753	-113,432	-0,051	-0,007
-72,738	-200,000	0,015	0,087
-71,724	179,427	0,042	-0,043
-70,709	-48,533	-0,137	-0,046
-69,694	-0,248	0,055	0,028
-68,680	-15,529	-0,023	0,010
-67,665	227,281	0,060	0,069
-66,651	-34,835	-0,086	-0,033
-65,636	304,811	0,051	-0,067
-64,622	-200,000	0,009	0,080
-63,607	800,000	0,029	-0,078
-62,592	342,918	-0,018	0,026
-61,578	737,223	0,095	0,181
-60,563	-158,342	-0,045	-0,002
-59,549	-126,845	-0,089	-0,009
-58,534	66,172	-2,103	-1,504
-57,519	449,202	-1,105	-1,725
-56,505	-200,000	-0,445	-4,637
-55,490	559,947	0,876	1,499
-54,476	800,000	5,538	12,162
-53,461	-200,000	22,452	346,627
-52,446	800,000	757,426	2300,929
-51,432	535,924	1645,664	2765,345
-50,417	68,478	1644,453	1187,876
-49,403	15,916	1521,424	842,544
-48,388	10,095	1447,047	773,380
-47,373	19,258	1439,644	813,083
-46,359	13,561	1428,039	779,594
-45,344	8,431	1423,961	753,068
-44,330	8,372	1422,256	751,855
-43,315	8,302	1420,400	750,517
-42,300	8,350	1418,488	749,701
-41,286	8,371	1417,292	749,137
-40,271	8,344	1415,913	748,253
-39,257	8,340	1414,838	747,638
-38,242	8,354	1413,799	747,123
-37,227	8,347	1412,604	746,429
-36,213	8,324	1411,451	745,682
-35,198	8,337	1410,215	745,060
-34,184	8,366	1409,324	744,698
-33,169	8,265	1407,932	743,458
-32,154	8,347	1406,902	743,267
-31,140	8,320	1405,682	742,468
-30,125	8,359	1404,385	741,935
-29,111	8,367	1403,369	741,408
-28,096	8,315	1402,226	740,530
-27,082	8,257	1400,900	739,529
-26,067	8,293	1399,953	739,170
-25,052	8,322	1398,787	738,661
-24,038	8,329	1397,789	738,136
-23,023	8,272	1396,965	737,409
-22,009	8,238	1395,941	736,678
-20,994	8,265	1394,843	736,196
-19,979	8,251	1393,957	735,633
-18,965	8,230	1392,992	734,997
-17,950	8,239	1391,858	734,411
-16,936	8,193	1391,128	733,783
-15,921	8,169	1390,180	733,145
-14,906	8,162	1389,337	732,637
-13,892	8,237	1388,217	732,368
-12,877	8,231	1387,499	731,931
-11,863	8,175	1386,787	731,266
-10,848	8,157	1385,976	730,727
-9,833	8,122	1384,991	730,018
-8,819	8,113	1384,127	729,493
-7,804	8,113	1383,083	728,914
-6,790	8,120	1382,063	728,380
-5,775	8,118	1381,153	727,862
-4,760	8,122	1380,031	727,259
-3,746	8,154	1378,980	726,821
-2,731	8,172	1378,358	726,547
-1,717	8,137	1377,435	725,871
-0,702	8,090	1375,730	724,733
0,313	12,119	1286,372	695,913
1,327	28,026	678,013	402,278
2,342	43,707	116,650	75,120
3,356	1,329	16,579	8,370
4,371	-2,146	3,946	1,946
5,386	-9,773	1,350	0,631
6,400	800,000	0,294	0,732
7,415	22,310	-0,126	-0,072
8,429	42,275	-0,290	-0,185
9,444	20,463	-0,214	-0,121
10,459	28,838	-0,209	-0,124
11,473	-11,615	-0,177	-0,082
12,488	91,621	-0,181	-0,143
13,502	81,069	-0,271	-0,206
14,517	-43,024	-0,523	-0,186
15,531	114,484	-0,298	-0,256
16,546	90,301	-0,270	-0,213
17,561	199,071	-0,319	-0,344
18,575	226,810	-0,199	-0,228
19,590	69,212	-0,226	-0,163
20,604	-91,818	-0,334	-0,066
21,619	70,223	-0,524	-0,380
22,634	265,105	-0,370	-0,455
23,648	258,710	-0,329	-0,399
24,663	22,822	-0,434	-0,249
25,677	-7,087	-0,401	-0,191
26,692	53,818	-0,319	-0,216
27,707	232,093	-0,195	-0,225
28,721	97,113	-0,398	-0,321
29,736	11,344	-0,479	-0,257
30,750	115,324	-0,436	-0,375
31,765	63,209	-0,472	-0,332
32,780	57,854	-0,377	-0,259
33,794	-12,011	-0,327	-0,150
34,809	-10,368	-0,342	-0,159
35,823	166,527	-0,396	-0,394
36,838	38,775	-0,378	-0,237
37,853	115,005	-0,420	-0,360
38,867	202,581	-0,288	-0,312
39,882	156,045	-0,269	-0,261
40,896	-63,028	-0,328	-0,095
41,911	39,345	-0,315	-0,198
42,926	54,894	-0,282	-0,191
43,940	94,705	-0,357	-0,285
44,955	63,026	-0,444	-0,312
45,969	42,454	-0,361	-0,230
46,984	-102,817	-0,334	-0,055
47,999	38,783	-0,323	-0,202
49,013	81,407	-0,323	-0,245
50,028	56,635	-0,289	-0,197
51,042	-56,916	-0,435	-0,134
52,057	311,978	-0,212	-0,280
53,071	202,043	-0,277	-0,301
54,086	541,591	-0,242	-0,406
55,101	110,489	-0,325	-0,274
56,115	-114,574	-0,420	-0,056
57,130	-16,118	-0,365	-0,162
58,144	13,128	-0,423	-0,229
59,159	56,518	-0,444	-0,302
60,174	-8,513	-0,352	-0,165
61,188	37,749	-0,339	-0,211
62,203	-31,370	-0,336	-0,132
63,217	-109,811	-0,227	-0,033
64,232	20,395	-0,341	-0,193
65,247	90,547	-0,357	-0,280
66,261	198,125	-0,345	-0,370
67,276	10,648	-0,267	-0,142
68,290	92,113	-0,236	-0,186
69,305	39,358	-0,388	-0,243
70,320	80,526	-0,315	-0,238
71,334	260,563	-0,209	-0,254
72,349	76,041	-0,213	-0,158
73,363	-61,573	-0,371	-0,108
74,378	-51,953	-0,295	-0,095
75,393	106,416	-0,293	-0,243
76,407	-91,228	-0,403	-0,080
77,422	97,405	-0,259	-0,208
78,436	56,522	-0,235	-0,160
79,451	149,178	-0,293	-0,278
80,466	118,822	-0,317	-0,274
81,480	45,120	-0,327	-0,211
82,495	144,080	-0,295	-0,276
83,509	-117,399	-0,313	-0,039
84,524	-56,101	-0,372	-0,115
85,539	36,327	-0,241	-0,149
86,553	117,308	-0,284	-0,244
87,568	-49,303	-0,250	-0,083
88,582	73,033	-0,261	-0,191
89,597	10,942	-0,337	-0,180
90,611	38,012	-0,163	-0,101
91,626	84,358	-0,299	-0,229
92,641	69,184	-0,275	-0,197
93,655	179,963	-0,095	-0,098
94,670	-17,361	-0,277	-0,122
95,684	65,327	-0,233	-0,164
96,699	37,089	-0,233	-0,144
97,714	47,477	-0,304	-0,198
98,728	-73,283	-0,291	-0,074
99,743	-114,526	-0,278	-0,037
100,757	-2,119	-0,255	-0,125
101,772	595,255	-0,152	-0,264
102,787	110,317	-0,301	-0,253
103,801	266,542	-0,269	-0,329
104,816	-121,956	-0,211	-0,024
105,830	-119,294	-0,413	-0,050
106,845	-129,629	-0,198	0,019
107,860	-42,695	-0,301	-0,106
108,874	429,125	-0,123	-0,186
109,889	-39,338	-0,298	-0,109
110,903	238,077	-0,236	-0,275
111,918	60,404	-0,181	-0,125
112,933	-43,199	-0,207	-0,073
113,947	2,432	-0,190	-0,096
114,962	-70,099	-0,139	-0,037
115,976	118,974	-0,223	-0,192
116,991	19,744	-0,209	-0,117
118,006	155,155	-0,213	-0,205
119,020	30,190	-0,474	-0,282
120,035	141,511	-0,255	-0,235
121,049	-146,016	-0,143	-0,009
122,064	21,306	-0,278	-0,157
123,079	-37,909	-0,350	-0,129
124,093	85,153	-0,214	-0,164
125,108	800,000	-0,078	-0,235
126,122	58,635	-0,299	-0,204
127,137	-109,742	-0,270	0,039
128,151	146,381	-0,179	-0,167
129,166	-44,148	-0,248	-0,086
130,181	255,782	-0,219	-0,262
131,195	49,987	-0,311	-0,204
132,210	141,842	-0,186	-0,172
133,224	209,275	-0,201	-0,220
134,239	-105,292	-0,229	-0,036
135,254	33,789	-0,263	-0,159
136,268	-200,000	-0,202	0,001
137,283	71,187	-0,276	-0,199
138,297	55,574	-0,272	-0,183
139,312	-13,526	-0,280	-0,126
140,327	67,914	-0,304	-0,216
141,341	-49,286	-0,231	-0,076
142,356	33,402	-0,138	-0,083
143,370	54,957	-0,171	-0,115
144,385	-93,055	-0,253	0,049
145,400	135,107	-0,133	-0,120
146,414	78,733	-0,335	-0,249
147,429	225,970	-0,217	-0,245
148,443	316,001	-0,166	-0,219
149,458	-75,812	-0,341	-0,083
150,473	99,303	-0,152	-0,123
151,487	-106,485	-0,073	-0,011
152,502	82,933	-0,233	-0,176
153,516	141,476	-0,268	-0,247
154,531	2,526	-0,258	-0,129
155,546	81,734	-0,287	-0,216
156,560	333,157	-0,150	-0,203
157,575	98,730	-0,230	-0,184
158,589	225,767	-0,161	-0,182
159,604	97,542	-0,357	-0,285
160,619	367,105	-0,233	-0,328
161,633	287,894	-0,278	-0,351
162,648	193,701	-0,227	-0,239
163,662	216,213	-0,257	-0,284
164,677	6,713	-0,176	-0,090
165,692	-29,850	-0,268	-0,106
166,706	-1,784	-0,240	-0,117
167,721	1,453	-0,226	-0,113
168,735	142,897	-0,194	-0,179
169,750	-114,816	-0,150	-0,020
170,764	-15,252	-0,239	-0,106
171,779	-20,618	-0,230	-0,098
172,794	120,252	-0,138	-0,119
173,808	-56,931	-0,239	-0,073
174,823	12,210	-0,243	-0,130
175,837	-83,995	-0,306	-0,067
176,852	-27,459	-0,344	-0,138
177,867	272,568	-0,191	-0,234
178,881	-41,541	-0,254	-0,090
179,896	-9,736	-0,240	-0,111
180,910	234,985	-0,148	-0,170
181,925	150,589	-0,276	-0,260
182,940	235,240	-0,223	-0,256
183,954	171,913	-0,175	-0,175
184,969	117,591	-0,245	-0,209
185,983	120,391	-0,147	-0,127
186,998	-99,310	-0,224	-0,039
188,013	230,759	-0,096	-0,109
189,027	117,606	-0,229	-0,195
190,042	128,195	-0,254	-0,224
191,056	-61,984	-0,216	-0,062
192,071	17,795	-0,239	-0,132
193,086	38,272	-0,192	-0,118
194,100	110,984	-0,217	-0,181
195,115	209,516	-0,155	-0,169
196,129	73,455	-0,184	-0,133
197,144	800,000	-0,114	-0,311
198,159	189,821	-0,292	-0,304
199,173	44,121	-0,137	-0,087
200,188	99,941	-0,129	-0,103
201,202	-5,752	-0,171	-0,081
202,217	-34,395	-0,245	-0,093
203,232	141,885	-0,235	-0,216
204,246	127,419	-0,245	-0,215
205,261	149,119	-0,199	-0,186
206,275	-89,804	-0,153	-0,031
207,290	22,470	-0,215	-0,122
208,304	215,392	-0,233	-0,256
209,319	-3,721	-0,255	-0,122
210,334	25,339	-0,227	-0,130
211,348	-3,523	-0,223	-0,107
212,363	-114,040	-0,135	-0,018
213,377	425,936	-0,169	-0,253
214,392	175,808	-0,188	-0,189
215,407	340,801	-0,159	-0,215
216,421	156,546	-0,144	-0,137
217,436	188,973	-0,199	-0,206
218,450	18,310	-0,197	-0,108
219,465	75,978	-0,252	-0,184
220,480	44,189	-0,158	-0,100
221,494	-62,386	-0,244	-0,070
222,509	-11,220	-0,089	-0,041
223,523	-179,054	-0,149	-0,002
224,538	254,457	-0,110	-0,130
225,553	188,461	-0,122	-0,127
226,567	-111,520	-0,238	-0,033
227,582	-33,265	-0,271	-0,103
228,596	-200,000	-0,020	-0,179
229,611	178,601	-0,176	-0,178
230,626	-33,232	-0,115	-0,044
231,640	27,799	-0,216	-0,125
232,655	0,500	-0,203	-0,100
233,669	155,943	-0,159	-0,152
234,684	180,363	-0,170	-0,173
235,699	-31,615	-0,217	-0,084
236,713	275,420	-0,127	-0,155
237,728	176,956	-0,177	-0,178
238,742	-73,589	-0,203	0,051
239,757	50,907	-0,190	-0,124
240,772	172,796	-0,210	-0,209
241,786	42,599	-0,298	-0,187
242,801	-10,619	-0,064	-0,029
243,815	451,358	-0,132	-0,202
244,830	-200,000	-0,016	-0,151
245,844	89,559	-0,259	-0,199
246,859	13,151	-0,253	-0,135
247,874	133,831	-0,191	-0,171
248,888	-154,672	-0,176	-0,008
249,903	-126,696	-0,154	-0,016
250,917	148,533	-0,072	-0,067
251,932	12,281	-0,147	-0,078
252,947	800,000	-0,070	-0,161
253,961	79,557	-0,198	-0,147
254,976	-163,660	-0,277	0,009
255,990	343,736	-0,071	-0,096
257,005	236,469	-0,111	-0,127
258,020	169,010	-0,122	-0,120
259,034	8,253	-0,162	-0,084
260,049	163,181	-0,143	-0,138
261,063	-97,276	-0,145	-0,026
262,078	-66,217	-0,219	0,060
263,093	269,575	-0,145	-0,176
264,107	-63,601	-0,226	-0,064
265,122	124,871	-0,111	-0,096
266,136	-196,910	-0,146	-0,001
267,151	-14,299	-0,075	-0,033
268,166	262,394	-0,129	-0,154
269,180	116,420	-0,177	-0,149
270,195	88,320	-0,154	-0,117
271,209	107,937	-0,265	-0,217
272,224	155,279	-0,116	-0,110
273,239	683,453	-0,061	0,110
274,253	-46,307	-0,147	-0,050
275,268	-16,507	-0,188	-0,082
276,282	-58,925	-0,323	-0,096
277,297	-200,000	-0,087	-0,301
278,312	188,446	-0,164	-0,169
279,326	143,318	-0,128	-0,118
280,341	-10,722	-0,075	-0,034
281,355	-71,876	-0,206	0,052
282,370	75,168	-0,122	0,088
283,384	-45,605	-0,160	-0,054
284,399	181,427	-0,230	-0,232
285,414	-9,547	-0,148	-0,068
286,428	260,173	-0,052	-0,061
287,443	-55,076	-0,214	-0,066
288,457	-136,318	-0,149	-0,012
289,472	-4,482	-0,160	-0,076
290,487	198,955	-0,229	-0,241
291,501	250,889	-0,089	-0,104
292,516	-105,268	-0,279	-0,043
293,530	267,319	-0,035	0,042
294,545	-55,115	-0,125	-0,038
295,560	-200,000	0,016	-0,187
296,574	348,555	-0,066	-0,089
297,589	106,209	-0,181	-0,147
298,603	6,977	-0,263	-0,134
299,618	410,385	-0,104	-0,152
300,633	-168,512	-0,143	0,004
301,647	-200,000	0,018	-0,095
302,662	282,587	-0,071	-0,087
303,676	66,275	-0,154	-0,107
304,691	296,762	-0,164	-0,207
305,706	-27,398	-0,203	-0,081
306,720	800,000	-0,149	-0,299
307,735	-200,000	-0,046	-0,183
308,749	-103,491	-0,112	-0,018
309,764	-90,073	-0,067	-0,013
310,779	301,047	-0,065	-0,082
311,793	800,000	-0,069	-0,159
312,808	148,361	-0,092	-0,086
313,822	-53,145	-0,211	-0,066
314,837	26,213	-0,191	-0,109
315,852	800,000	-0,106	-0,209
316,866	11,353	-0,220	-0,115
317,881	-109,651	-0,217	0,031
318,895	-200,000	-0,026	-0,191
319,910	259,123	-0,173	-0,206
320,925	-53,622	-0,216	-0,067
321,939	-88,321	-0,172	-0,035
322,954	800,000	-0,043	-0,088
323,968	800,000	-0,032	-0,090
324,983	11,884	-0,156	-0,082
325,997	89,303	-0,144	-0,110
327,012	124,884	-0,085	-0,073
328,027	472,836	-0,037	-0,058
329,041	-64,537	-0,289	-0,080
330,056	149,088	-0,073	-0,067
331,070	22,820	-0,045	-0,025
332,085	-200,000	-0,014	-0,045
333,100	-197,058	-0,123	-0,001
334,114	53,636	-0,209	-0,137
335,129	535,132	-0,131	-0,213
336,143	409,007	0,047	-0,069
337,158	92,360	-0,151	-0,117
338,173	48,022	-0,089	0,057
339,187	-67,064	-0,114	0,031
340,202	-140,859	-0,149	0,010
341,216	35,384	-0,117	0,070
342,231	-200,000	-0,034	-0,273
343,246	563,635	-0,116	-0,194
344,260	-144,555	-0,183	-0,011
345,275	150,375	-0,075	-0,070
346,289	800,000	0,015	-0,034
347,304	269,555	-0,063	-0,076
348,319	-43,282	-0,124	-0,043
349,333	-48,631	-0,235	-0,077
350,348	800,000	-0,089	-0,194
351,362	531,063	-0,138	-0,225
352,377	-99,662	-0,065	-0,011
353,392	800,000	-0,048	-0,133
354,406	-200,000	-0,004	-0,027
355,421	205,547	1311,128	1394,280
356,435	158,045	1471,349	1394,729
