DTS Sentinel unit serial number:	SN410029Multiplexer serial number:	ORYXHardware model number:	OX2-SRSoftware version number:	ORYX F/W v4,00 Oryx Data Collector v3.7.2.0data status	okinstallation	B3 Nyhavnadifferential loss correction	single-endedforward channel	channel 1reverse channel	N/Adate	2023/12/03time	15:27:30forward acquisition time	300,00reverse acquisition time	0,00gamma	499,1914k internal	0,3196k external	0,3196temperature offset calibration	1,0000default loss term (dB/km)	0,3820temperature slope calibration	1,0000multiplexer offset coefficient	1,0000multiplexer slope coefficient	1,0000fibre end	0,00T internal ref (°C)	15,76T ext. ref 1 (°C)	0,40T ext. ref 2 (°C)	0,41length (m)	temperature (°C)	Stokes	anti-Stokes-744,400	232,863	-0,208	-0,250
-743,385	800,000	0,075	0,228
-742,371	34,794	-0,210	-0,133
-741,356	800,000	-0,091	0,248
-740,342	57,676	-0,221	-0,157
-739,327	-200,000	0,032	0,302
-738,312	618,643	-0,193	-0,354
-737,298	-200,000	0,055	0,274
-736,283	87,340	-0,269	-0,216
-735,269	800,000	0,163	0,346
-734,254	436,918	-0,175	-0,278
-733,239	-56,880	-0,119	0,038
-732,225	308,596	-0,133	-0,182
-731,210	-23,452	0,115	0,050
-730,196	-200,000	-0,000	-0,036
-729,181	66,373	-0,084	-0,062
-728,167	-184,501	0,081	0,001
-727,152	-68,362	0,072	0,020
-726,137	557,813	0,036	0,063
-725,123	704,822	0,020	-0,038
-724,108	13,946	0,003	0,002
-723,094	-125,098	-0,157	-0,017
-722,079	800,000	-0,046	-0,098
-721,064	248,738	0,059	0,073
-720,050	-50,092	0,082	-0,028
-719,035	151,292	-0,083	-0,082
-718,021	800,000	-0,025	0,058
-717,006	84,950	0,040	-0,032
-715,991	59,912	-0,143	-0,103
-714,977	-124,982	-0,095	-0,011
-713,962	344,577	-0,072	-0,103
-712,948	164,332	-0,022	-0,022
-711,933	485,995	-0,035	0,058
-710,918	134,235	-0,097	0,091
-709,904	78,990	-0,039	-0,031
-708,889	-116,809	0,118	-0,016
-707,875	-1,385	-0,199	-0,102
-706,860	800,000	-0,018	0,043
-705,845	-26,239	0,036	0,016
-704,831	740,763	0,076	0,150
-703,816	-200,000	-0,011	0,180
-702,802	-200,000	-0,010	-0,088
-701,787	-34,144	-0,094	-0,038
-700,772	67,361	0,042	0,031
-699,758	0,098	0,043	-0,022
-698,743	800,000	-0,042	-0,131
-697,729	800,000	0,017	0,036
-696,714	-200,000	0,034	-0,120
-695,699	-12,233	0,099	-0,047
-694,685	-5,613	-0,041	0,020
-693,670	-50,349	-0,089	0,030
-692,656	800,000	0,027	-0,061
-691,641	136,423	-0,125	-0,118
-690,627	-39,412	0,188	0,071
-689,612	46,243	0,071	0,048
-688,597	308,281	0,038	-0,052
-687,583	163,939	-0,071	-0,073
-686,568	200,067	-0,019	0,022
-685,554	69,206	-0,039	0,029
-684,539	-111,134	-0,134	0,020
-683,524	301,819	0,076	-0,103
-682,510	33,479	-0,093	-0,059
-681,495	-200,000	-0,018	-0,059
-680,481	58,537	-0,083	0,059
-679,466	-130,890	-0,072	0,007
-678,451	-113,511	0,119	-0,017
-677,437	-154,056	-0,045	-0,002
-676,422	-137,390	0,029	-0,002
-675,408	800,000	0,036	-0,106
-674,393	61,228	-0,130	-0,094
-673,378	145,845	-0,114	-0,111
-672,364	-200,000	-0,009	-0,073
-671,349	-139,383	-0,019	-0,001
-670,335	-200,000	-0,040	-0,133
-669,320	-200,000	-0,032	0,124
-668,305	34,687	0,032	0,020
-667,291	-200,000	0,015	0,000
-666,276	479,496	-0,078	-0,129
-665,262	-200,000	-0,025	-0,120
-664,247	-140,891	-0,194	-0,014
-663,232	-12,784	-0,049	0,023
-662,218	37,843	0,059	-0,038
-661,203	89,190	-0,126	0,102
-660,189	71,403	-0,042	-0,031
-659,174	-12,083	-0,096	-0,045
-658,159	-99,365	-0,054	0,010
-657,145	56,880	-0,129	-0,091
-656,130	-200,000	-0,007	0,043
-655,116	58,362	0,043	0,031
-654,101	-102,296	-0,122	-0,021
-653,086	-200,000	-0,023	-0,076
-652,072	156,601	0,095	-0,095
-651,057	109,133	-0,140	-0,122
-650,043	-200,000	0,001	0,029
-649,028	800,000	-0,029	0,085
-648,014	800,000	-0,065	0,159
-646,999	-42,547	0,065	-0,024
-645,984	-200,000	0,015	-0,168
-644,970	800,000	0,031	-0,083
-643,955	21,735	-0,194	-0,114
-642,941	109,831	-0,114	-0,099
-641,926	-112,881	0,068	0,010
-640,911	193,409	0,127	-0,140
-639,897	-200,000	0,006	-0,064
-638,882	271,839	0,033	0,043
-637,868	-200,000	-0,006	-0,062
-636,853	-94,554	-0,068	-0,013
-635,838	19,960	0,138	-0,081
-634,824	-200,000	-0,006	0,028
-633,809	230,970	-0,080	-0,095
-632,795	-200,000	-0,016	0,074
-631,780	106,235	-0,059	0,051
-630,765	243,554	-0,023	-0,028
-629,751	38,950	-0,151	-0,097
-628,736	800,000	-0,019	-0,042
-627,722	-100,498	0,091	0,016
-626,707	800,000	0,015	-0,037
-625,692	-43,988	-0,087	-0,031
-624,678	17,611	0,068	-0,039
-623,663	-200,000	-0,036	0,157
-622,649	730,033	-0,059	0,114
-621,634	720,784	-0,050	-0,096
-620,619	71,994	-0,031	0,024
-619,605	800,000	-0,074	-0,178
-618,590	-200,000	0,022	0,154
-617,576	-200,000	0,014	0,088
-616,561	-126,572	-0,201	-0,021
-615,546	-19,151	-0,178	-0,080
-614,532	-200,000	-0,006	-0,057
-613,517	-1,855	0,033	0,017
-612,503	800,000	-0,012	-0,036
-611,488	349,113	-0,017	-0,024
-610,474	-200,000	-0,022	0,156
-609,459	-140,557	-0,113	-0,008
-608,444	800,000	-0,088	-0,234
-607,430	399,063	0,033	-0,050
-606,415	200,918	-0,009	0,010
-605,401	-200,000	0,013	-0,048
-604,386	162,487	0,019	0,019
-603,371	94,868	0,090	-0,074
-602,357	-200,000	-0,018	-0,138
-601,342	348,299	-0,018	-0,026
-600,328	-200,000	-0,011	-0,052
-599,313	-144,008	-0,048	-0,003
-598,298	393,971	-0,059	-0,089
-597,284	79,420	0,058	-0,045
-596,269	-71,581	-0,108	-0,029
-595,255	-21,860	0,042	0,019
-594,240	256,329	0,060	-0,075
-593,225	-200,000	0,029	-0,179
-592,211	-200,000	-0,008	0,060
-591,196	-78,296	0,083	0,020
-590,182	211,131	-0,067	0,076
-589,167	20,940	-0,077	0,045
-588,152	-200,000	0,013	-0,059
-587,138	58,153	0,062	0,044
-586,123	698,416	0,027	-0,052
-585,109	426,427	-0,022	-0,034
-584,094	286,170	-0,049	0,065
-583,079	-169,540	-0,015	-0,000
-582,065	-31,402	-0,081	0,033
-581,050	-77,469	0,120	0,030
-580,036	599,679	0,050	-0,090
-579,021	-91,191	-0,145	0,030
-578,006	-141,606	0,032	0,002
-576,992	136,492	-0,074	-0,070
-575,977	-8,435	-0,125	0,061
-574,963	800,000	-0,040	0,082
-573,948	-200,000	-0,001	0,115
-572,934	-81,716	-0,096	0,023
-571,919	457,221	0,063	0,101
-570,904	800,000	0,030	-0,084
-569,890	-165,745	-0,016	0,000
-568,875	-71,435	-0,056	-0,015
-567,861	165,821	0,075	0,076
-566,846	-84,982	0,122	-0,027
-565,831	-8,941	0,053	-0,026
-564,817	-54,303	-0,122	-0,040
-563,802	37,044	-0,096	0,061
-562,788	34,239	-0,022	0,014
-561,773	-57,919	0,031	-0,010
-560,758	348,528	0,085	0,122
-559,744	228,499	-0,046	-0,054
-558,729	-200,000	-0,010	-0,060
-557,715	97,442	-0,051	-0,042
-556,700	-7,475	0,078	-0,038
-555,685	243,892	0,069	-0,084
-554,671	2,428	0,068	-0,035
-553,656	-96,517	0,142	0,027
-552,642	365,772	-0,086	0,125
-551,627	-200,000	0,021	0,074
-550,612	-200,000	0,019	0,130
-549,598	21,536	-0,067	-0,039
-548,583	134,123	-0,058	0,054
-547,569	-200,000	-0,005	-0,042
-546,554	432,406	0,047	-0,074
-545,539	-147,212	0,215	0,013
-544,525	720,715	-0,058	-0,112
-543,510	262,216	-0,011	0,014
-542,496	-66,578	0,058	0,017
-541,481	52,440	-0,183	-0,126
-540,466	494,663	-0,032	0,053
-539,452	107,746	0,153	0,131
-538,437	800,000	-0,054	0,153
-537,423	270,677	0,036	-0,046
-536,408	395,430	-0,024	-0,036
-535,393	376,525	0,059	-0,087
-534,379	-200,000	-0,043	-0,203
-533,364	-200,000	-0,029	-0,092
-532,350	-168,384	-0,173	-0,005
-531,335	569,486	-0,030	0,053
-530,321	-200,000	-0,001	0,071
-529,306	-57,539	0,064	0,020
-528,291	42,160	-0,125	-0,082
-527,277	-200,000	-0,011	-0,038
-526,262	132,506	-0,047	-0,044
-525,248	-168,110	0,064	-0,002
-524,233	-158,207	0,095	0,004
-523,218	-200,000	-0,003	0,118
-522,204	800,000	0,017	0,046
-521,189	800,000	-0,020	-0,056
-520,175	271,114	0,054	0,069
-519,160	-13,216	-0,164	-0,077
-518,145	81,806	0,091	-0,071
-517,131	72,649	0,057	-0,043
-516,116	800,000	0,032	0,096
-515,102	67,712	-0,085	0,063
-514,087	154,551	0,019	0,019
-513,072	112,071	-0,121	-0,106
-512,058	-200,000	0,003	-0,030
-511,043	58,505	-0,053	-0,038
-510,029	-39,168	-0,049	-0,018
-509,014	-3,146	-0,026	0,013
-507,999	-140,751	-0,037	0,003
-506,985	341,964	-0,089	-0,126
-505,970	-200,000	-0,008	0,027
-504,956	45,636	-0,172	-0,114
-503,941	-121,470	-0,073	0,009
-502,926	-139,691	0,102	-0,008
-501,912	52,236	-0,045	0,031
-500,897	101,671	0,070	0,059
-499,883	-200,000	0,001	0,025
-498,868	-200,000	-0,007	-0,079
-497,853	-110,821	-0,021	0,003
-496,839	-40,922	0,161	-0,060
-495,824	800,000	-0,037	-0,075
-494,810	260,734	0,070	-0,087
-493,795	25,462	0,081	0,049
-492,781	-200,000	-0,008	0,106
-491,766	-189,172	-0,085	-0,001
-490,751	7,767	-0,111	-0,060
-489,737	63,229	-0,010	0,007
-488,722	800,000	0,049	-0,136
-487,708	319,032	-0,013	0,018
-486,693	-21,504	-0,098	0,043
-485,678	-99,922	0,123	-0,022
-484,664	41,378	0,021	-0,014
-483,649	768,284	-0,027	0,053
-482,635	226,552	-0,058	-0,068
-481,620	-200,000	-0,026	0,214
-480,605	-5,548	-0,024	0,012
-479,591	-76,819	0,158	-0,039
-478,576	708,977	-0,053	-0,101
-477,562	2,047	-0,023	-0,012
-476,547	76,785	0,111	0,085
-475,532	-64,746	-0,110	-0,032
-474,518	28,001	0,107	-0,065
-473,503	800,000	0,040	-0,126
-472,489	-200,000	-0,008	0,126
-471,474	781,747	0,037	-0,074
-470,459	193,445	-0,089	-0,098
-469,445	-66,849	0,189	-0,054
-468,430	10,527	0,030	-0,016
-467,416	260,293	0,025	-0,031
-466,401	61,144	-0,058	-0,041
-465,386	139,712	-0,045	0,042
-464,372	279,659	0,066	-0,085
-463,357	43,847	-0,113	-0,074
-462,343	-200,000	0,020	-0,215
-461,328	-122,624	-0,113	0,013
-460,313	126,323	0,030	-0,027
-459,299	-70,579	0,170	0,046
-458,284	102,384	0,041	0,035
-457,270	32,510	0,056	0,035
-456,255	124,690	-0,176	0,160
-455,241	-200,000	0,023	0,085
-454,226	-98,710	0,057	-0,010
-453,211	158,055	0,055	0,055
-452,197	-200,000	0,009	0,058
-451,182	18,378	0,089	0,051
-450,168	229,286	0,102	-0,120
-449,153	-119,672	-0,106	0,013
-448,138	153,374	-0,128	-0,126
-447,124	149,868	-0,026	-0,026
-446,109	59,500	0,035	0,024
-445,095	-27,254	0,105	-0,044
-444,080	-138,692	0,015	0,001
-443,065	800,000	0,024	0,050
-442,051	-20,986	-0,024	-0,011
-441,036	-41,640	-0,073	-0,027
-440,022	680,845	0,048	-0,091
-439,007	-148,902	0,084	0,005
-437,992	-178,510	0,070	0,001
-436,978	-150,856	0,080	-0,004
-435,963	-43,330	-0,044	0,016
-434,949	-74,755	-0,103	0,026
-433,934	-200,000	-0,003	0,029
-432,919	-200,000	0,025	-0,198
-431,905	88,885	-0,031	0,025
-430,890	12,463	0,089	0,049
-429,876	275,145	0,107	0,136
-428,861	157,366	-0,051	-0,051
-427,846	670,405	0,066	-0,123
-426,832	62,553	-0,063	-0,045
-425,817	27,749	-0,055	0,033
-424,803	5,606	-0,003	0,002
-423,788	-34,138	0,137	0,054
-422,773	-200,000	0,025	0,146
-421,759	292,002	-0,046	0,060
-420,744	72,961	-0,052	-0,039
-419,730	220,496	-0,040	-0,047
-418,715	-200,000	0,018	-0,083
-417,701	-101,728	-0,088	0,015
-416,686	-127,122	0,063	0,007
-415,671	-200,000	-0,009	-0,058
-414,657	142,277	-0,124	0,118
-413,642	-200,000	0,016	0,062
-412,628	-67,775	-0,118	-0,033
-411,613	32,893	-0,168	-0,105
-410,598	-200,000	0,028	0,117
-409,584	-200,000	-0,012	-0,064
-408,569	498,763	0,015	0,025
-407,555	-200,000	-0,036	0,159
-406,540	-95,531	0,100	0,019
-405,525	231,269	-0,082	-0,097
-404,511	193,174	-0,009	-0,010
-403,496	-139,474	-0,100	-0,008
-402,482	-200,000	-0,019	0,069
-401,467	-200,000	0,016	0,097
-400,452	800,000	0,037	0,102
-399,438	-200,000	0,008	0,056
-398,423	-100,891	0,092	-0,016
-397,409	-90,054	0,063	-0,013
-396,394	114,916	-0,151	-0,133
-395,379	-200,000	0,014	0,053
-394,365	-47,180	0,137	0,048
-393,350	18,636	0,080	-0,046
-392,336	-144,110	-0,089	0,006
-391,321	800,000	-0,021	0,064
-390,306	512,281	0,042	-0,070
-389,292	-200,000	0,010	-0,095
-388,277	27,462	-0,109	-0,065
-387,263	-151,843	0,135	0,007
-386,248	62,755	0,064	-0,046
-385,233	324,166	-0,047	0,064
-384,219	-97,281	0,140	0,026
-383,204	413,560	-0,061	-0,094
-382,190	161,749	-0,054	0,054
-381,175	37,898	-0,057	-0,036
-380,160	-151,373	-0,061	-0,003
-379,146	-200,000	0,016	0,067
-378,131	-200,000	-0,014	0,047
-377,117	-94,067	-0,120	0,023
-376,102	-66,639	-0,080	0,023
-375,088	651,983	0,010	0,019
-374,073	800,000	-0,050	0,100
-373,058	25,317	0,211	-0,126
-372,044	-87,510	0,094	-0,020
-371,029	-33,626	-0,088	0,035
-370,015	77,358	0,016	-0,013
-369,000	-137,135	0,057	0,005
-367,985	-200,000	0,026	-0,102
-366,971	132,991	-0,015	0,013
-365,956	299,715	0,083	0,110
-364,942	-68,641	0,044	-0,012
-363,927	5,438	0,094	0,050
-362,912	-82,649	-0,057	-0,013
-361,898	-136,195	-0,100	0,008
-360,883	-200,000	-0,008	-0,188
-359,869	331,349	0,072	-0,100
-358,854	800,000	0,032	-0,086
-357,839	-135,615	-0,037	0,003
-356,825	-147,658	-0,155	-0,009
-355,810	800,000	-0,003	-0,008
-354,796	-44,423	0,032	-0,012
-353,781	274,452	-0,095	-0,120
-352,766	800,000	-0,032	0,082
-351,752	800,000	-0,046	0,129
-350,737	-83,135	0,093	0,021
-349,723	-18,455	0,074	0,033
-348,708	405,629	0,073	0,110
-347,693	557,814	0,083	-0,144
-346,679	43,572	-0,033	0,022
-345,664	800,000	0,032	-0,071
-344,650	-79,185	-0,089	0,021
-343,635	23,956	0,088	0,052
-342,620	-68,088	0,152	0,042
-341,606	-137,556	0,099	0,008
-340,591	-82,725	-0,075	0,017
-339,577	-200,000	-0,017	-0,055
-338,562	86,759	-0,030	-0,024
-337,548	-94,792	-0,122	0,024
-336,533	-107,249	0,150	0,023
-335,518	49,150	-0,112	0,076
-334,504	800,000	0,031	0,088
-333,489	-58,695	-0,031	0,009
-332,475	-36,062	-0,098	-0,038
-331,460	15,515	-0,078	0,044
-330,445	-200,000	-0,002	0,020
-329,431	-165,217	0,092	0,003
-328,416	-200,000	0,012	0,192
-327,402	-200,000	-0,011	-0,052
-326,387	-56,029	-0,085	-0,027
-325,372	-200,000	-0,006	0,053
-324,358	-176,068	-0,079	0,001
-323,343	800,000	-0,043	-0,122
-322,329	-200,000	0,050	-0,164
-321,314	800,000	0,007	0,016
-320,299	147,302	-0,058	0,056
-319,285	800,000	0,060	0,169
-318,270	20,738	-0,109	0,063
-317,256	-121,824	-0,067	-0,008
-316,241	-64,532	-0,033	-0,009
-315,226	321,358	0,072	-0,099
-314,212	-155,485	0,075	-0,003
-313,197	-200,000	-0,039	0,158
-312,183	202,029	-0,040	0,044
-311,168	-200,000	-0,001	0,057
-310,153	-200,000	0,021	-0,092
-309,139	184,345	-0,102	-0,108
-308,124	-200,000	-0,023	0,146
-307,110	55,722	0,124	-0,086
-306,095	-200,000	0,019	0,133
-305,080	460,822	-0,030	0,048
-304,066	800,000	0,045	0,143
-303,051	112,246	-0,035	0,030
-302,037	-14,539	0,090	0,041
-301,022	15,075	0,095	-0,053
-300,008	409,495	0,048	0,074
-298,993	288,330	0,024	-0,031
-297,978	800,000	-0,022	-0,048
-296,964	-200,000	-0,008	-0,077
-295,949	121,981	0,045	0,040
-294,935	203,578	-0,077	-0,086
-293,920	-181,892	-0,175	0,002
-292,905	800,000	-0,027	-0,057
-291,891	-11,355	0,125	0,058
-290,876	-102,799	-0,066	0,011
-289,862	587,161	0,036	0,063
-288,847	513,481	0,035	0,059
-287,832	-133,259	-0,151	0,013
-286,818	-136,751	0,186	0,015
-285,803	-200,000	0,003	-0,034
-284,789	-35,275	-0,039	-0,015
-283,774	-98,498	0,220	0,040
-282,759	-200,000	-0,001	0,139
-281,745	-200,000	0,036	-0,131
-280,730	542,702	0,033	-0,057
-279,716	11,901	-0,145	-0,079
-278,701	232,946	0,075	0,088
-277,686	-200,000	0,032	0,120
-276,672	-200,000	0,082	0,000
-275,657	-83,786	0,117	-0,026
-274,643	-132,276	-0,125	-0,011
-273,628	-194,481	-0,047	-0,000
-272,613	800,000	0,059	0,162
-271,599	-97,849	0,088	0,016
-270,584	-37,008	0,094	-0,036
-269,570	800,000	0,020	0,051
-268,555	-102,039	-0,195	-0,033
-267,540	474,203	-0,071	-0,114
-266,526	-200,000	0,005	-0,035
-265,511	800,000	0,015	-0,040
-264,497	800,000	0,008	0,019
-263,482	282,845	0,076	0,098
-262,467	800,000	0,018	-0,047
-261,453	-200,000	0,018	0,145
-260,438	-56,009	-0,100	0,032
-259,424	163,069	0,064	0,064
-258,409	74,722	0,059	0,045
-257,395	42,064	-0,081	0,053
-256,380	1,493	0,086	0,044
-255,365	-44,174	-0,128	-0,045
-254,351	499,777	0,015	-0,025
-253,336	-100,129	-0,115	-0,020
-252,322	-53,179	-0,038	-0,012
-251,307	-122,134	0,065	-0,007
-250,292	-85,683	0,054	0,012
-249,278	-200,000	0,073	0,000
-248,263	800,000	0,013	0,036
-247,249	75,289	-0,093	0,070
-246,234	-54,767	-0,085	-0,027
-245,219	-19,116	-0,112	-0,050
-244,205	-200,000	-0,040	0,162
-243,190	-200,000	-0,020	-0,084
-242,176	-200,000	-0,013	0,061
-241,161	35,372	-0,009	-0,006
-240,146	-91,797	0,046	0,009
-239,132	-53,070	0,092	0,030
-238,117	87,719	0,033	0,026
-237,103	263,094	-0,045	0,056
-236,088	784,718	0,072	-0,142
-235,073	-200,000	-0,009	0,175
-234,059	-200,000	-0,033	0,113
-233,044	774,632	0,028	-0,055
-232,030	193,177	0,122	-0,132
-231,015	56,948	0,033	0,023
-230,000	-77,398	-0,125	-0,031
-228,986	153,255	-0,052	0,051
-227,971	-200,000	-0,007	-0,024
-226,957	51,672	-0,068	-0,046
-225,942	-200,000	-0,009	0,066
-224,927	25,932	-0,054	-0,032
-223,913	107,046	-0,066	-0,056
-222,898	800,000	-0,041	-0,106
-221,884	-76,362	0,065	-0,016
-220,869	-200,000	0,053	0,168
-219,855	-200,000	0,042	0,208
-218,840	53,243	0,140	0,096
-217,825	115,857	0,032	0,028
-216,811	-123,381	-0,154	0,017
-215,796	-90,682	-0,148	-0,030
-214,782	-158,408	0,062	-0,003
-213,767	118,508	-0,109	0,096
-212,752	11,436	0,144	0,078
-211,738	-200,000	0,028	-0,115
-210,723	-200,000	-0,011	0,102
-209,709	-59,187	0,042	-0,013
-208,694	-200,000	-0,011	-0,215
-207,679	800,000	-0,062	-0,173
-206,665	-200,000	0,018	0,102
-205,650	71,187	0,105	0,077
-204,636	257,254	-0,087	-0,107
-203,621	-200,000	0,018	0,084
-202,606	800,000	0,044	-0,112
-201,592	483,467	0,024	0,039
-200,577	521,576	-0,017	-0,028
-199,563	-178,919	0,100	-0,002
-198,548	436,979	-0,042	0,066
-197,533	4,407	0,105	-0,055
-196,519	-19,129	0,168	0,074
-195,504	12,475	-0,082	0,045
-194,490	-90,132	0,179	0,037
-193,475	-142,703	-0,073	-0,005
-192,460	136,934	0,070	-0,065
-191,446	-155,815	0,127	0,006
-190,431	-200,000	-0,004	0,099
-189,417	-200,000	-0,001	0,118
-188,402	800,000	-0,055	-0,135
-187,387	800,000	-0,011	0,032
-186,373	299,519	-0,096	-0,126
-185,358	800,000	0,027	0,072
-184,344	-200,000	0,013	0,086
-183,329	1,407	0,107	-0,054
-182,315	-63,988	0,122	-0,035
-181,300	-111,435	-0,155	-0,022
-180,285	-200,000	-0,004	0,036
-179,271	-200,000	-0,014	-0,125
-178,256	-200,000	-0,006	0,098
-177,242	-200,000	-0,011	-0,124
-176,227	800,000	0,049	0,114
-175,212	537,943	0,031	0,052
-174,198	-22,255	0,100	0,043
-173,183	520,589	0,023	-0,039
-172,169	634,564	-0,049	-0,088
-171,154	218,724	0,056	0,064
-170,139	332,615	0,038	0,052
-169,125	-200,000	-0,057	0,000
-168,110	-75,176	0,050	-0,013
-167,096	-46,932	0,053	-0,018
-166,081	-100,333	0,073	0,013
-165,066	-83,012	-0,085	-0,019
-164,052	800,000	-0,035	-0,096
-163,037	103,618	0,062	0,052
-162,023	-171,995	0,127	0,003
-161,008	-58,023	0,118	0,037
-159,993	800,000	0,018	-0,039
-158,979	168,894	0,070	0,072
-157,964	31,580	-0,041	-0,025
-156,950	800,000	0,037	0,074
-155,935	-200,000	0,045	0,252
-154,920	-200,000	-0,009	0,030
-153,906	521,801	0,042	0,071
-152,891	-148,413	0,053	0,003
-151,877	242,965	-0,034	-0,041
-150,862	202,632	-0,096	-0,105
-149,847	579,948	0,002	0,004
-148,833	137,070	0,094	-0,087
-147,818	-177,914	0,139	-0,002
-146,804	-58,751	0,072	0,022
-145,789	-177,803	0,119	-0,002
-144,775	-39,427	-0,047	-0,017
-143,760	800,000	-0,022	0,050
-142,745	800,000	0,042	-0,087
-141,731	49,270	0,069	0,046
-140,716	724,843	-0,067	0,128
-139,702	-124,475	0,057	0,006
-138,687	-119,835	-0,092	0,011
-137,672	-152,648	0,075	0,004
-136,658	800,000	0,036	0,097
-135,643	-200,000	-0,006	0,059
-134,629	137,594	0,078	0,073
-133,614	130,879	-0,061	0,055
-132,599	-200,000	-0,027	0,134
-131,585	179,267	0,021	0,021
-130,570	-200,000	0,029	0,117
-129,556	-92,418	-0,123	-0,024
-128,541	-94,396	-0,068	0,013
-127,526	-120,319	0,100	-0,012
-126,512	-200,000	0,005	0,072
-125,497	800,000	0,040	0,090
-124,483	-65,677	-0,056	0,016
-123,468	-200,000	0,007	0,034
-122,453	-200,000	0,015	-0,052
-121,439	-122,764	-0,114	-0,013
-120,424	800,000	-0,053	-0,122
-119,410	24,726	0,126	0,074
-118,395	76,846	0,054	-0,041
-117,380	800,000	-0,052	0,157
-116,366	-200,000	-0,002	-0,032
-115,351	132,982	0,041	-0,038
-114,337	-83,043	-0,072	0,016
-113,322	-119,927	-0,131	0,016
-112,307	-34,128	0,072	0,028
-111,293	-200,000	-0,017	0,070
-110,278	-200,000	-0,014	0,106
-109,264	-89,353	0,110	-0,023
-108,249	800,000	0,012	-0,036
-107,234	227,407	-0,099	-0,115
-106,220	800,000	0,077	-0,194
-105,205	-42,099	-0,108	-0,039
-104,191	75,693	-0,095	0,071
-103,176	70,375	0,073	0,054
-102,162	-168,157	-0,118	0,003
-101,147	-47,937	0,061	-0,021
-100,132	766,944	-0,048	0,092
-99,118	178,122	-0,109	-0,113
-98,103	-76,868	-0,067	0,016
-97,089	76,618	0,109	-0,082
-96,074	725,794	-0,083	0,158
-95,059	-72,269	0,076	0,020
-94,045	-200,000	0,003	-0,058
-93,030	572,956	-0,016	-0,028
-92,016	-102,402	0,045	-0,008
-91,001	-200,000	-0,022	0,085
-89,986	-200,000	0,006	0,088
-88,972	119,732	-0,030	0,027
-87,957	800,000	0,031	0,074
-86,943	-200,000	0,017	0,063
-85,928	8,044	-0,028	-0,015
-84,913	-52,112	-0,121	-0,040
-83,899	281,305	0,144	-0,184
-82,884	-200,000	-0,018	-0,089
-81,870	579,890	0,083	0,145
-80,855	-113,175	-0,182	0,025
-79,840	157,727	-0,039	0,038
-78,826	13,490	-0,102	0,056
-77,811	264,031	0,068	-0,084
-76,797	-157,600	-0,079	0,003
-75,782	-50,981	-0,027	-0,009
-74,767	506,207	0,031	0,052
-73,753	69,853	0,067	-0,049
-72,738	800,000	0,041	0,103
-71,724	-200,000	0,003	-0,053
-70,709	152,248	-0,118	-0,115
-69,694	-200,000	0,004	0,012
-68,680	523,207	0,036	-0,060
-67,665	227,812	-0,028	0,033
-66,651	-200,000	-0,002	0,042
-65,636	-200,000	0,003	-0,051
-64,622	-96,372	0,135	0,025
-63,607	-200,000	-0,012	-0,052
-62,592	478,620	0,060	-0,096
-61,578	670,024	-0,044	-0,081
-60,563	252,682	0,031	0,038
-59,549	-119,298	0,131	-0,016
-58,534	-75,607	-1,460	-0,365
-57,519	436,627	-1,428	-2,213
-56,505	-200,000	-0,564	-4,448
-55,490	201,364	1,042	1,139
-54,476	800,000	4,687	10,952
-53,461	-200,000	17,898	285,999
-52,446	800,000	722,977	2236,035
-51,432	562,758	1637,760	2821,882
-50,417	80,831	1660,696	1269,010
-49,403	23,608	1534,776	893,522
-48,388	17,587	1458,273	819,881
-47,373	18,194	1447,746	816,848
-46,359	17,735	1438,523	809,424
-45,344	15,899	1433,685	797,924
-44,330	15,817	1431,641	796,364
-43,315	15,799	1430,159	795,419
-42,300	15,855	1428,414	794,686
-41,286	15,870	1427,310	794,110
-40,271	15,878	1425,772	793,262
-39,257	15,813	1424,760	792,360
-38,242	15,907	1423,380	792,005
-37,227	15,899	1421,924	791,125
-36,213	15,846	1420,845	790,242
-35,198	15,835	1419,608	789,473
-34,184	15,915	1418,885	789,415
-33,169	15,780	1417,753	788,118
-32,154	15,910	1416,268	787,873
-31,140	15,877	1415,064	787,015
-30,125	15,925	1413,917	786,572
-29,111	15,875	1412,702	785,631
-28,096	15,862	1411,824	785,053
-27,082	15,823	1410,530	784,117
-26,067	15,789	1409,505	783,359
-25,052	15,793	1408,447	782,759
-24,038	15,751	1407,458	781,982
-23,023	15,762	1406,589	781,516
-22,009	15,769	1405,368	780,843
-20,994	15,750	1404,636	780,314
-19,979	15,723	1403,761	779,672
-18,965	15,732	1402,566	779,018
-17,950	15,729	1401,569	778,422
-16,936	15,736	1400,711	777,944
-15,921	15,696	1399,409	777,008
-14,906	15,669	1398,632	776,420
-13,892	15,711	1397,710	776,071
-12,877	15,698	1396,772	775,456
-11,863	15,665	1395,853	774,763
-10,848	15,656	1395,002	774,218
-9,833	15,671	1393,954	773,676
-8,819	15,625	1393,126	772,974
-7,804	15,607	1392,225	772,360
-6,790	15,652	1391,113	771,922
-5,775	15,624	1389,930	771,104
-4,760	15,564	1389,203	770,392
-3,746	15,583	1388,540	770,082
-2,731	15,594	1387,501	769,527
-1,717	15,585	1386,632	768,973
-0,702	15,583	1384,822	767,931
0,313	19,290	1305,174	740,917
1,327	35,659	706,766	439,170
2,342	54,291	125,123	85,233
3,356	4,494	16,484	8,542
4,371	2,312	3,115	1,591
5,386	-44,615	0,624	0,220
6,400	800,000	0,036	0,111
7,415	283,112	-0,181	-0,230
8,429	37,188	-0,362	-0,227
9,444	222,754	-0,293	-0,335
10,459	164,434	-0,283	-0,283
11,473	-74,973	-0,302	-0,076
12,488	53,435	-0,217	-0,147
13,502	10,651	-0,333	-0,179
14,517	84,037	-0,317	-0,245
15,531	63,999	-0,385	-0,274
16,546	14,759	-0,331	-0,183
17,561	96,541	-0,306	-0,248
18,575	279,675	-0,167	-0,212
19,590	800,000	-0,106	-0,299
20,604	-72,842	-0,444	-0,115
21,619	97,835	-0,387	-0,314
22,634	68,209	-0,439	-0,317
23,648	115,739	-0,332	-0,287
24,663	134,866	-0,397	-0,365
25,677	155,582	-0,227	-0,221
26,692	-32,730	-0,479	-0,188
27,707	212,186	-0,274	-0,306
28,721	86,204	-0,381	-0,296
29,736	103,599	-0,353	-0,293
30,750	6,402	-0,453	-0,237
31,765	128,666	-0,379	-0,342
32,780	33,322	-0,402	-0,246
33,794	385,333	-0,233	-0,341
34,809	128,163	-0,288	-0,259
35,823	18,550	-0,416	-0,234
36,838	92,965	-0,452	-0,360
37,853	23,053	-0,353	-0,204
38,867	-27,241	-0,373	-0,153
39,882	114,753	-0,347	-0,298
40,896	25,143	-0,238	-0,139
41,911	51,291	-0,329	-0,220
42,926	14,814	-0,469	-0,258
43,940	51,940	-0,342	-0,230
44,955	178,172	-0,288	-0,298
45,969	15,251	-0,480	-0,265
46,984	15,926	-0,314	-0,174
47,999	56,912	-0,355	-0,244
49,013	158,278	-0,237	-0,232
50,028	69,690	-0,399	-0,290
51,042	92,824	-0,343	-0,274
52,057	514,818	-0,297	-0,492
53,071	40,593	-0,407	-0,258
54,086	-43,581	-0,390	-0,138
55,101	-11,759	-0,323	-0,149
56,115	81,096	-0,337	-0,256
57,130	7,355	-0,404	-0,212
58,144	76,718	-0,316	-0,236
59,159	92,829	-0,480	-0,382
60,174	-40,235	-0,389	-0,142
61,188	61,171	-0,403	-0,282
62,203	73,113	-0,337	-0,248
63,217	110,595	-0,325	-0,275
64,232	136,135	-0,372	-0,342
65,247	95,503	-0,394	-0,316
66,261	147,529	-0,330	-0,314
67,276	-23,547	-0,313	-0,132
68,290	-1,530	-0,432	-0,214
69,305	294,072	-0,249	-0,321
70,320	613,098	-0,180	-0,319
71,334	-17,529	-0,395	-0,174
72,349	71,281	-0,323	-0,235
73,363	17,484	-0,299	-0,167
74,378	-39,153	-0,432	-0,159
75,393	115,031	-0,309	-0,265
76,407	190,102	-0,278	-0,294
77,422	149,127	-0,278	-0,264
78,436	120,140	-0,304	-0,265
79,451	114,685	-0,288	-0,247
80,466	121,138	-0,355	-0,311
81,480	63,799	-0,388	-0,274
82,495	5,541	-0,338	-0,175
83,509	40,397	-0,254	-0,161
84,524	408,277	-0,209	-0,312
85,539	-31,187	-0,301	-0,119
86,553	-36,194	-0,280	-0,106
87,568	103,369	-0,336	-0,277
88,582	73,934	-0,263	-0,194
89,597	88,905	-0,274	-0,214
90,611	86,715	-0,332	-0,257
91,626	602,414	-0,148	-0,260
92,641	-42,186	-0,366	-0,131
93,655	-19,657	-0,304	-0,132
94,670	56,535	-0,288	-0,197
95,684	-25,223	-0,308	-0,127
96,699	-69,630	-0,263	-0,070
97,714	37,113	-0,223	-0,138
98,728	-114,988	-0,284	-0,038
99,743	24,491	-0,252	-0,146
100,757	163,728	-0,208	-0,206
101,772	70,654	-0,300	-0,218
102,787	-6,827	-0,355	-0,169
103,801	15,651	-0,284	-0,156
104,816	106,824	-0,231	-0,192
105,830	-21,195	-0,320	-0,137
106,845	143,100	-0,248	-0,232
107,860	-14,795	-0,322	-0,145
108,874	37,335	-0,288	-0,179
109,889	18,789	-0,378	-0,212
110,903	-29,425	-0,412	-0,165
111,918	34,270	-0,297	-0,181
112,933	-122,811	-0,277	-0,031
113,947	-80,705	-0,256	-0,059
114,962	-16,502	-0,196	-0,087
115,976	-60,182	-0,423	-0,126
116,991	-6,244	-0,363	-0,173
118,006	333,792	-0,168	-0,228
119,020	-9,237	-0,240	-0,112
120,035	800,000	-0,110	-0,280
121,049	305,155	-0,196	-0,256
122,064	18,868	-0,312	-0,175
123,079	227,245	-0,167	-0,191
124,093	-24,629	-0,304	-0,126
125,108	800,000	-0,119	-0,299
126,122	15,295	-0,333	-0,183
127,137	70,441	-0,181	-0,131
128,151	19,304	-0,190	-0,106
129,166	309,176	-0,166	-0,217
130,181	316,587	-0,150	-0,200
131,195	82,684	-0,394	-0,300
132,210	4,749	-0,249	-0,128
133,224	87,287	-0,280	-0,217
134,239	-98,308	-0,295	-0,053
135,254	-106,599	-0,376	-0,058
136,268	-119,486	-0,265	-0,032
137,283	78,881	-0,249	-0,186
138,297	27,074	-0,327	-0,192
139,312	79,606	-0,356	-0,267
140,327	2,040	-0,241	-0,122
141,341	-61,893	-0,271	-0,079
142,356	1,872	-0,157	-0,079
143,370	-46,779	-0,273	-0,093
144,385	74,240	-0,290	-0,213
145,400	-114,115	-0,292	-0,039
146,414	80,426	-0,211	-0,159
147,429	246,184	-0,155	-0,183
148,443	144,974	-0,203	-0,190
149,458	-113,322	-0,187	-0,025
150,473	167,927	-0,265	-0,264
151,487	522,436	-0,150	-0,248
152,502	-24,065	-0,215	-0,089
153,516	259,481	-0,186	-0,225
154,531	166,374	-0,224	-0,222
155,546	-55,307	-0,239	-0,074
156,560	-42,656	-0,158	-0,056
157,575	800,000	-0,126	-0,298
158,589	38,140	-0,339	-0,211
159,604	-159,715	-0,352	-0,013
160,619	82,149	-0,331	-0,251
161,633	-57,415	-0,264	-0,081
162,648	-55,838	-0,388	-0,120
163,662	211,517	-0,137	-0,151
164,677	-16,765	-0,263	-0,116
165,692	52,898	-0,207	-0,138
166,706	263,424	-0,179	-0,217
167,721	215,697	-0,226	-0,251
168,735	305,600	-0,197	-0,256
169,750	-69,361	-0,301	-0,080
170,764	54,029	-0,253	-0,170
171,779	-105,801	-0,292	-0,046
172,794	7,953	-0,201	-0,105
173,808	551,881	-0,186	-0,312
174,823	91,332	-0,218	-0,171
175,837	67,618	-0,262	-0,186
176,852	100,889	-0,275	-0,223
177,867	23,998	-0,234	-0,134
178,881	39,097	-0,250	-0,156
179,896	183,284	-0,177	-0,183
180,910	94,867	-0,189	-0,150
181,925	46,405	-0,234	-0,151
182,940	130,923	-0,239	-0,214
183,954	25,117	-0,239	-0,138
184,969	-98,970	-0,138	-0,024
185,983	-104,433	-0,248	-0,040
186,998	243,713	-0,153	-0,179
188,013	155,163	-0,095	-0,091
189,027	29,723	-0,202	-0,120
190,042	344,982	-0,154	-0,211
191,056	400,382	-0,137	-0,201
192,071	-104,079	-0,240	-0,039
193,086	393,881	-0,158	-0,230
194,100	351,927	-0,181	-0,250
195,115	239,843	-0,139	-0,162
196,129	-119,116	-0,268	-0,032
197,144	34,356	-0,227	-0,138
198,159	-147,247	-0,269	0,016
199,173	-84,832	-0,233	-0,051
200,188	74,225	-0,224	-0,164
201,202	413,224	-0,122	-0,182
202,217	-173,944	-0,148	0,003
203,232	587,162	-0,132	-0,227
204,246	676,318	-0,186	-0,337
205,261	89,242	-0,374	-0,290
206,275	99,521	-0,185	-0,149
207,290	-7,518	-0,244	-0,114
208,304	-188,787	-0,203	-0,002
209,319	670,837	-0,063	-0,114
210,334	87,197	-0,225	-0,173
211,348	108,352	-0,271	-0,225
212,363	112,198	-0,240	-0,202
213,377	800,000	-0,075	-0,174
214,392	18,660	-0,179	-0,099
215,407	-128,976	-0,205	-0,020
216,421	257,858	-0,157	-0,188
217,436	-200,000	-0,034	-0,186
218,450	800,000	-0,111	-0,251
219,465	42,587	-0,192	-0,121
220,480	283,205	-0,179	-0,224
221,494	128,545	-0,199	-0,176
222,509	-40,831	-0,209	-0,075
223,523	-200,000	-0,049	-0,184
224,538	145,653	-0,242	-0,226
225,553	485,536	-0,189	-0,301
226,567	88,006	-0,145	-0,111
227,582	540,441	-0,181	-0,300
228,596	58,441	-0,216	-0,147
229,611	-96,202	-0,243	-0,044
230,626	-55,171	-0,218	-0,068
231,640	-43,249	-0,107	-0,037
232,655	-81,712	-0,193	-0,044
233,669	-191,703	-0,333	0,002
234,684	165,528	-0,122	-0,120
235,699	2,682	-0,192	-0,096
236,713	66,862	-0,145	-0,102
237,728	160,498	-0,135	-0,131
238,742	-85,691	-0,242	-0,052
239,757	17,608	-0,206	-0,114
240,772	47,763	-0,343	-0,222
241,786	-71,831	-0,263	-0,067
242,801	-167,619	-0,254	-0,007
243,815	294,067	-0,158	-0,200
244,830	138,422	-0,101	-0,092
245,844	1,716	-0,214	-0,107
246,859	-72,963	-0,270	-0,068
247,874	231,127	-0,122	-0,139
248,888	6,630	-0,309	-0,159
249,903	116,726	-0,227	-0,193
250,917	215,026	-0,148	-0,163
251,932	76,360	-0,154	-0,113
252,947	-80,547	-0,037	-0,009
253,961	800,000	-0,104	-0,221
254,976	63,219	-0,207	-0,143
255,990	56,641	-0,247	-0,166
257,005	39,829	-0,205	-0,127
258,020	154,343	-0,150	-0,143
259,034	-49,330	-0,147	0,048
260,049	-102,447	-0,102	0,017
261,063	-48,438	-0,371	-0,123
262,078	21,873	-0,277	-0,156
263,093	490,029	-0,178	-0,283
264,107	585,744	-0,117	-0,199
265,122	173,943	-0,143	-0,143
266,136	547,308	-0,042	-0,070
267,151	-200,000	-0,120	-0,000
268,166	246,979	-0,136	-0,159
269,180	-71,275	-0,270	-0,069
270,195	-46,134	-0,249	-0,084
271,209	-137,437	-0,169	-0,013
272,224	75,120	-0,121	-0,088
273,239	-200,000	-0,001	-0,173
274,253	99,663	-0,077	-0,062
275,268	-9,472	-0,124	-0,057
276,282	-15,567	-0,246	-0,108
277,297	98,309	-0,217	-0,172
278,312	217,530	-0,095	-0,105
279,326	67,478	-0,130	0,091
280,341	282,475	-0,130	-0,162
281,355	-26,252	-0,207	-0,084
282,370	18,620	-0,150	-0,083
283,384	76,536	-0,160	-0,117
284,399	202,121	-0,088	-0,094
285,414	305,627	-0,109	-0,140
286,428	-10,546	-0,092	-0,042
287,443	-200,000	-0,018	-0,183
288,457	-200,000	-0,073	-0,231
289,472	-4,930	-0,186	-0,088
290,487	91,198	-0,256	-0,198
291,501	27,695	-0,120	-0,070
292,516	232,560	-0,138	-0,157
293,530	-20,120	-0,221	-0,094
294,545	71,492	-0,139	-0,099
295,560	86,834	-0,105	-0,080
296,574	-21,756	-0,151	-0,063
297,589	176,323	-0,184	-0,184
298,603	76,927	-0,181	-0,132
299,618	800,000	-0,078	-0,214
300,633	-12,930	-0,113	-0,050
301,647	800,000	-0,047	0,099
302,662	205,246	-0,049	-0,053
303,676	-30,887	-0,145	-0,056
304,691	-27,415	-0,206	-0,082
305,706	22,035	-0,096	-0,054
306,720	-197,981	-0,179	0,001
307,735	50,317	-0,149	-0,097
308,749	-13,787	-0,143	-0,064
309,764	-115,636	-0,148	-0,019
310,779	101,820	-0,169	0,136
311,793	-14,671	-0,233	-0,103
312,808	36,988	-0,147	-0,090
313,822	573,327	-0,035	-0,060
314,837	75,029	-0,236	-0,171
315,852	-139,376	-0,183	0,013
316,866	800,000	-0,042	-0,097
317,881	531,651	-0,111	-0,181
318,895	76,636	-0,102	-0,074
319,910	-86,759	-0,155	0,032
320,925	0,783	-0,236	-0,116
321,939	337,824	-0,103	-0,138
322,954	-49,395	-0,267	-0,087
323,968	25,630	-0,100	-0,057
324,983	141,846	-0,103	-0,094
325,997	-200,000	-0,046	-0,181
327,012	241,725	-0,167	-0,193
328,027	-70,810	-0,120	-0,031
329,041	606,824	-0,085	-0,147
330,056	514,087	-0,075	-0,121
331,070	800,000	-0,059	-0,151
332,085	-168,267	-0,065	-0,002
333,100	-27,754	-0,145	-0,058
334,114	-81,501	-0,229	-0,051
335,129	-79,047	-0,194	-0,045
336,143	76,233	-0,170	-0,124
337,158	-90,339	-0,158	-0,031
338,173	-82,045	-0,179	-0,040
339,187	263,047	-0,094	-0,113
340,202	190,625	-0,174	-0,180
341,216	322,787	-0,126	-0,165
342,231	346,163	-0,131	-0,178
343,246	-116,194	-0,121	-0,015
344,260	800,000	-0,096	-0,230
345,275	28,497	-0,076	-0,044
346,289	412,963	-0,065	-0,096
347,304	173,472	-0,148	-0,147
348,319	4,365	-0,119	-0,060
349,333	-109,560	-0,313	-0,045
350,348	800,000	-0,048	-0,102
351,362	-200,000	0,013	-0,060
352,377	59,715	-0,127	-0,086
353,392	-26,727	-0,085	-0,034
354,406	612,843	-0,150	-0,260
355,421	209,277	1314,780	1416,895
356,435	161,056	1475,551	1417,406
