DTS Sentinel unit serial number:	SN410029Multiplexer serial number:	ORYXHardware model number:	OX2-SRSoftware version number:	ORYX F/W v4,00 Oryx Data Collector v3.7.2.0data status	okinstallation	B3 Nyhavnadifferential loss correction	single-endedforward channel	channel 1reverse channel	N/Adate	2023/12/02time	15:57:30forward acquisition time	300,00reverse acquisition time	0,00gamma	499,1914k internal	0,3197k external	0,3197temperature offset calibration	1,0000default loss term (dB/km)	0,3820temperature slope calibration	1,0000multiplexer offset coefficient	1,0000multiplexer slope coefficient	1,0000fibre end	0,00T internal ref (°C)	14,48T ext. ref 1 (°C)	-1,11T ext. ref 2 (°C)	-1,13length (m)	temperature (°C)	Stokes	anti-Stokes-744,400	265,649	-0,132	-0,169
-743,385	-200,000	0,019	0,419
-742,371	49,615	-0,182	-0,124
-741,356	800,000	-0,073	0,205
-740,342	-195,111	-0,220	-0,001
-739,327	-200,000	-0,045	0,301
-738,312	800,000	-0,131	-0,308
-737,298	-200,000	0,033	0,270
-736,283	244,820	-0,124	-0,152
-735,269	-200,000	0,063	0,254
-734,254	210,906	-0,249	-0,286
-733,239	-37,743	-0,232	0,089
-732,225	176,860	-0,199	-0,210
-731,210	-61,910	0,195	0,059
-730,196	-200,000	-0,048	-0,184
-729,181	-81,063	-0,039	-0,009
-728,167	-174,226	-0,136	-0,003
-727,152	551,419	-0,033	-0,059
-726,137	-200,000	-0,007	0,028
-725,123	338,576	-0,015	0,021
-724,108	-96,811	-0,233	-0,044
-723,094	36,274	-0,042	-0,027
-722,079	-33,122	-0,148	-0,059
-721,064	-67,576	-0,107	-0,030
-720,050	746,188	0,037	-0,073
-719,035	-200,000	0,019	-0,083
-718,021	46,466	-0,140	0,094
-717,006	-52,019	0,095	0,032
-715,991	629,952	-0,064	-0,118
-714,977	800,000	-0,050	-0,129
-713,962	-200,000	0,044	-0,205
-712,948	-131,915	-0,092	-0,009
-711,933	-200,000	0,006	0,065
-710,918	800,000	-0,014	0,042
-709,904	-200,000	0,035	-0,194
-708,889	22,132	-0,093	-0,055
-707,875	-29,363	0,093	0,039
-706,860	-200,000	-0,004	-0,020
-705,845	362,239	-0,087	0,127
-704,831	-125,468	-0,090	-0,010
-703,816	90,567	0,040	0,033
-702,802	-200,000	0,003	-0,065
-701,787	-28,654	-0,113	0,047
-700,772	186,183	0,036	0,039
-699,758	-9,517	-0,084	-0,040
-698,743	84,497	0,086	0,069
-697,729	547,737	0,029	0,051
-696,714	344,751	0,036	-0,052
-695,699	100,583	-0,007	0,006
-694,685	33,513	-0,089	0,056
-693,670	-200,000	0,030	-0,112
-692,656	-29,680	-0,153	0,063
-691,641	471,685	0,038	-0,063
-690,627	-200,000	0,002	0,036
-689,612	-8,350	0,053	0,026
-688,597	22,667	-0,037	-0,022
-687,583	-200,000	-0,003	0,114
-686,568	100,052	-0,080	-0,068
-685,554	429,524	0,099	-0,156
-684,539	701,068	-0,053	-0,101
-683,524	-58,571	0,071	0,022
-682,510	-121,422	0,104	-0,012
-681,495	-73,178	-0,153	-0,040
-680,481	800,000	0,036	-0,114
-679,466	800,000	-0,086	-0,258
-678,451	485,445	0,087	-0,144
-677,437	-85,225	0,044	0,010
-676,422	-78,255	-0,186	0,046
-675,408	444,848	-0,101	0,161
-674,393	244,601	0,013	0,016
-673,378	94,370	-0,087	-0,071
-672,364	-36,083	-0,093	0,036
-671,349	160,969	-0,042	-0,043
-670,335	198,388	0,033	0,037
-669,320	-21,439	0,037	0,017
-668,305	-200,000	-0,001	-0,036
-667,291	654,091	-0,064	-0,119
-666,276	-200,000	-0,000	-0,166
-665,262	800,000	0,011	0,023
-664,247	800,000	-0,065	-0,155
-663,232	-200,000	0,013	0,051
-662,218	410,670	0,026	-0,040
-661,203	-200,000	-0,019	0,064
-660,189	415,925	0,059	-0,091
-659,174	-87,887	-0,043	0,009
-658,159	800,000	-0,006	0,012
-657,145	800,000	-0,065	-0,136
-656,130	12,575	-0,040	0,023
-655,116	610,629	-0,048	0,087
-654,101	373,883	0,086	0,127
-653,086	800,000	-0,056	-0,133
-652,072	486,004	-0,032	-0,053
-651,057	84,860	-0,004	0,003
-650,043	-155,559	-0,219	0,010
-649,028	-70,015	0,064	-0,018
-648,014	166,537	-0,050	0,052
-646,999	483,719	-0,036	-0,059
-645,984	-7,220	-0,067	0,033
-644,970	205,111	0,086	0,097
-643,955	-131,986	-0,096	-0,009
-642,941	-57,014	0,066	-0,021
-641,926	-101,935	-0,043	0,007
-640,911	541,987	0,073	-0,126
-639,897	-18,802	-0,077	-0,035
-638,882	23,999	0,123	0,073
-637,868	169,942	-0,058	-0,060
-636,853	503,159	-0,032	-0,054
-635,838	87,228	-0,092	-0,073
-634,824	122,208	-0,065	0,059
-633,809	434,178	0,082	-0,130
-632,795	76,577	0,120	0,093
-631,780	23,617	-0,041	0,025
-630,765	-178,481	-0,125	0,002
-629,751	210,288	-0,055	0,063
-628,736	800,000	-0,050	-0,137
-627,722	166,749	-0,091	-0,094
-626,707	-152,193	-0,034	0,002
-625,692	-85,775	-0,099	-0,022
-624,678	-78,966	0,001	-0,000
-623,663	264,301	-0,058	0,073
-622,649	-122,566	-0,160	0,019
-621,634	-108,155	-0,088	-0,014
-620,619	283,659	-0,069	-0,090
-619,605	800,000	-0,024	-0,068
-618,590	49,019	0,072	0,049
-617,576	203,751	0,021	0,023
-616,561	520,823	0,062	0,106
-615,546	-200,000	-0,022	-0,148
-614,532	-200,000	0,031	-0,102
-613,517	497,680	0,047	0,078
-612,503	-200,000	-0,014	-0,048
-611,488	-200,000	0,033	0,110
-610,474	-200,000	-0,048	0,269
-609,459	800,000	0,044	0,115
-608,444	542,758	0,026	-0,044
-607,430	9,214	-0,218	0,119
-606,415	49,224	-0,052	-0,035
-605,401	-110,022	0,036	0,005
-604,386	-143,339	-0,051	0,003
-603,371	-1,568	0,039	-0,020
-602,357	800,000	-0,028	0,086
-601,342	-26,204	0,153	0,065
-600,328	721,986	-0,059	-0,115
-599,313	220,731	0,074	0,086
-598,298	-200,000	-0,008	0,103
-597,284	7,293	0,081	0,044
-596,269	-178,392	0,079	0,001
-595,255	-63,380	-0,177	0,052
-594,240	800,000	0,035	0,101
-593,225	202,566	0,101	-0,113
-592,211	-200,000	0,021	-0,174
-591,196	34,622	-0,060	0,038
-590,182	-63,099	0,075	0,022
-589,167	-200,000	-0,043	0,000
-588,152	-200,000	0,024	-0,101
-587,138	-20,684	-0,081	0,036
-586,123	85,272	-0,042	-0,034
-585,109	608,857	-0,050	-0,090
-584,094	-200,000	0,007	-0,118
-583,079	800,000	0,067	0,135
-582,065	77,526	0,013	0,010
-581,050	800,000	-0,027	-0,083
-580,036	285,098	0,096	-0,125
-579,021	-200,000	-0,023	-0,184
-578,006	349,282	-0,120	-0,172
-576,992	-200,000	-0,016	0,051
-575,977	-200,000	0,018	0,114
-574,963	50,051	0,093	0,063
-573,948	-39,271	0,060	0,023
-572,934	-200,000	0,005	0,082
-571,919	464,791	-0,057	0,092
-570,904	-200,000	0,010	-0,141
-569,890	800,000	-0,008	0,017
-568,875	231,439	0,083	0,098
-567,861	158,577	-0,047	0,047
-566,846	-200,000	-0,010	0,065
-565,831	532,029	-0,042	0,073
-564,817	-184,388	0,111	-0,001
-563,802	666,475	-0,055	0,104
-562,788	800,000	-0,019	-0,050
-561,773	-200,000	-0,019	-0,118
-560,758	51,458	-0,023	0,016
-559,744	259,413	0,131	0,164
-558,729	-200,000	-0,035	-0,150
-557,715	-200,000	0,012	-0,131
-556,700	153,053	0,066	-0,065
-555,685	800,000	-0,018	-0,052
-554,671	-177,361	0,043	-0,001
-553,656	12,630	-0,196	0,109
-552,642	-19,117	-0,100	0,045
-551,627	-93,769	0,150	-0,030
-550,612	-140,179	-0,181	0,014
-549,598	181,938	0,010	-0,011
-548,583	137,635	-0,092	-0,087
-547,569	40,078	-0,099	0,064
-546,554	309,824	0,044	0,060
-545,539	800,000	-0,030	0,079
-544,525	800,000	0,032	-0,073
-543,510	-147,421	-0,032	0,002
-542,496	-200,000	-0,003	-0,121
-541,481	-200,000	-0,008	-0,108
-540,466	98,838	0,070	0,058
-539,452	-200,000	0,029	0,124
-538,437	-40,001	0,097	-0,036
-537,423	-200,000	0,009	0,076
-536,408	164,216	-0,085	0,087
-535,393	188,212	-0,060	-0,065
-534,379	43,541	-0,133	-0,088
-533,364	-118,698	0,102	-0,013
-532,350	-200,000	-0,012	0,057
-531,335	795,702	0,070	-0,139
-530,321	-200,000	-0,002	0,175
-529,306	-200,000	0,007	-0,025
-528,291	227,107	-0,110	-0,129
-527,277	-123,343	-0,085	0,010
-526,262	-200,000	-0,017	0,078
-525,248	354,158	-0,047	0,068
-524,233	-51,542	0,082	0,027
-523,218	800,000	0,010	-0,026
-522,204	112,255	-0,070	0,061
-521,189	-200,000	0,008	-0,056
-520,175	-200,000	0,003	0,105
-519,160	66,553	0,115	-0,084
-518,145	561,536	-0,057	0,099
-517,131	800,000	0,043	0,119
-516,116	-169,602	0,127	0,003
-515,102	-121,791	-0,124	-0,015
-514,087	800,000	-0,018	-0,056
-513,072	-198,275	-0,078	-0,000
-512,058	-200,000	-0,012	0,078
-511,043	-200,000	-0,006	0,043
-510,029	-138,712	0,101	-0,008
-509,014	84,619	0,045	0,036
-507,999	187,367	0,043	0,046
-506,985	68,651	-0,075	-0,055
-505,970	-121,867	-0,174	0,020
-504,956	-200,000	-0,006	-0,107
-503,941	-124,495	0,118	-0,013
-502,926	-200,000	-0,001	0,052
-501,912	-200,000	0,049	0,173
-500,897	225,022	-0,022	0,025
-499,883	-82,821	0,039	-0,009
-498,868	800,000	-0,040	-0,088
-497,853	800,000	-0,042	-0,100
-496,839	114,206	-0,032	0,028
-495,824	-200,000	0,005	-0,061
-494,810	250,098	0,036	0,044
-493,795	-86,143	-0,088	0,019
-492,781	102,947	-0,083	-0,070
-491,766	182,339	-0,097	-0,103
-490,751	-68,987	0,079	-0,022
-489,737	-43,111	-0,033	0,012
-488,722	-200,000	0,014	0,046
-487,708	5,874	0,177	0,094
-486,693	-200,000	-0,002	-0,124
-485,678	-200,000	0,004	0,058
-484,664	800,000	-0,020	0,044
-483,649	-200,000	-0,005	-0,025
-482,635	62,327	0,017	0,012
-481,620	91,432	0,028	0,023
-480,605	29,200	-0,087	0,053
-479,591	463,511	0,045	-0,073
-478,576	-200,000	-0,014	0,054
-477,562	800,000	-0,017	0,043
-476,547	-200,000	-0,028	0,134
-475,532	125,381	0,069	0,063
-474,518	-132,172	-0,070	-0,006
-473,503	82,656	0,142	0,111
-472,489	-200,000	-0,024	0,152
-471,474	-200,000	0,000	-0,162
-470,459	-10,497	-0,169	0,080
-469,445	82,739	-0,023	0,018
-468,430	-15,358	-0,079	-0,036
-467,416	-81,853	-0,046	-0,011
-466,401	692,468	-0,068	-0,129
-465,386	-200,000	0,017	0,087
-464,372	800,000	0,023	0,048
-463,357	-200,000	-0,017	-0,073
-462,343	682,442	-0,053	-0,100
-461,328	49,024	-0,031	0,021
-460,313	270,892	0,081	0,103
-459,299	-200,000	-0,020	0,087
-458,284	-200,000	-0,009	0,056
-457,270	588,989	-0,072	0,129
-456,255	-200,000	0,035	-0,204
-455,241	-80,749	-0,021	0,005
-454,226	73,042	-0,126	-0,094
-453,211	767,396	-0,013	0,026
-452,197	-200,000	0,010	0,049
-451,182	42,171	-0,076	0,050
-450,168	-12,257	0,115	-0,054
-449,153	-200,000	-0,026	-0,179
-448,138	-200,000	-0,018	0,087
-447,124	-200,000	-0,020	-0,140
-446,109	-200,000	-0,001	-0,182
-445,095	-200,000	-0,006	0,148
-444,080	564,135	0,045	0,079
-443,065	-200,000	-0,001	-0,026
-442,051	82,772	-0,114	-0,089
-441,036	398,559	0,041	-0,062
-440,022	100,543	0,088	0,073
-439,007	52,796	0,041	-0,028
-437,992	4,779	0,124	0,065
-436,978	-126,558	0,051	0,005
-435,963	-69,035	-0,051	0,014
-434,949	800,000	-0,030	-0,078
-433,934	116,661	-0,004	-0,003
-432,919	224,996	-0,041	-0,047
-431,905	-200,000	-0,001	-0,114
-430,890	147,852	0,078	-0,076
-429,876	211,721	0,066	-0,075
-428,861	-200,000	0,008	0,112
-427,846	101,734	0,074	-0,062
-426,832	-200,000	0,002	-0,091
-425,817	-200,000	-0,001	0,006
-424,803	-63,949	0,157	-0,046
-423,788	-200,000	0,023	0,131
-422,773	-35,769	-0,016	0,006
-421,759	-200,000	0,026	0,099
-420,744	-200,000	-0,021	0,149
-419,730	-25,402	-0,101	0,043
-418,715	305,073	-0,089	-0,119
-417,701	-2,177	0,053	-0,027
-416,686	303,002	-0,037	0,049
-415,671	264,834	0,014	0,018
-414,657	800,000	0,047	-0,097
-413,642	-35,591	-0,087	0,034
-412,628	-138,140	0,133	-0,010
-411,613	0,951	-0,071	-0,036
-410,598	800,000	0,029	-0,073
-409,584	97,502	-0,106	-0,087
-408,569	307,525	0,044	-0,059
-407,555	800,000	0,023	0,071
-406,540	144,071	-0,067	0,064
-405,525	-35,983	0,041	0,016
-404,511	800,000	-0,055	0,129
-403,496	-66,102	0,075	-0,021
-402,482	222,908	-0,063	-0,073
-401,467	394,451	-0,059	0,089
-400,452	-75,140	0,164	-0,042
-399,438	356,934	-0,062	0,089
-398,423	-44,985	-0,058	-0,021
-397,409	-6,520	0,066	-0,032
-396,394	-95,428	-0,113	-0,022
-395,379	99,641	0,108	-0,090
-394,365	225,959	0,135	-0,158
-393,350	-71,111	0,123	0,033
-392,336	-55,449	-0,090	0,029
-391,321	-149,777	-0,064	-0,004
-390,306	443,457	0,013	-0,021
-389,292	-200,000	-0,055	-0,211
-388,277	-94,569	0,201	0,039
-387,263	-92,351	0,086	-0,017
-386,248	-98,169	-0,155	0,028
-385,233	242,166	0,094	-0,113
-384,219	355,965	-0,026	0,037
-383,204	8,379	-0,110	-0,059
-382,190	-200,000	0,006	-0,115
-381,175	57,213	-0,059	-0,041
-380,160	-88,068	-0,052	-0,011
-379,146	150,540	-0,049	0,048
-378,131	-200,000	0,014	0,102
-377,117	-200,000	-0,020	-0,069
-376,102	369,648	-0,102	-0,148
-375,088	-166,799	-0,093	0,003
-374,073	31,565	-0,030	0,019
-373,058	-200,000	-0,005	-0,092
-372,044	283,600	0,054	0,070
-371,029	800,000	0,048	0,100
-370,015	99,118	-0,039	0,033
-369,000	-40,277	-0,129	-0,048
-367,985	800,000	0,026	0,064
-366,971	-89,779	0,068	-0,014
-365,956	-200,000	0,000	-0,008
-364,942	-112,384	0,062	0,009
-363,927	-200,000	-0,012	0,085
-362,912	254,890	0,013	0,016
-361,898	271,124	0,035	-0,044
-360,883	-163,463	-0,045	-0,002
-359,869	-156,283	0,041	-0,002
-358,854	86,500	0,124	0,098
-357,839	186,663	-0,092	-0,099
-356,825	-5,046	0,101	-0,050
-355,810	-200,000	0,005	0,087
-354,796	-200,000	-0,006	0,095
-353,781	206,163	-0,114	-0,128
-352,766	8,398	0,095	-0,051
-351,752	-200,000	-0,009	0,137
-350,737	-200,000	-0,002	0,019
-349,723	-64,021	0,098	0,028
-348,708	-109,542	0,077	0,012
-347,693	157,005	-0,032	0,032
-346,679	58,580	0,026	-0,018
-345,664	800,000	0,038	-0,116
-344,650	-59,669	-0,045	0,014
-343,635	800,000	0,003	0,010
-342,620	-200,000	-0,016	0,141
-341,606	-200,000	0,014	-0,083
-340,591	183,353	-0,009	-0,009
-339,577	-55,558	0,152	0,048
-338,562	-200,000	-0,001	-0,020
-337,548	-107,206	-0,084	-0,013
-336,533	-80,680	-0,015	-0,003
-335,518	234,248	0,052	-0,062
-334,504	-149,315	0,108	-0,006
-333,489	535,845	-0,055	-0,094
-332,475	161,015	0,057	-0,057
-331,460	93,828	-0,028	-0,023
-330,445	-200,000	0,006	-0,033
-329,431	140,506	0,075	0,071
-328,416	-158,159	0,118	0,005
-327,402	-121,456	0,059	-0,007
-326,387	86,002	-0,148	-0,117
-325,372	785,159	0,041	-0,080
-324,358	47,992	-0,038	-0,026
-323,343	-200,000	0,021	-0,098
-322,329	-200,000	-0,010	0,046
-321,314	-200,000	0,009	-0,030
-320,299	-166,830	0,161	0,005
-319,285	-200,000	-0,005	0,119
-318,270	370,487	0,045	0,065
-317,256	-109,081	0,092	0,014
-316,241	-200,000	0,047	-0,211
-315,226	-92,561	0,146	-0,029
-314,212	-11,761	0,149	0,070
-313,197	-14,025	0,069	0,032
-312,183	69,744	-0,053	-0,039
-311,168	-65,798	-0,057	-0,016
-310,153	75,740	0,049	0,037
-309,139	209,369	-0,091	0,102
-308,124	800,000	0,035	0,090
-307,110	88,043	0,086	0,068
-306,095	-96,622	0,088	0,017
-305,080	-200,000	0,028	0,155
-304,066	-45,750	-0,013	-0,005
-303,051	-94,305	-0,190	-0,037
-302,037	-94,683	-0,087	-0,017
-301,022	39,291	0,122	0,078
-300,008	-200,000	0,037	-0,139
-298,993	34,119	-0,117	-0,073
-297,978	-200,000	-0,015	-0,064
-296,964	688,374	0,067	0,126
-295,949	-105,663	0,021	-0,003
-294,935	34,466	0,069	0,043
-293,920	-80,343	-0,170	0,040
-292,905	-58,997	0,122	0,037
-291,891	-200,000	-0,019	0,100
-290,876	114,753	0,047	0,041
-289,862	-200,000	-0,017	-0,096
-288,847	88,019	-0,035	0,027
-287,832	-133,042	-0,063	-0,006
-286,818	-139,776	0,136	0,010
-285,803	-200,000	0,010	-0,072
-284,789	800,000	0,052	0,120
-283,774	274,450	0,061	0,077
-282,759	349,064	-0,059	-0,084
-281,745	-200,000	-0,072	0,000
-280,730	-125,206	0,061	0,007
-279,716	-200,000	0,006	-0,065
-278,701	-200,000	0,016	-0,057
-277,686	-200,000	-0,010	-0,044
-276,672	70,695	0,143	0,106
-275,657	-83,475	-0,058	0,013
-274,643	-200,000	0,014	0,092
-273,628	-21,588	-0,033	0,014
-272,613	212,499	-0,088	-0,099
-271,599	-13,471	0,082	-0,038
-270,584	-200,000	0,012	0,145
-269,570	-76,215	0,044	0,011
-268,555	-200,000	-0,014	-0,169
-267,540	-134,086	0,130	0,011
-266,526	-65,165	-0,092	-0,026
-265,511	64,472	0,092	-0,066
-264,497	-104,983	0,116	-0,019
-263,482	291,667	0,046	0,059
-262,467	-200,000	0,020	0,095
-261,453	-108,155	0,058	0,009
-260,438	-200,000	0,001	-0,060
-259,424	-69,676	0,058	-0,016
-258,409	-200,000	-0,023	-0,143
-257,395	311,672	0,102	0,137
-256,380	-200,000	0,028	0,128
-255,365	800,000	-0,054	0,130
-254,351	553,332	-0,053	-0,092
-253,336	351,580	-0,085	-0,120
-252,322	269,419	-0,083	-0,105
-251,307	93,411	-0,088	0,071
-250,292	-21,605	0,094	0,041
-249,278	800,000	0,037	0,074
-248,263	-154,623	0,060	-0,003
-247,249	-200,000	0,058	0,199
-246,234	-78,119	-0,084	-0,020
-245,219	-200,000	0,007	-0,049
-244,205	-200,000	0,012	-0,124
-243,190	-200,000	0,005	-0,024
-242,176	26,377	-0,061	0,037
-241,161	513,019	0,042	0,070
-240,146	200,353	0,089	0,097
-239,132	-57,611	-0,064	0,020
-238,117	111,201	-0,085	-0,073
-237,103	-50,354	-0,110	0,037
-236,088	-3,201	0,103	-0,051
-235,073	-200,000	0,001	0,077
-234,059	-200,000	0,038	0,173
-233,044	430,658	-0,017	0,026
-232,030	-200,000	0,036	-0,193
-231,015	-156,664	-0,067	-0,003
-230,000	-200,000	-0,029	-0,122
-228,986	800,000	-0,023	0,064
-227,971	-200,000	0,010	-0,075
-226,957	-19,642	-0,066	-0,029
-225,942	-6,662	-0,028	0,014
-224,927	-200,000	0,034	0,106
-223,913	-173,032	-0,085	-0,002
-222,898	141,031	0,081	-0,076
-221,884	-200,000	-0,023	0,090
-220,869	25,308	0,086	-0,051
-219,855	-200,000	-0,004	-0,020
-218,840	800,000	0,016	-0,035
-217,825	-200,000	-0,011	-0,134
-216,811	-200,000	-0,019	-0,244
-215,796	-17,681	0,134	-0,060
-214,782	58,315	-0,040	0,028
-213,767	103,852	0,064	0,054
-212,752	-200,000	0,043	0,136
-211,738	-61,245	0,065	-0,019
-210,723	274,133	0,060	0,076
-209,709	-200,000	-0,005	-0,251
-208,694	179,189	-0,073	-0,076
-207,679	33,248	-0,105	-0,065
-206,665	62,672	-0,033	0,023
-205,650	800,000	0,061	0,158
-204,636	106,911	-0,021	-0,018
-203,621	237,893	0,110	0,130
-202,606	37,680	0,046	-0,029
-201,592	800,000	0,014	-0,028
-200,577	-200,000	0,011	0,042
-199,563	13,404	0,023	-0,013
-198,548	-200,000	0,023	0,107
-197,533	800,000	0,038	0,101
-196,519	-200,000	0,012	0,145
-195,504	-42,807	-0,146	-0,052
-194,490	-144,129	0,072	-0,005
-193,475	-88,121	0,094	-0,020
-192,460	-200,000	0,032	-0,103
-191,446	59,192	0,103	0,072
-190,431	-107,010	0,028	0,004
-189,417	-199,893	-0,090	-0,000
-188,402	-133,151	0,067	0,006
-187,387	-200,000	0,004	-0,030
-186,373	420,467	-0,065	-0,099
-185,358	800,000	-0,022	-0,053
-184,344	800,000	-0,091	0,217
-183,329	108,510	-0,083	0,070
-182,315	-0,904	0,039	-0,020
-181,300	800,000	-0,035	-0,078
-180,285	451,789	-0,061	-0,096
-179,271	248,001	-0,069	-0,083
-178,256	-200,000	0,011	-0,097
-177,242	208,254	-0,004	-0,005
-176,227	-200,000	-0,019	0,075
-175,212	-200,000	-0,007	0,091
-174,198	2,595	0,106	0,055
-173,183	89,837	-0,047	0,037
-172,169	161,347	-0,066	-0,065
-171,154	43,074	-0,135	-0,088
-170,139	800,000	0,050	0,099
-169,125	-200,000	0,026	0,190
-168,110	414,239	0,008	-0,012
-167,096	-200,000	0,003	0,072
-166,081	199,674	-0,014	-0,015
-165,066	800,000	0,036	-0,078
-164,052	329,526	-0,036	-0,050
-163,037	24,382	0,068	0,040
-162,023	-62,579	0,019	-0,006
-161,008	114,643	0,034	0,029
-159,993	-200,000	0,019	-0,076
-158,979	-95,360	-0,146	-0,028
-157,964	-41,756	-0,089	-0,032
-156,950	-151,029	-0,061	-0,003
-155,935	170,037	-0,116	0,118
-154,920	-30,653	0,119	-0,048
-153,906	-88,626	-0,135	-0,028
-152,891	-200,000	-0,010	0,047
-151,877	313,265	-0,042	0,057
-150,862	-17,672	-0,027	-0,012
-149,847	-63,671	-0,061	0,018
-148,833	90,693	0,075	0,060
-147,818	-200,000	0,003	0,130
-146,804	-200,000	0,006	0,139
-145,789	183,850	-0,113	-0,119
-144,775	172,207	0,103	0,106
-143,760	800,000	-0,049	-0,124
-142,745	164,233	-0,085	-0,085
-141,731	252,466	0,063	-0,077
-140,716	-185,049	0,041	0,000
-139,702	-200,000	-0,031	0,115
-138,687	101,393	0,181	0,150
-137,672	-200,000	0,001	0,061
-136,658	800,000	-0,032	-0,097
-135,643	-16,962	-0,073	-0,033
-134,629	484,640	0,073	-0,119
-133,614	800,000	0,059	0,177
-132,599	-24,420	-0,100	-0,042
-131,585	239,548	0,033	0,039
-130,570	321,329	0,024	0,032
-129,556	-41,924	-0,090	-0,033
-128,541	-175,585	-0,018	0,000
-127,526	-200,000	0,016	-0,090
-126,512	-97,966	0,157	0,029
-125,497	-71,873	-0,142	0,037
-124,483	-73,866	0,082	0,021
-123,468	-200,000	-0,014	-0,078
-122,453	-200,000	0,009	-0,060
-121,439	-100,896	0,118	0,020
-120,424	800,000	0,057	0,169
-119,410	-19,104	0,087	-0,038
-118,395	-200,000	-0,006	0,059
-117,380	800,000	-0,030	0,087
-116,366	-200,000	0,012	-0,085
-115,351	-200,000	0,001	-0,171
-114,337	-200,000	-0,000	0,013
-113,322	-143,347	-0,156	0,010
-112,307	22,330	-0,077	-0,044
-111,293	3,478	-0,101	0,052
-110,278	633,937	0,056	0,101
-109,264	91,252	-0,068	-0,054
-108,249	138,862	-0,216	-0,201
-107,234	-161,012	-0,089	0,003
-106,220	58,516	-0,068	0,047
-105,205	26,337	-0,055	0,032
-104,191	24,635	-0,090	-0,053
-103,176	800,000	-0,003	0,007
-102,162	-200,000	-0,002	-0,062
-101,147	385,497	-0,093	-0,137
-100,132	81,645	0,086	-0,066
-99,118	-137,929	0,178	-0,014
-98,103	279,578	-0,070	0,089
-97,089	-83,109	0,056	-0,013
-96,074	170,893	-0,050	0,051
-95,059	25,976	0,126	-0,074
-94,045	-86,232	-0,083	0,018
-93,030	189,010	-0,045	-0,048
-92,016	-200,000	-0,046	-0,226
-91,001	126,437	0,050	-0,045
-89,986	-200,000	0,019	0,120
-88,972	-119,135	0,080	-0,010
-87,957	-95,925	0,028	-0,005
-86,943	304,800	0,063	0,083
-85,928	151,957	-0,110	0,107
-84,913	-200,000	0,002	-0,021
-83,899	549,265	0,057	0,097
-82,884	800,000	0,031	0,064
-81,870	109,835	-0,079	-0,067
-80,855	-144,028	0,133	-0,009
-79,840	-200,000	-0,012	-0,102
-78,826	334,170	0,060	-0,083
-77,811	155,131	0,058	-0,056
-76,797	-200,000	-0,001	0,070
-75,782	157,785	0,121	-0,119
-74,767	316,276	0,094	0,126
-73,753	-200,000	-0,024	0,188
-72,738	-200,000	-0,013	-0,050
-71,724	-34,997	0,098	-0,038
-70,709	66,992	0,025	-0,018
-69,694	800,000	0,095	-0,234
-68,680	-68,441	0,061	-0,017
-67,665	106,487	-0,074	0,062
-66,651	-195,091	0,061	-0,000
-65,636	409,829	0,051	0,077
-64,622	25,407	-0,032	-0,019
-63,607	41,791	-0,064	-0,041
-62,592	-200,000	-0,006	0,052
-61,578	-200,000	-0,003	-0,012
-60,563	111,507	-0,112	0,095
-59,549	-200,000	-0,042	0,153
-58,534	-25,476	-1,561	-0,651
-57,519	413,531	-1,382	-2,090
-56,505	-200,000	-0,504	-4,397
-55,490	157,936	0,999	0,982
-54,476	800,000	4,937	11,388
-53,461	-200,000	18,498	297,699
-52,446	800,000	732,457	2259,410
-51,432	559,588	1648,679	2832,580
-50,417	78,744	1667,459	1262,823
-49,403	22,360	1540,727	890,113
-48,388	16,365	1463,554	816,432
-47,373	17,845	1453,593	817,983
-46,359	17,098	1443,884	808,910
-45,344	14,643	1439,124	794,471
-44,330	14,560	1437,313	793,040
-43,315	14,564	1435,590	792,078
-42,300	14,550	1434,062	791,134
-41,286	14,595	1432,720	790,580
-40,271	14,574	1431,653	789,859
-39,257	14,518	1430,301	788,814
-38,242	14,586	1428,930	788,348
-37,227	14,558	1427,887	787,609
-36,213	14,585	1426,422	786,899
-35,198	14,607	1425,254	786,329
-34,184	14,675	1424,174	786,024
-33,169	14,517	1423,153	784,680
-32,154	14,605	1422,041	784,453
-31,140	14,601	1420,713	783,671
-30,125	14,624	1419,601	783,137
-29,111	14,597	1418,444	782,337
-28,096	14,605	1417,252	781,686
-27,082	14,503	1416,442	780,726
-26,067	14,554	1415,058	780,176
-25,052	14,533	1414,227	779,587
-24,038	14,518	1413,297	778,975
-23,023	14,459	1412,241	778,081
-22,009	14,513	1410,977	777,610
-20,994	14,438	1410,397	776,905
-19,979	14,446	1409,434	776,383
-18,965	14,407	1408,294	775,540
-17,950	14,428	1407,477	775,159
-16,936	14,457	1406,466	774,707
-15,921	14,400	1405,524	773,893
-14,906	14,400	1404,597	773,348
-13,892	14,414	1403,647	772,861
-12,877	14,427	1402,789	772,417
-11,863	14,406	1401,764	771,725
-10,848	14,365	1400,892	771,023
-9,833	14,363	1400,342	770,682
-8,819	14,358	1399,278	770,044
-7,804	14,328	1398,152	769,255
-6,790	14,292	1397,200	768,534
-5,775	14,316	1395,907	767,902
-4,760	14,306	1395,341	767,513
-3,746	14,281	1394,501	766,904
-2,731	14,294	1393,749	766,523
-1,717	14,304	1392,721	765,971
-0,702	14,291	1390,946	764,905
0,313	18,110	1309,214	737,655
1,327	34,476	705,651	435,505
2,342	53,169	123,969	83,955
3,356	4,875	16,542	8,588
4,371	-1,312	3,257	1,623
5,386	-53,334	0,510	0,165
6,400	800,000	0,100	0,208
7,415	-34,823	-0,260	-0,100
8,429	113,405	-0,356	-0,306
9,444	232,604	-0,316	-0,368
10,459	-76,789	-0,380	-0,094
11,473	61,923	-0,249	-0,175
12,488	45,372	-0,210	-0,137
13,502	-55,330	-0,287	-0,091
14,517	66,723	-0,244	-0,175
15,531	6,974	-0,417	-0,219
16,546	58,265	-0,340	-0,235
17,561	219,734	-0,306	-0,348
18,575	234,692	-0,185	-0,216
19,590	130,807	-0,276	-0,250
20,604	41,658	-0,228	-0,146
21,619	2,450	-0,413	-0,211
22,634	317,155	-0,297	-0,398
23,648	144,648	-0,332	-0,314
24,663	800,000	-0,228	-0,463
25,677	162,682	-0,400	-0,397
26,692	22,008	-0,376	-0,216
27,707	178,532	-0,242	-0,250
28,721	101,546	-0,346	-0,285
29,736	-0,268	-0,510	-0,256
30,750	48,872	-0,476	-0,315
31,765	70,298	-0,374	-0,273
32,780	4,850	-0,458	-0,237
33,794	36,994	-0,363	-0,226
34,809	140,413	-0,318	-0,296
35,823	83,399	-0,433	-0,333
36,838	147,765	-0,382	-0,364
37,853	47,790	-0,370	-0,243
38,867	192,443	-0,438	-0,467
39,882	171,656	-0,338	-0,343
40,896	-35,358	-0,383	-0,146
41,911	21,680	-0,385	-0,221
42,926	40,457	-0,281	-0,178
43,940	332,800	-0,272	-0,371
44,955	231,514	-0,359	-0,416
45,969	188,851	-0,214	-0,226
46,984	28,793	-0,370	-0,221
47,999	233,647	-0,261	-0,303
49,013	-69,221	-0,445	-0,120
50,028	90,673	-0,377	-0,297
51,042	157,157	-0,250	-0,244
52,057	2,915	-0,414	-0,212
53,071	647,587	-0,169	-0,306
54,086	-28,571	-0,367	-0,148
55,101	188,893	-0,252	-0,266
56,115	87,373	-0,339	-0,264
57,130	43,909	-0,313	-0,202
58,144	-0,739	-0,439	-0,218
59,159	148,414	-0,416	-0,396
60,174	-0,341	-0,435	-0,217
61,188	-1,048	-0,290	-0,144
62,203	-61,830	-0,395	-0,116
63,217	21,248	-0,282	-0,161
64,232	170,564	-0,284	-0,287
65,247	16,159	-0,360	-0,199
66,261	53,321	-0,301	-0,203
67,276	5,341	-0,306	-0,159
68,290	-80,626	-0,315	-0,073
69,305	55,165	-0,235	-0,160
70,320	-21,453	-0,323	-0,138
71,334	52,677	-0,183	-0,123
72,349	-33,521	-0,353	-0,136
73,363	82,949	-0,356	-0,272
74,378	76,652	-0,387	-0,288
75,393	31,531	-0,312	-0,188
76,407	151,970	-0,293	-0,281
77,422	472,264	-0,133	-0,212
78,436	71,276	-0,349	-0,254
79,451	38,333	-0,283	-0,177
80,466	354,521	-0,221	-0,309
81,480	126,266	-0,316	-0,281
82,495	-83,690	-0,317	-0,071
83,509	12,573	-0,141	-0,076
84,524	121,858	-0,168	-0,147
85,539	32,365	-0,266	-0,161
86,553	111,278	-0,289	-0,245
87,568	128,545	-0,304	-0,273
88,582	89,401	-0,217	-0,170
89,597	-67,042	-0,340	-0,094
90,611	-30,424	-0,304	-0,121
91,626	-12,261	-0,250	-0,115
92,641	-98,166	-0,343	-0,061
93,655	10,664	-0,295	-0,158
94,670	74,023	-0,162	-0,120
95,684	71,858	-0,357	-0,260
96,699	-2,488	-0,345	-0,169
97,714	137,493	-0,303	-0,278
98,728	75,180	-0,255	-0,189
99,743	-22,552	-0,241	-0,102
100,757	-12,081	-0,343	-0,157
101,772	134,222	-0,216	-0,197
102,787	202,304	-0,255	-0,277
103,801	144,990	-0,287	-0,270
104,816	104,943	-0,238	-0,197
105,830	205,021	-0,210	-0,229
106,845	22,845	-0,185	-0,106
107,860	-16,651	-0,193	-0,085
108,874	141,305	-0,306	-0,284
109,889	63,387	-0,432	-0,304
110,903	211,723	-0,206	-0,228
111,918	62,209	-0,265	-0,185
112,933	-60,540	-0,252	-0,075
113,947	125,872	-0,268	-0,238
114,962	-15,037	-0,243	-0,109
115,976	127,099	-0,307	-0,273
116,991	46,865	-0,317	-0,206
118,006	64,220	-0,253	-0,178
119,020	-2,003	-0,290	-0,142
120,035	179,452	-0,217	-0,223
121,049	-34,467	-0,255	-0,097
122,064	55,598	-0,269	-0,182
123,079	70,896	-0,268	-0,195
124,093	267,246	-0,258	-0,317
125,108	-74,631	-0,356	-0,089
126,122	134,657	-0,262	-0,238
127,137	63,008	-0,239	-0,167
128,151	310,895	-0,204	-0,268
129,166	451,394	-0,085	-0,132
130,181	-59,078	-0,230	-0,069
131,195	123,946	-0,123	-0,108
132,210	800,000	-0,106	-0,266
133,224	23,897	-0,265	-0,153
134,239	36,829	-0,215	-0,132
135,254	35,932	-0,234	-0,144
136,268	97,453	-0,288	-0,231
137,283	53,848	-0,210	-0,141
138,297	83,999	-0,246	-0,188
139,312	800,000	-0,131	-0,321
140,327	132,802	-0,254	-0,229
141,341	67,016	-0,214	-0,152
142,356	71,464	-0,230	-0,167
143,370	39,758	-0,301	-0,189
144,385	30,046	-0,316	-0,188
145,400	-52,410	-0,341	-0,110
146,414	82,413	-0,351	-0,266
147,429	328,480	-0,246	-0,331
148,443	177,212	-0,177	-0,181
149,458	123,733	-0,208	-0,183
150,473	115,277	-0,187	-0,159
151,487	49,734	-0,138	-0,091
152,502	135,078	-0,189	-0,172
153,516	-21,294	-0,381	-0,162
154,531	3,513	-0,285	-0,145
155,546	800,000	-0,099	-0,202
156,560	192,075	-0,219	-0,231
157,575	800,000	-0,063	-0,131
158,589	88,751	-0,320	-0,248
159,604	26,048	-0,243	-0,141
160,619	125,550	-0,190	-0,168
161,633	-38,133	-0,325	-0,120
162,648	-102,828	-0,312	-0,051
163,662	10,107	-0,230	-0,121
164,677	75,476	-0,189	-0,139
165,692	-1,097	-0,238	-0,117
166,706	348,950	-0,145	-0,200
167,721	400,662	-0,217	-0,319
168,735	19,321	-0,263	-0,147
169,750	295,475	-0,167	-0,214
170,764	207,087	-0,170	-0,185
171,779	-26,947	-0,139	-0,056
172,794	-48,324	-0,275	-0,092
173,808	-18,442	-0,262	-0,113
174,823	132,408	-0,215	-0,194
175,837	344,661	-0,228	-0,313
176,852	63,494	-0,334	-0,233
177,867	321,317	-0,239	-0,318
178,881	134,766	-0,174	-0,157
179,896	87,261	-0,221	-0,170
180,910	262,076	-0,146	-0,177
181,925	14,213	-0,181	-0,098
182,940	309,221	-0,195	-0,255
183,954	31,258	-0,310	-0,185
184,969	-29,002	-0,130	-0,052
185,983	136,279	-0,152	-0,138
186,998	111,520	-0,279	-0,234
188,013	138,115	-0,185	-0,169
189,027	-24,624	-0,213	-0,088
190,042	135,704	-0,140	-0,127
191,056	33,792	-0,240	-0,145
192,071	-31,603	-0,244	-0,095
193,086	-76,216	-0,204	-0,050
194,100	313,646	-0,197	-0,258
195,115	482,407	-0,077	-0,122
196,129	-77,183	-0,325	-0,078
197,144	34,332	-0,223	-0,135
198,159	117,152	-0,158	-0,135
199,173	14,367	-0,297	-0,161
200,188	46,226	-0,245	-0,158
201,202	-65,929	-0,281	-0,078
202,217	377,373	-0,189	-0,270
203,232	800,000	-0,095	-0,204
204,246	115,590	-0,274	-0,233
205,261	318,476	-0,185	-0,244
206,275	-200,000	-0,027	-0,089
207,290	91,732	-0,164	-0,128
208,304	165,647	-0,109	-0,108
209,319	-119,028	-0,192	-0,023
210,334	57,265	-0,158	-0,107
211,348	108,649	-0,256	-0,212
212,363	74,489	-0,209	-0,152
213,377	-200,000	-0,072	-0,266
214,392	49,053	-0,265	-0,173
215,407	-30,569	-0,225	-0,088
216,421	-18,237	-0,143	-0,062
217,436	2,926	-0,218	-0,110
218,450	100,818	-0,180	-0,146
219,465	8,024	-0,316	-0,164
220,480	651,555	-0,119	-0,213
221,494	-19,614	-0,239	-0,102
222,509	800,000	-0,111	-0,233
223,523	225,833	-0,133	-0,151
224,538	96,777	-0,226	-0,179
225,553	111,585	-0,209	-0,175
226,567	-150,245	-0,032	-0,002
227,582	291,575	-0,182	-0,231
228,596	73,371	-0,144	-0,104
229,611	-126,219	-0,179	-0,018
230,626	326,388	-0,050	-0,066
231,640	-32,405	-0,253	-0,097
232,655	32,931	-0,271	-0,162
233,669	355,211	-0,226	-0,313
234,684	9,619	-0,219	-0,115
235,699	248,529	-0,224	-0,264
236,713	-75,653	-0,225	-0,055
237,728	108,321	-0,094	-0,078
238,742	43,169	-0,269	-0,170
239,757	348,100	-0,151	-0,207
240,772	129,624	-0,232	-0,206
241,786	646,221	-0,094	-0,168
242,801	697,382	-0,060	-0,110
243,815	800,000	-0,009	-0,018
244,830	123,696	-0,236	-0,205
245,844	-92,188	-0,203	0,039
246,859	141,249	-0,214	-0,196
247,874	-117,479	-0,197	-0,024
248,888	238,712	-0,187	-0,216
249,903	-80,721	-0,141	-0,032
250,917	-25,161	-0,152	-0,062
251,932	547,484	-0,113	-0,188
252,947	278,087	-0,212	-0,262
253,961	-53,403	-0,157	-0,050
254,976	449,914	-0,120	-0,184
255,990	-53,019	-0,204	-0,064
257,005	250,401	-0,164	-0,193
258,020	636,764	-0,083	-0,147
259,034	347,539	-0,130	-0,178
260,049	78,818	-0,171	-0,126
261,063	-85,555	-0,097	0,021
262,078	151,142	-0,206	-0,194
263,093	129,814	-0,202	-0,179
264,107	175,874	-0,210	-0,211
265,122	-21,113	-0,261	-0,110
266,136	90,776	-0,078	-0,061
267,151	-41,894	-0,134	-0,047
268,166	-62,694	-0,141	-0,040
269,180	278,131	-0,133	-0,164
270,195	174,831	-0,167	-0,167
271,209	275,959	-0,161	-0,198
272,224	192,524	-0,279	-0,291
273,239	-47,286	-0,166	-0,056
274,253	265,410	-0,140	-0,169
275,268	-83,961	-0,195	-0,043
276,282	23,341	-0,196	-0,111
277,297	94,057	-0,218	-0,171
278,312	29,799	-0,199	-0,117
279,326	-148,980	-0,242	-0,013
280,341	-53,485	-0,198	-0,062
281,355	94,144	-0,237	-0,186
282,370	109,127	-0,174	-0,143
283,384	789,651	-0,065	-0,125
284,399	800,000	-0,089	-0,222
285,414	303,451	-0,110	-0,142
286,428	800,000	-0,118	-0,258
287,443	45,036	-0,152	-0,097
288,457	-200,000	0,012	-0,116
289,472	800,000	-0,054	-0,105
290,487	-200,000	-0,002	-0,050
291,501	448,644	-0,106	-0,162
292,516	435,980	-0,149	-0,225
293,530	252,380	-0,113	-0,133
294,545	118,541	-0,140	-0,119
295,560	-90,255	-0,043	-0,009
296,574	800,000	-0,042	-0,123
297,589	783,854	-0,147	-0,279
298,603	-54,243	-0,125	-0,039
299,618	269,348	-0,150	-0,182
300,633	119,833	-0,140	-0,119
301,647	-149,610	-0,063	0,003
302,662	229,195	-0,170	-0,191
303,676	-200,000	0,062	-0,250
304,691	30,487	-0,163	-0,096
305,706	78,356	-0,184	-0,135
306,720	141,340	-0,195	-0,178
307,735	571,339	0,092	-0,155
308,749	-200,000	-0,041	-0,126
309,764	-53,641	-0,114	-0,036
310,779	-107,896	-0,148	-0,022
311,793	94,868	-0,170	-0,133
312,808	127,838	-0,118	-0,103
313,822	675,711	-0,104	-0,186
314,837	53,662	-0,177	-0,117
315,852	-144,976	-0,107	0,007
316,866	111,869	-0,048	-0,040
317,881	800,000	-0,059	-0,128
318,895	484,035	-0,129	-0,202
319,910	-75,575	-0,145	-0,035
320,925	439,174	-0,116	-0,175
321,939	421,879	-0,137	-0,202
322,954	41,277	-0,050	-0,031
323,968	-46,214	-0,122	-0,041
324,983	199,725	-0,107	-0,113
325,997	200,512	-0,066	-0,070
327,012	361,237	0,056	-0,077
328,027	800,000	-0,092	-0,213
329,041	355,399	-0,138	-0,190
330,056	132,891	-0,139	-0,123
331,070	-134,145	-0,200	-0,017
332,085	31,241	-0,113	-0,067
333,100	160,112	-0,166	-0,160
334,114	226,412	-0,187	-0,209
335,129	-147,333	-0,134	0,008
336,143	157,651	-0,081	0,077
337,158	-90,962	-0,178	-0,035
338,173	-63,305	-0,121	0,034
339,187	-42,689	-0,230	-0,080
340,202	252,967	-0,050	-0,059
341,216	1,980	-0,180	-0,089
342,231	-9,615	-0,157	-0,072
343,246	120,431	-0,168	-0,143
344,260	-133,008	-0,169	-0,015
345,275	-200,000	-0,016	0,100
346,289	15,147	-0,127	-0,068
347,304	-78,759	-0,246	-0,057
348,319	235,913	-0,134	-0,153
349,333	315,725	-0,142	-0,184
350,348	17,088	-0,122	-0,066
351,362	-63,660	-0,228	-0,064
352,377	-151,967	-0,138	-0,007
353,392	50,219	-0,018	0,012
354,406	-89,026	-0,187	0,038
355,421	208,502	1313,796	1412,650
356,435	160,431	1474,439	1413,159
