DTS Sentinel unit serial number:	SN410029Multiplexer serial number:	ORYXHardware model number:	OX2-SRSoftware version number:	ORYX F/W v4,00 Oryx Data Collector v3.7.2.0data status	okinstallation	B3 Nyhavnadifferential loss correction	single-endedforward channel	channel 1reverse channel	N/Adate	2023/11/30time	23:07:30forward acquisition time	300,00reverse acquisition time	0,00gamma	499,1914k internal	0,3210k external	0,3210temperature offset calibration	1,0000default loss term (dB/km)	0,3820temperature slope calibration	1,0000multiplexer offset coefficient	1,0000multiplexer slope coefficient	1,0000fibre end	0,00T internal ref (°C)	9,76T ext. ref 1 (°C)	-5,35T ext. ref 2 (°C)	-5,47length (m)	temperature (°C)	Stokes	anti-Stokes-744,400	-42,829	-0,235	-0,086
-743,385	-200,000	-0,019	0,397
-742,371	800,000	-0,091	-0,252
-741,356	-200,000	0,064	0,315
-740,342	800,000	-0,074	-0,174
-739,327	-200,000	0,009	0,304
-738,312	-200,000	-0,059	-0,301
-737,298	-200,000	0,033	0,228
-736,283	474,424	-0,139	-0,228
-735,269	-200,000	-0,025	0,185
-734,254	800,000	-0,087	-0,247
-733,239	-8,758	-0,254	0,123
-732,225	-200,000	-0,054	-0,190
-731,210	617,124	0,075	0,138
-730,196	46,390	-0,043	-0,029
-729,181	-200,000	0,007	-0,126
-728,167	168,051	-0,048	0,050
-727,152	800,000	0,049	0,106
-726,137	95,443	-0,058	-0,048
-725,123	109,749	-0,041	-0,036
-724,108	800,000	-0,026	-0,055
-723,094	586,950	-0,043	-0,076
-722,079	-200,000	-0,013	0,087
-721,064	58,661	0,080	-0,057
-720,050	-4,355	0,108	-0,054
-719,035	152,816	-0,057	0,056
-718,021	800,000	0,011	-0,029
-717,006	64,421	-0,082	0,060
-715,991	-200,000	0,000	-0,002
-714,977	48,117	-0,133	-0,090
-713,962	-21,871	-0,076	-0,034
-712,948	84,344	0,085	-0,067
-711,933	-200,000	-0,033	-0,180
-710,918	800,000	-0,066	-0,178
-709,904	800,000	-0,014	-0,030
-708,889	660,966	0,035	-0,065
-707,875	513,226	-0,022	-0,037
-706,860	-163,484	-0,103	-0,003
-705,845	-200,000	-0,005	0,058
-704,831	36,053	-0,071	-0,045
-703,816	-130,389	-0,084	0,008
-702,802	169,380	0,126	-0,131
-701,787	800,000	-0,046	-0,136
-700,772	800,000	-0,040	-0,103
-699,758	800,000	-0,061	-0,158
-698,743	800,000	0,021	-0,053
-697,729	-200,000	-0,033	0,110
-696,714	109,833	-0,101	0,087
-695,699	-200,000	-0,020	-0,089
-694,685	800,000	-0,021	-0,068
-693,670	227,583	0,106	-0,125
-692,656	-200,000	-0,027	0,112
-691,641	27,966	0,054	0,033
-690,627	-200,000	-0,001	0,069
-689,612	-200,000	0,001	0,111
-688,597	43,685	-0,144	-0,095
-687,583	21,360	-0,079	0,046
-686,568	-55,540	-0,009	0,003
-685,554	-98,248	-0,078	-0,014
-684,539	51,052	0,022	0,015
-683,524	338,098	0,038	-0,054
-682,510	-32,946	-0,029	-0,012
-681,495	800,000	-0,062	-0,157
-680,481	300,676	-0,024	-0,032
-679,466	800,000	-0,098	-0,216
-678,451	-200,000	0,031	-0,116
-677,437	-200,000	-0,014	-0,091
-676,422	-200,000	-0,015	-0,058
-675,408	-133,065	-0,093	0,008
-674,393	-63,415	-0,094	-0,028
-673,378	203,397	-0,113	-0,127
-672,364	-106,884	-0,059	-0,009
-671,349	178,113	0,155	-0,163
-670,335	558,678	0,097	-0,169
-669,320	-79,920	-0,078	0,019
-668,305	-40,969	-0,032	0,012
-667,291	800,000	-0,027	0,078
-666,276	-80,873	-0,155	0,037
-665,262	86,365	-0,081	-0,065
-664,247	-200,000	0,008	-0,073
-663,232	-200,000	0,020	0,096
-662,218	215,147	0,073	0,084
-661,203	-200,000	-0,013	-0,084
-660,189	-200,000	-0,023	-0,077
-659,174	-200,000	0,005	-0,190
-658,159	-200,000	-0,010	-0,107
-657,145	-29,109	-0,064	0,027
-656,130	325,149	0,081	0,112
-655,116	-27,512	0,011	0,005
-654,101	-145,151	0,065	0,004
-653,086	-200,000	0,005	0,024
-652,072	176,326	0,046	0,048
-651,057	-200,000	0,020	-0,204
-650,043	-41,279	-0,168	-0,062
-649,028	-200,000	-0,023	-0,155
-648,014	800,000	0,031	0,078
-646,999	360,102	-0,092	0,133
-645,984	279,487	0,043	-0,055
-644,970	37,000	-0,089	-0,057
-643,955	-200,000	0,000	0,070
-642,941	-200,000	-0,054	-0,203
-641,926	-134,714	0,087	-0,008
-640,911	800,000	0,021	0,056
-639,897	87,165	0,048	0,038
-638,882	-200,000	-0,001	-0,016
-637,868	-61,675	-0,211	0,063
-636,853	219,474	0,039	0,045
-635,838	-200,000	-0,051	-0,219
-634,824	366,213	0,025	-0,037
-633,809	749,488	0,115	0,225
-632,795	13,610	-0,067	-0,037
-631,780	185,888	-0,079	-0,084
-630,765	-180,490	-0,035	0,001
-629,751	800,000	0,050	0,104
-628,736	3,515	-0,081	0,043
-627,722	71,695	-0,124	-0,093
-626,707	-38,019	-0,049	0,019
-625,692	-101,987	-0,213	-0,037
-624,678	42,497	-0,076	0,050
-623,663	-62,041	0,187	-0,056
-622,649	-200,000	-0,006	-0,029
-621,634	147,250	-0,022	-0,021
-620,619	-200,000	0,015	-0,101
-619,605	-183,125	0,043	0,001
-618,590	-45,584	0,069	-0,025
-617,576	-43,865	-0,051	-0,018
-616,561	211,149	-0,111	-0,127
-615,546	399,239	-0,039	0,059
-614,532	-102,324	-0,111	-0,019
-613,517	-6,089	0,046	-0,022
-612,503	-200,000	0,010	-0,091
-611,488	466,451	-0,032	-0,052
-610,474	-60,569	0,042	0,013
-609,459	-136,734	-0,083	0,007
-608,444	20,889	0,118	-0,069
-607,430	132,661	-0,132	-0,123
-606,415	-135,928	-0,114	0,010
-605,401	-113,425	-0,151	0,021
-604,386	7,393	0,078	-0,042
-603,371	-200,000	0,039	0,167
-602,357	800,000	-0,033	0,097
-601,342	-200,000	-0,025	-0,115
-600,328	-200,000	-0,062	-0,212
-599,313	246,297	0,046	-0,056
-598,298	-134,089	-0,016	0,001
-597,284	-149,636	0,158	0,009
-596,269	470,910	-0,075	0,123
-595,255	-52,167	-0,029	-0,010
-594,240	800,000	-0,034	-0,085
-593,225	551,319	-0,080	-0,139
-592,211	-200,000	-0,016	0,101
-591,196	-200,000	-0,028	0,133
-590,182	166,610	0,031	-0,032
-589,167	-80,212	0,054	-0,013
-588,152	122,900	-0,028	-0,025
-587,138	-200,000	-0,005	-0,036
-586,123	312,078	-0,089	0,121
-585,109	-31,462	0,117	-0,047
-584,094	162,982	0,170	-0,172
-583,079	91,477	0,077	0,063
-582,065	700,904	0,032	-0,061
-581,050	-98,872	-0,105	-0,019
-580,036	-109,439	0,179	0,027
-579,021	546,147	0,012	-0,021
-578,006	93,599	-0,072	-0,059
-576,992	-29,406	0,026	-0,011
-575,977	145,547	-0,085	-0,082
-574,963	-79,387	0,092	0,022
-573,948	-139,899	-0,105	-0,008
-572,934	-3,216	-0,132	0,066
-571,919	611,971	0,014	0,025
-570,904	316,644	-0,076	-0,103
-569,890	202,452	-0,024	-0,026
-568,875	107,046	0,110	0,094
-567,861	18,766	0,070	0,040
-566,846	417,848	-0,065	0,100
-565,831	19,013	-0,129	-0,074
-564,817	331,548	-0,023	-0,032
-563,802	165,407	-0,058	-0,059
-562,788	18,364	-0,128	0,074
-561,773	308,243	0,052	0,070
-560,758	-8,262	-0,097	-0,047
-559,744	136,959	-0,110	-0,104
-558,729	800,000	-0,008	0,019
-557,715	467,804	-0,091	0,147
-556,700	44,398	-0,121	-0,080
-555,685	16,871	0,035	-0,020
-554,671	-200,000	-0,014	-0,067
-553,656	-200,000	0,026	0,086
-552,642	22,903	0,105	-0,062
-551,627	238,505	0,051	-0,061
-550,612	-135,085	-0,099	-0,008
-549,598	-200,000	-0,013	-0,045
-548,583	-200,000	-0,091	-0,303
-547,569	215,203	-0,077	-0,088
-546,554	-148,057	0,072	0,004
-545,539	-52,898	0,117	0,039
-544,525	-200,000	0,008	-0,053
-543,510	299,812	0,044	0,058
-542,496	800,000	0,070	-0,151
-541,481	32,030	-0,105	-0,065
-540,466	-14,163	0,116	-0,054
-539,452	-200,000	0,026	0,119
-538,437	-200,000	0,028	0,153
-537,423	-101,334	-0,035	0,006
-536,408	-76,612	-0,072	-0,018
-535,393	37,412	-0,107	-0,068
-534,379	367,348	-0,014	-0,020
-533,364	28,865	-0,070	-0,043
-532,350	160,511	0,112	0,112
-531,335	69,490	0,031	-0,023
-530,321	219,807	-0,061	-0,071
-529,306	800,000	-0,032	0,068
-528,291	-23,845	-0,066	0,028
-527,277	-132,221	-0,089	0,008
-526,262	-67,586	-0,115	0,032
-525,248	15,470	0,151	-0,085
-524,233	320,792	-0,078	0,106
-523,218	-2,232	0,050	0,025
-522,204	298,076	0,043	-0,057
-521,189	492,780	-0,060	-0,100
-520,175	-29,620	-0,103	-0,042
-519,160	588,097	0,061	-0,109
-518,145	498,561	-0,019	-0,032
-517,131	39,027	0,067	0,043
-516,116	-200,000	0,009	0,034
-515,102	1,809	-0,085	0,044
-514,087	548,889	-0,045	0,078
-513,072	-78,419	-0,054	-0,013
-512,058	-200,000	0,066	-0,266
-511,043	-200,000	-0,045	-0,202
-510,029	-29,225	-0,077	0,032
-509,014	232,317	0,127	0,150
-507,999	-200,000	-0,028	-0,108
-506,985	-200,000	-0,007	-0,155
-505,970	29,049	-0,116	-0,071
-504,956	180,847	-0,073	-0,077
-503,941	-200,000	0,007	0,063
-502,926	114,238	0,056	0,049
-501,912	334,051	-0,066	0,093
-500,897	106,841	0,106	0,090
-499,883	-200,000	-0,005	0,050
-498,868	128,788	-0,085	-0,078
-497,853	208,052	-0,071	0,080
-496,839	-200,000	-0,004	0,028
-495,824	445,396	0,015	0,024
-494,810	552,865	-0,032	0,056
-493,795	614,120	0,049	0,088
-492,781	-62,073	-0,061	-0,018
-491,766	25,142	-0,075	-0,044
-490,751	-126,152	0,153	-0,016
-489,737	28,950	-0,038	-0,023
-488,722	-48,735	0,020	-0,007
-487,708	-17,077	-0,058	-0,026
-486,693	-200,000	0,007	0,050
-485,678	-147,664	0,015	0,001
-484,664	-77,786	-0,087	-0,021
-483,649	-32,253	0,108	-0,043
-482,635	152,402	-0,037	0,037
-481,620	-200,000	0,010	-0,039
-480,605	201,772	0,051	0,057
-479,591	80,005	0,120	0,093
-478,576	-49,926	-0,092	-0,031
-477,562	152,378	-0,120	0,118
-476,547	91,180	0,088	-0,071
-475,532	150,674	0,118	0,115
-474,518	94,621	-0,041	0,033
-473,503	88,876	0,181	0,144
-472,489	-92,721	-0,047	-0,009
-471,474	572,876	0,068	0,120
-470,459	-117,450	-0,150	0,019
-469,445	668,668	-0,047	-0,088
-468,430	331,963	-0,122	-0,169
-467,416	9,153	0,151	0,082
-466,401	-200,000	-0,021	-0,116
-465,386	-200,000	-0,002	0,131
-464,372	800,000	0,030	0,089
-463,357	34,097	-0,026	-0,016
-462,343	180,842	0,012	0,012
-461,328	-79,882	-0,070	-0,017
-460,313	800,000	-0,032	0,084
-459,299	209,836	0,141	-0,158
-458,284	800,000	0,096	0,193
-457,270	-200,000	-0,027	0,099
-456,255	88,110	0,078	0,062
-455,241	5,091	-0,082	0,043
-454,226	193,433	0,049	0,053
-453,211	-200,000	-0,030	-0,138
-452,197	800,000	0,035	0,070
-451,182	308,239	0,038	0,051
-450,168	-200,000	-0,035	0,128
-449,153	800,000	0,072	-0,150
-448,138	-64,088	-0,078	0,023
-447,124	-200,000	0,004	0,000
-446,109	-20,421	0,051	0,022
-445,095	338,890	0,118	0,165
-444,080	800,000	0,048	0,135
-443,065	-102,360	-0,074	-0,013
-442,051	-200,000	0,001	0,049
-441,036	611,299	-0,143	-0,256
-440,022	95,921	-0,077	-0,063
-439,007	-145,614	0,168	0,011
-437,992	-6,385	0,118	0,058
-436,978	800,000	0,030	-0,066
-435,963	800,000	-0,028	0,058
-434,949	-51,376	-0,129	-0,043
-433,934	-200,000	0,045	-0,157
-432,919	224,540	0,018	0,021
-431,905	800,000	0,037	-0,112
-430,890	74,189	0,033	0,025
-429,876	-65,594	0,041	0,012
-428,861	800,000	0,036	0,094
-427,846	55,511	-0,067	0,047
-426,832	-81,147	0,083	0,020
-425,817	-200,000	0,009	-0,098
-424,803	9,264	-0,068	-0,037
-423,788	-159,362	0,101	0,004
-422,773	27,299	0,051	0,031
-421,759	124,360	-0,090	-0,081
-420,744	-200,000	0,029	-0,115
-419,730	-200,000	-0,011	-0,070
-418,715	6,621	-0,069	0,036
-417,701	314,613	-0,108	-0,146
-416,686	800,000	0,049	0,132
-415,671	-112,275	0,070	0,010
-414,657	-200,000	0,006	0,112
-413,642	141,133	0,072	0,068
-412,628	-200,000	-0,007	0,028
-411,613	-169,990	-0,036	-0,001
-410,598	345,685	0,040	-0,056
-409,584	-24,910	0,098	-0,042
-408,569	-200,000	-0,002	-0,074
-407,555	800,000	0,055	0,135
-406,540	800,000	0,048	0,129
-405,525	-200,000	0,025	0,085
-404,511	19,495	-0,086	0,049
-403,496	800,000	-0,039	-0,115
-402,482	-101,171	0,036	0,006
-401,467	-200,000	0,040	0,210
-400,452	109,272	-0,008	0,007
-399,438	25,587	0,158	0,094
-398,423	23,879	-0,077	0,045
-397,409	-200,000	-0,006	-0,084
-396,394	-134,152	-0,084	0,007
-395,379	-92,555	-0,070	0,014
-394,365	-114,371	0,207	0,028
-393,350	400,405	-0,085	0,128
-392,336	112,513	0,026	-0,022
-391,321	800,000	0,033	-0,066
-390,306	-200,000	0,126	-0,000
-389,292	-83,704	0,200	-0,045
-388,277	-200,000	-0,018	-0,110
-387,263	-127,538	0,128	0,013
-386,248	-51,535	0,064	0,021
-385,233	81,950	0,109	0,084
-384,219	79,451	-0,020	-0,015
-383,204	405,792	-0,122	-0,184
-382,190	-106,569	0,110	0,017
-381,175	-200,000	-0,002	0,054
-380,160	-200,000	-0,005	0,031
-379,146	-148,838	0,104	0,006
-378,131	200,315	-0,099	0,109
-377,117	164,895	0,119	0,120
-376,102	-200,000	0,004	-0,054
-375,088	-200,000	-0,004	0,117
-374,073	-200,000	0,010	-0,072
-373,058	2,485	0,127	0,066
-372,044	-200,000	0,006	-0,057
-371,029	114,895	0,061	-0,053
-370,015	53,952	-0,077	0,053
-369,000	96,394	0,008	-0,007
-367,985	176,929	0,089	-0,093
-366,971	-94,429	0,099	0,019
-365,956	203,403	0,065	-0,072
-364,942	-200,000	0,036	-0,156
-363,927	197,194	0,076	-0,083
-362,912	-13,216	-0,012	-0,006
-361,898	34,521	-0,099	-0,061
-360,883	-33,684	-0,068	-0,026
-359,869	613,057	-0,054	-0,097
-358,854	800,000	0,022	0,056
-357,839	-111,934	0,032	0,005
-356,825	-200,000	0,012	0,115
-355,810	-86,184	0,077	-0,017
-354,796	800,000	-0,038	-0,114
-353,781	-200,000	-0,031	-0,151
-352,766	280,071	0,102	-0,130
-351,752	188,322	0,020	0,021
-350,737	-200,000	0,010	-0,057
-349,723	-118,603	0,078	0,010
-348,708	-157,148	0,138	-0,006
-347,693	-122,866	-0,101	-0,011
-346,679	-200,000	-0,011	-0,085
-345,664	179,938	-0,146	-0,153
-344,650	259,989	-0,025	0,031
-343,635	252,663	0,052	0,063
-342,620	37,287	0,059	0,038
-341,606	789,573	-0,042	0,083
-340,591	454,444	0,085	-0,134
-339,577	-5,875	-0,024	0,012
-338,562	800,000	-0,053	-0,145
-337,548	-165,581	0,075	-0,002
-336,533	-102,099	0,016	-0,003
-335,518	23,743	0,074	0,043
-334,504	41,160	-0,045	-0,029
-333,489	136,298	0,035	0,033
-332,475	102,339	-0,043	-0,036
-331,460	800,000	-0,042	0,102
-330,445	58,141	-0,077	-0,053
-329,431	-124,591	0,100	-0,011
-328,416	800,000	0,061	0,168
-327,402	37,375	0,063	0,040
-326,387	-200,000	0,020	0,100
-325,372	-200,000	-0,008	-0,068
-324,358	800,000	-0,035	-0,101
-323,343	717,321	-0,012	-0,022
-322,329	317,256	0,046	0,062
-321,314	-200,000	0,038	-0,146
-320,299	474,303	0,047	-0,076
-319,285	-139,869	0,049	-0,004
-318,270	800,000	-0,026	0,067
-317,256	351,658	0,048	0,068
-316,241	111,764	-0,081	0,070
-315,226	-41,186	0,135	0,049
-314,212	800,000	-0,028	0,074
-313,197	-200,000	0,042	-0,153
-312,183	41,956	0,016	-0,011
-311,168	-200,000	-0,028	-0,092
-310,153	-200,000	-0,020	0,154
-309,139	800,000	-0,031	0,076
-308,124	-200,000	0,012	0,057
-307,110	-200,000	0,011	0,086
-306,095	-200,000	0,047	0,171
-305,080	-129,422	-0,069	0,007
-304,066	-101,000	0,157	-0,027
-303,051	157,244	-0,104	-0,103
-302,037	800,000	-0,037	0,073
-301,022	-67,914	-0,117	-0,032
-300,008	-64,684	0,206	-0,059
-298,993	-200,000	0,001	0,108
-297,978	36,663	-0,046	0,029
-296,964	-27,506	-0,078	-0,032
-295,949	800,000	0,054	-0,121
-294,935	-200,000	0,018	-0,065
-293,920	183,378	-0,049	0,051
-292,905	314,862	-0,014	0,019
-291,891	539,057	-0,023	0,039
-290,876	603,027	0,076	0,136
-289,862	24,506	-0,048	0,028
-288,847	45,647	-0,093	0,061
-287,832	-131,742	-0,149	-0,014
-286,818	-24,413	0,030	0,013
-285,803	-200,000	0,020	0,133
-284,789	751,729	0,022	0,042
-283,774	-200,000	-0,012	0,058
-282,759	-200,000	0,021	0,067
-281,745	-200,000	0,051	-0,177
-280,730	-200,000	0,006	-0,049
-279,716	9,531	0,048	-0,026
-278,701	131,180	0,011	-0,010
-277,686	800,000	0,052	0,143
-276,672	-200,000	0,027	0,111
-275,657	-92,864	-0,076	-0,015
-274,643	453,923	0,078	0,123
-273,628	132,953	-0,106	-0,098
-272,613	601,727	0,029	0,051
-271,599	-200,000	-0,064	0,000
-270,584	-56,832	0,078	0,024
-269,570	800,000	-0,060	0,159
-268,555	156,143	0,052	0,051
-267,540	-200,000	-0,008	0,038
-266,526	-200,000	0,003	0,070
-265,511	-200,000	0,010	0,101
-264,497	-200,000	0,002	0,133
-263,482	224,543	0,141	0,162
-262,467	176,628	0,056	0,058
-261,453	-58,638	0,093	0,028
-260,438	-200,000	-0,001	-0,014
-259,424	-160,426	-0,028	0,001
-258,409	-77,722	0,057	-0,014
-257,395	-200,000	0,002	0,107
-256,380	800,000	0,005	0,014
-255,365	800,000	-0,015	0,035
-254,351	-17,940	0,075	-0,033
-253,336	114,140	-0,068	-0,058
-252,322	-200,000	-0,020	-0,073
-251,307	75,638	-0,095	0,071
-250,292	-56,957	0,068	-0,021
-249,278	514,421	0,052	0,086
-248,263	1,735	0,112	0,057
-247,249	238,880	-0,075	-0,089
-246,234	149,631	-0,144	-0,139
-245,219	-200,000	0,035	-0,157
-244,205	-200,000	-0,010	-0,084
-243,190	-0,465	0,047	-0,024
-242,176	-200,000	0,008	0,172
-241,161	-88,884	0,075	0,016
-240,146	177,308	-0,054	-0,056
-239,132	-9,390	-0,027	-0,013
-238,117	800,000	0,045	-0,134
-237,103	98,911	-0,030	0,025
-236,088	11,708	-0,027	0,015
-235,073	200,633	0,074	-0,081
-234,059	-200,000	0,003	0,045
-233,044	486,996	0,132	0,216
-232,030	29,212	-0,049	-0,030
-231,015	10,022	-0,139	-0,075
-230,000	688,642	0,052	0,097
-228,986	252,355	-0,106	-0,128
-227,971	-120,284	0,050	-0,006
-226,957	39,843	0,035	-0,023
-225,942	-200,000	0,013	0,144
-224,927	173,960	0,054	-0,055
-223,913	22,625	-0,025	-0,015
-222,898	-98,397	-0,183	0,033
-221,884	-81,321	-0,131	-0,030
-220,869	-36,639	-0,120	0,046
-219,855	348,918	0,076	-0,108
-218,840	21,500	0,092	0,053
-217,825	-36,881	0,019	0,007
-216,811	121,696	0,019	-0,017
-215,796	-89,963	-0,209	0,043
-214,782	-200,000	0,020	0,130
-213,767	53,703	-0,094	0,064
-212,752	101,266	0,040	-0,033
-211,738	-200,000	-0,002	-0,053
-210,723	-77,460	-0,192	-0,047
-209,709	665,025	0,033	-0,060
-208,694	-200,000	0,004	-0,093
-207,679	-174,232	0,144	0,003
-206,665	163,641	-0,033	-0,033
-205,650	113,910	0,069	0,060
-204,636	319,906	-0,052	0,070
-203,621	92,559	0,120	-0,096
-202,606	416,352	-0,075	-0,114
-201,592	99,619	-0,020	-0,017
-200,577	-4,408	0,055	-0,027
-199,563	800,000	-0,025	0,057
-198,548	800,000	0,065	0,171
-197,533	-2,874	0,089	-0,044
-196,519	19,286	0,085	-0,048
-195,504	77,701	-0,063	0,048
-194,490	130,382	0,097	-0,088
-193,475	-200,000	-0,016	0,056
-192,460	-132,613	-0,090	0,008
-191,446	206,192	-0,061	-0,068
-190,431	-45,024	0,089	0,031
-189,417	-200,000	-0,002	-0,017
-188,402	131,763	0,009	0,008
-187,387	305,548	0,047	-0,062
-186,373	-92,430	0,023	0,005
-185,358	800,000	-0,032	-0,088
-184,344	-200,000	-0,030	0,137
-183,329	-200,000	-0,030	0,179
-182,315	244,833	0,038	0,045
-181,300	-73,036	-0,118	-0,031
-180,285	288,460	0,103	-0,132
-179,271	-200,000	-0,007	-0,198
-178,256	800,000	-0,071	-0,180
-177,242	77,796	0,063	-0,047
-176,227	-200,000	0,007	-0,028
-175,212	-162,627	0,044	0,002
-174,198	34,648	0,078	-0,048
-173,183	304,464	-0,005	0,006
-172,169	118,764	-0,027	0,023
-171,154	-200,000	0,002	0,058
-170,139	525,302	0,062	0,105
-169,125	-200,000	0,025	0,148
-168,110	-81,669	0,100	0,023
-167,096	800,000	-0,059	0,138
-166,081	800,000	0,053	0,122
-165,066	646,554	-0,052	0,095
-164,052	131,571	-0,117	0,107
-163,037	-97,252	0,018	-0,003
-162,023	-54,973	-0,125	-0,040
-161,008	393,796	0,033	-0,049
-159,993	-200,000	0,003	0,080
-158,979	-166,645	-0,142	0,004
-157,964	-69,242	-0,107	-0,029
-156,950	-200,000	-0,001	0,012
-155,935	-24,301	-0,148	-0,062
-154,920	-200,000	-0,024	-0,081
-153,906	-37,737	0,047	-0,018
-152,891	-1,664	-0,036	-0,018
-151,877	-39,295	-0,093	0,034
-150,862	-85,782	0,088	-0,019
-149,847	199,348	0,024	-0,026
-148,833	205,112	0,054	0,059
-147,818	705,863	0,026	0,048
-146,804	-200,000	0,007	0,051
-145,789	136,801	0,009	-0,009
-144,775	-101,928	0,099	0,017
-143,760	-200,000	0,046	-0,169
-142,745	221,379	-0,084	-0,096
-141,731	-117,062	0,103	0,013
-140,716	363,480	-0,076	-0,109
-139,702	800,000	-0,019	-0,055
-138,687	382,378	-0,038	0,056
-137,672	-200,000	-0,002	-0,028
-136,658	793,411	0,025	0,049
-135,643	-147,599	-0,106	0,006
-134,629	-143,519	-0,088	-0,006
-133,614	-23,068	-0,111	0,047
-132,599	43,124	-0,061	0,039
-131,585	15,202	0,103	-0,057
-130,570	187,819	-0,056	-0,059
-129,556	-200,000	-0,000	0,021
-128,541	578,130	-0,047	-0,081
-127,526	194,786	-0,063	-0,068
-126,512	800,000	-0,056	-0,117
-125,497	-7,325	0,098	-0,047
-124,483	-102,356	-0,056	-0,009
-123,468	-47,982	0,128	0,043
-122,453	230,145	-0,095	-0,110
-121,439	-200,000	-0,009	-0,065
-120,424	-200,000	-0,000	0,029
-119,410	85,732	-0,029	-0,022
-118,395	-24,583	0,111	0,047
-117,380	-130,880	0,126	-0,012
-116,366	-120,572	0,097	0,012
-115,351	157,550	-0,042	0,041
-114,337	369,013	-0,034	-0,048
-113,322	-24,683	0,021	-0,009
-112,307	-8,007	-0,096	0,046
-111,293	29,363	0,105	0,063
-110,278	246,846	-0,074	0,088
-109,264	113,527	-0,154	0,132
-108,249	-200,000	-0,009	-0,080
-107,234	800,000	-0,071	0,162
-106,220	-200,000	-0,015	0,078
-105,205	-150,978	-0,296	0,016
-104,191	-200,000	-0,003	0,069
-103,176	800,000	0,042	0,119
-102,162	-157,048	0,155	0,007
-101,147	800,000	-0,046	-0,107
-100,132	37,379	-0,044	0,028
-99,118	346,727	-0,043	-0,059
-98,103	-144,833	0,134	-0,009
-97,089	-45,634	0,138	0,048
-96,074	-155,477	0,077	0,003
-95,059	-200,000	-0,032	-0,156
-94,045	407,783	-0,004	-0,005
-93,030	130,893	0,050	0,046
-92,016	-12,522	-0,161	-0,074
-91,001	-200,000	0,000	0,028
-89,986	-200,000	0,010	0,070
-88,972	-200,000	0,023	-0,114
-87,957	-98,406	0,023	0,004
-86,943	24,360	-0,021	0,012
-85,928	-200,000	0,001	0,014
-84,913	800,000	0,041	-0,125
-83,899	800,000	0,011	0,031
-82,884	-91,726	0,056	-0,011
-81,870	425,738	0,086	0,132
-80,855	-30,394	0,096	-0,038
-79,840	-114,243	-0,057	-0,008
-78,826	-200,000	-0,027	0,159
-77,811	800,000	-0,064	-0,182
-76,797	800,000	-0,017	-0,052
-75,782	42,402	0,156	0,100
-74,767	-200,000	0,011	0,103
-73,753	115,076	0,163	-0,141
-72,738	-2,981	-0,032	0,016
-71,724	-134,296	-0,190	0,016
-70,709	-200,000	0,019	-0,138
-69,694	-200,000	-0,026	-0,187
-68,680	-38,547	0,032	0,012
-67,665	-37,337	0,035	-0,013
-66,651	187,769	-0,056	-0,059
-65,636	-12,277	-0,082	-0,038
-64,622	-200,000	0,012	0,042
-63,607	13,514	-0,074	-0,040
-62,592	-48,599	0,054	0,018
-61,578	800,000	0,028	-0,078
-60,563	35,801	0,058	0,036
-59,549	-200,000	-0,025	0,118
-58,534	48,957	-1,978	-1,309
-57,519	521,658	-1,188	-1,976
-56,505	-200,000	-0,385	-4,499
-55,490	463,435	0,786	1,244
-54,476	800,000	5,366	11,669
-53,461	-200,000	21,603	345,332
-52,446	800,000	763,148	2358,683
-51,432	552,580	1665,431	2835,759
-50,417	72,395	1662,400	1221,824
-49,403	17,595	1535,694	859,618
-48,388	11,617	1459,302	787,912
-47,373	19,550	1450,624	821,302
-46,359	15,116	1439,998	794,145
-45,344	9,878	1435,790	766,821
-44,330	9,794	1433,893	765,375
-43,315	9,798	1432,086	764,401
-42,300	9,793	1430,328	763,407
-41,286	9,818	1428,931	762,751
-40,271	9,826	1427,781	762,143
-39,257	9,805	1426,735	761,453
-38,242	9,824	1425,666	760,943
-37,227	9,855	1424,262	760,309
-36,213	9,804	1423,098	759,420
-35,198	9,875	1421,776	759,018
-34,184	9,881	1420,957	758,579
-33,169	9,774	1419,684	757,364
-32,154	9,823	1418,531	756,952
-31,140	9,844	1417,155	756,288
-30,125	9,874	1416,227	755,902
-29,111	9,860	1414,860	755,077
-28,096	9,854	1413,862	754,484
-27,082	9,769	1412,583	753,376
-26,067	9,789	1411,636	752,933
-25,052	9,825	1410,397	752,413
-24,038	9,801	1409,521	751,803
-23,023	9,818	1408,632	751,376
-22,009	9,835	1407,418	750,780
-20,994	9,745	1406,719	749,955
-19,979	9,794	1405,798	749,663
-18,965	9,770	1404,656	748,915
-17,950	9,763	1403,821	748,403
-16,936	9,744	1403,133	747,922
-15,921	9,633	1402,128	746,838
-14,906	9,689	1401,190	746,571
-13,892	9,781	1400,002	746,332
-12,877	9,769	1399,224	745,832
-11,863	9,654	1398,794	745,041
-10,848	9,644	1397,656	744,359
-9,833	9,638	1396,568	743,723
-8,819	9,591	1395,843	743,090
-7,804	9,619	1394,851	742,659
-6,790	9,615	1393,844	742,075
-5,775	9,604	1392,669	741,368
-4,760	9,624	1391,875	741,010
-3,746	9,594	1390,861	740,304
-2,731	9,656	1389,920	740,061
-1,717	9,600	1389,160	739,367
-0,702	9,609	1387,369	738,423
0,313	13,585	1299,701	709,981
1,327	29,704	689,504	413,182
2,342	46,046	119,186	77,704
3,356	-1,496	16,605	8,233
4,371	-2,784	3,631	1,784
5,386	35,468	1,035	0,640
6,400	800,000	0,239	0,518
7,415	169,546	-0,179	-0,180
8,429	39,195	-0,235	-0,148
9,444	42,745	-0,343	-0,220
10,459	30,810	-0,261	-0,157
11,473	92,439	-0,316	-0,251
12,488	0,069	-0,207	-0,104
13,502	-119,287	-0,298	-0,036
14,517	37,454	-0,423	-0,264
15,531	25,323	-0,346	-0,202
16,546	-24,397	-0,291	-0,122
17,561	35,032	-0,363	-0,224
18,575	-32,916	-0,231	-0,090
19,590	165,172	-0,218	-0,217
20,604	-190,116	-0,208	0,002
21,619	87,172	-0,354	-0,276
22,634	133,778	-0,377	-0,344
23,648	6,720	-0,432	-0,226
24,663	51,077	-0,409	-0,273
25,677	155,651	-0,342	-0,332
26,692	37,098	-0,401	-0,250
27,707	64,948	-0,396	-0,281
28,721	96,645	-0,414	-0,334
29,736	-5,882	-0,402	-0,193
30,750	41,561	-0,462	-0,294
31,765	177,028	-0,206	-0,211
32,780	518,244	-0,227	-0,376
33,794	407,881	-0,283	-0,422
34,809	648,620	-0,206	-0,372
35,823	104,383	-0,310	-0,257
36,838	57,742	-0,451	-0,310
37,853	-91,552	-0,394	-0,078
38,867	38,103	-0,391	-0,244
39,882	21,111	-0,356	-0,203
40,896	-19,380	-0,324	-0,141
41,911	93,005	-0,375	-0,298
42,926	113,136	-0,318	-0,271
43,940	104,616	-0,431	-0,357
44,955	0,206	-0,486	-0,243
45,969	493,764	-0,218	-0,353
46,984	35,746	-0,368	-0,227
47,999	146,847	-0,178	-0,168
49,013	311,162	-0,262	-0,346
50,028	22,986	-0,360	-0,207
51,042	495,426	-0,174	-0,282
52,057	111,618	-0,341	-0,289
53,071	196,187	-0,365	-0,391
54,086	253,049	-0,247	-0,297
55,101	-18,598	-0,283	-0,123
56,115	22,942	-0,368	-0,211
57,130	60,199	-0,319	-0,221
58,144	125,645	-0,393	-0,349
59,159	185,124	-0,329	-0,343
60,174	282,836	-0,252	-0,318
61,188	58,152	-0,383	-0,263
62,203	47,919	-0,340	-0,223
63,217	194,071	-0,279	-0,297
64,232	18,204	-0,322	-0,180
65,247	52,506	-0,386	-0,258
66,261	-94,264	-0,336	-0,064
67,276	126,146	-0,355	-0,315
68,290	29,953	-0,333	-0,199
69,305	88,268	-0,286	-0,222
70,320	14,467	-0,313	-0,171
71,334	22,429	-0,339	-0,194
72,349	146,973	-0,190	-0,179
73,363	99,871	-0,322	-0,261
74,378	34,037	-0,291	-0,177
75,393	-76,539	-0,372	-0,091
76,407	21,233	-0,323	-0,183
77,422	4,347	-0,342	-0,175
78,436	-19,649	-0,329	-0,142
79,451	117,583	-0,312	-0,269
80,466	139,398	-0,295	-0,272
81,480	87,746	-0,318	-0,247
82,495	212,711	-0,368	-0,407
83,509	-14,502	-0,281	-0,126
84,524	-135,417	-0,330	-0,027
85,539	-39,055	-0,236	-0,086
86,553	-24,613	-0,309	-0,128
87,568	3,656	-0,265	-0,135
88,582	97,390	-0,249	-0,200
89,597	6,815	-0,338	-0,175
90,611	36,430	-0,393	-0,242
91,626	166,808	-0,281	-0,279
92,641	18,457	-0,323	-0,180
93,655	-25,875	-0,340	-0,139
94,670	20,661	-0,346	-0,196
95,684	233,243	-0,234	-0,270
96,699	217,156	-0,203	-0,227
97,714	-200,000	-0,023	-0,301
98,728	87,685	-0,260	-0,202
99,743	339,206	-0,270	-0,369
100,757	79,305	-0,360	-0,270
101,772	3,321	-0,234	-0,119
102,787	75,813	-0,281	-0,207
103,801	56,472	-0,299	-0,203
104,816	31,669	-0,279	-0,167
105,830	-81,152	-0,245	-0,056
106,845	-75,155	-0,278	-0,069
107,860	68,819	-0,256	-0,184
108,874	183,262	-0,247	-0,255
109,889	103,722	-0,298	-0,244
110,903	243,326	-0,285	-0,334
111,918	255,127	-0,126	-0,152
112,933	75,295	-0,302	-0,222
113,947	41,262	-0,227	-0,143
114,962	42,234	-0,199	-0,126
115,976	103,993	-0,237	-0,194
116,991	256,601	-0,221	-0,265
118,006	66,458	-0,339	-0,240
119,020	48,123	-0,322	-0,210
120,035	-102,827	-0,205	-0,034
121,049	82,987	-0,200	-0,151
122,064	167,977	-0,182	-0,180
123,079	-121,926	-0,321	-0,036
124,093	96,208	-0,283	-0,226
125,108	-48,905	-0,297	-0,099
126,122	43,713	-0,156	-0,099
127,137	10,503	-0,285	-0,151
128,151	131,624	-0,218	-0,195
129,166	21,520	-0,182	-0,103
130,181	-18,136	-0,358	-0,156
131,195	277,083	-0,211	-0,263
132,210	31,682	-0,301	-0,180
133,224	-36,007	-0,254	-0,095
134,239	53,065	-0,232	-0,154
135,254	203,622	-0,084	-0,091
136,268	-118,359	-0,307	-0,038
137,283	9,434	-0,231	-0,122
138,297	86,785	-0,247	-0,190
139,312	215,579	-0,218	-0,242
140,327	225,578	-0,261	-0,295
141,341	300,621	-0,185	-0,239
142,356	-114,751	-0,173	-0,023
143,370	-42,420	-0,289	-0,102
144,385	51,037	-0,156	-0,103
145,400	146,080	-0,251	-0,234
146,414	84,176	-0,278	-0,211
147,429	-36,383	-0,258	-0,096
148,443	17,111	-0,284	-0,156
149,458	33,463	-0,188	-0,114
150,473	-1,910	-0,282	-0,138
151,487	126,313	-0,215	-0,189
152,502	-90,835	-0,448	-0,089
153,516	85,269	-0,107	-0,081
154,531	210,474	-0,254	-0,278
155,546	-45,849	-0,253	-0,087
156,560	488,620	-0,127	-0,203
157,575	-151,250	-0,258	-0,013
158,589	1,950	-0,282	-0,141
159,604	14,023	-0,262	-0,141
160,619	77,242	-0,255	-0,188
161,633	226,943	-0,177	-0,200
162,648	48,076	-0,199	-0,129
163,662	103,971	-0,240	-0,196
164,677	13,607	-0,141	-0,076
165,692	-145,514	-0,276	-0,017
166,706	-65,759	-0,336	-0,093
167,721	-1,381	-0,233	-0,114
168,735	457,250	-0,208	-0,323
169,750	-42,762	-0,278	-0,098
170,764	-111,792	-0,223	0,031
171,779	-79,847	-0,198	-0,046
172,794	-82,105	-0,216	-0,049
173,808	-159,902	-0,223	-0,008
174,823	89,852	-0,324	-0,251
175,837	12,379	-0,109	-0,058
176,852	149,705	-0,233	-0,220
177,867	27,755	-0,228	-0,133
178,881	20,233	-0,096	-0,053
179,896	306,716	-0,137	-0,178
180,910	104,323	-0,198	-0,162
181,925	-58,285	-0,351	-0,105
182,940	127,437	-0,390	-0,344
183,954	103,346	-0,268	-0,218
184,969	-94,369	-0,227	-0,043
185,983	75,256	-0,205	-0,150
186,998	45,802	-0,326	-0,209
188,013	728,262	-0,152	-0,283
189,027	-62,200	-0,231	-0,066
190,042	140,729	-0,201	-0,185
191,056	259,196	-0,306	-0,367
192,071	27,623	-0,298	-0,173
193,086	-46,834	-0,177	-0,060
194,100	-186,998	-0,278	0,003
195,115	126,333	-0,230	-0,202
196,129	152,038	-0,257	-0,243
197,144	522,492	-0,182	-0,298
198,159	-149,813	-0,232	0,012
199,173	13,719	-0,171	-0,092
200,188	169,450	-0,156	-0,155
201,202	126,000	-0,187	-0,164
202,217	-39,312	-0,414	-0,150
203,232	38,034	-0,228	-0,140
204,246	18,056	-0,336	-0,185
205,261	118,091	-0,234	-0,200
206,275	215,360	-0,180	-0,199
207,290	156,972	-0,121	-0,116
208,304	-41,774	-0,199	-0,070
209,319	-156,251	-0,188	-0,008
210,334	-19,449	-0,361	-0,154
211,348	-2,982	-0,180	-0,087
212,363	264,835	-0,174	-0,210
213,377	-69,224	-0,233	-0,062
214,392	-69,158	-0,196	-0,052
215,407	-11,627	-0,155	-0,070
216,421	-67,810	-0,180	0,048
217,436	448,611	-0,099	-0,152
218,450	193,724	-0,130	-0,136
219,465	-64,793	-0,134	-0,037
220,480	-10,385	-0,203	-0,093
221,494	220,850	-0,127	-0,141
222,509	-76,634	-0,212	-0,051
223,523	1,685	-0,256	-0,127
224,538	55,272	-0,197	-0,132
225,553	95,877	-0,234	-0,185
226,567	-21,266	-0,386	-0,162
227,582	130,081	-0,132	-0,117
228,596	226,418	-0,094	-0,106
229,611	768,754	-0,090	-0,169
230,626	0,519	-0,309	-0,152
231,640	-92,227	-0,163	-0,032
232,655	-65,881	-0,279	-0,077
233,669	453,596	-0,132	-0,203
234,684	25,236	-0,225	-0,129
235,699	97,639	-0,220	-0,175
236,713	-47,011	-0,195	-0,065
237,728	-132,189	-0,248	0,022
238,742	-146,543	-0,133	-0,008
239,757	106,874	-0,201	-0,165
240,772	788,672	-0,117	-0,224
241,786	253,694	-0,208	-0,246
242,801	572,592	-0,126	-0,212
243,815	-113,517	-0,142	0,019
244,830	108,493	-0,213	-0,176
245,844	-101,373	-0,149	0,025
246,859	-72,635	-0,211	-0,053
247,874	186,882	-0,226	-0,233
248,888	270,581	-0,161	-0,195
249,903	-200,000	-0,266	-0,001
250,917	-0,665	-0,125	-0,061
251,932	-10,474	-0,145	0,066
252,947	-200,000	-0,067	-0,233
253,961	9,150	-0,276	-0,143
254,976	132,635	-0,210	-0,187
255,990	-200,000	-0,013	-0,175
257,005	-43,486	-0,220	-0,076
258,020	45,273	-0,247	-0,157
259,034	101,200	-0,210	-0,168
260,049	330,346	-0,128	-0,170
261,063	-105,885	-0,225	-0,035
262,078	-133,347	-0,214	0,018
263,093	-28,997	-0,091	-0,036
264,107	157,541	-0,262	-0,251
265,122	100,632	-0,120	-0,096
266,136	-3,981	-0,099	-0,047
267,151	209,871	-0,152	-0,165
268,166	169,909	-0,219	-0,216
269,180	-68,415	-0,253	-0,067
270,195	168,339	-0,201	-0,197
271,209	52,452	-0,083	-0,055
272,224	10,356	-0,112	0,059
273,239	93,094	-0,121	-0,094
274,253	204,081	-0,094	-0,101
275,268	209,777	-0,128	-0,138
276,282	67,573	-0,174	-0,122
277,297	151,390	-0,149	-0,139
278,312	100,708	-0,197	-0,158
279,326	381,393	-0,168	-0,238
280,341	-78,367	-0,231	-0,054
281,355	434,665	-0,099	-0,148
282,370	-93,467	-0,169	-0,032
283,384	85,866	-0,194	-0,147
284,399	800,000	-0,110	-0,218
285,414	23,932	-0,189	-0,107
286,428	169,672	-0,106	-0,104
287,443	-62,258	-0,207	-0,059
288,457	-3,826	-0,195	-0,093
289,472	-178,677	-0,232	-0,004
290,487	63,202	-0,166	-0,114
291,501	-105,814	-0,195	-0,030
292,516	800,000	-0,055	-0,121
293,530	572,890	0,010	0,017
294,545	-70,474	-0,079	-0,020
295,560	-200,000	0,009	-0,103
296,574	-131,726	-0,153	-0,014
297,589	-28,212	-0,114	0,045
298,603	161,917	-0,158	-0,152
299,618	116,034	-0,170	-0,143
300,633	800,000	-0,034	-0,103
301,647	157,213	-0,074	-0,070
302,662	294,970	-0,133	-0,167
303,676	158,609	-0,090	-0,086
304,691	800,000	-0,119	-0,234
305,706	59,118	-0,181	-0,122
306,720	142,060	-0,150	-0,137
307,735	-51,673	-0,222	-0,071
308,749	-73,740	-0,120	-0,030
309,764	4,795	-0,066	0,033
310,779	-27,057	-0,181	-0,072
311,793	738,870	-0,123	-0,228
312,808	53,157	-0,261	-0,171
313,822	-200,000	-0,023	-0,131
314,837	-85,226	-0,137	-0,029
315,852	-17,274	-0,098	-0,042
316,866	41,077	-0,100	-0,062
317,881	-200,000	-0,022	-0,125
318,895	-99,902	-0,125	-0,021
319,910	121,619	-0,065	-0,055
320,925	19,592	-0,205	-0,113
321,939	-76,388	-0,190	-0,046
322,954	-148,893	-0,145	-0,008
323,968	160,888	-0,052	0,049
324,983	800,000	-0,105	-0,232
325,997	600,328	-0,123	-0,211
327,012	-85,353	-0,242	-0,051
328,027	32,428	-0,169	-0,100
329,041	582,430	-0,098	-0,166
330,056	800,000	-0,061	-0,134
331,070	-14,572	-0,166	-0,073
332,085	-66,488	-0,136	-0,037
333,100	57,186	-0,126	-0,084
334,114	-182,823	-0,225	-0,003
335,129	-106,910	-0,163	-0,025
336,143	88,092	-0,228	-0,173
337,158	-64,564	-0,068	-0,019
338,173	453,049	-0,043	-0,066
339,187	-117,284	-0,146	0,018
340,202	800,000	-0,064	-0,157
341,216	50,418	-0,185	-0,119
342,231	-102,852	-0,247	-0,040
343,246	200,892	-0,203	-0,214
344,260	161,424	-0,127	-0,122
345,275	69,803	-0,142	-0,100
346,289	-24,560	-0,100	0,041
347,304	800,000	-0,079	-0,213
348,319	-14,599	-0,190	-0,083
349,333	93,210	-0,169	-0,131
350,348	-76,652	-0,067	-0,016
351,362	77,580	-0,208	-0,151
352,377	162,606	-0,082	-0,079
353,392	800,000	-0,094	-0,187
354,406	138,170	-0,202	-0,181
355,421	208,375	1311,339	1404,135
356,435	160,335	1471,624	1404,613
