DTS Sentinel unit serial number:	SN410029Multiplexer serial number:	ORYXHardware model number:	OX2-SRSoftware version number:	ORYX F/W v4,00 Oryx Data Collector v3.7.2.0data status	okinstallation	B3 Nyhavnadifferential loss correction	single-endedforward channel	channel 1reverse channel	N/Adate	2023/11/28time	21:32:30forward acquisition time	300,00reverse acquisition time	0,00gamma	499,1914k internal	0,3212k external	0,3212temperature offset calibration	1,0000default loss term (dB/km)	0,3820temperature slope calibration	1,0000multiplexer offset coefficient	1,0000multiplexer slope coefficient	1,0000fibre end	0,00T internal ref (°C)	8,35T ext. ref 1 (°C)	-6,22T ext. ref 2 (°C)	-6,35length (m)	temperature (°C)	Stokes	anti-Stokes-744,400	571,819	-0,145	-0,257
-743,385	415,125	-0,110	0,170
-742,371	800,000	-0,034	-0,070
-741,356	800,000	0,097	0,275
-740,342	396,282	-0,191	-0,290
-739,327	800,000	-0,103	0,260
-738,312	579,085	-0,149	-0,265
-737,298	-200,000	-0,010	0,222
-736,283	249,846	-0,164	-0,202
-735,269	800,000	0,123	0,275
-734,254	165,738	-0,158	-0,162
-733,239	-117,117	-0,343	0,045
-732,225	345,520	0,069	-0,099
-731,210	-99,761	0,145	0,026
-730,196	211,119	0,091	0,103
-729,181	272,461	0,061	0,078
-728,167	16,845	-0,097	-0,056
-727,152	-100,872	-0,100	-0,018
-726,137	-39,169	-0,109	0,041
-725,123	-155,428	-0,187	-0,009
-724,108	137,706	-0,125	-0,119
-723,094	69,440	-0,051	-0,038
-722,079	82,859	0,043	0,034
-721,064	-10,590	-0,044	-0,021
-720,050	800,000	0,049	0,152
-719,035	331,880	-0,049	-0,068
-718,021	28,386	-0,144	-0,088
-717,006	800,000	0,059	-0,153
-715,991	63,443	-0,173	-0,125
-714,977	128,352	-0,113	-0,105
-713,962	-76,479	-0,175	0,044
-712,948	-10,759	0,133	0,063
-711,933	350,301	-0,033	0,048
-710,918	-200,000	-0,010	-0,126
-709,904	30,531	-0,095	-0,059
-708,889	301,798	-0,108	-0,144
-707,875	788,195	0,016	-0,032
-706,860	39,805	-0,151	-0,098
-705,845	-62,158	0,125	0,038
-704,831	-200,000	0,008	0,065
-703,816	-141,650	-0,055	-0,004
-702,802	-93,237	0,078	-0,016
-701,787	-44,578	-0,091	-0,033
-700,772	-200,000	0,000	0,065
-699,758	107,739	-0,054	-0,047
-698,743	-109,726	-0,045	-0,007
-697,729	-49,821	-0,117	-0,040
-696,714	73,531	0,102	-0,077
-695,699	139,590	0,061	-0,058
-694,685	41,352	0,132	-0,086
-693,670	13,785	-0,110	-0,062
-692,656	-200,000	0,042	-0,227
-691,641	-27,094	0,120	0,050
-690,627	119,111	-0,056	0,050
-689,612	10,921	0,065	0,036
-688,597	3,461	-0,174	0,092
-687,583	343,248	0,088	-0,126
-686,568	-200,000	0,027	-0,129
-685,554	17,337	-0,169	-0,097
-684,539	87,183	-0,058	-0,046
-683,524	-84,835	-0,096	-0,022
-682,510	-200,000	-0,008	0,038
-681,495	750,091	-0,079	-0,154
-680,481	-200,000	-0,030	0,134
-679,466	800,000	-0,036	-0,111
-678,451	51,922	-0,040	-0,028
-677,437	286,948	0,142	0,185
-676,422	-200,000	0,005	-0,040
-675,408	176,467	0,058	-0,061
-674,393	352,933	0,056	-0,081
-673,378	94,259	-0,094	-0,077
-672,364	-7,377	0,066	-0,032
-671,349	-107,019	-0,126	-0,020
-670,335	293,076	-0,042	0,055
-669,320	544,399	-0,034	-0,059
-668,305	789,210	-0,059	0,118
-667,291	-200,000	0,030	0,098
-666,276	258,670	0,036	0,045
-665,262	657,249	-0,012	-0,023
-664,247	-30,437	0,063	-0,026
-663,232	-101,230	-0,099	-0,017
-662,218	124,064	0,124	-0,112
-661,203	-48,577	-0,075	0,026
-660,189	800,000	-0,076	-0,168
-659,174	322,319	-0,086	-0,118
-658,159	103,808	-0,088	-0,074
-657,145	-200,000	0,004	-0,020
-656,130	7,738	-0,045	0,024
-655,116	-101,348	0,053	0,009
-654,101	-23,295	-0,092	-0,040
-653,086	-97,077	-0,075	-0,014
-652,072	267,831	0,027	0,034
-651,057	-32,417	0,076	-0,031
-650,043	113,359	-0,055	-0,048
-649,028	465,067	-0,042	0,068
-648,014	742,689	0,034	0,066
-646,999	-110,214	0,095	-0,014
-645,984	63,942	-0,113	0,082
-644,970	-200,000	0,028	-0,108
-643,955	-25,439	0,043	0,018
-642,941	9,380	-0,149	-0,081
-641,926	800,000	-0,041	-0,115
-640,911	-131,061	-0,039	-0,004
-639,897	97,095	0,093	0,077
-638,882	90,063	0,038	-0,030
-637,868	54,296	-0,102	0,071
-636,853	244,116	0,035	-0,043
-635,838	66,920	-0,089	-0,065
-634,824	275,446	0,114	-0,146
-633,809	-200,000	0,001	0,030
-632,795	-200,000	0,001	0,035
-631,780	800,000	-0,049	-0,138
-630,765	159,093	0,090	0,091
-629,751	463,500	0,042	-0,069
-628,736	-39,255	-0,143	0,054
-627,722	-200,000	0,023	0,089
-626,707	-26,951	0,065	0,027
-625,692	313,735	0,037	-0,050
-624,678	143,742	0,098	0,095
-623,663	42,035	0,081	-0,053
-622,649	270,503	-0,051	0,065
-621,634	-74,199	-0,114	0,030
-620,619	-200,000	0,002	0,034
-619,605	53,266	0,077	0,053
-618,590	-200,000	-0,025	0,149
-617,576	133,557	0,135	-0,126
-616,561	-200,000	-0,011	-0,185
-615,546	-108,593	0,167	-0,026
-614,532	4,136	-0,061	-0,032
-613,517	176,926	0,134	-0,141
-612,503	-111,908	-0,009	-0,001
-611,488	-200,000	-0,027	-0,092
-610,474	800,000	-0,046	-0,102
-609,459	-144,385	0,062	-0,004
-608,444	166,149	-0,146	0,149
-607,430	-101,169	-0,197	-0,034
-606,415	-200,000	-0,003	0,118
-605,401	709,063	0,045	0,086
-604,386	-59,727	-0,076	0,023
-603,371	-23,015	-0,138	0,060
-602,357	-128,933	-0,029	-0,003
-601,342	800,000	-0,044	-0,107
-600,328	-68,399	-0,068	0,019
-599,313	-200,000	-0,004	-0,127
-598,298	219,151	0,093	0,107
-597,284	345,956	-0,078	0,111
-596,269	38,389	0,060	-0,039
-595,255	8,585	0,064	0,034
-594,240	-36,493	-0,110	0,042
-593,225	-8,426	0,024	0,012
-592,211	4,528	-0,105	-0,055
-591,196	-144,961	0,085	0,006
-590,182	-200,000	-0,042	0,152
-589,167	531,757	0,033	0,056
-588,152	19,398	0,042	0,024
-587,138	25,274	-0,113	-0,067
-586,123	800,000	0,006	-0,015
-585,109	111,574	-0,116	-0,101
-584,094	-50,565	-0,076	0,026
-583,079	-21,237	0,052	0,023
-582,065	338,633	-0,017	-0,024
-581,050	-41,377	0,126	-0,047
-580,036	800,000	-0,026	-0,057
-579,021	229,672	-0,103	-0,121
-578,006	-99,870	-0,144	0,026
-576,992	184,622	-0,052	-0,056
-575,977	596,483	-0,043	0,077
-574,963	221,504	0,046	-0,053
-573,948	72,182	0,024	0,018
-572,934	-21,225	0,115	-0,051
-571,919	21,939	-0,185	-0,108
-570,904	-200,000	0,013	-0,044
-569,890	-87,788	0,081	0,017
-568,875	-164,045	0,049	-0,002
-567,861	223,519	0,072	0,083
-566,846	312,940	-0,080	-0,109
-565,831	37,243	0,109	-0,070
-564,817	137,167	-0,197	-0,185
-563,802	-18,369	-0,049	-0,022
-562,788	20,998	-0,060	-0,035
-561,773	-200,000	0,004	-0,061
-560,758	61,953	0,133	-0,095
-559,744	-34,461	0,040	-0,016
-558,729	800,000	0,067	0,152
-557,715	34,559	0,094	-0,059
-556,700	-156,684	-0,032	-0,001
-555,685	-80,093	0,052	-0,012
-554,671	-86,856	0,087	0,019
-553,656	-4,176	0,151	-0,075
-552,642	-126,143	-0,085	-0,009
-551,627	-86,720	-0,127	0,028
-550,612	800,000	-0,035	0,073
-549,598	-57,943	-0,102	-0,032
-548,583	-151,379	0,087	0,005
-547,569	-84,325	-0,169	-0,038
-546,554	-135,092	-0,088	-0,008
-545,539	563,294	-0,048	0,084
-544,525	230,783	-0,042	-0,049
-543,510	5,221	-0,047	0,025
-542,496	-102,965	-0,053	0,009
-541,481	800,000	0,056	-0,119
-540,466	65,742	-0,119	-0,087
-539,452	328,567	-0,032	0,045
-538,437	-66,658	-0,097	-0,027
-537,423	-104,379	0,090	0,015
-536,408	162,639	-0,057	-0,058
-535,393	39,978	-0,212	-0,136
-534,379	-81,563	-0,081	-0,019
-533,364	-125,627	-0,097	-0,010
-532,350	-57,025	0,050	-0,016
-531,335	-200,000	-0,002	0,057
-530,321	37,547	0,038	0,024
-529,306	134,344	0,114	-0,106
-528,291	-154,551	-0,277	-0,013
-527,277	13,339	-0,133	-0,074
-526,262	93,618	-0,016	-0,013
-525,248	-7,244	0,107	-0,052
-524,233	-36,045	0,059	-0,023
-523,218	800,000	0,019	0,044
-522,204	800,000	0,027	0,079
-521,189	-200,000	0,014	-0,052
-520,175	480,664	-0,046	0,076
-519,160	800,000	0,023	0,071
-518,145	420,207	0,042	0,065
-517,131	800,000	-0,062	-0,163
-516,116	-150,335	0,048	0,003
-515,102	-38,975	0,064	-0,024
-514,087	42,839	0,068	0,044
-513,072	-147,660	-0,055	0,003
-512,058	221,636	-0,057	-0,066
-511,043	-78,975	0,064	0,015
-510,029	-200,000	0,005	0,076
-509,014	800,000	0,073	0,167
-507,999	-200,000	0,012	-0,045
-506,985	-200,000	0,009	-0,184
-505,970	800,000	-0,057	-0,134
-504,956	44,192	-0,079	-0,052
-503,941	463,863	0,030	0,048
-502,926	343,729	-0,065	0,092
-501,912	294,642	0,045	0,059
-500,897	-200,000	-0,013	0,044
-499,883	-200,000	-0,019	-0,129
-498,868	285,865	-0,068	-0,089
-497,853	800,000	0,019	-0,059
-496,839	239,785	-0,101	-0,121
-495,824	-51,079	0,074	-0,025
-494,810	35,634	-0,009	-0,005
-493,795	800,000	0,034	0,068
-492,781	767,319	0,052	0,103
-491,766	-108,363	0,160	0,025
-490,751	-200,000	-0,006	-0,117
-489,737	-67,249	-0,153	0,043
-488,722	213,864	0,064	-0,072
-487,708	457,383	0,003	-0,006
-486,693	123,664	0,070	-0,063
-485,678	-61,628	-0,055	-0,016
-484,664	-200,000	-0,013	0,068
-483,649	73,712	-0,048	-0,036
-482,635	-200,000	0,044	0,207
-481,620	443,501	-0,026	0,041
-480,605	744,267	0,058	-0,112
-479,591	-121,967	-0,060	0,007
-478,576	800,000	0,023	-0,047
-477,562	204,150	0,016	-0,017
-476,547	-152,866	-0,141	0,007
-475,532	2,018	0,068	-0,035
-474,518	-47,085	0,105	0,037
-473,503	109,039	0,106	0,091
-472,489	676,113	0,044	0,081
-471,474	-93,787	-0,085	0,017
-470,459	73,756	0,094	0,070
-469,445	800,000	-0,004	0,013
-468,430	-200,000	-0,001	0,080
-467,416	147,235	-0,036	0,034
-466,401	85,627	0,087	0,068
-465,386	-39,546	0,048	-0,018
-464,372	-16,814	-0,080	0,036
-463,357	-200,000	0,002	-0,111
-462,343	48,754	-0,040	-0,027
-461,328	-48,787	-0,100	0,034
-460,313	71,979	0,020	-0,015
-459,299	208,240	-0,084	0,094
-458,284	306,278	0,016	-0,021
-457,270	173,064	-0,016	-0,017
-456,255	-10,108	-0,053	0,025
-455,241	-94,357	-0,059	0,011
-454,226	165,984	0,033	-0,033
-453,211	361,553	-0,039	0,056
-452,197	410,460	0,102	-0,156
-451,182	-200,000	0,013	0,045
-450,168	-63,734	0,078	0,023
-449,153	10,257	0,122	0,066
-448,138	-19,094	-0,182	-0,081
-447,124	142,568	-0,056	-0,053
-446,109	800,000	0,014	0,038
-445,095	-200,000	0,005	-0,026
-444,080	385,160	0,061	0,090
-443,065	-70,738	-0,113	0,030
-442,051	7,354	0,083	-0,044
-441,036	800,000	-0,036	-0,083
-440,022	-200,000	-0,008	-0,042
-439,007	29,088	-0,106	-0,064
-437,992	138,295	0,026	0,025
-436,978	-183,717	0,161	-0,002
-435,963	-193,859	0,043	0,000
-434,949	526,161	-0,014	-0,023
-433,934	-108,426	-0,089	0,014
-432,919	35,467	-0,041	-0,026
-431,905	-200,000	0,004	-0,100
-430,890	28,994	-0,094	0,057
-429,876	262,678	0,028	0,035
-428,861	74,388	0,098	0,074
-427,846	48,725	-0,121	-0,081
-426,832	-36,577	-0,146	-0,056
-425,817	800,000	0,071	-0,178
-424,803	33,236	-0,074	0,046
-423,788	-200,000	0,026	-0,098
-422,773	-200,000	-0,026	0,113
-421,759	148,999	0,058	0,056
-420,744	-172,935	0,054	-0,001
-419,730	-97,132	-0,129	-0,024
-418,715	-200,000	-0,005	-0,118
-417,701	-200,000	0,002	-0,019
-416,686	-200,000	0,019	-0,085
-415,671	-33,021	-0,063	0,025
-414,657	800,000	-0,053	0,155
-413,642	745,908	0,049	-0,096
-412,628	-44,432	-0,062	0,022
-411,613	-3,908	0,099	-0,049
-410,598	800,000	0,031	0,067
-409,584	-109,339	0,006	-0,001
-408,569	129,416	-0,017	-0,016
-407,555	-200,000	0,018	0,111
-406,540	301,022	-0,087	0,115
-405,525	-6,483	0,077	0,038
-404,511	-53,647	-0,113	-0,037
-403,496	-41,587	-0,080	0,029
-402,482	16,176	0,086	-0,048
-401,467	252,913	-0,045	0,055
-400,452	66,736	-0,122	0,088
-399,438	143,205	-0,030	-0,028
-398,423	800,000	-0,034	0,098
-397,409	-66,013	-0,061	0,017
-396,394	221,184	0,052	0,060
-395,379	250,920	0,108	-0,131
-394,365	151,707	0,116	0,114
-393,350	-58,172	0,186	0,058
-392,336	41,799	0,064	0,041
-391,321	-4,276	-0,188	0,092
-390,306	-200,000	0,003	-0,082
-389,292	-200,000	0,009	-0,106
-388,277	81,964	-0,025	0,019
-387,263	14,028	0,111	0,061
-386,248	177,752	-0,127	0,133
-385,233	-31,869	0,101	0,040
-384,219	-8,418	-0,079	0,038
-383,204	-61,599	-0,066	-0,020
-382,190	-200,000	-0,013	-0,115
-381,175	800,000	0,039	0,113
-380,160	-3,062	0,121	-0,060
-379,146	631,456	0,068	-0,123
-378,131	30,103	0,083	-0,051
-377,117	-18,719	0,113	0,050
-376,102	58,493	-0,055	0,039
-375,088	428,876	-0,035	0,054
-374,073	-32,603	0,103	0,041
-373,058	-170,513	0,015	0,000
-372,044	-22,594	0,057	0,025
-371,029	-114,545	0,032	-0,004
-370,015	800,000	-0,046	0,132
-369,000	111,983	0,050	-0,043
-367,985	-69,832	-0,062	-0,017
-366,971	-86,269	0,109	-0,024
-365,956	27,670	0,054	-0,032
-364,942	-200,000	-0,005	0,065
-363,927	800,000	0,054	0,139
-362,912	4,837	0,084	-0,044
-361,898	31,999	0,016	0,010
-360,883	185,222	-0,040	0,042
-359,869	800,000	-0,076	0,161
-358,854	-94,270	0,119	-0,023
-357,839	88,942	-0,043	-0,035
-356,825	80,258	0,053	-0,040
-355,810	-200,000	-0,024	-0,095
-354,796	-76,699	0,028	0,007
-353,781	-200,000	-0,006	0,039
-352,766	-200,000	-0,018	0,173
-351,752	-75,867	-0,038	0,010
-350,737	800,000	0,042	0,106
-349,723	96,990	-0,117	0,096
-348,708	-200,000	0,018	0,070
-347,693	45,743	0,029	-0,019
-346,679	-200,000	0,011	0,039
-345,664	-10,073	-0,188	0,089
-344,650	-122,536	0,126	0,014
-343,635	222,274	-0,058	0,067
-342,620	-84,613	0,137	-0,031
-341,606	800,000	-0,050	-0,130
-340,591	660,907	-0,023	0,042
-339,577	-200,000	0,002	0,049
-338,562	140,711	-0,063	-0,059
-337,548	-200,000	0,016	-0,095
-336,533	199,469	0,081	-0,089
-335,518	-56,905	0,184	0,058
-334,504	143,538	-0,064	0,061
-333,489	27,302	0,106	-0,063
-332,475	189,367	0,024	-0,026
-331,460	5,586	-0,117	0,062
-330,445	-200,000	0,052	-0,203
-329,431	6,090	0,107	0,056
-328,416	-67,415	0,022	-0,006
-327,402	7,112	-0,034	-0,018
-326,387	-200,000	0,002	0,044
-325,372	384,358	-0,011	0,016
-324,358	-183,421	-0,140	-0,002
-323,343	-200,000	-0,007	-0,030
-322,329	177,031	0,133	-0,138
-321,314	80,930	0,064	-0,049
-320,299	800,000	0,043	-0,124
-319,285	13,829	0,040	0,022
-318,270	-200,000	-0,006	-0,038
-317,256	800,000	0,034	-0,105
-316,241	800,000	-0,016	0,040
-315,226	-200,000	0,038	0,213
-314,212	27,038	0,104	0,062
-313,197	-76,931	0,089	-0,022
-312,183	-200,000	0,001	0,214
-311,168	92,998	-0,016	0,013
-310,153	-88,460	0,040	-0,008
-309,139	196,806	-0,123	-0,134
-308,124	-15,243	0,072	-0,032
-307,110	-200,000	0,010	0,085
-306,095	800,000	0,010	0,027
-305,080	-200,000	0,029	-0,150
-304,066	639,037	0,028	-0,051
-303,051	21,023	-0,049	-0,028
-302,037	186,363	-0,042	-0,044
-301,022	140,117	0,086	0,081
-300,008	-154,953	-0,076	0,003
-298,993	63,450	0,165	0,117
-297,978	800,000	0,055	0,146
-296,964	73,808	-0,087	0,065
-295,949	800,000	0,042	-0,130
-294,935	800,000	-0,035	-0,078
-293,920	-152,451	0,180	-0,009
-292,905	800,000	-0,034	-0,077
-291,891	-200,000	0,026	0,102
-290,876	12,848	0,086	0,047
-289,862	115,854	-0,096	0,084
-288,847	30,445	-0,107	-0,065
-287,832	299,830	-0,033	-0,044
-286,818	-125,768	0,018	0,002
-285,803	46,906	-0,023	0,015
-284,789	327,699	0,119	0,163
-283,774	-200,000	-0,033	0,140
-282,759	266,504	-0,095	-0,119
-281,745	267,071	-0,041	-0,051
-280,730	-200,000	-0,023	0,082
-279,716	-8,657	-0,064	-0,031
-278,701	-200,000	0,141	-0,000
-277,686	29,168	0,090	0,054
-276,672	-200,000	0,034	-0,140
-275,657	-16,129	-0,196	-0,088
-274,643	-200,000	0,062	-0,196
-273,628	32,180	-0,058	-0,035
-272,613	-109,079	0,054	0,008
-271,599	470,473	-0,043	-0,070
-270,584	-77,965	0,191	0,046
-269,570	257,914	-0,064	0,078
-268,555	-151,149	0,168	-0,009
-267,540	-200,000	0,004	-0,039
-266,526	-169,363	-0,096	-0,002
-265,511	77,921	-0,129	-0,098
-264,497	-200,000	0,023	-0,108
-263,482	-200,000	-0,001	0,138
-262,467	800,000	0,044	0,102
-261,453	800,000	0,046	0,124
-260,438	214,287	-0,036	0,041
-259,424	-47,913	0,012	0,004
-258,409	-135,169	-0,080	0,007
-257,395	-200,000	0,012	0,092
-256,380	206,487	0,130	0,144
-255,365	-99,907	0,052	-0,009
-254,351	-80,650	-0,108	-0,025
-253,336	45,420	0,109	-0,072
-252,322	-191,855	-0,132	0,001
-251,307	-112,695	-0,223	0,031
-250,292	301,742	0,051	0,067
-249,278	800,000	0,067	-0,140
-248,263	-200,000	-0,001	0,097
-247,249	352,718	0,057	0,081
-246,234	-9,409	0,129	0,061
-245,219	65,642	-0,086	0,062
-244,205	-200,000	-0,015	-0,135
-243,190	-200,000	0,015	0,132
-242,176	-60,074	0,072	0,022
-241,161	-41,300	0,052	-0,019
-240,146	-200,000	0,052	-0,212
-239,132	800,000	0,036	-0,076
-238,117	227,314	-0,076	-0,088
-237,103	-25,545	0,060	0,025
-236,088	-128,794	-0,064	-0,006
-235,073	-80,858	0,038	-0,009
-234,059	-117,014	0,040	-0,005
-233,044	392,652	-0,091	0,134
-232,030	-12,377	0,066	-0,031
-231,015	-30,628	-0,074	-0,029
-230,000	7,610	0,152	-0,080
-228,986	100,720	-0,050	0,041
-227,971	-200,000	0,018	0,118
-226,957	131,724	-0,047	-0,043
-225,942	-200,000	-0,026	-0,098
-224,927	-23,650	-0,100	0,043
-223,913	446,650	-0,041	-0,064
-222,898	-200,000	-0,001	-0,006
-221,884	108,502	0,040	0,034
-220,869	-200,000	0,009	-0,069
-219,855	-39,871	0,056	-0,020
-218,840	-132,626	-0,057	0,005
-217,825	800,000	-0,053	0,132
-216,811	96,116	-0,098	-0,079
-215,796	800,000	0,015	0,030
-214,782	731,198	-0,016	0,030
-213,767	767,020	-0,048	0,094
-212,752	-188,195	0,102	0,001
-211,738	-200,000	-0,008	-0,109
-210,723	162,631	0,082	-0,082
-209,709	282,903	-0,086	0,109
-208,694	-200,000	0,009	-0,122
-207,679	-130,162	-0,074	-0,007
-206,665	800,000	-0,015	0,043
-205,650	-42,985	0,080	0,029
-204,636	-13,601	0,072	0,033
-203,621	70,939	-0,140	0,103
-202,606	-151,388	-0,101	-0,005
-201,592	481,861	0,065	-0,105
-200,577	800,000	-0,033	-0,101
-199,563	-114,186	0,039	0,005
-198,548	-200,000	0,018	0,201
-197,533	-72,803	0,115	-0,030
-196,519	174,080	-0,091	-0,093
-195,504	-200,000	0,026	0,084
-194,490	167,676	-0,109	0,110
-193,475	226,826	-0,054	-0,062
-192,460	-121,459	0,044	0,005
-191,446	-32,649	0,083	-0,032
-190,431	800,000	-0,031	0,087
-189,417	-9,675	0,033	0,016
-188,402	67,684	-0,085	0,062
-187,387	-200,000	0,002	-0,102
-186,373	87,848	-0,103	-0,081
-185,358	657,145	0,052	-0,095
-184,344	-154,100	0,104	0,005
-183,329	189,988	-0,079	-0,085
-182,315	169,162	0,172	0,174
-181,300	-200,000	-0,022	0,208
-180,285	-10,959	-0,012	-0,006
-179,271	164,368	-0,076	-0,076
-178,256	-188,920	0,030	0,000
-177,242	-119,485	-0,162	-0,020
-176,227	715,717	0,059	0,112
-175,212	442,848	0,062	0,097
-174,198	123,277	-0,082	0,073
-173,183	333,212	-0,037	-0,051
-172,169	-200,000	0,012	-0,086
-171,154	162,009	0,053	0,052
-170,139	-64,215	0,106	-0,031
-169,125	646,594	-0,035	0,063
-168,110	800,000	-0,070	-0,140
-167,096	139,557	-0,008	-0,007
-166,081	22,982	-0,203	-0,118
-165,066	-100,906	0,088	-0,015
-164,052	-200,000	-0,004	-0,033
-163,037	-117,886	0,081	-0,010
-162,023	-136,485	0,117	-0,009
-161,008	498,654	0,158	0,259
-159,993	-165,937	-0,067	0,002
-158,979	-29,488	0,041	-0,017
-157,964	40,231	0,042	0,027
-156,950	-92,883	0,138	-0,027
-155,935	-200,000	-0,013	0,051
-154,920	-67,434	0,083	0,023
-153,906	-200,000	0,000	0,030
-152,891	605,973	-0,030	-0,053
-151,877	-61,257	-0,019	0,006
-150,862	28,463	0,172	-0,103
-149,847	71,493	-0,170	0,125
-148,833	800,000	0,035	0,070
-147,818	800,000	0,036	0,097
-146,804	-122,107	0,092	0,011
-145,789	-72,151	-0,158	-0,041
-144,775	10,946	-0,112	-0,061
-143,760	-200,000	-0,015	-0,089
-142,745	46,362	-0,100	0,065
-141,731	-133,038	0,049	0,004
-140,716	-1,995	0,051	-0,025
-139,702	-46,651	0,046	-0,016
-138,687	-24,920	-0,015	-0,006
-137,672	452,877	-0,088	0,138
-136,658	72,261	-0,076	-0,056
-135,643	-122,786	0,095	-0,011
-134,629	280,196	-0,058	0,073
-133,614	110,374	-0,085	0,072
-132,599	269,249	0,065	-0,082
-131,585	-7,654	-0,079	0,038
-130,570	76,676	0,019	-0,014
-129,556	-160,003	-0,075	0,003
-128,541	-200,000	0,001	0,023
-127,526	88,993	0,149	-0,118
-126,512	-124,670	0,213	0,023
-125,497	-44,548	0,054	0,019
-124,483	800,000	-0,014	0,034
-123,468	-69,523	0,093	-0,025
-122,453	28,907	-0,076	-0,046
-121,439	565,663	-0,022	0,037
-120,424	-67,093	-0,074	-0,021
-119,410	800,000	0,014	-0,042
-118,395	-200,000	0,023	-0,201
-117,380	-200,000	0,017	0,155
-116,366	800,000	0,027	-0,072
-115,351	149,781	0,022	-0,021
-114,337	134,183	-0,136	-0,125
-113,322	800,000	0,072	-0,201
-112,307	248,608	-0,066	-0,079
-111,293	-200,000	0,006	-0,022
-110,278	-100,286	0,090	0,016
-109,264	306,707	0,025	0,033
-108,249	234,055	-0,041	-0,048
-107,234	76,571	0,115	-0,086
-106,220	370,535	-0,126	-0,181
-105,205	800,000	0,025	-0,070
-104,191	442,027	0,054	0,083
-103,176	84,882	0,159	-0,123
-102,162	15,119	-0,048	0,027
-101,147	-200,000	-0,036	-0,128
-100,132	-200,000	0,017	-0,109
-99,118	-30,303	0,157	-0,063
-98,103	108,009	0,083	0,070
-97,089	496,053	-0,017	0,027
-96,074	-110,557	-0,040	0,006
-95,059	253,248	-0,023	0,028
-94,045	409,911	-0,110	-0,165
-93,030	-200,000	-0,008	-0,042
-92,016	26,692	-0,015	0,009
-91,001	-71,505	-0,095	-0,025
-89,986	-29,655	0,115	-0,046
-88,972	-12,703	0,122	-0,056
-87,957	-200,000	-0,009	-0,085
-86,943	118,251	-0,096	-0,083
-85,928	-138,003	-0,075	-0,006
-84,913	419,850	-0,067	-0,101
-83,899	800,000	-0,029	-0,067
-82,884	-200,000	-0,010	-0,065
-81,870	-65,755	0,043	-0,012
-80,855	800,000	0,087	-0,212
-79,840	-95,661	-0,108	-0,020
-78,826	571,116	0,042	0,073
-77,811	-66,273	-0,090	-0,025
-76,797	-144,167	-0,130	0,008
-75,782	429,673	0,041	-0,063
-74,767	-13,370	-0,084	0,038
-73,753	-66,293	-0,070	-0,020
-72,738	320,133	-0,060	0,080
-71,724	314,539	-0,048	-0,064
-70,709	25,451	-0,036	0,021
-69,694	-200,000	-0,015	-0,082
-68,680	477,970	-0,068	-0,109
-67,665	-125,801	0,127	-0,013
-66,651	800,000	-0,048	-0,105
-65,636	-70,774	0,035	0,009
-64,622	247,696	-0,038	0,046
-63,607	-168,471	-0,140	0,004
-62,592	658,021	0,071	0,129
-61,578	800,000	0,014	0,043
-60,563	-124,346	0,136	-0,015
-59,549	542,793	0,016	-0,028
-58,534	50,379	-2,114	-1,408
-57,519	617,813	-1,029	-1,830
-56,505	-200,000	-0,421	-4,289
-55,490	532,548	1,024	1,716
-54,476	800,000	5,110	11,005
-53,461	-200,000	22,114	343,003
-52,446	800,000	756,733	2300,831
-51,432	536,782	1645,251	2766,683
-50,417	68,662	1643,445	1188,177
-49,403	16,044	1519,554	842,220
-48,388	10,242	1444,569	772,827
-47,373	19,201	1437,028	811,400
-46,359	13,747	1425,372	779,080
-45,344	8,466	1421,655	752,073
-44,330	8,462	1419,551	750,911
-43,315	8,384	1417,948	749,666
-42,300	8,453	1415,978	748,922
-41,286	8,500	1414,614	748,393
-40,271	8,437	1413,516	747,483
-39,257	8,419	1412,451	746,805
-38,242	8,482	1411,071	746,344
-37,227	8,433	1410,363	745,709
-36,213	8,454	1408,924	745,018
-35,198	8,471	1407,546	744,338
-34,184	8,488	1406,661	743,921
-33,169	8,391	1405,466	742,808
-32,154	8,361	1404,696	742,230
-31,140	8,437	1403,149	741,735
-30,125	8,441	1402,019	741,129
-29,111	8,436	1400,812	740,438
-28,096	8,416	1399,613	739,683
-27,082	8,349	1398,673	738,845
-26,067	8,334	1397,403	738,073
-25,052	8,437	1396,158	737,868
-24,038	8,437	1395,189	737,322
-23,023	8,326	1394,588	736,461
-22,009	8,362	1393,394	735,968
-20,994	8,395	1392,489	735,615
-19,979	8,394	1391,434	735,024
-18,965	8,352	1390,586	734,353
-17,950	8,320	1389,570	733,640
-16,936	8,297	1388,767	733,078
-15,921	8,229	1387,912	732,286
-14,906	8,293	1386,868	732,001
-13,892	8,348	1385,905	731,716
-12,877	8,302	1385,018	731,005
-11,863	8,356	1384,144	730,766
-10,848	8,249	1383,278	729,790
-9,833	8,251	1382,559	729,387
-8,819	8,210	1381,627	728,679
-7,804	8,206	1380,694	728,140
-6,790	8,232	1379,679	727,694
-5,775	8,238	1378,727	727,194
-4,760	8,223	1377,912	726,662
-3,746	8,272	1376,671	726,204
-2,731	8,282	1375,637	725,676
-1,717	8,190	1375,016	724,899
-0,702	8,215	1373,231	724,043
0,313	12,254	1284,778	695,679
1,327	28,146	678,025	402,583
2,342	43,627	116,717	75,139
3,356	2,256	16,368	8,315
4,371	4,144	3,818	1,964
5,386	28,034	1,266	0,751
6,400	800,000	0,296	0,630
7,415	-6,172	-0,229	-0,110
8,429	265,156	-0,179	-0,221
9,444	99,224	-0,259	-0,211
10,459	52,486	-0,243	-0,163
11,473	-151,187	-0,241	-0,013
12,488	-52,684	-0,296	-0,096
13,502	-42,821	-0,244	-0,087
14,517	-137,821	-0,320	-0,025
15,531	-161,847	-0,317	-0,011
16,546	111,526	-0,325	-0,276
17,561	125,628	-0,309	-0,275
18,575	-72,075	-0,273	0,071
19,590	8,643	-0,194	-0,103
20,604	106,943	-0,271	-0,226
21,619	49,371	-0,468	-0,309
22,634	221,401	-0,285	-0,323
23,648	133,863	-0,404	-0,369
24,663	16,884	-0,321	-0,178
25,677	32,354	-0,343	-0,208
26,692	0,215	-0,469	-0,235
27,707	50,958	-0,257	-0,171
28,721	-8,894	-0,373	-0,175
29,736	-31,855	-0,401	-0,157
30,750	288,971	-0,256	-0,327
31,765	19,708	-0,409	-0,231
32,780	52,791	-0,397	-0,266
33,794	144,550	-0,230	-0,217
34,809	137,919	-0,266	-0,245
35,823	63,534	-0,331	-0,233
36,838	15,873	-0,461	-0,254
37,853	348,249	-0,243	-0,337
38,867	-94,716	-0,437	-0,083
39,882	74,351	-0,370	-0,273
40,896	210,868	-0,237	-0,263
41,911	145,554	-0,353	-0,333
42,926	51,395	-0,364	-0,242
43,940	63,044	-0,321	-0,226
44,955	54,904	-0,409	-0,277
45,969	800,000	-0,155	-0,343
46,984	91,428	-0,369	-0,291
47,999	106,400	-0,245	-0,204
49,013	17,777	-0,393	-0,219
50,028	22,064	-0,330	-0,189
51,042	149,175	-0,322	-0,306
52,057	114,000	-0,306	-0,261
53,071	-7,284	-0,288	-0,137
54,086	106,992	-0,350	-0,291
55,101	17,550	-0,406	-0,226
56,115	1,732	-0,230	-0,116
57,130	-28,003	-0,413	-0,167
58,144	-6,667	-0,365	-0,174
59,159	13,574	-0,346	-0,188
60,174	215,914	-0,269	-0,300
61,188	-31,446	-0,423	-0,166
62,203	-59,152	-0,286	-0,086
63,217	83,001	-0,261	-0,199
64,232	40,214	-0,226	-0,142
65,247	178,109	-0,226	-0,231
66,261	99,914	-0,345	-0,280
67,276	131,664	-0,309	-0,279
68,290	-4,074	-0,406	-0,197
69,305	119,209	-0,251	-0,218
70,320	98,331	-0,337	-0,272
71,334	78,296	-0,334	-0,250
72,349	603,886	-0,111	-0,194
73,363	41,183	-0,303	-0,191
74,378	-60,434	-0,313	-0,093
75,393	43,202	-0,239	-0,153
76,407	-41,996	-0,266	-0,095
77,422	13,912	-0,334	-0,181
78,436	-29,875	-0,306	-0,121
79,451	-19,566	-0,319	-0,138
80,466	42,480	-0,209	-0,133
81,480	30,638	-0,339	-0,202
82,495	172,129	-0,236	-0,238
83,509	-60,077	-0,151	-0,045
84,524	-59,561	-0,271	-0,081
85,539	20,396	-0,225	-0,127
86,553	261,005	-0,234	-0,284
87,568	36,883	-0,382	-0,236
88,582	54,199	-0,321	-0,216
89,597	248,098	-0,234	-0,278
90,611	222,854	-0,255	-0,287
91,626	33,413	-0,300	-0,182
92,641	-28,198	-0,199	-0,080
93,655	150,314	-0,233	-0,221
94,670	98,541	-0,284	-0,229
95,684	152,005	-0,329	-0,314
96,699	-0,421	-0,300	-0,149
97,714	-2,429	-0,214	-0,105
98,728	33,199	-0,297	-0,180
99,743	358,781	-0,136	-0,190
100,757	17,727	-0,388	-0,215
101,772	53,718	-0,259	-0,174
102,787	20,143	-0,394	-0,222
103,801	155,943	-0,353	-0,340
104,816	-24,708	-0,321	-0,133
105,830	-20,304	-0,237	-0,102
106,845	-38,162	-0,230	-0,085
107,860	217,273	-0,305	-0,340
108,874	186,089	-0,260	-0,271
109,889	-18,030	-0,243	-0,106
110,903	80,178	-0,200	-0,150
111,918	153,162	-0,215	-0,205
112,933	6,227	-0,265	-0,137
113,947	-46,401	-0,258	-0,088
114,962	123,574	-0,344	-0,301
115,976	465,140	-0,175	-0,274
116,991	-32,226	-0,280	-0,109
118,006	68,434	-0,219	-0,156
119,020	12,430	-0,270	-0,145
120,035	55,105	-0,242	-0,163
121,049	80,743	-0,147	-0,110
122,064	-13,609	-0,285	-0,128
123,079	80,345	-0,144	-0,108
124,093	-16,318	-0,275	-0,121
125,108	101,220	-0,237	-0,192
126,122	106,193	-0,321	-0,265
127,137	54,661	-0,131	-0,088
128,151	-41,069	-0,145	-0,052
129,166	72,429	-0,272	-0,198
130,181	-85,128	-0,322	-0,070
131,195	48,516	-0,229	-0,149
132,210	800,000	-0,149	-0,293
133,224	184,373	-0,174	-0,180
134,239	35,161	-0,141	-0,086
135,254	160,615	-0,197	-0,192
136,268	18,344	-0,245	-0,136
137,283	82,521	-0,230	-0,174
138,297	543,366	-0,092	-0,154
139,312	176,907	-0,224	-0,227
140,327	192,493	-0,235	-0,247
141,341	227,748	-0,224	-0,254
142,356	28,771	-0,254	-0,150
143,370	-1,416	-0,279	-0,137
144,385	274,225	-0,156	-0,193
145,400	317,161	-0,150	-0,198
146,414	52,527	-0,298	-0,198
147,429	800,000	-0,122	-0,256
148,443	30,908	-0,201	-0,120
149,458	9,691	-0,215	-0,113
150,473	192,400	-0,264	-0,277
151,487	227,610	-0,194	-0,220
152,502	155,360	-0,267	-0,256
153,516	247,117	-0,134	-0,158
154,531	61,232	-0,371	-0,256
155,546	158,564	-0,269	-0,260
156,560	-177,818	-0,269	-0,004
157,575	440,589	-0,103	-0,158
158,589	-121,046	-0,312	0,036
159,604	-21,534	-0,224	-0,095
160,619	-17,716	-0,306	-0,133
161,633	182,727	-0,126	-0,129
162,648	-67,507	-0,239	0,065
163,662	30,360	-0,182	-0,108
164,677	-50,683	-0,203	-0,066
165,692	-181,037	-0,220	-0,003
166,706	31,317	-0,166	-0,099
167,721	146,351	-0,365	-0,340
168,735	-28,998	-0,292	-0,116
169,750	800,000	-0,071	-0,211
170,764	-88,665	-0,265	-0,054
171,779	110,302	-0,160	-0,133
172,794	-18,283	-0,204	-0,088
173,808	22,377	-0,211	-0,120
174,823	93,277	-0,181	-0,142
175,837	223,067	-0,239	-0,268
176,852	43,425	-0,238	-0,151
177,867	-139,132	-0,160	-0,012
178,881	-63,891	-0,246	-0,069
179,896	242,572	-0,181	-0,211
180,910	117,717	-0,175	-0,149
181,925	111,136	-0,244	-0,204
182,940	800,000	-0,071	-0,139
183,954	-52,244	-0,300	-0,096
184,969	311,996	-0,211	-0,275
185,983	76,577	-0,164	-0,120
186,998	151,260	-0,197	-0,186
188,013	46,144	-0,159	-0,102
189,027	89,899	-0,208	-0,161
190,042	487,847	-0,143	-0,226
191,056	628,910	-0,183	-0,321
192,071	120,459	-0,191	-0,164
193,086	72,994	-0,225	-0,163
194,100	343,651	-0,168	-0,229
195,115	36,427	-0,215	-0,131
196,129	76,861	-0,234	-0,172
197,144	88,426	-0,214	-0,165
198,159	151,333	-0,204	-0,192
199,173	137,299	-0,170	-0,154
200,188	26,628	-0,141	-0,081
201,202	61,116	-0,238	-0,163
202,217	-91,785	-0,173	-0,034
203,232	429,659	-0,148	-0,222
204,246	-29,751	-0,320	-0,126
205,261	156,071	-0,210	-0,201
206,275	-55,692	-0,240	-0,074
207,290	-136,236	-0,184	-0,015
208,304	-200,000	-0,092	-0,294
209,319	-144,988	-0,236	-0,015
210,334	-155,642	-0,195	-0,009
211,348	0,041	-0,258	-0,127
212,363	31,994	-0,280	-0,167
213,377	256,837	-0,160	-0,191
214,392	800,000	-0,078	-0,235
215,407	8,436	-0,199	-0,103
216,421	106,334	-0,222	-0,182
217,436	79,377	-0,114	-0,085
218,450	-124,123	-0,223	-0,024
219,465	250,968	-0,099	-0,116
220,480	64,844	-0,154	-0,107
221,494	140,168	-0,094	-0,086
222,509	7,186	-0,170	-0,088
223,523	299,164	-0,152	-0,194
224,538	-4,535	-0,209	-0,100
225,553	75,289	-0,269	-0,196
226,567	-85,298	-0,161	-0,034
227,582	-200,000	-0,009	-0,129
228,596	91,285	-0,181	-0,141
229,611	-10,107	-0,212	-0,097
230,626	-17,224	-0,181	-0,079
231,640	-99,052	-0,184	-0,032
232,655	123,575	-0,116	-0,101
233,669	171,834	-0,202	-0,201
234,684	800,000	-0,094	-0,227
235,699	245,710	-0,137	-0,159
236,713	33,803	-0,080	-0,048
237,728	-92,030	-0,186	-0,036
238,742	-10,025	-0,264	-0,121
239,757	27,126	-0,241	-0,140
240,772	57,459	-0,292	-0,197
241,786	126,851	-0,070	-0,061
242,801	152,379	-0,125	-0,118
243,815	-36,907	-0,095	-0,035
244,830	223,753	-0,136	-0,151
245,844	800,000	-0,078	-0,151
246,859	262,093	-0,035	-0,043
247,874	-14,441	-0,270	-0,119
248,888	277,920	-0,180	-0,222
249,903	800,000	-0,105	-0,222
250,917	4,286	-0,115	-0,058
251,932	-101,822	-0,134	0,022
252,947	39,118	-0,069	-0,043
253,961	-50,285	-0,247	-0,080
254,976	-172,193	-0,193	-0,004
255,990	-111,033	-0,223	0,031
257,005	129,767	-0,179	-0,158
258,020	222,786	-0,133	-0,147
259,034	-108,706	-0,182	-0,027
260,049	212,155	-0,166	-0,181
261,063	22,086	-0,155	-0,087
262,078	112,541	-0,146	-0,121
263,093	156,471	-0,235	-0,224
264,107	-128,380	-0,167	-0,016
265,122	115,923	-0,194	-0,163
266,136	508,084	-0,087	-0,139
267,151	338,212	-0,055	-0,074
268,166	-20,432	-0,283	-0,119
269,180	121,713	-0,184	-0,158
270,195	-93,054	-0,237	-0,045
271,209	231,116	-0,187	-0,211
272,224	-61,225	-0,137	-0,040
273,239	-159,939	-0,161	0,006
274,253	-23,462	-0,230	-0,094
275,268	105,588	-0,204	-0,166
276,282	-47,505	-0,249	-0,083
277,297	800,000	-0,087	-0,261
278,312	321,541	-0,068	-0,089
279,326	257,320	-0,169	-0,201
280,341	120,508	-0,203	-0,174
281,355	800,000	-0,030	-0,059
282,370	108,411	-0,163	-0,134
283,384	-106,097	-0,255	-0,039
284,399	-30,595	-0,255	-0,099
285,414	7,157	-0,146	-0,074
286,428	-200,000	0,003	-0,151
287,443	-200,000	0,002	-0,117
288,457	579,865	-0,028	-0,047
289,472	-200,000	0,001	-0,017
290,487	800,000	-0,131	-0,251
291,501	416,935	-0,167	-0,245
292,516	226,638	-0,143	-0,159
293,530	800,000	-0,087	-0,170
294,545	-117,138	-0,207	-0,026
295,560	800,000	-0,049	-0,124
296,574	91,783	-0,034	-0,026
297,589	35,613	-0,109	-0,066
298,603	56,817	-0,193	-0,129
299,618	443,723	-0,104	-0,157
300,633	-148,350	-0,244	-0,014
301,647	26,171	-0,116	-0,066
302,662	-129,950	-0,047	-0,004
303,676	-200,000	-0,044	-0,190
304,691	736,434	-0,087	-0,160
305,706	-81,217	-0,200	-0,045
306,720	15,733	-0,102	-0,055
307,735	355,661	-0,093	-0,127
308,749	310,952	-0,130	-0,168
309,764	-200,000	-0,043	-0,173
310,779	163,217	-0,104	-0,100
311,793	-42,964	-0,211	-0,073
312,808	73,719	-0,201	-0,144
313,822	800,000	-0,046	-0,108
314,837	174,774	-0,160	-0,159
315,852	15,544	-0,095	-0,051
316,866	-200,000	-0,001	0,033
317,881	70,496	-0,128	0,091
318,895	-78,793	-0,117	0,027
319,910	-21,082	-0,178	-0,074
320,925	-90,875	-0,118	0,023
321,939	43,797	-0,156	-0,098
322,954	10,320	-0,158	-0,082
323,968	98,270	0,042	-0,033
324,983	-100,212	-0,092	0,016
325,997	189,291	-0,191	-0,196
327,012	-28,177	-0,181	-0,071
328,027	-200,000	-0,065	-0,260
329,041	-200,000	-0,033	-0,131
330,056	9,088	-0,156	0,080
331,070	136,839	-0,122	0,109
332,085	-88,634	-0,182	-0,037
333,100	86,559	-0,108	-0,082
334,114	-76,929	-0,115	-0,027
335,129	114,519	-0,202	-0,169
336,143	-86,534	-0,164	-0,034
337,158	277,991	-0,119	-0,145
338,173	-188,322	-0,048	-0,000
339,187	6,016	-0,104	-0,053
340,202	-78,720	-0,079	-0,018
341,216	800,000	-0,099	-0,228
342,231	68,443	-0,177	-0,124
343,246	-51,558	-0,210	-0,067
344,260	262,321	-0,125	-0,149
345,275	-127,594	-0,248	-0,024
346,289	-3,421	-0,105	-0,050
347,304	277,259	-0,141	-0,172
348,319	36,657	-0,196	-0,118
349,333	-10,897	-0,213	-0,096
350,348	120,697	-0,180	-0,153
351,362	777,110	0,050	-0,093
352,377	-128,152	-0,097	-0,009
353,392	20,354	-0,143	0,079
354,406	-66,368	-0,178	0,048
355,421	208,956	1304,894	1398,033
356,435	160,802	1464,391	1398,496
