DTS Sentinel unit serial number:	SN410029Multiplexer serial number:	ORYXHardware model number:	OX2-SRSoftware version number:	ORYX F/W v4,00 Oryx Data Collector v3.7.2.0data status	okinstallation	B3 Nyhavnadifferential loss correction	single-endedforward channel	channel 1reverse channel	N/Adate	2023/12/05time	09:17:30forward acquisition time	300,00reverse acquisition time	0,00gamma	499,1914k internal	0,3195k external	0,3195temperature offset calibration	1,0000default loss term (dB/km)	0,3820temperature slope calibration	1,0000multiplexer offset coefficient	1,0000multiplexer slope coefficient	1,0000fibre end	0,00T internal ref (°C)	11,78T ext. ref 1 (°C)	-4,23T ext. ref 2 (°C)	-4,46length (m)	temperature (°C)	Stokes	anti-Stokes-744,400	485,256	-0,074	-0,124
-743,385	-200,000	-0,039	0,156
-742,371	-40,751	-0,094	-0,035
-741,356	800,000	-0,131	0,289
-740,342	282,913	-0,057	-0,075
-739,327	225,372	-0,098	0,116
-738,312	67,018	-0,175	-0,130
-737,298	-60,664	-0,301	0,092
-736,283	-200,000	0,011	-0,105
-735,269	800,000	-0,061	0,156
-734,254	-39,253	-0,057	-0,022
-733,239	-141,223	-0,292	0,021
-732,225	178,507	-0,049	0,052
-731,210	164,869	0,106	0,109
-730,196	-93,850	-0,260	-0,052
-729,181	-200,000	-0,008	-0,110
-728,167	-27,127	-0,131	-0,055
-727,152	-23,546	0,085	0,037
-726,137	-78,489	-0,084	-0,021
-725,123	-104,489	-0,102	-0,017
-724,108	800,000	-0,038	-0,080
-723,094	-56,207	-0,083	0,027
-722,079	-200,000	-0,027	0,121
-721,064	-68,082	-0,097	-0,027
-720,050	-119,068	-0,172	-0,022
-719,035	-34,283	0,055	-0,022
-718,021	454,527	-0,064	-0,104
-717,006	131,129	-0,170	-0,159
-715,991	800,000	-0,034	0,110
-714,977	2,291	0,144	-0,076
-713,962	227,088	0,023	-0,027
-712,948	-200,000	0,013	-0,082
-711,933	-200,000	0,028	-0,176
-710,918	-27,490	-0,107	0,045
-709,904	-116,276	-0,112	0,015
-708,889	17,871	-0,099	-0,057
-707,875	-200,000	-0,011	-0,065
-706,860	192,976	-0,144	-0,158
-705,845	-200,000	0,014	0,060
-704,831	6,268	0,142	0,076
-703,816	800,000	-0,050	-0,108
-702,802	-193,136	-0,118	-0,001
-701,787	-133,643	-0,126	0,011
-700,772	-85,036	0,094	-0,021
-699,758	-200,000	0,030	-0,142
-698,743	41,358	-0,063	0,042
-697,729	-200,000	-0,020	0,168
-696,714	-102,216	0,125	0,022
-695,699	218,274	-0,033	0,039
-694,685	405,931	-0,045	-0,069
-693,670	445,953	0,088	0,141
-692,656	-200,000	-0,006	-0,072
-691,641	729,389	-0,049	-0,096
-690,627	-108,081	-0,082	0,013
-689,612	-54,342	-0,134	-0,044
-688,597	800,000	0,013	0,028
-687,583	-57,204	0,028	0,009
-686,568	800,000	-0,065	-0,151
-685,554	198,628	-0,119	-0,132
-684,539	10,883	0,073	0,040
-683,524	357,513	-0,102	-0,148
-682,510	-200,000	-0,022	-0,123
-681,495	-179,659	-0,097	0,001
-680,481	592,850	-0,058	-0,105
-679,466	-56,485	0,048	-0,015
-678,451	534,338	-0,049	-0,084
-677,437	356,195	-0,014	-0,020
-676,422	612,083	0,028	-0,050
-675,408	205,456	-0,075	0,085
-674,393	-142,709	-0,138	0,010
-673,378	219,523	-0,009	0,010
-672,364	202,910	-0,067	-0,076
-671,349	-44,739	0,043	-0,016
-670,335	-85,541	-0,120	-0,027
-669,320	-102,478	0,024	0,004
-668,305	-200,000	-0,027	0,195
-667,291	-200,000	0,045	0,145
-666,276	-200,000	0,006	-0,091
-665,262	302,879	-0,072	-0,097
-664,247	-142,170	0,017	0,001
-663,232	4,344	-0,084	0,045
-662,218	67,614	-0,112	0,083
-661,203	419,808	-0,100	0,156
-660,189	-89,210	0,074	0,016
-659,174	-170,864	-0,132	0,003
-658,159	800,000	0,058	-0,139
-657,145	-96,421	-0,045	0,009
-656,130	175,675	0,092	0,097
-655,116	-200,000	0,011	0,043
-654,101	41,688	0,105	-0,069
-653,086	113,066	0,061	0,054
-652,072	48,324	-0,151	-0,102
-651,057	123,242	-0,028	0,026
-650,043	-94,694	0,078	-0,015
-649,028	-39,711	-0,029	0,011
-648,014	-200,000	-0,009	-0,060
-646,999	113,753	0,078	0,068
-645,984	-134,118	-0,087	0,008
-644,970	-107,559	-0,175	-0,028
-643,955	-72,797	-0,129	-0,034
-642,941	298,332	-0,056	-0,075
-641,926	-72,105	-0,144	0,039
-640,911	-200,000	-0,019	0,081
-639,897	-20,377	0,048	-0,021
-638,882	-94,661	-0,045	0,009
-637,868	98,268	0,124	0,104
-636,853	-200,000	0,012	-0,144
-635,838	-200,000	-0,000	0,012
-634,824	766,698	-0,012	-0,023
-633,809	79,520	0,019	0,015
-632,795	-34,830	0,232	0,092
-631,780	-200,000	-0,021	0,080
-630,765	-200,000	0,000	0,036
-629,751	61,213	0,055	-0,040
-628,736	-83,823	-0,175	0,040
-627,722	800,000	0,062	-0,184
-626,707	159,881	0,064	-0,064
-625,692	-200,000	-0,000	0,198
-624,678	-200,000	0,011	0,045
-623,663	800,000	-0,044	-0,110
-622,649	31,094	-0,087	-0,054
-621,634	-200,000	0,003	-0,042
-620,619	573,615	-0,046	-0,081
-619,605	-81,862	0,153	-0,036
-618,590	-134,403	-0,032	-0,003
-617,576	-162,609	0,111	0,004
-616,561	-8,599	-0,036	0,017
-615,546	290,199	0,095	0,125
-614,532	800,000	0,072	-0,152
-613,517	-200,000	-0,007	-0,064
-612,503	413,864	0,068	-0,105
-611,488	-200,000	0,013	0,041
-610,474	37,005	0,113	0,073
-609,459	-26,141	-0,046	0,020
-608,444	95,225	-0,027	0,022
-607,430	-200,000	0,012	-0,071
-606,415	-200,000	0,015	-0,192
-605,401	800,000	-0,023	0,047
-604,386	800,000	0,016	0,046
-603,371	800,000	0,043	0,120
-602,357	-43,556	-0,096	-0,035
-601,342	800,000	-0,032	-0,082
-600,328	19,532	-0,020	-0,012
-599,313	23,828	-0,119	0,071
-598,298	-200,000	0,011	0,075
-597,284	-155,641	-0,056	-0,003
-596,269	470,376	-0,060	0,098
-595,255	24,979	-0,017	0,010
-594,240	112,625	-0,129	-0,113
-593,225	800,000	-0,022	-0,046
-592,211	800,000	-0,033	-0,092
-591,196	-122,159	-0,075	-0,009
-590,182	-1,042	0,085	-0,043
-589,167	-200,000	0,005	-0,045
-588,152	104,411	0,010	0,009
-587,138	299,776	0,088	0,118
-586,123	104,481	-0,096	-0,082
-585,109	656,310	0,088	-0,164
-584,094	-29,010	0,042	-0,017
-583,079	-78,221	0,100	0,025
-582,065	800,000	-0,024	-0,058
-581,050	-19,980	-0,015	0,007
-580,036	266,703	0,042	-0,053
-579,021	-200,000	-0,033	0,125
-578,006	83,807	-0,081	-0,064
-576,992	39,579	0,076	-0,049
-575,977	235,942	-0,078	-0,094
-574,963	-200,000	-0,007	0,128
-573,948	-200,000	0,001	0,030
-572,934	-200,000	-0,034	0,109
-571,919	800,000	-0,072	-0,163
-570,904	-200,000	0,020	0,137
-569,890	-200,000	-0,000	-0,053
-568,875	235,851	0,025	-0,030
-567,861	139,439	-0,052	0,050
-566,846	-70,166	-0,089	0,024
-565,831	94,186	0,024	-0,019
-564,817	-18,602	-0,072	0,032
-563,802	-106,521	-0,092	0,015
-562,788	-54,385	-0,106	0,034
-561,773	82,965	-0,079	-0,062
-560,758	-200,000	-0,002	0,067
-559,744	-200,000	0,005	-0,070
-558,729	-37,764	-0,165	0,063
-557,715	715,160	0,040	0,078
-556,700	-200,000	-0,065	0,225
-555,685	800,000	0,010	-0,020
-554,671	255,889	0,079	0,098
-553,656	-200,000	-0,015	-0,113
-552,642	800,000	0,028	-0,078
-551,627	-161,336	0,097	-0,004
-550,612	800,000	-0,022	-0,061
-549,598	-47,140	0,037	0,013
-548,583	-4,693	-0,093	-0,046
-547,569	-200,000	-0,004	0,050
-546,554	-25,440	0,182	0,078
-545,539	123,095	-0,043	0,039
-544,525	-31,764	-0,046	-0,018
-543,510	-200,000	-0,019	-0,070
-542,496	144,288	-0,073	-0,071
-541,481	-200,000	-0,000	-0,003
-540,466	800,000	0,016	0,035
-539,452	-18,738	0,056	0,025
-538,437	190,217	0,133	-0,145
-537,423	-200,000	0,016	0,070
-536,408	-59,497	0,076	-0,023
-535,393	519,915	-0,016	0,027
-534,379	-23,611	-0,044	0,019
-533,364	-200,000	0,005	-0,099
-532,350	46,861	-0,079	0,053
-531,335	58,618	0,079	0,056
-530,321	770,674	-0,037	0,073
-529,306	-93,383	-0,025	-0,005
-528,291	134,574	-0,072	-0,068
-527,277	408,353	0,031	0,047
-526,262	489,475	-0,030	0,049
-525,248	170,018	0,017	0,017
-524,233	163,956	-0,076	0,077
-523,218	748,694	0,036	0,070
-522,204	427,002	0,069	0,108
-521,189	-142,943	0,032	-0,002
-520,175	-38,810	-0,156	0,059
-519,160	-200,000	0,001	-0,231
-518,145	37,039	0,097	-0,062
-517,131	-200,000	0,003	0,069
-516,116	-200,000	-0,013	-0,150
-515,102	-134,173	0,101	0,009
-514,087	800,000	-0,034	-0,093
-513,072	-96,768	0,092	0,017
-512,058	-200,000	0,000	-0,021
-511,043	239,232	0,043	-0,052
-510,029	670,324	0,022	0,042
-509,014	139,372	0,056	0,053
-507,999	636,399	0,054	-0,100
-506,985	638,586	-0,039	-0,073
-505,970	652,229	-0,020	-0,037
-504,956	28,099	-0,092	0,056
-503,941	489,255	-0,059	0,098
-502,926	-200,000	0,054	0,232
-501,912	670,818	0,047	0,089
-500,897	-28,452	-0,079	0,033
-499,883	18,233	-0,091	-0,053
-498,868	-200,000	-0,002	0,016
-497,853	553,079	0,011	-0,019
-496,839	1,792	-0,057	-0,030
-495,824	607,439	-0,022	0,039
-494,810	-200,000	0,030	0,179
-493,795	-49,832	0,095	0,032
-492,781	-96,723	-0,098	-0,018
-491,766	800,000	-0,029	-0,084
-490,751	23,461	-0,083	-0,049
-489,737	7,449	0,066	-0,035
-488,722	-63,821	-0,083	0,024
-487,708	-200,000	-0,002	0,016
-486,693	-200,000	-0,007	0,036
-485,678	-200,000	0,015	0,054
-484,664	800,000	0,045	-0,099
-483,649	-174,170	-0,085	0,002
-482,635	464,069	0,037	-0,060
-481,620	-50,081	-0,013	-0,004
-480,605	77,017	0,095	-0,072
-479,591	800,000	0,043	0,133
-478,576	-135,769	-0,060	0,005
-477,562	92,916	-0,049	-0,040
-476,547	368,365	-0,024	0,036
-475,532	-200,000	-0,010	0,037
-474,518	-132,538	-0,119	0,011
-473,503	-200,000	0,011	0,048
-472,489	800,000	0,012	0,036
-471,474	-176,345	-0,089	0,002
-470,459	-8,219	-0,079	0,038
-469,445	-70,461	-0,168	-0,046
-468,430	86,947	-0,058	-0,046
-467,416	-153,017	-0,106	-0,005
-466,401	-24,508	0,164	0,070
-465,386	-14,405	0,111	0,051
-464,372	316,443	-0,062	-0,085
-463,357	-81,091	-0,112	-0,027
-462,343	800,000	0,030	-0,073
-461,328	125,883	0,025	0,023
-460,313	-200,000	-0,024	0,087
-459,299	-156,069	-0,070	0,003
-458,284	119,031	0,099	0,088
-457,270	17,444	-0,074	-0,042
-456,255	79,790	-0,102	0,079
-455,241	61,403	-0,020	-0,014
-454,226	-103,195	-0,103	0,017
-453,211	379,284	0,014	-0,021
-452,197	786,485	0,060	-0,119
-451,182	-200,000	0,005	-0,056
-450,168	140,330	-0,049	-0,047
-449,153	-11,773	-0,057	-0,027
-448,138	-200,000	-0,007	0,093
-447,124	-122,221	-0,072	0,008
-446,109	-58,092	-0,116	0,036
-445,095	-108,797	0,114	-0,017
-444,080	800,000	0,015	-0,031
-443,065	227,564	-0,072	-0,084
-442,051	-84,702	0,114	0,026
-441,036	37,851	-0,159	0,101
-440,022	88,365	-0,008	-0,007
-439,007	800,000	-0,025	-0,073
-437,992	-200,000	-0,002	-0,184
-436,978	800,000	0,035	-0,080
-435,963	-88,362	-0,083	0,018
-434,949	31,484	-0,035	-0,022
-433,934	69,507	-0,063	-0,047
-432,919	-104,885	-0,045	0,007
-431,905	-114,972	0,075	-0,010
-430,890	-44,860	0,110	-0,039
-429,876	-104,030	0,168	0,028
-428,861	324,691	0,164	-0,226
-427,846	-200,000	-0,016	0,082
-426,832	800,000	-0,010	0,025
-425,817	-31,100	0,070	0,028
-424,803	-123,569	0,194	-0,022
-423,788	-130,611	0,054	0,005
-422,773	-183,953	0,065	0,001
-421,759	-200,000	-0,020	-0,084
-420,744	-185,738	0,053	0,001
-419,730	-200,000	0,007	0,055
-418,715	-200,000	0,002	-0,141
-417,701	-6,541	-0,051	0,025
-416,686	-200,000	-0,004	0,057
-415,671	800,000	0,022	0,057
-414,657	-83,510	-0,030	0,007
-413,642	287,904	0,060	0,078
-412,628	-200,000	-0,004	-0,020
-411,613	52,016	-0,091	0,062
-410,598	-3,271	0,054	0,027
-409,584	44,165	0,141	0,093
-408,569	-115,695	-0,100	0,013
-407,555	-151,738	0,141	-0,007
-406,540	-97,135	0,077	0,014
-405,525	328,415	-0,032	0,045
-404,511	800,000	0,036	-0,101
-403,496	18,906	-0,099	-0,057
-402,482	800,000	0,033	-0,088
-401,467	349,312	-0,057	0,081
-400,452	-200,000	0,012	0,166
-399,438	33,055	0,050	0,031
-398,423	-200,000	-0,005	-0,063
-397,409	22,421	-0,107	-0,063
-396,394	-200,000	-0,019	-0,131
-395,379	655,202	-0,057	-0,105
-394,365	425,722	0,053	-0,082
-393,350	-82,769	-0,042	0,010
-392,336	-27,153	0,079	-0,033
-391,321	-5,858	-0,046	-0,022
-390,306	-82,782	-0,151	-0,035
-389,292	21,552	0,055	0,032
-388,277	-61,091	0,085	0,026
-387,263	-177,978	0,083	0,001
-386,248	-19,370	0,035	-0,015
-385,233	59,304	0,009	0,007
-384,219	-200,000	-0,080	-0,000
-383,204	-200,000	0,001	-0,118
-382,190	785,046	0,024	-0,047
-381,175	183,046	-0,032	0,034
-380,160	326,546	0,102	0,141
-379,146	-200,000	-0,025	0,091
-378,131	-200,000	0,011	-0,077
-377,117	246,655	0,049	-0,060
-376,102	-37,612	-0,064	0,024
-375,088	531,770	0,087	-0,148
-374,073	-200,000	0,004	-0,157
-373,058	-197,441	0,070	0,000
-372,044	-200,000	0,017	0,118
-371,029	-200,000	0,004	-0,045
-370,015	-200,000	0,001	0,050
-369,000	48,433	-0,055	0,037
-367,985	92,881	0,038	0,031
-366,971	800,000	-0,022	0,046
-365,956	-42,466	0,070	-0,025
-364,942	800,000	0,033	-0,068
-363,927	130,005	-0,083	-0,077
-362,912	393,859	0,011	-0,017
-361,898	-113,115	-0,125	0,018
-360,883	218,985	-0,055	-0,064
-359,869	-200,000	0,025	-0,102
-358,854	112,913	0,028	0,024
-357,839	-40,938	0,071	-0,026
-356,825	-200,000	-0,005	0,021
-355,810	33,061	0,098	0,061
-354,796	129,237	-0,069	-0,063
-353,781	800,000	0,010	0,029
-352,766	-100,943	-0,056	0,010
-351,752	-176,949	0,074	0,001
-350,737	-74,955	0,185	-0,047
-349,723	619,982	0,066	-0,120
-348,708	-200,000	-0,004	0,021
-347,693	-38,032	-0,083	-0,031
-346,679	-200,000	-0,002	-0,011
-345,664	-72,378	0,166	-0,044
-344,650	-200,000	-0,013	-0,067
-343,635	-200,000	0,006	0,041
-342,620	124,993	0,148	0,134
-341,606	-200,000	-0,012	-0,049
-340,591	-33,193	0,161	-0,064
-339,577	-66,447	0,145	-0,041
-338,562	-72,515	-0,031	-0,008
-337,548	-200,000	0,008	-0,066
-336,533	-137,168	0,054	-0,004
-335,518	-200,000	0,010	-0,098
-334,504	61,910	-0,073	-0,052
-333,489	35,037	-0,063	0,040
-332,475	800,000	-0,044	0,091
-331,460	53,580	0,071	-0,049
-330,445	-50,896	-0,085	-0,028
-329,431	211,574	-0,082	-0,093
-328,416	317,078	0,035	0,047
-327,402	548,599	0,027	0,046
-326,387	140,283	0,074	0,070
-325,372	-68,912	-0,125	-0,034
-324,358	-89,498	-0,103	0,022
-323,343	137,353	0,069	-0,065
-322,329	-155,521	-0,076	0,003
-321,314	6,806	0,047	-0,025
-320,299	-200,000	0,025	0,087
-319,285	-12,225	0,036	-0,017
-318,270	-200,000	-0,015	0,056
-317,256	604,719	0,018	0,032
-316,241	800,000	-0,021	-0,050
-315,226	206,130	0,046	0,051
-314,212	-128,515	0,152	-0,015
-313,197	-39,177	-0,040	0,015
-312,183	-37,617	0,111	-0,042
-311,168	-19,876	0,114	-0,050
-310,153	-118,832	-0,151	-0,019
-309,139	-61,406	0,119	-0,036
-308,124	-196,852	0,170	-0,001
-307,110	-96,115	-0,141	0,027
-306,095	319,448	0,021	0,028
-305,080	800,000	0,051	0,103
-304,066	90,023	0,011	-0,009
-303,051	800,000	-0,096	-0,223
-302,037	-53,001	0,087	0,028
-301,022	42,484	-0,124	-0,080
-300,008	-97,139	-0,056	-0,010
-298,993	800,000	0,037	0,105
-297,978	-39,747	0,069	0,026
-296,964	-200,000	0,001	-0,089
-295,949	-93,308	0,089	0,017
-294,935	-200,000	0,004	-0,065
-293,920	-200,000	0,003	0,053
-292,905	91,422	0,091	-0,073
-291,891	-78,846	0,061	-0,015
-290,876	-200,000	-0,037	-0,142
-289,862	99,859	-0,029	0,024
-288,847	800,000	-0,037	-0,090
-287,832	-200,000	-0,005	-0,053
-286,818	-75,017	0,169	-0,043
-285,803	-200,000	0,018	0,144
-284,789	-44,279	0,133	0,047
-283,774	-73,280	-0,115	0,030
-282,759	-22,973	-0,152	0,065
-281,745	158,441	-0,120	0,120
-280,730	740,460	0,019	0,037
-279,716	800,000	0,071	-0,157
-278,701	-200,000	0,023	0,095
-277,686	239,846	0,104	0,124
-276,672	86,917	0,146	0,115
-275,657	-2,652	-0,049	0,024
-274,643	-200,000	0,002	-0,126
-273,628	-57,944	0,160	-0,050
-272,613	-15,367	-0,099	-0,045
-271,599	-18,182	0,096	0,043
-270,584	-110,658	0,036	0,005
-269,570	-54,218	0,038	0,012
-268,555	-27,144	0,023	-0,009
-267,540	-153,696	-0,159	-0,008
-266,526	-200,000	-0,014	0,082
-265,511	188,402	-0,031	0,033
-264,497	66,968	-0,105	-0,076
-263,482	65,770	-0,111	-0,080
-262,467	-200,000	0,009	0,052
-261,453	800,000	-0,025	0,071
-260,438	505,623	0,053	0,088
-259,424	-200,000	0,004	-0,156
-258,409	33,571	-0,093	-0,058
-257,395	-89,037	0,049	-0,010
-256,380	550,922	0,026	-0,045
-255,365	800,000	-0,013	0,034
-254,351	-200,000	-0,006	0,092
-253,336	-59,500	-0,193	0,059
-252,322	-69,007	-0,088	0,024
-251,307	-76,258	-0,052	-0,013
-250,292	92,755	-0,017	0,014
-249,278	800,000	0,019	0,051
-248,263	513,508	0,068	-0,114
-247,249	-114,263	0,143	-0,019
-246,234	417,144	0,040	0,061
-245,219	800,000	-0,049	0,150
-244,205	6,062	0,062	-0,033
-243,190	-200,000	-0,016	-0,054
-242,176	-58,362	-0,039	-0,012
-241,161	227,581	0,054	0,063
-240,146	-200,000	-0,008	0,045
-239,132	-36,874	-0,076	0,029
-238,117	-15,908	-0,073	-0,033
-237,103	-71,671	-0,076	0,020
-236,088	386,346	-0,029	0,042
-235,073	-1,059	-0,031	0,016
-234,059	46,856	0,104	0,069
-233,044	349,641	0,076	0,108
-232,030	-200,000	0,005	0,086
-231,015	-200,000	-0,002	-0,007
-230,000	-104,482	0,047	-0,008
-228,986	670,963	0,025	-0,046
-227,971	800,000	0,025	0,067
-226,957	92,231	0,062	0,050
-225,942	73,590	-0,045	0,034
-224,927	-87,505	-0,040	-0,009
-223,913	-62,913	-0,042	0,012
-222,898	-117,762	-0,077	-0,010
-221,884	154,819	-0,133	0,131
-220,869	94,411	0,061	0,050
-219,855	12,279	-0,101	0,056
-218,840	-46,730	0,118	0,041
-217,825	-200,000	-0,020	-0,082
-216,811	800,000	-0,016	-0,033
-215,796	172,341	0,105	-0,108
-214,782	-200,000	0,022	-0,119
-213,767	-4,742	0,189	0,093
-212,752	-200,000	-0,009	-0,086
-211,738	64,466	-0,096	-0,069
-210,723	-54,823	0,083	0,026
-209,709	20,228	0,125	0,072
-208,694	-116,039	-0,095	0,013
-207,679	-16,118	-0,084	0,038
-206,665	-200,000	-0,035	-0,138
-205,650	-158,172	0,160	-0,007
-204,636	369,372	-0,069	0,100
-203,621	-88,571	-0,091	0,019
-202,606	-108,095	-0,114	-0,018
-201,592	-147,186	-0,034	0,002
-200,577	-127,387	-0,083	0,009
-199,563	63,247	0,060	-0,043
-198,548	-60,595	0,102	0,031
-197,533	513,174	-0,117	0,195
-196,519	-200,000	-0,003	0,191
-195,504	-127,868	0,024	-0,002
-194,490	100,054	0,073	-0,060
-193,475	-200,000	-0,217	0,000
-192,460	2,798	0,091	-0,047
-191,446	214,866	0,075	0,085
-190,431	-200,000	-0,001	0,078
-189,417	800,000	-0,019	0,056
-188,402	-68,777	-0,034	0,009
-187,387	502,633	0,035	-0,057
-186,373	800,000	0,039	-0,105
-185,358	800,000	-0,027	0,057
-184,344	-92,594	0,119	0,024
-183,329	91,797	0,078	0,062
-182,315	-44,563	0,167	0,059
-181,300	-200,000	0,004	-0,054
-180,285	273,063	0,023	-0,029
-179,271	-8,970	-0,067	0,032
-178,256	-200,000	-0,024	-0,078
-177,242	-200,000	0,021	0,121
-176,227	681,563	0,022	-0,042
-175,212	94,707	-0,029	0,023
-174,198	-200,000	-0,025	-0,112
-173,183	-0,631	-0,166	0,084
-172,169	-3,266	-0,031	0,015
-171,154	-200,000	-0,024	-0,079
-170,139	2,866	0,100	-0,051
-169,125	-98,765	-0,088	-0,016
-168,110	-200,000	0,024	0,126
-167,096	622,792	0,109	0,197
-166,081	-83,370	-0,183	-0,041
-165,066	568,476	0,028	-0,049
-164,052	-131,719	-0,108	-0,010
-163,037	293,803	0,086	0,113
-162,023	800,000	0,048	0,098
-161,008	800,000	-0,051	-0,123
-159,993	70,628	-0,114	0,084
-158,979	250,547	0,072	0,088
-157,964	47,639	0,037	-0,025
-156,950	-4,963	-0,037	-0,018
-155,935	800,000	-0,046	0,136
-154,920	-136,614	-0,033	-0,003
-153,906	-100,858	0,020	0,003
-152,891	800,000	0,058	-0,136
-151,877	43,494	-0,057	0,037
-150,862	379,909	0,016	0,024
-149,847	742,965	-0,082	0,158
-148,833	34,639	0,069	0,043
-147,818	-110,273	-0,023	-0,003
-146,804	800,000	0,060	0,134
-145,789	800,000	-0,037	0,097
-144,775	-68,434	-0,188	-0,052
-143,760	396,849	-0,115	0,171
-142,745	115,673	-0,064	0,055
-141,731	46,824	-0,072	0,047
-140,716	800,000	0,050	-0,105
-139,702	-200,000	0,002	-0,048
-138,687	800,000	0,031	-0,068
-137,672	191,420	-0,032	-0,034
-136,658	205,941	0,022	-0,024
-135,643	-87,843	-0,081	0,017
-134,629	-85,192	0,081	-0,018
-133,614	-200,000	-0,002	0,112
-132,599	601,467	-0,015	-0,027
-131,585	-200,000	0,015	0,061
-130,570	729,191	-0,029	-0,056
-129,556	639,308	-0,087	0,158
-128,541	-32,625	-0,124	0,049
-127,526	-200,000	-0,014	0,096
-126,512	-200,000	0,010	0,096
-125,497	36,492	-0,034	-0,022
-124,483	-24,780	-0,054	-0,023
-123,468	-96,767	-0,070	-0,013
-122,453	127,707	0,049	0,044
-121,439	-130,560	-0,119	-0,011
-120,424	-200,000	-0,015	-0,121
-119,410	800,000	-0,011	-0,022
-118,395	-84,102	0,046	-0,010
-117,380	-200,000	-0,020	0,193
-116,366	103,068	0,036	0,030
-115,351	-155,726	-0,099	-0,004
-114,337	16,045	0,063	-0,035
-113,322	-200,000	-0,019	0,094
-112,307	-200,000	0,026	-0,121
-111,293	-200,000	0,017	0,077
-110,278	75,259	-0,044	0,033
-109,264	800,000	-0,030	0,064
-108,249	107,944	-0,215	-0,182
-107,234	-37,750	0,118	-0,044
-106,220	-200,000	0,024	-0,111
-105,205	340,399	-0,081	0,113
-104,191	-93,871	-0,048	0,009
-103,176	800,000	0,050	0,111
-102,162	-169,104	-0,038	0,001
-101,147	304,723	-0,039	-0,052
-100,132	96,621	0,059	0,048
-99,118	-200,000	0,018	-0,124
-98,103	-10,917	-0,037	0,017
-97,089	-200,000	-0,004	-0,021
-96,074	180,838	0,061	0,064
-95,059	134,240	-0,014	-0,013
-94,045	111,112	-0,096	0,082
-93,030	-17,868	-0,073	-0,033
-92,016	-54,336	0,017	-0,005
-91,001	-49,111	0,064	-0,022
-89,986	-200,000	-0,045	0,156
-88,972	258,828	0,053	-0,065
-87,957	-123,806	0,127	-0,014
-86,943	312,177	-0,081	0,108
-85,928	-200,000	0,001	-0,095
-84,913	-65,811	-0,128	0,036
-83,899	1,099	-0,051	-0,026
-82,884	800,000	-0,021	0,047
-81,870	800,000	-0,023	0,053
-80,855	-200,000	0,016	0,084
-79,840	-53,713	-0,075	0,024
-78,826	-80,578	-0,062	0,015
-77,811	-49,594	-0,135	-0,045
-76,797	12,914	0,080	0,044
-75,782	-75,968	0,045	-0,011
-74,767	-143,796	-0,027	0,002
-73,753	-200,000	0,019	0,072
-72,738	-200,000	0,025	-0,253
-71,724	800,000	-0,044	-0,133
-70,709	324,753	0,066	-0,090
-69,694	322,184	-0,056	-0,075
-68,680	143,070	-0,106	-0,100
-67,665	-147,844	-0,004	0,000
-66,651	800,000	0,049	0,144
-65,636	-95,489	0,119	0,022
-64,622	496,858	-0,034	0,055
-63,607	-44,685	0,111	0,039
-62,592	-2,369	-0,002	-0,001
-61,578	20,268	-0,086	-0,049
-60,563	178,684	-0,104	0,108
-59,549	-200,000	0,023	0,088
-58,534	20,735	-1,954	-1,120
-57,519	800,000	-0,500	-1,209
-56,505	-200,000	-1,013	-4,660
-55,490	218,568	0,816	0,926
-54,476	800,000	5,059	11,820
-53,461	-200,000	20,333	329,184
-52,446	800,000	754,681	2320,873
-51,432	546,089	1663,195	2831,980
-50,417	74,130	1670,444	1242,578
-49,403	19,611	1544,080	878,801
-48,388	13,546	1467,273	805,470
-47,373	18,164	1457,421	822,421
-46,359	15,916	1446,936	805,664
-45,344	11,908	1442,621	783,960
-44,330	11,825	1440,862	782,573
-43,315	11,829	1438,874	781,482
-42,300	11,851	1437,330	780,721
-41,286	11,851	1435,842	779,878
-40,271	11,756	1434,698	778,771
-39,257	11,829	1433,340	778,353
-38,242	11,843	1432,134	777,734
-37,227	11,815	1431,149	777,035
-36,213	11,849	1429,766	776,415
-35,198	11,884	1428,496	775,862
-34,184	11,902	1427,434	775,339
-33,169	11,850	1426,227	774,405
-32,154	11,873	1425,019	773,827
-31,140	11,888	1423,844	773,230
-30,125	11,894	1422,704	772,608
-29,111	11,915	1421,577	772,068
-28,096	11,881	1420,266	771,161
-27,082	11,843	1419,237	770,396
-26,067	11,773	1418,294	769,520
-25,052	11,818	1417,149	769,079
-24,038	11,817	1416,215	768,538
-23,023	11,826	1415,164	767,978
-22,009	11,793	1414,240	767,294
-20,994	11,772	1413,300	766,651
-19,979	11,776	1412,385	766,144
-18,965	11,757	1411,400	765,491
-17,950	11,783	1410,403	765,041
-16,936	11,775	1409,597	764,539
-15,921	11,751	1408,672	763,892
-14,906	11,722	1407,690	763,195
-13,892	11,780	1406,535	762,809
-12,877	11,684	1405,994	762,036
-11,863	11,726	1404,955	761,640
-10,848	11,698	1404,160	761,045
-9,833	11,596	1403,480	760,168
-8,819	11,611	1402,597	759,733
-7,804	11,617	1401,512	759,142
-6,790	11,640	1400,531	758,689
-5,775	11,620	1399,268	757,880
-4,760	11,620	1398,572	757,474
-3,746	11,605	1397,708	756,904
-2,731	11,601	1396,911	756,425
-1,717	11,557	1396,117	755,758
-0,702	11,635	1393,999	754,945
0,313	15,686	1308,169	727,195
1,327	32,047	697,506	425,338
2,342	49,540	121,072	80,667
3,356	0,147	16,376	8,249
4,371	4,108	3,290	1,701
5,386	-1,044	0,677	0,338
6,400	-200,000	-0,033	0,386
7,415	161,111	-0,129	-0,127
8,429	32,690	-0,371	-0,227
9,444	302,261	-0,158	-0,207
10,459	9,879	-0,244	-0,131
11,473	113,668	-0,274	-0,235
12,488	4,050	-0,333	-0,172
13,502	271,617	-0,174	-0,217
14,517	56,511	-0,376	-0,258
15,531	86,906	-0,455	-0,356
16,546	61,044	-0,381	-0,267
17,561	32,495	-0,359	-0,219
18,575	-10,331	-0,251	-0,118
19,590	-200,000	-0,036	-0,194
20,604	91,201	-0,284	-0,226
21,619	132,592	-0,427	-0,390
22,634	126,725	-0,474	-0,425
23,648	77,293	-0,351	-0,264
24,663	-39,538	-0,484	-0,179
25,677	-40,557	-0,369	-0,135
26,692	-34,720	-0,342	-0,132
27,707	5,846	-0,345	-0,180
28,721	111,942	-0,280	-0,239
29,736	400,617	-0,260	-0,387
30,750	199,571	-0,357	-0,388
31,765	42,518	-0,434	-0,278
32,780	89,609	-0,403	-0,318
33,794	201,788	-0,208	-0,227
34,809	-43,874	-0,419	-0,148
35,823	302,049	-0,359	-0,470
36,838	183,671	-0,248	-0,259
37,853	67,845	-0,327	-0,236
38,867	-45,816	-0,415	-0,144
39,882	-35,158	-0,411	-0,158
40,896	360,939	-0,239	-0,340
41,911	62,609	-0,293	-0,207
42,926	191,139	-0,253	-0,270
43,940	59,648	-0,371	-0,258
44,955	31,368	-0,379	-0,229
45,969	141,291	-0,272	-0,254
46,984	221,910	-0,333	-0,379
47,999	127,473	-0,339	-0,304
49,013	24,683	-0,243	-0,142
50,028	37,697	-0,292	-0,183
51,042	95,658	-0,276	-0,222
52,057	-2,188	-0,329	-0,163
53,071	66,784	-0,335	-0,240
54,086	63,259	-0,217	-0,154
55,101	-15,985	-0,336	-0,150
56,115	66,684	-0,443	-0,318
57,130	190,737	-0,283	-0,301
58,144	53,335	-0,383	-0,259
59,159	68,391	-0,303	-0,219
60,174	46,387	-0,378	-0,247
61,188	37,808	-0,404	-0,253
62,203	72,056	-0,151	-0,111
63,217	108,735	-0,299	-0,252
64,232	-65,756	-0,364	-0,102
65,247	394,968	-0,245	-0,361
66,261	55,419	-0,392	-0,267
67,276	-20,201	-0,423	-0,183
68,290	-6,014	-0,422	-0,203
69,305	-38,017	-0,331	-0,123
70,320	-11,876	-0,297	-0,137
71,334	254,349	-0,176	-0,212
72,349	35,019	-0,282	-0,173
73,363	-22,132	-0,336	-0,143
74,378	-29,189	-0,409	-0,164
75,393	59,483	-0,305	-0,212
76,407	121,042	-0,208	-0,182
77,422	-52,600	-0,300	-0,097
78,436	-51,925	-0,234	-0,076
79,451	85,530	-0,357	-0,276
80,466	-9,763	-0,282	-0,132
81,480	92,237	-0,285	-0,226
82,495	-65,372	-0,330	-0,093
83,509	24,684	-0,326	-0,190
84,524	-63,333	-0,295	-0,085
85,539	35,852	-0,308	-0,190
86,553	-0,380	-0,357	-0,178
87,568	39,269	-0,347	-0,218
88,582	110,822	-0,406	-0,344
89,597	22,614	-0,345	-0,198
90,611	-13,660	-0,212	-0,096
91,626	-24,342	-0,333	-0,139
92,641	-78,132	-0,377	-0,090
93,655	50,856	-0,318	-0,212
94,670	11,457	-0,336	-0,180
95,684	-29,845	-0,361	-0,144
96,699	84,778	-0,306	-0,236
97,714	154,229	-0,280	-0,270
98,728	-108,429	-0,183	0,027
99,743	-30,700	-0,258	-0,102
100,757	276,958	-0,267	-0,334
101,772	-1,199	-0,285	-0,141
102,787	172,707	-0,289	-0,292
103,801	170,420	-0,283	-0,285
104,816	192,090	-0,223	-0,236
105,830	61,846	-0,241	-0,168
106,845	-101,460	-0,257	-0,043
107,860	12,591	-0,266	-0,144
108,874	53,333	-0,333	-0,224
109,889	89,067	-0,252	-0,197
110,903	51,658	-0,207	-0,138
111,918	80,366	-0,263	-0,199
112,933	281,277	-0,201	-0,253
113,947	-1,020	-0,266	-0,132
114,962	164,271	-0,251	-0,248
115,976	17,781	-0,236	-0,131
116,991	281,480	-0,277	-0,349
118,006	-77,307	-0,351	-0,085
119,020	124,084	-0,138	-0,122
120,035	139,472	-0,280	-0,258
121,049	123,243	-0,187	-0,164
122,064	-46,196	-0,236	-0,081
123,079	-114,128	-0,315	-0,042
124,093	36,434	-0,250	-0,154
125,108	800,000	-0,172	-0,349
126,122	274,027	-0,192	-0,239
127,137	7,913	-0,187	-0,098
128,151	177,403	-0,216	-0,220
129,166	71,166	-0,318	-0,231
130,181	9,105	-0,303	-0,160
131,195	-7,186	-0,302	-0,143
132,210	188,351	-0,161	-0,169
133,224	-61,065	-0,292	-0,086
134,239	-19,822	-0,230	-0,099
135,254	-145,364	-0,206	-0,013
136,268	412,956	-0,171	-0,255
137,283	-22,696	-0,236	-0,100
138,297	29,354	-0,264	-0,157
139,312	74,550	-0,264	-0,194
140,327	-140,337	-0,289	-0,021
141,341	-63,450	-0,278	-0,080
142,356	8,690	-0,223	-0,117
143,370	3,042	-0,317	-0,161
144,385	-40,912	-0,276	-0,099
145,400	800,000	-0,132	-0,276
146,414	302,507	-0,195	-0,254
147,429	182,613	-0,271	-0,280
148,443	-57,829	-0,269	-0,082
149,458	-25,357	-0,346	-0,142
150,473	-51,453	-0,223	-0,072
151,487	22,071	-0,265	-0,151
152,502	125,373	-0,261	-0,230
153,516	157,997	-0,182	-0,176
154,531	-92,688	-0,346	-0,067
155,546	-69,535	-0,237	-0,063
156,560	378,110	-0,202	-0,290
157,575	253,911	-0,160	-0,192
158,589	-5,919	-0,278	-0,132
159,604	17,870	-0,263	-0,146
160,619	17,924	-0,294	-0,163
161,633	41,044	-0,329	-0,207
162,648	96,221	-0,243	-0,194
163,662	800,000	-0,092	-0,178
164,677	-80,739	-0,200	-0,046
165,692	53,482	-0,235	-0,157
166,706	-3,733	-0,300	-0,145
167,721	157,031	-0,224	-0,216
168,735	206,965	-0,201	-0,219
169,750	74,197	-0,189	-0,138
170,764	-96,806	-0,254	-0,046
171,779	800,000	-0,048	-0,120
172,794	-58,889	-0,270	-0,081
173,808	292,914	-0,206	-0,263
174,823	55,340	-0,344	-0,232
175,837	309,260	-0,106	-0,139
176,852	-11,443	-0,249	-0,114
177,867	279,616	-0,228	-0,284
178,881	77,069	-0,215	-0,159
179,896	100,023	-0,232	-0,187
180,910	82,219	-0,181	-0,137
181,925	304,959	-0,245	-0,318
182,940	165,113	-0,279	-0,275
183,954	54,430	-0,183	-0,123
184,969	212,505	-0,199	-0,219
185,983	312,714	-0,204	-0,268
186,998	636,112	-0,130	-0,232
188,013	593,994	-0,119	-0,206
189,027	-22,833	-0,296	-0,124
190,042	724,920	-0,163	-0,304
191,056	15,057	-0,238	-0,130
192,071	149,718	-0,153	-0,144
193,086	277,134	-0,168	-0,209
194,100	115,491	-0,153	-0,130
195,115	263,903	-0,186	-0,226
196,129	258,317	-0,172	-0,206
197,144	-12,521	-0,280	-0,127
198,159	-58,751	-0,177	-0,053
199,173	10,633	-0,238	-0,126
200,188	-200,000	0,005	0,026
201,202	-39,768	-0,286	-0,104
202,217	13,271	-0,224	-0,121
203,232	-58,576	-0,393	-0,118
204,246	-20,877	-0,281	-0,119
205,261	18,885	-0,328	-0,182
206,275	358,981	-0,115	-0,160
207,290	34,481	-0,108	-0,065
208,304	-58,421	-0,164	-0,049
209,319	486,453	-0,154	-0,245
210,334	-98,638	-0,174	0,031
211,348	594,623	-0,171	-0,296
212,363	800,000	-0,076	-0,164
213,377	800,000	-0,058	-0,177
214,392	-200,000	-0,000	-0,128
215,407	381,425	-0,078	-0,111
216,421	22,408	-0,182	-0,103
217,436	417,588	-0,087	-0,130
218,450	76,941	-0,202	-0,149
219,465	88,959	-0,142	-0,110
220,480	38,281	-0,214	-0,132
221,494	-127,576	-0,209	0,021
222,509	-58,462	-0,172	-0,052
223,523	31,300	-0,113	-0,067
224,538	214,984	-0,105	-0,116
225,553	224,417	-0,227	-0,256
226,567	151,051	-0,146	-0,138
227,582	21,426	-0,247	-0,139
228,596	673,543	-0,087	-0,158
229,611	60,892	-0,179	-0,123
230,626	-41,392	-0,287	-0,102
231,640	-3,627	-0,157	0,076
232,655	800,000	-0,143	-0,331
233,669	800,000	-0,087	-0,205
234,684	151,002	-0,098	-0,092
235,699	225,603	-0,135	-0,152
236,713	-200,000	-0,034	-0,174
237,728	107,191	-0,277	-0,228
238,742	-53,017	-0,211	-0,067
239,757	175,041	-0,114	-0,115
240,772	-170,781	-0,170	-0,004
241,786	-0,418	-0,160	-0,079
242,801	123,718	-0,162	-0,141
243,815	395,270	-0,119	-0,173
244,830	590,754	-0,099	-0,169
245,844	-78,835	-0,158	-0,037
246,859	800,000	-0,091	-0,193
247,874	130,025	-0,173	-0,154
248,888	85,614	-0,210	-0,160
249,903	-60,641	-0,229	-0,067
250,917	332,134	-0,054	-0,073
251,932	-200,000	0,008	-0,150
252,947	67,357	-0,305	-0,215
253,961	283,788	-0,163	-0,204
254,976	-7,366	-0,282	-0,132
255,990	99,074	-0,174	-0,139
257,005	63,664	-0,145	-0,101
258,020	-108,219	-0,213	-0,032
259,034	-11,845	-0,113	0,051
260,049	-8,700	-0,124	-0,058
261,063	36,941	-0,279	-0,170
262,078	-86,850	-0,211	-0,044
263,093	-94,300	-0,183	-0,034
264,107	158,856	-0,232	-0,223
265,122	88,507	-0,167	-0,128
266,136	10,501	-0,186	0,098
267,151	-38,815	-0,233	-0,085
268,166	-72,300	-0,210	-0,054
269,180	167,018	-0,139	-0,137
270,195	535,950	-0,172	-0,283
271,209	-63,368	-0,293	-0,083
272,224	345,738	-0,109	-0,148
273,239	-128,458	-0,158	-0,015
274,253	-30,066	-0,213	-0,083
275,268	252,701	-0,166	-0,197
276,282	246,846	-0,191	-0,223
277,297	-52,244	-0,277	-0,088
278,312	-0,422	-0,202	-0,099
279,326	550,048	-0,103	-0,171
280,341	34,759	-0,176	-0,106
281,355	226,148	-0,058	-0,065
282,370	-16,352	-0,203	-0,089
283,384	-99,592	-0,237	0,041
284,399	80,120	-0,167	0,124
285,414	336,474	-0,107	-0,144
286,428	-5,406	-0,154	-0,073
287,443	483,721	-0,098	-0,154
288,457	148,416	-0,196	-0,183
289,472	203,258	-0,101	-0,108
290,487	197,358	-0,146	-0,154
291,501	380,773	-0,113	-0,161
292,516	314,364	-0,188	-0,245
293,530	593,712	-0,138	-0,237
294,545	115,937	-0,113	-0,095
295,560	800,000	-0,016	-0,042
296,574	210,512	-0,161	-0,175
297,589	595,326	-0,091	-0,156
298,603	74,097	-0,148	-0,107
299,618	-47,746	-0,244	-0,081
300,633	192,971	-0,183	-0,192
301,647	200,753	-0,109	-0,116
302,662	-78,236	-0,306	-0,072
303,676	428,890	-0,116	-0,174
304,691	-162,164	-0,281	-0,010
305,706	36,097	-0,191	-0,116
306,720	51,364	-0,161	0,105
307,735	-24,270	-0,100	-0,041
308,749	290,893	-0,093	-0,117
309,764	-187,085	-0,142	0,001
310,779	-144,567	-0,189	0,012
311,793	-26,473	-0,201	-0,081
312,808	-71,428	-0,269	-0,069
313,822	800,000	-0,085	-0,167
314,837	80,450	-0,219	-0,162
315,852	-42,014	-0,192	-0,067
316,866	-200,000	-0,043	-0,133
317,881	165,285	-0,122	-0,119
318,895	-183,594	-0,170	-0,002
319,910	-58,058	-0,174	-0,052
320,925	-20,818	-0,195	-0,082
321,939	6,175	-0,126	-0,064
322,954	22,186	-0,091	-0,051
323,968	-156,421	-0,192	0,008
324,983	141,116	-0,125	-0,114
325,997	82,261	0,040	-0,030
327,012	119,773	-0,202	-0,173
328,027	-106,482	-0,186	-0,028
329,041	-38,591	-0,161	-0,058
330,056	67,590	-0,170	-0,120
331,070	-80,822	-0,173	0,039
332,085	58,090	-0,136	-0,092
333,100	214,953	-0,173	-0,189
334,114	48,720	-0,211	-0,136
335,129	-30,121	-0,196	-0,076
336,143	800,000	-0,115	-0,254
337,158	47,382	-0,197	-0,126
338,173	800,000	-0,049	-0,142
339,187	167,193	-0,076	-0,075
340,202	-82,717	-0,121	0,027
341,216	-116,120	-0,212	-0,027
342,231	-64,703	-0,176	0,049
343,246	314,217	-0,091	-0,118
344,260	337,467	-0,170	-0,228
345,275	185,299	-0,092	-0,094
346,289	-74,780	-0,174	-0,043
347,304	-89,140	-0,085	-0,017
348,319	-13,165	-0,187	-0,083
349,333	-97,835	-0,144	0,025
350,348	239,024	-0,133	-0,152
351,362	20,229	-0,128	-0,071
352,377	800,000	-0,061	-0,165
353,392	-140,867	-0,122	0,009
354,406	-32,267	-0,086	-0,033
355,421	208,029	1313,702	1412,382
356,435	160,043	1474,049	1412,600
