DTS Sentinel unit serial number:	SN410029Multiplexer serial number:	ORYXHardware model number:	OX2-SRSoftware version number:	ORYX F/W v4,00 Oryx Data Collector v3.7.2.0data status	okinstallation	B3 Nyhavnadifferential loss correction	single-endedforward channel	channel 1reverse channel	N/Adate	2023/11/29time	22:57:30forward acquisition time	300,00reverse acquisition time	0,00gamma	499,1914k internal	0,3210k external	0,3210temperature offset calibration	1,0000default loss term (dB/km)	0,3820temperature slope calibration	1,0000multiplexer offset coefficient	1,0000multiplexer slope coefficient	1,0000fibre end	0,00T internal ref (°C)	10,86T ext. ref 1 (°C)	-3,93T ext. ref 2 (°C)	-4,06length (m)	temperature (°C)	Stokes	anti-Stokes-744,400	93,810	-0,166	-0,136
-743,385	-200,000	-0,056	0,360
-742,371	-200,000	-0,045	-0,226
-741,356	-200,000	-0,076	0,352
-740,342	-122,438	-0,181	-0,021
-739,327	-200,000	-0,017	0,298
-738,312	363,887	-0,172	-0,252
-737,298	800,000	-0,090	0,273
-736,283	241,464	-0,144	-0,175
-735,269	800,000	-0,162	0,369
-734,254	612,249	-0,154	-0,280
-733,239	19,218	-0,168	0,097
-732,225	438,402	-0,192	-0,304
-731,210	119,390	0,135	0,121
-730,196	356,688	-0,035	-0,051
-729,181	-95,910	-0,119	-0,023
-728,167	17,693	-0,034	0,020
-727,152	44,351	-0,082	-0,054
-726,137	-200,000	0,010	0,093
-725,123	-112,920	-0,079	-0,011
-724,108	122,023	0,057	-0,052
-723,094	361,767	-0,070	-0,102
-722,079	-8,706	-0,102	-0,049
-721,064	-74,111	0,020	0,005
-720,050	-110,351	-0,094	-0,014
-719,035	396,461	-0,057	0,087
-718,021	-15,421	-0,124	-0,057
-717,006	-200,000	0,006	-0,135
-715,991	-105,185	-0,078	0,013
-714,977	-200,000	-0,036	-0,121
-713,962	-49,100	-0,182	-0,063
-712,948	-200,000	-0,003	0,095
-711,933	-5,912	-0,066	-0,033
-710,918	-200,000	0,000	-0,079
-709,904	-200,000	-0,032	0,106
-708,889	271,207	-0,078	-0,100
-707,875	-200,000	0,010	-0,100
-706,860	-200,000	0,033	0,146
-705,845	-37,484	-0,076	-0,029
-704,831	-160,465	-0,066	0,003
-703,816	-200,000	-0,026	0,086
-702,802	-200,000	0,014	0,139
-701,787	-154,794	-0,033	-0,002
-700,772	-200,000	0,030	-0,168
-699,758	-33,411	0,130	0,052
-698,743	669,367	-0,027	0,051
-697,729	142,963	-0,031	-0,030
-696,714	-25,071	0,126	0,054
-695,699	166,607	0,039	0,040
-694,685	-200,000	-0,002	-0,216
-693,670	83,943	-0,114	-0,090
-692,656	4,095	-0,015	-0,008
-691,641	198,268	-0,137	0,152
-690,627	43,320	0,091	-0,060
-689,612	-68,299	0,061	0,017
-688,597	391,185	0,069	-0,104
-687,583	-200,000	0,007	-0,090
-686,568	-79,097	-0,191	-0,047
-685,554	46,608	-0,110	-0,074
-684,539	-200,000	0,018	-0,157
-683,524	157,023	-0,031	-0,031
-682,510	-43,696	-0,057	-0,021
-681,495	215,714	0,056	-0,065
-680,481	83,937	0,028	-0,022
-679,466	149,549	0,037	-0,037
-678,451	165,333	-0,084	-0,086
-677,437	162,742	0,089	-0,091
-676,422	400,758	-0,062	0,095
-675,408	205,279	0,026	0,029
-674,393	-61,629	-0,162	-0,049
-673,378	800,000	0,065	-0,205
-672,364	299,818	-0,075	-0,100
-671,349	-166,693	-0,049	-0,001
-670,335	-125,974	-0,106	0,011
-669,320	-158,163	-0,024	-0,001
-668,305	606,683	-0,040	-0,072
-667,291	-200,000	0,016	-0,140
-666,276	-200,000	0,003	0,011
-665,262	800,000	0,012	-0,033
-664,247	-200,000	0,007	-0,085
-663,232	-107,481	0,096	-0,015
-662,218	-98,649	-0,096	-0,018
-661,203	140,296	-0,061	-0,058
-660,189	97,022	-0,090	0,074
-659,174	418,572	0,029	0,045
-658,159	-48,854	0,082	0,028
-657,145	800,000	0,073	-0,156
-656,130	105,118	-0,095	0,081
-655,116	-50,130	0,092	-0,031
-654,101	27,784	0,163	0,099
-653,086	503,235	-0,103	-0,173
-652,072	800,000	-0,003	0,010
-651,057	-200,000	-0,006	0,082
-650,043	-200,000	-0,004	-0,083
-649,028	-58,762	-0,106	-0,033
-648,014	631,299	-0,035	0,065
-646,999	-15,103	0,169	0,078
-645,984	50,328	0,081	0,055
-644,970	46,355	-0,105	-0,071
-643,955	116,067	-0,051	-0,045
-642,941	48,490	-0,106	0,072
-641,926	747,308	-0,037	0,073
-640,911	-75,444	-0,060	0,015
-639,897	-7,667	0,130	0,063
-638,882	-81,875	-0,030	0,007
-637,868	-152,500	-0,219	0,011
-636,853	222,480	-0,056	-0,065
-635,838	-200,000	-0,030	-0,145
-634,824	-107,310	0,031	0,005
-633,809	157,337	-0,112	-0,112
-632,795	-95,775	-0,100	0,019
-631,780	-200,000	-0,003	0,097
-630,765	-200,000	-0,027	-0,114
-629,751	28,407	-0,065	0,039
-628,736	301,620	0,045	0,061
-627,722	800,000	-0,052	0,115
-626,707	-90,185	0,140	-0,029
-625,692	77,169	-0,085	-0,065
-624,678	-200,000	-0,019	0,085
-623,663	-12,744	0,084	-0,039
-622,649	521,065	-0,057	-0,098
-621,634	-200,000	0,005	-0,076
-620,619	800,000	0,067	-0,200
-619,605	-50,447	-0,069	-0,023
-618,590	800,000	0,075	0,153
-617,576	800,000	0,073	-0,148
-616,561	435,963	-0,076	-0,119
-615,546	308,347	-0,112	-0,151
-614,532	527,015	0,066	-0,112
-613,517	196,312	-0,041	0,046
-612,503	726,551	-0,014	-0,027
-611,488	367,331	0,037	-0,055
-610,474	282,307	0,140	-0,181
-609,459	800,000	0,032	-0,097
-608,444	800,000	0,047	-0,100
-607,430	-125,917	-0,020	-0,002
-606,415	-150,403	0,109	-0,006
-605,401	-105,932	0,167	0,027
-604,386	-81,447	-0,010	0,002
-603,371	152,398	-0,023	-0,023
-602,357	-200,000	0,016	0,089
-601,342	-200,000	-0,010	-0,053
-600,328	-7,407	-0,111	0,054
-599,313	-179,845	0,109	0,002
-598,298	-169,538	-0,129	0,003
-597,284	-200,000	-0,005	0,074
-596,269	-200,000	0,004	0,078
-595,255	-200,000	-0,008	-0,102
-594,240	-200,000	0,020	0,073
-593,225	-44,138	-0,080	-0,029
-592,211	800,000	0,081	-0,202
-591,196	-200,000	0,003	-0,073
-590,182	4,828	0,050	0,027
-589,167	121,294	0,133	0,119
-588,152	60,692	-0,058	-0,042
-587,138	152,539	0,075	-0,074
-586,123	67,613	-0,090	-0,067
-585,109	535,365	0,018	0,031
-584,094	800,000	-0,016	0,048
-583,079	-200,000	-0,012	-0,059
-582,065	227,431	-0,052	-0,061
-581,050	-157,448	-0,079	0,003
-580,036	-75,643	0,106	-0,027
-579,021	-200,000	0,019	-0,071
-578,006	361,038	-0,111	-0,161
-576,992	453,790	-0,068	-0,110
-575,977	800,000	-0,024	0,054
-574,963	800,000	0,029	0,088
-573,948	164,068	-0,103	0,104
-572,934	518,394	-0,050	0,085
-571,919	-131,186	-0,217	0,020
-570,904	-54,800	-0,072	0,023
-569,890	-92,836	0,071	0,014
-568,875	-74,637	-0,175	-0,045
-567,861	-200,000	0,009	-0,145
-566,846	-84,238	-0,066	-0,015
-565,831	-94,123	0,053	-0,010
-564,817	49,932	-0,061	-0,041
-563,802	131,978	0,069	-0,064
-562,788	422,780	0,051	-0,079
-561,773	-189,052	0,138	0,001
-560,758	-200,000	0,029	0,155
-559,744	-26,152	0,099	0,042
-558,729	-200,000	0,031	0,124
-557,715	-200,000	0,029	-0,180
-556,700	-90,407	-0,108	-0,022
-555,685	214,971	-0,080	0,091
-554,671	-74,871	-0,047	-0,012
-553,656	275,069	-0,022	-0,028
-552,642	-156,541	0,017	-0,001
-551,627	-200,000	-0,041	0,000
-550,612	-200,000	-0,012	0,067
-549,598	-71,410	-0,170	-0,046
-548,583	800,000	-0,064	-0,151
-547,569	-110,837	-0,097	0,014
-546,554	-136,174	-0,035	-0,003
-545,539	88,584	-0,148	-0,119
-544,525	221,599	-0,064	0,074
-543,510	-140,420	-0,122	0,009
-542,496	-75,589	0,062	0,016
-541,481	-103,065	-0,039	-0,007
-540,466	137,960	0,084	-0,080
-539,452	-200,000	-0,008	0,026
-538,437	-200,000	0,010	0,063
-537,423	37,722	-0,049	0,031
-536,408	172,833	-0,165	0,171
-535,393	-138,283	-0,148	-0,012
-534,379	79,789	-0,057	0,044
-533,364	7,983	0,036	-0,020
-532,350	444,339	0,047	0,075
-531,335	403,346	0,102	0,155
-530,321	800,000	-0,043	0,127
-529,306	-40,425	-0,091	0,034
-528,291	-122,655	-0,076	0,009
-527,277	-70,073	-0,141	0,038
-526,262	-10,911	-0,075	-0,036
-525,248	-68,149	0,057	-0,016
-524,233	800,000	-0,034	0,105
-523,218	-129,752	0,043	-0,004
-522,204	415,369	0,077	0,118
-521,189	5,094	0,061	-0,032
-520,175	-200,000	-0,007	-0,096
-519,160	-200,000	-0,050	-0,221
-518,145	-200,000	-0,025	0,000
-517,131	727,553	0,104	0,201
-516,116	-200,000	-0,006	-0,041
-515,102	-200,000	-0,005	-0,037
-514,087	-14,149	-0,100	-0,046
-513,072	800,000	-0,024	-0,064
-512,058	-200,000	-0,026	-0,104
-511,043	-200,000	0,003	-0,047
-510,029	-115,248	0,031	-0,004
-509,014	421,442	-0,078	-0,120
-507,999	521,085	-0,042	0,070
-506,985	-200,000	0,026	-0,143
-505,970	-200,000	-0,013	0,066
-504,956	54,988	-0,035	-0,025
-503,941	-200,000	0,014	-0,054
-502,926	-200,000	-0,049	0,163
-501,912	26,757	-0,042	0,025
-500,897	800,000	-0,006	0,012
-499,883	109,397	0,115	0,099
-498,868	-200,000	-0,005	-0,076
-497,853	800,000	0,031	-0,093
-496,839	-143,373	0,117	-0,008
-495,824	-85,541	0,179	0,040
-494,810	-31,778	0,008	-0,003
-493,795	-158,767	-0,073	0,003
-492,781	242,317	-0,099	0,120
-491,766	503,020	-0,047	-0,079
-490,751	-31,661	-0,078	-0,031
-489,737	22,909	-0,112	-0,066
-488,722	-37,779	0,119	0,045
-487,708	800,000	-0,018	0,048
-486,693	800,000	0,056	0,139
-485,678	155,877	-0,094	0,094
-484,664	139,162	-0,085	-0,080
-483,649	-27,668	-0,107	0,045
-482,635	-200,000	-0,017	-0,107
-481,620	3,646	0,204	-0,106
-480,605	25,810	0,141	0,084
-479,591	87,686	-0,044	0,035
-478,576	-81,970	-0,056	-0,013
-477,562	131,131	-0,078	0,072
-476,547	-200,000	0,002	0,037
-475,532	110,027	-0,042	-0,036
-474,518	156,450	-0,108	-0,107
-473,503	-200,000	-0,001	0,004
-472,489	174,624	-0,042	-0,044
-471,474	-25,157	-0,063	0,027
-470,459	510,317	-0,050	-0,084
-469,445	-200,000	0,025	-0,205
-468,430	-200,000	-0,018	-0,158
-467,416	800,000	0,010	0,023
-466,401	391,801	0,060	-0,090
-465,386	237,256	0,003	0,004
-464,372	201,928	-0,067	0,074
-463,357	-138,267	-0,106	-0,008
-462,343	-94,167	-0,149	-0,029
-461,328	800,000	0,035	-0,106
-460,313	297,931	0,068	0,090
-459,299	-41,133	0,170	-0,063
-458,284	800,000	-0,018	-0,053
-457,270	-200,000	0,018	-0,091
-456,255	-200,000	-0,021	-0,147
-455,241	176,119	-0,055	0,057
-454,226	800,000	-0,028	0,069
-453,211	-200,000	0,032	-0,147
-452,197	125,154	-0,090	0,082
-451,182	-200,000	0,017	0,133
-450,168	111,713	0,118	-0,102
-449,153	37,848	-0,036	0,023
-448,138	118,991	-0,133	-0,118
-447,124	-176,920	0,035	-0,001
-446,109	-33,093	-0,057	-0,023
-445,095	411,782	0,040	0,062
-444,080	-34,468	0,150	0,058
-443,065	172,597	0,050	0,052
-442,051	31,029	-0,154	0,094
-441,036	-21,345	-0,010	-0,004
-440,022	-114,822	-0,139	-0,019
-439,007	-76,733	0,131	0,033
-437,992	800,000	0,054	0,146
-436,978	530,811	0,014	0,024
-435,963	359,293	-0,012	0,017
-434,949	-51,286	-0,116	-0,039
-433,934	-167,452	-0,037	0,001
-432,919	-200,000	0,021	-0,123
-431,905	376,535	0,021	0,030
-430,890	-200,000	-0,002	0,118
-429,876	617,216	-0,086	0,155
-428,861	-93,785	0,038	0,007
-427,846	-0,068	-0,113	0,057
-426,832	-95,007	-0,112	-0,022
-425,817	304,086	0,052	-0,069
-424,803	-93,725	0,033	-0,006
-423,788	-31,094	0,109	0,044
-422,773	-200,000	-0,003	0,168
-421,759	-200,000	-0,014	0,087
-420,744	-24,976	0,032	0,014
-419,730	172,689	0,119	-0,123
-418,715	-7,992	-0,116	-0,056
-417,701	-97,929	0,008	0,001
-416,686	-200,000	0,025	0,150
-415,671	-200,000	-0,005	0,116
-414,657	800,000	0,020	-0,044
-413,642	62,329	-0,091	0,065
-412,628	153,979	-0,058	0,057
-411,613	115,236	0,034	0,029
-410,598	15,928	0,024	-0,013
-409,584	-170,822	-0,154	-0,004
-408,569	232,294	-0,056	0,066
-407,555	800,000	-0,025	0,068
-406,540	-175,850	-0,183	-0,003
-405,525	-142,482	0,022	-0,002
-404,511	79,073	-0,062	-0,047
-403,496	-200,000	-0,029	-0,135
-402,482	96,098	-0,011	-0,009
-401,467	225,715	-0,008	-0,010
-400,452	-2,871	0,081	0,040
-399,438	85,186	0,107	0,084
-398,423	-200,000	-0,030	0,130
-397,409	-66,086	0,068	0,019
-396,394	-101,135	0,038	-0,007
-395,379	108,506	0,014	0,012
-394,365	152,713	0,066	-0,065
-393,350	284,192	0,074	-0,095
-392,336	-97,026	0,119	0,022
-391,321	363,154	0,112	0,161
-390,306	406,657	-0,119	-0,181
-389,292	332,917	-0,034	0,047
-388,277	102,810	0,028	-0,024
-387,263	49,198	0,123	0,082
-386,248	31,667	0,014	-0,009
-385,233	-148,353	0,124	-0,007
-384,219	118,433	-0,054	-0,048
-383,204	-31,281	-0,036	-0,014
-382,190	33,650	0,028	0,017
-381,175	-58,759	-0,069	-0,021
-380,160	132,802	-0,080	-0,074
-379,146	399,909	0,053	0,079
-378,131	-116,885	0,042	-0,005
-377,117	800,000	-0,053	-0,129
-376,102	-200,000	0,004	-0,084
-375,088	91,767	-0,040	0,032
-374,073	141,638	0,169	-0,160
-373,058	-35,509	0,049	0,019
-372,044	-60,178	-0,049	-0,015
-371,029	800,000	-0,021	0,044
-370,015	-200,000	0,036	-0,176
-369,000	800,000	-0,031	0,064
-367,985	729,798	0,036	-0,070
-366,971	-200,000	0,015	-0,068
-365,956	-158,773	0,099	-0,004
-364,942	-58,264	0,151	0,047
-363,927	-200,000	-0,009	0,111
-362,912	800,000	0,026	0,068
-361,898	-200,000	-0,001	-0,116
-360,883	-200,000	0,012	-0,140
-359,869	-5,994	0,126	0,061
-358,854	800,000	-0,048	0,117
-357,839	800,000	-0,047	0,128
-356,825	674,523	0,041	-0,076
-355,810	71,659	-0,062	0,046
-354,796	-200,000	-0,006	0,136
-353,781	-200,000	-0,004	0,154
-352,766	-4,738	0,099	0,049
-351,752	-122,919	-0,031	0,003
-350,737	182,382	-0,021	0,023
-349,723	-200,000	0,001	0,072
-348,708	-200,000	0,014	0,089
-347,693	16,623	-0,127	-0,072
-346,679	-78,214	-0,150	0,037
-345,664	800,000	-0,012	-0,033
-344,650	-200,000	0,004	0,130
-343,635	237,149	-0,011	-0,013
-342,620	-94,506	0,117	0,023
-341,606	117,600	-0,096	0,084
-340,591	-110,149	0,061	0,009
-339,577	387,839	-0,026	-0,039
-338,562	-118,519	-0,097	-0,012
-337,548	73,212	0,142	-0,106
-336,533	88,075	-0,073	0,057
-335,518	86,421	0,080	0,063
-334,504	154,891	-0,025	0,025
-333,489	506,140	-0,030	-0,050
-332,475	-200,000	-0,022	-0,097
-331,460	800,000	0,018	0,052
-330,445	34,610	-0,029	-0,018
-329,431	301,191	-0,060	0,080
-328,416	-110,492	0,104	-0,015
-327,402	-72,982	-0,125	-0,032
-326,387	-74,847	-0,124	0,031
-325,372	-116,935	0,172	-0,022
-324,358	102,950	-0,058	0,048
-323,343	-200,000	-0,015	0,069
-322,329	-122,487	0,138	0,016
-321,314	-45,971	0,120	-0,042
-320,299	-2,288	0,022	0,011
-319,285	-200,000	-0,005	-0,084
-318,270	-177,658	-0,078	-0,001
-317,256	96,393	-0,015	0,012
-316,241	643,995	-0,128	-0,235
-315,226	63,946	0,043	0,031
-314,212	-38,975	0,084	0,031
-313,197	-21,490	0,012	0,005
-312,183	-200,000	-0,009	0,106
-311,168	-30,987	-0,090	-0,036
-310,153	800,000	0,024	0,048
-309,139	206,839	0,079	0,088
-308,124	-157,981	0,073	0,003
-307,110	-200,000	-0,004	-0,075
-306,095	345,079	0,055	0,077
-305,080	-25,376	-0,066	-0,028
-304,066	242,740	-0,049	0,059
-303,051	-34,968	-0,178	-0,069
-302,037	-25,812	0,136	-0,057
-301,022	-60,371	0,077	0,023
-300,008	145,169	0,077	-0,074
-298,993	-5,030	0,071	0,035
-297,978	113,925	-0,035	0,030
-296,964	279,303	0,077	-0,098
-295,949	420,179	-0,066	-0,101
-294,935	94,652	0,033	0,027
-293,920	-162,234	0,090	-0,003
-292,905	-31,474	0,132	-0,052
-291,891	129,766	0,070	-0,064
-290,876	-159,487	0,217	0,008
-289,862	-200,000	0,006	-0,100
-288,847	800,000	-0,082	-0,187
-287,832	-200,000	0,019	-0,069
-286,818	16,982	0,080	-0,045
-285,803	800,000	-0,021	-0,043
-284,789	-50,823	0,114	-0,038
-283,774	800,000	0,020	-0,044
-282,759	-113,449	-0,010	0,001
-281,745	189,585	0,080	-0,086
-280,730	800,000	0,048	-0,126
-279,716	418,248	0,054	0,082
-278,701	-200,000	0,007	0,131
-277,686	312,871	0,063	0,085
-276,672	394,715	0,067	0,100
-275,657	227,207	-0,130	0,151
-274,643	800,000	-0,026	-0,053
-273,628	314,300	0,098	-0,131
-272,613	293,189	0,080	-0,104
-271,599	-130,545	0,121	0,012
-270,584	194,119	0,092	0,099
-269,570	425,645	0,037	-0,057
-268,555	-95,820	0,073	-0,014
-267,540	-21,289	0,028	0,012
-266,526	315,496	0,055	0,074
-265,511	-200,000	-0,007	-0,039
-264,497	184,262	0,151	0,159
-263,482	-200,000	0,017	0,190
-262,467	10,836	0,066	-0,036
-261,453	-200,000	-0,020	0,137
-260,438	76,912	0,091	-0,069
-259,424	262,728	0,020	-0,024
-258,409	-14,261	-0,183	-0,084
-257,395	-49,522	-0,041	0,014
-256,380	-70,041	0,104	0,028
-255,365	-104,888	0,056	-0,009
-254,351	-69,032	-0,014	0,004
-253,336	-200,000	-0,020	-0,088
-252,322	617,037	0,061	-0,110
-251,307	40,688	0,065	-0,042
-250,292	4,792	0,125	-0,065
-249,278	171,370	0,021	-0,022
-248,263	675,681	0,017	-0,031
-247,249	72,594	0,049	0,037
-246,234	-115,456	-0,058	-0,008
-245,219	-111,827	-0,106	-0,015
-244,205	800,000	-0,077	-0,171
-243,190	-85,690	-0,020	0,004
-242,176	169,075	-0,073	0,074
-241,161	-127,650	0,147	-0,015
-240,146	211,216	-0,013	0,014
-239,132	-28,703	-0,070	0,028
-238,117	77,274	-0,017	0,013
-237,103	305,840	-0,065	-0,086
-236,088	88,178	0,097	-0,077
-235,073	243,829	-0,043	-0,051
-234,059	-200,000	-0,035	-0,117
-233,044	-65,699	0,067	-0,019
-232,030	21,321	0,090	0,052
-231,015	800,000	0,046	-0,117
-230,000	-43,227	-0,059	-0,021
-228,986	138,356	0,130	-0,121
-227,971	65,639	0,057	-0,041
-226,957	-200,000	-0,033	0,180
-225,942	800,000	0,018	0,040
-224,927	77,763	0,042	-0,032
-223,913	284,747	-0,072	0,092
-222,898	-200,000	0,014	-0,121
-221,884	-69,992	-0,076	-0,020
-220,869	-3,625	0,094	0,046
-219,855	-25,276	0,038	0,016
-218,840	107,018	0,030	0,025
-217,825	-174,507	-0,107	-0,002
-216,811	319,921	-0,041	-0,055
-215,796	-121,602	0,094	0,011
-214,782	24,253	0,051	0,030
-213,767	-200,000	0,044	0,252
-212,752	153,289	-0,064	0,063
-211,738	-32,262	0,170	0,067
-210,723	-153,758	-0,040	0,002
-209,709	-147,226	-0,159	-0,009
-208,694	714,533	0,002	0,004
-207,679	-50,208	-0,186	0,062
-206,665	26,277	0,089	0,053
-205,650	-200,000	-0,005	0,123
-204,636	169,071	-0,025	-0,026
-203,621	208,738	0,057	0,063
-202,606	85,612	-0,060	0,047
-201,592	-97,058	0,128	-0,024
-200,577	-200,000	0,012	-0,140
-199,563	-165,810	-0,082	-0,002
-198,548	339,240	0,105	0,146
-197,533	680,299	0,031	0,057
-196,519	-125,173	-0,050	0,005
-195,504	156,342	0,090	-0,088
-194,490	256,711	-0,045	0,055
-193,475	-111,146	-0,127	0,018
-192,460	-96,629	-0,143	-0,027
-191,446	532,872	0,049	0,082
-190,431	307,172	0,102	0,136
-189,417	-130,174	-0,124	-0,012
-188,402	113,739	-0,128	0,110
-187,387	-164,717	0,033	-0,001
-186,373	32,152	-0,088	0,054
-185,358	-86,853	-0,169	0,036
-184,344	99,316	0,073	0,060
-183,329	479,013	0,070	0,113
-182,315	800,000	0,047	0,123
-181,300	-0,064	-0,041	0,021
-180,285	153,679	-0,013	0,012
-179,271	-200,000	0,030	-0,104
-178,256	212,160	-0,015	-0,016
-177,242	24,875	0,034	0,020
-176,227	-66,768	0,094	0,026
-175,212	-180,539	0,176	0,003
-174,198	-96,667	0,103	0,019
-173,183	-15,668	-0,016	0,007
-172,169	-153,356	0,123	-0,006
-171,154	554,286	-0,043	0,074
-170,139	155,863	0,131	-0,128
-169,125	-200,000	-0,022	0,070
-168,110	-190,039	-0,046	-0,000
-167,096	-200,000	0,038	0,166
-166,081	-88,054	0,089	0,019
-165,066	-200,000	-0,005	-0,114
-164,052	-137,353	-0,051	0,004
-163,037	643,322	0,020	-0,037
-162,023	800,000	-0,036	0,081
-161,008	-56,283	0,063	0,020
-159,993	395,322	-0,075	0,112
-158,979	65,766	-0,085	0,061
-157,964	-69,146	-0,079	0,021
-156,950	-53,393	-0,067	-0,022
-155,935	800,000	0,004	-0,009
-154,920	234,993	0,098	0,115
-153,906	-69,417	0,134	-0,036
-152,891	800,000	-0,005	-0,015
-151,877	30,432	0,108	-0,065
-150,862	-200,000	-0,023	-0,140
-149,847	102,087	-0,024	-0,020
-148,833	800,000	0,051	-0,102
-147,818	-200,000	-0,001	0,054
-146,804	-29,223	0,058	0,024
-145,789	800,000	0,017	-0,040
-144,775	-92,816	-0,039	0,008
-143,760	800,000	0,032	-0,080
-142,745	446,113	-0,002	-0,004
-141,731	50,041	0,089	-0,059
-140,716	222,051	-0,067	0,076
-139,702	800,000	0,019	0,038
-138,687	-200,000	0,003	-0,155
-137,672	-44,333	-0,079	0,028
-136,658	-200,000	0,012	-0,055
-135,643	451,960	0,025	-0,039
-134,629	800,000	-0,044	-0,131
-133,614	800,000	-0,072	0,149
-132,599	-200,000	0,003	0,030
-131,585	-200,000	-0,018	-0,106
-130,570	800,000	-0,037	0,074
-129,556	-200,000	0,007	0,028
-128,541	-104,181	0,064	0,011
-127,526	-194,150	-0,082	-0,000
-126,512	90,628	-0,040	0,032
-125,497	140,221	0,056	0,053
-124,483	-200,000	0,018	0,158
-123,468	800,000	-0,011	0,030
-122,453	-96,817	-0,110	0,020
-121,439	8,032	-0,124	-0,066
-120,424	-89,079	0,088	-0,018
-119,410	573,989	-0,021	0,037
-118,395	120,673	0,155	-0,136
-117,380	185,009	0,071	-0,074
-116,366	-145,928	-0,123	0,008
-115,351	-200,000	-0,003	-0,074
-114,337	-34,353	-0,144	-0,056
-113,322	454,168	0,040	0,062
-112,307	800,000	0,032	-0,087
-111,293	-200,000	-0,020	0,080
-110,278	62,808	0,129	0,091
-109,264	-116,354	-0,031	-0,004
-108,249	-200,000	-0,004	-0,056
-107,234	-159,472	0,019	0,001
-106,220	-52,264	0,098	0,032
-105,205	210,448	-0,061	0,068
-104,191	-126,229	0,079	0,008
-103,176	-22,430	-0,092	0,039
-102,162	521,024	-0,074	0,123
-101,147	-200,000	0,008	-0,176
-100,132	9,640	0,062	-0,033
-99,118	-200,000	-0,038	-0,209
-98,103	-19,786	0,071	-0,031
-97,089	800,000	0,033	0,073
-96,074	-103,215	0,081	0,013
-95,059	800,000	-0,062	0,125
-94,045	-200,000	0,002	0,105
-93,030	-200,000	0,007	-0,056
-92,016	66,244	-0,104	-0,074
-91,001	-57,044	0,052	-0,016
-89,986	-200,000	-0,011	-0,136
-88,972	473,385	0,084	0,134
-87,957	-57,114	-0,067	0,021
-86,943	577,071	-0,043	0,074
-85,928	-136,427	0,108	0,009
-84,913	-200,000	0,008	-0,038
-83,899	427,544	0,046	-0,071
-82,884	235,426	0,059	0,068
-81,870	-2,358	-0,108	0,053
-80,855	-200,000	0,002	-0,030
-79,840	800,000	-0,086	0,207
-78,826	-36,553	0,029	-0,011
-77,811	686,649	0,055	-0,103
-76,797	-200,000	0,025	0,137
-75,782	-200,000	-0,021	-0,072
-74,767	-127,330	0,085	0,009
-73,753	-33,065	0,105	0,041
-72,738	-200,000	0,030	0,104
-71,724	623,857	-0,080	0,143
-70,709	-200,000	0,010	-0,084
-69,694	80,985	-0,082	-0,062
-68,680	800,000	-0,005	0,009
-67,665	616,468	0,028	0,050
-66,651	-148,398	0,016	-0,001
-65,636	-200,000	-0,001	-0,036
-64,622	401,477	-0,020	0,030
-63,607	-114,554	-0,028	0,004
-62,592	132,933	-0,017	0,016
-61,578	107,864	0,070	0,059
-60,563	68,369	0,131	0,095
-59,549	16,327	-0,074	0,041
-58,534	22,928	-1,894	-1,094
-57,519	505,114	-1,276	-2,094
-56,505	-200,000	-0,355	-4,368
-55,490	419,784	0,967	1,467
-54,476	800,000	5,141	11,125
-53,461	-200,000	21,048	328,988
-52,446	800,000	757,065	2322,815
-51,432	550,345	1662,252	2825,409
-50,417	73,523	1664,095	1228,700
-49,403	18,714	1537,245	866,081
-48,388	12,729	1460,184	793,695
-47,373	18,948	1450,891	818,486
-46,359	15,867	1440,090	797,692
-45,344	10,976	1436,020	772,107
-44,330	10,909	1434,055	770,700
-43,315	10,923	1432,048	769,657
-42,300	10,874	1430,461	768,541
-41,286	10,922	1429,359	768,146
-40,271	10,904	1427,879	767,236
-39,257	10,911	1426,563	766,529
-38,242	10,893	1425,641	765,919
-37,227	10,894	1424,598	765,333
-36,213	10,917	1423,167	764,644
-35,198	10,928	1422,005	764,042
-34,184	10,961	1421,283	763,777
-33,169	10,960	1419,618	762,846
-32,154	10,957	1418,790	762,356
-31,140	10,949	1417,482	761,588
-30,125	11,022	1416,479	761,360
-29,111	10,977	1415,382	760,532
-28,096	10,968	1414,253	759,851
-27,082	10,926	1412,873	758,883
-26,067	10,891	1412,102	758,275
-25,052	10,894	1410,925	757,628
-24,038	10,922	1409,776	757,110
-23,023	10,943	1408,806	756,656
-22,009	10,882	1407,975	755,895
-20,994	10,847	1406,981	755,170
-19,979	10,874	1406,007	754,740
-18,965	10,815	1405,337	754,075
-17,950	10,801	1404,359	753,458
-16,936	10,836	1403,371	753,061
-15,921	10,787	1402,469	752,318
-14,906	10,804	1401,397	751,790
-13,892	10,808	1400,310	751,198
-12,877	10,766	1399,660	750,623
-11,863	10,786	1398,626	750,131
-10,848	10,772	1397,889	749,644
-9,833	10,766	1396,903	749,055
-8,819	10,716	1396,202	748,419
-7,804	10,695	1395,407	747,867
-6,790	10,711	1394,242	747,288
-5,775	10,679	1393,394	746,652
-4,760	10,736	1392,171	746,232
-3,746	10,718	1391,450	745,734
-2,731	10,746	1390,342	745,241
-1,717	10,656	1389,815	744,512
-0,702	10,689	1387,914	743,616
0,313	14,780	1301,618	716,105
1,327	31,134	693,041	418,487
2,342	48,375	120,217	79,260
3,356	2,767	16,459	8,395
4,371	7,074	3,448	1,808
5,386	-4,531	0,851	0,413
6,400	-200,000	0,133	0,618
7,415	-102,747	-0,130	-0,022
8,429	97,669	-0,293	-0,238
9,444	139,347	-0,364	-0,337
10,459	-99,084	-0,356	-0,063
11,473	21,819	-0,336	-0,192
12,488	-0,162	-0,290	-0,145
13,502	235,393	-0,240	-0,280
14,517	13,219	-0,302	-0,165
15,531	102,236	-0,327	-0,269
16,546	98,037	-0,394	-0,320
17,561	120,929	-0,351	-0,307
18,575	221,845	-0,107	-0,121
19,590	9,728	-0,236	-0,126
20,604	-46,499	-0,154	-0,053
21,619	84,809	-0,459	-0,354
22,634	201,714	-0,405	-0,441
23,648	100,408	-0,398	-0,325
24,663	19,268	-0,430	-0,242
25,677	92,958	-0,338	-0,268
26,692	63,331	-0,408	-0,288
27,707	34,366	-0,439	-0,269
28,721	76,380	-0,368	-0,274
29,736	19,178	-0,425	-0,239
30,750	71,140	-0,429	-0,313
31,765	70,133	-0,347	-0,252
32,780	222,295	-0,273	-0,309
33,794	92,013	-0,335	-0,265
34,809	51,066	-0,344	-0,229
35,823	0,435	-0,457	-0,229
36,838	31,436	-0,428	-0,258
37,853	18,902	-0,408	-0,229
38,867	-19,389	-0,388	-0,168
39,882	129,608	-0,359	-0,323
40,896	64,318	-0,299	-0,211
41,911	-3,076	-0,294	-0,144
42,926	133,603	-0,332	-0,302
43,940	43,208	-0,389	-0,249
44,955	44,194	-0,424	-0,273
45,969	159,527	-0,256	-0,250
46,984	142,241	-0,424	-0,395
47,999	121,690	-0,433	-0,379
49,013	-17,790	-0,352	-0,154
50,028	69,388	-0,281	-0,203
51,042	100,629	-0,310	-0,253
52,057	101,612	-0,340	-0,278
53,071	95,635	-0,252	-0,202
54,086	535,994	-0,197	-0,329
55,101	25,494	-0,237	-0,138
56,115	76,841	-0,335	-0,249
57,130	-23,429	-0,409	-0,172
58,144	-12,064	-0,351	-0,161
59,159	307,162	-0,271	-0,355
60,174	289,523	-0,204	-0,260
61,188	57,327	-0,358	-0,245
62,203	-20,626	-0,359	-0,154
63,217	-55,493	-0,316	-0,099
64,232	33,648	-0,275	-0,168
65,247	60,647	-0,264	-0,183
66,261	149,078	-0,377	-0,358
67,276	133,007	-0,448	-0,406
68,290	111,601	-0,349	-0,295
69,305	189,448	-0,281	-0,296
70,320	-89,820	-0,332	-0,067
71,334	97,861	-0,259	-0,209
72,349	162,096	-0,273	-0,269
73,363	-70,444	-0,306	-0,081
74,378	35,168	-0,389	-0,238
75,393	14,444	-0,434	-0,237
76,407	136,712	-0,195	-0,178
77,422	78,629	-0,288	-0,215
78,436	-41,189	-0,300	-0,108
79,451	-38,062	-0,430	-0,159
80,466	78,211	-0,251	-0,188
81,480	202,774	-0,378	-0,409
82,495	83,917	-0,343	-0,262
83,509	49,045	-0,326	-0,214
84,524	160,867	-0,268	-0,262
85,539	363,096	-0,211	-0,298
86,553	375,423	-0,257	-0,368
87,568	18,963	-0,283	-0,159
88,582	36,194	-0,332	-0,204
89,597	89,194	-0,231	-0,180
90,611	235,946	-0,164	-0,190
91,626	92,204	-0,277	-0,218
92,641	180,977	-0,255	-0,263
93,655	-28,912	-0,309	-0,124
94,670	146,234	-0,358	-0,336
95,684	257,987	-0,327	-0,395
96,699	232,050	-0,222	-0,255
97,714	87,468	-0,226	-0,175
98,728	280,102	-0,158	-0,198
99,743	-7,232	-0,294	-0,139
100,757	-169,054	-0,185	-0,005
101,772	74,595	-0,280	-0,206
102,787	107,658	-0,321	-0,267
103,801	67,794	-0,298	-0,213
104,816	-103,145	-0,326	-0,053
105,830	296,871	-0,203	-0,261
106,845	-5,908	-0,312	-0,149
107,860	303,780	-0,205	-0,267
108,874	204,317	-0,239	-0,259
109,889	100,289	-0,284	-0,230
110,903	-15,387	-0,240	-0,107
111,918	99,470	-0,274	-0,221
112,933	167,682	-0,231	-0,230
113,947	-79,640	-0,288	-0,067
114,962	800,000	-0,099	-0,263
115,976	109,379	-0,262	-0,219
116,991	-3,437	-0,185	-0,090
118,006	362,413	-0,181	-0,254
119,020	38,965	-0,220	-0,137
120,035	-75,931	-0,177	-0,043
121,049	36,187	-0,260	-0,160
122,064	471,578	-0,133	-0,210
123,079	37,187	-0,149	-0,092
124,093	0,621	-0,239	-0,119
125,108	-43,355	-0,289	-0,101
126,122	-84,198	-0,253	-0,056
127,137	-122,810	-0,384	-0,043
128,151	230,388	-0,165	-0,189
129,166	-141,315	-0,204	-0,014
130,181	-60,152	-0,280	-0,083
131,195	-67,814	-0,273	-0,074
132,210	50,251	-0,421	-0,277
133,224	69,915	-0,200	-0,144
134,239	1,330	-0,340	-0,170
135,254	61,971	-0,345	-0,239
136,268	-59,891	-0,149	-0,044
137,283	-39,849	-0,237	-0,086
138,297	130,623	-0,227	-0,203
139,312	-65,257	-0,448	-0,125
140,327	-25,819	-0,377	-0,154
141,341	96,828	-0,251	-0,200
142,356	72,153	-0,301	-0,218
143,370	24,690	-0,282	-0,162
144,385	47,218	-0,191	-0,124
145,400	137,599	-0,268	-0,245
146,414	20,364	-0,355	-0,199
147,429	59,532	-0,295	-0,202
148,443	103,714	-0,181	-0,148
149,458	800,000	-0,128	-0,280
150,473	273,614	-0,206	-0,255
151,487	26,654	-0,328	-0,191
152,502	2,032	-0,225	-0,113
153,516	745,069	-0,132	-0,249
154,531	299,688	-0,196	-0,252
155,546	47,386	-0,300	-0,194
156,560	70,231	-0,205	-0,148
157,575	66,264	-0,254	-0,180
158,589	83,011	-0,200	-0,151
159,604	-12,027	-0,224	-0,102
160,619	94,135	-0,290	-0,229
161,633	-72,674	-0,228	-0,058
162,648	-30,192	-0,201	-0,079
163,662	116,835	-0,182	-0,156
164,677	-42,472	-0,243	0,086
165,692	-182,384	-0,247	-0,003
166,706	137,926	-0,195	-0,178
167,721	35,828	-0,200	-0,122
168,735	-175,460	-0,267	0,005
169,750	45,790	-0,220	-0,141
170,764	-15,665	-0,252	-0,111
171,779	-115,037	-0,183	-0,024
172,794	284,957	-0,170	-0,213
173,808	-7,430	-0,176	-0,083
174,823	6,086	-0,291	-0,149
175,837	86,783	-0,186	-0,142
176,852	156,042	-0,226	-0,217
177,867	-159,350	-0,207	0,008
178,881	33,072	-0,202	-0,121
179,896	-122,159	-0,215	-0,024
180,910	24,846	-0,215	-0,123
181,925	693,755	-0,141	-0,259
182,940	43,326	-0,343	-0,217
183,954	-17,761	-0,189	-0,082
184,969	110,713	-0,196	-0,164
185,983	-103,271	-0,116	-0,019
186,998	-52,805	-0,180	-0,057
188,013	800,000	-0,057	-0,110
189,027	-13,052	-0,298	-0,134
190,042	-134,397	-0,194	-0,016
191,056	16,843	-0,279	-0,153
192,071	-12,458	-0,194	-0,088
193,086	-39,463	-0,285	-0,103
194,100	-44,029	-0,244	-0,085
195,115	47,220	-0,135	-0,087
196,129	800,000	-0,126	-0,304
197,144	-200,000	-0,045	-0,225
198,159	85,745	-0,243	-0,185
199,173	-31,876	-0,215	-0,083
200,188	242,588	-0,092	-0,107
201,202	196,571	-0,174	-0,183
202,217	-200,000	-0,052	-0,202
203,232	100,762	-0,167	-0,135
204,246	67,808	-0,237	-0,168
205,261	-82,507	-0,126	-0,028
206,275	153,467	-0,165	-0,157
207,290	-22,281	-0,208	-0,087
208,304	43,744	-0,093	-0,059
209,319	800,000	-0,081	-0,181
210,334	479,994	-0,147	-0,231
211,348	41,702	-0,279	-0,175
212,363	409,291	-0,157	-0,231
213,377	152,166	-0,146	-0,138
214,392	157,807	-0,201	-0,192
215,407	222,197	-0,179	-0,200
216,421	-11,426	-0,264	-0,120
217,436	-9,247	-0,170	-0,079
218,450	-158,440	-0,293	-0,012
219,465	288,743	-0,152	-0,191
220,480	-82,628	-0,166	-0,037
221,494	-41,609	-0,099	-0,035
222,509	463,240	-0,105	-0,162
223,523	-20,780	-0,224	-0,095
224,538	191,517	-0,141	-0,147
225,553	23,516	-0,183	-0,104
226,567	17,644	-0,189	-0,104
227,582	137,601	-0,183	-0,166
228,596	800,000	-0,022	-0,060
229,611	143,654	-0,214	-0,198
230,626	-115,604	-0,201	0,026
231,640	-200,000	-0,053	-0,203
232,655	800,000	-0,107	-0,205
233,669	-73,018	-0,189	-0,048
234,684	233,733	-0,086	-0,098
235,699	44,319	-0,215	-0,136
236,713	-8,076	-0,038	0,017
237,728	800,000	-0,022	-0,057
238,742	-44,667	-0,252	-0,086
239,757	337,238	-0,101	-0,135
240,772	81,045	-0,172	-0,128
241,786	-81,609	-0,188	-0,042
242,801	177,637	-0,149	-0,150
243,815	-98,077	-0,159	-0,028
244,830	161,597	-0,176	-0,170
245,844	66,175	-0,162	-0,113
246,859	-0,258	-0,161	0,079
247,874	-46,589	-0,255	-0,086
248,888	136,539	-0,132	-0,119
249,903	529,249	-0,137	-0,223
250,917	-37,740	-0,187	-0,069
251,932	-107,543	-0,228	-0,034
252,947	2,143	-0,169	-0,084
253,961	-35,787	-0,129	-0,048
254,976	-115,157	-0,306	0,040
255,990	251,105	-0,204	-0,240
257,005	141,157	-0,163	-0,149
258,020	800,000	-0,063	-0,149
259,034	-104,909	-0,240	-0,038
260,049	311,363	-0,062	-0,080
261,063	800,000	-0,118	-0,290
262,078	-200,000	-0,046	-0,165
263,093	-33,554	-0,190	-0,072
264,107	-63,553	-0,166	-0,047
265,122	-200,000	-0,055	-0,200
266,136	-137,922	-0,181	-0,014
267,151	-200,000	-0,053	-0,221
268,166	386,807	-0,066	-0,094
269,180	185,803	-0,208	-0,213
270,195	-9,621	-0,177	-0,081
271,209	105,741	-0,191	-0,156
272,224	12,957	-0,201	-0,107
273,239	-200,000	-0,014	-0,089
274,253	-55,140	-0,116	-0,036
275,268	211,786	-0,219	-0,238
276,282	33,252	-0,140	-0,083
277,297	-134,404	-0,157	0,013
278,312	551,382	-0,080	-0,133
279,326	-72,050	-0,192	-0,049
280,341	282,838	-0,044	-0,054
281,355	-36,635	-0,157	-0,058
282,370	62,430	-0,127	-0,087
283,384	55,065	-0,110	-0,073
284,399	-120,207	-0,069	0,008
285,414	119,075	-0,161	-0,137
286,428	-200,000	-0,072	-0,225
287,443	-163,822	-0,245	-0,008
288,457	324,419	-0,092	-0,121
289,472	66,689	-0,136	-0,095
290,487	-29,765	-0,168	-0,066
291,501	-64,100	-0,239	-0,067
292,516	67,978	-0,274	-0,193
293,530	39,830	-0,142	-0,088
294,545	-145,476	-0,163	0,010
295,560	-69,778	-0,074	-0,019
296,574	-111,756	-0,235	-0,032
297,589	-162,938	-0,159	0,005
298,603	133,195	-0,146	-0,130
299,618	-3,699	-0,127	-0,060
300,633	-128,713	-0,163	-0,016
301,647	505,646	-0,026	-0,042
302,662	132,866	-0,129	-0,114
303,676	20,308	-0,238	-0,131
304,691	800,000	-0,050	-0,133
305,706	120,623	-0,258	-0,220
306,720	-38,406	-0,258	-0,093
307,735	73,901	-0,086	-0,062
308,749	-18,000	-0,216	-0,092
309,764	-28,416	-0,059	0,023
310,779	223,681	-0,077	-0,085
311,793	83,628	-0,186	-0,139
312,808	401,914	-0,118	-0,171
313,822	-200,000	-0,042	-0,239
314,837	-200,000	-0,020	-0,225
315,852	2,146	-0,163	-0,081
316,866	-66,386	-0,073	-0,020
317,881	-200,000	-0,009	0,039
318,895	59,076	-0,141	-0,095
319,910	800,000	-0,063	-0,165
320,925	379,333	-0,135	-0,191
321,939	-1,147	-0,155	-0,075
322,954	800,000	-0,074	-0,163
323,968	56,181	-0,010	-0,006
324,983	636,335	-0,062	-0,108
325,997	67,033	-0,168	-0,117
327,012	269,480	-0,160	-0,193
328,027	-14,815	-0,171	-0,075
329,041	800,000	-0,132	-0,251
330,056	159,137	-0,176	-0,168
331,070	11,073	-0,086	-0,045
332,085	408,527	-0,114	-0,165
333,100	-60,047	-0,141	-0,041
334,114	-98,181	-0,126	0,022
335,129	168,217	-0,187	-0,182
336,143	800,000	-0,055	-0,158
337,158	-200,000	0,014	-0,176
338,173	217,139	-0,050	-0,054
339,187	79,458	-0,106	-0,078
340,202	114,239	-0,153	-0,127
341,216	-14,376	-0,278	-0,122
342,231	117,915	-0,199	-0,168
343,246	800,000	-0,114	-0,227
344,260	411,262	-0,048	-0,070
345,275	-37,086	-0,129	0,047
346,289	-71,949	-0,135	0,034
347,304	800,000	-0,073	-0,164
348,319	-22,604	-0,025	0,010
349,333	-125,153	-0,143	0,015
350,348	-134,587	-0,147	0,012
351,362	-123,380	-0,068	0,007
352,377	-166,895	-0,099	0,003
353,392	-51,144	-0,121	-0,039
354,406	238,782	-0,089	-0,102
355,421	207,486	1307,292	1396,974
356,435	159,617	1467,079	1397,455
