DTS Sentinel unit serial number:	SN410029Multiplexer serial number:	ORYXHardware model number:	OX2-SRSoftware version number:	ORYX F/W v4,00 Oryx Data Collector v3.7.2.0data status	okinstallation	B3 Nyhavnadifferential loss correction	single-endedforward channel	channel 1reverse channel	N/Adate	2023/11/30time	00:52:30forward acquisition time	300,00reverse acquisition time	0,00gamma	499,1914k internal	0,3209k external	0,3209temperature offset calibration	1,0000default loss term (dB/km)	0,3820temperature slope calibration	1,0000multiplexer offset coefficient	1,0000multiplexer slope coefficient	1,0000fibre end	0,00T internal ref (°C)	10,75T ext. ref 1 (°C)	-4,68T ext. ref 2 (°C)	-4,79length (m)	temperature (°C)	Stokes	anti-Stokes-744,400	800,000	-0,112	-0,254
-743,385	-200,000	0,026	0,208
-742,371	280,751	-0,228	-0,297
-741,356	-200,000	-0,086	0,427
-740,342	203,685	-0,206	-0,231
-739,327	-200,000	0,035	0,186
-738,312	767,388	-0,091	-0,180
-737,298	800,000	-0,064	0,179
-736,283	406,918	-0,234	-0,359
-735,269	800,000	-0,078	0,248
-734,254	-200,000	-0,060	-0,236
-733,239	-133,682	-0,200	-0,018
-732,225	329,329	-0,155	-0,217
-731,210	130,379	0,043	0,040
-730,196	713,271	-0,010	0,020
-729,181	-143,379	-0,079	0,005
-728,167	800,000	-0,075	-0,192
-727,152	800,000	0,075	-0,162
-726,137	-73,857	-0,236	0,062
-725,123	25,698	0,044	0,026
-724,108	-200,000	-0,021	-0,149
-723,094	-154,145	-0,152	0,007
-722,079	100,704	-0,130	-0,110
-721,064	-99,509	-0,058	0,011
-720,050	800,000	-0,085	-0,193
-719,035	232,166	0,097	-0,115
-718,021	-18,211	-0,166	-0,075
-717,006	122,501	-0,116	0,105
-715,991	-15,739	0,155	-0,071
-714,977	-129,326	-0,165	0,016
-713,962	165,132	-0,040	0,041
-712,948	440,336	0,040	0,064
-711,933	15,776	0,172	0,097
-710,918	-200,000	0,003	0,145
-709,904	-9,866	-0,097	-0,046
-708,889	223,102	0,014	0,016
-707,875	-28,757	-0,137	-0,057
-706,860	-72,944	-0,035	0,009
-705,845	-119,048	0,117	-0,015
-704,831	79,795	0,018	0,014
-703,816	-115,775	-0,045	-0,006
-702,802	34,915	-0,092	0,058
-701,787	-92,844	0,035	-0,007
-700,772	-21,926	-0,139	-0,061
-699,758	-200,000	-0,007	0,101
-698,743	-120,325	-0,025	0,003
-697,729	800,000	0,022	0,053
-696,714	-200,000	0,020	0,107
-695,699	50,524	0,086	0,059
-694,685	-153,719	-0,093	-0,005
-693,670	-65,374	0,051	0,015
-692,656	-122,624	-0,074	0,009
-691,641	389,973	0,065	-0,097
-690,627	344,796	-0,074	0,105
-689,612	-117,938	-0,036	-0,005
-688,597	595,795	-0,084	0,150
-687,583	18,444	-0,099	-0,057
-686,568	150,126	-0,141	-0,138
-685,554	17,560	-0,147	-0,084
-684,539	-200,000	0,012	-0,124
-683,524	456,234	-0,035	0,056
-682,510	-200,000	-0,002	0,062
-681,495	749,721	-0,062	-0,121
-680,481	-74,603	-0,116	0,030
-679,466	156,964	-0,065	-0,065
-678,451	43,195	-0,128	0,084
-677,437	-1,604	-0,051	-0,026
-676,422	-36,591	-0,070	0,027
-675,408	800,000	0,016	0,046
-674,393	-74,059	0,106	-0,028
-673,378	-200,000	-0,008	0,107
-672,364	261,242	-0,099	-0,124
-671,349	-200,000	-0,009	-0,065
-670,335	-200,000	0,024	-0,088
-669,320	-98,712	-0,045	-0,008
-668,305	-6,906	0,072	0,035
-667,291	-97,365	-0,071	0,013
-666,276	-200,000	0,007	-0,135
-665,262	-200,000	-0,022	-0,229
-664,247	-76,428	-0,119	0,030
-663,232	-109,214	0,115	-0,017
-662,218	-77,183	0,124	0,031
-661,203	-102,235	0,127	0,022
-660,189	-200,000	-0,005	-0,019
-659,174	-65,860	0,077	0,022
-658,159	-47,582	-0,094	0,033
-657,145	511,772	-0,053	-0,090
-656,130	-200,000	0,009	-0,037
-655,116	102,441	0,030	0,025
-654,101	-5,544	0,098	0,048
-653,086	800,000	-0,024	0,071
-652,072	-100,590	-0,070	-0,012
-651,057	-31,821	-0,107	0,043
-650,043	44,534	0,098	-0,065
-649,028	-52,839	-0,140	-0,046
-648,014	-200,000	-0,012	0,099
-646,999	766,493	0,028	0,056
-645,984	-200,000	-0,011	0,225
-644,970	127,972	-0,150	0,137
-643,955	-10,426	-0,082	0,039
-642,941	155,998	-0,050	-0,050
-641,926	-143,760	-0,099	0,007
-640,911	-200,000	-0,013	0,109
-639,897	-200,000	-0,016	0,121
-638,882	-81,345	0,054	-0,013
-637,868	-90,836	-0,049	0,010
-636,853	-86,128	-0,101	0,022
-635,838	105,711	0,067	-0,057
-634,824	-200,000	-0,028	-0,089
-633,809	195,823	-0,055	-0,061
-632,795	60,869	0,085	-0,061
-631,780	230,139	0,044	-0,052
-630,765	-200,000	0,037	-0,170
-629,751	51,569	-0,027	-0,018
-628,736	103,170	-0,071	-0,060
-627,722	-200,000	0,007	-0,052
-626,707	-200,000	0,026	0,087
-625,692	-200,000	-0,011	0,040
-624,678	-163,222	-0,079	0,003
-623,663	5,179	0,058	-0,031
-622,649	-109,182	-0,109	0,017
-621,634	83,060	-0,027	0,021
-620,619	625,332	-0,029	0,054
-619,605	-24,628	0,118	0,050
-618,590	-137,700	0,110	0,009
-617,576	-200,000	-0,011	0,044
-616,561	-20,440	-0,008	-0,003
-615,546	103,909	-0,086	-0,073
-614,532	-200,000	-0,037	-0,159
-613,517	-200,000	0,009	-0,077
-612,503	33,363	0,060	-0,037
-611,488	19,759	0,046	-0,027
-610,474	-200,000	0,038	0,170
-609,459	-155,339	-0,128	0,006
-608,444	-200,000	0,002	0,030
-607,430	-64,365	-0,104	0,030
-606,415	-73,020	0,072	-0,019
-605,401	-200,000	-0,000	-0,008
-604,386	800,000	0,040	0,102
-603,371	-200,000	-0,007	-0,089
-602,357	800,000	0,041	-0,109
-601,342	-5,101	-0,024	-0,012
-600,328	179,099	-0,126	-0,133
-599,313	290,201	0,058	-0,076
-598,298	-138,297	-0,123	-0,010
-597,284	-41,910	0,030	-0,011
-596,269	-36,939	0,104	-0,040
-595,255	78,896	-0,123	0,095
-594,240	230,281	0,029	-0,034
-593,225	800,000	0,059	0,129
-592,211	6,573	-0,065	0,035
-591,196	800,000	0,019	-0,051
-590,182	-69,460	-0,076	0,021
-589,167	-200,000	0,030	0,142
-588,152	-6,793	-0,049	0,024
-587,138	-86,191	-0,102	-0,022
-586,123	299,016	0,051	-0,067
-585,109	43,845	-0,109	0,072
-584,094	-200,000	-0,030	-0,116
-583,079	-200,000	0,027	0,132
-582,065	-178,341	0,094	-0,002
-581,050	406,535	-0,130	-0,198
-580,036	-86,508	0,063	0,014
-579,021	296,679	-0,049	0,065
-578,006	-37,568	-0,125	-0,048
-576,992	-27,693	0,059	-0,025
-575,977	398,291	0,074	0,112
-574,963	-200,000	-0,012	0,039
-573,948	800,000	-0,023	-0,047
-572,934	-36,589	-0,072	0,028
-571,919	-68,918	-0,043	-0,012
-570,904	800,000	-0,033	0,068
-569,890	-200,000	-0,002	0,038
-568,875	661,854	0,039	0,074
-567,861	-77,347	0,239	0,059
-566,846	-33,609	-0,090	-0,036
-565,831	502,966	0,027	0,046
-564,817	66,824	-0,051	0,038
-563,802	308,348	-0,084	-0,113
-562,788	174,877	0,012	0,012
-561,773	-55,038	-0,068	0,022
-560,758	40,842	0,042	0,027
-559,744	457,957	-0,040	0,064
-558,729	-200,000	-0,025	0,118
-557,715	-200,000	0,010	0,062
-556,700	-200,000	0,017	-0,097
-555,685	327,084	-0,051	-0,071
-554,671	-200,000	0,005	0,095
-553,656	115,548	0,079	0,069
-552,642	-200,000	0,003	0,067
-551,627	800,000	0,023	0,069
-550,612	800,000	-0,027	0,076
-549,598	-85,212	0,100	0,022
-548,583	196,324	-0,037	0,041
-547,569	800,000	0,082	-0,183
-546,554	13,856	0,069	0,039
-545,539	56,718	-0,073	0,051
-544,525	-200,000	-0,014	-0,112
-543,510	-200,000	-0,018	-0,113
-542,496	378,107	0,010	-0,015
-541,481	62,231	-0,064	-0,046
-540,466	58,983	0,030	-0,022
-539,452	-85,495	-0,065	-0,014
-538,437	-200,000	0,002	-0,067
-537,423	625,005	0,039	0,071
-536,408	-200,000	-0,033	-0,137
-535,393	-94,655	-0,036	-0,007
-534,379	-6,626	-0,088	-0,043
-533,364	83,971	-0,082	-0,064
-532,350	727,222	-0,036	-0,069
-531,335	-175,147	0,120	0,002
-530,321	800,000	-0,030	-0,079
-529,306	800,000	-0,047	-0,098
-528,291	-18,744	-0,073	-0,033
-527,277	-73,460	0,083	-0,022
-526,262	-200,000	0,010	-0,079
-525,248	670,670	0,060	-0,112
-524,233	283,611	0,065	0,085
-523,218	7,759	-0,057	-0,030
-522,204	140,373	-0,089	-0,085
-521,189	-119,201	-0,109	0,013
-520,175	210,863	0,070	-0,079
-519,160	237,605	-0,043	0,052
-518,145	369,951	-0,080	-0,118
-517,131	800,000	-0,012	-0,024
-516,116	-200,000	-0,033	0,155
-515,102	54,087	0,099	-0,068
-514,087	800,000	-0,023	0,067
-513,072	423,572	-0,025	-0,039
-512,058	800,000	-0,048	-0,115
-511,043	-49,206	0,116	-0,040
-510,029	4,569	0,112	-0,059
-509,014	499,274	-0,071	0,118
-507,999	104,371	0,080	-0,067
-506,985	-108,508	-0,179	-0,027
-505,970	271,645	0,048	-0,061
-504,956	34,846	0,076	-0,048
-503,941	139,463	0,088	-0,083
-502,926	107,150	-0,108	0,092
-501,912	258,630	-0,040	0,049
-500,897	9,113	0,036	0,019
-499,883	87,010	0,143	0,114
-498,868	800,000	0,020	-0,042
-497,853	179,516	-0,058	0,062
-496,839	128,823	-0,044	0,040
-495,824	-56,552	-0,101	0,032
-494,810	-200,000	0,004	-0,067
-493,795	800,000	0,043	-0,091
-492,781	-72,867	-0,025	0,006
-491,766	-200,000	0,004	-0,234
-490,751	183,593	0,122	-0,129
-489,737	-200,000	-0,033	-0,205
-488,722	800,000	-0,045	0,131
-487,708	0,442	-0,058	0,030
-486,693	216,394	-0,138	0,157
-485,678	-53,469	0,176	-0,058
-484,664	279,585	-0,030	0,038
-483,649	-167,430	0,026	0,001
-482,635	800,000	-0,020	0,052
-481,620	-200,000	0,008	0,090
-480,605	-91,352	0,081	-0,016
-479,591	57,790	0,058	-0,041
-478,576	800,000	-0,024	-0,061
-477,562	-200,000	-0,016	-0,075
-476,547	-72,942	-0,039	0,010
-475,532	-200,000	-0,041	0,177
-474,518	223,422	0,040	-0,046
-473,503	-200,000	-0,018	0,092
-472,489	43,682	0,109	0,071
-471,474	564,655	0,045	0,078
-470,459	-122,332	-0,135	0,016
-469,445	7,713	-0,065	0,035
-468,430	482,666	0,020	-0,033
-467,416	98,491	0,102	-0,084
-466,401	188,335	0,082	0,088
-465,386	-19,415	-0,084	-0,037
-464,372	-200,000	-0,038	0,132
-463,357	543,069	0,046	-0,079
-462,343	800,000	0,034	-0,070
-461,328	-25,943	0,067	0,028
-460,313	25,224	0,045	-0,027
-459,299	321,192	0,069	0,094
-458,284	-45,159	0,138	0,049
-457,270	-35,518	0,023	-0,009
-456,255	186,572	0,013	0,014
-455,241	-143,894	-0,064	0,004
-454,226	-200,000	0,011	-0,109
-453,211	47,371	0,080	-0,053
-452,197	-200,000	-0,005	0,037
-451,182	72,170	0,052	-0,039
-450,168	-119,354	-0,060	-0,007
-449,153	478,300	-0,025	0,041
-448,138	800,000	0,018	-0,053
-447,124	-92,684	-0,012	-0,002
-446,109	-62,147	-0,052	-0,015
-445,095	-77,336	0,160	-0,039
-444,080	-70,391	0,076	0,020
-443,065	138,083	-0,039	0,036
-442,051	603,804	0,035	-0,063
-441,036	-96,051	-0,028	0,005
-440,022	-99,864	-0,086	0,015
-439,007	16,719	0,059	-0,033
-437,992	-105,852	0,018	-0,003
-436,978	-24,340	0,303	-0,129
-435,963	94,118	-0,170	0,138
-434,949	-74,569	-0,049	-0,013
-433,934	800,000	-0,043	-0,117
-432,919	-37,904	-0,072	0,027
-431,905	364,075	-0,037	0,054
-430,890	-25,903	0,017	0,007
-429,876	-200,000	-0,014	-0,075
-428,861	27,331	0,139	-0,083
-427,846	-10,002	0,093	0,044
-426,832	-123,984	-0,273	-0,030
-425,817	162,611	-0,081	-0,082
-424,803	-42,995	-0,045	0,016
-423,788	-200,000	0,022	-0,073
-422,773	693,430	-0,073	0,138
-421,759	-200,000	-0,021	0,146
-420,744	95,265	-0,110	0,090
-419,730	-200,000	-0,014	-0,068
-418,715	741,966	0,045	-0,087
-417,701	-200,000	0,002	0,068
-416,686	-200,000	0,029	0,134
-415,671	16,246	0,017	0,010
-414,657	-200,000	0,000	-0,011
-413,642	349,871	0,058	0,082
-412,628	577,204	0,068	-0,120
-411,613	10,457	-0,032	0,017
-410,598	-200,000	0,024	0,128
-409,584	3,360	0,093	0,049
-408,569	575,873	0,039	-0,069
-407,555	216,440	0,036	0,041
-406,540	475,005	-0,052	0,084
-405,525	-200,000	-0,009	-0,047
-404,511	49,845	0,080	-0,054
-403,496	154,626	-0,016	-0,016
-402,482	27,091	0,078	0,047
-401,467	-76,703	-0,124	0,031
-400,452	6,930	0,149	0,079
-399,438	-21,490	-0,103	0,045
-398,423	-198,357	-0,073	0,000
-397,409	-200,000	0,013	-0,133
-396,394	-74,788	-0,041	0,010
-395,379	800,000	-0,028	-0,077
-394,365	-200,000	-0,003	0,043
-393,350	601,417	0,122	0,218
-392,336	58,645	-0,068	0,048
-391,321	39,725	0,055	-0,035
-390,306	-200,000	-0,002	0,020
-389,292	-110,814	-0,026	-0,004
-388,277	-36,806	0,052	-0,020
-387,263	-79,103	0,038	0,009
-386,248	38,983	-0,053	0,034
-385,233	-73,631	0,045	0,012
-384,219	800,000	0,025	-0,059
-383,204	-200,000	0,031	-0,106
-382,190	800,000	0,011	-0,022
-381,175	-98,078	0,107	-0,019
-380,160	171,017	-0,118	0,121
-379,146	35,301	-0,020	0,012
-378,131	-200,000	0,004	0,058
-377,117	621,584	0,015	-0,027
-376,102	234,085	0,038	-0,045
-375,088	-57,462	-0,121	-0,038
-374,073	79,059	0,084	0,064
-373,058	799,318	0,076	0,151
-372,044	271,464	0,063	-0,079
-371,029	471,458	0,086	0,138
-370,015	800,000	-0,041	0,088
-369,000	-28,891	0,098	0,040
-367,985	19,411	-0,058	0,033
-366,971	-65,580	0,050	-0,014
-365,956	774,459	0,025	0,048
-364,942	54,126	-0,124	-0,085
-363,927	-200,000	0,022	0,074
-362,912	-100,871	-0,080	-0,014
-361,898	-73,164	0,041	-0,011
-360,883	800,000	-0,070	-0,146
-359,869	233,944	0,014	0,016
-358,854	-0,411	0,038	0,019
-357,839	-32,089	-0,112	0,045
-356,825	76,094	0,061	-0,046
-355,810	-200,000	-0,017	0,059
-354,796	-200,000	0,008	-0,042
-353,781	-200,000	-0,025	-0,096
-352,766	800,000	0,025	0,076
-351,752	437,658	-0,056	-0,088
-350,737	-200,000	0,005	-0,023
-349,723	681,412	0,039	0,073
-348,708	800,000	-0,025	0,051
-347,693	112,033	-0,070	-0,060
-346,679	-86,642	0,114	0,025
-345,664	-200,000	-0,021	-0,078
-344,650	-79,562	-0,035	0,008
-343,635	-200,000	0,013	0,062
-342,620	411,139	0,034	-0,052
-341,606	571,211	0,049	0,085
-340,591	57,012	-0,114	0,079
-339,577	231,888	-0,032	-0,038
-338,562	-179,113	0,099	-0,002
-337,548	-200,000	-0,003	0,071
-336,533	-6,410	0,079	-0,038
-335,518	237,399	0,143	-0,170
-334,504	-200,000	0,066	0,274
-333,489	800,000	-0,035	-0,073
-332,475	475,273	-0,088	-0,142
-331,460	138,951	0,063	-0,059
-330,445	125,050	0,138	-0,124
-329,431	45,973	-0,060	-0,039
-328,416	-54,852	0,096	0,031
-327,402	259,281	-0,058	0,071
-326,387	90,877	0,100	-0,080
-325,372	634,224	0,047	-0,085
-324,358	427,935	-0,018	0,028
-323,343	-56,642	-0,114	-0,036
-322,329	76,770	0,071	0,054
-321,314	-200,000	-0,007	0,153
-320,299	-200,000	-0,019	0,152
-319,285	441,060	0,019	0,030
-318,270	785,000	-0,060	-0,117
-317,256	-200,000	-0,005	-0,038
-316,241	-200,000	0,000	-0,046
-315,226	-90,780	0,058	0,012
-314,212	-200,000	-0,035	0,153
-313,197	117,641	0,068	0,060
-312,183	-141,483	0,021	0,001
-311,168	-200,000	0,007	0,044
-310,153	118,107	-0,101	-0,089
-309,139	393,577	0,057	-0,085
-308,124	-200,000	-0,002	0,088
-307,110	-200,000	0,025	0,164
-306,095	-52,828	-0,024	0,008
-305,080	-200,000	-0,017	-0,070
-304,066	258,356	-0,015	0,018
-303,051	522,912	-0,082	-0,138
-302,037	66,418	-0,121	-0,088
-301,022	110,594	0,089	0,076
-300,008	-121,684	-0,120	0,014
-298,993	800,000	0,028	0,071
-297,978	255,027	0,017	-0,021
-296,964	-10,431	-0,141	-0,066
-295,949	291,372	0,108	-0,140
-294,935	258,967	-0,024	0,030
-293,920	800,000	0,022	-0,059
-292,905	-200,000	0,012	-0,039
-291,891	-122,177	0,092	0,011
-290,876	-5,316	0,091	-0,045
-289,862	-31,852	-0,068	0,027
-288,847	644,066	0,056	-0,103
-287,832	15,844	-0,085	0,047
-286,818	800,000	-0,072	0,180
-285,803	463,299	0,058	0,093
-284,789	-107,667	0,125	0,019
-283,774	87,315	0,018	0,014
-282,759	-14,289	0,031	0,014
-281,745	468,997	0,045	-0,073
-280,730	383,934	-0,022	-0,032
-279,716	-184,088	-0,035	0,000
-278,701	800,000	0,026	-0,069
-277,686	634,704	-0,091	0,166
-276,672	326,714	0,053	0,072
-275,657	800,000	0,011	-0,022
-274,643	57,106	-0,167	-0,116
-273,628	-200,000	-0,017	-0,059
-272,613	27,907	0,049	-0,029
-271,599	115,788	-0,134	0,117
-270,584	800,000	-0,040	0,109
-269,570	105,890	0,076	0,064
-268,555	103,644	-0,154	-0,129
-267,540	800,000	-0,017	0,035
-266,526	226,028	0,116	-0,134
-265,511	11,563	-0,062	-0,034
-264,497	234,236	-0,082	0,097
-263,482	-94,416	0,085	0,016
-262,467	-200,000	-0,023	0,125
-261,453	0,145	0,167	-0,085
-260,438	-200,000	0,020	0,102
-259,424	-200,000	0,010	-0,059
-258,409	-200,000	0,012	-0,065
-257,395	500,977	0,060	-0,099
-256,380	800,000	-0,011	0,035
-255,365	-64,273	0,149	0,043
-254,351	259,074	0,101	0,124
-253,336	129,209	0,034	0,031
-252,322	-139,975	-0,151	0,011
-251,307	-14,475	-0,154	-0,070
-250,292	-200,000	0,023	0,109
-249,278	-71,402	0,055	-0,015
-248,263	-168,193	0,107	0,003
-247,249	90,052	-0,025	0,020
-246,234	800,000	-0,013	0,037
-245,219	17,246	0,115	0,065
-244,205	653,696	-0,053	-0,098
-243,190	179,413	-0,064	0,067
-242,176	-200,000	-0,051	-0,186
-241,161	-136,269	-0,028	-0,002
-240,146	-200,000	-0,012	-0,051
-239,132	549,938	-0,029	-0,049
-238,117	122,866	-0,027	0,024
-237,103	44,503	-0,067	-0,043
-236,088	800,000	0,019	-0,047
-235,073	800,000	-0,057	0,118
-234,059	387,274	-0,037	0,055
-233,044	800,000	-0,041	-0,097
-232,030	141,976	-0,041	-0,039
-231,015	491,713	-0,051	0,083
-230,000	438,823	0,035	-0,054
-228,986	80,026	-0,076	0,058
-227,971	74,026	0,126	0,094
-226,957	98,047	0,013	0,010
-225,942	-200,000	-0,021	0,101
-224,927	102,236	-0,058	-0,048
-223,913	429,955	-0,055	-0,084
-222,898	26,244	0,032	-0,019
-221,884	-116,599	-0,048	-0,006
-220,869	96,685	0,010	-0,008
-219,855	-200,000	0,023	-0,103
-218,840	111,711	0,082	0,070
-217,825	-45,472	0,062	0,022
-216,811	-200,000	-0,019	0,084
-215,796	438,857	0,023	-0,035
-214,782	800,000	-0,031	-0,091
-213,767	215,012	0,119	-0,134
-212,752	24,081	-0,127	0,074
-211,738	-11,966	0,141	-0,065
-210,723	-200,000	-0,012	0,053
-209,709	-32,482	0,138	0,054
-208,694	-13,565	0,118	-0,054
-207,679	-200,000	-0,007	-0,106
-206,665	800,000	-0,090	-0,216
-205,650	800,000	0,051	-0,103
-204,636	-200,000	-0,035	0,134
-203,621	-57,997	-0,059	-0,018
-202,606	255,508	-0,049	0,059
-201,592	226,487	0,090	0,104
-200,577	-200,000	0,024	-0,082
-199,563	102,578	0,029	0,024
-198,548	-144,644	0,140	0,009
-197,533	146,477	0,118	0,113
-196,519	-200,000	0,012	0,077
-195,504	-200,000	-0,014	-0,111
-194,490	-200,000	0,027	-0,136
-193,475	339,140	-0,063	-0,087
-192,460	-158,030	-0,051	-0,002
-191,446	-136,179	-0,075	0,006
-190,431	-200,000	0,042	0,201
-189,417	746,079	0,076	0,147
-188,402	105,023	0,090	-0,076
-187,387	171,636	0,109	-0,111
-186,373	359,716	-0,078	-0,111
-185,358	-200,000	0,005	-0,085
-184,344	800,000	-0,041	0,084
-183,329	-200,000	0,003	0,025
-182,315	331,405	0,079	0,109
-181,300	102,605	-0,068	0,056
-180,285	-200,000	0,017	-0,094
-179,271	-200,000	-0,004	-0,055
-178,256	-150,195	0,132	-0,007
-177,242	124,098	-0,058	0,052
-176,227	229,279	-0,096	-0,111
-175,212	45,135	-0,042	-0,027
-174,198	-41,970	-0,162	0,059
-173,183	-6,223	-0,045	-0,022
-172,169	-169,488	0,167	-0,004
-171,154	32,805	-0,149	0,091
-170,139	-111,612	0,056	-0,008
-169,125	52,365	0,060	-0,040
-168,110	800,000	0,072	0,146
-167,096	-200,000	-0,025	0,094
-166,081	57,267	0,080	-0,055
-165,066	412,225	0,056	-0,084
-164,052	-23,894	0,067	-0,028
-163,037	104,280	-0,038	-0,031
-162,023	82,769	-0,073	-0,056
-161,008	-113,575	0,160	-0,022
-159,993	-106,904	-0,079	-0,012
-158,979	-155,038	0,058	0,003
-157,964	-200,000	-0,002	-0,041
-156,950	-135,512	-0,098	0,008
-155,935	-200,000	-0,007	0,023
-154,920	395,257	-0,018	0,027
-153,906	-200,000	0,002	0,037
-152,891	48,499	-0,183	0,121
-151,877	76,094	0,078	-0,058
-150,862	800,000	-0,092	-0,183
-149,847	691,758	0,019	-0,036
-148,833	-50,242	0,029	-0,010
-147,818	442,454	0,034	-0,052
-146,804	147,115	0,141	0,135
-145,789	-200,000	0,020	0,065
-144,775	633,521	0,090	0,163
-143,760	428,582	0,040	-0,062
-142,745	173,762	-0,067	0,068
-141,731	800,000	-0,026	0,058
-140,716	72,175	0,083	0,062
-139,702	-180,222	-0,080	0,001
-138,687	-200,000	-0,049	0,258
-137,672	-200,000	-0,018	0,066
-136,658	-5,628	0,143	-0,069
-135,643	239,169	-0,093	-0,109
-134,629	513,830	0,069	-0,115
-133,614	237,081	-0,138	0,162
-132,599	-25,497	0,110	0,046
-131,585	-99,435	-0,081	-0,014
-130,570	423,659	-0,060	0,091
-129,556	800,000	-0,042	-0,097
-128,541	-57,040	0,016	0,005
-127,526	544,223	0,026	-0,044
-126,512	365,035	0,012	0,017
-125,497	-200,000	-0,006	0,022
-124,483	10,451	-0,172	0,093
-123,468	-200,000	-0,018	-0,075
-122,453	800,000	-0,044	-0,088
-121,439	-200,000	-0,021	-0,090
-120,424	38,183	0,099	-0,062
-119,410	-200,000	0,022	-0,074
-118,395	-7,381	0,098	-0,047
-117,380	-14,529	0,051	0,023
-116,366	198,608	-0,065	0,070
-115,351	-200,000	0,006	-0,137
-114,337	124,028	-0,068	-0,060
-113,322	-3,746	-0,044	0,022
-112,307	-195,817	-0,051	-0,000
-111,293	-120,493	0,156	-0,018
-110,278	800,000	0,044	0,120
-109,264	-4,274	0,193	0,094
-108,249	356,340	-0,075	-0,106
-107,234	571,920	-0,025	-0,043
-106,220	15,903	0,005	-0,003
-105,205	-36,766	0,086	-0,032
-104,191	-50,739	0,032	-0,011
-103,176	800,000	-0,011	0,028
-102,162	-200,000	-0,024	0,100
-101,147	-34,144	0,041	-0,016
-100,132	-124,586	-0,099	0,011
-99,118	-40,287	0,048	0,018
-98,103	-200,000	0,037	0,122
-97,089	-200,000	-0,011	-0,091
-96,074	70,282	0,040	0,030
-95,059	-137,943	-0,129	0,010
-94,045	6,419	0,035	0,018
-93,030	-41,226	0,098	-0,036
-92,016	-95,991	-0,055	-0,010
-91,001	-56,188	-0,044	-0,014
-89,986	800,000	-0,009	-0,022
-88,972	107,381	0,049	0,041
-87,957	-200,000	0,004	0,027
-86,943	68,953	0,034	0,025
-85,928	425,805	-0,089	-0,136
-84,913	-200,000	-0,009	-0,050
-83,899	-120,064	-0,014	0,002
-82,884	108,831	-0,153	-0,129
-81,870	-14,085	0,087	0,040
-80,855	-21,860	0,147	0,063
-79,840	800,000	-0,059	0,181
-78,826	194,083	-0,010	-0,011
-77,811	50,283	-0,030	0,020
-76,797	800,000	0,044	-0,121
-75,782	41,426	0,184	-0,117
-74,767	800,000	0,074	0,146
-73,753	601,888	-0,087	0,153
-72,738	-4,386	-0,013	0,007
-71,724	-200,000	-0,002	-0,042
-70,709	98,374	-0,058	-0,047
-69,694	-28,704	-0,175	-0,071
-68,680	-0,864	-0,052	0,026
-67,665	-200,000	-0,007	0,060
-66,651	-1,844	0,102	-0,051
-65,636	-127,101	-0,028	0,003
-64,622	-178,073	-0,028	-0,000
-63,607	375,984	-0,069	-0,099
-62,592	25,861	-0,114	-0,067
-61,578	800,000	-0,014	0,029
-60,563	163,057	0,046	-0,045
-59,549	-200,000	-0,009	0,140
-58,534	29,609	-1,869	-1,121
-57,519	431,331	-1,284	-1,971
-56,505	-200,000	-0,316	-4,295
-55,490	459,064	0,943	1,487
-54,476	800,000	4,928	11,123
-53,461	-200,000	20,960	330,964
-52,446	800,000	758,007	2327,297
-51,432	550,370	1662,573	2826,722
-50,417	73,367	1663,899	1228,072
-49,403	18,595	1537,126	865,627
-48,388	12,603	1460,142	793,265
-47,373	19,008	1451,035	819,061
-46,359	15,755	1440,256	797,452
-45,344	10,859	1436,000	771,732
-44,330	10,759	1434,191	770,253
-43,315	10,797	1432,207	769,337
-42,300	10,822	1430,384	768,445
-41,286	10,828	1429,221	767,817
-40,271	10,762	1428,070	766,858
-39,257	10,802	1426,801	766,334
-38,242	10,783	1425,810	765,681
-37,227	10,816	1424,607	765,160
-36,213	10,815	1423,218	764,381
-35,198	10,808	1422,180	763,760
-34,184	10,833	1421,474	763,467
-33,169	10,830	1419,864	762,557
-32,154	10,865	1418,680	762,058
-31,140	10,867	1417,481	761,391
-30,125	10,906	1416,496	761,017
-29,111	10,894	1415,375	760,328
-28,096	10,851	1414,282	759,507
-27,082	10,801	1413,145	758,635
-26,067	10,781	1412,191	758,000
-25,052	10,800	1411,002	757,420
-24,038	10,831	1409,996	756,994
-23,023	10,793	1409,209	756,364
-22,009	10,771	1408,082	755,625
-20,994	10,757	1406,992	754,944
-19,979	10,776	1406,032	754,489
-18,965	10,775	1405,064	753,934
-17,950	10,781	1404,119	753,428
-16,936	10,697	1403,384	752,608
-15,921	10,687	1402,458	752,038
-14,906	10,679	1401,606	751,513
-13,892	10,677	1400,451	750,855
-12,877	10,729	1399,792	750,715
-11,863	10,663	1399,019	749,963
-10,848	10,635	1398,004	749,259
-9,833	10,655	1397,101	748,839
-8,819	10,661	1396,134	748,317
-7,804	10,564	1395,344	747,416
-6,790	10,571	1394,391	746,906
-5,775	10,600	1393,395	746,477
-4,760	10,549	1392,473	745,720
-3,746	10,598	1391,617	745,456
-2,731	10,609	1390,729	745,002
-1,717	10,595	1389,862	744,443
-0,702	10,569	1387,917	743,250
0,313	14,560	1301,204	715,113
1,327	30,762	692,411	417,373
2,342	47,427	120,110	78,847
3,356	3,655	16,435	8,433
4,371	26,082	3,350	1,968
5,386	8,244	1,030	0,544
6,400	800,000	0,243	0,584
7,415	71,717	-0,300	-0,220
8,429	152,674	-0,207	-0,200
9,444	-24,780	-0,420	-0,175
10,459	800,000	-0,109	-0,240
11,473	-85,588	-0,381	-0,083
12,488	23,622	-0,176	-0,102
13,502	80,178	-0,263	-0,199
14,517	56,907	-0,374	-0,257
15,531	182,783	-0,349	-0,363
16,546	25,023	-0,337	-0,196
17,561	184,550	-0,350	-0,366
18,575	-73,483	-0,152	-0,039
19,590	191,665	-0,209	-0,222
20,604	23,237	-0,284	-0,164
21,619	35,252	-0,481	-0,296
22,634	113,933	-0,502	-0,430
23,648	33,674	-0,388	-0,237
24,663	-25,514	-0,488	-0,202
25,677	-64,350	-0,345	-0,098
26,692	46,905	-0,330	-0,215
27,707	0,607	-0,345	-0,173
28,721	107,644	-0,394	-0,331
29,736	74,736	-0,342	-0,253
30,750	98,413	-0,347	-0,281
31,765	53,594	-0,298	-0,201
32,780	54,866	-0,424	-0,288
33,794	96,669	-0,322	-0,259
34,809	83,057	-0,369	-0,282
35,823	95,641	-0,270	-0,217
36,838	47,219	-0,399	-0,261
37,853	26,979	-0,487	-0,286
38,867	148,123	-0,415	-0,394
39,882	129,107	-0,198	-0,178
40,896	44,967	-0,326	-0,211
41,911	151,337	-0,256	-0,245
42,926	20,829	-0,363	-0,206
43,940	-24,439	-0,530	-0,221
44,955	442,532	-0,253	-0,390
45,969	-48,268	-0,512	-0,173
46,984	242,708	-0,276	-0,326
47,999	72,179	-0,311	-0,227
49,013	28,800	-0,424	-0,252
50,028	58,756	-0,338	-0,233
51,042	25,344	-0,404	-0,236
52,057	-34,338	-0,415	-0,159
53,071	110,032	-0,272	-0,229
54,086	88,965	-0,259	-0,202
55,101	72,023	-0,316	-0,231
56,115	199,103	-0,197	-0,212
57,130	5,753	-0,410	-0,212
58,144	-18,120	-0,449	-0,197
59,159	57,705	-0,285	-0,196
60,174	91,221	-0,311	-0,245
61,188	8,033	-0,386	-0,203
62,203	10,709	-0,395	-0,211
63,217	-16,230	-0,337	-0,149
64,232	-99,686	-0,350	-0,061
65,247	-94,938	-0,451	-0,085
66,261	8,511	-0,515	-0,271
67,276	461,339	-0,233	-0,366
68,290	28,934	-0,376	-0,223
69,305	201,277	-0,206	-0,222
70,320	11,868	-0,405	-0,218
71,334	-106,522	-0,410	-0,064
72,349	371,334	-0,178	-0,253
73,363	74,299	-0,317	-0,233
74,378	102,402	-0,336	-0,275
75,393	192,696	-0,279	-0,295
76,407	231,773	-0,185	-0,214
77,422	46,956	-0,264	-0,172
78,436	50,365	-0,357	-0,236
79,451	24,168	-0,350	-0,202
80,466	119,519	-0,308	-0,267
81,480	31,512	-0,372	-0,223
82,495	133,488	-0,212	-0,192
83,509	81,066	-0,127	-0,096
84,524	-30,234	-0,297	-0,118
85,539	-69,515	-0,327	-0,087
86,553	-11,796	-0,370	-0,169
87,568	70,588	-0,334	-0,242
88,582	22,873	-0,372	-0,213
89,597	-78,116	-0,415	-0,099
90,611	-9,697	-0,252	-0,117
91,626	-47,940	-0,275	-0,092
92,641	21,865	-0,332	-0,189
93,655	-75,822	-0,241	-0,059
94,670	121,748	-0,302	-0,263
95,684	154,147	-0,221	-0,212
96,699	-21,746	-0,364	-0,155
97,714	197,187	-0,269	-0,287
98,728	-95,715	-0,222	0,041
99,743	115,864	-0,221	-0,189
100,757	178,602	-0,208	-0,213
101,772	173,791	-0,248	-0,250
102,787	-24,608	-0,419	-0,174
103,801	59,720	-0,265	-0,183
104,816	37,640	-0,310	-0,192
105,830	-7,844	-0,254	-0,120
106,845	79,428	-0,317	-0,237
107,860	268,156	-0,169	-0,207
108,874	62,817	-0,285	-0,199
109,889	-109,972	-0,221	-0,032
110,903	27,434	-0,333	-0,195
111,918	144,726	-0,203	-0,189
112,933	183,828	-0,176	-0,182
113,947	53,976	-0,217	-0,145
114,962	-92,308	-0,342	-0,067
115,976	320,874	-0,106	-0,142
116,991	92,467	-0,335	-0,264
118,006	354,937	-0,222	-0,310
119,020	422,890	-0,211	-0,317
120,035	163,697	-0,214	-0,210
121,049	-138,615	-0,286	0,022
122,064	800,000	-0,094	-0,194
123,079	-119,275	-0,262	-0,031
124,093	99,650	-0,345	-0,279
125,108	-60,173	-0,300	-0,089
126,122	270,471	-0,208	-0,256
127,137	-30,074	-0,254	-0,100
128,151	86,673	-0,218	-0,168
129,166	171,658	-0,118	-0,119
130,181	72,822	-0,186	-0,135
131,195	56,549	-0,371	-0,252
132,210	-4,083	-0,349	-0,168
133,224	13,518	-0,228	-0,123
134,239	39,695	-0,277	-0,173
135,254	-13,422	-0,214	-0,096
136,268	-88,518	-0,196	-0,040
137,283	12,215	-0,307	-0,164
138,297	217,869	-0,164	-0,183
139,312	-104,027	-0,220	-0,035
140,327	-106,071	-0,288	-0,045
141,341	1,515	-0,182	-0,091
142,356	95,153	-0,207	-0,164
143,370	22,154	-0,203	-0,115
144,385	15,260	-0,353	-0,192
145,400	-105,500	-0,310	-0,049
146,414	284,082	-0,240	-0,302
147,429	-63,066	-0,447	-0,128
148,443	2,194	-0,273	-0,137
149,458	61,318	-0,120	-0,083
150,473	57,338	-0,215	-0,146
151,487	189,005	-0,171	-0,179
152,502	2,836	-0,232	-0,117
153,516	319,432	-0,201	-0,266
154,531	329,683	-0,164	-0,220
155,546	131,517	-0,199	-0,178
156,560	-13,455	-0,269	-0,121
157,575	23,487	-0,124	-0,071
158,589	-30,825	-0,181	-0,071
159,604	-33,929	-0,269	-0,102
160,619	109,895	-0,250	-0,209
161,633	24,024	-0,258	-0,148
162,648	17,548	-0,254	-0,140
163,662	-74,170	-0,332	-0,083
164,677	97,718	-0,185	-0,148
165,692	41,058	-0,166	-0,104
166,706	330,272	-0,180	-0,241
167,721	402,203	-0,125	-0,184
168,735	800,000	-0,167	-0,382
169,750	301,700	-0,122	-0,157
170,764	-77,994	-0,301	-0,072
171,779	34,323	-0,253	-0,153
172,794	800,000	-0,105	-0,292
173,808	59,228	-0,213	-0,146
174,823	448,828	-0,243	-0,373
175,837	75,526	-0,270	-0,198
176,852	-11,370	-0,293	-0,133
177,867	-46,269	-0,228	-0,078
178,881	-31,571	-0,283	-0,110
179,896	-30,244	-0,240	-0,094
180,910	127,356	-0,190	-0,167
181,925	68,336	-0,257	-0,182
182,940	696,133	-0,106	-0,195
183,954	-59,655	-0,245	-0,073
184,969	174,807	-0,231	-0,232
185,983	54,013	-0,231	-0,154
186,998	463,107	-0,089	-0,139
188,013	-99,781	-0,262	-0,045
189,027	34,207	-0,348	-0,210
190,042	107,709	-0,244	-0,201
191,056	-46,754	-0,193	-0,065
192,071	37,934	-0,201	-0,124
193,086	222,978	-0,212	-0,237
194,100	8,395	-0,232	-0,121
195,115	-36,628	-0,339	-0,126
196,129	-200,000	-0,020	-0,097
197,144	456,389	-0,184	-0,284
198,159	281,689	-0,207	-0,257
199,173	-125,255	-0,111	-0,012
200,188	66,964	-0,176	-0,124
201,202	179,008	-0,151	-0,153
202,217	-70,701	-0,282	-0,073
203,232	157,047	-0,212	-0,204
204,246	31,035	-0,257	-0,153
205,261	225,209	-0,210	-0,235
206,275	449,096	-0,091	-0,140
207,290	126,817	-0,105	-0,092
208,304	800,000	-0,074	-0,146
209,319	72,206	-0,312	-0,225
210,334	113,746	-0,213	-0,179
211,348	800,000	-0,101	-0,262
212,363	167,121	-0,160	-0,158
213,377	450,320	-0,090	-0,138
214,392	384,304	-0,130	-0,186
215,407	54,838	-0,251	-0,167
216,421	-166,628	-0,225	0,006
217,436	84,983	-0,248	-0,188
218,450	301,867	-0,181	-0,232
219,465	-67,687	-0,310	-0,083
220,480	-20,545	-0,084	-0,035
221,494	254,932	-0,160	-0,190
222,509	18,701	-0,155	-0,085
223,523	-105,719	-0,318	-0,049
224,538	258,017	-0,219	-0,261
225,553	185,719	-0,255	-0,262
226,567	5,898	-0,145	-0,074
227,582	163,760	-0,179	-0,174
228,596	202,248	-0,186	-0,199
229,611	434,679	-0,068	-0,102
230,626	-121,746	-0,142	0,016
231,640	-173,534	-0,108	-0,002
232,655	274,811	-0,129	-0,158
233,669	-132,341	-0,244	-0,022
234,684	18,427	-0,194	-0,107
235,699	-154,983	-0,158	-0,007
236,713	85,021	-0,097	-0,073
237,728	60,951	-0,207	-0,142
238,742	181,497	-0,214	-0,217
239,757	35,784	-0,151	-0,092
240,772	16,380	-0,250	-0,136
241,786	135,876	-0,136	-0,123
242,801	-93,708	-0,141	-0,027
243,815	-34,429	-0,180	-0,068
244,830	17,702	-0,158	-0,087
245,844	800,000	-0,082	-0,180
246,859	25,417	-0,230	-0,132
247,874	-23,195	-0,179	-0,074
248,888	153,406	-0,266	-0,252
249,903	-94,007	-0,206	-0,039
250,917	-61,699	-0,115	-0,033
251,932	250,313	-0,105	-0,123
252,947	255,647	-0,125	-0,148
253,961	316,248	-0,126	-0,164
254,976	183,999	-0,270	-0,276
255,990	-200,000	-0,017	-0,263
257,005	188,796	-0,154	-0,159
258,020	59,449	-0,090	-0,061
259,034	109,733	-0,231	-0,191
260,049	-54,832	-0,142	-0,044
261,063	-144,138	-0,252	-0,016
262,078	-86,754	-0,276	-0,058
263,093	-9,777	-0,205	-0,094
264,107	-130,337	-0,282	-0,026
265,122	1,051	-0,157	-0,077
266,136	197,666	-0,136	-0,143
267,151	-200,000	-0,262	0,001
268,166	255,829	-0,115	-0,136
269,180	800,000	-0,083	-0,185
270,195	183,218	-0,222	-0,226
271,209	224,223	-0,201	-0,224
272,224	583,858	-0,108	-0,184
273,239	109,693	-0,167	-0,138
274,253	-200,000	-0,043	-0,200
275,268	122,741	-0,216	-0,186
276,282	55,576	-0,116	-0,077
277,297	-101,744	-0,121	0,020
278,312	-36,000	-0,073	0,027
279,326	171,232	-0,096	-0,095
280,341	46,132	-0,215	-0,137
281,355	-17,317	-0,141	0,061
282,370	50,919	-0,193	-0,126
283,384	800,000	-0,086	-0,174
284,399	104,888	-0,099	-0,080
285,414	-76,559	-0,233	-0,056
286,428	233,948	-0,163	-0,185
287,443	-72,222	-0,173	-0,044
288,457	-130,632	-0,181	0,017
289,472	61,229	-0,223	-0,152
290,487	800,000	-0,048	-0,095
291,501	170,141	-0,146	-0,144
292,516	800,000	-0,077	-0,167
293,530	208,317	-0,219	-0,236
294,545	552,362	-0,069	-0,114
295,560	-136,188	-0,126	0,010
296,574	168,187	-0,133	-0,130
297,589	252,878	-0,131	-0,154
298,603	530,633	-0,141	-0,229
299,618	800,000	-0,028	-0,075
300,633	79,066	-0,137	-0,101
301,647	-127,937	-0,089	0,009
302,662	800,000	-0,059	-0,130
303,676	-172,250	-0,234	0,005
304,691	-68,500	-0,251	-0,066
305,706	118,464	-0,166	-0,141
306,720	194,054	-0,177	-0,185
307,735	800,000	-0,062	-0,124
308,749	-105,604	-0,170	0,026
309,764	399,302	-0,008	0,011
310,779	-29,455	-0,079	0,031
311,793	-64,391	-0,219	-0,061
312,808	-31,479	-0,153	-0,059
313,822	568,195	-0,113	-0,189
314,837	800,000	0,044	-0,114
315,852	63,350	-0,118	-0,081
316,866	-124,225	-0,220	-0,023
317,881	333,789	-0,070	-0,093
318,895	-71,272	-0,173	0,044
319,910	125,702	-0,122	-0,105
320,925	-60,430	-0,264	-0,076
321,939	92,350	-0,136	-0,105
322,954	518,516	-0,015	0,025
323,968	185,721	-0,042	0,043
324,983	110,058	-0,205	-0,169
325,997	-35,304	-0,196	-0,073
327,012	-146,173	-0,230	-0,014
328,027	-99,308	-0,280	0,048
329,041	240,486	-0,165	-0,188
330,056	354,236	-0,043	-0,059
331,070	-93,397	-0,177	-0,033
332,085	-57,575	-0,169	-0,050
333,100	-89,310	-0,253	-0,051
334,114	68,333	-0,081	-0,057
335,129	328,742	-0,065	-0,085
336,143	-38,302	-0,143	-0,052
337,158	-200,000	0,016	-0,068
338,173	-200,000	-0,006	0,052
339,187	90,459	-0,133	-0,102
340,202	-200,000	-0,009	-0,030
341,216	113,081	-0,162	-0,134
342,231	182,036	-0,205	-0,207
343,246	64,521	-0,172	-0,119
344,260	75,085	-0,209	-0,151
345,275	-200,000	-0,055	-0,206
346,289	-34,550	-0,188	0,070
347,304	69,272	-0,124	0,087
348,319	-123,444	-0,152	-0,016
349,333	87,294	-0,178	-0,135
350,348	126,533	-0,127	-0,110
351,362	-57,769	-0,137	-0,041
352,377	136,791	-0,101	-0,090
353,392	74,914	-0,209	-0,151
354,406	-41,470	-0,116	0,040
355,421	206,314	1314,194	1401,141
356,435	158,667	1474,832	1401,632
