DTS Sentinel unit serial number:	SN410029Multiplexer serial number:	ORYXHardware model number:	OX2-SRSoftware version number:	ORYX F/W v4,00 Oryx Data Collector v3.7.2.0data status	okinstallation	B3 Nyhavnadifferential loss correction	single-endedforward channel	channel 1reverse channel	N/Adate	2023/11/29time	03:37:30forward acquisition time	300,00reverse acquisition time	0,00gamma	499,1914k internal	0,3211k external	0,3211temperature offset calibration	1,0000default loss term (dB/km)	0,3820temperature slope calibration	1,0000multiplexer offset coefficient	1,0000multiplexer slope coefficient	1,0000fibre end	0,00T internal ref (°C)	9,49T ext. ref 1 (°C)	-5,93T ext. ref 2 (°C)	-6,03length (m)	temperature (°C)	Stokes	anti-Stokes-744,400	233,796	-0,215	-0,258
-743,385	-200,000	0,013	0,240
-742,371	272,868	-0,209	-0,268
-741,356	765,938	-0,097	0,193
-740,342	8,343	-0,217	-0,118
-739,327	800,000	0,076	0,192
-738,312	554,104	-0,200	-0,350
-737,298	-200,000	-0,050	0,291
-736,283	136,567	-0,212	-0,201
-735,269	800,000	-0,116	0,342
-734,254	370,944	-0,196	-0,289
-733,239	111,494	-0,112	0,098
-732,225	532,076	-0,115	-0,198
-731,210	-184,257	0,209	-0,002
-730,196	-200,000	-0,000	-0,074
-729,181	552,973	-0,039	-0,068
-728,167	800,000	0,043	-0,137
-727,152	32,852	0,023	0,014
-726,137	199,195	-0,101	-0,112
-725,123	-200,000	0,038	-0,141
-724,108	106,872	-0,064	-0,055
-723,094	-18,344	-0,042	0,019
-722,079	1,895	-0,075	0,039
-721,064	-95,396	-0,123	-0,024
-720,050	178,036	-0,015	0,016
-719,035	462,459	-0,034	-0,054
-718,021	-200,000	0,000	-0,082
-717,006	529,606	0,090	-0,154
-715,991	22,765	-0,215	-0,127
-714,977	229,307	-0,102	-0,120
-713,962	800,000	-0,024	0,057
-712,948	-200,000	-0,001	0,054
-711,933	282,603	-0,085	-0,110
-710,918	-200,000	-0,017	-0,120
-709,904	335,945	-0,087	-0,123
-708,889	327,304	-0,062	-0,086
-707,875	321,853	-0,087	-0,121
-706,860	-200,000	0,033	-0,158
-705,845	-200,000	-0,002	0,034
-704,831	800,000	0,048	0,102
-703,816	-86,754	-0,140	0,031
-702,802	-200,000	0,020	-0,104
-701,787	-200,000	-0,037	-0,179
-700,772	352,332	-0,019	-0,027
-699,758	-150,831	-0,056	-0,003
-698,743	64,433	-0,050	0,036
-697,729	-200,000	-0,036	0,201
-696,714	339,525	0,103	0,146
-695,699	-200,000	-0,005	-0,062
-694,685	800,000	-0,049	-0,152
-693,670	190,384	0,037	0,040
-692,656	239,523	-0,061	-0,073
-691,641	54,160	-0,071	0,049
-690,627	-143,558	-0,101	-0,007
-689,612	800,000	-0,028	-0,086
-688,597	4,168	-0,075	0,039
-687,583	174,362	-0,107	-0,113
-686,568	726,531	-0,053	0,103
-685,554	37,100	-0,022	-0,014
-684,539	-200,000	-0,003	0,049
-683,524	-200,000	0,029	-0,129
-682,510	-200,000	0,024	0,077
-681,495	-88,138	-0,069	-0,015
-680,481	58,002	-0,242	-0,171
-679,466	-32,685	-0,118	-0,047
-678,451	170,718	0,061	0,063
-677,437	-105,691	-0,027	-0,004
-676,422	154,987	0,088	0,088
-675,408	-105,355	-0,133	0,022
-674,393	70,898	-0,043	-0,032
-673,378	-152,760	-0,135	0,007
-672,364	800,000	0,063	-0,152
-671,349	-200,000	-0,020	0,107
-670,335	17,537	-0,094	-0,054
-669,320	-9,046	0,100	-0,048
-668,305	-200,000	0,014	-0,051
-667,291	84,182	0,156	-0,123
-666,276	-200,000	-0,031	0,105
-665,262	-65,503	-0,092	-0,026
-664,247	560,547	0,082	-0,143
-663,232	138,968	-0,028	0,027
-662,218	-36,907	0,140	0,054
-661,203	14,520	-0,068	-0,039
-660,189	-76,479	-0,152	-0,038
-659,174	573,477	0,042	-0,074
-658,159	-63,338	-0,195	0,058
-657,145	223,659	-0,098	0,115
-656,130	310,020	0,046	0,062
-655,116	377,017	-0,057	-0,085
-654,101	-67,263	0,040	-0,011
-653,086	86,541	0,031	0,025
-652,072	-70,724	0,054	-0,015
-651,057	788,738	-0,021	0,041
-650,043	-200,000	0,014	-0,047
-649,028	93,696	0,062	-0,050
-648,014	135,708	0,026	0,024
-646,999	287,566	0,059	-0,077
-645,984	99,449	0,103	0,086
-644,970	-200,000	0,010	-0,033
-643,955	-41,832	0,084	-0,031
-642,941	-200,000	-0,001	-0,043
-641,926	179,308	0,011	-0,012
-640,911	-7,031	-0,073	-0,036
-639,897	-200,000	-0,019	-0,120
-638,882	-12,702	-0,094	0,044
-637,868	5,746	-0,033	0,017
-636,853	-200,000	-0,004	-0,043
-635,838	347,789	-0,026	0,037
-634,824	-56,593	-0,109	0,035
-633,809	-175,440	0,037	-0,001
-632,795	81,776	0,049	0,038
-631,780	-66,401	-0,084	-0,024
-630,765	800,000	-0,030	0,078
-629,751	-200,000	-0,038	-0,145
-628,736	467,318	-0,072	-0,117
-627,722	-200,000	0,003	-0,047
-626,707	507,755	-0,121	-0,203
-625,692	-108,920	0,204	-0,031
-624,678	-200,000	-0,010	0,138
-623,663	141,718	0,060	-0,057
-622,649	-91,552	-0,095	-0,019
-621,634	371,363	0,056	-0,083
-620,619	-105,093	-0,161	0,026
-619,605	606,070	0,030	-0,055
-618,590	558,778	0,030	-0,052
-617,576	-200,000	0,003	0,070
-616,561	204,380	0,099	0,110
-615,546	200,015	-0,022	-0,024
-614,532	-75,668	-0,110	0,028
-613,517	119,544	0,004	-0,004
-612,503	-124,758	-0,186	-0,021
-611,488	87,351	0,083	-0,066
-610,474	-6,732	0,069	-0,034
-609,459	219,667	-0,015	-0,017
-608,444	73,776	-0,050	-0,038
-607,430	-61,712	0,056	0,017
-606,415	61,792	-0,082	-0,059
-605,401	-200,000	-0,008	0,077
-604,386	-200,000	0,010	0,109
-603,371	-200,000	0,015	0,092
-602,357	112,421	0,031	0,027
-601,342	434,449	-0,059	-0,093
-600,328	-200,000	0,022	-0,082
-599,313	110,700	0,101	-0,087
-598,298	-8,696	0,063	-0,030
-597,284	-200,000	-0,007	-0,034
-596,269	800,000	0,055	-0,113
-595,255	-200,000	0,009	0,105
-594,240	-200,000	-0,014	0,142
-593,225	283,428	-0,082	-0,106
-592,211	12,828	-0,132	-0,073
-591,196	108,770	-0,072	-0,062
-590,182	637,577	0,016	0,029
-589,167	-57,081	0,229	0,072
-588,152	375,665	0,037	-0,054
-587,138	370,396	-0,051	0,074
-586,123	1,541	-0,051	0,027
-585,109	314,649	0,054	-0,073
-584,094	800,000	-0,065	0,136
-583,079	800,000	0,006	0,016
-582,065	-32,560	-0,028	0,011
-581,050	272,095	-0,087	-0,111
-580,036	-45,686	0,044	0,016
-579,021	-200,000	-0,093	0,000
-578,006	800,000	0,061	-0,143
-576,992	800,000	-0,038	0,087
-575,977	-200,000	-0,020	0,069
-574,963	-38,983	-0,055	-0,021
-573,948	-200,000	0,033	0,117
-572,934	160,819	0,048	-0,048
-571,919	356,151	-0,123	-0,176
-570,904	800,000	-0,091	-0,196
-569,890	182,877	0,058	0,062
-568,875	-98,350	-0,068	-0,012
-567,861	351,846	-0,061	0,087
-566,846	-23,367	0,063	0,027
-565,831	-5,127	-0,076	0,037
-564,817	-200,000	0,013	-0,109
-563,802	-200,000	0,003	0,035
-562,788	67,058	-0,144	-0,106
-561,773	-51,168	0,046	0,015
-560,758	-200,000	-0,019	0,063
-559,744	58,095	0,036	-0,026
-558,729	53,345	-0,091	-0,062
-557,715	-200,000	0,014	-0,080
-556,700	-92,205	-0,111	0,022
-555,685	253,858	0,019	-0,024
-554,671	-200,000	-0,008	0,062
-553,656	-33,857	0,035	0,014
-552,642	-71,508	0,121	0,032
-551,627	-200,000	-0,014	0,089
-550,612	-200,000	-0,007	-0,054
-549,598	161,971	-0,133	-0,134
-548,583	-96,691	0,028	0,005
-547,569	111,031	-0,052	-0,045
-546,554	-95,585	0,074	-0,014
-545,539	800,000	0,077	-0,160
-544,525	465,820	0,066	0,107
-543,510	-173,946	-0,124	-0,003
-542,496	-200,000	-0,001	0,028
-541,481	-171,347	0,091	-0,002
-540,466	-175,469	0,053	0,001
-539,452	-52,682	0,077	-0,025
-538,437	800,000	-0,031	-0,063
-537,423	283,508	-0,090	-0,116
-536,408	-200,000	0,000	-0,147
-535,393	-35,524	-0,113	-0,044
-534,379	242,819	-0,067	-0,081
-533,364	-200,000	-0,010	0,000
-532,350	-101,727	0,098	0,017
-531,335	5,256	0,056	0,030
-530,321	800,000	0,035	0,093
-529,306	39,744	-0,087	0,056
-528,291	-47,399	0,109	0,038
-527,277	-34,466	-0,151	0,059
-526,262	127,702	0,070	-0,064
-525,248	-200,000	0,006	0,074
-524,233	-156,253	0,050	0,002
-523,218	-28,698	0,027	-0,011
-522,204	304,128	-0,058	-0,077
-521,189	-200,000	0,007	-0,118
-520,175	204,996	-0,145	-0,162
-519,160	373,536	-0,058	0,086
-518,145	6,134	-0,022	0,012
-517,131	800,000	-0,011	0,025
-516,116	10,160	0,079	0,043
-515,102	-200,000	0,009	0,103
-514,087	-58,493	0,062	0,019
-513,072	800,000	0,035	0,097
-512,058	-200,000	-0,007	-0,026
-511,043	-0,075	-0,088	0,045
-510,029	-118,697	-0,150	0,019
-509,014	117,741	0,133	0,118
-507,999	156,082	0,052	0,051
-506,985	254,712	-0,074	-0,091
-505,970	-200,000	-0,032	0,114
-504,956	489,734	-0,023	-0,037
-503,941	-200,000	0,014	-0,050
-502,926	-200,000	0,003	-0,021
-501,912	-92,020	-0,047	-0,009
-500,897	-4,655	-0,067	-0,033
-499,883	-200,000	0,004	0,032
-498,868	113,388	-0,072	-0,063
-497,853	41,240	-0,066	0,043
-496,839	-16,054	0,054	0,025
-495,824	486,045	0,082	0,134
-494,810	427,199	0,025	0,039
-493,795	-200,000	-0,044	0,242
-492,781	22,757	-0,078	-0,046
-491,766	740,390	0,054	-0,105
-490,751	-71,796	-0,182	0,048
-489,737	-200,000	0,031	-0,120
-488,722	800,000	0,026	0,067
-487,708	-120,949	0,100	-0,012
-486,693	36,051	0,149	0,094
-485,678	36,210	-0,066	0,042
-484,664	-53,284	-0,058	0,019
-483,649	-25,391	0,042	0,018
-482,635	800,000	0,043	0,098
-481,620	181,101	0,029	-0,030
-480,605	-200,000	0,038	-0,157
-479,591	-0,465	0,050	0,025
-478,576	-200,000	-0,017	0,153
-477,562	-154,401	-0,200	-0,009
-476,547	56,515	0,064	-0,045
-475,532	-200,000	0,011	-0,061
-474,518	669,031	0,060	-0,113
-473,503	2,069	-0,068	0,035
-472,489	-200,000	0,008	0,096
-471,474	-8,937	-0,047	-0,022
-470,459	16,440	0,081	-0,046
-469,445	-120,737	-0,129	-0,015
-468,430	-200,000	-0,027	-0,093
-467,416	-200,000	-0,003	0,052
-466,401	58,152	0,091	-0,064
-465,386	63,846	0,046	-0,033
-464,372	274,413	-0,043	-0,054
-463,357	800,000	-0,029	-0,069
-462,343	461,623	0,048	-0,077
-461,328	-111,048	0,066	0,010
-460,313	800,000	0,038	-0,099
-459,299	-200,000	-0,016	0,104
-458,284	-30,749	-0,176	0,071
-457,270	274,288	-0,018	0,022
-456,255	110,110	-0,123	-0,106
-455,241	-149,749	-0,030	0,002
-454,226	800,000	0,037	0,080
-453,211	800,000	0,033	-0,065
-452,197	800,000	0,027	-0,078
-451,182	19,022	0,120	0,069
-450,168	510,689	0,017	0,029
-449,153	-25,628	-0,016	0,007
-448,138	102,856	0,157	-0,132
-447,124	446,598	-0,086	-0,136
-446,109	50,530	-0,028	0,019
-445,095	800,000	0,061	0,176
-444,080	-200,000	0,030	-0,102
-443,065	-200,000	-0,007	0,065
-442,051	-56,211	0,195	-0,062
-441,036	-89,217	-0,054	0,011
-440,022	-200,000	0,002	-0,069
-439,007	132,598	0,052	0,048
-437,992	-130,058	0,182	-0,018
-436,978	800,000	-0,030	0,064
-435,963	261,430	-0,045	0,056
-434,949	63,674	-0,074	-0,053
-433,934	-7,810	0,027	-0,013
-432,919	648,542	-0,068	0,126
-431,905	-140,986	0,147	-0,011
-430,890	249,816	0,023	-0,028
-429,876	61,099	0,112	-0,079
-428,861	-200,000	-0,007	-0,028
-427,846	800,000	0,017	-0,038
-426,832	150,725	-0,123	-0,119
-425,817	101,909	0,137	-0,114
-424,803	-200,000	0,004	0,079
-423,788	-200,000	-0,039	0,148
-422,773	-200,000	-0,026	-0,158
-421,759	-153,615	0,145	0,007
-420,744	69,526	-0,162	0,119
-419,730	163,683	-0,066	0,066
-418,715	-200,000	-0,006	-0,055
-417,701	44,743	-0,035	0,023
-416,686	-6,752	0,149	0,072
-415,671	314,045	0,034	0,046
-414,657	-62,243	-0,141	-0,042
-413,642	-200,000	0,001	-0,022
-412,628	-200,000	0,008	-0,030
-411,613	3,707	-0,085	-0,044
-410,598	-200,000	0,007	0,140
-409,584	-200,000	-0,020	-0,142
-408,569	-200,000	0,027	0,177
-407,555	136,300	0,162	0,151
-406,540	-94,745	-0,141	0,027
-405,525	476,018	-0,015	-0,024
-404,511	-49,972	-0,091	-0,031
-403,496	212,889	0,088	0,099
-402,482	393,947	-0,060	-0,089
-401,467	-200,000	0,018	0,079
-400,452	800,000	0,079	0,168
-399,438	-49,221	-0,145	-0,049
-398,423	375,433	-0,112	-0,163
-397,409	209,768	-0,060	0,068
-396,394	800,000	0,026	0,073
-395,379	10,250	0,110	0,060
-394,365	773,702	0,043	0,084
-393,350	-200,000	-0,000	0,071
-392,336	774,280	-0,050	0,097
-391,321	84,587	-0,080	-0,063
-390,306	-128,684	0,063	0,006
-389,292	769,838	-0,038	-0,075
-388,277	655,413	0,059	-0,108
-387,263	83,382	0,123	0,096
-386,248	-200,000	-0,011	0,043
-385,233	-200,000	0,021	0,078
-384,219	-52,988	-0,084	0,027
-383,204	-48,551	-0,044	-0,015
-382,190	-92,468	-0,207	-0,041
-381,175	34,327	0,128	0,079
-380,160	511,362	0,073	0,122
-379,146	80,824	0,108	-0,083
-378,131	70,693	0,036	0,027
-377,117	187,964	0,091	-0,097
-376,102	184,920	-0,066	0,070
-375,088	-200,000	-0,022	-0,112
-374,073	285,595	0,089	-0,115
-373,058	-200,000	-0,020	0,085
-372,044	220,446	-0,058	0,066
-371,029	-200,000	0,011	-0,054
-370,015	285,682	-0,074	-0,096
-369,000	-162,990	-0,044	-0,001
-367,985	-91,874	0,023	-0,005
-366,971	367,383	-0,040	-0,057
-365,956	295,982	0,063	-0,082
-364,942	572,885	-0,046	0,080
-363,927	208,198	0,068	0,076
-362,912	-200,000	-0,028	0,153
-361,898	-137,794	0,132	0,010
-360,883	-200,000	-0,018	-0,106
-359,869	800,000	-0,023	-0,064
-358,854	-200,000	-0,009	-0,094
-357,839	-38,677	0,149	0,056
-356,825	249,363	-0,062	-0,075
-355,810	44,933	-0,067	0,044
-354,796	-85,089	-0,070	-0,015
-353,781	209,547	-0,097	-0,108
-352,766	34,624	-0,076	-0,047
-351,752	-56,349	-0,127	0,040
-350,737	-200,000	0,012	0,068
-349,723	231,127	-0,045	-0,053
-348,708	800,000	-0,043	0,106
-347,693	-71,338	0,084	-0,022
-346,679	198,711	-0,068	-0,075
-345,664	41,930	-0,115	-0,075
-344,650	-169,608	0,060	0,002
-343,635	800,000	-0,030	0,077
-342,620	94,447	0,049	0,040
-341,606	-6,680	0,076	-0,037
-340,591	-200,000	0,040	-0,192
-339,577	-76,240	-0,135	0,034
-338,562	-67,504	-0,066	-0,018
-337,548	800,000	-0,031	-0,065
-336,533	208,318	0,077	0,086
-335,518	-104,010	0,175	-0,029
-334,504	612,798	0,033	0,059
-333,489	1,251	0,072	-0,037
-332,475	21,474	-0,072	-0,042
-331,460	-200,000	0,011	-0,085
-330,445	137,203	0,038	0,036
-329,431	-200,000	0,005	-0,087
-328,416	-200,000	-0,009	0,088
-327,402	219,760	0,032	0,037
-326,387	800,000	0,061	0,124
-325,372	379,134	0,101	-0,149
-324,358	-147,275	-0,141	0,008
-323,343	-61,007	0,089	0,027
-322,329	49,755	-0,173	0,116
-321,314	-200,000	-0,035	0,153
-320,299	117,910	0,091	-0,080
-319,285	-200,000	0,020	0,077
-318,270	282,663	-0,009	-0,011
-317,256	-138,050	0,023	0,002
-316,241	172,695	-0,097	-0,100
-315,226	-54,714	0,141	-0,045
-314,212	-84,844	0,084	0,019
-313,197	-174,713	0,085	0,002
-312,183	58,314	0,028	-0,019
-311,168	-200,000	-0,032	-0,111
-310,153	355,093	-0,087	-0,124
-309,139	-4,086	0,053	0,026
-308,124	800,000	0,022	0,052
-307,110	490,411	-0,034	0,056
-306,095	-200,000	-0,011	0,078
-305,080	-17,564	0,083	0,037
-304,066	800,000	0,030	0,067
-303,051	-85,818	0,142	-0,031
-302,037	712,460	0,033	-0,062
-301,022	-200,000	0,001	-0,121
-300,008	-3,653	0,071	0,035
-298,993	-200,000	-0,019	-0,063
-297,978	217,866	0,093	0,105
-296,964	-200,000	-0,007	0,049
-295,949	-125,003	-0,081	-0,009
-294,935	432,006	0,049	-0,076
-293,920	-44,381	-0,063	-0,022
-292,905	-38,046	0,066	-0,025
-291,891	646,155	0,017	0,031
-290,876	800,000	0,026	0,081
-289,862	-200,000	-0,020	0,208
-288,847	97,317	-0,042	0,035
-287,832	257,982	0,060	-0,073
-286,818	23,835	-0,086	-0,050
-285,803	800,000	-0,012	-0,036
-284,789	800,000	-0,022	0,063
-283,774	800,000	0,045	-0,094
-282,759	35,729	-0,050	-0,031
-281,745	561,099	-0,028	-0,049
-280,730	-101,950	-0,160	-0,027
-279,716	167,203	-0,054	0,055
-278,701	154,106	0,020	0,019
-277,686	-41,837	0,036	0,013
-276,672	-200,000	0,012	0,137
-275,657	241,868	-0,018	0,022
-274,643	-85,943	-0,061	0,013
-273,628	412,742	0,071	-0,107
-272,613	145,153	-0,034	0,032
-271,599	-200,000	0,012	0,054
-270,584	-43,201	0,157	-0,056
-269,570	373,612	-0,067	0,097
-268,555	-128,007	-0,019	0,002
-267,540	205,698	0,112	-0,124
-266,526	-200,000	-0,011	-0,089
-265,511	-200,000	0,004	0,094
-264,497	83,951	0,093	0,072
-263,482	146,085	0,100	0,095
-262,467	-136,090	0,064	-0,005
-261,453	-77,484	-0,073	0,018
-260,438	156,468	-0,112	-0,110
-259,424	-163,533	-0,124	-0,004
-258,409	653,022	0,046	-0,085
-257,395	800,000	0,032	0,079
-256,380	-200,000	-0,036	0,164
-255,365	169,197	0,077	0,078
-254,351	-58,365	0,089	-0,027
-253,336	642,787	-0,012	0,022
-252,322	96,837	0,097	0,079
-251,307	71,427	0,092	0,068
-250,292	270,950	-0,068	-0,086
-249,278	541,189	-0,022	0,038
-248,263	-104,272	0,156	0,026
-247,249	-11,617	-0,052	0,024
-246,234	-200,000	-0,012	-0,073
-245,219	-200,000	0,000	0,014
-244,205	-168,261	0,098	0,003
-243,190	559,076	0,070	0,121
-242,176	34,729	-0,055	0,034
-241,161	800,000	0,027	0,056
-240,146	800,000	-0,076	0,172
-239,132	216,966	0,061	-0,069
-238,117	468,012	-0,062	-0,100
-237,103	-200,000	-0,030	-0,153
-236,088	-29,101	0,061	-0,025
-235,073	104,249	-0,080	0,067
-234,059	-110,182	0,101	-0,015
-233,044	-200,000	-0,017	0,078
-232,030	-8,979	-0,093	0,044
-231,015	20,565	0,069	0,039
-230,000	-98,889	-0,181	-0,032
-228,986	800,000	0,039	-0,090
-227,971	796,224	0,052	0,102
-226,957	-200,000	0,004	-0,061
-225,942	-200,000	0,033	0,131
-224,927	104,166	-0,050	0,042
-223,913	-79,854	-0,069	-0,016
-222,898	137,131	-0,121	-0,112
-221,884	-68,421	0,114	-0,031
-220,869	-174,572	0,121	0,002
-219,855	-136,553	0,018	-0,001
-218,840	543,919	0,006	-0,010
-217,825	114,878	0,113	-0,098
-216,811	248,365	-0,049	-0,058
-215,796	-7,503	-0,039	0,019
-214,782	238,288	0,070	-0,083
-213,767	800,000	0,010	0,028
-212,752	420,392	-0,024	0,036
-211,738	800,000	0,040	0,110
-210,723	-64,907	0,110	0,031
-209,709	800,000	-0,055	0,154
-208,694	-145,867	0,153	0,010
-207,679	46,494	-0,088	-0,058
-206,665	175,353	0,088	0,091
-205,650	-56,968	0,089	0,028
-204,636	62,316	0,082	-0,058
-203,621	-200,000	-0,050	0,170
-202,606	102,044	0,106	-0,088
-201,592	-200,000	0,019	-0,096
-200,577	637,978	-0,076	-0,137
-199,563	47,348	-0,072	-0,048
-198,548	163,494	0,064	0,064
-197,533	5,248	0,086	-0,045
-196,519	195,666	0,041	0,044
-195,504	-200,000	-0,014	0,062
-194,490	21,850	0,011	0,006
-193,475	-29,661	-0,046	-0,019
-192,460	323,781	-0,041	0,056
-191,446	444,115	-0,025	0,039
-190,431	473,707	0,084	0,135
-189,417	-200,000	-0,005	0,106
-188,402	-96,805	-0,123	-0,023
-187,387	800,000	-0,012	0,030
-186,373	301,943	0,050	0,066
-185,358	-50,134	-0,070	-0,023
-184,344	-99,838	-0,061	-0,011
-183,329	483,462	0,052	-0,084
-182,315	622,531	0,036	-0,064
-181,300	-2,804	-0,158	-0,078
-180,285	800,000	-0,040	-0,095
-179,271	-200,000	-0,053	-0,185
-178,256	615,878	0,034	0,061
-177,242	-63,833	0,072	-0,021
-176,227	3,171	-0,071	-0,036
-175,212	-200,000	0,030	0,120
-174,198	142,624	0,055	0,052
-173,183	304,191	-0,031	-0,041
-172,169	-50,910	-0,097	0,032
-171,154	-200,000	-0,002	0,034
-170,139	-200,000	0,012	-0,097
-169,125	-79,531	-0,038	0,009
-168,110	-200,000	0,023	0,164
-167,096	111,662	-0,073	0,062
-166,081	86,910	0,058	0,045
-165,066	579,676	-0,024	-0,042
-164,052	-200,000	0,040	-0,142
-163,037	326,393	-0,043	0,059
-162,023	357,864	-0,066	-0,094
-161,008	249,610	0,055	0,066
-159,993	133,963	-0,182	0,167
-158,979	-35,066	0,111	0,042
-157,964	-200,000	-0,006	0,044
-156,950	-200,000	-0,037	0,180
-155,935	45,719	0,045	-0,029
-154,920	-186,911	-0,050	0,000
-153,906	-34,729	-0,061	-0,024
-152,891	567,857	0,056	-0,097
-151,877	-200,000	-0,013	-0,078
-150,862	800,000	-0,029	-0,065
-149,847	-39,124	-0,129	-0,048
-148,833	-148,344	-0,122	0,007
-147,818	92,325	0,058	0,046
-146,804	266,578	0,089	0,110
-145,789	-200,000	-0,005	0,042
-144,775	184,342	-0,100	-0,104
-143,760	-41,936	-0,111	-0,040
-142,745	506,153	-0,094	-0,154
-141,731	-34,397	-0,113	-0,044
-140,716	-200,000	0,015	-0,059
-139,702	800,000	0,028	-0,078
-138,687	146,719	0,131	-0,125
-137,672	-66,125	0,042	-0,012
-136,658	-200,000	-0,005	-0,029
-135,643	800,000	0,030	-0,086
-134,629	247,883	-0,084	-0,100
-133,614	-200,000	-0,032	0,142
-132,599	-110,035	0,081	-0,012
-131,585	-181,318	0,176	0,002
-130,570	131,975	-0,102	0,093
-129,556	-31,671	0,110	-0,044
-128,541	-33,348	-0,127	-0,049
-127,526	-48,287	0,129	0,044
-126,512	-60,035	0,087	-0,026
-125,497	-110,423	-0,066	-0,010
-124,483	145,250	0,013	0,012
-123,468	800,000	-0,031	0,094
-122,453	-200,000	-0,002	-0,045
-121,439	-200,000	-0,015	-0,102
-120,424	-107,807	-0,072	-0,011
-119,410	-117,309	0,016	0,002
-118,395	-200,000	-0,015	-0,099
-117,380	-200,000	0,030	0,163
-116,366	185,331	0,004	0,004
-115,351	-200,000	-0,018	0,086
-114,337	-200,000	0,011	-0,055
-113,322	530,077	-0,048	-0,081
-112,307	-200,000	-0,040	-0,261
-111,293	231,541	0,060	0,070
-110,278	594,170	-0,037	0,065
-109,264	-176,397	-0,037	0,001
-108,249	800,000	0,037	-0,092
-107,234	800,000	-0,009	-0,026
-106,220	-171,100	0,145	0,003
-105,205	-65,765	0,091	-0,026
-104,191	276,826	-0,175	0,220
-103,176	-38,762	0,056	0,021
-102,162	-7,058	0,029	0,014
-101,147	77,815	0,030	-0,023
-100,132	179,951	-0,079	-0,082
-99,118	51,375	-0,041	-0,027
-98,103	65,386	-0,095	0,068
-97,089	36,705	0,121	-0,075
-96,074	70,069	0,085	-0,062
-95,059	-200,000	0,052	-0,162
-94,045	493,767	-0,089	-0,145
-93,030	-200,000	-0,003	-0,062
-92,016	-98,935	0,051	0,009
-91,001	-200,000	-0,003	-0,071
-89,986	-200,000	0,041	-0,173
-88,972	103,032	0,048	0,040
-87,957	129,847	0,009	-0,008
-86,943	298,593	0,040	0,052
-85,928	67,582	0,017	-0,013
-84,913	134,412	0,028	-0,026
-83,899	316,396	0,066	-0,089
-82,884	427,282	0,080	0,123
-81,870	68,992	0,113	0,082
-80,855	800,000	-0,044	-0,094
-79,840	58,346	-0,055	0,038
-78,826	77,768	0,056	-0,042
-77,811	23,107	-0,056	0,032
-76,797	-1,580	0,043	-0,022
-75,782	-27,849	0,029	0,012
-74,767	180,554	0,027	0,028
-73,753	479,866	-0,027	-0,044
-72,738	-87,973	-0,154	0,032
-71,724	205,298	-0,018	-0,019
-70,709	-200,000	-0,007	-0,199
-69,694	-154,542	0,087	-0,004
-68,680	-200,000	-0,003	-0,017
-67,665	402,703	0,077	0,114
-66,651	800,000	-0,041	0,100
-65,636	66,373	-0,054	-0,039
-64,622	-200,000	-0,016	0,093
-63,607	-200,000	-0,014	-0,088
-62,592	50,520	0,166	-0,111
-61,578	2,801	-0,085	-0,043
-60,563	286,230	0,100	-0,128
-59,549	122,351	0,037	0,032
-58,534	66,477	-2,127	-1,524
-57,519	640,640	-1,091	-1,969
-56,505	-200,000	-0,287	-4,257
-55,490	529,745	1,013	1,696
-54,476	800,000	5,025	11,201
-53,461	-200,000	21,750	342,415
-52,446	800,000	762,426	2340,719
-51,432	547,044	1660,849	2815,364
-50,417	71,378	1657,053	1212,249
-49,403	17,262	1530,240	854,554
-48,388	11,320	1454,353	783,503
-47,373	19,285	1446,021	817,117
-46,359	14,767	1434,957	789,404
-45,344	9,597	1430,994	762,626
-44,330	9,574	1428,975	761,412
-43,315	9,529	1427,123	760,180
-42,300	9,520	1425,584	759,288
-41,286	9,543	1424,168	758,612
-40,271	9,484	1422,935	757,646
-39,257	9,505	1421,852	757,138
-38,242	9,514	1420,841	756,615
-37,227	9,557	1419,640	756,147
-36,213	9,549	1418,257	755,345
-35,198	9,594	1416,970	754,838
-34,184	9,576	1416,175	754,301
-33,169	9,546	1414,729	753,361
-32,154	9,611	1413,815	753,151
-31,140	9,565	1412,452	752,177
-30,125	9,586	1411,311	751,636
-29,111	9,594	1410,057	750,975
-28,096	9,576	1409,154	750,381
-27,082	9,485	1407,805	749,207
-26,067	9,530	1406,743	748,823
-25,052	9,584	1405,650	748,463
-24,038	9,556	1404,886	747,898
-23,023	9,503	1403,991	747,142
-22,009	9,506	1402,978	746,588
-20,994	9,509	1401,829	745,960
-19,979	9,502	1400,977	745,446
-18,965	9,485	1400,044	744,839
-17,950	9,489	1399,104	744,331
-16,936	9,455	1398,256	743,693
-15,921	9,416	1397,263	742,952
-14,906	9,404	1396,470	742,445
-13,892	9,496	1395,297	742,219
-12,877	9,442	1394,655	741,600
-11,863	9,425	1393,701	740,984
-10,848	9,425	1392,866	740,509
-9,833	9,375	1391,829	739,696
-8,819	9,323	1391,054	739,017
-7,804	9,306	1390,168	738,436
-6,790	9,358	1389,012	738,033
-5,775	9,375	1388,153	737,625
-4,760	9,380	1386,944	736,979
-3,746	9,325	1386,218	736,311
-2,731	9,413	1385,089	736,086
-1,717	9,319	1384,515	735,317
-0,702	9,322	1382,697	734,336
0,313	13,303	1295,175	706,024
1,327	29,377	686,299	410,373
2,342	46,000	118,426	77,161
3,356	1,193	16,514	8,334
4,371	7,500	3,531	1,856
5,386	-29,323	1,175	0,472
6,400	667,385	0,249	0,455
7,415	-54,678	-0,225	-0,071
8,429	-50,368	-0,310	-0,103
9,444	53,050	-0,275	-0,185
10,459	23,150	-0,284	-0,164
11,473	120,765	-0,218	-0,191
12,488	401,423	-0,187	-0,277
13,502	5,200	-0,420	-0,217
14,517	23,443	-0,309	-0,179
15,531	240,185	-0,194	-0,228
16,546	59,739	-0,350	-0,243
17,561	149,643	-0,202	-0,193
18,575	0,981	-0,194	-0,098
19,590	710,062	-0,193	-0,361
20,604	-114,499	-0,229	-0,031
21,619	151,571	-0,436	-0,418
22,634	-56,325	-0,504	-0,157
23,648	281,062	-0,370	-0,467
24,663	68,913	-0,416	-0,301
25,677	200,066	-0,268	-0,290
26,692	115,426	-0,300	-0,258
27,707	-20,374	-0,363	-0,156
28,721	-8,274	-0,399	-0,188
29,736	122,639	-0,367	-0,323
30,750	177,670	-0,349	-0,358
31,765	143,066	-0,341	-0,319
32,780	191,837	-0,344	-0,365
33,794	376,551	-0,188	-0,270
34,809	6,248	-0,503	-0,262
35,823	111,816	-0,267	-0,227
36,838	-50,418	-0,506	-0,167
37,853	112,189	-0,423	-0,359
38,867	37,656	-0,325	-0,202
39,882	128,661	-0,385	-0,345
40,896	93,089	-0,342	-0,271
41,911	60,868	-0,359	-0,250
42,926	38,895	-0,328	-0,206
43,940	247,744	-0,295	-0,351
44,955	196,386	-0,291	-0,311
45,969	31,691	-0,448	-0,270
46,984	-3,465	-0,383	-0,186
47,999	491,927	-0,188	-0,304
49,013	180,188	-0,257	-0,265
50,028	223,722	-0,179	-0,203
51,042	-76,236	-0,451	-0,111
52,057	78,127	-0,323	-0,242
53,071	122,185	-0,368	-0,323
54,086	305,676	-0,247	-0,324
55,101	105,754	-0,364	-0,302
56,115	320,209	-0,185	-0,247
57,130	49,442	-0,186	-0,123
58,144	-1,508	-0,370	-0,182
59,159	-28,010	-0,410	-0,166
60,174	34,379	-0,336	-0,205
61,188	-23,701	-0,408	-0,171
62,203	68,193	-0,385	-0,276
63,217	43,802	-0,317	-0,203
64,232	33,622	-0,330	-0,201
65,247	-36,092	-0,439	-0,165
66,261	-54,325	-0,395	-0,125
67,276	76,196	-0,356	-0,264
68,290	280,711	-0,238	-0,299
69,305	87,092	-0,205	-0,159
70,320	-199,117	-0,400	-0,001
71,334	-93,787	-0,383	-0,073
72,349	96,918	-0,284	-0,228
73,363	54,648	-0,282	-0,191
74,378	54,415	-0,326	-0,220
75,393	66,339	-0,258	-0,183
76,407	72,728	-0,262	-0,191
77,422	-0,357	-0,272	-0,135
78,436	23,935	-0,267	-0,154
79,451	39,113	-0,386	-0,241
80,466	-36,163	-0,204	-0,077
81,480	-76,996	-0,431	-0,105
82,495	-47,812	-0,307	-0,104
83,509	96,762	-0,158	-0,127
84,524	-38,940	-0,240	-0,088
85,539	28,656	-0,251	-0,148
86,553	103,490	-0,366	-0,300
87,568	-138,007	-0,368	0,028
88,582	190,934	-0,225	-0,237
89,597	63,365	-0,202	-0,142
90,611	-20,144	-0,324	-0,139
91,626	13,718	-0,170	-0,092
92,641	-76,810	-0,339	-0,082
93,655	49,491	-0,343	-0,225
94,670	257,787	-0,260	-0,314
95,684	-95,226	-0,289	-0,054
96,699	-2,520	-0,235	-0,115
97,714	35,329	-0,299	-0,183
98,728	-144,205	-0,140	0,009
99,743	72,938	-0,285	-0,208
100,757	152,632	-0,311	-0,297
101,772	167,842	-0,255	-0,254
102,787	-54,383	-0,362	-0,114
103,801	199,048	-0,316	-0,339
104,816	32,895	-0,242	-0,146
105,830	57,034	-0,219	-0,149
106,845	-66,095	-0,168	-0,047
107,860	-200,000	-0,322	0,000
108,874	-20,489	-0,407	-0,174
109,889	51,392	-0,336	-0,222
110,903	107,572	-0,268	-0,223
111,918	234,469	-0,302	-0,349
112,933	43,772	-0,273	-0,174
113,947	-46,731	-0,317	-0,108
114,962	366,677	-0,171	-0,241
115,976	0,676	-0,280	-0,140
116,991	71,191	-0,273	-0,197
118,006	-139,213	-0,278	-0,021
119,020	-115,071	-0,149	-0,019
120,035	102,851	-0,139	-0,113
121,049	-33,820	-0,280	-0,107
122,064	-33,035	-0,235	-0,090
123,079	-111,726	-0,176	-0,025
124,093	216,973	-0,184	-0,205
125,108	488,325	-0,167	-0,267
126,122	1,785	-0,237	-0,119
127,137	-28,469	-0,297	-0,119
128,151	-100,819	-0,178	-0,030
129,166	106,233	-0,176	-0,145
130,181	-17,180	-0,198	-0,087
131,195	70,826	-0,259	-0,187
132,210	161,602	-0,233	-0,228
133,224	270,794	-0,250	-0,307
134,239	156,716	-0,281	-0,271
135,254	-69,587	-0,334	-0,089
136,268	311,688	-0,109	-0,143
137,283	255,601	-0,248	-0,297
138,297	77,082	-0,218	-0,161
139,312	79,989	-0,322	-0,241
140,327	172,599	-0,275	-0,276
141,341	205,465	-0,227	-0,246
142,356	140,082	-0,168	-0,154
143,370	-115,775	-0,273	-0,035
144,385	167,669	-0,213	-0,211
145,400	-32,745	-0,233	-0,090
146,414	170,292	-0,182	-0,182
147,429	-104,341	-0,234	-0,037
148,443	-29,401	-0,257	-0,102
149,458	56,237	-0,237	-0,160
150,473	237,291	-0,187	-0,216
151,487	133,621	-0,156	-0,140
152,502	-4,659	-0,305	-0,146
153,516	22,943	-0,435	-0,248
154,531	96,482	-0,256	-0,204
155,546	213,407	-0,216	-0,238
156,560	301,195	-0,118	-0,152
157,575	74,325	-0,191	-0,139
158,589	265,008	-0,167	-0,203
159,604	192,107	-0,150	-0,158
160,619	20,463	-0,300	-0,168
161,633	315,698	-0,204	-0,268
162,648	136,446	-0,218	-0,198
163,662	-153,575	-0,186	0,009
164,677	-7,471	-0,246	-0,116
165,692	415,508	-0,192	-0,285
166,706	74,902	-0,274	-0,201
167,721	219,106	-0,208	-0,231
168,735	419,244	-0,187	-0,279
169,750	-1,431	-0,260	-0,127
170,764	-200,000	-0,087	-0,268
171,779	-31,722	-0,289	-0,112
172,794	231,622	-0,116	-0,132
173,808	148,123	-0,244	-0,229
174,823	361,015	-0,192	-0,268
175,837	63,753	-0,246	-0,171
176,852	83,001	-0,186	-0,140
177,867	-46,188	-0,113	-0,038
178,881	-102,249	-0,244	-0,040
179,896	261,126	-0,147	-0,177
180,910	236,769	-0,187	-0,216
181,925	-200,000	-0,041	-0,256
182,940	800,000	-0,090	-0,247
183,954	-62,122	-0,175	-0,050
184,969	13,947	-0,203	-0,109
185,983	107,873	-0,178	-0,147
186,998	800,000	-0,082	-0,205
188,013	196,951	-0,174	-0,184
189,027	24,683	-0,268	-0,153
190,042	800,000	-0,130	-0,257
191,056	-200,000	-0,079	-0,252
192,071	409,107	-0,151	-0,223
193,086	54,959	-0,240	-0,160
194,100	307,053	-0,070	-0,090
195,115	39,621	-0,081	-0,050
196,129	91,001	-0,238	-0,185
197,144	-6,991	-0,244	-0,114
198,159	2,561	-0,254	-0,127
199,173	477,374	-0,225	-0,353
200,188	54,266	-0,119	-0,079
201,202	332,670	-0,125	-0,168
202,217	118,844	-0,160	-0,137
203,232	-23,436	-0,292	-0,121
204,246	73,288	-0,308	-0,223
205,261	88,777	-0,262	-0,201
206,275	800,000	-0,068	-0,162
207,290	-84,696	-0,160	-0,035
208,304	-61,353	-0,218	-0,063
209,319	-97,387	-0,110	0,020
210,334	78,450	-0,193	-0,143
211,348	206,274	-0,241	-0,261
212,363	139,296	-0,183	-0,167
213,377	-14,668	-0,278	-0,123
214,392	457,477	-0,089	-0,137
215,407	37,770	-0,225	-0,138
216,421	19,461	-0,124	-0,069
217,436	201,385	-0,127	-0,135
218,450	141,780	-0,208	-0,191
219,465	72,777	-0,313	-0,226
220,480	162,727	-0,140	-0,136
221,494	-60,247	-0,236	-0,069
222,509	800,000	-0,091	-0,220
223,523	-54,888	-0,063	0,020
224,538	557,084	-0,120	-0,202
225,553	16,593	-0,200	-0,109
226,567	70,725	-0,080	-0,058
227,582	-58,498	-0,175	0,052
228,596	-63,614	-0,139	-0,039
229,611	41,121	-0,200	-0,125
230,626	3,720	-0,158	-0,079
231,640	159,825	-0,192	-0,185
232,655	735,347	-0,104	-0,194
233,669	75,897	-0,192	-0,140
234,684	59,915	-0,304	-0,207
235,699	206,998	-0,123	-0,133
236,713	127,375	-0,101	-0,089
237,728	296,318	-0,152	-0,194
238,742	454,419	-0,140	-0,215
239,757	464,557	-0,154	-0,239
240,772	123,098	-0,216	-0,187
241,786	-24,162	-0,233	-0,096
242,801	257,319	-0,201	-0,239
243,815	366,926	-0,096	-0,134
244,830	82,920	-0,133	-0,100
245,844	-32,451	-0,087	-0,033
246,859	-19,809	-0,235	-0,100
247,874	460,065	-0,209	-0,323
248,888	294,469	-0,196	-0,247
249,903	-92,900	-0,198	-0,038
250,917	-89,759	-0,254	-0,051
251,932	304,805	-0,115	-0,148
252,947	-49,025	-0,184	-0,061
253,961	69,019	-0,305	-0,216
254,976	67,100	-0,221	-0,155
255,990	-200,000	-0,067	-0,213
257,005	224,609	-0,153	-0,171
258,020	-82,016	-0,171	0,038
259,034	1,488	-0,230	-0,114
260,049	37,887	-0,211	-0,129
261,063	-59,876	-0,174	-0,051
262,078	2,253	-0,163	-0,081
263,093	-78,260	-0,208	-0,049
264,107	155,153	-0,141	-0,133
265,122	104,227	-0,078	-0,063
266,136	22,025	-0,159	-0,089
267,151	-111,300	-0,173	-0,024
268,166	78,206	-0,227	-0,167
269,180	194,433	-0,200	-0,209
270,195	11,928	-0,203	-0,107
271,209	139,049	-0,077	-0,070
272,224	61,954	-0,174	-0,119
273,239	-200,000	0,011	-0,142
274,253	38,913	-0,144	-0,089
275,268	16,845	-0,124	-0,067
276,282	253,208	-0,202	-0,238
277,297	800,000	-0,105	-0,250
278,312	298,440	-0,119	-0,152
279,326	332,378	-0,178	-0,237
280,341	263,033	-0,206	-0,247
281,355	212,913	-0,147	-0,160
282,370	238,857	-0,189	-0,216
283,384	-28,208	-0,236	-0,093
284,399	137,613	-0,176	-0,158
285,414	136,269	-0,151	-0,135
286,428	-200,000	-0,045	-0,172
287,443	-1,203	-0,077	-0,037
288,457	800,000	-0,085	-0,198
289,472	800,000	-0,090	-0,183
290,487	10,437	-0,303	-0,158
291,501	67,925	-0,148	-0,104
292,516	354,493	-0,143	-0,195
293,530	-42,894	-0,234	-0,081
294,545	45,522	-0,061	-0,038
295,560	-65,630	-0,192	-0,052
296,574	421,859	-0,138	-0,205
297,589	-105,813	-0,230	-0,035
298,603	176,678	-0,210	-0,210
299,618	375,613	-0,049	-0,068
300,633	217,564	-0,182	-0,200
301,647	245,093	-0,094	-0,108
302,662	800,000	-0,036	-0,106
303,676	800,000	-0,077	-0,189
304,691	-9,563	-0,306	-0,140
305,706	99,962	-0,123	-0,098
306,720	395,065	-0,093	-0,134
307,735	667,203	-0,077	-0,138
308,749	517,960	-0,085	-0,136
309,764	73,665	-0,082	-0,059
310,779	-73,715	-0,166	-0,041
311,793	58,211	-0,046	-0,031
312,808	57,277	-0,154	-0,103
313,822	3,562	-0,193	-0,096
314,837	-51,008	-0,097	-0,031
315,852	-60,491	-0,145	0,042
316,866	800,000	-0,025	-0,071
317,881	800,000	-0,062	-0,153
318,895	-200,000	-0,041	-0,123
319,910	-48,299	-0,113	-0,037
320,925	-25,048	-0,211	-0,085
321,939	211,890	-0,105	-0,113
322,954	149,944	-0,104	-0,097
323,968	130,115	-0,098	-0,086
324,983	10,804	-0,186	-0,097
325,997	193,491	-0,102	-0,106
327,012	92,003	-0,171	-0,132
328,027	443,732	-0,095	-0,143
329,041	181,538	-0,123	-0,124
330,056	7,325	-0,055	-0,028
331,070	-200,000	-0,068	-0,236
332,085	-200,000	-0,055	-0,190
333,100	220,019	-0,079	-0,087
334,114	142,567	-0,170	-0,155
335,129	651,668	-0,146	-0,258
336,143	473,619	-0,091	-0,142
337,158	-200,000	-0,046	-0,153
338,173	-196,665	-0,110	-0,000
339,187	10,936	-0,118	-0,061
340,202	800,000	-0,021	-0,047
341,216	137,544	-0,134	-0,120
342,231	-200,000	0,061	-0,195
343,246	74,398	-0,133	-0,096
344,260	6,522	-0,130	-0,066
345,275	119,300	-0,117	-0,099
346,289	66,746	-0,132	0,092
347,304	412,433	-0,101	-0,147
348,319	279,635	-0,129	-0,158
349,333	800,000	-0,080	-0,188
350,348	28,006	-0,074	-0,042
351,362	-65,331	-0,170	0,046
352,377	305,499	-0,125	-0,160
353,392	-200,000	-0,034	-0,106
354,406	195,943	-0,161	-0,167
355,421	208,031	1307,118	1398,043
356,435	160,053	1466,898	1398,518
