DTS Sentinel unit serial number:	SN410029Multiplexer serial number:	ORYXHardware model number:	OX2-SRSoftware version number:	ORYX F/W v4,00 Oryx Data Collector v3.7.2.0data status	okinstallation	B3 Nyhavnadifferential loss correction	single-endedforward channel	channel 1reverse channel	N/Adate	2023/11/30time	02:12:30forward acquisition time	300,00reverse acquisition time	0,00gamma	499,1914k internal	0,3210k external	0,3210temperature offset calibration	1,0000default loss term (dB/km)	0,3820temperature slope calibration	1,0000multiplexer offset coefficient	1,0000multiplexer slope coefficient	1,0000fibre end	0,00T internal ref (°C)	10,50T ext. ref 1 (°C)	-5,20T ext. ref 2 (°C)	-5,33length (m)	temperature (°C)	Stokes	anti-Stokes-744,400	705,143	-0,136	-0,262
-743,385	800,000	0,085	0,221
-742,371	34,256	-0,198	-0,125
-741,356	466,528	0,163	0,265
-740,342	214,558	-0,213	-0,245
-739,327	-200,000	-0,005	0,179
-738,312	63,612	-0,301	-0,219
-737,298	800,000	-0,113	0,255
-736,283	-31,880	-0,170	-0,069
-735,269	-200,000	0,076	0,325
-734,254	250,810	-0,173	-0,214
-733,239	30,401	-0,143	0,089
-732,225	392,999	0,060	-0,091
-731,210	-145,127	0,096	0,006
-730,196	800,000	-0,035	-0,098
-729,181	-39,560	-0,162	-0,061
-728,167	776,968	0,045	-0,090
-727,152	270,277	-0,017	-0,022
-726,137	-64,124	-0,109	0,032
-725,123	-85,110	-0,067	0,015
-724,108	-200,000	-0,048	-0,200
-723,094	36,280	-0,116	-0,074
-722,079	-200,000	-0,053	-0,235
-721,064	363,953	-0,069	-0,100
-720,050	-200,000	0,040	0,147
-719,035	-200,000	0,016	-0,071
-718,021	555,783	0,040	-0,070
-717,006	-4,036	-0,065	-0,033
-715,991	202,360	-0,099	-0,111
-714,977	-200,000	0,013	-0,052
-713,962	204,802	-0,028	0,031
-712,948	-200,000	0,008	-0,072
-711,933	-200,000	-0,002	-0,038
-710,918	124,388	0,066	-0,060
-709,904	-200,000	0,000	-0,049
-708,889	-118,177	-0,223	0,028
-707,875	-162,694	-0,096	-0,003
-706,860	-93,914	0,044	0,009
-705,845	133,218	0,041	-0,038
-704,831	-58,427	0,012	0,004
-703,816	-144,771	0,077	0,005
-702,802	-200,000	-0,014	-0,073
-701,787	-3,897	-0,093	-0,047
-700,772	-72,299	-0,042	0,011
-699,758	-200,000	0,028	0,149
-698,743	800,000	-0,016	0,046
-697,729	16,133	0,073	-0,042
-696,714	-62,028	-0,086	-0,026
-695,699	-200,000	0,008	-0,067
-694,685	-200,000	-0,023	-0,079
-693,670	36,542	-0,021	0,013
-692,656	800,000	-0,032	-0,068
-691,641	49,684	0,118	0,080
-690,627	8,777	0,053	0,029
-689,612	250,134	-0,041	-0,051
-688,597	14,178	-0,085	-0,048
-687,583	800,000	0,018	-0,044
-686,568	-200,000	0,001	-0,004
-685,554	16,192	0,054	0,031
-684,539	154,148	0,033	-0,033
-683,524	-1,843	0,107	0,054
-682,510	800,000	-0,045	-0,126
-681,495	316,054	-0,063	-0,086
-680,481	117,122	-0,070	-0,062
-679,466	422,214	-0,053	-0,083
-678,451	14,572	0,135	-0,076
-677,437	-200,000	-0,014	0,051
-676,422	110,618	0,032	-0,027
-675,408	-200,000	-0,022	0,135
-674,393	-10,091	-0,115	0,055
-673,378	800,000	0,033	-0,074
-672,364	800,000	-0,018	-0,057
-671,349	313,336	0,114	0,155
-670,335	-200,000	0,005	0,150
-669,320	311,197	0,005	-0,006
-668,305	130,138	0,118	0,109
-667,291	-108,723	-0,122	0,019
-666,276	-200,000	0,005	0,063
-665,262	653,299	-0,109	-0,203
-664,247	-8,902	0,140	0,067
-663,232	-30,147	0,050	0,021
-662,218	-128,116	-0,071	0,007
-661,203	-137,468	-0,017	-0,001
-660,189	624,058	0,045	-0,083
-659,174	-115,905	-0,057	-0,008
-658,159	-163,742	-0,126	0,004
-657,145	-127,423	0,080	0,008
-656,130	-200,000	-0,002	-0,056
-655,116	522,945	0,037	-0,063
-654,101	800,000	0,018	0,039
-653,086	-64,208	0,058	-0,017
-652,072	55,959	-0,108	0,076
-651,057	-155,236	-0,030	-0,001
-650,043	-200,000	-0,026	0,179
-649,028	89,623	-0,042	0,034
-648,014	-119,993	0,105	0,013
-646,999	-200,000	0,010	0,294
-645,984	-200,000	-0,002	0,082
-644,970	-123,122	0,026	-0,003
-643,955	49,780	0,024	0,016
-642,941	-94,937	-0,108	0,021
-641,926	98,410	-0,062	-0,052
-640,911	-133,009	0,146	-0,013
-639,897	-200,000	-0,028	0,137
-638,882	-200,000	0,021	0,088
-637,868	32,089	-0,025	0,015
-636,853	134,801	-0,048	-0,045
-635,838	-200,000	-0,003	0,107
-634,824	-35,537	0,019	0,007
-633,809	-200,000	-0,008	0,041
-632,795	-200,000	0,001	-0,117
-631,780	99,906	-0,031	-0,026
-630,765	800,000	0,014	-0,033
-629,751	316,475	-0,149	-0,204
-628,736	-200,000	0,017	-0,109
-627,722	5,967	-0,057	-0,030
-626,707	-200,000	-0,014	-0,071
-625,692	264,053	0,102	0,128
-624,678	-200,000	-0,019	-0,061
-623,663	800,000	0,023	-0,059
-622,649	-159,282	-0,052	-0,002
-621,634	-127,524	-0,177	-0,018
-620,619	800,000	0,022	-0,062
-619,605	-200,000	0,014	0,114
-618,590	-200,000	-0,020	0,067
-617,576	43,630	0,047	-0,031
-616,561	-200,000	0,021	0,113
-615,546	-200,000	-0,146	0,000
-614,532	-200,000	0,014	-0,163
-613,517	-56,666	-0,094	-0,030
-612,503	-32,644	-0,048	-0,019
-611,488	800,000	-0,021	0,045
-610,474	-24,085	-0,107	0,046
-609,459	468,651	-0,032	-0,051
-608,444	-200,000	-0,012	-0,072
-607,430	-82,649	-0,032	0,007
-606,415	38,621	-0,094	-0,060
-605,401	-200,000	-0,017	-0,057
-604,386	328,445	-0,078	0,108
-603,371	-44,176	0,021	-0,007
-602,357	78,022	0,093	-0,072
-601,342	318,911	0,086	-0,117
-600,328	26,488	-0,054	-0,032
-599,313	-200,000	-0,021	-0,074
-598,298	-125,317	-0,023	-0,002
-597,284	123,476	0,040	0,036
-596,269	-37,767	0,056	-0,021
-595,255	-200,000	-0,021	-0,094
-594,240	74,540	-0,070	-0,053
-593,225	-38,038	-0,128	-0,049
-592,211	137,181	0,038	-0,036
-591,196	-106,074	0,175	0,028
-590,182	-200,000	0,003	0,016
-589,167	800,000	0,057	0,132
-588,152	-200,000	-0,104	0,000
-587,138	-88,955	0,231	0,049
-586,123	-128,806	-0,031	-0,003
-585,109	72,985	-0,162	-0,122
-584,094	-200,000	0,012	-0,074
-583,079	-8,768	-0,101	-0,049
-582,065	-200,000	0,024	0,089
-581,050	-55,014	0,142	0,046
-580,036	22,317	-0,080	0,047
-579,021	-200,000	-0,018	0,086
-578,006	137,703	-0,108	0,102
-576,992	-70,341	-0,084	-0,023
-575,977	309,073	-0,034	0,046
-574,963	-200,000	-0,016	0,079
-573,948	-200,000	0,003	-0,028
-572,934	161,688	-0,052	-0,052
-571,919	-63,767	-0,068	0,020
-570,904	501,777	-0,048	-0,081
-569,890	-121,016	-0,098	-0,012
-568,875	-71,353	0,106	-0,028
-567,861	52,390	0,208	-0,143
-566,846	-63,469	0,080	-0,024
-565,831	800,000	-0,030	-0,071
-564,817	-200,000	-0,016	-0,107
-563,802	800,000	-0,049	-0,119
-562,788	227,436	-0,089	-0,105
-561,773	681,559	-0,095	-0,180
-560,758	-136,606	-0,117	0,010
-559,744	264,735	0,113	0,141
-558,729	-107,086	0,060	-0,009
-557,715	122,266	-0,114	-0,102
-556,700	23,469	-0,082	-0,049
-555,685	372,470	0,095	-0,139
-554,671	-39,985	-0,100	0,038
-553,656	-200,000	-0,004	0,019
-552,642	800,000	0,037	0,110
-551,627	-200,000	-0,029	-0,192
-550,612	800,000	-0,039	-0,120
-549,598	-200,000	0,012	-0,094
-548,583	145,202	-0,046	-0,045
-547,569	496,172	-0,027	0,044
-546,554	-35,235	0,148	-0,058
-545,539	-200,000	-0,022	0,108
-544,525	719,790	0,058	0,111
-543,510	-153,745	-0,091	-0,004
-542,496	285,357	-0,077	0,100
-541,481	800,000	-0,033	0,077
-540,466	-200,000	0,005	0,085
-539,452	-100,158	0,144	0,026
-538,437	-29,112	0,055	0,023
-537,423	-116,878	-0,209	0,027
-536,408	-64,403	-0,047	0,014
-535,393	-200,000	0,044	-0,162
-534,379	-0,788	-0,011	-0,006
-533,364	-200,000	-0,005	-0,047
-532,350	144,616	-0,056	0,054
-531,335	80,188	0,094	0,073
-530,321	-200,000	-0,012	-0,044
-529,306	30,165	-0,077	-0,047
-528,291	294,474	-0,045	-0,060
-527,277	-130,368	-0,174	0,017
-526,262	-200,000	0,001	-0,058
-525,248	-200,000	0,041	0,161
-524,233	-141,962	0,113	0,008
-523,218	-27,322	0,101	0,042
-522,204	-200,000	-0,008	0,070
-521,189	330,248	-0,059	-0,082
-520,175	65,990	0,065	-0,048
-519,160	493,443	0,018	-0,030
-518,145	-200,000	-0,003	0,035
-517,131	-79,969	0,146	0,035
-516,116	-35,775	0,051	0,020
-515,102	800,000	0,016	0,042
-514,087	-169,459	-0,054	0,001
-513,072	-200,000	-0,001	-0,069
-512,058	-200,000	-0,001	-0,021
-511,043	185,342	-0,155	0,166
-510,029	52,363	-0,036	-0,025
-509,014	-12,269	0,131	0,062
-507,999	264,366	0,059	0,074
-506,985	229,609	-0,081	0,095
-505,970	196,070	0,099	-0,108
-504,956	411,689	-0,049	-0,075
-503,941	-200,000	0,017	0,078
-502,926	17,790	0,082	0,047
-501,912	169,233	0,072	0,074
-500,897	-8,622	0,068	0,032
-499,883	138,554	0,007	0,006
-498,868	500,761	-0,043	-0,072
-497,853	314,998	-0,024	0,033
-496,839	488,964	-0,046	0,075
-495,824	204,488	0,074	0,082
-494,810	339,071	0,069	0,097
-493,795	518,616	0,082	0,138
-492,781	-43,650	-0,086	-0,031
-491,766	-161,941	-0,040	-0,001
-490,751	194,258	-0,106	-0,116
-489,737	115,833	0,117	-0,102
-488,722	-200,000	-0,058	0,226
-487,708	-165,558	0,156	-0,005
-486,693	7,793	-0,123	0,066
-485,678	324,841	-0,071	-0,097
-484,664	-200,000	0,011	-0,054
-483,649	137,079	-0,045	-0,042
-482,635	565,338	0,018	0,031
-481,620	316,233	0,040	0,054
-480,605	19,861	0,050	0,029
-479,591	-200,000	-0,005	-0,292
-478,576	-47,155	-0,167	-0,058
-477,562	-73,508	-0,093	0,024
-476,547	800,000	-0,017	0,034
-475,532	-200,000	-0,002	-0,015
-474,518	83,587	0,100	-0,078
-473,503	440,334	-0,024	0,038
-472,489	-200,000	0,002	0,027
-471,474	-82,992	-0,207	-0,047
-470,459	122,983	-0,068	0,061
-469,445	800,000	-0,025	-0,062
-468,430	203,818	-0,064	-0,071
-467,416	-200,000	-0,003	-0,012
-466,401	-119,749	0,125	-0,015
-465,386	800,000	0,031	-0,062
-464,372	11,923	-0,148	0,082
-463,357	104,713	-0,014	-0,012
-462,343	116,684	0,062	-0,055
-461,328	271,385	-0,079	-0,100
-460,313	-27,342	-0,118	0,049
-459,299	438,936	0,059	0,093
-458,284	530,058	-0,104	0,177
-457,270	800,000	0,034	0,078
-456,255	64,123	-0,124	0,090
-455,241	-200,000	-0,027	0,194
-454,226	-21,975	0,095	0,041
-453,211	-200,000	0,008	0,109
-452,197	-45,316	0,101	-0,036
-451,182	112,688	0,095	0,082
-450,168	-90,994	0,090	-0,018
-449,153	-107,280	-0,107	-0,017
-448,138	75,037	-0,117	-0,088
-447,124	-200,000	-0,008	-0,024
-446,109	800,000	0,019	0,053
-445,095	-200,000	-0,019	0,117
-444,080	-159,598	0,075	-0,003
-443,065	-103,137	-0,062	-0,010
-442,051	109,180	-0,080	0,068
-441,036	164,909	-0,064	-0,065
-440,022	85,313	-0,071	-0,056
-439,007	800,000	-0,036	-0,091
-437,992	-200,000	0,000	-0,099
-436,978	-200,000	0,011	0,041
-435,963	-57,525	0,121	-0,038
-434,949	800,000	-0,023	-0,046
-433,934	-200,000	0,030	-0,153
-432,919	-200,000	0,025	-0,112
-431,905	-20,380	0,050	-0,022
-430,890	20,630	0,079	0,046
-429,876	-100,552	0,060	-0,010
-428,861	-30,918	0,034	-0,014
-427,846	-200,000	-0,005	-0,147
-426,832	-200,000	-0,000	-0,024
-425,817	800,000	-0,046	0,111
-424,803	-200,000	0,003	-0,034
-423,788	-200,000	-0,008	0,106
-422,773	800,000	0,037	0,077
-421,759	272,433	-0,077	0,098
-420,744	-140,539	0,089	-0,007
-419,730	-200,000	-0,026	-0,102
-418,715	-200,000	-0,007	-0,105
-417,701	-14,819	-0,019	0,009
-416,686	-146,448	0,060	-0,004
-415,671	-200,000	-0,000	0,041
-414,657	800,000	0,028	0,073
-413,642	458,867	-0,026	0,042
-412,628	-99,619	-0,074	-0,013
-411,613	191,146	0,064	-0,069
-410,598	362,468	-0,114	-0,164
-409,584	119,480	0,054	-0,048
-408,569	9,843	-0,151	0,082
-407,555	800,000	0,085	0,200
-406,540	-83,490	0,081	0,018
-405,525	-200,000	-0,001	-0,024
-404,511	632,983	0,022	0,039
-403,496	-87,331	0,109	-0,023
-402,482	-5,230	-0,141	0,069
-401,467	95,199	0,082	-0,067
-400,452	-114,576	0,017	0,002
-399,438	-200,000	-0,002	0,088
-398,423	18,104	0,059	0,033
-397,409	-133,607	0,082	-0,007
-396,394	775,304	0,088	0,174
-395,379	-67,741	-0,046	0,013
-394,365	108,345	0,044	0,037
-393,350	182,024	-0,045	0,048
-392,336	734,504	-0,023	0,043
-391,321	-44,343	-0,050	-0,018
-390,306	35,062	-0,086	-0,054
-389,292	800,000	0,044	-0,104
-388,277	7,473	-0,113	-0,060
-387,263	-99,373	0,125	0,022
-386,248	800,000	0,066	0,177
-385,233	-200,000	0,002	0,124
-384,219	-119,138	-0,058	0,007
-383,204	-186,756	0,034	-0,000
-382,190	25,484	-0,150	0,089
-381,175	800,000	0,015	-0,041
-380,160	800,000	0,052	0,128
-379,146	-123,002	0,161	0,018
-378,131	-200,000	-0,016	-0,068
-377,117	-200,000	-0,018	0,102
-376,102	-200,000	-0,008	-0,058
-375,088	68,332	-0,121	0,088
-374,073	549,898	0,040	0,068
-373,058	114,734	-0,074	0,064
-372,044	52,348	0,124	-0,084
-371,029	184,641	-0,036	0,038
-370,015	800,000	0,042	0,090
-369,000	117,659	-0,092	0,081
-367,985	-200,000	-0,009	0,075
-366,971	37,084	0,101	0,064
-365,956	-200,000	-0,010	0,073
-364,942	475,283	0,072	-0,116
-363,927	405,113	-0,067	0,102
-362,912	99,549	0,061	-0,051
-361,898	800,000	0,008	0,024
-360,883	-59,928	-0,052	-0,016
-359,869	-45,958	0,082	0,029
-358,854	-118,133	-0,105	0,013
-357,839	-55,225	0,138	0,044
-356,825	45,474	0,027	-0,018
-355,810	160,788	0,070	-0,070
-354,796	-200,000	0,009	-0,082
-353,781	-200,000	0,005	0,044
-352,766	376,119	-0,074	-0,109
-351,752	24,370	0,140	0,082
-350,737	-108,965	0,125	-0,019
-349,723	125,987	0,077	0,070
-348,708	722,362	-0,054	0,102
-347,693	233,564	-0,073	0,086
-346,679	0,402	-0,040	-0,020
-345,664	482,465	-0,048	-0,079
-344,650	-27,402	0,050	0,021
-343,635	-134,092	-0,111	0,010
-342,620	-39,967	0,109	-0,040
-341,606	146,466	-0,124	-0,119
-340,591	-69,560	0,177	0,048
-339,577	-200,000	-0,044	-0,152
-338,562	-200,000	0,013	-0,113
-337,548	153,611	0,017	0,017
-336,533	-200,000	0,004	0,049
-335,518	-157,945	0,173	-0,007
-334,504	315,780	0,007	0,009
-333,489	-43,621	-0,027	0,010
-332,475	-30,342	-0,134	-0,054
-331,460	233,179	0,074	-0,087
-330,445	9,757	-0,045	0,024
-329,431	-123,808	0,086	0,010
-328,416	-26,964	0,102	-0,042
-327,402	-79,583	-0,016	0,004
-326,387	685,909	0,072	0,135
-325,372	-110,701	-0,066	0,010
-324,358	28,856	-0,025	-0,015
-323,343	5,606	0,041	0,021
-322,329	-200,000	0,044	-0,152
-321,314	135,121	0,036	0,034
-320,299	-40,428	0,069	0,025
-319,285	-72,094	0,097	-0,025
-318,270	-109,087	-0,070	-0,010
-317,256	-37,580	-0,045	-0,017
-316,241	800,000	-0,028	0,062
-315,226	90,358	-0,055	0,044
-314,212	-200,000	0,002	0,054
-313,197	699,260	0,057	0,107
-312,183	28,447	0,069	0,042
-311,168	572,257	0,110	-0,192
-310,153	-164,995	-0,097	-0,003
-309,139	-38,049	-0,033	0,012
-308,124	-200,000	-0,007	0,033
-307,110	413,977	0,033	0,051
-306,095	-17,800	0,047	0,021
-305,080	605,379	-0,027	-0,048
-304,066	72,372	-0,082	-0,061
-303,051	-134,118	-0,102	-0,009
-302,037	800,000	0,073	-0,146
-301,022	-127,008	0,129	0,013
-300,008	-158,188	0,119	0,005
-298,993	-200,000	0,007	0,049
-297,978	-5,730	0,191	0,093
-296,964	-2,483	-0,054	-0,027
-295,949	-41,772	-0,063	0,023
-294,935	-25,252	-0,018	-0,007
-293,920	800,000	-0,048	0,142
-292,905	9,825	0,216	0,116
-291,891	180,911	-0,030	0,031
-290,876	441,939	-0,020	-0,031
-289,862	6,582	0,071	-0,037
-288,847	800,000	-0,053	-0,148
-287,832	-28,553	-0,031	-0,013
-286,818	317,906	0,078	0,106
-285,803	800,000	-0,016	-0,045
-284,789	76,591	0,108	-0,081
-283,774	408,091	0,058	0,087
-282,759	86,594	0,081	0,063
-281,745	719,358	-0,032	-0,060
-280,730	-36,633	-0,103	-0,039
-279,716	800,000	0,040	-0,125
-278,701	39,918	0,027	-0,017
-277,686	51,084	0,030	0,020
-276,672	423,701	0,049	-0,075
-275,657	134,336	0,137	-0,127
-274,643	-200,000	-0,056	-0,229
-273,628	-114,321	-0,155	0,021
-272,613	-80,408	0,092	0,022
-271,599	224,255	-0,070	0,080
-270,584	800,000	-0,076	0,191
-269,570	-200,000	-0,000	0,011
-268,555	133,922	0,082	-0,076
-267,540	31,559	-0,089	-0,055
-266,526	56,497	-0,037	-0,025
-265,511	136,043	-0,084	-0,078
-264,497	-200,000	-0,019	0,184
-263,482	800,000	0,026	0,067
-262,467	-200,000	-0,020	0,145
-261,453	654,249	-0,055	0,101
-260,438	-52,339	0,076	0,025
-259,424	-42,170	-0,104	0,038
-258,409	316,296	0,045	0,061
-257,395	780,558	0,055	-0,108
-256,380	706,220	-0,038	-0,071
-255,365	156,274	0,113	0,111
-254,351	199,233	-0,041	0,045
-253,336	-200,000	-0,005	0,036
-252,322	509,795	-0,159	-0,264
-251,307	-107,451	0,086	0,013
-250,292	800,000	-0,014	0,028
-249,278	282,585	0,056	-0,072
-248,263	-200,000	-0,000	0,006
-247,249	687,533	0,070	0,131
-246,234	205,796	0,029	0,032
-245,219	105,822	0,044	-0,037
-244,205	73,754	0,047	-0,035
-243,190	12,327	0,062	0,034
-242,176	800,000	0,038	0,106
-241,161	-185,402	0,183	-0,002
-240,146	260,005	-0,016	-0,019
-239,132	-200,000	0,016	0,091
-238,117	-200,000	0,006	-0,106
-237,103	-200,000	0,013	-0,113
-236,088	800,000	0,059	0,127
-235,073	-200,000	0,002	0,082
-234,059	116,238	-0,030	-0,026
-233,044	370,731	-0,052	0,076
-232,030	86,704	0,091	0,071
-231,015	-86,716	-0,128	-0,028
-230,000	-200,000	0,021	-0,118
-228,986	127,104	-0,031	-0,028
-227,971	-127,919	0,080	-0,008
-226,957	-200,000	-0,009	-0,033
-225,942	-57,394	0,142	-0,044
-224,927	-200,000	-0,007	0,082
-223,913	-200,000	0,010	-0,037
-222,898	112,764	-0,055	0,047
-221,884	126,045	-0,072	-0,065
-220,869	127,510	-0,115	-0,104
-219,855	131,240	0,129	-0,118
-218,840	184,963	0,062	-0,066
-217,825	529,223	-0,045	-0,076
-216,811	-200,000	0,018	-0,267
-215,796	12,322	-0,018	-0,010
-214,782	104,419	-0,120	-0,100
-213,767	162,465	-0,077	0,077
-212,752	-200,000	0,024	-0,086
-211,738	-200,000	0,009	0,056
-210,723	-200,000	-0,001	0,019
-209,709	-200,000	-0,020	-0,098
-208,694	-32,283	0,100	-0,039
-207,679	800,000	-0,019	0,043
-206,665	248,380	0,067	0,080
-205,650	34,869	-0,082	0,051
-204,636	292,177	-0,089	0,115
-203,621	334,110	-0,060	0,082
-202,606	-25,644	-0,119	-0,049
-201,592	-200,000	-0,225	0,000
-200,577	269,841	0,028	-0,035
-199,563	-200,000	-0,002	-0,064
-198,548	-200,000	0,026	0,104
-197,533	-94,940	0,106	0,020
-196,519	124,489	0,071	-0,063
-195,504	217,645	-0,062	0,071
-194,490	-200,000	0,002	0,032
-193,475	1,302	-0,068	-0,035
-192,460	-200,000	0,005	-0,091
-191,446	-79,839	0,088	-0,021
-190,431	-26,705	-0,057	-0,024
-189,417	-9,397	0,122	-0,058
-188,402	-184,774	-0,058	0,001
-187,387	484,972	-0,090	0,146
-186,373	120,392	0,117	-0,104
-185,358	234,613	0,014	-0,017
-184,344	800,000	-0,034	0,067
-183,329	-108,427	0,097	-0,015
-182,315	767,404	0,070	0,136
-181,300	-114,596	-0,074	-0,010
-180,285	-173,270	0,168	0,004
-179,271	-91,079	-0,037	-0,007
-178,256	800,000	-0,042	-0,087
-177,242	-80,696	0,024	0,006
-176,227	-200,000	-0,029	-0,122
-175,212	-200,000	-0,009	-0,048
-174,198	172,994	0,032	-0,033
-173,183	594,493	-0,057	-0,100
-172,169	-200,000	-0,014	-0,098
-171,154	-169,057	-0,024	0,001
-170,139	800,000	-0,027	0,064
-169,125	-200,000	-0,018	-0,102
-168,110	800,000	-0,024	-0,052
-167,096	7,340	-0,063	0,033
-166,081	166,487	-0,058	0,058
-165,066	86,451	-0,076	0,059
-164,052	800,000	-0,022	-0,048
-163,037	-112,666	0,087	0,012
-162,023	419,346	0,138	0,210
-161,008	-200,000	-0,009	0,057
-159,993	306,952	0,076	0,100
-158,979	-144,804	-0,108	-0,007
-157,964	800,000	0,016	0,042
-156,950	-200,000	-0,043	-0,164
-155,935	-3,683	0,083	-0,041
-154,920	394,467	0,033	-0,049
-153,906	-35,905	0,035	0,013
-152,891	-200,000	0,006	-0,073
-151,877	300,476	0,068	0,089
-150,862	400,073	-0,103	0,153
-149,847	-200,000	0,019	0,113
-148,833	23,133	0,063	-0,037
-147,818	-46,655	0,201	0,069
-146,804	-96,643	-0,116	0,021
-145,789	-200,000	0,030	0,130
-144,775	-200,000	0,044	-0,146
-143,760	-67,675	-0,080	0,022
-142,745	156,742	0,053	-0,052
-141,731	114,469	0,042	0,036
-140,716	-200,000	0,003	0,011
-139,702	-200,000	0,008	0,083
-138,687	150,394	0,056	0,054
-137,672	-15,408	-0,122	0,055
-136,658	-57,571	0,089	-0,027
-135,643	-172,047	-0,096	0,002
-134,629	-98,007	-0,093	-0,017
-133,614	-200,000	-0,028	0,102
-132,599	464,974	0,039	0,062
-131,585	-156,427	-0,077	-0,003
-130,570	-109,925	0,078	-0,011
-129,556	53,791	0,005	-0,003
-128,541	-200,000	-0,040	-0,131
-127,526	-200,000	0,012	-0,079
-126,512	-57,187	0,032	0,010
-125,497	426,509	0,018	-0,028
-124,483	800,000	-0,037	0,097
-123,468	47,402	-0,087	-0,057
-122,453	800,000	0,028	0,057
-121,439	-66,075	-0,027	0,007
-120,424	-200,000	-0,005	-0,064
-119,410	-200,000	0,016	0,076
-118,395	54,666	0,120	0,082
-117,380	-46,150	-0,103	0,036
-116,366	-200,000	-0,021	0,115
-115,351	800,000	0,005	0,014
-114,337	-15,494	-0,044	-0,020
-113,322	-200,000	-0,000	0,009
-112,307	-200,000	0,006	0,138
-111,293	-90,094	0,151	0,031
-110,278	-200,000	-0,004	0,103
-109,264	-200,000	-0,036	0,134
-108,249	-200,000	-0,013	0,047
-107,234	-200,000	-0,031	-0,139
-106,220	437,432	0,014	0,021
-105,205	-114,301	0,147	0,020
-104,191	-200,000	0,025	0,122
-103,176	-62,272	0,031	0,009
-102,162	-200,000	0,028	0,113
-101,147	-200,000	-0,024	0,079
-100,132	36,858	-0,059	-0,037
-99,118	157,133	-0,070	-0,069
-98,103	-200,000	-0,013	-0,145
-97,089	-200,000	-0,017	-0,176
-96,074	400,875	0,068	0,102
-95,059	800,000	0,016	0,032
-94,045	24,975	-0,006	0,004
-93,030	-200,000	0,018	-0,076
-92,016	176,980	0,049	0,050
-91,001	-121,233	0,056	-0,006
-89,986	156,156	0,015	0,015
-88,972	532,169	0,056	0,095
-87,957	219,718	-0,002	0,003
-86,943	800,000	0,012	0,034
-85,928	254,027	-0,055	-0,067
-84,913	-200,000	0,005	0,021
-83,899	800,000	0,037	0,082
-82,884	1,179	0,101	-0,051
-81,870	-200,000	-0,001	0,018
-80,855	-37,268	0,068	-0,025
-79,840	108,297	0,030	-0,025
-78,826	-71,612	-0,083	-0,022
-77,811	540,776	-0,064	-0,108
-76,797	81,041	-0,069	0,053
-75,782	109,585	0,026	0,022
-74,767	30,734	0,148	0,089
-73,753	20,972	0,110	-0,063
-72,738	-200,000	-0,023	0,072
-71,724	-30,180	0,041	-0,016
-70,709	-32,327	-0,030	-0,012
-69,694	24,937	0,119	-0,070
-68,680	24,890	0,079	0,046
-67,665	800,000	0,026	0,060
-66,651	145,704	0,082	0,078
-65,636	-14,486	-0,094	-0,043
-64,622	-200,000	-0,003	-0,057
-63,607	109,492	0,113	0,096
-62,592	-200,000	-0,032	-0,110
-61,578	166,311	-0,003	0,003
-60,563	800,000	-0,028	-0,075
-59,549	-129,243	-0,070	-0,007
-58,534	19,432	-1,970	-1,115
-57,519	517,318	-1,212	-2,010
-56,505	-200,000	-0,496	-4,401
-55,490	336,009	1,025	1,408
-54,476	800,000	5,260	11,202
-53,461	-200,000	21,022	334,635
-52,446	800,000	758,111	2340,159
-51,432	554,607	1661,450	2833,387
-50,417	73,557	1662,477	1227,905
-49,403	18,329	1535,986	863,577
-48,388	12,302	1458,914	791,080
-47,373	19,164	1449,864	819,090
-46,359	15,641	1439,131	796,227
-45,344	10,611	1435,106	770,013
-44,330	10,505	1433,339	768,530
-43,315	10,525	1431,448	767,579
-42,300	10,519	1429,621	766,539
-41,286	10,509	1428,423	765,819
-40,271	10,530	1427,158	765,211
-39,257	10,509	1425,923	764,418
-38,242	10,558	1424,847	764,046
-37,227	10,581	1423,599	763,451
-36,213	10,577	1422,452	762,789
-35,198	10,563	1421,414	762,134
-34,184	10,633	1420,651	762,028
-33,169	10,522	1419,254	760,723
-32,154	10,599	1418,019	760,395
-31,140	10,594	1416,896	759,738
-30,125	10,601	1415,640	759,067
-29,111	10,675	1414,616	758,837
-28,096	10,601	1413,214	757,705
-27,082	10,558	1412,235	756,951
-26,067	10,533	1411,348	756,327
-25,052	10,578	1410,061	755,820
-24,038	10,549	1408,949	755,056
-23,023	10,528	1408,214	754,536
-22,009	10,508	1407,158	753,843
-20,994	10,494	1406,079	753,173
-19,979	10,494	1405,311	752,733
-18,965	10,516	1404,418	752,326
-17,950	10,532	1403,146	751,689
-16,936	10,463	1402,635	751,063
-15,921	10,367	1401,841	750,159
-14,906	10,433	1400,560	749,752
-13,892	10,456	1399,541	749,284
-12,877	10,419	1398,813	748,693
-11,863	10,449	1397,942	748,335
-10,848	10,391	1397,219	747,652
-9,833	10,385	1396,304	747,104
-8,819	10,411	1395,167	746,588
-7,804	10,305	1394,666	745,797
-6,790	10,345	1393,622	745,392
-5,775	10,317	1392,550	744,664
-4,760	10,391	1391,378	744,349
-3,746	10,322	1390,604	743,586
-2,731	10,347	1389,749	743,216
-1,717	10,333	1388,995	742,719
-0,702	10,302	1387,069	741,513
0,313	14,373	1300,199	713,704
1,327	30,606	690,969	416,124
2,342	47,879	119,628	78,698
3,356	0,275	16,403	8,231
4,371	0,700	3,489	1,755
5,386	21,474	0,861	0,493
6,400	800,000	0,211	0,420
7,415	-59,909	-0,170	0,051
8,429	203,624	-0,200	-0,219
9,444	97,860	-0,316	-0,256
10,459	-94,359	-0,253	-0,048
11,473	-34,404	-0,355	-0,137
12,488	33,467	-0,406	-0,248
13,502	-32,206	-0,357	-0,140
14,517	92,364	-0,380	-0,302
15,531	425,802	-0,233	-0,355
16,546	-15,478	-0,447	-0,200
17,561	48,183	-0,385	-0,253
18,575	352,327	-0,146	-0,205
19,590	25,202	-0,222	-0,130
20,604	-17,261	-0,213	-0,094
21,619	77,926	-0,501	-0,376
22,634	132,756	-0,407	-0,370
23,648	344,371	-0,230	-0,319
24,663	41,440	-0,374	-0,238
25,677	-4,729	-0,304	-0,147
26,692	33,863	-0,370	-0,226
27,707	246,070	-0,240	-0,285
28,721	225,492	-0,235	-0,268
29,736	169,032	-0,334	-0,336
30,750	141,843	-0,391	-0,365
31,765	34,850	-0,410	-0,252
32,780	81,425	-0,420	-0,319
33,794	-3,950	-0,318	-0,155
34,809	86,227	-0,356	-0,276
35,823	-49,789	-0,401	-0,133
36,838	128,516	-0,344	-0,308
37,853	186,348	-0,304	-0,319
38,867	-64,197	-0,345	-0,098
39,882	48,153	-0,319	-0,209
40,896	-84,458	-0,213	-0,047
41,911	-66,422	-0,291	-0,081
42,926	83,629	-0,319	-0,244
43,940	52,241	-0,351	-0,235
44,955	194,239	-0,321	-0,342
45,969	45,620	-0,309	-0,201
46,984	67,785	-0,250	-0,180
47,999	120,736	-0,317	-0,277
49,013	-44,756	-0,397	-0,139
50,028	-77,706	-0,424	-0,102
51,042	17,758	-0,410	-0,228
52,057	79,918	-0,368	-0,278
53,071	47,498	-0,335	-0,219
54,086	74,393	-0,429	-0,316
55,101	-21,839	-0,423	-0,180
56,115	-9,284	-0,335	-0,156
57,130	-39,713	-0,422	-0,154
58,144	256,271	-0,244	-0,294
59,159	46,091	-0,489	-0,318
60,174	-58,531	-0,446	-0,135
61,188	31,279	-0,301	-0,181
62,203	-46,788	-0,352	-0,120
63,217	170,410	-0,234	-0,235
64,232	-98,502	-0,275	-0,049
65,247	28,258	-0,316	-0,187
66,261	114,034	-0,339	-0,289
67,276	61,882	-0,281	-0,196
68,290	-21,020	-0,411	-0,176
69,305	48,090	-0,211	-0,138
70,320	47,772	-0,303	-0,198
71,334	48,757	-0,360	-0,237
72,349	-67,279	-0,298	-0,082
73,363	38,826	-0,267	-0,167
74,378	2,929	-0,390	-0,198
75,393	27,169	-0,307	-0,180
76,407	81,591	-0,279	-0,212
77,422	34,721	-0,234	-0,143
78,436	44,388	-0,216	-0,139
79,451	82,880	-0,309	-0,236
80,466	7,540	-0,264	-0,138
81,480	39,889	-0,358	-0,225
82,495	-25,567	-0,177	-0,073
83,509	-93,164	-0,201	-0,039
84,524	-143,706	-0,284	-0,019
85,539	113,160	-0,272	-0,231
86,553	6,930	-0,450	-0,234
87,568	108,935	-0,322	-0,269
88,582	-52,043	-0,261	-0,084
89,597	-93,201	-0,363	-0,070
90,611	-77,455	-0,258	-0,062
91,626	-90,979	-0,320	-0,064
92,641	-105,009	-0,353	-0,056
93,655	538,191	-0,200	-0,334
94,670	96,078	-0,231	-0,185
95,684	227,638	-0,265	-0,302
96,699	-23,508	-0,308	-0,129
97,714	673,807	-0,189	-0,344
98,728	800,000	-0,140	-0,382
99,743	-25,623	-0,282	-0,116
100,757	-13,544	-0,280	-0,126
101,772	221,683	-0,241	-0,271
102,787	28,542	-0,288	-0,170
103,801	39,407	-0,234	-0,146
104,816	230,366	-0,215	-0,247
105,830	269,659	-0,169	-0,209
106,845	-57,843	-0,340	-0,103
107,860	17,485	-0,243	-0,135
108,874	-13,085	-0,280	-0,127
109,889	190,469	-0,214	-0,225
110,903	176,683	-0,290	-0,294
111,918	134,777	-0,155	-0,141
112,933	3,608	-0,230	-0,117
113,947	419,858	-0,175	-0,262
114,962	-1,935	-0,258	-0,126
115,976	96,983	-0,360	-0,288
116,991	-33,514	-0,411	-0,158
118,006	36,291	-0,352	-0,216
119,020	164,425	-0,243	-0,240
120,035	112,207	-0,150	-0,127
121,049	729,313	-0,119	-0,223
122,064	124,590	-0,133	-0,117
123,079	119,094	-0,226	-0,195
124,093	69,950	-0,300	-0,216
125,108	-7,486	-0,272	-0,128
126,122	148,171	-0,328	-0,309
127,137	22,562	-0,266	-0,151
128,151	49,597	-0,137	-0,090
129,166	78,645	-0,259	-0,193
130,181	242,594	-0,259	-0,303
131,195	130,229	-0,206	-0,184
132,210	575,294	-0,229	-0,392
133,224	93,175	-0,211	-0,167
134,239	-6,413	-0,215	-0,102
135,254	586,721	-0,206	-0,355
136,268	-188,257	-0,226	-0,002
137,283	21,704	-0,195	-0,111
138,297	160,358	-0,228	-0,222
139,312	172,761	-0,246	-0,247
140,327	169,449	-0,163	-0,163
141,341	-101,691	-0,259	-0,043
142,356	-31,505	-0,277	-0,108
143,370	-11,446	-0,268	-0,122
144,385	-16,295	-0,291	-0,128
145,400	-58,129	-0,396	-0,119
146,414	102,202	-0,289	-0,235
147,429	-152,684	-0,209	-0,010
148,443	-28,464	-0,338	-0,135
149,458	-141,709	-0,109	0,008
150,473	-107,305	-0,227	-0,034
151,487	570,869	-0,145	-0,247
152,502	159,586	-0,294	-0,286
153,516	101,863	-0,281	-0,228
154,531	-138,659	-0,255	-0,019
155,546	175,585	-0,166	-0,167
156,560	-4,415	-0,140	-0,067
157,575	-72,154	-0,236	0,060
158,589	129,912	-0,209	-0,186
159,604	205,356	-0,175	-0,189
160,619	-43,777	-0,280	-0,098
161,633	65,093	-0,241	-0,169
162,648	95,123	-0,193	-0,153
163,662	-39,000	-0,226	-0,082
164,677	61,229	-0,254	-0,175
165,692	-72,817	-0,144	-0,037
166,706	82,141	-0,301	-0,227
167,721	136,250	-0,187	-0,170
168,735	345,624	-0,103	-0,142
169,750	-97,290	-0,227	0,041
170,764	-65,409	-0,205	-0,057
171,779	47,099	0,015	0,010
172,794	-48,640	-0,247	-0,082
173,808	109,377	-0,331	-0,275
174,823	32,885	-0,327	-0,197
175,837	388,985	-0,148	-0,214
176,852	39,411	-0,301	-0,187
177,867	222,348	-0,229	-0,256
178,881	497,338	-0,129	-0,207
179,896	43,014	-0,216	-0,137
180,910	-34,533	-0,129	-0,049
181,925	103,398	-0,231	-0,188
182,940	800,000	-0,134	-0,279
183,954	97,966	-0,250	-0,200
184,969	80,859	-0,316	-0,236
185,983	800,000	-0,138	-0,298
186,998	207,877	-0,110	-0,119
188,013	-96,853	-0,158	-0,029
189,027	-3,250	-0,152	-0,073
190,042	4,036	-0,308	-0,156
191,056	111,640	-0,075	-0,063
192,071	188,075	-0,203	-0,211
193,086	105,141	-0,220	-0,180
194,100	-1,764	-0,312	-0,152
195,115	81,793	-0,230	-0,173
196,129	184,829	-0,127	-0,131
197,144	226,237	-0,140	-0,158
198,159	23,179	-0,205	-0,116
199,173	44,329	-0,135	-0,086
200,188	-108,934	-0,229	-0,033
201,202	153,654	-0,158	-0,150
202,217	-55,637	-0,174	-0,054
203,232	130,293	-0,108	-0,096
204,246	800,000	-0,077	-0,156
205,261	85,788	-0,108	-0,082
206,275	-107,900	-0,177	-0,026
207,290	547,759	-0,098	-0,163
208,304	338,231	-0,180	-0,243
209,319	-25,928	-0,247	-0,100
210,334	-7,009	-0,219	-0,103
211,348	538,367	-0,146	-0,241
212,363	-3,063	-0,181	-0,087
213,377	-42,453	-0,311	-0,109
214,392	91,687	-0,132	-0,103
215,407	63,034	-0,068	-0,047
216,421	8,351	-0,207	-0,108
217,436	426,485	-0,129	-0,193
218,450	800,000	-0,083	-0,223
219,465	117,054	-0,247	-0,210
220,480	158,419	-0,132	-0,127
221,494	73,794	-0,144	-0,105
222,509	27,897	-0,031	-0,018
223,523	800,000	-0,072	-0,147
224,538	280,711	-0,215	-0,267
225,553	9,097	-0,228	-0,119
226,567	-200,000	-0,043	-0,151
227,582	130,248	-0,157	-0,139
228,596	302,165	-0,133	-0,170
229,611	180,516	-0,146	-0,149
230,626	71,239	-0,203	-0,146
231,640	259,620	-0,135	-0,161
232,655	101,464	-0,193	-0,156
233,669	-55,589	-0,275	-0,085
234,684	48,331	-0,079	-0,051
235,699	-1,217	-0,212	-0,103
236,713	614,489	-0,101	-0,176
237,728	-141,631	-0,266	-0,018
238,742	8,025	-0,157	-0,081
239,757	79,358	-0,060	-0,044
240,772	370,735	-0,184	-0,258
241,786	-118,237	-0,132	-0,016
242,801	-102,954	-0,227	-0,037
243,815	448,688	-0,112	-0,171
244,830	-40,846	-0,290	-0,103
245,844	75,592	-0,138	-0,100
246,859	226,891	-0,095	-0,107
247,874	186,369	-0,123	-0,127
248,888	-2,099	-0,070	-0,034
249,903	-6,582	-0,174	-0,082
250,917	297,787	-0,128	-0,163
251,932	-100,345	-0,150	-0,025
252,947	-12,553	-0,160	-0,072
253,961	-8,013	-0,180	-0,083
254,976	102,427	-0,106	-0,085
255,990	800,000	-0,094	-0,272
257,005	-34,568	-0,044	-0,016
258,020	15,693	-0,109	-0,059
259,034	334,615	-0,099	-0,132
260,049	159,365	-0,109	-0,105
261,063	8,705	-0,170	-0,088
262,078	800,000	-0,133	-0,260
263,093	-91,679	-0,276	-0,054
264,107	-33,429	-0,077	-0,029
265,122	96,463	-0,079	0,062
266,136	106,844	-0,133	-0,108
267,151	-45,525	-0,181	0,061
268,166	63,056	-0,238	-0,164
269,180	130,641	-0,159	-0,141
270,195	92,227	-0,143	-0,111
271,209	-70,986	-0,158	-0,041
272,224	4,219	-0,251	-0,126
273,239	145,627	-0,202	-0,186
274,253	-39,158	-0,186	0,067
275,268	-56,409	-0,204	-0,062
276,282	154,374	-0,170	-0,161
277,297	243,081	-0,125	-0,145
278,312	-69,864	-0,208	-0,054
279,326	361,256	-0,092	-0,128
280,341	-200,000	-0,074	-0,272
281,355	357,158	-0,095	-0,131
282,370	129,767	-0,192	-0,169
283,384	-30,847	-0,219	-0,085
284,399	170,080	-0,161	-0,159
285,414	102,691	-0,142	-0,114
286,428	-70,937	-0,106	-0,027
287,443	-140,100	-0,177	-0,013
288,457	-49,383	-0,168	-0,055
289,472	-200,000	0,002	-0,025
290,487	213,247	-0,092	-0,100
291,501	143,814	-0,123	-0,113
292,516	800,000	-0,137	-0,293
293,530	800,000	-0,071	-0,199
294,545	-38,457	-0,215	-0,078
295,560	24,102	-0,181	-0,103
296,574	-200,000	-0,048	-0,183
297,589	280,819	-0,144	-0,177
298,603	14,414	-0,167	-0,089
299,618	-64,803	-0,157	-0,043
300,633	92,651	-0,164	-0,127
301,647	-49,942	-0,114	0,037
302,662	800,000	-0,098	-0,252
303,676	533,897	-0,140	-0,229
304,691	800,000	-0,078	-0,208
305,706	-13,979	-0,216	-0,096
306,720	-200,000	-0,054	-0,178
307,735	800,000	-0,073	-0,198
308,749	299,057	-0,056	-0,070
309,764	330,408	-0,090	-0,119
310,779	64,327	-0,133	-0,092
311,793	-0,731	-0,153	-0,074
312,808	-200,000	-0,054	-0,195
313,822	309,087	-0,152	-0,195
314,837	800,000	-0,061	-0,166
315,852	54,500	-0,098	0,064
316,866	-20,735	-0,092	-0,039
317,881	104,226	-0,078	-0,063
318,895	246,962	-0,121	-0,141
319,910	770,873	-0,161	-0,302
320,925	-8,759	-0,240	-0,110
321,939	-181,724	-0,132	0,002
322,954	-148,964	-0,224	-0,012
323,968	800,000	-0,083	-0,209
324,983	-152,932	-0,199	0,009
325,997	-44,197	-0,091	-0,031
327,012	90,380	-0,124	-0,095
328,027	-63,634	-0,266	-0,074
329,041	800,000	-0,053	-0,112
330,056	41,372	-0,061	-0,038
331,070	800,000	-0,027	-0,070
332,085	441,218	-0,081	-0,121
333,100	-146,289	-0,064	-0,004
334,114	-58,034	-0,113	-0,033
335,129	568,045	-0,102	-0,170
336,143	800,000	-0,035	-0,101
337,158	-200,000	-0,014	-0,058
338,173	-200,000	-0,037	-0,150
339,187	227,761	-0,151	-0,168
340,202	102,600	-0,096	-0,077
341,216	373,192	-0,125	-0,175
342,231	-100,937	-0,218	-0,036
343,246	114,258	-0,094	-0,079
344,260	-174,174	-0,132	0,003
345,275	-168,451	-0,143	-0,004
346,289	35,700	-0,082	-0,049
347,304	60,385	-0,058	0,039
348,319	466,240	-0,091	-0,140
349,333	-122,407	-0,128	-0,014
350,348	151,523	-0,109	-0,101
351,362	197,743	-0,125	-0,131
352,377	-52,292	-0,092	0,029
353,392	116,558	-0,086	-0,072
354,406	-17,051	-0,192	-0,083
355,421	205,991	1311,129	1396,794
356,435	158,401	1471,404	1397,281
