DTS Sentinel unit serial number:	SN410029Multiplexer serial number:	ORYXHardware model number:	OX2-SRSoftware version number:	ORYX F/W v4,00 Oryx Data Collector v3.7.2.0data status	okinstallation	B3 Nyhavnadifferential loss correction	single-endedforward channel	channel 1reverse channel	N/Adate	2023/12/02time	20:12:30forward acquisition time	300,00reverse acquisition time	0,00gamma	499,1914k internal	0,3201k external	0,3201temperature offset calibration	1,0000default loss term (dB/km)	0,3820temperature slope calibration	1,0000multiplexer offset coefficient	1,0000multiplexer slope coefficient	1,0000fibre end	0,00T internal ref (°C)	13,30T ext. ref 1 (°C)	-1,82T ext. ref 2 (°C)	-1,83length (m)	temperature (°C)	Stokes	anti-Stokes-744,400	119,242	-0,301	-0,271
-743,385	800,000	0,096	0,259
-742,371	291,100	-0,156	-0,207
-741,356	800,000	0,102	0,296
-740,342	262,310	-0,201	-0,254
-739,327	-200,000	0,067	0,282
-738,312	108,221	-0,313	-0,271
-737,298	-200,000	-0,064	0,244
-736,283	337,458	-0,155	-0,219
-735,269	800,000	0,137	0,277
-734,254	39,811	-0,194	-0,127
-733,239	-65,201	-0,035	-0,010
-732,225	551,579	-0,106	-0,187
-731,210	-12,731	0,104	0,049
-730,196	-200,000	0,010	0,072
-729,181	800,000	0,014	0,030
-728,167	-200,000	-0,024	0,196
-727,152	-13,491	-0,110	-0,051
-726,137	746,793	-0,109	-0,214
-725,123	-18,847	-0,145	0,065
-724,108	-74,648	-0,146	0,038
-723,094	800,000	-0,103	-0,220
-722,079	228,216	0,055	0,066
-721,064	-200,000	-0,002	-0,171
-720,050	800,000	-0,011	-0,033
-719,035	-94,938	-0,112	-0,022
-718,021	-10,163	-0,191	-0,092
-717,006	-72,153	-0,056	-0,015
-715,991	-2,921	-0,065	0,033
-714,977	-200,000	0,007	-0,038
-713,962	632,892	-0,039	-0,073
-712,948	112,886	-0,048	0,042
-711,933	-183,545	0,069	0,001
-710,918	-200,000	0,051	-0,298
-709,904	74,744	-0,087	0,066
-708,889	338,536	-0,006	-0,008
-707,875	-200,000	-0,006	-0,164
-706,860	321,411	0,049	0,068
-705,845	389,095	0,060	0,091
-704,831	800,000	0,023	0,047
-703,816	-31,641	0,037	0,015
-702,802	66,449	0,065	0,048
-701,787	-19,035	-0,101	-0,045
-700,772	-200,000	-0,006	-0,021
-699,758	-52,375	-0,006	-0,002
-698,743	-200,000	-0,023	-0,079
-697,729	-124,509	0,185	-0,021
-696,714	-200,000	-0,008	0,166
-695,699	168,419	-0,076	-0,079
-694,685	386,242	-0,062	0,093
-693,670	-200,000	0,017	-0,070
-692,656	51,210	-0,056	-0,039
-691,641	10,189	0,071	-0,039
-690,627	800,000	-0,012	-0,028
-689,612	-119,595	-0,038	0,005
-688,597	197,189	-0,062	-0,069
-687,583	-200,000	-0,060	-0,211
-686,568	387,865	-0,076	-0,115
-685,554	-14,333	-0,107	-0,050
-684,539	-63,698	0,065	0,019
-683,524	460,213	-0,019	0,031
-682,510	108,412	0,115	0,099
-681,495	721,428	-0,004	0,008
-680,481	-14,108	0,019	-0,009
-679,466	-200,000	0,022	-0,144
-678,451	449,276	-0,147	-0,237
-677,437	-80,175	0,022	0,005
-676,422	189,888	0,025	-0,027
-675,408	-200,000	-0,019	-0,098
-674,393	-200,000	-0,007	0,056
-673,378	184,638	-0,058	-0,062
-672,364	-15,314	-0,121	-0,056
-671,349	-200,000	0,014	-0,114
-670,335	281,307	-0,086	0,112
-669,320	-200,000	-0,013	0,138
-668,305	135,085	0,036	0,034
-667,291	426,149	-0,134	-0,209
-666,276	630,153	0,029	0,053
-665,262	800,000	-0,035	0,076
-664,247	53,793	-0,154	-0,107
-663,232	800,000	0,096	-0,205
-662,218	482,988	0,026	-0,043
-661,203	93,030	-0,030	0,025
-660,189	-200,000	0,009	0,062
-659,174	-200,000	-0,014	-0,140
-658,159	660,499	-0,052	-0,097
-657,145	-200,000	0,012	-0,073
-656,130	800,000	-0,017	0,037
-655,116	95,371	-0,125	-0,103
-654,101	-68,087	0,046	-0,013
-653,086	-200,000	-0,005	-0,135
-652,072	234,220	0,064	-0,076
-651,057	800,000	-0,097	-0,222
-650,043	402,364	-0,033	-0,050
-649,028	453,532	0,043	-0,069
-648,014	-200,000	0,010	-0,088
-646,999	-101,453	-0,095	-0,017
-645,984	-71,148	0,041	-0,011
-644,970	-94,273	0,162	-0,032
-643,955	-17,200	-0,118	0,054
-642,941	-131,920	-0,102	0,009
-641,926	300,533	0,062	0,083
-640,911	-2,454	-0,118	0,060
-639,897	427,966	0,064	-0,100
-638,882	50,254	-0,167	0,114
-637,868	119,534	0,034	0,030
-636,853	388,108	0,034	-0,051
-635,838	-200,000	0,016	-0,133
-634,824	-101,213	-0,115	-0,020
-633,809	-79,975	0,068	0,016
-632,795	137,551	0,093	0,089
-631,780	154,683	-0,045	0,045
-630,765	800,000	-0,038	0,112
-629,751	-200,000	-0,008	0,068
-628,736	-35,917	0,127	-0,050
-627,722	800,000	0,036	-0,100
-626,707	270,329	-0,033	0,042
-625,692	149,731	-0,040	-0,039
-624,678	-15,664	-0,012	0,006
-623,663	-90,442	0,058	0,012
-622,649	166,015	0,087	-0,090
-621,634	800,000	-0,058	-0,142
-620,619	800,000	-0,024	0,057
-619,605	-200,000	-0,002	-0,098
-618,590	269,860	-0,036	-0,046
-617,576	57,561	0,072	-0,051
-616,561	404,369	-0,078	0,120
-615,546	2,189	-0,206	-0,108
-614,532	169,555	-0,117	-0,121
-613,517	-121,212	-0,089	0,011
-612,503	15,657	0,024	0,014
-611,488	349,408	-0,053	0,076
-610,474	657,780	0,054	0,102
-609,459	-43,387	-0,052	-0,019
-608,444	-200,000	0,008	-0,030
-607,430	-200,000	0,004	-0,145
-606,415	354,727	-0,038	-0,054
-605,401	800,000	0,051	0,147
-604,386	-200,000	-0,007	-0,074
-603,371	-94,120	-0,062	0,012
-602,357	106,141	0,002	-0,002
-601,342	-165,906	-0,122	0,004
-600,328	-76,988	-0,021	0,005
-599,313	-200,000	0,025	-0,094
-598,298	381,265	0,060	-0,089
-597,284	-200,000	-0,015	0,069
-596,269	-200,000	-0,042	0,157
-595,255	-200,000	0,006	0,022
-594,240	62,251	0,079	-0,057
-593,225	425,615	-0,110	-0,172
-592,211	-7,834	0,048	-0,023
-591,196	604,341	-0,035	-0,064
-590,182	-29,416	0,066	0,027
-589,167	-200,000	-0,012	0,083
-588,152	26,835	-0,020	0,012
-587,138	-84,482	-0,154	0,035
-586,123	204,831	0,073	-0,081
-585,109	-200,000	0,022	0,078
-584,094	489,619	-0,048	0,079
-583,079	-79,403	-0,052	-0,013
-582,065	-69,217	-0,104	0,029
-581,050	-200,000	-0,028	0,152
-580,036	-129,159	0,005	-0,000
-579,021	38,624	-0,117	-0,075
-578,006	-200,000	-0,030	-0,142
-576,992	7,656	-0,127	-0,069
-575,977	-15,256	0,046	-0,021
-574,963	-40,032	0,064	0,024
-573,948	247,268	-0,104	0,127
-572,934	800,000	0,008	-0,020
-571,919	566,092	-0,076	-0,134
-570,904	800,000	-0,049	-0,105
-569,890	-45,378	0,097	-0,035
-568,875	210,599	-0,040	0,045
-567,861	-76,897	0,268	-0,067
-566,846	-82,232	0,042	0,010
-565,831	21,024	0,102	-0,059
-564,817	-26,651	-0,111	-0,047
-563,802	46,379	0,033	-0,022
-562,788	-58,796	0,094	-0,029
-561,773	-37,959	0,027	0,010
-560,758	-50,743	0,075	0,025
-559,744	-200,000	0,013	0,119
-558,729	-14,767	0,161	-0,074
-557,715	780,913	-0,010	0,020
-556,700	379,868	-0,048	0,072
-555,685	-200,000	-0,021	-0,095
-554,671	634,662	0,086	0,158
-553,656	157,061	-0,036	-0,036
-552,642	-17,171	0,136	0,062
-551,627	-200,000	0,001	0,085
-550,612	58,546	-0,032	-0,022
-549,598	403,050	-0,124	-0,189
-548,583	-200,000	0,009	0,034
-547,569	98,465	0,045	-0,038
-546,554	20,060	0,068	-0,039
-545,539	195,845	-0,081	0,089
-544,525	800,000	0,035	-0,076
-543,510	207,526	-0,098	-0,111
-542,496	-200,000	0,045	-0,155
-541,481	289,199	-0,090	-0,118
-540,466	567,896	-0,051	0,090
-539,452	-123,408	0,050	0,006
-538,437	-69,313	0,074	0,020
-537,423	-200,000	0,011	0,040
-536,408	-200,000	-0,022	-0,105
-535,393	10,995	-0,131	-0,072
-534,379	-14,916	0,119	0,055
-533,364	110,743	0,111	0,096
-532,350	159,378	-0,053	0,053
-531,335	9,549	0,064	0,035
-530,321	-200,000	0,004	-0,099
-529,306	-200,000	0,004	0,052
-528,291	800,000	-0,018	0,054
-527,277	800,000	-0,059	-0,123
-526,262	-41,382	-0,060	-0,022
-525,248	-53,189	0,036	0,012
-524,233	344,625	0,062	0,088
-523,218	-30,800	-0,094	0,038
-522,204	-200,000	0,000	-0,003
-521,189	-11,956	-0,074	0,035
-520,175	-171,396	-0,117	-0,003
-519,160	499,099	0,040	-0,067
-518,145	18,469	-0,217	-0,125
-517,131	22,747	0,074	-0,044
-516,116	800,000	0,009	-0,019
-515,102	-16,825	0,123	0,056
-514,087	437,871	-0,052	0,083
-513,072	-200,000	-0,004	0,018
-512,058	211,775	0,145	-0,165
-511,043	-200,000	0,024	-0,095
-510,029	-90,058	0,034	-0,007
-509,014	44,083	0,060	0,040
-507,999	205,032	-0,067	0,075
-506,985	-41,461	0,095	-0,035
-505,970	210,136	-0,026	-0,030
-504,956	171,705	-0,041	-0,043
-503,941	12,518	-0,090	-0,050
-502,926	-25,955	0,165	0,070
-501,912	-169,356	-0,181	-0,005
-500,897	194,893	0,003	0,003
-499,883	-200,000	-0,033	0,122
-498,868	800,000	0,044	-0,095
-497,853	-200,000	-0,007	-0,077
-496,839	191,744	-0,008	0,008
-495,824	800,000	0,063	0,137
-494,810	43,134	-0,046	-0,030
-493,795	-68,503	-0,136	0,038
-492,781	-80,452	0,127	0,030
-491,766	-130,875	-0,146	-0,014
-490,751	-200,000	0,022	-0,082
-489,737	91,136	-0,084	0,068
-488,722	-200,000	-0,012	0,068
-487,708	-200,000	0,024	0,099
-486,693	-200,000	0,001	-0,043
-485,678	-200,000	-0,032	0,122
-484,664	-200,000	-0,001	0,009
-483,649	-29,370	-0,100	-0,041
-482,635	-131,525	-0,104	0,010
-481,620	-82,057	0,090	0,021
-480,605	234,851	0,128	0,152
-479,591	-41,954	0,139	0,051
-478,576	69,377	0,135	0,100
-477,562	-200,000	-0,053	-0,186
-476,547	541,900	-0,040	-0,070
-475,532	-128,486	0,129	-0,013
-474,518	77,924	-0,101	0,077
-473,503	-124,969	0,168	0,018
-472,489	-200,000	0,017	0,099
-471,474	-144,882	0,107	0,007
-470,459	-51,588	-0,114	0,038
-469,445	-69,646	-0,141	-0,039
-468,430	163,704	-0,066	0,067
-467,416	129,448	0,071	0,066
-466,401	-200,000	-0,009	0,082
-465,386	-200,000	-0,029	0,103
-464,372	-7,218	0,047	-0,023
-463,357	734,733	0,018	-0,035
-462,343	227,430	0,067	-0,079
-461,328	118,317	-0,092	-0,081
-460,313	-132,379	-0,114	0,010
-459,299	-121,910	-0,100	-0,012
-458,284	-200,000	-0,011	-0,047
-457,270	800,000	-0,029	0,060
-456,255	545,134	-0,022	0,038
-455,241	239,973	-0,112	-0,135
-454,226	-42,569	0,059	-0,022
-453,211	-138,780	-0,140	-0,011
-452,197	-200,000	0,015	0,194
-451,182	-200,000	0,014	0,147
-450,168	98,352	-0,129	0,107
-449,153	-1,948	-0,081	-0,041
-448,138	-85,391	-0,170	-0,038
-447,124	-6,745	0,123	-0,060
-446,109	-104,631	0,057	-0,009
-445,095	-200,000	0,040	0,155
-444,080	-64,361	0,112	0,033
-443,065	-200,000	0,006	-0,028
-442,051	27,695	0,140	0,085
-441,036	-200,000	-0,009	-0,074
-440,022	-200,000	-0,020	-0,169
-439,007	138,856	0,026	0,025
-437,992	175,882	-0,059	0,062
-436,978	249,901	0,036	-0,044
-435,963	56,239	-0,122	0,085
-434,949	-200,000	-0,025	0,085
-433,934	-148,721	-0,117	-0,007
-432,919	-64,373	0,041	0,012
-431,905	-200,000	0,017	-0,061
-430,890	594,864	-0,050	-0,090
-429,876	-200,000	-0,033	0,137
-428,861	84,034	-0,032	-0,025
-427,846	315,766	-0,055	-0,075
-426,832	44,706	0,040	-0,026
-425,817	-200,000	-0,037	-0,160
-424,803	0,448	-0,092	-0,047
-423,788	-18,186	0,126	-0,056
-422,773	800,000	-0,010	0,032
-421,759	-200,000	0,023	0,109
-420,744	383,508	-0,044	0,065
-419,730	800,000	-0,036	0,109
-418,715	-200,000	-0,014	-0,050
-417,701	159,874	0,068	-0,068
-416,686	-200,000	0,004	0,078
-415,671	249,838	-0,008	-0,010
-414,657	-200,000	-0,001	-0,234
-413,642	-53,509	-0,077	0,025
-412,628	-15,425	-0,107	-0,049
-411,613	-16,993	0,039	-0,018
-410,598	-25,124	-0,040	-0,017
-409,584	-113,931	0,074	0,010
-408,569	-18,811	0,157	-0,070
-407,555	-58,740	0,232	0,072
-406,540	800,000	0,059	0,176
-405,525	-200,000	-0,014	-0,070
-404,511	21,745	0,044	0,025
-403,496	20,049	-0,065	-0,037
-402,482	-200,000	0,046	0,178
-401,467	-200,000	0,022	0,082
-400,452	590,178	0,080	0,141
-399,438	-200,000	0,008	-0,052
-398,423	-52,289	-0,078	0,026
-397,409	-200,000	-0,000	-0,049
-396,394	-200,000	0,020	-0,127
-395,379	133,577	0,083	-0,077
-394,365	800,000	0,066	0,131
-393,350	-62,842	0,217	-0,064
-392,336	-200,000	-0,021	-0,182
-391,321	800,000	-0,025	-0,071
-390,306	454,831	-0,029	0,047
-389,292	-20,145	-0,042	-0,018
-388,277	-200,000	0,002	-0,028
-387,263	452,625	-0,020	-0,032
-386,248	-200,000	0,029	0,190
-385,233	336,729	0,023	0,032
-384,219	-200,000	-0,007	0,135
-383,204	182,537	0,078	-0,083
-382,190	11,578	-0,079	-0,043
-381,175	378,799	-0,022	0,032
-380,160	-200,000	0,003	0,044
-379,146	-4,935	-0,098	0,048
-378,131	800,000	0,046	0,134
-377,117	-200,000	0,002	0,124
-376,102	109,465	-0,081	0,069
-375,088	-5,959	-0,063	-0,031
-374,073	-57,443	0,072	-0,023
-373,058	222,988	0,055	0,064
-372,044	-133,275	0,022	0,002
-371,029	800,000	0,011	0,022
-370,015	94,594	-0,022	-0,018
-369,000	-200,000	0,007	-0,037
-367,985	-200,000	-0,034	-0,158
-366,971	-2,244	0,086	-0,043
-365,956	91,150	0,088	-0,070
-364,942	344,310	-0,109	0,154
-363,927	354,326	0,041	0,058
-362,912	115,654	0,021	0,018
-361,898	-200,000	0,003	0,020
-360,883	325,794	0,012	-0,017
-359,869	-200,000	0,001	0,052
-358,854	226,024	0,041	0,048
-357,839	-57,218	0,117	0,037
-356,825	-63,243	0,104	0,031
-355,810	-36,368	-0,051	0,020
-354,796	-16,991	0,067	0,030
-353,781	800,000	-0,043	0,116
-352,766	-59,327	0,065	0,020
-351,752	-200,000	-0,007	0,025
-350,737	-200,000	0,017	-0,055
-349,723	-189,363	0,087	-0,001
-348,708	-200,000	0,006	0,074
-347,693	-4,374	-0,147	0,073
-346,679	-200,000	-0,026	-0,122
-345,664	21,819	0,082	-0,048
-344,650	-2,649	0,089	0,044
-343,635	-200,000	0,013	0,048
-342,620	113,332	0,122	0,106
-341,606	-200,000	-0,096	-0,000
-340,591	197,926	-0,091	-0,100
-339,577	-200,000	-0,027	-0,131
-338,562	800,000	0,011	-0,032
-337,548	625,072	0,078	0,141
-336,533	27,018	-0,040	-0,024
-335,518	800,000	0,023	-0,062
-334,504	-139,051	-0,120	-0,009
-333,489	-200,000	0,015	0,071
-332,475	87,526	0,082	-0,065
-331,460	-200,000	-0,023	-0,087
-330,445	246,210	-0,077	-0,094
-329,431	800,000	0,039	-0,111
-328,416	794,989	0,055	0,109
-327,402	-61,956	-0,037	-0,011
-326,387	84,045	-0,073	-0,057
-325,372	190,072	-0,073	-0,079
-324,358	677,204	-0,036	-0,067
-323,343	-200,000	-0,016	0,078
-322,329	-147,472	0,078	-0,005
-321,314	59,967	-0,034	-0,024
-320,299	800,000	-0,113	0,308
-319,285	81,784	0,094	0,073
-318,270	203,628	-0,027	-0,029
-317,256	222,393	-0,100	-0,116
-316,241	432,031	-0,050	0,078
-315,226	187,790	-0,035	-0,037
-314,212	-61,082	-0,049	0,015
-313,197	-200,000	0,005	0,057
-312,183	47,777	0,123	-0,082
-311,168	31,477	0,043	-0,026
-310,153	-7,413	0,068	0,033
-309,139	-200,000	-0,045	-0,146
-308,124	4,775	0,052	0,027
-307,110	-200,000	0,009	0,180
-306,095	-200,000	-0,048	-0,155
-305,080	703,692	0,060	-0,113
-304,066	126,486	-0,074	-0,067
-303,051	110,704	0,192	-0,165
-302,037	-147,846	-0,137	0,008
-301,022	615,399	-0,028	0,050
-300,008	99,480	0,048	0,040
-298,993	4,095	0,046	-0,024
-297,978	-200,000	-0,006	0,029
-296,964	800,000	0,008	-0,021
-295,949	50,889	-0,047	-0,032
-294,935	191,943	-0,091	-0,098
-293,920	-200,000	-0,011	-0,043
-292,905	-112,011	0,109	-0,016
-291,891	-200,000	0,002	0,044
-290,876	-83,971	0,136	-0,031
-289,862	84,191	-0,087	-0,068
-288,847	20,163	-0,067	-0,039
-287,832	800,000	-0,054	-0,151
-286,818	-148,401	0,046	0,003
-285,803	402,196	-0,033	0,050
-284,789	172,940	0,053	0,054
-283,774	-10,336	-0,033	0,016
-282,759	-200,000	0,005	0,088
-281,745	25,467	0,133	0,079
-280,730	128,457	-0,077	0,070
-279,716	-29,710	0,105	-0,043
-278,701	386,031	0,026	0,039
-277,686	-86,948	0,079	-0,017
-276,672	-128,322	0,068	0,007
-275,657	74,401	0,063	0,047
-274,643	800,000	0,014	0,031
-273,628	800,000	0,060	-0,119
-272,613	-109,239	0,100	-0,015
-271,599	-135,298	-0,060	0,005
-270,584	699,286	0,038	-0,072
-269,570	-200,000	-0,010	0,067
-268,555	-148,627	-0,139	0,008
-267,540	-39,308	-0,162	-0,061
-266,526	-200,000	0,001	-0,027
-265,511	800,000	0,013	0,036
-264,497	-32,616	-0,041	0,016
-263,482	796,001	-0,024	0,047
-262,467	346,104	0,075	0,105
-261,453	-177,992	-0,038	0,001
-260,438	-200,000	0,002	-0,042
-259,424	2,566	-0,084	0,043
-258,409	-69,161	0,040	-0,011
-257,395	-63,274	-0,062	-0,018
-256,380	-5,468	0,026	-0,012
-255,365	-38,430	0,078	0,029
-254,351	88,893	0,077	0,061
-253,336	-200,000	0,006	-0,238
-252,322	443,892	-0,084	-0,133
-251,307	342,199	-0,062	-0,086
-250,292	96,792	0,085	0,069
-249,278	-28,790	-0,045	0,019
-248,263	161,538	0,140	0,140
-247,249	-200,000	0,001	-0,041
-246,234	384,176	-0,022	-0,033
-245,219	-200,000	0,006	0,019
-244,205	107,217	0,030	0,025
-243,190	-200,000	-0,001	0,071
-242,176	394,550	0,087	0,130
-241,161	800,000	0,039	-0,077
-240,146	-30,043	0,047	0,019
-239,132	-200,000	0,003	-0,020
-238,117	-92,767	0,089	-0,018
-237,103	228,527	0,026	-0,030
-236,088	800,000	-0,020	0,048
-235,073	-88,136	-0,010	0,002
-234,059	-126,791	-0,225	0,023
-233,044	-119,606	-0,043	-0,005
-232,030	61,023	-0,050	-0,036
-231,015	-200,000	-0,016	-0,074
-230,000	-200,000	-0,012	-0,046
-228,986	800,000	-0,061	0,172
-227,971	59,790	0,076	0,053
-226,957	348,807	-0,027	-0,038
-225,942	800,000	0,023	-0,049
-224,927	310,817	-0,062	0,082
-223,913	-65,126	0,065	-0,019
-222,898	800,000	-0,012	-0,033
-221,884	-200,000	-0,026	-0,096
-220,869	-200,000	0,001	-0,057
-219,855	-71,212	0,125	0,033
-218,840	-110,613	0,042	-0,006
-217,825	302,431	-0,017	-0,022
-216,811	-187,922	0,141	0,001
-215,796	197,173	0,090	-0,098
-214,782	10,495	-0,136	-0,074
-213,767	-116,774	0,114	-0,015
-212,752	168,150	0,104	0,105
-211,738	-200,000	0,006	0,062
-210,723	-200,000	-0,027	0,176
-209,709	155,633	-0,070	0,069
-208,694	24,927	0,021	-0,012
-207,679	355,015	0,032	0,045
-206,665	-103,980	-0,138	0,023
-205,650	120,018	-0,031	0,028
-204,636	-200,000	-0,024	0,105
-203,621	-200,000	0,015	0,050
-202,606	-64,865	-0,073	0,021
-201,592	-200,000	-0,017	-0,119
-200,577	163,641	0,031	-0,031
-199,563	-200,000	-0,041	0,142
-198,548	418,648	-0,046	0,071
-197,533	-67,236	0,129	0,036
-196,519	531,559	0,112	0,189
-195,504	-139,704	0,049	-0,004
-194,490	800,000	-0,011	-0,026
-193,475	-200,000	0,016	0,084
-192,460	271,945	0,071	0,090
-191,446	-118,060	0,070	0,009
-190,431	-130,655	-0,040	0,004
-189,417	-111,720	0,051	0,007
-188,402	-87,752	-0,087	0,018
-187,387	-56,610	-0,088	0,028
-186,373	-200,000	-0,005	0,017
-185,358	431,434	-0,080	-0,124
-184,344	800,000	-0,041	0,121
-183,329	83,516	0,032	0,025
-182,315	800,000	0,065	-0,147
-181,300	399,297	-0,044	-0,066
-180,285	-200,000	-0,011	-0,076
-179,271	106,213	-0,050	-0,042
-178,256	-200,000	-0,004	0,024
-177,242	-24,357	-0,082	-0,035
-176,227	-126,606	0,090	-0,009
-175,212	164,051	0,185	0,185
-174,198	33,817	-0,044	-0,027
-173,183	-164,208	-0,072	0,002
-172,169	272,946	0,017	-0,021
-171,154	185,607	-0,023	0,024
-170,139	-200,000	-0,016	-0,056
-169,125	-200,000	0,028	-0,088
-168,110	-200,000	0,009	0,102
-167,096	800,000	-0,030	-0,078
-166,081	321,603	-0,102	-0,138
-165,066	353,881	-0,048	-0,067
-164,052	340,055	-0,074	-0,103
-163,037	-87,331	0,083	-0,018
-162,023	13,254	0,077	0,042
-161,008	-139,264	-0,095	-0,007
-159,993	-2,655	0,089	0,044
-158,979	800,000	0,017	-0,053
-157,964	-200,000	-0,030	-0,117
-156,950	34,850	0,091	-0,057
-155,935	-200,000	0,007	0,046
-154,920	-44,172	-0,052	0,019
-153,906	710,714	0,026	-0,049
-152,891	467,648	0,040	0,065
-151,877	20,555	-0,048	-0,027
-150,862	93,161	0,033	-0,027
-149,847	-200,000	-0,014	-0,059
-148,833	-16,869	0,066	0,029
-147,818	-167,223	0,043	-0,001
-146,804	800,000	0,034	-0,094
-145,789	-200,000	0,001	0,159
-144,775	143,458	-0,131	0,124
-143,760	-98,769	0,046	0,008
-142,745	206,116	-0,050	0,055
-141,731	800,000	-0,045	0,095
-140,716	-40,364	0,101	0,037
-139,702	800,000	0,043	0,109
-138,687	-200,000	0,006	0,030
-137,672	87,868	-0,076	0,060
-136,658	319,833	0,070	0,095
-135,643	140,853	-0,037	0,035
-134,629	76,037	0,055	0,041
-133,614	204,326	-0,061	-0,067
-132,599	-200,000	-0,013	0,113
-131,585	-10,107	0,088	0,041
-130,570	22,229	0,037	0,022
-129,556	336,976	0,037	-0,051
-128,541	-67,614	0,126	-0,035
-127,526	244,588	-0,040	0,048
-126,512	-200,000	0,025	0,166
-125,497	-200,000	0,036	0,136
-124,483	339,544	-0,075	0,104
-123,468	-157,465	-0,097	0,004
-122,453	-148,752	0,039	0,002
-121,439	800,000	-0,025	-0,055
-120,424	203,126	-0,064	0,070
-119,410	285,327	-0,020	0,025
-118,395	800,000	0,032	-0,090
-117,380	159,550	0,073	0,072
-116,366	-200,000	0,000	-0,061
-115,351	-0,389	-0,143	-0,072
-114,337	800,000	-0,035	0,088
-113,322	800,000	-0,029	-0,066
-112,307	-120,591	0,171	-0,020
-111,293	800,000	0,040	0,092
-110,278	-148,361	0,153	0,009
-109,264	-183,818	-0,067	-0,001
-108,249	160,846	0,030	0,030
-107,234	504,306	0,022	0,036
-106,220	187,238	0,051	-0,054
-105,205	601,006	0,082	-0,146
-104,191	107,841	0,012	-0,010
-103,176	-44,209	-0,064	0,023
-102,162	-78,983	-0,049	-0,012
-101,147	-200,000	0,023	-0,111
-100,132	800,000	-0,052	0,115
-99,118	800,000	-0,021	-0,062
-98,103	-200,000	0,010	0,046
-97,089	-110,156	0,185	0,027
-96,074	399,492	0,107	0,160
-95,059	138,433	0,084	0,078
-94,045	-200,000	0,012	-0,169
-93,030	99,160	-0,115	-0,094
-92,016	-3,297	-0,045	0,022
-91,001	800,000	0,038	0,103
-89,986	-19,407	0,107	0,047
-88,972	-12,921	0,031	0,014
-87,957	-48,683	-0,109	0,037
-86,943	-62,178	0,124	-0,037
-85,928	297,948	0,007	0,010
-84,913	89,278	0,140	0,110
-83,899	-125,606	-0,121	-0,013
-82,884	-36,834	0,155	-0,059
-81,870	-200,000	0,033	-0,174
-80,855	-46,107	-0,043	0,015
-79,840	-200,000	-0,003	0,148
-78,826	103,906	0,076	-0,063
-77,811	-91,473	-0,109	-0,022
-76,797	-200,000	0,019	0,067
-75,782	294,630	-0,046	-0,060
-74,767	-78,125	0,042	-0,010
-73,753	-110,294	-0,034	0,005
-72,738	5,543	-0,052	-0,027
-71,724	800,000	-0,009	0,020
-70,709	77,029	-0,089	0,067
-69,694	-200,000	-0,026	0,089
-68,680	386,560	0,067	-0,098
-67,665	-29,437	0,114	0,046
-66,651	800,000	-0,056	0,159
-65,636	-7,892	-0,021	0,010
-64,622	-35,773	-0,113	0,043
-63,607	77,480	-0,064	-0,048
-62,592	36,536	-0,072	-0,045
-61,578	-124,811	0,081	0,009
-60,563	-200,000	0,056	0,213
-59,549	148,241	0,085	0,081
-58,534	-23,491	-1,702	-0,721
-57,519	349,565	-1,463	-2,052
-56,505	-200,000	-0,402	-4,530
-55,490	209,880	0,918	1,022
-54,476	800,000	4,885	11,392
-53,461	-200,000	19,319	320,758
-52,446	-200,000	741,250	2335,020
-51,432	572,385	1655,954	2868,228
-50,417	78,240	1671,233	1261,884
-49,403	21,285	1544,027	885,678
-48,388	15,138	1466,543	811,329
-47,373	17,956	1456,939	819,611
-46,359	16,683	1446,810	807,773
-45,344	13,448	1441,881	789,489
-44,330	13,297	1440,170	787,796
-43,315	13,358	1438,308	787,041
-42,300	13,364	1436,504	786,051
-41,286	13,371	1435,451	785,477
-40,271	13,300	1434,254	784,450
-39,257	13,370	1432,588	783,840
-38,242	13,379	1431,455	783,233
-37,227	13,355	1430,484	782,558
-36,213	13,423	1428,809	781,933
-35,198	13,383	1427,756	781,134
-34,184	13,425	1426,839	780,802
-33,169	13,371	1425,364	779,706
-32,154	13,418	1424,204	779,264
-31,140	13,393	1423,208	778,570
-30,125	13,413	1421,919	777,929
-29,111	13,412	1420,857	777,313
-28,096	13,394	1419,752	776,592
-27,082	13,350	1418,692	775,775
-26,067	13,326	1417,608	775,038
-25,052	13,348	1416,529	774,520
-24,038	13,311	1415,416	773,706
-23,023	13,292	1414,574	773,127
-22,009	13,309	1413,496	772,588
-20,994	13,318	1412,605	772,113
-19,979	13,281	1411,739	771,434
-18,965	13,233	1410,918	770,732
-17,950	13,248	1409,915	770,221
-16,936	13,308	1408,960	769,951
-15,921	13,237	1407,781	768,945
-14,906	13,224	1406,926	768,386
-13,892	13,232	1405,928	767,846
-12,877	13,233	1405,040	767,336
-11,863	13,243	1404,251	766,922
-10,848	13,264	1403,373	766,508
-9,833	13,190	1402,462	765,637
-8,819	13,155	1401,535	764,937
-7,804	13,138	1400,826	764,440
-6,790	13,177	1399,578	763,908
-5,775	13,186	1398,449	763,304
-4,760	13,156	1397,483	762,606
-3,746	13,105	1396,847	761,992
-2,731	13,121	1395,970	761,560
-1,717	13,133	1394,955	761,031
-0,702	13,083	1393,319	759,879
0,313	16,964	1309,935	732,371
1,327	33,153	703,804	430,915
2,342	51,114	123,187	82,541
3,356	3,807	16,608	8,554
4,371	-5,579	3,329	1,610
5,386	57,447	0,482	0,333
6,400	-200,000	0,065	0,256
7,415	177,695	-0,187	-0,193
8,429	81,010	-0,287	-0,219
9,444	-18,786	-0,362	-0,159
10,459	149,533	-0,223	-0,214
11,473	256,125	-0,255	-0,310
12,488	-33,666	-0,187	-0,073
13,502	-66,325	-0,416	-0,116
14,517	155,305	-0,260	-0,253
15,531	70,046	-0,333	-0,243
16,546	112,333	-0,325	-0,278
17,561	36,916	-0,312	-0,195
18,575	235,794	-0,208	-0,243
19,590	164,137	-0,257	-0,256
20,604	136,166	-0,237	-0,218
21,619	69,700	-0,530	-0,385
22,634	229,749	-0,384	-0,443
23,648	343,578	-0,349	-0,484
24,663	290,783	-0,259	-0,333
25,677	130,354	-0,341	-0,309
26,692	115,007	-0,249	-0,214
27,707	32,475	-0,289	-0,176
28,721	-12,804	-0,483	-0,221
29,736	73,758	-0,411	-0,304
30,750	45,040	-0,484	-0,314
31,765	147,915	-0,326	-0,310
32,780	85,231	-0,348	-0,269
33,794	141,272	-0,253	-0,236
34,809	74,919	-0,341	-0,253
35,823	51,818	-0,333	-0,223
36,838	216,413	-0,322	-0,362
37,853	1,848	-0,439	-0,223
38,867	131,201	-0,429	-0,389
39,882	90,160	-0,412	-0,325
40,896	267,746	-0,281	-0,348
41,911	-17,356	-0,357	-0,158
42,926	23,039	-0,335	-0,193
43,940	80,378	-0,353	-0,268
44,955	116,536	-0,529	-0,457
45,969	59,737	-0,395	-0,274
46,984	37,957	-0,406	-0,254
47,999	36,452	-0,331	-0,205
49,013	5,373	-0,277	-0,143
50,028	80,141	-0,324	-0,245
51,042	16,555	-0,369	-0,205
52,057	11,751	-0,337	-0,182
53,071	118,180	-0,324	-0,281
54,086	159,235	-0,351	-0,344
55,101	119,975	-0,266	-0,232
56,115	318,299	-0,232	-0,310
57,130	25,139	-0,400	-0,233
58,144	-48,693	-0,368	-0,124
59,159	56,322	-0,325	-0,222
60,174	4,777	-0,463	-0,239
61,188	-25,497	-0,292	-0,121
62,203	100,016	-0,395	-0,322
63,217	30,092	-0,362	-0,217
64,232	-68,265	-0,267	-0,073
65,247	51,741	-0,292	-0,195
66,261	29,852	-0,400	-0,239
67,276	-35,102	-0,437	-0,167
68,290	66,756	-0,337	-0,241
69,305	-35,940	-0,324	-0,123
70,320	-6,495	-0,325	-0,155
71,334	74,809	-0,321	-0,237
72,349	-58,259	-0,366	-0,111
73,363	34,698	-0,250	-0,153
74,378	-19,241	-0,264	-0,115
75,393	66,973	-0,318	-0,227
76,407	-47,104	-0,274	-0,094
77,422	12,262	-0,260	-0,140
78,436	67,200	-0,259	-0,186
79,451	-22,435	-0,321	-0,136
80,466	374,401	-0,149	-0,213
81,480	-45,932	-0,417	-0,144
82,495	58,400	-0,306	-0,211
83,509	-0,611	-0,245	-0,122
84,524	93,874	-0,225	-0,179
85,539	105,163	-0,171	-0,141
86,553	13,784	-0,406	-0,221
87,568	169,578	-0,281	-0,282
88,582	144,681	-0,267	-0,251
89,597	136,553	-0,248	-0,227
90,611	39,087	-0,199	-0,125
91,626	-149,786	-0,345	-0,019
92,641	113,871	-0,192	-0,164
93,655	4,722	-0,301	-0,155
94,670	21,930	-0,333	-0,190
95,684	18,909	-0,295	-0,165
96,699	176,672	-0,284	-0,290
97,714	70,757	-0,164	-0,119
98,728	800,000	-0,093	-0,195
99,743	-16,733	-0,314	-0,139
100,757	125,644	-0,188	-0,167
101,772	149,989	-0,194	-0,185
102,787	105,549	-0,200	-0,165
103,801	344,707	-0,194	-0,268
104,816	265,458	-0,157	-0,192
105,830	8,678	-0,291	-0,153
106,845	-73,804	-0,258	-0,065
107,860	-125,576	-0,181	-0,019
108,874	-38,306	-0,339	-0,125
109,889	-15,698	-0,250	-0,111
110,903	10,887	-0,349	-0,186
111,918	493,342	-0,147	-0,236
112,933	-38,840	-0,284	-0,104
113,947	-31,955	-0,146	-0,057
114,962	256,905	-0,140	-0,169
115,976	-47,403	-0,347	-0,117
116,991	74,693	-0,252	-0,186
118,006	7,640	-0,321	-0,168
119,020	-28,663	-0,253	-0,101
120,035	-68,339	-0,213	0,058
121,049	-72,769	-0,237	-0,061
122,064	85,505	-0,225	-0,173
123,079	-79,494	-0,360	-0,085
124,093	107,985	-0,160	-0,134
125,108	172,665	-0,196	-0,198
126,122	-37,482	-0,233	-0,086
127,137	-49,085	-0,222	-0,074
128,151	-47,010	-0,278	-0,094
129,166	800,000	-0,084	-0,199
130,181	21,198	-0,181	-0,103
131,195	76,896	-0,211	-0,157
132,210	18,056	-0,278	-0,154
133,224	-48,642	-0,147	-0,049
134,239	343,345	-0,147	-0,202
135,254	14,244	-0,157	-0,085
136,268	-54,288	-0,227	-0,072
137,283	-128,953	-0,206	-0,020
138,297	82,466	-0,192	-0,145
139,312	56,423	-0,175	-0,119
140,327	373,084	-0,249	-0,355
141,341	-30,042	-0,203	-0,080
142,356	183,590	-0,153	-0,159
143,370	-62,429	-0,295	-0,085
144,385	71,483	-0,218	-0,158
145,400	-4,017	-0,334	-0,161
146,414	152,093	-0,200	-0,191
147,429	-14,145	-0,241	-0,108
148,443	13,929	-0,299	-0,162
149,458	80,193	-0,202	-0,152
150,473	130,440	-0,200	-0,179
151,487	32,548	-0,223	-0,135
152,502	498,208	-0,192	-0,310
153,516	172,940	-0,265	-0,267
154,531	-24,596	-0,342	-0,141
155,546	183,932	-0,174	-0,180
156,560	-71,975	-0,234	-0,060
157,575	3,845	-0,195	-0,099
158,589	13,663	-0,195	-0,106
159,604	198,839	-0,225	-0,241
160,619	149,250	-0,248	-0,235
161,633	-16,907	-0,341	-0,150
162,648	-122,843	-0,287	-0,032
163,662	-27,500	-0,246	-0,099
164,677	-70,346	-0,177	-0,047
165,692	-105,113	-0,226	-0,036
166,706	2,985	-0,209	-0,106
167,721	326,460	-0,182	-0,243
168,735	126,995	-0,309	-0,273
169,750	648,251	-0,128	-0,229
170,764	-10,359	-0,241	-0,111
171,779	156,435	-0,182	-0,176
172,794	70,141	-0,344	-0,247
173,808	800,000	-0,103	-0,238
174,823	39,467	-0,353	-0,220
175,837	76,576	-0,275	-0,203
176,852	-19,741	-0,352	-0,151
177,867	58,247	-0,263	-0,179
178,881	71,851	-0,126	-0,092
179,896	6,750	-0,258	-0,133
180,910	58,239	-0,233	-0,159
181,925	-80,557	-0,200	-0,046
182,940	98,854	-0,218	-0,176
183,954	75,907	-0,203	-0,150
184,969	131,124	-0,211	-0,189
185,983	211,194	-0,230	-0,252
186,998	99,931	-0,261	-0,210
188,013	84,730	-0,232	-0,177
189,027	114,077	-0,272	-0,230
190,042	338,963	-0,203	-0,276
191,056	217,914	-0,154	-0,172
192,071	69,154	-0,285	-0,204
193,086	-52,669	-0,169	-0,054
194,100	396,188	-0,174	-0,254
195,115	-136,480	-0,319	-0,025
196,129	182,017	-0,184	-0,188
197,144	777,814	-0,158	-0,303
198,159	60,016	-0,199	-0,137
199,173	145,409	-0,179	-0,167
200,188	17,984	-0,163	-0,090
201,202	-82,788	-0,147	-0,033
202,217	36,907	-0,183	-0,112
203,232	106,916	-0,137	-0,113
204,246	4,412	-0,263	-0,134
205,261	133,172	-0,289	-0,260
206,275	215,685	-0,219	-0,242
207,290	531,788	-0,089	-0,146
208,304	68,355	-0,167	-0,119
209,319	93,090	-0,249	-0,196
210,334	41,436	-0,166	-0,104
211,348	-11,823	-0,334	-0,151
212,363	181,039	-0,214	-0,219
213,377	274,913	-0,154	-0,190
214,392	-200,000	-0,060	-0,190
215,407	79,852	-0,224	-0,167
216,421	-35,698	-0,197	-0,074
217,436	571,987	-0,104	-0,176
218,450	720,080	-0,144	-0,267
219,465	491,482	-0,187	-0,299
220,480	265,390	-0,128	-0,156
221,494	130,794	-0,089	-0,079
222,509	-52,940	-0,119	0,038
223,523	13,112	-0,218	-0,117
224,538	132,820	-0,225	-0,202
225,553	167,729	-0,217	-0,214
226,567	109,494	-0,190	-0,158
227,582	-90,675	-0,196	-0,039
228,596	800,000	-0,062	-0,168
229,611	185,530	-0,196	-0,202
230,626	211,846	-0,155	-0,170
231,640	344,407	0,018	-0,024
232,655	62,549	-0,143	-0,099
233,669	800,000	-0,098	-0,225
234,684	576,691	-0,180	-0,307
235,699	331,195	-0,143	-0,192
236,713	800,000	-0,030	-0,074
237,728	-105,738	-0,258	-0,040
238,742	126,694	-0,126	-0,111
239,757	87,183	-0,198	-0,152
240,772	469,472	-0,099	-0,154
241,786	263,120	-0,209	-0,252
242,801	207,135	-0,055	-0,059
243,815	584,460	-0,144	-0,245
244,830	-77,781	-0,028	-0,007
245,844	800,000	-0,138	-0,307
246,859	307,289	-0,151	-0,195
247,874	-24,178	-0,282	-0,116
248,888	-18,730	-0,135	-0,058
249,903	284,680	-0,208	-0,259
250,917	-157,059	-0,069	-0,003
251,932	-200,000	0,024	-0,148
252,947	112,961	-0,197	-0,165
253,961	306,042	-0,189	-0,243
254,976	353,601	-0,146	-0,201
255,990	14,206	-0,262	-0,141
257,005	139,337	-0,174	-0,158
258,020	138,307	-0,135	-0,122
259,034	69,411	-0,220	-0,157
260,049	-188,377	-0,278	0,002
261,063	22,216	-0,217	-0,122
262,078	168,408	-0,137	-0,135
263,093	189,474	-0,204	-0,212
264,107	-147,075	-0,217	0,013
265,122	430,689	-0,062	-0,092
266,136	131,158	-0,106	-0,094
267,151	-123,377	-0,256	-0,028
268,166	-71,137	-0,244	-0,063
269,180	310,555	-0,123	-0,160
270,195	42,338	-0,201	-0,126
271,209	-50,229	-0,155	0,050
272,224	-200,000	-0,038	-0,188
273,239	-40,802	-0,271	-0,096
274,253	-37,860	-0,218	-0,080
275,268	446,577	-0,154	-0,234
276,282	-57,611	-0,034	-0,010
277,297	-76,420	-0,245	-0,059
278,312	446,818	-0,103	-0,156
279,326	-126,198	-0,143	-0,015
280,341	542,596	-0,059	-0,098
281,355	215,391	-0,058	-0,063
282,370	-54,491	-0,188	-0,059
283,384	2,868	-0,222	-0,111
284,399	133,047	-0,193	-0,172
285,414	605,192	-0,186	-0,320
286,428	-86,855	-0,077	-0,016
287,443	-34,797	-0,028	0,011
288,457	86,015	-0,177	-0,134
289,472	146,183	-0,163	-0,151
290,487	661,627	-0,127	-0,227
291,501	-121,671	-0,327	-0,037
292,516	-200,000	-0,018	-0,110
293,530	58,792	-0,120	-0,081
294,545	-200,000	-0,016	-0,071
295,560	118,296	0,021	-0,018
296,574	27,058	-0,110	0,064
297,589	38,565	-0,163	-0,100
298,603	-106,167	-0,212	-0,033
299,618	62,379	-0,129	-0,089
300,633	800,000	-0,059	-0,117
301,647	68,233	-0,026	-0,018
302,662	800,000	-0,070	-0,190
303,676	-6,360	-0,165	-0,077
304,691	119,058	-0,077	-0,066
305,706	375,844	-0,113	-0,159
306,720	-72,952	-0,088	-0,022
307,735	220,357	-0,120	-0,133
308,749	225,954	-0,151	-0,169
309,764	800,000	-0,044	-0,100
310,779	800,000	-0,054	-0,143
311,793	21,380	-0,150	-0,084
312,808	19,964	-0,157	-0,087
313,822	-74,103	-0,209	-0,052
314,837	-200,000	-0,032	-0,102
315,852	537,902	-0,118	-0,193
316,866	157,869	-0,131	-0,125
317,881	-200,000	-0,007	-0,100
318,895	64,691	-0,254	-0,176
319,910	-58,631	-0,184	-0,054
320,925	349,533	-0,173	-0,235
321,939	162,443	-0,104	-0,100
322,954	219,253	-0,076	-0,084
323,968	72,495	-0,113	-0,081
324,983	800,000	-0,020	-0,055
325,997	-200,000	-0,001	-0,135
327,012	62,933	-0,243	-0,167
328,027	-134,666	-0,193	0,016
329,041	51,404	-0,215	-0,140
330,056	92,770	-0,060	-0,046
331,070	-27,330	0,066	-0,026
332,085	502,638	-0,108	-0,171
333,100	-59,401	-0,156	-0,046
334,114	151,524	-0,190	-0,178
335,129	246,167	-0,162	-0,188
336,143	-103,332	-0,174	0,028
337,158	-26,566	-0,063	-0,025
338,173	-8,322	-0,113	0,052
339,187	-54,411	-0,157	-0,049
340,202	-45,001	-0,104	-0,035
341,216	177,002	-0,171	-0,171
342,231	303,969	-0,107	-0,136
343,246	105,690	-0,185	-0,150
344,260	236,709	-0,100	-0,114
345,275	800,000	-0,097	-0,186
346,289	720,578	-0,045	-0,083
347,304	277,825	-0,105	-0,129
348,319	361,990	-0,080	-0,111
349,333	-16,112	-0,206	-0,089
350,348	-42,949	-0,181	-0,063
351,362	8,119	-0,172	-0,088
352,377	-110,990	-0,238	0,033
353,392	-200,000	-0,032	-0,134
354,406	-200,000	-0,009	-0,065
355,421	208,401	1313,681	1410,853
356,435	160,357	1474,272	1411,355
