DTS Sentinel unit serial number:	SN410029Multiplexer serial number:	ORYXHardware model number:	OX2-SRSoftware version number:	ORYX F/W v4,00 Oryx Data Collector v3.7.2.0data status	okinstallation	B3 Nyhavnadifferential loss correction	single-endedforward channel	channel 1reverse channel	N/Adate	2023/11/29time	21:37:30forward acquisition time	300,00reverse acquisition time	0,00gamma	499,1914k internal	0,3210k external	0,3210temperature offset calibration	1,0000default loss term (dB/km)	0,3820temperature slope calibration	1,0000multiplexer offset coefficient	1,0000multiplexer slope coefficient	1,0000fibre end	0,00T internal ref (°C)	10,81T ext. ref 1 (°C)	-4,35T ext. ref 2 (°C)	-4,43length (m)	temperature (°C)	Stokes	anti-Stokes-744,400	-15,277	-0,246	-0,114
-743,385	-200,000	0,029	0,198
-742,371	-7,883	-0,148	-0,072
-741,356	-200,000	-0,009	0,265
-740,342	-77,721	-0,206	-0,051
-739,327	-200,000	-0,002	0,302
-738,312	338,363	-0,147	-0,208
-737,298	170,696	-0,133	0,139
-736,283	50,457	-0,282	-0,193
-735,269	-200,000	0,022	0,240
-734,254	-200,000	-0,070	-0,248
-733,239	-78,388	-0,258	0,064
-732,225	214,882	-0,120	-0,138
-731,210	536,629	0,114	0,197
-730,196	-45,763	-0,077	0,027
-729,181	39,048	-0,027	0,017
-728,167	800,000	0,027	-0,084
-727,152	-200,000	0,006	0,069
-726,137	53,712	-0,051	-0,035
-725,123	-119,595	-0,103	0,013
-724,108	-200,000	0,000	-0,044
-723,094	316,222	0,083	-0,113
-722,079	-43,614	-0,102	0,037
-721,064	49,315	0,064	0,043
-720,050	-200,000	-0,002	0,031
-719,035	-108,294	-0,182	-0,028
-718,021	-200,000	-0,018	-0,070
-717,006	-200,000	-0,001	0,005
-715,991	800,000	-0,015	-0,034
-714,977	-115,034	-0,128	-0,017
-713,962	-0,334	-0,095	0,049
-712,948	-16,115	0,058	0,027
-711,933	-200,000	0,019	0,101
-710,918	64,062	-0,052	-0,038
-709,904	800,000	-0,028	-0,060
-708,889	146,516	-0,139	-0,136
-707,875	800,000	0,032	-0,092
-706,860	161,963	0,034	-0,035
-705,845	481,704	0,054	-0,089
-704,831	766,737	0,034	0,068
-703,816	213,759	0,063	-0,073
-702,802	-117,750	-0,035	-0,005
-701,787	116,024	-0,068	-0,061
-700,772	-43,256	0,084	0,030
-699,758	800,000	-0,035	-0,090
-698,743	190,965	0,112	-0,122
-697,729	-68,191	-0,098	-0,028
-696,714	581,826	-0,035	0,062
-695,699	626,602	-0,060	-0,109
-694,685	-78,753	-0,052	0,013
-693,670	415,743	-0,119	-0,184
-692,656	123,162	0,104	0,095
-691,641	783,864	0,050	0,099
-690,627	800,000	-0,014	0,044
-689,612	800,000	-0,011	-0,034
-688,597	39,694	-0,067	-0,043
-687,583	12,447	-0,155	-0,086
-686,568	-200,000	0,023	0,126
-685,554	-30,103	0,055	0,022
-684,539	-97,211	0,184	0,034
-683,524	-200,000	0,023	-0,098
-682,510	-109,112	-0,062	-0,009
-681,495	41,583	-0,110	-0,072
-680,481	87,335	-0,069	0,055
-679,466	429,272	-0,080	-0,126
-678,451	263,739	0,024	-0,030
-677,437	-175,857	-0,084	0,002
-676,422	135,303	-0,027	0,026
-675,408	40,978	-0,134	0,087
-674,393	31,866	0,037	-0,023
-673,378	438,413	-0,080	-0,127
-672,364	227,597	0,036	0,043
-671,349	-200,000	-0,010	0,060
-670,335	-183,157	-0,068	-0,001
-669,320	29,452	0,066	-0,041
-668,305	732,875	-0,033	-0,065
-667,291	-200,000	-0,011	-0,050
-666,276	-54,132	0,019	-0,006
-665,262	195,366	0,061	0,067
-664,247	-132,441	-0,104	0,010
-663,232	47,657	0,026	-0,017
-662,218	800,000	0,014	0,041
-661,203	650,431	-0,015	-0,028
-660,189	-80,840	-0,089	0,021
-659,174	611,479	-0,048	-0,088
-658,159	13,280	-0,109	-0,061
-657,145	-200,000	-0,028	-0,138
-656,130	-14,348	-0,047	0,022
-655,116	-200,000	0,014	0,119
-654,101	-200,000	-0,023	0,083
-653,086	-200,000	-0,011	0,074
-652,072	-52,963	-0,220	-0,073
-651,057	800,000	0,018	0,047
-650,043	-16,967	-0,124	-0,056
-649,028	2,046	-0,098	-0,051
-648,014	58,235	0,110	-0,078
-646,999	46,668	0,115	0,077
-645,984	308,477	-0,157	0,213
-644,970	-24,262	0,125	-0,054
-643,955	655,312	-0,060	-0,112
-642,941	123,271	0,040	0,036
-641,926	-200,000	-0,002	0,018
-640,911	27,075	-0,038	0,023
-639,897	21,023	0,087	-0,051
-638,882	-57,868	-0,096	-0,030
-637,868	-200,000	-0,021	-0,070
-636,853	169,639	-0,014	-0,014
-635,838	800,000	-0,032	-0,084
-634,824	37,904	0,023	0,015
-633,809	-119,681	0,050	-0,006
-632,795	-200,000	-0,006	0,032
-631,780	17,736	0,114	0,065
-630,765	206,156	0,064	-0,072
-629,751	246,913	-0,094	-0,114
-628,736	627,951	-0,109	-0,199
-627,722	346,567	-0,056	0,079
-626,707	211,585	0,030	-0,034
-625,692	-125,280	-0,110	-0,012
-624,678	-200,000	-0,007	-0,034
-623,663	-200,000	-0,023	-0,152
-622,649	-67,962	-0,113	-0,032
-621,634	-200,000	-0,041	-0,211
-620,619	215,570	-0,062	-0,072
-619,605	-200,000	0,019	-0,096
-618,590	-200,000	0,009	0,100
-617,576	800,000	-0,016	-0,044
-616,561	28,891	-0,082	0,050
-615,546	196,739	-0,122	-0,135
-614,532	455,873	-0,051	-0,082
-613,517	-158,498	0,126	-0,005
-612,503	-200,000	-0,006	0,072
-611,488	800,000	-0,023	0,061
-610,474	-28,564	0,063	-0,026
-609,459	707,036	-0,060	0,116
-608,444	-200,000	0,018	0,096
-607,430	70,283	0,023	-0,017
-606,415	-163,329	-0,157	-0,005
-605,401	-3,413	0,072	-0,036
-604,386	-200,000	0,012	-0,045
-603,371	251,180	-0,058	-0,072
-602,357	527,414	-0,037	-0,063
-601,342	86,558	-0,082	-0,065
-600,328	7,563	-0,120	-0,065
-599,313	259,726	-0,037	-0,046
-598,298	484,445	0,059	-0,097
-597,284	-56,275	0,033	0,011
-596,269	800,000	-0,033	0,069
-595,255	-200,000	0,031	-0,130
-594,240	-41,428	-0,074	0,027
-593,225	-200,000	-0,005	-0,191
-592,211	146,300	-0,150	-0,145
-591,196	-46,254	0,073	-0,026
-590,182	24,031	0,044	0,026
-589,167	632,670	-0,053	-0,097
-588,152	78,480	-0,018	-0,014
-587,138	-107,332	-0,175	-0,028
-586,123	223,139	-0,090	-0,105
-585,109	800,000	-0,057	-0,133
-584,094	24,052	-0,012	-0,007
-583,079	-96,500	0,059	0,011
-582,065	-17,087	-0,098	-0,045
-581,050	36,025	0,053	0,034
-580,036	253,341	-0,018	-0,022
-579,021	387,243	-0,041	-0,062
-578,006	-150,798	-0,174	0,009
-576,992	-47,938	0,028	0,010
-575,977	-200,000	-0,005	0,024
-574,963	-200,000	0,019	0,129
-573,948	-94,562	-0,063	0,012
-572,934	-200,000	-0,011	0,177
-571,919	-200,000	0,002	-0,047
-570,904	-124,028	0,088	-0,010
-569,890	-9,488	-0,117	-0,056
-568,875	8,077	0,096	-0,052
-567,861	-200,000	-0,008	0,031
-566,846	-140,029	0,067	0,005
-565,831	-200,000	-0,005	0,077
-564,817	800,000	-0,019	-0,043
-563,802	246,543	-0,076	-0,093
-562,788	498,565	-0,099	-0,165
-561,773	-200,000	0,011	0,136
-560,758	-88,024	0,087	-0,019
-559,744	7,051	-0,051	0,027
-558,729	800,000	0,036	0,083
-557,715	-53,990	0,091	0,030
-556,700	27,353	-0,098	-0,059
-555,685	290,403	-0,036	-0,047
-554,671	-21,387	-0,137	0,060
-553,656	-144,595	0,088	-0,006
-552,642	800,000	-0,031	-0,091
-551,627	-118,833	-0,080	0,010
-550,612	0,193	0,040	-0,020
-549,598	-200,000	-0,007	-0,084
-548,583	722,041	0,076	-0,147
-547,569	121,914	0,046	0,041
-546,554	310,159	0,047	-0,064
-545,539	-114,014	0,079	-0,011
-544,525	104,028	-0,090	0,076
-543,510	-115,711	-0,129	0,017
-542,496	-126,548	-0,068	0,007
-541,481	-48,410	0,019	-0,006
-540,466	175,007	0,033	0,034
-539,452	800,000	-0,015	0,043
-538,437	-37,536	-0,126	0,048
-537,423	-79,423	0,191	0,046
-536,408	86,475	-0,091	0,072
-535,393	348,110	-0,063	0,090
-534,379	-200,000	0,025	-0,186
-533,364	137,037	0,063	-0,059
-532,350	262,679	0,062	0,078
-531,335	-24,704	0,073	0,031
-530,321	169,439	0,070	0,072
-529,306	276,507	-0,066	0,084
-528,291	-79,313	-0,051	0,012
-527,277	36,754	0,111	-0,071
-526,262	-22,949	0,047	-0,020
-525,248	800,000	0,032	0,069
-524,233	62,139	0,058	0,042
-523,218	-42,187	0,126	-0,046
-522,204	94,031	0,019	-0,015
-521,189	-200,000	0,009	-0,030
-520,175	800,000	-0,021	0,061
-519,160	-200,000	-0,028	-0,101
-518,145	225,286	0,150	0,175
-517,131	-33,536	0,270	0,107
-516,116	800,000	-0,030	0,092
-515,102	-200,000	0,000	0,106
-514,087	745,572	-0,029	0,056
-513,072	485,215	-0,019	0,031
-512,058	-38,361	-0,058	-0,022
-511,043	-200,000	0,032	-0,194
-510,029	12,030	-0,021	0,012
-509,014	-70,790	0,036	0,010
-507,999	254,966	0,040	0,050
-506,985	-90,754	-0,075	-0,015
-505,970	40,250	-0,083	-0,054
-504,956	-74,943	-0,200	-0,051
-503,941	-67,973	0,162	-0,045
-502,926	-200,000	-0,001	-0,052
-501,912	-73,624	0,072	-0,019
-500,897	0,109	0,049	0,025
-499,883	29,510	-0,087	0,053
-498,868	-200,000	-0,019	-0,195
-497,853	182,848	0,014	-0,015
-496,839	-200,000	0,004	-0,034
-495,824	-88,919	0,200	0,042
-494,810	-61,578	-0,084	0,025
-493,795	-200,000	-0,009	-0,084
-492,781	-200,000	0,007	-0,068
-491,766	-137,980	-0,065	-0,005
-490,751	-181,276	0,177	0,002
-489,737	-108,566	-0,136	0,021
-488,722	800,000	0,044	0,133
-487,708	800,000	0,054	0,156
-486,693	-200,000	0,012	0,041
-485,678	548,356	0,054	0,093
-484,664	-19,766	-0,096	-0,042
-483,649	515,596	-0,050	-0,084
-482,635	-200,000	0,004	-0,151
-481,620	270,155	0,046	-0,059
-480,605	197,092	0,087	0,095
-479,591	-200,000	-0,002	-0,037
-478,576	531,053	-0,044	0,074
-477,562	5,906	-0,157	-0,083
-476,547	-30,632	0,147	-0,060
-475,532	163,187	-0,066	-0,067
-474,518	354,927	0,166	0,238
-473,503	-14,719	0,125	0,058
-472,489	-57,422	-0,174	0,055
-471,474	502,349	-0,030	0,049
-470,459	6,912	0,068	0,036
-469,445	-200,000	-0,028	-0,199
-468,430	31,314	-0,062	0,038
-467,416	-74,556	0,151	0,039
-466,401	89,701	0,094	0,075
-465,386	122,009	-0,034	-0,031
-464,372	-200,000	0,000	-0,072
-463,357	-200,000	0,002	0,015
-462,343	-23,659	-0,144	-0,061
-461,328	10,146	0,051	-0,028
-460,313	-89,745	0,022	-0,005
-459,299	300,462	0,050	0,067
-458,284	-75,927	-0,025	0,006
-457,270	-102,648	-0,012	0,002
-456,255	552,093	-0,066	0,115
-455,241	-200,000	-0,001	0,179
-454,226	24,251	0,095	0,056
-453,211	-200,000	0,006	0,041
-452,197	800,000	-0,045	-0,111
-451,182	-200,000	-0,033	-0,112
-450,168	-200,000	0,013	-0,068
-449,153	187,334	-0,042	-0,045
-448,138	800,000	0,033	-0,069
-447,124	-50,989	0,069	-0,023
-446,109	-19,593	-0,043	-0,019
-445,095	4,101	0,041	0,021
-444,080	800,000	0,070	-0,175
-443,065	-200,000	0,018	0,111
-442,051	800,000	-0,036	-0,099
-441,036	-200,000	0,004	-0,037
-440,022	800,000	0,049	0,119
-439,007	800,000	0,032	-0,084
-437,992	-200,000	0,035	0,149
-436,978	-135,408	0,043	-0,004
-435,963	800,000	0,074	0,161
-434,949	-123,881	-0,057	-0,006
-433,934	409,050	-0,062	-0,094
-432,919	614,852	0,025	0,045
-431,905	-200,000	0,014	-0,102
-430,890	-200,000	-0,000	-0,150
-429,876	194,200	0,046	0,050
-428,861	9,052	0,070	0,038
-427,846	-135,838	0,081	0,007
-426,832	138,303	-0,138	-0,129
-425,817	218,902	0,021	0,024
-424,803	-200,000	0,028	-0,172
-423,788	56,601	0,038	-0,026
-422,773	258,899	0,077	0,095
-421,759	-200,000	0,010	0,054
-420,744	177,442	-0,024	-0,025
-419,730	-200,000	-0,036	0,141
-418,715	-200,000	0,001	-0,044
-417,701	113,365	-0,110	-0,096
-416,686	-179,553	0,098	-0,001
-415,671	525,810	0,030	-0,052
-414,657	-89,857	0,117	0,024
-413,642	-166,031	0,111	0,003
-412,628	118,062	-0,082	-0,072
-411,613	-44,862	-0,141	-0,050
-410,598	178,164	0,080	-0,083
-409,584	-149,162	0,077	-0,004
-408,569	18,747	-0,070	-0,040
-407,555	800,000	0,038	0,093
-406,540	204,951	0,021	0,024
-405,525	5,877	0,110	0,058
-404,511	-93,831	-0,059	-0,012
-403,496	165,172	0,048	-0,049
-402,482	-200,000	-0,004	-0,039
-401,467	-145,017	-0,030	0,002
-400,452	-53,719	0,121	0,039
-399,438	572,335	0,041	0,071
-398,423	800,000	0,006	-0,018
-397,409	800,000	-0,040	-0,115
-396,394	-18,358	0,111	-0,049
-395,379	-200,000	0,012	0,081
-394,365	-200,000	0,055	0,195
-393,350	404,846	-0,043	0,066
-392,336	-119,954	0,111	-0,013
-391,321	-170,515	0,048	0,001
-390,306	409,927	-0,045	-0,069
-389,292	-49,412	0,008	0,003
-388,277	197,791	0,049	0,054
-387,263	58,159	-0,053	0,037
-386,248	-78,231	-0,153	-0,037
-385,233	201,085	0,069	-0,076
-384,219	800,000	0,010	0,020
-383,204	-200,000	0,020	-0,111
-382,190	99,107	-0,111	0,092
-381,175	75,319	-0,122	0,092
-380,160	-136,128	-0,028	0,002
-379,146	-47,217	0,208	0,072
-378,131	238,956	0,117	0,139
-377,117	72,388	-0,040	-0,030
-376,102	144,077	0,031	-0,030
-375,088	-44,603	-0,140	-0,050
-374,073	71,921	0,033	-0,024
-373,058	78,735	0,085	0,065
-372,044	-109,794	0,140	0,021
-371,029	-79,500	-0,084	0,020
-370,015	248,450	-0,039	0,047
-369,000	88,396	-0,088	-0,070
-367,985	67,365	-0,066	0,048
-366,971	-58,249	-0,072	0,022
-365,956	-200,000	-0,001	0,071
-364,942	-200,000	0,005	0,157
-363,927	800,000	0,080	0,192
-362,912	127,100	-0,048	-0,044
-361,898	157,935	-0,014	-0,014
-360,883	-2,843	0,151	-0,075
-359,869	0,974	0,049	-0,025
-358,854	124,220	0,038	0,035
-357,839	24,312	0,087	0,051
-356,825	227,173	0,037	0,043
-355,810	148,246	-0,087	-0,083
-354,796	-200,000	0,004	0,055
-353,781	-200,000	-0,014	0,071
-352,766	208,282	-0,124	0,139
-351,752	697,945	-0,013	-0,024
-350,737	39,467	0,091	0,058
-349,723	71,566	-0,063	-0,047
-348,708	-129,753	-0,046	0,005
-347,693	-200,000	0,013	-0,098
-346,679	411,845	0,029	0,044
-345,664	-200,000	-0,015	-0,050
-344,650	8,360	-0,089	-0,048
-343,635	175,660	-0,044	0,046
-342,620	-16,458	0,138	0,062
-341,606	-160,036	-0,032	0,001
-340,591	32,897	-0,093	-0,057
-339,577	272,256	-0,053	-0,067
-338,562	97,879	-0,069	-0,057
-337,548	800,000	0,031	-0,079
-336,533	-200,000	0,006	0,022
-335,518	-41,137	0,120	0,044
-334,504	190,695	0,032	-0,035
-333,489	286,670	-0,083	0,107
-332,475	800,000	0,044	0,100
-331,460	-200,000	-0,077	0,000
-330,445	800,000	-0,026	-0,079
-329,431	270,376	0,012	-0,015
-328,416	-140,454	0,143	0,010
-327,402	800,000	-0,043	0,099
-326,387	207,132	0,059	0,066
-325,372	-99,506	0,047	0,008
-324,358	800,000	0,084	-0,209
-323,343	800,000	-0,026	-0,080
-322,329	28,269	0,123	-0,074
-321,314	-200,000	0,025	0,099
-320,299	-200,000	-0,026	-0,088
-319,285	250,855	0,068	-0,083
-318,270	1,136	0,096	0,049
-317,256	800,000	0,047	-0,102
-316,241	92,147	-0,078	-0,062
-315,226	-144,060	0,133	-0,009
-314,212	-200,000	0,008	0,049
-313,197	-8,151	-0,083	0,040
-312,183	55,679	-0,055	-0,038
-311,168	219,359	-0,084	-0,096
-310,153	630,452	0,063	-0,114
-309,139	729,246	0,080	-0,153
-308,124	118,059	0,067	-0,059
-307,110	-200,000	0,001	0,042
-306,095	800,000	0,025	-0,050
-305,080	800,000	-0,035	0,089
-304,066	-200,000	0,019	-0,069
-303,051	-88,082	-0,042	0,009
-302,037	96,106	-0,073	-0,060
-301,022	-136,081	0,082	-0,007
-300,008	-200,000	0,026	-0,091
-298,993	800,000	0,030	0,070
-297,978	800,000	0,024	-0,058
-296,964	-200,000	-0,008	-0,082
-295,949	-63,171	0,107	-0,031
-294,935	800,000	0,024	-0,059
-293,920	-100,869	0,111	0,019
-292,905	-182,162	0,084	0,001
-291,891	-75,457	-0,070	0,018
-290,876	800,000	0,094	0,203
-289,862	800,000	-0,046	0,113
-288,847	-200,000	-0,015	-0,067
-287,832	-200,000	0,036	-0,128
-286,818	461,561	-0,099	0,158
-285,803	112,448	0,122	-0,105
-284,789	192,824	0,077	0,083
-283,774	-93,250	0,103	0,020
-282,759	759,685	-0,039	0,076
-281,745	-200,000	-0,022	-0,174
-280,730	-151,652	-0,078	0,004
-279,716	-200,000	-0,004	0,113
-278,701	304,731	0,044	-0,059
-277,686	-54,048	-0,116	0,037
-276,672	48,868	0,032	-0,021
-275,657	-200,000	-0,019	-0,078
-274,643	-130,382	0,033	0,003
-273,628	624,891	-0,069	0,125
-272,613	-200,000	0,026	-0,109
-271,599	293,573	0,116	-0,152
-270,584	-200,000	0,016	-0,067
-269,570	-140,397	0,087	-0,006
-268,555	154,025	-0,037	0,036
-267,540	-59,562	-0,080	0,024
-266,526	-200,000	-0,017	-0,141
-265,511	800,000	0,020	-0,051
-264,497	-95,207	-0,112	0,021
-263,482	-63,809	-0,023	-0,007
-262,467	-200,000	-0,019	0,089
-261,453	709,292	0,002	-0,003
-260,438	-175,414	-0,107	-0,002
-259,424	-75,898	0,176	0,044
-258,409	-39,039	-0,214	-0,080
-257,395	-48,066	-0,016	-0,005
-256,380	-33,810	-0,103	0,040
-255,365	-45,214	-0,003	-0,001
-254,351	-200,000	-0,057	0,189
-253,336	-41,252	-0,099	-0,036
-252,322	-55,074	-0,062	0,020
-251,307	32,410	-0,097	0,059
-250,292	-120,081	-0,078	-0,009
-249,278	-200,000	0,021	0,158
-248,263	-200,000	-0,006	0,088
-247,249	345,212	0,077	0,107
-246,234	800,000	-0,021	-0,062
-245,219	-28,519	-0,176	-0,072
-244,205	41,076	-0,041	0,026
-243,190	364,175	0,011	0,016
-242,176	141,346	-0,076	0,071
-241,161	145,594	0,069	-0,065
-240,146	261,564	-0,059	0,072
-239,132	-47,435	-0,058	0,020
-238,117	312,691	-0,039	0,052
-237,103	13,232	-0,196	0,108
-236,088	-200,000	-0,021	0,114
-235,073	92,785	0,095	0,076
-234,059	-74,906	0,076	0,019
-233,044	479,377	-0,084	0,135
-232,030	-179,492	0,037	0,001
-231,015	-200,000	0,006	-0,228
-230,000	-200,000	0,016	-0,095
-228,986	-67,065	-0,128	0,036
-227,971	666,596	-0,032	-0,058
-226,957	220,048	-0,051	0,058
-225,942	60,035	0,047	-0,033
-224,927	800,000	0,072	0,150
-223,913	800,000	0,025	0,077
-222,898	-200,000	0,028	-0,095
-221,884	-64,858	0,207	-0,059
-220,869	-70,435	0,081	-0,022
-219,855	-200,000	-0,015	0,068
-218,840	79,412	0,063	0,048
-217,825	-57,183	-0,043	0,013
-216,811	331,643	0,068	-0,093
-215,796	-158,458	-0,065	0,003
-214,782	496,227	-0,031	0,050
-213,767	13,674	-0,068	-0,038
-212,752	-129,285	0,142	-0,014
-211,738	-65,597	0,064	0,018
-210,723	248,561	0,080	-0,096
-209,709	192,375	-0,008	0,008
-208,694	-200,000	0,022	-0,105
-207,679	-50,093	0,046	-0,015
-206,665	548,415	0,040	0,069
-205,650	-33,630	0,071	0,028
-204,636	387,450	-0,039	0,058
-203,621	152,433	-0,043	0,042
-202,606	-97,632	-0,264	0,048
-201,592	-200,000	-0,010	0,054
-200,577	-200,000	-0,021	-0,090
-199,563	-200,000	-0,003	0,074
-198,548	106,222	0,056	-0,047
-197,533	-151,972	0,108	0,006
-196,519	-200,000	-0,018	0,120
-195,504	116,492	-0,029	-0,025
-194,490	21,342	-0,073	0,042
-193,475	-200,000	-0,001	-0,025
-192,460	194,472	-0,027	0,029
-191,446	253,820	0,038	0,046
-190,431	557,269	0,064	0,110
-189,417	-122,893	0,034	0,004
-188,402	-200,000	0,006	0,106
-187,387	29,264	-0,110	-0,066
-186,373	-89,070	-0,036	0,008
-185,358	-152,135	0,034	0,002
-184,344	-67,137	-0,109	-0,030
-183,329	800,000	0,026	0,066
-182,315	206,851	-0,068	0,075
-181,300	-26,196	0,039	0,016
-180,285	2,357	-0,140	-0,072
-179,271	800,000	-0,021	0,047
-178,256	-107,703	0,067	0,010
-177,242	-200,000	-0,021	0,124
-176,227	-166,220	0,047	0,001
-175,212	-200,000	0,018	0,160
-174,198	-200,000	0,018	0,187
-173,183	-59,309	-0,100	0,030
-172,169	800,000	0,017	0,038
-171,154	800,000	0,066	0,145
-170,139	282,429	-0,018	0,023
-169,125	227,502	-0,026	-0,030
-168,110	262,462	0,046	-0,056
-167,096	311,867	-0,023	0,031
-166,081	-200,000	-0,040	-0,128
-165,066	-200,000	-0,009	-0,053
-164,052	211,494	-0,047	0,053
-163,037	-56,453	0,128	-0,040
-162,023	26,090	0,106	0,063
-161,008	-200,000	0,001	-0,024
-159,993	-85,312	0,081	-0,018
-158,979	773,176	-0,032	0,062
-157,964	-80,498	-0,177	0,041
-156,950	-72,609	-0,015	-0,004
-155,935	800,000	-0,084	0,167
-154,920	-200,000	-0,016	0,168
-153,906	197,370	0,066	0,071
-152,891	27,201	-0,027	-0,016
-151,877	-200,000	-0,030	-0,112
-150,862	495,887	-0,097	-0,159
-149,847	800,000	-0,056	-0,125
-148,833	800,000	0,025	-0,054
-147,818	72,446	0,031	0,023
-146,804	213,664	0,077	0,087
-145,789	800,000	-0,040	0,103
-144,775	-54,838	-0,059	-0,019
-143,760	3,496	-0,027	0,014
-142,745	-200,000	0,001	0,019
-141,731	130,744	-0,078	-0,071
-140,716	-148,965	0,164	0,009
-139,702	-200,000	0,017	0,105
-138,687	-108,014	0,165	0,025
-137,672	15,662	-0,038	0,021
-136,658	107,128	-0,122	-0,103
-135,643	-200,000	0,004	-0,118
-134,629	-44,733	-0,037	-0,013
-133,614	-200,000	-0,008	0,262
-132,599	-200,000	0,005	0,111
-131,585	41,672	0,148	0,095
-130,570	-200,000	-0,005	0,041
-129,556	-200,000	-0,015	-0,160
-128,541	-159,321	-0,120	0,005
-127,526	61,757	0,079	-0,056
-126,512	-200,000	0,026	0,088
-125,497	800,000	-0,041	0,099
-124,483	-36,377	-0,073	0,028
-123,468	-68,331	-0,159	-0,044
-122,453	-183,837	0,075	0,001
-121,439	-178,294	-0,058	0,001
-120,424	-39,441	0,065	0,024
-119,410	-75,729	0,154	-0,038
-118,395	-200,000	-0,026	0,091
-117,380	-200,000	-0,015	0,112
-116,366	678,164	0,013	0,024
-115,351	155,988	0,035	-0,034
-114,337	315,619	-0,046	-0,061
-113,322	201,451	0,139	-0,151
-112,307	-200,000	0,021	0,127
-111,293	-9,222	0,067	-0,031
-110,278	379,350	0,037	0,054
-109,264	473,025	-0,023	0,037
-108,249	-169,886	0,014	0,000
-107,234	-145,528	-0,158	-0,010
-106,220	-122,854	-0,104	0,012
-105,205	-18,279	0,091	0,040
-104,191	141,099	0,121	0,114
-103,176	800,000	-0,035	0,073
-102,162	-81,199	-0,109	0,025
-101,147	155,930	-0,041	0,040
-100,132	-123,818	-0,070	-0,008
-99,118	800,000	-0,039	-0,095
-98,103	61,494	0,103	-0,072
-97,089	800,000	0,069	0,167
-96,074	-13,361	0,173	0,079
-95,059	-118,787	-0,075	-0,009
-94,045	158,901	-0,109	0,107
-93,030	-200,000	0,012	-0,134
-92,016	-23,215	-0,041	0,017
-91,001	-200,000	-0,033	-0,147
-89,986	-200,000	0,011	0,044
-88,972	233,697	0,096	0,112
-87,957	-200,000	0,014	0,110
-86,943	800,000	-0,071	0,141
-85,928	-200,000	0,004	-0,037
-84,913	-75,837	0,040	0,010
-83,899	-33,005	-0,215	0,084
-82,884	-39,256	0,175	0,065
-81,870	41,364	-0,104	0,067
-80,855	97,918	-0,118	-0,096
-79,840	-200,000	-0,013	0,115
-78,826	-200,000	0,027	-0,170
-77,811	151,370	-0,157	-0,151
-76,797	-200,000	0,017	-0,210
-75,782	692,500	0,019	-0,035
-74,767	-108,193	0,064	-0,010
-73,753	800,000	-0,037	0,098
-72,738	-151,305	-0,031	0,002
-71,724	-200,000	0,010	-0,056
-70,709	340,190	-0,034	0,047
-69,694	78,689	-0,063	-0,047
-68,680	-200,000	0,015	0,049
-67,665	-91,461	-0,049	0,010
-66,651	-86,881	-0,043	-0,009
-65,636	-17,938	0,173	0,076
-64,622	171,433	-0,123	0,124
-63,607	-200,000	-0,034	0,132
-62,592	800,000	-0,049	0,118
-61,578	460,502	0,051	0,080
-60,563	94,072	0,049	0,039
-59,549	-143,673	-0,082	0,005
-58,534	31,331	-1,980	-1,198
-57,519	436,171	-1,339	-2,065
-56,505	-200,000	-0,365	-4,399
-55,490	504,757	0,956	1,570
-54,476	800,000	5,170	11,177
-53,461	-200,000	21,016	329,804
-52,446	800,000	757,701	2324,567
-51,432	549,486	1662,427	2824,556
-50,417	73,391	1663,840	1228,116
-49,403	18,678	1536,934	865,919
-48,388	12,604	1460,058	793,202
-47,373	18,983	1450,802	818,787
-46,359	15,790	1440,222	797,581
-45,344	10,873	1435,819	771,683
-44,330	10,798	1434,059	770,348
-43,315	10,872	1431,865	769,487
-42,300	10,881	1430,331	768,679
-41,286	10,872	1429,045	767,911
-40,271	10,846	1427,727	767,052
-39,257	10,823	1426,639	766,328
-38,242	10,885	1425,233	765,836
-37,227	10,913	1424,329	765,452
-36,213	10,895	1423,132	764,692
-35,198	10,911	1422,031	764,144
-34,184	10,890	1421,195	763,567
-33,169	10,893	1419,658	762,725
-32,154	10,911	1418,765	762,300
-31,140	10,901	1417,694	761,645
-30,125	10,934	1416,461	761,110
-29,111	10,923	1415,210	760,356
-28,096	10,897	1414,237	759,682
-27,082	10,875	1412,824	758,786
-26,067	10,792	1412,050	757,955
-25,052	10,847	1410,899	757,561
-24,038	10,876	1409,758	757,058
-23,023	10,821	1408,919	756,319
-22,009	10,852	1407,822	755,845
-20,994	10,854	1406,654	755,198
-19,979	10,856	1405,881	754,759
-18,965	10,784	1404,984	753,915
-17,950	10,805	1404,094	753,502
-16,936	10,792	1403,193	752,929
-15,921	10,749	1402,270	752,206
-14,906	10,775	1401,208	751,724
-13,892	10,796	1400,210	751,258
-12,877	10,743	1399,676	750,694
-11,863	10,753	1398,689	750,184
-10,848	10,721	1397,977	749,621
-9,833	10,675	1396,933	748,820
-8,819	10,611	1396,252	748,127
-7,804	10,658	1394,998	747,646
-6,790	10,667	1394,137	747,195
-5,775	10,678	1392,992	746,602
-4,760	10,698	1392,169	746,224
-3,746	10,641	1391,227	745,424
-2,731	10,653	1390,442	745,030
-1,717	10,620	1389,691	744,447
-0,702	10,586	1387,890	743,298
0,313	14,626	1301,414	715,490
1,327	30,854	692,493	417,618
2,342	47,726	120,255	79,055
3,356	0,810	16,573	8,346
4,371	15,147	3,401	1,875
5,386	-24,906	1,002	0,418
6,400	800,000	0,200	0,461
7,415	160,708	-0,202	-0,199
8,429	-55,093	-0,221	-0,070
9,444	52,668	-0,369	-0,248
10,459	-41,933	-0,423	-0,152
11,473	-192,279	-0,252	0,002
12,488	213,821	-0,279	-0,311
13,502	-37,448	-0,242	-0,090
14,517	-27,270	-0,298	-0,122
15,531	190,414	-0,319	-0,338
16,546	70,698	-0,329	-0,240
17,561	359,484	-0,255	-0,360
18,575	205,215	-0,234	-0,256
19,590	211,814	-0,287	-0,319
20,604	-186,397	-0,386	-0,004
21,619	-11,294	-0,404	-0,187
22,634	95,970	-0,457	-0,367
23,648	79,240	-0,506	-0,381
24,663	16,847	-0,469	-0,261
25,677	95,033	-0,265	-0,213
26,692	43,409	-0,330	-0,212
27,707	92,309	-0,277	-0,219
28,721	18,187	-0,406	-0,227
29,736	71,642	-0,361	-0,264
30,750	292,640	-0,347	-0,446
31,765	89,526	-0,403	-0,316
32,780	145,947	-0,316	-0,299
33,794	-17,865	-0,532	-0,234
34,809	35,105	-0,362	-0,223
35,823	20,341	-0,317	-0,180
36,838	160,539	-0,365	-0,358
37,853	117,005	-0,363	-0,314
38,867	114,537	-0,327	-0,280
39,882	12,632	-0,276	-0,149
40,896	57,507	-0,336	-0,231
41,911	32,542	-0,456	-0,276
42,926	255,101	-0,357	-0,431
43,940	194,197	-0,291	-0,310
44,955	98,324	-0,507	-0,410
45,969	-40,599	-0,381	-0,138
46,984	144,656	-0,266	-0,250
47,999	64,973	-0,385	-0,273
49,013	13,077	-0,353	-0,191
50,028	80,624	-0,281	-0,212
51,042	-21,083	-0,375	-0,161
52,057	-22,127	-0,545	-0,231
53,071	12,151	-0,271	-0,146
54,086	147,268	-0,279	-0,264
55,101	199,602	-0,328	-0,353
56,115	113,978	-0,340	-0,290
57,130	98,526	-0,274	-0,222
58,144	165,319	-0,250	-0,248
59,159	173,098	-0,411	-0,416
60,174	174,105	-0,433	-0,440
61,188	170,332	-0,324	-0,325
62,203	61,705	-0,247	-0,172
63,217	139,481	-0,238	-0,220
64,232	-26,548	-0,382	-0,156
65,247	112,502	-0,305	-0,259
66,261	-5,663	-0,360	-0,173
67,276	113,775	-0,333	-0,284
68,290	118,310	-0,271	-0,234
69,305	24,359	-0,269	-0,156
70,320	212,046	-0,287	-0,317
71,334	80,637	-0,337	-0,255
72,349	-36,007	-0,276	-0,104
73,363	11,903	-0,408	-0,219
74,378	2,046	-0,501	-0,253
75,393	14,303	-0,389	-0,212
76,407	-19,175	-0,323	-0,140
77,422	19,804	-0,291	-0,164
78,436	-0,914	-0,384	-0,190
79,451	88,502	-0,233	-0,181
80,466	34,306	-0,424	-0,259
81,480	89,427	-0,377	-0,295
82,495	48,687	-0,281	-0,184
83,509	184,339	-0,155	-0,161
84,524	48,178	-0,271	-0,177
85,539	200,138	-0,269	-0,290
86,553	-16,229	-0,379	-0,168
87,568	-24,339	-0,464	-0,193
88,582	8,930	-0,363	-0,191
89,597	448,666	-0,215	-0,332
90,611	-44,627	-0,157	-0,055
91,626	763,821	-0,118	-0,225
92,641	-115,843	-0,259	-0,033
93,655	351,887	-0,215	-0,298
94,670	35,000	-0,295	-0,181
95,684	106,802	-0,307	-0,255
96,699	160,513	-0,091	-0,089
97,714	102,840	-0,236	-0,193
98,728	86,699	-0,191	-0,147
99,743	80,003	-0,156	-0,117
100,757	-13,623	-0,272	-0,123
101,772	353,002	-0,240	-0,334
102,787	-21,097	-0,283	-0,121
103,801	-32,575	-0,303	-0,117
104,816	333,240	-0,130	-0,176
105,830	259,112	-0,128	-0,154
106,845	62,093	-0,277	-0,193
107,860	25,440	-0,298	-0,173
108,874	-181,939	-0,207	-0,003
109,889	42,331	-0,261	-0,166
110,903	-26,522	-0,242	-0,099
111,918	179,692	-0,238	-0,244
112,933	-59,377	-0,299	-0,089
113,947	-57,695	-0,176	-0,054
114,962	-41,011	-0,165	-0,059
115,976	-101,201	-0,247	0,042
116,991	14,532	-0,320	-0,174
118,006	9,640	-0,273	-0,144
119,020	42,605	-0,254	-0,161
120,035	103,924	-0,135	-0,111
121,049	-37,821	-0,121	-0,045
122,064	125,313	-0,295	-0,260
123,079	-24,081	-0,321	-0,133
124,093	44,512	-0,284	-0,182
125,108	5,528	-0,296	-0,152
126,122	-119,337	-0,212	-0,025
127,137	3,304	-0,138	-0,070
128,151	-158,189	-0,261	0,010
129,166	73,619	-0,182	-0,133
130,181	-60,857	-0,292	-0,086
131,195	381,198	-0,187	-0,268
132,210	160,713	-0,250	-0,243
133,224	-200,000	-0,018	-0,282
134,239	132,526	-0,277	-0,249
135,254	-41,844	-0,228	-0,081
136,268	800,000	-0,099	-0,211
137,283	-159,546	-0,167	-0,006
138,297	42,835	-0,313	-0,198
139,312	300,691	-0,206	-0,265
140,327	19,209	-0,240	-0,134
141,341	-99,838	-0,241	-0,042
142,356	166,000	-0,116	-0,114
143,370	56,705	-0,230	-0,156
144,385	288,862	-0,182	-0,230
145,400	-14,732	-0,359	-0,160
146,414	-42,543	-0,210	-0,074
147,429	-33,254	-0,293	-0,112
148,443	-92,991	-0,172	0,033
149,458	18,142	-0,212	-0,118
150,473	7,956	-0,180	-0,094
151,487	-16,117	-0,327	-0,144
152,502	-60,597	-0,229	0,067
153,516	28,441	-0,236	-0,139
154,531	-0,604	-0,199	-0,098
155,546	157,341	-0,278	-0,268
156,560	382,855	-0,244	-0,351
157,575	-73,129	-0,273	-0,069
158,589	800,000	-0,070	-0,185
159,604	62,317	-0,314	-0,218
160,619	-97,912	-0,395	-0,070
161,633	96,699	-0,281	-0,224
162,648	139,308	-0,172	-0,157
163,662	-66,614	-0,277	-0,076
164,677	-67,728	-0,193	-0,052
165,692	7,301	-0,274	-0,142
166,706	295,605	-0,185	-0,236
167,721	226,954	-0,180	-0,204
168,735	218,064	-0,260	-0,289
169,750	-77,647	-0,170	-0,041
170,764	-36,687	-0,210	-0,078
171,779	-6,362	-0,184	-0,087
172,794	37,792	-0,224	-0,138
173,808	290,931	-0,184	-0,233
174,823	44,843	-0,180	-0,115
175,837	299,662	-0,186	-0,239
176,852	88,868	-0,300	-0,232
177,867	152,748	-0,199	-0,189
178,881	-130,146	-0,160	0,015
179,896	-12,792	-0,207	-0,093
180,910	800,000	-0,106	-0,288
181,925	104,269	-0,197	-0,161
182,940	59,334	-0,300	-0,205
183,954	-14,896	-0,230	-0,102
184,969	261,175	-0,197	-0,237
185,983	-64,634	-0,260	-0,073
186,998	27,160	-0,217	-0,126
188,013	-60,958	-0,181	-0,053
189,027	124,090	-0,240	-0,209
190,042	149,296	-0,223	-0,209
191,056	23,428	-0,191	-0,109
192,071	-80,140	-0,209	-0,048
193,086	-74,546	-0,149	-0,037
194,100	28,672	-0,253	-0,148
195,115	-99,343	-0,269	-0,047
196,129	-40,008	-0,199	-0,072
197,144	88,180	-0,193	-0,149
198,159	56,758	-0,301	-0,203
199,173	73,518	-0,248	-0,180
200,188	-110,076	-0,138	0,020
201,202	-200,000	-0,036	-0,136
202,217	706,275	-0,070	-0,129
203,232	358,581	-0,189	-0,263
204,246	800,000	-0,110	-0,262
205,261	215,212	-0,118	-0,129
206,275	16,758	-0,223	-0,122
207,290	-200,000	-0,057	-0,227
208,304	-59,502	-0,186	-0,055
209,319	-71,803	-0,173	-0,044
210,334	118,852	-0,168	-0,144
211,348	-16,672	-0,224	-0,098
212,363	800,000	-0,108	-0,218
213,377	-10,892	-0,313	-0,143
214,392	567,809	-0,133	-0,225
215,407	4,758	-0,162	-0,082
216,421	-185,948	-0,207	0,002
217,436	-38,692	-0,235	-0,086
218,450	160,691	-0,172	-0,166
219,465	119,516	-0,184	-0,158
220,480	75,754	-0,184	-0,135
221,494	-150,367	-0,240	-0,013
222,509	-99,080	-0,147	0,026
223,523	330,358	-0,059	-0,079
224,538	-11,166	-0,291	-0,132
225,553	384,484	-0,142	-0,203
226,567	-166,105	-0,136	0,004
227,582	-67,769	-0,141	-0,038
228,596	93,931	-0,150	-0,117
229,611	-93,682	-0,303	-0,057
230,626	-175,560	-0,152	-0,003
231,640	-6,463	-0,227	-0,107
232,655	92,658	-0,212	-0,165
233,669	277,520	-0,179	-0,221
234,684	162,160	-0,175	-0,170
235,699	298,400	-0,193	-0,245
236,713	800,000	-0,056	-0,148
237,728	260,648	-0,091	-0,109
238,742	800,000	-0,102	-0,214
239,757	24,150	-0,211	-0,120
240,772	150,655	-0,093	-0,088
241,786	187,655	-0,249	-0,257
242,801	-200,000	-0,006	-0,260
243,815	132,619	-0,201	-0,179
244,830	-63,347	-0,158	-0,044
245,844	-19,920	-0,260	-0,110
246,859	-57,039	-0,203	-0,062
247,874	-38,322	-0,134	-0,049
248,888	5,884	-0,237	-0,121
249,903	224,609	-0,115	-0,128
250,917	-57,297	-0,194	-0,059
251,932	-14,098	-0,160	-0,071
252,947	-132,427	-0,218	-0,019
253,961	330,472	-0,113	-0,151
254,976	20,125	-0,212	-0,118
255,990	106,710	-0,184	-0,150
257,005	62,984	-0,075	0,052
258,020	258,052	-0,144	-0,172
259,034	-34,214	-0,213	-0,080
260,049	-31,889	-0,256	-0,099
261,063	-200,000	-0,050	-0,229
262,078	106,839	-0,179	-0,147
263,093	57,221	-0,177	-0,119
264,107	248,867	-0,170	-0,199
265,122	181,861	-0,019	-0,019
266,136	623,157	-0,057	-0,100
267,151	72,683	-0,116	-0,083
268,166	79,402	-0,189	-0,140
269,180	-42,580	-0,182	-0,064
270,195	229,029	-0,110	-0,124
271,209	128,737	-0,195	-0,172
272,224	-84,063	-0,182	-0,040
273,239	-82,217	-0,095	0,021
274,253	120,204	-0,152	-0,130
275,268	48,165	-0,233	-0,150
276,282	-70,381	-0,208	-0,054
277,297	-53,442	-0,212	-0,066
278,312	10,473	-0,170	-0,089
279,326	43,540	-0,036	0,023
280,341	-81,959	-0,175	-0,039
281,355	-10,485	-0,136	-0,062
282,370	-44,839	-0,202	0,069
283,384	-168,992	-0,236	0,006
284,399	115,939	-0,159	-0,134
285,414	-42,961	-0,121	-0,042
286,428	-24,271	-0,154	-0,063
287,443	35,136	-0,090	-0,054
288,457	800,000	-0,017	-0,047
289,472	60,974	-0,191	-0,131
290,487	190,667	-0,182	-0,188
291,501	115,820	-0,161	-0,135
292,516	52,595	-0,183	-0,120
293,530	-33,650	-0,164	-0,062
294,545	169,162	-0,147	-0,145
295,560	71,472	-0,167	-0,119
296,574	-23,045	-0,239	-0,099
297,589	85,118	-0,152	-0,115
298,603	-99,642	-0,222	-0,038
299,618	205,958	-0,164	-0,175
300,633	800,000	-0,080	-0,213
301,647	-101,151	-0,263	-0,044
302,662	-27,778	-0,160	-0,063
303,676	-0,423	-0,106	-0,051
304,691	198,173	-0,189	-0,199
305,706	240,521	-0,113	-0,130
306,720	69,606	-0,160	-0,113
307,735	-168,723	-0,169	-0,004
308,749	253,334	-0,147	-0,173
309,764	-200,000	-0,005	0,037
310,779	563,245	-0,065	-0,108
311,793	27,460	-0,134	-0,077
312,808	-35,434	-0,134	-0,050
313,822	350,063	-0,100	-0,136
314,837	175,674	-0,044	-0,044
315,852	11,027	-0,211	-0,110
316,866	-75,744	-0,271	-0,065
317,881	-88,639	-0,111	0,022
318,895	-129,416	-0,064	-0,006
319,910	523,456	-0,131	-0,212
320,925	-150,754	-0,220	-0,011
321,939	-200,000	-0,019	-0,081
322,954	-163,037	-0,155	0,005
323,968	-125,845	-0,135	-0,014
324,983	-47,039	-0,032	0,011
325,997	263,283	-0,080	-0,095
327,012	-15,209	-0,112	-0,049
328,027	39,903	-0,189	-0,116
329,041	-117,565	-0,134	-0,016
330,056	-200,000	-0,015	-0,318
331,070	-31,371	-0,102	-0,039
332,085	-100,640	-0,133	-0,022
333,100	31,835	-0,128	-0,075
334,114	-12,994	-0,105	-0,046
335,129	-0,453	-0,126	-0,061
336,143	316,628	-0,077	-0,100
337,158	150,270	-0,123	-0,114
338,173	32,422	-0,077	-0,045
339,187	-46,870	-0,182	-0,061
340,202	800,000	-0,065	-0,153
341,216	-27,470	-0,091	-0,036
342,231	111,705	-0,114	-0,094
343,246	-156,866	-0,307	-0,013
344,260	31,073	-0,172	-0,101
345,275	-121,695	0,107	-0,012
346,289	-17,716	-0,083	-0,036
347,304	104,071	-0,156	-0,125
348,319	218,643	-0,100	-0,109
349,333	800,000	-0,091	-0,210
350,348	-154,146	-0,130	-0,006
351,362	1,268	-0,109	-0,053
352,377	-28,155	-0,097	-0,038
353,392	-79,585	-0,076	0,017
354,406	96,790	-0,163	-0,128
355,421	206,428	1307,005	1393,785
356,435	158,758	1466,771	1394,273
