DTS Sentinel unit serial number:	SN410029Multiplexer serial number:	ORYXHardware model number:	OX2-SRSoftware version number:	ORYX F/W v4,00 Oryx Data Collector v3.7.2.0data status	okinstallation	B3 Nyhavnadifferential loss correction	single-endedforward channel	channel 1reverse channel	N/Adate	2023/12/03time	03:12:30forward acquisition time	300,00reverse acquisition time	0,00gamma	499,1914k internal	0,3201k external	0,3201temperature offset calibration	1,0000default loss term (dB/km)	0,3820temperature slope calibration	1,0000multiplexer offset coefficient	1,0000multiplexer slope coefficient	1,0000fibre end	0,00T internal ref (°C)	13,32T ext. ref 1 (°C)	-1,64T ext. ref 2 (°C)	-1,65length (m)	temperature (°C)	Stokes	anti-Stokes-744,400	468,035	-0,255	-0,417
-743,385	-200,000	0,031	0,294
-742,371	100,884	-0,204	-0,172
-741,356	800,000	0,121	0,303
-740,342	238,116	-0,205	-0,248
-739,327	800,000	-0,094	0,287
-738,312	348,431	-0,240	-0,345
-737,298	561,415	0,089	0,156
-736,283	800,000	-0,157	-0,345
-735,269	-200,000	-0,043	0,435
-734,254	63,203	-0,322	-0,234
-733,239	79,927	-0,198	0,155
-732,225	-200,000	-0,031	-0,228
-731,210	139,198	-0,044	0,042
-730,196	55,647	0,066	-0,047
-729,181	755,426	0,068	-0,134
-728,167	-200,000	-0,014	-0,083
-727,152	-41,893	-0,122	0,045
-726,137	800,000	-0,047	-0,103
-725,123	92,681	-0,015	0,013
-724,108	-200,000	0,025	-0,185
-723,094	266,396	-0,066	-0,084
-722,079	65,857	-0,065	-0,048
-721,064	561,428	0,071	0,125
-720,050	800,000	0,004	0,012
-719,035	-200,000	0,007	-0,090
-718,021	-113,925	-0,065	0,009
-717,006	-13,387	-0,014	0,007
-715,991	-166,828	-0,161	0,005
-714,977	135,908	0,054	-0,051
-713,962	-109,455	-0,086	-0,013
-712,948	-105,186	0,097	0,016
-711,933	155,754	0,104	-0,104
-710,918	-200,000	0,027	0,113
-709,904	277,623	0,008	-0,010
-708,889	53,751	-0,061	0,042
-707,875	-34,403	-0,072	-0,029
-706,860	345,906	0,069	-0,098
-705,845	800,000	0,014	0,034
-704,831	-161,343	0,095	0,004
-703,816	800,000	-0,019	-0,041
-702,802	-200,000	-0,033	-0,114
-701,787	-193,715	-0,188	-0,001
-700,772	-144,901	-0,097	-0,006
-699,758	-57,353	-0,136	-0,043
-698,743	-122,138	-0,099	0,012
-697,729	73,721	-0,056	0,042
-696,714	-200,000	0,002	-0,009
-695,699	-132,154	-0,097	-0,009
-694,685	-170,850	-0,025	-0,001
-693,670	239,138	0,027	-0,032
-692,656	-119,621	-0,064	0,008
-691,641	504,779	0,058	-0,098
-690,627	800,000	0,026	0,056
-689,612	-122,949	-0,075	0,009
-688,597	657,394	0,015	-0,028
-687,583	-200,000	0,013	-0,075
-686,568	-200,000	-0,022	-0,113
-685,554	-200,000	-0,020	-0,162
-684,539	-50,256	0,099	-0,034
-683,524	-98,211	0,067	-0,012
-682,510	-19,266	-0,036	0,016
-681,495	46,900	-0,110	0,074
-680,481	-200,000	-0,001	-0,173
-679,466	800,000	-0,052	-0,164
-678,451	-98,545	-0,085	-0,016
-677,437	-53,031	-0,063	-0,021
-676,422	61,583	0,134	0,096
-675,408	-200,000	-0,008	-0,063
-674,393	-61,604	-0,024	0,007
-673,378	259,963	-0,032	0,041
-672,364	25,602	-0,080	-0,048
-671,349	-151,847	-0,105	0,005
-670,335	-200,000	0,015	0,063
-669,320	-110,325	0,107	0,016
-668,305	-200,000	0,013	0,110
-667,291	-74,670	-0,080	-0,021
-666,276	-200,000	-0,022	-0,107
-665,262	800,000	-0,019	-0,050
-664,247	800,000	-0,035	0,072
-663,232	-145,673	0,052	0,003
-662,218	431,076	-0,041	-0,064
-661,203	297,673	0,008	0,011
-660,189	-200,000	-0,006	-0,063
-659,174	-200,000	0,003	0,085
-658,159	425,795	0,034	-0,053
-657,145	61,190	-0,058	-0,041
-656,130	800,000	0,072	-0,150
-655,116	-32,954	-0,029	-0,012
-654,101	741,001	0,040	0,079
-653,086	29,516	-0,050	0,031
-652,072	-73,843	-0,125	0,033
-651,057	-200,000	-0,002	-0,010
-650,043	91,990	-0,062	-0,051
-649,028	-74,114	-0,111	0,029
-648,014	-110,492	0,042	-0,006
-646,999	-200,000	0,012	-0,115
-645,984	190,274	-0,061	-0,066
-644,970	26,628	0,048	-0,029
-643,955	-70,645	-0,076	-0,021
-642,941	-30,349	-0,152	0,062
-641,926	231,618	0,045	0,054
-640,911	-97,045	0,142	0,027
-639,897	121,452	0,039	-0,035
-638,882	-62,996	-0,105	-0,031
-637,868	7,498	0,128	-0,069
-636,853	-200,000	-0,027	-0,171
-635,838	26,745	-0,129	-0,078
-634,824	-165,141	-0,025	-0,001
-633,809	800,000	-0,040	-0,083
-632,795	669,334	0,049	0,092
-631,780	585,813	0,028	0,050
-630,765	-200,000	-0,022	0,092
-629,751	-29,336	-0,091	-0,038
-628,736	-200,000	0,018	-0,099
-627,722	-200,000	-0,013	0,064
-626,707	800,000	-0,028	-0,071
-625,692	1,673	-0,117	-0,061
-624,678	-40,535	0,090	0,034
-623,663	-200,000	-0,003	0,076
-622,649	-200,000	0,009	-0,086
-621,634	34,253	-0,017	0,011
-620,619	280,490	0,044	0,056
-619,605	-47,260	-0,122	-0,043
-618,590	800,000	0,068	-0,156
-617,576	-200,000	0,012	0,145
-616,561	152,412	-0,055	-0,055
-615,546	-200,000	-0,006	0,053
-614,532	-126,244	-0,033	0,004
-613,517	-24,394	-0,035	0,015
-612,503	111,221	-0,115	-0,100
-611,488	-200,000	-0,006	-0,024
-610,474	-20,898	0,129	0,057
-609,459	-126,257	-0,055	0,006
-608,444	290,747	-0,096	0,127
-607,430	-112,920	0,083	-0,012
-606,415	-76,911	0,104	-0,026
-605,401	69,203	-0,087	-0,065
-604,386	-136,696	0,086	0,007
-603,371	448,058	-0,025	-0,040
-602,357	266,738	-0,067	-0,085
-601,342	-200,000	-0,017	0,081
-600,328	120,774	0,026	0,023
-599,313	-200,000	-0,002	0,107
-598,298	-200,000	0,001	0,038
-597,284	-200,000	-0,005	0,158
-596,269	-200,000	0,051	-0,185
-595,255	123,945	-0,032	-0,029
-594,240	-200,000	-0,024	-0,116
-593,225	194,202	0,125	-0,137
-592,211	195,418	0,044	-0,048
-591,196	536,260	-0,052	-0,090
-590,182	-18,536	-0,152	0,069
-589,167	-200,000	-0,002	-0,150
-588,152	800,000	0,033	-0,068
-587,138	-200,000	0,003	-0,107
-586,123	-156,883	-0,167	-0,007
-585,109	800,000	0,007	-0,017
-584,094	633,309	-0,059	-0,108
-583,079	43,071	0,049	0,032
-582,065	-200,000	-0,017	0,094
-581,050	411,289	0,049	0,075
-580,036	72,497	-0,085	0,064
-579,021	-200,000	0,035	0,125
-578,006	363,481	0,014	0,021
-576,992	-136,301	0,064	-0,005
-575,977	670,703	-0,084	-0,157
-574,963	277,927	0,033	-0,043
-573,948	-200,000	0,003	0,031
-572,934	-200,000	-0,043	0,157
-571,919	178,446	-0,056	-0,059
-570,904	800,000	-0,015	0,035
-569,890	59,855	0,061	-0,043
-568,875	-81,454	-0,107	-0,025
-567,861	-200,000	-0,001	-0,004
-566,846	-200,000	-0,030	0,163
-565,831	-109,826	-0,040	-0,006
-564,817	566,050	0,060	-0,105
-563,802	282,986	0,061	-0,079
-562,788	-200,000	0,015	-0,063
-561,773	-200,000	0,019	-0,115
-560,758	591,385	0,022	0,039
-559,744	-64,750	0,052	0,015
-558,729	62,860	0,110	-0,080
-557,715	-200,000	-0,017	-0,065
-556,700	495,915	-0,028	-0,046
-555,685	-36,004	-0,055	0,021
-554,671	-97,906	0,146	0,027
-553,656	-11,509	0,060	-0,028
-552,642	-200,000	0,036	0,134
-551,627	800,000	0,022	0,046
-550,612	-200,000	0,006	-0,175
-549,598	-17,667	-0,176	-0,079
-548,583	-69,435	0,151	0,041
-547,569	548,639	-0,073	0,126
-546,554	-200,000	0,004	-0,016
-545,539	68,202	0,030	-0,022
-544,525	-200,000	-0,005	0,028
-543,510	-76,008	0,097	-0,024
-542,496	77,235	-0,104	-0,080
-541,481	249,698	-0,023	-0,028
-540,466	147,785	-0,127	-0,124
-539,452	-200,000	-0,032	0,123
-538,437	78,995	0,063	-0,049
-537,423	15,887	-0,118	0,067
-536,408	-98,175	0,061	-0,011
-535,393	66,022	0,014	-0,010
-534,379	-126,598	-0,087	0,009
-533,364	310,148	-0,074	-0,101
-532,350	243,930	-0,030	0,037
-531,335	800,000	0,020	0,050
-530,321	-50,533	0,069	0,023
-529,306	800,000	0,028	-0,075
-528,291	-145,916	0,008	-0,000
-527,277	-53,632	-0,082	-0,027
-526,262	800,000	-0,062	0,147
-525,248	150,593	0,023	0,023
-524,233	159,160	-0,108	0,108
-523,218	125,071	0,063	0,057
-522,204	800,000	-0,046	0,118
-521,189	-118,956	-0,089	-0,011
-520,175	-200,000	-0,040	-0,146
-519,160	-12,616	-0,133	-0,062
-518,145	-200,000	-0,014	0,063
-517,131	800,000	0,061	0,159
-516,116	-4,006	0,112	-0,056
-515,102	86,640	-0,073	-0,058
-514,087	800,000	0,047	-0,118
-513,072	368,531	-0,029	-0,043
-512,058	248,723	-0,037	0,045
-511,043	800,000	-0,057	-0,126
-510,029	37,328	0,169	-0,108
-509,014	163,058	0,062	-0,062
-507,999	649,968	-0,044	0,082
-506,985	694,258	-0,012	-0,022
-505,970	120,064	-0,100	-0,090
-504,956	441,972	0,040	-0,064
-503,941	800,000	0,022	0,057
-502,926	-121,828	0,071	-0,008
-501,912	44,388	0,019	-0,013
-500,897	235,264	0,060	-0,072
-499,883	117,185	-0,102	-0,091
-498,868	-200,000	0,013	-0,113
-497,853	144,694	-0,081	-0,078
-496,839	286,617	-0,080	0,104
-495,824	289,374	0,090	0,117
-494,810	800,000	-0,026	0,069
-493,795	65,907	0,063	0,046
-492,781	31,154	-0,059	0,037
-491,766	-200,000	0,024	-0,158
-490,751	283,313	-0,114	-0,148
-489,737	-105,844	-0,098	0,016
-488,722	-181,591	0,043	-0,001
-487,708	800,000	-0,014	0,043
-486,693	208,524	-0,052	-0,058
-485,678	-200,000	-0,019	-0,090
-484,664	-86,438	-0,020	-0,004
-483,649	553,363	-0,074	0,128
-482,635	-135,225	-0,097	0,008
-481,620	5,465	0,149	-0,079
-480,605	800,000	0,048	0,100
-479,591	-200,000	-0,032	0,111
-478,576	-89,430	-0,063	0,013
-477,562	211,601	0,069	-0,079
-476,547	-98,050	0,110	-0,020
-475,532	-200,000	-0,014	-0,069
-474,518	-113,915	0,060	-0,008
-473,503	-77,311	-0,098	-0,024
-472,489	-53,054	0,106	0,035
-471,474	26,403	0,147	-0,088
-470,459	-141,403	0,083	-0,006
-469,445	-200,000	0,001	-0,121
-468,430	-19,406	0,062	0,027
-467,416	-30,115	0,079	-0,032
-466,401	-200,000	0,013	0,109
-465,386	244,956	0,117	0,142
-464,372	-67,368	0,094	-0,026
-463,357	41,084	-0,113	-0,073
-462,343	-115,771	-0,135	0,018
-461,328	-64,610	0,065	-0,019
-460,313	800,000	-0,009	-0,020
-459,299	141,325	0,071	0,068
-458,284	7,559	-0,020	-0,011
-457,270	55,905	0,093	-0,065
-456,255	25,226	0,094	0,056
-455,241	-200,000	-0,011	-0,037
-454,226	-200,000	-0,009	-0,040
-453,211	-1,219	-0,084	-0,043
-452,197	-22,702	0,147	0,064
-451,182	55,387	-0,096	0,067
-450,168	-200,000	0,037	0,161
-449,153	-200,000	-0,033	0,117
-448,138	-200,000	0,002	-0,084
-447,124	37,452	0,105	0,067
-446,109	-58,217	0,073	0,023
-445,095	72,947	-0,071	0,053
-444,080	30,683	0,069	-0,042
-443,065	-200,000	0,001	-0,114
-442,051	-139,679	-0,083	0,006
-441,036	58,388	-0,110	-0,077
-440,022	-94,096	0,096	-0,019
-439,007	-10,422	-0,077	-0,036
-437,992	458,881	0,039	0,063
-436,978	-126,481	0,130	0,014
-435,963	234,946	0,066	-0,079
-434,949	-123,440	0,023	-0,003
-433,934	376,515	-0,024	-0,035
-432,919	-29,975	0,025	0,010
-431,905	105,381	-0,058	-0,049
-430,890	800,000	-0,059	0,128
-429,876	-157,509	0,072	-0,003
-428,861	253,653	0,140	0,172
-427,846	-92,030	0,143	0,029
-426,832	-200,000	0,004	-0,044
-425,817	48,612	-0,090	-0,060
-424,803	235,437	-0,070	0,083
-423,788	-65,561	0,073	-0,021
-422,773	70,463	0,053	0,039
-421,759	-47,637	0,119	0,041
-420,744	306,175	0,032	0,043
-419,730	426,372	-0,090	-0,140
-418,715	-77,955	-0,065	0,016
-417,701	800,000	-0,044	0,098
-416,686	-37,146	-0,072	0,028
-415,671	652,958	-0,021	0,039
-414,657	-200,000	0,013	0,062
-413,642	-72,594	-0,112	-0,030
-412,628	800,000	-0,047	-0,106
-411,613	-135,238	-0,108	0,009
-410,598	103,399	0,086	-0,073
-409,584	-10,653	0,060	0,028
-408,569	-82,841	0,046	-0,011
-407,555	-200,000	-0,004	0,099
-406,540	-200,000	0,020	-0,094
-405,525	414,209	0,154	-0,236
-404,511	-130,673	0,091	0,009
-403,496	108,287	-0,088	0,076
-402,482	-200,000	-0,001	0,085
-401,467	167,489	0,150	0,153
-400,452	-188,672	0,019	-0,000
-399,438	114,992	0,027	-0,024
-398,423	-200,000	-0,011	-0,039
-397,409	-100,606	-0,045	-0,008
-396,394	-69,029	-0,052	0,014
-395,379	-101,488	-0,093	0,016
-394,365	621,075	-0,003	0,006
-393,350	-200,000	-0,010	0,113
-392,336	-200,000	-0,010	-0,083
-391,321	-200,000	0,008	-0,058
-390,306	-200,000	0,001	-0,083
-389,292	97,978	-0,062	-0,051
-388,277	136,638	0,033	-0,031
-387,263	-63,877	0,052	0,015
-386,248	-138,813	-0,067	0,005
-385,233	-52,200	-0,045	0,015
-384,219	-92,974	0,174	0,034
-383,204	-19,409	-0,164	-0,073
-382,190	800,000	-0,034	-0,097
-381,175	-140,058	-0,024	0,002
-380,160	-12,905	-0,076	0,035
-379,146	-200,000	0,032	0,213
-378,131	800,000	-0,052	0,137
-377,117	400,396	0,060	0,091
-376,102	173,094	-0,080	0,083
-375,088	-37,060	0,077	0,029
-374,073	102,696	0,032	-0,027
-373,058	78,381	0,090	-0,069
-372,044	-200,000	0,009	-0,109
-371,029	258,603	-0,071	-0,088
-370,015	727,197	0,039	0,075
-369,000	-129,369	0,106	0,010
-367,985	472,278	-0,040	-0,066
-366,971	63,925	0,080	0,058
-365,956	38,238	0,080	-0,051
-364,942	536,838	-0,015	0,025
-363,927	-200,000	-0,011	-0,070
-362,912	-200,000	0,039	0,127
-361,898	90,417	0,155	-0,124
-360,883	-124,389	-0,125	0,014
-359,869	718,681	-0,044	0,084
-358,854	800,000	0,078	0,183
-357,839	-96,759	-0,030	-0,006
-356,825	-26,276	-0,056	-0,023
-355,810	17,405	0,065	0,037
-354,796	-136,388	-0,003	-0,000
-353,781	171,339	0,100	-0,103
-352,766	-153,597	-0,090	-0,004
-351,752	-200,000	0,022	-0,172
-350,737	-200,000	0,005	0,041
-349,723	65,887	0,038	0,028
-348,708	148,288	-0,127	0,123
-347,693	-200,000	-0,009	0,103
-346,679	-163,541	0,041	0,001
-345,664	585,034	0,048	-0,084
-344,650	43,740	-0,061	-0,040
-343,635	-26,825	0,097	0,040
-342,620	-64,901	0,041	-0,012
-341,606	-24,321	-0,091	0,039
-340,591	-200,000	-0,022	0,081
-339,577	-200,000	-0,010	0,162
-338,562	-60,476	-0,078	-0,023
-337,548	179,442	0,052	-0,054
-336,533	-78,904	0,112	0,027
-335,518	-162,177	0,100	-0,004
-334,504	191,334	0,024	0,026
-333,489	-200,000	0,010	0,099
-332,475	800,000	0,042	0,083
-331,460	20,621	-0,099	-0,057
-330,445	136,602	0,091	-0,085
-329,431	173,024	0,049	-0,050
-328,416	43,437	0,098	-0,064
-327,402	354,977	0,058	0,082
-326,387	198,896	-0,108	-0,118
-325,372	-200,000	0,054	-0,201
-324,358	-93,487	-0,129	-0,025
-323,343	800,000	0,045	0,103
-322,329	800,000	-0,045	0,135
-321,314	72,290	-0,085	-0,063
-320,299	-200,000	-0,008	0,055
-319,285	558,768	0,086	0,148
-318,270	195,306	-0,057	0,062
-317,256	-59,022	-0,180	-0,055
-316,241	15,396	0,103	0,058
-315,226	-200,000	-0,018	0,098
-314,212	15,872	0,076	0,043
-313,197	-143,274	-0,202	0,014
-312,183	-102,021	-0,144	-0,025
-311,168	-22,670	-0,143	-0,062
-310,153	-113,926	0,036	-0,005
-309,139	800,000	0,032	-0,091
-308,124	-200,000	0,018	0,083
-307,110	-200,000	0,018	0,062
-306,095	-154,672	-0,122	0,006
-305,080	-200,000	-0,001	0,006
-304,066	-200,000	-0,039	-0,129
-303,051	-144,506	0,057	-0,004
-302,037	-63,781	0,072	-0,021
-301,022	-200,000	0,003	0,039
-300,008	-200,000	-0,006	-0,131
-298,993	174,438	0,061	0,063
-297,978	-200,000	-0,001	0,106
-296,964	-200,000	0,033	0,000
-295,949	-200,000	0,009	-0,074
-294,935	-65,542	-0,164	0,047
-293,920	-53,638	0,082	-0,026
-292,905	134,999	0,072	-0,067
-291,891	-200,000	0,008	0,162
-290,876	87,303	0,039	0,031
-289,862	550,055	0,101	0,173
-288,847	177,155	-0,088	-0,091
-287,832	302,551	0,017	0,022
-286,818	153,378	-0,048	-0,047
-285,803	-200,000	0,024	0,083
-284,789	592,190	0,043	0,076
-283,774	-109,892	0,041	0,006
-282,759	645,425	0,062	0,113
-281,745	-200,000	-0,006	-0,202
-280,730	-200,000	0,010	-0,095
-279,716	-48,931	0,058	-0,020
-278,701	-200,000	-0,025	0,155
-277,686	-200,000	0,019	0,165
-276,672	209,734	-0,041	0,046
-275,657	-200,000	-0,015	-0,165
-274,643	606,403	-0,054	0,096
-273,628	315,155	-0,012	0,016
-272,613	7,551	-0,040	0,021
-271,599	-29,731	0,091	0,037
-270,584	405,355	0,047	-0,071
-269,570	715,813	-0,049	0,092
-268,555	140,383	-0,135	0,127
-267,540	-23,786	-0,082	-0,035
-266,526	-200,000	0,010	-0,082
-265,511	-169,665	0,109	0,003
-264,497	362,323	-0,035	0,051
-263,482	-200,000	0,049	0,175
-262,467	800,000	0,024	0,071
-261,453	-0,853	-0,065	-0,033
-260,438	-200,000	0,015	0,141
-259,424	-200,000	0,031	-0,130
-258,409	15,632	-0,148	-0,083
-257,395	800,000	-0,021	0,044
-256,380	-200,000	-0,006	0,083
-255,365	-80,765	-0,159	0,037
-254,351	800,000	-0,011	-0,033
-253,336	-90,877	0,112	-0,023
-252,322	-200,000	-0,005	-0,133
-251,307	299,852	-0,011	0,015
-250,292	-23,548	0,063	-0,027
-249,278	-177,249	0,090	-0,002
-248,263	-49,385	0,133	-0,045
-247,249	-18,656	-0,074	-0,033
-246,234	800,000	0,057	-0,131
-245,219	116,342	0,053	0,047
-244,205	-143,580	0,127	-0,008
-243,190	800,000	-0,020	0,052
-242,176	-55,514	0,084	-0,027
-241,161	800,000	0,040	0,081
-240,146	-200,000	0,002	-0,099
-239,132	-200,000	0,002	0,032
-238,117	-198,806	-0,155	0,001
-237,103	87,884	0,068	-0,053
-236,088	-115,925	-0,087	-0,011
-235,073	81,108	0,109	-0,084
-234,059	-55,724	0,082	0,026
-233,044	-200,000	-0,006	0,033
-232,030	98,423	-0,026	-0,021
-231,015	152,553	0,036	-0,035
-230,000	256,123	-0,008	-0,010
-228,986	-77,476	-0,076	0,019
-227,971	63,056	0,042	0,030
-226,957	-41,599	0,075	0,027
-225,942	699,437	-0,078	-0,146
-224,927	-56,065	0,109	-0,034
-223,913	-24,804	-0,059	-0,025
-222,898	-86,092	0,078	0,017
-221,884	98,014	-0,022	0,018
-220,869	-81,216	0,020	-0,005
-219,855	-200,000	-0,005	0,025
-218,840	402,184	-0,065	0,097
-217,825	-152,570	-0,031	-0,002
-216,811	-101,217	-0,069	0,012
-215,796	459,286	0,066	-0,106
-214,782	60,881	-0,037	0,026
-213,767	15,509	-0,122	0,068
-212,752	-80,305	0,131	0,031
-211,738	-200,000	-0,013	0,153
-210,723	217,421	-0,015	0,017
-209,709	800,000	-0,028	0,077
-208,694	75,726	-0,112	-0,084
-207,679	800,000	0,058	-0,130
-206,665	43,758	-0,109	-0,071
-205,650	-200,000	0,009	0,097
-204,636	163,187	0,037	-0,037
-203,621	-200,000	0,008	0,035
-202,606	-200,000	-0,012	-0,112
-201,592	94,661	0,055	0,045
-200,577	-10,017	-0,108	0,051
-199,563	-200,000	-0,002	0,024
-198,548	187,980	0,066	0,070
-197,533	800,000	-0,023	0,061
-196,519	800,000	-0,031	-0,070
-195,504	-151,217	-0,100	-0,005
-194,490	-200,000	0,001	-0,129
-193,475	122,235	-0,012	-0,011
-192,460	10,021	0,034	0,018
-191,446	30,105	0,036	-0,022
-190,431	119,048	-0,095	0,084
-189,417	576,982	-0,065	0,113
-188,402	194,562	-0,034	0,037
-187,387	-4,936	-0,138	0,067
-186,373	342,712	0,007	-0,010
-185,358	-19,811	0,110	-0,048
-184,344	-93,733	0,081	0,016
-183,329	800,000	0,026	0,058
-182,315	115,966	-0,090	-0,079
-181,300	292,299	-0,058	-0,075
-180,285	-162,224	0,070	0,002
-179,271	140,690	0,042	-0,040
-178,256	3,501	-0,085	-0,044
-177,242	119,331	-0,066	0,058
-176,227	800,000	-0,009	0,020
-175,212	417,858	-0,021	0,032
-174,198	-35,040	0,030	-0,012
-173,183	-200,000	0,007	-0,099
-172,169	91,050	0,123	0,098
-171,154	25,985	0,031	0,018
-170,139	-200,000	-0,014	0,099
-169,125	-38,878	-0,021	0,008
-168,110	-200,000	-0,003	-0,022
-167,096	-7,697	0,059	0,028
-166,081	109,899	-0,117	-0,100
-165,066	-200,000	-0,012	-0,115
-164,052	114,576	0,075	-0,065
-163,037	70,276	0,076	0,056
-162,023	-200,000	-0,012	0,069
-161,008	-200,000	-0,013	0,154
-159,993	312,701	-0,047	0,063
-158,979	150,357	0,049	-0,047
-157,964	266,864	-0,076	-0,094
-156,950	-200,000	-0,004	-0,033
-155,935	-58,927	0,105	0,032
-154,920	314,229	0,017	-0,022
-153,906	-200,000	0,019	0,122
-152,891	439,951	0,053	0,082
-151,877	133,093	-0,034	-0,031
-150,862	31,423	0,039	-0,024
-149,847	-200,000	-0,022	-0,080
-148,833	-77,504	0,175	-0,043
-147,818	393,713	0,040	-0,059
-146,804	-200,000	-0,003	-0,022
-145,789	800,000	0,031	0,067
-144,775	-200,000	-0,007	0,043
-143,760	800,000	-0,031	-0,082
-142,745	256,512	0,054	-0,066
-141,731	800,000	-0,047	0,118
-140,716	-57,398	0,155	0,048
-139,702	134,094	-0,115	0,106
-138,687	-30,833	0,040	0,016
-137,672	-179,330	0,101	-0,002
-136,658	-4,349	0,057	0,028
-135,643	-33,541	0,081	-0,032
-134,629	-200,000	0,007	0,058
-133,614	-66,800	0,249	0,070
-132,599	-124,576	0,070	0,008
-131,585	-92,143	0,055	-0,011
-130,570	237,523	-0,008	-0,010
-129,556	231,250	-0,022	-0,026
-128,541	26,083	-0,127	0,075
-127,526	800,000	-0,022	0,043
-126,512	268,493	-0,080	-0,099
-125,497	-87,922	0,081	-0,017
-124,483	36,748	0,130	0,081
-123,468	-23,010	-0,087	0,037
-122,453	42,305	0,107	0,069
-121,439	27,259	-0,151	-0,090
-120,424	-200,000	-0,014	0,057
-119,410	363,773	-0,028	0,040
-118,395	31,896	-0,018	0,011
-117,380	-79,042	-0,089	0,021
-116,366	-200,000	-0,009	-0,045
-115,351	262,641	-0,064	0,079
-114,337	250,313	0,047	-0,056
-113,322	800,000	0,024	-0,051
-112,307	647,393	0,052	0,094
-111,293	-104,091	-0,079	-0,013
-110,278	-31,119	0,070	0,028
-109,264	256,085	-0,020	-0,024
-108,249	-200,000	0,011	0,079
-107,234	229,824	-0,060	-0,069
-106,220	-5,295	-0,099	-0,048
-105,205	-166,622	-0,114	-0,003
-104,191	800,000	-0,027	0,063
-103,176	58,012	-0,094	0,065
-102,162	-200,000	0,005	0,019
-101,147	800,000	0,018	0,048
-100,132	249,552	-0,019	-0,023
-99,118	461,766	0,024	-0,038
-98,103	-12,751	0,097	-0,045
-97,089	800,000	-0,079	0,166
-96,074	-200,000	0,016	0,117
-95,059	560,694	0,023	-0,040
-94,045	716,292	0,021	-0,040
-93,030	185,536	-0,054	-0,057
-92,016	-74,134	-0,062	-0,016
-91,001	-91,661	0,164	-0,033
-89,986	-140,444	0,118	-0,009
-88,972	800,000	-0,016	0,047
-87,957	179,111	0,092	0,096
-86,943	-190,521	-0,052	0,000
-85,928	800,000	-0,036	-0,099
-84,913	-116,684	0,047	-0,006
-83,899	390,603	0,024	-0,035
-82,884	-170,611	0,142	0,003
-81,870	-65,740	-0,073	0,021
-80,855	572,259	0,063	0,108
-79,840	-200,000	0,005	-0,038
-78,826	40,017	0,054	-0,034
-77,811	79,261	-0,124	-0,094
-76,797	341,716	0,120	-0,167
-75,782	81,282	0,072	0,055
-74,767	-200,000	0,002	-0,049
-73,753	800,000	-0,078	0,155
-72,738	434,708	0,100	-0,155
-71,724	-73,767	-0,152	0,039
-70,709	-200,000	0,021	-0,173
-69,694	48,635	0,032	-0,022
-68,680	800,000	0,067	-0,163
-67,665	547,748	0,073	0,124
-66,651	50,461	-0,113	0,075
-65,636	378,665	-0,055	-0,080
-64,622	246,738	0,039	0,046
-63,607	-200,000	0,019	0,106
-62,592	398,022	-0,042	-0,062
-61,578	30,191	0,141	0,085
-60,563	-62,577	0,161	0,047
-59,549	-102,623	0,055	-0,009
-58,534	-23,144	-1,728	-0,734
-57,519	412,306	-1,385	-2,091
-56,505	-200,000	-0,515	-4,562
-55,490	232,731	0,970	1,131
-54,476	800,000	4,983	11,472
-53,461	-200,000	19,198	319,786
-52,446	-200,000	740,342	2334,480
-51,432	573,598	1655,338	2869,367
-50,417	78,378	1671,018	1262,330
-49,403	21,342	1543,865	885,803
-48,388	15,191	1466,193	811,333
-47,373	17,953	1456,534	819,305
-46,359	16,712	1446,255	807,539
-45,344	13,446	1441,820	789,386
-44,330	13,363	1439,961	787,939
-43,315	13,324	1438,238	786,775
-42,300	13,362	1436,644	786,057
-41,286	13,404	1435,196	785,431
-40,271	13,343	1433,892	784,395
-39,257	13,369	1432,520	783,738
-38,242	13,401	1431,284	783,186
-37,227	13,408	1430,067	782,523
-36,213	13,379	1428,920	781,723
-35,198	13,412	1427,576	781,114
-34,184	13,495	1426,633	780,960
-33,169	13,368	1425,386	779,646
-32,154	13,440	1424,212	779,312
-31,140	13,427	1422,894	778,498
-30,125	13,486	1421,912	778,212
-29,111	13,460	1420,972	777,543
-28,096	13,430	1419,575	776,604
-27,082	13,360	1418,626	775,725
-26,067	13,323	1417,453	774,879
-25,052	13,380	1416,235	774,452
-24,038	13,362	1415,419	773,887
-23,023	13,330	1414,321	773,108
-22,009	13,310	1413,525	772,549
-20,994	13,276	1412,596	771,851
-19,979	13,298	1411,766	771,470
-18,965	13,278	1410,562	770,685
-17,950	13,290	1409,689	770,235
-16,936	13,302	1408,743	769,746
-15,921	13,251	1407,761	768,938
-14,906	13,304	1406,756	768,608
-13,892	13,273	1405,880	767,953
-12,877	13,249	1404,957	767,308
-11,863	13,245	1404,249	766,868
-10,848	13,276	1403,231	766,428
-9,833	13,220	1402,452	765,712
-8,819	13,202	1401,660	765,167
-7,804	13,158	1400,555	764,327
-6,790	13,165	1399,562	763,785
-5,775	13,153	1398,561	763,156
-4,760	13,185	1397,347	762,611
-3,746	13,185	1396,746	762,250
-2,731	13,153	1395,959	761,643
-1,717	13,140	1394,843	760,943
-0,702	13,131	1393,234	759,993
0,313	16,967	1310,018	732,373
1,327	33,152	704,070	431,042
2,342	51,137	123,401	82,687
3,356	0,616	16,619	8,381
4,371	13,200	3,167	1,730
5,386	-46,332	0,712	0,246
6,400	800,000	0,112	0,251
7,415	696,682	-0,133	-0,248
8,429	-82,367	-0,278	-0,063
9,444	52,408	-0,256	-0,173
10,459	3,912	-0,308	-0,159
11,473	46,673	-0,291	-0,191
12,488	68,047	-0,241	-0,174
13,502	-137,853	-0,263	-0,020
14,517	-45,328	-0,408	-0,142
15,531	123,031	-0,276	-0,244
16,546	74,773	-0,308	-0,229
17,561	88,931	-0,380	-0,298
18,575	88,187	-0,170	-0,133
19,590	40,530	-0,313	-0,199
20,604	214,285	-0,153	-0,172
21,619	-23,184	-0,529	-0,224
22,634	80,537	-0,423	-0,322
23,648	14,663	-0,613	-0,337
24,663	21,772	-0,448	-0,257
25,677	254,629	-0,266	-0,322
26,692	242,622	-0,326	-0,385
27,707	97,535	-0,398	-0,323
28,721	187,767	-0,316	-0,333
29,736	74,769	-0,387	-0,287
30,750	66,867	-0,497	-0,356
31,765	59,419	-0,430	-0,299
32,780	73,643	-0,279	-0,206
33,794	150,716	-0,396	-0,380
34,809	12,639	-0,477	-0,259
35,823	102,629	-0,323	-0,266
36,838	-62,022	-0,356	-0,104
37,853	234,729	-0,390	-0,455
38,867	147,717	-0,384	-0,365
39,882	146,018	-0,250	-0,237
40,896	34,483	-0,369	-0,227
41,911	-29,752	-0,233	-0,093
42,926	8,372	-0,460	-0,243
43,940	-73,507	-0,343	-0,088
44,955	93,517	-0,374	-0,298
45,969	125,162	-0,293	-0,261
46,984	28,884	-0,362	-0,216
47,999	5,250	-0,363	-0,188
49,013	14,542	-0,356	-0,195
50,028	83,020	-0,222	-0,170
51,042	246,644	-0,303	-0,361
52,057	18,019	-0,313	-0,175
53,071	18,868	-0,358	-0,201
54,086	91,852	-0,313	-0,248
55,101	-23,951	-0,352	-0,148
56,115	-51,492	-0,449	-0,147
57,130	242,370	-0,196	-0,231
58,144	2,751	-0,367	-0,187
59,159	91,689	-0,392	-0,310
60,174	250,477	-0,331	-0,396
61,188	93,763	-0,370	-0,295
62,203	-56,321	-0,428	-0,133
63,217	192,450	-0,224	-0,238
64,232	-52,892	-0,378	-0,122
65,247	92,292	-0,183	-0,145
66,261	-44,526	-0,299	-0,105
67,276	-15,930	-0,411	-0,183
68,290	-62,937	-0,288	-0,083
69,305	800,000	-0,103	-0,217
70,320	66,524	-0,275	-0,197
71,334	82,350	-0,322	-0,246
72,349	56,517	-0,272	-0,186
73,363	127,571	-0,350	-0,312
74,378	187,625	-0,203	-0,214
75,393	247,986	-0,284	-0,339
76,407	151,325	-0,223	-0,213
77,422	2,952	-0,235	-0,119
78,436	296,367	-0,228	-0,295
79,451	47,697	-0,278	-0,182
80,466	68,763	-0,308	-0,222
81,480	26,084	-0,305	-0,179
82,495	12,702	-0,348	-0,188
83,509	187,366	-0,185	-0,194
84,524	681,715	-0,177	-0,326
85,539	-117,445	-0,224	-0,028
86,553	65,549	-0,266	-0,189
87,568	-29,578	-0,395	-0,158
88,582	79,238	-0,284	-0,214
89,597	-66,348	-0,353	-0,098
90,611	-32,281	-0,199	-0,078
91,626	33,738	-0,181	-0,110
92,641	313,693	-0,165	-0,218
93,655	23,412	-0,267	-0,154
94,670	-20,249	-0,266	-0,114
95,684	155,103	-0,361	-0,348
96,699	72,042	-0,285	-0,208
97,714	50,133	-0,295	-0,195
98,728	121,115	-0,231	-0,201
99,743	800,000	-0,114	-0,240
100,757	-22,216	-0,293	-0,124
101,772	444,965	-0,246	-0,380
102,787	75,671	-0,274	-0,203
103,801	11,851	-0,269	-0,145
104,816	70,869	-0,356	-0,258
105,830	226,675	-0,261	-0,298
106,845	6,764	-0,285	-0,148
107,860	-86,772	-0,291	-0,062
108,874	14,006	-0,363	-0,198
109,889	158,294	-0,317	-0,308
110,903	-1,279	-0,380	-0,187
111,918	170,313	-0,352	-0,353
112,933	97,545	-0,179	-0,144
113,947	163,056	-0,264	-0,260
114,962	7,064	-0,295	-0,154
115,976	-15,817	-0,308	-0,137
116,991	92,499	-0,240	-0,189
118,006	140,313	-0,254	-0,235
119,020	32,971	-0,186	-0,113
120,035	-1,283	-0,271	-0,134
121,049	86,316	-0,252	-0,194
122,064	-87,665	-0,165	-0,034
123,079	-32,635	-0,120	-0,047
124,093	47,650	-0,326	-0,212
125,108	-103,334	-0,421	-0,069
126,122	64,643	-0,298	-0,210
127,137	705,729	-0,090	-0,167
128,151	-3,160	-0,215	-0,105
129,166	47,221	-0,290	-0,189
130,181	-89,404	-0,305	-0,062
131,195	92,840	-0,238	-0,188
132,210	30,289	-0,277	-0,165
133,224	-33,998	-0,268	-0,103
134,239	186,717	-0,308	-0,321
135,254	-80,654	-0,164	-0,038
136,268	-61,681	-0,250	-0,073
137,283	-53,772	-0,295	-0,094
138,297	98,253	-0,258	-0,208
139,312	95,804	-0,164	-0,131
140,327	-12,848	-0,252	-0,114
141,341	-74,466	-0,284	-0,071
142,356	244,132	-0,189	-0,222
143,370	-59,573	-0,338	-0,101
144,385	-142,557	-0,274	-0,019
145,400	-44,659	-0,214	-0,074
146,414	248,243	-0,236	-0,280
147,429	8,553	-0,370	-0,194
148,443	2,727	-0,172	-0,087
149,458	170,826	-0,177	-0,178
150,473	-45,828	-0,170	-0,058
151,487	174,364	-0,156	-0,158
152,502	43,843	-0,292	-0,186
153,516	106,570	-0,310	-0,257
154,531	88,838	-0,283	-0,220
155,546	2,949	-0,155	-0,078
156,560	113,273	-0,234	-0,198
157,575	-86,133	-0,246	-0,053
158,589	-72,364	-0,155	-0,040
159,604	54,742	-0,270	-0,182
160,619	42,567	-0,364	-0,231
161,633	-100,622	-0,350	-0,060
162,648	-29,422	-0,174	-0,069
163,662	59,766	-0,220	-0,151
164,677	321,500	-0,184	-0,245
165,692	23,794	-0,258	-0,148
166,706	54,509	-0,208	-0,139
167,721	77,766	-0,170	-0,126
168,735	14,970	-0,272	-0,148
169,750	541,956	-0,162	-0,271
170,764	277,341	-0,188	-0,234
171,779	-183,484	-0,133	-0,002
172,794	23,938	-0,155	-0,089
173,808	189,742	-0,212	-0,222
174,823	307,109	-0,218	-0,283
175,837	-38,788	-0,219	-0,080
176,852	42,972	-0,286	-0,181
177,867	-10,267	-0,234	-0,108
178,881	-14,745	-0,276	-0,123
179,896	126,169	-0,216	-0,191
180,910	224,874	-0,265	-0,299
181,925	800,000	-0,123	-0,280
182,940	437,283	-0,159	-0,241
183,954	143,558	-0,276	-0,257
184,969	-81,324	-0,298	-0,068
185,983	-71,978	-0,090	-0,023
186,998	493,831	-0,121	-0,193
188,013	158,556	-0,207	-0,200
189,027	-83,500	-0,243	-0,054
190,042	60,530	-0,200	-0,137
191,056	67,266	-0,194	-0,137
192,071	45,731	-0,179	-0,115
193,086	132,409	-0,248	-0,222
194,100	-65,388	-0,187	-0,052
195,115	800,000	-0,138	-0,317
196,129	-110,929	-0,215	-0,030
197,144	800,000	-0,080	-0,205
198,159	21,907	-0,289	-0,163
199,173	800,000	-0,076	-0,183
200,188	70,571	-0,219	-0,157
201,202	265,463	-0,091	-0,111
202,217	163,969	-0,177	-0,174
203,232	130,127	-0,158	-0,141
204,246	34,408	-0,162	-0,098
205,261	34,702	-0,291	-0,176
206,275	193,091	-0,127	-0,134
207,290	-11,672	-0,230	-0,104
208,304	-72,714	-0,208	-0,053
209,319	-122,948	-0,283	-0,031
210,334	329,925	-0,170	-0,228
211,348	128,231	-0,264	-0,234
212,363	22,506	-0,189	-0,107
213,377	106,963	-0,200	-0,165
214,392	158,496	-0,099	-0,096
215,407	-120,601	-0,179	0,021
216,421	60,901	-0,109	-0,075
217,436	40,497	-0,223	-0,139
218,450	-34,707	-0,172	-0,065
219,465	151,840	-0,190	-0,180
220,480	-60,060	-0,153	0,045
221,494	52,457	-0,268	-0,177
222,509	-17,294	-0,149	-0,065
223,523	39,949	-0,155	0,096
224,538	-82,066	-0,196	-0,044
225,553	99,172	-0,242	-0,194
226,567	485,388	-0,122	-0,194
227,582	-67,854	-0,198	-0,053
228,596	48,175	-0,227	-0,147
229,611	156,171	-0,232	-0,222
230,626	34,800	-0,258	-0,156
231,640	169,170	-0,231	-0,229
232,655	22,396	-0,292	-0,165
233,669	320,097	-0,218	-0,288
234,684	91,228	-0,226	-0,176
235,699	105,655	-0,168	-0,137
236,713	82,726	-0,231	-0,174
237,728	-57,470	-0,227	-0,069
238,742	2,526	-0,266	-0,133
239,757	154,873	-0,229	-0,219
240,772	-40,575	-0,331	-0,118
241,786	294,724	-0,103	-0,131
242,801	331,731	-0,104	-0,139
243,815	-86,392	-0,098	-0,021
244,830	-51,145	-0,186	-0,060
245,844	170,803	-0,235	-0,233
246,859	77,003	-0,160	-0,118
247,874	55,565	-0,272	-0,182
248,888	165,704	-0,142	-0,139
249,903	-171,301	-0,159	-0,004
250,917	47,281	-0,079	-0,051
251,932	55,831	-0,153	-0,102
252,947	166,803	-0,200	-0,196
253,961	-11,106	-0,204	-0,093
254,976	-77,989	-0,222	0,053
255,990	-43,482	-0,239	-0,083
257,005	269,260	-0,160	-0,195
258,020	187,609	-0,164	-0,169
259,034	-142,288	-0,150	0,010
260,049	-22,631	-0,276	-0,115
261,063	13,033	-0,144	-0,077
262,078	-94,875	-0,247	-0,046
263,093	800,000	-0,069	-0,154
264,107	70,868	-0,161	-0,115
265,122	-142,688	-0,188	-0,012
266,136	-50,843	-0,260	-0,084
267,151	82,403	-0,325	-0,243
268,166	8,674	-0,139	-0,072
269,180	-119,789	-0,199	0,023
270,195	-26,882	-0,238	-0,096
271,209	142,036	-0,116	-0,107
272,224	-11,948	-0,208	-0,094
273,239	0,908	-0,172	-0,085
274,253	-43,693	-0,186	-0,064
275,268	177,472	-0,159	-0,161
276,282	-4,483	-0,171	-0,081
277,297	245,478	-0,138	-0,161
278,312	51,681	-0,163	-0,107
279,326	800,000	-0,088	-0,214
280,341	-67,703	-0,167	-0,045
281,355	8,209	-0,255	-0,132
282,370	-22,874	-0,095	-0,040
283,384	143,408	-0,178	-0,163
284,399	345,799	-0,178	-0,243
285,414	-1,787	-0,202	-0,098
286,428	123,662	-0,124	-0,107
287,443	-134,329	-0,073	0,006
288,457	23,853	-0,188	-0,107
289,472	800,000	-0,008	0,017
290,487	654,539	-0,108	-0,192
291,501	72,380	-0,170	-0,122
292,516	-200,000	-0,048	-0,154
293,530	6,561	-0,141	-0,072
294,545	48,566	-0,085	-0,055
295,560	-156,315	-0,164	-0,007
296,574	304,149	-0,181	-0,231
297,589	134,810	-0,152	-0,136
298,603	-26,788	-0,202	-0,081
299,618	-105,502	-0,183	-0,028
300,633	-124,214	-0,180	0,019
301,647	-180,377	-0,104	0,001
302,662	571,227	-0,127	-0,215
303,676	82,144	-0,123	-0,092
304,691	76,366	-0,152	-0,111
305,706	214,723	-0,148	-0,162
306,720	759,316	-0,111	-0,209
307,735	70,977	-0,239	-0,170
308,749	-200,000	0,011	-0,105
309,764	77,934	-0,166	-0,122
310,779	-94,674	-0,086	-0,016
311,793	238,419	0,056	-0,065
312,808	339,143	-0,102	-0,137
313,822	97,882	-0,147	-0,116
314,837	118,872	-0,129	-0,109
315,852	-69,746	-0,113	-0,029
316,866	691,489	-0,104	-0,188
317,881	-200,000	-0,060	-0,225
318,895	444,965	-0,116	-0,176
319,910	2,531	-0,209	-0,104
320,925	-156,759	-0,289	-0,012
321,939	163,583	-0,031	-0,030
322,954	-4,804	-0,177	-0,084
323,968	9,471	-0,119	-0,062
324,983	-48,403	-0,138	0,045
325,997	68,505	-0,095	-0,067
327,012	27,472	-0,117	-0,068
328,027	-14,266	-0,150	-0,066
329,041	-110,015	-0,243	-0,035
330,056	216,553	-0,093	-0,102
331,070	-143,557	-0,105	0,007
332,085	-13,657	-0,186	-0,082
333,100	66,118	-0,230	-0,160
334,114	-17,537	-0,195	-0,084
335,129	-62,068	-0,054	-0,015
336,143	-47,599	-0,161	-0,053
337,158	14,779	-0,103	-0,055
338,173	800,000	-0,082	-0,169
339,187	-55,657	-0,194	-0,059
340,202	97,680	-0,082	-0,065
341,216	94,771	-0,110	-0,086
342,231	-7,285	-0,161	-0,075
343,246	85,209	-0,119	-0,089
344,260	-200,000	-0,017	0,057
345,275	-118,165	-0,168	0,020
346,289	11,640	-0,085	-0,044
347,304	214,735	-0,096	-0,104
348,319	800,000	-0,063	-0,138
349,333	-48,264	-0,165	-0,054
350,348	-200,000	-0,033	-0,210
351,362	286,929	-0,089	-0,110
352,377	800,000	-0,065	-0,179
353,392	44,490	-0,104	-0,065
354,406	678,727	-0,098	-0,175
355,421	209,204	1313,675	1413,175
356,435	161,004	1474,281	1413,678
