DTS Sentinel unit serial number:	SN410029Multiplexer serial number:	ORYXHardware model number:	OX2-SRSoftware version number:	ORYX F/W v4,00 Oryx Data Collector v3.7.2.0data status	okinstallation	B3 Nyhavnadifferential loss correction	single-endedforward channel	channel 1reverse channel	N/Adate	2023/11/30time	02:42:30forward acquisition time	300,00reverse acquisition time	0,00gamma	499,1914k internal	0,3210k external	0,3210temperature offset calibration	1,0000default loss term (dB/km)	0,3820temperature slope calibration	1,0000multiplexer offset coefficient	1,0000multiplexer slope coefficient	1,0000fibre end	0,00T internal ref (°C)	10,36T ext. ref 1 (°C)	-5,32T ext. ref 2 (°C)	-5,44length (m)	temperature (°C)	Stokes	anti-Stokes-744,400	106,950	-0,293	-0,252
-743,385	-200,000	0,037	0,264
-742,371	408,763	-0,181	-0,279
-741,356	-200,000	0,059	0,212
-740,342	15,264	-0,234	-0,133
-739,327	800,000	0,121	0,386
-738,312	-30,853	-0,262	-0,107
-737,298	-200,000	-0,025	0,269
-736,283	61,588	-0,314	-0,226
-735,269	-200,000	0,002	0,259
-734,254	82,121	-0,197	-0,155
-733,239	-49,437	-0,208	0,071
-732,225	82,397	-0,123	-0,097
-731,210	632,459	0,113	0,208
-730,196	153,699	0,053	-0,053
-729,181	-200,000	0,008	-0,032
-728,167	187,857	0,050	-0,054
-727,152	-25,304	-0,031	-0,013
-726,137	800,000	-0,076	-0,188
-725,123	80,808	0,029	0,023
-724,108	800,000	-0,042	-0,086
-723,094	187,860	-0,071	-0,077
-722,079	32,544	-0,090	-0,056
-721,064	-88,323	-0,034	0,007
-720,050	114,419	0,073	-0,064
-719,035	135,667	0,051	-0,048
-718,021	86,307	-0,031	0,025
-717,006	347,519	0,031	0,044
-715,991	-192,430	-0,012	0,000
-714,977	328,314	-0,108	-0,150
-713,962	800,000	-0,039	0,083
-712,948	-105,172	0,147	0,024
-711,933	120,278	-0,043	0,039
-710,918	-200,000	0,021	0,101
-709,904	86,446	-0,159	-0,127
-708,889	111,181	0,040	-0,035
-707,875	182,089	-0,145	-0,155
-706,860	-121,329	-0,073	0,009
-705,845	-200,000	0,007	-0,099
-704,831	-154,991	0,032	-0,002
-703,816	312,420	-0,074	-0,102
-702,802	158,998	-0,149	0,150
-701,787	325,568	0,042	-0,058
-700,772	-200,000	-0,004	-0,098
-699,758	50,097	-0,078	-0,053
-698,743	-200,000	-0,002	-0,132
-697,729	-158,814	0,134	-0,005
-696,714	-43,285	-0,096	0,035
-695,699	36,935	0,096	-0,061
-694,685	40,449	0,097	0,063
-693,670	800,000	0,059	0,162
-692,656	-200,000	-0,005	0,084
-691,641	-81,602	0,131	0,031
-690,627	22,597	0,026	0,016
-689,612	291,463	-0,104	0,138
-688,597	-152,323	0,052	-0,003
-687,583	421,150	-0,041	0,064
-686,568	316,677	-0,055	-0,075
-685,554	-157,091	-0,060	-0,003
-684,539	-179,547	0,063	0,001
-683,524	157,403	-0,053	0,053
-682,510	2,648	0,086	0,045
-681,495	-89,304	-0,028	0,006
-680,481	11,448	-0,168	-0,093
-679,466	144,680	0,148	-0,143
-678,451	-200,000	-0,012	0,068
-677,437	11,061	-0,073	0,040
-676,422	108,440	0,081	0,070
-675,408	-200,000	-0,008	0,051
-674,393	335,500	-0,092	0,129
-673,378	-166,131	-0,062	-0,002
-672,364	36,559	0,178	-0,113
-671,349	-200,000	0,030	-0,161
-670,335	-200,000	-0,009	0,141
-669,320	-59,823	0,075	0,023
-668,305	90,593	-0,073	-0,059
-667,291	177,875	0,054	-0,057
-666,276	450,633	-0,084	-0,135
-665,262	650,822	-0,073	-0,135
-664,247	422,405	0,056	-0,087
-663,232	-200,000	-0,021	0,070
-662,218	49,345	0,100	-0,068
-661,203	45,280	-0,041	0,027
-660,189	-58,256	0,137	0,043
-659,174	-13,537	-0,075	-0,035
-658,159	-200,000	-0,019	-0,108
-657,145	40,898	0,042	0,028
-656,130	-82,006	0,083	0,020
-655,116	-101,009	-0,112	0,020
-654,101	310,103	-0,042	0,057
-653,086	-191,236	0,131	0,001
-652,072	584,241	-0,066	-0,117
-651,057	800,000	-0,035	-0,110
-650,043	-200,000	-0,003	0,013
-649,028	-80,858	-0,104	0,025
-648,014	-28,516	0,052	-0,021
-646,999	-19,550	0,060	0,027
-645,984	77,432	-0,080	0,062
-644,970	37,966	-0,157	0,101
-643,955	161,816	-0,069	0,070
-642,941	18,074	-0,103	-0,059
-641,926	49,534	-0,072	0,049
-640,911	116,241	-0,052	-0,046
-639,897	315,907	0,093	0,127
-638,882	625,307	0,022	-0,041
-637,868	266,837	-0,106	-0,134
-636,853	800,000	0,017	0,045
-635,838	401,951	-0,049	-0,075
-634,824	189,121	-0,047	-0,051
-633,809	206,329	0,040	0,045
-632,795	32,643	0,026	-0,016
-631,780	800,000	0,007	0,023
-630,765	-116,006	-0,093	-0,012
-629,751	-69,855	-0,058	0,016
-628,736	-200,000	0,018	-0,147
-627,722	-100,303	-0,087	-0,015
-626,707	-84,344	-0,082	-0,018
-625,692	-16,347	-0,063	-0,029
-624,678	49,703	0,031	0,021
-623,663	-140,783	0,143	0,010
-622,649	94,109	0,026	-0,021
-621,634	800,000	0,034	0,075
-620,619	570,813	-0,062	0,109
-619,605	-9,426	0,135	0,065
-618,590	-200,000	0,010	-0,050
-617,576	-114,655	0,001	-0,000
-616,561	98,182	0,054	0,045
-615,546	43,664	-0,025	0,016
-614,532	-31,602	-0,081	-0,033
-613,517	-200,000	0,014	-0,076
-612,503	-6,903	0,013	0,006
-611,488	224,231	0,117	-0,137
-610,474	-200,000	-0,010	0,055
-609,459	800,000	0,017	-0,052
-608,444	-186,007	-0,029	0,000
-607,430	198,624	-0,071	-0,079
-606,415	670,910	0,019	-0,035
-605,401	98,756	-0,096	0,080
-604,386	161,388	0,072	0,073
-603,371	-134,281	0,096	-0,008
-602,357	-159,349	-0,126	-0,005
-601,342	-200,000	-0,006	-0,036
-600,328	-56,209	-0,093	-0,030
-599,313	203,254	0,029	0,032
-598,298	513,522	0,017	-0,029
-597,284	327,161	-0,044	0,061
-596,269	63,694	0,036	-0,026
-595,255	800,000	0,078	0,163
-594,240	389,351	-0,105	-0,157
-593,225	-102,099	-0,222	-0,038
-592,211	610,899	-0,067	-0,121
-591,196	-200,000	-0,018	0,061
-590,182	800,000	-0,022	0,064
-589,167	-0,105	-0,078	-0,040
-588,152	466,241	-0,075	-0,121
-587,138	21,764	-0,130	0,076
-586,123	-84,535	0,066	-0,015
-585,109	-53,362	-0,076	-0,025
-584,094	-179,764	0,080	-0,001
-583,079	359,464	-0,056	0,081
-582,065	38,105	-0,065	0,042
-581,050	-136,190	0,090	0,007
-580,036	-43,307	-0,090	-0,033
-579,021	-78,983	-0,118	-0,029
-578,006	-200,000	-0,076	-0,274
-576,992	544,461	-0,037	-0,064
-575,977	216,451	-0,018	0,020
-574,963	-62,634	0,154	0,046
-573,948	458,522	0,041	-0,066
-572,934	52,326	-0,101	0,069
-571,919	-200,000	-0,001	0,042
-570,904	-84,766	-0,104	-0,023
-569,890	800,000	0,049	-0,104
-568,875	-200,000	-0,012	-0,042
-567,861	-200,000	-0,024	0,081
-566,846	-200,000	-0,007	-0,075
-565,831	-172,238	0,092	-0,002
-564,817	194,594	-0,024	-0,026
-563,802	105,280	-0,113	-0,096
-562,788	32,721	0,048	0,030
-561,773	-117,001	0,126	-0,016
-560,758	-68,023	0,123	0,034
-559,744	70,502	0,113	0,084
-558,729	-200,000	-0,018	0,118
-557,715	-72,696	-0,081	0,021
-556,700	-143,190	-0,190	-0,013
-555,685	800,000	0,022	-0,049
-554,671	-200,000	0,009	-0,081
-553,656	-170,718	0,210	-0,005
-552,642	800,000	-0,054	0,113
-551,627	-82,548	-0,126	-0,029
-550,612	-123,837	-0,119	0,013
-549,598	-50,301	0,072	0,024
-548,583	800,000	-0,009	-0,021
-547,569	94,616	-0,073	-0,060
-546,554	449,164	0,009	0,014
-545,539	214,407	0,037	-0,042
-544,525	182,900	-0,066	0,070
-543,510	66,034	-0,061	0,045
-542,496	17,857	-0,090	0,051
-541,481	-200,000	-0,015	-0,068
-540,466	136,612	-0,052	-0,049
-539,452	-22,326	-0,135	0,059
-538,437	328,097	0,049	0,068
-537,423	-11,438	0,049	0,023
-536,408	-100,576	-0,054	0,010
-535,393	89,659	0,120	-0,096
-534,379	800,000	-0,045	-0,124
-533,364	800,000	0,033	0,082
-532,350	-66,935	-0,078	-0,022
-531,335	-200,000	-0,021	-0,082
-530,321	-153,253	0,057	0,003
-529,306	303,283	-0,072	-0,096
-528,291	452,108	-0,084	-0,135
-527,277	-200,000	-0,003	-0,024
-526,262	800,000	0,058	-0,135
-525,248	-200,000	0,010	-0,037
-524,233	-63,056	0,141	-0,042
-523,218	184,997	-0,022	0,024
-522,204	484,480	-0,051	-0,084
-521,189	334,999	-0,024	0,033
-520,175	71,873	0,051	-0,038
-519,160	-122,390	-0,052	-0,006
-518,145	-45,018	0,056	-0,020
-517,131	579,659	-0,058	0,102
-516,116	-200,000	-0,011	0,098
-515,102	108,358	0,052	0,045
-514,087	23,042	-0,165	0,097
-513,072	36,328	-0,044	-0,028
-512,058	-189,540	0,199	-0,002
-511,043	109,274	-0,051	-0,044
-510,029	-76,471	0,034	-0,008
-509,014	-200,000	0,000	0,035
-507,999	58,039	0,154	-0,109
-506,985	-142,671	-0,178	0,012
-505,970	69,246	-0,081	-0,059
-504,956	197,122	0,027	0,030
-503,941	181,857	0,015	0,016
-502,926	41,126	-0,077	0,050
-501,912	-200,000	0,028	-0,094
-500,897	-149,939	-0,040	-0,002
-499,883	50,488	0,056	-0,038
-498,868	-106,493	-0,077	-0,012
-497,853	126,670	-0,120	-0,109
-496,839	-56,769	0,014	0,005
-495,824	800,000	0,060	0,180
-494,810	800,000	-0,056	0,168
-493,795	-166,783	0,044	-0,001
-492,781	54,762	-0,076	-0,053
-491,766	56,866	0,079	0,056
-490,751	800,000	-0,025	0,072
-489,737	-73,670	0,057	0,015
-488,722	328,027	-0,023	-0,031
-487,708	270,102	-0,070	0,088
-486,693	-200,000	0,005	0,091
-485,678	-7,543	-0,079	-0,038
-484,664	-26,663	-0,082	-0,034
-483,649	191,001	-0,055	-0,060
-482,635	-200,000	-0,005	-0,060
-481,620	503,974	0,057	0,096
-480,605	-200,000	0,035	0,156
-479,591	-200,000	0,016	0,082
-478,576	800,000	-0,049	-0,114
-477,562	144,841	-0,076	0,073
-476,547	114,516	0,104	-0,091
-475,532	-200,000	0,024	-0,084
-474,518	-91,458	-0,017	-0,003
-473,503	794,513	0,063	0,124
-472,489	184,998	0,108	0,115
-471,474	215,810	0,077	0,087
-470,459	-200,000	0,000	-0,054
-469,445	103,347	0,033	-0,027
-468,430	-88,318	-0,104	-0,022
-467,416	124,540	-0,071	0,064
-466,401	-157,172	0,123	0,005
-465,386	257,009	0,070	0,086
-464,372	-200,000	0,025	0,135
-463,357	103,046	-0,072	-0,060
-462,343	800,000	0,066	0,160
-461,328	800,000	0,031	0,069
-460,313	-5,963	-0,094	-0,046
-459,299	-103,854	0,115	0,019
-458,284	-95,066	0,051	-0,010
-457,270	800,000	-0,024	0,059
-456,255	89,711	0,061	-0,049
-455,241	-200,000	-0,089	-0,283
-454,226	-200,000	-0,006	-0,121
-453,211	800,000	0,031	-0,076
-452,197	-192,607	0,088	-0,001
-451,182	-138,214	0,139	-0,011
-450,168	-200,000	0,002	0,080
-449,153	800,000	0,016	-0,038
-448,138	-67,255	-0,095	-0,027
-447,124	-200,000	-0,007	-0,021
-446,109	231,665	0,049	-0,058
-445,095	-182,025	0,065	-0,001
-444,080	-200,000	0,000	0,007
-443,065	800,000	0,068	-0,140
-442,051	177,163	-0,069	-0,072
-441,036	-200,000	-0,053	-0,195
-440,022	421,498	0,026	0,041
-439,007	-80,550	0,088	0,021
-437,992	-92,828	0,131	0,026
-436,978	109,345	0,032	-0,027
-435,963	129,177	0,113	-0,103
-434,949	800,000	0,025	0,075
-433,934	7,018	-0,043	0,023
-432,919	70,696	-0,081	-0,060
-431,905	82,862	-0,071	0,055
-430,890	117,161	-0,025	0,022
-429,876	-102,051	0,108	-0,018
-428,861	-74,409	-0,092	-0,024
-427,846	183,798	0,076	-0,081
-426,832	240,133	-0,114	-0,136
-425,817	-161,483	-0,039	-0,001
-424,803	-200,000	-0,047	0,155
-423,788	89,066	0,073	-0,058
-422,773	533,244	0,041	-0,069
-421,759	429,348	0,099	0,154
-420,744	94,742	-0,090	-0,073
-419,730	59,396	-0,071	-0,050
-418,715	-200,000	-0,001	-0,083
-417,701	689,383	-0,056	0,105
-416,686	800,000	-0,012	0,033
-415,671	443,038	0,045	0,071
-414,657	-71,198	0,082	0,022
-413,642	169,990	-0,066	0,067
-412,628	299,503	0,085	-0,112
-411,613	800,000	-0,025	0,064
-410,598	-200,000	0,006	0,108
-409,584	-200,000	0,020	-0,176
-408,569	154,246	0,031	-0,030
-407,555	24,694	0,092	-0,054
-406,540	-136,712	-0,068	0,006
-405,525	-20,196	0,101	0,044
-404,511	172,277	-0,106	-0,109
-403,496	-20,343	0,125	0,055
-402,482	-79,880	0,099	-0,024
-401,467	-115,962	0,110	0,015
-400,452	-130,172	-0,093	0,009
-399,438	800,000	0,033	-0,080
-398,423	-25,745	-0,053	0,022
-397,409	-65,323	0,102	-0,029
-396,394	131,360	0,028	-0,026
-395,379	800,000	-0,041	0,117
-394,365	800,000	-0,045	0,110
-393,350	578,508	0,085	0,149
-392,336	109,156	0,017	0,015
-391,321	192,010	-0,073	0,079
-390,306	435,621	-0,075	0,117
-389,292	279,709	-0,054	-0,069
-388,277	-200,000	0,007	0,069
-387,263	250,018	-0,068	0,083
-386,248	-200,000	-0,005	0,057
-385,233	800,000	0,015	0,039
-384,219	300,725	0,093	-0,123
-383,204	100,022	-0,063	-0,052
-382,190	-200,000	0,023	0,106
-381,175	800,000	-0,036	0,113
-380,160	560,638	0,074	0,128
-379,146	130,902	0,087	0,080
-378,131	-96,683	0,078	0,014
-377,117	275,487	-0,034	-0,043
-376,102	653,702	-0,062	0,115
-375,088	461,615	-0,079	-0,127
-374,073	283,710	0,067	-0,086
-373,058	65,539	0,095	0,069
-372,044	-200,000	-0,026	-0,127
-371,029	-113,083	0,119	-0,017
-370,015	-35,430	-0,036	-0,014
-369,000	-91,174	-0,174	0,035
-367,985	-200,000	-0,003	0,020
-366,971	-200,000	0,023	-0,094
-365,956	-200,000	0,024	-0,103
-364,942	-12,095	0,067	0,031
-363,927	800,000	0,026	-0,060
-362,912	-14,795	0,066	0,030
-361,898	3,986	0,053	0,027
-360,883	130,293	-0,112	-0,102
-359,869	-100,393	0,092	-0,016
-358,854	60,838	0,050	-0,036
-357,839	-15,933	-0,087	0,040
-356,825	-200,000	0,011	0,137
-355,810	452,275	0,049	-0,077
-354,796	162,841	0,073	0,073
-353,781	-51,713	-0,122	0,040
-352,766	659,189	0,066	-0,122
-351,752	508,967	0,089	-0,148
-350,737	117,866	-0,031	0,028
-349,723	-200,000	0,016	-0,115
-348,708	-72,746	-0,061	0,016
-347,693	-200,000	-0,009	0,062
-346,679	675,541	-0,040	-0,075
-345,664	-200,000	0,004	-0,118
-344,650	800,000	-0,043	-0,091
-343,635	-46,234	0,077	0,027
-342,620	-101,939	0,116	0,020
-341,606	39,369	0,151	-0,097
-340,591	224,886	-0,045	0,053
-339,577	-200,000	-0,002	-0,019
-338,562	-48,755	0,167	-0,057
-337,548	-200,000	-0,009	0,073
-336,533	46,132	0,066	0,043
-335,518	-131,334	0,055	-0,005
-334,504	-40,753	0,022	-0,008
-333,489	447,896	0,094	-0,148
-332,475	-25,307	0,075	0,032
-331,460	475,808	0,047	-0,076
-330,445	800,000	-0,059	-0,121
-329,431	101,028	0,051	0,042
-328,416	242,460	0,047	-0,056
-327,402	-6,289	0,180	-0,087
-326,387	487,216	-0,049	0,080
-325,372	-135,409	0,044	-0,004
-324,358	-150,892	-0,144	0,008
-323,343	-200,000	0,005	-0,053
-322,329	-200,000	-0,016	0,085
-321,314	31,126	0,053	-0,032
-320,299	800,000	0,072	-0,188
-319,285	601,696	-0,050	0,089
-318,270	800,000	0,013	-0,036
-317,256	31,193	-0,066	0,040
-316,241	29,877	0,084	0,051
-315,226	-200,000	-0,005	-0,076
-314,212	-200,000	0,052	0,168
-313,197	-36,712	0,050	0,019
-312,183	-143,704	-0,257	-0,017
-311,168	8,441	-0,060	-0,032
-310,153	-200,000	0,006	-0,090
-309,139	-200,000	0,015	0,077
-308,124	-200,000	0,018	-0,076
-307,110	53,253	0,060	0,041
-306,095	194,521	0,087	0,094
-305,080	69,898	-0,098	-0,072
-304,066	-157,251	-0,119	0,005
-303,051	269,930	-0,007	0,008
-302,037	24,158	-0,114	-0,067
-301,022	-173,289	-0,046	0,001
-300,008	200,719	0,071	0,078
-298,993	227,766	0,063	0,073
-297,978	-31,395	0,068	0,027
-296,964	75,455	-0,012	0,009
-295,949	800,000	-0,028	0,066
-294,935	-58,839	0,076	-0,023
-293,920	-50,027	0,128	0,043
-292,905	-61,707	0,051	-0,015
-291,891	152,079	0,132	0,129
-290,876	-86,636	0,079	0,017
-289,862	-103,300	0,175	-0,029
-288,847	76,642	-0,071	-0,054
-287,832	-167,636	0,057	0,002
-286,818	-200,000	0,006	-0,051
-285,803	-32,540	0,045	-0,018
-284,789	-88,920	0,247	-0,052
-283,774	92,065	0,109	0,087
-282,759	-200,000	0,006	0,052
-281,745	800,000	0,050	0,111
-280,730	37,451	0,016	0,010
-279,716	257,085	-0,079	-0,097
-278,701	-96,542	0,023	0,004
-277,686	47,087	0,069	-0,046
-276,672	-44,305	-0,120	0,043
-275,657	-157,826	-0,175	-0,007
-274,643	-129,366	-0,030	0,003
-273,628	140,297	0,095	-0,090
-272,613	10,948	0,051	-0,028
-271,599	262,954	-0,012	-0,014
-270,584	84,095	0,117	0,091
-269,570	703,395	0,012	-0,022
-268,555	299,455	-0,073	-0,096
-267,540	-200,000	-0,040	0,177
-266,526	-200,000	0,019	-0,063
-265,511	183,541	-0,012	0,013
-264,497	800,000	0,045	0,104
-263,482	-200,000	0,013	0,052
-262,467	-24,285	-0,014	-0,006
-261,453	456,175	-0,063	0,100
-260,438	800,000	0,036	-0,085
-259,424	-73,136	-0,111	-0,029
-258,409	-200,000	-0,022	-0,114
-257,395	-43,775	0,128	-0,046
-256,380	79,733	0,068	-0,052
-255,365	748,999	0,025	0,048
-254,351	-200,000	-0,005	0,102
-253,336	-200,000	0,015	-0,130
-252,322	-200,000	0,001	-0,030
-251,307	-200,000	0,008	0,026
-250,292	-200,000	0,005	0,087
-249,278	-29,021	0,095	0,038
-248,263	-200,000	-0,019	0,060
-247,249	12,370	0,089	-0,049
-246,234	-83,671	-0,120	0,027
-245,219	-102,411	0,029	0,005
-244,205	800,000	-0,021	0,045
-243,190	-32,226	-0,149	-0,059
-242,176	-11,532	0,096	0,045
-241,161	-200,000	-0,017	-0,079
-240,146	800,000	-0,029	0,089
-239,132	57,376	-0,073	-0,051
-238,117	-55,753	0,113	0,036
-237,103	139,631	-0,088	-0,082
-236,088	-200,000	-0,060	0,208
-235,073	557,559	0,100	0,173
-234,059	-200,000	0,020	0,140
-233,044	524,457	-0,060	-0,101
-232,030	-200,000	-0,011	0,137
-231,015	550,269	-0,009	0,016
-230,000	239,024	-0,078	0,092
-228,986	9,965	0,096	-0,052
-227,971	270,696	-0,043	0,054
-226,957	800,000	-0,105	-0,223
-225,942	109,001	0,054	-0,046
-224,927	-106,664	0,090	0,014
-223,913	12,995	0,026	-0,014
-222,898	-200,000	-0,017	-0,057
-221,884	-33,804	-0,129	0,050
-220,869	5,084	0,038	0,020
-219,855	190,790	0,140	-0,149
-218,840	-200,000	-0,045	0,202
-217,825	114,736	0,068	-0,059
-216,811	800,000	-0,081	0,177
-215,796	-81,287	-0,066	0,015
-214,782	96,888	0,062	-0,051
-213,767	19,011	0,105	0,060
-212,752	706,432	0,040	0,075
-211,738	-164,622	-0,031	-0,001
-210,723	166,948	-0,099	0,100
-209,709	800,000	-0,010	0,032
-208,694	27,723	-0,083	0,050
-207,679	-102,520	-0,050	0,008
-206,665	757,195	0,090	0,173
-205,650	-7,996	0,156	-0,075
-204,636	800,000	0,028	-0,085
-203,621	-200,000	0,002	0,182
-202,606	148,965	-0,153	-0,147
-201,592	-159,708	-0,003	-0,000
-200,577	-200,000	0,019	0,063
-199,563	-57,772	0,121	0,037
-198,548	-85,797	0,032	-0,007
-197,533	670,215	-0,012	-0,021
-196,519	76,327	-0,057	-0,043
-195,504	800,000	0,029	-0,059
-194,490	63,698	0,102	-0,073
-193,475	143,459	-0,088	-0,083
-192,460	-200,000	0,011	0,106
-191,446	-200,000	0,010	0,033
-190,431	98,275	0,087	0,071
-189,417	-200,000	-0,242	-0,000
-188,402	-200,000	0,006	0,047
-187,387	516,359	-0,132	-0,219
-186,373	524,268	-0,070	-0,118
-185,358	-15,797	-0,054	0,025
-184,344	329,897	0,051	-0,070
-183,329	-107,300	-0,232	0,036
-182,315	-200,000	0,025	0,086
-181,300	-200,000	-0,002	0,013
-180,285	696,802	-0,026	-0,048
-179,271	78,059	-0,102	-0,077
-178,256	-7,250	-0,027	-0,013
-177,242	-67,322	0,068	-0,019
-176,227	800,000	0,087	0,172
-175,212	-200,000	-0,011	0,125
-174,198	798,041	0,023	-0,044
-173,183	411,938	0,032	0,049
-172,169	-200,000	0,003	0,060
-171,154	-172,216	0,048	-0,001
-170,139	-200,000	0,003	-0,050
-169,125	800,000	-0,058	0,158
-168,110	455,887	0,037	0,058
-167,096	-67,233	-0,056	-0,016
-166,081	-200,000	-0,005	-0,071
-165,066	6,685	-0,043	-0,023
-164,052	-85,241	-0,070	0,015
-163,037	3,502	0,090	0,046
-162,023	-200,000	-0,003	0,016
-161,008	800,000	-0,031	-0,073
-159,993	-52,818	-0,111	0,036
-158,979	-28,693	-0,114	-0,046
-157,964	-200,000	0,043	-0,233
-156,950	800,000	0,018	-0,040
-155,935	225,204	-0,144	0,165
-154,920	35,403	0,039	0,024
-153,906	800,000	0,028	-0,070
-152,891	-200,000	0,005	0,091
-151,877	-200,000	-0,001	-0,052
-150,862	387,837	-0,078	-0,114
-149,847	-97,862	0,025	0,005
-148,833	556,037	0,047	0,080
-147,818	198,281	0,096	0,104
-146,804	19,184	0,115	-0,065
-145,789	182,875	0,040	0,042
-144,775	-74,789	-0,096	0,024
-143,760	6,869	-0,091	-0,048
-142,745	92,653	-0,073	-0,058
-141,731	800,000	-0,025	-0,054
-140,716	-200,000	0,026	0,150
-139,702	-200,000	-0,019	0,101
-138,687	-25,083	-0,034	-0,014
-137,672	75,176	-0,036	-0,027
-136,658	332,377	-0,092	-0,126
-135,643	545,045	-0,020	-0,034
-134,629	208,570	-0,125	-0,139
-133,614	-3,264	0,058	-0,029
-132,599	-200,000	-0,001	-0,071
-131,585	-200,000	0,034	0,136
-130,570	40,483	0,111	-0,071
-129,556	118,536	-0,115	-0,101
-128,541	14,253	0,020	0,011
-127,526	66,004	-0,134	-0,096
-126,512	-200,000	0,004	0,043
-125,497	294,910	-0,068	0,088
-124,483	-94,545	-0,053	0,010
-123,468	61,547	0,124	0,087
-122,453	125,243	-0,158	-0,141
-121,439	-57,217	0,105	0,032
-120,424	225,006	0,042	-0,048
-119,410	169,179	-0,054	-0,055
-118,395	471,117	-0,039	-0,063
-117,380	243,996	-0,036	0,043
-116,366	23,828	-0,049	-0,028
-115,351	-33,390	0,104	-0,041
-114,337	-200,000	-0,021	-0,090
-113,322	-72,089	-0,018	0,005
-112,307	602,710	0,066	-0,116
-111,293	193,547	0,097	0,104
-110,278	-200,000	0,006	0,046
-109,264	800,000	0,060	0,128
-108,249	-200,000	0,025	-0,101
-107,234	359,035	0,054	0,076
-106,220	-200,000	0,016	-0,146
-105,205	-71,383	-0,017	0,005
-104,191	634,430	-0,069	-0,125
-103,176	-185,812	0,118	-0,001
-102,162	37,056	0,071	0,044
-101,147	-200,000	-0,005	-0,064
-100,132	-200,000	-0,009	-0,070
-99,118	282,133	-0,020	0,025
-98,103	-200,000	0,031	-0,113
-97,089	-200,000	0,024	-0,090
-96,074	734,034	-0,050	0,095
-95,059	-122,166	0,173	-0,020
-94,045	34,874	0,115	0,071
-93,030	-200,000	-0,046	-0,200
-92,016	23,267	-0,138	-0,080
-91,001	51,765	0,009	-0,006
-89,986	19,925	-0,047	0,026
-88,972	-200,000	0,011	0,120
-87,957	96,500	-0,019	0,015
-86,943	514,340	0,046	0,077
-85,928	800,000	-0,037	0,089
-84,913	45,790	0,164	-0,107
-83,899	207,575	0,020	0,022
-82,884	-200,000	0,007	-0,034
-81,870	16,718	-0,117	0,065
-80,855	-105,924	0,086	-0,014
-79,840	350,325	-0,062	0,087
-78,826	43,108	0,018	-0,012
-77,811	-200,000	0,026	-0,113
-76,797	-134,958	0,092	0,008
-75,782	-200,000	0,032	0,185
-74,767	52,248	0,052	0,035
-73,753	-200,000	0,022	0,077
-72,738	-200,000	-0,005	-0,150
-71,724	-200,000	0,009	-0,186
-70,709	800,000	-0,066	-0,205
-69,694	-101,657	-0,095	-0,016
-68,680	279,358	-0,039	0,049
-67,665	-200,000	-0,007	0,091
-66,651	800,000	0,053	0,155
-65,636	-200,000	-0,029	0,112
-64,622	683,418	-0,030	-0,055
-63,607	-67,334	-0,063	-0,017
-62,592	-180,828	-0,099	0,001
-61,578	276,112	0,044	-0,056
-60,563	132,621	0,131	-0,120
-59,549	-200,000	-0,006	-0,047
-58,534	24,766	-2,038	-1,190
-57,519	541,553	-1,297	-2,191
-56,505	-200,000	-0,378	-4,401
-55,490	454,819	0,922	1,448
-54,476	800,000	5,052	11,096
-53,461	-200,000	21,001	337,485
-52,446	800,000	758,766	2348,747
-51,432	556,709	1661,600	2837,771
-50,417	73,572	1661,971	1227,517
-49,403	18,190	1535,470	862,520
-48,388	12,189	1458,721	790,372
-47,373	19,177	1449,687	818,991
-46,359	15,526	1438,986	795,547
-45,344	10,432	1434,968	769,027
-44,330	10,397	1432,978	767,764
-43,315	10,387	1431,041	766,651
-42,300	10,379	1429,304	765,652
-41,286	10,402	1428,122	765,095
-40,271	10,400	1426,799	764,348
-39,257	10,356	1425,781	763,564
-38,242	10,457	1424,468	763,307
-37,227	10,431	1423,624	762,700
-36,213	10,458	1422,119	761,993
-35,198	10,463	1421,012	761,391
-34,184	10,465	1420,299	760,989
-33,169	10,423	1418,752	759,931
-32,154	10,460	1417,846	759,594
-31,140	10,471	1416,335	758,803
-30,125	10,537	1415,258	758,508
-29,111	10,489	1414,347	757,766
-28,096	10,455	1413,174	756,948
-27,082	10,425	1411,751	756,011
-26,067	10,368	1410,968	755,297
-25,052	10,409	1409,837	754,854
-24,038	10,403	1408,958	754,325
-23,023	10,400	1407,904	753,718
-22,009	10,414	1406,702	753,110
-20,994	10,364	1405,857	752,394
-19,979	10,343	1404,912	751,758
-18,965	10,326	1404,075	751,200
-17,950	10,323	1403,058	750,615
-16,936	10,299	1402,459	750,152
-15,921	10,265	1401,573	749,488
-14,906	10,282	1400,496	748,960
-13,892	10,326	1399,229	748,462
-12,877	10,326	1398,631	748,109
-11,863	10,360	1397,737	747,758
-10,848	10,309	1396,765	746,974
-9,833	10,231	1396,147	746,254
-8,819	10,182	1395,323	745,553
-7,804	10,179	1394,484	745,061
-6,790	10,178	1393,327	744,412
-5,775	10,186	1392,197	743,813
-4,760	10,204	1391,315	743,397
-3,746	10,201	1390,314	742,818
-2,731	10,203	1389,358	742,288
-1,717	10,169	1388,690	741,743
-0,702	10,202	1386,787	740,852
0,313	14,182	1299,655	712,532
1,327	30,299	690,247	414,969
2,342	47,065	119,464	78,274
3,356	1,067	16,475	8,310
4,371	-3,345	3,523	1,725
5,386	-19,748	0,896	0,389
6,400	-200,000	0,051	0,548
7,415	-97,961	-0,175	-0,032
8,429	-63,763	-0,404	-0,116
9,444	43,151	-0,261	-0,168
10,459	35,962	-0,401	-0,248
11,473	85,204	-0,263	-0,203
12,488	100,383	-0,194	-0,159
13,502	20,981	-0,403	-0,230
14,517	-39,351	-0,418	-0,154
15,531	3,633	-0,323	-0,165
16,546	-67,021	-0,293	-0,081
17,561	321,233	-0,296	-0,398
18,575	10,364	-0,213	-0,114
19,590	182,924	-0,251	-0,261
20,604	-57,512	-0,287	-0,088
21,619	67,818	-0,426	-0,306
22,634	158,967	-0,419	-0,410
23,648	88,628	-0,446	-0,349
24,663	49,248	-0,321	-0,212
25,677	-21,951	-0,235	-0,100
26,692	197,584	-0,203	-0,219
27,707	60,193	-0,426	-0,296
28,721	393,850	-0,260	-0,382
29,736	23,522	-0,410	-0,237
30,750	90,483	-0,315	-0,248
31,765	16,606	-0,392	-0,218
32,780	51,581	-0,369	-0,246
33,794	293,257	-0,207	-0,266
34,809	113,553	-0,340	-0,291
35,823	115,623	-0,333	-0,286
36,838	135,824	-0,362	-0,332
37,853	16,053	-0,390	-0,215
38,867	162,594	-0,304	-0,300
39,882	22,004	-0,372	-0,213
40,896	54,247	-0,364	-0,246
41,911	227,532	-0,222	-0,255
42,926	-14,756	-0,344	-0,155
43,940	223,856	-0,322	-0,366
44,955	124,136	-0,368	-0,325
45,969	224,070	-0,208	-0,236
46,984	-22,554	-0,420	-0,178
47,999	320,824	-0,285	-0,382
49,013	-1,394	-0,289	-0,143
50,028	169,770	-0,277	-0,278
51,042	183,146	-0,241	-0,251
52,057	90,675	-0,317	-0,249
53,071	68,006	-0,456	-0,327
54,086	-3,917	-0,371	-0,180
55,101	-38,377	-0,260	-0,096
56,115	7,853	-0,282	-0,148
57,130	120,444	-0,336	-0,293
58,144	76,507	-0,308	-0,229
59,159	148,562	-0,299	-0,284
60,174	49,460	-0,367	-0,242
61,188	-21,612	-0,265	-0,113
62,203	-5,493	-0,261	-0,125
63,217	202,588	-0,278	-0,301
64,232	58,875	-0,292	-0,201
65,247	57,419	-0,408	-0,279
66,261	88,672	-0,410	-0,320
67,276	-18,868	-0,335	-0,146
68,290	302,366	-0,261	-0,339
69,305	170,103	-0,204	-0,205
70,320	-16,042	-0,364	-0,162
71,334	-81,887	-0,299	-0,068
72,349	133,607	-0,330	-0,300
73,363	85,666	-0,368	-0,283
74,378	501,267	-0,159	-0,258
75,393	-14,736	-0,341	-0,153
76,407	-54,222	-0,375	-0,119
77,422	104,473	-0,272	-0,224
78,436	53,820	-0,376	-0,253
79,451	147,787	-0,276	-0,261
80,466	-30,288	-0,362	-0,143
81,480	-6,898	-0,347	-0,164
82,495	277,780	-0,279	-0,349
83,509	-86,502	-0,293	-0,063
84,524	9,996	-0,361	-0,191
85,539	2,825	-0,310	-0,157
86,553	-87,562	-0,318	-0,067
87,568	50,321	-0,246	-0,162
88,582	163,674	-0,353	-0,348
89,597	-54,118	-0,388	-0,123
90,611	-40,740	-0,329	-0,119
91,626	68,004	-0,293	-0,210
92,641	112,067	-0,290	-0,245
93,655	-15,858	-0,309	-0,137
94,670	40,321	-0,280	-0,176
95,684	191,628	-0,201	-0,212
96,699	89,681	-0,292	-0,228
97,714	25,887	-0,317	-0,185
98,728	21,279	-0,263	-0,149
99,743	-28,103	-0,303	-0,122
100,757	-123,065	-0,309	-0,034
101,772	11,153	-0,342	-0,182
102,787	-123,162	-0,269	0,030
103,801	187,494	-0,255	-0,267
104,816	98,794	-0,269	-0,217
105,830	416,106	-0,229	-0,342
106,845	-37,363	-0,349	-0,129
107,860	-32,899	-0,325	-0,126
108,874	8,100	-0,288	-0,151
109,889	342,566	-0,232	-0,318
110,903	104,259	-0,332	-0,273
111,918	168,276	-0,231	-0,230
112,933	-82,126	-0,436	-0,098
113,947	-104,058	-0,241	0,039
114,962	233,557	-0,144	-0,166
115,976	-0,202	-0,269	-0,133
116,991	2,901	-0,329	-0,166
118,006	800,000	-0,064	-0,174
119,020	170,078	-0,134	-0,134
120,035	-0,179	-0,197	-0,098
121,049	253,281	-0,234	-0,280
122,064	-44,025	-0,321	-0,112
123,079	111,207	-0,207	-0,174
124,093	-117,501	-0,215	-0,027
125,108	-68,066	-0,305	-0,082
126,122	122,954	-0,244	-0,213
127,137	198,555	-0,180	-0,193
128,151	591,439	-0,172	-0,297
129,166	-115,423	-0,200	-0,026
130,181	123,464	-0,299	-0,262
131,195	118,313	-0,206	-0,178
132,210	114,307	-0,210	-0,179
133,224	444,916	-0,174	-0,268
134,239	35,484	-0,301	-0,184
135,254	125,455	-0,163	-0,144
136,268	87,988	-0,228	-0,176
137,283	-5,230	-0,370	-0,177
138,297	86,336	-0,351	-0,270
139,312	18,106	-0,303	-0,168
140,327	30,766	-0,334	-0,199
141,341	289,624	-0,184	-0,234
142,356	104,172	-0,166	-0,136
143,370	80,785	-0,214	-0,161
144,385	356,399	-0,172	-0,239
145,400	431,809	-0,196	-0,297
146,414	-34,780	-0,271	-0,103
147,429	-104,228	-0,323	-0,052
148,443	130,244	-0,286	-0,255
149,458	158,774	-0,107	-0,103
150,473	-26,457	-0,141	-0,057
151,487	18,760	-0,225	-0,125
152,502	306,147	-0,176	-0,228
153,516	356,800	-0,189	-0,264
154,531	-56,144	-0,248	-0,076
155,546	-42,248	-0,303	-0,107
156,560	50,873	-0,208	-0,137
157,575	205,084	-0,262	-0,283
158,589	75,568	-0,333	-0,245
159,604	26,465	-0,219	-0,127
160,619	-6,196	-0,243	-0,115
161,633	103,553	-0,253	-0,206
162,648	157,728	-0,252	-0,243
163,662	515,273	-0,148	-0,242
164,677	800,000	-0,067	-0,160
165,692	74,457	-0,123	-0,090
166,706	175,202	-0,159	-0,160
167,721	3,759	-0,250	-0,126
168,735	281,365	-0,203	-0,253
169,750	205,592	-0,168	-0,182
170,764	156,746	-0,130	-0,125
171,779	-117,553	-0,364	-0,045
172,794	-150,773	-0,306	-0,016
173,808	-43,881	-0,277	-0,096
174,823	130,857	-0,232	-0,207
175,837	133,426	-0,228	-0,205
176,852	53,590	-0,267	-0,177
177,867	25,205	-0,301	-0,173
178,881	-95,519	-0,308	-0,057
179,896	156,765	-0,164	-0,158
180,910	259,028	-0,247	-0,296
181,925	127,572	-0,225	-0,198
182,940	208,288	-0,207	-0,225
183,954	253,154	-0,216	-0,256
184,969	401,332	-0,042	-0,062
185,983	153,149	-0,191	-0,182
186,998	100,167	-0,156	-0,125
188,013	65,478	-0,273	-0,191
189,027	381,257	-0,189	-0,270
190,042	-33,749	-0,239	-0,091
191,056	34,110	-0,062	-0,037
192,071	328,548	-0,180	-0,240
193,086	800,000	-0,082	-0,157
194,100	223,469	-0,177	-0,198
195,115	200,146	-0,257	-0,274
196,129	333,640	-0,263	-0,353
197,144	72,844	-0,201	-0,146
198,159	-78,674	-0,308	-0,072
199,173	-144,398	-0,292	-0,018
200,188	187,700	-0,106	-0,109
201,202	-73,992	-0,103	-0,026
202,217	-99,648	-0,140	-0,024
203,232	800,000	-0,056	-0,109
204,246	21,745	-0,322	-0,181
205,261	39,940	-0,119	-0,074
206,275	800,000	-0,074	-0,172
207,290	800,000	-0,089	-0,229
208,304	367,822	-0,180	-0,253
209,319	110,385	-0,204	-0,170
210,334	423,762	-0,189	-0,283
211,348	179,639	-0,207	-0,210
212,363	265,690	-0,155	-0,188
213,377	800,000	-0,144	-0,289
214,392	20,889	-0,151	-0,084
215,407	-38,653	-0,192	-0,070
216,421	-53,353	-0,125	-0,039
217,436	20,817	-0,315	-0,176
218,450	138,051	-0,172	-0,156
219,465	163,648	-0,273	-0,266
220,480	274,102	-0,260	-0,320
221,494	195,907	-0,106	-0,112
222,509	299,523	-0,205	-0,262
223,523	468,845	-0,136	-0,212
224,538	-3,498	-0,176	-0,084
225,553	105,527	-0,273	-0,223
226,567	-40,114	-0,249	-0,089
227,582	154,198	-0,321	-0,305
228,596	196,853	-0,140	-0,148
229,611	289,724	-0,150	-0,188
230,626	-68,737	-0,199	-0,053
231,640	149,832	-0,205	-0,192
232,655	179,479	-0,221	-0,224
233,669	404,156	-0,137	-0,200
234,684	182,015	-0,228	-0,233
235,699	-9,400	-0,146	-0,067
236,713	250,451	-0,083	-0,098
237,728	-60,710	-0,148	-0,043
238,742	56,404	-0,119	-0,080
239,757	312,330	-0,127	-0,165
240,772	-29,596	-0,214	-0,084
241,786	-32,472	-0,334	-0,128
242,801	-66,045	-0,250	-0,069
243,815	350,567	-0,192	-0,263
244,830	-200,000	-0,028	-0,167
245,844	-35,148	-0,239	-0,089
246,859	28,160	-0,138	-0,080
247,874	468,416	-0,162	-0,252
248,888	217,570	-0,110	-0,121
249,903	160,400	-0,163	-0,157
250,917	118,955	-0,174	-0,148
251,932	-200,000	-0,078	-0,305
252,947	304,061	-0,109	-0,140
253,961	-26,649	-0,269	-0,108
254,976	67,861	-0,210	-0,148
255,990	38,898	-0,279	-0,172
257,005	-34,865	-0,091	-0,034
258,020	799,088	-0,041	-0,078
259,034	-42,924	-0,118	0,041
260,049	105,356	-0,224	-0,182
261,063	170,547	-0,136	-0,134
262,078	67,904	-0,242	-0,170
263,093	201,651	-0,219	-0,233
264,107	317,511	-0,116	-0,151
265,122	-89,764	-0,162	-0,032
266,136	291,900	-0,134	-0,168
267,151	800,000	-0,066	-0,153
268,166	-35,700	-0,279	-0,104
269,180	-111,923	-0,156	0,021
270,195	195,160	-0,167	-0,175
271,209	180,230	-0,093	-0,094
272,224	-58,614	-0,255	-0,076
273,239	-125,452	-0,182	-0,019
274,253	112,553	-0,111	-0,093
275,268	-200,000	-0,054	-0,171
276,282	-26,908	-0,204	-0,082
277,297	86,731	-0,269	-0,204
278,312	443,422	-0,118	-0,179
279,326	51,901	-0,177	-0,116
280,341	146,364	-0,109	-0,100
281,355	107,099	-0,167	-0,136
282,370	69,930	-0,170	-0,121
283,384	35,858	-0,180	-0,109
284,399	333,383	-0,202	-0,270
285,414	73,035	-0,225	-0,161
286,428	27,614	-0,268	-0,155
287,443	-107,736	-0,079	-0,012
288,457	-16,133	-0,097	-0,042
289,472	-0,713	-0,127	-0,062
290,487	183,704	-0,151	-0,154
291,501	-78,707	-0,099	0,023
292,516	26,520	-0,135	-0,078
293,530	344,539	-0,001	0,002
294,545	-200,000	0,003	0,021
295,560	-200,000	-0,040	-0,197
296,574	32,195	-0,133	-0,079
297,589	-77,987	-0,231	-0,054
298,603	35,210	-0,194	-0,117
299,618	-178,137	-0,156	-0,002
300,633	-79,232	-0,142	-0,033
301,647	157,008	-0,058	-0,055
302,662	800,000	-0,087	-0,165
303,676	-200,000	0,021	-0,073
304,691	234,296	-0,155	-0,176
305,706	-109,091	-0,230	-0,033
306,720	90,822	-0,173	-0,133
307,735	-200,000	0,006	-0,132
308,749	50,586	-0,102	-0,066
309,764	-51,225	-0,076	-0,024
310,779	-5,928	-0,113	-0,053
311,793	-96,764	-0,246	-0,044
312,808	-63,878	-0,191	0,053
313,822	-36,699	-0,243	-0,089
314,837	78,055	-0,085	-0,062
315,852	256,106	-0,111	-0,131
316,866	-35,165	-0,146	-0,054
317,881	101,930	-0,072	-0,058
318,895	123,967	-0,235	-0,202
319,910	-1,833	-0,197	-0,095
320,925	106,813	-0,081	-0,066
321,939	159,986	-0,174	-0,166
322,954	178,406	-0,175	-0,175
323,968	-46,490	-0,098	-0,033
324,983	800,000	-0,063	-0,171
325,997	-45,235	-0,132	-0,045
327,012	672,170	-0,108	-0,193
328,027	72,649	-0,120	-0,086
329,041	64,490	-0,163	-0,112
330,056	-200,000	-0,005	-0,053
331,070	-63,550	-0,223	-0,062
332,085	-200,000	-0,019	-0,069
333,100	-200,000	-0,061	-0,209
334,114	115,872	-0,282	-0,237
335,129	14,880	-0,192	-0,103
336,143	-77,175	-0,153	-0,036
337,158	236,831	-0,096	-0,109
338,173	-35,471	-0,192	-0,071
339,187	1,020	-0,200	0,098
340,202	181,086	-0,168	-0,170
341,216	-15,459	-0,288	-0,126
342,231	100,575	-0,213	-0,169
343,246	40,390	-0,109	-0,067
344,260	800,000	-0,032	-0,089
345,275	592,956	-0,098	-0,166
346,289	-200,000	0,007	-0,098
347,304	411,357	-0,135	-0,197
348,319	278,061	-0,199	-0,244
349,333	74,473	-0,188	-0,135
350,348	79,152	-0,122	-0,089
351,362	-200,000	-0,029	-0,170
352,377	9,380	-0,056	-0,029
353,392	-200,000	-0,046	-0,218
354,406	278,420	-0,151	-0,184
355,421	206,932	1310,694	1399,085
356,435	159,165	1470,904	1399,562
