DTS Sentinel unit serial number:	SN410029Multiplexer serial number:	ORYXHardware model number:	OX2-SRSoftware version number:	ORYX F/W v4,00 Oryx Data Collector v3.7.2.0data status	okinstallation	B3 Nyhavnadifferential loss correction	single-endedforward channel	channel 1reverse channel	N/Adate	2023/12/03time	17:52:30forward acquisition time	300,00reverse acquisition time	0,00gamma	499,1914k internal	0,3198k external	0,3198temperature offset calibration	1,0000default loss term (dB/km)	0,3820temperature slope calibration	1,0000multiplexer offset coefficient	1,0000multiplexer slope coefficient	1,0000fibre end	0,00T internal ref (°C)	14,77T ext. ref 1 (°C)	-0,59T ext. ref 2 (°C)	-0,61length (m)	temperature (°C)	Stokes	anti-Stokes-744,400	-1,861	-0,348	-0,178
-743,385	-200,000	0,112	0,363
-742,371	279,127	-0,177	-0,230
-741,356	-200,000	-0,067	0,470
-740,342	429,405	-0,288	-0,456
-739,327	-200,000	0,001	0,224
-738,312	43,881	-0,286	-0,190
-737,298	800,000	0,072	0,211
-736,283	533,580	-0,160	-0,277
-735,269	-200,000	-0,088	0,356
-734,254	456,467	-0,183	-0,297
-733,239	150,633	-0,176	0,174
-732,225	207,904	-0,169	-0,192
-731,210	573,871	0,104	0,186
-730,196	-8,982	-0,088	-0,043
-729,181	115,200	-0,006	0,006
-728,167	-80,966	0,130	-0,031
-727,152	-160,643	0,108	0,004
-726,137	-105,947	-0,064	-0,010
-725,123	-91,194	-0,156	-0,032
-724,108	-200,000	-0,013	-0,091
-723,094	-70,956	-0,099	-0,027
-722,079	37,340	-0,163	-0,105
-721,064	-126,194	0,115	-0,012
-720,050	194,628	0,066	0,073
-719,035	764,562	0,031	0,061
-718,021	-200,000	-0,041	-0,136
-717,006	90,136	-0,186	-0,151
-715,991	354,805	-0,061	0,088
-714,977	-112,868	-0,026	-0,004
-713,962	110,654	-0,064	0,056
-712,948	-142,130	-0,027	0,002
-711,933	-113,013	0,134	0,019
-710,918	284,953	-0,060	0,079
-709,904	-200,000	-0,007	-0,128
-708,889	-200,000	-0,025	-0,222
-707,875	800,000	-0,013	-0,039
-706,860	-200,000	0,004	0,028
-705,845	-200,000	-0,030	-0,099
-704,831	291,983	0,011	-0,015
-703,816	165,085	-0,009	0,009
-702,802	-200,000	-0,028	-0,097
-701,787	125,309	0,079	-0,073
-700,772	-200,000	-0,041	0,160
-699,758	-200,000	0,011	0,106
-698,743	398,197	0,065	-0,099
-697,729	10,501	0,100	-0,055
-696,714	-39,438	-0,080	-0,030
-695,699	30,557	0,023	-0,014
-694,685	271,198	-0,038	-0,049
-693,670	175,011	-0,096	-0,101
-692,656	-109,657	-0,059	-0,009
-691,641	-48,857	0,118	-0,041
-690,627	-200,000	-0,012	0,093
-689,612	455,757	0,077	0,125
-688,597	-200,000	0,010	-0,093
-687,583	430,249	-0,077	0,122
-686,568	800,000	0,041	-0,117
-685,554	765,453	-0,009	0,018
-684,539	-73,499	0,107	0,028
-683,524	-148,501	0,124	-0,007
-682,510	521,406	-0,080	-0,138
-681,495	13,090	0,112	-0,063
-680,481	126,080	0,097	0,089
-679,466	201,744	-0,121	-0,136
-678,451	-89,557	-0,084	-0,018
-677,437	-23,856	0,059	0,025
-676,422	-25,709	0,076	-0,032
-675,408	7,632	-0,048	0,026
-674,393	81,503	-0,054	-0,043
-673,378	800,000	-0,031	0,071
-672,364	-115,244	-0,178	-0,024
-671,349	-23,428	-0,104	-0,045
-670,335	77,698	0,123	0,095
-669,320	686,493	-0,066	-0,126
-668,305	-82,845	-0,053	-0,012
-667,291	34,307	-0,083	0,053
-666,276	-104,429	-0,029	-0,005
-665,262	-103,968	-0,101	-0,017
-664,247	-57,875	-0,062	-0,019
-663,232	6,642	0,021	-0,011
-662,218	-131,501	0,055	-0,005
-661,203	-200,000	-0,011	0,115
-660,189	414,204	-0,102	-0,159
-659,174	800,000	0,021	0,055
-658,159	-45,158	0,051	0,018
-657,145	60,424	-0,059	-0,043
-656,130	193,855	0,033	-0,036
-655,116	-200,000	0,029	0,132
-654,101	-9,392	0,041	-0,020
-653,086	800,000	-0,043	-0,091
-652,072	319,912	-0,110	-0,152
-651,057	-200,000	0,005	-0,116
-650,043	-200,000	-0,007	-0,053
-649,028	-200,000	0,018	0,104
-648,014	189,536	0,042	-0,046
-646,999	-200,000	0,016	-0,065
-645,984	-187,403	0,036	-0,000
-644,970	-200,000	0,000	-0,077
-643,955	-133,232	-0,122	-0,011
-642,941	54,286	-0,105	-0,073
-641,926	25,544	-0,048	0,029
-640,911	-200,000	-0,007	0,045
-639,897	-76,062	0,025	0,006
-638,882	696,101	-0,023	0,044
-637,868	153,571	0,025	-0,025
-636,853	-105,753	-0,068	-0,011
-635,838	124,381	-0,158	0,144
-634,824	2,603	0,107	0,056
-633,809	-8,422	-0,025	0,012
-632,795	756,070	-0,078	0,154
-631,780	-200,000	-0,002	-0,056
-630,765	13,706	-0,121	-0,068
-629,751	18,342	-0,077	-0,045
-628,736	-117,024	0,142	-0,019
-627,722	-200,000	-0,039	0,127
-626,707	800,000	-0,052	-0,161
-625,692	95,359	-0,101	0,084
-624,678	628,994	-0,086	0,159
-623,663	575,268	-0,009	-0,016
-622,649	-45,102	-0,065	0,023
-621,634	153,752	-0,054	-0,054
-620,619	-200,000	-0,009	-0,055
-619,605	6,767	0,081	-0,044
-618,590	800,000	-0,002	0,006
-617,576	-200,000	-0,001	-0,050
-616,561	-200,000	-0,005	0,032
-615,546	-107,089	-0,054	0,009
-614,532	-60,426	-0,068	-0,021
-613,517	7,865	-0,101	0,055
-612,503	218,588	0,052	0,060
-611,488	745,728	0,025	0,048
-610,474	746,982	0,010	-0,019
-609,459	-200,000	0,050	-0,161
-608,444	170,224	-0,042	0,043
-607,430	-200,000	0,017	0,082
-606,415	322,207	-0,045	-0,062
-605,401	483,997	0,042	-0,070
-604,386	-200,000	0,007	0,111
-603,371	-52,567	-0,080	0,027
-602,357	800,000	0,036	-0,082
-601,342	703,723	0,033	-0,063
-600,328	800,000	0,029	-0,076
-599,313	-174,556	0,160	0,003
-598,298	143,143	-0,094	-0,090
-597,284	-200,000	0,012	0,076
-596,269	-200,000	0,022	0,097
-595,255	-95,076	0,034	-0,007
-594,240	175,548	-0,054	0,057
-593,225	-56,122	-0,121	0,039
-592,211	800,000	-0,052	-0,132
-591,196	187,469	-0,033	0,035
-590,182	82,979	0,069	0,054
-589,167	418,236	-0,032	0,049
-588,152	-200,000	0,007	-0,043
-587,138	-200,000	-0,000	-0,043
-586,123	-200,000	-0,016	-0,113
-585,109	-200,000	0,001	-0,081
-584,094	-20,212	-0,078	0,034
-583,079	285,063	0,058	-0,076
-582,065	41,089	0,144	0,094
-581,050	244,549	0,106	-0,130
-580,036	33,758	-0,104	-0,066
-579,021	-200,000	-0,004	-0,070
-578,006	167,604	-0,031	-0,032
-576,992	800,000	0,040	-0,106
-575,977	-103,498	-0,055	0,009
-574,963	108,670	0,148	0,128
-573,948	43,950	0,052	0,034
-572,934	410,362	0,030	-0,047
-571,919	-146,010	-0,141	-0,009
-570,904	283,442	0,010	0,013
-569,890	42,668	0,066	-0,044
-568,875	158,422	-0,020	-0,020
-567,861	-3,312	-0,092	0,046
-566,846	-65,296	0,095	-0,027
-565,831	800,000	0,024	-0,055
-564,817	67,899	0,076	-0,056
-563,802	-200,000	-0,002	0,147
-562,788	-40,796	-0,031	-0,012
-561,773	800,000	-0,033	-0,090
-560,758	41,878	0,151	-0,099
-559,744	-19,661	0,093	-0,041
-558,729	-200,000	0,013	0,109
-557,715	40,163	-0,072	0,047
-556,700	359,244	0,053	0,077
-555,685	662,447	-0,025	0,046
-554,671	-200,000	-0,007	-0,047
-553,656	305,827	0,052	0,070
-552,642	800,000	-0,024	-0,053
-551,627	-123,477	-0,079	-0,009
-550,612	-142,406	0,134	0,009
-549,598	374,102	0,017	-0,025
-548,583	101,535	-0,122	0,102
-547,569	-134,928	-0,020	-0,002
-546,554	-165,273	0,090	-0,003
-545,539	229,511	0,038	-0,045
-544,525	800,000	-0,023	-0,073
-543,510	38,229	0,056	0,036
-542,496	-200,000	0,047	-0,157
-541,481	124,811	-0,092	0,083
-540,466	800,000	0,012	0,034
-539,452	-58,163	0,076	0,024
-538,437	-200,000	0,005	0,119
-537,423	35,110	0,103	0,065
-536,408	-105,055	0,034	-0,006
-535,393	38,974	0,104	0,067
-534,379	-98,542	-0,069	-0,013
-533,364	-74,103	-0,209	-0,054
-532,350	65,707	0,067	0,049
-531,335	120,601	-0,111	0,100
-530,321	-101,212	0,057	0,010
-529,306	800,000	0,024	-0,049
-528,291	-136,865	-0,109	0,009
-527,277	800,000	-0,080	-0,191
-526,262	188,948	-0,037	-0,040
-525,248	-200,000	0,006	-0,103
-524,233	449,069	0,057	0,091
-523,218	-200,000	-0,018	0,073
-522,204	-200,000	0,008	0,071
-521,189	-47,832	-0,061	0,021
-520,175	-200,000	-0,030	-0,102
-519,160	-17,464	-0,040	-0,018
-518,145	135,783	0,057	-0,053
-517,131	-200,000	-0,003	-0,067
-516,116	135,259	0,048	-0,045
-515,102	399,653	-0,025	-0,038
-514,087	-106,014	-0,126	-0,020
-513,072	528,205	-0,062	0,107
-512,058	491,175	0,073	0,121
-511,043	207,776	0,020	-0,023
-510,029	-42,025	-0,039	-0,014
-509,014	-200,000	0,022	0,126
-507,999	-54,537	0,082	0,027
-506,985	379,999	0,025	-0,037
-505,970	76,532	0,108	-0,083
-504,956	167,068	-0,072	0,073
-503,941	101,209	0,037	0,031
-502,926	84,621	0,049	0,038
-501,912	199,856	0,036	-0,040
-500,897	-200,000	0,047	-0,185
-499,883	393,748	-0,027	-0,041
-498,868	-200,000	0,030	-0,129
-497,853	53,788	-0,117	-0,081
-496,839	-67,869	0,120	-0,034
-495,824	-58,838	-0,105	-0,032
-494,810	464,721	0,043	0,069
-493,795	53,458	0,098	-0,067
-492,781	-137,140	-0,185	0,015
-491,766	-76,818	-0,085	0,021
-490,751	-200,000	0,054	-0,180
-489,737	-111,705	0,089	0,013
-488,722	53,057	-0,090	-0,062
-487,708	-92,805	-0,187	-0,037
-486,693	-96,160	-0,091	-0,017
-485,678	421,884	0,057	-0,089
-484,664	-61,050	-0,064	-0,019
-483,649	134,880	-0,038	-0,035
-482,635	-95,586	0,095	-0,018
-481,620	-106,852	-0,169	-0,027
-480,605	37,723	0,107	0,068
-479,591	138,588	-0,077	0,073
-478,576	579,910	0,073	0,130
-477,562	-146,611	0,083	-0,005
-476,547	128,430	0,104	0,095
-475,532	-123,938	-0,070	-0,008
-474,518	800,000	-0,051	0,154
-473,503	-200,000	0,025	0,124
-472,489	76,826	0,112	0,085
-471,474	800,000	-0,014	0,029
-470,459	-39,924	0,132	-0,049
-469,445	800,000	0,046	-0,095
-468,430	-200,000	-0,013	-0,079
-467,416	800,000	-0,047	-0,124
-466,401	614,544	0,043	-0,078
-465,386	4,702	-0,071	-0,037
-464,372	628,978	-0,099	0,181
-463,357	800,000	-0,014	0,030
-462,343	241,877	-0,100	-0,121
-461,328	-78,410	-0,015	0,004
-460,313	800,000	0,031	-0,086
-459,299	-100,817	-0,064	-0,011
-458,284	218,016	0,078	0,090
-457,270	-200,000	-0,015	0,129
-456,255	-7,237	-0,081	0,040
-455,241	-200,000	0,010	-0,099
-454,226	-200,000	0,008	-0,040
-453,211	-88,239	-0,047	0,010
-452,197	800,000	-0,061	0,140
-451,182	277,618	-0,036	-0,046
-450,168	167,789	-0,037	-0,038
-449,153	-103,340	0,055	-0,009
-448,138	52,727	-0,024	-0,017
-447,124	61,675	-0,013	-0,009
-446,109	165,604	0,122	0,124
-445,095	-200,000	-0,015	0,121
-444,080	120,806	0,060	0,053
-443,065	-200,000	0,002	0,141
-442,051	39,520	0,076	0,049
-441,036	800,000	-0,079	-0,228
-440,022	-152,120	-0,124	0,006
-439,007	-68,961	-0,114	0,032
-437,992	191,727	0,064	0,070
-436,978	41,843	0,153	0,100
-435,963	-89,352	-0,115	-0,024
-434,949	-143,261	0,039	0,003
-433,934	-51,873	0,128	0,043
-432,919	-200,000	0,000	-0,050
-431,905	800,000	0,071	-0,172
-430,890	464,002	0,049	-0,080
-429,876	-34,762	-0,035	0,014
-428,861	242,780	0,046	0,056
-427,846	-44,113	-0,091	0,033
-426,832	-111,226	-0,144	-0,021
-425,817	200,441	0,107	-0,119
-424,803	800,000	-0,043	0,112
-423,788	-200,000	0,011	0,045
-422,773	49,548	0,072	-0,049
-421,759	288,661	-0,059	0,077
-420,744	-68,949	-0,113	-0,031
-419,730	130,371	0,035	0,032
-418,715	800,000	0,023	-0,070
-417,701	-200,000	0,032	-0,149
-416,686	152,578	0,084	0,082
-415,671	-43,528	0,103	0,037
-414,657	-200,000	0,001	0,059
-413,642	-200,000	-0,002	0,068
-412,628	85,841	-0,094	0,074
-411,613	80,753	-0,020	-0,015
-410,598	166,758	-0,031	-0,032
-409,584	-200,000	-0,004	-0,028
-408,569	-200,000	-0,004	0,137
-407,555	26,654	0,037	-0,022
-406,540	-71,310	0,069	-0,019
-405,525	-200,000	0,037	-0,125
-404,511	-60,598	-0,052	-0,016
-403,496	800,000	0,040	-0,100
-402,482	-93,007	0,116	-0,023
-401,467	-200,000	-0,006	0,176
-400,452	800,000	-0,009	0,023
-399,438	-200,000	-0,008	0,028
-398,423	99,421	0,063	-0,053
-397,409	-135,202	0,067	0,006
-396,394	221,161	-0,086	-0,100
-395,379	800,000	-0,037	0,102
-394,365	-200,000	0,024	-0,090
-393,350	276,542	-0,052	0,067
-392,336	722,375	-0,012	-0,022
-391,321	800,000	0,062	0,160
-390,306	-179,539	-0,063	0,001
-389,292	800,000	0,040	-0,115
-388,277	-59,957	-0,057	0,017
-387,263	104,147	0,061	0,052
-386,248	-200,000	-0,017	0,134
-385,233	7,795	0,144	-0,077
-384,219	-71,244	0,130	0,035
-383,204	442,622	-0,022	-0,035
-382,190	12,621	0,035	0,019
-381,175	-167,402	0,057	0,002
-380,160	-159,268	0,046	0,002
-379,146	-29,897	0,075	0,031
-378,131	-89,429	-0,123	0,026
-377,117	51,073	-0,106	-0,072
-376,102	-200,000	-0,024	-0,091
-375,088	-200,000	0,012	-0,071
-374,073	77,537	-0,063	-0,048
-373,058	-200,000	-0,032	-0,141
-372,044	-200,000	0,023	0,079
-371,029	800,000	-0,016	-0,035
-370,015	-104,032	0,136	-0,022
-369,000	414,550	-0,026	-0,040
-367,985	-200,000	-0,007	-0,046
-366,971	785,474	-0,039	0,076
-365,956	800,000	-0,016	0,039
-364,942	-79,456	0,119	0,029
-363,927	278,476	0,019	-0,024
-362,912	-200,000	0,029	-0,167
-361,898	-200,000	0,014	0,093
-360,883	48,221	0,028	-0,019
-359,869	682,157	-0,069	0,129
-358,854	-200,000	-0,007	0,097
-357,839	20,057	0,072	0,042
-356,825	-200,000	-0,009	0,077
-355,810	-200,000	0,003	0,011
-354,796	-33,903	-0,093	0,036
-353,781	-90,654	-0,089	0,018
-352,766	245,839	-0,088	-0,107
-351,752	267,258	0,034	-0,043
-350,737	12,855	0,089	-0,049
-349,723	117,979	0,163	0,144
-348,708	-124,922	-0,093	-0,010
-347,693	25,156	-0,105	-0,062
-346,679	46,302	-0,067	-0,045
-345,664	-200,000	-0,006	0,024
-344,650	159,665	-0,129	-0,129
-343,635	-177,151	0,180	-0,003
-342,620	361,659	0,021	0,030
-341,606	359,242	-0,071	0,102
-340,591	610,013	0,015	0,026
-339,577	107,469	-0,065	0,055
-338,562	275,485	-0,083	-0,106
-337,548	50,246	-0,110	0,075
-336,533	734,931	0,040	0,077
-335,518	-200,000	-0,012	-0,051
-334,504	629,892	0,044	-0,080
-333,489	-200,000	-0,025	-0,129
-332,475	-97,268	-0,091	-0,017
-331,460	279,580	-0,078	-0,100
-330,445	-23,395	-0,103	0,044
-329,431	-129,179	0,015	0,001
-328,416	-154,282	0,152	-0,007
-327,402	-200,000	0,006	-0,108
-326,387	800,000	0,045	-0,110
-325,372	-60,918	-0,149	0,045
-324,358	-29,977	0,152	0,062
-323,343	-186,362	-0,055	-0,001
-322,329	-200,000	0,021	0,072
-321,314	134,348	0,112	0,104
-320,299	95,424	-0,033	0,027
-319,285	774,128	0,073	0,144
-318,270	-200,000	0,009	0,066
-317,256	205,636	0,117	-0,130
-316,241	-104,370	0,024	-0,004
-315,226	588,079	0,014	-0,024
-314,212	-200,000	0,004	-0,058
-313,197	-200,000	-0,018	-0,072
-312,183	378,309	-0,071	0,104
-311,168	190,987	0,064	-0,069
-310,153	800,000	-0,045	0,111
-309,139	250,187	-0,018	-0,022
-308,124	-72,037	0,055	-0,015
-307,110	83,171	0,031	0,024
-306,095	-200,000	0,014	-0,076
-305,080	28,937	0,057	-0,034
-304,066	84,806	-0,067	-0,053
-303,051	202,989	0,065	-0,072
-302,037	-100,833	-0,033	0,006
-301,022	415,248	-0,042	-0,064
-300,008	-50,593	0,069	0,023
-298,993	41,712	0,076	0,049
-297,978	56,636	0,045	-0,031
-296,964	-183,743	-0,119	-0,001
-295,949	111,057	0,041	-0,036
-294,935	751,834	-0,096	-0,186
-293,920	31,064	0,065	-0,040
-292,905	-132,685	0,089	0,008
-291,891	-200,000	0,002	0,162
-290,876	365,492	-0,087	0,126
-289,862	-138,138	0,054	-0,004
-288,847	160,712	0,062	-0,062
-287,832	-48,734	-0,126	-0,043
-286,818	-139,211	0,020	0,001
-285,803	197,516	0,061	0,067
-284,789	-200,000	-0,004	0,174
-283,774	-200,000	0,053	0,194
-282,759	-87,396	0,055	-0,012
-281,745	-125,734	-0,069	0,007
-280,730	43,791	0,102	0,066
-279,716	31,564	0,037	0,023
-278,701	22,840	-0,141	0,082
-277,686	91,721	0,080	0,065
-276,672	-200,000	-0,002	-0,050
-275,657	104,613	0,101	0,085
-274,643	367,272	-0,054	-0,079
-273,628	-200,000	0,001	0,106
-272,613	90,810	0,076	0,061
-271,599	-27,522	0,099	0,041
-270,584	87,654	0,041	0,032
-269,570	800,000	0,070	0,160
-268,555	-22,164	-0,053	0,023
-267,540	-43,175	0,081	-0,029
-266,526	-200,000	0,005	-0,073
-265,511	-23,425	-0,192	0,082
-264,497	649,855	0,019	0,036
-263,482	-59,299	0,114	0,035
-262,467	800,000	0,045	0,095
-261,453	257,736	-0,088	-0,108
-260,438	203,091	-0,033	0,037
-259,424	-56,063	-0,088	0,028
-258,409	-200,000	0,017	-0,150
-257,395	65,751	-0,101	0,073
-256,380	389,592	0,083	-0,124
-255,365	-200,000	0,001	0,040
-254,351	800,000	-0,049	0,108
-253,336	601,582	-0,048	-0,086
-252,322	172,346	-0,083	-0,086
-251,307	377,135	-0,072	-0,105
-250,292	-115,688	0,132	-0,018
-249,278	-86,508	0,089	0,019
-248,263	-200,000	0,009	0,155
-247,249	800,000	0,045	0,125
-246,234	-200,000	0,031	0,100
-245,219	-200,000	0,009	-0,107
-244,205	42,091	-0,070	0,045
-243,190	-200,000	-0,001	-0,061
-242,176	763,302	0,043	-0,084
-241,161	415,899	0,046	0,070
-240,146	146,229	0,062	0,059
-239,132	-200,000	0,007	-0,032
-238,117	-60,505	0,102	0,031
-237,103	-6,749	-0,069	-0,033
-236,088	511,616	-0,019	0,031
-235,073	-200,000	0,014	0,075
-234,059	-65,718	-0,043	-0,012
-233,044	-158,997	0,087	0,003
-232,030	800,000	-0,011	-0,027
-231,015	-60,959	-0,005	0,002
-230,000	800,000	-0,039	-0,094
-228,986	100,038	0,152	-0,125
-227,971	9,805	-0,018	0,010
-226,957	-67,707	0,088	-0,024
-225,942	-200,000	0,009	0,043
-224,927	-200,000	-0,046	-0,198
-223,913	-200,000	-0,011	0,037
-222,898	37,665	-0,049	-0,031
-221,884	-200,000	0,018	-0,099
-220,869	179,320	0,115	-0,120
-219,855	337,491	-0,067	-0,094
-218,840	-92,285	0,190	0,038
-217,825	-28,462	0,114	-0,047
-216,811	287,282	0,004	-0,005
-215,796	113,968	0,106	-0,092
-214,782	-200,000	-0,020	-0,130
-213,767	65,851	0,122	-0,088
-212,752	-124,938	-0,108	0,012
-211,738	-150,884	0,088	-0,005
-210,723	768,841	0,025	-0,048
-209,709	-108,092	-0,142	0,022
-208,694	48,599	-0,147	0,098
-207,679	-90,378	0,094	0,019
-206,665	-163,278	0,068	0,002
-205,650	-200,000	0,016	0,057
-204,636	-200,000	-0,000	0,001
-203,621	243,938	-0,138	0,165
-202,606	-153,406	-0,064	0,003
-201,592	55,783	-0,085	0,059
-200,577	-45,142	-0,137	-0,048
-199,563	-12,126	-0,010	0,005
-198,548	4,455	0,161	0,084
-197,533	-200,000	0,017	0,073
-196,519	800,000	0,059	0,124
-195,504	-56,109	-0,144	0,045
-194,490	263,144	-0,051	-0,063
-193,475	-200,000	-0,005	-0,144
-192,460	359,282	-0,073	-0,104
-191,446	211,816	0,075	0,085
-190,431	86,252	0,099	0,077
-189,417	-200,000	-0,022	0,112
-188,402	-200,000	-0,003	-0,031
-187,387	800,000	0,073	0,146
-186,373	28,719	-0,023	0,014
-185,358	-180,392	-0,098	-0,001
-184,344	800,000	0,015	-0,044
-183,329	800,000	0,066	0,154
-182,315	124,127	0,029	0,026
-181,300	161,568	-0,088	-0,088
-180,285	-57,488	-0,049	-0,015
-179,271	-36,534	-0,068	0,026
-178,256	-200,000	-0,024	-0,087
-177,242	744,048	0,016	-0,030
-176,227	85,496	0,068	-0,053
-175,212	-73,139	-0,057	0,015
-174,198	307,576	-0,092	-0,122
-173,183	326,928	-0,037	-0,051
-172,169	800,000	-0,010	-0,021
-171,154	-107,240	0,109	-0,017
-170,139	297,531	-0,066	-0,086
-169,125	-200,000	0,020	0,142
-168,110	42,292	-0,040	0,026
-167,096	43,063	-0,045	0,029
-166,081	-11,679	-0,155	-0,072
-165,066	800,000	0,048	-0,149
-164,052	-71,207	0,143	-0,038
-163,037	-98,310	0,037	-0,007
-162,023	-200,000	0,010	0,101
-161,008	202,118	0,074	0,082
-159,993	-200,000	0,001	-0,066
-158,979	219,230	-0,045	0,051
-157,964	-41,292	-0,085	0,031
-156,950	-56,725	-0,037	-0,012
-155,935	800,000	-0,049	0,130
-154,920	299,369	-0,062	-0,081
-153,906	-200,000	-0,011	0,037
-152,891	800,000	-0,033	-0,089
-151,877	29,288	-0,092	-0,055
-150,862	-77,936	-0,160	0,039
-149,847	609,121	0,072	-0,128
-148,833	800,000	0,040	-0,120
-147,818	-200,000	0,004	-0,090
-146,804	-100,957	-0,074	0,013
-145,789	-46,794	0,129	0,045
-144,775	-200,000	-0,024	-0,089
-143,760	-117,345	-0,040	0,005
-142,745	320,605	0,028	0,038
-141,731	-99,461	-0,141	-0,025
-140,716	48,791	0,039	-0,026
-139,702	-79,394	-0,062	0,015
-138,687	-74,840	0,090	-0,023
-137,672	800,000	0,010	0,029
-136,658	496,032	-0,052	-0,086
-135,643	-200,000	-0,013	-0,052
-134,629	-200,000	-0,001	-0,141
-133,614	97,228	0,064	-0,053
-132,599	-162,877	-0,032	-0,001
-131,585	-167,526	0,078	0,002
-130,570	-56,018	-0,031	0,010
-129,556	-101,058	0,122	-0,021
-128,541	800,000	-0,062	0,146
-127,526	-200,000	0,000	0,052
-126,512	-200,000	0,002	0,033
-125,497	-200,000	0,015	-0,063
-124,483	-118,861	-0,089	0,011
-123,468	115,479	0,072	-0,063
-122,453	71,977	-0,119	0,088
-121,439	505,763	-0,063	-0,103
-120,424	249,120	-0,022	-0,027
-119,410	-200,000	0,031	0,115
-118,395	376,067	0,076	0,110
-117,380	58,547	0,038	0,027
-116,366	-200,000	0,006	0,117
-115,351	800,000	0,045	-0,137
-114,337	99,825	-0,106	-0,087
-113,322	800,000	-0,036	-0,076
-112,307	737,493	-0,018	-0,035
-111,293	38,145	0,123	0,078
-110,278	178,462	0,047	-0,049
-109,264	14,625	-0,092	0,051
-108,249	-200,000	-0,013	0,104
-107,234	800,000	0,065	0,148
-106,220	-200,000	0,011	0,076
-105,205	202,169	0,040	0,044
-104,191	-200,000	0,028	0,115
-103,176	-66,892	0,113	-0,031
-102,162	160,617	0,058	-0,057
-101,147	354,395	-0,079	-0,112
-100,132	27,746	0,081	-0,049
-99,118	-32,711	-0,066	0,026
-98,103	-28,702	-0,087	-0,036
-97,089	117,555	0,024	0,021
-96,074	215,153	0,065	0,074
-95,059	129,948	-0,026	-0,023
-94,045	800,000	-0,038	0,081
-93,030	-127,421	-0,180	-0,018
-92,016	-200,000	-0,020	-0,141
-91,001	-115,143	-0,145	0,019
-89,986	-200,000	0,002	0,064
-88,972	-200,000	-0,022	0,107
-87,957	-41,285	0,150	-0,054
-86,943	-200,000	0,002	-0,090
-85,928	404,498	-0,105	-0,157
-84,913	-200,000	0,012	-0,099
-83,899	-120,404	-0,043	0,005
-82,884	137,765	0,072	0,067
-81,870	-105,137	0,048	0,008
-80,855	800,000	-0,057	0,144
-79,840	-200,000	0,020	0,068
-78,826	-161,434	0,075	-0,003
-77,811	800,000	0,033	0,074
-76,797	-106,045	-0,174	-0,027
-75,782	247,563	0,077	0,092
-74,767	190,519	0,048	-0,051
-73,753	178,556	-0,034	0,035
-72,738	67,012	-0,034	0,025
-71,724	-124,923	-0,118	0,013
-70,709	213,138	0,041	0,046
-69,694	122,454	-0,093	-0,083
-68,680	800,000	0,079	0,185
-67,665	-141,956	-0,045	0,003
-66,651	800,000	0,020	-0,061
-65,636	-200,000	0,021	0,142
-64,622	-200,000	-0,007	0,052
-63,607	-200,000	0,015	-0,115
-62,592	-200,000	0,014	0,089
-61,578	800,000	-0,039	0,106
-60,563	89,373	-0,008	0,006
-59,549	204,668	-0,019	0,021
-58,534	-54,213	-1,595	-0,511
-57,519	308,794	-1,507	-2,000
-56,505	-200,000	-0,623	-4,527
-55,490	179,734	1,094	1,137
-54,476	800,000	4,643	10,938
-53,461	-200,000	18,289	292,256
-52,446	800,000	729,129	2245,148
-51,432	558,558	1645,210	2823,888
-50,417	79,071	1666,533	1263,498
-49,403	22,664	1539,911	890,988
-48,388	16,641	1463,053	817,309
-47,373	17,826	1453,188	817,479
-46,359	17,212	1443,248	808,916
-45,344	14,911	1438,890	795,444
-44,330	14,856	1436,783	793,985
-43,315	14,860	1435,037	793,009
-42,300	14,874	1433,484	792,186
-41,286	14,904	1432,339	791,662
-40,271	14,849	1431,074	790,669
-39,257	14,859	1429,656	789,903
-38,242	14,919	1428,275	789,392
-37,227	14,889	1427,109	788,576
-36,213	14,899	1425,905	787,924
-35,198	14,909	1424,803	787,332
-34,184	14,873	1423,982	786,680
-33,169	14,785	1422,682	785,510
-32,154	14,861	1421,548	785,213
-31,140	14,896	1420,149	784,576
-30,125	14,888	1419,214	783,992
-29,111	14,867	1418,000	783,188
-28,096	14,840	1416,783	782,359
-27,082	14,817	1415,917	781,740
-26,067	14,850	1414,540	781,107
-25,052	14,828	1413,473	780,381
-24,038	14,767	1412,781	779,681
-23,023	14,819	1411,543	779,210
-22,009	14,731	1410,934	778,431
-20,994	14,767	1409,866	777,980
-19,979	14,755	1408,859	777,340
-18,965	14,733	1407,747	776,593
-17,950	14,752	1406,795	776,124
-16,936	14,756	1405,890	775,612
-15,921	14,714	1404,882	774,830
-14,906	14,734	1403,933	774,368
-13,892	14,717	1403,195	773,851
-12,877	14,706	1402,179	773,210
-11,863	14,710	1401,307	772,718
-10,848	14,658	1400,389	771,937
-9,833	14,739	1399,376	771,726
-8,819	14,646	1398,551	770,809
-7,804	14,607	1397,863	770,218
-6,790	14,594	1396,543	769,401
-5,775	14,612	1395,552	768,904
-4,760	14,610	1394,722	768,408
-3,746	14,590	1393,935	767,850
-2,731	14,622	1393,202	767,568
-1,717	14,594	1392,315	766,918
-0,702	14,620	1390,257	765,874
0,313	18,331	1308,980	738,316
1,327	34,553	706,088	435,853
2,342	52,806	124,348	84,050
3,356	1,657	16,688	8,481
4,371	20,519	3,009	1,718
5,386	-29,703	0,406	0,163
6,400	-200,000	-0,070	0,248
7,415	51,825	-0,307	-0,207
8,429	23,208	-0,308	-0,178
9,444	71,124	-0,337	-0,247
10,459	-7,809	-0,369	-0,176
11,473	-76,968	-0,256	-0,063
12,488	168,184	-0,200	-0,202
13,502	18,280	-0,368	-0,207
14,517	47,706	-0,317	-0,209
15,531	296,666	-0,280	-0,364
16,546	199,075	-0,326	-0,354
17,561	29,950	-0,404	-0,243
18,575	28,589	-0,207	-0,124
19,590	68,210	-0,250	-0,181
20,604	-43,544	-0,236	-0,084
21,619	78,847	-0,348	-0,263
22,634	6,914	-0,531	-0,279
23,648	82,318	-0,437	-0,335
24,663	163,121	-0,340	-0,338
25,677	69,393	-0,309	-0,224
26,692	417,653	-0,219	-0,332
27,707	172,172	-0,321	-0,326
28,721	49,392	-0,416	-0,276
29,736	52,818	-0,336	-0,227
30,750	104,956	-0,370	-0,308
31,765	141,005	-0,360	-0,336
32,780	83,086	-0,364	-0,280
33,794	-15,862	-0,376	-0,168
34,809	51,130	-0,320	-0,214
35,823	88,003	-0,359	-0,281
36,838	156,607	-0,345	-0,336
37,853	75,687	-0,395	-0,294
38,867	70,458	-0,454	-0,331
39,882	119,564	-0,272	-0,238
40,896	-22,095	-0,497	-0,212
41,911	249,348	-0,256	-0,307
42,926	89,490	-0,462	-0,363
43,940	179,623	-0,297	-0,307
44,955	38,049	-0,512	-0,321
45,969	35,346	-0,367	-0,227
46,984	33,692	-0,408	-0,249
47,999	14,709	-0,375	-0,206
49,013	35,627	-0,316	-0,196
50,028	-60,770	-0,283	-0,084
51,042	-50,192	-0,371	-0,123
52,057	61,925	-0,378	-0,265
53,071	58,000	-0,356	-0,245
54,086	77,234	-0,389	-0,291
55,101	203,069	-0,246	-0,268
56,115	51,973	-0,385	-0,258
57,130	21,183	-0,404	-0,231
58,144	187,631	-0,307	-0,323
59,159	73,532	-0,347	-0,256
60,174	80,312	-0,263	-0,199
61,188	52,185	-0,368	-0,247
62,203	11,456	-0,263	-0,141
63,217	111,934	-0,279	-0,238
64,232	36,076	-0,341	-0,211
65,247	-16,761	-0,475	-0,211
66,261	37,719	-0,345	-0,216
67,276	111,295	-0,391	-0,331
68,290	-45,411	-0,355	-0,123
69,305	34,902	-0,317	-0,195
70,320	129,126	-0,239	-0,215
71,334	-17,778	-0,299	-0,132
72,349	10,041	-0,431	-0,230
73,363	74,364	-0,311	-0,230
74,378	219,023	-0,215	-0,242
75,393	83,559	-0,280	-0,215
76,407	11,647	-0,465	-0,250
77,422	-33,689	-0,498	-0,192
78,436	466,297	-0,230	-0,363
79,451	-47,664	-0,379	-0,129
80,466	-13,804	-0,384	-0,174
81,480	51,587	-0,353	-0,235
82,495	-51,765	-0,390	-0,127
83,509	197,867	-0,185	-0,199
84,524	-19,751	-0,388	-0,168
85,539	107,763	-0,270	-0,226
86,553	-98,560	-0,332	-0,059
87,568	1,281	-0,321	-0,161
88,582	164,064	-0,287	-0,284
89,597	271,919	-0,232	-0,289
90,611	22,538	-0,225	-0,129
91,626	23,897	-0,217	-0,125
92,641	-51,008	-0,281	-0,092
93,655	72,409	-0,286	-0,209
94,670	78,702	-0,344	-0,258
95,684	-2,349	-0,289	-0,142
96,699	119,275	-0,292	-0,254
97,714	121,320	-0,370	-0,324
98,728	119,761	-0,184	-0,160
99,743	29,225	-0,301	-0,179
100,757	-48,868	-0,246	-0,082
101,772	150,178	-0,313	-0,298
102,787	-17,717	-0,259	-0,114
103,801	138,315	-0,212	-0,196
104,816	114,065	-0,225	-0,192
105,830	531,231	-0,187	-0,312
106,845	-77,913	-0,272	-0,065
107,860	119,885	-0,200	-0,174
108,874	167,870	-0,158	-0,158
109,889	139,695	-0,299	-0,276
110,903	218,294	-0,272	-0,305
111,918	94,545	-0,342	-0,273
112,933	-9,419	-0,306	-0,143
113,947	60,354	-0,197	-0,137
114,962	105,284	-0,186	-0,154
115,976	84,631	-0,239	-0,183
116,991	735,899	-0,155	-0,292
118,006	41,928	-0,389	-0,247
119,020	11,453	-0,355	-0,190
120,035	-93,325	-0,351	-0,068
121,049	199,094	-0,261	-0,280
122,064	172,907	-0,220	-0,222
123,079	39,560	-0,283	-0,177
124,093	33,051	-0,393	-0,238
125,108	158,456	-0,259	-0,252
126,122	293,686	-0,223	-0,286
127,137	-21,719	-0,325	-0,138
128,151	57,276	-0,305	-0,208
129,166	114,398	-0,116	-0,099
130,181	46,711	-0,201	-0,131
131,195	141,588	-0,346	-0,321
132,210	-40,392	-0,181	-0,066
133,224	7,424	-0,232	-0,121
134,239	72,586	-0,244	-0,178
135,254	237,969	-0,167	-0,195
136,268	800,000	-0,125	-0,246
137,283	213,672	-0,177	-0,197
138,297	20,452	-0,349	-0,197
139,312	133,577	-0,333	-0,301
140,327	627,232	-0,181	-0,322
141,341	408,022	-0,203	-0,302
142,356	11,299	-0,183	-0,098
143,370	5,096	-0,240	-0,123
144,385	62,027	-0,187	-0,131
145,400	11,120	-0,350	-0,187
146,414	-48,413	-0,413	-0,138
147,429	223,260	-0,237	-0,267
148,443	-6,531	-0,225	-0,107
149,458	243,119	-0,159	-0,187
150,473	133,256	-0,218	-0,197
151,487	18,634	-0,168	-0,094
152,502	445,252	-0,146	-0,225
153,516	143,056	-0,189	-0,175
154,531	79,201	-0,314	-0,235
155,546	230,757	-0,157	-0,180
156,560	126,493	-0,183	-0,162
157,575	62,022	-0,271	-0,189
158,589	113,441	-0,203	-0,172
159,604	172,077	-0,202	-0,203
160,619	171,313	-0,255	-0,255
161,633	390,232	-0,158	-0,229
162,648	173,680	-0,226	-0,228
163,662	718,066	-0,127	-0,236
164,677	60,653	-0,287	-0,198
165,692	40,449	-0,190	-0,119
166,706	25,931	-0,381	-0,221
167,721	170,281	-0,209	-0,209
168,735	81,338	-0,231	-0,174
169,750	-32,379	-0,224	-0,087
170,764	-57,040	-0,288	-0,088
171,779	14,418	-0,126	-0,068
172,794	-36,988	-0,210	-0,078
173,808	-107,801	-0,335	-0,050
174,823	167,843	-0,202	-0,200
175,837	215,544	-0,170	-0,189
176,852	-5,726	-0,209	-0,099
177,867	174,461	-0,197	-0,198
178,881	657,180	-0,068	-0,123
179,896	157,694	-0,126	-0,122
180,910	40,892	-0,366	-0,230
181,925	-60,990	-0,328	-0,096
182,940	81,381	-0,255	-0,192
183,954	-99,244	-0,255	-0,044
184,969	137,569	-0,114	-0,104
185,983	54,960	-0,165	-0,111
186,998	374,915	-0,119	-0,170
188,013	186,778	-0,069	-0,071
189,027	-49,467	-0,295	-0,097
190,042	561,568	-0,148	-0,250
191,056	179,292	-0,174	-0,178
192,071	176,631	-0,215	-0,218
193,086	195,119	-0,189	-0,200
194,100	800,000	-0,111	-0,218
195,115	168,603	-0,245	-0,244
196,129	165,918	-0,258	-0,254
197,144	22,271	-0,260	-0,148
198,159	491,792	-0,139	-0,223
199,173	225,584	-0,106	-0,120
200,188	-109,091	-0,220	-0,032
201,202	224,874	-0,256	-0,289
202,217	391,315	-0,142	-0,206
203,232	248,734	-0,193	-0,227
204,246	77,429	-0,282	-0,209
205,261	-200,000	-0,036	-0,121
206,275	220,627	-0,075	-0,084
207,290	377,786	-0,135	-0,193
208,304	-25,231	-0,172	-0,070
209,319	182,368	-0,171	-0,176
210,334	-4,603	-0,180	-0,086
211,348	95,240	-0,273	-0,216
212,363	79,111	-0,266	-0,198
213,377	64,158	-0,225	-0,157
214,392	-16,683	-0,263	-0,115
215,407	-47,355	-0,189	-0,064
216,421	-20,551	-0,284	-0,121
217,436	253,574	-0,094	-0,112
218,450	-52,331	-0,076	-0,024
219,465	-1,846	-0,241	-0,117
220,480	-40,620	-0,205	-0,073
221,494	-94,609	-0,227	-0,042
222,509	64,682	-0,177	-0,124
223,523	-66,118	-0,055	-0,015
224,538	354,079	-0,148	-0,205
225,553	457,165	-0,185	-0,287
226,567	140,802	-0,148	-0,136
227,582	1,589	-0,324	-0,162
228,596	240,231	-0,185	-0,214
229,611	580,930	-0,213	-0,364
230,626	43,035	-0,173	-0,109
231,640	400,399	-0,154	-0,224
232,655	48,351	-0,235	-0,153
233,669	800,000	-0,120	-0,267
234,684	-82,281	-0,177	-0,040
235,699	-62,982	-0,183	-0,052
236,713	71,397	-0,174	-0,125
237,728	317,738	-0,114	-0,151
238,742	-1,688	-0,172	-0,084
239,757	290,932	-0,134	-0,169
240,772	217,074	-0,152	-0,168
241,786	13,905	-0,166	-0,089
242,801	188,301	-0,133	-0,138
243,815	64,317	-0,165	-0,115
244,830	800,000	-0,036	-0,096
245,844	-26,740	-0,296	-0,120
246,859	-100,177	-0,278	-0,048
247,874	567,831	-0,163	-0,276
248,888	276,729	-0,195	-0,240
249,903	107,316	-0,167	-0,138
250,917	371,078	-0,170	-0,239
251,932	44,922	-0,210	-0,134
252,947	180,242	-0,110	-0,112
253,961	175,358	-0,149	-0,150
254,976	538,783	-0,095	-0,158
255,990	60,177	-0,159	-0,109
257,005	17,477	-0,304	-0,167
258,020	32,554	-0,187	-0,112
259,034	-20,227	-0,190	-0,081
260,049	236,022	-0,146	-0,167
261,063	-7,147	-0,257	-0,120
262,078	111,344	-0,198	-0,165
263,093	152,618	-0,185	-0,175
264,107	104,548	-0,088	-0,072
265,122	-137,016	-0,257	0,020
266,136	256,370	-0,087	-0,103
267,151	-98,709	-0,146	-0,025
268,166	174,382	-0,222	-0,222
269,180	-64,120	-0,124	-0,035
270,195	107,098	-0,238	-0,195
271,209	152,690	-0,174	-0,165
272,224	217,972	-0,224	-0,247
273,239	800,000	-0,126	-0,361
274,253	-42,721	-0,066	-0,023
275,268	81,128	-0,093	-0,069
276,282	-42,662	-0,272	-0,095
277,297	155,835	-0,188	-0,179
278,312	232,458	-0,229	-0,260
279,326	136,593	-0,187	-0,169
280,341	-30,174	-0,131	-0,051
281,355	-38,084	-0,171	-0,063
282,370	-102,195	-0,209	-0,034
283,384	-12,670	-0,259	-0,116
284,399	800,000	-0,094	-0,211
285,414	407,917	-0,144	-0,210
286,428	124,965	-0,147	-0,128
287,443	-200,000	-0,074	-0,244
288,457	-65,444	-0,249	-0,069
289,472	512,750	-0,085	-0,137
290,487	-50,712	-0,169	-0,055
291,501	91,973	-0,236	-0,183
292,516	80,713	-0,235	-0,175
293,530	292,338	-0,147	-0,185
294,545	784,467	-0,107	-0,203
295,560	-169,366	-0,192	-0,005
296,574	-66,022	-0,166	0,045
297,589	-143,053	-0,199	0,013
298,603	-113,590	-0,176	-0,023
299,618	-117,147	-0,139	-0,017
300,633	29,345	-0,295	-0,172
301,647	-47,734	-0,134	-0,045
302,662	347,552	0,058	-0,079
303,676	74,601	-0,070	-0,051
304,691	215,489	-0,112	-0,123
305,706	424,705	-0,090	-0,134
306,720	122,342	-0,065	-0,056
307,735	800,000	-0,109	-0,243
308,749	-44,860	-0,256	-0,087
309,764	125,210	-0,060	-0,052
310,779	7,750	-0,213	-0,109
311,793	91,957	-0,156	-0,121
312,808	64,746	-0,137	-0,095
313,822	118,431	-0,183	-0,156
314,837	-24,816	-0,247	-0,101
315,852	-140,665	-0,131	-0,009
316,866	-94,027	-0,097	0,018
317,881	-200,000	0,010	-0,042
318,895	269,374	-0,181	-0,219
319,910	400,968	-0,115	-0,167
320,925	52,751	-0,167	-0,110
321,939	36,075	-0,162	-0,098
322,954	212,230	-0,151	-0,164
323,968	684,993	-0,054	-0,097
324,983	30,365	-0,135	-0,079
325,997	150,075	-0,157	-0,147
327,012	89,709	-0,210	-0,161
328,027	62,699	-0,083	-0,057
329,041	11,775	-0,122	-0,064
330,056	674,218	-0,137	-0,246
331,070	5,161	-0,109	0,055
332,085	-49,017	-0,097	0,032
333,100	14,869	-0,077	0,041
334,114	59,192	-0,086	-0,058
335,129	35,527	-0,097	-0,058
336,143	-108,474	-0,041	-0,006
337,158	341,143	0,022	-0,030
338,173	21,069	-0,124	-0,069
339,187	107,328	-0,094	-0,076
340,202	-179,702	-0,083	-0,001
341,216	258,051	-0,136	-0,161
342,231	-146,353	-0,199	-0,012
343,246	174,333	-0,156	-0,155
344,260	800,000	-0,030	-0,075
345,275	-18,305	-0,131	-0,056
346,289	-43,848	-0,121	-0,042
347,304	138,108	-0,048	-0,044
348,319	288,035	-0,108	-0,135
349,333	18,102	-0,271	-0,148
350,348	151,265	-0,121	-0,113
351,362	-64,669	-0,118	-0,033
352,377	26,612	-0,168	-0,096
353,392	800,000	0,036	-0,086
354,406	800,000	-0,068	-0,186
355,421	209,440	1315,885	1417,430
356,435	161,188	1476,776	1417,923
