DTS Sentinel unit serial number:	SN410029Multiplexer serial number:	ORYXHardware model number:	OX2-SRSoftware version number:	ORYX F/W v4,00 Oryx Data Collector v3.7.2.0data status	okinstallation	B3 Nyhavnadifferential loss correction	single-endedforward channel	channel 1reverse channel	N/Adate	2023/12/02time	08:12:30forward acquisition time	300,00reverse acquisition time	0,00gamma	499,1914k internal	0,3195k external	0,3195temperature offset calibration	1,0000default loss term (dB/km)	0,3820temperature slope calibration	1,0000multiplexer offset coefficient	1,0000multiplexer slope coefficient	1,0000fibre end	0,00T internal ref (°C)	15,46T ext. ref 1 (°C)	0,21T ext. ref 2 (°C)	0,21length (m)	temperature (°C)	Stokes	anti-Stokes-744,400	381,525	-0,171	-0,256
-743,385	-200,000	0,103	0,395
-742,371	223,913	-0,187	-0,221
-741,356	-200,000	0,051	0,275
-740,342	35,516	-0,210	-0,134
-739,327	-200,000	0,024	0,183
-738,312	369,180	-0,237	-0,350
-737,298	-200,000	-0,024	0,350
-736,283	219,517	-0,211	-0,247
-735,269	800,000	0,100	0,307
-734,254	52,388	-0,139	-0,097
-733,239	21,831	-0,168	0,099
-732,225	117,225	-0,124	-0,111
-731,210	-95,658	0,159	-0,031
-730,196	-138,377	0,066	-0,005
-729,181	800,000	0,036	0,092
-728,167	800,000	-0,055	-0,122
-727,152	-200,000	0,017	0,074
-726,137	6,284	0,104	-0,056
-725,123	800,000	-0,039	-0,092
-724,108	800,000	0,009	-0,023
-723,094	30,594	-0,152	-0,094
-722,079	667,029	0,023	0,043
-721,064	-200,000	-0,038	0,129
-720,050	-200,000	-0,020	0,103
-719,035	-113,513	-0,129	-0,018
-718,021	-100,835	-0,092	-0,016
-717,006	-139,038	-0,103	0,008
-715,991	103,533	-0,038	-0,032
-714,977	88,043	-0,098	-0,079
-713,962	647,335	0,029	-0,054
-712,948	56,458	-0,089	0,063
-711,933	128,740	0,124	-0,115
-710,918	-26,280	-0,116	-0,049
-709,904	-146,667	-0,156	-0,010
-708,889	-107,351	-0,188	0,030
-707,875	-200,000	0,031	-0,214
-706,860	-87,573	0,148	0,032
-705,845	-200,000	-0,004	0,033
-704,831	500,731	0,017	-0,029
-703,816	97,651	0,107	-0,089
-702,802	-70,192	0,075	0,021
-701,787	-200,000	-0,021	-0,086
-700,772	-57,226	-0,110	0,035
-699,758	-101,108	0,054	-0,009
-698,743	414,304	0,025	-0,039
-697,729	645,524	-0,035	-0,065
-696,714	800,000	0,038	0,081
-695,699	38,223	-0,129	-0,083
-694,685	800,000	0,026	0,055
-693,670	9,540	-0,083	0,046
-692,656	342,865	0,023	-0,033
-691,641	62,160	-0,098	-0,071
-690,627	800,000	-0,047	-0,130
-689,612	-75,382	-0,090	-0,023
-688,597	161,894	0,086	0,088
-687,583	800,000	-0,044	-0,110
-686,568	5,402	-0,115	-0,061
-685,554	-126,353	-0,053	-0,006
-684,539	428,009	0,061	0,096
-683,524	800,000	-0,041	-0,097
-682,510	382,185	-0,071	-0,107
-681,495	-200,000	-0,017	-0,092
-680,481	-200,000	0,001	-0,099
-679,466	-200,000	-0,006	-0,201
-678,451	394,297	-0,051	-0,077
-677,437	-200,000	0,020	0,206
-676,422	-179,074	0,212	-0,003
-675,408	-200,000	0,025	0,120
-674,393	518,363	0,026	-0,045
-673,378	56,859	-0,086	-0,061
-672,364	800,000	-0,053	-0,123
-671,349	684,519	0,047	-0,090
-670,335	-200,000	-0,006	0,055
-669,320	-200,000	0,007	-0,060
-668,305	800,000	0,035	-0,071
-667,291	-163,522	-0,015	0,000
-666,276	-125,174	-0,179	-0,020
-665,262	277,836	-0,051	-0,066
-664,247	618,384	0,029	-0,053
-663,232	69,361	0,159	0,118
-662,218	254,198	-0,031	0,038
-661,203	800,000	0,034	0,080
-660,189	549,106	-0,082	-0,144
-659,174	324,723	-0,045	-0,063
-658,159	315,658	0,120	-0,165
-657,145	-200,000	-0,022	-0,092
-656,130	9,912	-0,060	0,033
-655,116	-57,816	0,069	0,022
-654,101	-108,545	-0,061	-0,009
-653,086	-200,000	0,009	-0,077
-652,072	-10,830	-0,138	-0,066
-651,057	-200,000	0,011	-0,093
-650,043	483,476	-0,083	-0,138
-649,028	94,210	-0,088	-0,073
-648,014	800,000	0,043	-0,108
-646,999	2,372	0,106	-0,056
-645,984	-63,451	0,104	0,031
-644,970	230,992	-0,140	-0,167
-643,955	585,631	-0,113	-0,203
-642,941	158,448	-0,118	-0,119
-641,926	-200,000	-0,018	0,069
-640,911	-90,250	-0,112	-0,023
-639,897	-57,170	0,126	-0,040
-638,882	231,419	0,067	0,080
-637,868	-117,275	0,043	0,006
-636,853	139,457	0,039	-0,037
-635,838	226,851	-0,084	-0,099
-634,824	-156,201	-0,119	-0,005
-633,809	-95,664	0,095	-0,018
-632,795	-87,155	0,116	-0,025
-631,780	-200,000	-0,014	0,121
-630,765	-200,000	0,002	-0,022
-629,751	-120,370	-0,028	0,003
-628,736	-200,000	0,002	0,090
-627,722	800,000	-0,048	-0,101
-626,707	-180,853	-0,027	0,000
-625,692	485,956	0,021	0,035
-624,678	144,940	-0,142	0,138
-623,663	-72,501	-0,190	-0,051
-622,649	-200,000	-0,004	-0,039
-621,634	-200,000	-0,016	-0,124
-620,619	-116,332	-0,117	-0,015
-619,605	-115,472	-0,051	-0,007
-618,590	400,585	0,062	0,094
-617,576	800,000	0,023	0,053
-616,561	48,732	0,064	0,044
-615,546	377,074	-0,041	-0,061
-614,532	54,860	-0,082	-0,057
-613,517	-200,000	-0,009	-0,109
-612,503	800,000	0,086	-0,176
-611,488	-105,376	0,061	-0,010
-610,474	-47,928	-0,041	-0,014
-609,459	429,649	-0,031	-0,049
-608,444	135,711	-0,070	-0,066
-607,430	-76,057	-0,062	0,016
-606,415	800,000	0,035	-0,075
-605,401	551,478	-0,027	0,046
-604,386	800,000	0,047	0,101
-603,371	82,644	-0,031	-0,024
-602,357	-2,393	-0,139	-0,071
-601,342	41,884	-0,048	-0,032
-600,328	-21,358	0,075	-0,033
-599,313	-172,174	-0,136	0,003
-598,298	439,773	0,014	0,022
-597,284	-62,008	0,117	-0,035
-596,269	800,000	-0,053	0,136
-595,255	359,256	-0,081	-0,118
-594,240	-200,000	-0,024	-0,085
-593,225	4,353	-0,186	-0,098
-592,211	650,844	-0,050	-0,094
-591,196	-200,000	-0,013	-0,064
-590,182	-82,015	-0,112	-0,026
-589,167	-200,000	0,021	0,094
-588,152	800,000	0,033	0,070
-587,138	800,000	-0,013	0,030
-586,123	478,515	0,045	-0,074
-585,109	47,775	-0,111	-0,075
-584,094	300,733	0,017	0,023
-583,079	-133,523	-0,071	0,006
-582,065	800,000	-0,037	0,084
-581,050	800,000	0,073	0,176
-580,036	146,147	-0,054	0,053
-579,021	294,347	0,060	-0,080
-578,006	-200,000	-0,016	-0,134
-576,992	-200,000	-0,010	-0,041
-575,977	-123,837	-0,068	-0,008
-574,963	383,393	-0,046	0,068
-573,948	-169,349	0,027	0,001
-572,934	190,297	-0,024	0,026
-571,919	123,526	0,058	-0,052
-570,904	113,219	0,048	0,043
-569,890	-200,000	-0,104	0,000
-568,875	-89,745	0,016	0,003
-567,861	-80,885	0,101	0,024
-566,846	300,472	0,090	-0,120
-565,831	-200,000	-0,002	-0,074
-564,817	-84,691	0,012	-0,003
-563,802	268,646	0,125	0,158
-562,788	-49,778	0,025	0,008
-561,773	217,630	-0,127	-0,147
-560,758	800,000	0,023	0,070
-559,744	-87,130	0,124	-0,027
-558,729	800,000	-0,021	0,059
-557,715	-96,976	-0,020	-0,004
-556,700	-104,122	-0,085	-0,014
-555,685	-19,920	-0,029	0,013
-554,671	579,618	-0,081	-0,144
-553,656	12,284	0,025	0,014
-552,642	-102,589	0,127	0,022
-551,627	-39,969	-0,085	-0,032
-550,612	-200,000	-0,011	-0,061
-549,598	153,562	-0,014	-0,014
-548,583	199,940	-0,032	-0,035
-547,569	-89,146	0,023	-0,005
-546,554	-116,984	-0,070	-0,009
-545,539	17,058	0,105	0,060
-544,525	271,770	0,101	-0,129
-543,510	779,258	0,010	0,020
-542,496	-200,000	-0,015	-0,064
-541,481	-8,915	0,080	-0,038
-540,466	288,891	-0,025	-0,033
-539,452	107,265	0,039	0,034
-538,437	-200,000	-0,013	0,041
-537,423	-200,000	-0,003	0,172
-536,408	294,171	0,025	-0,033
-535,393	-47,972	0,100	-0,035
-534,379	30,392	0,014	-0,009
-533,364	-65,120	-0,015	-0,004
-532,350	27,315	0,071	-0,043
-531,335	-200,000	-0,014	0,137
-530,321	289,668	-0,048	-0,063
-529,306	118,979	-0,106	-0,095
-528,291	-200,000	-0,018	-0,062
-527,277	-124,878	-0,097	0,011
-526,262	66,857	-0,138	-0,102
-525,248	340,933	0,050	-0,071
-524,233	635,305	0,022	0,040
-523,218	-48,748	0,119	0,041
-522,204	45,265	0,085	0,057
-521,189	-200,000	-0,009	0,034
-520,175	-200,000	-0,021	0,163
-519,160	105,271	-0,040	0,034
-518,145	-27,063	0,073	0,031
-517,131	-81,810	-0,077	0,018
-516,116	800,000	-0,022	0,066
-515,102	-200,000	0,012	0,096
-514,087	-69,671	-0,162	0,044
-513,072	-30,146	0,092	-0,038
-512,058	-200,000	-0,016	0,092
-511,043	800,000	0,029	-0,081
-510,029	135,797	0,092	0,087
-509,014	62,600	0,111	0,080
-507,999	179,834	-0,007	-0,007
-506,985	296,144	0,075	-0,100
-505,970	-126,515	0,043	0,005
-504,956	-75,183	-0,058	-0,015
-503,941	800,000	-0,024	-0,076
-502,926	800,000	0,058	0,171
-501,912	572,408	0,098	0,173
-500,897	800,000	-0,016	0,047
-499,883	-121,436	-0,047	-0,006
-498,868	230,472	-0,112	-0,132
-497,853	11,675	0,188	-0,104
-496,839	-106,505	-0,207	0,033
-495,824	304,827	-0,031	-0,042
-494,810	-200,000	0,003	0,059
-493,795	288,684	0,067	-0,087
-492,781	-46,255	0,080	-0,028
-491,766	-200,000	0,000	-0,006
-490,751	-200,000	0,031	-0,154
-489,737	526,241	0,064	-0,109
-488,722	800,000	0,018	-0,050
-487,708	-200,000	-0,019	0,209
-486,693	-200,000	-0,025	0,094
-485,678	-200,000	-0,011	0,043
-484,664	40,179	0,019	0,012
-483,649	-200,000	-0,001	0,035
-482,635	736,011	0,028	0,055
-481,620	-200,000	-0,013	0,107
-480,605	52,098	0,204	0,140
-479,591	-200,000	0,010	0,034
-478,576	126,995	-0,066	0,060
-477,562	-200,000	0,001	-0,006
-476,547	-178,033	-0,041	-0,001
-475,532	-200,000	-0,010	-0,063
-474,518	-200,000	0,001	-0,080
-473,503	-200,000	-0,010	0,100
-472,489	60,130	0,013	0,010
-471,474	-200,000	-0,015	0,117
-470,459	116,238	0,056	0,050
-469,445	-14,667	-0,047	0,022
-468,430	-200,000	-0,012	-0,155
-467,416	289,313	0,084	-0,110
-466,401	59,152	0,014	-0,010
-465,386	177,522	0,077	-0,081
-464,372	-200,000	0,023	0,133
-463,357	-200,000	-0,003	-0,092
-462,343	800,000	-0,028	-0,089
-461,328	91,752	-0,036	0,029
-460,313	-200,000	-0,034	0,130
-459,299	-200,000	-0,020	-0,094
-458,284	4,284	0,080	0,042
-457,270	-200,000	-0,011	-0,060
-456,255	243,592	0,039	-0,047
-455,241	-200,000	0,070	-0,000
-454,226	-86,857	0,077	0,017
-453,211	-130,223	0,069	0,007
-452,197	-104,730	0,058	0,009
-451,182	235,520	-0,088	0,105
-450,168	120,728	0,091	0,081
-449,153	-200,000	0,040	0,137
-448,138	-200,000	-0,020	-0,095
-447,124	574,757	0,045	-0,079
-446,109	-200,000	0,001	0,060
-445,095	800,000	-0,045	-0,139
-444,080	-200,000	0,018	-0,097
-443,065	-200,000	-0,011	-0,102
-442,051	-200,000	0,011	-0,039
-441,036	545,237	0,059	0,102
-440,022	213,262	0,050	0,057
-439,007	202,381	0,088	0,098
-437,992	-200,000	-0,001	-0,076
-436,978	-73,199	0,033	0,009
-435,963	-125,340	0,094	0,010
-434,949	35,548	-0,040	-0,025
-433,934	215,292	-0,121	-0,138
-432,919	-43,085	0,075	-0,027
-431,905	121,462	0,072	-0,065
-430,890	-59,172	-0,160	0,049
-429,876	139,031	0,065	-0,061
-428,861	-90,595	0,131	0,027
-427,846	-185,524	-0,036	0,000
-426,832	110,458	-0,025	0,022
-425,817	-200,000	-0,007	0,099
-424,803	243,674	-0,032	-0,039
-423,788	-200,000	0,008	0,026
-422,773	-76,489	0,089	-0,022
-421,759	-144,189	-0,141	0,009
-420,744	60,794	-0,160	0,114
-419,730	-5,835	0,140	-0,069
-418,715	-200,000	-0,027	-0,137
-417,701	-151,312	-0,050	0,003
-416,686	-156,011	0,156	0,007
-415,671	220,370	-0,123	0,142
-414,657	-1,736	0,056	0,028
-413,642	-200,000	0,011	0,105
-412,628	800,000	-0,056	-0,143
-411,613	-200,000	0,006	-0,062
-410,598	-200,000	0,000	-0,109
-409,584	-200,000	0,023	-0,079
-408,569	155,032	0,018	0,018
-407,555	-108,616	0,236	0,036
-406,540	800,000	0,020	-0,054
-405,525	151,630	-0,023	-0,022
-404,511	274,985	-0,059	0,075
-403,496	-10,152	0,014	0,007
-402,482	516,757	0,015	0,025
-401,467	-200,000	-0,027	0,089
-400,452	116,246	0,042	0,037
-399,438	-73,661	0,139	-0,036
-398,423	243,329	-0,073	-0,088
-397,409	282,518	-0,109	-0,141
-396,394	21,550	-0,039	-0,023
-395,379	-78,680	-0,044	0,011
-394,365	-61,831	0,104	0,031
-393,350	800,000	0,071	0,164
-392,336	-127,030	-0,053	0,005
-391,321	38,168	-0,118	0,075
-390,306	-52,980	-0,118	0,039
-389,292	60,955	0,031	-0,022
-388,277	50,473	0,041	-0,028
-387,263	15,726	0,155	0,087
-386,248	169,551	-0,100	0,103
-385,233	137,055	0,085	0,080
-384,219	261,927	0,026	-0,032
-383,204	345,865	0,032	-0,045
-382,190	309,635	0,051	-0,069
-381,175	-200,000	-0,002	-0,103
-380,160	800,000	0,024	0,070
-379,146	-18,877	0,033	0,015
-378,131	-164,654	0,145	0,005
-377,117	246,471	-0,052	-0,063
-376,102	-69,319	0,127	-0,035
-375,088	336,861	-0,022	-0,031
-374,073	-75,357	-0,121	0,031
-373,058	234,056	0,037	0,044
-372,044	800,000	0,080	0,194
-371,029	292,893	-0,036	0,047
-370,015	4,603	0,072	-0,038
-369,000	-200,000	-0,014	-0,089
-367,985	800,000	0,045	0,109
-366,971	800,000	0,053	0,119
-365,956	-45,254	0,064	-0,023
-364,942	800,000	-0,037	0,094
-363,927	-11,367	-0,039	0,018
-362,912	-13,954	-0,114	0,053
-361,898	308,549	0,043	-0,058
-360,883	-95,250	-0,120	0,023
-359,869	55,101	-0,048	0,033
-358,854	800,000	-0,046	0,100
-357,839	295,501	0,038	0,050
-356,825	-109,855	0,116	0,017
-355,810	0,272	-0,062	0,032
-354,796	-200,000	-0,003	0,083
-353,781	-55,728	-0,161	0,051
-352,766	-200,000	-0,027	-0,142
-351,752	800,000	0,052	-0,116
-350,737	-200,000	-0,005	-0,023
-349,723	800,000	0,028	-0,065
-348,708	-200,000	-0,000	-0,022
-347,693	262,356	-0,069	0,086
-346,679	-200,000	0,015	-0,109
-345,664	65,436	-0,075	0,055
-344,650	-200,000	-0,011	0,078
-343,635	-95,022	0,235	0,045
-342,620	800,000	0,040	0,117
-341,606	224,653	-0,049	-0,057
-340,591	414,759	-0,046	-0,071
-339,577	374,861	0,017	0,026
-338,562	797,842	-0,021	0,042
-337,548	461,012	-0,061	-0,097
-336,533	-113,775	-0,071	-0,010
-335,518	432,859	0,040	0,063
-334,504	-159,554	-0,010	0,000
-333,489	800,000	-0,055	-0,147
-332,475	-200,000	-0,001	-0,056
-331,460	337,373	0,017	0,024
-330,445	118,848	0,036	-0,032
-329,431	322,733	-0,017	-0,023
-328,416	-200,000	-0,006	-0,089
-327,402	800,000	0,026	-0,071
-326,387	667,662	0,033	0,062
-325,372	94,335	-0,077	0,063
-324,358	155,817	-0,077	-0,076
-323,343	69,805	-0,135	-0,100
-322,329	800,000	0,028	-0,072
-321,314	7,583	-0,008	-0,004
-320,299	-200,000	0,010	0,248
-319,285	800,000	-0,062	0,165
-318,270	-126,239	-0,120	-0,013
-317,256	-200,000	0,035	-0,143
-316,241	-37,758	-0,082	-0,031
-315,226	800,000	0,082	0,172
-314,212	1,003	0,092	0,047
-313,197	109,828	-0,027	-0,023
-312,183	-43,383	0,089	0,032
-311,168	40,809	0,103	0,067
-310,153	800,000	0,046	-0,095
-309,139	-200,000	-0,029	-0,149
-308,124	-98,582	0,053	-0,010
-307,110	-200,000	0,034	0,152
-306,095	-200,000	0,032	0,121
-305,080	800,000	-0,016	0,052
-304,066	49,826	-0,067	-0,045
-303,051	-200,000	-0,004	-0,036
-302,037	111,621	-0,099	-0,085
-301,022	800,000	0,029	-0,080
-300,008	-138,861	0,093	-0,007
-298,993	27,349	0,104	0,063
-297,978	-50,763	-0,036	-0,012
-296,964	-27,890	0,094	-0,039
-295,949	-200,000	-0,011	-0,046
-294,935	101,890	-0,055	-0,046
-293,920	69,786	0,158	-0,116
-292,905	-10,701	-0,155	0,073
-291,891	-192,236	-0,091	0,001
-290,876	-157,087	0,006	-0,000
-289,862	583,347	0,049	-0,086
-288,847	-4,469	0,094	-0,046
-287,832	91,438	-0,085	-0,068
-286,818	-104,789	-0,120	0,020
-285,803	-45,646	-0,014	0,005
-284,789	-22,498	0,146	0,063
-283,774	-200,000	-0,011	-0,092
-282,759	228,916	0,054	-0,063
-281,745	-2,061	-0,110	-0,055
-280,730	-23,152	-0,075	-0,032
-279,716	352,501	-0,036	-0,052
-278,701	39,247	0,118	0,075
-277,686	696,027	-0,077	0,146
-276,672	53,661	0,053	0,036
-275,657	347,387	0,016	0,023
-274,643	66,236	-0,152	-0,110
-273,628	-127,081	-0,055	0,006
-272,613	659,063	-0,028	-0,051
-271,599	418,782	0,021	-0,032
-270,584	-200,000	-0,018	0,076
-269,570	-64,985	0,115	-0,033
-268,555	-200,000	0,008	0,259
-267,540	800,000	0,033	-0,077
-266,526	140,894	-0,146	-0,138
-265,511	90,130	-0,029	-0,023
-264,497	-83,590	0,102	0,023
-263,482	-26,032	-0,141	0,059
-262,467	-200,000	0,011	0,068
-261,453	800,000	-0,016	-0,041
-260,438	-47,723	0,141	0,048
-259,424	800,000	-0,054	-0,148
-258,409	19,745	-0,169	-0,097
-257,395	-200,000	-0,026	-0,119
-256,380	-25,385	0,019	-0,008
-255,365	800,000	0,050	0,114
-254,351	-99,126	-0,056	-0,010
-253,336	-200,000	0,023	-0,086
-252,322	-76,660	-0,147	-0,037
-251,307	85,245	0,161	-0,127
-250,292	800,000	-0,064	-0,132
-249,278	-145,506	0,047	0,003
-248,263	-52,037	-0,120	-0,040
-247,249	-200,000	0,001	0,143
-246,234	800,000	0,053	0,117
-245,219	-104,361	-0,098	-0,016
-244,205	800,000	-0,017	0,051
-243,190	800,000	-0,036	-0,095
-242,176	120,517	-0,081	-0,072
-241,161	-200,000	0,004	0,021
-240,146	-81,139	-0,199	0,047
-239,132	3,625	-0,070	-0,036
-238,117	147,458	0,094	-0,090
-237,103	18,664	-0,074	0,042
-236,088	-38,154	0,133	0,050
-235,073	36,824	0,058	-0,036
-234,059	286,112	-0,046	-0,060
-233,044	145,714	-0,064	0,061
-232,030	-4,370	-0,028	-0,014
-231,015	493,957	0,036	0,059
-230,000	67,599	0,023	0,017
-228,986	237,904	-0,065	-0,077
-227,971	86,918	0,123	0,097
-226,957	-200,000	-0,028	0,090
-225,942	-200,000	0,018	0,057
-224,927	619,067	-0,056	0,102
-223,913	-200,000	-0,019	-0,109
-222,898	-200,000	-0,008	-0,080
-221,884	381,072	-0,109	0,160
-220,869	114,447	-0,028	0,024
-219,855	-200,000	-0,010	0,093
-218,840	-200,000	0,035	0,134
-217,825	-102,628	-0,133	0,022
-216,811	800,000	-0,016	-0,049
-215,796	198,331	0,093	0,102
-214,782	800,000	0,026	0,065
-213,767	800,000	0,039	0,092
-212,752	41,122	0,031	0,020
-211,738	282,189	0,027	-0,034
-210,723	244,191	0,084	0,101
-209,709	217,451	0,048	0,054
-208,694	-200,000	-0,002	-0,079
-207,679	800,000	-0,003	-0,006
-206,665	-200,000	0,008	-0,119
-205,650	52,075	0,067	-0,045
-204,636	688,541	0,069	0,130
-203,621	-32,595	0,086	-0,034
-202,606	-200,000	0,004	0,027
-201,592	-200,000	-0,021	-0,102
-200,577	24,696	-0,068	-0,040
-199,563	-151,509	0,050	-0,003
-198,548	320,621	-0,010	-0,013
-197,533	15,536	-0,114	0,064
-196,519	517,757	0,027	0,046
-195,504	-40,276	-0,051	0,019
-194,490	-17,947	0,028	-0,013
-193,475	558,126	0,050	-0,086
-192,460	9,221	0,030	0,016
-191,446	517,869	-0,030	0,050
-190,431	-162,518	-0,086	-0,003
-189,417	-75,630	0,151	-0,038
-188,402	800,000	-0,007	0,021
-187,387	111,050	0,057	0,049
-186,373	13,712	0,031	0,017
-185,358	-145,350	0,144	-0,009
-184,344	43,261	0,045	0,029
-183,329	0,363	0,008	0,004
-182,315	136,421	0,040	-0,038
-181,300	25,797	-0,060	0,035
-180,285	66,802	-0,087	-0,063
-179,271	33,535	-0,147	-0,091
-178,256	-200,000	0,014	0,053
-177,242	388,765	0,077	0,114
-176,227	-200,000	0,003	0,033
-175,212	-200,000	-0,017	0,061
-174,198	9,423	0,018	0,010
-173,183	-49,509	0,032	0,011
-172,169	-162,605	0,061	-0,002
-171,154	122,155	0,064	-0,057
-170,139	-200,000	0,014	0,259
-169,125	116,103	-0,020	-0,017
-168,110	-14,913	0,037	-0,017
-167,096	800,000	0,036	0,077
-166,081	-165,886	-0,157	0,005
-165,066	-200,000	0,006	-0,043
-164,052	-37,882	-0,072	0,027
-163,037	-200,000	0,034	0,146
-162,023	-200,000	0,008	0,045
-161,008	652,688	-0,076	0,139
-159,993	272,666	0,028	-0,036
-158,979	-200,000	0,012	-0,038
-157,964	-200,000	-0,001	0,118
-156,950	-91,540	0,058	0,012
-155,935	800,000	0,017	-0,048
-154,920	35,600	-0,028	-0,018
-153,906	-126,532	0,185	-0,019
-152,891	-49,186	-0,043	-0,015
-151,877	-200,000	0,028	-0,124
-150,862	-146,198	-0,152	0,009
-149,847	446,724	0,087	0,137
-148,833	-200,000	0,008	-0,058
-147,818	64,210	-0,023	0,017
-146,804	-80,693	0,010	-0,002
-145,789	-195,650	0,031	-0,000
-144,775	158,999	0,030	0,030
-143,760	6,783	-0,102	0,054
-142,745	-200,000	-0,000	-0,025
-141,731	278,979	0,051	0,065
-140,716	-110,025	-0,069	0,010
-139,702	-56,415	0,195	0,061
-138,687	-200,000	-0,024	0,116
-137,672	-22,293	-0,054	0,023
-136,658	-200,000	0,004	-0,061
-135,643	-33,452	0,070	-0,028
-134,629	-55,654	0,053	-0,017
-133,614	152,902	0,060	0,059
-132,599	-51,565	0,059	0,019
-131,585	-157,393	-0,035	0,001
-130,570	145,916	-0,072	-0,068
-129,556	59,706	-0,090	0,063
-128,541	-25,299	-0,103	0,043
-127,526	800,000	0,067	0,135
-126,512	-135,370	0,138	0,012
-125,497	1,574	0,060	-0,030
-124,483	209,418	-0,053	0,059
-123,468	-200,000	0,011	-0,169
-122,453	-200,000	-0,001	-0,084
-121,439	800,000	-0,070	-0,170
-120,424	-118,908	0,144	-0,018
-119,410	800,000	-0,007	-0,017
-118,395	426,444	0,013	0,020
-117,380	478,914	-0,066	0,106
-116,366	800,000	0,018	-0,037
-115,351	-8,369	0,043	-0,020
-114,337	176,247	-0,140	-0,145
-113,322	-200,000	0,008	0,027
-112,307	-95,616	0,117	-0,022
-111,293	-169,413	0,116	-0,003
-110,278	-101,973	0,151	0,026
-109,264	120,576	-0,132	-0,117
-108,249	-200,000	0,017	0,104
-107,234	55,562	0,017	0,012
-106,220	740,984	0,063	-0,121
-105,205	253,909	0,095	0,116
-104,191	457,646	0,115	0,182
-103,176	177,021	0,059	0,061
-102,162	-200,000	-0,040	0,157
-101,147	-200,000	-0,034	0,116
-100,132	246,357	-0,026	-0,031
-99,118	-200,000	0,014	-0,182
-98,103	-200,000	0,015	-0,125
-97,089	-43,709	0,117	0,042
-96,074	161,845	0,119	0,118
-95,059	-200,000	-0,019	0,068
-94,045	-7,682	-0,032	0,015
-93,030	-133,400	0,050	0,004
-92,016	800,000	-0,023	0,058
-91,001	368,861	-0,014	-0,020
-89,986	27,426	0,107	-0,064
-88,972	-18,597	0,091	-0,040
-87,957	120,316	0,066	0,059
-86,943	421,212	0,079	0,120
-85,928	-200,000	0,006	-0,119
-84,913	241,032	0,029	-0,034
-83,899	24,655	0,049	0,029
-82,884	-200,000	0,001	0,153
-81,870	369,324	0,057	0,083
-80,855	512,767	-0,017	-0,028
-79,840	329,639	0,040	-0,055
-78,826	82,064	-0,063	-0,048
-77,811	126,480	0,056	-0,050
-76,797	17,620	0,027	0,015
-75,782	-151,711	0,140	0,007
-74,767	-109,006	0,147	0,022
-73,753	-1,165	-0,083	0,042
-72,738	800,000	-0,012	-0,034
-71,724	-49,368	-0,128	-0,043
-70,709	-47,138	-0,134	-0,046
-69,694	228,380	0,075	0,086
-68,680	-178,905	0,161	-0,003
-67,665	-72,362	-0,061	-0,016
-66,651	613,441	0,037	0,066
-65,636	-59,515	-0,120	0,036
-64,622	109,168	0,098	-0,083
-63,607	-200,000	0,012	0,083
-62,592	-200,000	0,020	0,094
-61,578	198,183	-0,032	0,034
-60,563	135,967	0,064	0,059
-59,549	-200,000	-0,015	0,158
-58,534	-63,632	-1,564	-0,452
-57,519	385,971	-1,477	-2,169
-56,505	-200,000	-0,458	-4,624
-55,490	161,495	0,820	0,814
-54,476	800,000	4,706	11,142
-53,461	-200,000	18,047	284,860
-52,446	800,000	724,902	2225,923
-51,432	559,337	1639,682	2818,953
-50,417	80,009	1662,200	1266,303
-49,403	23,324	1535,909	892,957
-48,388	17,303	1459,245	819,253
-47,373	18,060	1449,148	817,195
-46,359	17,515	1439,714	809,239
-45,344	15,583	1434,743	797,198
-44,330	15,481	1433,115	795,773
-43,315	15,539	1431,290	795,006
-42,300	15,592	1429,428	794,190
-41,286	15,563	1428,672	793,603
-40,271	15,508	1427,383	792,592
-39,257	15,533	1426,060	791,947
-38,242	15,612	1424,624	791,490
-37,227	15,616	1423,470	790,838
-36,213	15,575	1422,235	789,927
-35,198	15,545	1421,013	789,073
-34,184	15,573	1420,167	788,704
-33,169	15,489	1418,932	787,593
-32,154	15,576	1417,745	787,310
-31,140	15,585	1416,498	786,632
-30,125	15,628	1415,166	786,061
-29,111	15,551	1414,279	785,174
-28,096	15,528	1413,270	784,476
-27,082	15,518	1412,000	783,696
-26,067	15,493	1410,912	782,943
-25,052	15,535	1409,841	782,511
-24,038	15,489	1408,767	781,671
-23,023	15,463	1407,820	780,994
-22,009	15,469	1406,963	780,514
-20,994	15,378	1406,133	779,597
-19,979	15,430	1404,946	779,153
-18,965	15,364	1404,212	778,405
-17,950	15,455	1402,815	778,026
-16,936	15,396	1402,104	777,324
-15,921	15,383	1400,925	776,577
-14,906	15,427	1399,706	776,076
-13,892	15,456	1399,099	775,842
-12,877	15,404	1397,994	774,960
-11,863	15,394	1397,299	774,499
-10,848	15,369	1396,473	773,894
-9,833	15,332	1395,457	773,126
-8,819	15,325	1394,436	772,497
-7,804	15,285	1393,660	771,853
-6,790	15,298	1392,601	771,296
-5,775	15,284	1391,522	770,603
-4,760	15,259	1390,947	770,139
-3,746	15,305	1389,839	769,707
-2,731	15,325	1389,043	769,325
-1,717	15,289	1388,106	768,610
-0,702	15,296	1386,266	767,594
0,313	19,172	1306,688	741,446
1,327	35,709	707,268	439,704
2,342	54,995	125,053	85,484
3,356	3,114	16,555	8,504
4,371	10,396	3,210	1,727
5,386	10,253	0,471	0,253
6,400	1,838	-0,095	0,048
7,415	13,826	-0,196	-0,108
8,429	107,117	-0,316	-0,266
9,444	187,202	-0,351	-0,372
10,459	-73,815	-0,436	-0,111
11,473	190,097	-0,366	-0,389
12,488	77,768	-0,169	-0,127
13,502	-42,961	-0,353	-0,126
14,517	128,262	-0,287	-0,258
15,531	116,947	-0,341	-0,296
16,546	12,047	-0,331	-0,180
17,561	50,463	-0,390	-0,261
18,575	-19,610	-0,207	-0,090
19,590	35,990	-0,361	-0,225
20,604	-8,306	-0,342	-0,162
21,619	58,160	-0,392	-0,272
22,634	106,575	-0,416	-0,349
23,648	-0,692	-0,436	-0,218
24,663	-16,219	-0,413	-0,185
25,677	73,821	-0,382	-0,283
26,692	147,345	-0,358	-0,341
27,707	184,355	-0,316	-0,331
28,721	-10,658	-0,338	-0,158
29,736	-46,998	-0,444	-0,152
30,750	-27,832	-0,581	-0,237
31,765	57,978	-0,391	-0,270
32,780	83,948	-0,428	-0,330
33,794	77,480	-0,369	-0,277
34,809	64,590	-0,407	-0,290
35,823	7,915	-0,513	-0,271
36,838	248,845	-0,360	-0,431
37,853	154,212	-0,369	-0,358
38,867	134,016	-0,423	-0,388
39,882	65,108	-0,383	-0,273
40,896	4,065	-0,384	-0,198
41,911	31,413	-0,461	-0,279
42,926	-11,278	-0,391	-0,181
43,940	49,891	-0,269	-0,179
44,955	78,424	-0,314	-0,237
45,969	-0,995	-0,428	-0,213
46,984	124,671	-0,359	-0,319
47,999	213,212	-0,242	-0,270
49,013	-5,185	-0,291	-0,141
50,028	-19,761	-0,255	-0,111
51,042	49,277	-0,405	-0,268
52,057	114,108	-0,376	-0,323
53,071	250,651	-0,272	-0,326
54,086	33,989	-0,384	-0,235
55,101	70,107	-0,295	-0,214
56,115	95,074	-0,374	-0,300
57,130	12,605	-0,265	-0,144
58,144	15,712	-0,418	-0,231
59,159	27,401	-0,431	-0,255
60,174	251,520	-0,321	-0,386
61,188	-12,585	-0,293	-0,134
62,203	-10,656	-0,316	-0,147
63,217	173,386	-0,203	-0,207
64,232	7,705	-0,305	-0,161
65,247	37,065	-0,325	-0,202
66,261	60,217	-0,293	-0,204
67,276	88,761	-0,338	-0,264
68,290	19,477	-0,414	-0,234
69,305	28,013	-0,346	-0,205
70,320	-26,499	-0,292	-0,120
71,334	-90,066	-0,299	-0,061
72,349	-80,493	-0,363	-0,085
73,363	-54,560	-0,414	-0,131
74,378	27,692	-0,307	-0,182
75,393	61,046	-0,233	-0,163
76,407	-29,411	-0,276	-0,111
77,422	141,623	-0,234	-0,218
78,436	42,402	-0,266	-0,170
79,451	171,890	-0,245	-0,248
80,466	89,372	-0,364	-0,285
81,480	375,133	-0,238	-0,342
82,495	81,627	-0,294	-0,223
83,509	-5,319	-0,232	-0,112
84,524	299,485	-0,169	-0,220
85,539	239,578	-0,244	-0,287
86,553	118,377	-0,313	-0,272
87,568	173,420	-0,287	-0,292
88,582	6,600	-0,383	-0,199
89,597	133,980	-0,327	-0,298
90,611	-6,640	-0,319	-0,152
91,626	325,287	-0,250	-0,337
92,641	289,999	-0,192	-0,245
93,655	44,130	-0,242	-0,156
94,670	179,469	-0,190	-0,196
95,684	321,413	-0,202	-0,270
96,699	40,139	-0,248	-0,157
97,714	274,467	-0,134	-0,167
98,728	106,934	-0,289	-0,242
99,743	-63,584	-0,229	-0,065
100,757	-17,021	-0,167	-0,074
101,772	-37,582	-0,398	-0,148
102,787	-85,562	-0,329	-0,071
103,801	76,472	-0,298	-0,222
104,816	148,137	-0,117	-0,111
105,830	153,812	-0,220	-0,212
106,845	137,828	-0,207	-0,191
107,860	-65,869	-0,268	-0,075
108,874	92,058	-0,242	-0,191
109,889	-107,732	-0,245	-0,037
110,903	47,080	-0,304	-0,198
111,918	800,000	-0,167	-0,372
112,933	39,383	-0,145	-0,091
113,947	-118,384	-0,211	0,026
114,962	-118,831	-0,310	-0,038
115,976	237,611	-0,227	-0,265
116,991	131,435	-0,222	-0,200
118,006	-193,469	-0,411	-0,002
119,020	339,073	-0,183	-0,251
120,035	-114,870	-0,263	-0,035
121,049	-23,440	-0,333	-0,140
122,064	193,514	-0,180	-0,191
123,079	-63,773	-0,187	-0,053
124,093	189,338	-0,240	-0,253
125,108	122,610	-0,228	-0,200
126,122	147,384	-0,248	-0,234
127,137	277,055	-0,152	-0,190
128,151	-75,713	-0,288	-0,071
129,166	-108,609	-0,226	-0,034
130,181	143,264	-0,279	-0,260
131,195	-3,690	-0,431	-0,209
132,210	60,841	-0,197	-0,137
133,224	-35,744	-0,313	-0,118
134,239	800,000	-0,165	-0,332
135,254	28,546	-0,194	-0,115
136,268	-136,596	-0,291	-0,023
137,283	-12,921	-0,296	-0,134
138,297	-42,965	-0,290	-0,103
139,312	-21,180	-0,243	-0,104
140,327	-61,835	-0,265	-0,077
141,341	-45,871	-0,258	0,089
142,356	62,459	-0,226	-0,158
143,370	-26,211	-0,237	-0,097
144,385	-12,727	-0,332	-0,151
145,400	378,709	-0,214	-0,308
146,414	22,150	-0,322	-0,183
147,429	22,185	-0,266	-0,152
148,443	388,046	-0,131	-0,190
149,458	-59,413	-0,260	-0,078
150,473	242,224	-0,189	-0,222
151,487	36,803	-0,272	-0,168
152,502	800,000	-0,109	-0,234
153,516	103,264	-0,297	-0,243
154,531	-2,480	-0,302	-0,147
155,546	125,297	-0,275	-0,243
156,560	486,687	-0,115	-0,183
157,575	-148,741	-0,260	-0,014
158,589	30,450	-0,178	-0,106
159,604	-5,550	-0,391	-0,187
160,619	81,235	-0,262	-0,197
161,633	44,099	-0,334	-0,214
162,648	66,188	-0,202	-0,143
163,662	187,768	-0,128	-0,134
164,677	-58,126	-0,363	-0,110
165,692	17,727	-0,155	-0,086
166,706	-19,752	-0,256	-0,110
167,721	65,910	-0,293	-0,207
168,735	267,224	-0,148	-0,181
169,750	-68,541	-0,273	-0,073
170,764	279,566	-0,141	-0,176
171,779	26,529	-0,236	-0,138
172,794	492,105	-0,120	-0,192
173,808	-21,215	-0,281	-0,119
174,823	95,570	-0,185	-0,147
175,837	1,696	-0,317	-0,159
176,852	242,870	-0,194	-0,227
177,867	385,668	-0,174	-0,251
178,881	31,044	-0,193	-0,115
179,896	0,708	-0,091	-0,045
180,910	-81,940	-0,269	-0,061
181,925	42,173	-0,274	-0,173
182,940	110,785	-0,223	-0,187
183,954	44,070	-0,245	-0,156
184,969	259,583	-0,146	-0,176
185,983	-114,016	-0,331	-0,044
186,998	8,004	-0,260	-0,136
188,013	26,395	-0,200	-0,117
189,027	306,749	-0,202	-0,262
190,042	140,589	-0,132	-0,121
191,056	-68,055	-0,165	-0,045
192,071	-17,468	-0,259	-0,113
193,086	23,825	-0,179	-0,103
194,100	-56,325	-0,203	-0,062
195,115	236,943	-0,173	-0,200
196,129	81,310	-0,233	-0,176
197,144	32,526	-0,166	-0,100
198,159	-122,056	-0,160	0,018
199,173	800,000	-0,061	-0,158
200,188	-141,799	-0,239	-0,016
201,202	-71,634	-0,172	0,044
202,217	-72,850	-0,323	-0,082
203,232	-57,158	-0,261	-0,079
204,246	175,858	-0,231	-0,234
205,261	800,000	-0,110	-0,290
206,275	69,905	-0,246	-0,176
207,290	685,059	-0,123	-0,224
208,304	581,714	-0,132	-0,226
209,319	75,424	-0,230	-0,169
210,334	-70,270	-0,314	-0,082
211,348	568,058	-0,144	-0,244
212,363	104,073	-0,211	-0,173
213,377	800,000	-0,124	-0,279
214,392	145,377	-0,207	-0,192
215,407	94,014	-0,132	-0,104
216,421	-109,004	-0,224	-0,033
217,436	800,000	-0,097	-0,252
218,450	52,429	-0,301	-0,199
219,465	-4,998	-0,187	0,089
220,480	-54,423	-0,242	-0,076
221,494	800,000	-0,023	-0,059
222,509	-200,000	0,007	-0,142
223,523	341,853	-0,146	-0,199
224,538	92,114	-0,187	-0,146
225,553	82,697	-0,169	-0,128
226,567	55,901	-0,238	-0,160
227,582	345,739	-0,143	-0,196
228,596	71,412	-0,225	-0,162
229,611	800,000	-0,067	-0,136
230,626	159,351	-0,144	-0,139
231,640	98,634	-0,215	-0,172
232,655	281,303	-0,154	-0,192
233,669	127,322	-0,160	-0,141
234,684	258,018	-0,163	-0,195
235,699	-42,569	-0,166	-0,058
236,713	-123,823	-0,100	0,011
237,728	129,193	-0,074	-0,065
238,742	-129,130	-0,155	-0,015
239,757	163,594	-0,137	-0,134
240,772	31,880	-0,122	-0,073
241,786	-47,712	-0,339	-0,114
242,801	336,915	-0,081	-0,109
243,815	-19,128	-0,228	-0,098
244,830	-51,134	-0,253	-0,082
245,844	-68,354	-0,170	-0,046
246,859	-141,693	-0,302	-0,021
247,874	83,272	-0,253	-0,191
248,888	70,799	-0,215	-0,154
249,903	349,861	-0,156	-0,214
250,917	800,000	-0,092	-0,271
251,932	-18,190	-0,147	-0,064
252,947	61,048	-0,191	-0,131
253,961	11,907	-0,215	-0,114
254,976	74,186	-0,163	-0,118
255,990	-76,660	-0,280	-0,067
257,005	20,635	-0,186	-0,104
258,020	40,303	-0,256	-0,159
259,034	181,563	-0,128	-0,130
260,049	133,893	-0,083	-0,075
261,063	-34,914	-0,221	-0,083
262,078	23,793	-0,222	-0,126
263,093	307,672	-0,103	-0,133
264,107	58,377	-0,171	-0,116
265,122	-89,890	-0,130	-0,026
266,136	-200,000	-0,012	-0,083
267,151	21,609	-0,120	-0,068
268,166	-43,033	-0,275	-0,096
269,180	800,000	-0,062	-0,152
270,195	149,908	-0,258	-0,242
271,209	550,519	-0,107	-0,178
272,224	346,756	-0,147	-0,201
273,239	-200,000	-0,034	-0,212
274,253	-18,008	-0,205	-0,088
275,268	-61,456	-0,225	-0,065
276,282	123,913	-0,187	-0,163
277,297	303,716	-0,114	-0,147
278,312	76,601	-0,146	-0,107
279,326	218,048	-0,176	-0,194
280,341	-99,324	-0,218	0,038
281,355	26,367	-0,086	-0,049
282,370	6,948	-0,224	-0,115
283,384	-200,000	-0,282	-0,001
284,399	-112,681	-0,207	-0,028
285,414	435,823	-0,078	-0,118
286,428	21,173	-0,200	-0,112
287,443	97,758	-0,094	-0,075
288,457	114,610	-0,114	-0,096
289,472	113,301	-0,175	-0,147
290,487	188,147	-0,154	-0,159
291,501	69,729	-0,189	-0,134
292,516	-200,000	-0,005	-0,225
293,530	-200,000	-0,049	-0,224
294,545	711,919	-0,094	-0,173
295,560	418,946	-0,042	-0,063
296,574	-34,559	-0,136	-0,051
297,589	18,386	-0,174	-0,095
298,603	96,833	-0,170	-0,134
299,618	-82,392	-0,173	-0,038
300,633	136,427	-0,064	-0,058
301,647	800,000	-0,054	-0,118
302,662	34,961	-0,079	-0,048
303,676	195,023	-0,081	0,085
304,691	-42,883	-0,289	-0,101
305,706	-140,249	-0,116	-0,008
306,720	178,500	-0,092	-0,092
307,735	354,635	-0,019	0,026
308,749	-172,853	-0,260	0,005
309,764	800,000	-0,042	-0,101
310,779	19,239	-0,106	-0,058
311,793	121,156	-0,154	-0,132
312,808	169,310	-0,102	-0,101
313,822	-79,001	-0,148	-0,034
314,837	314,265	-0,137	-0,179
315,852	-41,109	-0,187	-0,066
316,866	-0,589	-0,086	0,042
317,881	-200,000	-0,015	-0,107
318,895	-11,436	-0,240	-0,108
319,910	145,848	-0,146	-0,135
320,925	568,179	-0,159	-0,267
321,939	124,352	-0,218	-0,189
322,954	108,701	-0,174	-0,143
323,968	25,174	-0,223	-0,127
324,983	135,206	-0,038	0,034
325,997	227,812	-0,149	-0,167
327,012	153,714	-0,121	-0,115
328,027	93,723	-0,229	-0,178
329,041	-200,000	-0,052	-0,228
330,056	182,404	-0,066	-0,067
331,070	237,754	-0,065	0,074
332,085	-98,173	-0,223	0,039
333,100	252,565	-0,084	-0,099
334,114	180,758	-0,136	-0,138
335,129	-154,815	-0,269	-0,012
336,143	-200,000	-0,007	-0,027
337,158	-200,000	-0,027	-0,110
338,173	70,439	-0,140	-0,100
339,187	50,651	-0,111	-0,072
340,202	427,298	-0,056	-0,083
341,216	-97,281	-0,115	-0,020
342,231	-74,345	-0,166	-0,041
343,246	174,063	-0,126	-0,125
344,260	125,189	-0,027	-0,023
345,275	114,952	-0,122	0,102
346,289	-113,603	-0,049	-0,007
347,304	-81,637	-0,286	-0,064
348,319	-120,776	-0,167	-0,019
349,333	210,682	-0,124	-0,134
350,348	157,238	-0,165	-0,157
351,362	8,846	-0,187	-0,097
352,377	70,807	-0,102	-0,072
353,392	160,671	-0,172	-0,165
354,406	-96,795	-0,036	0,006
355,421	209,090	1313,001	1414,755
356,435	160,911	1473,533	1415,262
