DTS Sentinel unit serial number:	SN410029Multiplexer serial number:	ORYXHardware model number:	OX2-SRSoftware version number:	ORYX F/W v4,00 Oryx Data Collector v3.7.2.0data status	okinstallation	B3 Nyhavnadifferential loss correction	single-endedforward channel	channel 1reverse channel	N/Adate	2023/12/04time	20:07:30forward acquisition time	300,00reverse acquisition time	0,00gamma	499,1914k internal	0,3200k external	0,3200temperature offset calibration	1,0000default loss term (dB/km)	0,3820temperature slope calibration	1,0000multiplexer offset coefficient	1,0000multiplexer slope coefficient	1,0000fibre end	0,00T internal ref (°C)	14,48T ext. ref 1 (°C)	-0,64T ext. ref 2 (°C)	-0,66length (m)	temperature (°C)	Stokes	anti-Stokes-744,400	800,000	-0,152	-0,310
-743,385	-200,000	0,013	0,309
-742,371	107,835	-0,204	-0,177
-741,356	317,045	0,178	0,245
-740,342	108,336	-0,266	-0,231
-739,327	-200,000	-0,014	0,350
-738,312	14,988	-0,238	-0,135
-737,298	-200,000	0,021	0,221
-736,283	146,171	-0,234	-0,228
-735,269	-200,000	-0,029	0,443
-734,254	198,823	-0,223	-0,249
-733,239	-63,570	-0,253	0,075
-732,225	235,524	-0,193	-0,233
-731,210	213,671	0,094	0,108
-730,196	32,433	-0,082	0,051
-729,181	-159,557	-0,076	0,003
-728,167	486,894	-0,050	0,083
-727,152	-200,000	-0,004	-0,066
-726,137	62,761	-0,140	0,102
-725,123	510,565	-0,045	-0,076
-724,108	-98,127	0,017	-0,003
-723,094	800,000	-0,019	-0,051
-722,079	540,116	0,020	-0,035
-721,064	800,000	-0,004	0,012
-720,050	-200,000	0,008	-0,039
-719,035	-59,276	-0,092	-0,029
-718,021	-200,000	0,008	-0,106
-717,006	-200,000	0,006	-0,103
-715,991	-40,196	-0,211	-0,079
-714,977	-200,000	0,009	-0,032
-713,962	305,924	0,036	0,048
-712,948	276,153	-0,053	-0,068
-711,933	800,000	-0,033	-0,076
-710,918	-176,046	0,016	0,000
-709,904	-200,000	0,015	-0,087
-708,889	-200,000	0,018	-0,120
-707,875	542,185	-0,036	-0,063
-706,860	58,216	0,068	-0,048
-705,845	279,587	-0,032	0,041
-704,831	792,893	0,070	0,141
-703,816	358,265	-0,088	-0,128
-702,802	-142,638	-0,007	0,001
-701,787	521,161	-0,047	0,080
-700,772	391,340	-0,057	-0,086
-699,758	800,000	0,068	-0,193
-698,743	-200,000	0,001	-0,034
-697,729	-54,734	0,111	0,036
-696,714	800,000	0,015	0,042
-695,699	-200,000	-0,009	0,126
-694,685	183,558	0,037	0,040
-693,670	208,693	-0,070	-0,079
-692,656	150,214	0,070	-0,069
-691,641	-200,000	0,022	-0,147
-690,627	731,613	-0,053	0,104
-689,612	-164,330	-0,085	-0,003
-688,597	195,802	-0,071	-0,079
-687,583	-200,000	0,004	-0,182
-686,568	-82,199	-0,134	-0,031
-685,554	-200,000	0,002	-0,046
-684,539	39,651	0,083	0,054
-683,524	88,817	0,037	-0,030
-682,510	800,000	0,009	0,027
-681,495	-131,877	-0,092	0,009
-680,481	-200,000	-0,012	-0,111
-679,466	409,310	-0,078	-0,120
-678,451	-107,172	-0,137	-0,022
-677,437	800,000	0,025	-0,076
-676,422	-57,484	0,081	0,026
-675,408	-200,000	-0,003	0,063
-674,393	-200,000	0,027	0,098
-673,378	65,420	-0,079	0,058
-672,364	53,329	-0,093	0,064
-671,349	-200,000	0,004	-0,109
-670,335	-200,000	-0,002	-0,133
-669,320	800,000	0,020	0,044
-668,305	-200,000	-0,003	0,048
-667,291	154,218	-0,039	0,038
-666,276	453,879	-0,020	-0,032
-665,262	-200,000	-0,017	-0,133
-664,247	269,821	-0,029	-0,037
-663,232	800,000	-0,034	-0,086
-662,218	184,973	0,041	0,045
-661,203	-200,000	0,013	-0,160
-660,189	2,288	0,046	0,024
-659,174	234,348	0,013	-0,015
-658,159	-200,000	0,008	-0,075
-657,145	-9,128	-0,123	0,059
-656,130	72,491	-0,077	-0,058
-655,116	800,000	-0,007	0,015
-654,101	88,221	0,077	0,062
-653,086	800,000	0,050	0,127
-652,072	265,572	0,031	0,039
-651,057	-70,199	0,011	-0,003
-650,043	157,251	-0,049	-0,049
-649,028	46,409	-0,061	-0,041
-648,014	5,724	-0,148	-0,079
-646,999	-200,000	0,003	-0,035
-645,984	68,514	-0,099	-0,073
-644,970	-76,236	-0,087	0,022
-643,955	552,222	-0,061	-0,107
-642,941	18,801	-0,083	-0,048
-641,926	54,417	0,058	-0,041
-640,911	35,257	-0,095	-0,060
-639,897	334,715	0,152	-0,214
-638,882	-184,077	0,006	0,000
-637,868	182,115	0,050	0,053
-636,853	-194,078	0,087	-0,001
-635,838	-72,285	0,048	-0,013
-634,824	495,822	-0,057	-0,095
-633,809	118,698	0,112	0,100
-632,795	-150,982	0,116	-0,006
-631,780	-53,688	-0,066	0,022
-630,765	370,106	-0,046	-0,068
-629,751	-100,861	-0,026	0,005
-628,736	488,480	-0,006	-0,010
-627,722	-200,000	-0,008	0,033
-626,707	-200,000	-0,008	-0,117
-625,692	100,304	0,071	0,060
-624,678	109,544	-0,048	0,042
-623,663	-56,901	-0,179	0,057
-622,649	298,866	-0,073	-0,097
-621,634	-200,000	-0,002	0,035
-620,619	-122,579	-0,116	0,013
-619,605	-7,132	-0,042	-0,021
-618,590	294,154	0,071	0,094
-617,576	800,000	-0,017	-0,035
-616,561	62,572	-0,072	-0,052
-615,546	-25,039	0,044	0,019
-614,532	-200,000	0,018	-0,199
-613,517	-112,421	-0,041	-0,006
-612,503	6,640	0,184	-0,099
-611,488	380,792	0,058	0,086
-610,474	3,514	-0,124	-0,065
-609,459	174,981	-0,054	-0,057
-608,444	5,595	-0,134	0,071
-607,430	-121,247	-0,073	-0,009
-606,415	284,401	-0,108	0,141
-605,401	-70,211	0,070	0,019
-604,386	-97,194	-0,093	0,017
-603,371	-200,000	0,001	0,082
-602,357	-200,000	0,000	0,001
-601,342	50,157	0,110	-0,075
-600,328	176,758	-0,074	0,078
-599,313	249,316	0,115	-0,142
-598,298	-85,525	0,041	0,009
-597,284	-136,963	-0,114	-0,009
-596,269	-92,480	0,078	0,016
-595,255	-200,000	0,016	0,063
-594,240	800,000	0,019	-0,055
-593,225	369,549	-0,118	-0,173
-592,211	-37,502	-0,066	0,025
-591,196	-200,000	-0,020	0,129
-590,182	-76,185	0,021	-0,005
-589,167	389,328	0,046	-0,069
-588,152	517,466	0,022	-0,037
-587,138	-104,263	-0,115	-0,019
-586,123	-122,480	-0,036	-0,004
-585,109	-200,000	-0,014	-0,057
-584,094	-200,000	-0,002	0,027
-583,079	800,000	0,060	0,179
-582,065	-50,406	0,094	0,032
-581,050	-200,000	0,005	-0,023
-580,036	-200,000	0,050	-0,166
-579,021	800,000	-0,055	-0,120
-578,006	-38,490	-0,116	0,044
-576,992	505,428	-0,016	-0,027
-575,977	-114,662	0,252	-0,035
-574,963	-200,000	0,008	0,097
-573,948	-200,000	0,026	0,103
-572,934	-200,000	0,043	-0,141
-571,919	322,095	0,062	-0,086
-570,904	53,020	0,053	-0,036
-569,890	800,000	-0,056	-0,136
-568,875	166,821	0,046	-0,047
-567,861	682,668	0,015	-0,028
-566,846	55,066	-0,074	0,051
-565,831	800,000	0,021	0,043
-564,817	-41,932	-0,170	0,063
-563,802	-200,000	-0,022	-0,075
-562,788	12,574	-0,092	0,051
-561,773	-200,000	-0,004	0,064
-560,758	-154,304	0,104	-0,005
-559,744	372,480	-0,058	-0,085
-558,729	172,775	0,096	0,100
-557,715	-197,172	-0,113	-0,001
-556,700	424,119	-0,033	-0,051
-555,685	-200,000	-0,062	-0,217
-554,671	58,507	-0,056	-0,040
-553,656	800,000	0,049	-0,111
-552,642	-68,764	-0,175	0,049
-551,627	-200,000	0,007	-0,108
-550,612	-72,884	-0,058	-0,015
-549,598	-84,666	-0,149	0,034
-548,583	-200,000	0,037	-0,137
-547,569	-22,131	-0,064	0,028
-546,554	-111,770	0,021	0,003
-545,539	118,232	-0,080	-0,071
-544,525	-56,368	-0,064	0,020
-543,510	524,103	-0,039	-0,066
-542,496	-200,000	-0,033	-0,208
-541,481	-200,000	-0,045	-0,146
-540,466	800,000	-0,012	-0,034
-539,452	-200,000	-0,037	0,161
-538,437	463,490	0,071	0,115
-537,423	-48,486	0,074	-0,026
-536,408	-68,734	0,058	0,016
-535,393	800,000	0,077	0,212
-534,379	-78,117	-0,048	0,012
-533,364	63,029	-0,104	-0,075
-532,350	327,241	-0,041	-0,057
-531,335	-64,323	-0,196	0,057
-530,321	-200,000	-0,013	-0,047
-529,306	800,000	-0,020	0,046
-528,291	-200,000	-0,011	-0,071
-527,277	-106,521	-0,053	-0,008
-526,262	-200,000	-0,036	-0,141
-525,248	-154,977	0,042	0,002
-524,233	231,601	0,088	-0,104
-523,218	184,206	0,042	0,045
-522,204	-29,923	0,061	-0,025
-521,189	21,126	-0,063	-0,037
-520,175	44,965	0,097	-0,064
-519,160	-93,046	-0,141	-0,028
-518,145	-29,822	-0,086	-0,035
-517,131	800,000	0,024	0,054
-516,116	-200,000	-0,052	0,170
-515,102	115,832	-0,084	-0,074
-514,087	-200,000	0,009	-0,106
-513,072	42,176	-0,162	-0,106
-512,058	-46,817	0,034	-0,012
-511,043	15,862	0,102	-0,058
-510,029	-200,000	-0,006	0,057
-509,014	238,757	0,026	-0,031
-507,999	-200,000	-0,019	-0,084
-506,985	368,126	-0,041	0,060
-505,970	-159,256	-0,079	-0,003
-504,956	-91,172	0,087	0,018
-503,941	-103,521	0,042	0,007
-502,926	15,593	0,028	-0,016
-501,912	-117,703	0,067	0,009
-500,897	-200,000	0,016	0,102
-499,883	92,154	-0,072	-0,058
-498,868	800,000	-0,007	0,017
-497,853	-200,000	-0,022	-0,116
-496,839	800,000	0,017	-0,040
-495,824	-150,732	0,076	0,004
-494,810	800,000	-0,009	0,020
-493,795	-115,272	0,108	-0,014
-492,781	-135,646	0,081	0,007
-491,766	139,845	-0,076	-0,072
-490,751	-200,000	0,007	-0,094
-489,737	-141,929	0,166	-0,012
-488,722	-22,448	-0,115	0,050
-487,708	-200,000	-0,006	0,121
-486,693	179,721	0,068	0,072
-485,678	399,745	-0,029	0,044
-484,664	-200,000	0,016	0,070
-483,649	511,402	-0,039	-0,065
-482,635	-200,000	-0,002	-0,109
-481,620	-78,217	0,119	-0,029
-480,605	-200,000	-0,011	0,148
-479,591	800,000	0,011	0,034
-478,576	800,000	0,021	0,046
-477,562	122,912	-0,034	-0,031
-476,547	-200,000	-0,002	0,015
-475,532	-200,000	0,011	-0,087
-474,518	55,042	-0,055	0,038
-473,503	-55,003	0,128	0,041
-472,489	800,000	0,070	0,149
-471,474	800,000	0,041	0,088
-470,459	-90,856	0,056	-0,011
-469,445	-200,000	-0,038	-0,128
-468,430	-91,532	-0,124	-0,025
-467,416	100,399	-0,074	-0,061
-466,401	-54,373	-0,064	-0,021
-465,386	-200,000	-0,025	0,112
-464,372	1,381	-0,095	-0,049
-463,357	0,133	0,043	-0,022
-462,343	-31,322	-0,155	-0,062
-461,328	-200,000	-0,002	-0,113
-460,313	461,410	0,022	0,036
-459,299	-200,000	0,007	0,140
-458,284	-114,885	-0,086	0,012
-457,270	800,000	0,028	-0,060
-456,255	800,000	-0,023	0,047
-455,241	800,000	0,042	-0,120
-454,226	199,187	0,024	0,027
-453,211	475,360	-0,027	-0,044
-452,197	186,625	-0,052	0,055
-451,182	-13,784	0,134	0,062
-450,168	800,000	-0,044	0,117
-449,153	800,000	0,018	0,056
-448,138	800,000	-0,050	-0,110
-447,124	-200,000	0,013	-0,089
-446,109	315,314	0,018	-0,025
-445,095	-69,124	0,119	0,033
-444,080	-65,501	0,207	0,059
-443,065	-8,382	-0,081	-0,039
-442,051	136,913	0,087	-0,081
-441,036	-72,624	-0,177	0,047
-440,022	338,549	0,039	-0,054
-439,007	83,540	-0,095	0,074
-437,992	-200,000	-0,011	-0,086
-436,978	-200,000	0,020	-0,067
-435,963	355,564	-0,101	0,145
-434,949	-200,000	-0,009	0,070
-433,934	-200,000	-0,012	0,096
-432,919	-124,465	-0,028	0,003
-431,905	1,678	0,144	0,074
-430,890	-44,503	0,119	0,043
-429,876	-36,472	0,146	0,056
-428,861	-200,000	0,017	0,195
-427,846	-100,312	-0,080	-0,014
-426,832	-87,276	-0,164	0,035
-425,817	800,000	0,029	-0,065
-424,803	-7,383	0,035	0,017
-423,788	164,731	0,053	0,054
-422,773	-77,481	0,155	0,038
-421,759	-79,930	0,133	0,032
-420,744	-141,877	0,122	-0,009
-419,730	-102,588	-0,174	-0,030
-418,715	-21,663	0,139	-0,061
-417,701	-171,508	0,128	-0,003
-416,686	108,137	0,173	-0,148
-415,671	-200,000	-0,011	-0,052
-414,657	-200,000	0,019	0,082
-413,642	800,000	0,014	0,033
-412,628	800,000	0,052	-0,130
-411,613	19,883	-0,023	-0,013
-410,598	659,651	-0,043	0,079
-409,584	727,894	0,023	-0,044
-408,569	271,391	-0,032	0,041
-407,555	69,196	-0,063	0,047
-406,540	-200,000	0,003	0,067
-405,525	-87,128	0,098	0,021
-404,511	392,827	-0,014	-0,021
-403,496	742,094	0,040	-0,077
-402,482	-200,000	-0,002	-0,078
-401,467	6,186	-0,021	0,011
-400,452	-200,000	-0,010	-0,132
-399,438	-200,000	-0,001	-0,026
-398,423	82,925	-0,040	-0,032
-397,409	-124,481	-0,011	-0,001
-396,394	800,000	-0,019	0,038
-395,379	56,125	-0,023	-0,016
-394,365	-4,710	0,063	0,031
-393,350	220,104	0,071	0,081
-392,336	-200,000	-0,002	-0,043
-391,321	-200,000	-0,025	-0,117
-390,306	-45,896	-0,174	-0,061
-389,292	-69,812	0,106	0,029
-388,277	127,500	0,017	-0,016
-387,263	178,483	0,049	0,051
-386,248	-200,000	-0,017	0,076
-385,233	49,250	0,106	0,071
-384,219	-200,000	-0,007	0,175
-383,204	163,930	-0,039	-0,039
-382,190	-27,831	-0,093	0,038
-381,175	48,829	0,067	-0,045
-380,160	-61,641	0,204	0,061
-379,146	-79,854	-0,024	0,006
-378,131	29,712	0,038	-0,023
-377,117	281,179	0,030	0,038
-376,102	-147,032	-0,138	-0,008
-375,088	221,723	0,018	0,021
-374,073	39,082	0,112	-0,072
-373,058	-200,000	0,004	0,159
-372,044	205,903	0,110	-0,123
-371,029	170,740	-0,102	0,105
-370,015	144,603	0,120	0,115
-369,000	-200,000	-0,007	-0,062
-367,985	-136,304	-0,144	-0,012
-366,971	207,444	0,072	-0,081
-365,956	17,126	-0,068	-0,039
-364,942	163,646	0,095	0,096
-363,927	66,357	0,008	0,006
-362,912	288,676	-0,035	0,046
-361,898	-200,000	0,006	0,124
-360,883	-200,000	-0,032	-0,174
-359,869	458,308	-0,049	-0,078
-358,854	-145,729	0,049	0,003
-357,839	131,522	-0,048	0,044
-356,825	-150,668	0,066	-0,004
-355,810	-187,828	0,081	0,001
-354,796	-200,000	-0,001	0,080
-353,781	97,569	-0,044	0,036
-352,766	568,117	-0,087	-0,152
-351,752	430,071	-0,017	-0,026
-350,737	67,358	0,097	0,071
-349,723	36,475	0,163	0,103
-348,708	-83,948	-0,120	0,027
-347,693	116,250	0,105	0,092
-346,679	-200,000	-0,006	-0,043
-345,664	-78,525	-0,048	-0,012
-344,650	-53,147	-0,101	0,033
-343,635	-3,848	0,079	0,039
-342,620	-142,561	0,043	-0,003
-341,606	-200,000	-0,005	0,090
-340,591	-108,928	0,097	0,015
-339,577	-97,261	0,067	0,012
-338,562	-200,000	0,014	-0,068
-337,548	15,690	0,101	0,057
-336,533	58,734	0,075	0,053
-335,518	-200,000	-0,012	0,042
-334,504	-115,907	0,082	0,011
-333,489	222,943	-0,097	0,112
-332,475	438,031	-0,101	-0,159
-331,460	-200,000	-0,025	-0,155
-330,445	144,046	0,026	0,025
-329,431	-200,000	-0,017	0,068
-328,416	800,000	-0,078	0,227
-327,402	102,353	0,040	-0,033
-326,387	75,558	0,069	0,052
-325,372	-70,197	-0,037	0,010
-324,358	-20,892	-0,092	0,040
-323,343	-136,806	0,092	0,007
-322,329	197,445	-0,102	-0,112
-321,314	-200,000	0,012	0,179
-320,299	-200,000	0,007	0,067
-319,285	45,607	0,117	0,077
-318,270	-200,000	0,032	0,128
-317,256	85,271	-0,072	-0,057
-316,241	394,403	-0,059	-0,088
-315,226	246,236	-0,059	-0,072
-314,212	-104,125	0,227	-0,037
-313,197	-200,000	0,000	0,010
-312,183	25,279	0,082	0,048
-311,168	-200,000	-0,001	0,006
-310,153	114,740	0,043	-0,038
-309,139	171,669	-0,062	0,064
-308,124	-145,290	-0,014	0,001
-307,110	118,175	0,118	0,104
-306,095	-58,523	0,080	0,025
-305,080	609,760	-0,010	-0,018
-304,066	223,767	0,035	0,040
-303,051	345,590	-0,090	-0,127
-302,037	505,572	0,075	-0,124
-301,022	-70,538	-0,101	-0,027
-300,008	-200,000	-0,019	0,081
-298,993	-200,000	0,011	0,053
-297,978	-5,839	-0,077	-0,037
-296,964	-200,000	-0,010	-0,051
-295,949	-161,369	-0,157	-0,006
-294,935	256,109	-0,097	0,120
-293,920	-150,413	0,129	0,007
-292,905	713,695	0,046	-0,088
-291,891	52,928	-0,070	-0,048
-290,876	800,000	-0,040	-0,091
-289,862	35,430	0,104	0,065
-288,847	-89,985	-0,014	0,003
-287,832	45,466	-0,100	0,066
-286,818	-67,554	-0,116	-0,032
-285,803	424,705	0,017	-0,027
-284,789	-200,000	0,059	0,195
-283,774	429,215	-0,026	0,041
-282,759	49,925	0,010	0,007
-281,745	84,502	0,084	-0,066
-280,730	118,596	-0,042	0,037
-279,716	-200,000	0,000	-0,064
-278,701	478,683	0,030	-0,049
-277,686	-97,450	-0,079	0,015
-276,672	700,233	0,030	-0,056
-275,657	-89,327	0,045	-0,009
-274,643	126,321	-0,074	0,067
-273,628	-200,000	0,003	0,029
-272,613	6,628	-0,100	-0,053
-271,599	-67,586	0,046	0,013
-270,584	-200,000	0,011	0,190
-269,570	420,110	-0,025	-0,038
-268,555	-200,000	-0,005	-0,093
-267,540	800,000	-0,043	-0,098
-266,526	-168,207	0,088	-0,002
-265,511	114,655	-0,079	-0,069
-264,497	367,071	-0,028	-0,041
-263,482	588,952	0,041	-0,073
-262,467	81,201	-0,059	-0,045
-261,453	-200,000	0,013	0,054
-260,438	537,480	-0,092	-0,156
-259,424	218,338	0,081	-0,092
-258,409	800,000	-0,034	-0,082
-257,395	78,263	0,024	-0,018
-256,380	800,000	-0,049	-0,129
-255,365	-117,727	-0,145	0,018
-254,351	-102,223	-0,074	0,013
-253,336	-48,688	-0,106	0,036
-252,322	800,000	-0,052	0,105
-251,307	-200,000	0,033	-0,149
-250,292	-117,104	0,126	0,016
-249,278	-72,426	-0,170	0,045
-248,263	-200,000	-0,010	-0,047
-247,249	-109,836	-0,072	-0,011
-246,234	800,000	-0,044	-0,099
-245,219	-200,000	0,004	0,056
-244,205	800,000	0,056	-0,113
-243,190	5,071	-0,150	-0,078
-242,176	-200,000	-0,020	0,094
-241,161	219,295	0,058	0,066
-240,146	-76,650	0,087	-0,022
-239,132	-21,824	-0,036	-0,016
-238,117	104,977	-0,148	0,124
-237,103	234,632	0,007	0,009
-236,088	-75,647	-0,029	0,007
-235,073	-200,000	-0,013	-0,070
-234,059	64,610	0,058	-0,042
-233,044	-16,119	0,055	0,025
-232,030	800,000	0,057	0,135
-231,015	800,000	0,057	0,159
-230,000	47,889	-0,058	0,039
-228,986	39,863	-0,011	0,007
-227,971	120,508	0,071	-0,063
-226,957	-70,564	0,114	0,030
-225,942	419,462	-0,033	0,050
-224,927	97,008	-0,095	0,078
-223,913	1,846	-0,073	-0,037
-222,898	-200,000	0,025	-0,107
-221,884	-3,471	-0,076	0,038
-220,869	-61,486	0,116	-0,035
-219,855	800,000	-0,051	0,144
-218,840	115,695	0,110	-0,096
-217,825	-200,000	-0,011	0,116
-216,811	35,765	0,125	0,078
-215,796	-80,997	-0,070	-0,016
-214,782	-68,792	0,093	0,026
-213,767	87,895	0,121	0,095
-212,752	-200,000	-0,007	0,066
-211,738	-80,293	0,082	-0,019
-210,723	-200,000	0,016	0,115
-209,709	-122,695	-0,224	-0,026
-208,694	-36,115	0,034	-0,013
-207,679	194,278	0,011	0,012
-206,665	-79,149	0,128	-0,031
-205,650	638,515	0,091	0,166
-204,636	69,403	0,037	0,027
-203,621	27,500	0,123	0,073
-202,606	-200,000	-0,011	-0,075
-201,592	-158,738	-0,035	0,001
-200,577	-86,293	0,086	0,019
-199,563	800,000	0,024	-0,052
-198,548	193,317	0,077	0,084
-197,533	800,000	0,075	0,152
-196,519	34,285	-0,072	0,045
-195,504	-92,874	-0,051	0,010
-194,490	-29,883	-0,071	-0,029
-193,475	-200,000	-0,023	0,094
-192,460	-59,668	0,066	-0,020
-191,446	-6,937	-0,078	0,038
-190,431	-79,740	0,123	0,029
-189,417	-102,170	0,040	0,007
-188,402	-200,000	-0,020	0,072
-187,387	-200,000	-0,005	-0,045
-186,373	329,674	0,030	-0,042
-185,358	76,175	-0,032	0,024
-184,344	264,336	-0,049	0,061
-183,329	49,072	0,078	0,052
-182,315	55,252	0,036	0,025
-181,300	237,022	-0,041	-0,048
-180,285	112,801	0,101	0,087
-179,271	251,348	-0,089	0,108
-178,256	-85,556	-0,190	0,042
-177,242	664,907	-0,058	0,106
-176,227	75,233	-0,076	0,057
-175,212	800,000	0,007	-0,014
-174,198	-200,000	0,022	0,117
-173,183	800,000	-0,071	-0,163
-172,169	-200,000	-0,028	-0,160
-171,154	397,675	-0,053	-0,079
-170,139	32,009	0,074	0,045
-169,125	800,000	0,047	0,128
-168,110	141,642	-0,029	0,027
-167,096	-6,374	0,068	-0,033
-166,081	101,104	-0,057	0,047
-165,066	84,439	0,056	-0,043
-164,052	17,526	0,183	0,103
-163,037	353,390	0,039	-0,055
-162,023	-125,221	0,143	0,015
-161,008	48,856	0,082	-0,055
-159,993	-88,598	-0,045	-0,009
-158,979	-48,572	0,077	-0,026
-157,964	800,000	0,055	-0,123
-156,950	-111,884	-0,096	0,014
-155,935	-137,106	-0,040	-0,003
-154,920	0,030	0,014	0,007
-153,906	-200,000	0,002	0,098
-152,891	-150,457	0,095	-0,005
-151,877	325,187	-0,066	-0,090
-150,862	136,471	0,026	-0,024
-149,847	245,097	0,069	0,083
-148,833	-200,000	-0,018	0,061
-147,818	-92,996	0,161	0,032
-146,804	47,964	0,051	0,034
-145,789	-200,000	0,028	0,105
-144,775	146,359	0,086	-0,082
-143,760	330,611	0,033	0,046
-142,745	-124,502	0,106	0,012
-141,731	-71,968	0,070	0,018
-140,716	123,689	0,043	-0,038
-139,702	-77,827	0,144	-0,035
-138,687	142,774	0,028	-0,026
-137,672	-200,000	-0,005	-0,047
-136,658	713,715	-0,068	-0,128
-135,643	167,102	-0,139	-0,140
-134,629	-148,741	-0,056	-0,003
-133,614	30,286	-0,133	0,080
-132,599	379,029	-0,078	-0,114
-131,585	-100,710	0,031	0,005
-130,570	79,178	0,028	-0,021
-129,556	-123,951	-0,111	0,012
-128,541	494,206	-0,043	-0,070
-127,526	-96,124	-0,083	0,015
-126,512	-147,900	-0,037	-0,002
-125,497	-200,000	-0,008	0,090
-124,483	-18,280	0,044	0,019
-123,468	-38,320	0,079	-0,030
-122,453	800,000	0,056	-0,115
-121,439	12,958	0,048	-0,026
-120,424	-110,203	-0,141	0,021
-119,410	636,899	0,014	0,025
-118,395	-56,031	0,105	0,033
-117,380	58,389	-0,042	-0,029
-116,366	322,639	-0,086	0,116
-115,351	-200,000	0,014	0,064
-114,337	751,605	-0,015	0,029
-113,322	329,129	0,067	-0,091
-112,307	-200,000	-0,010	0,083
-111,293	67,211	0,036	-0,026
-110,278	-200,000	-0,005	0,045
-109,264	9,315	-0,081	0,043
-108,249	-73,130	-0,046	-0,012
-107,234	-200,000	0,029	-0,113
-106,220	101,923	-0,114	-0,094
-105,205	40,632	-0,077	0,049
-104,191	-200,000	-0,007	0,067
-103,176	133,391	-0,053	0,049
-102,162	14,017	-0,122	-0,067
-101,147	375,104	-0,026	-0,038
-100,132	220,555	-0,094	0,107
-99,118	751,877	0,014	-0,027
-98,103	535,565	0,053	0,090
-97,089	-112,655	0,052	0,007
-96,074	-113,674	0,064	0,009
-95,059	-117,517	-0,076	-0,010
-94,045	-200,000	-0,019	-0,120
-93,030	108,816	-0,046	0,039
-92,016	656,948	0,037	-0,068
-91,001	61,175	-0,065	0,046
-89,986	30,158	0,074	-0,045
-88,972	299,497	-0,057	0,075
-87,957	-200,000	0,004	0,033
-86,943	-200,000	0,038	0,144
-85,928	-124,333	-0,101	-0,011
-84,913	-200,000	0,014	-0,057
-83,899	252,029	0,024	0,029
-82,884	800,000	0,047	-0,093
-81,870	209,358	0,077	-0,085
-80,855	-200,000	-0,018	0,073
-79,840	-61,249	-0,112	0,033
-78,826	350,445	-0,050	-0,071
-77,811	58,888	-0,139	0,097
-76,797	46,795	0,106	-0,070
-75,782	-200,000	-0,003	-0,075
-74,767	57,741	0,128	0,089
-73,753	-111,848	-0,057	-0,008
-72,738	313,654	-0,045	0,060
-71,724	30,392	0,021	0,013
-70,709	800,000	-0,019	0,038
-69,694	212,301	0,070	-0,078
-68,680	-200,000	0,025	-0,146
-67,665	50,199	0,071	0,048
-66,651	-200,000	0,015	0,177
-65,636	673,968	0,035	-0,064
-64,622	-110,087	-0,105	0,015
-63,607	800,000	-0,020	0,045
-62,592	237,942	0,033	-0,038
-61,578	641,214	-0,047	0,085
-60,563	-119,069	0,042	-0,005
-59,549	-93,237	-0,142	0,028
-58,534	-30,845	-1,484	-0,591
-57,519	336,092	-1,565	-2,156
-56,505	-200,000	-0,508	-4,577
-55,490	194,990	0,975	1,049
-54,476	800,000	4,876	11,408
-53,461	-200,000	18,443	298,564
-52,446	800,000	732,307	2261,552
-51,432	559,178	1648,645	2829,132
-50,417	78,877	1668,299	1262,994
-49,403	22,425	1541,394	890,024
-48,388	16,362	1464,569	816,246
-47,373	17,783	1454,543	817,480
-46,359	17,033	1444,706	808,328
-45,344	14,646	1440,184	794,350
-44,330	14,576	1437,951	792,754
-43,315	14,585	1436,529	791,980
-42,300	14,647	1434,690	791,229
-41,286	14,587	1433,845	790,449
-40,271	14,529	1432,551	789,427
-39,257	14,551	1431,169	788,740
-38,242	14,617	1429,867	788,301
-37,227	14,612	1428,645	787,577
-36,213	14,589	1427,469	786,786
-35,198	14,535	1426,421	785,923
-34,184	14,626	1425,138	785,614
-33,169	14,574	1423,900	784,654
-32,154	14,639	1422,717	784,276
-31,140	14,583	1421,509	783,319
-30,125	14,593	1420,660	782,865
-29,111	14,585	1419,525	782,173
-28,096	14,565	1418,315	781,380
-27,082	14,554	1417,042	780,593
-26,067	14,516	1416,205	779,926
-25,052	14,532	1414,963	779,282
-24,038	14,496	1414,297	778,716
-23,023	14,479	1413,045	777,918
-22,009	14,472	1412,108	777,339
-20,994	14,474	1411,180	776,804
-19,979	14,462	1410,234	776,199
-18,965	14,464	1409,319	775,672
-17,950	14,428	1408,314	774,919
-16,936	14,469	1407,294	774,521
-15,921	14,424	1406,289	773,726
-14,906	14,359	1405,627	773,026
-13,892	14,433	1404,513	772,729
-12,877	14,398	1403,627	772,049
-11,863	14,410	1402,732	771,582
-10,848	14,393	1401,917	771,023
-9,833	14,377	1401,055	770,446
-8,819	14,321	1400,258	769,715
-7,804	14,322	1399,118	769,063
-6,790	14,347	1398,189	768,636
-5,775	14,309	1397,228	767,903
-4,760	14,259	1396,358	767,161
-3,746	14,335	1395,230	766,862
-2,731	14,366	1394,429	766,536
-1,717	14,292	1393,713	765,769
-0,702	14,304	1391,952	764,829
0,313	18,123	1310,060	737,521
1,327	34,405	705,990	435,157
2,342	52,707	124,149	83,819
3,356	3,219	16,649	8,543
4,371	9,277	3,074	1,639
5,386	-13,633	0,543	0,248
6,400	-200,000	-0,015	0,202
7,415	165,766	-0,260	-0,261
8,429	10,267	-0,266	-0,143
9,444	388,664	-0,200	-0,293
10,459	195,057	-0,214	-0,230
11,473	-56,220	-0,412	-0,129
12,488	125,447	-0,231	-0,206
13,502	284,386	-0,304	-0,387
14,517	80,787	-0,250	-0,190
15,531	-36,123	-0,344	-0,131
16,546	65,177	-0,356	-0,254
17,561	26,848	-0,402	-0,238
18,575	271,218	-0,217	-0,271
19,590	114,309	-0,179	-0,154
20,604	-78,288	-0,266	-0,064
21,619	191,508	-0,467	-0,497
22,634	31,744	-0,355	-0,215
23,648	48,574	-0,307	-0,203
24,663	81,005	-0,420	-0,320
25,677	116,152	-0,295	-0,255
26,692	197,730	-0,316	-0,341
27,707	82,290	-0,363	-0,278
28,721	100,748	-0,292	-0,240
29,736	61,372	-0,461	-0,323
30,750	29,698	-0,390	-0,234
31,765	94,774	-0,379	-0,304
32,780	198,779	-0,318	-0,344
33,794	269,799	-0,235	-0,292
34,809	61,018	-0,397	-0,278
35,823	56,609	-0,370	-0,253
36,838	384,080	-0,242	-0,352
37,853	96,642	-0,339	-0,274
38,867	46,969	-0,510	-0,334
39,882	44,935	-0,330	-0,214
40,896	125,882	-0,247	-0,220
41,911	368,524	-0,234	-0,334
42,926	114,825	-0,370	-0,318
43,940	120,233	-0,227	-0,199
44,955	118,060	-0,309	-0,268
45,969	152,883	-0,346	-0,334
46,984	158,545	-0,264	-0,258
47,999	15,511	-0,374	-0,207
49,013	82,004	-0,316	-0,241
50,028	-17,520	-0,428	-0,189
51,042	144,381	-0,270	-0,254
52,057	60,807	-0,246	-0,172
53,071	-31,563	-0,408	-0,161
54,086	5,401	-0,230	-0,119
55,101	170,094	-0,293	-0,295
56,115	74,881	-0,361	-0,267
57,130	58,578	-0,406	-0,281
58,144	55,592	-0,440	-0,299
59,159	331,483	-0,244	-0,333
60,174	131,383	-0,378	-0,342
61,188	385,821	-0,244	-0,355
62,203	-47,707	-0,442	-0,150
63,217	-83,961	-0,335	-0,074
64,232	-50,884	-0,377	-0,124
65,247	142,750	-0,311	-0,291
66,261	60,331	-0,429	-0,299
67,276	-9,671	-0,405	-0,189
68,290	333,188	-0,201	-0,275
69,305	800,000	-0,134	-0,300
70,320	-31,031	-0,351	-0,139
71,334	-12,714	-0,292	-0,134
72,349	25,769	-0,345	-0,202
73,363	127,126	-0,279	-0,249
74,378	14,346	-0,427	-0,233
75,393	444,070	-0,189	-0,293
76,407	9,567	-0,305	-0,162
77,422	62,179	-0,309	-0,216
78,436	-4,521	-0,323	-0,156
79,451	23,796	-0,394	-0,228
80,466	49,632	-0,294	-0,194
81,480	9,922	-0,218	-0,116
82,495	-18,643	-0,455	-0,199
83,509	124,917	-0,334	-0,296
84,524	16,598	-0,306	-0,169
85,539	-102,681	-0,263	-0,044
86,553	800,000	-0,116	-0,250
87,568	212,161	-0,296	-0,328
88,582	-1,280	-0,334	-0,165
89,597	-5,280	-0,333	-0,160
90,611	122,229	-0,197	-0,173
91,626	269,676	-0,251	-0,310
92,641	226,786	-0,215	-0,245
93,655	-150,356	-0,361	-0,019
94,670	50,123	-0,333	-0,220
95,684	4,335	-0,293	-0,150
96,699	1,019	-0,345	-0,173
97,714	142,673	-0,303	-0,283
98,728	20,731	-0,290	-0,164
99,743	125,207	-0,244	-0,216
100,757	56,393	-0,258	-0,175
101,772	36,200	-0,259	-0,160
102,787	-37,265	-0,451	-0,168
103,801	74,630	-0,323	-0,238
104,816	161,929	-0,115	-0,113
105,830	95,151	-0,262	-0,209
106,845	94,959	-0,231	-0,184
107,860	-35,949	-0,216	-0,081
108,874	60,777	-0,237	-0,164
109,889	203,167	-0,264	-0,286
110,903	35,344	-0,266	-0,163
111,918	18,842	-0,307	-0,172
112,933	-82,484	-0,225	-0,051
113,947	303,457	-0,092	-0,120
114,962	89,638	-0,309	-0,241
115,976	-23,067	-0,299	-0,126
116,991	18,879	-0,305	-0,170
118,006	230,776	-0,175	-0,201
119,020	74,535	-0,171	-0,126
120,035	348,072	-0,138	-0,191
121,049	177,942	-0,114	-0,116
122,064	193,538	-0,227	-0,241
123,079	115,396	-0,190	-0,162
124,093	-37,292	-0,286	-0,106
125,108	39,243	-0,264	-0,165
126,122	-16,389	-0,357	-0,158
127,137	64,341	-0,195	-0,137
128,151	-90,660	-0,317	-0,064
129,166	-69,606	-0,325	-0,086
130,181	72,473	-0,222	-0,162
131,195	197,957	-0,255	-0,273
132,210	322,997	-0,185	-0,248
133,224	119,665	-0,211	-0,183
134,239	104,643	-0,118	-0,097
135,254	117,284	-0,216	-0,186
136,268	86,951	-0,203	-0,157
137,283	41,928	-0,142	-0,090
138,297	161,382	-0,301	-0,295
139,312	84,623	-0,243	-0,186
140,327	75,820	-0,265	-0,196
141,341	117,809	-0,227	-0,196
142,356	200,106	-0,150	-0,161
143,370	108,053	-0,300	-0,250
144,385	47,711	-0,215	-0,140
145,400	76,851	-0,285	-0,211
146,414	21,246	-0,287	-0,162
147,429	461,877	-0,133	-0,208
148,443	-3,680	-0,244	-0,118
149,458	96,065	-0,203	-0,162
150,473	7,020	-0,236	-0,122
151,487	265,862	-0,259	-0,316
152,502	84,337	-0,190	-0,145
153,516	19,473	-0,236	-0,132
154,531	42,527	-0,277	-0,176
155,546	73,619	-0,352	-0,257
156,560	-88,935	-0,239	-0,049
157,575	55,061	-0,137	-0,092
158,589	265,572	-0,217	-0,264
159,604	66,093	-0,259	-0,183
160,619	365,277	-0,204	-0,288
161,633	800,000	-0,146	-0,297
162,648	-34,729	-0,227	-0,086
163,662	57,369	-0,131	-0,089
164,677	-76,595	-0,288	-0,070
165,692	-77,579	-0,229	-0,055
166,706	693,892	-0,252	-0,463
167,721	216,336	-0,252	-0,280
168,735	210,352	-0,214	-0,234
169,750	85,556	-0,178	-0,136
170,764	137,083	-0,229	-0,209
171,779	22,630	-0,307	-0,175
172,794	-18,083	-0,335	-0,146
173,808	118,322	-0,296	-0,255
174,823	289,690	-0,241	-0,306
175,837	-38,868	-0,322	-0,118
176,852	101,854	-0,274	-0,223
177,867	337,762	-0,093	-0,127
178,881	-3,995	-0,222	-0,107
179,896	800,000	-0,079	-0,183
180,910	800,000	-0,084	-0,164
181,925	767,222	-0,118	-0,225
182,940	-33,144	-0,342	-0,131
183,954	195,903	-0,239	-0,253
184,969	192,111	-0,172	-0,180
185,983	-51,077	-0,152	-0,049
186,998	96,875	-0,221	-0,177
188,013	392,915	-0,068	-0,099
189,027	0,875	-0,227	-0,113
190,042	167,586	-0,155	-0,153
191,056	-25,382	-0,252	-0,103
192,071	-26,746	-0,184	-0,075
193,086	-85,479	-0,161	-0,035
194,100	108,399	-0,132	-0,110
195,115	-89,978	-0,221	-0,044
196,129	261,628	-0,132	-0,160
197,144	495,485	-0,210	-0,336
198,159	192,903	-0,113	-0,119
199,173	482,603	-0,171	-0,272
200,188	41,539	-0,179	-0,113
201,202	-36,787	-0,180	-0,067
202,217	58,080	-0,220	-0,150
203,232	27,008	-0,158	-0,092
204,246	65,314	-0,181	-0,127
205,261	358,074	-0,195	-0,271
206,275	199,599	-0,203	-0,217
207,290	394,000	-0,139	-0,201
208,304	47,743	-0,132	-0,085
209,319	36,593	-0,245	-0,150
210,334	-10,821	-0,197	-0,090
211,348	365,800	-0,207	-0,290
212,363	128,343	-0,228	-0,201
213,377	23,333	-0,217	-0,124
214,392	3,031	-0,332	-0,167
215,407	672,145	-0,115	-0,209
216,421	-26,336	-0,251	-0,102
217,436	-116,516	-0,172	-0,022
218,450	41,436	-0,227	-0,142
219,465	395,064	-0,159	-0,230
220,480	-135,046	-0,231	0,019
221,494	634,990	-0,080	-0,141
222,509	367,805	-0,141	-0,198
223,523	91,982	-0,226	-0,176
224,538	104,468	-0,123	-0,101
225,553	242,233	-0,136	-0,158
226,567	362,355	-0,121	-0,169
227,582	-200,000	-0,107	-0,340
228,596	-174,940	-0,211	-0,004
229,611	47,031	-0,211	-0,136
230,626	86,914	-0,178	-0,137
231,640	112,405	-0,187	-0,157
232,655	92,515	-0,272	-0,213
233,669	303,113	-0,112	-0,144
234,684	66,906	-0,189	-0,134
235,699	-72,014	-0,098	0,025
236,713	25,569	-0,142	-0,081
237,728	-78,566	-0,146	-0,034
238,742	117,101	-0,213	-0,181
239,757	-104,416	-0,281	-0,045
240,772	242,870	-0,065	-0,076
241,786	28,681	-0,088	-0,051
242,801	107,229	-0,221	-0,182
243,815	9,292	-0,170	-0,089
244,830	97,341	-0,136	-0,108
245,844	204,718	-0,214	-0,230
246,859	101,977	-0,145	-0,117
247,874	785,906	-0,142	-0,270
248,888	234,797	-0,167	-0,191
249,903	800,000	-0,042	-0,089
250,917	148,275	-0,103	0,096
251,932	-200,000	-0,039	-0,188
252,947	-88,298	-0,238	-0,049
253,961	557,110	-0,100	-0,167
254,976	-200,000	-0,068	-0,224
255,990	-196,524	-0,151	0,001
257,005	172,926	-0,237	-0,236
258,020	109,144	-0,118	-0,097
259,034	85,605	-0,087	-0,066
260,049	241,025	-0,164	-0,189
261,063	-200,000	-0,059	-0,203
262,078	130,817	-0,154	-0,137
263,093	-38,745	-0,230	-0,083
264,107	151,515	-0,158	-0,149
265,122	499,048	-0,107	-0,171
266,136	-59,119	-0,179	0,053
267,151	67,986	-0,209	-0,148
268,166	-34,947	-0,256	-0,096
269,180	21,442	-0,317	-0,178
270,195	131,853	-0,153	-0,136
271,209	-81,199	-0,223	-0,050
272,224	570,737	-0,098	-0,165
273,239	-18,990	-0,139	-0,060
274,253	-30,274	-0,062	-0,024
275,268	-200,000	-0,031	-0,202
276,282	95,100	-0,186	-0,146
277,297	-16,279	-0,278	-0,121
278,312	463,119	-0,111	-0,172
279,326	33,592	-0,223	-0,133
280,341	-52,683	-0,112	0,035
281,355	800,000	-0,072	-0,147
282,370	65,507	-0,135	-0,094
283,384	20,323	-0,181	-0,101
284,399	277,143	-0,110	-0,135
285,414	800,000	-0,093	-0,182
286,428	114,445	-0,210	-0,176
287,443	-31,889	-0,190	-0,073
288,457	-111,255	-0,074	-0,010
289,472	800,000	-0,032	-0,086
290,487	-72,292	-0,216	0,055
291,501	173,242	-0,069	-0,069
292,516	108,586	-0,230	-0,189
293,530	140,951	-0,148	-0,135
294,545	18,898	-0,206	-0,113
295,560	106,492	-0,189	-0,155
296,574	800,000	-0,102	-0,241
297,589	-14,856	-0,189	0,083
298,603	137,617	-0,097	-0,087
299,618	168,380	-0,240	-0,236
300,633	-95,023	-0,086	-0,016
301,647	-200,000	-0,014	-0,169
302,662	295,470	-0,190	-0,240
303,676	-93,390	-0,124	0,023
304,691	-200,000	-0,043	-0,183
305,706	151,350	-0,126	-0,118
306,720	16,629	-0,114	-0,062
307,735	169,767	-0,143	-0,141
308,749	-24,739	-0,193	-0,079
309,764	-110,956	-0,086	-0,012
310,779	36,333	-0,131	-0,080
311,793	-46,156	-0,175	0,059
312,808	320,501	-0,190	-0,250
313,822	-52,912	-0,223	-0,070
314,837	800,000	-0,031	-0,085
315,852	292,335	-0,101	-0,127
316,866	-159,229	-0,147	-0,006
317,881	176,227	-0,116	-0,116
318,895	444,018	-0,082	-0,124
319,910	115,872	-0,099	-0,084
320,925	2,821	-0,045	-0,023
321,939	329,961	-0,138	-0,183
322,954	800,000	-0,059	-0,115
323,968	-21,549	-0,073	-0,030
324,983	122,143	-0,168	-0,144
325,997	-61,860	-0,192	-0,055
327,012	730,652	-0,104	-0,191
328,027	-72,330	-0,227	-0,057
329,041	7,416	-0,118	-0,060
330,056	-91,024	-0,217	0,042
331,070	-200,000	-0,036	-0,156
332,085	78,340	-0,148	-0,108
333,100	95,879	-0,182	-0,143
334,114	-58,382	-0,251	-0,074
335,129	195,828	-0,121	-0,127
336,143	-76,276	-0,201	-0,048
337,158	198,492	-0,095	-0,100
338,173	-200,000	0,011	-0,150
339,187	-162,056	-0,126	-0,004
340,202	-9,056	-0,237	-0,109
341,216	-24,058	-0,209	-0,085
342,231	8,618	-0,136	-0,070
343,246	82,952	-0,188	-0,140
344,260	800,000	-0,073	-0,139
345,275	29,894	-0,198	-0,116
346,289	9,570	-0,260	-0,135
347,304	-169,116	-0,197	-0,005
348,319	9,503	-0,223	-0,116
349,333	-10,925	-0,134	-0,060
350,348	-36,330	-0,146	-0,054
351,362	-67,891	-0,168	-0,045
352,377	-200,000	-0,004	0,025
353,392	800,000	-0,023	-0,064
354,406	800,000	-0,058	-0,157
355,421	208,538	1316,260	1414,134
356,435	160,465	1477,175	1414,631
