DTS Sentinel unit serial number:	SN410029Multiplexer serial number:	ORYXHardware model number:	OX2-SRSoftware version number:	ORYX F/W v4,00 Oryx Data Collector v3.7.2.0data status	okinstallation	B3 Nyhavnadifferential loss correction	single-endedforward channel	channel 1reverse channel	N/Adate	2023/12/01time	11:22:30forward acquisition time	300,00reverse acquisition time	0,00gamma	499,1914k internal	0,3214k external	0,3214temperature offset calibration	1,0000default loss term (dB/km)	0,3820temperature slope calibration	1,0000multiplexer offset coefficient	1,0000multiplexer slope coefficient	1,0000fibre end	0,00T internal ref (°C)	8,38T ext. ref 1 (°C)	-5,59T ext. ref 2 (°C)	-5,69length (m)	temperature (°C)	Stokes	anti-Stokes-744,400	148,036	-0,235	-0,230
-743,385	-200,000	0,059	0,263
-742,371	800,000	-0,126	-0,284
-741,356	800,000	0,091	0,231
-740,342	668,920	-0,064	-0,121
-739,327	-200,000	-0,079	0,255
-738,312	-21,584	-0,245	-0,108
-737,298	-200,000	-0,019	0,194
-736,283	334,383	-0,186	-0,262
-735,269	-200,000	-0,009	0,277
-734,254	484,532	-0,099	-0,163
-733,239	-125,694	-0,295	0,032
-732,225	371,886	-0,088	-0,129
-731,210	-73,543	0,138	0,036
-730,196	800,000	0,061	-0,177
-729,181	18,795	-0,067	0,039
-728,167	-43,633	-0,113	0,041
-727,152	800,000	-0,017	0,043
-726,137	307,340	-0,135	-0,182
-725,123	-200,000	-0,013	0,050
-724,108	800,000	-0,057	-0,115
-723,094	-200,000	0,041	-0,201
-722,079	97,981	-0,078	-0,065
-721,064	-95,245	0,041	-0,008
-720,050	-200,000	-0,033	0,172
-719,035	-200,000	-0,007	0,045
-718,021	157,624	-0,071	0,071
-717,006	119,178	-0,106	-0,095
-715,991	322,620	-0,069	-0,096
-714,977	692,750	-0,052	0,099
-713,962	-200,000	0,010	-0,068
-712,948	83,501	0,048	0,038
-711,933	51,634	-0,024	0,016
-710,918	800,000	-0,020	0,041
-709,904	242,211	-0,075	-0,091
-708,889	800,000	0,037	-0,108
-707,875	-154,771	-0,141	-0,007
-706,860	51,048	-0,058	-0,039
-705,845	-79,934	-0,056	0,013
-704,831	-196,861	0,073	0,000
-703,816	-34,033	0,099	-0,039
-702,802	-13,088	0,053	0,025
-701,787	214,191	0,018	-0,020
-700,772	-200,000	0,032	-0,167
-699,758	548,219	-0,038	0,065
-698,743	-200,000	0,012	0,123
-697,729	-200,000	0,009	0,063
-696,714	-50,296	0,121	0,041
-695,699	-200,000	-0,042	0,137
-694,685	-42,015	-0,059	-0,022
-693,670	605,697	-0,076	-0,138
-692,656	-64,206	0,025	0,007
-691,641	-200,000	0,006	-0,134
-690,627	800,000	-0,072	0,152
-689,612	526,649	-0,061	0,104
-688,597	-81,514	-0,113	-0,027
-687,583	229,566	0,008	0,010
-686,568	800,000	-0,085	-0,222
-685,554	339,286	-0,031	0,044
-684,539	-83,065	0,215	-0,050
-683,524	109,338	0,006	-0,005
-682,510	-141,220	0,085	0,006
-681,495	-190,469	0,048	-0,000
-680,481	-11,911	-0,110	-0,052
-679,466	124,567	-0,123	-0,112
-678,451	-200,000	-0,009	0,045
-677,437	800,000	-0,068	0,206
-676,422	87,613	0,084	0,067
-675,408	-200,000	-0,015	-0,071
-674,393	-200,000	0,005	-0,067
-673,378	-1,885	-0,051	-0,026
-672,364	-111,272	-0,176	-0,026
-671,349	-60,297	0,065	-0,020
-670,335	-200,000	-0,022	0,080
-669,320	519,720	0,086	-0,145
-668,305	358,775	0,034	-0,049
-667,291	-111,164	-0,074	0,011
-666,276	-50,099	-0,142	-0,048
-665,262	-200,000	-0,031	-0,101
-664,247	-200,000	-0,035	-0,193
-663,232	-200,000	-0,006	0,089
-662,218	70,329	-0,016	-0,012
-661,203	800,000	0,058	0,150
-660,189	-52,815	-0,136	0,045
-659,174	13,203	-0,180	0,100
-658,159	800,000	0,046	-0,109
-657,145	27,775	0,019	0,012
-656,130	-200,000	0,006	-0,149
-655,116	157,410	-0,075	0,075
-654,101	375,266	0,167	-0,246
-653,086	800,000	-0,037	0,083
-652,072	672,180	-0,028	0,053
-651,057	141,177	-0,015	-0,015
-650,043	-200,000	0,039	-0,230
-649,028	232,903	-0,056	-0,067
-648,014	-40,372	0,076	0,028
-646,999	-44,527	-0,148	0,053
-645,984	108,747	-0,101	0,087
-644,970	151,413	-0,129	0,127
-643,955	36,991	-0,079	-0,050
-642,941	-51,597	0,063	0,021
-641,926	124,150	-0,091	0,083
-640,911	174,042	-0,025	0,026
-639,897	62,213	0,061	-0,044
-638,882	82,841	0,064	0,050
-637,868	-200,000	-0,025	-0,089
-636,853	-200,000	0,013	-0,096
-635,838	800,000	-0,075	-0,168
-634,824	-74,134	0,140	0,036
-633,809	49,385	0,089	0,060
-632,795	-145,312	0,087	0,006
-631,780	800,000	-0,033	0,075
-630,765	206,598	-0,029	-0,033
-629,751	6,562	-0,120	0,064
-628,736	-200,000	-0,001	-0,162
-627,722	-0,250	-0,101	-0,052
-626,707	16,715	0,038	0,021
-625,692	800,000	0,015	-0,031
-624,678	-130,683	-0,109	0,010
-623,663	-86,872	0,020	-0,004
-622,649	247,513	-0,055	-0,067
-621,634	800,000	-0,021	0,058
-620,619	-170,744	-0,113	-0,003
-619,605	111,639	0,165	-0,143
-618,590	800,000	-0,046	0,105
-617,576	800,000	-0,033	0,081
-616,561	77,750	-0,055	-0,042
-615,546	-35,587	-0,237	-0,092
-614,532	-116,428	-0,114	0,015
-613,517	-33,931	-0,089	0,035
-612,503	-200,000	0,023	0,097
-611,488	-55,379	0,091	0,029
-610,474	96,007	-0,033	0,027
-609,459	-25,933	0,042	0,018
-608,444	75,951	-0,078	0,060
-607,430	-44,311	-0,090	-0,032
-606,415	-200,000	-0,001	-0,039
-605,401	800,000	0,030	0,069
-604,386	21,784	-0,142	0,083
-603,371	800,000	0,053	0,138
-602,357	-200,000	0,011	0,071
-601,342	-200,000	0,003	-0,095
-600,328	-200,000	0,002	0,028
-599,313	-28,639	-0,032	-0,013
-598,298	800,000	0,016	-0,036
-597,284	-200,000	-0,024	-0,100
-596,269	66,058	-0,032	-0,023
-595,255	127,974	0,098	0,090
-594,240	-63,123	-0,191	-0,057
-593,225	270,077	-0,017	0,022
-592,211	-200,000	0,018	-0,078
-591,196	125,022	0,048	0,044
-590,182	319,512	-0,030	-0,042
-589,167	-74,241	-0,184	0,048
-588,152	232,684	0,026	0,031
-587,138	800,000	0,031	-0,096
-586,123	-200,000	0,033	-0,168
-585,109	116,956	0,095	-0,084
-584,094	-11,056	-0,125	-0,059
-583,079	387,293	-0,011	-0,016
-582,065	-200,000	-0,040	-0,162
-581,050	286,705	0,075	-0,098
-580,036	126,760	0,021	0,019
-579,021	-200,000	-0,020	-0,093
-578,006	-200,000	0,005	-0,042
-576,992	30,967	-0,027	0,017
-575,977	800,000	0,022	0,068
-574,963	-200,000	0,007	0,028
-573,948	-118,814	0,184	-0,023
-572,934	63,389	-0,022	-0,016
-571,919	-38,480	-0,155	0,059
-570,904	89,072	0,038	-0,031
-569,890	18,519	0,039	0,023
-568,875	7,181	0,102	0,055
-567,861	-51,750	0,054	-0,018
-566,846	268,822	0,115	0,145
-565,831	-200,000	0,011	0,103
-564,817	800,000	-0,054	0,107
-563,802	433,632	0,041	-0,064
-562,788	-4,675	0,067	-0,033
-561,773	-17,566	0,051	-0,023
-560,758	-113,348	-0,039	0,005
-559,744	380,157	0,067	0,098
-558,729	302,216	-0,046	0,061
-557,715	-200,000	0,016	-0,219
-556,700	500,164	-0,049	-0,081
-555,685	-200,000	-0,023	0,084
-554,671	-137,521	0,049	0,004
-553,656	390,956	-0,076	0,113
-552,642	153,442	-0,078	0,076
-551,627	-200,000	-0,003	0,029
-550,612	-71,307	-0,137	-0,037
-549,598	129,852	-0,054	-0,050
-548,583	61,777	0,094	-0,067
-547,569	-200,000	0,014	-0,265
-546,554	800,000	-0,025	-0,071
-545,539	-200,000	0,009	0,086
-544,525	64,321	0,054	-0,039
-543,510	-156,742	-0,078	-0,003
-542,496	-200,000	0,003	-0,199
-541,481	76,193	0,107	0,081
-540,466	-200,000	0,004	-0,045
-539,452	55,591	0,042	0,029
-538,437	394,205	-0,088	0,132
-537,423	70,361	0,069	0,051
-536,408	-200,000	-0,004	0,034
-535,393	95,849	0,112	0,092
-534,379	193,996	-0,036	-0,040
-533,364	661,557	0,075	-0,139
-532,350	149,732	0,119	-0,116
-531,335	297,171	0,057	-0,076
-530,321	101,587	-0,061	0,051
-529,306	-200,000	0,004	0,041
-528,291	-200,000	-0,006	-0,240
-527,277	182,556	-0,094	-0,100
-526,262	800,000	-0,024	0,066
-525,248	-32,961	0,046	-0,018
-524,233	800,000	0,005	-0,012
-523,218	-3,168	-0,093	0,047
-522,204	37,324	0,013	0,008
-521,189	800,000	-0,008	-0,026
-520,175	481,051	-0,062	-0,101
-519,160	-8,714	-0,043	-0,021
-518,145	118,288	0,076	-0,067
-517,131	26,112	0,096	-0,057
-516,116	-200,000	0,059	0,242
-515,102	660,912	-0,074	-0,137
-514,087	-200,000	0,000	-0,021
-513,072	-38,731	-0,100	-0,038
-512,058	-200,000	-0,007	0,180
-511,043	215,643	0,119	0,136
-510,029	-50,407	-0,047	-0,016
-509,014	-200,000	-0,009	-0,062
-507,999	-200,000	0,061	0,216
-506,985	-53,898	-0,137	0,044
-505,970	130,197	-0,060	0,055
-504,956	-200,000	-0,043	-0,151
-503,941	697,749	-0,009	0,016
-502,926	452,269	0,004	0,007
-501,912	800,000	-0,084	0,181
-500,897	61,239	0,120	0,085
-499,883	-78,897	-0,142	0,034
-498,868	72,742	-0,071	0,053
-497,853	800,000	0,067	0,163
-496,839	129,699	0,133	0,122
-495,824	364,054	-0,027	-0,039
-494,810	-16,751	0,063	0,029
-493,795	72,479	0,151	0,113
-492,781	617,023	0,066	-0,120
-491,766	-200,000	0,013	0,092
-490,751	800,000	-0,041	-0,110
-489,737	355,105	0,039	-0,056
-488,722	384,354	0,063	0,093
-487,708	214,208	-0,014	0,016
-486,693	-48,752	0,154	0,053
-485,678	-44,872	-0,087	0,031
-484,664	276,932	0,031	-0,040
-483,649	-200,000	-0,004	-0,034
-482,635	120,566	0,056	-0,050
-481,620	-19,526	-0,084	0,037
-480,605	-129,086	-0,051	-0,005
-479,591	-45,064	0,121	-0,043
-478,576	-200,000	-0,017	-0,096
-477,562	-76,785	-0,098	-0,025
-476,547	-75,048	0,196	-0,050
-475,532	104,598	-0,102	0,086
-474,518	-139,941	0,131	-0,010
-473,503	132,429	-0,042	0,039
-472,489	194,678	-0,050	0,054
-471,474	-200,000	0,000	-0,015
-470,459	-63,268	-0,085	0,025
-469,445	779,459	0,023	0,045
-468,430	800,000	-0,054	-0,158
-467,416	-200,000	0,003	0,102
-466,401	-200,000	0,052	0,000
-465,386	-200,000	-0,029	-0,104
-464,372	103,456	-0,012	-0,010
-463,357	-68,946	0,103	0,028
-462,343	800,000	-0,035	0,083
-461,328	-37,758	-0,057	-0,022
-460,313	-55,420	0,063	-0,020
-459,299	-129,404	-0,074	0,007
-458,284	179,599	-0,041	0,043
-457,270	800,000	-0,024	-0,051
-456,255	-21,686	-0,118	0,051
-455,241	-200,000	0,006	0,052
-454,226	457,321	-0,120	-0,191
-453,211	118,792	0,115	0,101
-452,197	201,367	-0,096	0,106
-451,182	-15,416	-0,012	0,005
-450,168	800,000	0,023	0,054
-449,153	-200,000	-0,006	0,042
-448,138	-188,583	-0,155	-0,001
-447,124	46,422	0,081	0,054
-446,109	800,000	0,050	0,150
-445,095	551,267	0,094	0,163
-444,080	589,530	-0,035	-0,061
-443,065	-32,330	-0,047	0,019
-442,051	-33,496	0,068	-0,027
-441,036	97,107	0,091	-0,075
-440,022	67,093	-0,087	-0,064
-439,007	62,041	0,066	-0,047
-437,992	-200,000	0,019	0,065
-436,978	466,584	0,008	0,013
-435,963	-148,858	-0,054	-0,003
-434,949	135,927	0,089	-0,083
-433,934	154,267	-0,038	0,038
-432,919	138,245	0,031	-0,029
-431,905	40,205	-0,084	0,054
-430,890	-47,664	0,054	0,019
-429,876	50,895	0,065	-0,044
-428,861	769,162	-0,042	-0,082
-427,846	-141,351	-0,096	0,007
-426,832	82,185	-0,069	0,053
-425,817	63,292	-0,091	0,065
-424,803	306,355	-0,061	-0,082
-423,788	215,173	-0,087	-0,099
-422,773	-161,230	-0,236	-0,009
-421,759	34,230	0,155	0,097
-420,744	169,418	-0,064	0,066
-419,730	792,122	0,094	-0,186
-418,715	1,573	-0,088	0,045
-417,701	575,207	-0,054	-0,094
-416,686	231,114	0,060	0,071
-415,671	69,218	-0,095	0,070
-414,657	-158,847	0,052	0,002
-413,642	107,505	-0,063	0,054
-412,628	105,996	-0,102	-0,086
-411,613	-83,323	-0,005	-0,001
-410,598	391,265	-0,061	0,091
-409,584	-135,198	0,077	-0,007
-408,569	128,381	0,099	0,090
-407,555	-200,000	-0,013	0,110
-406,540	661,596	0,036	0,067
-405,525	159,510	0,094	0,094
-404,511	428,550	0,059	-0,091
-403,496	247,225	-0,103	-0,125
-402,482	-200,000	-0,001	-0,218
-401,467	800,000	0,031	-0,067
-400,452	-162,242	0,071	-0,002
-399,438	-95,899	-0,053	-0,010
-398,423	-16,190	0,046	-0,021
-397,409	596,430	-0,039	-0,070
-396,394	-123,020	0,139	-0,016
-395,379	-110,969	-0,089	-0,013
-394,365	-47,361	0,196	0,068
-393,350	42,734	-0,067	0,043
-392,336	-98,013	0,097	-0,018
-391,321	-200,000	-0,114	0,000
-390,306	-65,786	-0,070	-0,020
-389,292	39,952	0,025	0,016
-388,277	-200,000	-0,005	0,105
-387,263	-85,538	0,098	0,022
-386,248	187,127	0,026	0,028
-385,233	142,098	0,074	0,070
-384,219	800,000	0,051	-0,158
-383,204	-11,190	-0,120	0,056
-382,190	-200,000	-0,037	-0,164
-381,175	-103,620	-0,155	0,026
-380,160	-200,000	0,013	0,086
-379,146	50,251	-0,116	0,078
-378,131	-200,000	-0,006	0,099
-377,117	222,816	-0,104	0,120
-376,102	109,321	0,079	0,068
-375,088	-111,435	-0,104	-0,015
-374,073	-200,000	0,008	0,149
-373,058	35,670	0,147	0,092
-372,044	20,578	-0,059	-0,034
-371,029	-175,846	-0,027	0,000
-370,015	-41,526	0,079	0,029
-369,000	63,116	0,135	-0,096
-367,985	92,198	-0,130	-0,105
-366,971	-200,000	0,005	-0,016
-365,956	476,467	-0,052	-0,084
-364,942	800,000	0,067	0,183
-363,927	-36,994	0,118	0,045
-362,912	800,000	-0,036	0,091
-361,898	800,000	-0,019	0,055
-360,883	-23,931	-0,069	-0,029
-359,869	394,104	-0,034	-0,050
-358,854	-121,527	0,064	0,008
-357,839	188,174	-0,045	0,048
-356,825	-200,000	0,019	-0,080
-355,810	233,110	0,017	0,019
-354,796	88,131	0,033	-0,026
-353,781	-63,753	0,096	0,028
-352,766	-67,547	0,081	-0,022
-351,752	-107,902	-0,063	0,010
-350,737	-200,000	0,003	0,038
-349,723	-200,000	0,045	0,211
-348,708	51,049	-0,097	0,065
-347,693	57,761	-0,035	-0,024
-346,679	391,049	-0,100	-0,149
-345,664	-200,000	0,020	-0,130
-344,650	-79,122	-0,023	0,006
-343,635	-105,228	-0,078	0,013
-342,620	34,372	0,170	0,105
-341,606	-41,332	-0,035	-0,013
-340,591	-6,720	-0,157	-0,076
-339,577	-1,435	0,094	-0,047
-338,562	209,563	-0,068	0,076
-337,548	249,066	-0,056	-0,068
-336,533	186,444	0,068	0,072
-335,518	556,652	0,047	-0,080
-334,504	-29,492	-0,055	-0,022
-333,489	439,005	-0,066	-0,103
-332,475	614,691	-0,036	0,065
-331,460	170,729	-0,044	-0,045
-330,445	-63,740	-0,122	-0,035
-329,431	800,000	-0,038	-0,091
-328,416	-200,000	0,011	0,115
-327,402	-200,000	-0,006	-0,108
-326,387	-200,000	0,001	0,132
-325,372	371,242	-0,020	0,028
-324,358	306,342	-0,044	-0,059
-323,343	-72,229	0,020	0,005
-322,329	-200,000	0,003	0,113
-321,314	77,449	0,134	0,102
-320,299	800,000	-0,083	0,208
-319,285	-101,107	0,038	-0,007
-318,270	800,000	0,020	0,058
-317,256	-200,000	-0,034	-0,210
-316,241	81,297	0,077	-0,059
-315,226	-8,930	-0,070	0,033
-314,212	355,617	0,097	0,138
-313,197	-39,915	0,125	0,046
-312,183	-1,268	0,128	-0,064
-311,168	-200,000	-0,001	-0,065
-310,153	800,000	-0,057	-0,140
-309,139	-200,000	0,014	-0,051
-308,124	-119,219	0,056	-0,007
-307,110	800,000	-0,018	0,051
-306,095	-126,126	0,093	0,010
-305,080	119,632	-0,050	-0,044
-304,066	190,336	-0,039	-0,042
-303,051	-171,908	-0,058	0,001
-302,037	452,694	-0,041	-0,065
-301,022	-51,605	0,137	-0,045
-300,008	568,239	0,059	-0,102
-298,993	-200,000	-0,031	0,105
-297,978	-200,000	0,017	-0,066
-296,964	-95,124	0,121	-0,023
-295,949	800,000	0,080	-0,187
-294,935	-200,000	-0,004	-0,113
-293,920	426,853	-0,020	-0,030
-292,905	-138,855	0,149	0,011
-291,891	211,026	0,023	0,025
-290,876	-200,000	-0,001	0,043
-289,862	567,004	-0,061	0,105
-288,847	-200,000	-0,003	-0,022
-287,832	116,632	-0,027	0,024
-286,818	-200,000	-0,013	-0,044
-285,803	-200,000	-0,022	0,178
-284,789	-200,000	0,022	0,170
-283,774	-200,000	0,005	0,077
-282,759	-200,000	-0,032	0,123
-281,745	32,457	0,055	-0,034
-280,730	-51,317	-0,201	-0,067
-279,716	-143,212	0,135	-0,009
-278,701	45,812	0,050	-0,033
-277,686	-21,244	-0,174	0,075
-276,672	-50,723	0,054	-0,018
-275,657	-121,701	-0,090	0,010
-274,643	670,283	-0,028	0,053
-273,628	414,387	-0,034	0,051
-272,613	85,825	-0,070	0,055
-271,599	8,435	-0,088	0,047
-270,584	-143,081	0,067	-0,005
-269,570	-200,000	0,006	0,082
-268,555	-37,984	0,021	-0,008
-267,540	800,000	0,022	0,060
-266,526	-166,750	-0,158	0,005
-265,511	34,396	0,060	-0,037
-264,497	-56,852	-0,075	-0,024
-263,482	800,000	-0,018	-0,042
-262,467	-127,946	0,037	0,004
-261,453	-200,000	-0,017	0,066
-260,438	648,631	0,017	-0,030
-259,424	40,329	0,043	0,028
-258,409	-200,000	-0,027	0,088
-257,395	-32,156	0,051	0,020
-256,380	502,550	-0,041	-0,067
-255,365	-74,203	0,047	0,012
-254,351	800,000	0,050	0,132
-253,336	-83,769	-0,105	0,024
-252,322	749,455	0,052	-0,100
-251,307	-103,997	-0,043	-0,007
-250,292	-126,943	0,136	-0,014
-249,278	-97,882	0,065	0,012
-248,263	53,632	0,030	0,020
-247,249	30,926	0,158	-0,096
-246,234	308,717	0,016	-0,021
-245,219	62,425	0,079	-0,056
-244,205	541,220	0,053	-0,091
-243,190	800,000	0,022	-0,052
-242,176	800,000	0,040	0,091
-241,161	-21,587	0,083	-0,036
-240,146	147,983	0,118	0,113
-239,132	680,591	0,107	0,200
-238,117	17,652	-0,066	-0,037
-237,103	-35,223	0,103	-0,040
-236,088	-200,000	-0,032	-0,235
-235,073	-200,000	0,022	0,070
-234,059	800,000	-0,039	0,103
-233,044	582,391	-0,054	-0,095
-232,030	-99,036	0,036	-0,006
-231,015	-200,000	0,024	-0,123
-230,000	-129,558	-0,186	-0,018
-228,986	470,931	-0,020	-0,032
-227,971	800,000	-0,038	0,079
-226,957	-200,000	0,015	0,059
-225,942	263,861	0,038	0,047
-224,927	-88,785	0,076	-0,016
-223,913	208,881	0,019	0,021
-222,898	800,000	0,017	0,053
-221,884	-173,501	0,119	0,002
-220,869	-58,330	0,109	0,034
-219,855	353,037	-0,045	-0,064
-218,840	18,409	0,079	0,045
-217,825	151,995	0,022	-0,021
-216,811	415,949	0,008	-0,013
-215,796	157,235	-0,054	-0,053
-214,782	246,831	-0,067	-0,080
-213,767	-200,000	-0,015	-0,054
-212,752	-200,000	0,008	-0,049
-211,738	-200,000	-0,002	0,050
-210,723	10,291	0,141	0,076
-209,709	-200,000	-0,007	-0,168
-208,694	-81,495	0,074	-0,017
-207,679	588,084	-0,087	-0,153
-206,665	800,000	-0,044	-0,105
-205,650	597,922	0,066	0,117
-204,636	-27,816	-0,100	0,041
-203,621	-200,000	-0,008	-0,139
-202,606	800,000	-0,056	-0,148
-201,592	-200,000	0,002	-0,028
-200,577	-97,456	0,170	-0,031
-199,563	277,757	0,053	0,067
-198,548	-85,622	-0,085	-0,019
-197,533	-200,000	0,004	-0,136
-196,519	-13,952	0,056	0,025
-195,504	-5,387	-0,105	0,051
-194,490	-200,000	0,054	-0,194
-193,475	276,144	0,014	0,018
-192,460	800,000	-0,042	-0,115
-191,446	-46,332	-0,045	0,016
-190,431	361,469	-0,048	0,068
-189,417	-200,000	-0,018	-0,098
-188,402	8,309	-0,053	0,028
-187,387	-200,000	-0,004	0,129
-186,373	-40,349	0,079	-0,029
-185,358	800,000	0,021	0,052
-184,344	-141,738	0,127	0,009
-183,329	-200,000	0,001	0,070
-182,315	91,054	0,037	-0,030
-181,300	-76,040	0,015	0,004
-180,285	-2,140	-0,119	-0,059
-179,271	46,928	0,126	0,083
-178,256	-200,000	0,006	-0,022
-177,242	-21,295	-0,121	0,052
-176,227	-122,807	0,099	0,011
-175,212	-128,712	0,037	-0,004
-174,198	148,372	0,017	-0,017
-173,183	-200,000	-0,004	-0,082
-172,169	143,813	0,096	-0,090
-171,154	-200,000	-0,005	-0,027
-170,139	63,194	0,086	0,061
-169,125	-163,373	-0,097	-0,003
-168,110	9,647	-0,065	0,035
-167,096	-2,993	-0,064	0,032
-166,081	651,336	0,015	0,027
-165,066	-200,000	0,003	-0,112
-164,052	216,320	0,091	-0,103
-163,037	-200,000	-0,012	-0,068
-162,023	1,595	-0,036	0,019
-161,008	-14,446	0,198	0,090
-159,993	73,839	0,053	-0,040
-158,979	58,893	0,072	-0,050
-157,964	421,975	-0,010	-0,016
-156,950	-131,359	-0,069	-0,006
-155,935	78,742	0,071	0,054
-154,920	-28,313	0,072	-0,029
-153,906	-200,000	-0,014	0,089
-152,891	31,353	-0,127	-0,077
-151,877	576,826	0,035	-0,061
-150,862	5,699	0,047	0,025
-149,847	-200,000	0,013	-0,048
-148,833	-200,000	0,000	-0,114
-147,818	-115,006	0,064	-0,008
-146,804	200,244	-0,075	0,081
-145,789	296,937	0,012	0,016
-144,775	58,711	0,048	0,033
-143,760	90,423	-0,058	-0,046
-142,745	19,806	-0,122	0,069
-141,731	800,000	-0,007	0,023
-140,716	800,000	0,014	-0,043
-139,702	-73,310	-0,069	0,018
-138,687	361,074	-0,084	0,120
-137,672	-62,882	-0,044	-0,013
-136,658	79,104	0,078	0,059
-135,643	-200,000	-0,015	0,053
-134,629	255,852	0,023	-0,028
-133,614	92,290	0,069	0,055
-132,599	-200,000	0,012	-0,066
-131,585	412,744	0,028	0,042
-130,570	800,000	-0,039	-0,112
-129,556	-93,251	-0,249	-0,048
-128,541	-85,391	0,046	-0,010
-127,526	-200,000	0,019	0,065
-126,512	-38,978	0,070	0,026
-125,497	147,676	0,039	-0,037
-124,483	800,000	0,073	0,146
-123,468	-200,000	0,005	0,021
-122,453	3,270	0,025	0,013
-121,439	90,564	-0,111	-0,088
-120,424	-82,026	-0,024	0,005
-119,410	667,778	-0,024	0,045
-118,395	44,591	0,020	0,013
-117,380	-200,000	0,007	0,084
-116,366	-58,511	0,090	0,027
-115,351	-34,554	-0,145	-0,056
-114,337	-35,785	-0,150	-0,057
-113,322	760,673	-0,026	0,050
-112,307	-200,000	-0,021	0,085
-111,293	290,232	0,046	0,060
-110,278	-60,319	0,026	0,008
-109,264	121,532	0,119	0,105
-108,249	-77,050	-0,042	-0,010
-107,234	-200,000	-0,005	-0,058
-106,220	94,181	-0,088	-0,071
-105,205	198,634	-0,101	0,110
-104,191	-200,000	-0,003	-0,038
-103,176	-31,926	0,041	-0,016
-102,162	-200,000	0,002	-0,116
-101,147	-200,000	-0,001	-0,024
-100,132	-200,000	-0,009	-0,051
-99,118	-53,021	0,039	-0,012
-98,103	800,000	0,026	0,053
-97,089	77,040	0,033	-0,025
-96,074	-31,420	0,123	0,049
-95,059	118,267	-0,052	0,045
-94,045	-57,310	-0,072	-0,022
-93,030	800,000	-0,057	-0,122
-92,016	-200,000	0,015	-0,122
-91,001	-34,256	-0,086	0,033
-89,986	292,323	-0,063	0,081
-88,972	-200,000	-0,007	0,149
-87,957	-8,148	0,021	0,010
-86,943	36,112	0,042	0,026
-85,928	-52,824	-0,051	-0,017
-84,913	800,000	0,021	-0,053
-83,899	259,230	-0,084	0,103
-82,884	342,012	-0,127	0,176
-81,870	-44,445	0,142	0,050
-80,855	-31,839	-0,179	-0,071
-79,840	-200,000	-0,003	-0,069
-78,826	263,188	-0,090	0,111
-77,811	180,239	-0,064	0,066
-76,797	-200,000	-0,026	-0,104
-75,782	-200,000	0,013	0,054
-74,767	800,000	0,045	0,096
-73,753	72,759	0,043	-0,031
-72,738	-200,000	-0,007	-0,046
-71,724	-144,609	-0,114	-0,007
-70,709	-200,000	-0,003	-0,119
-69,694	82,490	-0,062	-0,047
-68,680	800,000	-0,025	0,052
-67,665	-200,000	-0,031	0,098
-66,651	-200,000	0,017	0,077
-65,636	102,651	-0,078	-0,065
-64,622	-200,000	-0,030	-0,155
-63,607	-200,000	-0,046	-0,191
-62,592	-200,000	-0,007	0,030
-61,578	800,000	-0,007	-0,018
-60,563	541,056	-0,045	0,076
-59,549	-153,129	-0,089	0,004
-58,534	66,212	-1,916	-1,370
-57,519	440,725	-1,230	-1,903
-56,505	-200,000	-0,488	-4,340
-55,490	503,875	1,031	1,688
-54,476	800,000	5,133	11,364
-53,461	-200,000	22,341	344,723
-52,446	800,000	759,009	2300,309
-51,432	534,138	1650,272	2768,291
-50,417	68,629	1648,874	1191,404
-49,403	16,073	1524,763	844,873
-48,388	10,302	1449,835	775,586
-47,373	19,248	1442,428	814,309
-46,359	13,741	1430,752	781,642
-45,344	8,590	1426,764	755,027
-44,330	8,523	1424,955	753,724
-43,315	8,448	1423,202	752,410
-42,300	8,480	1421,398	751,580
-41,286	8,534	1420,017	751,074
-40,271	8,467	1419,053	750,216
-39,257	8,460	1417,743	749,461
-38,242	8,479	1416,443	748,837
-37,227	8,467	1415,455	748,226
-36,213	8,478	1414,005	747,482
-35,198	8,457	1413,040	746,843
-34,184	8,507	1412,020	746,509
-33,169	8,426	1410,810	745,459
-32,154	8,457	1409,702	744,991
-31,140	8,457	1408,502	744,328
-30,125	8,495	1407,167	743,771
-29,111	8,522	1405,963	743,228
-28,096	8,476	1404,952	742,452
-27,082	8,406	1404,008	741,594
-26,067	8,376	1402,799	740,787
-25,052	8,416	1401,644	740,333
-24,038	8,456	1400,541	739,910
-23,023	8,402	1399,809	739,244
-22,009	8,427	1398,712	738,750
-20,994	8,367	1397,688	737,900
-19,979	8,455	1396,585	737,699
-18,965	8,392	1395,760	736,939
-17,950	8,337	1394,924	736,217
-16,936	8,331	1394,090	735,716
-15,921	8,327	1392,926	735,057
-14,906	8,350	1391,922	734,602
-13,892	8,380	1390,880	734,160
-12,877	8,332	1390,335	733,626
-11,863	8,282	1389,781	733,070
-10,848	8,300	1388,610	732,507
-9,833	8,265	1387,752	731,864
-8,819	8,252	1386,769	731,257
-7,804	8,217	1385,773	730,542
-6,790	8,240	1384,647	730,023
-5,775	8,225	1383,906	729,539
-4,760	8,238	1382,911	729,045
-3,746	8,248	1382,050	728,608
-2,731	8,251	1381,065	728,071
-1,717	8,247	1380,094	727,511
-0,702	8,229	1378,420	726,518
0,313	12,304	1289,458	698,114
1,327	28,217	680,712	404,154
2,342	43,938	117,266	75,576
3,356	0,638	16,559	8,319
4,371	1,920	3,864	1,957
5,386	-16,411	1,471	0,654
6,400	559,341	0,378	0,645
7,415	189,546	-0,177	-0,188
8,429	55,694	-0,267	-0,182
9,444	141,253	-0,211	-0,197
10,459	77,989	-0,181	-0,136
11,473	388,336	-0,223	-0,327
12,488	-43,234	-0,214	-0,076
13,502	-77,919	-0,304	-0,073
14,517	61,628	-0,418	-0,292
15,531	29,867	-0,403	-0,241
16,546	140,564	-0,316	-0,293
17,561	47,462	-0,333	-0,218
18,575	-101,153	-0,146	0,025
19,590	124,241	-0,241	-0,213
20,604	422,130	-0,089	-0,135
21,619	169,076	-0,414	-0,415
22,634	122,694	-0,470	-0,414
23,648	106,658	-0,405	-0,338
24,663	-58,041	-0,467	-0,142
25,677	99,566	-0,465	-0,379
26,692	6,599	-0,223	-0,116
27,707	5,181	-0,330	-0,171
28,721	-1,479	-0,385	-0,190
29,736	51,748	-0,384	-0,256
30,750	70,188	-0,479	-0,348
31,765	116,438	-0,303	-0,261
32,780	24,743	-0,454	-0,264
33,794	220,978	-0,248	-0,281
34,809	98,721	-0,261	-0,211
35,823	-4,601	-0,510	-0,247
36,838	73,676	-0,370	-0,272
37,853	235,100	-0,279	-0,324
38,867	84,445	-0,343	-0,264
39,882	105,906	-0,367	-0,305
40,896	8,424	-0,371	-0,195
41,911	424,069	-0,210	-0,318
42,926	-2,633	-0,344	-0,169
43,940	271,421	-0,328	-0,407
44,955	60,393	-0,285	-0,198
45,969	55,929	-0,249	-0,169
46,984	38,738	-0,304	-0,190
47,999	61,281	-0,223	-0,155
49,013	-56,405	-0,312	-0,097
50,028	-46,368	-0,439	-0,151
51,042	1,445	-0,386	-0,194
52,057	499,831	-0,233	-0,379
53,071	165,007	-0,274	-0,272
54,086	3,170	-0,354	-0,180
55,101	15,431	-0,350	-0,192
56,115	51,462	-0,266	-0,177
57,130	-18,769	-0,343	-0,149
58,144	92,157	-0,295	-0,233
59,159	73,792	-0,392	-0,288
60,174	87,241	-0,289	-0,224
61,188	154,817	-0,239	-0,231
62,203	-3,459	-0,278	-0,135
63,217	79,384	-0,240	-0,180
64,232	12,774	-0,371	-0,201
65,247	59,092	-0,325	-0,224
66,261	112,453	-0,322	-0,273
67,276	484,768	-0,195	-0,312
68,290	-13,116	-0,241	-0,110
69,305	-30,725	-0,283	-0,112
70,320	87,899	-0,265	-0,205
71,334	22,164	-0,244	-0,139
72,349	-2,817	-0,192	-0,094
73,363	-32,359	-0,385	-0,150
74,378	-28,881	-0,404	-0,162
75,393	-20,354	-0,320	-0,137
76,407	175,634	-0,208	-0,211
77,422	14,991	-0,264	-0,145
78,436	189,378	-0,121	-0,127
79,451	44,396	-0,359	-0,230
80,466	36,651	-0,351	-0,217
81,480	-54,524	-0,152	-0,048
82,495	7,268	-0,366	-0,191
83,509	1,219	-0,322	-0,161
84,524	-118,273	-0,167	-0,021
85,539	-70,852	-0,257	-0,067
86,553	45,220	-0,237	-0,153
87,568	82,149	-0,237	-0,180
88,582	47,579	-0,395	-0,257
89,597	-22,902	-0,375	-0,157
90,611	114,325	-0,244	-0,207
91,626	-109,827	-0,316	-0,046
92,641	55,061	-0,309	-0,209
93,655	105,606	-0,136	-0,112
94,670	225,072	-0,327	-0,371
95,684	118,708	-0,347	-0,300
96,699	47,864	-0,306	-0,199
97,714	49,375	-0,292	-0,192
98,728	-15,365	-0,313	-0,139
99,743	-23,523	-0,291	-0,121
100,757	-35,514	-0,232	-0,087
101,772	151,000	-0,339	-0,322
102,787	10,204	-0,476	-0,252
103,801	292,467	-0,217	-0,276
104,816	149,102	-0,213	-0,201
105,830	68,665	-0,264	-0,189
106,845	-108,752	-0,265	-0,039
107,860	-93,745	-0,241	-0,046
108,874	334,005	-0,184	-0,249
109,889	444,129	-0,172	-0,265
110,903	253,944	-0,312	-0,373
111,918	475,951	-0,198	-0,313
112,933	151,086	-0,161	-0,152
113,947	69,307	-0,212	-0,152
114,962	11,468	-0,154	-0,082
115,976	44,734	-0,311	-0,199
116,991	-0,251	-0,295	-0,146
118,006	107,611	-0,284	-0,236
119,020	79,560	-0,260	-0,195
120,035	97,786	-0,053	-0,043
121,049	425,720	-0,078	-0,118
122,064	134,185	-0,242	-0,219
123,079	-21,200	-0,278	-0,118
124,093	160,623	-0,201	-0,196
125,108	167,996	-0,181	-0,180
126,122	164,939	-0,241	-0,238
127,137	-3,984	-0,274	-0,132
128,151	37,789	-0,211	-0,131
129,166	51,172	-0,230	-0,152
130,181	-30,343	-0,317	-0,125
131,195	96,079	-0,351	-0,279
132,210	-28,642	-0,350	-0,140
133,224	-34,912	-0,366	-0,138
134,239	282,776	-0,160	-0,200
135,254	111,928	-0,136	-0,114
136,268	19,605	-0,274	-0,153
137,283	-3,151	-0,247	-0,120
138,297	226,144	-0,253	-0,286
139,312	276,067	-0,253	-0,314
140,327	211,706	-0,289	-0,317
141,341	-47,660	-0,276	-0,093
142,356	800,000	-0,090	-0,182
143,370	-46,306	-0,242	-0,082
144,385	134,352	-0,167	-0,150
145,400	39,330	-0,334	-0,208
146,414	89,142	-0,192	-0,148
147,429	213,350	-0,256	-0,282
148,443	233,845	-0,212	-0,243
149,458	124,030	-0,221	-0,194
150,473	522,492	-0,140	-0,229
151,487	12,935	-0,251	-0,135
152,502	40,439	-0,299	-0,187
153,516	-200,000	-0,090	-0,328
154,531	293,795	-0,167	-0,212
155,546	-101,775	-0,287	-0,048
156,560	602,536	-0,093	-0,161
157,575	11,267	-0,210	-0,111
158,589	49,322	-0,105	-0,068
159,604	429,043	-0,217	-0,327
160,619	80,380	-0,275	-0,205
161,633	148,195	-0,232	-0,218
162,648	72,434	-0,247	-0,178
163,662	-64,242	-0,201	-0,057
164,677	470,358	-0,033	-0,051
165,692	220,693	-0,184	-0,205
166,706	122,415	-0,215	-0,187
167,721	171,710	-0,273	-0,273
168,735	36,685	-0,369	-0,226
169,750	74,874	-0,255	-0,186
170,764	171,905	-0,191	-0,191
171,779	179,084	-0,165	-0,168
172,794	387,888	-0,156	-0,225
173,808	124,184	-0,149	-0,130
174,823	120,041	-0,241	-0,207
175,837	92,071	-0,206	-0,161
176,852	-15,385	-0,180	-0,080
177,867	57,853	-0,233	-0,158
178,881	437,520	-0,116	-0,176
179,896	-7,669	-0,175	-0,082
180,910	1,848	-0,262	-0,131
181,925	238,165	-0,158	-0,182
182,940	-113,508	-0,274	-0,037
183,954	84,629	-0,218	-0,165
184,969	-127,993	-0,318	-0,031
185,983	11,986	-0,160	0,085
186,998	269,686	-0,081	-0,098
188,013	8,579	-0,222	-0,115
189,027	336,471	-0,169	-0,228
190,042	256,521	-0,141	-0,168
191,056	193,510	-0,147	-0,154
192,071	254,523	-0,153	-0,182
193,086	-90,217	-0,118	-0,023
194,100	-115,445	-0,134	-0,017
195,115	-113,630	-0,190	0,025
196,129	65,422	-0,283	-0,198
197,144	800,000	-0,095	-0,196
198,159	6,144	-0,289	-0,148
199,173	92,802	-0,115	-0,090
200,188	111,703	-0,119	-0,100
201,202	45,384	-0,210	-0,134
202,217	-55,403	-0,230	-0,071
203,232	-29,068	-0,204	-0,081
204,246	299,574	-0,198	-0,254
205,261	-1,858	-0,213	-0,103
206,275	173,953	-0,208	-0,208
207,290	73,560	-0,137	-0,099
208,304	494,069	-0,131	-0,209
209,319	27,731	-0,179	-0,104
210,334	84,928	-0,278	-0,211
211,348	442,588	-0,151	-0,229
212,363	-30,161	-0,193	-0,076
213,377	172,952	-0,153	-0,152
214,392	-17,275	-0,197	-0,085
215,407	65,983	-0,220	-0,154
216,421	660,611	-0,094	-0,167
217,436	-114,197	-0,255	-0,034
218,450	394,445	-0,206	-0,297
219,465	309,637	-0,143	-0,185
220,480	71,549	-0,179	-0,128
221,494	-59,665	-0,261	-0,077
222,509	82,934	-0,110	-0,083
223,523	40,431	-0,112	-0,069
224,538	402,306	-0,161	-0,235
225,553	256,028	-0,197	-0,234
226,567	-35,239	-0,331	-0,124
227,582	-3,295	-0,137	-0,066
228,596	800,000	-0,113	-0,223
229,611	-174,950	-0,329	0,006
230,626	214,718	-0,179	-0,197
231,640	-22,317	-0,180	-0,075
232,655	77,875	-0,126	-0,093
233,669	107,056	-0,294	-0,241
234,684	-91,780	-0,292	-0,057
235,699	98,075	-0,295	-0,234
236,713	321,742	-0,071	-0,093
237,728	-156,711	-0,182	0,008
238,742	5,876	-0,242	-0,123
239,757	3,967	-0,258	-0,130
240,772	24,562	-0,238	-0,135
241,786	-3,928	-0,286	-0,137
242,801	3,597	-0,159	-0,080
243,815	525,852	-0,108	-0,176
244,830	800,000	0,075	-0,201
245,844	-25,122	-0,246	-0,100
246,859	75,664	-0,123	-0,089
247,874	800,000	-0,057	-0,141
248,888	57,541	-0,204	-0,137
249,903	-32,627	-0,150	-0,057
250,917	245,546	-0,084	-0,098
251,932	-16,808	-0,182	-0,079
252,947	800,000	-0,035	-0,074
253,961	456,664	-0,109	-0,167
254,976	296,540	-0,173	-0,219
255,990	105,622	-0,179	-0,146
257,005	-51,752	-0,186	-0,059
258,020	-65,104	-0,115	-0,032
259,034	-141,214	-0,178	-0,012
260,049	40,554	-0,148	-0,092
261,063	15,644	-0,232	-0,125
262,078	-147,001	-0,191	0,011
263,093	238,804	-0,194	-0,223
264,107	-65,206	-0,159	-0,044
265,122	158,503	-0,148	-0,141
266,136	-200,000	-0,042	-0,141
267,151	-185,603	-0,203	0,002
268,166	101,102	-0,109	-0,088
269,180	-200,000	-0,061	-0,273
270,195	84,952	-0,334	-0,252
271,209	592,900	-0,121	-0,207
272,224	-25,377	-0,141	-0,057
273,239	246,004	-0,101	-0,117
274,253	-114,255	-0,151	0,020
275,268	129,903	-0,138	-0,121
276,282	310,269	-0,164	-0,211
277,297	224,512	-0,060	-0,067
278,312	226,311	-0,156	-0,174
279,326	-157,046	-0,293	-0,012
280,341	27,277	-0,107	-0,061
281,355	20,694	-0,146	-0,081
282,370	28,696	-0,176	-0,102
283,384	135,115	-0,175	-0,157
284,399	170,734	-0,162	-0,159
285,414	-200,000	-0,029	-0,094
286,428	-75,621	-0,037	0,009
287,443	-94,574	-0,136	0,025
288,457	195,166	-0,100	-0,104
289,472	298,689	-0,171	-0,217
290,487	466,417	-0,151	-0,234
291,501	-200,000	-0,055	-0,176
292,516	255,370	-0,227	-0,268
293,530	-200,000	-0,041	-0,130
294,545	-100,995	-0,085	-0,014
295,560	-47,960	-0,190	-0,063
296,574	61,938	-0,117	0,080
297,589	-103,563	-0,341	-0,054
298,603	95,513	-0,187	-0,146
299,618	616,367	-0,082	-0,142
300,633	800,000	-0,063	-0,128
301,647	268,866	-0,049	-0,059
302,662	-102,057	-0,151	-0,025
303,676	-26,335	-0,258	-0,103
304,691	-3,115	-0,168	-0,080
305,706	800,000	-0,104	-0,289
306,720	-16,737	-0,141	-0,061
307,735	-61,352	-0,179	-0,051
308,749	-105,246	-0,236	-0,037
309,764	-200,000	0,050	-0,218
310,779	535,755	-0,073	-0,119
311,793	-108,562	-0,184	0,027
312,808	-200,000	-0,066	-0,213
313,822	70,047	-0,270	-0,191
314,837	31,640	-0,141	-0,083
315,852	132,470	-0,135	-0,120
316,866	160,408	-0,112	-0,107
317,881	128,565	-0,097	-0,085
318,895	-73,208	-0,238	-0,059
319,910	-200,000	-0,004	-0,203
320,925	79,907	-0,182	-0,134
321,939	-200,000	-0,024	-0,135
322,954	-73,406	-0,043	0,011
323,968	-9,133	-0,077	0,035
324,983	-98,418	-0,097	-0,017
325,997	-123,336	-0,161	-0,017
327,012	-104,131	-0,234	-0,037
328,027	205,080	-0,154	-0,164
329,041	717,372	-0,071	-0,130
330,056	76,123	-0,102	-0,074
331,070	82,231	-0,101	-0,075
332,085	-101,231	-0,089	0,015
333,100	100,471	-0,084	-0,067
334,114	800,000	-0,015	0,038
335,129	-74,284	-0,190	0,047
336,143	6,437	-0,217	-0,110
337,158	-200,000	-0,026	-0,163
338,173	42,890	-0,025	-0,015
339,187	-140,489	-0,197	0,014
340,202	-173,592	-0,270	0,005
341,216	48,209	-0,173	-0,110
342,231	48,784	-0,189	-0,121
343,246	228,079	-0,105	-0,117
344,260	-175,053	-0,115	-0,002
345,275	-130,740	-0,215	0,020
346,289	-98,539	-0,068	0,012
347,304	273,723	-0,026	-0,032
348,319	155,090	-0,113	-0,107
349,333	-41,496	-0,250	-0,087
350,348	4,759	-0,190	-0,095
351,362	800,000	-0,015	-0,045
352,377	-200,000	-0,020	-0,093
353,392	800,000	-0,108	-0,215
354,406	-81,378	-0,121	-0,027
355,421	207,303	1311,299	1399,271
356,435	159,462	1471,553	1399,710
