DTS Sentinel unit serial number:	SN410029Multiplexer serial number:	ORYXHardware model number:	OX2-SRSoftware version number:	ORYX F/W v4,00 Oryx Data Collector v3.7.2.0data status	okinstallation	B3 Nyhavnadifferential loss correction	single-endedforward channel	channel 1reverse channel	N/Adate	2023/11/29time	11:47:30forward acquisition time	300,00reverse acquisition time	0,00gamma	499,1914k internal	0,3212k external	0,3212temperature offset calibration	1,0000default loss term (dB/km)	0,3820temperature slope calibration	1,0000multiplexer offset coefficient	1,0000multiplexer slope coefficient	1,0000fibre end	0,00T internal ref (°C)	9,62T ext. ref 1 (°C)	-5,11T ext. ref 2 (°C)	-5,23length (m)	temperature (°C)	Stokes	anti-Stokes-744,400	370,170	-0,187	-0,275
-743,385	-200,000	0,026	0,348
-742,371	800,000	-0,109	-0,237
-741,356	-200,000	0,042	0,212
-740,342	190,144	-0,097	-0,106
-739,327	-200,000	-0,052	0,317
-738,312	800,000	-0,096	-0,227
-737,298	424,319	-0,159	0,248
-736,283	503,141	-0,134	-0,226
-735,269	-200,000	-0,039	0,344
-734,254	210,340	-0,134	-0,153
-733,239	-85,189	-0,361	0,081
-732,225	-200,000	-0,024	-0,176
-731,210	525,372	0,105	0,180
-730,196	-103,518	0,065	-0,011
-729,181	-200,000	-0,018	-0,138
-728,167	121,049	0,116	-0,105
-727,152	3,707	-0,192	0,101
-726,137	476,120	-0,037	0,061
-725,123	-100,731	-0,032	0,006
-724,108	136,616	-0,018	0,017
-723,094	-67,687	-0,061	-0,017
-722,079	195,832	0,055	-0,061
-721,064	-67,611	0,097	-0,027
-720,050	800,000	-0,034	-0,092
-719,035	17,032	0,036	0,021
-718,021	-17,762	-0,207	0,094
-717,006	-35,204	-0,078	-0,030
-715,991	-17,833	0,119	-0,054
-714,977	487,008	-0,036	-0,059
-713,962	-2,400	-0,102	-0,051
-712,948	20,375	0,037	-0,022
-711,933	-22,586	-0,060	0,026
-710,918	-69,503	-0,160	-0,044
-709,904	-42,504	0,107	0,039
-708,889	-52,047	-0,081	-0,027
-707,875	-200,000	0,030	-0,143
-706,860	325,433	-0,043	-0,060
-705,845	-200,000	-0,012	0,088
-704,831	-200,000	0,037	-0,125
-703,816	313,026	-0,071	0,097
-702,802	800,000	-0,060	0,161
-701,787	10,353	0,030	-0,017
-700,772	800,000	-0,026	-0,059
-699,758	800,000	-0,014	-0,043
-698,743	-135,643	0,137	0,012
-697,729	447,910	-0,041	-0,065
-696,714	302,798	-0,143	0,192
-695,699	165,136	0,084	0,086
-694,685	-24,289	-0,087	-0,038
-693,670	-200,000	0,014	0,146
-692,656	348,256	-0,033	0,047
-691,641	286,617	-0,027	0,036
-690,627	127,545	-0,095	0,087
-689,612	-200,000	-0,052	-0,215
-688,597	-146,039	0,057	0,004
-687,583	724,983	-0,041	-0,079
-686,568	-63,785	-0,049	0,014
-685,554	-117,878	-0,120	-0,015
-684,539	-143,269	-0,140	-0,010
-683,524	323,423	-0,085	0,118
-682,510	251,701	-0,125	0,154
-681,495	-200,000	0,021	0,121
-680,481	-200,000	-0,004	-0,034
-679,466	-200,000	-0,019	-0,067
-678,451	-200,000	0,007	0,093
-677,437	98,480	0,084	-0,070
-676,422	-200,000	-0,014	0,108
-675,408	800,000	0,027	0,078
-674,393	87,241	-0,059	-0,047
-673,378	-151,312	-0,162	-0,009
-672,364	-40,265	-0,057	-0,021
-671,349	100,629	-0,107	-0,090
-670,335	92,239	-0,046	-0,038
-669,320	70,755	0,037	-0,028
-668,305	397,434	0,055	0,083
-667,291	140,748	-0,155	0,148
-666,276	-200,000	-0,005	-0,023
-665,262	-31,373	-0,087	0,035
-664,247	-200,000	0,005	0,053
-663,232	800,000	0,076	-0,159
-662,218	-200,000	0,013	-0,049
-661,203	-69,806	-0,145	-0,040
-660,189	195,855	-0,034	-0,037
-659,174	134,909	-0,104	0,097
-658,159	5,359	-0,061	-0,032
-657,145	-200,000	-0,026	-0,257
-656,130	141,145	-0,089	-0,086
-655,116	107,759	0,043	-0,037
-654,101	800,000	-0,052	0,115
-653,086	-200,000	-0,031	0,104
-652,072	-117,475	-0,216	-0,028
-651,057	-200,000	-0,030	-0,144
-650,043	-200,000	0,009	-0,075
-649,028	-89,500	-0,104	0,022
-648,014	-15,590	-0,063	0,029
-646,999	6,066	-0,075	0,040
-645,984	-27,747	-0,086	0,036
-644,970	-200,000	0,012	0,073
-643,955	-35,796	-0,055	-0,021
-642,941	223,914	0,062	-0,073
-641,926	149,090	-0,024	0,023
-640,911	-81,566	0,180	0,042
-639,897	21,750	-0,061	0,036
-638,882	157,149	-0,085	-0,085
-637,868	-36,832	-0,096	0,037
-636,853	800,000	-0,013	-0,028
-635,838	72,800	0,055	-0,041
-634,824	388,973	0,045	0,067
-633,809	-79,046	-0,031	0,007
-632,795	-86,721	0,137	-0,030
-631,780	483,904	-0,007	-0,012
-630,765	-200,000	0,001	-0,006
-629,751	75,203	-0,112	-0,085
-628,736	800,000	0,014	-0,032
-627,722	165,959	-0,056	-0,057
-626,707	406,069	-0,011	0,017
-625,692	24,053	0,123	0,073
-624,678	-200,000	-0,017	0,127
-623,663	67,364	-0,148	0,109
-622,649	-200,000	-0,011	0,177
-621,634	194,292	-0,090	0,098
-620,619	-80,084	-0,053	-0,013
-619,605	356,981	0,124	0,178
-618,590	-167,301	-0,035	0,001
-617,576	-45,781	0,168	0,060
-616,561	-200,000	-0,007	-0,037
-615,546	-200,000	0,002	-0,060
-614,532	-115,952	-0,069	-0,009
-613,517	-99,830	-0,129	-0,023
-612,503	274,194	0,042	-0,053
-611,488	295,078	0,029	-0,039
-610,474	-199,560	-0,071	0,000
-609,459	203,942	0,029	-0,033
-608,444	509,655	0,044	-0,074
-607,430	800,000	-0,009	0,019
-606,415	-200,000	0,026	0,132
-605,401	3,965	-0,030	0,016
-604,386	102,781	0,065	-0,055
-603,371	-93,766	0,090	0,018
-602,357	99,153	0,074	0,062
-601,342	256,000	-0,134	-0,166
-600,328	800,000	0,034	-0,097
-599,313	-38,533	0,126	-0,048
-598,298	-200,000	-0,001	0,114
-597,284	-200,000	0,005	-0,115
-596,269	-111,284	0,065	0,009
-595,255	-200,000	0,019	0,117
-594,240	-200,000	0,026	-0,191
-593,225	-103,257	-0,108	0,018
-592,211	48,264	0,119	0,080
-591,196	376,987	0,048	0,070
-590,182	95,854	-0,090	0,074
-589,167	71,770	-0,030	0,022
-588,152	136,578	0,105	0,098
-587,138	800,000	-0,088	-0,226
-586,123	169,910	-0,032	0,033
-585,109	12,082	-0,083	-0,046
-584,094	800,000	0,011	0,033
-583,079	60,801	-0,029	0,021
-582,065	-20,225	0,066	-0,029
-581,050	800,000	-0,010	-0,026
-580,036	166,967	0,056	-0,057
-579,021	-61,683	0,097	0,029
-578,006	-200,000	-0,007	-0,028
-576,992	329,229	0,105	-0,146
-575,977	149,199	-0,059	-0,058
-574,963	-200,000	-0,006	0,115
-573,948	15,661	0,066	-0,037
-572,934	-200,000	0,005	-0,116
-571,919	88,987	-0,102	-0,082
-570,904	357,990	0,080	-0,115
-569,890	125,944	-0,133	-0,121
-568,875	98,652	0,032	0,027
-567,861	-200,000	0,052	-0,184
-566,846	551,731	0,068	0,118
-565,831	276,025	-0,044	0,056
-564,817	425,271	0,058	-0,090
-563,802	-4,058	-0,116	-0,058
-562,788	800,000	-0,004	-0,012
-561,773	69,321	-0,088	-0,065
-560,758	-36,046	0,094	0,037
-559,744	-200,000	-0,017	0,073
-558,729	577,089	0,065	-0,115
-557,715	133,480	-0,029	-0,027
-556,700	-200,000	-0,018	-0,135
-555,685	4,118	0,158	0,083
-554,671	800,000	-0,048	0,136
-553,656	32,785	-0,032	-0,020
-552,642	92,858	0,053	-0,043
-551,627	800,000	-0,020	0,055
-550,612	-92,469	-0,079	-0,016
-549,598	800,000	0,041	-0,098
-548,583	-166,836	-0,027	0,001
-547,569	-200,000	-0,047	-0,182
-546,554	-200,000	0,005	-0,100
-545,539	-84,463	-0,128	0,029
-544,525	744,705	0,034	0,066
-543,510	472,182	0,027	0,045
-542,496	16,973	-0,080	-0,046
-541,481	800,000	-0,026	-0,062
-540,466	39,092	-0,090	0,058
-539,452	176,542	0,051	-0,054
-538,437	48,313	0,055	0,037
-537,423	20,728	-0,098	-0,057
-536,408	800,000	-0,022	0,058
-535,393	-200,000	-0,010	-0,039
-534,379	-200,000	-0,002	-0,106
-533,364	284,580	-0,016	0,021
-532,350	92,280	0,028	-0,023
-531,335	-43,375	0,105	0,038
-530,321	-200,000	-0,013	0,089
-529,306	-2,251	0,072	-0,036
-528,291	-200,000	0,024	-0,079
-527,277	-81,063	0,081	-0,019
-526,262	80,916	-0,031	-0,024
-525,248	28,590	-0,035	0,021
-524,233	62,261	-0,141	0,101
-523,218	-60,680	-0,069	0,021
-522,204	-64,028	0,081	-0,024
-521,189	95,131	-0,060	-0,049
-520,175	107,922	-0,117	-0,100
-519,160	230,152	0,025	-0,029
-518,145	317,013	0,080	0,108
-517,131	191,052	-0,038	-0,042
-516,116	800,000	0,025	0,050
-515,102	38,850	0,036	0,023
-514,087	-118,199	-0,118	0,015
-513,072	-173,433	0,039	-0,001
-512,058	-200,000	0,004	-0,132
-511,043	143,659	-0,065	-0,062
-510,029	139,311	0,084	0,080
-509,014	68,767	-0,111	-0,082
-507,999	472,499	-0,055	-0,089
-506,985	-94,053	0,067	-0,013
-505,970	-200,000	0,001	0,050
-504,956	-200,000	0,001	0,070
-503,941	-200,000	-0,003	-0,037
-502,926	218,667	0,070	-0,080
-501,912	-68,213	0,199	0,055
-500,897	-200,000	-0,010	0,081
-499,883	800,000	0,061	0,124
-498,868	133,488	-0,091	0,084
-497,853	367,853	-0,039	0,056
-496,839	-112,574	0,144	0,020
-495,824	537,318	-0,051	-0,087
-494,810	800,000	-0,055	0,167
-493,795	-1,029	-0,038	-0,019
-492,781	135,985	0,098	0,092
-491,766	442,014	-0,065	-0,102
-490,751	-113,520	-0,090	-0,012
-489,737	217,159	0,072	-0,082
-488,722	-200,000	-0,002	0,017
-487,708	-200,000	-0,033	0,158
-486,693	800,000	-0,037	0,093
-485,678	-26,827	-0,073	0,031
-484,664	42,643	-0,026	0,017
-483,649	-90,808	-0,029	-0,006
-482,635	-200,000	0,037	-0,119
-481,620	237,776	-0,122	0,146
-480,605	-152,182	0,126	-0,006
-479,591	-111,219	0,025	-0,004
-478,576	-74,061	-0,150	0,039
-477,562	800,000	0,062	0,137
-476,547	-200,000	0,025	-0,171
-475,532	-64,664	-0,110	-0,032
-474,518	131,754	0,030	-0,027
-473,503	207,166	0,037	0,042
-472,489	-56,165	-0,081	0,026
-471,474	-200,000	-0,037	-0,121
-470,459	-200,000	0,011	-0,082
-469,445	516,328	0,099	-0,166
-468,430	-110,755	0,043	-0,006
-467,416	134,768	0,065	0,061
-466,401	137,820	0,045	-0,042
-465,386	800,000	0,021	0,046
-464,372	-200,000	-0,003	-0,114
-463,357	-144,676	0,043	-0,003
-462,343	101,838	-0,102	-0,085
-461,328	-200,000	0,020	-0,118
-460,313	800,000	-0,043	0,113
-459,299	631,377	0,077	0,140
-458,284	294,875	-0,042	-0,056
-457,270	-200,000	0,013	-0,076
-456,255	-200,000	-0,005	0,035
-455,241	85,264	-0,101	-0,079
-454,226	137,631	-0,095	-0,089
-453,211	-79,996	0,121	-0,029
-452,197	444,441	0,084	-0,132
-451,182	-22,116	-0,067	-0,029
-450,168	162,289	0,151	0,152
-449,153	51,872	-0,048	0,033
-448,138	263,321	0,045	-0,057
-447,124	130,079	0,102	-0,094
-446,109	-6,849	0,066	0,032
-445,095	38,586	0,105	0,067
-444,080	260,148	0,106	0,132
-443,065	800,000	0,034	-0,067
-442,051	-200,000	-0,011	0,058
-441,036	325,646	-0,052	-0,071
-440,022	-90,949	-0,156	-0,032
-439,007	-97,649	0,183	-0,034
-437,992	-9,152	0,007	0,003
-436,978	-6,928	-0,118	0,057
-435,963	171,958	0,032	-0,033
-434,949	800,000	0,032	-0,082
-433,934	-48,912	-0,093	-0,032
-432,919	-141,455	-0,038	-0,003
-431,905	800,000	0,058	-0,183
-430,890	-54,978	0,135	0,043
-429,876	-200,000	-0,002	0,090
-428,861	543,317	0,047	-0,081
-427,846	27,162	0,024	0,015
-426,832	64,231	-0,089	-0,064
-425,817	522,630	-0,086	-0,146
-424,803	-200,000	-0,007	0,139
-423,788	36,359	-0,125	-0,079
-422,773	-94,674	0,137	-0,026
-421,759	467,301	-0,038	0,060
-420,744	702,709	-0,058	-0,110
-419,730	-157,605	-0,081	0,003
-418,715	-77,338	0,014	-0,003
-417,701	301,644	-0,123	0,163
-416,686	154,662	-0,036	-0,036
-415,671	650,597	-0,019	0,035
-414,657	425,677	-0,022	-0,034
-413,642	-200,000	0,006	0,040
-412,628	800,000	0,013	0,038
-411,613	131,138	0,056	-0,052
-410,598	-85,553	0,039	0,009
-409,584	-200,000	-0,001	-0,040
-408,569	-200,000	-0,026	0,129
-407,555	32,724	-0,073	-0,045
-406,540	73,675	-0,070	0,053
-405,525	184,640	-0,115	-0,122
-404,511	62,530	-0,067	0,048
-403,496	11,542	-0,099	0,054
-402,482	-15,152	0,026	0,012
-401,467	162,200	-0,076	-0,076
-400,452	89,654	0,020	0,016
-399,438	217,020	-0,066	-0,075
-398,423	409,077	-0,053	-0,081
-397,409	122,244	-0,030	-0,027
-396,394	-110,511	0,072	-0,011
-395,379	-200,000	0,047	0,222
-394,365	-137,851	0,126	-0,010
-393,350	-31,367	-0,024	-0,010
-392,336	85,328	0,065	0,051
-391,321	-93,434	-0,050	0,010
-390,306	-22,588	-0,165	-0,071
-389,292	-200,000	0,009	-0,066
-388,277	531,452	0,016	0,027
-387,263	800,000	-0,026	-0,071
-386,248	-200,000	0,034	0,152
-385,233	796,784	-0,027	0,054
-384,219	-38,451	-0,053	-0,020
-383,204	267,497	-0,030	0,038
-382,190	33,286	-0,092	0,057
-381,175	-70,279	-0,068	0,018
-380,160	-1,054	0,206	0,104
-379,146	-138,587	-0,034	0,003
-378,131	326,447	0,090	0,124
-377,117	-113,650	0,061	0,008
-376,102	-200,000	0,003	-0,119
-375,088	800,000	-0,030	-0,086
-374,073	-200,000	-0,008	0,028
-373,058	74,253	-0,044	0,033
-372,044	438,094	0,045	0,071
-371,029	698,592	-0,055	0,103
-370,015	57,843	0,126	-0,088
-369,000	-151,916	-0,157	-0,008
-367,985	-200,000	-0,001	0,005
-366,971	-34,339	-0,058	0,023
-365,956	87,705	0,091	0,072
-364,942	76,518	0,081	-0,061
-363,927	-48,952	0,223	0,076
-362,912	-200,000	-0,019	-0,074
-361,898	54,981	0,163	0,112
-360,883	7,986	-0,029	0,016
-359,869	-75,176	-0,152	0,038
-358,854	-163,813	0,067	0,002
-357,839	-121,411	0,221	0,026
-356,825	65,806	0,068	0,049
-355,810	122,927	-0,081	0,073
-354,796	-200,000	-0,003	-0,121
-353,781	502,191	-0,102	-0,168
-352,766	95,851	0,066	0,053
-351,752	-200,000	0,003	0,015
-350,737	-162,972	-0,075	-0,003
-349,723	444,264	-0,068	0,106
-348,708	800,000	0,046	0,104
-347,693	800,000	0,041	0,107
-346,679	800,000	-0,029	-0,090
-345,664	-200,000	0,014	-0,121
-344,650	-41,127	0,032	-0,012
-343,635	594,850	-0,058	0,103
-342,620	-158,935	0,071	0,003
-341,606	800,000	0,042	0,098
-340,591	-54,409	0,073	-0,023
-339,577	55,240	-0,073	0,050
-338,562	-68,375	0,023	0,006
-337,548	58,949	0,024	-0,017
-336,533	94,978	0,114	0,093
-335,518	-65,349	-0,077	0,022
-334,504	-113,987	-0,117	-0,016
-333,489	105,156	-0,061	-0,051
-332,475	468,168	0,051	-0,082
-331,460	241,130	-0,133	-0,159
-330,445	-53,956	0,047	0,015
-329,431	-165,895	0,046	-0,001
-328,416	800,000	0,035	0,106
-327,402	672,466	0,027	0,050
-326,387	-7,024	0,127	0,061
-325,372	11,823	0,059	0,032
-324,358	65,902	-0,085	-0,061
-323,343	98,970	0,099	0,081
-322,329	-157,062	-0,108	-0,005
-321,314	398,665	0,015	-0,023
-320,299	800,000	-0,030	-0,078
-319,285	622,022	-0,036	-0,065
-318,270	725,286	-0,025	0,048
-317,256	527,329	-0,018	0,031
-316,241	-200,000	0,000	-0,160
-315,226	-109,070	0,048	0,007
-314,212	-74,520	0,075	0,019
-313,197	227,744	0,044	0,052
-312,183	-148,389	-0,108	0,006
-311,168	167,334	0,020	0,020
-310,153	-200,000	-0,015	-0,075
-309,139	340,379	-0,060	-0,084
-308,124	-123,339	0,099	0,011
-307,110	-200,000	0,009	-0,033
-306,095	210,103	0,070	0,078
-305,080	-200,000	0,010	-0,036
-304,066	321,202	0,012	0,016
-303,051	-125,117	-0,084	-0,009
-302,037	-61,341	0,116	-0,035
-301,022	-31,764	-0,043	-0,017
-300,008	-200,000	0,011	-0,144
-298,993	-31,406	-0,049	0,019
-297,978	-9,672	0,196	0,093
-296,964	-200,000	0,000	0,015
-295,949	405,114	-0,031	0,047
-294,935	27,447	-0,006	-0,004
-293,920	145,625	-0,035	-0,033
-292,905	-7,605	0,017	-0,008
-291,891	124,913	0,062	0,056
-290,876	800,000	0,015	-0,048
-289,862	41,050	0,065	0,042
-288,847	-200,000	0,024	-0,098
-287,832	-200,000	0,010	-0,138
-286,818	-200,000	0,000	-0,089
-285,803	24,180	0,061	-0,036
-284,789	-200,000	0,010	-0,052
-283,774	-200,000	-0,008	0,060
-282,759	174,649	0,043	0,045
-281,745	-80,855	-0,073	0,017
-280,730	62,125	-0,087	0,061
-279,716	-200,000	-0,004	0,084
-278,701	800,000	0,030	-0,088
-277,686	800,000	0,057	0,122
-276,672	-24,805	-0,115	0,049
-275,657	206,506	-0,060	0,067
-274,643	123,219	0,028	-0,025
-273,628	389,201	-0,029	0,042
-272,613	-17,581	0,032	-0,014
-271,599	-200,000	0,062	0,252
-270,584	50,727	0,084	0,057
-269,570	-200,000	-0,039	0,140
-268,555	13,668	-0,038	-0,021
-267,540	-68,371	-0,058	-0,016
-266,526	-200,000	-0,018	-0,080
-265,511	63,948	0,085	0,061
-264,497	0,198	-0,039	0,020
-263,482	54,929	0,089	0,061
-262,467	-76,254	-0,058	0,014
-261,453	800,000	0,015	0,039
-260,438	355,300	0,019	0,026
-259,424	259,872	0,035	-0,044
-258,409	-52,517	-0,189	-0,062
-257,395	-200,000	0,035	-0,142
-256,380	576,413	0,024	0,042
-255,365	-149,824	-0,081	0,004
-254,351	-200,000	-0,024	0,083
-253,336	502,188	-0,051	0,083
-252,322	800,000	0,054	-0,113
-251,307	206,079	-0,062	0,069
-250,292	-156,737	-0,037	-0,002
-249,278	90,837	0,138	0,110
-248,263	-200,000	0,056	0,192
-247,249	800,000	0,005	0,012
-246,234	290,096	-0,056	-0,073
-245,219	429,591	-0,074	-0,114
-244,205	-200,000	-0,013	-0,130
-243,190	27,806	-0,165	-0,099
-242,176	-88,063	0,094	0,020
-241,161	-200,000	-0,028	0,113
-240,146	-181,274	0,187	-0,003
-239,132	-107,977	-0,050	-0,008
-238,117	527,399	0,043	-0,073
-237,103	432,035	0,064	-0,098
-236,088	-200,000	-0,003	-0,030
-235,073	-38,447	0,109	-0,041
-234,059	800,000	0,052	0,158
-233,044	32,440	0,037	0,023
-232,030	606,528	-0,048	-0,085
-231,015	-145,434	-0,066	0,004
-230,000	800,000	-0,043	-0,126
-228,986	800,000	0,052	-0,132
-227,971	-194,749	-0,044	0,000
-226,957	60,225	0,138	0,097
-225,942	800,000	-0,022	0,057
-224,927	46,323	0,164	0,108
-223,913	-200,000	-0,006	0,023
-222,898	77,197	-0,071	0,054
-221,884	-200,000	0,001	-0,052
-220,869	23,917	0,019	-0,011
-219,855	128,465	0,098	0,089
-218,840	-200,000	-0,021	0,077
-217,825	-17,570	-0,148	0,066
-216,811	123,614	0,030	-0,027
-215,796	-200,000	0,005	0,061
-214,782	447,577	0,031	-0,049
-213,767	110,892	-0,063	-0,054
-212,752	93,760	0,028	-0,023
-211,738	-200,000	-0,015	0,055
-210,723	800,000	0,030	-0,063
-209,709	543,539	0,021	0,035
-208,694	31,909	-0,191	-0,117
-207,679	-155,808	-0,167	-0,007
-206,665	-73,789	0,133	0,034
-205,650	271,455	0,037	-0,046
-204,636	-200,000	0,047	0,163
-203,621	75,867	0,047	0,035
-202,606	800,000	0,022	-0,059
-201,592	112,172	-0,051	-0,044
-200,577	342,324	-0,051	-0,071
-199,563	-200,000	0,013	0,066
-198,548	-124,717	-0,094	-0,010
-197,533	-200,000	0,005	0,060
-196,519	284,457	0,091	0,116
-195,504	328,285	-0,142	-0,193
-194,490	42,904	-0,049	0,031
-193,475	718,711	0,020	-0,038
-192,460	-200,000	-0,008	-0,117
-191,446	28,411	-0,073	0,044
-190,431	-200,000	0,037	0,118
-189,417	-200,000	0,019	0,124
-188,402	-142,061	-0,061	0,004
-187,387	-92,281	-0,015	-0,003
-186,373	114,586	-0,117	-0,101
-185,358	35,483	0,097	-0,060
-184,344	-69,910	0,087	-0,023
-183,329	214,925	0,037	0,042
-182,315	-104,131	0,094	0,015
-181,300	-53,029	-0,105	0,034
-180,285	-42,471	0,014	-0,005
-179,271	-14,433	-0,101	0,046
-178,256	273,835	0,032	-0,040
-177,242	90,243	0,078	0,062
-176,227	563,321	0,079	0,136
-175,212	371,060	-0,084	0,120
-174,198	57,982	-0,237	0,164
-173,183	256,794	0,075	-0,092
-172,169	370,557	-0,014	0,020
-171,154	366,916	-0,018	0,025
-170,139	-200,000	0,005	0,053
-169,125	-200,000	-0,004	-0,031
-168,110	-88,409	0,100	-0,021
-167,096	288,179	0,034	0,043
-166,081	158,489	-0,157	-0,154
-165,066	-200,000	0,033	-0,190
-164,052	-163,190	-0,024	0,001
-163,037	-200,000	-0,013	-0,072
-162,023	800,000	0,014	-0,034
-161,008	327,160	-0,032	0,044
-159,993	422,103	0,079	0,120
-158,979	28,911	-0,046	-0,028
-157,964	184,468	0,028	-0,029
-156,950	800,000	-0,068	-0,157
-155,935	15,922	0,150	0,083
-154,920	-200,000	0,032	0,126
-153,906	-200,000	0,005	-0,033
-152,891	52,266	0,042	0,028
-151,877	363,051	0,072	-0,102
-150,862	800,000	0,030	-0,086
-149,847	-9,433	-0,037	0,017
-148,833	-46,339	0,126	0,044
-147,818	4,040	0,089	0,046
-146,804	-200,000	-0,027	0,178
-145,789	-200,000	-0,015	0,128
-144,775	800,000	-0,048	0,112
-143,760	-41,489	-0,018	0,007
-142,745	-10,608	-0,063	0,030
-141,731	629,503	0,029	0,052
-140,716	95,594	0,070	0,057
-139,702	-200,000	0,014	0,167
-138,687	82,425	-0,116	-0,089
-137,672	-200,000	0,004	0,195
-136,658	-100,887	-0,113	-0,019
-135,643	95,383	-0,039	-0,032
-134,629	-56,303	0,100	-0,031
-133,614	7,155	0,054	-0,028
-132,599	31,831	0,076	0,046
-131,585	309,181	0,024	-0,032
-130,570	564,523	0,043	0,074
-129,556	11,692	-0,051	-0,027
-128,541	-163,281	0,103	-0,003
-127,526	248,093	0,046	-0,055
-126,512	-126,108	-0,053	-0,006
-125,497	258,829	0,048	0,059
-124,483	-117,752	0,205	0,026
-123,468	800,000	0,054	0,110
-122,453	93,980	-0,067	0,053
-121,439	-200,000	0,009	0,044
-120,424	-15,859	0,044	-0,020
-119,410	-120,643	-0,051	0,006
-118,395	607,050	0,078	0,138
-117,380	266,885	-0,090	0,112
-116,366	494,483	-0,023	-0,038
-115,351	14,699	-0,121	-0,067
-114,337	485,699	0,036	-0,057
-113,322	687,974	-0,048	-0,089
-112,307	-29,186	0,132	0,053
-111,293	800,000	0,036	-0,071
-110,278	-198,578	0,090	0,000
-109,264	51,312	0,115	0,077
-108,249	-85,211	-0,099	0,022
-107,234	22,102	0,054	-0,031
-106,220	-77,411	-0,096	0,023
-105,205	107,397	0,040	0,034
-104,191	8,874	-0,051	0,027
-103,176	-200,000	0,001	0,037
-102,162	332,192	-0,063	-0,086
-101,147	-200,000	-0,015	0,146
-100,132	-200,000	-0,055	-0,196
-99,118	-61,154	-0,145	-0,043
-98,103	96,727	0,099	-0,080
-97,089	279,604	-0,069	0,087
-96,074	498,783	0,066	0,108
-95,059	-200,000	-0,002	-0,070
-94,045	-200,000	-0,039	-0,135
-93,030	-200,000	0,018	-0,082
-92,016	-126,653	-0,064	0,007
-91,001	145,543	-0,026	0,025
-89,986	57,581	-0,121	-0,083
-88,972	-43,456	0,078	-0,028
-87,957	-40,699	-0,058	-0,021
-86,943	117,730	0,024	0,020
-85,928	-200,000	-0,006	-0,070
-84,913	711,587	0,013	-0,025
-83,899	230,943	0,074	0,086
-82,884	-83,921	0,036	-0,008
-81,870	119,727	0,050	0,044
-80,855	800,000	-0,053	-0,106
-79,840	107,751	-0,018	-0,015
-78,826	-200,000	-0,017	-0,101
-77,811	199,878	-0,062	0,067
-76,797	723,720	-0,020	-0,037
-75,782	42,689	0,090	0,058
-74,767	-117,135	0,009	-0,001
-73,753	-80,931	-0,009	-0,002
-72,738	-123,484	-0,055	-0,006
-71,724	800,000	-0,053	0,113
-70,709	-13,271	-0,115	-0,052
-69,694	542,671	-0,046	0,077
-68,680	99,527	0,079	0,065
-67,665	656,881	0,070	0,127
-66,651	100,462	0,024	-0,020
-65,636	-45,144	0,082	-0,028
-64,622	-200,000	-0,064	0,206
-63,607	-64,687	-0,115	-0,033
-62,592	800,000	-0,037	0,111
-61,578	84,761	-0,061	-0,047
-60,563	126,082	-0,056	0,050
-59,549	29,950	0,056	0,034
-58,534	72,974	-1,991	-1,467
-57,519	481,830	-1,223	-1,967
-56,505	-200,000	-0,395	-4,174
-55,490	518,477	0,899	1,490
-54,476	800,000	5,060	11,268
-53,461	-200,000	21,618	343,943
-52,446	800,000	763,391	2357,276
-51,432	552,735	1663,598	2831,516
-50,417	72,248	1659,378	1218,233
-49,403	17,473	1532,777	856,934
-48,388	11,474	1456,675	785,400
-47,373	19,402	1448,067	818,730
-46,359	15,021	1436,923	791,595
-45,344	9,721	1433,091	764,240
-44,330	9,645	1431,094	762,781
-43,315	9,660	1429,289	761,860
-42,300	9,677	1427,529	760,975
-41,286	9,699	1426,214	760,348
-40,271	9,654	1425,044	759,481
-39,257	9,659	1423,875	758,852
-38,242	9,708	1422,739	758,447
-37,227	9,694	1421,716	757,807
-36,213	9,715	1420,237	757,085
-35,198	9,705	1419,114	756,411
-34,184	9,757	1418,033	756,050
-33,169	9,634	1416,978	754,877
-32,154	9,717	1415,869	754,648
-31,140	9,679	1414,611	753,767
-30,125	9,718	1413,505	753,332
-29,111	9,742	1412,236	752,737
-28,096	9,703	1410,988	751,861
-27,082	9,640	1409,990	751,001
-26,067	9,601	1409,036	750,280
-25,052	9,668	1407,789	749,903
-24,038	9,684	1406,930	749,488
-23,023	9,662	1406,112	748,923
-22,009	9,657	1405,039	748,298
-20,994	9,648	1403,957	747,650
-19,979	9,646	1403,215	747,213
-18,965	9,592	1402,220	746,402
-17,950	9,643	1401,208	746,074
-16,936	9,604	1400,283	745,368
-15,921	9,596	1399,260	744,757
-14,906	9,570	1398,444	744,174
-13,892	9,636	1397,411	743,899
-12,877	9,625	1396,496	743,334
-11,863	9,571	1395,831	742,698
-10,848	9,549	1394,799	742,015
-9,833	9,490	1394,273	741,436
-8,819	9,481	1393,207	740,798
-7,804	9,442	1392,371	740,142
-6,790	9,461	1391,286	739,624
-5,775	9,500	1390,075	739,130
-4,760	9,465	1389,070	738,408
-3,746	9,478	1388,214	737,981
-2,731	9,469	1387,506	737,534
-1,717	9,480	1386,510	737,026
-0,702	9,457	1384,782	735,974
0,313	13,488	1297,091	707,777
1,327	29,364	687,905	411,252
2,342	46,147	118,762	77,426
3,356	-0,489	16,454	8,210
4,371	0,991	3,662	1,845
5,386	20,550	1,068	0,607
6,400	800,000	0,309	0,705
7,415	-38,842	-0,095	-0,035
8,429	-60,092	-0,309	-0,092
9,444	555,383	-0,105	-0,179
10,459	127,901	-0,282	-0,253
11,473	14,728	-0,254	-0,139
12,488	-56,829	-0,346	-0,107
13,502	109,612	-0,288	-0,243
14,517	40,864	-0,304	-0,193
15,531	176,127	-0,305	-0,312
16,546	-57,528	-0,264	-0,081
17,561	7,277	-0,353	-0,185
18,575	-12,676	-0,244	-0,112
19,590	84,304	-0,282	-0,217
20,604	-144,341	-0,215	0,014
21,619	37,786	-0,363	-0,226
22,634	82,623	-0,382	-0,292
23,648	73,117	-0,493	-0,362
24,663	25,096	-0,431	-0,251
25,677	53,214	-0,306	-0,206
26,692	-8,662	-0,319	-0,150
27,707	122,630	-0,320	-0,281
28,721	76,269	-0,505	-0,376
29,736	50,991	-0,414	-0,276
30,750	43,679	-0,383	-0,246
31,765	121,194	-0,336	-0,294
32,780	-9,412	-0,361	-0,169
33,794	21,251	-0,231	-0,132
34,809	15,920	-0,324	-0,179
35,823	-49,204	-0,329	-0,110
36,838	57,220	-0,374	-0,256
37,853	-22,721	-0,360	-0,152
38,867	37,419	-0,312	-0,194
39,882	7,411	-0,435	-0,228
40,896	379,568	-0,229	-0,330
41,911	212,337	-0,129	-0,143
42,926	143,441	-0,301	-0,282
43,940	25,156	-0,427	-0,249
44,955	399,503	-0,259	-0,383
45,969	69,459	-0,367	-0,265
46,984	-94,506	-0,338	-0,064
47,999	31,762	-0,361	-0,218
49,013	139,847	-0,244	-0,226
50,028	-181,456	-0,300	0,004
51,042	39,619	-0,280	-0,176
52,057	-49,863	-0,439	-0,146
53,071	-10,785	-0,337	-0,156
54,086	75,387	-0,333	-0,246
55,101	35,872	-0,408	-0,252
56,115	-5,308	-0,313	-0,150
57,130	-75,413	-0,395	-0,098
58,144	-45,080	-0,358	-0,124
59,159	88,068	-0,335	-0,261
60,174	207,594	-0,247	-0,270
61,188	108,088	-0,417	-0,349
62,203	70,520	-0,247	-0,179
63,217	46,360	-0,409	-0,265
64,232	52,562	-0,218	-0,146
65,247	171,790	-0,264	-0,266
66,261	-53,025	-0,476	-0,152
67,276	-63,183	-0,299	-0,086
68,290	-98,646	-0,432	-0,077
69,305	6,711	-0,258	-0,134
70,320	6,750	-0,352	-0,183
71,334	-57,094	-0,437	-0,134
72,349	148,833	-0,314	-0,298
73,363	26,714	-0,334	-0,196
74,378	-50,943	-0,237	-0,078
75,393	27,869	-0,336	-0,198
76,407	56,489	-0,266	-0,181
77,422	23,862	-0,280	-0,162
78,436	-73,834	-0,268	-0,068
79,451	0,725	-0,379	-0,189
80,466	-1,366	-0,266	-0,131
81,480	318,382	-0,147	-0,196
82,495	115,439	-0,258	-0,221
83,509	83,471	-0,352	-0,269
84,524	345,421	-0,216	-0,298
85,539	79,288	-0,270	-0,203
86,553	100,250	-0,205	-0,166
87,568	46,977	-0,271	-0,176
88,582	49,769	-0,404	-0,266
89,597	369,068	-0,220	-0,312
90,611	97,001	-0,301	-0,241
91,626	35,676	-0,188	-0,115
92,641	151,708	-0,286	-0,273
93,655	-46,404	-0,306	-0,105
94,670	283,452	-0,281	-0,354
95,684	92,687	-0,216	-0,170
96,699	257,594	-0,252	-0,304
97,714	398,725	-0,170	-0,249
98,728	81,964	-0,317	-0,240
99,743	-99,815	-0,156	0,027
100,757	3,473	-0,178	-0,090
101,772	14,516	-0,415	-0,226
102,787	-17,904	-0,360	-0,157
103,801	102,535	-0,388	-0,317
104,816	-14,447	-0,272	-0,122
105,830	-2,160	-0,262	-0,128
106,845	-25,788	-0,336	-0,138
107,860	-68,596	-0,300	-0,081
108,874	512,957	-0,209	-0,342
109,889	39,939	-0,253	-0,158
110,903	205,348	-0,223	-0,242
111,918	99,670	-0,150	-0,121
112,933	-14,607	-0,264	-0,118
113,947	-59,314	-0,270	-0,081
114,962	21,015	-0,150	-0,085
115,976	288,299	-0,178	-0,226
116,991	210,438	-0,257	-0,282
118,006	219,379	-0,106	-0,119
119,020	286,172	-0,166	-0,210
120,035	3,550	-0,271	-0,137
121,049	-24,602	-0,282	-0,117
122,064	108,417	-0,208	-0,174
123,079	67,150	-0,215	-0,153
124,093	124,741	-0,248	-0,218
125,108	-97,519	-0,347	0,062
126,122	800,000	-0,154	-0,303
127,137	118,936	-0,183	-0,158
128,151	347,140	-0,119	-0,164
129,166	317,359	-0,122	-0,161
130,181	1,680	-0,261	-0,130
131,195	276,041	-0,241	-0,299
132,210	-94,657	-0,301	-0,057
133,224	110,566	-0,231	-0,194
134,239	311,009	-0,161	-0,211
135,254	-62,166	-0,368	-0,106
136,268	-70,163	-0,239	-0,063
137,283	-174,822	-0,288	0,006
138,297	443,983	-0,171	-0,262
139,312	-86,010	-0,187	-0,040
140,327	64,573	-0,316	-0,222
141,341	477,996	-0,125	-0,198
142,356	74,754	-0,142	-0,104
143,370	244,142	-0,174	-0,204
144,385	106,087	-0,122	-0,101
145,400	398,749	-0,199	-0,290
146,414	800,000	-0,194	-0,376
147,429	48,142	-0,264	-0,171
148,443	69,738	-0,269	-0,193
149,458	10,010	-0,187	-0,098
150,473	-51,707	-0,376	-0,121
151,487	54,428	-0,180	-0,120
152,502	309,404	-0,184	-0,240
153,516	33,500	-0,171	-0,103
154,531	-11,070	-0,242	-0,111
155,546	130,927	-0,214	-0,191
156,560	-36,659	-0,222	-0,083
157,575	189,124	-0,204	-0,213
158,589	-62,929	-0,351	-0,100
159,604	197,951	-0,155	-0,165
160,619	-78,112	-0,258	-0,061
161,633	112,513	-0,205	-0,172
162,648	235,384	-0,213	-0,245
163,662	29,051	-0,219	-0,129
164,677	-12,951	-0,294	-0,132
165,692	-106,582	-0,144	-0,022
166,706	606,750	-0,130	-0,226
167,721	254,215	-0,322	-0,384
168,735	193,861	-0,289	-0,305
169,750	-5,928	-0,224	-0,106
170,764	-117,295	-0,277	-0,035
171,779	49,687	-0,275	-0,179
172,794	-54,694	-0,130	-0,041
173,808	0,893	-0,216	-0,107
174,823	239,285	-0,239	-0,276
175,837	-14,729	-0,286	-0,127
176,852	-23,355	-0,196	-0,082
177,867	-145,887	-0,333	-0,020
178,881	178,131	-0,131	-0,133
179,896	-115,268	-0,248	-0,032
180,910	424,425	-0,174	-0,261
181,925	-38,127	-0,177	-0,065
182,940	30,744	-0,242	-0,143
183,954	210,058	-0,150	-0,164
184,969	-0,698	-0,232	-0,114
185,983	42,399	-0,252	-0,159
186,998	534,844	-0,076	-0,126
188,013	20,097	-0,229	-0,128
189,027	387,196	-0,207	-0,297
190,042	20,480	-0,354	-0,198
191,056	800,000	-0,100	-0,260
192,071	20,576	-0,237	-0,133
193,086	170,069	-0,165	-0,164
194,100	97,285	-0,142	-0,113
195,115	106,631	-0,205	-0,168
196,129	229,457	-0,219	-0,249
197,144	187,443	-0,171	-0,177
198,159	-127,425	-0,160	-0,016
199,173	39,399	-0,156	-0,097
200,188	238,027	-0,200	-0,231
201,202	-123,449	-0,263	-0,029
202,217	-129,776	-0,162	-0,015
203,232	223,071	-0,146	-0,163
204,246	278,639	-0,218	-0,270
205,261	698,318	-0,141	-0,258
206,275	-42,856	-0,063	0,022
207,290	-53,445	-0,090	-0,028
208,304	-111,622	-0,237	-0,033
209,319	666,412	-0,054	-0,098
210,334	28,701	-0,240	-0,140
211,348	8,904	-0,308	-0,160
212,363	141,154	-0,157	-0,144
213,377	29,391	-0,150	-0,088
214,392	800,000	-0,087	-0,225
215,407	-70,262	-0,256	-0,067
216,421	221,310	-0,140	-0,155
217,436	-192,619	-0,180	0,001
218,450	118,919	-0,170	-0,145
219,465	49,654	-0,190	-0,124
220,480	-58,715	-0,208	-0,062
221,494	18,946	-0,234	-0,129
222,509	-125,907	-0,301	-0,031
223,523	183,408	-0,144	-0,147
224,538	-96,911	-0,209	-0,038
225,553	204,861	-0,174	-0,186
226,567	81,272	-0,119	-0,089
227,582	92,929	-0,114	-0,089
228,596	-14,986	-0,113	-0,050
229,611	-65,420	-0,208	-0,057
230,626	64,086	-0,230	-0,159
231,640	-164,588	-0,146	-0,004
232,655	-26,781	-0,261	-0,105
233,669	481,506	-0,116	-0,183
234,684	236,546	-0,157	-0,180
235,699	11,684	-0,153	-0,081
236,713	49,672	-0,089	-0,058
237,728	-134,108	-0,215	-0,018
238,742	56,440	-0,212	-0,142
239,757	7,057	-0,229	-0,117
240,772	309,767	-0,185	-0,239
241,786	100,814	-0,193	-0,155
242,801	45,255	-0,043	-0,027
243,815	46,788	-0,241	-0,155
244,830	-24,506	-0,162	0,066
245,844	179,157	-0,186	-0,188
246,859	118,438	-0,199	-0,170
247,874	422,080	-0,103	-0,153
248,888	193,511	-0,176	-0,184
249,903	106,141	-0,022	-0,018
250,917	-65,423	-0,195	-0,054
251,932	350,318	-0,068	-0,093
252,947	704,841	-0,066	-0,121
253,961	10,571	-0,206	-0,108
254,976	79,641	-0,213	-0,158
255,990	800,000	-0,109	-0,215
257,005	127,219	-0,135	-0,118
258,020	-200,000	0,005	-0,065
259,034	782,415	-0,068	-0,130
260,049	131,711	-0,135	-0,120
261,063	56,113	-0,201	-0,134
262,078	7,130	-0,227	-0,117
263,093	301,534	-0,205	-0,262
264,107	167,921	-0,201	-0,197
265,122	129,602	-0,112	-0,099
266,136	82,233	-0,050	-0,037
267,151	119,796	-0,171	-0,146
268,166	291,080	-0,156	-0,196
269,180	696,435	-0,095	-0,173
270,195	26,439	-0,178	-0,102
271,209	-50,513	-0,156	-0,050
272,224	206,871	-0,197	-0,211
273,239	800,000	-0,055	-0,137
274,253	-73,048	-0,111	-0,028
275,268	-92,074	-0,132	-0,025
276,282	28,743	-0,107	-0,062
277,297	178,751	-0,083	-0,083
278,312	40,679	-0,243	-0,151
279,326	-31,919	-0,127	-0,049
280,341	78,397	-0,125	-0,092
281,355	4,358	-0,118	-0,059
282,370	-72,984	-0,195	-0,049
283,384	-66,958	-0,278	-0,075
284,399	37,087	-0,175	-0,106
285,414	800,000	-0,104	-0,301
286,428	145,746	-0,158	-0,146
287,443	800,000	-0,049	-0,120
288,457	42,801	-0,231	-0,144
289,472	35,450	-0,096	-0,058
290,487	-68,593	-0,124	-0,033
291,501	800,000	-0,111	-0,238
292,516	38,717	-0,155	-0,095
293,530	8,894	-0,141	-0,073
294,545	89,995	-0,141	-0,108
295,560	-84,940	-0,176	-0,038
296,574	-126,934	-0,111	0,011
297,589	-46,112	-0,160	-0,054
298,603	-71,954	-0,235	-0,060
299,618	108,712	-0,178	-0,146
300,633	55,599	-0,128	-0,085
301,647	11,672	-0,095	-0,050
302,662	-148,579	-0,205	-0,011
303,676	-76,817	-0,122	0,029
304,691	775,628	-0,055	-0,104
305,706	-40,725	-0,167	-0,059
306,720	65,354	-0,231	-0,160
307,735	208,206	-0,100	-0,107
308,749	197,734	-0,131	-0,138
309,764	143,816	-0,100	-0,091
310,779	-120,377	-0,080	-0,009
311,793	-89,699	-0,120	-0,024
312,808	367,279	-0,240	-0,333
313,822	165,696	-0,122	-0,118
314,837	-98,922	-0,086	-0,015
315,852	273,046	-0,057	-0,070
316,866	-200,000	0,021	-0,155
317,881	800,000	-0,044	-0,084
318,895	800,000	-0,046	-0,098
319,910	-114,992	-0,151	-0,020
320,925	159,167	-0,169	-0,162
321,939	106,240	0,136	-0,110
322,954	-194,225	-0,167	0,001
323,968	-120,607	-0,142	-0,016
324,983	73,729	-0,153	-0,110
325,997	-132,449	-0,176	0,015
327,012	6,389	-0,195	-0,099
328,027	18,169	-0,072	-0,039
329,041	365,970	-0,106	-0,147
330,056	153,257	-0,216	-0,202
331,070	151,573	-0,131	-0,122
332,085	76,113	-0,129	-0,094
333,100	73,375	-0,148	-0,106
334,114	59,821	-0,183	-0,123
335,129	148,140	-0,139	-0,129
336,143	188,173	-0,106	-0,109
337,158	-200,000	-0,018	-0,135
338,173	-63,359	-0,208	-0,058
339,187	88,063	-0,110	-0,083
340,202	-82,876	-0,104	-0,023
341,216	349,936	-0,164	-0,222
342,231	210,064	-0,196	-0,210
343,246	234,673	-0,143	-0,162
344,260	192,329	-0,093	-0,097
345,275	-200,000	0,042	-0,253
346,289	-123,110	-0,069	-0,007
347,304	363,184	-0,056	-0,077
348,319	-108,676	-0,145	-0,021
349,333	800,000	-0,067	-0,144
350,348	800,000	-0,078	-0,179
351,362	23,936	-0,070	-0,039
352,377	491,376	-0,091	-0,144
353,392	-200,000	-0,040	-0,179
354,406	-139,732	-0,219	0,016
355,421	207,205	1306,745	1394,976
356,435	159,385	1466,475	1395,450
