DTS Sentinel unit serial number:	SN410029Multiplexer serial number:	ORYXHardware model number:	OX2-SRSoftware version number:	ORYX F/W v4,00 Oryx Data Collector v3.7.2.0data status	okinstallation	B3 Nyhavnadifferential loss correction	single-endedforward channel	channel 1reverse channel	N/Adate	2023/11/28time	21:47:30forward acquisition time	300,00reverse acquisition time	0,00gamma	499,1914k internal	0,3212k external	0,3212temperature offset calibration	1,0000default loss term (dB/km)	0,3820temperature slope calibration	1,0000multiplexer offset coefficient	1,0000multiplexer slope coefficient	1,0000fibre end	0,00T internal ref (°C)	8,43T ext. ref 1 (°C)	-6,07T ext. ref 2 (°C)	-6,24length (m)	temperature (°C)	Stokes	anti-Stokes-744,400	90,444	-0,145	-0,118
-743,385	-200,000	-0,026	0,227
-742,371	406,287	-0,149	-0,228
-741,356	-200,000	-0,004	0,271
-740,342	238,781	-0,084	-0,102
-739,327	117,236	-0,260	0,232
-738,312	438,201	-0,193	-0,305
-737,298	615,290	0,101	0,184
-736,283	-168,994	-0,239	0,006
-735,269	-200,000	0,089	0,366
-734,254	800,000	-0,085	-0,228
-733,239	-64,055	-0,286	0,084
-732,225	158,071	-0,211	-0,212
-731,210	-200,000	-0,008	0,109
-730,196	319,709	0,038	-0,053
-729,181	303,341	0,059	-0,079
-728,167	800,000	-0,068	-0,166
-727,152	-200,000	0,012	0,067
-726,137	-155,060	-0,200	-0,009
-725,123	55,045	0,021	-0,015
-724,108	-200,000	0,033	-0,139
-723,094	-200,000	-0,044	-0,212
-722,079	52,609	-0,070	0,048
-721,064	-77,372	0,063	0,016
-720,050	800,000	-0,072	-0,156
-719,035	-64,983	0,120	-0,035
-718,021	-123,295	-0,166	0,019
-717,006	-13,068	-0,122	-0,057
-715,991	318,307	-0,073	-0,100
-714,977	-167,448	-0,024	0,001
-713,962	800,000	-0,036	-0,078
-712,948	-200,000	-0,024	0,145
-711,933	567,944	0,061	-0,107
-710,918	-4,887	-0,112	-0,056
-709,904	-200,000	0,003	-0,040
-708,889	-63,621	-0,113	-0,033
-707,875	-140,243	-0,193	-0,014
-706,860	-200,000	0,010	-0,079
-705,845	-58,239	-0,102	-0,032
-704,831	423,160	-0,055	0,086
-703,816	96,645	0,115	0,095
-702,802	-88,884	-0,060	-0,013
-701,787	1,988	-0,100	0,052
-700,772	-200,000	0,003	-0,190
-699,758	-200,000	-0,004	0,144
-698,743	-200,000	0,004	-0,050
-697,729	-93,296	-0,062	0,012
-696,714	-120,932	0,130	0,016
-695,699	547,962	-0,079	-0,138
-694,685	-200,000	0,004	-0,095
-693,670	123,152	0,004	0,003
-692,656	-200,000	-0,014	0,112
-691,641	24,890	0,039	0,024
-690,627	-200,000	0,007	0,027
-689,612	-200,000	-0,003	0,070
-688,597	135,711	-0,130	-0,122
-687,583	800,000	0,033	-0,085
-686,568	-200,000	-0,008	-0,112
-685,554	-200,000	-0,010	-0,041
-684,539	192,818	-0,023	0,025
-683,524	-144,730	-0,033	-0,002
-682,510	-40,521	-0,079	-0,029
-681,495	-200,000	0,018	0,069
-680,481	122,331	0,043	0,039
-679,466	482,871	0,049	-0,081
-678,451	-91,040	-0,175	0,036
-677,437	-5,624	-0,067	-0,033
-676,422	-51,545	-0,005	0,002
-675,408	-35,625	-0,079	-0,031
-674,393	512,545	-0,094	-0,159
-673,378	-79,651	-0,139	-0,034
-672,364	-200,000	-0,011	-0,046
-671,349	46,015	-0,048	-0,032
-670,335	-200,000	0,013	0,049
-669,320	800,000	0,069	0,182
-668,305	130,987	-0,107	0,099
-667,291	435,574	-0,044	-0,069
-666,276	0,096	-0,129	0,066
-665,262	800,000	-0,036	-0,090
-664,247	-200,000	-0,003	-0,103
-663,232	-200,000	-0,056	-0,205
-662,218	57,739	0,147	-0,104
-661,203	282,848	-0,145	0,189
-660,189	62,575	-0,082	-0,059
-659,174	578,644	-0,011	-0,020
-658,159	147,492	-0,080	-0,078
-657,145	-78,034	-0,097	-0,024
-656,130	-16,285	0,078	0,035
-655,116	85,624	0,048	0,038
-654,101	-200,000	-0,024	0,101
-653,086	-57,324	-0,153	0,048
-652,072	800,000	-0,009	-0,025
-651,057	152,375	0,150	-0,148
-650,043	-200,000	0,008	-0,138
-649,028	69,131	-0,059	-0,044
-648,014	458,035	0,060	0,097
-646,999	800,000	0,034	0,089
-645,984	-200,000	-0,004	-0,040
-644,970	491,730	-0,041	-0,069
-643,955	682,513	0,036	-0,068
-642,941	-91,568	-0,078	0,016
-641,926	-75,413	-0,090	-0,023
-640,911	-43,383	0,059	0,021
-639,897	-200,000	-0,002	-0,049
-638,882	241,563	-0,045	0,055
-637,868	73,276	0,063	0,047
-636,853	55,973	-0,046	-0,032
-635,838	354,672	-0,040	-0,058
-634,824	172,668	0,060	-0,063
-633,809	18,321	0,123	-0,070
-632,795	-44,841	0,227	-0,081
-631,780	35,929	-0,045	0,028
-630,765	536,758	0,033	-0,056
-629,751	-129,801	-0,077	-0,008
-628,736	-75,134	-0,226	-0,058
-627,722	800,000	0,026	0,072
-626,707	-62,793	-0,074	-0,022
-625,692	468,931	0,041	0,066
-624,678	283,643	-0,020	0,026
-623,663	131,481	-0,079	-0,073
-622,649	325,777	0,028	-0,039
-621,634	-91,414	-0,146	0,030
-620,619	463,453	-0,036	-0,057
-619,605	285,941	0,030	0,040
-618,590	-61,531	0,088	0,026
-617,576	-200,000	-0,003	0,100
-616,561	434,242	-0,026	-0,041
-615,546	800,000	0,035	0,085
-614,532	-200,000	-0,004	-0,032
-613,517	100,455	0,032	0,027
-612,503	800,000	0,004	0,009
-611,488	55,191	0,104	-0,072
-610,474	-200,000	0,044	0,140
-609,459	-200,000	0,007	0,027
-608,444	-200,000	0,017	-0,243
-607,430	317,919	-0,061	-0,083
-606,415	-157,622	0,071	0,003
-605,401	-200,000	-0,021	0,166
-604,386	70,826	0,068	0,051
-603,371	650,476	-0,056	0,104
-602,357	85,761	-0,060	0,047
-601,342	76,822	0,034	-0,026
-600,328	-173,104	-0,106	-0,002
-599,313	169,709	0,074	-0,076
-598,298	-38,209	-0,037	-0,014
-597,284	-200,000	-0,009	-0,048
-596,269	-35,539	-0,109	0,042
-595,255	738,227	-0,020	0,038
-594,240	68,033	-0,086	0,063
-593,225	138,269	0,086	0,081
-592,211	59,140	0,034	-0,024
-591,196	57,288	0,073	-0,051
-590,182	-33,399	0,141	-0,056
-589,167	571,349	-0,052	0,092
-588,152	-81,555	0,092	0,022
-587,138	299,809	-0,050	-0,067
-586,123	-200,000	0,002	-0,117
-585,109	-125,023	0,031	0,003
-584,094	96,579	-0,083	0,069
-583,079	-200,000	-0,014	0,102
-582,065	-121,979	0,048	-0,006
-581,050	-123,973	-0,130	-0,015
-580,036	6,959	-0,054	0,029
-579,021	81,144	-0,073	-0,057
-578,006	-57,013	0,061	-0,019
-576,992	337,919	-0,046	-0,064
-575,977	748,474	0,069	-0,134
-574,963	211,312	0,032	0,036
-573,948	800,000	0,017	0,037
-572,934	-49,424	0,092	-0,032
-571,919	-58,029	0,005	0,001
-570,904	558,215	-0,021	0,037
-569,890	84,554	-0,096	0,075
-568,875	730,988	-0,059	0,115
-567,861	292,614	0,113	-0,148
-566,846	-200,000	-0,029	-0,178
-565,831	-88,464	-0,074	0,016
-564,817	-200,000	-0,015	-0,080
-563,802	243,804	0,037	0,045
-562,788	-165,877	-0,031	-0,001
-561,773	-200,000	-0,017	0,062
-560,758	-200,000	0,025	0,132
-559,744	-200,000	0,003	0,114
-558,729	-123,107	-0,048	0,005
-557,715	299,165	-0,044	0,059
-556,700	27,389	-0,025	0,015
-555,685	800,000	-0,010	-0,022
-554,671	-97,959	0,117	0,022
-553,656	380,129	0,082	0,122
-552,642	-22,254	0,073	-0,032
-551,627	-200,000	-0,041	-0,142
-550,612	-200,000	0,001	-0,097
-549,598	157,530	-0,045	0,045
-548,583	72,869	-0,047	-0,035
-547,569	-200,000	0,004	-0,054
-546,554	-29,761	0,114	-0,047
-545,539	-69,788	-0,106	0,029
-544,525	-200,000	0,002	0,054
-543,510	100,962	0,104	-0,087
-542,496	-55,339	-0,108	-0,035
-541,481	639,402	-0,048	0,089
-540,466	156,581	0,040	0,040
-539,452	226,953	0,035	-0,041
-538,437	92,475	0,020	0,016
-537,423	-200,000	0,005	-0,073
-536,408	128,485	-0,022	0,020
-535,393	-154,124	-0,105	0,005
-534,379	-16,594	-0,034	0,015
-533,364	800,000	-0,034	-0,083
-532,350	-200,000	0,000	-0,074
-531,335	438,995	0,095	0,149
-530,321	-77,962	0,044	0,011
-529,306	100,620	-0,147	-0,123
-528,291	36,088	-0,050	0,032
-527,277	-65,790	0,041	0,012
-526,262	-200,000	0,007	-0,082
-525,248	-116,636	0,089	-0,012
-524,233	59,872	0,042	0,030
-523,218	800,000	0,030	0,088
-522,204	-2,650	-0,050	0,025
-521,189	-23,569	0,093	-0,040
-520,175	138,495	-0,078	-0,073
-519,160	-148,314	-0,118	-0,007
-518,145	-50,693	0,020	-0,007
-517,131	-55,112	0,048	-0,015
-516,116	61,809	-0,054	-0,038
-515,102	-200,000	0,003	0,144
-514,087	-109,323	-0,054	0,008
-513,072	-200,000	-0,055	-0,216
-512,058	-83,376	0,057	0,013
-511,043	486,062	0,062	0,101
-510,029	478,516	-0,014	0,023
-509,014	-47,577	0,075	0,026
-507,999	800,000	-0,021	0,048
-506,985	-27,498	-0,091	-0,038
-505,970	544,622	0,111	-0,192
-504,956	800,000	-0,003	0,007
-503,941	33,128	0,054	-0,033
-502,926	6,870	0,136	0,072
-501,912	177,295	0,121	-0,126
-500,897	-102,804	-0,040	-0,007
-499,883	800,000	-0,071	0,142
-498,868	800,000	-0,026	-0,055
-497,853	800,000	-0,063	-0,158
-496,839	-104,712	-0,085	-0,014
-495,824	-200,000	-0,029	-0,125
-494,810	89,674	0,100	-0,080
-493,795	-200,000	-0,015	0,155
-492,781	-200,000	0,020	-0,073
-491,766	-7,620	-0,039	-0,019
-490,751	-89,180	0,059	0,012
-489,737	538,389	-0,037	0,064
-488,722	210,315	0,067	-0,075
-487,708	-200,000	0,035	0,156
-486,693	368,858	-0,037	-0,053
-485,678	-23,148	0,044	-0,019
-484,664	-200,000	-0,039	-0,181
-483,649	-152,000	-0,042	0,002
-482,635	-135,730	-0,030	-0,003
-481,620	800,000	-0,021	0,053
-480,605	113,473	0,088	0,077
-479,591	-135,375	-0,040	0,003
-478,576	-200,000	0,002	0,042
-477,562	33,737	-0,098	0,061
-476,547	131,979	0,102	0,094
-475,532	800,000	-0,010	0,028
-474,518	22,583	0,112	0,066
-473,503	-14,263	0,059	-0,027
-472,489	238,103	-0,031	0,036
-471,474	37,126	0,122	0,077
-470,459	387,408	-0,071	-0,105
-469,445	43,309	0,118	-0,077
-468,430	624,234	0,049	0,089
-467,416	-200,000	-0,011	-0,089
-466,401	800,000	-0,049	-0,130
-465,386	-22,545	0,105	-0,045
-464,372	153,418	-0,076	0,074
-463,357	6,884	0,033	0,018
-462,343	-8,718	-0,041	0,020
-461,328	-28,877	0,046	-0,019
-460,313	800,000	0,036	0,073
-459,299	-34,612	-0,069	0,027
-458,284	32,943	0,102	-0,063
-457,270	800,000	0,026	-0,059
-456,255	-200,000	-0,041	-0,143
-455,241	-24,614	-0,082	-0,035
-454,226	649,547	-0,036	-0,065
-453,211	-47,908	0,118	0,041
-452,197	-102,680	0,035	-0,006
-451,182	-37,391	-0,121	0,046
-450,168	-164,489	0,029	0,001
-449,153	33,888	0,043	0,027
-448,138	443,746	-0,066	-0,103
-447,124	114,429	-0,132	-0,115
-446,109	-44,008	0,078	-0,028
-445,095	-200,000	0,008	0,060
-444,080	800,000	-0,048	0,127
-443,065	179,376	0,164	-0,172
-442,051	-45,395	-0,113	0,040
-441,036	-200,000	-0,006	-0,083
-440,022	-200,000	-0,008	-0,147
-439,007	19,315	0,080	0,046
-437,992	-200,000	0,024	0,170
-436,978	82,198	0,118	0,092
-435,963	-200,000	0,016	0,056
-434,949	68,387	-0,039	-0,028
-433,934	39,734	0,047	-0,030
-432,919	26,500	-0,094	-0,056
-431,905	-27,566	0,067	0,028
-430,890	-9,849	-0,055	-0,026
-429,876	-63,743	-0,080	-0,023
-428,861	-104,907	-0,139	0,023
-427,846	800,000	0,042	0,121
-426,832	-7,439	-0,199	-0,096
-425,817	38,241	-0,031	-0,020
-424,803	94,670	0,080	0,065
-423,788	322,731	0,018	-0,025
-422,773	417,773	-0,038	0,058
-421,759	-200,000	0,021	0,074
-420,744	800,000	0,022	-0,066
-419,730	-200,000	0,026	-0,143
-418,715	297,813	-0,046	-0,061
-417,701	-191,842	-0,021	-0,000
-416,686	800,000	-0,028	0,082
-415,671	57,922	0,046	0,032
-414,657	272,738	-0,015	0,019
-413,642	243,158	-0,057	0,068
-412,628	800,000	0,011	0,029
-411,613	18,523	0,074	-0,042
-410,598	-200,000	0,008	-0,085
-409,584	-169,533	0,086	-0,002
-408,569	5,431	0,065	0,034
-407,555	179,155	0,053	-0,056
-406,540	800,000	-0,051	-0,152
-405,525	93,638	-0,002	-0,002
-404,511	743,798	-0,011	-0,022
-403,496	45,712	0,026	-0,017
-402,482	-200,000	-0,037	0,176
-401,467	176,060	0,034	-0,035
-400,452	-42,997	0,107	0,039
-399,438	169,609	-0,063	-0,064
-398,423	186,193	0,048	-0,052
-397,409	-94,134	-0,126	0,024
-396,394	-135,477	-0,080	0,007
-395,379	-200,000	-0,002	0,051
-394,365	-125,765	-0,122	-0,013
-393,350	101,767	0,045	0,037
-392,336	38,975	0,032	0,020
-391,321	244,117	-0,032	0,038
-390,306	79,336	-0,104	-0,079
-389,292	-200,000	-0,004	-0,052
-388,277	207,809	-0,058	0,065
-387,263	24,949	0,101	0,060
-386,248	117,478	0,109	0,096
-385,233	718,464	0,042	0,080
-384,219	-112,639	-0,088	-0,012
-383,204	47,868	-0,047	-0,031
-382,190	-187,543	-0,067	-0,001
-381,175	557,975	0,021	0,037
-380,160	47,826	-0,039	-0,026
-379,146	800,000	-0,064	0,156
-378,131	-70,046	-0,048	0,013
-377,117	-101,035	-0,104	-0,018
-376,102	-158,520	-0,054	0,002
-375,088	-6,814	-0,128	0,062
-374,073	726,136	0,051	-0,097
-373,058	445,182	0,035	-0,055
-372,044	-49,225	0,105	-0,036
-371,029	800,000	-0,048	0,130
-370,015	800,000	0,027	-0,059
-369,000	800,000	0,035	-0,070
-367,985	225,997	-0,088	-0,102
-366,971	-181,205	0,177	0,002
-365,956	-200,000	-0,011	-0,061
-364,942	64,750	0,095	0,069
-363,927	-37,366	0,131	-0,050
-362,912	-169,717	-0,117	-0,003
-361,898	-200,000	-0,012	-0,165
-360,883	287,201	-0,070	-0,091
-359,869	-87,963	0,065	0,014
-358,854	-200,000	0,041	-0,137
-357,839	356,410	0,042	-0,060
-356,825	-198,820	-0,178	-0,001
-355,810	-73,600	0,072	0,019
-354,796	7,298	-0,023	0,012
-353,781	330,825	0,047	-0,065
-352,766	800,000	-0,045	-0,138
-351,752	-200,000	-0,009	-0,035
-350,737	-47,884	0,043	0,015
-349,723	-200,000	0,003	-0,066
-348,708	-200,000	0,011	0,117
-347,693	-46,448	0,100	0,035
-346,679	-200,000	0,012	-0,103
-345,664	257,040	-0,048	0,058
-344,650	134,060	0,088	0,081
-343,635	-43,910	0,135	-0,048
-342,620	-81,558	-0,105	-0,024
-341,606	253,095	-0,026	-0,032
-340,591	800,000	0,016	-0,032
-339,577	-11,400	-0,154	-0,072
-338,562	555,832	-0,014	-0,024
-337,548	-46,502	0,097	0,034
-336,533	40,205	0,104	-0,066
-335,518	-200,000	-0,000	0,081
-334,504	361,346	0,048	0,070
-333,489	-68,135	-0,075	-0,021
-332,475	-200,000	-0,015	-0,132
-331,460	-25,069	-0,122	-0,051
-330,445	165,966	0,046	-0,047
-329,431	-200,000	-0,045	-0,172
-328,416	372,359	0,075	0,109
-327,402	800,000	0,056	0,138
-326,387	454,888	0,036	-0,058
-325,372	800,000	0,035	-0,092
-324,358	-117,276	-0,020	0,003
-323,343	-85,830	0,137	-0,030
-322,329	79,125	0,071	-0,054
-321,314	-74,526	0,099	0,025
-320,299	800,000	-0,017	0,052
-319,285	-9,011	-0,093	-0,044
-318,270	-142,876	-0,142	0,010
-317,256	-200,000	0,030	0,099
-316,241	-52,470	-0,059	-0,019
-315,226	-119,054	0,094	0,012
-314,212	-157,276	0,058	0,002
-313,197	58,384	0,087	0,061
-312,183	-200,000	0,002	-0,056
-311,168	800,000	0,013	0,029
-310,153	800,000	-0,059	-0,123
-309,139	-200,000	0,019	0,076
-308,124	66,636	-0,072	-0,052
-307,110	495,474	0,062	0,102
-306,095	-200,000	-0,012	-0,045
-305,080	-128,644	0,116	0,012
-304,066	-48,946	0,053	-0,018
-303,051	-70,172	-0,105	0,028
-302,037	800,000	-0,066	-0,154
-301,022	-55,668	0,103	-0,033
-300,008	-142,209	0,080	0,006
-298,993	-107,616	0,127	-0,020
-297,978	140,061	0,108	0,101
-296,964	164,564	-0,098	0,098
-295,949	-102,069	-0,126	0,021
-294,935	181,510	0,056	-0,058
-293,920	275,097	0,087	0,110
-292,905	-200,000	0,004	0,087
-291,891	518,713	0,014	0,023
-290,876	-200,000	-0,050	0,176
-289,862	91,316	0,080	0,064
-288,847	-200,000	-0,020	0,071
-287,832	-33,362	0,090	0,035
-286,818	-58,390	0,021	0,006
-285,803	-97,245	0,048	0,009
-284,789	-200,000	-0,006	0,052
-283,774	533,332	-0,055	0,093
-282,759	-139,071	0,164	0,012
-281,745	-200,000	0,015	-0,132
-280,730	1,888	-0,051	0,026
-279,716	-200,000	-0,005	-0,049
-278,701	304,244	-0,065	-0,087
-277,686	-49,468	0,038	0,013
-276,672	261,023	-0,046	0,057
-275,657	193,901	-0,039	0,042
-274,643	559,987	0,048	-0,083
-273,628	-49,142	0,072	-0,024
-272,613	-121,233	0,113	-0,013
-271,599	190,884	0,046	-0,049
-270,584	-88,503	-0,096	-0,020
-269,570	206,982	0,075	0,083
-268,555	-200,000	-0,066	0,285
-267,540	-60,269	-0,182	-0,055
-266,526	360,576	0,022	-0,032
-265,511	12,508	-0,135	0,074
-264,497	304,312	0,064	-0,085
-263,482	-200,000	0,025	0,078
-262,467	9,062	-0,094	0,050
-261,453	-104,342	-0,080	-0,013
-260,438	-84,574	-0,142	0,032
-259,424	800,000	-0,058	-0,122
-258,409	46,819	0,188	-0,124
-257,395	-105,659	0,097	-0,015
-256,380	-23,961	-0,076	0,032
-255,365	94,230	0,126	0,102
-254,351	-200,000	-0,014	0,069
-253,336	-0,682	0,053	0,027
-252,322	133,665	-0,078	-0,072
-251,307	275,738	0,009	-0,012
-250,292	-67,976	0,077	0,021
-249,278	-99,949	0,143	-0,025
-248,263	61,202	-0,074	0,053
-247,249	81,888	0,085	0,066
-246,234	-200,000	0,038	-0,160
-245,219	-75,378	-0,102	0,026
-244,205	-200,000	-0,007	0,029
-243,190	800,000	-0,010	-0,021
-242,176	86,020	0,045	0,035
-241,161	800,000	0,055	0,113
-240,146	129,883	0,057	-0,052
-239,132	-3,432	0,110	-0,054
-238,117	507,706	-0,034	0,056
-237,103	358,564	-0,061	0,087
-236,088	-85,673	-0,049	0,011
-235,073	800,000	-0,022	-0,045
-234,059	800,000	-0,043	0,103
-233,044	209,160	-0,015	0,016
-232,030	420,938	-0,027	0,042
-231,015	539,103	0,006	0,010
-230,000	800,000	-0,038	0,089
-228,986	-200,000	0,010	-0,041
-227,971	309,800	-0,069	-0,092
-226,957	173,258	-0,018	-0,018
-225,942	762,238	0,017	0,033
-224,927	-200,000	-0,004	0,115
-223,913	-54,226	-0,167	0,054
-222,898	51,065	0,063	-0,042
-221,884	-71,776	0,049	0,013
-220,869	-200,000	-0,040	0,135
-219,855	537,476	-0,063	0,107
-218,840	-200,000	-0,015	0,164
-217,825	-161,606	0,057	-0,002
-216,811	800,000	0,023	0,062
-215,796	-200,000	0,018	0,155
-214,782	-200,000	-0,008	-0,040
-213,767	-49,164	0,096	0,032
-212,752	-26,888	-0,052	-0,022
-211,738	634,306	0,050	0,090
-210,723	-172,476	-0,041	-0,001
-209,709	45,864	0,131	-0,086
-208,694	-200,000	-0,049	-0,153
-207,679	731,997	0,047	0,089
-206,665	207,715	0,070	-0,078
-205,650	78,653	0,131	0,100
-204,636	466,857	-0,104	0,166
-203,621	13,839	-0,075	0,041
-202,606	72,615	-0,047	-0,035
-201,592	-200,000	0,007	-0,174
-200,577	-115,017	-0,120	-0,016
-199,563	-12,797	-0,102	-0,047
-198,548	-200,000	0,007	0,063
-197,533	-200,000	-0,017	0,173
-196,519	-200,000	-0,015	0,142
-195,504	46,482	-0,073	-0,048
-194,490	68,326	-0,088	-0,064
-193,475	261,060	-0,049	-0,061
-192,460	-79,662	0,073	0,017
-191,446	-200,000	-0,022	0,117
-190,431	800,000	0,045	0,116
-189,417	404,203	0,054	0,081
-188,402	78,674	-0,026	0,019
-187,387	116,317	-0,041	-0,036
-186,373	-133,303	-0,067	0,006
-185,358	138,870	0,018	0,017
-184,344	800,000	-0,048	0,121
-183,329	228,429	0,063	-0,072
-182,315	21,042	0,011	-0,006
-181,300	-200,000	-0,017	-0,055
-180,285	800,000	0,055	-0,109
-179,271	194,496	0,086	-0,093
-178,256	-200,000	0,012	0,056
-177,242	-200,000	-0,007	-0,042
-176,227	73,687	-0,073	-0,054
-175,212	635,411	-0,051	-0,092
-174,198	-113,838	-0,122	0,017
-173,183	257,188	-0,055	-0,067
-172,169	451,242	0,021	-0,033
-171,154	77,046	0,038	-0,029
-170,139	-200,000	0,001	0,016
-169,125	115,388	-0,098	0,084
-168,110	158,328	0,035	0,034
-167,096	27,952	0,062	-0,037
-166,081	-68,574	0,055	-0,015
-165,066	-200,000	-0,037	-0,146
-164,052	182,148	-0,095	0,099
-163,037	126,927	-0,015	0,014
-162,023	50,984	-0,081	0,054
-161,008	-84,604	0,094	-0,021
-159,993	-82,356	-0,133	0,030
-158,979	-200,000	-0,008	-0,060
-157,964	800,000	0,078	-0,162
-156,950	73,468	-0,170	0,126
-155,935	558,953	-0,042	0,072
-154,920	337,921	0,062	-0,085
-153,906	-81,367	0,063	-0,015
-152,891	244,470	-0,083	0,099
-151,877	-36,658	0,166	0,063
-150,862	-200,000	0,015	-0,102
-149,847	-200,000	-0,006	-0,107
-148,833	-26,161	0,064	-0,027
-147,818	29,981	0,044	0,027
-146,804	72,065	0,080	0,059
-145,789	-19,705	0,070	0,030
-144,775	523,586	-0,023	0,039
-143,760	-34,010	0,027	0,010
-142,745	800,000	-0,046	-0,104
-141,731	-66,274	-0,064	-0,018
-140,716	-200,000	0,026	0,130
-139,702	-200,000	0,003	-0,105
-138,687	-200,000	-0,005	0,031
-137,672	-200,000	0,003	0,066
-136,658	800,000	-0,032	-0,070
-135,643	-200,000	-0,007	0,056
-134,629	-108,775	-0,048	0,007
-133,614	-200,000	-0,052	0,171
-132,599	-200,000	0,004	0,039
-131,585	48,887	0,078	0,051
-130,570	491,801	0,072	0,117
-129,556	-200,000	-0,050	-0,159
-128,541	-19,384	0,060	-0,026
-127,526	800,000	-0,054	-0,148
-126,512	-72,561	0,047	0,012
-125,497	169,643	-0,033	0,033
-124,483	388,179	-0,039	0,057
-123,468	-99,119	-0,095	-0,017
-122,453	596,905	-0,064	-0,112
-121,439	-39,635	0,019	-0,007
-120,424	-200,000	0,005	-0,075
-119,410	51,363	0,173	0,116
-118,395	-200,000	0,008	-0,116
-117,380	29,459	0,088	0,053
-116,366	-200,000	-0,013	0,117
-115,351	-200,000	0,020	-0,129
-114,337	13,196	0,072	-0,040
-113,322	800,000	0,021	0,044
-112,307	-200,000	-0,009	-0,039
-111,293	-43,073	0,149	0,053
-110,278	82,810	-0,140	0,108
-109,264	-200,000	-0,020	0,078
-108,249	36,263	-0,014	0,009
-107,234	800,000	0,032	-0,091
-106,220	19,922	-0,032	-0,018
-105,205	-125,046	-0,059	0,006
-104,191	38,958	0,091	-0,057
-103,176	128,513	0,035	-0,032
-102,162	258,039	0,071	0,086
-101,147	311,874	0,051	0,068
-100,132	465,569	-0,027	0,042
-99,118	69,289	0,050	-0,036
-98,103	172,122	-0,085	-0,086
-97,089	373,957	0,032	-0,046
-96,074	-10,325	-0,057	0,027
-95,059	-200,000	-0,000	0,052
-94,045	103,555	-0,128	0,107
-93,030	-200,000	-0,028	-0,125
-92,016	450,363	0,078	-0,122
-91,001	-200,000	-0,012	0,067
-89,986	800,000	0,018	-0,047
-88,972	-113,341	0,090	-0,012
-87,957	800,000	-0,009	0,023
-86,943	-200,000	0,022	0,106
-85,928	-200,000	-0,001	-0,057
-84,913	-84,962	-0,101	-0,022
-83,899	451,799	-0,054	-0,084
-82,884	-200,000	-0,021	0,095
-81,870	-200,000	0,004	-0,022
-80,855	155,469	0,038	-0,037
-79,840	187,521	-0,092	0,097
-78,826	-92,905	-0,046	-0,009
-77,811	132,547	-0,034	0,031
-76,797	211,564	-0,123	0,136
-75,782	-200,000	0,030	0,098
-74,767	527,880	0,068	0,114
-73,753	195,769	-0,074	0,080
-72,738	-200,000	-0,002	-0,061
-71,724	351,509	0,088	-0,123
-70,709	-200,000	-0,002	-0,025
-69,694	242,297	0,090	0,107
-68,680	38,643	-0,073	-0,046
-67,665	441,236	0,057	0,089
-66,651	99,980	-0,014	0,012
-65,636	800,000	0,043	-0,125
-64,622	47,945	-0,054	-0,035
-63,607	-200,000	-0,008	-0,139
-62,592	800,000	0,048	0,143
-61,578	-200,000	0,001	-0,061
-60,563	-200,000	0,048	0,175
-59,549	-200,000	-0,017	0,196
-58,534	55,470	-2,120	-1,446
-57,519	473,391	-1,111	-1,774
-56,505	-200,000	-0,272	-4,194
-55,490	747,658	0,916	1,750
-54,476	800,000	4,992	11,209
-53,461	-200,000	22,129	342,133
-52,446	800,000	756,810	2300,682
-51,432	535,896	1646,771	2767,582
-50,417	68,762	1644,686	1189,675
-49,403	16,108	1520,442	843,099
-48,388	10,269	1445,598	773,563
-47,373	19,230	1437,562	811,902
-46,359	13,752	1426,288	779,664
-45,344	8,574	1422,335	753,003
-44,330	8,539	1420,533	751,855
-43,315	8,530	1418,552	750,736
-42,300	8,490	1416,822	749,598
-41,286	8,537	1415,536	749,111
-40,271	8,506	1414,589	748,434
-39,257	8,555	1413,093	747,842
-38,242	8,532	1412,096	747,177
-37,227	8,511	1411,100	746,524
-36,213	8,536	1409,618	745,825
-35,198	8,530	1408,531	745,193
-34,184	8,529	1407,626	744,679
-33,169	8,468	1406,172	743,595
-32,154	8,483	1405,180	743,111
-31,140	8,439	1404,218	742,369
-30,125	8,546	1402,655	742,014
-29,111	8,490	1401,738	741,237
-28,096	8,524	1400,526	740,725
-27,082	8,462	1399,306	739,763
-26,067	8,466	1398,292	739,215
-25,052	8,447	1397,255	738,547
-24,038	8,456	1396,377	738,094
-23,023	8,490	1395,210	737,607
-22,009	8,438	1394,420	736,918
-20,994	8,435	1393,166	736,215
-19,979	8,445	1392,229	735,737
-18,965	8,432	1391,241	735,126
-17,950	8,407	1390,356	734,513
-16,936	8,369	1389,457	733,833
-15,921	8,315	1388,736	733,174
-14,906	8,361	1387,620	732,768
-13,892	8,409	1386,425	732,326
-12,877	8,421	1385,947	732,101
-11,863	8,429	1385,111	731,667
-10,848	8,361	1384,097	730,790
-9,833	8,352	1383,105	730,194
-8,819	8,277	1382,487	729,499
-7,804	8,280	1381,398	728,905
-6,790	8,294	1380,276	728,349
-5,775	8,306	1379,316	727,869
-4,760	8,262	1378,252	727,078
-3,746	8,354	1377,495	727,070
-2,731	8,348	1376,491	726,487
-1,717	8,342	1375,545	725,929
-0,702	8,299	1373,937	724,854
0,313	12,280	1285,593	696,286
1,327	28,002	678,826	402,769
2,342	43,568	116,868	75,220
3,356	-0,546	16,419	8,188
4,371	12,032	3,725	2,013
5,386	24,775	1,303	0,759
6,400	-200,000	0,188	0,681
7,415	423,872	-0,131	-0,199
8,429	-159,514	-0,397	-0,015
9,444	110,824	-0,249	-0,211
10,459	73,436	-0,233	-0,172
11,473	-25,768	-0,325	-0,134
12,488	-14,586	-0,303	-0,137
13,502	143,825	-0,317	-0,298
14,517	-35,337	-0,218	-0,083
15,531	76,439	-0,275	-0,205
16,546	101,824	-0,287	-0,236
17,561	4,427	-0,433	-0,223
18,575	160,097	-0,185	-0,182
19,590	800,000	-0,088	-0,208
20,604	-45,718	-0,281	-0,097
21,619	37,699	-0,350	-0,218
22,634	5,571	-0,584	-0,303
23,648	55,533	-0,443	-0,301
24,663	146,801	-0,307	-0,291
25,677	-37,441	-0,319	-0,119
26,692	166,815	-0,240	-0,240
27,707	19,210	-0,242	-0,136
28,721	32,657	-0,358	-0,217
29,736	153,297	-0,388	-0,373
30,750	143,806	-0,368	-0,345
31,765	162,042	-0,367	-0,362
32,780	85,987	-0,359	-0,278
33,794	5,030	-0,359	-0,185
34,809	130,382	-0,416	-0,375
35,823	111,841	-0,300	-0,254
36,838	-15,576	-0,452	-0,202
37,853	-46,026	-0,478	-0,165
38,867	193,294	-0,416	-0,442
39,882	48,248	-0,344	-0,226
40,896	-135,649	-0,244	0,020
41,911	200,873	-0,247	-0,267
42,926	52,528	-0,334	-0,224
43,940	2,813	-0,245	-0,124
44,955	16,513	-0,363	-0,201
45,969	108,182	-0,380	-0,318
46,984	73,857	-0,268	-0,197
47,999	236,926	-0,249	-0,291
49,013	-16,014	-0,331	-0,147
50,028	31,375	-0,243	-0,146
51,042	39,668	-0,464	-0,292
52,057	-8,469	-0,376	-0,177
53,071	164,492	-0,238	-0,236
54,086	-41,130	-0,388	-0,140
55,101	73,810	-0,398	-0,293
56,115	-59,582	-0,280	-0,084
57,130	10,290	-0,351	-0,187
58,144	85,621	-0,373	-0,287
59,159	35,306	-0,499	-0,306
60,174	-20,473	-0,308	-0,132
61,188	16,999	-0,362	-0,201
62,203	-26,521	-0,391	-0,160
63,217	74,502	-0,279	-0,206
64,232	11,631	-0,329	-0,177
65,247	131,620	-0,357	-0,322
66,261	55,790	-0,350	-0,237
67,276	110,870	-0,314	-0,265
68,290	107,639	-0,363	-0,302
69,305	-78,385	-0,371	-0,088
70,320	-33,276	-0,200	-0,077
71,334	-140,822	-0,173	0,012
72,349	13,006	-0,260	-0,140
73,363	148,460	-0,183	-0,173
74,378	132,778	-0,259	-0,234
75,393	-73,944	-0,396	-0,100
76,407	39,882	-0,214	-0,134
77,422	406,706	-0,104	-0,155
78,436	21,458	-0,366	-0,208
79,451	55,147	-0,302	-0,204
80,466	-54,231	-0,456	-0,144
81,480	191,741	-0,212	-0,224
82,495	-77,872	-0,283	-0,068
83,509	181,516	-0,089	-0,092
84,524	-124,056	-0,294	-0,032
85,539	88,766	-0,296	-0,230
86,553	56,813	-0,164	-0,111
87,568	104,305	-0,235	-0,193
88,582	0,426	-0,326	-0,163
89,597	46,823	-0,357	-0,232
90,611	101,990	-0,265	-0,216
91,626	-45,190	-0,183	-0,063
92,641	88,631	-0,182	-0,141
93,655	123,620	-0,245	-0,215
94,670	109,771	-0,295	-0,247
95,684	88,268	-0,285	-0,221
96,699	166,283	-0,251	-0,249
97,714	39,948	-0,285	-0,179
98,728	-161,479	-0,207	-0,007
99,743	-10,931	-0,329	-0,151
100,757	122,716	-0,214	-0,187
101,772	55,658	-0,268	-0,181
102,787	16,135	-0,291	-0,160
103,801	74,766	-0,315	-0,231
104,816	15,795	-0,242	-0,133
105,830	41,011	-0,277	-0,175
106,845	-0,852	-0,261	-0,129
107,860	-179,278	-0,162	0,002
108,874	-31,444	-0,317	-0,124
109,889	26,293	-0,224	-0,130
110,903	110,932	-0,298	-0,251
111,918	200,526	-0,135	-0,145
112,933	154,701	-0,252	-0,242
113,947	209,662	-0,197	-0,216
114,962	23,536	-0,238	-0,136
115,976	-105,897	-0,154	0,024
116,991	115,268	-0,166	-0,142
118,006	113,392	-0,280	-0,237
119,020	50,677	-0,153	-0,101
120,035	-32,003	-0,192	-0,075
121,049	-99,418	-0,344	-0,060
122,064	26,845	-0,092	-0,053
123,079	-75,900	-0,360	-0,088
124,093	-44,314	-0,300	-0,104
125,108	132,473	-0,326	-0,294
126,122	32,577	-0,205	-0,123
127,137	186,520	-0,228	-0,237
128,151	42,975	-0,188	-0,119
129,166	178,844	-0,197	-0,201
130,181	1,755	-0,346	-0,173
131,195	40,038	-0,329	-0,206
132,210	-45,817	-0,310	-0,106
133,224	322,534	-0,178	-0,237
134,239	76,377	-0,174	-0,128
135,254	101,328	-0,133	-0,108
136,268	571,438	-0,144	-0,245
137,283	-32,296	-0,222	-0,086
138,297	14,480	-0,311	-0,169
139,312	71,216	-0,276	-0,199
140,327	7,642	-0,198	-0,103
141,341	800,000	-0,072	-0,214
142,356	-86,886	-0,361	-0,076
143,370	66,225	-0,186	-0,131
144,385	-52,212	-0,355	-0,114
145,400	-18,682	-0,179	-0,077
146,414	65,054	-0,159	-0,112
147,429	138,473	-0,218	-0,199
148,443	20,888	-0,227	-0,128
149,458	437,001	-0,079	-0,121
150,473	151,112	-0,221	-0,209
151,487	-30,102	-0,327	-0,129
152,502	598,157	-0,163	-0,283
153,516	800,000	-0,077	-0,153
154,531	182,353	-0,210	-0,216
155,546	-28,985	-0,201	-0,080
156,560	21,641	-0,345	-0,195
157,575	8,561	-0,284	-0,148
158,589	13,589	-0,202	-0,109
159,604	-65,850	-0,277	-0,077
160,619	482,115	-0,136	-0,215
161,633	24,637	-0,354	-0,203
162,648	55,280	-0,195	-0,131
163,662	-0,941	-0,246	-0,121
164,677	416,788	-0,190	-0,282
165,692	-79,372	-0,235	-0,055
166,706	10,365	-0,126	-0,067
167,721	790,694	-0,152	-0,292
168,735	350,491	-0,200	-0,276
169,750	78,742	-0,194	-0,144
170,764	299,447	-0,139	-0,179
171,779	-196,941	-0,240	-0,001
172,794	205,636	-0,189	-0,204
173,808	40,414	-0,234	-0,146
174,823	720,432	-0,099	-0,184
175,837	-6,679	-0,376	-0,177
176,852	25,906	-0,283	-0,164
177,867	40,789	-0,250	-0,156
178,881	800,000	-0,059	-0,153
179,896	-152,475	-0,226	0,011
180,910	-37,205	-0,305	-0,113
181,925	150,933	-0,177	-0,167
182,940	-44,496	-0,250	-0,086
183,954	800,000	-0,141	-0,287
184,969	418,083	-0,163	-0,243
185,983	800,000	-0,093	-0,267
186,998	368,836	-0,164	-0,231
188,013	-68,958	-0,253	-0,067
189,027	97,074	-0,263	-0,209
190,042	127,541	-0,096	-0,084
191,056	97,758	-0,157	-0,125
192,071	800,000	-0,078	-0,231
193,086	177,215	-0,104	-0,105
194,100	40,085	-0,143	-0,089
195,115	61,064	-0,254	-0,174
196,129	-5,218	-0,265	-0,126
197,144	67,023	-0,280	-0,198
198,159	-15,648	-0,263	-0,116
199,173	-71,991	-0,237	-0,061
200,188	211,908	-0,109	-0,119
201,202	305,369	-0,146	-0,189
202,217	578,038	-0,151	-0,257
203,232	175,344	-0,225	-0,226
204,246	-7,824	-0,235	-0,110
205,261	65,409	-0,195	-0,136
206,275	551,314	-0,055	-0,092
207,290	185,636	-0,211	-0,217
208,304	-142,896	-0,233	-0,015
209,319	391,636	-0,066	-0,095
210,334	29,732	-0,194	-0,114
211,348	18,980	-0,292	-0,161
212,363	43,526	-0,120	-0,076
213,377	495,818	-0,085	-0,136
214,392	-13,785	-0,287	-0,128
215,407	63,726	-0,215	-0,149
216,421	56,270	-0,183	-0,123
217,436	-168,570	-0,169	-0,004
218,450	-30,614	-0,210	-0,082
219,465	-133,547	-0,236	0,020
220,480	55,903	-0,146	-0,098
221,494	594,910	-0,100	-0,171
222,509	-153,009	-0,187	-0,009
223,523	-39,260	-0,286	-0,103
224,538	353,904	-0,166	-0,229
225,553	343,293	-0,190	-0,259
226,567	72,783	-0,210	-0,152
227,582	58,022	-0,081	-0,055
228,596	538,411	-0,168	-0,277
229,611	185,096	-0,176	-0,180
230,626	9,821	-0,271	-0,142
231,640	205,138	-0,214	-0,230
232,655	24,494	-0,217	-0,124
233,669	73,135	-0,170	-0,123
234,684	401,147	-0,145	-0,212
235,699	283,896	-0,093	-0,115
236,713	-90,429	-0,167	-0,033
237,728	362,394	-0,172	-0,238
238,742	0,148	-0,207	0,101
239,757	-20,351	-0,245	-0,104
240,772	176,110	-0,094	-0,094
241,786	-160,854	-0,129	0,005
242,801	-0,288	-0,157	-0,077
243,815	-200,000	-0,020	-0,113
244,830	-22,192	-0,160	-0,067
245,844	196,855	-0,123	-0,129
246,859	29,977	-0,233	-0,137
247,874	42,549	-0,228	-0,143
248,888	-25,927	-0,226	-0,091
249,903	-32,004	-0,226	-0,087
250,917	455,458	-0,086	-0,132
251,932	-117,574	-0,165	-0,020
252,947	117,591	-0,121	-0,103
253,961	132,870	-0,205	-0,182
254,976	-200,000	-0,057	-0,178
255,990	371,462	-0,089	-0,125
257,005	117,894	-0,079	-0,067
258,020	800,000	-0,025	-0,054
259,034	-32,172	-0,196	-0,075
260,049	30,728	-0,259	-0,153
261,063	800,000	-0,080	-0,175
262,078	135,539	-0,134	-0,120
263,093	6,879	-0,182	-0,093
264,107	5,788	-0,280	-0,142
265,122	29,400	-0,058	-0,034
266,136	603,526	-0,077	-0,132
267,151	-7,637	-0,153	0,071
268,166	67,276	-0,193	-0,135
269,180	86,982	-0,148	-0,113
270,195	347,412	-0,155	-0,211
271,209	-6,796	-0,200	-0,093
272,224	466,439	-0,202	-0,313
273,239	-84,136	-0,068	-0,015
274,253	222,213	-0,105	-0,117
275,268	226,703	-0,099	-0,111
276,282	65,981	-0,242	-0,169
277,297	800,000	-0,093	-0,196
278,312	228,398	-0,200	-0,225
279,326	179,127	-0,053	-0,054
280,341	-143,474	-0,195	0,013
281,355	-200,000	-0,019	-0,162
282,370	395,320	-0,169	-0,243
283,384	199,566	-0,157	-0,166
284,399	-51,171	-0,263	-0,084
285,414	41,660	-0,190	-0,118
286,428	158,001	-0,192	-0,183
287,443	31,790	-0,059	-0,035
288,457	-31,260	-0,100	-0,039
289,472	800,000	-0,085	-0,197
290,487	-57,757	-0,218	0,065
291,501	761,742	-0,082	-0,154
292,516	184,118	-0,142	-0,145
293,530	-129,308	-0,042	-0,004
294,545	-100,932	-0,126	0,021
295,560	194,369	-0,114	-0,119
296,574	241,017	-0,137	-0,157
297,589	57,079	-0,150	-0,100
298,603	-20,000	-0,247	-0,104
299,618	124,654	-0,056	-0,048
300,633	15,267	-0,143	0,077
301,647	-48,253	-0,129	-0,042
302,662	-200,000	0,007	-0,120
303,676	-142,985	-0,099	-0,006
304,691	65,905	-0,202	-0,140
305,706	127,761	-0,152	-0,132
306,720	378,327	-0,136	-0,192
307,735	800,000	-0,025	0,065
308,749	-28,823	-0,173	-0,068
309,764	-130,684	0,025	0,002
310,779	56,742	-0,079	-0,053
311,793	-33,761	-0,124	-0,047
312,808	30,389	-0,195	-0,114
313,822	-47,576	-0,136	-0,045
314,837	163,649	-0,071	-0,069
315,852	19,052	-0,096	-0,053
316,866	-0,687	-0,153	-0,074
317,881	-93,070	-0,103	0,019
318,895	-200,000	-0,060	-0,221
319,910	110,068	-0,034	-0,028
320,925	-104,233	-0,072	0,011
321,939	-47,595	-0,230	-0,076
322,954	-143,633	-0,159	-0,010
323,968	-183,041	-0,025	-0,000
324,983	201,145	-0,115	-0,122
325,997	-140,175	-0,311	-0,022
327,012	42,983	-0,125	-0,078
328,027	-200,000	-0,073	-0,297
329,041	69,896	-0,262	-0,185
330,056	61,572	-0,151	-0,103
331,070	800,000	-0,058	-0,126
332,085	-55,956	-0,211	0,064
333,100	-13,698	-0,144	0,064
334,114	365,887	-0,176	-0,243
335,129	194,000	-0,127	-0,132
336,143	-86,972	-0,079	-0,016
337,158	-16,679	-0,231	-0,099
338,173	558,475	-0,068	-0,113
339,187	-137,527	-0,245	0,019
340,202	759,922	-0,061	-0,115
341,216	555,253	-0,098	-0,163
342,231	143,024	-0,138	-0,126
343,246	70,051	-0,218	-0,154
344,260	47,041	-0,065	0,041
345,275	-200,000	0,019	-0,117
346,289	-200,000	0,009	-0,070
347,304	82,297	-0,105	-0,078
348,319	-63,113	-0,173	-0,048
349,333	44,177	-0,216	-0,135
350,348	-32,581	-0,238	-0,090
351,362	-200,000	-0,122	-0,000
352,377	-2,433	-0,154	0,073
353,392	-135,916	-0,168	0,013
354,406	800,000	-0,056	-0,134
355,421	208,516	1305,861	1397,853
356,435	160,451	1465,462	1398,323
