DTS Sentinel unit serial number:	SN410029Multiplexer serial number:	ORYXHardware model number:	OX2-SRSoftware version number:	ORYX F/W v4,00 Oryx Data Collector v3.7.2.0data status	okinstallation	B3 Nyhavnadifferential loss correction	single-endedforward channel	channel 1reverse channel	N/Adate	2023/12/02time	14:47:30forward acquisition time	300,00reverse acquisition time	0,00gamma	499,1914k internal	0,3197k external	0,3197temperature offset calibration	1,0000default loss term (dB/km)	0,3820temperature slope calibration	1,0000multiplexer offset coefficient	1,0000multiplexer slope coefficient	1,0000fibre end	0,00T internal ref (°C)	14,87T ext. ref 1 (°C)	-0,35T ext. ref 2 (°C)	-0,35length (m)	temperature (°C)	Stokes	anti-Stokes-744,400	-51,072	-0,243	-0,083
-743,385	-200,000	0,122	0,493
-742,371	157,669	-0,180	-0,182
-741,356	-200,000	0,074	0,273
-740,342	147,609	-0,185	-0,182
-739,327	-200,000	0,044	0,359
-738,312	224,327	-0,200	-0,236
-737,298	-200,000	-0,017	0,252
-736,283	89,966	-0,232	-0,188
-735,269	800,000	0,139	0,332
-734,254	22,345	-0,187	-0,111
-733,239	64,868	-0,335	0,246
-732,225	800,000	-0,081	-0,239
-731,210	372,191	0,108	0,161
-730,196	-200,000	-0,011	0,121
-729,181	163,874	-0,071	0,073
-728,167	800,000	-0,022	0,047
-727,152	9,134	-0,111	-0,061
-726,137	22,064	-0,111	0,066
-725,123	287,251	-0,019	-0,025
-724,108	-200,000	0,002	-0,133
-723,094	562,050	0,061	-0,109
-722,079	-8,796	0,105	-0,051
-721,064	34,168	-0,133	-0,084
-720,050	256,524	-0,056	0,070
-719,035	-162,189	-0,100	-0,004
-718,021	2,365	-0,064	-0,034
-717,006	-59,880	0,085	-0,026
-715,991	-200,000	-0,105	-0,000
-714,977	-136,632	-0,104	-0,009
-713,962	16,346	-0,071	0,041
-712,948	-200,000	0,028	-0,109
-711,933	166,805	0,023	0,024
-710,918	800,000	-0,022	0,052
-709,904	-127,755	-0,017	-0,002
-708,889	-85,478	-0,046	0,010
-707,875	121,379	0,010	-0,009
-706,860	-56,682	-0,136	0,044
-705,845	-11,809	0,053	0,025
-704,831	784,186	-0,029	0,057
-703,816	0,231	0,070	-0,036
-702,802	-128,159	-0,094	-0,010
-701,787	-11,540	-0,165	-0,079
-700,772	26,637	0,035	-0,021
-699,758	18,715	0,047	-0,027
-698,743	-200,000	0,004	-0,014
-697,729	-200,000	-0,011	0,049
-696,714	800,000	-0,068	0,145
-695,699	-39,446	-0,106	-0,040
-694,685	-200,000	-0,004	-0,135
-693,670	637,891	-0,022	0,041
-692,656	134,979	0,007	-0,007
-691,641	129,862	-0,025	0,023
-690,627	-200,000	-0,006	0,038
-689,612	94,914	-0,111	-0,091
-688,597	-200,000	0,008	-0,104
-687,583	800,000	-0,017	-0,034
-686,568	-89,725	-0,059	0,012
-685,554	800,000	-0,003	0,008
-684,539	445,312	-0,079	0,127
-683,524	-200,000	-0,008	0,092
-682,510	-47,790	-0,206	-0,072
-681,495	457,616	0,082	-0,132
-680,481	14,933	-0,170	-0,096
-679,466	84,108	0,019	-0,015
-678,451	-200,000	-0,013	-0,132
-677,437	-200,000	0,000	-0,125
-676,422	800,000	-0,046	0,129
-675,408	-18,143	0,006	0,003
-674,393	-143,795	0,031	-0,002
-673,378	276,201	0,018	-0,023
-672,364	-200,000	-0,025	-0,196
-671,349	-100,649	-0,078	0,014
-670,335	-153,502	-0,116	-0,006
-669,320	800,000	-0,040	0,098
-668,305	-200,000	0,021	-0,111
-667,291	-78,083	-0,105	-0,026
-666,276	261,303	-0,089	0,113
-665,262	181,447	-0,129	0,137
-664,247	576,377	-0,024	0,043
-663,232	88,339	-0,114	0,092
-662,218	46,425	-0,056	-0,037
-661,203	675,594	0,052	0,098
-660,189	-54,003	0,032	-0,010
-659,174	-48,523	0,081	-0,028
-658,159	-167,197	-0,041	0,001
-657,145	-110,860	-0,125	-0,018
-656,130	233,184	-0,079	-0,095
-655,116	497,432	0,033	-0,055
-654,101	170,131	-0,041	0,042
-653,086	-200,000	-0,015	0,149
-652,072	108,729	-0,081	-0,070
-651,057	256,201	-0,035	-0,044
-650,043	-200,000	-0,020	-0,068
-649,028	0,847	0,044	0,023
-648,014	800,000	-0,031	0,081
-646,999	-23,121	-0,051	0,022
-645,984	-200,000	0,001	-0,066
-644,970	800,000	0,015	-0,048
-643,955	740,519	-0,049	0,096
-642,941	-69,095	-0,061	0,017
-641,926	49,747	-0,097	-0,066
-640,911	179,630	0,073	0,078
-639,897	791,133	0,016	-0,033
-638,882	-200,000	0,021	-0,110
-637,868	220,856	-0,017	0,020
-636,853	-200,000	-0,003	-0,120
-635,838	-200,000	0,004	-0,055
-634,824	-200,000	-0,002	-0,206
-633,809	-200,000	-0,019	-0,067
-632,795	-200,000	-0,030	0,151
-631,780	800,000	-0,020	-0,047
-630,765	206,977	0,075	0,084
-629,751	-43,012	-0,159	-0,058
-628,736	-200,000	-0,007	0,061
-627,722	53,483	0,061	-0,043
-626,707	-164,004	0,147	-0,005
-625,692	-200,000	0,014	-0,172
-624,678	415,063	-0,059	0,092
-623,663	174,910	-0,080	-0,084
-622,649	-200,000	-0,016	-0,068
-621,634	212,227	-0,069	-0,079
-620,619	106,133	-0,073	-0,063
-619,605	398,215	0,105	-0,159
-618,590	800,000	-0,029	-0,071
-617,576	-93,456	-0,173	0,034
-616,561	-200,000	0,014	0,090
-615,546	-105,843	-0,090	-0,015
-614,532	-121,122	-0,156	-0,019
-613,517	264,633	-0,043	0,054
-612,503	351,777	0,066	-0,096
-611,488	-90,045	0,122	-0,026
-610,474	56,459	0,048	0,034
-609,459	-12,412	-0,085	-0,040
-608,444	117,833	0,056	-0,050
-607,430	109,606	-0,031	-0,027
-606,415	68,669	0,100	0,074
-605,401	400,458	0,051	-0,078
-604,386	238,628	-0,044	0,053
-603,371	48,342	-0,079	0,053
-602,357	230,150	0,052	-0,062
-601,342	-19,488	-0,161	-0,072
-600,328	-136,301	-0,086	0,007
-599,313	-200,000	-0,036	-0,137
-598,298	-127,808	-0,115	-0,012
-597,284	245,958	0,090	0,109
-596,269	-55,588	0,140	0,045
-595,255	-176,254	-0,063	0,001
-594,240	154,566	0,003	0,003
-593,225	262,506	0,078	0,099
-592,211	-200,000	0,012	-0,075
-591,196	-33,039	-0,081	-0,032
-590,182	-200,000	0,042	0,191
-589,167	-2,729	-0,102	0,052
-588,152	800,000	0,040	0,094
-587,138	200,070	0,028	0,031
-586,123	-85,947	-0,078	0,017
-585,109	-200,000	-0,009	-0,042
-584,094	-68,930	0,074	-0,021
-583,079	-73,307	0,092	0,024
-582,065	-200,000	0,010	-0,071
-581,050	-28,910	-0,023	-0,010
-580,036	-49,744	-0,051	-0,018
-579,021	155,963	-0,107	-0,107
-578,006	733,418	0,042	-0,081
-576,992	40,879	-0,066	0,043
-575,977	-200,000	0,014	-0,050
-574,963	-57,159	0,068	0,021
-573,948	189,325	0,141	0,152
-572,934	274,900	-0,029	0,038
-571,919	344,854	-0,112	-0,159
-570,904	191,869	0,131	-0,143
-569,890	162,852	-0,060	0,061
-568,875	687,221	0,028	-0,054
-567,861	-200,000	0,007	-0,148
-566,846	-200,000	-0,004	-0,039
-565,831	-75,605	0,107	-0,027
-564,817	29,966	-0,038	0,024
-563,802	264,737	-0,105	-0,133
-562,788	64,294	-0,018	0,013
-561,773	15,805	0,092	0,052
-560,758	-14,737	-0,076	0,035
-559,744	-59,043	0,091	-0,028
-558,729	-173,143	-0,089	0,002
-557,715	3,539	-0,036	0,019
-556,700	800,000	-0,005	-0,013
-555,685	800,000	0,017	-0,038
-554,671	-200,000	0,003	-0,016
-553,656	772,140	0,017	0,034
-552,642	-200,000	0,033	-0,165
-551,627	-34,780	0,083	-0,033
-550,612	-24,801	-0,015	-0,007
-549,598	-7,140	0,010	0,005
-548,583	50,329	0,104	-0,071
-547,569	355,819	-0,027	0,039
-546,554	5,163	0,029	0,016
-545,539	579,903	0,029	-0,051
-544,525	15,610	0,024	-0,014
-543,510	-144,545	-0,097	-0,006
-542,496	36,415	-0,026	0,016
-541,481	-200,000	-0,002	0,101
-540,466	180,469	-0,068	0,072
-539,452	-190,723	0,057	0,000
-538,437	16,650	-0,170	0,097
-537,423	441,523	0,005	0,008
-536,408	800,000	0,039	-0,122
-535,393	-200,000	-0,047	-0,157
-534,379	-87,146	-0,079	0,017
-533,364	800,000	0,009	0,025
-532,350	-200,000	-0,001	-0,025
-531,335	162,484	0,030	0,031
-530,321	356,116	-0,037	-0,054
-529,306	-168,885	-0,105	0,003
-528,291	-61,845	0,059	0,018
-527,277	800,000	0,048	0,149
-526,262	-200,000	0,005	-0,078
-525,248	-81,962	0,086	0,020
-524,233	-59,950	-0,053	0,016
-523,218	201,238	-0,089	0,099
-522,204	-200,000	0,006	0,063
-521,189	407,085	0,027	-0,041
-520,175	-35,462	-0,133	-0,052
-519,160	634,088	0,010	0,017
-518,145	800,000	-0,012	0,026
-517,131	38,138	0,128	0,082
-516,116	800,000	-0,023	-0,046
-515,102	-200,000	-0,002	-0,087
-514,087	-200,000	0,033	0,139
-513,072	-18,918	-0,070	0,031
-512,058	10,724	-0,149	0,082
-511,043	122,893	-0,035	0,031
-510,029	-14,557	0,131	-0,060
-509,014	778,367	0,042	0,084
-507,999	-200,000	-0,033	0,274
-506,985	101,063	-0,087	-0,073
-505,970	-56,869	-0,103	-0,033
-504,956	78,524	-0,046	-0,035
-503,941	-20,994	0,054	-0,024
-502,926	629,207	0,065	0,119
-501,912	-200,000	-0,038	0,133
-500,897	-200,000	-0,023	-0,136
-499,883	152,154	-0,098	-0,097
-498,868	-58,811	-0,096	-0,030
-497,853	800,000	-0,051	0,106
-496,839	-55,719	0,054	0,017
-495,824	-129,446	0,091	-0,009
-494,810	-10,384	0,135	0,064
-493,795	590,539	-0,044	-0,079
-492,781	-85,692	0,041	0,009
-491,766	-200,000	0,015	-0,125
-490,751	-34,325	-0,145	-0,057
-489,737	8,704	0,092	-0,050
-488,722	-200,000	-0,001	-0,043
-487,708	800,000	-0,028	0,068
-486,693	-200,000	0,005	0,035
-485,678	103,081	0,062	-0,052
-484,664	-75,121	0,010	-0,002
-483,649	302,813	0,060	-0,080
-482,635	-133,814	0,079	0,007
-481,620	56,875	0,124	0,087
-480,605	-150,223	0,085	-0,005
-479,591	-200,000	0,004	0,074
-478,576	10,844	-0,078	-0,043
-477,562	236,366	-0,053	0,063
-476,547	-11,172	-0,040	0,019
-475,532	61,787	-0,160	0,115
-474,518	119,784	0,104	0,093
-473,503	-16,171	-0,030	-0,014
-472,489	-108,356	-0,128	0,020
-471,474	-200,000	-0,007	0,151
-470,459	-75,238	0,051	-0,013
-469,445	342,316	-0,065	0,091
-468,430	-84,044	-0,147	0,033
-467,416	14,821	-0,056	0,032
-466,401	99,196	-0,105	0,087
-465,386	-28,517	-0,141	-0,058
-464,372	-200,000	-0,031	-0,100
-463,357	-138,610	-0,032	0,002
-462,343	-200,000	-0,028	-0,234
-461,328	-200,000	-0,002	-0,152
-460,313	-177,810	0,146	0,002
-459,299	-200,000	0,007	0,048
-458,284	-200,000	-0,010	0,062
-457,270	183,767	0,080	0,085
-456,255	-22,383	-0,043	-0,018
-455,241	29,183	-0,092	-0,056
-454,226	800,000	0,018	0,046
-453,211	745,159	0,049	0,095
-452,197	800,000	-0,016	0,048
-451,182	-23,167	0,181	0,078
-450,168	-151,817	0,033	0,002
-449,153	-200,000	-0,003	0,032
-448,138	-171,517	-0,120	-0,003
-447,124	210,163	-0,011	0,013
-446,109	-45,161	-0,130	-0,046
-445,095	-200,000	-0,040	0,185
-444,080	-200,000	0,013	0,182
-443,065	53,647	0,029	-0,020
-442,051	-200,000	-0,011	0,074
-441,036	246,906	-0,051	-0,062
-440,022	119,514	-0,069	-0,062
-439,007	35,020	0,036	0,023
-437,992	171,546	0,044	0,046
-436,978	-200,000	-0,020	0,146
-435,963	-31,275	0,030	0,012
-434,949	-59,234	0,071	-0,022
-433,934	367,187	-0,011	-0,016
-432,919	219,667	0,096	-0,111
-431,905	-87,635	-0,083	-0,018
-430,890	-200,000	0,002	0,086
-429,876	-200,000	-0,044	0,173
-428,861	800,000	0,034	0,107
-427,846	-200,000	0,013	-0,120
-426,832	-95,785	0,076	-0,014
-425,817	-87,293	-0,040	-0,009
-424,803	-42,531	-0,050	0,018
-423,788	-36,663	0,058	0,022
-422,773	-69,379	-0,034	0,009
-421,759	-66,117	0,064	-0,018
-420,744	108,256	0,093	0,079
-419,730	395,037	-0,073	0,110
-418,715	800,000	0,026	-0,078
-417,701	36,584	-0,125	-0,079
-416,686	226,322	-0,086	0,101
-415,671	193,947	-0,028	0,030
-414,657	-46,341	0,173	-0,061
-413,642	318,018	0,092	0,125
-412,628	-75,139	-0,072	-0,018
-411,613	610,552	0,058	-0,105
-410,598	800,000	0,050	-0,151
-409,584	17,992	-0,098	0,056
-408,569	-200,000	0,013	0,103
-407,555	800,000	-0,011	-0,031
-406,540	-200,000	0,000	0,051
-405,525	-133,909	-0,045	0,004
-404,511	76,282	0,098	-0,074
-403,496	-33,204	-0,101	0,040
-402,482	-200,000	-0,045	-0,143
-401,467	-200,000	-0,045	-0,155
-400,452	190,595	0,108	0,117
-399,438	154,531	0,086	0,085
-398,423	-200,000	0,012	-0,056
-397,409	800,000	0,045	0,090
-396,394	33,331	0,113	0,070
-395,379	464,179	-0,034	-0,055
-394,365	90,516	0,109	0,088
-393,350	-200,000	0,015	0,154
-392,336	800,000	0,042	0,127
-391,321	-91,213	0,072	-0,015
-390,306	-19,587	0,076	-0,034
-389,292	800,000	0,063	-0,137
-388,277	4,852	0,114	-0,060
-387,263	-200,000	0,013	0,061
-386,248	56,002	0,111	0,077
-385,233	-200,000	-0,002	0,209
-384,219	388,492	-0,018	-0,026
-383,204	275,718	-0,125	-0,159
-382,190	497,334	0,029	0,049
-381,175	287,603	-0,056	-0,072
-380,160	-200,000	-0,008	0,068
-379,146	-90,125	0,077	0,016
-378,131	24,566	-0,121	-0,072
-377,117	-76,058	0,042	0,010
-376,102	266,999	0,053	0,066
-375,088	21,453	-0,029	0,017
-374,073	-66,251	0,098	0,028
-373,058	-158,489	-0,135	-0,006
-372,044	314,470	-0,011	0,016
-371,029	-200,000	0,011	0,040
-370,015	55,869	0,097	-0,067
-369,000	230,781	-0,058	0,068
-367,985	797,572	-0,052	-0,104
-366,971	-200,000	0,025	-0,123
-365,956	-3,508	0,068	0,034
-364,942	-53,905	0,186	-0,060
-363,927	-73,686	0,146	0,038
-362,912	-29,247	0,126	-0,052
-361,898	760,698	0,013	-0,026
-360,883	544,483	-0,015	-0,026
-359,869	-200,000	0,008	0,120
-358,854	800,000	-0,015	-0,046
-357,839	26,306	0,121	-0,072
-356,825	113,142	0,064	0,056
-355,810	139,328	-0,039	0,037
-354,796	-200,000	-0,040	0,144
-353,781	25,898	-0,045	0,027
-352,766	-78,424	-0,109	-0,027
-351,752	800,000	0,034	0,078
-350,737	-60,193	0,073	0,022
-349,723	-33,510	0,044	0,017
-348,708	-200,000	-0,001	0,060
-347,693	-8,834	-0,076	-0,036
-346,679	-114,404	-0,053	0,007
-345,664	-200,000	0,003	0,023
-344,650	-9,416	-0,089	0,042
-343,635	-2,509	0,102	0,051
-342,620	108,543	-0,057	-0,049
-341,606	-200,000	-0,002	-0,038
-340,591	492,501	-0,051	-0,084
-339,577	-44,625	-0,039	-0,014
-338,562	28,592	0,102	-0,062
-337,548	3,752	-0,034	0,018
-336,533	-141,930	-0,083	-0,006
-335,518	35,127	-0,101	-0,063
-334,504	800,000	-0,042	0,087
-333,489	800,000	-0,023	-0,048
-332,475	-69,289	-0,043	0,012
-331,460	-41,644	0,080	-0,029
-330,445	-200,000	-0,010	-0,042
-329,431	800,000	-0,057	0,122
-328,416	800,000	-0,019	0,061
-327,402	75,430	0,104	0,079
-326,387	451,130	-0,043	0,068
-325,372	4,190	0,138	-0,072
-324,358	652,047	-0,049	-0,090
-323,343	-200,000	0,016	-0,141
-322,329	-102,343	0,107	0,018
-321,314	-75,893	0,131	0,033
-320,299	439,623	-0,011	0,017
-319,285	520,893	0,034	-0,057
-318,270	800,000	-0,021	-0,052
-317,256	201,681	0,049	0,055
-316,241	-34,915	0,034	0,013
-315,226	-200,000	-0,003	0,029
-314,212	-119,396	0,078	-0,010
-313,197	116,017	-0,084	-0,074
-312,183	167,194	-0,044	-0,045
-311,168	800,000	-0,030	-0,065
-310,153	-4,097	-0,133	0,066
-309,139	-23,435	0,035	0,015
-308,124	800,000	0,045	-0,105
-307,110	263,268	-0,071	-0,088
-306,095	-200,000	0,000	0,014
-305,080	12,449	0,078	0,043
-304,066	314,619	-0,060	-0,081
-303,051	800,000	-0,033	-0,089
-302,037	-200,000	-0,016	0,131
-301,022	47,190	-0,178	0,118
-300,008	-52,333	0,046	-0,015
-298,993	-200,000	0,013	-0,143
-297,978	-200,000	0,007	-0,102
-296,964	559,000	-0,036	-0,062
-295,949	-200,000	0,012	0,065
-294,935	-105,047	0,131	0,021
-293,920	32,027	0,037	-0,022
-292,905	-40,326	0,141	0,052
-291,891	-155,529	-0,138	-0,006
-290,876	161,851	0,084	0,084
-289,862	-60,854	-0,052	0,016
-288,847	424,263	0,032	-0,049
-287,832	800,000	-0,021	-0,051
-286,818	134,439	-0,036	-0,033
-285,803	800,000	-0,004	-0,010
-284,789	142,013	0,063	0,060
-283,774	-15,949	0,084	0,038
-282,759	-32,413	-0,109	0,043
-281,745	161,095	-0,111	-0,111
-280,730	-116,534	0,098	-0,013
-279,716	604,636	-0,015	0,026
-278,701	-106,856	-0,077	-0,012
-277,686	6,321	0,019	-0,010
-276,672	330,186	-0,099	0,136
-275,657	452,811	-0,048	-0,076
-274,643	-91,345	-0,138	-0,028
-273,628	-63,520	-0,158	0,046
-272,613	-200,000	-0,015	0,060
-271,599	-72,319	0,091	-0,024
-270,584	60,399	0,151	0,107
-269,570	37,856	0,053	0,034
-268,555	171,537	-0,027	0,027
-267,540	-200,000	0,001	0,084
-266,526	-200,000	-0,014	-0,124
-265,511	-200,000	0,006	-0,054
-264,497	397,702	0,064	0,096
-263,482	-200,000	-0,012	0,051
-262,467	193,200	0,063	0,069
-261,453	-9,790	0,038	0,018
-260,438	-122,391	-0,107	0,012
-259,424	715,772	0,037	0,071
-258,409	166,745	-0,062	-0,063
-257,395	22,662	0,131	-0,076
-256,380	800,000	0,028	0,060
-255,365	-10,525	0,123	0,058
-254,351	-149,395	-0,087	-0,005
-253,336	800,000	0,048	0,101
-252,322	-109,964	-0,079	0,012
-251,307	32,633	0,167	-0,103
-250,292	-46,785	-0,029	0,010
-249,278	454,650	0,046	-0,074
-248,263	-200,000	0,004	0,016
-247,249	-47,153	0,014	-0,005
-246,234	664,999	0,073	-0,136
-245,219	146,170	-0,047	-0,045
-244,205	34,469	0,032	-0,020
-243,190	159,828	0,093	-0,092
-242,176	112,741	0,083	-0,072
-241,161	-8,194	0,080	0,039
-240,146	362,822	-0,091	-0,131
-239,132	800,000	-0,034	-0,069
-238,117	-50,467	-0,072	0,024
-237,103	-108,518	0,096	0,015
-236,088	-0,389	-0,101	-0,051
-235,073	-21,664	0,197	-0,085
-234,059	-57,957	-0,032	0,010
-233,044	27,107	0,102	-0,061
-232,030	-146,603	0,089	-0,005
-231,015	161,742	0,042	-0,042
-230,000	138,165	-0,071	-0,066
-228,986	-118,859	0,046	0,006
-227,971	206,955	0,063	0,071
-226,957	166,463	0,035	-0,036
-225,942	-31,255	0,118	0,047
-224,927	-112,990	-0,057	0,008
-223,913	521,632	0,066	-0,111
-222,898	800,000	-0,016	-0,042
-221,884	800,000	0,037	-0,110
-220,869	535,433	-0,017	0,029
-219,855	441,788	-0,037	0,057
-218,840	286,287	0,016	0,020
-217,825	287,352	-0,069	0,089
-216,811	160,025	-0,017	-0,017
-215,796	82,851	-0,099	-0,077
-214,782	36,096	0,113	0,071
-213,767	545,984	0,026	-0,045
-212,752	800,000	0,011	-0,025
-211,738	54,951	-0,019	0,013
-210,723	85,023	0,064	-0,050
-209,709	85,633	0,080	-0,063
-208,694	65,961	-0,087	-0,063
-207,679	230,343	-0,066	-0,077
-206,665	-21,387	-0,060	0,026
-205,650	-34,393	0,055	-0,021
-204,636	800,000	-0,048	0,118
-203,621	418,117	0,046	-0,071
-202,606	162,251	-0,051	0,051
-201,592	256,277	0,007	-0,009
-200,577	80,092	0,064	-0,049
-199,563	-1,330	-0,042	-0,021
-198,548	-37,188	-0,085	0,032
-197,533	100,203	0,030	0,025
-196,519	-200,000	-0,005	0,192
-195,504	-200,000	-0,024	-0,084
-194,490	-36,108	0,148	0,057
-193,475	-107,133	-0,073	-0,011
-192,460	151,751	0,100	-0,097
-191,446	21,027	-0,064	0,037
-190,431	124,393	-0,010	0,009
-189,417	-200,000	-0,002	0,012
-188,402	-200,000	-0,010	0,066
-187,387	111,279	0,071	0,061
-186,373	238,419	-0,119	-0,142
-185,358	-64,944	0,078	-0,022
-184,344	800,000	-0,012	0,028
-183,329	-200,000	-0,006	0,179
-182,315	142,175	-0,059	0,056
-181,300	71,577	0,021	0,015
-180,285	-113,772	-0,086	-0,012
-179,271	-115,948	0,101	0,013
-178,256	181,596	-0,064	-0,067
-177,242	105,149	-0,067	0,056
-176,227	800,000	-0,081	0,190
-175,212	430,838	0,031	-0,047
-174,198	77,043	0,009	-0,007
-173,183	-200,000	-0,029	0,128
-172,169	112,189	0,035	0,030
-171,154	7,180	-0,102	0,054
-170,139	-26,235	0,069	-0,029
-169,125	800,000	0,020	-0,044
-168,110	800,000	-0,061	0,143
-167,096	-200,000	0,006	-0,037
-166,081	174,786	0,017	0,017
-165,066	16,710	-0,030	-0,017
-164,052	-96,781	0,116	0,021
-163,037	-200,000	-0,001	-0,066
-162,023	-82,979	-0,112	-0,025
-161,008	89,624	0,074	-0,058
-159,993	-200,000	0,015	-0,114
-158,979	215,887	0,030	-0,034
-157,964	142,182	-0,093	-0,088
-156,950	263,140	-0,033	-0,041
-155,935	70,088	-0,049	-0,036
-154,920	64,548	0,096	0,069
-153,906	-200,000	-0,023	-0,080
-152,891	275,855	-0,118	0,150
-151,877	208,133	-0,097	0,108
-150,862	-71,458	0,049	-0,013
-149,847	-67,033	-0,117	-0,033
-148,833	-95,412	-0,114	0,022
-147,818	-200,000	0,016	0,140
-146,804	-200,000	-0,017	-0,056
-145,789	-94,971	-0,063	0,012
-144,775	329,386	0,064	-0,088
-143,760	-129,322	-0,199	0,019
-142,745	-1,728	-0,047	-0,023
-141,731	343,765	0,087	0,122
-140,716	-41,704	-0,017	0,006
-139,702	122,384	0,034	-0,030
-138,687	-104,106	0,068	-0,011
-137,672	324,119	0,131	-0,178
-136,658	452,922	-0,036	-0,057
-135,643	800,000	-0,041	-0,115
-134,629	-157,756	0,144	-0,006
-133,614	33,292	0,110	0,067
-132,599	-115,926	0,143	-0,019
-131,585	294,055	0,019	0,025
-130,570	201,409	0,068	-0,074
-129,556	524,237	0,024	-0,040
-128,541	-46,066	0,050	-0,017
-127,526	-159,575	-0,095	0,004
-126,512	800,000	-0,083	0,199
-125,497	52,101	0,074	0,050
-124,483	-73,671	-0,053	-0,014
-123,468	-200,000	-0,015	-0,090
-122,453	-46,398	-0,141	0,049
-121,439	-76,244	-0,053	-0,013
-120,424	97,547	-0,147	0,120
-119,410	44,421	-0,083	0,054
-118,395	-25,789	0,162	0,068
-117,380	99,850	0,012	0,010
-116,366	549,856	-0,035	0,060
-115,351	-200,000	-0,006	0,065
-114,337	-200,000	-0,018	0,059
-113,322	78,434	0,051	0,038
-112,307	194,624	-0,126	-0,136
-111,293	-4,170	0,006	-0,003
-110,278	-200,000	-0,069	0,220
-109,264	800,000	-0,040	0,107
-108,249	181,120	-0,150	0,157
-107,234	-109,871	-0,239	0,035
-106,220	800,000	0,025	0,054
-105,205	-200,000	-0,013	0,143
-104,191	-200,000	-0,022	0,129
-103,176	-200,000	-0,000	0,111
-102,162	-149,567	-0,062	0,003
-101,147	800,000	-0,042	0,087
-100,132	-200,000	0,016	-0,101
-99,118	-107,992	-0,134	-0,020
-98,103	35,534	-0,005	-0,003
-97,089	800,000	0,099	0,202
-96,074	-200,000	-0,006	-0,102
-95,059	62,615	0,025	0,017
-94,045	-200,000	-0,029	0,145
-93,030	-81,338	-0,087	-0,020
-92,016	-7,785	0,022	0,011
-91,001	513,489	0,087	0,144
-89,986	800,000	-0,086	-0,170
-88,972	82,208	0,064	-0,049
-87,957	-67,868	-0,058	-0,016
-86,943	800,000	-0,025	-0,072
-85,928	418,906	-0,094	0,143
-84,913	-200,000	0,007	0,038
-83,899	-147,824	-0,074	0,004
-82,884	800,000	0,031	0,075
-81,870	-138,337	-0,091	0,007
-80,855	-16,074	-0,117	0,053
-79,840	-47,984	-0,079	0,027
-78,826	-14,317	0,106	0,048
-77,811	81,307	-0,094	0,072
-76,797	430,681	-0,079	0,122
-75,782	-110,643	0,128	0,019
-74,767	-200,000	-0,033	0,109
-73,753	800,000	-0,054	0,119
-72,738	25,508	0,044	-0,026
-71,724	-70,472	0,067	0,018
-70,709	-200,000	0,000	0,074
-69,694	-104,908	-0,182	0,029
-68,680	-59,790	-0,036	0,011
-67,665	800,000	0,053	0,164
-66,651	-200,000	-0,024	0,117
-65,636	-125,292	-0,105	0,011
-64,622	58,008	-0,104	0,072
-63,607	57,375	-0,092	-0,064
-62,592	-7,478	0,077	-0,037
-61,578	-84,620	-0,144	0,032
-60,563	-137,451	0,205	-0,016
-59,549	-200,000	-0,059	0,188
-58,534	-31,554	-1,517	-0,601
-57,519	471,023	-1,427	-2,284
-56,505	-200,000	-0,409	-4,538
-55,490	157,306	0,857	0,841
-54,476	800,000	4,804	11,304
-53,461	-200,000	18,330	289,795
-52,446	800,000	728,151	2237,330
-51,432	557,970	1644,051	2821,405
-50,417	79,166	1665,336	1263,391
-49,403	22,723	1538,941	890,948
-48,388	16,757	1461,983	817,480
-47,373	17,880	1452,046	817,303
-46,359	17,223	1442,567	808,788
-45,344	15,003	1437,730	795,439
-44,330	14,892	1435,734	793,776
-43,315	14,901	1434,199	792,938
-42,300	14,947	1432,390	792,123
-41,286	14,970	1431,557	791,740
-40,271	14,929	1429,944	790,625
-39,257	14,955	1428,739	790,048
-38,242	14,966	1427,553	789,414
-37,227	14,950	1426,397	788,666
-36,213	14,995	1424,724	787,927
-35,198	14,975	1423,609	787,184
-34,184	15,011	1422,747	786,844
-33,169	14,953	1421,579	785,895
-32,154	14,997	1420,607	785,534
-31,140	15,005	1419,125	784,721
-30,125	14,997	1418,087	784,075
-29,111	14,982	1417,015	783,383
-28,096	15,018	1415,665	782,774
-27,082	14,865	1414,882	781,592
-26,067	14,907	1413,748	781,132
-25,052	14,932	1412,592	780,576
-24,038	14,888	1411,651	779,821
-23,023	14,831	1410,900	779,109
-22,009	14,888	1409,724	778,694
-20,994	14,888	1408,676	778,084
-19,979	14,870	1407,882	777,530
-18,965	14,849	1406,679	776,740
-17,950	14,824	1405,889	776,153
-16,936	14,803	1405,058	775,565
-15,921	14,797	1403,750	774,785
-14,906	14,816	1402,949	774,401
-13,892	14,806	1402,095	773,855
-12,877	14,857	1400,999	773,456
-11,863	14,825	1400,192	772,828
-10,848	14,794	1399,215	772,117
-9,833	14,756	1398,608	771,574
-8,819	14,721	1397,662	770,860
-7,804	14,729	1396,500	770,223
-6,790	14,759	1395,643	769,860
-5,775	14,693	1394,548	768,917
-4,760	14,696	1393,598	768,377
-3,746	14,700	1393,021	768,047
-2,731	14,724	1391,731	767,420
-1,717	14,732	1391,055	767,052
-0,702	14,700	1389,287	765,900
0,313	18,428	1308,240	738,505
1,327	34,647	706,297	436,309
2,342	53,063	124,484	84,264
3,356	2,997	16,497	8,461
4,371	6,375	3,072	1,610
5,386	-35,448	0,599	0,229
6,400	34,085	-0,148	0,091
7,415	15,533	-0,290	-0,161
8,429	64,679	-0,299	-0,213
9,444	49,350	-0,283	-0,188
10,459	131,368	-0,178	-0,162
11,473	-54,715	-0,441	-0,140
12,488	-105,467	-0,168	-0,027
13,502	424,196	-0,209	-0,318
14,517	49,366	-0,309	-0,205
15,531	234,751	-0,335	-0,392
16,546	55,672	-0,355	-0,243
17,561	108,135	-0,374	-0,316
18,575	445,906	-0,044	0,069
19,590	42,251	-0,252	-0,161
20,604	-168,721	-0,247	0,006
21,619	138,797	-0,431	-0,400
22,634	70,849	-0,419	-0,306
23,648	19,944	-0,508	-0,289
24,663	142,717	-0,315	-0,296
25,677	87,409	-0,314	-0,245
26,692	64,764	-0,282	-0,201
27,707	36,172	-0,400	-0,249
28,721	135,482	-0,365	-0,335
29,736	55,393	-0,462	-0,316
30,750	126,374	-0,367	-0,328
31,765	54,820	-0,362	-0,246
32,780	109,271	-0,335	-0,283
33,794	36,212	-0,439	-0,273
34,809	15,793	-0,468	-0,260
35,823	132,862	-0,226	-0,207
36,838	54,701	-0,476	-0,324
37,853	-2,199	-0,381	-0,188
38,867	69,629	-0,409	-0,297
39,882	-175,094	-0,345	-0,007
40,896	-6,345	-0,418	-0,200
41,911	-62,706	-0,292	-0,085
42,926	95,309	-0,319	-0,256
43,940	124,867	-0,289	-0,257
44,955	90,359	-0,379	-0,299
45,969	162,074	-0,227	-0,225
46,984	105,010	-0,282	-0,234
47,999	140,586	-0,356	-0,332
49,013	297,102	-0,264	-0,342
50,028	-9,097	-0,387	-0,182
51,042	51,050	-0,315	-0,210
52,057	310,057	-0,262	-0,347
53,071	6,378	-0,409	-0,214
54,086	-50,338	-0,366	-0,121
55,101	-38,879	-0,351	-0,130
56,115	45,614	-0,323	-0,210
57,130	-31,589	-0,351	-0,138
58,144	66,267	-0,379	-0,271
59,159	4,684	-0,364	-0,188
60,174	-74,299	-0,327	-0,083
61,188	458,783	-0,226	-0,356
62,203	23,074	-0,368	-0,212
63,217	142,900	-0,251	-0,235
64,232	3,903	-0,394	-0,202
65,247	82,268	-0,436	-0,333
66,261	125,496	-0,291	-0,259
67,276	129,272	-0,283	-0,254
68,290	111,550	-0,397	-0,337
69,305	-16,595	-0,292	-0,130
70,320	54,861	-0,301	-0,204
71,334	9,953	-0,303	-0,161
72,349	485,605	-0,231	-0,371
73,363	42,869	-0,276	-0,177
74,378	77,187	-0,393	-0,294
75,393	40,199	-0,186	-0,118
76,407	152,226	-0,365	-0,351
77,422	-2,192	-0,309	-0,152
78,436	-1,488	-0,308	-0,152
79,451	44,412	-0,251	-0,162
80,466	13,901	-0,360	-0,196
81,480	-27,273	-0,384	-0,157
82,495	134,608	-0,330	-0,302
83,509	-54,945	-0,193	-0,061
84,524	-56,126	-0,104	-0,032
85,539	-108,884	-0,188	0,028
86,553	-69,392	-0,300	-0,080
87,568	-36,116	-0,390	-0,147
88,582	84,983	-0,339	-0,261
89,597	33,498	-0,315	-0,192
90,611	139,228	-0,293	-0,271
91,626	130,375	-0,192	-0,173
92,641	219,022	-0,194	-0,218
93,655	-48,323	-0,270	-0,091
94,670	-33,663	-0,285	-0,110
95,684	19,143	-0,349	-0,196
96,699	231,832	-0,209	-0,242
97,714	55,887	-0,263	-0,179
98,728	0,021	-0,198	-0,099
99,743	74,780	-0,280	-0,207
100,757	43,175	-0,235	-0,150
101,772	88,120	-0,311	-0,242
102,787	1,066	-0,265	-0,133
103,801	168,809	-0,209	-0,209
104,816	90,581	-0,367	-0,288
105,830	483,206	-0,141	-0,226
106,845	-35,915	-0,281	-0,106
107,860	211,756	-0,267	-0,295
108,874	-15,909	-0,339	-0,151
109,889	-23,333	-0,281	-0,118
110,903	1,951	-0,258	-0,130
111,918	188,358	-0,211	-0,221
112,933	116,230	-0,150	-0,129
113,947	-131,589	-0,219	0,020
114,962	-14,726	-0,397	-0,178
115,976	-69,717	-0,282	-0,075
116,991	42,288	-0,317	-0,202
118,006	78,919	-0,232	-0,174
119,020	178,821	-0,224	-0,229
120,035	53,005	-0,240	-0,161
121,049	-45,920	-0,285	-0,098
122,064	337,778	-0,157	-0,215
123,079	76,796	-0,255	-0,189
124,093	438,345	-0,143	-0,220
125,108	-4,845	-0,384	-0,185
126,122	409,001	-0,204	-0,303
127,137	-111,131	-0,341	0,048
128,151	11,380	-0,201	-0,107
129,166	-36,643	-0,234	-0,088
130,181	19,989	-0,207	-0,117
131,195	10,652	-0,267	-0,142
132,210	28,198	-0,286	-0,169
133,224	195,546	-0,206	-0,220
134,239	117,067	-0,130	-0,112
135,254	60,106	-0,201	-0,139
136,268	132,245	-0,309	-0,279
137,283	405,984	-0,174	-0,257
138,297	84,036	-0,234	-0,179
139,312	-1,726	-0,339	-0,166
140,327	29,441	-0,268	-0,159
141,341	116,546	-0,255	-0,218
142,356	236,280	-0,172	-0,199
143,370	19,622	-0,271	-0,152
144,385	383,220	-0,200	-0,289
145,400	409,645	-0,159	-0,236
146,414	324,411	-0,213	-0,286
147,429	-0,402	-0,447	-0,221
148,443	-36,143	-0,279	-0,105
149,458	-17,718	-0,243	-0,106
150,473	533,279	-0,182	-0,302
151,487	800,000	-0,146	-0,301
152,502	6,463	-0,432	-0,224
153,516	94,583	-0,337	-0,267
154,531	17,950	-0,253	-0,141
155,546	249,608	-0,259	-0,307
156,560	-148,340	-0,098	-0,006
157,575	69,815	-0,285	-0,205
158,589	239,530	-0,109	-0,127
159,604	51,997	-0,205	-0,136
160,619	81,937	-0,247	-0,186
161,633	192,041	-0,269	-0,283
162,648	-36,672	-0,224	-0,083
163,662	-18,238	-0,320	-0,139
164,677	800,000	-0,111	-0,217
165,692	34,152	-0,259	-0,157
166,706	151,855	-0,172	-0,163
167,721	61,404	-0,334	-0,232
168,735	-149,451	-0,280	-0,015
169,750	-63,784	-0,215	-0,061
170,764	358,212	-0,121	-0,169
171,779	167,120	-0,258	-0,256
172,794	95,534	-0,225	-0,179
173,808	153,931	-0,214	-0,205
174,823	43,700	-0,335	-0,213
175,837	153,782	-0,219	-0,209
176,852	2,122	-0,205	-0,103
177,867	217,902	-0,196	-0,219
178,881	103,785	-0,167	-0,137
179,896	304,149	-0,038	0,050
180,910	2,588	-0,257	-0,129
181,925	91,052	-0,308	-0,241
182,940	-2,823	-0,198	-0,096
183,954	47,226	-0,229	-0,149
184,969	-76,409	-0,146	-0,036
185,983	46,058	-0,307	-0,198
186,998	-151,183	-0,179	-0,009
188,013	159,991	-0,129	-0,125
189,027	-95,027	-0,188	-0,035
190,042	-66,788	-0,360	-0,099
191,056	160,861	-0,124	-0,121
192,071	447,182	-0,132	-0,204
193,086	120,392	-0,180	-0,156
194,100	162,923	-0,179	-0,176
195,115	100,507	-0,237	-0,191
196,129	211,053	-0,105	-0,115
197,144	31,171	-0,312	-0,186
198,159	-35,927	-0,312	-0,117
199,173	-117,805	-0,196	-0,024
200,188	-76,208	-0,306	-0,075
201,202	262,563	-0,140	-0,169
202,217	6,597	-0,177	-0,091
203,232	373,755	-0,149	-0,211
204,246	-23,456	-0,341	-0,142
205,261	606,905	-0,158	-0,276
206,275	-86,511	-0,068	0,014
207,290	321,133	-0,127	-0,169
208,304	-41,389	-0,240	-0,086
209,319	-7,857	-0,197	-0,092
210,334	-137,412	-0,121	-0,009
211,348	112,381	-0,189	-0,159
212,363	88,779	-0,230	-0,178
213,377	257,717	-0,129	-0,154
214,392	800,000	-0,079	-0,183
215,407	141,744	-0,173	-0,159
216,421	14,534	-0,283	-0,153
217,436	430,058	-0,176	-0,266
218,450	-50,989	-0,174	-0,057
219,465	13,672	-0,266	-0,143
220,480	-2,453	-0,186	-0,090
221,494	187,997	-0,159	-0,165
222,509	-20,922	-0,196	0,083
223,523	-35,414	-0,179	-0,067
224,538	344,446	-0,143	-0,195
225,553	48,372	-0,165	-0,107
226,567	-34,259	-0,233	-0,088
227,582	-86,720	-0,245	-0,052
228,596	378,598	-0,115	-0,164
229,611	186,821	-0,182	-0,189
230,626	175,200	-0,070	-0,070
231,640	64,074	-0,196	-0,136
232,655	69,751	-0,269	-0,192
233,669	69,079	-0,185	-0,132
234,684	244,354	-0,151	-0,177
235,699	127,814	-0,245	-0,216
236,713	198,235	-0,046	-0,048
237,728	-200,000	-0,029	-0,107
238,742	269,152	-0,187	-0,228
239,757	605,067	-0,149	-0,258
240,772	654,989	-0,096	-0,171
241,786	534,130	-0,095	-0,157
242,801	103,476	-0,224	-0,183
243,815	-107,331	-0,182	-0,027
244,830	106,054	-0,095	-0,078
245,844	-47,251	-0,160	-0,054
246,859	22,137	-0,265	-0,149
247,874	178,544	-0,194	-0,197
248,888	184,447	-0,204	-0,209
249,903	304,286	-0,157	-0,202
250,917	125,932	-0,093	-0,081
251,932	33,006	-0,170	-0,102
252,947	33,577	-0,179	-0,108
253,961	326,700	-0,193	-0,257
254,976	27,481	-0,299	-0,174
255,990	-47,790	-0,236	-0,079
257,005	59,321	-0,201	-0,137
258,020	-200,000	-0,038	-0,226
259,034	396,897	-0,115	-0,167
260,049	479,536	-0,036	-0,057
261,063	147,949	-0,121	-0,113
262,078	67,341	-0,193	-0,136
263,093	123,175	-0,093	-0,080
264,107	329,120	-0,168	-0,224
265,122	37,401	-0,200	-0,123
266,136	82,216	-0,218	-0,164
267,151	49,913	-0,050	-0,032
268,166	10,507	-0,260	-0,137
269,180	152,541	-0,177	-0,168
270,195	800,000	-0,118	-0,258
271,209	47,113	-0,136	-0,087
272,224	-111,255	-0,209	-0,029
273,239	19,977	-0,225	-0,125
274,253	57,417	-0,171	-0,115
275,268	174,352	-0,140	-0,140
276,282	89,768	-0,117	-0,090
277,297	276,997	-0,160	-0,197
278,312	-58,196	-0,112	-0,034
279,326	97,666	-0,222	-0,176
280,341	652,451	-0,061	-0,109
281,355	112,432	-0,113	-0,094
282,370	-20,017	-0,110	0,047
283,384	-5,980	-0,167	-0,078
284,399	86,211	-0,243	-0,185
285,414	-46,688	-0,195	-0,066
286,428	-132,709	-0,227	-0,020
287,443	-32,432	-0,066	0,025
288,457	-80,305	-0,088	-0,020
289,472	95,332	-0,136	-0,107
290,487	-87,776	-0,163	-0,034
291,501	83,349	-0,141	-0,106
292,516	-38,006	-0,049	0,018
293,530	468,766	-0,144	-0,224
294,545	-200,000	-0,018	-0,122
295,560	283,363	-0,137	-0,170
296,574	491,818	-0,032	-0,051
297,589	27,207	-0,077	-0,045
298,603	152,208	-0,188	-0,177
299,618	136,210	-0,231	-0,207
300,633	63,008	-0,153	-0,106
301,647	736,638	-0,081	-0,151
302,662	18,691	-0,190	-0,105
303,676	57,443	-0,193	-0,130
304,691	109,734	-0,138	-0,114
305,706	567,389	-0,079	-0,132
306,720	51,420	-0,133	-0,087
307,735	-16,500	-0,183	-0,080
308,749	-52,239	-0,118	-0,037
309,764	800,000	-0,035	0,086
310,779	135,264	-0,120	-0,108
311,793	72,407	-0,170	-0,122
312,808	88,860	-0,128	-0,098
313,822	42,494	-0,128	0,080
314,837	800,000	-0,056	-0,156
315,852	49,108	-0,121	-0,078
316,866	-57,865	-0,234	-0,070
317,881	212,859	-0,127	-0,138
318,895	-200,000	-0,130	0,000
319,910	480,596	-0,131	-0,205
320,925	70,465	-0,105	-0,075
321,939	14,463	-0,143	-0,077
322,954	-131,706	-0,153	-0,014
323,968	-57,301	-0,141	-0,042
324,983	-86,293	-0,095	-0,020
325,997	800,000	-0,080	-0,170
327,012	-10,294	-0,181	-0,082
328,027	-32,276	-0,134	-0,051
329,041	800,000	-0,087	-0,180
330,056	-104,464	-0,166	0,026
331,070	378,744	-0,011	-0,016
332,085	-68,360	-0,103	-0,027
333,100	-90,915	-0,155	-0,030
334,114	250,469	-0,123	-0,145
335,129	-30,376	-0,217	-0,084
336,143	-59,422	-0,181	-0,053
337,158	-65,759	-0,087	-0,024
338,173	-60,783	-0,147	0,043
339,187	-60,292	-0,155	-0,045
340,202	-116,297	-0,097	0,012
341,216	22,123	-0,237	-0,133
342,231	100,383	-0,219	-0,174
343,246	485,834	-0,105	-0,166
344,260	574,442	-0,079	-0,133
345,275	800,000	-0,075	-0,143
346,289	-36,171	-0,139	0,051
347,304	-89,218	-0,195	-0,039
348,319	-51,961	-0,238	-0,076
349,333	-6,584	-0,139	-0,065
350,348	83,903	-0,272	-0,204
351,362	128,001	-0,144	-0,125
352,377	-90,695	-0,177	0,035
353,392	-80,232	-0,231	-0,053
354,406	-71,117	-0,153	-0,039
355,421	208,252	1314,592	1412,782
356,435	160,231	1475,313	1413,281
