DTS Sentinel unit serial number:	SN410029Multiplexer serial number:	ORYXHardware model number:	OX2-SRSoftware version number:	ORYX F/W v4,00 Oryx Data Collector v3.7.2.0data status	okinstallation	B3 Nyhavnadifferential loss correction	single-endedforward channel	channel 1reverse channel	N/Adate	2023/12/04time	09:52:30forward acquisition time	300,00reverse acquisition time	0,00gamma	499,1914k internal	0,3202k external	0,3202temperature offset calibration	1,0000default loss term (dB/km)	0,3820temperature slope calibration	1,0000multiplexer offset coefficient	1,0000multiplexer slope coefficient	1,0000fibre end	0,00T internal ref (°C)	13,32T ext. ref 1 (°C)	-1,06T ext. ref 2 (°C)	-1,10length (m)	temperature (°C)	Stokes	anti-Stokes-744,400	800,000	-0,164	-0,338
-743,385	800,000	0,107	0,247
-742,371	800,000	-0,063	-0,187
-741,356	-200,000	0,016	0,375
-740,342	142,308	-0,200	-0,193
-739,327	-200,000	0,086	0,332
-738,312	294,123	-0,132	-0,175
-737,298	-200,000	-0,041	0,138
-736,283	126,559	-0,248	-0,228
-735,269	-200,000	-0,065	0,390
-734,254	27,391	-0,189	-0,115
-733,239	-137,048	-0,255	0,021
-732,225	130,217	-0,252	-0,234
-731,210	800,000	0,027	0,079
-730,196	89,953	-0,120	0,097
-729,181	-114,587	-0,101	-0,014
-728,167	187,843	-0,053	-0,058
-727,152	7,528	-0,056	-0,030
-726,137	27,904	-0,116	-0,071
-725,123	-62,795	-0,086	0,026
-724,108	46,743	-0,138	-0,093
-723,094	800,000	0,039	-0,085
-722,079	-200,000	-0,000	-0,090
-721,064	765,495	-0,013	-0,027
-720,050	277,095	-0,034	0,044
-719,035	-93,097	-0,082	-0,016
-718,021	-81,471	-0,088	-0,021
-717,006	-200,000	0,003	-0,257
-715,991	-24,971	-0,052	0,022
-714,977	-200,000	0,013	-0,197
-713,962	284,291	-0,057	-0,075
-712,948	237,183	-0,054	0,065
-711,933	-200,000	0,001	-0,019
-710,918	-200,000	0,023	0,106
-709,904	200,981	-0,098	-0,109
-708,889	364,802	-0,077	-0,113
-707,875	-138,020	-0,155	0,012
-706,860	-200,000	0,003	-0,017
-705,845	166,125	-0,118	-0,122
-704,831	599,699	0,012	-0,022
-703,816	-200,000	-0,002	-0,008
-702,802	440,513	0,087	-0,139
-701,787	800,000	-0,069	-0,192
-700,772	-200,000	-0,008	-0,095
-699,758	-200,000	-0,002	0,049
-698,743	-200,000	0,013	0,072
-697,729	-171,601	0,106	0,002
-696,714	38,148	-0,052	0,033
-695,699	800,000	-0,028	0,077
-694,685	58,405	-0,079	-0,056
-693,670	102,630	0,032	0,028
-692,656	127,340	-0,079	0,073
-691,641	-200,000	-0,003	0,102
-690,627	800,000	-0,086	0,185
-689,612	-90,716	-0,040	0,008
-688,597	59,053	-0,050	0,036
-687,583	40,329	-0,057	-0,037
-686,568	-39,565	0,224	0,085
-685,554	-200,000	0,042	-0,218
-684,539	338,841	0,048	-0,067
-683,524	39,820	0,071	-0,046
-682,510	-200,000	0,032	-0,121
-681,495	379,818	0,059	-0,088
-680,481	-37,302	-0,126	0,048
-679,466	131,216	-0,070	-0,066
-678,451	-200,000	-0,010	0,124
-677,437	217,906	-0,113	-0,131
-676,422	-180,999	0,195	0,003
-675,408	-200,000	-0,032	-0,110
-674,393	-138,069	0,007	-0,001
-673,378	174,552	-0,025	-0,026
-672,364	163,631	0,050	-0,051
-671,349	800,000	0,046	-0,102
-670,335	800,000	-0,006	-0,015
-669,320	-58,197	0,085	-0,027
-668,305	170,082	-0,158	0,164
-667,291	800,000	0,058	0,117
-666,276	19,640	-0,057	-0,033
-665,262	-77,962	-0,146	-0,036
-664,247	156,266	-0,026	-0,026
-663,232	800,000	-0,004	-0,011
-662,218	6,699	0,050	0,027
-661,203	158,088	-0,049	-0,050
-660,189	800,000	-0,029	0,059
-659,174	66,155	-0,058	-0,042
-658,159	108,947	-0,060	-0,052
-657,145	-200,000	0,020	0,100
-656,130	-154,903	0,190	0,009
-655,116	-162,822	-0,109	0,004
-654,101	-167,208	0,137	-0,004
-653,086	-66,396	-0,047	0,014
-652,072	-200,000	-0,009	0,063
-651,057	-62,651	-0,083	0,025
-650,043	73,066	-0,072	-0,054
-649,028	-200,000	0,009	0,057
-648,014	-200,000	0,004	0,035
-646,999	-200,000	-0,008	0,165
-645,984	-38,933	0,092	-0,035
-644,970	800,000	-0,050	-0,115
-643,955	800,000	-0,030	-0,068
-642,941	52,623	-0,111	0,077
-641,926	6,279	0,058	0,031
-640,911	-114,093	-0,064	0,009
-639,897	34,825	0,076	-0,048
-638,882	-200,000	-0,055	0,191
-637,868	21,629	0,050	0,029
-636,853	595,156	-0,041	0,073
-635,838	-200,000	-0,010	0,069
-634,824	-200,000	-0,023	-0,078
-633,809	36,494	-0,057	-0,036
-632,795	800,000	0,012	-0,030
-631,780	256,142	-0,092	0,115
-630,765	59,062	0,109	-0,077
-629,751	-108,540	-0,132	0,020
-628,736	-141,531	-0,093	0,007
-627,722	-200,000	0,016	-0,060
-626,707	-12,655	0,079	0,037
-625,692	-50,955	0,035	-0,012
-624,678	-200,000	-0,029	-0,109
-623,663	-45,781	-0,163	-0,058
-622,649	-145,095	0,092	0,006
-621,634	-146,716	-0,108	-0,007
-620,619	84,956	-0,116	0,092
-619,605	-200,000	0,030	0,105
-618,590	278,217	-0,076	-0,098
-617,576	-180,257	-0,114	0,002
-616,561	144,729	0,022	-0,021
-615,546	4,881	0,025	-0,013
-614,532	800,000	0,020	-0,055
-613,517	-67,772	0,058	-0,016
-612,503	-200,000	-0,001	-0,087
-611,488	-200,000	0,005	0,028
-610,474	800,000	-0,030	0,083
-609,459	-16,820	-0,044	-0,020
-608,444	-200,000	-0,020	-0,177
-607,430	232,067	0,047	0,056
-606,415	-67,762	-0,131	-0,037
-605,401	31,684	0,047	-0,029
-604,386	106,217	0,018	0,015
-603,371	-55,537	0,108	0,035
-602,357	-12,299	-0,145	0,068
-601,342	-82,873	0,068	0,016
-600,328	277,567	-0,102	-0,132
-599,313	749,017	0,068	-0,134
-598,298	68,185	-0,145	0,107
-597,284	-45,343	0,045	-0,016
-596,269	-157,847	-0,059	0,002
-595,255	126,232	-0,096	-0,088
-594,240	-159,827	-0,106	0,004
-593,225	-200,000	-0,010	-0,090
-592,211	-200,000	-0,011	-0,155
-591,196	-81,285	-0,078	-0,018
-590,182	-154,691	-0,123	-0,006
-589,167	120,793	0,111	0,100
-588,152	-129,005	-0,108	0,011
-587,138	125,903	-0,033	-0,030
-586,123	-200,000	-0,005	-0,122
-585,109	-120,058	0,075	-0,009
-584,094	358,123	0,111	-0,161
-583,079	311,051	-0,057	-0,078
-582,065	761,769	-0,024	-0,048
-581,050	-200,000	-0,003	0,184
-580,036	-69,228	-0,063	-0,017
-579,021	-73,726	0,120	0,031
-578,006	-200,000	0,001	0,032
-576,992	-76,230	-0,119	0,030
-575,977	-200,000	-0,003	0,089
-574,963	800,000	0,025	0,080
-573,948	800,000	-0,030	0,090
-572,934	-200,000	0,000	0,098
-571,919	800,000	-0,019	-0,038
-570,904	800,000	-0,054	-0,112
-569,890	-106,024	0,016	-0,003
-568,875	299,426	-0,024	0,032
-567,861	-60,758	0,100	0,030
-566,846	-17,073	0,056	0,025
-565,831	-78,639	0,059	0,014
-564,817	309,672	-0,104	-0,140
-563,802	189,310	0,065	-0,071
-562,788	67,674	0,008	0,006
-561,773	-140,605	0,043	0,003
-560,758	800,000	-0,027	-0,084
-559,744	-129,486	0,105	-0,010
-558,729	-200,000	-0,016	0,062
-557,715	524,035	-0,065	0,112
-556,700	318,961	-0,089	-0,122
-555,685	53,483	-0,042	-0,029
-554,671	-51,330	0,062	0,021
-553,656	252,527	0,091	-0,112
-552,642	-200,000	0,015	0,074
-551,627	-200,000	0,015	0,047
-550,612	400,926	-0,026	-0,039
-549,598	120,812	-0,092	-0,082
-548,583	-200,000	0,021	-0,098
-547,569	-58,761	-0,025	-0,008
-546,554	-50,290	0,046	-0,016
-545,539	131,148	0,045	0,042
-544,525	31,261	0,095	-0,059
-543,510	-200,000	-0,020	0,100
-542,496	66,226	-0,043	0,031
-541,481	455,322	0,047	-0,075
-540,466	800,000	0,021	0,046
-539,452	534,919	0,039	0,067
-538,437	2,968	-0,011	-0,006
-537,423	116,637	0,083	0,073
-536,408	-200,000	-0,022	0,129
-535,393	-200,000	-0,009	0,090
-534,379	99,236	-0,076	0,063
-533,364	-200,000	-0,019	-0,131
-532,350	-200,000	0,023	-0,084
-531,335	26,256	0,113	-0,068
-530,321	-44,691	0,067	0,024
-529,306	-113,494	-0,063	-0,009
-528,291	-163,281	-0,098	0,003
-527,277	74,894	0,044	-0,033
-526,262	-36,271	-0,062	-0,024
-525,248	337,276	-0,021	0,029
-524,233	5,771	-0,050	0,026
-523,218	84,775	0,033	0,026
-522,204	-200,000	0,003	-0,031
-521,189	298,130	0,019	-0,025
-520,175	-79,776	-0,142	0,034
-519,160	102,731	0,072	-0,061
-518,145	-121,203	0,088	-0,011
-517,131	557,794	0,077	0,134
-516,116	186,426	0,033	-0,036
-515,102	133,125	0,122	-0,113
-514,087	800,000	-0,018	-0,041
-513,072	26,617	-0,107	-0,064
-512,058	88,943	-0,079	-0,064
-511,043	-200,000	-0,013	0,064
-510,029	-114,167	-0,025	-0,003
-509,014	-200,000	0,009	0,040
-507,999	1,213	-0,057	-0,030
-506,985	-200,000	0,007	0,024
-505,970	165,757	0,091	-0,092
-504,956	414,255	-0,025	-0,038
-503,941	140,079	0,048	-0,046
-502,926	-23,452	0,033	-0,014
-501,912	-40,498	0,051	0,019
-500,897	-132,619	0,099	-0,009
-499,883	287,832	-0,040	-0,053
-498,868	-103,199	-0,038	-0,006
-497,853	800,000	-0,037	-0,096
-496,839	-200,000	0,025	0,106
-495,824	256,344	-0,036	0,045
-494,810	-200,000	0,023	0,077
-493,795	-200,000	0,002	0,055
-492,781	800,000	-0,014	0,029
-491,766	-18,664	-0,101	0,045
-490,751	800,000	-0,030	0,083
-489,737	-6,037	-0,045	0,022
-488,722	800,000	-0,036	-0,104
-487,708	144,769	0,096	-0,092
-486,693	49,081	0,045	-0,030
-485,678	13,012	-0,115	0,064
-484,664	150,695	0,054	-0,053
-483,649	800,000	0,019	0,052
-482,635	-86,940	-0,044	-0,010
-481,620	-200,000	0,009	0,084
-480,605	-126,073	-0,082	0,009
-479,591	-65,763	0,092	0,026
-478,576	-200,000	-0,012	0,071
-477,562	-11,057	0,118	-0,056
-476,547	-200,000	-0,014	-0,132
-475,532	-200,000	0,007	-0,069
-474,518	-200,000	0,006	0,033
-473,503	800,000	0,057	0,125
-472,489	-51,595	0,009	-0,003
-471,474	136,862	0,051	-0,048
-470,459	485,009	-0,077	-0,126
-469,445	-90,069	0,083	-0,017
-468,430	-200,000	-0,023	-0,079
-467,416	-200,000	0,015	0,095
-466,401	13,797	0,043	-0,024
-465,386	70,565	-0,067	0,050
-464,372	-97,036	-0,115	0,021
-463,357	-200,000	0,022	-0,142
-462,343	253,188	-0,055	-0,068
-461,328	-200,000	-0,018	-0,066
-460,313	-138,778	-0,174	-0,013
-459,299	800,000	0,055	0,111
-458,284	-86,801	0,061	-0,013
-457,270	168,178	-0,149	0,152
-456,255	51,000	0,069	-0,047
-455,241	800,000	-0,037	0,086
-454,226	68,468	0,043	-0,032
-453,211	65,822	-0,108	-0,079
-452,197	-112,518	-0,011	0,002
-451,182	-75,738	0,128	-0,032
-450,168	-117,970	0,131	0,017
-449,153	-200,000	-0,007	0,042
-448,138	9,913	-0,055	0,030
-447,124	24,349	0,187	-0,111
-446,109	42,707	-0,068	0,045
-445,095	-24,043	0,063	-0,027
-444,080	129,767	0,123	0,113
-443,065	255,467	-0,068	-0,084
-442,051	2,846	0,059	0,031
-441,036	800,000	-0,078	-0,167
-440,022	300,499	-0,092	-0,122
-439,007	-57,404	0,072	-0,023
-437,992	-200,000	-0,042	0,152
-436,978	207,432	0,128	0,143
-435,963	-155,295	0,141	0,006
-434,949	-70,794	-0,048	0,013
-433,934	-80,852	-0,090	0,021
-432,919	-69,009	0,036	-0,010
-431,905	361,007	0,058	0,083
-430,890	-100,558	-0,069	-0,012
-429,876	723,320	0,025	-0,048
-428,861	499,352	-0,063	-0,104
-427,846	-200,000	0,007	-0,048
-426,832	501,344	0,052	-0,087
-425,817	-73,828	0,021	-0,005
-424,803	-165,945	-0,142	0,004
-423,788	32,961	-0,078	0,048
-422,773	10,996	0,054	0,030
-421,759	800,000	-0,040	0,117
-420,744	101,302	0,045	0,037
-419,730	50,055	-0,118	-0,080
-418,715	-200,000	0,000	-0,131
-417,701	98,322	0,164	0,135
-416,686	-92,265	0,044	0,009
-415,671	106,849	-0,029	0,024
-414,657	-110,075	0,036	-0,005
-413,642	-91,990	0,147	-0,030
-412,628	53,958	-0,126	-0,087
-411,613	-9,810	0,105	-0,050
-410,598	-97,887	0,247	-0,045
-409,584	-151,277	-0,168	0,009
-408,569	23,196	0,004	0,002
-407,555	63,237	0,107	0,077
-406,540	478,949	0,065	0,106
-405,525	-26,987	0,064	-0,027
-404,511	223,012	-0,041	-0,048
-403,496	-3,237	-0,148	-0,074
-402,482	112,541	0,028	-0,024
-401,467	-141,872	0,102	-0,007
-400,452	-200,000	-0,006	0,179
-399,438	800,000	-0,044	0,134
-398,423	-3,262	-0,129	-0,064
-397,409	26,979	-0,042	0,025
-396,394	39,452	0,037	-0,024
-395,379	-152,155	0,124	-0,006
-394,365	544,729	0,072	0,125
-393,350	-115,843	-0,085	0,011
-392,336	-109,291	-0,092	-0,014
-391,321	800,000	-0,051	0,107
-390,306	-200,000	-0,013	-0,090
-389,292	13,520	-0,053	-0,030
-388,277	256,293	0,058	-0,071
-387,263	-41,409	0,049	0,018
-386,248	69,187	-0,094	0,069
-385,233	-103,931	0,167	-0,028
-384,219	239,560	-0,055	-0,065
-383,204	-21,501	0,092	-0,040
-382,190	26,689	-0,086	0,052
-381,175	800,000	0,019	-0,046
-380,160	18,229	0,100	0,057
-379,146	92,821	-0,043	-0,035
-378,131	-58,734	0,032	0,010
-377,117	24,492	-0,060	0,035
-376,102	594,870	-0,066	-0,117
-375,088	65,760	-0,088	-0,064
-374,073	800,000	-0,027	-0,081
-373,058	89,987	0,130	-0,104
-372,044	-195,907	0,166	0,001
-371,029	-200,000	-0,001	0,142
-370,015	146,181	-0,068	-0,065
-369,000	800,000	0,043	-0,132
-367,985	369,856	0,039	-0,057
-366,971	366,104	-0,045	0,065
-365,956	44,079	0,021	-0,014
-364,942	219,836	-0,103	0,118
-363,927	-200,000	-0,004	-0,066
-362,912	-200,000	0,047	0,181
-361,898	8,942	0,076	-0,041
-360,883	-125,518	-0,121	-0,013
-359,869	66,096	-0,152	0,110
-358,854	91,173	0,157	0,126
-357,839	-48,448	0,087	0,030
-356,825	-15,046	-0,028	0,013
-355,810	72,529	-0,103	0,077
-354,796	800,000	-0,030	-0,066
-353,781	588,227	0,104	0,184
-352,766	15,177	-0,055	0,031
-351,752	-75,215	-0,143	-0,036
-350,737	32,068	0,077	-0,047
-349,723	10,439	0,065	0,035
-348,708	91,128	-0,029	-0,024
-347,693	-95,744	-0,056	0,011
-346,679	800,000	-0,034	-0,092
-345,664	251,477	-0,007	-0,008
-344,650	-154,389	-0,087	-0,004
-343,635	-60,749	0,104	-0,031
-342,620	-200,000	0,014	0,052
-341,606	-62,865	0,137	0,040
-340,591	-200,000	0,003	-0,093
-339,577	22,552	-0,061	-0,035
-338,562	-200,000	0,023	-0,127
-337,548	-200,000	-0,028	-0,151
-336,533	476,036	-0,044	-0,072
-335,518	435,100	0,057	-0,089
-334,504	-200,000	0,026	0,093
-333,489	-15,636	0,062	-0,028
-332,475	163,993	-0,088	0,088
-331,460	631,383	-0,075	-0,137
-330,445	-33,838	0,161	-0,063
-329,431	13,502	-0,105	-0,058
-328,416	35,359	0,024	-0,015
-327,402	-127,306	0,079	-0,008
-326,387	129,617	-0,070	-0,064
-325,372	-128,259	0,137	-0,014
-324,358	5,895	0,074	-0,039
-323,343	342,837	0,040	-0,056
-322,329	448,977	-0,059	-0,093
-321,314	273,745	0,128	0,163
-320,299	-200,000	-0,023	0,107
-319,285	-200,000	-0,006	-0,047
-318,270	-57,595	-0,107	0,033
-317,256	49,194	0,061	0,041
-316,241	94,961	0,066	-0,054
-315,226	-84,766	-0,190	-0,042
-314,212	-156,440	-0,096	0,004
-313,197	412,792	0,012	-0,018
-312,183	-81,883	-0,026	0,006
-311,168	-92,050	-0,085	0,017
-310,153	-107,896	-0,138	-0,021
-309,139	-7,052	-0,041	-0,020
-308,124	-183,871	0,155	-0,002
-307,110	124,644	0,065	-0,058
-306,095	108,821	0,034	0,029
-305,080	-200,000	-0,020	0,080
-304,066	233,325	0,022	0,026
-303,051	142,501	-0,076	0,072
-302,037	83,437	-0,054	-0,042
-301,022	71,265	-0,032	0,024
-300,008	743,602	0,050	-0,097
-298,993	-200,000	-0,002	0,073
-297,978	-134,233	0,091	0,008
-296,964	-50,432	-0,047	0,016
-295,949	322,210	0,062	-0,084
-294,935	103,271	-0,143	-0,119
-293,920	-200,000	0,001	-0,163
-292,905	24,817	0,060	0,035
-291,891	-160,762	0,006	0,000
-290,876	749,253	0,090	0,174
-289,862	798,421	-0,066	0,130
-288,847	800,000	-0,055	-0,108
-287,832	316,480	-0,067	-0,090
-286,818	-78,248	0,055	0,013
-285,803	28,205	0,104	0,063
-284,789	-165,838	0,217	-0,007
-283,774	80,188	0,033	0,025
-282,759	-50,336	-0,083	-0,028
-281,745	800,000	-0,014	-0,034
-280,730	53,270	0,066	0,045
-279,716	800,000	0,037	0,115
-278,701	-60,014	0,064	-0,019
-277,686	-36,519	0,228	0,087
-276,672	-161,340	-0,025	-0,001
-275,657	199,933	0,041	0,045
-274,643	18,861	0,079	0,045
-273,628	-17,208	-0,049	0,022
-272,613	162,957	0,089	-0,090
-271,599	-10,735	-0,062	0,029
-270,584	-85,392	-0,031	0,007
-269,570	800,000	0,044	0,114
-268,555	-200,000	-0,004	0,082
-267,540	-83,657	-0,096	0,022
-266,526	13,491	-0,045	0,025
-265,511	-175,961	-0,046	-0,001
-264,497	323,896	-0,025	0,034
-263,482	70,375	0,059	-0,043
-262,467	-20,676	0,046	-0,020
-261,453	-108,126	0,117	-0,018
-260,438	125,725	0,082	0,074
-259,424	121,828	-0,064	-0,057
-258,409	-2,373	-0,138	0,069
-257,395	-200,000	0,019	-0,073
-256,380	-145,709	-0,101	0,006
-255,365	-144,136	-0,084	0,006
-254,351	223,999	0,102	0,118
-253,336	800,000	-0,020	0,050
-252,322	531,687	-0,056	0,095
-251,307	181,367	-0,023	-0,024
-250,292	-161,034	0,104	-0,004
-249,278	-200,000	0,039	0,183
-248,263	-104,312	0,097	0,016
-247,249	-200,000	-0,002	0,026
-246,234	1,589	0,042	-0,021
-245,219	54,263	-0,089	-0,061
-244,205	-158,515	-0,138	0,006
-243,190	-63,063	-0,193	-0,057
-242,176	-128,624	0,066	-0,007
-241,161	92,636	0,033	0,026
-240,146	470,955	0,040	-0,064
-239,132	104,881	0,071	-0,059
-238,117	800,000	0,040	-0,112
-237,103	-200,000	-0,000	-0,123
-236,088	800,000	0,006	-0,017
-235,073	-102,016	-0,162	-0,028
-234,059	-200,000	0,000	0,020
-233,044	800,000	0,038	0,117
-232,030	137,660	-0,092	0,086
-231,015	178,541	-0,010	0,010
-230,000	97,499	-0,158	-0,129
-228,986	800,000	-0,075	0,166
-227,971	157,276	-0,045	0,044
-226,957	-62,336	-0,049	-0,014
-225,942	800,000	0,035	0,083
-224,927	-40,633	-0,082	0,030
-223,913	800,000	0,023	-0,045
-222,898	800,000	0,031	-0,081
-221,884	-200,000	0,002	0,074
-220,869	-200,000	-0,008	0,182
-219,855	82,527	0,192	0,148
-218,840	-5,675	0,171	-0,083
-217,825	13,159	0,055	0,030
-216,811	581,724	0,033	-0,057
-215,796	24,052	-0,050	-0,029
-214,782	76,255	-0,074	-0,056
-213,767	-127,004	-0,107	-0,011
-212,752	54,823	0,177	0,121
-211,738	97,960	-0,144	0,118
-210,723	800,000	-0,074	-0,151
-209,709	-120,938	-0,093	-0,011
-208,694	22,159	-0,119	-0,069
-207,679	-150,182	0,104	-0,006
-206,665	-62,907	0,145	-0,042
-205,650	61,947	0,142	0,101
-204,636	800,000	-0,033	0,073
-203,621	-200,000	-0,025	0,095
-202,606	166,986	0,074	0,075
-201,592	21,645	-0,057	-0,033
-200,577	392,254	-0,014	0,020
-199,563	-200,000	0,017	-0,060
-198,548	44,365	0,109	-0,071
-197,533	-116,910	0,067	-0,009
-196,519	1,093	0,070	0,036
-195,504	140,519	-0,052	-0,049
-194,490	2,863	-0,074	-0,038
-193,475	42,231	-0,049	-0,032
-192,460	734,008	0,045	-0,087
-191,446	-65,423	0,027	-0,008
-190,431	-46,760	0,110	0,038
-189,417	472,831	-0,038	0,061
-188,402	-200,000	0,006	-0,040
-187,387	702,836	0,035	-0,066
-186,373	-93,605	0,067	0,013
-185,358	-200,000	0,012	-0,055
-184,344	-200,000	-0,028	0,099
-183,329	-200,000	0,004	0,211
-182,315	350,587	-0,032	-0,045
-181,300	-200,000	0,007	0,040
-180,285	800,000	0,026	0,071
-179,271	-89,925	0,052	0,011
-178,256	-162,540	0,173	0,006
-177,242	-117,259	-0,023	0,003
-176,227	146,717	0,077	0,074
-175,212	-200,000	0,009	-0,038
-174,198	171,249	-0,023	-0,024
-173,183	103,553	-0,050	0,042
-172,169	-200,000	0,013	-0,082
-171,154	119,058	-0,138	0,121
-170,139	401,478	-0,054	-0,080
-169,125	351,901	-0,045	0,064
-168,110	32,152	0,133	0,081
-167,096	-200,000	0,010	-0,097
-166,081	-134,095	-0,117	0,010
-165,066	-146,227	0,159	-0,010
-164,052	-64,962	-0,114	0,033
-163,037	167,532	-0,061	-0,062
-162,023	-46,472	0,129	0,045
-161,008	105,974	0,075	0,063
-159,993	-103,400	0,120	-0,020
-158,979	-200,000	0,011	-0,109
-157,964	-96,721	-0,158	-0,029
-156,950	-33,389	-0,103	-0,040
-155,935	360,686	0,068	0,097
-154,920	-15,146	-0,092	0,042
-153,906	-77,093	0,034	0,008
-152,891	-119,431	-0,133	0,016
-151,877	800,000	-0,062	-0,166
-150,862	43,961	0,052	-0,034
-149,847	-126,001	-0,033	0,003
-148,833	518,865	-0,058	-0,097
-147,818	26,336	0,081	0,048
-146,804	-200,000	-0,004	-0,107
-145,789	592,359	0,022	-0,039
-144,775	-87,399	0,084	0,018
-143,760	31,852	-0,134	0,082
-142,745	406,006	-0,040	0,061
-141,731	-200,000	0,012	-0,102
-140,716	58,008	-0,032	-0,022
-139,702	9,812	0,196	0,105
-138,687	-200,000	-0,022	0,185
-137,672	173,750	0,052	0,054
-136,658	37,252	0,182	-0,114
-135,643	-84,443	-0,102	-0,023
-134,629	-200,000	0,022	-0,077
-133,614	-200,000	0,001	-0,032
-132,599	181,226	-0,144	0,150
-131,585	7,328	0,057	-0,030
-130,570	800,000	-0,033	-0,083
-129,556	239,224	-0,072	-0,085
-128,541	-44,665	-0,093	0,033
-127,526	227,021	0,063	-0,073
-126,512	-200,000	-0,014	0,065
-125,497	74,629	0,047	0,035
-124,483	-110,507	0,072	0,010
-123,468	-200,000	-0,135	-0,000
-122,453	-200,000	0,031	-0,122
-121,439	-200,000	0,033	-0,123
-120,424	-114,062	-0,083	-0,011
-119,410	-200,000	-0,011	-0,118
-118,395	-44,753	0,053	-0,019
-117,380	-70,005	-0,043	-0,012
-116,366	410,029	-0,062	0,093
-115,351	175,788	0,066	-0,067
-114,337	575,411	-0,022	-0,039
-113,322	-200,000	-0,047	0,155
-112,307	-77,446	0,111	-0,027
-111,293	322,619	-0,032	-0,044
-110,278	364,613	0,103	0,147
-109,264	248,519	0,073	0,088
-108,249	83,343	0,039	-0,030
-107,234	-88,055	0,039	-0,008
-106,220	185,964	-0,133	0,140
-105,205	129,660	0,060	0,054
-104,191	74,866	0,071	-0,053
-103,176	800,000	-0,055	0,129
-102,162	-200,000	0,021	0,210
-101,147	40,966	-0,037	0,024
-100,132	-3,888	-0,047	-0,023
-99,118	125,264	0,074	-0,066
-98,103	-41,729	-0,074	0,027
-97,089	8,212	0,030	-0,016
-96,074	-200,000	0,020	0,064
-95,059	65,824	-0,011	-0,008
-94,045	-200,000	0,004	-0,119
-93,030	-200,000	-0,019	-0,073
-92,016	-98,617	0,066	0,012
-91,001	800,000	0,079	0,232
-89,986	451,026	0,011	-0,017
-88,972	222,015	0,085	-0,097
-87,957	-200,000	0,008	0,044
-86,943	87,153	-0,099	0,078
-85,928	-200,000	0,010	-0,060
-84,913	-3,853	0,013	0,006
-83,899	40,964	-0,058	0,037
-82,884	-200,000	-0,009	-0,111
-81,870	800,000	-0,041	0,126
-80,855	-115,059	-0,141	0,019
-79,840	-22,419	-0,058	0,025
-78,826	-200,000	-0,011	-0,173
-77,811	582,353	-0,037	-0,065
-76,797	491,026	-0,041	-0,067
-75,782	-99,787	0,081	-0,014
-74,767	-20,426	0,118	0,051
-73,753	-147,419	-0,080	0,005
-72,738	-200,000	-0,018	0,058
-71,724	-200,000	0,010	-0,125
-70,709	413,176	-0,069	-0,104
-69,694	96,279	-0,071	-0,057
-68,680	-97,729	-0,131	0,024
-67,665	-135,953	-0,075	-0,006
-66,651	-200,000	-0,003	-0,053
-65,636	-121,357	0,128	-0,015
-64,622	634,580	0,031	0,057
-63,607	-129,228	-0,100	0,010
-62,592	-200,000	0,003	0,106
-61,578	-39,685	0,109	0,040
-60,563	-18,356	-0,024	0,010
-59,549	-200,000	-0,003	0,085
-58,534	-10,754	-1,689	-0,788
-57,519	361,040	-1,490	-2,119
-56,505	-200,000	-0,543	-4,593
-55,490	332,964	0,902	1,236
-54,476	800,000	4,829	10,917
-53,461	-200,000	19,179	319,497
-52,446	-200,000	740,349	2334,348
-51,432	574,356	1655,294	2869,457
-50,417	78,347	1670,767	1261,389
-49,403	21,316	1543,716	885,173
-48,388	15,203	1466,380	811,112
-47,373	17,868	1456,574	818,531
-46,359	16,632	1446,324	806,816
-45,344	13,395	1442,127	788,938
-44,330	13,328	1440,036	787,443
-43,315	13,331	1438,218	786,431
-42,300	13,338	1436,703	785,603
-41,286	13,380	1435,454	785,091
-40,271	13,334	1434,050	784,071
-39,257	13,327	1432,835	783,342
-38,242	13,446	1431,256	783,014
-37,227	13,431	1430,228	782,350
-36,213	13,416	1428,750	781,442
-35,198	13,409	1427,762	780,834
-34,184	13,424	1426,830	780,365
-33,169	13,394	1425,540	779,485
-32,154	13,424	1424,496	779,027
-31,140	13,444	1423,234	778,401
-30,125	13,461	1422,084	777,820
-29,111	13,437	1421,001	777,086
-28,096	13,387	1419,983	776,261
-27,082	13,379	1418,764	775,524
-26,067	13,329	1417,675	774,664
-25,052	13,346	1416,485	774,063
-24,038	13,297	1415,585	773,312
-23,023	13,320	1414,573	772,838
-22,009	13,364	1413,391	772,367
-20,994	13,299	1412,551	771,573
-19,979	13,315	1411,674	771,138
-18,965	13,287	1410,746	770,467
-17,950	13,316	1409,803	770,059
-16,936	13,314	1408,964	769,558
-15,921	13,232	1407,929	768,582
-14,906	13,241	1407,096	768,137
-13,892	13,296	1405,802	767,657
-12,877	13,240	1405,129	766,999
-11,863	13,239	1404,209	766,458
-10,848	13,204	1403,468	765,861
-9,833	13,218	1402,503	765,373
-8,819	13,222	1401,691	764,918
-7,804	13,175	1400,872	764,220
-6,790	13,201	1399,716	763,678
-5,775	13,140	1398,606	762,761
-4,760	13,167	1397,696	762,359
-3,746	13,181	1396,780	761,894
-2,731	13,168	1395,904	761,326
-1,717	13,094	1395,318	760,634
-0,702	13,131	1393,271	759,657
0,313	17,059	1309,990	732,414
1,327	33,425	703,621	431,189
2,342	51,765	123,197	82,758
3,356	1,944	16,548	8,416
4,371	4,679	3,095	1,602
5,386	-13,760	0,674	0,307
6,400	-200,000	0,036	0,132
7,415	-157,314	-0,158	-0,007
8,429	204,518	-0,248	-0,272
9,444	129,379	-0,236	-0,213
10,459	112,693	-0,167	-0,143
11,473	45,261	-0,337	-0,219
12,488	-55,559	-0,168	-0,053
13,502	126,251	-0,258	-0,230
14,517	85,892	-0,210	-0,163
15,531	-30,060	-0,400	-0,160
16,546	251,162	-0,203	-0,244
17,561	213,268	-0,314	-0,351
18,575	103,705	-0,154	-0,128
19,590	179,993	-0,249	-0,258
20,604	-13,208	-0,299	-0,136
21,619	61,635	-0,390	-0,274
22,634	18,184	-0,488	-0,274
23,648	281,649	-0,308	-0,390
24,663	87,240	-0,348	-0,271
25,677	80,077	-0,329	-0,249
26,692	7,700	-0,351	-0,185
27,707	-29,040	-0,391	-0,158
28,721	-16,348	-0,457	-0,204
29,736	13,478	-0,399	-0,218
30,750	98,986	-0,365	-0,297
31,765	36,716	-0,305	-0,190
32,780	23,386	-0,414	-0,240
33,794	155,092	-0,280	-0,272
34,809	-25,472	-0,473	-0,196
35,823	14,166	-0,317	-0,174
36,838	-6,321	-0,349	-0,167
37,853	87,358	-0,374	-0,291
38,867	327,783	-0,233	-0,317
39,882	244,175	-0,241	-0,285
40,896	107,463	-0,328	-0,275
41,911	57,708	-0,427	-0,294
42,926	-21,150	-0,461	-0,198
43,940	94,886	-0,308	-0,247
44,955	239,014	-0,334	-0,392
45,969	37,329	-0,351	-0,219
46,984	-34,705	-0,364	-0,140
47,999	175,932	-0,218	-0,223
49,013	360,431	-0,205	-0,289
50,028	-4,998	-0,329	-0,159
51,042	10,050	-0,408	-0,217
52,057	53,693	-0,275	-0,185
53,071	207,505	-0,358	-0,393
54,086	-9,392	-0,332	-0,156
55,101	115,263	-0,250	-0,215
56,115	-18,489	-0,353	-0,155
57,130	-44,159	-0,393	-0,138
58,144	85,672	-0,291	-0,225
59,159	-109,019	-0,352	-0,052
60,174	102,895	-0,374	-0,308
61,188	-8,898	-0,306	-0,144
62,203	43,697	-0,339	-0,218
63,217	253,493	-0,323	-0,389
64,232	-29,763	-0,248	0,099
65,247	-50,459	-0,421	-0,139
66,261	132,294	-0,381	-0,346
67,276	562,597	-0,236	-0,403
68,290	45,281	-0,380	-0,246
69,305	-39,082	-0,439	-0,162
70,320	54,996	-0,387	-0,263
71,334	102,810	-0,226	-0,186
72,349	60,194	-0,242	-0,168
73,363	145,310	-0,309	-0,290
74,378	115,286	-0,251	-0,216
75,393	121,854	-0,180	-0,158
76,407	-109,621	-0,347	-0,051
77,422	105,773	-0,262	-0,217
78,436	-75,585	-0,307	-0,076
79,451	-164,112	-0,254	-0,008
80,466	78,511	-0,293	-0,220
81,480	41,933	-0,358	-0,227
82,495	-5,321	-0,300	-0,144
83,509	92,105	-0,274	-0,216
84,524	-65,779	-0,279	-0,078
85,539	344,632	-0,195	-0,269
86,553	42,959	-0,210	-0,134
87,568	245,947	-0,224	-0,265
88,582	120,534	-0,266	-0,232
89,597	34,135	-0,283	-0,173
90,611	-34,716	-0,232	-0,088
91,626	10,057	-0,175	-0,093
92,641	-20,439	-0,150	-0,064
93,655	-96,305	-0,182	-0,034
94,670	2,961	-0,326	-0,166
95,684	-200,000	-0,105	-0,364
96,699	123,262	-0,192	-0,169
97,714	147,626	-0,167	-0,158
98,728	32,487	-0,198	-0,120
99,743	72,414	-0,335	-0,245
100,757	314,077	-0,217	-0,287
101,772	770,301	-0,185	-0,356
102,787	125,475	-0,255	-0,226
103,801	89,999	-0,259	-0,202
104,816	230,610	-0,216	-0,248
105,830	-16,707	-0,324	-0,143
106,845	-182,752	-0,206	0,003
107,860	15,578	-0,169	-0,093
108,874	73,052	-0,183	-0,134
109,889	17,028	-0,321	-0,178
110,903	107,390	-0,291	-0,243
111,918	-28,599	-0,272	-0,109
112,933	-119,834	-0,304	-0,036
113,947	142,742	-0,163	-0,152
114,962	-98,047	-0,262	-0,047
115,976	178,640	-0,190	-0,194
116,991	239,374	-0,279	-0,326
118,006	166,075	-0,282	-0,280
119,020	-7,190	-0,340	-0,161
120,035	-28,309	-0,253	-0,102
121,049	42,843	-0,321	-0,204
122,064	32,301	-0,267	-0,161
123,079	176,984	-0,162	-0,165
124,093	148,680	-0,182	-0,172
125,108	11,765	-0,338	-0,181
126,122	152,615	-0,239	-0,228
127,137	-200,000	-0,032	-0,108
128,151	34,376	-0,307	-0,187
129,166	91,286	-0,187	-0,147
130,181	142,714	-0,303	-0,282
131,195	31,983	-0,211	-0,127
132,210	339,845	-0,224	-0,306
133,224	155,513	-0,255	-0,246
134,239	391,186	-0,164	-0,239
135,254	75,956	-0,307	-0,227
136,268	256,740	-0,110	-0,133
137,283	26,201	-0,267	-0,155
138,297	234,163	-0,227	-0,262
139,312	15,226	-0,252	-0,138
140,327	-57,440	-0,233	-0,071
141,341	-5,268	-0,183	-0,088
142,356	42,348	-0,131	-0,083
143,370	-105,432	-0,186	-0,029
144,385	-76,350	-0,213	-0,052
145,400	82,825	-0,310	-0,235
146,414	125,810	-0,272	-0,240
147,429	45,463	-0,348	-0,224
148,443	165,294	-0,202	-0,200
149,458	265,277	-0,135	-0,164
150,473	399,329	-0,173	-0,254
151,487	37,212	-0,285	-0,176
152,502	62,496	-0,262	-0,183
153,516	236,314	-0,170	-0,197
154,531	34,480	-0,224	-0,136
155,546	-35,122	-0,321	-0,121
156,560	-13,600	-0,265	-0,119
157,575	72,470	-0,190	-0,138
158,589	-83,016	-0,233	-0,052
159,604	-118,194	-0,145	-0,018
160,619	800,000	-0,111	-0,276
161,633	39,392	-0,295	-0,184
162,648	708,581	-0,103	-0,190
163,662	165,643	-0,151	-0,149
164,677	-102,590	-0,158	-0,026
165,692	94,761	-0,291	-0,230
166,706	-26,652	-0,274	-0,111
167,721	800,000	-0,193	-0,403
168,735	800,000	-0,109	-0,213
169,750	72,101	-0,233	-0,169
170,764	106,469	-0,191	-0,158
171,779	-29,325	-0,241	-0,096
172,794	54,589	-0,232	-0,155
173,808	20,060	-0,268	-0,150
174,823	102,980	-0,258	-0,211
175,837	129,363	-0,226	-0,201
176,852	226,868	-0,243	-0,275
177,867	131,883	-0,249	-0,223
178,881	325,855	-0,128	-0,171
179,896	301,338	-0,178	-0,229
180,910	345,612	-0,170	-0,233
181,925	-102,977	-0,184	-0,030
182,940	146,687	-0,233	-0,218
183,954	-41,631	-0,195	-0,069
184,969	182,715	-0,208	-0,214
185,983	93,173	-0,243	-0,191
186,998	330,345	-0,183	-0,246
188,013	194,255	-0,130	-0,137
189,027	181,326	-0,216	-0,222
190,042	-57,792	-0,241	-0,073
191,056	152,784	-0,263	-0,250
192,071	-21,190	-0,195	-0,083
193,086	97,605	-0,239	-0,191
194,100	349,157	-0,100	-0,138
195,115	406,287	-0,208	-0,306
196,129	-51,737	-0,164	-0,053
197,144	800,000	-0,145	-0,298
198,159	121,571	-0,261	-0,226
199,173	800,000	-0,164	-0,323
200,188	103,501	-0,177	-0,145
201,202	30,007	-0,302	-0,179
202,217	58,150	-0,199	-0,135
203,232	402,639	-0,112	-0,165
204,246	540,157	-0,109	-0,181
205,261	-108,598	-0,273	-0,040
206,275	453,348	-0,137	-0,212
207,290	98,885	-0,204	-0,163
208,304	-77,427	-0,220	-0,053
209,319	126,866	-0,207	-0,182
210,334	-42,497	-0,246	-0,087
211,348	121,794	-0,198	-0,172
212,363	64,787	-0,155	-0,109
213,377	-18,882	-0,299	-0,129
214,392	-29,259	-0,177	-0,070
215,407	-55,794	-0,175	-0,054
216,421	-94,071	-0,141	-0,027
217,436	800,000	-0,122	-0,271
218,450	197,309	-0,113	-0,120
219,465	247,434	-0,166	-0,194
220,480	3,136	-0,207	-0,104
221,494	490,663	0,014	-0,022
222,509	-82,932	-0,185	-0,041
223,523	382,660	-0,088	-0,126
224,538	41,642	-0,120	-0,075
225,553	87,179	-0,192	-0,147
226,567	180,297	-0,220	-0,224
227,582	139,134	-0,132	-0,120
228,596	40,931	-0,253	-0,158
229,611	172,936	-0,148	-0,148
230,626	178,628	-0,195	-0,198
231,640	19,385	-0,213	-0,118
232,655	152,234	-0,262	-0,248
233,669	300,030	-0,189	-0,243
234,684	-17,276	-0,189	-0,082
235,699	-69,163	-0,153	-0,041
236,713	-135,440	-0,075	-0,006
237,728	54,081	-0,218	-0,145
238,742	-93,957	-0,234	-0,044
239,757	3,818	-0,299	-0,151
240,772	39,392	-0,291	-0,180
241,786	25,252	-0,184	-0,106
242,801	-1,016	-0,150	-0,073
243,815	-20,595	-0,207	-0,087
244,830	131,043	-0,059	-0,053
245,844	-129,715	-0,115	0,011
246,859	33,775	-0,229	-0,138
247,874	133,954	-0,138	-0,124
248,888	225,877	-0,187	-0,210
249,903	14,017	-0,202	-0,109
250,917	67,042	-0,239	-0,168
251,932	0,146	-0,157	-0,077
252,947	-63,149	-0,161	-0,046
253,961	159,232	-0,191	-0,184
254,976	-38,643	-0,238	-0,087
255,990	3,859	-0,207	-0,104
257,005	22,440	-0,227	-0,128
258,020	263,305	-0,195	-0,235
259,034	-18,612	-0,192	-0,082
260,049	41,221	-0,193	-0,120
261,063	-200,000	-0,068	-0,242
262,078	69,029	-0,178	-0,126
263,093	90,193	-0,163	-0,126
264,107	-78,386	-0,265	-0,062
265,122	64,077	-0,107	-0,074
266,136	0,459	-0,183	-0,090
267,151	33,374	-0,225	-0,135
268,166	462,926	-0,169	-0,262
269,180	208,788	-0,144	-0,156
270,195	2,177	-0,160	-0,080
271,209	39,050	-0,171	-0,105
272,224	475,894	-0,115	-0,180
273,239	800,000	-0,094	-0,187
274,253	675,373	-0,136	-0,245
275,268	103,172	-0,186	-0,151
276,282	-45,447	-0,203	-0,069
277,297	10,676	-0,149	-0,078
278,312	800,000	-0,071	-0,159
279,326	-200,000	-0,036	-0,184
280,341	-41,440	-0,209	-0,074
281,355	147,067	-0,133	-0,123
282,370	164,041	-0,169	-0,164
283,384	103,855	-0,151	-0,122
284,399	-56,009	-0,227	-0,070
285,414	18,293	-0,230	-0,126
286,428	800,000	-0,075	-0,202
287,443	-109,469	-0,155	0,022
288,457	2,727	-0,166	-0,083
289,472	-82,530	-0,144	-0,032
290,487	-49,714	-0,123	-0,040
291,501	239,607	-0,197	-0,226
292,516	292,680	-0,099	-0,124
293,530	-18,026	-0,168	-0,072
294,545	-125,200	-0,197	0,021
295,560	-43,592	-0,108	0,037
296,574	106,608	-0,189	-0,155
297,589	-119,323	-0,263	-0,031
298,603	-73,206	-0,033	0,008
299,618	-76,933	-0,170	-0,041
300,633	800,000	-0,096	-0,196
301,647	477,909	-0,103	-0,160
302,662	138,629	-0,116	-0,105
303,676	212,462	-0,076	-0,083
304,691	130,326	-0,205	-0,180
305,706	21,292	-0,189	-0,105
306,720	0,517	-0,208	-0,102
307,735	515,733	-0,121	-0,195
308,749	800,000	-0,091	-0,209
309,764	-36,307	-0,197	0,073
310,779	-18,785	-0,118	-0,050
311,793	-135,828	-0,046	-0,004
312,808	-113,144	-0,176	0,024
313,822	210,410	-0,105	-0,114
314,837	410,524	-0,112	-0,163
315,852	146,304	-0,148	-0,137
316,866	710,850	-0,095	-0,174
317,881	107,850	-0,127	-0,104
318,895	-51,274	-0,257	-0,082
319,910	800,000	-0,073	-0,220
320,925	0,153	-0,068	-0,033
321,939	129,970	-0,101	-0,089
322,954	-110,576	-0,059	-0,008
323,968	-17,666	-0,088	0,038
324,983	60,168	-0,160	-0,108
325,997	-10,311	-0,260	-0,118
327,012	189,763	-0,124	-0,128
328,027	83,685	-0,158	-0,118
329,041	336,644	-0,138	-0,184
330,056	-154,288	-0,201	0,009
331,070	-125,010	-0,108	-0,011
332,085	186,317	-0,052	-0,053
333,100	208,938	-0,054	-0,058
334,114	-28,706	-0,201	-0,079
335,129	251,492	-0,120	-0,141
336,143	-17,961	-0,199	-0,085
337,158	94,051	-0,085	-0,066
338,173	800,000	-0,090	-0,173
339,187	98,963	-0,177	-0,140
340,202	568,082	-0,144	-0,241
341,216	302,189	-0,093	-0,118
342,231	365,853	-0,108	-0,149
343,246	41,385	-0,094	-0,059
344,260	-200,000	-0,004	-0,026
345,275	-22,899	-0,165	-0,068
346,289	-125,844	-0,085	-0,009
347,304	-200,000	0,024	-0,107
348,319	76,326	-0,051	-0,037
349,333	152,081	-0,180	-0,168
350,348	-15,858	-0,234	-0,102
351,362	-61,801	-0,198	0,057
352,377	-72,398	-0,208	-0,052
353,392	800,000	-0,028	0,083
354,406	800,000	-0,027	-0,057
355,421	208,826	1315,513	1413,339
356,435	160,702	1476,321	1413,836
