DTS Sentinel unit serial number:	SN410029Multiplexer serial number:	ORYXHardware model number:	OX2-SRSoftware version number:	ORYX F/W v4,00 Oryx Data Collector v3.7.2.0data status	okinstallation	B3 Nyhavnadifferential loss correction	single-endedforward channel	channel 1reverse channel	N/Adate	2023/12/04time	06:27:30forward acquisition time	300,00reverse acquisition time	0,00gamma	499,1914k internal	0,3206k external	0,3206temperature offset calibration	1,0000default loss term (dB/km)	0,3820temperature slope calibration	1,0000multiplexer offset coefficient	1,0000multiplexer slope coefficient	1,0000fibre end	0,00T internal ref (°C)	12,05T ext. ref 1 (°C)	-2,87T ext. ref 2 (°C)	-2,89length (m)	temperature (°C)	Stokes	anti-Stokes-744,400	63,650	-0,260	-0,189
-743,385	-200,000	0,018	0,342
-742,371	310,954	-0,105	-0,143
-741,356	-200,000	-0,004	0,309
-740,342	139,952	-0,215	-0,206
-739,327	-200,000	-0,017	0,338
-738,312	248,636	-0,247	-0,304
-737,298	800,000	-0,083	0,250
-736,283	234,502	-0,179	-0,214
-735,269	-200,000	-0,002	0,279
-734,254	-200,000	-0,046	-0,414
-733,239	29,154	-0,243	0,149
-732,225	-200,000	0,021	-0,104
-731,210	253,441	0,067	0,084
-730,196	-14,701	-0,105	-0,049
-729,181	-198,730	-0,106	0,000
-728,167	-33,648	-0,029	0,012
-727,152	-200,000	-0,015	-0,079
-726,137	91,242	-0,085	0,070
-725,123	496,851	-0,053	-0,089
-724,108	-50,395	-0,061	-0,021
-723,094	-200,000	-0,014	0,082
-722,079	140,518	-0,067	-0,064
-721,064	-200,000	-0,017	-0,091
-720,050	-200,000	0,015	-0,110
-719,035	-129,628	-0,199	0,020
-718,021	139,244	-0,088	-0,084
-717,006	65,428	-0,114	-0,083
-715,991	800,000	-0,009	-0,028
-714,977	391,887	-0,113	-0,171
-713,962	569,321	-0,054	0,096
-712,948	191,430	0,087	-0,095
-711,933	-122,789	-0,165	0,019
-710,918	-200,000	-0,039	-0,146
-709,904	222,700	-0,101	-0,118
-708,889	-200,000	-0,017	-0,183
-707,875	-119,875	-0,019	-0,002
-706,860	800,000	-0,050	-0,100
-705,845	-200,000	-0,021	-0,082
-704,831	228,281	0,094	0,112
-703,816	-123,375	-0,191	0,022
-702,802	-115,752	-0,097	-0,013
-701,787	193,187	-0,094	-0,104
-700,772	-16,861	-0,059	-0,027
-699,758	85,810	0,042	-0,033
-698,743	-200,000	-0,006	-0,021
-697,729	800,000	-0,037	0,080
-696,714	-200,000	0,005	0,143
-695,699	114,164	-0,098	-0,086
-694,685	-16,940	-0,081	-0,037
-693,670	475,146	0,052	0,085
-692,656	11,356	0,093	-0,052
-691,641	83,064	0,013	-0,010
-690,627	-116,557	-0,058	-0,008
-689,612	462,931	-0,048	0,078
-688,597	-191,946	-0,208	-0,001
-687,583	-23,035	-0,103	0,045
-686,568	-200,000	-0,012	0,040
-685,554	-49,547	-0,105	-0,036
-684,539	308,955	0,101	-0,136
-683,524	333,661	0,024	-0,034
-682,510	-0,645	-0,077	-0,039
-681,495	800,000	0,059	-0,150
-680,481	-200,000	0,001	-0,138
-679,466	-12,433	-0,061	-0,029
-678,451	256,362	-0,051	-0,064
-677,437	42,127	-0,091	0,060
-676,422	284,910	0,075	0,098
-675,408	277,431	-0,040	-0,052
-674,393	3,848	-0,074	0,039
-673,378	800,000	-0,032	-0,068
-672,364	68,789	0,095	-0,071
-671,349	-41,483	-0,090	0,034
-670,335	575,245	-0,024	-0,042
-669,320	27,776	0,043	0,026
-668,305	-200,000	-0,006	0,051
-667,291	482,615	-0,058	0,096
-666,276	217,495	0,018	-0,021
-665,262	-97,339	-0,109	0,020
-664,247	230,250	-0,054	0,064
-663,232	800,000	0,018	0,044
-662,218	800,000	0,041	-0,117
-661,203	-200,000	-0,011	0,083
-660,189	512,951	0,015	0,025
-659,174	31,208	-0,135	-0,084
-658,159	81,274	-0,042	-0,033
-657,145	-111,442	-0,155	-0,023
-656,130	-10,502	-0,047	0,022
-655,116	-181,594	0,105	0,001
-654,101	-200,000	0,005	0,026
-653,086	-61,556	0,087	-0,026
-652,072	-157,676	-0,152	0,006
-651,057	271,644	0,050	-0,064
-650,043	647,357	0,050	-0,092
-649,028	7,968	-0,102	0,055
-648,014	-83,243	0,175	-0,040
-646,999	167,013	0,081	0,083
-645,984	189,942	0,024	0,026
-644,970	-77,610	-0,058	0,015
-643,955	-200,000	-0,008	-0,032
-642,941	-48,736	-0,074	0,026
-641,926	-200,000	0,011	0,040
-640,911	800,000	-0,033	-0,068
-639,897	-200,000	-0,001	-0,005
-638,882	60,599	0,076	-0,054
-637,868	5,019	0,189	-0,100
-636,853	-87,305	-0,057	-0,012
-635,838	258,864	0,005	0,006
-634,824	-200,000	-0,002	0,085
-633,809	0,061	0,055	0,028
-632,795	-200,000	-0,026	0,141
-631,780	9,150	0,068	-0,037
-630,765	-200,000	0,026	-0,166
-629,751	-96,785	-0,098	-0,018
-628,736	800,000	-0,023	-0,056
-627,722	18,004	-0,056	-0,032
-626,707	80,231	0,056	-0,044
-625,692	21,701	0,016	-0,010
-624,678	4,864	-0,137	-0,073
-623,663	-200,000	-0,001	-0,019
-622,649	92,484	-0,006	0,005
-621,634	-10,385	0,063	-0,030
-620,619	800,000	-0,039	-0,121
-619,605	-200,000	0,000	0,098
-618,590	800,000	-0,005	0,012
-617,576	237,229	0,101	0,121
-616,561	749,152	0,012	0,024
-615,546	-110,136	-0,078	-0,012
-614,532	300,686	-0,092	-0,122
-613,517	153,250	-0,084	0,083
-612,503	800,000	-0,031	0,095
-611,488	218,846	0,053	0,061
-610,474	-200,000	0,010	0,124
-609,459	53,536	0,045	-0,031
-608,444	-200,000	-0,012	0,039
-607,430	98,438	0,208	-0,173
-606,415	169,401	0,077	-0,079
-605,401	-87,515	-0,101	-0,022
-604,386	800,000	0,040	-0,096
-603,371	-57,418	0,085	0,027
-602,357	-16,506	-0,082	0,037
-601,342	-147,186	-0,025	0,001
-600,328	800,000	0,014	-0,041
-599,313	527,088	-0,044	-0,075
-598,298	-183,457	-0,074	0,001
-597,284	66,872	-0,069	0,051
-596,269	50,267	0,095	0,065
-595,255	1,506	0,039	0,020
-594,240	-1,989	-0,083	-0,042
-593,225	-200,000	0,045	0,189
-592,211	800,000	0,043	-0,086
-591,196	-71,923	-0,144	0,038
-590,182	-200,000	-0,007	0,062
-589,167	-73,828	-0,040	-0,010
-588,152	-200,000	-0,006	-0,059
-587,138	-184,326	-0,036	0,000
-586,123	181,365	-0,104	-0,111
-585,109	158,525	-0,174	-0,175
-584,094	25,772	0,100	-0,060
-583,079	410,184	-0,036	0,056
-582,065	-175,667	-0,100	-0,002
-581,050	570,883	0,052	0,092
-580,036	-200,000	-0,001	-0,031
-579,021	-101,673	0,030	0,005
-578,006	-200,000	-0,011	-0,157
-576,992	800,000	0,030	-0,086
-575,977	-200,000	0,001	0,039
-574,963	-200,000	0,019	0,151
-573,948	218,639	0,039	-0,044
-572,934	-29,151	0,026	-0,011
-571,919	-81,059	0,037	-0,009
-570,904	-200,000	0,002	-0,041
-569,890	-200,000	-0,037	-0,145
-568,875	800,000	-0,043	-0,130
-567,861	-51,704	0,216	-0,072
-566,846	-154,617	-0,167	-0,008
-565,831	-31,168	0,153	-0,062
-564,817	-200,000	0,003	0,106
-563,802	-57,362	0,076	-0,024
-562,788	-161,375	-0,079	0,003
-561,773	207,261	0,131	0,148
-560,758	-161,284	-0,030	-0,001
-559,744	800,000	0,096	0,282
-558,729	173,071	-0,034	0,036
-557,715	1,556	-0,058	0,030
-556,700	-114,709	0,132	0,018
-555,685	-15,088	0,031	0,014
-554,671	-200,000	-0,014	0,088
-553,656	-60,292	0,128	0,039
-552,642	-108,621	0,036	0,005
-551,627	593,319	-0,014	-0,025
-550,612	145,604	-0,106	0,102
-549,598	800,000	-0,025	-0,068
-548,583	566,270	-0,072	-0,126
-547,569	75,348	-0,136	-0,103
-546,554	-124,080	0,028	0,003
-545,539	68,171	-0,055	-0,041
-544,525	800,000	-0,045	-0,115
-543,510	-200,000	-0,027	-0,126
-542,496	119,871	-0,060	-0,053
-541,481	296,120	0,032	-0,042
-540,466	800,000	-0,023	0,054
-539,452	800,000	-0,025	0,061
-538,437	-200,000	-0,006	0,056
-537,423	-91,779	0,062	0,013
-536,408	800,000	-0,021	-0,044
-535,393	800,000	-0,012	0,027
-534,379	-122,743	-0,127	0,015
-533,364	605,248	0,048	0,087
-532,350	81,955	0,027	0,021
-531,335	364,337	0,030	-0,043
-530,321	-60,684	-0,083	0,025
-529,306	800,000	0,046	0,107
-528,291	-136,583	-0,089	0,007
-527,277	195,254	-0,077	0,084
-526,262	78,317	0,053	-0,041
-525,248	-99,040	0,076	0,014
-524,233	97,491	0,069	-0,057
-523,218	-200,000	0,016	0,066
-522,204	-200,000	-0,001	0,029
-521,189	800,000	0,023	0,068
-520,175	-31,819	-0,241	-0,097
-519,160	-200,000	-0,005	0,152
-518,145	138,088	0,064	0,060
-517,131	-200,000	0,005	-0,047
-516,116	130,090	0,028	-0,026
-515,102	800,000	0,079	0,188
-514,087	-12,679	0,140	0,065
-513,072	72,393	-0,149	-0,111
-512,058	-200,000	-0,037	-0,149
-511,043	800,000	-0,011	-0,029
-510,029	-62,384	0,178	-0,053
-509,014	-200,000	0,012	-0,061
-507,999	585,057	0,046	0,082
-506,985	176,127	0,097	-0,101
-505,970	800,000	-0,050	-0,117
-504,956	-64,193	0,020	0,006
-503,941	800,000	-0,011	-0,022
-502,926	372,261	0,089	-0,130
-501,912	800,000	-0,044	0,102
-500,897	800,000	0,041	0,085
-499,883	299,008	-0,065	-0,086
-498,868	-200,000	0,001	-0,169
-497,853	183,967	0,116	-0,123
-496,839	-9,874	0,128	0,061
-495,824	800,000	0,037	0,110
-494,810	-91,466	0,028	-0,006
-493,795	-128,345	0,156	0,016
-492,781	-62,073	-0,082	-0,024
-491,766	799,951	-0,054	-0,107
-490,751	213,554	-0,200	-0,228
-489,737	-88,497	-0,195	-0,041
-488,722	-200,000	0,003	0,086
-487,708	-178,426	0,114	-0,002
-486,693	83,544	-0,051	0,040
-485,678	716,743	-0,008	0,016
-484,664	-137,338	-0,209	-0,017
-483,649	-200,000	-0,000	0,060
-482,635	800,000	0,016	-0,039
-481,620	800,000	0,020	0,042
-480,605	101,987	0,060	0,051
-479,591	155,549	-0,033	-0,033
-478,576	66,786	-0,134	-0,098
-477,562	22,560	-0,020	-0,012
-476,547	800,000	-0,050	-0,126
-475,532	54,861	0,033	-0,023
-474,518	88,094	0,094	-0,075
-473,503	800,000	0,039	0,088
-472,489	800,000	0,028	0,073
-471,474	800,000	-0,025	-0,076
-470,459	59,109	0,116	-0,082
-469,445	-29,065	0,032	0,013
-468,430	-21,175	-0,110	-0,048
-467,416	-200,000	0,016	0,054
-466,401	2,232	0,095	0,049
-465,386	-98,841	0,086	0,016
-464,372	10,223	-0,076	-0,041
-463,357	-200,000	-0,007	-0,073
-462,343	136,218	0,041	-0,038
-461,328	-200,000	-0,020	-0,111
-460,313	800,000	0,015	-0,040
-459,299	-200,000	0,025	0,115
-458,284	-52,149	0,100	-0,033
-457,270	247,007	0,048	0,058
-456,255	-147,735	-0,083	-0,005
-455,241	26,175	-0,085	0,051
-454,226	800,000	-0,037	0,098
-453,211	176,920	-0,123	-0,129
-452,197	-200,000	0,061	-0,000
-451,182	265,583	0,029	-0,036
-450,168	800,000	-0,020	0,042
-449,153	800,000	0,029	0,078
-448,138	-84,524	0,054	0,012
-447,124	800,000	0,054	-0,138
-446,109	304,168	0,081	-0,108
-445,095	270,339	0,096	0,122
-444,080	281,601	0,074	-0,095
-443,065	-200,000	-0,007	0,025
-442,051	207,468	-0,094	0,106
-441,036	11,007	0,011	-0,006
-440,022	23,395	0,045	0,027
-439,007	10,973	0,127	0,069
-437,992	376,387	-0,057	-0,084
-436,978	-200,000	0,038	0,179
-435,963	-80,738	-0,052	0,012
-434,949	-200,000	-0,002	0,097
-433,934	2,052	-0,115	-0,059
-432,919	47,454	0,066	0,044
-431,905	-200,000	-0,040	-0,189
-430,890	-118,694	-0,081	-0,010
-429,876	-63,697	0,079	-0,023
-428,861	59,916	0,113	0,080
-427,846	800,000	0,085	0,199
-426,832	-200,000	-0,005	0,086
-425,817	-32,082	-0,027	0,011
-424,803	20,150	-0,060	-0,034
-423,788	354,296	0,036	-0,052
-422,773	-27,642	0,089	0,037
-421,759	770,447	0,002	-0,004
-420,744	-200,000	-0,030	-0,187
-419,730	-200,000	0,030	-0,105
-418,715	147,296	-0,091	-0,088
-417,701	-200,000	0,007	-0,033
-416,686	-200,000	-0,006	0,026
-415,671	389,407	0,061	0,091
-414,657	800,000	-0,024	0,067
-413,642	-200,000	-0,032	0,142
-412,628	517,758	0,042	0,071
-411,613	-200,000	0,022	-0,092
-410,598	107,978	-0,058	-0,050
-409,584	188,604	0,076	0,082
-408,569	-27,722	0,109	0,045
-407,555	-89,160	0,092	0,019
-406,540	-54,079	-0,158	0,051
-405,525	-200,000	-0,001	-0,024
-404,511	-47,432	-0,173	-0,060
-403,496	211,505	0,105	-0,119
-402,482	44,825	-0,029	-0,019
-401,467	497,913	0,097	0,160
-400,452	-200,000	-0,002	0,185
-399,438	-8,039	-0,061	-0,029
-398,423	-47,580	0,079	0,027
-397,409	-134,362	-0,158	-0,014
-396,394	346,548	-0,052	-0,073
-395,379	-38,633	0,146	-0,055
-394,365	-35,302	0,092	-0,036
-393,350	-200,000	-0,019	0,118
-392,336	800,000	-0,071	0,166
-391,321	-102,590	-0,124	0,021
-390,306	235,901	-0,102	-0,121
-389,292	-9,742	-0,099	-0,047
-388,277	81,028	-0,142	0,110
-387,263	134,627	-0,044	-0,041
-386,248	-200,000	-0,055	0,232
-385,233	1,218	0,095	0,049
-384,219	328,852	-0,070	-0,097
-383,204	-102,083	-0,079	-0,014
-382,190	-32,613	-0,095	0,038
-381,175	800,000	0,066	-0,150
-380,160	-200,000	-0,004	-0,126
-379,146	-200,000	-0,014	0,063
-378,131	-200,000	0,033	0,130
-377,117	328,594	-0,128	0,176
-376,102	-47,547	-0,062	0,021
-375,088	-109,326	-0,070	-0,011
-374,073	-200,000	0,026	-0,097
-373,058	73,846	0,044	-0,033
-372,044	89,237	0,010	0,008
-371,029	800,000	-0,027	-0,064
-370,015	-88,187	-0,072	0,015
-369,000	-60,580	-0,104	0,031
-367,985	228,214	-0,006	-0,008
-366,971	158,557	-0,055	0,054
-365,956	615,266	-0,020	0,036
-364,942	-71,445	0,059	-0,016
-363,927	426,939	-0,027	0,042
-362,912	-94,056	0,035	0,007
-361,898	605,319	0,099	-0,177
-360,883	780,855	0,058	-0,114
-359,869	-4,210	0,047	-0,023
-358,854	-9,838	-0,031	0,015
-357,839	360,017	0,053	-0,076
-356,825	319,378	0,025	0,034
-355,810	16,151	0,046	0,026
-354,796	-61,793	-0,124	0,037
-353,781	790,179	0,032	-0,064
-352,766	-38,384	0,018	-0,007
-351,752	-7,333	0,054	0,026
-350,737	800,000	-0,042	0,105
-349,723	-200,000	0,014	-0,103
-348,708	-200,000	-0,006	0,114
-347,693	-24,286	0,044	0,019
-346,679	-39,639	0,127	0,047
-345,664	-65,739	0,019	-0,005
-344,650	67,181	-0,104	0,076
-343,635	720,599	0,044	-0,084
-342,620	573,152	-0,049	0,085
-341,606	146,546	0,046	-0,044
-340,591	-30,429	0,059	-0,024
-339,577	-164,856	-0,069	-0,002
-338,562	-108,412	-0,023	0,003
-337,548	-64,336	0,082	-0,024
-336,533	139,155	-0,071	0,066
-335,518	170,643	0,093	-0,096
-334,504	-97,786	-0,062	0,011
-333,489	-29,658	0,121	0,049
-332,475	90,026	0,085	-0,068
-331,460	-200,000	0,011	0,103
-330,445	323,258	0,027	0,037
-329,431	181,713	0,054	-0,057
-328,416	167,210	0,075	0,077
-327,402	430,239	-0,075	0,116
-326,387	-83,406	0,064	-0,015
-325,372	151,416	-0,066	0,064
-324,358	-145,464	0,022	-0,001
-323,343	377,692	-0,044	-0,065
-322,329	173,961	0,022	0,023
-321,314	800,000	0,027	0,082
-320,299	800,000	-0,019	-0,050
-319,285	-159,013	-0,082	-0,003
-318,270	477,312	0,076	0,123
-317,256	173,525	-0,141	-0,146
-316,241	120,720	-0,037	-0,033
-315,226	-196,853	0,067	0,000
-314,212	800,000	0,051	0,104
-313,197	-143,085	0,038	0,003
-312,183	800,000	-0,030	-0,064
-311,168	-200,000	0,013	0,132
-310,153	103,193	-0,090	-0,075
-309,139	800,000	0,047	-0,122
-308,124	129,292	0,071	-0,065
-307,110	102,673	0,120	-0,100
-306,095	194,883	0,093	0,100
-305,080	30,013	0,054	-0,033
-304,066	341,123	0,083	0,116
-303,051	-153,664	-0,188	-0,009
-302,037	93,022	0,030	-0,024
-301,022	395,178	0,042	-0,062
-300,008	-49,076	0,007	-0,002
-298,993	-71,168	0,053	-0,014
-297,978	-200,000	0,000	0,032
-296,964	58,398	-0,094	-0,065
-295,949	-135,296	-0,190	-0,016
-294,935	-47,870	0,044	-0,015
-293,920	-167,955	-0,113	-0,003
-292,905	53,269	-0,064	0,044
-291,891	-9,469	0,101	0,048
-290,876	331,851	-0,067	-0,092
-289,862	-200,000	0,021	0,119
-288,847	-19,641	0,087	-0,038
-287,832	634,395	0,015	-0,026
-286,818	150,254	-0,129	0,125
-285,803	800,000	0,012	0,034
-284,789	-94,041	0,126	-0,024
-283,774	-200,000	-0,009	-0,108
-282,759	-200,000	-0,016	0,072
-281,745	398,718	-0,073	-0,110
-280,730	-200,000	0,039	-0,132
-279,716	-200,000	-0,014	-0,102
-278,701	-165,792	0,087	-0,003
-277,686	219,158	0,051	0,058
-276,672	-67,486	0,016	0,004
-275,657	75,242	-0,096	0,072
-274,643	345,842	-0,045	0,064
-273,628	15,719	-0,103	-0,058
-272,613	457,075	-0,070	-0,112
-271,599	157,897	0,021	0,021
-270,584	412,554	0,084	0,128
-269,570	274,734	-0,057	0,072
-268,555	32,164	-0,071	-0,044
-267,540	192,628	0,077	-0,082
-266,526	800,000	0,040	0,089
-265,511	514,210	-0,031	0,051
-264,497	-200,000	0,017	0,057
-263,482	800,000	0,057	0,115
-262,467	800,000	-0,036	0,093
-261,453	-200,000	-0,014	-0,054
-260,438	-63,200	-0,123	-0,036
-259,424	-200,000	0,008	0,095
-258,409	244,652	0,085	0,102
-257,395	76,114	-0,043	-0,032
-256,380	511,184	0,051	-0,085
-255,365	-30,000	0,137	0,055
-254,351	800,000	-0,041	0,093
-253,336	412,676	-0,127	0,192
-252,322	18,273	0,172	-0,098
-251,307	800,000	0,014	-0,031
-250,292	-144,534	-0,102	-0,007
-249,278	-200,000	0,043	0,143
-248,263	800,000	0,068	0,163
-247,249	-187,167	0,144	-0,001
-246,234	-127,807	-0,036	-0,004
-245,219	223,584	0,042	-0,049
-244,205	800,000	-0,057	-0,123
-243,190	-200,000	-0,008	-0,103
-242,176	7,893	0,086	-0,046
-241,161	800,000	0,046	0,106
-240,146	-124,498	-0,110	0,012
-239,132	-86,376	-0,055	0,012
-238,117	-200,000	-0,036	-0,154
-237,103	800,000	-0,039	-0,092
-236,088	-133,772	0,020	0,002
-235,073	161,942	-0,103	0,102
-234,059	800,000	0,028	0,056
-233,044	-27,956	-0,143	-0,059
-232,030	218,894	-0,051	0,058
-231,015	338,448	0,033	-0,046
-230,000	591,514	-0,055	-0,097
-228,986	-67,828	-0,104	-0,029
-227,971	-34,386	0,074	0,029
-226,957	223,227	-0,027	0,032
-225,942	-200,000	0,013	-0,094
-224,927	223,068	0,014	0,016
-223,913	354,459	-0,035	0,049
-222,898	-200,000	-0,023	-0,086
-221,884	281,176	0,045	-0,057
-220,869	-44,211	0,059	0,021
-219,855	-200,000	-0,002	-0,024
-218,840	-45,024	-0,054	-0,019
-217,825	-41,197	-0,024	0,009
-216,811	-200,000	-0,007	0,105
-215,796	800,000	0,025	-0,055
-214,782	50,746	-0,075	-0,050
-213,767	-200,000	-0,012	0,043
-212,752	240,934	-0,023	0,027
-211,738	-59,496	-0,089	-0,027
-210,723	-72,854	0,110	0,029
-209,709	-200,000	-0,016	0,055
-208,694	-200,000	0,022	0,166
-207,679	-60,169	-0,024	0,007
-206,665	67,702	0,042	-0,030
-205,650	335,358	0,020	-0,027
-204,636	192,090	0,091	0,097
-203,621	4,364	-0,093	0,048
-202,606	253,968	0,056	0,069
-201,592	-200,000	0,020	-0,321
-200,577	199,925	0,084	-0,092
-199,563	-58,119	0,140	0,043
-198,548	-200,000	0,002	-0,033
-197,533	-200,000	0,011	-0,040
-196,519	800,000	0,041	0,082
-195,504	240,519	-0,060	0,071
-194,490	-200,000	-0,007	-0,082
-193,475	468,586	-0,069	-0,110
-192,460	-200,000	-0,030	-0,147
-191,446	800,000	0,066	0,166
-190,431	392,758	-0,107	0,159
-189,417	2,010	0,123	0,063
-188,402	-200,000	0,007	0,026
-187,387	580,153	-0,018	0,032
-186,373	-146,370	0,018	0,001
-185,358	66,233	0,070	-0,050
-184,344	-136,134	0,044	0,004
-183,329	-55,071	-0,058	0,018
-182,315	162,077	-0,085	0,085
-181,300	800,000	-0,070	-0,158
-180,285	60,539	-0,041	0,029
-179,271	-95,818	-0,087	0,016
-178,256	-63,198	-0,102	-0,030
-177,242	308,486	0,100	0,133
-176,227	-200,000	0,027	0,096
-175,212	-200,000	-0,003	-0,046
-174,198	93,397	-0,142	-0,114
-173,183	-48,863	-0,010	-0,003
-172,169	-24,312	-0,072	-0,030
-171,154	-44,345	-0,113	0,040
-170,139	-200,000	-0,011	0,059
-169,125	385,170	-0,039	0,057
-168,110	351,206	-0,047	0,067
-167,096	-98,662	0,091	0,016
-166,081	800,000	-0,084	-0,175
-165,066	800,000	-0,039	-0,118
-164,052	134,690	-0,028	0,025
-163,037	-62,704	0,097	0,028
-162,023	-70,160	0,163	-0,044
-161,008	552,871	-0,010	-0,017
-159,993	-20,989	0,121	-0,052
-158,979	304,126	0,091	0,120
-157,964	-53,126	0,112	-0,036
-156,950	-27,827	0,107	0,044
-155,935	-200,000	-0,004	-0,087
-154,920	218,286	-0,075	0,085
-153,906	293,515	0,006	-0,008
-152,891	70,126	-0,037	-0,027
-151,877	800,000	0,047	-0,105
-150,862	-200,000	-0,015	-0,144
-149,847	-200,000	0,017	0,091
-148,833	-29,213	-0,099	-0,040
-147,818	-200,000	-0,001	0,038
-146,804	800,000	-0,032	0,090
-145,789	148,644	0,112	0,107
-144,775	800,000	-0,033	0,094
-143,760	293,321	-0,037	-0,048
-142,745	-200,000	0,007	-0,044
-141,731	-65,643	0,017	0,005
-140,716	739,476	-0,071	0,136
-139,702	-164,575	0,139	-0,004
-138,687	-50,920	0,093	-0,031
-137,672	59,959	-0,165	-0,115
-136,658	769,537	-0,032	-0,063
-135,643	473,889	0,017	0,027
-134,629	308,059	0,041	0,055
-133,614	24,904	0,094	0,055
-132,599	-200,000	0,018	0,096
-131,585	-69,325	0,138	-0,037
-130,570	-62,537	-0,027	-0,008
-129,556	155,883	-0,029	0,029
-128,541	-87,525	-0,135	-0,029
-127,526	286,143	0,056	-0,072
-126,512	-83,130	0,017	-0,004
-125,497	394,970	-0,116	0,172
-124,483	-14,266	0,111	0,050
-123,468	-56,524	-0,102	0,032
-122,453	-19,319	0,090	0,039
-121,439	8,052	-0,101	0,053
-120,424	503,344	0,050	-0,082
-119,410	-10,801	0,081	0,038
-118,395	-200,000	-0,035	-0,140
-117,380	-44,571	0,080	-0,028
-116,366	-200,000	-0,020	-0,072
-115,351	232,026	-0,060	-0,070
-114,337	133,691	-0,032	0,029
-113,322	222,765	0,071	0,081
-112,307	98,550	0,068	0,056
-111,293	800,000	0,059	0,183
-110,278	-200,000	-0,017	0,108
-109,264	-2,784	-0,030	0,015
-108,249	255,075	-0,135	-0,164
-107,234	-200,000	0,020	-0,128
-106,220	-200,000	0,006	-0,039
-105,205	-127,054	0,161	0,017
-104,191	197,123	0,106	-0,115
-103,176	4,133	0,162	0,084
-102,162	-200,000	-0,017	-0,055
-101,147	-200,000	0,005	-0,021
-100,132	-200,000	-0,012	-0,159
-99,118	167,166	-0,022	-0,022
-98,103	285,524	0,019	-0,024
-97,089	9,414	-0,035	0,019
-96,074	-200,000	-0,023	0,105
-95,059	617,876	-0,041	0,074
-94,045	-200,000	0,026	-0,242
-93,030	-20,376	0,041	0,018
-92,016	-85,967	0,081	0,018
-91,001	-200,000	-0,017	-0,064
-89,986	-138,109	0,161	0,013
-88,972	85,982	0,042	-0,033
-87,957	-200,000	0,009	-0,047
-86,943	-133,234	-0,052	-0,005
-85,928	2,750	0,117	-0,060
-84,913	139,273	-0,048	-0,045
-83,899	-133,680	-0,126	0,011
-82,884	800,000	0,071	0,192
-81,870	-200,000	0,011	0,073
-80,855	-171,252	0,113	0,003
-79,840	800,000	-0,027	-0,073
-78,826	531,291	0,061	-0,102
-77,811	571,524	-0,003	-0,005
-76,797	800,000	-0,050	-0,155
-75,782	471,962	-0,039	0,062
-74,767	-182,072	0,146	-0,002
-73,753	63,608	-0,058	0,041
-72,738	-93,798	-0,046	0,009
-71,724	-172,894	-0,095	0,002
-70,709	72,157	-0,096	-0,071
-69,694	81,877	-0,163	-0,125
-68,680	-93,313	0,093	-0,018
-67,665	800,000	0,031	0,063
-66,651	-84,802	0,197	0,043
-65,636	-200,000	-0,005	0,084
-64,622	-97,699	-0,046	0,008
-63,607	-185,184	-0,052	-0,001
-62,592	-200,000	-0,005	-0,088
-61,578	-200,000	0,026	0,138
-60,563	444,164	-0,135	0,211
-59,549	-200,000	-0,019	0,068
-58,534	7,088	-1,749	-0,920
-57,519	440,610	-1,275	-1,978
-56,505	-200,000	-0,590	-4,590
-55,490	355,949	1,040	1,468
-54,476	800,000	4,774	11,141
-53,461	-200,000	20,238	324,543
-52,446	800,000	752,562	2311,955
-51,432	549,057	1663,518	2828,725
-50,417	74,791	1671,992	1242,721
-49,403	19,921	1544,792	877,676
-48,388	13,893	1467,288	804,320
-47,373	18,454	1457,782	821,113
-46,359	16,360	1446,993	804,971
-45,344	12,179	1442,449	782,394
-44,330	12,107	1440,782	781,113
-43,315	12,095	1438,857	779,981
-42,300	12,105	1437,185	779,093
-41,286	12,123	1435,940	778,472
-40,271	12,092	1434,750	777,650
-39,257	12,112	1433,349	776,954
-38,242	12,074	1432,473	776,267
-37,227	12,132	1431,078	775,754
-36,213	12,085	1429,779	774,796
-35,198	12,166	1428,643	774,534
-34,184	12,184	1427,581	774,015
-33,169	12,117	1426,142	772,885
-32,154	12,192	1425,070	772,628
-31,140	12,174	1423,876	771,867
-30,125	12,177	1422,810	771,270
-29,111	12,175	1421,619	770,584
-28,096	12,136	1420,432	769,728
-27,082	12,061	1419,564	768,871
-26,067	12,076	1418,519	768,347
-25,052	12,094	1417,260	767,721
-24,038	12,075	1416,112	766,978
-23,023	12,051	1415,360	766,427
-22,009	12,097	1414,108	765,935
-20,994	12,045	1413,399	765,276
-19,979	12,064	1412,445	764,821
-18,965	12,007	1411,482	763,998
-17,950	12,036	1410,565	763,607
-16,936	12,056	1409,647	763,175
-15,921	11,989	1408,772	762,357
-14,906	12,021	1407,703	761,901
-13,892	12,017	1406,853	761,387
-12,877	11,969	1405,973	760,658
-11,863	12,029	1405,076	760,426
-10,848	11,947	1404,210	759,541
-9,833	11,930	1403,298	758,937
-8,819	11,888	1402,454	758,259
-7,804	11,879	1401,552	757,698
-6,790	11,908	1400,536	757,255
-5,775	11,876	1399,698	756,623
-4,760	11,927	1398,305	756,077
-3,746	11,911	1397,540	755,558
-2,731	11,859	1396,858	754,920
-1,717	11,876	1396,022	754,514
-0,702	11,880	1394,232	753,535
0,313	15,913	1308,956	726,043
1,327	32,299	699,684	425,731
2,342	50,017	121,866	81,094
3,356	2,051	16,444	8,359
4,371	8,183	3,209	1,697
5,386	-19,914	0,745	0,324
6,400	714,697	0,208	0,392
7,415	113,695	-0,270	-0,232
8,429	72,580	-0,280	-0,206
9,444	58,215	-0,420	-0,290
10,459	130,732	-0,224	-0,203
11,473	87,987	-0,296	-0,232
12,488	96,551	-0,259	-0,209
13,502	180,578	-0,281	-0,291
14,517	-30,430	-0,353	-0,141
15,531	88,089	-0,406	-0,318
16,546	94,601	-0,374	-0,300
17,561	166,736	-0,326	-0,326
18,575	55,152	-0,179	-0,122
19,590	8,260	-0,289	-0,153
20,604	25,365	-0,261	-0,153
21,619	-87,547	-0,453	-0,096
22,634	98,460	-0,426	-0,346
23,648	157,040	-0,380	-0,371
24,663	136,685	-0,414	-0,381
25,677	11,614	-0,413	-0,223
26,692	107,436	-0,356	-0,298
27,707	106,039	-0,384	-0,320
28,721	88,815	-0,460	-0,361
29,736	85,319	-0,344	-0,266
30,750	67,719	-0,335	-0,241
31,765	-55,211	-0,447	-0,141
32,780	-56,339	-0,321	-0,100
33,794	63,903	-0,295	-0,209
34,809	244,043	-0,264	-0,313
35,823	67,551	-0,382	-0,275
36,838	220,154	-0,302	-0,342
37,853	25,171	-0,512	-0,299
38,867	228,633	-0,326	-0,374
39,882	57,814	-0,335	-0,230
40,896	23,973	-0,374	-0,216
41,911	28,323	-0,364	-0,216
42,926	58,243	-0,346	-0,238
43,940	-9,234	-0,342	-0,160
44,955	21,694	-0,416	-0,238
45,969	380,569	-0,305	-0,442
46,984	49,093	-0,298	-0,197
47,999	108,243	-0,298	-0,250
49,013	64,784	-0,277	-0,196
50,028	-129,055	-0,354	-0,034
51,042	770,085	-0,183	-0,352
52,057	124,390	-0,325	-0,288
53,071	215,087	-0,226	-0,252
54,086	13,511	-0,212	-0,115
55,101	46,724	-0,359	-0,234
56,115	74,594	-0,257	-0,190
57,130	-5,225	-0,347	-0,167
58,144	63,260	-0,299	-0,211
59,159	142,517	-0,347	-0,324
60,174	56,398	-0,318	-0,217
61,188	105,924	-0,304	-0,253
62,203	-32,663	-0,233	-0,091
63,217	19,186	-0,287	-0,161
64,232	-56,074	-0,342	-0,106
65,247	-56,058	-0,368	-0,115
66,261	23,292	-0,320	-0,184
67,276	-104,016	-0,315	-0,051
68,290	-2,539	-0,358	-0,175
69,305	20,601	-0,373	-0,212
70,320	-59,143	-0,214	-0,064
71,334	-29,506	-0,285	-0,114
72,349	126,039	-0,361	-0,320
73,363	201,589	-0,245	-0,266
74,378	236,147	-0,282	-0,328
75,393	243,536	-0,293	-0,346
76,407	132,707	-0,262	-0,237
77,422	-46,847	-0,251	-0,085
78,436	-74,974	-0,355	-0,088
79,451	91,203	-0,302	-0,238
80,466	9,052	-0,394	-0,208
81,480	-9,695	-0,292	-0,136
82,495	-163,749	-0,307	0,010
83,509	-2,841	-0,315	-0,154
84,524	-138,197	-0,287	0,022
85,539	-5,116	-0,282	-0,136
86,553	-79,218	-0,287	-0,068
87,568	6,839	-0,277	-0,144
88,582	112,292	-0,357	-0,302
89,597	150,415	-0,312	-0,298
90,611	282,401	-0,209	-0,264
91,626	47,652	-0,171	-0,112
92,641	33,526	-0,272	-0,165
93,655	154,902	-0,195	-0,188
94,670	-2,570	-0,334	-0,163
95,684	367,938	-0,155	-0,220
96,699	-15,973	-0,308	-0,137
97,714	31,661	-0,239	-0,144
98,728	99,398	-0,310	-0,251
99,743	-111,952	-0,222	-0,031
100,757	226,276	-0,193	-0,219
101,772	-50,723	-0,268	-0,088
102,787	83,079	-0,258	-0,196
103,801	50,276	-0,282	-0,186
104,816	36,824	-0,335	-0,207
105,830	-126,984	-0,327	-0,033
106,845	22,704	-0,233	-0,133
107,860	113,766	-0,222	-0,189
108,874	-87,563	-0,350	-0,073
109,889	362,985	-0,221	-0,311
110,903	17,719	-0,377	-0,210
111,918	204,079	-0,164	-0,178
112,933	41,551	-0,148	-0,093
113,947	223,774	-0,156	-0,176
114,962	-26,222	-0,272	-0,111
115,976	-121,857	-0,268	-0,031
116,991	-45,676	-0,174	-0,060
118,006	225,923	-0,062	-0,071
119,020	8,131	-0,254	-0,133
120,035	433,912	-0,280	-0,427
121,049	-1,436	-0,246	-0,121
122,064	204,359	-0,210	-0,227
123,079	27,767	-0,160	-0,094
124,093	376,239	-0,175	-0,250
125,108	-88,006	-0,345	-0,072
126,122	119,590	-0,285	-0,246
127,137	19,876	-0,262	-0,147
128,151	-43,117	-0,172	-0,060
129,166	178,485	-0,166	-0,169
130,181	65,171	-0,224	-0,158
131,195	51,486	-0,216	-0,143
132,210	267,747	-0,242	-0,297
133,224	27,255	-0,207	-0,121
134,239	-16,455	-0,231	-0,102
135,254	-66,712	-0,379	-0,104
136,268	59,528	-0,227	-0,156
137,283	187,147	-0,138	-0,144
138,297	165,467	-0,198	-0,195
139,312	800,000	-0,134	-0,285
140,327	149,651	-0,183	-0,173
141,341	-200,000	-0,026	-0,093
142,356	83,854	-0,139	-0,106
143,370	786,432	-0,160	-0,307
144,385	-4,771	-0,200	-0,096
145,400	123,799	-0,168	-0,147
146,414	339,329	-0,279	-0,380
147,429	82,537	-0,270	-0,204
148,443	27,319	-0,288	-0,169
149,458	43,037	-0,233	-0,148
150,473	221,360	-0,210	-0,236
151,487	131,383	-0,182	-0,163
152,502	45,863	-0,256	-0,165
153,516	743,515	-0,180	-0,340
154,531	105,386	-0,257	-0,212
155,546	800,000	-0,089	-0,186
156,560	167,330	-0,190	-0,188
157,575	-113,140	-0,258	-0,035
158,589	131,785	-0,241	-0,216
159,604	340,833	-0,210	-0,287
160,619	189,483	-0,234	-0,245
161,633	230,999	-0,269	-0,307
162,648	-7,862	-0,318	-0,149
163,662	153,652	-0,132	-0,126
164,677	310,351	-0,140	-0,183
165,692	-83,817	-0,213	-0,047
166,706	-7,263	-0,213	-0,100
167,721	21,849	-0,303	-0,171
168,735	97,088	-0,178	-0,142
169,750	88,711	-0,154	-0,119
170,764	-21,838	-0,171	-0,072
171,779	-65,113	-0,168	-0,047
172,794	293,872	-0,171	-0,218
173,808	-1,478	-0,299	-0,146
174,823	132,859	-0,259	-0,233
175,837	-9,519	-0,235	-0,109
176,852	125,658	-0,256	-0,224
177,867	142,582	-0,144	-0,133
178,881	-107,054	-0,138	-0,021
179,896	-72,780	-0,148	-0,038
180,910	237,218	-0,201	-0,232
181,925	-26,120	-0,362	-0,147
182,940	170,186	-0,210	-0,209
183,954	117,373	-0,231	-0,197
184,969	-98,834	-0,161	-0,028
185,983	248,493	-0,292	-0,344
186,998	-26,349	-0,178	-0,072
188,013	-63,302	-0,197	-0,056
189,027	396,082	-0,116	-0,169
190,042	-8,832	-0,289	-0,134
191,056	258,447	-0,240	-0,288
192,071	123,334	-0,223	-0,194
193,086	282,815	-0,217	-0,271
194,100	12,629	-0,245	-0,131
195,115	62,605	-0,225	-0,156
196,129	-200,000	-0,053	-0,240
197,144	166,335	-0,226	-0,222
198,159	494,363	-0,183	-0,293
199,173	-32,679	-0,136	-0,052
200,188	-89,122	-0,282	-0,057
201,202	-151,418	-0,209	0,011
202,217	52,976	-0,143	-0,095
203,232	192,340	-0,264	-0,277
204,246	113,800	-0,304	-0,256
205,261	471,108	-0,154	-0,240
206,275	73,651	-0,193	-0,140
207,290	198,258	-0,163	-0,173
208,304	49,554	-0,220	-0,143
209,319	-15,376	-0,265	-0,117
210,334	-102,043	-0,306	-0,051
211,348	260,381	-0,185	-0,222
212,363	472,375	-0,113	-0,178
213,377	55,679	-0,197	-0,132
214,392	-163,565	-0,093	0,003
215,407	477,879	-0,106	-0,167
216,421	77,025	-0,190	-0,140
217,436	125,000	-0,284	-0,248
218,450	56,212	-0,237	-0,159
219,465	245,941	-0,234	-0,274
220,480	299,934	-0,152	-0,195
221,494	446,570	-0,136	-0,207
222,509	81,909	-0,128	-0,096
223,523	-200,000	-0,013	-0,093
224,538	97,354	-0,197	-0,157
225,553	353,278	-0,135	-0,186
226,567	560,905	-0,126	-0,212
227,582	-19,205	-0,130	-0,055
228,596	-56,988	-0,277	-0,084
229,611	127,106	-0,220	-0,193
230,626	-20,220	-0,170	-0,072
231,640	218,762	-0,116	-0,129
232,655	48,829	-0,100	-0,065
233,669	103,925	-0,132	-0,107
234,684	105,053	-0,216	-0,176
235,699	-25,274	-0,197	-0,080
236,713	2,764	-0,135	-0,068
237,728	-79,699	-0,316	0,073
238,742	427,888	-0,088	-0,131
239,757	47,010	-0,252	-0,162
240,772	48,993	-0,202	-0,131
241,786	68,295	-0,164	-0,116
242,801	800,000	-0,121	-0,249
243,815	66,646	-0,147	-0,103
244,830	761,883	-0,066	-0,124
245,844	120,791	-0,158	-0,136
246,859	128,293	-0,161	-0,142
247,874	491,301	-0,201	-0,320
248,888	106,126	-0,166	-0,136
249,903	685,590	-0,091	-0,165
250,917	-183,165	-0,126	0,001
251,932	88,552	-0,217	-0,166
252,947	-41,153	-0,140	-0,050
253,961	-102,465	-0,180	-0,030
254,976	-34,441	-0,199	-0,075
255,990	107,792	-0,166	-0,137
257,005	31,067	-0,173	-0,102
258,020	32,574	-0,111	-0,066
259,034	147,561	-0,111	-0,103
260,049	60,472	-0,153	-0,104
261,063	268,865	-0,225	-0,273
262,078	-194,722	-0,193	0,001
263,093	6,193	-0,264	-0,135
264,107	-33,390	-0,229	-0,087
265,122	-138,340	-0,141	0,011
266,136	139,217	-0,140	-0,127
267,151	33,935	-0,111	-0,066
268,166	27,526	-0,164	-0,095
269,180	147,675	-0,267	-0,248
270,195	494,342	-0,162	-0,257
271,209	-200,000	-0,091	-0,284
272,224	96,351	-0,181	-0,143
273,239	13,342	-0,271	-0,144
274,253	-28,675	-0,172	-0,068
275,268	82,419	-0,136	-0,102
276,282	72,156	-0,267	-0,191
277,297	800,000	-0,078	-0,193
278,312	-200,000	-0,038	-0,148
279,326	-59,118	-0,082	-0,024
280,341	-102,062	-0,170	-0,028
281,355	-200,000	0,028	-0,143
282,370	170,586	-0,193	-0,190
283,384	57,319	-0,231	-0,155
284,399	-200,000	-0,039	-0,139
285,414	-21,257	-0,189	-0,079
286,428	-200,000	-0,009	-0,208
287,443	-22,717	-0,091	-0,038
288,457	27,349	-0,179	-0,103
289,472	-155,430	-0,111	-0,005
290,487	-75,546	-0,137	-0,033
291,501	134,286	-0,152	-0,135
292,516	-200,000	-0,035	-0,198
293,530	21,952	-0,134	-0,075
294,545	-49,563	-0,173	-0,056
295,560	-42,558	-0,238	-0,083
296,574	-200,000	-0,011	-0,122
297,589	-200,000	-0,022	-0,261
298,603	93,927	-0,299	-0,233
299,618	53,701	-0,158	-0,104
300,633	17,027	-0,100	-0,055
301,647	-36,992	-0,134	0,049
302,662	-21,904	-0,062	0,026
303,676	-109,406	-0,156	0,022
304,691	257,821	-0,168	-0,200
305,706	48,647	-0,241	-0,155
306,720	-23,479	-0,252	-0,104
307,735	64,793	-0,044	-0,031
308,749	217,269	-0,085	-0,093
309,764	-113,675	-0,155	0,020
310,779	-92,572	-0,109	0,021
311,793	-24,209	-0,136	-0,056
312,808	-99,753	-0,161	-0,027
313,822	-18,984	-0,202	-0,086
314,837	-6,515	-0,131	-0,061
315,852	-28,191	-0,015	-0,006
316,866	381,421	-0,090	-0,127
317,881	309,290	-0,150	-0,194
318,895	338,958	-0,113	-0,151
319,910	70,391	-0,201	-0,143
320,925	-51,228	-0,303	-0,097
321,939	-179,638	-0,177	0,003
322,954	-117,315	-0,095	0,012
323,968	-200,000	-0,023	-0,092
324,983	391,492	-0,110	-0,157
325,997	-112,285	-0,141	0,019
327,012	420,441	-0,032	-0,048
328,027	800,000	-0,098	-0,227
329,041	512,385	-0,074	-0,119
330,056	-66,060	-0,098	-0,027
331,070	224,967	-0,073	-0,081
332,085	-158,034	-0,205	-0,008
333,100	151,155	-0,088	-0,082
334,114	-123,150	-0,046	0,005
335,129	131,880	-0,154	-0,136
336,143	-200,000	-0,034	-0,111
337,158	-5,140	-0,153	-0,072
338,173	-95,942	-0,134	0,024
339,187	800,000	0,030	0,075
340,202	-97,533	-0,048	0,008
341,216	-200,000	-0,031	-0,214
342,231	-109,855	-0,211	-0,030
343,246	204,024	-0,043	-0,046
344,260	796,916	0,067	-0,127
345,275	-200,000	-0,004	-0,159
346,289	63,987	-0,141	-0,097
347,304	683,018	-0,067	-0,120
348,319	-118,403	-0,194	0,023
349,333	-110,613	-0,092	-0,013
350,348	27,470	-0,179	-0,103
351,362	800,000	-0,059	-0,114
352,377	238,008	-0,052	-0,059
353,392	316,013	-0,099	-0,128
354,406	-58,896	-0,170	0,050
355,421	209,023	1316,763	1413,685
356,435	160,855	1477,724	1414,158
