DTS Sentinel unit serial number:	SN410029Multiplexer serial number:	ORYXHardware model number:	OX2-SRSoftware version number:	ORYX F/W v4,00 Oryx Data Collector v3.7.2.0data status	okinstallation	B3 Nyhavnadifferential loss correction	single-endedforward channel	channel 1reverse channel	N/Adate	2023/12/03time	20:52:30forward acquisition time	300,00reverse acquisition time	0,00gamma	499,1914k internal	0,3199k external	0,3199temperature offset calibration	1,0000default loss term (dB/km)	0,3820temperature slope calibration	1,0000multiplexer offset coefficient	1,0000multiplexer slope coefficient	1,0000fibre end	0,00T internal ref (°C)	13,82T ext. ref 1 (°C)	-1,60T ext. ref 2 (°C)	-1,62length (m)	temperature (°C)	Stokes	anti-Stokes-744,400	408,116	-0,175	-0,271
-743,385	250,369	0,099	0,123
-742,371	222,084	-0,199	-0,234
-741,356	-200,000	0,116	0,386
-740,342	425,768	-0,148	-0,233
-739,327	-200,000	0,002	0,242
-738,312	115,932	-0,230	-0,205
-737,298	-200,000	-0,064	0,407
-736,283	220,940	-0,202	-0,236
-735,269	-200,000	0,055	0,337
-734,254	-200,000	-0,067	-0,217
-733,239	96,717	-0,180	0,150
-732,225	442,445	-0,184	-0,294
-731,210	-0,050	0,176	-0,091
-730,196	-200,000	-0,000	0,032
-729,181	-200,000	-0,034	-0,131
-728,167	800,000	-0,041	-0,093
-727,152	-200,000	-0,006	-0,114
-726,137	-111,510	-0,083	-0,012
-725,123	-100,994	-0,024	-0,004
-724,108	-29,182	-0,184	-0,077
-723,094	532,157	-0,053	-0,091
-722,079	310,105	-0,099	-0,135
-721,064	645,350	-0,070	-0,131
-720,050	-49,914	-0,086	0,030
-719,035	86,725	0,086	-0,069
-718,021	-129,067	0,075	0,007
-717,006	-200,000	-0,028	-0,175
-715,991	-17,348	-0,086	-0,039
-714,977	611,436	-0,087	-0,160
-713,962	-184,852	-0,016	-0,000
-712,948	-200,000	0,012	-0,108
-711,933	252,957	-0,105	-0,131
-710,918	153,304	0,036	0,036
-709,904	250,228	-0,063	-0,077
-708,889	164,699	-0,092	-0,095
-707,875	53,001	-0,062	0,043
-706,860	-25,949	0,038	0,016
-705,845	-200,000	0,007	0,046
-704,831	800,000	-0,028	-0,057
-703,816	62,584	-0,056	0,041
-702,802	800,000	-0,029	-0,063
-701,787	800,000	0,030	-0,091
-700,772	-200,000	-0,008	-0,246
-699,758	98,344	-0,071	-0,059
-698,743	625,956	-0,003	-0,005
-697,729	-80,848	-0,096	0,023
-696,714	-173,603	-0,051	-0,001
-695,699	-200,000	-0,001	-0,004
-694,685	673,993	-0,064	-0,121
-693,670	-8,946	-0,165	-0,080
-692,656	-200,000	-0,019	-0,201
-691,641	323,984	0,035	-0,049
-690,627	800,000	0,037	0,102
-689,612	-200,000	-0,004	0,059
-688,597	110,156	-0,006	0,006
-687,583	-161,205	-0,115	0,004
-686,568	-200,000	0,016	-0,070
-685,554	479,638	-0,051	0,084
-684,539	-200,000	0,026	0,092
-683,524	-66,660	0,089	0,025
-682,510	-147,562	0,065	-0,004
-681,495	-136,652	-0,140	0,012
-680,481	-66,765	0,113	-0,032
-679,466	-200,000	-0,013	-0,073
-678,451	-24,807	-0,108	-0,047
-677,437	87,946	0,026	-0,021
-676,422	-200,000	0,022	-0,132
-675,408	-43,659	-0,155	0,057
-674,393	105,266	0,049	0,042
-673,378	-98,251	-0,199	0,037
-672,364	434,079	0,067	-0,105
-671,349	-39,413	-0,092	0,035
-670,335	800,000	0,062	0,161
-669,320	466,858	0,058	0,094
-668,305	37,626	-0,020	-0,013
-667,291	-200,000	-0,026	-0,132
-666,276	154,726	-0,073	-0,073
-665,262	330,644	-0,113	-0,159
-664,247	-200,000	0,047	-0,159
-663,232	-200,000	0,009	0,048
-662,218	-200,000	-0,012	0,048
-661,203	-34,208	-0,012	-0,005
-660,189	-200,000	-0,013	0,056
-659,174	610,300	-0,087	-0,158
-658,159	97,767	0,017	-0,014
-657,145	141,946	-0,015	0,014
-656,130	352,311	-0,048	0,069
-655,116	359,475	0,056	0,081
-654,101	-200,000	0,033	0,129
-653,086	-168,124	-0,056	0,002
-652,072	132,366	-0,111	-0,103
-651,057	-136,398	-0,023	0,002
-650,043	95,167	-0,105	-0,087
-649,028	404,417	-0,062	-0,095
-648,014	800,000	-0,013	-0,036
-646,999	-131,418	-0,167	0,016
-645,984	-19,118	0,114	0,051
-644,970	-90,789	0,115	-0,024
-643,955	634,831	-0,023	-0,043
-642,941	-200,000	0,001	-0,018
-641,926	324,508	-0,018	-0,025
-640,911	-200,000	0,002	0,031
-639,897	678,277	-0,007	-0,014
-638,882	447,983	-0,029	0,046
-637,868	233,650	0,035	0,042
-636,853	102,486	0,026	0,022
-635,838	64,812	-0,131	-0,095
-634,824	-27,426	-0,199	-0,084
-633,809	-191,139	0,134	0,001
-632,795	81,198	0,180	0,140
-631,780	-200,000	0,025	0,083
-630,765	-7,373	-0,069	0,034
-629,751	83,469	0,119	0,094
-628,736	800,000	-0,040	-0,113
-627,722	335,999	-0,063	0,089
-626,707	270,165	0,036	0,046
-625,692	39,515	0,081	0,053
-624,678	-200,000	0,002	-0,119
-623,663	800,000	-0,066	0,145
-622,649	800,000	-0,044	0,091
-621,634	-200,000	0,028	0,128
-620,619	107,735	-0,100	-0,086
-619,605	594,211	-0,028	-0,051
-618,590	-200,000	-0,015	-0,056
-617,576	444,827	0,097	-0,155
-616,561	800,000	-0,014	-0,038
-615,546	-111,463	-0,068	-0,010
-614,532	-200,000	0,015	0,109
-613,517	-200,000	0,001	0,045
-612,503	-200,000	0,001	0,155
-611,488	-37,850	-0,109	-0,042
-610,474	-104,201	0,085	-0,014
-609,459	800,000	-0,031	0,092
-608,444	-61,817	-0,196	-0,059
-607,430	800,000	0,033	-0,074
-606,415	330,178	-0,074	-0,103
-605,401	-200,000	0,011	-0,044
-604,386	105,550	0,081	-0,070
-603,371	-107,579	-0,172	0,027
-602,357	29,896	-0,002	-0,001
-601,342	-135,968	-0,058	-0,005
-600,328	102,963	0,045	0,038
-599,313	800,000	-0,065	0,169
-598,298	1,139	0,010	0,005
-597,284	-58,688	0,107	-0,033
-596,269	519,459	-0,052	0,089
-595,255	-200,000	-0,017	0,064
-594,240	99,849	-0,101	-0,084
-593,225	-6,578	0,046	-0,022
-592,211	72,136	-0,082	-0,062
-591,196	-200,000	0,008	0,061
-590,182	-200,000	0,032	0,106
-589,167	202,089	0,063	-0,070
-588,152	60,297	-0,022	-0,016
-587,138	-200,000	-0,025	-0,085
-586,123	16,685	0,100	0,057
-585,109	-66,775	0,121	0,034
-584,094	268,201	0,031	0,040
-583,079	-200,000	-0,012	0,059
-582,065	-91,768	-0,176	0,036
-581,050	472,369	-0,085	0,139
-580,036	-200,000	-0,010	-0,112
-579,021	-56,894	-0,078	0,025
-578,006	-136,255	-0,055	0,005
-576,992	-84,560	-0,190	0,043
-575,977	327,425	0,045	-0,063
-574,963	-93,087	-0,075	0,015
-573,948	-200,000	0,018	-0,178
-572,934	7,995	0,058	0,031
-571,919	421,320	0,088	0,136
-570,904	42,606	-0,133	-0,087
-569,890	-16,000	-0,014	0,006
-568,875	370,242	0,087	0,127
-567,861	800,000	0,049	0,098
-566,846	-200,000	-0,024	-0,136
-565,831	-107,248	-0,109	0,017
-564,817	800,000	-0,011	-0,034
-563,802	17,718	-0,094	-0,054
-562,788	723,289	-0,047	-0,091
-561,773	800,000	0,020	-0,041
-560,758	31,587	-0,066	-0,041
-559,744	70,962	0,091	0,068
-558,729	800,000	-0,041	0,098
-557,715	70,900	0,056	-0,042
-556,700	-109,433	-0,071	-0,011
-555,685	65,537	-0,048	0,035
-554,671	-200,000	-0,002	0,023
-553,656	-200,000	-0,018	0,184
-552,642	-200,000	0,005	-0,046
-551,627	243,430	0,053	0,064
-550,612	-46,613	-0,100	-0,035
-549,598	800,000	-0,036	-0,110
-548,583	136,235	-0,064	0,061
-547,569	-200,000	0,014	-0,074
-546,554	-58,292	-0,131	-0,041
-545,539	-38,883	0,087	0,033
-544,525	-200,000	0,058	-0,195
-543,510	-37,222	-0,038	-0,015
-542,496	-28,987	-0,037	0,015
-541,481	-200,000	0,030	0,109
-540,466	532,900	0,069	-0,118
-539,452	-200,000	0,027	0,099
-538,437	745,686	-0,023	-0,045
-537,423	102,966	-0,018	0,015
-536,408	50,242	-0,118	-0,081
-535,393	104,099	-0,033	-0,028
-534,379	195,927	0,043	0,047
-533,364	-109,662	-0,102	-0,015
-532,350	565,585	0,045	0,078
-531,335	-200,000	-0,000	0,012
-530,321	-200,000	-0,011	-0,048
-529,306	-69,401	0,051	-0,014
-528,291	90,684	-0,053	0,043
-527,277	-200,000	0,021	-0,107
-526,262	83,689	-0,118	-0,093
-525,248	800,000	-0,048	0,143
-524,233	191,482	-0,046	0,050
-523,218	800,000	0,015	-0,045
-522,204	480,270	0,059	0,096
-521,189	-58,793	-0,145	0,045
-520,175	22,507	0,030	0,017
-519,160	-200,000	-0,015	-0,101
-518,145	766,593	0,026	-0,051
-517,131	-200,000	0,018	-0,113
-516,116	-200,000	0,014	0,047
-515,102	-200,000	0,012	0,054
-514,087	-145,588	0,059	0,004
-513,072	-1,555	-0,057	0,029
-512,058	448,994	-0,066	-0,106
-511,043	-200,000	-0,002	0,057
-510,029	-200,000	0,002	-0,047
-509,014	-200,000	0,029	0,182
-507,999	364,405	0,025	-0,036
-506,985	70,206	0,053	-0,039
-505,970	-10,773	-0,068	0,032
-504,956	309,714	-0,057	-0,077
-503,941	800,000	0,017	-0,043
-502,926	-160,684	0,071	-0,003
-501,912	38,565	0,104	0,067
-500,897	-200,000	-0,005	-0,073
-499,883	77,436	-0,076	-0,058
-498,868	800,000	-0,052	-0,125
-497,853	522,439	-0,023	-0,040
-496,839	-200,000	-0,001	-0,091
-495,824	-200,000	-0,007	-0,122
-494,810	20,887	-0,025	0,015
-493,795	146,466	-0,081	0,078
-492,781	301,479	0,050	0,067
-491,766	34,855	0,131	0,082
-490,751	401,859	-0,047	-0,072
-489,737	-118,393	0,079	-0,010
-488,722	592,749	0,083	-0,148
-487,708	380,400	0,072	-0,106
-486,693	721,795	-0,049	-0,095
-485,678	-71,556	-0,090	-0,024
-484,664	-119,607	-0,071	-0,009
-483,649	-175,710	-0,154	-0,003
-482,635	800,000	-0,031	-0,068
-481,620	81,384	0,111	-0,086
-480,605	-79,414	0,066	0,016
-479,591	-70,470	-0,131	-0,035
-478,576	129,626	0,099	0,091
-477,562	462,466	-0,009	-0,015
-476,547	-79,717	0,053	0,013
-475,532	800,000	-0,013	0,041
-474,518	-200,000	0,026	0,115
-473,503	-200,000	-0,009	0,202
-472,489	-200,000	-0,006	0,038
-471,474	-200,000	0,032	0,161
-470,459	159,427	0,047	-0,047
-469,445	-200,000	-0,010	-0,059
-468,430	-99,883	0,108	-0,019
-467,416	-200,000	-0,001	-0,029
-466,401	94,637	-0,045	0,037
-465,386	34,831	0,041	0,025
-464,372	-54,854	0,043	-0,014
-463,357	101,880	0,077	-0,064
-462,343	78,200	-0,055	-0,042
-461,328	800,000	0,044	0,116
-460,313	-156,814	0,178	-0,008
-459,299	1,178	0,045	0,023
-458,284	-200,000	0,019	0,063
-457,270	37,787	-0,020	0,013
-456,255	225,466	-0,039	0,046
-455,241	800,000	0,006	-0,017
-454,226	59,626	-0,053	-0,037
-453,211	800,000	-0,031	0,080
-452,197	800,000	-0,028	0,088
-451,182	47,293	0,088	-0,059
-450,168	-200,000	-0,010	-0,051
-449,153	-127,767	0,044	-0,005
-448,138	-95,880	-0,023	-0,004
-447,124	89,252	-0,050	-0,040
-446,109	691,718	0,048	0,091
-445,095	800,000	-0,023	0,068
-444,080	135,453	0,022	-0,020
-443,065	58,909	-0,084	0,060
-442,051	-143,754	0,061	-0,004
-441,036	-200,000	-0,040	-0,203
-440,022	-47,269	0,027	-0,010
-439,007	800,000	0,046	0,096
-437,992	40,706	0,139	0,090
-436,978	-200,000	0,008	0,043
-435,963	84,647	0,064	0,050
-434,949	-200,000	-0,029	-0,102
-433,934	3,967	-0,126	0,066
-432,919	497,187	-0,089	-0,148
-431,905	33,576	-0,121	-0,076
-430,890	57,378	0,120	-0,084
-429,876	331,419	-0,085	-0,119
-428,861	616,383	0,042	0,077
-427,846	174,137	0,111	0,115
-426,832	40,703	-0,018	0,012
-425,817	-200,000	0,019	0,137
-424,803	231,650	-0,042	-0,049
-423,788	800,000	-0,024	-0,060
-422,773	-54,709	0,060	0,019
-421,759	73,788	0,147	0,111
-420,744	191,389	0,047	0,051
-419,730	627,990	0,005	0,010
-418,715	86,517	-0,052	-0,041
-417,701	691,871	-0,031	0,058
-416,686	-14,639	-0,137	-0,063
-415,671	-16,609	-0,028	-0,013
-414,657	-200,000	-0,004	0,075
-413,642	425,744	-0,022	0,035
-412,628	-200,000	-0,029	-0,128
-411,613	-200,000	-0,029	-0,106
-410,598	266,464	-0,050	-0,063
-409,584	-200,000	-0,002	-0,024
-408,569	-111,523	0,049	-0,007
-407,555	800,000	0,035	0,089
-406,540	9,358	0,123	-0,067
-405,525	800,000	-0,061	-0,158
-404,511	-66,851	-0,127	0,036
-403,496	610,832	-0,031	-0,057
-402,482	-2,724	0,047	0,023
-401,467	300,224	0,062	0,082
-400,452	-200,000	0,022	0,130
-399,438	800,000	-0,037	0,100
-398,423	-47,203	-0,070	0,024
-397,409	-9,903	-0,027	0,013
-396,394	495,704	-0,089	-0,147
-395,379	800,000	-0,016	-0,044
-394,365	-93,600	-0,035	0,007
-393,350	41,187	0,112	0,072
-392,336	800,000	-0,022	-0,067
-391,321	187,490	-0,014	-0,015
-390,306	16,175	-0,029	0,016
-389,292	207,074	0,045	-0,050
-388,277	800,000	-0,038	0,105
-387,263	-94,550	0,057	0,011
-386,248	-41,908	-0,046	-0,017
-385,233	-7,376	-0,096	0,047
-384,219	-101,721	0,123	-0,021
-383,204	128,363	-0,122	-0,111
-382,190	800,000	-0,083	-0,177
-381,175	707,426	0,019	-0,037
-380,160	-143,188	0,149	-0,010
-379,146	-39,750	0,087	0,033
-378,131	-88,076	0,154	-0,033
-377,117	-111,128	0,149	0,022
-376,102	148,561	-0,031	-0,030
-375,088	21,698	-0,061	-0,035
-374,073	449,393	0,051	0,081
-373,058	339,460	-0,086	0,120
-372,044	-77,629	0,129	-0,032
-371,029	-81,594	-0,040	-0,009
-370,015	21,112	-0,053	-0,031
-369,000	418,357	0,024	-0,036
-367,985	675,509	0,005	-0,009
-366,971	-36,957	-0,132	0,050
-365,956	1,800	0,041	0,021
-364,942	173,808	0,095	0,098
-363,927	-23,566	0,051	0,022
-362,912	-108,435	0,063	0,010
-361,898	216,813	0,100	-0,114
-360,883	139,803	-0,108	-0,102
-359,869	800,000	0,033	-0,079
-358,854	72,754	0,069	0,052
-357,839	-79,956	0,079	0,019
-356,825	-200,000	0,020	0,104
-355,810	17,962	0,157	0,089
-354,796	-200,000	0,009	-0,077
-353,781	-200,000	0,011	-0,037
-352,766	800,000	-0,006	0,014
-351,752	312,134	0,052	0,070
-350,737	-138,104	0,120	0,009
-349,723	800,000	-0,031	-0,072
-348,708	377,864	-0,053	-0,077
-347,693	-33,573	-0,022	-0,009
-346,679	141,142	-0,054	-0,051
-345,664	800,000	0,026	-0,051
-344,650	-15,567	0,071	0,033
-343,635	-116,146	0,113	0,015
-342,620	-200,000	0,032	0,118
-341,606	-2,240	-0,022	-0,011
-340,591	110,262	-0,155	0,133
-339,577	213,312	0,096	-0,109
-338,562	569,671	-0,013	-0,022
-337,548	-31,816	-0,097	-0,039
-336,533	1,852	0,193	0,099
-335,518	338,531	-0,077	0,107
-334,504	-62,689	0,110	-0,032
-333,489	-64,027	0,100	-0,029
-332,475	800,000	-0,035	-0,075
-331,460	90,757	0,010	-0,008
-330,445	-200,000	0,005	0,039
-329,431	26,734	-0,119	0,071
-328,416	-91,414	0,146	-0,030
-327,402	800,000	0,044	0,091
-326,387	800,000	0,024	-0,049
-325,372	421,380	0,056	-0,087
-324,358	3,450	-0,080	-0,042
-323,343	39,616	-0,172	0,110
-322,329	-112,638	0,140	-0,020
-321,314	131,440	0,083	0,077
-320,299	-200,000	0,014	0,152
-319,285	97,010	0,057	0,047
-318,270	226,271	0,059	0,068
-317,256	-83,957	-0,158	0,036
-316,241	-123,645	-0,087	-0,010
-315,226	-200,000	0,012	-0,043
-314,212	-200,000	-0,004	0,050
-313,197	327,684	0,089	0,122
-312,183	-200,000	-0,015	-0,067
-311,168	800,000	0,075	-0,166
-310,153	12,285	-0,052	0,029
-309,139	18,759	0,054	-0,031
-308,124	92,236	-0,024	0,019
-307,110	-71,432	0,055	-0,015
-306,095	-200,000	0,004	-0,032
-305,080	31,706	0,138	-0,085
-304,066	62,611	-0,113	-0,081
-303,051	549,382	-0,047	-0,082
-302,037	-39,014	-0,028	0,011
-301,022	-173,956	0,131	0,003
-300,008	800,000	-0,007	-0,017
-298,993	-200,000	-0,031	0,113
-297,978	-85,183	0,121	0,027
-296,964	-200,000	-0,028	0,116
-295,949	48,406	-0,198	-0,132
-294,935	-159,068	-0,109	0,004
-293,920	-15,520	0,061	-0,028
-292,905	-85,237	0,168	-0,037
-291,891	123,036	-0,038	-0,034
-290,876	-95,125	-0,065	0,012
-289,862	800,000	0,053	0,156
-288,847	6,278	-0,089	0,047
-287,832	-121,789	-0,131	0,015
-286,818	25,743	0,035	0,021
-285,803	101,093	0,119	0,099
-284,789	41,316	-0,071	-0,046
-283,774	-200,000	0,022	0,148
-282,759	96,809	-0,018	-0,015
-281,745	-115,897	-0,183	-0,024
-280,730	-15,800	-0,251	-0,114
-279,716	800,000	0,008	-0,018
-278,701	75,347	0,051	-0,039
-277,686	292,229	0,105	0,138
-276,672	-129,920	-0,047	0,005
-275,657	-152,038	0,039	-0,002
-274,643	-54,601	-0,041	-0,013
-273,628	-5,178	0,067	0,033
-272,613	-200,000	0,017	-0,062
-271,599	52,600	-0,068	0,046
-270,584	-144,559	0,053	0,003
-269,570	-200,000	-0,008	0,027
-268,555	307,255	0,050	-0,066
-267,540	301,676	-0,064	0,084
-266,526	125,495	-0,023	0,020
-265,511	-45,470	-0,087	-0,031
-264,497	79,832	-0,047	0,036
-263,482	174,791	-0,040	0,041
-262,467	-117,169	-0,110	0,014
-261,453	-39,035	0,057	0,021
-260,438	38,722	-0,049	0,031
-259,424	49,625	-0,014	0,010
-258,409	-154,546	-0,048	0,002
-257,395	-184,695	-0,064	-0,001
-256,380	15,927	0,153	-0,086
-255,365	-200,000	-0,015	0,123
-254,351	-200,000	-0,011	0,068
-253,336	-125,287	0,092	-0,010
-252,322	47,418	-0,137	0,091
-251,307	59,178	0,092	-0,065
-250,292	412,175	-0,036	-0,055
-249,278	-200,000	0,013	-0,043
-248,263	-200,000	0,003	0,038
-247,249	96,697	-0,036	0,029
-246,234	-101,408	-0,004	-0,001
-245,219	547,124	-0,072	-0,123
-244,205	247,248	0,028	-0,034
-243,190	410,607	-0,052	0,080
-242,176	269,148	0,055	0,069
-241,161	-27,524	0,055	0,023
-240,146	25,003	0,142	-0,084
-239,132	-69,985	0,088	0,024
-238,117	281,542	0,012	-0,015
-237,103	-139,432	-0,154	-0,012
-236,088	800,000	-0,042	-0,091
-235,073	-200,000	0,023	-0,077
-234,059	444,195	-0,013	0,021
-233,044	-200,000	0,034	-0,122
-232,030	-200,000	-0,002	0,067
-231,015	-200,000	-0,008	-0,100
-230,000	-200,000	-0,043	-0,136
-228,986	324,271	0,048	-0,065
-227,971	45,542	0,116	-0,076
-226,957	-63,262	0,054	-0,016
-225,942	177,141	0,078	0,081
-224,927	-118,365	0,053	-0,007
-223,913	64,696	-0,091	-0,065
-222,898	300,463	0,077	-0,101
-221,884	-162,200	-0,120	-0,004
-220,869	54,898	0,097	0,067
-219,855	385,417	0,111	0,163
-218,840	800,000	-0,028	0,066
-217,825	800,000	-0,054	0,109
-216,811	-200,000	0,012	-0,089
-215,796	-200,000	-0,157	0,000
-214,782	800,000	-0,017	-0,047
-213,767	-200,000	-0,013	0,061
-212,752	-71,000	0,069	0,018
-211,738	-200,000	0,020	0,074
-210,723	211,824	0,029	0,032
-209,709	382,879	0,041	-0,061
-208,694	-77,503	-0,006	-0,001
-207,679	173,425	0,095	-0,098
-206,665	671,424	-0,073	-0,135
-205,650	-200,000	-0,018	0,120
-204,636	-30,026	0,111	-0,045
-203,621	-200,000	-0,015	0,047
-202,606	-200,000	-0,017	-0,078
-201,592	-200,000	0,010	0,034
-200,577	-200,000	-0,052	-0,165
-199,563	171,631	0,020	-0,021
-198,548	666,440	0,005	0,009
-197,533	132,274	-0,044	-0,041
-196,519	-200,000	0,037	-0,122
-195,504	259,811	0,097	0,119
-194,490	-98,437	-0,168	0,030
-193,475	-200,000	0,028	-0,158
-192,460	-200,000	0,038	-0,167
-191,446	800,000	-0,019	0,039
-190,431	81,397	0,117	-0,090
-189,417	-146,257	0,133	0,008
-188,402	-161,739	0,011	-0,000
-187,387	193,014	0,070	0,076
-186,373	-200,000	0,011	0,050
-185,358	124,170	-0,044	-0,039
-184,344	342,415	-0,067	0,093
-183,329	-200,000	-0,032	0,136
-182,315	-1,456	0,021	0,011
-181,300	-200,000	-0,004	0,036
-180,285	-63,085	-0,102	-0,030
-179,271	-200,000	-0,009	0,079
-178,256	44,771	0,095	-0,062
-177,242	21,770	0,060	0,034
-176,227	724,668	0,038	0,073
-175,212	-132,610	0,229	-0,021
-174,198	72,187	0,071	-0,052
-173,183	-200,000	-0,030	-0,105
-172,169	800,000	-0,040	-0,115
-171,154	-165,257	0,074	0,002
-170,139	281,648	-0,048	-0,062
-169,125	-200,000	0,006	-0,090
-168,110	159,015	0,118	0,117
-167,096	129,981	-0,074	0,068
-166,081	248,500	-0,064	-0,078
-165,066	-183,112	-0,062	0,001
-164,052	213,687	0,054	-0,061
-163,037	-53,388	0,161	0,052
-162,023	132,924	-0,030	0,027
-161,008	-136,081	-0,055	0,005
-159,993	-200,000	-0,001	-0,057
-158,979	117,871	-0,172	-0,151
-157,964	-84,095	-0,106	0,024
-156,950	-200,000	0,000	0,026
-155,935	-200,000	0,017	0,067
-154,920	132,607	0,163	0,150
-153,906	800,000	-0,061	0,124
-152,891	800,000	-0,046	0,137
-151,877	43,423	-0,029	-0,019
-150,862	30,935	-0,038	-0,023
-149,847	470,043	-0,039	0,063
-148,833	-200,000	-0,001	-0,009
-147,818	-136,167	0,163	-0,013
-146,804	800,000	-0,007	0,019
-145,789	-200,000	-0,008	0,032
-144,775	16,991	-0,045	0,025
-143,760	24,172	-0,108	-0,063
-142,745	800,000	-0,031	-0,093
-141,731	-137,785	0,066	0,005
-140,716	774,205	-0,112	0,218
-139,702	-200,000	0,015	0,142
-138,687	-91,895	0,195	-0,039
-137,672	-200,000	-0,000	-0,062
-136,658	800,000	-0,026	0,062
-135,643	85,009	0,013	0,010
-134,629	800,000	0,033	-0,070
-133,614	-75,470	-0,067	0,017
-132,599	-200,000	-0,008	0,071
-131,585	-200,000	-0,001	0,190
-130,570	-200,000	-0,007	0,156
-129,556	170,939	-0,034	-0,034
-128,541	-200,000	-0,022	0,116
-127,526	-72,825	-0,042	0,011
-126,512	-200,000	-0,031	0,149
-125,497	800,000	0,066	0,132
-124,483	800,000	-0,009	-0,025
-123,468	-200,000	0,005	0,088
-122,453	800,000	0,020	-0,041
-121,439	508,983	-0,083	-0,137
-120,424	-200,000	-0,011	-0,046
-119,410	-200,000	-0,006	0,053
-118,395	-105,571	0,242	-0,039
-117,380	-200,000	0,038	0,191
-116,366	800,000	0,054	0,121
-115,351	-200,000	0,018	-0,122
-114,337	594,360	-0,028	-0,050
-113,322	-200,000	-0,000	-0,066
-112,307	633,969	-0,027	-0,048
-111,293	565,749	0,080	0,138
-110,278	329,937	-0,082	0,113
-109,264	-42,299	0,179	0,064
-108,249	-21,573	-0,106	0,046
-107,234	-53,201	0,055	0,018
-106,220	-95,281	-0,096	0,018
-105,205	-18,840	0,179	-0,079
-104,191	146,231	0,119	0,113
-103,176	577,472	0,018	0,031
-102,162	-118,064	0,085	-0,011
-101,147	-121,517	-0,190	-0,022
-100,132	800,000	0,048	-0,132
-99,118	800,000	0,016	-0,032
-98,103	800,000	0,056	-0,143
-97,089	-200,000	-0,010	0,034
-96,074	-173,883	0,074	-0,002
-95,059	345,868	0,035	-0,049
-94,045	4,124	-0,093	-0,048
-93,030	228,464	-0,103	-0,120
-92,016	-200,000	-0,001	-0,101
-91,001	800,000	-0,062	-0,127
-89,986	-131,250	-0,045	-0,004
-88,972	66,171	0,100	-0,072
-87,957	-5,026	0,051	-0,025
-86,943	800,000	-0,029	0,057
-85,928	54,837	0,059	-0,040
-84,913	-200,000	-0,005	-0,039
-83,899	219,872	-0,047	-0,053
-82,884	271,550	0,045	0,057
-81,870	800,000	0,067	0,183
-80,855	800,000	-0,049	0,148
-79,840	60,269	0,039	-0,027
-78,826	-200,000	-0,046	-0,162
-77,811	-1,652	-0,039	0,019
-76,797	-111,851	0,113	-0,016
-75,782	-200,000	-0,006	0,090
-74,767	-163,025	0,024	0,001
-73,753	168,757	-0,023	-0,023
-72,738	-20,240	-0,092	0,040
-71,724	-200,000	0,020	0,121
-70,709	800,000	-0,024	-0,073
-69,694	33,431	0,089	-0,055
-68,680	800,000	0,035	-0,098
-67,665	55,809	0,098	0,067
-66,651	-200,000	-0,015	0,147
-65,636	568,567	0,004	0,008
-64,622	465,770	-0,008	0,012
-63,607	-2,823	-0,134	-0,066
-62,592	190,193	-0,036	-0,039
-61,578	-200,000	-0,001	-0,012
-60,563	-200,000	0,000	0,084
-59,549	586,543	0,021	-0,036
-58,534	-1,995	-1,597	-0,793
-57,519	329,553	-1,416	-1,935
-56,505	-200,000	-0,569	-4,585
-55,490	224,529	1,039	1,192
-54,476	800,000	4,749	11,106
-53,461	-200,000	18,997	313,235
-52,446	-200,000	739,684	2325,655
-51,432	575,027	1655,358	2874,320
-50,417	78,955	1671,058	1266,207
-49,403	21,837	1543,623	888,829
-48,388	15,677	1466,306	814,347
-47,373	17,872	1456,561	819,519
-46,359	16,815	1446,543	808,777
-45,344	13,952	1441,798	792,369
-44,330	13,879	1439,964	790,982
-43,315	13,902	1438,020	789,992
-42,300	13,875	1436,474	788,981
-41,286	13,903	1435,334	788,458
-40,271	13,885	1433,838	787,518
-39,257	13,828	1432,810	786,653
-38,242	13,906	1431,608	786,330
-37,227	13,913	1430,455	785,702
-36,213	13,929	1428,822	784,849
-35,198	13,885	1427,793	784,044
-34,184	13,958	1426,824	783,828
-33,169	13,902	1425,492	782,797
-32,154	13,944	1424,428	782,382
-31,140	13,975	1423,029	781,728
-30,125	13,943	1422,031	781,000
-29,111	13,904	1420,874	780,147
-28,096	13,951	1419,712	779,699
-27,082	13,910	1418,745	778,945
-26,067	13,851	1417,681	778,051
-25,052	13,860	1416,465	777,397
-24,038	13,857	1415,532	776,839
-23,023	13,814	1414,564	776,075
-22,009	13,849	1413,547	775,652
-20,994	13,817	1412,643	774,972
-19,979	13,806	1411,868	774,466
-18,965	13,776	1410,808	773,715
-17,950	13,785	1409,927	773,243
-16,936	13,776	1409,067	772,698
-15,921	13,749	1407,817	771,854
-14,906	13,766	1407,027	771,468
-13,892	13,756	1406,160	770,918
-12,877	13,738	1405,245	770,301
-11,863	13,735	1404,318	769,749
-10,848	13,751	1403,385	769,281
-9,833	13,679	1402,676	768,524
-8,819	13,661	1401,742	767,900
-7,804	13,648	1400,783	767,282
-6,790	13,680	1399,765	766,842
-5,775	13,670	1398,713	766,191
-4,760	13,694	1397,578	765,651
-3,746	13,715	1396,670	765,221
-2,731	13,668	1395,999	764,602
-1,717	13,650	1395,117	764,009
-0,702	13,588	1393,501	762,805
0,313	17,334	1310,864	734,970
1,327	33,442	705,083	432,639
2,342	51,324	123,778	83,073
3,356	2,931	16,595	8,504
4,371	-9,112	3,215	1,517
5,386	-77,803	0,588	0,143
6,400	-200,000	0,041	0,145
7,415	442,698	-0,211	-0,328
8,429	-10,080	-0,380	-0,178
9,444	33,854	-0,376	-0,231
10,459	157,311	-0,300	-0,294
11,473	66,829	-0,334	-0,240
12,488	107,373	-0,191	-0,161
13,502	91,472	-0,284	-0,226
14,517	66,712	-0,402	-0,289
15,531	332,789	-0,198	-0,272
16,546	7,719	-0,329	-0,174
17,561	349,934	-0,290	-0,406
18,575	282,290	-0,169	-0,215
19,590	35,487	-0,293	-0,181
20,604	41,377	-0,179	-0,114
21,619	104,705	-0,391	-0,325
22,634	313,367	-0,345	-0,459
23,648	21,242	-0,501	-0,287
24,663	64,002	-0,367	-0,261
25,677	266,026	-0,256	-0,316
26,692	98,329	-0,325	-0,265
27,707	88,455	-0,325	-0,255
28,721	3,791	-0,417	-0,214
29,736	246,861	-0,261	-0,312
30,750	237,137	-0,331	-0,388
31,765	85,100	-0,425	-0,329
32,780	73,661	-0,304	-0,225
33,794	200,874	-0,236	-0,257
34,809	139,335	-0,269	-0,250
35,823	251,143	-0,322	-0,387
36,838	-92,152	-0,427	-0,084
37,853	94,628	-0,305	-0,245
38,867	9,430	-0,417	-0,222
39,882	125,721	-0,366	-0,327
40,896	167,659	-0,395	-0,396
41,911	95,101	-0,328	-0,263
42,926	234,491	-0,299	-0,349
43,940	39,102	-0,427	-0,269
44,955	-29,432	-0,423	-0,170
45,969	168,678	-0,351	-0,353
46,984	800,000	-0,187	-0,377
47,999	102,501	-0,331	-0,273
49,013	186,959	-0,272	-0,287
50,028	135,550	-0,161	-0,148
51,042	163,805	-0,343	-0,341
52,057	31,842	-0,358	-0,217
53,071	287,410	-0,235	-0,300
54,086	2,848	-0,448	-0,228
55,101	105,635	-0,288	-0,240
56,115	168,341	-0,261	-0,263
57,130	-72,150	-0,333	-0,086
58,144	9,027	-0,365	-0,194
59,159	131,387	-0,384	-0,347
60,174	140,448	-0,394	-0,367
61,188	133,410	-0,318	-0,289
62,203	-32,422	-0,383	-0,150
63,217	-33,592	-0,350	-0,135
64,232	-30,299	-0,407	-0,162
65,247	32,414	-0,411	-0,250
66,261	20,335	-0,450	-0,255
67,276	364,379	-0,313	-0,445
68,290	72,975	-0,355	-0,261
69,305	91,539	-0,383	-0,303
70,320	23,301	-0,265	-0,153
71,334	93,355	-0,393	-0,312
72,349	83,958	-0,281	-0,216
73,363	86,972	-0,284	-0,221
74,378	114,695	-0,315	-0,270
75,393	163,169	-0,310	-0,307
76,407	118,809	-0,299	-0,260
77,422	125,824	-0,380	-0,338
78,436	149,837	-0,186	-0,178
79,451	119,884	-0,271	-0,236
80,466	-30,630	-0,328	-0,130
81,480	94,576	-0,255	-0,204
82,495	190,476	-0,317	-0,335
83,509	-75,068	-0,342	-0,085
84,524	-22,923	-0,424	-0,179
85,539	-23,505	-0,296	-0,124
86,553	29,983	-0,304	-0,182
87,568	105,807	-0,367	-0,305
88,582	38,505	-0,300	-0,188
89,597	370,071	-0,215	-0,308
90,611	36,503	-0,264	-0,163
91,626	209,092	-0,298	-0,328
92,641	-47,528	-0,292	-0,099
93,655	73,998	-0,410	-0,301
94,670	213,278	-0,281	-0,312
95,684	45,603	-0,290	-0,188
96,699	93,948	-0,332	-0,264
97,714	186,143	-0,292	-0,305
98,728	-56,803	-0,362	-0,112
99,743	9,406	-0,163	-0,086
100,757	-9,924	-0,288	-0,134
101,772	160,003	-0,255	-0,250
102,787	102,477	-0,262	-0,215
103,801	7,863	-0,332	-0,174
104,816	-61,023	-0,228	-0,067
105,830	56,514	-0,221	-0,151
106,845	-1,367	-0,296	-0,146
107,860	800,000	-0,135	-0,313
108,874	102,038	-0,278	-0,228
109,889	24,248	-0,432	-0,250
110,903	299,726	-0,192	-0,248
111,918	-60,859	-0,428	-0,126
112,933	40,587	-0,289	-0,182
113,947	31,538	-0,218	-0,131
114,962	41,355	-0,251	-0,159
115,976	-3,772	-0,355	-0,172
116,991	-7,585	-0,211	-0,100
118,006	84,277	-0,278	-0,213
119,020	147,467	-0,245	-0,232
120,035	30,091	-0,226	-0,135
121,049	73,136	-0,219	-0,160
122,064	-28,610	-0,242	-0,097
123,079	800,000	-0,075	-0,177
124,093	147,244	-0,268	-0,252
125,108	-4,277	-0,300	-0,145
126,122	-44,677	-0,327	-0,114
127,137	117,212	-0,215	-0,185
128,151	201,377	-0,208	-0,225
129,166	118,679	-0,233	-0,201
130,181	137,573	-0,252	-0,231
131,195	239,345	-0,154	-0,180
132,210	17,980	-0,320	-0,178
133,224	409,694	-0,176	-0,262
134,239	-6,798	-0,247	-0,117
135,254	87,489	-0,246	-0,190
136,268	154,314	-0,220	-0,211
137,283	-67,287	-0,209	-0,057
138,297	800,000	-0,130	-0,309
139,312	205,181	-0,326	-0,354
140,327	211,771	-0,427	-0,471
141,341	253,044	-0,235	-0,281
142,356	-0,637	-0,228	-0,112
143,370	25,253	-0,307	-0,178
144,385	57,021	-0,266	-0,181
145,400	218,386	-0,206	-0,230
146,414	166,969	-0,166	-0,164
147,429	23,503	-0,248	-0,143
148,443	158,920	-0,284	-0,276
149,458	-0,921	-0,356	-0,176
150,473	24,666	-0,157	-0,091
151,487	-28,774	-0,253	-0,101
152,502	91,150	-0,191	-0,150
153,516	453,326	-0,261	-0,404
154,531	235,093	-0,267	-0,308
155,546	-57,879	-0,361	-0,110
156,560	0,378	-0,165	-0,082
157,575	38,869	-0,137	-0,086
158,589	-42,837	-0,241	-0,085
159,604	201,059	-0,156	-0,167
160,619	80,487	-0,423	-0,318
161,633	158,326	-0,285	-0,276
162,648	17,238	-0,210	-0,116
163,662	-8,914	-0,328	-0,153
164,677	-200,000	-0,052	-0,244
165,692	-25,606	-0,185	-0,076
166,706	66,074	-0,246	-0,174
167,721	29,669	-0,243	-0,144
168,735	152,341	-0,172	-0,164
169,750	-26,723	-0,242	-0,098
170,764	61,864	-0,216	-0,150
171,779	-45,094	-0,268	-0,093
172,794	800,000	-0,101	-0,212
173,808	-16,506	-0,324	-0,143
174,823	75,831	-0,218	-0,161
175,837	800,000	-0,096	-0,224
176,852	205,110	-0,253	-0,274
177,867	143,838	-0,226	-0,210
178,881	87,652	-0,205	-0,158
179,896	248,583	-0,188	-0,222
180,910	-57,084	-0,197	-0,060
181,925	592,425	-0,154	-0,266
182,940	397,636	-0,187	-0,274
183,954	74,657	-0,158	-0,116
184,969	69,926	-0,051	-0,037
185,983	-57,241	-0,224	-0,068
186,998	20,854	-0,220	-0,124
188,013	126,983	-0,258	-0,228
189,027	211,906	-0,163	-0,179
190,042	186,949	-0,146	-0,152
191,056	6,294	-0,321	-0,166
192,071	-200,000	-0,067	-0,222
193,086	-50,339	-0,275	-0,090
194,100	35,199	-0,149	-0,091
195,115	479,177	-0,138	-0,219
196,129	51,135	-0,261	-0,172
197,144	128,555	-0,228	-0,203
198,159	18,983	-0,189	-0,105
199,173	-200,000	-0,057	-0,314
200,188	-46,630	-0,260	-0,088
201,202	204,194	-0,144	-0,155
202,217	-4,660	-0,158	-0,075
203,232	182,096	-0,186	-0,191
204,246	-37,531	-0,240	-0,089
205,261	-200,000	-0,039	-0,143
206,275	341,449	-0,092	-0,126
207,290	137,242	-0,140	-0,127
208,304	83,391	-0,228	-0,173
209,319	800,000	-0,067	-0,180
210,334	-97,348	-0,254	-0,046
211,348	54,766	-0,221	-0,148
212,363	33,217	-0,232	-0,140
213,377	137,679	-0,171	-0,156
214,392	-41,346	-0,295	-0,105
215,407	86,799	-0,202	-0,155
216,421	800,000	-0,085	-0,206
217,436	800,000	-0,089	-0,228
218,450	94,722	-0,350	-0,276
219,465	102,667	-0,173	-0,141
220,480	254,844	-0,086	-0,102
221,494	173,833	-0,193	-0,194
222,509	78,667	-0,246	-0,183
223,523	-67,193	-0,223	-0,061
224,538	54,234	-0,176	-0,118
225,553	800,000	-0,092	-0,200
226,567	800,000	-0,074	-0,201
227,582	-91,283	-0,237	-0,047
228,596	33,376	-0,112	-0,067
229,611	456,343	-0,064	-0,099
230,626	342,859	-0,190	-0,259
231,640	27,388	-0,240	-0,140
232,655	800,000	-0,087	-0,181
233,669	82,841	-0,298	-0,224
234,684	521,633	-0,166	-0,271
235,699	312,614	-0,140	-0,182
236,713	800,000	-0,103	-0,198
237,728	146,630	-0,187	-0,175
238,742	-137,687	-0,128	0,010
239,757	-45,312	-0,152	0,052
240,772	408,054	-0,120	-0,177
241,786	91,855	-0,242	-0,189
242,801	434,580	-0,190	-0,288
243,815	-200,000	-0,050	-0,173
244,830	35,282	-0,230	-0,139
245,844	-200,000	-0,091	-0,307
246,859	11,037	-0,218	-0,115
247,874	83,081	-0,227	-0,171
248,888	273,041	-0,166	-0,204
249,903	-80,870	-0,165	-0,038
250,917	19,653	-0,124	-0,069
251,932	0,792	-0,092	-0,046
252,947	49,529	-0,153	-0,100
253,961	-83,988	-0,307	-0,067
254,976	471,434	-0,163	-0,254
255,990	57,653	-0,200	-0,135
257,005	50,042	-0,264	-0,172
258,020	11,052	-0,332	-0,175
259,034	68,637	-0,169	-0,120
260,049	175,394	-0,253	-0,254
261,063	-150,374	-0,148	0,008
262,078	-13,798	-0,356	-0,159
263,093	-44,231	-0,223	-0,077
264,107	-200,000	-0,053	-0,231
265,122	90,430	-0,161	-0,125
266,136	39,495	-0,090	-0,056
267,151	-38,933	-0,173	-0,063
268,166	454,102	-0,177	-0,271
269,180	192,849	-0,164	-0,172
270,195	-24,783	-0,198	-0,081
271,209	146,775	-0,177	-0,165
272,224	54,420	-0,182	-0,121
273,239	92,702	-0,111	-0,086
274,253	-6,551	-0,186	-0,087
275,268	-15,953	-0,094	-0,041
276,282	595,061	-0,160	-0,275
277,297	244,189	-0,085	-0,099
278,312	-200,000	-0,045	-0,168
279,326	-58,524	-0,133	0,040
280,341	299,155	-0,129	-0,164
281,355	575,994	-0,103	-0,174
282,370	-76,955	-0,138	-0,033
283,384	38,675	-0,226	-0,139
284,399	521,812	-0,127	-0,207
285,414	49,945	-0,240	-0,156
286,428	554,900	-0,109	-0,181
287,443	-88,143	-0,039	0,008
288,457	-91,172	-0,093	0,018
289,472	3,825	-0,203	-0,102
290,487	-11,118	-0,224	-0,101
291,501	302,422	-0,130	-0,167
292,516	463,544	-0,161	-0,249
293,530	29,757	-0,117	-0,069
294,545	-200,000	-0,054	-0,205
295,560	800,000	0,050	-0,108
296,574	-163,558	-0,092	0,003
297,589	77,508	-0,277	-0,203
298,603	3,699	-0,188	-0,095
299,618	291,739	-0,191	-0,241
300,633	118,035	-0,177	-0,150
301,647	-86,155	-0,171	-0,036
302,662	-34,694	-0,190	-0,071
303,676	435,786	-0,027	-0,040
304,691	154,551	-0,164	-0,155
305,706	-200,000	-0,038	-0,213
306,720	-92,283	-0,210	0,041
307,735	-200,000	-0,022	-0,119
308,749	-19,176	-0,182	0,078
309,764	-200,000	0,004	-0,057
310,779	-69,502	-0,255	-0,067
311,793	274,783	-0,114	-0,139
312,808	-8,015	-0,243	-0,112
313,822	85,349	-0,076	-0,057
314,837	144,828	-0,141	-0,130
315,852	800,000	-0,079	-0,168
316,866	-116,908	-0,125	-0,016
317,881	109,586	-0,134	-0,111
318,895	-20,213	-0,041	-0,017
319,910	356,273	-0,103	-0,142
320,925	346,976	-0,208	-0,283
321,939	-85,363	-0,147	-0,031
322,954	-200,000	-0,046	-0,178
323,968	-36,325	-0,186	0,069
324,983	-162,505	-0,195	0,007
325,997	158,194	-0,096	-0,092
327,012	-136,121	-0,151	0,012
328,027	800,000	-0,064	-0,133
329,041	800,000	-0,133	-0,271
330,056	-22,941	-0,139	-0,057
331,070	-200,000	-0,054	-0,174
332,085	-200,000	0,050	-0,260
333,100	-33,911	-0,265	-0,100
334,114	-1,797	-0,188	-0,091
335,129	256,108	-0,171	-0,202
336,143	27,079	-0,173	-0,100
337,158	267,278	-0,071	-0,086
338,173	290,606	-0,124	-0,155
339,187	-121,541	-0,232	-0,026
340,202	190,478	-0,139	-0,144
341,216	-200,000	-0,060	-0,254
342,231	-103,323	-0,133	-0,021
343,246	800,000	-0,094	-0,233
344,260	510,762	-0,176	-0,283
345,275	77,585	-0,169	-0,123
346,289	13,875	-0,162	-0,086
347,304	-32,563	-0,139	-0,053
348,319	633,390	-0,127	-0,222
349,333	412,288	-0,177	-0,260
350,348	65,870	-0,093	-0,065
351,362	231,019	-0,144	-0,162
352,377	251,666	-0,077	0,090
353,392	416,278	-0,060	-0,088
354,406	-32,160	-0,160	-0,061
355,421	208,732	1315,646	1414,878
356,435	160,614	1476,501	1415,363
