DTS Sentinel unit serial number:	SN410029Multiplexer serial number:	ORYXHardware model number:	OX2-SRSoftware version number:	ORYX F/W v4,00 Oryx Data Collector v3.7.2.0data status	okinstallation	B3 Nyhavnadifferential loss correction	single-endedforward channel	channel 1reverse channel	N/Adate	2023/12/03time	13:12:30forward acquisition time	300,00reverse acquisition time	0,00gamma	499,1914k internal	0,3201k external	0,3201temperature offset calibration	1,0000default loss term (dB/km)	0,3820temperature slope calibration	1,0000multiplexer offset coefficient	1,0000multiplexer slope coefficient	1,0000fibre end	0,00T internal ref (°C)	14,77T ext. ref 1 (°C)	1,03T ext. ref 2 (°C)	1,01length (m)	temperature (°C)	Stokes	anti-Stokes-744,400	137,127	-0,210	-0,200
-743,385	-200,000	0,000	0,412
-742,371	42,663	-0,177	-0,117
-741,356	-200,000	0,043	0,389
-740,342	-29,331	-0,179	-0,074
-739,327	-200,000	-0,067	0,342
-738,312	8,130	-0,274	-0,149
-737,298	-200,000	-0,024	0,288
-736,283	330,382	-0,164	-0,230
-735,269	-200,000	-0,006	0,326
-734,254	82,522	-0,294	-0,232
-733,239	18,425	-0,255	0,148
-732,225	374,234	-0,193	-0,287
-731,210	126,678	0,181	0,167
-730,196	95,622	-0,072	0,059
-729,181	28,271	-0,110	0,068
-728,167	-200,000	0,013	-0,053
-727,152	800,000	-0,041	0,085
-726,137	-200,000	-0,002	-0,102
-725,123	588,324	0,021	-0,039
-724,108	-121,814	-0,260	-0,031
-723,094	-200,000	-0,021	-0,069
-722,079	259,440	0,081	-0,102
-721,064	-200,000	-0,018	0,062
-720,050	-103,425	-0,067	0,011
-719,035	800,000	0,061	-0,171
-718,021	-95,225	0,061	-0,012
-717,006	-200,000	-0,003	-0,052
-715,991	177,605	-0,054	-0,058
-714,977	503,312	0,015	-0,025
-713,962	-200,000	-0,017	-0,177
-712,948	120,528	-0,031	-0,028
-711,933	118,550	-0,093	0,084
-710,918	31,052	0,025	-0,016
-709,904	800,000	0,025	-0,076
-708,889	-149,377	-0,089	-0,005
-707,875	99,888	0,063	-0,053
-706,860	98,530	-0,026	0,022
-705,845	184,482	0,002	-0,002
-704,831	-176,676	0,107	-0,002
-703,816	231,593	-0,024	-0,029
-702,802	-84,165	-0,052	-0,012
-701,787	54,216	-0,107	0,075
-700,772	24,986	0,152	0,092
-699,758	-35,065	-0,048	-0,019
-698,743	800,000	0,024	0,071
-697,729	-27,588	-0,068	0,029
-696,714	800,000	-0,008	0,025
-695,699	177,625	-0,060	0,063
-694,685	-200,000	0,028	-0,164
-693,670	-91,159	-0,208	-0,043
-692,656	800,000	-0,035	0,080
-691,641	-200,000	0,011	0,178
-690,627	-200,000	-0,006	0,096
-689,612	-200,000	0,019	-0,096
-688,597	800,000	0,076	-0,230
-687,583	800,000	0,035	-0,091
-686,568	-80,690	0,046	-0,011
-685,554	-200,000	0,019	-0,082
-684,539	48,890	0,083	-0,057
-683,524	2,364	-0,115	-0,060
-682,510	86,534	0,091	0,073
-681,495	0,845	-0,153	0,079
-680,481	-200,000	-0,050	-0,210
-679,466	-175,580	-0,086	0,002
-678,451	171,439	-0,022	0,023
-677,437	50,028	0,138	0,094
-676,422	-200,000	-0,015	0,058
-675,408	-200,000	-0,015	0,180
-674,393	-124,154	-0,174	0,020
-673,378	800,000	-0,070	-0,193
-672,364	219,033	0,014	0,017
-671,349	34,499	0,063	-0,040
-670,335	191,129	0,084	-0,092
-669,320	-200,000	0,016	0,121
-668,305	88,197	0,088	-0,070
-667,291	-141,560	-0,071	-0,005
-666,276	4,658	0,060	-0,032
-665,262	-73,345	0,220	-0,058
-664,247	-135,495	0,124	0,011
-663,232	183,659	-0,090	-0,097
-662,218	18,970	0,016	0,009
-661,203	-67,799	-0,079	-0,022
-660,189	674,262	0,050	0,094
-659,174	-130,160	-0,107	0,010
-658,159	281,278	-0,050	0,065
-657,145	30,265	-0,108	-0,067
-656,130	240,123	-0,013	-0,015
-655,116	533,146	0,030	0,052
-654,101	104,737	-0,072	0,061
-653,086	-200,000	0,020	0,088
-652,072	-200,000	0,020	-0,066
-651,057	31,064	-0,103	-0,064
-650,043	800,000	0,034	-0,081
-649,028	-101,479	-0,053	-0,009
-648,014	-130,760	0,051	0,005
-646,999	487,135	0,061	0,101
-645,984	-76,311	-0,032	0,008
-644,970	-141,384	0,136	0,010
-643,955	-106,546	-0,037	0,006
-642,941	-200,000	-0,046	-0,152
-641,926	-200,000	-0,002	-0,107
-640,911	-90,472	-0,088	0,018
-639,897	343,857	0,040	0,057
-638,882	-200,000	0,022	-0,078
-637,868	-4,375	0,048	-0,024
-636,853	-200,000	0,004	-0,015
-635,838	800,000	0,029	-0,064
-634,824	298,004	-0,055	0,074
-633,809	-77,910	0,065	-0,016
-632,795	-166,505	-0,052	0,002
-631,780	89,453	0,075	0,061
-630,765	-200,000	-0,012	0,067
-629,751	360,654	-0,046	0,067
-628,736	374,682	-0,043	0,063
-627,722	260,927	0,040	-0,050
-626,707	-200,000	-0,011	0,086
-625,692	668,728	-0,017	0,032
-624,678	-129,230	0,008	0,001
-623,663	-88,593	-0,069	-0,015
-622,649	5,927	-0,033	-0,017
-621,634	800,000	-0,024	-0,065
-620,619	50,225	0,089	0,061
-619,605	800,000	-0,038	0,098
-618,590	-149,393	0,041	-0,002
-617,576	-200,000	0,014	0,182
-616,561	281,790	-0,043	-0,056
-615,546	26,691	0,089	-0,054
-614,532	159,644	-0,106	-0,107
-613,517	-87,289	-0,094	-0,020
-612,503	-56,721	0,168	0,053
-611,488	153,854	0,120	0,119
-610,474	-200,000	0,037	-0,130
-609,459	238,346	-0,069	0,083
-608,444	146,985	0,088	-0,086
-607,430	-170,739	-0,142	0,003
-606,415	-163,773	0,109	-0,004
-605,401	77,507	0,078	0,060
-604,386	-21,718	-0,104	0,046
-603,371	-4,078	0,039	0,020
-602,357	800,000	0,006	-0,015
-601,342	-34,545	-0,035	-0,014
-600,328	-111,304	-0,086	-0,013
-599,313	800,000	0,035	-0,088
-598,298	209,096	0,045	-0,051
-597,284	173,300	0,051	0,053
-596,269	16,522	0,069	0,039
-595,255	115,445	0,039	0,035
-594,240	-200,000	0,000	-0,119
-593,225	-200,000	-0,001	0,044
-592,211	46,780	0,059	-0,039
-591,196	-145,227	-0,059	0,004
-590,182	800,000	0,030	-0,062
-589,167	-200,000	0,025	0,096
-588,152	307,529	0,062	0,084
-587,138	-5,122	-0,138	0,068
-586,123	-87,769	-0,101	-0,022
-585,109	552,244	-0,068	0,119
-584,094	46,641	0,004	-0,003
-583,079	67,552	0,032	0,024
-582,065	402,766	-0,076	0,116
-581,050	-25,872	-0,044	0,019
-580,036	522,721	-0,043	-0,074
-579,021	-68,055	0,062	-0,017
-578,006	-70,922	-0,154	0,042
-576,992	-200,000	-0,019	-0,135
-575,977	-4,682	0,052	-0,026
-574,963	649,366	0,077	0,143
-573,948	49,980	0,014	0,009
-572,934	125,198	-0,055	0,050
-571,919	-200,000	-0,013	-0,084
-570,904	-200,000	-0,012	-0,081
-569,890	80,143	0,052	-0,040
-568,875	-200,000	0,015	0,081
-567,861	-155,712	-0,136	0,006
-566,846	-200,000	-0,036	-0,158
-565,831	92,050	0,032	-0,026
-564,817	-80,850	-0,148	-0,035
-563,802	-31,592	-0,105	-0,042
-562,788	-168,955	-0,102	-0,003
-561,773	545,062	0,068	-0,117
-560,758	-68,576	0,097	0,027
-559,744	-200,000	-0,009	-0,040
-558,729	232,220	-0,024	-0,028
-557,715	800,000	0,018	0,046
-556,700	800,000	-0,015	-0,037
-555,685	-164,075	-0,192	0,006
-554,671	800,000	0,026	-0,063
-553,656	-200,000	-0,007	0,106
-552,642	800,000	0,019	-0,042
-551,627	793,875	-0,028	0,056
-550,612	21,583	0,182	0,107
-549,598	200,341	-0,140	-0,155
-548,583	441,340	-0,039	-0,062
-547,569	139,643	0,162	-0,154
-546,554	-159,997	-0,181	-0,007
-545,539	58,006	0,138	0,097
-544,525	399,273	0,061	0,092
-543,510	288,591	-0,010	0,014
-542,496	428,467	-0,055	-0,086
-541,481	9,533	-0,054	-0,029
-540,466	-56,596	0,086	0,027
-539,452	72,890	0,055	-0,042
-538,437	193,537	-0,026	-0,029
-537,423	-63,355	-0,045	0,013
-536,408	-1,837	-0,080	0,041
-535,393	-68,218	0,066	-0,018
-534,379	76,326	-0,065	-0,050
-533,364	-75,137	0,063	0,016
-532,350	231,540	-0,104	0,123
-531,335	-200,000	-0,031	0,115
-530,321	-200,000	-0,048	-0,183
-529,306	-200,000	0,012	0,165
-528,291	800,000	-0,010	-0,025
-527,277	-200,000	-0,023	0,084
-526,262	800,000	-0,064	0,160
-525,248	368,832	-0,062	-0,091
-524,233	-23,124	0,142	-0,061
-523,218	49,806	-0,041	0,028
-522,204	-200,000	0,015	-0,142
-521,189	-200,000	-0,038	-0,158
-520,175	-200,000	0,002	-0,028
-519,160	-70,551	-0,082	0,022
-518,145	-87,929	0,159	0,034
-517,131	800,000	0,016	0,051
-516,116	-200,000	-0,004	0,065
-515,102	800,000	0,039	0,085
-514,087	-200,000	0,016	-0,075
-513,072	39,353	-0,057	0,036
-512,058	-200,000	0,002	-0,106
-511,043	178,871	-0,042	-0,044
-510,029	57,843	0,065	-0,046
-509,014	-1,198	0,086	-0,044
-507,999	204,822	-0,068	0,076
-506,985	652,707	0,093	-0,173
-505,970	153,097	0,019	0,019
-504,956	316,140	-0,099	-0,135
-503,941	-200,000	-0,025	-0,097
-502,926	286,912	0,053	0,069
-501,912	-59,533	0,064	-0,020
-500,897	421,454	-0,018	-0,027
-499,883	800,000	-0,026	-0,053
-498,868	-200,000	-0,009	0,039
-497,853	404,019	0,035	-0,054
-496,839	800,000	-0,040	-0,085
-495,824	800,000	-0,020	0,051
-494,810	800,000	0,055	0,145
-493,795	800,000	-0,028	0,071
-492,781	103,965	-0,074	-0,062
-491,766	-89,491	-0,075	-0,016
-490,751	-31,563	0,087	-0,035
-489,737	712,158	-0,043	0,083
-488,722	-200,000	0,011	-0,107
-487,708	800,000	0,063	0,161
-486,693	337,792	0,036	0,051
-485,678	-200,000	-0,024	-0,094
-484,664	-200,000	-0,009	-0,103
-483,649	-200,000	0,001	0,026
-482,635	-200,000	0,024	-0,095
-481,620	800,000	-0,025	-0,068
-480,605	-200,000	-0,008	0,033
-479,591	-94,773	0,161	0,031
-478,576	-200,000	0,033	0,126
-477,562	298,606	-0,071	-0,095
-476,547	800,000	-0,066	-0,144
-475,532	398,416	-0,029	0,043
-474,518	-200,000	0,006	0,045
-473,503	93,423	0,059	0,048
-472,489	-92,547	-0,063	-0,013
-471,474	-37,020	-0,117	0,045
-470,459	697,981	0,045	-0,086
-469,445	-200,000	-0,022	-0,144
-468,430	672,265	-0,019	-0,036
-467,416	153,062	0,061	-0,060
-466,401	-200,000	0,004	0,129
-465,386	800,000	0,049	0,111
-464,372	306,527	-0,021	0,028
-463,357	-120,707	-0,146	-0,017
-462,343	-87,550	0,035	0,007
-461,328	202,095	0,076	-0,085
-460,313	545,645	-0,040	0,069
-459,299	47,982	0,060	0,040
-458,284	-200,000	0,012	-0,060
-457,270	-149,117	-0,088	0,005
-456,255	275,142	-0,007	-0,009
-455,241	121,038	-0,099	-0,089
-454,226	-200,000	0,007	-0,078
-453,211	800,000	-0,004	-0,010
-452,197	518,256	0,035	0,059
-451,182	-52,080	0,132	0,044
-450,168	163,301	0,085	0,086
-449,153	-200,000	-0,023	0,081
-448,138	-101,967	0,044	-0,008
-447,124	-66,492	-0,178	-0,051
-446,109	800,000	-0,020	-0,050
-445,095	-127,136	-0,108	0,011
-444,080	163,737	0,096	0,097
-443,065	800,000	0,027	-0,067
-442,051	-200,000	0,017	-0,114
-441,036	800,000	-0,122	-0,273
-440,022	-200,000	-0,013	-0,045
-439,007	259,078	-0,027	0,033
-437,992	-200,000	-0,001	-0,027
-436,978	390,347	-0,069	0,103
-435,963	-161,486	0,079	-0,003
-434,949	249,348	-0,050	-0,061
-433,934	340,302	-0,112	-0,157
-432,919	-200,000	-0,031	-0,129
-431,905	649,210	0,027	-0,049
-430,890	800,000	-0,019	-0,040
-429,876	-0,921	0,088	0,045
-428,861	-200,000	-0,012	0,091
-427,846	69,421	-0,047	0,035
-426,832	-200,000	-0,009	0,084
-425,817	76,709	0,103	0,078
-424,803	196,085	0,018	0,019
-423,788	800,000	-0,021	0,056
-422,773	-200,000	-0,004	-0,020
-421,759	217,141	0,064	-0,073
-420,744	-62,883	-0,232	0,069
-419,730	665,228	-0,010	-0,018
-418,715	110,250	-0,044	-0,038
-417,701	18,530	-0,030	-0,017
-416,686	541,193	0,025	0,043
-415,671	-95,919	0,070	0,013
-414,657	-200,000	-0,023	0,117
-413,642	33,272	0,081	0,051
-412,628	-200,000	0,041	0,139
-411,613	-4,364	-0,031	0,016
-410,598	-89,184	-0,075	0,016
-409,584	98,381	0,077	-0,064
-408,569	145,347	-0,026	0,025
-407,555	800,000	-0,025	0,064
-406,540	-163,356	0,128	-0,004
-405,525	-108,250	0,018	-0,003
-404,511	-79,215	-0,067	-0,016
-403,496	-126,763	0,078	0,008
-402,482	800,000	0,038	0,103
-401,467	338,062	0,061	0,085
-400,452	111,872	0,087	0,075
-399,438	-200,000	-0,003	0,068
-398,423	-59,907	-0,037	0,011
-397,409	148,268	-0,017	-0,017
-396,394	-200,000	-0,015	-0,086
-395,379	-200,000	0,162	0,000
-394,365	17,450	-0,033	-0,019
-393,350	800,000	0,056	0,171
-392,336	-155,918	0,036	-0,002
-391,321	352,872	-0,088	0,126
-390,306	-7,289	0,025	0,012
-389,292	-200,000	-0,012	0,138
-388,277	249,057	-0,119	0,144
-387,263	97,048	0,084	0,069
-386,248	800,000	0,046	0,136
-385,233	455,133	0,086	0,138
-384,219	552,076	-0,035	0,060
-383,204	-90,284	0,103	0,021
-382,190	800,000	-0,059	-0,171
-381,175	-27,105	0,098	-0,041
-380,160	-131,439	0,021	-0,002
-379,146	800,000	0,018	0,050
-378,131	-107,909	-0,093	0,014
-377,117	-200,000	-0,008	-0,091
-376,102	52,373	-0,023	0,016
-375,088	-133,198	-0,157	0,014
-374,073	-178,915	-0,069	0,001
-373,058	22,679	-0,121	-0,071
-372,044	-20,018	-0,066	0,029
-371,029	800,000	0,020	0,047
-370,015	-55,768	-0,085	0,027
-369,000	51,819	-0,015	-0,010
-367,985	800,000	0,024	0,074
-366,971	770,492	-0,056	0,109
-365,956	-7,468	0,101	0,049
-364,942	199,901	-0,065	0,071
-363,927	-13,821	0,118	0,055
-362,912	800,000	0,085	0,186
-361,898	-200,000	0,015	-0,085
-360,883	363,632	-0,035	-0,050
-359,869	-120,765	0,028	-0,003
-358,854	133,516	-0,049	0,046
-357,839	741,620	0,062	0,120
-356,825	800,000	-0,015	0,040
-355,810	287,542	-0,019	-0,024
-354,796	800,000	0,045	0,099
-353,781	606,524	-0,057	-0,102
-352,766	-53,086	-0,109	-0,036
-351,752	-200,000	0,012	0,109
-350,737	-200,000	-0,004	-0,183
-349,723	-200,000	0,022	-0,093
-348,708	-70,145	0,041	0,011
-347,693	-114,204	0,102	-0,014
-346,679	113,572	0,102	0,089
-345,664	347,565	-0,113	-0,160
-344,650	103,060	-0,050	-0,042
-343,635	-200,000	-0,001	0,184
-342,620	515,678	-0,055	0,093
-341,606	229,773	0,043	-0,050
-340,591	-200,000	-0,004	0,050
-339,577	520,631	-0,032	-0,054
-338,562	-148,089	-0,097	-0,006
-337,548	-200,000	-0,024	0,194
-336,533	-75,336	0,071	0,018
-335,518	126,733	-0,133	-0,121
-334,504	246,955	0,073	-0,088
-333,489	198,331	-0,028	0,030
-332,475	55,233	-0,074	-0,051
-331,460	-200,000	-0,035	-0,163
-330,445	136,842	-0,069	0,064
-329,431	-1,820	0,047	0,024
-328,416	57,388	-0,026	0,018
-327,402	143,752	0,050	0,048
-326,387	-8,568	-0,102	0,049
-325,372	81,562	0,107	-0,082
-324,358	-200,000	0,014	-0,084
-323,343	800,000	0,043	-0,091
-322,329	-58,543	0,096	-0,030
-321,314	800,000	0,047	0,100
-320,299	212,061	-0,044	-0,050
-319,285	693,155	0,057	-0,107
-318,270	204,842	-0,126	-0,140
-317,256	800,000	0,062	-0,133
-316,241	800,000	-0,036	0,109
-315,226	800,000	0,011	0,035
-314,212	-200,000	0,008	0,092
-313,197	-121,335	0,072	-0,009
-312,183	-94,259	0,213	0,041
-311,168	233,427	0,095	0,112
-310,153	-82,322	-0,039	0,009
-309,139	-200,000	-0,005	0,123
-308,124	-92,300	0,070	0,014
-307,110	236,053	0,109	-0,129
-306,095	800,000	0,049	-0,110
-305,080	309,795	0,055	0,074
-304,066	626,759	-0,090	-0,162
-303,051	776,845	-0,037	-0,072
-302,037	-84,271	-0,059	0,013
-301,022	179,901	-0,055	0,057
-300,008	300,788	0,024	-0,032
-298,993	45,483	0,047	-0,031
-297,978	183,473	0,081	-0,086
-296,964	-200,000	0,001	-0,076
-295,949	800,000	-0,070	-0,197
-294,935	-72,847	-0,139	0,036
-293,920	336,162	0,009	-0,013
-292,905	153,406	0,014	-0,013
-291,891	101,780	0,110	0,092
-290,876	-28,245	0,096	0,039
-289,862	306,745	-0,028	0,037
-288,847	-128,835	0,078	-0,008
-287,832	153,207	0,050	0,049
-286,818	62,591	-0,025	-0,018
-285,803	-196,538	0,077	0,000
-284,789	-200,000	-0,024	0,128
-283,774	84,503	-0,097	0,076
-282,759	461,896	0,069	0,110
-281,745	-110,644	-0,087	0,013
-280,730	-34,995	-0,046	0,018
-279,716	306,007	0,054	-0,072
-278,701	196,064	-0,063	-0,069
-277,686	754,576	0,084	-0,164
-276,672	30,294	0,094	-0,057
-275,657	-48,887	0,095	-0,032
-274,643	1,611	-0,049	-0,025
-273,628	-167,919	-0,033	0,001
-272,613	-200,000	-0,010	-0,067
-271,599	-200,000	0,007	-0,049
-270,584	410,107	0,061	0,093
-269,570	344,012	0,074	0,104
-268,555	-107,324	0,032	-0,005
-267,540	546,040	-0,080	0,138
-266,526	44,823	-0,076	-0,050
-265,511	426,237	0,014	0,022
-264,497	-126,361	-0,035	0,004
-263,482	-200,000	0,000	-0,063
-262,467	217,998	0,023	0,027
-261,453	66,900	0,024	-0,017
-260,438	-200,000	0,018	-0,169
-259,424	152,540	-0,170	-0,166
-258,409	-13,401	0,106	0,049
-257,395	363,007	0,036	0,051
-256,380	-200,000	-0,003	0,054
-255,365	202,664	0,020	0,022
-254,351	-200,000	-0,016	0,114
-253,336	-200,000	-0,027	-0,169
-252,322	-103,025	0,108	-0,018
-251,307	110,200	-0,129	-0,110
-250,292	-200,000	0,009	0,100
-249,278	800,000	-0,047	-0,103
-248,263	-108,202	0,106	-0,016
-247,249	-87,255	-0,060	-0,013
-246,234	-160,118	-0,009	0,000
-245,219	-119,082	-0,074	0,009
-244,205	102,370	-0,091	-0,076
-243,190	-70,383	-0,054	-0,015
-242,176	-200,000	0,109	0,000
-241,161	800,000	-0,059	-0,141
-240,146	-200,000	-0,011	-0,112
-239,132	800,000	-0,030	0,082
-238,117	-119,869	-0,121	0,015
-237,103	-157,674	-0,040	0,002
-236,088	334,474	0,082	-0,113
-235,073	-200,000	-0,004	0,090
-234,059	323,523	0,011	0,015
-233,044	568,742	0,045	0,078
-232,030	654,442	-0,054	0,100
-231,015	-200,000	0,000	0,064
-230,000	6,198	-0,069	-0,036
-228,986	800,000	-0,008	0,020
-227,971	-200,000	-0,008	0,029
-226,957	-20,689	0,079	0,034
-225,942	18,921	0,115	0,065
-224,927	538,202	-0,032	0,055
-223,913	166,748	-0,090	0,091
-222,898	800,000	-0,046	-0,123
-221,884	305,461	-0,032	-0,043
-220,869	356,992	0,077	0,110
-219,855	800,000	-0,025	0,068
-218,840	-7,976	0,112	0,053
-217,825	536,160	-0,016	0,028
-216,811	-102,870	-0,132	-0,022
-215,796	122,649	0,112	-0,100
-214,782	745,786	-0,019	-0,036
-213,767	-200,000	-0,025	0,193
-212,752	91,799	0,123	0,098
-211,738	-200,000	-0,002	0,071
-210,723	800,000	0,051	0,153
-209,709	73,557	-0,062	0,046
-208,694	-103,680	0,086	0,014
-207,679	-200,000	-0,043	-0,166
-206,665	800,000	-0,036	-0,072
-205,650	616,275	0,039	-0,071
-204,636	55,489	-0,094	0,065
-203,621	8,235	0,040	0,021
-202,606	-141,250	0,056	0,004
-201,592	216,726	0,059	-0,067
-200,577	139,758	-0,152	-0,143
-199,563	800,000	0,099	-0,243
-198,548	-200,000	0,007	0,045
-197,533	29,451	0,134	0,081
-196,519	-125,234	-0,115	0,012
-195,504	178,834	-0,056	-0,058
-194,490	800,000	-0,046	-0,116
-193,475	-106,148	0,066	0,010
-192,460	-120,297	0,096	0,011
-191,446	5,134	0,067	-0,035
-190,431	-200,000	-0,031	0,099
-189,417	-200,000	-0,008	0,085
-188,402	754,521	-0,032	0,062
-187,387	80,965	0,047	-0,036
-186,373	37,574	0,038	0,024
-185,358	-101,187	-0,006	-0,001
-184,344	407,952	0,043	0,065
-183,329	800,000	0,019	0,060
-182,315	-113,350	-0,115	-0,016
-181,300	63,063	0,012	0,009
-180,285	-63,832	-0,137	0,040
-179,271	-200,000	0,029	-0,098
-178,256	800,000	0,087	-0,205
-177,242	416,107	-0,038	-0,057
-176,227	-200,000	-0,008	-0,034
-175,212	-22,875	-0,062	-0,027
-174,198	-119,285	-0,128	0,016
-173,183	-108,891	0,098	-0,015
-172,169	-200,000	0,001	-0,027
-171,154	-200,000	0,017	-0,115
-170,139	389,202	0,042	0,062
-169,125	68,833	0,092	-0,067
-168,110	-200,000	0,039	0,128
-167,096	-200,000	-0,003	0,101
-166,081	54,665	0,007	-0,005
-165,066	113,320	-0,147	-0,127
-164,052	-200,000	-0,026	-0,100
-163,037	0,764	0,127	-0,064
-162,023	481,487	-0,029	0,046
-161,008	-200,000	-0,019	-0,087
-159,993	-200,000	0,007	0,063
-158,979	-133,733	-0,146	-0,013
-157,964	27,538	0,055	-0,033
-156,950	43,381	0,076	0,049
-155,935	57,232	0,156	0,108
-154,920	-200,000	0,005	0,063
-153,906	-200,000	0,005	0,050
-152,891	92,045	0,063	-0,051
-151,877	390,320	0,070	-0,103
-150,862	800,000	-0,040	-0,093
-149,847	225,213	-0,121	-0,140
-148,833	445,017	0,073	-0,114
-147,818	228,534	0,122	0,142
-146,804	113,428	0,075	0,065
-145,789	110,178	0,048	0,041
-144,775	-0,910	-0,111	0,056
-143,760	164,101	0,099	-0,099
-142,745	-52,093	-0,011	-0,004
-141,731	-200,000	-0,005	-0,153
-140,716	186,848	-0,068	-0,072
-139,702	-200,000	-0,011	0,130
-138,687	-50,780	0,092	-0,031
-137,672	124,801	0,061	-0,055
-136,658	-200,000	-0,022	-0,106
-135,643	61,564	-0,111	0,079
-134,629	-66,883	0,100	-0,028
-133,614	51,996	-0,057	0,038
-132,599	85,093	0,167	0,130
-131,585	-200,000	0,033	0,178
-130,570	382,131	-0,111	0,163
-129,556	-84,059	-0,088	-0,020
-128,541	-200,000	-0,011	-0,045
-127,526	-46,693	0,172	0,059
-126,512	1,238	0,077	0,039
-125,497	49,644	0,085	0,057
-124,483	-108,744	0,050	-0,008
-123,468	-89,953	-0,015	0,003
-122,453	-134,402	-0,128	-0,011
-121,439	800,000	-0,008	0,022
-120,424	800,000	-0,022	-0,057
-119,410	-200,000	-0,024	0,084
-118,395	-104,881	0,098	-0,016
-117,380	800,000	-0,007	0,014
-116,366	-159,560	-0,140	0,005
-115,351	-200,000	-0,060	0,264
-114,337	-37,417	-0,024	0,009
-113,322	299,867	-0,038	0,050
-112,307	-79,569	0,134	-0,032
-111,293	-36,101	-0,144	-0,055
-110,278	301,646	0,098	0,129
-109,264	-200,000	-0,017	0,062
-108,249	-11,097	-0,098	0,046
-107,234	-26,764	0,161	0,067
-106,220	24,438	0,019	-0,011
-105,205	-200,000	-0,003	-0,069
-104,191	264,137	0,084	0,104
-103,176	800,000	0,080	0,169
-102,162	800,000	0,040	0,120
-101,147	-200,000	0,047	-0,160
-100,132	-84,964	0,098	-0,022
-99,118	800,000	0,034	-0,101
-98,103	-76,739	-0,053	-0,013
-97,089	427,811	0,040	0,061
-96,074	-200,000	0,038	0,195
-95,059	-26,910	0,045	0,019
-94,045	57,254	0,060	0,041
-93,030	226,356	-0,084	-0,097
-92,016	790,047	0,023	-0,046
-91,001	-200,000	0,003	-0,113
-89,986	42,066	0,099	0,064
-88,972	-200,000	0,015	0,111
-87,957	-110,022	0,135	-0,020
-86,943	32,815	-0,093	-0,057
-85,928	143,340	0,105	-0,099
-84,913	-200,000	0,030	-0,108
-83,899	-60,240	0,088	0,026
-82,884	226,293	0,133	0,153
-81,870	-104,610	-0,081	0,013
-80,855	-200,000	0,019	-0,064
-79,840	800,000	0,012	0,027
-78,826	-37,772	0,029	-0,011
-77,811	-174,337	-0,071	0,001
-76,797	63,790	-0,096	-0,069
-75,782	-200,000	-0,007	-0,034
-74,767	-50,950	-0,094	-0,031
-73,753	731,838	-0,055	-0,104
-72,738	229,151	-0,068	-0,078
-71,724	730,752	-0,064	-0,122
-70,709	148,385	-0,078	-0,074
-69,694	800,000	-0,020	0,040
-68,680	-170,668	-0,102	-0,002
-67,665	69,123	0,066	0,048
-66,651	137,834	0,047	0,043
-65,636	213,823	0,056	0,063
-64,622	-130,316	0,020	0,002
-63,607	-80,394	0,112	-0,026
-62,592	111,946	-0,107	-0,092
-61,578	190,988	-0,071	-0,075
-60,563	800,000	0,064	0,137
-59,549	800,000	0,044	0,116
-58,534	-62,353	-1,553	-0,455
-57,519	330,330	-1,558	-2,129
-56,505	-200,000	-0,466	-4,541
-55,490	211,237	1,050	1,171
-54,476	800,000	4,762	10,947
-53,461	-200,000	18,242	289,271
-52,446	800,000	727,483	2235,558
-51,432	558,348	1643,473	2817,827
-50,417	79,206	1664,879	1261,745
-49,403	22,675	1538,612	889,454
-48,388	16,660	1461,627	815,836
-47,373	17,809	1451,613	815,745
-46,359	17,156	1442,002	807,190
-45,344	14,927	1437,392	793,942
-44,330	14,805	1435,557	792,317
-43,315	14,796	1433,902	791,328
-42,300	14,855	1432,178	790,627
-41,286	14,834	1431,024	789,860
-40,271	14,863	1429,664	789,214
-39,257	14,836	1428,506	788,414
-38,242	14,920	1427,043	787,976
-37,227	14,881	1425,944	787,152
-36,213	14,867	1424,569	786,299
-35,198	14,880	1423,615	785,801
-34,184	14,920	1422,634	785,415
-33,169	14,818	1421,387	784,216
-32,154	14,907	1420,063	783,875
-31,140	14,928	1418,809	783,248
-30,125	14,935	1417,791	782,687
-29,111	14,936	1416,605	782,009
-28,096	14,876	1415,607	781,142
-27,082	14,868	1414,399	780,411
-26,067	14,813	1413,421	779,579
-25,052	14,791	1412,443	778,905
-24,038	14,696	1411,754	778,053
-23,023	14,742	1410,580	777,587
-22,009	14,783	1409,414	777,106
-20,994	14,729	1408,579	776,363
-19,979	14,782	1407,559	776,018
-18,965	14,745	1406,622	775,297
-17,950	14,753	1405,637	774,762
-16,936	14,764	1404,766	774,303
-15,921	14,693	1403,686	773,344
-14,906	14,708	1402,518	772,740
-13,892	14,689	1401,783	772,214
-12,877	14,643	1401,031	771,556
-11,863	14,689	1400,022	771,185
-10,848	14,691	1399,200	770,709
-9,833	14,634	1398,289	769,915
-8,819	14,558	1397,500	769,094
-7,804	14,617	1396,362	768,713
-6,790	14,649	1395,261	768,222
-5,775	14,649	1394,197	767,606
-4,760	14,633	1393,519	767,133
-3,746	14,585	1392,621	766,385
-2,731	14,682	1391,806	766,351
-1,717	14,556	1390,906	765,244
-0,702	14,549	1389,154	764,220
0,313	18,441	1308,088	737,597
1,327	34,545	706,574	435,725
2,342	53,093	124,449	84,152
3,356	5,365	16,599	8,634
4,371	9,255	3,104	1,655
5,386	31,450	0,564	0,342
6,400	800,000	-0,083	0,202
7,415	-38,523	-0,372	-0,138
8,429	-23,054	-0,366	-0,155
9,444	124,035	-0,424	-0,376
10,459	145,738	-0,399	-0,379
11,473	77,345	-0,261	-0,196
12,488	414,001	-0,203	-0,306
13,502	-66,787	-0,450	-0,125
14,517	-62,436	-0,433	-0,126
15,531	23,774	-0,343	-0,199
16,546	-45,590	-0,403	-0,140
17,561	33,966	-0,318	-0,195
18,575	228,495	-0,207	-0,238
19,590	184,858	-0,199	-0,209
20,604	10,738	-0,239	-0,128
21,619	71,503	-0,357	-0,262
22,634	114,902	-0,397	-0,342
23,648	167,863	-0,365	-0,367
24,663	94,804	-0,413	-0,331
25,677	57,441	-0,356	-0,245
26,692	48,355	-0,447	-0,295
27,707	6,720	-0,301	-0,157
28,721	167,497	-0,339	-0,340
29,736	250,562	-0,365	-0,438
30,750	81,406	-0,371	-0,283
31,765	161,879	-0,388	-0,383
32,780	27,852	-0,409	-0,242
33,794	60,925	-0,298	-0,208
34,809	118,225	-0,400	-0,348
35,823	175,828	-0,275	-0,282
36,838	-0,993	-0,444	-0,221
37,853	202,162	-0,313	-0,341
38,867	5,834	-0,446	-0,232
39,882	10,941	-0,451	-0,242
40,896	122,297	-0,277	-0,244
41,911	772,206	-0,188	-0,364
42,926	75,789	-0,423	-0,315
43,940	94,757	-0,347	-0,278
44,955	158,840	-0,318	-0,311
45,969	195,533	-0,293	-0,314
46,984	105,322	-0,359	-0,299
47,999	603,086	-0,211	-0,371
49,013	783,119	-0,105	-0,203
50,028	96,912	-0,342	-0,276
51,042	60,970	-0,354	-0,247
52,057	112,897	-0,277	-0,236
53,071	180,558	-0,344	-0,356
54,086	73,914	-0,372	-0,275
55,101	46,247	-0,312	-0,203
56,115	-7,675	-0,326	-0,155
57,130	121,595	-0,365	-0,320
58,144	38,089	-0,401	-0,251
59,159	307,752	-0,346	-0,455
60,174	49,869	-0,431	-0,286
61,188	86,012	-0,349	-0,270
62,203	106,366	-0,324	-0,270
63,217	-42,573	-0,383	-0,136
64,232	74,668	-0,331	-0,245
65,247	69,050	-0,279	-0,202
66,261	54,226	-0,287	-0,194
67,276	-16,215	-0,368	-0,164
68,290	-111,075	-0,278	-0,040
69,305	317,061	-0,350	-0,467
70,320	41,972	-0,237	-0,151
71,334	-171,388	-0,219	-0,005
72,349	-7,197	-0,403	-0,191
73,363	167,075	-0,346	-0,345
74,378	-56,277	-0,388	-0,121
75,393	194,993	-0,244	-0,260
76,407	304,444	-0,240	-0,314
77,422	80,370	-0,384	-0,290
78,436	-87,822	-0,280	-0,059
79,451	339,723	-0,204	-0,280
80,466	20,181	-0,399	-0,226
81,480	22,410	-0,341	-0,195
82,495	-32,106	-0,307	-0,120
83,509	1,986	-0,342	-0,173
84,524	-101,998	-0,228	-0,038
85,539	183,922	-0,221	-0,230
86,553	25,951	-0,240	-0,140
87,568	0,729	-0,347	-0,174
88,582	54,318	-0,280	-0,189
89,597	-39,651	-0,297	-0,109
90,611	2,132	-0,338	-0,171
91,626	96,217	-0,168	-0,135
92,641	94,993	-0,187	-0,149
93,655	400,379	-0,164	-0,243
94,670	-9,902	-0,455	-0,212
95,684	121,661	-0,388	-0,340
96,699	-47,914	-0,347	-0,117
97,714	7,369	-0,239	-0,125
98,728	165,837	-0,272	-0,270
99,743	339,133	-0,242	-0,332
100,757	-20,157	-0,273	-0,118
101,772	-50,295	-0,279	-0,092
102,787	175,670	-0,338	-0,344
103,801	247,839	-0,286	-0,339
104,816	68,828	-0,224	-0,161
105,830	-42,188	-0,334	-0,119
106,845	83,740	-0,152	-0,116
107,860	-20,324	-0,201	-0,086
108,874	134,517	-0,204	-0,186
109,889	217,977	-0,233	-0,261
110,903	-200,000	-0,310	-0,000
111,918	-36,016	-0,258	-0,097
112,933	21,081	-0,244	-0,138
113,947	41,991	-0,291	-0,185
114,962	9,647	-0,169	-0,090
115,976	126,019	-0,290	-0,257
116,991	46,374	-0,250	-0,162
118,006	-124,110	-0,258	-0,028
119,020	211,428	-0,201	-0,222
120,035	-102,927	-0,231	-0,038
121,049	-85,308	-0,267	-0,058
122,064	39,803	-0,192	-0,121
123,079	-60,087	-0,208	0,062
124,093	166,499	-0,251	-0,249
125,108	55,636	-0,121	-0,082
126,122	208,231	-0,196	-0,215
127,137	185,877	-0,222	-0,231
128,151	-1,647	-0,288	-0,141
129,166	118,225	-0,142	-0,122
130,181	18,310	-0,425	-0,237
131,195	296,854	-0,157	-0,202
132,210	41,485	-0,321	-0,203
133,224	88,334	-0,228	-0,177
134,239	251,058	-0,247	-0,295
135,254	17,018	-0,266	-0,147
136,268	-55,569	-0,233	-0,073
137,283	6,991	-0,299	-0,155
138,297	-7,347	-0,306	-0,144
139,312	436,371	-0,184	-0,281
140,327	-33,237	-0,333	-0,128
141,341	24,767	-0,226	-0,130
142,356	-128,993	-0,219	-0,021
143,370	45,367	-0,212	-0,136
144,385	5,298	-0,262	-0,135
145,400	326,954	-0,233	-0,312
146,414	180,693	-0,241	-0,248
147,429	-13,629	-0,421	-0,190
148,443	228,170	-0,275	-0,313
149,458	31,640	-0,178	-0,107
150,473	138,313	-0,214	-0,197
151,487	754,391	-0,105	-0,199
152,502	53,918	-0,322	-0,216
153,516	-13,120	-0,311	-0,141
154,531	70,987	-0,269	-0,194
155,546	92,055	-0,223	-0,175
156,560	-44,744	-0,190	-0,066
157,575	384,308	-0,144	-0,207
158,589	2,630	-0,189	-0,095
159,604	332,613	-0,217	-0,293
160,619	249,977	-0,180	-0,214
161,633	-14,221	-0,227	-0,102
162,648	-25,309	-0,327	-0,134
163,662	194,666	-0,176	-0,187
164,677	36,295	-0,288	-0,177
165,692	85,930	-0,148	-0,113
166,706	-10,825	-0,266	-0,122
167,721	-99,444	-0,304	-0,053
168,735	-25,611	-0,290	-0,119
169,750	121,238	-0,198	-0,172
170,764	190,559	-0,190	-0,200
171,779	-54,196	-0,108	-0,034
172,794	800,000	-0,102	-0,267
173,808	634,845	-0,112	-0,199
174,823	126,976	-0,269	-0,238
175,837	7,599	-0,299	-0,155
176,852	800,000	-0,118	-0,281
177,867	-24,138	-0,153	-0,063
178,881	134,863	-0,221	-0,200
179,896	51,157	-0,181	-0,120
180,910	97,897	-0,134	-0,107
181,925	47,467	-0,248	-0,160
182,940	67,823	-0,252	-0,179
183,954	79,192	-0,279	-0,208
184,969	437,400	-0,187	-0,285
185,983	-28,358	-0,109	-0,043
186,998	19,279	-0,232	-0,130
188,013	182,589	-0,181	-0,186
189,027	-10,141	-0,425	-0,196
190,042	103,062	-0,268	-0,218
191,056	10,719	-0,226	-0,119
192,071	45,813	-0,268	-0,172
193,086	274,939	-0,211	-0,261
194,100	-46,842	-0,161	-0,055
195,115	105,356	-0,210	-0,173
196,129	-33,412	-0,187	-0,072
197,144	324,323	-0,183	-0,244
198,159	341,456	-0,124	-0,169
199,173	27,701	-0,220	-0,128
200,188	119,799	-0,176	-0,152
201,202	57,964	-0,156	-0,106
202,217	344,282	-0,060	-0,082
203,232	-18,978	-0,243	-0,105
204,246	-131,497	-0,260	-0,024
205,261	-165,990	-0,129	-0,004
206,275	63,948	-0,201	-0,140
207,290	533,430	-0,092	-0,152
208,304	1,152	-0,209	-0,104
209,319	300,222	-0,219	-0,281
210,334	183,744	-0,146	-0,150
211,348	-105,386	-0,217	-0,034
212,363	63,145	-0,173	-0,121
213,377	800,000	-0,113	-0,228
214,392	3,276	-0,267	-0,135
215,407	-22,959	-0,214	-0,089
216,421	-74,370	-0,117	0,029
217,436	-25,750	-0,182	-0,074
218,450	233,360	-0,173	-0,198
219,465	-25,639	-0,223	-0,091
220,480	0,703	-0,217	-0,108
221,494	178,256	-0,163	-0,165
222,509	37,082	-0,086	-0,053
223,523	800,000	-0,006	-0,014
224,538	-41,208	-0,240	-0,085
225,553	365,309	-0,109	-0,152
226,567	-6,996	-0,216	-0,101
227,582	185,160	-0,068	-0,070
228,596	-86,732	-0,160	-0,034
229,611	-48,047	-0,212	-0,070
230,626	-64,198	-0,072	-0,020
231,640	230,526	-0,134	-0,153
232,655	-1,157	-0,296	-0,145
233,669	32,653	-0,188	-0,113
234,684	606,681	-0,143	-0,248
235,699	-116,342	-0,157	0,020
236,713	178,593	-0,051	0,051
237,728	158,859	-0,128	-0,124
238,742	-9,491	-0,156	-0,072
239,757	173,585	-0,108	-0,109
240,772	-2,094	-0,229	-0,111
241,786	139,308	-0,239	-0,218
242,801	92,174	-0,115	-0,089
243,815	343,008	-0,082	-0,112
244,830	-3,942	-0,149	-0,071
245,844	137,957	-0,164	-0,149
246,859	42,738	-0,161	-0,101
247,874	126,559	-0,202	-0,177
248,888	-4,396	-0,214	-0,102
249,903	800,000	-0,083	-0,187
250,917	-162,935	-0,137	-0,005
251,932	555,771	-0,088	-0,148
252,947	800,000	-0,107	-0,264
253,961	-123,350	-0,279	-0,030
254,976	146,768	-0,194	-0,181
255,990	144,013	-0,148	-0,136
257,005	-128,356	-0,081	-0,008
258,020	-85,657	-0,105	-0,022
259,034	255,942	-0,203	-0,241
260,049	2,431	-0,321	-0,160
261,063	-72,673	-0,142	-0,036
262,078	-62,289	-0,168	-0,048
263,093	800,000	-0,089	-0,225
264,107	533,513	-0,088	-0,145
265,122	311,868	-0,182	-0,237
266,136	-65,947	-0,200	-0,055
267,151	161,318	-0,106	-0,102
268,166	404,828	-0,175	-0,256
269,180	800,000	-0,074	-0,224
270,195	-58,875	-0,183	-0,054
271,209	-139,838	-0,112	-0,008
272,224	-147,378	-0,153	-0,009
273,239	703,080	-0,055	-0,101
274,253	-131,620	-0,201	-0,018
275,268	127,835	-0,220	-0,193
276,282	217,637	-0,154	-0,170
277,297	-65,858	-0,279	-0,076
278,312	-115,992	-0,203	-0,026
279,326	-24,549	-0,255	-0,104
280,341	-18,740	-0,122	-0,052
281,355	156,138	-0,112	-0,107
282,370	759,768	-0,046	-0,087
283,384	96,539	-0,206	-0,163
284,399	135,208	-0,192	-0,172
285,414	97,732	-0,171	-0,135
286,428	-81,738	-0,138	-0,031
287,443	-62,060	-0,063	-0,018
288,457	-15,684	-0,282	-0,124
289,472	-140,842	-0,142	-0,010
290,487	496,304	-0,115	-0,183
291,501	800,000	-0,042	-0,128
292,516	371,638	-0,181	-0,255
293,530	262,855	-0,138	-0,165
294,545	-13,209	-0,191	-0,085
295,560	-90,359	-0,125	-0,025
296,574	15,057	-0,068	-0,037
297,589	315,540	-0,088	-0,115
298,603	3,840	-0,183	-0,092
299,618	348,594	-0,118	-0,161
300,633	800,000	-0,059	-0,118
301,647	-200,000	-0,007	-0,093
302,662	-109,917	-0,056	-0,008
303,676	321,138	-0,103	-0,136
304,691	10,915	-0,182	-0,095
305,706	-25,202	-0,153	-0,062
306,720	290,959	-0,174	-0,218
307,735	137,923	-0,124	-0,112
308,749	-112,490	-0,217	-0,030
309,764	218,215	-0,125	-0,138
310,779	-175,003	-0,084	-0,002
311,793	770,271	-0,066	-0,125
312,808	-96,808	-0,235	-0,042
313,822	212,857	-0,247	-0,269
314,837	142,729	-0,102	0,093
315,852	-200,000	-0,022	-0,130
316,866	800,000	-0,107	-0,216
317,881	-7,809	-0,110	-0,051
318,895	570,497	-0,105	-0,176
319,910	396,395	-0,178	-0,257
320,925	68,848	-0,265	-0,187
321,939	410,351	-0,084	-0,122
322,954	152,411	-0,138	-0,130
323,968	-108,933	-0,140	-0,020
324,983	155,705	-0,222	-0,211
325,997	55,686	-0,202	-0,134
327,012	38,791	-0,268	-0,164
328,027	47,573	-0,188	-0,120
329,041	-120,470	-0,175	-0,020
330,056	46,187	-0,249	-0,159
331,070	86,443	-0,113	-0,086
332,085	248,556	-0,088	-0,102
333,100	236,183	-0,096	-0,109
334,114	61,837	-0,192	-0,131
335,129	-200,000	-0,009	-0,165
336,143	-60,367	-0,137	-0,040
337,158	-200,000	0,020	-0,276
338,173	3,032	-0,058	0,029
339,187	-27,110	-0,113	-0,045
340,202	800,000	-0,061	-0,156
341,216	269,906	-0,143	-0,173
342,231	-91,962	-0,111	-0,021
343,246	-200,000	-0,040	-0,170
344,260	61,737	-0,075	-0,051
345,275	0,741	-0,079	-0,039
346,289	-47,884	-0,121	-0,040
347,304	-117,449	-0,037	0,005
348,319	-98,413	-0,122	0,021
349,333	264,079	-0,159	-0,191
350,348	-10,399	-0,123	-0,056
351,362	-51,343	-0,158	-0,050
352,377	775,219	-0,100	-0,188
353,392	55,261	-0,079	-0,052
354,406	800,000	-0,078	-0,214
355,421	209,970	1314,812	1416,551
356,435	161,621	1475,578	1417,062
