DTS Sentinel unit serial number:	SN410029Multiplexer serial number:	ORYXHardware model number:	OX2-SRSoftware version number:	ORYX F/W v4,00 Oryx Data Collector v3.7.2.0data status	okinstallation	B3 Nyhavnadifferential loss correction	single-endedforward channel	channel 1reverse channel	N/Adate	2023/11/29time	13:42:31forward acquisition time	300,00reverse acquisition time	0,00gamma	499,1914k internal	0,3212k external	0,3212temperature offset calibration	1,0000default loss term (dB/km)	0,3820temperature slope calibration	1,0000multiplexer offset coefficient	1,0000multiplexer slope coefficient	1,0000fibre end	0,00T internal ref (°C)	10,50T ext. ref 1 (°C)	-3,44T ext. ref 2 (°C)	-3,58length (m)	temperature (°C)	Stokes	anti-Stokes-744,400	740,131	-0,104	-0,203
-743,385	-200,000	0,067	0,366
-742,371	148,435	-0,101	-0,099
-741,356	-200,000	0,094	0,353
-740,342	180,585	-0,189	-0,201
-739,327	-200,000	0,010	0,343
-738,312	122,519	-0,160	-0,145
-737,298	-200,000	0,010	0,331
-736,283	453,750	-0,174	-0,280
-735,269	-200,000	0,052	0,233
-734,254	800,000	-0,051	-0,123
-733,239	64,827	-0,259	0,189
-732,225	800,000	-0,079	-0,187
-731,210	524,564	0,068	0,116
-730,196	-200,000	-0,008	-0,053
-729,181	36,675	-0,114	-0,073
-728,167	-200,000	0,020	-0,069
-727,152	135,519	-0,095	-0,089
-726,137	-200,000	0,029	-0,150
-725,123	462,576	-0,029	-0,047
-724,108	-168,820	-0,225	0,006
-723,094	440,642	0,044	-0,071
-722,079	480,321	0,090	-0,149
-721,064	800,000	0,028	-0,064
-720,050	-82,358	0,081	-0,019
-719,035	-200,000	-0,018	-0,169
-718,021	-200,000	-0,003	0,056
-717,006	-106,246	-0,026	0,004
-715,991	800,000	-0,056	-0,165
-714,977	800,000	-0,036	-0,103
-713,962	-50,484	-0,026	-0,009
-712,948	800,000	0,089	-0,209
-711,933	13,657	-0,029	0,016
-710,918	139,296	0,039	0,037
-709,904	800,000	-0,059	-0,146
-708,889	-200,000	0,001	-0,108
-707,875	-59,087	-0,142	0,044
-706,860	-68,691	-0,047	-0,013
-705,845	800,000	0,060	0,141
-704,831	800,000	-0,040	0,083
-703,816	283,695	0,129	0,169
-702,802	-200,000	-0,044	-0,139
-701,787	442,586	-0,121	-0,193
-700,772	-8,148	0,115	-0,056
-699,758	-137,994	0,078	0,006
-698,743	51,295	-0,044	0,030
-697,729	-200,000	-0,020	-0,091
-696,714	50,620	0,085	-0,058
-695,699	-200,000	0,011	-0,092
-694,685	800,000	0,014	-0,036
-693,670	-200,000	-0,011	-0,232
-692,656	-78,536	0,121	0,030
-691,641	-151,975	0,118	0,006
-690,627	-65,697	0,092	0,026
-689,612	-62,452	0,048	0,014
-688,597	800,000	-0,034	0,100
-687,583	70,507	0,047	0,035
-686,568	476,031	0,028	-0,046
-685,554	238,537	0,064	0,077
-684,539	-53,704	0,040	-0,013
-683,524	239,457	-0,014	0,016
-682,510	-47,235	0,066	-0,023
-681,495	536,847	-0,051	-0,088
-680,481	53,454	-0,140	-0,097
-679,466	-40,593	-0,093	-0,035
-678,451	-113,826	0,088	-0,012
-677,437	7,472	-0,099	0,054
-676,422	-173,426	-0,130	-0,003
-675,408	173,164	0,035	0,037
-674,393	53,026	-0,041	0,028
-673,378	-114,004	0,070	0,010
-672,364	255,558	-0,006	0,008
-671,349	-200,000	-0,005	-0,167
-670,335	136,652	0,098	0,093
-669,320	-25,339	0,076	0,033
-668,305	-175,805	-0,041	0,001
-667,291	550,057	-0,045	0,078
-666,276	-149,565	0,116	0,006
-665,262	-173,219	-0,157	-0,003
-664,247	-200,000	0,002	-0,061
-663,232	428,978	-0,087	-0,136
-662,218	371,473	-0,045	-0,066
-661,203	101,616	-0,086	0,073
-660,189	-144,977	0,070	-0,005
-659,174	232,888	-0,040	0,047
-658,159	602,518	0,014	0,025
-657,145	197,016	-0,053	-0,059
-656,130	278,998	0,076	0,099
-655,116	-200,000	0,002	0,046
-654,101	-142,135	0,052	0,004
-653,086	800,000	0,006	-0,015
-652,072	51,753	-0,112	-0,077
-651,057	-63,395	-0,154	-0,046
-650,043	-200,000	-0,006	-0,212
-649,028	-145,677	0,072	-0,005
-648,014	65,911	0,085	0,062
-646,999	-3,584	-0,080	0,040
-645,984	-200,000	-0,002	-0,098
-644,970	495,324	-0,061	-0,101
-643,955	25,383	0,062	0,037
-642,941	-94,702	0,136	0,026
-641,926	800,000	-0,018	0,056
-640,911	40,500	0,096	0,062
-639,897	800,000	0,035	-0,084
-638,882	-77,120	-0,127	0,032
-637,868	800,000	0,054	0,110
-636,853	84,598	-0,159	-0,125
-635,838	-85,007	-0,107	0,024
-634,824	-119,873	0,043	-0,005
-633,809	558,540	0,112	0,195
-632,795	556,949	0,036	-0,062
-631,780	-200,000	0,011	0,064
-630,765	-200,000	-0,004	-0,018
-629,751	-200,000	-0,026	-0,089
-628,736	-200,000	0,011	-0,069
-627,722	-200,000	-0,089	-0,000
-626,707	783,121	0,050	-0,100
-625,692	32,104	-0,007	0,005
-624,678	-134,992	0,125	0,011
-623,663	311,251	-0,041	-0,055
-622,649	253,236	-0,092	0,113
-621,634	-53,048	-0,084	0,028
-620,619	-90,868	-0,136	0,028
-619,605	-28,589	0,128	-0,053
-618,590	800,000	0,015	-0,040
-617,576	326,377	0,025	0,035
-616,561	-200,000	-0,014	-0,148
-615,546	236,787	-0,047	-0,056
-614,532	-200,000	-0,010	-0,211
-613,517	-90,213	-0,060	0,012
-612,503	800,000	0,047	-0,128
-611,488	-78,551	-0,075	0,018
-610,474	16,109	0,041	-0,023
-609,459	800,000	-0,055	0,112
-608,444	62,843	-0,056	-0,040
-607,430	80,981	-0,050	0,039
-606,415	-148,647	0,096	0,006
-605,401	345,422	-0,017	0,025
-604,386	-45,485	-0,031	-0,011
-603,371	86,038	0,072	0,057
-602,357	-200,000	-0,021	0,072
-601,342	290,794	0,037	-0,049
-600,328	-200,000	-0,014	-0,094
-599,313	-76,913	0,116	-0,029
-598,298	219,624	-0,119	0,138
-597,284	8,162	-0,028	-0,015
-596,269	-200,000	-0,004	-0,060
-595,255	-68,374	0,158	-0,044
-594,240	-64,083	0,091	0,027
-593,225	71,548	0,017	0,012
-592,211	204,177	0,033	-0,037
-591,196	44,662	-0,009	0,006
-590,182	-98,401	0,145	0,027
-589,167	-200,000	0,032	0,150
-588,152	211,925	-0,084	0,095
-587,138	800,000	-0,055	-0,112
-586,123	-200,000	-0,021	-0,115
-585,109	449,531	0,009	-0,014
-584,094	-200,000	-0,005	-0,092
-583,079	-200,000	0,019	-0,124
-582,065	-129,639	0,130	-0,013
-581,050	-200,000	-0,028	0,157
-580,036	-37,696	-0,070	-0,027
-579,021	800,000	0,011	-0,028
-578,006	-59,204	-0,094	-0,029
-576,992	-184,497	-0,115	0,001
-575,977	304,338	0,054	-0,072
-574,963	-39,606	0,103	-0,039
-573,948	66,447	0,025	-0,019
-572,934	44,667	-0,053	0,035
-571,919	63,728	0,038	0,027
-570,904	137,942	0,060	-0,057
-569,890	151,913	0,086	-0,084
-568,875	112,857	0,067	0,059
-567,861	8,532	0,119	0,064
-566,846	-200,000	-0,038	0,000
-565,831	-145,668	0,072	-0,005
-564,817	-108,798	-0,044	0,007
-563,802	-200,000	-0,004	-0,096
-562,788	154,847	0,056	-0,056
-561,773	579,183	-0,034	0,061
-560,758	-136,725	0,071	0,006
-559,744	800,000	-0,036	0,085
-558,729	225,455	-0,024	-0,028
-557,715	-200,000	-0,003	-0,069
-556,700	-121,049	-0,058	0,007
-555,685	62,783	-0,048	0,035
-554,671	-86,320	0,113	-0,025
-553,656	-200,000	0,009	-0,078
-552,642	-98,403	0,162	0,030
-551,627	158,769	-0,063	0,063
-550,612	312,555	0,102	-0,138
-549,598	-49,667	-0,096	-0,033
-548,583	416,183	0,088	-0,135
-547,569	48,637	0,103	0,070
-546,554	-87,553	0,018	-0,004
-545,539	-139,616	0,151	0,011
-544,525	800,000	-0,050	-0,103
-543,510	800,000	-0,025	-0,068
-542,496	68,155	-0,128	-0,094
-541,481	16,559	-0,068	0,038
-540,466	170,367	0,072	0,074
-539,452	-157,741	0,068	-0,003
-538,437	-200,000	0,005	0,060
-537,423	-200,000	0,026	0,102
-536,408	20,210	-0,076	0,044
-535,393	800,000	-0,073	-0,161
-534,379	328,849	-0,064	-0,089
-533,364	431,681	0,060	-0,094
-532,350	800,000	-0,036	0,080
-531,335	-110,439	-0,052	-0,008
-530,321	-89,618	0,031	0,006
-529,306	-200,000	0,007	0,087
-528,291	392,556	0,047	-0,070
-527,277	-200,000	-0,029	-0,137
-526,262	297,056	0,097	0,128
-525,248	10,048	0,082	0,045
-524,233	617,578	0,085	0,154
-523,218	-16,733	-0,156	0,071
-522,204	111,587	0,042	-0,036
-521,189	204,880	-0,086	-0,096
-520,175	143,338	0,036	-0,034
-519,160	645,056	0,038	-0,070
-518,145	375,214	-0,043	0,063
-517,131	-200,000	0,032	0,202
-516,116	266,941	0,142	0,179
-515,102	-0,360	-0,040	0,021
-514,087	800,000	0,018	0,051
-513,072	-200,000	-0,029	0,131
-512,058	-36,908	-0,135	0,052
-511,043	70,083	-0,079	-0,058
-510,029	-200,000	-0,009	-0,055
-509,014	-95,458	-0,018	-0,003
-507,999	800,000	-0,052	-0,109
-506,985	60,733	-0,093	0,066
-505,970	-90,228	0,033	0,007
-504,956	-104,447	-0,100	-0,016
-503,941	311,849	-0,016	0,022
-502,926	306,178	-0,051	0,068
-501,912	245,593	0,075	0,091
-500,897	-185,763	-0,027	0,000
-499,883	-132,359	-0,017	-0,002
-498,868	-95,397	-0,085	0,016
-497,853	192,147	-0,009	0,010
-496,839	-78,779	0,093	0,023
-495,824	-46,285	0,117	0,041
-494,810	-200,000	-0,022	0,093
-493,795	0,429	0,084	0,043
-492,781	-139,771	0,142	-0,011
-491,766	800,000	-0,060	-0,146
-490,751	-154,601	0,116	0,005
-489,737	-1,423	0,095	0,048
-488,722	800,000	-0,033	0,099
-487,708	800,000	0,018	0,056
-486,693	175,079	0,059	-0,061
-485,678	113,483	-0,118	0,103
-484,664	729,527	0,018	-0,035
-483,649	515,677	-0,042	-0,071
-482,635	33,769	0,081	0,050
-481,620	800,000	-0,017	0,052
-480,605	800,000	0,030	-0,090
-479,591	101,253	-0,054	-0,045
-478,576	23,395	0,080	0,047
-477,562	18,992	-0,077	-0,044
-476,547	-139,219	-0,086	-0,007
-475,532	109,834	0,110	0,095
-474,518	1,421	-0,018	0,009
-473,503	268,272	0,041	0,051
-472,489	55,516	0,082	-0,057
-471,474	272,459	0,081	0,103
-470,459	800,000	-0,018	-0,053
-469,445	-200,000	0,011	-0,040
-468,430	141,369	-0,064	0,061
-467,416	398,747	-0,024	-0,037
-466,401	-200,000	-0,005	-0,041
-465,386	-78,099	0,116	-0,028
-464,372	-36,623	-0,098	-0,038
-463,357	-82,991	-0,097	-0,022
-462,343	-35,077	0,050	-0,020
-461,328	330,673	0,097	-0,135
-460,313	-107,330	0,102	0,016
-459,299	-102,575	-0,093	0,016
-458,284	-200,000	0,017	-0,063
-457,270	9,633	0,279	-0,151
-456,255	-82,921	0,096	-0,022
-455,241	800,000	-0,052	0,118
-454,226	-21,557	-0,127	-0,055
-453,211	141,912	0,051	-0,048
-452,197	800,000	0,048	0,152
-451,182	126,151	-0,093	0,084
-450,168	534,975	0,021	0,035
-449,153	66,997	-0,057	-0,041
-448,138	800,000	0,029	-0,061
-447,124	-200,000	-0,026	-0,196
-446,109	275,234	0,004	-0,005
-445,095	-135,669	-0,073	-0,006
-444,080	-71,158	0,055	-0,015
-443,065	66,080	-0,069	-0,050
-442,051	-200,000	-0,015	0,198
-441,036	-50,371	0,131	-0,044
-440,022	-23,964	-0,103	-0,044
-439,007	17,573	0,047	-0,027
-437,992	224,888	-0,080	0,093
-436,978	382,275	0,004	0,006
-435,963	312,019	0,066	0,089
-434,949	-200,000	-0,011	0,061
-433,934	800,000	-0,019	-0,058
-432,919	82,140	-0,063	-0,049
-431,905	136,683	0,050	-0,047
-430,890	-87,290	-0,143	0,031
-429,876	2,605	0,131	0,068
-428,861	-4,890	0,153	-0,075
-427,846	-200,000	-0,017	0,083
-426,832	800,000	-0,059	-0,127
-425,817	-200,000	-0,014	-0,107
-424,803	141,407	0,065	-0,062
-423,788	-41,494	-0,107	-0,039
-422,773	-200,000	-0,019	0,078
-421,759	-200,000	0,031	0,135
-420,744	-99,774	-0,197	0,035
-419,730	-106,087	-0,029	0,005
-418,715	-200,000	-0,013	-0,089
-417,701	-200,000	0,054	-0,174
-416,686	800,000	-0,044	-0,108
-415,671	311,144	-0,032	-0,042
-414,657	-35,508	-0,027	-0,011
-413,642	155,974	0,092	0,091
-412,628	601,588	-0,046	0,082
-411,613	-159,213	0,023	-0,001
-410,598	196,163	-0,058	0,063
-409,584	-200,000	-0,007	0,060
-408,569	-200,000	-0,014	0,125
-407,555	-38,113	-0,043	-0,016
-406,540	-200,000	-0,004	0,040
-405,525	-200,000	-0,033	-0,201
-404,511	689,624	0,043	-0,080
-403,496	800,000	0,016	0,040
-402,482	68,260	-0,052	0,038
-401,467	-200,000	0,009	0,092
-400,452	-200,000	0,018	-0,109
-399,438	43,148	0,141	0,092
-398,423	454,559	0,102	0,163
-397,409	-200,000	-0,008	-0,053
-396,394	-137,899	-0,114	0,009
-395,379	-123,149	-0,089	0,010
-394,365	150,677	-0,057	0,056
-393,350	-121,264	0,059	0,007
-392,336	530,647	-0,053	0,090
-391,321	447,000	0,018	-0,028
-390,306	198,183	0,035	-0,038
-389,292	-123,126	-0,111	-0,013
-388,277	148,257	-0,006	0,005
-387,263	-200,000	0,019	0,059
-386,248	706,611	0,060	0,114
-385,233	204,877	0,069	0,077
-384,219	776,593	0,022	0,044
-383,204	-134,879	0,055	-0,005
-382,190	242,422	-0,010	0,012
-381,175	800,000	-0,018	0,054
-380,160	-200,000	-0,007	0,080
-379,146	-114,371	0,104	0,014
-378,131	-200,000	0,004	-0,046
-377,117	349,099	-0,079	0,112
-376,102	-121,812	-0,033	0,004
-375,088	144,540	-0,074	0,071
-374,073	-148,500	0,122	-0,007
-373,058	-76,490	-0,072	0,018
-372,044	-60,001	0,106	-0,032
-371,029	330,837	-0,021	-0,029
-370,015	-112,363	0,062	0,009
-369,000	207,433	-0,040	-0,044
-367,985	386,640	-0,055	-0,081
-366,971	-78,507	-0,085	0,021
-365,956	-29,585	0,084	-0,034
-364,942	-200,000	-0,002	0,041
-363,927	189,566	0,039	-0,041
-362,912	-129,714	0,084	0,008
-361,898	-11,470	-0,104	-0,048
-360,883	-48,433	-0,023	-0,008
-359,869	-116,038	-0,076	-0,010
-358,854	60,788	0,121	-0,086
-357,839	86,949	-0,012	-0,010
-356,825	-62,022	-0,017	-0,005
-355,810	-200,000	0,009	0,130
-354,796	-13,718	0,111	-0,051
-353,781	330,468	-0,019	0,026
-352,766	-112,562	-0,125	-0,018
-351,752	-31,988	-0,019	0,007
-350,737	165,800	0,042	0,042
-349,723	-200,000	0,018	-0,071
-348,708	-146,246	-0,057	0,004
-347,693	91,710	-0,050	-0,040
-346,679	-200,000	-0,002	-0,117
-345,664	-200,000	-0,009	0,041
-344,650	186,675	-0,025	-0,027
-343,635	174,161	-0,044	0,046
-342,620	-155,213	-0,138	0,006
-341,606	-200,000	0,011	-0,091
-340,591	-200,000	-0,012	-0,079
-339,577	-73,317	-0,099	-0,026
-338,562	-50,177	0,020	0,007
-337,548	-79,298	-0,032	0,008
-336,533	114,121	0,154	0,134
-335,518	-104,377	-0,205	-0,034
-334,504	800,000	0,020	0,056
-333,489	-104,994	-0,081	0,013
-332,475	78,999	-0,018	-0,014
-331,460	-126,791	-0,095	-0,010
-330,445	-200,000	-0,039	-0,177
-329,431	-200,000	0,026	0,086
-328,416	-122,038	0,039	0,004
-327,402	48,957	0,104	-0,070
-326,387	-53,037	-0,159	-0,052
-325,372	49,927	-0,187	-0,126
-324,358	-33,248	-0,041	0,016
-323,343	-200,000	-0,004	0,025
-322,329	30,062	0,135	-0,082
-321,314	220,534	0,033	-0,038
-320,299	494,924	0,092	0,152
-319,285	18,756	0,083	-0,047
-318,270	-26,637	-0,130	-0,054
-317,256	-116,444	-0,046	0,006
-316,241	-200,000	-0,011	0,060
-315,226	204,687	0,084	0,093
-314,212	-31,392	0,079	-0,031
-313,197	800,000	0,027	0,075
-312,183	-9,992	-0,069	0,032
-311,168	-186,774	-0,080	0,001
-310,153	244,999	-0,129	-0,155
-309,139	39,939	-0,064	-0,041
-308,124	-114,010	-0,162	0,022
-307,110	277,283	0,080	0,102
-306,095	-200,000	0,024	-0,101
-305,080	-200,000	0,039	0,132
-304,066	-179,969	0,034	0,000
-303,051	800,000	-0,023	-0,070
-302,037	369,127	-0,054	0,077
-301,022	147,035	-0,065	0,062
-300,008	-200,000	-0,011	-0,121
-298,993	28,131	0,029	-0,017
-297,978	-200,000	0,016	0,054
-296,964	-200,000	-0,016	0,074
-295,949	-52,441	-0,124	0,041
-294,935	-108,376	0,026	0,004
-293,920	261,768	0,088	0,108
-292,905	-101,138	0,119	-0,021
-291,891	61,360	0,043	0,030
-290,876	91,668	0,044	0,035
-289,862	-200,000	-0,006	0,097
-288,847	543,368	0,047	-0,080
-287,832	413,141	0,069	-0,105
-286,818	-200,000	0,005	-0,070
-285,803	-9,061	0,127	0,060
-284,789	15,983	0,024	0,013
-283,774	-92,477	-0,087	-0,017
-282,759	-200,000	-0,017	-0,178
-281,745	-65,217	-0,078	0,022
-280,730	24,981	-0,176	0,104
-279,716	-200,000	0,021	0,109
-278,701	-200,000	-0,009	0,060
-277,686	279,576	0,042	0,054
-276,672	-49,947	-0,024	0,008
-275,657	28,690	-0,095	0,057
-274,643	108,365	-0,047	-0,040
-273,628	164,335	-0,106	-0,106
-272,613	414,105	0,006	0,009
-271,599	-100,649	0,131	0,023
-270,584	-200,000	0,009	-0,048
-269,570	-200,000	-0,002	-0,041
-268,555	36,394	0,054	0,034
-267,540	19,203	-0,132	-0,075
-266,526	-200,000	-0,035	-0,154
-265,511	-5,387	-0,148	-0,072
-264,497	113,800	0,054	-0,047
-263,482	-21,036	0,044	-0,019
-262,467	43,361	0,057	0,037
-261,453	-200,000	-0,001	0,019
-260,438	267,595	-0,040	-0,051
-259,424	-163,465	-0,067	0,002
-258,409	-200,000	0,004	-0,124
-257,395	-200,000	0,044	0,143
-256,380	-200,000	0,012	0,097
-255,365	25,764	0,066	0,039
-254,351	-200,000	0,011	0,108
-253,336	-200,000	0,007	0,041
-252,322	24,666	-0,020	-0,012
-251,307	-27,260	0,014	0,006
-250,292	267,407	0,076	-0,094
-249,278	-200,000	0,009	0,062
-248,263	800,000	-0,043	0,123
-247,249	-51,120	0,087	0,029
-246,234	-117,214	-0,056	0,007
-245,219	-99,349	-0,015	0,003
-244,205	180,906	-0,055	0,058
-243,190	-151,173	-0,127	-0,007
-242,176	-200,000	0,000	0,070
-241,161	-200,000	-0,009	0,081
-240,146	303,134	-0,009	0,011
-239,132	138,483	0,019	-0,018
-238,117	-200,000	0,012	-0,159
-237,103	-200,000	-0,007	0,065
-236,088	-200,000	-0,006	0,022
-235,073	668,354	0,016	-0,029
-234,059	800,000	-0,040	0,108
-233,044	595,777	-0,033	-0,058
-232,030	191,600	0,083	-0,088
-231,015	115,678	-0,159	0,138
-230,000	-32,378	0,107	0,042
-228,986	-42,368	-0,039	-0,014
-227,971	-121,026	-0,090	-0,011
-226,957	-123,757	0,097	0,011
-225,942	101,189	0,089	-0,074
-224,927	-29,602	0,101	0,041
-223,913	-48,128	-0,040	0,014
-222,898	-200,000	0,021	-0,102
-221,884	-11,349	0,029	-0,014
-220,869	33,449	0,130	0,080
-219,855	-200,000	0,024	0,171
-218,840	-82,088	0,073	-0,017
-217,825	800,000	0,017	-0,050
-216,811	-34,846	0,060	0,023
-215,796	241,100	-0,094	-0,111
-214,782	-200,000	0,012	0,060
-213,767	-110,632	-0,028	0,004
-212,752	-200,000	-0,003	0,022
-211,738	2,336	-0,070	0,036
-210,723	800,000	0,029	0,059
-209,709	-200,000	0,016	-0,135
-208,694	-25,954	-0,170	-0,071
-207,679	309,732	0,075	-0,099
-206,665	195,346	0,025	0,027
-205,650	52,353	0,028	-0,019
-204,636	500,245	0,055	0,090
-203,621	-83,871	0,031	-0,007
-202,606	-34,234	-0,105	-0,041
-201,592	-200,000	-0,012	-0,103
-200,577	-109,061	0,027	0,004
-199,563	52,224	0,054	0,037
-198,548	148,456	0,070	0,068
-197,533	-200,000	0,021	0,133
-196,519	-200,000	-0,017	0,098
-195,504	337,391	0,018	0,025
-194,490	-45,899	0,038	-0,013
-193,475	315,223	-0,060	0,081
-192,460	-179,853	-0,055	0,001
-191,446	48,342	0,056	-0,037
-190,431	2,482	-0,068	-0,035
-189,417	181,415	-0,086	0,089
-188,402	-200,000	0,035	0,135
-187,387	24,224	-0,037	0,022
-186,373	764,008	-0,023	0,044
-185,358	-149,036	0,159	-0,009
-184,344	27,819	0,133	-0,079
-183,329	137,579	0,053	0,049
-182,315	344,219	0,072	0,100
-181,300	-115,136	0,154	0,020
-180,285	50,051	0,055	-0,037
-179,271	65,164	-0,058	-0,042
-178,256	543,847	0,055	-0,094
-177,242	-174,940	-0,082	-0,002
-176,227	701,961	0,050	0,094
-175,212	-107,074	-0,134	-0,021
-174,198	800,000	-0,016	-0,045
-173,183	-200,000	-0,013	-0,087
-172,169	98,334	-0,004	-0,003
-171,154	-50,547	-0,124	0,041
-170,139	279,302	-0,021	-0,026
-169,125	156,503	-0,016	-0,016
-168,110	199,706	-0,030	-0,033
-167,096	653,012	0,087	0,159
-166,081	800,000	-0,045	-0,101
-165,066	-110,373	-0,099	0,014
-164,052	-200,000	-0,007	-0,044
-163,037	-200,000	0,033	-0,139
-162,023	1,075	-0,090	-0,046
-161,008	40,278	0,031	0,020
-159,993	-155,564	0,179	-0,008
-158,979	115,122	-0,032	-0,028
-157,964	-38,309	-0,078	-0,029
-156,950	47,328	-0,099	-0,065
-155,935	-200,000	0,003	-0,061
-154,920	15,367	-0,128	-0,071
-153,906	35,968	-0,064	-0,040
-152,891	-29,756	0,038	-0,015
-151,877	406,371	-0,046	-0,068
-150,862	-190,110	-0,073	0,001
-149,847	-200,000	-0,007	-0,060
-148,833	800,000	-0,024	0,059
-147,818	22,318	0,193	-0,111
-146,804	-68,429	-0,004	-0,001
-145,789	-89,848	0,088	-0,018
-144,775	-17,156	-0,128	0,057
-143,760	10,963	-0,059	-0,032
-142,745	73,880	-0,063	0,047
-141,731	-34,311	-0,074	0,029
-140,716	-31,554	0,118	0,047
-139,702	-113,281	0,065	-0,009
-138,687	-16,890	-0,057	-0,025
-137,672	158,989	-0,077	0,076
-136,658	-200,000	-0,029	-0,162
-135,643	-28,917	0,135	-0,055
-134,629	800,000	-0,022	0,043
-133,614	6,409	0,115	-0,060
-132,599	20,555	-0,160	0,091
-131,585	30,722	-0,112	-0,068
-130,570	-200,000	-0,014	0,131
-129,556	-8,840	0,031	-0,015
-128,541	389,692	-0,104	-0,153
-127,526	-113,002	0,023	-0,003
-126,512	-67,661	0,054	-0,015
-125,497	-149,868	0,114	0,006
-124,483	159,907	0,066	-0,065
-123,468	800,000	-0,021	-0,062
-122,453	410,558	0,047	-0,070
-121,439	-200,000	-0,010	0,060
-120,424	134,833	0,054	-0,049
-119,410	100,090	-0,077	0,063
-118,395	99,490	-0,091	0,074
-117,380	-130,702	0,098	-0,009
-116,366	318,450	0,093	0,125
-115,351	-23,551	-0,150	0,063
-114,337	-200,000	0,003	-0,114
-113,322	-68,881	-0,173	0,047
-112,307	-200,000	-0,004	-0,033
-111,293	-77,335	0,067	-0,016
-110,278	-11,703	0,098	0,045
-109,264	61,462	0,018	0,013
-108,249	-200,000	-0,007	0,067
-107,234	-128,217	0,049	-0,005
-106,220	800,000	-0,039	0,103
-105,205	-64,554	0,112	-0,032
-104,191	751,802	-0,071	0,136
-103,176	-44,034	0,141	0,050
-102,162	78,426	-0,100	0,076
-101,147	-103,491	-0,089	-0,015
-100,132	203,423	0,020	-0,022
-99,118	354,742	0,035	0,049
-98,103	-90,347	0,095	0,019
-97,089	800,000	0,034	-0,074
-96,074	-60,573	-0,063	0,019
-95,059	-57,001	-0,179	0,056
-94,045	-200,000	0,021	-0,120
-93,030	-84,936	-0,135	-0,030
-92,016	800,000	-0,012	-0,026
-91,001	-41,080	-0,113	-0,041
-89,986	-200,000	0,029	0,113
-88,972	800,000	-0,035	-0,070
-87,957	-200,000	0,008	0,109
-86,943	-120,035	0,065	0,008
-85,928	-42,457	-0,096	0,034
-84,913	-200,000	0,011	-0,187
-83,899	105,373	-0,084	-0,070
-82,884	-200,000	0,005	-0,080
-81,870	208,418	0,016	0,018
-80,855	281,317	0,045	0,057
-79,840	800,000	0,080	0,169
-78,826	800,000	-0,017	0,039
-77,811	122,099	-0,068	0,060
-76,797	-30,329	-0,050	0,020
-75,782	800,000	-0,045	0,094
-74,767	4,427	0,121	-0,062
-73,753	251,379	-0,082	0,099
-72,738	-12,931	-0,175	-0,080
-71,724	-200,000	0,054	-0,221
-70,709	-200,000	-0,013	-0,091
-69,694	-90,192	-0,191	-0,039
-68,680	95,382	0,069	-0,056
-67,665	-105,095	0,230	-0,037
-66,651	18,409	0,112	0,063
-65,636	230,661	0,077	-0,089
-64,622	-33,581	-0,049	-0,019
-63,607	800,000	0,026	0,075
-62,592	29,753	-0,120	-0,072
-61,578	-139,060	0,116	0,009
-60,563	-20,333	-0,071	0,031
-59,549	-48,832	-0,159	-0,053
-58,534	31,539	-1,902	-1,151
-57,519	448,034	-1,262	-1,968
-56,505	-200,000	-0,318	-4,407
-55,490	610,500	0,781	1,384
-54,476	800,000	5,071	11,242
-53,461	-200,000	20,980	334,753
-52,446	800,000	758,107	2335,114
-51,432	552,208	1661,842	2827,420
-50,417	73,284	1663,040	1226,204
-49,403	18,375	1536,051	863,334
-48,388	12,339	1458,990	790,833
-47,373	19,289	1449,969	819,262
-46,359	15,691	1439,299	796,089
-45,344	10,613	1435,179	769,607
-44,330	10,507	1433,275	768,051
-43,315	10,534	1431,253	767,066
-42,300	10,565	1429,514	766,248
-41,286	10,599	1428,138	765,644
-40,271	10,502	1427,082	764,586
-39,257	10,527	1425,883	764,030
-38,242	10,594	1424,494	763,571
-37,227	10,513	1423,683	762,724
-36,213	10,587	1422,294	762,301
-35,198	10,582	1421,001	761,555
-34,184	10,641	1420,183	761,364
-33,169	10,555	1419,033	760,313
-32,154	10,588	1418,028	759,897
-31,140	10,574	1416,604	759,037
-30,125	10,614	1415,769	758,750
-29,111	10,617	1414,347	757,971
-28,096	10,598	1413,353	757,320
-27,082	10,531	1412,158	756,333
-26,067	10,478	1411,301	755,599
-25,052	10,554	1410,138	755,300
-24,038	10,570	1409,023	754,750
-23,023	10,538	1408,392	754,230
-22,009	10,576	1406,976	753,621
-20,994	10,505	1406,019	752,745
-19,979	10,500	1405,360	752,339
-18,965	10,493	1404,218	751,664
-17,950	10,426	1403,335	750,852
-16,936	10,478	1402,656	750,701
-15,921	10,422	1401,561	749,823
-14,906	10,455	1400,709	749,492
-13,892	10,451	1399,661	748,883
-12,877	10,415	1398,927	748,294
-11,863	10,451	1397,954	747,911
-10,848	10,427	1397,021	747,268
-9,833	10,381	1396,161	746,568
-8,819	10,308	1395,620	745,910
-7,804	10,340	1394,575	745,471
-6,790	10,364	1393,519	744,986
-5,775	10,390	1392,392	744,474
-4,760	10,358	1391,365	743,747
-3,746	10,350	1390,448	743,193
-2,731	10,296	1389,740	742,537
-1,717	10,312	1388,995	742,180
-0,702	10,344	1386,965	741,216
0,313	14,435	1300,517	713,721
1,327	30,811	691,313	416,547
2,342	47,896	119,743	78,732
3,356	0,408	16,544	8,304
4,371	9,319	3,432	1,824
5,386	22,792	0,967	0,557
6,400	800,000	0,177	0,524
7,415	-118,789	-0,292	-0,036
8,429	29,421	-0,310	-0,185
9,444	-26,534	-0,362	-0,149
10,459	-107,603	-0,302	0,046
11,473	97,149	-0,367	-0,297
12,488	-54,559	-0,312	-0,099
13,502	-50,113	-0,308	-0,102
14,517	35,556	-0,379	-0,234
15,531	-13,695	-0,571	-0,259
16,546	-61,970	-0,328	-0,096
17,561	-30,894	-0,305	-0,121
18,575	-190,726	-0,231	0,002
19,590	493,691	-0,146	-0,237
20,604	23,747	-0,211	-0,122
21,619	36,785	-0,487	-0,302
22,634	122,130	-0,466	-0,409
23,648	25,369	-0,342	-0,199
24,663	61,763	-0,467	-0,327
25,677	45,345	-0,408	-0,264
26,692	-11,621	-0,404	-0,186
27,707	337,373	-0,280	-0,384
28,721	29,862	-0,375	-0,224
29,736	166,045	-0,253	-0,252
30,750	148,710	-0,355	-0,338
31,765	31,685	-0,449	-0,271
32,780	235,007	-0,216	-0,251
33,794	154,788	-0,299	-0,289
34,809	-30,918	-0,359	-0,142
35,823	140,926	-0,293	-0,273
36,838	51,746	-0,357	-0,238
37,853	19,571	-0,378	-0,213
38,867	163,496	-0,358	-0,354
39,882	25,863	-0,357	-0,209
40,896	30,338	-0,267	-0,160
41,911	-128,424	-0,384	-0,038
42,926	-46,162	-0,480	-0,165
43,940	100,875	-0,321	-0,262
44,955	99,270	-0,315	-0,256
45,969	76,028	-0,246	-0,183
46,984	120,616	-0,345	-0,301
47,999	43,284	-0,363	-0,232
49,013	82,396	-0,327	-0,249
50,028	-21,125	-0,394	-0,169
51,042	176,153	-0,209	-0,213
52,057	48,030	-0,365	-0,239
53,071	9,478	-0,393	-0,208
54,086	55,223	-0,206	-0,139
55,101	207,428	-0,259	-0,284
56,115	61,330	-0,281	-0,196
57,130	-10,077	-0,286	-0,133
58,144	49,042	-0,374	-0,246
59,159	205,210	-0,170	-0,185
60,174	42,912	-0,423	-0,270
61,188	-11,113	-0,356	-0,164
62,203	68,232	-0,311	-0,223
63,217	32,228	-0,394	-0,238
64,232	127,233	-0,184	-0,164
65,247	86,263	-0,406	-0,313
66,261	167,374	-0,317	-0,316
67,276	89,115	-0,310	-0,242
68,290	93,744	-0,362	-0,287
69,305	1,832	-0,426	-0,215
70,320	76,332	-0,363	-0,269
71,334	58,029	-0,348	-0,239
72,349	-33,906	-0,288	-0,111
73,363	421,704	-0,240	-0,361
74,378	213,206	-0,295	-0,327
75,393	44,037	-0,317	-0,203
76,407	56,166	-0,280	-0,190
77,422	3,615	-0,285	-0,145
78,436	123,816	-0,272	-0,239
79,451	-57,692	-0,409	-0,125
80,466	126,540	-0,294	-0,260
81,480	-5,756	-0,325	-0,155
82,495	4,410	-0,180	-0,092
83,509	40,544	-0,260	-0,164
84,524	-101,240	-0,310	-0,053
85,539	-38,570	-0,253	-0,093
86,553	0,309	-0,228	-0,113
87,568	115,648	-0,296	-0,253
88,582	179,747	-0,393	-0,404
89,597	59,128	-0,431	-0,296
90,611	264,793	-0,202	-0,246
91,626	160,880	-0,183	-0,179
92,641	15,574	-0,173	-0,095
93,655	-63,454	-0,356	-0,102
94,670	5,528	-0,290	-0,150
95,684	11,718	-0,359	-0,192
96,699	163,181	-0,329	-0,324
97,714	319,397	-0,213	-0,283
98,728	228,877	-0,272	-0,311
99,743	139,887	-0,278	-0,256
100,757	1,246	-0,202	-0,101
101,772	61,897	-0,264	-0,184
102,787	-67,502	-0,207	-0,056
103,801	-7,883	-0,367	-0,172
104,816	240,860	-0,207	-0,242
105,830	-36,896	-0,319	-0,119
106,845	-60,269	-0,348	-0,103
107,860	21,971	-0,237	-0,135
108,874	183,097	-0,279	-0,289
109,889	67,024	-0,183	-0,130
110,903	-63,834	-0,241	-0,069
111,918	138,314	-0,225	-0,206
112,933	3,178	-0,223	-0,113
113,947	-51,687	-0,150	-0,049
114,962	472,368	-0,190	-0,299
115,976	70,112	-0,291	-0,210
116,991	-8,134	-0,342	-0,160
118,006	45,069	-0,263	-0,169
119,020	-10,295	-0,368	-0,170
120,035	-124,009	-0,198	-0,021
121,049	63,782	-0,203	-0,142
122,064	81,321	-0,184	-0,138
123,079	-34,811	-0,332	-0,126
124,093	-54,831	-0,246	-0,077
125,108	9,164	-0,222	-0,116
126,122	94,115	-0,283	-0,224
127,137	44,620	-0,255	-0,163
128,151	-139,857	-0,294	-0,021
129,166	-128,428	-0,214	0,021
130,181	26,878	-0,175	-0,102
131,195	-3,206	-0,346	-0,167
132,210	261,128	-0,222	-0,269
133,224	282,584	-0,159	-0,200
134,239	256,391	-0,201	-0,241
135,254	-34,215	-0,185	-0,070
136,268	-39,819	-0,307	-0,111
137,283	22,661	-0,301	-0,171
138,297	-68,864	-0,339	-0,091
139,312	72,595	-0,222	-0,161
140,327	-79,166	-0,294	-0,069
141,341	-33,037	-0,309	-0,119
142,356	-23,481	-0,232	-0,097
143,370	-61,268	-0,163	-0,047
144,385	85,166	-0,217	-0,166
145,400	-38,514	-0,281	-0,103
146,414	23,613	-0,192	-0,110
147,429	344,033	-0,199	-0,273
148,443	127,507	-0,241	-0,213
149,458	-38,076	-0,147	-0,054
150,473	-64,690	-0,256	-0,072
151,487	85,470	-0,223	-0,171
152,502	113,485	-0,244	-0,206
153,516	75,825	-0,206	-0,151
154,531	-74,489	-0,329	-0,082
155,546	19,278	-0,259	-0,145
156,560	-25,175	-0,184	-0,075
157,575	136,439	-0,182	-0,165
158,589	-47,764	-0,309	-0,104
159,604	-77,709	-0,231	-0,055
160,619	32,899	-0,319	-0,192
161,633	2,614	-0,227	-0,114
162,648	77,427	-0,225	-0,166
163,662	800,000	-0,063	-0,166
164,677	60,189	-0,146	-0,100
165,692	90,073	-0,179	-0,139
166,706	-60,311	-0,262	-0,077
167,721	800,000	-0,114	-0,270
168,735	251,978	-0,268	-0,317
169,750	-114,025	-0,258	-0,034
170,764	-27,271	-0,237	-0,095
171,779	68,721	-0,218	-0,155
172,794	-145,856	-0,296	-0,018
173,808	57,710	-0,173	-0,117
174,823	110,813	-0,221	-0,185
175,837	-5,054	-0,321	-0,153
176,852	47,645	-0,143	-0,092
177,867	41,050	-0,159	-0,100
178,881	-124,365	-0,169	-0,018
179,896	73,000	-0,179	-0,130
180,910	118,938	-0,191	-0,164
181,925	-116,909	-0,183	-0,023
182,940	319,940	-0,162	-0,214
183,954	173,151	-0,128	-0,128
184,969	68,738	-0,115	-0,082
185,983	-85,122	-0,208	-0,045
186,998	15,009	-0,216	-0,117
188,013	149,069	-0,161	-0,151
189,027	316,986	-0,133	-0,175
190,042	800,000	-0,074	-0,166
191,056	142,932	-0,106	-0,098
192,071	247,609	-0,189	-0,222
193,086	26,774	-0,241	-0,140
194,100	141,690	-0,210	-0,193
195,115	232,971	-0,104	-0,118
196,129	-30,950	-0,317	-0,123
197,144	132,563	-0,255	-0,228
198,159	-173,573	-0,402	-0,008
199,173	37,426	-0,112	-0,069
200,188	-19,242	-0,127	-0,054
201,202	-12,847	-0,101	-0,045
202,217	103,968	-0,126	-0,103
203,232	22,221	-0,205	-0,116
204,246	97,576	-0,197	-0,157
205,261	20,840	-0,298	-0,167
206,275	-112,642	-0,140	0,019
207,290	26,486	-0,263	-0,152
208,304	31,999	-0,168	-0,100
209,319	133,709	-0,119	-0,106
210,334	31,102	-0,251	-0,149
211,348	211,052	-0,161	-0,176
212,363	558,339	-0,116	-0,194
213,377	108,889	-0,255	-0,211
214,392	15,586	-0,163	-0,088
215,407	-95,978	-0,290	-0,053
216,421	44,940	-0,177	-0,112
217,436	116,516	-0,099	-0,084
218,450	7,509	-0,256	-0,132
219,465	-3,585	-0,143	-0,069
220,480	371,363	-0,165	-0,233
221,494	141,543	-0,127	-0,117
222,509	387,207	-0,108	-0,155
223,523	-81,001	-0,229	-0,052
224,538	101,677	-0,134	-0,108
225,553	358,823	-0,169	-0,234
226,567	56,656	-0,231	-0,155
227,582	-178,829	-0,151	-0,002
228,596	-75,865	-0,244	-0,059
229,611	767,751	-0,088	-0,166
230,626	48,562	-0,202	-0,130
231,640	-56,417	-0,182	-0,056
232,655	132,713	-0,247	-0,220
233,669	99,251	-0,217	-0,173
234,684	-87,225	-0,193	0,040
235,699	50,137	-0,164	-0,107
236,713	-2,205	-0,258	-0,125
237,728	72,563	-0,211	-0,152
238,742	201,363	-0,152	-0,162
239,757	255,324	-0,101	-0,119
240,772	-32,809	-0,215	-0,082
241,786	-50,216	-0,257	-0,083
242,801	-200,000	-0,027	-0,214
243,815	-72,510	-0,201	-0,051
244,830	6,037	-0,202	-0,103
245,844	55,308	-0,176	-0,118
246,859	409,166	-0,106	-0,155
247,874	122,111	-0,128	-0,110
248,888	310,044	-0,081	-0,105
249,903	800,000	-0,087	-0,216
250,917	-130,768	-0,114	0,010
251,932	90,369	-0,121	-0,093
252,947	204,712	-0,041	-0,044
253,961	427,598	-0,080	-0,120
254,976	143,695	-0,154	-0,142
255,990	449,368	-0,133	-0,202
257,005	211,296	-0,106	-0,115
258,020	800,000	-0,117	-0,232
259,034	-165,969	-0,224	-0,006
260,049	-48,225	-0,245	-0,081
261,063	31,268	-0,224	-0,132
262,078	-200,000	-0,023	-0,292
263,093	800,000	-0,063	-0,177
264,107	-36,076	-0,147	-0,054
265,122	95,601	-0,155	-0,122
266,136	14,238	-0,169	-0,091
267,151	-20,258	-0,160	-0,068
268,166	-41,627	-0,145	-0,051
269,180	345,914	-0,085	-0,116
270,195	-88,824	-0,209	-0,042
271,209	-100,045	-0,168	0,029
272,224	-115,326	-0,137	-0,018
273,239	-150,354	-0,139	0,007
274,253	117,431	-0,121	-0,103
275,268	40,667	-0,134	-0,083
276,282	164,883	-0,150	-0,146
277,297	-87,166	-0,240	-0,050
278,312	423,707	-0,093	-0,137
279,326	-51,642	-0,111	-0,036
280,341	-163,185	-0,148	-0,005
281,355	-144,546	-0,145	0,009
282,370	1,419	-0,206	-0,101
283,384	-14,140	-0,103	-0,046
284,399	-95,397	-0,300	-0,055
285,414	29,181	-0,303	-0,176
286,428	38,365	-0,162	-0,099
287,443	161,195	-0,071	-0,068
288,457	731,631	-0,092	-0,169
289,472	38,762	-0,106	-0,065
290,487	55,589	-0,237	-0,157
291,501	-30,164	-0,155	-0,060
292,516	296,998	-0,071	-0,090
293,530	800,000	0,027	-0,063
294,545	-74,352	-0,089	0,022
295,560	188,803	-0,161	-0,166
296,574	-40,853	-0,053	-0,019
297,589	-11,143	-0,184	-0,083
298,603	800,000	-0,164	-0,354
299,618	800,000	-0,074	-0,161
300,633	60,532	-0,227	-0,154
301,647	800,000	-0,056	-0,148
302,662	-110,447	-0,179	-0,025
303,676	129,366	-0,104	-0,091
304,691	60,598	-0,277	-0,188
305,706	-134,414	-0,257	-0,021
306,720	58,517	-0,253	-0,171
307,735	178,913	-0,161	-0,162
308,749	-47,445	-0,175	0,058
309,764	-182,120	-0,144	-0,002
310,779	173,002	-0,153	-0,152
311,793	450,564	-0,184	-0,280
312,808	220,203	-0,156	-0,172
313,822	228,655	0,047	-0,052
314,837	177,373	-0,131	-0,131
315,852	-200,000	0,012	-0,047
316,866	61,298	-0,207	-0,141
317,881	-58,283	-0,214	-0,064
318,895	358,313	-0,133	-0,183
319,910	-200,000	-0,055	-0,197
320,925	145,166	-0,131	-0,120
321,939	301,282	-0,168	-0,213
322,954	-122,667	-0,181	-0,020
323,968	800,000	-0,083	-0,168
324,983	-118,120	-0,083	0,010
325,997	-144,927	-0,171	-0,011
327,012	59,307	-0,210	-0,141
328,027	51,231	-0,116	-0,075
329,041	52,435	-0,228	-0,149
330,056	800,000	-0,050	-0,145
331,070	-194,097	-0,146	-0,001
332,085	-52,657	-0,135	-0,042
333,100	81,224	-0,117	-0,086
334,114	-50,113	-0,125	-0,040
335,129	-18,645	-0,230	-0,098
336,143	-129,009	-0,154	-0,015
337,158	-200,000	-0,016	-0,113
338,173	800,000	-0,029	-0,078
339,187	-9,015	-0,081	0,037
340,202	145,290	-0,023	-0,021
341,216	-8,136	-0,258	-0,119
342,231	92,984	-0,102	-0,079
343,246	333,840	-0,068	0,090
344,260	-21,021	-0,098	-0,041
345,275	-146,653	-0,151	-0,009
346,289	-69,554	-0,068	0,018
347,304	800,000	-0,064	-0,164
348,319	-72,142	-0,176	-0,044
349,333	152,983	-0,092	-0,086
350,348	-200,000	0,031	-0,215
351,362	67,847	-0,200	-0,140
352,377	800,000	-0,059	-0,148
353,392	-118,170	-0,059	0,007
354,406	59,654	-0,209	-0,141
355,421	208,452	1305,488	1397,381
356,435	160,392	1465,087	1397,864
