DTS Sentinel unit serial number:	SN410029Multiplexer serial number:	ORYXHardware model number:	OX2-SRSoftware version number:	ORYX F/W v4,00 Oryx Data Collector v3.7.2.0data status	okinstallation	B3 Nyhavnadifferential loss correction	single-endedforward channel	channel 1reverse channel	N/Adate	2023/12/05time	04:12:30forward acquisition time	300,00reverse acquisition time	0,00gamma	499,1914k internal	0,3201k external	0,3201temperature offset calibration	1,0000default loss term (dB/km)	0,3820temperature slope calibration	1,0000multiplexer offset coefficient	1,0000multiplexer slope coefficient	1,0000fibre end	0,00T internal ref (°C)	14,16T ext. ref 1 (°C)	-0,77T ext. ref 2 (°C)	-0,79length (m)	temperature (°C)	Stokes	anti-Stokes-744,400	357,535	-0,180	-0,262
-743,385	-200,000	-0,036	0,304
-742,371	194,471	-0,114	-0,125
-741,356	-200,000	0,012	0,252
-740,342	-21,114	-0,350	-0,155
-739,327	-200,000	0,032	0,302
-738,312	679,843	-0,100	-0,190
-737,298	-200,000	0,044	0,227
-736,283	66,152	-0,334	-0,246
-735,269	800,000	-0,062	0,180
-734,254	24,948	-0,212	-0,127
-733,239	-160,938	-0,304	0,011
-732,225	-0,984	-0,252	-0,129
-731,210	-91,898	0,173	0,035
-730,196	32,066	-0,058	-0,037
-729,181	432,147	-0,063	-0,100
-728,167	10,762	-0,083	0,046
-727,152	800,000	-0,034	0,072
-726,137	-40,102	-0,187	-0,070
-725,123	16,373	-0,106	0,061
-724,108	-200,000	-0,013	-0,139
-723,094	95,534	-0,065	-0,054
-722,079	-200,000	0,003	-0,058
-721,064	1,818	-0,040	-0,021
-720,050	-200,000	-0,001	-0,108
-719,035	800,000	-0,031	0,070
-718,021	-200,000	-0,006	-0,116
-717,006	-76,661	-0,133	-0,034
-715,991	41,464	-0,028	-0,018
-714,977	187,003	0,020	-0,021
-713,962	-31,650	0,150	0,061
-712,948	185,307	-0,087	0,093
-711,933	55,198	0,104	0,073
-710,918	-200,000	-0,026	0,173
-709,904	800,000	0,026	-0,073
-708,889	-200,000	-0,021	-0,067
-707,875	-200,000	0,013	-0,244
-706,860	800,000	0,018	-0,046
-705,845	128,589	0,085	0,078
-704,831	575,092	-0,058	0,102
-703,816	-200,000	-0,034	-0,164
-702,802	41,054	0,102	-0,067
-701,787	800,000	0,075	-0,170
-700,772	677,120	0,033	-0,062
-699,758	407,121	-0,060	-0,093
-698,743	262,895	0,091	-0,115
-697,729	94,396	-0,046	-0,038
-696,714	800,000	0,014	-0,033
-695,699	55,912	-0,068	-0,048
-694,685	5,028	-0,047	-0,025
-693,670	189,606	-0,044	-0,048
-692,656	74,441	0,102	0,078
-691,641	-70,936	-0,070	-0,019
-690,627	30,750	0,078	0,048
-689,612	236,270	-0,071	-0,085
-688,597	422,346	-0,071	-0,112
-687,583	154,173	0,069	-0,068
-686,568	254,885	-0,037	-0,046
-685,554	-127,994	-0,064	-0,007
-684,539	-200,000	0,018	0,122
-683,524	308,161	0,057	0,078
-682,510	-26,432	-0,055	0,023
-681,495	481,290	-0,088	-0,145
-680,481	694,911	-0,083	-0,158
-679,466	31,447	-0,075	-0,047
-678,451	-200,000	-0,003	-0,036
-677,437	552,867	0,035	-0,062
-676,422	-200,000	0,000	-0,067
-675,408	-7,279	-0,120	-0,059
-674,393	800,000	-0,030	-0,071
-673,378	800,000	-0,077	-0,217
-672,364	-73,297	-0,083	-0,022
-671,349	-45,251	-0,128	0,046
-670,335	-61,937	-0,104	0,031
-669,320	278,346	0,069	0,090
-668,305	-108,144	0,062	0,010
-667,291	-123,382	-0,122	-0,014
-666,276	-200,000	0,001	0,021
-665,262	-11,958	-0,062	-0,029
-664,247	-61,996	0,080	0,024
-663,232	-200,000	-0,011	-0,059
-662,218	-200,000	-0,007	-0,113
-661,203	-152,422	-0,036	-0,002
-660,189	-35,623	-0,125	0,049
-659,174	-137,003	-0,042	-0,003
-658,159	332,448	-0,107	-0,150
-657,145	410,621	-0,080	-0,123
-656,130	-200,000	-0,020	-0,074
-655,116	-200,000	0,004	-0,018
-654,101	329,436	0,053	0,074
-653,086	707,407	0,085	-0,164
-652,072	44,932	-0,194	-0,129
-651,057	665,943	0,028	-0,052
-650,043	-200,000	-0,042	0,150
-649,028	722,053	0,027	-0,053
-648,014	-119,818	0,131	0,016
-646,999	-72,507	-0,093	-0,025
-645,984	-2,401	0,084	-0,043
-644,970	800,000	0,065	-0,174
-643,955	800,000	0,042	0,094
-642,941	-200,000	0,010	-0,124
-641,926	168,688	0,105	-0,108
-640,911	800,000	0,014	-0,037
-639,897	261,444	-0,030	0,038
-638,882	58,259	-0,073	-0,052
-637,868	800,000	-0,042	-0,086
-636,853	-127,413	0,096	0,010
-635,838	-85,042	-0,104	0,023
-634,824	-200,000	0,005	0,061
-633,809	557,402	-0,045	0,079
-632,795	-107,641	0,068	0,011
-631,780	270,909	0,077	0,099
-630,765	-20,615	0,085	-0,038
-629,751	-200,000	0,010	-0,043
-628,736	-88,903	-0,038	-0,008
-627,722	-200,000	0,020	0,183
-626,707	666,247	0,011	0,022
-625,692	340,745	-0,080	0,114
-624,678	-200,000	0,009	0,088
-623,663	255,630	0,041	0,051
-622,649	257,218	0,061	-0,076
-621,634	11,972	-0,050	-0,028
-620,619	800,000	0,030	0,066
-619,605	-200,000	0,030	0,164
-618,590	-200,000	-0,026	0,088
-617,576	-200,000	0,021	0,122
-616,561	12,228	-0,060	-0,033
-615,546	253,334	0,026	-0,033
-614,532	800,000	-0,034	0,094
-613,517	4,067	-0,077	-0,041
-612,503	-37,760	0,050	0,019
-611,488	224,291	0,076	0,089
-610,474	29,241	-0,017	-0,011
-609,459	800,000	0,028	-0,074
-608,444	226,529	-0,134	0,157
-607,430	-200,000	-0,008	-0,121
-606,415	158,751	0,050	0,051
-605,401	-121,260	0,046	0,005
-604,386	156,421	-0,070	0,070
-603,371	408,376	-0,030	0,046
-602,357	469,462	-0,030	-0,048
-601,342	26,476	-0,187	-0,113
-600,328	67,532	-0,041	-0,030
-599,313	-19,215	-0,016	0,007
-598,298	-200,000	-0,008	-0,062
-597,284	800,000	0,030	0,067
-596,269	-169,638	-0,109	-0,003
-595,255	66,122	-0,100	-0,073
-594,240	800,000	-0,051	0,139
-593,225	426,207	0,025	-0,039
-592,211	-200,000	0,011	-0,115
-591,196	257,199	-0,058	-0,072
-590,182	-141,450	-0,069	-0,005
-589,167	-35,901	0,157	0,061
-588,152	0,412	-0,090	0,046
-587,138	-182,807	-0,057	0,001
-586,123	386,760	-0,039	-0,059
-585,109	-200,000	0,002	0,025
-584,094	-200,000	-0,032	0,115
-583,079	-200,000	0,006	0,086
-582,065	800,000	-0,050	0,127
-581,050	555,643	0,008	0,014
-580,036	-200,000	0,022	0,090
-579,021	800,000	0,001	0,004
-578,006	312,570	-0,050	-0,068
-576,992	-80,359	0,123	0,030
-575,977	-200,000	-0,029	0,117
-574,963	800,000	0,079	0,188
-573,948	5,957	0,042	-0,022
-572,934	-200,000	-0,038	0,185
-571,919	173,829	0,058	-0,060
-570,904	-118,916	-0,157	0,020
-569,890	-200,000	0,018	-0,087
-568,875	134,719	0,027	-0,026
-567,861	-73,507	-0,040	0,010
-566,846	35,700	0,063	0,040
-565,831	405,476	0,048	-0,073
-564,817	-19,243	-0,182	-0,081
-563,802	33,458	0,062	-0,039
-562,788	-109,251	0,119	-0,018
-561,773	-9,365	0,104	0,050
-560,758	15,872	0,030	-0,017
-559,744	30,650	-0,054	0,033
-558,729	185,375	0,133	-0,143
-557,715	2,662	-0,068	-0,036
-556,700	-54,688	-0,118	-0,038
-555,685	-176,754	-0,169	-0,003
-554,671	123,264	-0,062	0,056
-553,656	66,542	0,052	-0,038
-552,642	-200,000	0,047	0,164
-551,627	284,453	0,017	0,022
-550,612	-23,116	-0,065	-0,028
-549,598	-200,000	-0,013	-0,080
-548,583	800,000	-0,052	0,138
-547,569	440,308	0,032	0,051
-546,554	-48,201	-0,039	0,014
-545,539	-21,916	0,103	0,045
-544,525	272,859	-0,148	0,189
-543,510	82,852	-0,093	0,073
-542,496	165,942	0,060	-0,061
-541,481	800,000	0,016	0,045
-540,466	-141,748	0,114	-0,008
-539,452	-200,000	-0,031	-0,128
-538,437	157,542	0,054	0,054
-537,423	64,627	0,118	0,086
-536,408	340,804	-0,055	-0,078
-535,393	-139,820	-0,175	-0,013
-534,379	-200,000	-0,008	0,071
-533,364	134,193	0,047	-0,044
-532,350	44,490	-0,044	-0,029
-531,335	-63,720	0,126	0,037
-530,321	664,920	-0,059	0,109
-529,306	-130,434	-0,110	0,011
-528,291	-200,000	0,010	-0,088
-527,277	124,163	-0,070	-0,063
-526,262	-200,000	0,022	-0,102
-525,248	-106,186	-0,027	0,004
-524,233	800,000	0,054	0,152
-523,218	800,000	0,044	0,093
-522,204	-39,031	0,083	-0,031
-521,189	-200,000	-0,017	0,114
-520,175	-56,173	-0,130	-0,042
-519,160	365,705	0,068	-0,099
-518,145	800,000	0,018	-0,045
-517,131	40,610	-0,077	0,050
-516,116	46,778	-0,041	0,028
-515,102	-200,000	-0,052	-0,202
-514,087	361,847	-0,016	-0,023
-513,072	-200,000	-0,009	-0,036
-512,058	-31,724	-0,050	0,020
-511,043	-21,207	0,047	-0,021
-510,029	-200,000	0,010	-0,034
-509,014	198,312	0,005	-0,005
-507,999	-200,000	-0,025	0,125
-506,985	301,868	-0,086	-0,115
-505,970	-200,000	0,020	-0,094
-504,956	-200,000	-0,029	-0,140
-503,941	-136,991	0,063	-0,005
-502,926	128,523	-0,078	-0,072
-501,912	-200,000	-0,005	0,093
-500,897	232,660	0,026	-0,031
-499,883	-200,000	-0,008	-0,095
-498,868	54,260	-0,066	-0,046
-497,853	-111,723	-0,090	-0,013
-496,839	-200,000	-0,029	0,093
-495,824	-83,716	0,210	0,048
-494,810	-200,000	-0,018	0,134
-493,795	-200,000	-0,004	0,115
-492,781	-104,789	0,097	0,016
-491,766	-137,495	-0,052	-0,004
-490,751	-171,260	0,041	-0,001
-489,737	37,858	0,061	-0,039
-488,722	800,000	0,027	-0,057
-487,708	26,859	-0,048	0,029
-486,693	285,309	-0,063	0,082
-485,678	217,005	-0,061	-0,071
-484,664	-200,000	0,040	-0,143
-483,649	800,000	-0,023	-0,061
-482,635	-200,000	0,043	-0,142
-481,620	800,000	0,019	0,041
-480,605	800,000	-0,029	0,059
-479,591	13,129	0,098	-0,055
-478,576	-200,000	-0,013	0,046
-477,562	18,931	0,069	0,040
-476,547	-19,960	-0,047	-0,021
-475,532	-200,000	0,006	-0,051
-474,518	-110,854	-0,062	0,009
-473,503	298,939	0,094	0,125
-472,489	800,000	-0,030	0,074
-471,474	51,872	-0,080	0,055
-470,459	-200,000	0,007	-0,062
-469,445	-200,000	0,027	0,147
-468,430	-200,000	-0,044	-0,171
-467,416	-146,953	-0,056	-0,003
-466,401	800,000	0,054	0,158
-465,386	-200,000	-0,018	0,136
-464,372	800,000	0,018	-0,042
-463,357	800,000	-0,030	-0,071
-462,343	29,324	0,124	-0,076
-461,328	800,000	-0,027	-0,073
-460,313	-25,951	0,064	-0,027
-459,299	-200,000	0,000	-0,038
-458,284	-83,165	0,074	-0,017
-457,270	-100,823	0,055	0,010
-456,255	-46,148	0,040	-0,014
-455,241	8,977	-0,039	0,021
-454,226	580,324	0,067	-0,119
-453,211	233,039	-0,090	-0,106
-452,197	-121,472	0,176	0,021
-451,182	-200,000	0,012	0,113
-450,168	-200,000	-0,007	-0,050
-449,153	-200,000	-0,010	-0,103
-448,138	-103,781	-0,066	-0,011
-447,124	-113,548	-0,005	-0,001
-446,109	-200,000	-0,000	-0,003
-445,095	89,746	0,026	-0,021
-444,080	-106,552	0,145	-0,023
-443,065	-190,842	-0,106	-0,001
-442,051	157,846	0,078	0,077
-441,036	28,963	0,045	0,028
-440,022	800,000	0,032	-0,065
-439,007	87,265	-0,037	-0,029
-437,992	-53,086	0,175	-0,057
-436,978	-53,578	0,106	0,035
-435,963	-200,000	-0,006	0,025
-434,949	232,210	-0,053	0,062
-433,934	-200,000	-0,029	0,102
-432,919	89,000	0,149	-0,119
-431,905	-16,112	-0,079	0,036
-430,890	243,699	0,034	0,041
-429,876	18,427	-0,121	0,069
-428,861	190,096	-0,157	0,169
-427,846	46,799	0,078	-0,052
-426,832	50,781	0,017	-0,011
-425,817	-200,000	0,008	-0,105
-424,803	-143,788	-0,166	0,011
-423,788	-200,000	-0,010	0,098
-422,773	-44,390	-0,051	-0,018
-421,759	294,288	0,089	0,117
-420,744	383,186	-0,074	-0,109
-419,730	-151,218	-0,018	0,001
-418,715	756,675	0,038	-0,074
-417,701	800,000	-0,046	-0,102
-416,686	800,000	-0,007	-0,018
-415,671	157,930	0,010	-0,010
-414,657	-127,146	0,039	-0,004
-413,642	-200,000	-0,000	0,076
-412,628	163,165	-0,025	-0,026
-411,613	-200,000	0,006	0,086
-410,598	139,144	-0,006	0,006
-409,584	-200,000	-0,009	0,076
-408,569	800,000	0,030	0,090
-407,555	-68,976	0,102	-0,028
-406,540	-28,207	-0,166	-0,069
-405,525	-34,686	-0,085	-0,033
-404,511	49,922	-0,023	-0,015
-403,496	-10,241	-0,109	0,052
-402,482	-200,000	-0,006	0,184
-401,467	-20,624	0,082	0,036
-400,452	-41,605	0,025	0,009
-399,438	117,448	0,051	0,045
-398,423	-99,021	0,023	0,004
-397,409	48,772	0,082	0,055
-396,394	606,629	-0,093	-0,166
-395,379	341,742	0,057	-0,080
-394,365	-200,000	-0,016	0,053
-393,350	-119,145	0,169	-0,021
-392,336	27,390	0,117	0,070
-391,321	23,350	-0,136	0,080
-390,306	228,856	-0,042	-0,049
-389,292	421,243	-0,027	-0,041
-388,277	-200,000	0,027	-0,116
-387,263	8,288	0,027	-0,014
-386,248	-113,528	0,115	-0,016
-385,233	-200,000	0,018	0,096
-384,219	-138,517	0,038	-0,003
-383,204	196,054	-0,130	-0,142
-382,190	90,159	0,092	-0,074
-381,175	126,460	-0,096	0,087
-380,160	-42,510	0,135	-0,049
-379,146	-100,947	0,042	-0,007
-378,131	440,501	-0,011	0,018
-377,117	241,430	-0,023	-0,028
-376,102	-145,945	-0,172	0,011
-375,088	39,431	-0,022	-0,014
-374,073	16,289	-0,084	0,047
-373,058	-182,874	0,111	0,001
-372,044	800,000	0,062	-0,175
-371,029	800,000	-0,036	0,104
-370,015	319,483	-0,059	0,080
-369,000	-93,577	-0,146	0,029
-367,985	544,605	-0,033	0,056
-366,971	266,488	0,065	-0,081
-365,956	-200,000	0,006	0,070
-364,942	-26,846	0,059	0,025
-363,927	-200,000	0,013	-0,153
-362,912	-200,000	-0,021	-0,088
-361,898	-22,246	-0,121	-0,053
-360,883	-74,570	-0,081	0,021
-359,869	109,770	-0,104	0,090
-358,854	-98,449	0,157	0,029
-357,839	-6,122	-0,060	0,029
-356,825	762,930	-0,042	-0,082
-355,810	800,000	0,064	-0,128
-354,796	-59,157	-0,077	0,024
-353,781	86,555	-0,042	-0,034
-352,766	135,831	0,070	0,065
-351,752	800,000	-0,051	-0,119
-350,737	-200,000	0,005	0,027
-349,723	-200,000	0,005	0,021
-348,708	-104,431	0,091	-0,015
-347,693	-200,000	-0,005	0,029
-346,679	800,000	-0,055	-0,159
-345,664	-200,000	-0,010	0,044
-344,650	505,888	-0,067	0,111
-343,635	-58,511	-0,073	0,023
-342,620	800,000	-0,026	-0,059
-341,606	342,006	0,087	-0,123
-340,591	50,818	-0,027	0,018
-339,577	275,886	0,085	0,108
-338,562	-38,687	-0,052	-0,020
-337,548	-135,521	-0,111	0,009
-336,533	-88,229	0,163	0,035
-335,518	6,726	0,107	0,057
-334,504	40,055	-0,090	-0,058
-333,489	-92,442	-0,076	-0,015
-332,475	-98,932	-0,106	-0,019
-331,460	-200,000	0,011	-0,063
-330,445	-5,177	0,115	-0,056
-329,431	800,000	0,037	0,078
-328,416	270,731	0,008	0,011
-327,402	-200,000	-0,009	-0,124
-326,387	-200,000	-0,029	0,140
-325,372	158,558	-0,085	-0,084
-324,358	-200,000	0,004	-0,134
-323,343	710,435	0,074	-0,141
-322,329	800,000	0,080	0,177
-321,314	-200,000	-0,020	0,077
-320,299	326,104	-0,058	0,079
-319,285	-200,000	-0,014	-0,075
-318,270	-200,000	0,052	-0,207
-317,256	548,141	0,007	0,012
-316,241	245,931	0,094	-0,113
-315,226	-71,998	0,062	-0,016
-314,212	800,000	0,025	-0,071
-313,197	-200,000	-0,037	-0,133
-312,183	-89,106	0,006	-0,001
-311,168	547,552	0,060	-0,103
-310,153	-200,000	-0,023	-0,198
-309,139	81,779	-0,036	-0,028
-308,124	800,000	-0,007	-0,020
-307,110	-200,000	0,002	0,121
-306,095	-62,305	-0,075	-0,022
-305,080	-74,265	0,033	-0,009
-304,066	217,440	-0,023	0,026
-303,051	221,916	-0,052	-0,059
-302,037	-14,640	-0,027	-0,013
-301,022	-200,000	-0,003	-0,139
-300,008	-161,945	-0,037	-0,001
-298,993	599,839	-0,007	-0,012
-297,978	-200,000	0,017	0,105
-296,964	47,741	-0,114	-0,076
-295,949	-15,676	-0,123	0,056
-294,935	-200,000	-0,001	0,078
-293,920	-149,740	0,092	-0,005
-292,905	-140,486	0,078	0,006
-291,891	33,022	-0,078	0,048
-290,876	-103,786	-0,025	0,004
-289,862	-84,929	0,034	-0,007
-288,847	-200,000	-0,002	0,027
-287,832	-120,856	-0,089	0,011
-286,818	14,110	-0,042	0,023
-285,803	-200,000	-0,000	0,130
-284,789	14,863	0,093	0,052
-283,774	-46,057	0,111	-0,039
-282,759	-60,615	-0,110	-0,033
-281,745	-200,000	-0,003	-0,031
-280,730	-130,498	0,061	0,006
-279,716	288,465	-0,048	-0,062
-278,701	-9,591	0,123	-0,059
-277,686	-36,334	0,057	-0,022
-276,672	-200,000	0,025	-0,089
-275,657	-4,601	0,140	-0,069
-274,643	-55,142	-0,132	-0,042
-273,628	-200,000	-0,007	0,111
-272,613	800,000	-0,058	-0,127
-271,599	-6,104	-0,092	-0,045
-270,584	-200,000	-0,018	0,101
-269,570	544,078	-0,023	-0,039
-268,555	450,088	0,087	0,137
-267,540	687,898	-0,021	-0,039
-266,526	-16,478	0,099	0,045
-265,511	91,869	-0,101	-0,081
-264,497	120,753	0,034	0,030
-263,482	800,000	0,015	0,033
-262,467	-48,859	0,104	0,036
-261,453	9,030	-0,037	-0,020
-260,438	-200,000	-0,014	-0,082
-259,424	116,643	-0,070	-0,061
-258,409	-200,000	0,010	0,056
-257,395	271,499	0,021	0,026
-256,380	265,243	0,092	0,115
-255,365	-77,865	-0,038	0,009
-254,351	789,481	0,018	0,036
-253,336	-102,905	-0,111	0,019
-252,322	-200,000	-0,002	-0,012
-251,307	-200,000	0,019	-0,177
-250,292	-200,000	0,009	-0,039
-249,278	63,121	-0,030	0,022
-248,263	-200,000	0,021	-0,181
-247,249	-61,259	0,066	0,020
-246,234	-26,466	-0,133	0,055
-245,219	-95,728	-0,128	0,024
-244,205	119,633	-0,017	-0,015
-243,190	277,556	0,069	0,087
-242,176	-32,968	0,117	-0,046
-241,161	42,623	-0,093	0,060
-240,146	-30,419	0,044	-0,018
-239,132	335,639	0,057	0,079
-238,117	800,000	0,009	0,019
-237,103	52,454	-0,134	-0,091
-236,088	99,748	-0,053	-0,044
-235,073	800,000	0,007	0,021
-234,059	-200,000	0,033	0,135
-233,044	166,379	0,114	0,115
-232,030	68,949	-0,171	0,125
-231,015	13,334	-0,093	0,052
-230,000	92,583	-0,066	0,053
-228,986	800,000	0,026	0,076
-227,971	82,965	0,044	-0,034
-226,957	-37,411	0,119	-0,045
-225,942	1,933	0,058	0,030
-224,927	-78,841	-0,043	-0,010
-223,913	-70,036	0,102	-0,027
-222,898	-2,059	-0,078	-0,039
-221,884	-5,460	0,049	0,024
-220,869	79,637	-0,097	0,074
-219,855	-78,397	0,146	0,035
-218,840	-74,715	0,024	-0,006
-217,825	-53,005	0,066	0,021
-216,811	30,032	0,092	0,056
-215,796	-200,000	-0,016	-0,139
-214,782	-64,422	-0,123	-0,035
-213,767	133,795	-0,145	0,134
-212,752	-23,526	0,138	0,059
-211,738	-200,000	0,008	-0,075
-210,723	-200,000	0,001	0,052
-209,709	800,000	0,050	-0,128
-208,694	-29,169	-0,029	0,012
-207,679	-200,000	-0,018	-0,065
-206,665	128,395	-0,034	-0,031
-205,650	286,447	-0,055	0,071
-204,636	211,531	0,090	-0,101
-203,621	307,273	-0,051	-0,068
-202,606	-12,942	0,098	0,045
-201,592	639,151	-0,022	-0,040
-200,577	-17,730	0,023	-0,010
-199,563	-200,000	-0,012	0,063
-198,548	337,944	0,117	0,163
-197,533	-175,926	0,039	0,001
-196,519	143,161	-0,077	0,073
-195,504	-162,863	0,044	0,001
-194,490	-85,711	-0,099	0,022
-193,475	-30,737	-0,059	-0,023
-192,460	128,130	0,044	-0,040
-191,446	113,454	0,073	0,063
-190,431	20,787	0,082	0,047
-189,417	-42,111	-0,106	-0,038
-188,402	-200,000	-0,003	0,023
-187,387	-93,660	-0,066	0,013
-186,373	2,579	-0,110	0,056
-185,358	95,370	0,060	0,049
-184,344	81,794	0,051	0,040
-183,329	211,477	0,106	0,118
-182,315	134,151	-0,031	0,029
-181,300	-200,000	0,019	-0,070
-180,285	-200,000	0,016	0,054
-179,271	146,923	-0,069	0,066
-178,256	-8,622	0,086	-0,041
-177,242	-115,316	0,142	-0,019
-176,227	151,108	0,080	-0,077
-175,212	150,274	-0,047	-0,045
-174,198	-39,358	0,049	0,018
-173,183	345,514	-0,054	-0,076
-172,169	-12,367	0,038	-0,018
-171,154	225,955	0,037	-0,043
-170,139	-35,361	0,019	-0,007
-169,125	-154,113	0,097	0,005
-168,110	-147,539	0,040	-0,002
-167,096	-14,336	-0,145	0,066
-166,081	66,905	-0,025	-0,018
-165,066	290,075	0,079	-0,103
-164,052	800,000	-0,041	-0,117
-163,037	800,000	-0,040	-0,090
-162,023	506,906	0,088	0,146
-161,008	-165,146	0,143	0,004
-159,993	17,413	-0,082	-0,046
-158,979	599,623	0,027	-0,047
-157,964	-21,814	-0,019	-0,008
-156,950	129,519	-0,061	-0,055
-155,935	352,477	-0,041	0,059
-154,920	301,360	0,050	-0,066
-153,906	13,022	0,106	0,058
-152,891	800,000	0,025	-0,053
-151,877	369,896	-0,071	-0,103
-150,862	-158,669	0,033	-0,001
-149,847	497,728	-0,069	-0,113
-148,833	-90,753	0,052	0,011
-147,818	250,537	0,052	-0,063
-146,804	-200,000	-0,002	0,016
-145,789	25,558	-0,073	-0,043
-144,775	800,000	0,013	-0,039
-143,760	87,193	-0,063	-0,049
-142,745	-200,000	-0,024	-0,127
-141,731	-57,418	-0,115	-0,036
-140,716	800,000	0,029	0,084
-139,702	11,788	0,019	0,010
-138,687	800,000	-0,021	0,044
-137,672	24,926	0,095	-0,056
-136,658	97,936	0,042	-0,034
-135,643	89,014	0,106	-0,084
-134,629	-200,000	-0,018	0,121
-133,614	-93,072	0,040	-0,008
-132,599	447,637	0,056	0,087
-131,585	-151,088	0,047	0,002
-130,570	103,854	-0,092	-0,076
-129,556	800,000	0,020	-0,049
-128,541	-200,000	-0,005	-0,085
-127,526	-200,000	-0,002	-0,010
-126,512	7,375	0,072	-0,038
-125,497	134,369	0,085	-0,078
-124,483	800,000	-0,023	-0,056
-123,468	800,000	-0,023	-0,069
-122,453	42,052	0,047	0,030
-121,439	-60,098	-0,113	0,034
-120,424	-12,283	-0,083	-0,038
-119,410	542,036	0,030	-0,052
-118,395	21,093	0,110	0,063
-117,380	-67,872	-0,056	0,015
-116,366	-162,627	-0,113	0,004
-115,351	57,515	0,107	-0,074
-114,337	336,935	-0,081	-0,113
-113,322	47,312	0,140	-0,093
-112,307	109,279	-0,112	-0,095
-111,293	-129,684	0,176	-0,017
-110,278	460,704	-0,110	0,175
-109,264	-95,817	-0,140	-0,026
-108,249	534,311	0,038	0,064
-107,234	130,715	0,116	0,105
-106,220	-200,000	0,064	-0,243
-105,205	47,850	0,079	-0,052
-104,191	-53,969	-0,079	0,025
-103,176	33,174	0,057	0,035
-102,162	-94,997	0,017	-0,003
-101,147	71,844	-0,097	0,072
-100,132	-200,000	-0,004	-0,161
-99,118	-200,000	0,032	-0,127
-98,103	485,568	0,019	0,031
-97,089	2,103	0,095	0,048
-96,074	800,000	-0,010	0,021
-95,059	764,296	-0,038	-0,074
-94,045	-200,000	-0,013	-0,128
-93,030	225,163	-0,033	0,038
-92,016	800,000	-0,034	-0,087
-91,001	73,468	0,080	-0,059
-89,986	-200,000	0,024	-0,076
-88,972	148,301	0,085	0,081
-87,957	39,348	0,119	0,075
-86,943	151,104	-0,094	0,091
-85,928	80,644	0,014	0,011
-84,913	-74,639	-0,160	-0,041
-83,899	-81,405	0,034	-0,008
-82,884	183,474	-0,019	0,020
-81,870	800,000	0,028	0,055
-80,855	-200,000	0,037	0,122
-79,840	-78,912	-0,092	0,022
-78,826	-79,307	-0,173	0,041
-77,811	-147,654	0,069	-0,004
-76,797	177,059	0,059	0,061
-75,782	71,281	0,039	-0,029
-74,767	-155,656	0,046	0,002
-73,753	189,852	0,034	-0,036
-72,738	340,047	-0,016	-0,023
-71,724	37,650	-0,067	-0,042
-70,709	-78,637	-0,081	-0,020
-69,694	-81,484	-0,128	-0,030
-68,680	-200,000	0,033	0,112
-67,665	-78,398	-0,060	-0,014
-66,651	-200,000	-0,008	-0,060
-65,636	-200,000	-0,000	0,039
-64,622	-18,260	-0,014	-0,006
-63,607	57,597	-0,173	-0,119
-62,592	800,000	0,020	0,047
-61,578	800,000	0,010	0,022
-60,563	632,279	-0,028	0,050
-59,549	188,460	-0,106	-0,113
-58,534	-72,385	-1,557	-0,405
-57,519	402,593	-1,380	-2,061
-56,505	-200,000	-0,546	-4,645
-55,490	148,371	1,008	0,964
-54,476	800,000	4,970	11,520
-53,461	-200,000	18,819	304,924
-52,446	800,000	736,190	2288,888
-51,432	566,191	1652,210	2848,720
-50,417	78,906	1669,779	1263,920
-49,403	22,105	1542,850	888,997
-48,388	15,998	1465,746	814,909
-47,373	17,772	1455,579	817,788
-46,359	16,875	1446,116	808,142
-45,344	14,261	1441,502	793,018
-44,330	14,247	1439,356	791,738
-43,315	14,199	1437,829	790,638
-42,300	14,230	1435,960	789,724
-41,286	14,287	1434,793	789,324
-40,271	14,236	1433,625	788,408
-39,257	14,275	1432,132	787,743
-38,242	14,270	1430,933	787,025
-37,227	14,303	1429,799	786,529
-36,213	14,291	1428,455	785,701
-35,198	14,247	1427,508	784,942
-34,184	14,313	1426,426	784,629
-33,169	14,193	1425,185	783,344
-32,154	14,333	1423,782	783,207
-31,140	14,269	1422,774	782,317
-30,125	14,306	1421,611	781,820
-29,111	14,262	1420,504	780,972
-28,096	14,228	1419,425	780,192
-27,082	14,227	1418,235	779,499
-26,067	14,168	1417,283	778,669
-25,052	14,199	1416,187	778,181
-24,038	14,132	1415,395	777,398
-23,023	14,173	1414,206	776,907
-22,009	14,161	1413,143	776,237
-20,994	14,130	1412,430	775,668
-19,979	14,131	1411,626	775,203
-18,965	14,109	1410,494	774,445
-17,950	14,100	1409,535	773,845
-16,936	14,124	1408,698	773,469
-15,921	14,055	1407,607	772,515
-14,906	14,089	1406,505	772,042
-13,892	14,076	1405,761	771,538
-12,877	14,120	1404,845	771,210
-11,863	14,092	1403,808	770,483
-10,848	14,072	1403,022	769,926
-9,833	14,051	1402,190	769,343
-8,819	13,999	1401,512	768,698
-7,804	13,982	1400,463	768,011
-6,790	13,999	1399,247	767,393
-5,775	13,975	1398,364	766,770
-4,760	13,993	1397,347	766,262
-3,746	14,014	1396,431	765,827
-2,731	13,974	1395,570	765,142
-1,717	13,963	1394,642	764,551
-0,702	13,978	1392,949	763,662
0,313	17,747	1310,887	736,156
1,327	33,958	705,974	434,003
2,342	51,933	124,164	83,502
3,356	1,899	16,646	8,466
4,371	7,522	3,182	1,678
5,386	22,354	0,501	0,289
6,400	659,522	-0,076	0,139
7,415	-99,678	-0,252	-0,044
8,429	-192,315	-0,283	-0,002
9,444	110,099	-0,323	-0,274
10,459	67,185	-0,255	-0,184
11,473	152,752	-0,309	-0,299
12,488	120,787	-0,334	-0,293
13,502	-58,966	-0,354	-0,107
14,517	92,539	-0,280	-0,223
15,531	62,370	-0,291	-0,205
16,546	53,295	-0,207	-0,140
17,561	300,607	-0,344	-0,449
18,575	156,049	-0,170	-0,166
19,590	187,519	-0,185	-0,195
20,604	20,830	-0,266	-0,152
21,619	127,274	-0,399	-0,358
22,634	18,290	-0,466	-0,262
23,648	94,230	-0,394	-0,315
24,663	59,007	-0,444	-0,308
25,677	50,146	-0,343	-0,229
26,692	25,929	-0,279	-0,164
27,707	-32,885	-0,462	-0,180
28,721	28,752	-0,422	-0,252
29,736	-20,351	-0,415	-0,179
30,750	228,422	-0,376	-0,433
31,765	155,981	-0,336	-0,327
32,780	256,005	-0,360	-0,436
33,794	135,970	-0,319	-0,293
34,809	54,537	-0,243	-0,165
35,823	119,062	-0,310	-0,271
36,838	-19,776	-0,385	-0,167
37,853	144,526	-0,432	-0,407
38,867	168,974	-0,262	-0,263
39,882	127,640	-0,385	-0,345
40,896	122,093	-0,321	-0,283
41,911	21,899	-0,245	-0,140
42,926	41,479	-0,425	-0,271
43,940	53,105	-0,409	-0,276
44,955	371,062	-0,251	-0,360
45,969	-27,273	-0,419	-0,171
46,984	102,536	-0,399	-0,329
47,999	56,195	-0,298	-0,204
49,013	-16,693	-0,331	-0,147
50,028	38,943	-0,358	-0,225
51,042	38,929	-0,368	-0,231
52,057	-36,921	-0,386	-0,145
53,071	386,392	-0,175	-0,255
54,086	249,348	-0,344	-0,411
55,101	-16,270	-0,395	-0,176
56,115	-3,252	-0,320	-0,157
57,130	86,006	-0,333	-0,258
58,144	67,929	-0,392	-0,282
59,159	106,513	-0,338	-0,282
60,174	52,908	-0,359	-0,241
61,188	156,182	-0,266	-0,259
62,203	19,068	-0,251	-0,141
63,217	-31,805	-0,342	-0,134
64,232	152,807	-0,302	-0,290
65,247	155,770	-0,311	-0,301
66,261	-49,550	-0,370	-0,123
67,276	215,041	-0,314	-0,350
68,290	171,385	-0,237	-0,240
69,305	251,629	-0,262	-0,315
70,320	-37,725	-0,354	-0,132
71,334	-72,048	-0,280	-0,073
72,349	-15,970	-0,375	-0,167
73,363	23,925	-0,390	-0,225
74,378	123,827	-0,368	-0,325
75,393	135,585	-0,232	-0,212
76,407	-24,301	-0,308	-0,129
77,422	202,379	-0,257	-0,279
78,436	-78,853	-0,353	-0,084
79,451	29,165	-0,348	-0,207
80,466	-68,766	-0,454	-0,122
81,480	469,699	-0,149	-0,236
82,495	10,512	-0,201	-0,107
83,509	242,845	-0,318	-0,375
84,524	50,931	-0,236	-0,157
85,539	-46,062	-0,425	-0,146
86,553	30,828	-0,292	-0,175
87,568	35,191	-0,369	-0,226
88,582	8,799	-0,304	-0,161
89,597	30,243	-0,350	-0,209
90,611	345,455	-0,205	-0,283
91,626	-36,977	-0,327	-0,122
92,641	136,041	-0,281	-0,257
93,655	24,125	-0,344	-0,199
94,670	-46,776	-0,378	-0,129
95,684	48,262	-0,335	-0,219
96,699	8,183	-0,269	-0,141
97,714	33,573	-0,360	-0,219
98,728	78,374	-0,356	-0,266
99,743	-72,845	-0,237	-0,061
100,757	629,996	-0,118	-0,211
101,772	-6,813	-0,322	-0,153
102,787	545,200	-0,205	-0,345
103,801	-39,000	-0,296	-0,109
104,816	-81,250	-0,241	-0,055
105,830	191,066	-0,248	-0,262
106,845	81,438	-0,268	-0,203
107,860	136,703	-0,181	-0,166
108,874	442,624	-0,124	-0,191
109,889	104,830	-0,307	-0,253
110,903	33,229	-0,410	-0,249
111,918	174,799	-0,282	-0,286
112,933	157,348	-0,248	-0,240
113,947	22,732	-0,140	-0,080
114,962	95,824	-0,256	-0,204
115,976	48,391	-0,250	-0,164
116,991	-56,298	-0,471	-0,146
118,006	-70,433	-0,231	-0,061
119,020	117,991	-0,258	-0,222
120,035	-52,590	-0,243	-0,078
121,049	-113,872	-0,240	-0,032
122,064	-135,494	-0,320	0,026
123,079	181,277	-0,241	-0,248
124,093	4,580	-0,363	-0,186
125,108	272,031	-0,216	-0,268
126,122	50,247	-0,288	-0,190
127,137	259,600	-0,248	-0,300
128,151	42,981	-0,268	-0,171
129,166	201,967	-0,168	-0,182
130,181	79,506	-0,353	-0,265
131,195	-13,642	-0,313	-0,141
132,210	1,933	-0,265	-0,133
133,224	95,529	-0,253	-0,201
134,239	32,927	-0,277	-0,168
135,254	-84,558	-0,235	-0,051
136,268	119,643	-0,256	-0,221
137,283	311,166	-0,221	-0,290
138,297	83,752	-0,287	-0,219
139,312	-36,974	-0,295	-0,110
140,327	42,500	-0,390	-0,247
141,341	438,610	-0,160	-0,245
142,356	130,592	-0,239	-0,214
143,370	14,456	-0,242	-0,132
144,385	-3,926	-0,229	-0,111
145,400	55,882	-0,234	-0,158
146,414	412,809	-0,130	-0,193
147,429	109,025	-0,156	-0,130
148,443	93,365	-0,178	-0,141
149,458	-11,787	-0,242	-0,110
150,473	9,771	-0,324	-0,171
151,487	307,873	-0,179	-0,234
152,502	47,185	-0,238	-0,154
153,516	-3,228	-0,306	-0,148
154,531	370,102	-0,202	-0,286
155,546	157,354	-0,222	-0,215
156,560	800,000	-0,133	-0,379
157,575	56,247	-0,245	-0,166
158,589	104,872	-0,270	-0,222
159,604	175,789	-0,167	-0,169
160,619	52,097	-0,309	-0,205
161,633	165,257	-0,247	-0,244
162,648	12,655	-0,247	-0,133
163,662	138,125	-0,065	-0,060
164,677	800,000	-0,111	-0,256
165,692	287,986	-0,224	-0,283
166,706	190,357	-0,295	-0,309
167,721	46,415	-0,363	-0,234
168,735	374,587	-0,285	-0,406
169,750	7,797	-0,224	-0,117
170,764	-4,572	-0,176	-0,085
171,779	-68,271	-0,124	-0,033
172,794	-22,662	-0,195	-0,082
173,808	47,629	-0,221	-0,144
174,823	22,844	-0,218	-0,124
175,837	75,226	-0,139	-0,102
176,852	39,178	-0,253	-0,158
177,867	41,841	-0,246	-0,155
178,881	-142,680	-0,226	0,015
179,896	52,924	-0,111	-0,074
180,910	88,408	-0,217	-0,168
181,925	71,788	-0,186	-0,134
182,940	87,869	-0,266	-0,205
183,954	77,357	-0,237	-0,175
184,969	800,000	-0,092	-0,181
185,983	37,793	-0,090	-0,056
186,998	200,366	-0,269	-0,288
188,013	72,551	-0,233	-0,169
189,027	663,733	-0,127	-0,229
190,042	140,818	-0,104	-0,095
191,056	112,560	-0,274	-0,230
192,071	327,665	-0,177	-0,237
193,086	8,738	-0,208	-0,109
194,100	264,343	-0,171	-0,207
195,115	-75,824	-0,166	-0,041
196,129	390,812	-0,180	-0,261
197,144	64,302	-0,317	-0,221
198,159	32,509	-0,240	-0,144
199,173	-116,579	-0,277	-0,035
200,188	148,686	-0,137	-0,128
201,202	32,471	-0,279	-0,167
202,217	37,412	-0,217	-0,133
203,232	141,704	-0,126	-0,116
204,246	176,206	-0,198	-0,200
205,261	12,868	-0,285	-0,153
206,275	164,080	-0,126	-0,124
207,290	531,831	-0,141	-0,232
208,304	61,363	-0,267	-0,184
209,319	64,307	-0,142	-0,099
210,334	-38,504	-0,320	-0,117
211,348	23,433	-0,198	-0,113
212,363	130,291	-0,196	-0,175
213,377	-42,834	-0,160	-0,056
214,392	-61,969	-0,230	-0,066
215,407	212,953	-0,152	-0,167
216,421	91,931	-0,176	-0,137
217,436	144,086	-0,164	-0,152
218,450	26,687	-0,174	-0,101
219,465	262,410	-0,202	-0,243
220,480	7,239	-0,225	-0,116
221,494	-20,949	-0,170	-0,072
222,509	11,639	-0,247	-0,131
223,523	26,482	-0,209	-0,121
224,538	295,972	-0,206	-0,262
225,553	28,312	-0,172	-0,100
226,567	-16,785	-0,292	-0,127
227,582	-53,980	-0,273	-0,086
228,596	209,221	-0,092	-0,100
229,611	-100,581	-0,239	0,040
230,626	82,359	-0,245	-0,184
231,640	-10,730	-0,236	-0,108
232,655	16,737	-0,134	-0,073
233,669	132,586	-0,252	-0,225
234,684	25,934	-0,226	-0,130
235,699	800,000	-0,120	-0,235
236,713	164,296	-0,145	-0,142
237,728	-106,995	-0,267	-0,040
238,742	-168,621	-0,277	-0,007
239,757	131,918	-0,254	-0,226
240,772	46,753	-0,335	-0,215
241,786	-93,524	-0,205	-0,039
242,801	-107,043	-0,175	0,027
243,815	-14,933	-0,204	-0,090
244,830	91,065	-0,216	-0,168
245,844	180,822	-0,202	-0,205
246,859	266,897	-0,189	-0,229
247,874	-121,951	-0,251	-0,028
248,888	250,557	-0,156	-0,184
249,903	-123,676	-0,167	-0,018
250,917	-51,030	-0,160	0,052
251,932	3,408	-0,194	-0,098
252,947	104,573	-0,101	-0,083
253,961	-96,250	-0,210	0,038
254,976	29,353	-0,208	-0,122
255,990	144,911	-0,193	-0,179
257,005	579,064	-0,150	-0,255
258,020	-49,258	-0,312	-0,102
259,034	196,049	-0,112	-0,118
260,049	-153,733	-0,141	0,007
261,063	-200,000	-0,090	-0,316
262,078	105,152	-0,171	-0,140
263,093	25,250	-0,244	-0,140
264,107	-200,000	-0,063	-0,245
265,122	128,279	-0,171	-0,150
266,136	39,130	-0,109	-0,067
267,151	-40,179	-0,107	-0,038
268,166	-173,522	-0,202	0,004
269,180	447,831	-0,113	-0,172
270,195	262,260	-0,167	-0,201
271,209	43,138	-0,267	-0,168
272,224	170,018	-0,151	-0,149
273,239	270,929	-0,194	-0,236
274,253	51,474	-0,200	-0,131
275,268	95,341	-0,233	-0,184
276,282	479,044	-0,161	-0,253
277,297	-200,000	-0,047	-0,178
278,312	-60,389	-0,241	-0,070
279,326	-135,427	-0,079	-0,006
280,341	364,559	-0,102	-0,142
281,355	-27,959	-0,146	-0,058
282,370	-73,199	-0,149	-0,037
283,384	-200,000	-0,002	-0,193
284,399	-31,955	-0,149	-0,057
285,414	-56,850	-0,301	-0,091
286,428	92,748	-0,277	-0,215
287,443	128,210	-0,110	-0,096
288,457	117,942	-0,232	-0,197
289,472	-133,175	-0,116	0,010
290,487	2,506	-0,189	-0,094
291,501	-6,959	-0,261	-0,122
292,516	-56,642	-0,304	-0,092
293,530	800,000	0,046	-0,126
294,545	-101,690	-0,166	-0,027
295,560	164,038	-0,181	-0,176
296,574	94,667	-0,147	-0,115
297,589	147,016	-0,189	-0,175
298,603	565,152	-0,110	-0,184
299,618	-0,635	-0,220	-0,107
300,633	379,308	-0,124	-0,175
301,647	151,482	-0,110	-0,104
302,662	32,977	-0,127	-0,076
303,676	-54,577	-0,163	-0,050
304,691	113,588	-0,131	-0,110
305,706	33,101	-0,173	-0,103
306,720	144,965	-0,298	-0,274
307,735	229,871	-0,076	-0,085
308,749	-125,000	-0,132	-0,014
309,764	37,485	-0,042	-0,026
310,779	-65,748	-0,110	-0,030
311,793	68,263	-0,065	-0,046
312,808	104,351	-0,187	-0,152
313,822	-59,145	-0,202	-0,060
314,837	181,902	-0,087	-0,089
315,852	-66,789	-0,109	-0,029
316,866	-17,919	-0,054	0,023
317,881	-127,604	-0,223	-0,022
318,895	221,344	-0,148	-0,164
319,910	42,893	-0,125	-0,078
320,925	91,711	-0,167	-0,129
321,939	800,000	-0,035	-0,103
322,954	0,407	-0,245	-0,120
323,968	89,443	-0,152	-0,117
324,983	24,765	-0,177	-0,100
325,997	105,738	-0,216	-0,176
327,012	529,665	-0,137	-0,223
328,027	-56,932	-0,204	-0,062
329,041	88,806	-0,201	-0,154
330,056	156,852	-0,122	-0,116
331,070	-95,030	-0,114	-0,021
332,085	-15,584	-0,108	-0,047
333,100	-200,000	-0,025	-0,143
334,114	10,883	-0,278	-0,145
335,129	800,000	-0,089	-0,207
336,143	165,384	-0,092	-0,089
337,158	800,000	-0,053	-0,153
338,173	-87,894	-0,127	-0,026
339,187	-32,764	-0,174	-0,066
340,202	800,000	-0,079	-0,151
341,216	800,000	-0,071	-0,182
342,231	353,391	-0,081	-0,110
343,246	-41,158	-0,277	-0,098
344,260	299,128	-0,133	-0,168
345,275	162,448	-0,146	-0,141
346,289	-182,909	-0,173	-0,002
347,304	-200,000	-0,035	-0,234
348,319	-140,200	-0,064	-0,005
349,333	79,258	-0,044	0,032
350,348	-84,517	-0,167	0,036
351,362	161,963	-0,163	-0,156
352,377	-99,416	-0,106	-0,018
353,392	33,228	-0,089	0,053
354,406	80,254	-0,169	-0,125
355,421	209,801	1315,775	1417,062
356,435	161,482	1476,647	1417,557
