DTS Sentinel unit serial number:	SN410029Multiplexer serial number:	ORYXHardware model number:	OX2-SRSoftware version number:	ORYX F/W v4,00 Oryx Data Collector v3.7.2.0data status	okinstallation	B3 Nyhavnadifferential loss correction	single-endedforward channel	channel 1reverse channel	N/Adate	2023/12/04time	21:42:30forward acquisition time	300,00reverse acquisition time	0,00gamma	499,1914k internal	0,3200k external	0,3200temperature offset calibration	1,0000default loss term (dB/km)	0,3820temperature slope calibration	1,0000multiplexer offset coefficient	1,0000multiplexer slope coefficient	1,0000fibre end	0,00T internal ref (°C)	14,56T ext. ref 1 (°C)	-0,32T ext. ref 2 (°C)	-0,33length (m)	temperature (°C)	Stokes	anti-Stokes-744,400	101,783	-0,285	-0,242
-743,385	-200,000	0,037	0,176
-742,371	98,957	-0,243	-0,204
-741,356	800,000	0,154	0,402
-740,342	377,460	-0,126	-0,187
-739,327	800,000	-0,097	0,266
-738,312	227,359	-0,232	-0,275
-737,298	-200,000	0,015	0,287
-736,283	-200,000	-0,077	-0,297
-735,269	-200,000	-0,000	0,245
-734,254	236,394	-0,196	-0,236
-733,239	-30,538	-0,219	0,090
-732,225	-33,467	-0,232	-0,093
-731,210	2,727	0,184	0,097
-730,196	-3,954	0,113	0,057
-729,181	10,903	-0,066	-0,037
-728,167	100,467	-0,102	0,086
-727,152	512,869	-0,024	0,042
-726,137	135,669	-0,041	-0,039
-725,123	192,098	-0,043	-0,048
-724,108	-200,000	0,007	-0,049
-723,094	-50,624	-0,170	-0,058
-722,079	283,366	0,039	-0,051
-721,064	678,220	-0,064	-0,121
-720,050	176,523	0,025	-0,026
-719,035	-200,000	-0,002	0,256
-718,021	-32,913	-0,027	0,011
-717,006	800,000	-0,026	0,060
-715,991	-82,143	-0,235	-0,055
-714,977	8,071	0,118	0,064
-713,962	-84,946	-0,082	-0,019
-712,948	47,114	0,086	0,058
-711,933	800,000	0,045	0,117
-710,918	-83,572	0,055	0,013
-709,904	-20,253	0,019	-0,008
-708,889	-200,000	-0,002	-0,041
-707,875	84,086	-0,147	-0,116
-706,860	-154,085	0,066	0,003
-705,845	4,819	0,015	-0,008
-704,831	155,510	-0,037	-0,037
-703,816	11,138	0,070	0,039
-702,802	-135,535	-0,122	0,010
-701,787	-200,000	-0,022	-0,204
-700,772	9,707	-0,040	-0,022
-699,758	254,833	0,047	-0,059
-698,743	1,287	0,041	0,021
-697,729	-200,000	0,005	0,072
-696,714	-99,555	0,104	0,019
-695,699	-200,000	-0,015	-0,117
-694,685	-112,478	-0,045	-0,007
-693,670	-114,562	0,111	0,015
-692,656	-55,163	0,095	0,031
-691,641	800,000	-0,048	0,124
-690,627	-200,000	-0,055	0,177
-689,612	800,000	-0,029	0,065
-688,597	-88,337	0,128	0,028
-687,583	529,559	-0,048	0,083
-686,568	-200,000	-0,005	-0,025
-685,554	-45,185	-0,055	0,020
-684,539	415,988	0,067	0,104
-683,524	-200,000	0,011	-0,071
-682,510	-155,635	0,103	0,005
-681,495	800,000	0,032	0,073
-680,481	800,000	0,015	0,038
-679,466	-200,000	-0,001	-0,023
-678,451	-66,112	-0,072	0,021
-677,437	-200,000	-0,035	-0,160
-676,422	181,938	0,069	-0,074
-675,408	800,000	-0,015	0,043
-674,393	80,692	-0,022	0,017
-673,378	35,210	-0,070	-0,045
-672,364	55,493	-0,111	0,078
-671,349	-200,000	0,006	-0,184
-670,335	-200,000	0,017	0,093
-669,320	-200,000	-0,035	-0,134
-668,305	-58,396	0,133	0,042
-667,291	-85,365	-0,103	0,023
-666,276	210,630	-0,143	-0,164
-665,262	-28,291	-0,101	-0,042
-664,247	-158,045	0,161	0,007
-663,232	800,000	0,052	-0,150
-662,218	-200,000	0,140	0,000
-661,203	-94,582	-0,081	0,016
-660,189	800,000	0,021	0,045
-659,174	800,000	0,010	0,026
-658,159	-21,809	0,061	-0,027
-657,145	7,722	-0,109	-0,059
-656,130	-64,212	0,125	0,037
-655,116	-200,000	0,002	-0,033
-654,101	-200,000	0,017	0,055
-653,086	-200,000	0,026	0,099
-652,072	-70,072	-0,065	-0,018
-651,057	10,763	0,120	-0,066
-650,043	800,000	0,027	0,077
-649,028	-70,615	-0,055	0,015
-648,014	638,639	0,044	-0,081
-646,999	-98,339	-0,042	-0,008
-645,984	-71,924	-0,083	-0,022
-644,970	-140,313	-0,247	-0,018
-643,955	163,063	0,056	0,057
-642,941	-50,633	-0,150	-0,051
-641,926	-59,121	0,027	0,008
-640,911	-103,731	-0,085	0,014
-639,897	209,328	-0,040	0,045
-638,882	152,931	-0,075	0,074
-637,868	150,023	0,055	-0,054
-636,853	800,000	-0,023	-0,063
-635,838	-200,000	0,012	-0,117
-634,824	-117,525	0,120	0,016
-633,809	-74,811	0,025	0,006
-632,795	-200,000	-0,009	0,157
-631,780	177,754	-0,067	-0,071
-630,765	14,657	0,093	0,053
-629,751	-41,369	-0,099	0,037
-628,736	77,652	-0,127	-0,098
-627,722	20,291	0,130	-0,076
-626,707	140,596	0,067	0,064
-625,692	0,514	0,025	0,013
-624,678	-83,331	0,147	0,034
-623,663	-154,591	-0,078	-0,004
-622,649	56,357	-0,074	-0,052
-621,634	-200,000	0,059	-0,191
-620,619	800,000	0,017	-0,046
-619,605	-200,000	0,020	-0,118
-618,590	800,000	-0,062	0,169
-617,576	-125,356	0,080	0,009
-616,561	-3,771	-0,056	0,028
-615,546	465,594	-0,009	-0,015
-614,532	-200,000	-0,010	-0,122
-613,517	-200,000	-0,050	-0,188
-612,503	-200,000	0,019	-0,130
-611,488	-112,089	0,090	-0,013
-610,474	611,765	0,069	-0,125
-609,459	239,643	0,042	-0,051
-608,444	-200,000	0,004	-0,075
-607,430	-94,780	-0,131	-0,026
-606,415	45,935	-0,083	0,056
-605,401	-200,000	0,004	-0,079
-604,386	800,000	0,061	0,171
-603,371	-60,949	0,042	-0,013
-602,357	-200,000	0,000	-0,020
-601,342	-72,560	-0,041	0,011
-600,328	32,353	-0,166	-0,103
-599,313	-102,123	0,136	0,023
-598,298	32,680	-0,120	-0,075
-597,284	-200,000	0,007	-0,049
-596,269	-71,306	-0,033	0,009
-595,255	307,900	0,039	-0,052
-594,240	800,000	0,009	0,025
-593,225	172,450	-0,025	0,026
-592,211	-200,000	-0,010	0,093
-591,196	-200,000	-0,009	-0,114
-590,182	-154,273	0,088	-0,004
-589,167	800,000	0,050	0,115
-588,152	-200,000	0,005	0,022
-587,138	-115,402	-0,013	0,002
-586,123	188,620	0,032	0,034
-585,109	-200,000	0,036	-0,124
-584,094	-200,000	-0,000	-0,187
-583,079	-1,952	0,142	0,072
-582,065	-200,000	-0,007	0,089
-581,050	187,628	-0,057	-0,061
-580,036	-200,000	-0,009	-0,049
-579,021	-200,000	0,019	0,134
-578,006	448,628	-0,090	-0,144
-576,992	20,277	-0,104	0,060
-575,977	392,892	0,025	0,038
-574,963	177,277	0,058	-0,061
-573,948	335,407	-0,133	0,187
-572,934	447,450	-0,069	-0,110
-571,919	-5,193	-0,049	-0,025
-570,904	800,000	0,027	-0,062
-569,890	800,000	0,078	0,221
-568,875	-131,196	0,086	0,008
-567,861	-16,376	0,069	0,032
-566,846	75,398	0,134	-0,102
-565,831	-200,000	-0,033	0,135
-564,817	-200,000	-0,023	0,089
-563,802	-200,000	-0,010	-0,058
-562,788	-200,000	-0,009	-0,036
-561,773	-200,000	0,002	-0,128
-560,758	800,000	0,022	-0,054
-559,744	118,962	-0,063	0,056
-558,729	-22,652	0,097	0,042
-557,715	522,591	-0,022	0,038
-556,700	55,316	-0,052	0,036
-555,685	225,524	0,077	-0,090
-554,671	-200,000	-0,031	-0,139
-553,656	800,000	-0,037	0,087
-552,642	-176,243	0,056	0,001
-551,627	-159,572	0,022	-0,001
-550,612	-47,506	0,095	0,033
-549,598	800,000	0,022	0,052
-548,583	-200,000	-0,013	-0,057
-547,569	-200,000	-0,025	-0,163
-546,554	-105,728	0,041	-0,007
-545,539	103,076	0,065	-0,055
-544,525	800,000	0,032	0,100
-543,510	99,035	-0,070	-0,058
-542,496	-3,860	0,006	-0,003
-541,481	68,917	-0,140	-0,104
-540,466	-87,995	0,032	-0,007
-539,452	78,555	0,113	0,087
-538,437	-200,000	-0,006	-0,038
-537,423	-59,781	0,128	0,039
-536,408	-36,747	-0,074	0,029
-535,393	800,000	-0,020	0,058
-534,379	-200,000	0,004	-0,065
-533,364	-82,770	-0,125	-0,029
-532,350	-45,647	-0,141	-0,050
-531,335	65,932	0,021	0,015
-530,321	-200,000	-0,010	0,095
-529,306	545,924	-0,039	-0,068
-528,291	-131,363	-0,114	-0,011
-527,277	-115,570	-0,060	0,008
-526,262	26,438	0,126	0,076
-525,248	454,536	0,086	0,138
-524,233	372,461	-0,013	0,019
-523,218	800,000	0,034	0,075
-522,204	31,368	-0,152	-0,094
-521,189	575,691	-0,071	-0,125
-520,175	-13,653	0,037	-0,017
-519,160	-48,982	-0,166	-0,057
-518,145	800,000	0,014	-0,032
-517,131	-27,227	0,102	0,043
-516,116	-200,000	-0,046	0,158
-515,102	-1,867	0,082	0,041
-514,087	264,279	0,012	-0,015
-513,072	174,578	-0,071	0,074
-512,058	-131,354	-0,148	-0,014
-511,043	-200,000	0,003	0,010
-510,029	268,326	0,061	0,077
-509,014	800,000	0,081	0,166
-507,999	111,317	0,061	0,053
-506,985	-200,000	0,006	-0,101
-505,970	-128,887	-0,124	-0,012
-504,956	-95,679	-0,028	-0,005
-503,941	26,950	0,185	0,111
-502,926	-96,576	0,150	0,028
-501,912	800,000	0,040	0,087
-500,897	49,659	0,035	0,024
-499,883	-89,604	0,065	0,014
-498,868	-168,354	0,044	0,001
-497,853	-200,000	-0,011	-0,041
-496,839	401,702	0,059	0,089
-495,824	-5,049	0,066	-0,033
-494,810	141,555	0,031	-0,029
-493,795	69,785	-0,033	-0,024
-492,781	800,000	0,022	-0,062
-491,766	800,000	-0,080	-0,219
-490,751	798,309	-0,034	0,067
-489,737	800,000	-0,039	0,081
-488,722	-200,000	0,013	-0,055
-487,708	-49,007	-0,070	0,024
-486,693	613,300	0,015	0,026
-485,678	-200,000	-0,010	-0,114
-484,664	187,386	0,124	-0,134
-483,649	-150,181	-0,227	-0,012
-482,635	-44,681	0,040	-0,014
-481,620	33,636	-0,032	0,020
-480,605	-200,000	0,014	0,138
-479,591	25,803	0,010	-0,006
-478,576	1,710	0,057	-0,029
-477,562	-70,515	-0,083	0,022
-476,547	-200,000	0,003	-0,044
-475,532	107,065	-0,057	0,049
-474,518	-177,663	0,056	-0,001
-473,503	-200,000	-0,013	-0,057
-472,489	70,288	0,083	0,062
-471,474	-200,000	-0,032	-0,150
-470,459	-200,000	-0,006	0,041
-469,445	800,000	-0,041	-0,104
-468,430	800,000	0,034	-0,105
-467,416	800,000	-0,063	0,135
-466,401	800,000	0,013	-0,038
-465,386	18,227	-0,098	0,056
-464,372	-200,000	0,008	-0,037
-463,357	55,288	-0,055	-0,038
-462,343	270,865	0,036	-0,046
-461,328	-200,000	-0,013	-0,091
-460,313	-59,121	-0,033	0,010
-459,299	165,454	0,077	0,079
-458,284	-200,000	0,047	-0,164
-457,270	-200,000	0,028	0,171
-456,255	-200,000	0,006	-0,043
-455,241	-38,252	0,102	0,039
-454,226	-200,000	-0,005	-0,166
-453,211	-200,000	0,015	0,073
-452,197	5,727	0,085	0,045
-451,182	-178,229	0,022	-0,000
-450,168	-1,890	-0,099	-0,050
-449,153	74,758	0,125	0,095
-448,138	-33,088	0,084	0,033
-447,124	-200,000	-0,027	-0,111
-446,109	336,586	-0,035	-0,049
-445,095	541,841	0,033	0,057
-444,080	800,000	0,014	-0,031
-443,065	-79,594	0,139	0,033
-442,051	282,522	0,019	0,024
-441,036	-183,844	0,149	-0,002
-440,022	99,002	-0,077	0,064
-439,007	-31,607	0,144	-0,058
-437,992	800,000	0,040	0,110
-436,978	94,229	0,042	0,035
-435,963	240,267	-0,027	-0,033
-434,949	162,016	0,077	-0,078
-433,934	-86,667	-0,058	-0,013
-432,919	800,000	-0,084	-0,250
-431,905	166,500	0,096	0,098
-430,890	125,666	0,033	0,030
-429,876	800,000	0,056	0,117
-428,861	187,611	0,024	-0,026
-427,846	-110,995	0,048	0,007
-426,832	-28,737	0,075	0,031
-425,817	448,984	-0,012	0,019
-424,803	445,098	-0,105	-0,166
-423,788	-200,000	-0,012	-0,090
-422,773	577,928	-0,024	0,042
-421,759	-200,000	0,002	0,099
-420,744	-175,020	-0,079	-0,002
-419,730	-3,263	-0,047	0,023
-418,715	-200,000	0,005	0,116
-417,701	-200,000	0,003	-0,040
-416,686	142,658	0,098	0,094
-415,671	37,636	-0,103	0,066
-414,657	-200,000	0,036	0,137
-413,642	-63,560	0,091	-0,027
-412,628	800,000	-0,060	-0,147
-411,613	-200,000	-0,021	-0,100
-410,598	-200,000	-0,014	0,073
-409,584	800,000	-0,039	-0,102
-408,569	-200,000	-0,041	0,192
-407,555	800,000	0,058	0,131
-406,540	305,827	-0,076	-0,101
-405,525	-200,000	0,020	-0,151
-404,511	-33,740	0,064	-0,025
-403,496	203,826	0,072	-0,080
-402,482	-200,000	-0,014	0,102
-401,467	-200,000	-0,018	0,072
-400,452	4,141	0,086	-0,045
-399,438	349,550	-0,043	-0,061
-398,423	36,349	-0,021	0,013
-397,409	800,000	-0,011	-0,022
-396,394	621,422	0,018	-0,032
-395,379	-36,592	-0,034	-0,013
-394,365	800,000	0,055	0,129
-393,350	45,702	0,073	0,048
-392,336	-50,401	-0,117	0,039
-391,321	667,686	0,022	0,041
-390,306	40,892	-0,075	0,048
-389,292	191,827	-0,017	0,018
-388,277	800,000	-0,033	-0,103
-387,263	155,951	0,101	0,100
-386,248	-111,738	0,103	-0,015
-385,233	-200,000	-0,020	0,136
-384,219	-122,881	-0,131	-0,015
-383,204	800,000	-0,055	-0,123
-382,190	163,967	0,025	-0,025
-381,175	46,792	0,060	0,040
-380,160	800,000	-0,020	-0,043
-379,146	76,209	0,116	0,088
-378,131	-200,000	0,010	0,075
-377,117	-53,073	0,205	-0,067
-376,102	-200,000	0,024	-0,092
-375,088	-200,000	-0,004	-0,041
-374,073	-132,952	-0,050	-0,004
-373,058	-127,947	-0,055	-0,006
-372,044	-144,324	0,014	0,001
-371,029	-200,000	-0,015	-0,096
-370,015	336,204	-0,117	-0,163
-369,000	28,757	-0,037	-0,022
-367,985	-105,525	0,098	0,016
-366,971	-113,689	-0,115	-0,016
-365,956	10,962	0,210	0,115
-364,942	-200,000	0,018	0,076
-363,927	587,077	0,093	0,164
-362,912	-3,643	-0,213	0,106
-361,898	239,442	-0,003	-0,003
-360,883	182,012	0,065	-0,069
-359,869	188,711	-0,037	0,040
-358,854	-83,047	-0,015	0,003
-357,839	105,656	-0,014	0,012
-356,825	-200,000	-0,007	0,053
-355,810	-200,000	0,001	-0,031
-354,796	52,099	-0,113	-0,077
-353,781	-86,051	-0,108	-0,024
-352,766	-80,654	-0,082	0,019
-351,752	30,967	-0,010	0,006
-350,737	255,087	0,022	0,027
-349,723	-46,701	0,070	-0,024
-348,708	800,000	-0,032	-0,096
-347,693	-35,977	0,034	0,013
-346,679	93,200	-0,101	0,082
-345,664	-200,000	-0,019	0,184
-344,650	-61,298	-0,120	-0,036
-343,635	-83,306	0,140	0,032
-342,620	-200,000	0,023	0,107
-341,606	-99,650	0,190	0,034
-340,591	-200,000	-0,003	-0,029
-339,577	-200,000	-0,008	-0,103
-338,562	-115,837	-0,051	-0,007
-337,548	243,281	-0,011	0,014
-336,533	-108,589	0,182	-0,028
-335,518	-200,000	-0,000	-0,049
-334,504	14,009	-0,073	0,040
-333,489	-200,000	-0,010	0,083
-332,475	541,495	-0,084	-0,143
-331,460	-200,000	-0,046	-0,147
-330,445	800,000	-0,022	-0,067
-329,431	99,796	0,054	0,045
-328,416	-27,108	0,061	0,025
-327,402	236,032	0,123	0,146
-326,387	-200,000	0,007	0,084
-325,372	-25,628	0,038	-0,016
-324,358	2,697	-0,027	-0,014
-323,343	1,491	0,104	0,053
-322,329	273,173	-0,077	-0,098
-321,314	-200,000	-0,013	-0,062
-320,299	416,563	-0,026	-0,039
-319,285	-1,632	0,042	-0,021
-318,270	800,000	-0,022	-0,066
-317,256	800,000	-0,019	-0,038
-316,241	-119,757	-0,084	-0,010
-315,226	99,276	0,035	0,029
-314,212	163,428	0,001	-0,001
-313,197	-96,891	-0,106	-0,020
-312,183	-50,354	-0,028	0,010
-311,168	-38,555	0,068	-0,026
-310,153	-132,962	-0,144	-0,013
-309,139	-124,188	-0,068	-0,007
-308,124	-200,000	0,004	0,023
-307,110	-200,000	0,010	0,244
-306,095	419,425	0,072	0,111
-305,080	646,501	-0,039	-0,072
-304,066	32,134	-0,085	-0,053
-303,051	-14,808	-0,066	-0,030
-302,037	800,000	0,069	-0,146
-301,022	5,438	0,036	0,019
-300,008	40,551	0,022	0,014
-298,993	157,789	0,006	-0,006
-297,978	-200,000	0,034	0,137
-296,964	-200,000	-0,017	-0,055
-295,949	107,107	-0,117	-0,099
-294,935	85,844	0,042	-0,033
-293,920	-82,289	0,055	-0,013
-292,905	-200,000	0,021	0,132
-291,891	-59,238	0,036	-0,011
-290,876	160,585	-0,044	-0,044
-289,862	-59,073	-0,161	-0,049
-288,847	270,799	-0,089	-0,112
-287,832	205,006	0,110	-0,122
-286,818	788,268	-0,060	-0,118
-285,803	167,900	0,033	0,034
-284,789	-150,547	0,061	0,003
-283,774	-200,000	-0,000	0,045
-282,759	92,442	0,043	0,035
-281,745	-116,746	-0,084	-0,011
-280,730	-13,389	-0,162	0,075
-279,716	61,728	0,106	-0,075
-278,701	-200,000	0,006	-0,070
-277,686	-73,778	0,183	0,047
-276,672	256,989	0,042	-0,051
-275,657	-200,000	0,019	-0,139
-274,643	20,662	-0,072	-0,041
-273,628	154,139	0,016	-0,016
-272,613	-200,000	0,003	0,101
-271,599	582,000	-0,007	-0,012
-270,584	193,941	-0,015	-0,016
-269,570	183,265	0,118	0,125
-268,555	38,517	-0,091	0,058
-267,540	-116,293	0,026	0,003
-266,526	168,902	-0,138	0,141
-265,511	-24,161	-0,119	0,050
-264,497	231,712	0,077	-0,091
-263,482	252,480	0,061	0,074
-262,467	10,405	0,037	-0,020
-261,453	-28,630	0,107	0,044
-260,438	-63,011	-0,113	-0,033
-259,424	-24,521	0,038	-0,016
-258,409	-200,000	-0,010	-0,124
-257,395	408,928	-0,055	-0,084
-256,380	-178,006	0,141	0,002
-255,365	-200,000	0,005	-0,017
-254,351	-107,186	-0,119	-0,019
-253,336	-200,000	0,037	0,154
-252,322	-200,000	-0,007	-0,050
-251,307	-200,000	0,004	-0,080
-250,292	-200,000	0,040	-0,158
-249,278	-51,938	-0,099	-0,032
-248,263	-165,523	0,079	-0,002
-247,249	240,761	0,082	-0,098
-246,234	-108,066	0,023	0,004
-245,219	800,000	-0,035	-0,090
-244,205	142,394	-0,018	0,017
-243,190	245,082	-0,056	0,067
-242,176	-19,552	0,146	0,064
-241,161	-73,849	0,132	-0,034
-240,146	196,949	-0,052	0,056
-239,132	63,379	0,099	-0,071
-238,117	-140,050	0,074	-0,005
-237,103	-200,000	-0,003	-0,011
-236,088	-200,000	0,010	-0,161
-235,073	50,320	0,076	-0,051
-234,059	113,077	-0,104	-0,090
-233,044	502,296	-0,054	-0,090
-232,030	-51,860	-0,087	0,029
-231,015	113,845	-0,018	-0,016
-230,000	200,146	-0,110	0,121
-228,986	202,909	0,024	0,027
-227,971	-129,917	0,073	-0,007
-226,957	121,224	-0,057	0,050
-225,942	337,318	-0,073	0,102
-224,927	179,102	-0,096	-0,100
-223,913	53,666	0,054	0,037
-222,898	47,683	-0,083	0,055
-221,884	-56,041	-0,014	-0,004
-220,869	-200,000	-0,007	0,115
-219,855	225,230	0,067	0,077
-218,840	-3,431	-0,135	0,067
-217,825	166,974	-0,031	0,031
-216,811	800,000	0,024	-0,061
-215,796	269,091	-0,018	-0,022
-214,782	298,661	0,046	-0,061
-213,767	16,002	-0,065	0,036
-212,752	501,261	-0,057	0,095
-211,738	-200,000	0,014	0,093
-210,723	37,189	-0,028	0,018
-209,709	-200,000	-0,006	-0,032
-208,694	-200,000	0,001	0,042
-207,679	8,202	-0,055	0,029
-206,665	-16,254	0,037	0,017
-205,650	12,274	-0,017	0,009
-204,636	126,574	0,097	0,087
-203,621	-200,000	0,010	0,158
-202,606	-200,000	-0,014	-0,046
-201,592	472,076	-0,116	-0,186
-200,577	-71,289	0,106	-0,028
-199,563	-200,000	-0,013	0,082
-198,548	698,949	0,058	0,109
-197,533	564,564	0,079	0,137
-196,519	-11,731	0,081	0,038
-195,504	161,929	-0,085	0,085
-194,490	-200,000	-0,010	-0,034
-193,475	800,000	-0,029	0,073
-192,460	-200,000	-0,011	0,063
-191,446	-67,383	0,080	-0,022
-190,431	-200,000	0,020	0,077
-189,417	105,093	0,039	0,033
-188,402	-4,774	0,038	0,019
-187,387	-134,381	-0,100	-0,009
-186,373	-200,000	0,003	-0,027
-185,358	-200,000	0,009	0,045
-184,344	-34,474	0,196	0,076
-183,329	248,046	-0,027	0,033
-182,315	-61,713	-0,134	-0,040
-181,300	-58,662	-0,104	0,032
-180,285	-200,000	0,007	0,039
-179,271	-200,000	-0,019	0,075
-178,256	800,000	0,004	0,012
-177,242	-200,000	0,010	0,094
-176,227	-200,000	-0,012	0,056
-175,212	-32,029	-0,059	0,023
-174,198	6,035	-0,088	-0,046
-173,183	-49,328	-0,106	0,036
-172,169	800,000	-0,018	0,056
-171,154	9,471	-0,251	0,135
-170,139	-200,000	-0,000	-0,001
-169,125	800,000	-0,058	0,119
-168,110	-81,956	0,135	-0,031
-167,096	800,000	0,062	-0,125
-166,081	-200,000	-0,006	-0,027
-165,066	46,551	0,040	-0,026
-164,052	543,550	-0,088	-0,151
-163,037	395,633	0,037	-0,055
-162,023	-145,047	-0,153	0,010
-161,008	34,836	0,052	-0,032
-159,993	28,912	0,064	-0,039
-158,979	162,711	0,041	-0,041
-157,964	13,853	0,115	0,063
-156,950	-63,155	-0,045	-0,013
-155,935	226,104	0,080	0,092
-154,920	800,000	-0,050	0,106
-153,906	-200,000	-0,021	0,128
-152,891	16,136	0,105	-0,059
-151,877	70,176	-0,060	-0,044
-150,862	-143,391	-0,228	0,015
-149,847	405,034	-0,045	0,067
-148,833	800,000	0,040	-0,090
-147,818	740,013	-0,049	0,093
-146,804	-200,000	0,025	0,155
-145,789	-50,675	-0,031	-0,010
-144,775	100,914	-0,077	-0,064
-143,760	331,359	-0,083	-0,113
-142,745	171,302	0,066	-0,068
-141,731	-159,795	0,099	0,004
-140,716	800,000	0,032	0,099
-139,702	263,949	0,048	0,060
-138,687	23,245	0,054	0,031
-137,672	-200,000	0,018	-0,159
-136,658	-134,182	0,094	-0,008
-135,643	-98,761	0,058	-0,010
-134,629	-74,718	-0,065	0,016
-133,614	66,903	0,155	-0,112
-132,599	152,313	0,091	0,089
-131,585	800,000	-0,027	-0,070
-130,570	-65,591	-0,093	0,026
-129,556	-170,629	0,009	-0,000
-128,541	800,000	-0,044	0,135
-127,526	-114,250	0,030	0,004
-126,512	8,242	0,041	0,022
-125,497	800,000	-0,031	0,075
-124,483	800,000	-0,041	0,082
-123,468	800,000	0,027	-0,059
-122,453	-49,123	0,032	0,011
-121,439	-200,000	0,003	-0,111
-120,424	-70,319	0,167	0,045
-119,410	-49,532	0,166	0,056
-118,395	258,771	-0,042	0,052
-117,380	800,000	0,062	0,188
-116,366	48,784	0,050	-0,033
-115,351	800,000	0,030	0,068
-114,337	-61,005	-0,071	0,021
-113,322	-200,000	-0,019	-0,066
-112,307	-200,000	-0,020	-0,125
-111,293	-11,892	-0,048	0,022
-110,278	425,678	-0,061	-0,094
-109,264	-15,923	0,165	0,074
-108,249	47,886	0,128	-0,085
-107,234	800,000	-0,041	-0,086
-106,220	418,172	0,065	-0,099
-105,205	-200,000	0,017	0,085
-104,191	-74,036	0,124	0,032
-103,176	-143,163	0,132	0,009
-102,162	470,976	0,056	0,090
-101,147	-76,354	-0,071	-0,018
-100,132	-45,332	-0,099	-0,035
-99,118	72,369	0,033	-0,024
-98,103	800,000	-0,049	0,096
-97,089	70,323	-0,015	0,011
-96,074	800,000	0,025	0,057
-95,059	800,000	0,055	0,146
-94,045	800,000	-0,031	0,074
-93,030	800,000	-0,040	0,111
-92,016	48,720	-0,014	-0,009
-91,001	-61,678	-0,013	0,004
-89,986	42,505	0,153	-0,099
-88,972	-56,832	-0,141	0,044
-87,957	230,518	0,075	0,087
-86,943	130,158	0,096	0,087
-85,928	52,416	-0,080	-0,054
-84,913	800,000	0,080	-0,197
-83,899	-200,000	0,033	0,166
-82,884	-200,000	0,009	0,110
-81,870	233,543	0,133	-0,155
-80,855	-200,000	-0,007	0,100
-79,840	155,503	-0,036	-0,035
-78,826	42,658	-0,135	-0,087
-77,811	-200,000	0,021	-0,145
-76,797	-22,360	-0,118	0,051
-75,782	-200,000	0,005	0,149
-74,767	800,000	0,048	0,103
-73,753	385,722	0,067	0,099
-72,738	-86,093	-0,069	-0,015
-71,724	-200,000	0,033	-0,135
-70,709	19,415	-0,103	0,058
-69,694	-200,000	-0,029	-0,128
-68,680	149,695	0,018	0,018
-67,665	-82,920	0,078	-0,018
-66,651	4,050	0,013	-0,007
-65,636	800,000	-0,049	0,112
-64,622	-126,239	0,228	-0,024
-63,607	312,121	-0,021	-0,028
-62,592	112,044	-0,051	0,044
-61,578	-83,563	0,090	-0,020
-60,563	441,204	-0,044	0,068
-59,549	591,001	-0,058	0,101
-58,534	-57,153	-1,500	-0,465
-57,519	463,830	-1,377	-2,187
-56,505	-200,000	-0,658	-4,736
-55,490	125,620	1,027	0,918
-54,476	800,000	4,672	11,435
-53,461	-200,000	18,491	295,877
-52,446	800,000	730,765	2254,329
-51,432	558,621	1646,995	2825,255
-50,417	78,887	1667,973	1262,839
-49,403	22,507	1540,913	890,192
-48,388	16,413	1464,058	816,236
-47,373	17,796	1453,858	817,186
-46,359	16,998	1444,514	808,077
-45,344	14,692	1439,616	794,283
-44,330	14,603	1437,999	792,934
-43,315	14,626	1435,972	791,895
-42,300	14,626	1434,490	791,046
-41,286	14,661	1433,380	790,569
-40,271	14,645	1431,984	789,692
-39,257	14,601	1430,670	788,728
-38,242	14,662	1429,274	788,214
-37,227	14,666	1428,169	787,596
-36,213	14,665	1426,914	786,865
-35,198	14,631	1425,810	786,066
-34,184	14,707	1424,838	785,859
-33,169	14,627	1423,574	784,751
-32,154	14,710	1422,376	784,450
-31,140	14,682	1421,181	783,629
-30,125	14,707	1419,982	783,056
-29,111	14,648	1418,980	782,191
-28,096	14,668	1417,738	781,573
-27,082	14,598	1416,783	780,686
-26,067	14,634	1415,573	780,156
-25,052	14,582	1414,619	779,352
-24,038	14,553	1413,688	778,673
-23,023	14,573	1412,779	778,237
-22,009	14,550	1411,854	777,588
-20,994	14,528	1410,865	776,910
-19,979	14,520	1409,939	776,333
-18,965	14,497	1408,680	775,498
-17,950	14,514	1407,909	775,124
-16,936	14,565	1406,890	774,772
-15,921	14,491	1405,843	773,817
-14,906	14,450	1405,059	773,162
-13,892	14,514	1404,144	772,928
-12,877	14,515	1403,199	772,382
-11,863	14,527	1402,225	771,869
-10,848	14,501	1401,549	771,347
-9,833	14,477	1400,464	770,609
-8,819	14,438	1399,540	769,890
-7,804	14,434	1398,744	769,403
-6,790	14,405	1397,687	768,653
-5,775	14,420	1396,485	768,032
-4,760	14,346	1395,855	767,312
-3,746	14,419	1394,860	767,075
-2,731	14,429	1394,043	766,642
-1,717	14,393	1393,137	765,943
-0,702	14,424	1391,324	765,062
0,313	18,270	1309,657	737,954
1,327	34,706	705,935	435,830
2,342	53,054	124,346	84,092
3,356	3,825	16,596	8,550
4,371	-0,879	3,090	1,543
5,386	-17,964	0,420	0,186
6,400	328,161	-0,093	0,126
7,415	-52,463	-0,183	-0,060
8,429	151,100	-0,274	-0,264
9,444	-34,063	-0,322	-0,124
10,459	227,116	-0,174	-0,200
11,473	-78,152	-0,328	-0,079
12,488	-51,470	-0,314	-0,103
13,502	-61,821	-0,352	-0,104
14,517	-15,689	-0,318	-0,143
15,531	-6,015	-0,366	-0,176
16,546	-87,281	-0,421	-0,090
17,561	9,922	-0,298	-0,160
18,575	48,712	-0,197	-0,130
19,590	530,668	-0,183	-0,308
20,604	93,138	-0,168	-0,134
21,619	88,119	-0,455	-0,356
22,634	89,639	-0,388	-0,305
23,648	319,818	-0,268	-0,360
24,663	176,487	-0,409	-0,420
25,677	142,100	-0,308	-0,288
26,692	159,883	-0,421	-0,415
27,707	204,701	-0,230	-0,253
28,721	334,944	-0,252	-0,345
29,736	57,391	-0,414	-0,285
30,750	-19,540	-0,529	-0,230
31,765	112,862	-0,350	-0,299
32,780	-52,590	-0,414	-0,134
33,794	8,379	-0,426	-0,226
34,809	70,160	-0,473	-0,344
35,823	119,956	-0,290	-0,254
36,838	41,296	-0,399	-0,254
37,853	391,540	-0,259	-0,381
38,867	13,851	-0,422	-0,231
39,882	98,594	-0,284	-0,231
40,896	-29,723	-0,419	-0,168
41,911	-57,816	-0,392	-0,120
42,926	147,532	-0,216	-0,205
43,940	166,352	-0,434	-0,434
44,955	-15,855	-0,469	-0,210
45,969	1,115	-0,404	-0,204
46,984	143,287	-0,390	-0,366
47,999	-42,489	-0,268	-0,096
49,013	11,168	-0,293	-0,157
50,028	159,979	-0,249	-0,245
51,042	-12,069	-0,495	-0,228
52,057	66,291	-0,288	-0,206
53,071	83,066	-0,429	-0,329
54,086	25,118	-0,286	-0,167
55,101	50,232	-0,253	-0,168
56,115	64,940	-0,271	-0,193
57,130	54,740	-0,365	-0,248
58,144	0,277	-0,346	-0,173
59,159	72,215	-0,398	-0,292
60,174	64,350	-0,334	-0,236
61,188	84,445	-0,357	-0,275
62,203	79,754	-0,308	-0,232
63,217	84,994	-0,253	-0,195
64,232	124,822	-0,305	-0,270
65,247	-21,708	-0,349	-0,149
66,261	73,450	-0,336	-0,247
67,276	51,141	-0,353	-0,236
68,290	10,827	-0,351	-0,188
69,305	45,834	-0,352	-0,229
70,320	-73,969	-0,210	-0,053
71,334	98,829	-0,292	-0,237
72,349	154,997	-0,279	-0,270
73,363	56,683	-0,295	-0,202
74,378	-64,021	-0,351	-0,100
75,393	94,262	-0,306	-0,244
76,407	-41,215	-0,322	-0,116
77,422	105,698	-0,257	-0,213
78,436	-135,959	-0,239	-0,019
79,451	13,739	-0,407	-0,222
80,466	-45,607	-0,357	-0,124
81,480	-2,414	-0,363	-0,178
82,495	-42,992	-0,349	-0,124
83,509	50,549	-0,339	-0,225
84,524	107,227	-0,339	-0,283
85,539	80,674	-0,303	-0,229
86,553	232,227	-0,178	-0,206
87,568	104,828	-0,298	-0,247
88,582	391,087	-0,220	-0,322
89,597	0,688	-0,342	-0,171
90,611	192,932	-0,114	-0,121
91,626	86,448	-0,215	-0,166
92,641	16,223	-0,257	-0,142
93,655	208,652	-0,171	-0,188
94,670	144,525	-0,245	-0,230
95,684	216,007	-0,190	-0,212
96,699	29,203	-0,214	-0,127
97,714	349,790	-0,176	-0,244
98,728	-13,109	-0,303	-0,138
99,743	-23,134	-0,356	-0,150
100,757	64,541	-0,168	-0,119
101,772	175,061	-0,231	-0,235
102,787	114,920	-0,272	-0,233
103,801	18,845	-0,263	-0,147
104,816	-115,495	-0,239	-0,031
105,830	50,175	-0,246	-0,163
106,845	25,323	-0,159	-0,093
107,860	751,969	-0,118	-0,225
108,874	-179,478	-0,147	-0,002
109,889	116,168	-0,309	-0,265
110,903	327,781	-0,199	-0,268
111,918	206,915	-0,242	-0,265
112,933	-113,097	-0,274	-0,037
113,947	-63,903	-0,231	-0,066
114,962	143,499	-0,084	-0,079
115,976	126,270	-0,190	-0,169
116,991	24,626	-0,241	-0,140
118,006	116,959	-0,245	-0,211
119,020	46,193	-0,279	-0,181
120,035	142,220	-0,209	-0,194
121,049	10,783	-0,189	-0,101
122,064	4,971	-0,234	-0,120
123,079	-65,182	-0,291	-0,081
124,093	800,000	-0,138	-0,327
125,108	133,492	-0,221	-0,200
126,122	80,258	-0,214	-0,161
127,137	800,000	-0,119	-0,277
128,151	-94,490	-0,230	-0,044
129,166	-37,099	-0,283	-0,106
130,181	-71,335	-0,303	0,079
131,195	62,246	-0,254	-0,177
132,210	132,436	-0,259	-0,234
133,224	88,901	-0,268	-0,208
134,239	87,295	-0,317	-0,245
135,254	-31,132	-0,185	-0,073
136,268	171,123	-0,287	-0,288
137,283	-119,712	-0,212	-0,025
138,297	150,201	-0,148	-0,140
139,312	216,060	-0,197	-0,219
140,327	184,002	-0,220	-0,228
141,341	282,616	-0,197	-0,248
142,356	18,348	-0,323	-0,180
143,370	61,865	-0,284	-0,197
144,385	-2,694	-0,313	-0,152
145,400	61,978	-0,283	-0,197
146,414	143,701	-0,225	-0,210
147,429	-80,417	-0,255	-0,059
148,443	8,300	-0,170	-0,089
149,458	-73,992	-0,160	-0,040
150,473	242,055	-0,128	-0,150
151,487	20,997	-0,289	-0,163
152,502	67,352	-0,217	-0,155
153,516	190,074	-0,162	-0,169
154,531	310,395	-0,186	-0,244
155,546	-41,363	-0,382	-0,137
156,560	-77,097	-0,203	-0,049
157,575	-53,937	-0,108	-0,034
158,589	101,862	-0,192	-0,157
159,604	-66,784	-0,270	-0,074
160,619	-200,000	-0,038	-0,275
161,633	19,541	-0,364	-0,204
162,648	-79,580	-0,325	-0,076
163,662	20,338	-0,235	-0,132
164,677	113,239	-0,215	-0,182
165,692	-109,873	-0,232	-0,034
166,706	5,605	-0,282	-0,145
167,721	245,085	-0,240	-0,282
168,735	800,000	-0,164	-0,336
169,750	193,209	-0,172	-0,181
170,764	517,634	-0,135	-0,222
171,779	173,875	-0,133	-0,134
172,794	-162,843	-0,236	-0,008
173,808	-2,007	-0,285	-0,139
174,823	0,680	-0,343	-0,170
175,837	80,707	-0,188	-0,141
176,852	171,881	-0,122	-0,122
177,867	128,317	-0,071	0,063
178,881	-61,845	-0,187	-0,054
179,896	169,053	-0,211	-0,210
180,910	-45,399	-0,336	-0,115
181,925	-49,789	-0,214	-0,070
182,940	102,749	-0,261	-0,213
183,954	201,774	-0,134	-0,144
184,969	125,072	-0,185	-0,163
185,983	90,736	-0,260	-0,203
186,998	64,183	-0,297	-0,208
188,013	-19,168	-0,217	-0,094
189,027	-22,989	-0,217	-0,091
190,042	249,140	-0,109	-0,128
191,056	-90,971	-0,216	-0,043
192,071	106,707	-0,157	-0,130
193,086	87,097	-0,193	-0,148
194,100	800,000	-0,004	-0,011
195,115	1,513	-0,273	-0,136
196,129	299,170	-0,060	-0,077
197,144	238,941	-0,154	-0,178
198,159	-21,204	-0,253	-0,107
199,173	18,139	-0,235	-0,130
200,188	-129,438	-0,181	-0,017
201,202	8,703	-0,291	-0,152
202,217	-103,650	-0,232	-0,038
203,232	200,841	-0,278	-0,298
204,246	238,268	-0,171	-0,198
205,261	247,001	-0,206	-0,242
206,275	172,600	-0,209	-0,210
207,290	-22,900	-0,134	-0,056
208,304	-104,883	-0,114	0,018
209,319	215,819	-0,090	-0,100
210,334	-122,755	-0,169	0,019
211,348	-137,545	-0,155	-0,012
212,363	76,036	-0,294	-0,216
213,377	67,047	-0,231	-0,164
214,392	47,991	-0,151	-0,098
215,407	117,076	-0,183	-0,156
216,421	145,131	-0,119	-0,111
217,436	217,162	-0,198	-0,219
218,450	55,221	-0,165	-0,111
219,465	550,104	-0,144	-0,241
220,480	91,747	-0,145	-0,113
221,494	306,967	-0,099	-0,129
222,509	-122,752	-0,280	-0,031
223,523	26,070	-0,213	-0,123
224,538	298,425	-0,125	-0,160
225,553	800,000	-0,120	-0,235
226,567	314,892	-0,155	-0,203
227,582	-4,345	-0,282	-0,135
228,596	-52,587	-0,212	0,068
229,611	-70,467	-0,133	-0,035
230,626	386,478	-0,106	-0,152
231,640	733,554	-0,149	-0,278
232,655	81,215	-0,197	-0,147
233,669	60,848	-0,247	-0,170
234,684	-55,951	-0,236	-0,073
235,699	-200,000	-0,023	-0,103
236,713	-115,381	-0,139	-0,018
237,728	513,267	-0,080	-0,131
238,742	98,792	-0,163	-0,130
239,757	-51,434	-0,257	-0,083
240,772	130,512	-0,185	-0,164
241,786	9,018	-0,294	-0,153
242,801	-35,861	-0,171	-0,064
243,815	-27,453	-0,134	-0,054
244,830	-101,835	-0,173	-0,029
245,844	4,331	-0,194	-0,098
246,859	-147,993	-0,111	-0,006
247,874	46,702	-0,164	-0,105
248,888	577,559	-0,130	-0,221
249,903	677,021	-0,119	-0,214
250,917	46,564	-0,157	-0,100
251,932	39,488	-0,100	-0,062
252,947	71,107	-0,218	-0,156
253,961	264,596	-0,192	-0,232
254,976	61,314	-0,274	-0,188
255,990	456,640	-0,153	-0,236
257,005	699,459	-0,105	-0,192
258,020	24,832	-0,210	-0,120
259,034	407,212	-0,070	-0,102
260,049	544,800	-0,157	-0,261
261,063	-11,081	-0,303	-0,138
262,078	-70,971	-0,209	-0,054
263,093	-33,333	-0,306	-0,117
264,107	-22,367	-0,108	-0,045
265,122	642,883	-0,014	0,025
266,136	-72,793	-0,320	-0,081
267,151	600,791	-0,094	-0,162
268,166	112,291	-0,237	-0,198
269,180	-3,896	-0,264	-0,126
270,195	-135,913	-0,276	-0,022
271,209	-70,386	-0,298	-0,077
272,224	140,757	-0,073	-0,067
273,239	34,152	-0,110	0,066
274,253	91,820	-0,114	0,088
275,268	455,144	-0,216	-0,333
276,282	-94,602	-0,248	-0,046
277,297	-40,055	-0,274	-0,098
278,312	-9,761	-0,200	-0,092
279,326	345,887	-0,096	-0,131
280,341	800,000	0,024	-0,054
281,355	-96,618	-0,123	0,022
282,370	-7,809	-0,209	-0,097
283,384	800,000	-0,090	-0,191
284,399	19,039	-0,264	-0,146
285,414	-200,000	-0,073	-0,248
286,428	258,067	-0,130	-0,155
287,443	-176,951	-0,067	0,001
288,457	2,473	-0,096	-0,048
289,472	142,648	-0,081	-0,074
290,487	-66,852	-0,172	-0,047
291,501	-140,021	-0,167	0,012
292,516	204,149	-0,188	-0,201
293,530	65,168	-0,101	0,070
294,545	84,677	-0,137	-0,103
295,560	63,377	-0,124	-0,085
296,574	42,357	-0,178	-0,112
297,589	800,000	-0,049	-0,136
298,603	-103,360	-0,174	-0,028
299,618	-46,488	-0,245	-0,082
300,633	193,803	-0,170	-0,177
301,647	46,592	-0,186	-0,119
302,662	333,569	-0,141	-0,188
303,676	54,090	-0,214	-0,142
304,691	23,723	-0,125	-0,071
305,706	82,865	-0,213	-0,159
306,720	-3,851	-0,135	-0,064
307,735	122,150	-0,158	-0,136
308,749	254,193	-0,161	-0,190
309,764	50,854	-0,064	-0,042
310,779	800,000	-0,036	-0,091
311,793	800,000	-0,097	-0,214
312,808	-16,401	-0,236	-0,103
313,822	327,840	-0,106	-0,140
314,837	55,427	-0,141	-0,094
315,852	-91,129	-0,233	-0,046
316,866	7,415	-0,106	-0,054
317,881	-200,000	-0,006	-0,091
318,895	282,672	-0,050	-0,062
319,910	26,509	-0,141	-0,081
320,925	-142,834	-0,252	-0,017
321,939	126,368	-0,190	-0,166
322,954	-100,262	-0,051	0,009
323,968	292,968	-0,097	-0,123
324,983	96,059	-0,121	-0,095
325,997	342,577	-0,117	-0,157
327,012	147,029	-0,077	-0,071
328,027	239,630	-0,136	-0,156
329,041	-183,761	-0,103	-0,001
330,056	-200,000	-0,076	-0,298
331,070	29,978	-0,128	-0,075
332,085	102,240	-0,209	-0,168
333,100	11,097	-0,221	-0,116
334,114	400,484	-0,107	-0,155
335,129	109,171	-0,114	-0,094
336,143	800,000	-0,040	-0,091
337,158	338,596	-0,126	-0,169
338,173	-39,172	-0,083	0,030
339,187	444,876	-0,016	0,025
340,202	-200,000	-0,008	-0,160
341,216	-110,187	-0,060	0,009
342,231	-200,000	0,045	-0,205
343,246	670,030	-0,074	-0,132
344,260	800,000	-0,040	-0,085
345,275	-200,000	-0,045	-0,157
346,289	-126,313	-0,167	-0,017
347,304	568,833	-0,122	-0,205
348,319	-4,418	-0,141	-0,066
349,333	110,260	-0,141	-0,116
350,348	197,044	-0,133	-0,140
351,362	152,635	-0,080	-0,075
352,377	-200,000	-0,034	-0,131
353,392	167,666	-0,109	-0,106
354,406	-107,018	-0,157	0,024
355,421	209,770	1316,418	1418,092
356,435	161,456	1477,381	1418,593
