DTS Sentinel unit serial number:	SN410029Multiplexer serial number:	ORYXHardware model number:	OX2-SRSoftware version number:	ORYX F/W v4,00 Oryx Data Collector v3.7.2.0data status	okinstallation	B3 Nyhavnadifferential loss correction	single-endedforward channel	channel 1reverse channel	N/Adate	2023/12/03time	00:02:30forward acquisition time	300,00reverse acquisition time	0,00gamma	499,1914k internal	0,3201k external	0,3201temperature offset calibration	1,0000default loss term (dB/km)	0,3820temperature slope calibration	1,0000multiplexer offset coefficient	1,0000multiplexer slope coefficient	1,0000fibre end	0,00T internal ref (°C)	13,28T ext. ref 1 (°C)	-1,68T ext. ref 2 (°C)	-1,69length (m)	temperature (°C)	Stokes	anti-Stokes-744,400	49,257	-0,145	-0,099
-743,385	-200,000	0,041	0,270
-742,371	133,358	-0,218	-0,205
-741,356	-200,000	-0,031	0,327
-740,342	202,684	-0,228	-0,256
-739,327	-200,000	-0,020	0,233
-738,312	547,289	-0,146	-0,255
-737,298	-200,000	-0,008	0,200
-736,283	800,000	-0,122	-0,331
-735,269	-200,000	-0,042	0,298
-734,254	166,238	-0,185	-0,191
-733,239	-96,841	-0,161	0,030
-732,225	800,000	-0,068	-0,202
-731,210	307,251	0,053	0,072
-730,196	-74,359	-0,115	-0,030
-729,181	800,000	-0,012	-0,026
-728,167	773,351	-0,008	-0,016
-727,152	769,927	0,018	0,037
-726,137	-82,188	0,043	-0,010
-725,123	800,000	0,018	0,041
-724,108	800,000	0,038	-0,117
-723,094	30,295	-0,098	-0,061
-722,079	-200,000	0,023	0,089
-721,064	-114,311	-0,080	0,011
-720,050	800,000	-0,029	0,068
-719,035	800,000	-0,012	-0,025
-718,021	-200,000	-0,004	-0,169
-717,006	-130,895	-0,170	0,016
-715,991	172,627	-0,062	0,065
-714,977	134,871	-0,041	-0,038
-713,962	800,000	0,059	-0,139
-712,948	-200,000	0,011	-0,065
-711,933	-200,000	-0,005	-0,155
-710,918	-47,751	0,116	0,041
-709,904	66,895	-0,228	-0,169
-708,889	-200,000	-0,002	-0,106
-707,875	71,347	-0,012	0,009
-706,860	-84,679	-0,107	-0,024
-705,845	-200,000	0,001	-0,020
-704,831	-155,988	-0,044	0,002
-703,816	-167,069	-0,118	-0,003
-702,802	233,161	0,078	0,094
-701,787	267,161	-0,068	0,086
-700,772	336,175	-0,086	-0,122
-699,758	-152,297	-0,115	-0,006
-698,743	-192,806	0,211	-0,001
-697,729	800,000	-0,004	-0,007
-696,714	800,000	0,022	-0,068
-695,699	800,000	-0,029	-0,078
-694,685	77,531	-0,122	0,094
-693,670	1,706	-0,034	0,018
-692,656	-200,000	0,001	-0,074
-691,641	-200,000	0,029	-0,113
-690,627	800,000	-0,023	-0,067
-689,612	-200,000	0,004	-0,096
-688,597	478,063	-0,039	0,065
-687,583	-200,000	-0,037	-0,136
-686,568	-78,599	-0,144	0,035
-685,554	-95,447	0,036	0,007
-684,539	-42,812	-0,058	-0,021
-683,524	-200,000	-0,012	-0,085
-682,510	-200,000	-0,003	0,051
-681,495	-200,000	0,001	-0,046
-680,481	800,000	0,034	-0,072
-679,466	-81,808	-0,136	0,032
-678,451	290,179	0,049	0,064
-677,437	-124,004	-0,081	0,009
-676,422	-84,345	0,233	-0,053
-675,408	-167,218	-0,083	0,002
-674,393	-52,137	-0,015	0,005
-673,378	-102,963	-0,040	-0,007
-672,364	-96,849	-0,109	-0,021
-671,349	800,000	0,020	0,058
-670,335	-9,444	0,102	0,049
-669,320	800,000	-0,024	-0,067
-668,305	257,407	0,054	-0,067
-667,291	380,396	0,063	-0,094
-666,276	-200,000	0,032	-0,162
-665,262	658,843	-0,053	-0,099
-664,247	125,857	-0,118	-0,108
-663,232	160,501	-0,083	-0,084
-662,218	-200,000	0,026	-0,088
-661,203	-200,000	0,034	0,110
-660,189	-200,000	0,009	0,074
-659,174	-67,842	0,047	0,013
-658,159	-200,000	0,017	-0,194
-657,145	777,402	0,041	-0,082
-656,130	8,620	0,089	-0,048
-655,116	-114,264	0,051	-0,007
-654,101	277,215	-0,056	-0,073
-653,086	-64,376	0,028	0,008
-652,072	13,397	-0,030	0,017
-651,057	800,000	-0,071	-0,165
-650,043	145,531	-0,042	-0,041
-649,028	-2,999	0,047	0,024
-648,014	65,421	-0,034	-0,025
-646,999	133,319	0,077	-0,072
-645,984	-172,286	0,107	-0,002
-644,970	71,300	0,042	0,032
-643,955	108,717	0,116	-0,100
-642,941	-20,668	-0,075	-0,033
-641,926	-52,487	0,063	-0,021
-640,911	67,832	0,165	-0,122
-639,897	542,849	0,072	0,124
-638,882	-89,005	-0,104	-0,022
-637,868	-200,000	-0,001	-0,100
-636,853	41,566	-0,044	0,029
-635,838	143,432	-0,072	0,069
-634,824	106,101	0,103	-0,088
-633,809	276,022	-0,046	0,060
-632,795	255,720	0,116	0,144
-631,780	67,675	-0,136	-0,101
-630,765	-200,000	-0,004	0,015
-629,751	-200,000	-0,002	-0,066
-628,736	-200,000	0,002	-0,103
-627,722	308,215	0,027	-0,036
-626,707	800,000	-0,034	-0,073
-625,692	-18,581	-0,073	-0,033
-624,678	172,634	0,029	0,030
-623,663	78,935	-0,101	0,078
-622,649	-200,000	-0,036	-0,227
-621,634	800,000	0,040	-0,086
-620,619	116,981	-0,087	-0,077
-619,605	332,347	-0,036	-0,051
-618,590	-27,451	-0,178	0,075
-617,576	471,055	0,034	0,055
-616,561	800,000	-0,022	-0,065
-615,546	-64,520	-0,166	-0,048
-614,532	-63,555	-0,068	0,020
-613,517	-60,890	0,091	-0,028
-612,503	639,386	0,031	0,057
-611,488	-86,389	-0,115	0,025
-610,474	-200,000	-0,025	0,106
-609,459	800,000	0,034	0,105
-608,444	-175,510	-0,158	0,003
-607,430	-84,488	-0,064	-0,015
-606,415	85,479	-0,057	0,045
-605,401	-200,000	-0,005	-0,091
-604,386	20,549	-0,030	-0,017
-603,371	33,661	-0,097	0,061
-602,357	754,325	-0,004	0,007
-601,342	800,000	-0,084	-0,227
-600,328	275,984	-0,030	-0,039
-599,313	-101,451	-0,135	0,023
-598,298	-167,451	-0,145	0,004
-597,284	-200,000	0,024	-0,116
-596,269	800,000	-0,010	0,022
-595,255	-200,000	-0,008	-0,053
-594,240	-12,895	0,124	-0,058
-593,225	179,684	0,047	-0,050
-592,211	93,759	0,030	0,024
-591,196	279,331	-0,014	0,018
-590,182	73,383	0,068	-0,051
-589,167	-106,463	-0,043	-0,007
-588,152	81,313	-0,029	-0,022
-587,138	587,213	-0,019	0,034
-586,123	43,099	-0,130	-0,086
-585,109	-200,000	-0,049	-0,170
-584,094	800,000	-0,031	-0,062
-583,079	285,279	-0,045	0,058
-582,065	-26,021	0,082	0,035
-581,050	159,856	0,033	0,033
-580,036	66,648	-0,082	0,060
-579,021	-200,000	-0,009	-0,038
-578,006	793,935	0,057	-0,114
-576,992	-28,413	-0,071	-0,029
-575,977	-200,000	0,016	-0,071
-574,963	-61,761	0,055	-0,016
-573,948	-200,000	0,019	0,117
-572,934	311,683	-0,044	0,060
-571,919	34,506	-0,135	-0,085
-570,904	-56,543	-0,159	-0,050
-569,890	99,087	-0,072	-0,060
-568,875	63,958	-0,066	-0,048
-567,861	-200,000	0,020	-0,070
-566,846	-200,000	-0,001	0,011
-565,831	-34,972	0,068	-0,027
-564,817	185,429	0,122	-0,131
-563,802	-200,000	-0,004	-0,097
-562,788	-200,000	-0,009	-0,164
-561,773	45,100	-0,107	-0,071
-560,758	76,138	0,099	0,076
-559,744	21,267	0,067	-0,039
-558,729	800,000	0,019	0,057
-557,715	220,426	-0,107	-0,124
-556,700	-200,000	0,003	-0,038
-555,685	-161,704	-0,042	0,002
-554,671	51,260	-0,031	-0,021
-553,656	-200,000	0,002	0,021
-552,642	800,000	-0,059	0,170
-551,627	-38,691	0,077	0,029
-550,612	160,980	0,097	-0,098
-549,598	536,651	-0,035	-0,060
-548,583	-200,000	-0,009	0,111
-547,569	595,982	-0,006	0,011
-546,554	352,279	0,084	-0,120
-545,539	-67,354	0,066	0,019
-544,525	-63,253	0,082	0,024
-543,510	127,269	0,005	-0,005
-542,496	-87,803	-0,068	-0,015
-541,481	-170,761	-0,106	-0,003
-540,466	314,955	0,025	-0,034
-539,452	264,718	0,034	0,043
-538,437	22,333	0,154	0,090
-537,423	19,125	0,016	0,010
-536,408	5,982	0,064	0,034
-535,393	-200,000	0,013	0,048
-534,379	-200,000	0,006	0,061
-533,364	-103,901	0,073	0,012
-532,350	-37,167	0,075	0,029
-531,335	213,000	0,073	0,084
-530,321	3,909	-0,011	-0,006
-529,306	272,598	-0,032	-0,040
-528,291	800,000	0,063	-0,162
-527,277	-156,169	-0,133	-0,006
-526,262	-200,000	-0,013	0,124
-525,248	-200,000	0,002	0,051
-524,233	336,895	0,076	-0,107
-523,218	303,468	0,065	-0,087
-522,204	462,665	0,004	-0,007
-521,189	-200,000	-0,043	0,211
-520,175	24,456	-0,047	0,028
-519,160	279,316	-0,107	-0,138
-518,145	537,563	-0,013	0,023
-517,131	41,340	-0,090	0,059
-516,116	-200,000	0,016	0,108
-515,102	-200,000	0,008	0,076
-514,087	309,496	-0,021	-0,029
-513,072	-200,000	-0,018	0,088
-512,058	315,192	0,069	0,094
-511,043	-143,948	-0,278	0,019
-510,029	-136,471	0,040	-0,003
-509,014	-118,032	0,108	0,014
-507,999	327,544	-0,039	0,054
-506,985	-50,301	0,037	-0,013
-505,970	222,456	-0,082	-0,095
-504,956	19,915	0,024	0,014
-503,941	-18,984	0,112	0,050
-502,926	-200,000	0,046	0,156
-501,912	57,846	0,084	0,059
-500,897	82,807	0,130	0,102
-499,883	800,000	-0,040	0,101
-498,868	-200,000	0,036	0,118
-497,853	-42,510	0,109	0,040
-496,839	-200,000	-0,014	0,175
-495,824	-81,555	0,293	0,069
-494,810	800,000	0,039	0,084
-493,795	-200,000	0,011	0,108
-492,781	800,000	0,020	-0,044
-491,766	614,185	0,042	0,076
-490,751	420,137	-0,074	-0,114
-489,737	-200,000	0,009	-0,057
-488,722	158,691	0,062	0,062
-487,708	216,021	-0,095	-0,108
-486,693	800,000	0,024	-0,058
-485,678	190,617	-0,062	0,067
-484,664	-166,562	-0,124	-0,004
-483,649	-200,000	0,016	0,089
-482,635	-176,297	-0,019	0,000
-481,620	209,080	0,089	-0,101
-480,605	-200,000	-0,010	0,054
-479,591	800,000	-0,028	0,059
-478,576	-126,260	0,125	-0,013
-477,562	-160,202	0,151	0,006
-476,547	-3,820	0,138	-0,069
-475,532	-200,000	0,025	-0,088
-474,518	142,303	-0,081	-0,078
-473,503	-92,692	0,068	-0,014
-472,489	-200,000	0,012	-0,072
-471,474	-32,943	-0,022	0,009
-470,459	163,798	0,059	0,060
-469,445	102,062	0,050	-0,042
-468,430	-7,340	-0,036	-0,018
-467,416	-130,544	-0,079	0,008
-466,401	-109,639	0,082	0,012
-465,386	-99,083	-0,146	0,026
-464,372	-69,816	0,055	0,015
-463,357	-94,641	-0,063	-0,012
-462,343	-88,898	-0,133	0,028
-461,328	189,527	-0,029	-0,032
-460,313	728,565	0,074	0,143
-459,299	-152,624	0,191	0,010
-458,284	20,625	0,173	0,100
-457,270	62,733	0,072	0,052
-456,255	65,534	0,014	0,010
-455,241	80,119	0,078	0,061
-454,226	-134,197	-0,131	0,011
-453,211	1,245	0,090	0,046
-452,197	-20,456	0,062	-0,027
-451,182	338,106	-0,038	-0,053
-450,168	-200,000	-0,032	0,185
-449,153	-114,976	-0,058	0,008
-448,138	800,000	0,030	-0,089
-447,124	743,774	-0,046	0,089
-446,109	-200,000	-0,001	0,205
-445,095	86,749	-0,061	0,048
-444,080	-184,820	0,056	-0,001
-443,065	-200,000	0,018	0,103
-442,051	-59,460	-0,063	0,019
-441,036	-200,000	0,012	-0,098
-440,022	-50,518	-0,040	-0,013
-439,007	-200,000	-0,014	0,048
-437,992	574,436	0,058	0,103
-436,978	568,109	-0,058	0,101
-435,963	157,100	0,069	0,069
-434,949	176,914	0,070	0,074
-433,934	226,970	-0,099	-0,115
-432,919	337,767	-0,062	0,087
-431,905	-200,000	-0,025	0,113
-430,890	-200,000	-0,007	0,129
-429,876	489,382	0,046	-0,076
-428,861	-134,385	0,074	0,006
-427,846	100,122	-0,110	0,091
-426,832	-58,032	-0,054	0,017
-425,817	-200,000	0,016	-0,088
-424,803	757,260	0,014	-0,027
-423,788	166,274	0,091	0,093
-422,773	-200,000	-0,004	0,015
-421,759	247,939	0,070	0,086
-420,744	-81,295	-0,206	0,048
-419,730	-1,150	0,016	-0,008
-418,715	144,816	-0,110	-0,105
-417,701	179,692	-0,004	0,004
-416,686	23,326	-0,018	-0,011
-415,671	-16,991	-0,059	0,027
-414,657	56,816	-0,072	-0,050
-413,642	-200,000	-0,030	0,164
-412,628	260,193	-0,067	-0,084
-411,613	139,724	-0,191	-0,181
-410,598	134,989	0,122	-0,114
-409,584	125,991	0,120	0,109
-408,569	-122,621	0,043	0,005
-407,555	-95,855	0,082	0,015
-406,540	-17,563	0,155	-0,070
-405,525	-48,078	0,012	0,004
-404,511	-192,218	-0,155	-0,001
-403,496	258,603	-0,043	0,054
-402,482	-46,969	0,116	0,040
-401,467	-62,775	0,112	0,033
-400,452	-200,000	0,019	0,080
-399,438	800,000	0,019	0,043
-398,423	800,000	0,028	-0,084
-397,409	343,548	-0,065	-0,092
-396,394	50,332	0,120	-0,081
-395,379	116,742	0,035	0,031
-394,365	-29,430	-0,070	0,029
-393,350	532,440	0,089	-0,151
-392,336	72,505	-0,036	0,027
-391,321	378,439	-0,055	0,080
-390,306	-200,000	0,034	0,128
-389,292	-200,000	-0,018	-0,164
-388,277	-25,876	0,067	-0,028
-387,263	-80,636	0,209	0,050
-386,248	800,000	-0,041	0,089
-385,233	-200,000	-0,001	0,049
-384,219	-141,286	-0,010	0,001
-383,204	800,000	-0,042	0,092
-382,190	327,552	-0,069	-0,096
-381,175	-186,116	0,023	0,000
-380,160	-125,530	-0,027	0,003
-379,146	-82,593	0,087	-0,020
-378,131	-89,651	0,151	0,031
-377,117	762,583	-0,046	0,090
-376,102	800,000	0,026	0,061
-375,088	-200,000	-0,022	0,073
-374,073	-112,628	0,075	0,011
-373,058	-12,120	-0,019	-0,009
-372,044	178,357	-0,042	0,044
-371,029	800,000	0,014	0,041
-370,015	800,000	0,019	0,058
-369,000	-170,812	-0,116	-0,003
-367,985	-10,959	0,061	0,029
-366,971	167,340	0,040	-0,041
-365,956	-200,000	0,112	0,000
-364,942	27,184	0,101	-0,060
-363,927	298,011	0,083	-0,109
-362,912	-37,900	-0,066	-0,025
-361,898	-16,138	-0,112	-0,051
-360,883	-200,000	0,005	-0,051
-359,869	-147,405	0,089	0,005
-358,854	-200,000	0,009	-0,063
-357,839	256,295	0,051	-0,063
-356,825	-77,063	0,135	0,034
-355,810	-163,589	-0,066	0,002
-354,796	-200,000	-0,010	0,034
-353,781	23,322	-0,042	-0,024
-352,766	232,759	0,034	-0,040
-351,752	-121,503	0,012	-0,001
-350,737	-200,000	-0,006	0,074
-349,723	-200,000	0,018	0,126
-348,708	800,000	-0,033	-0,087
-347,693	-200,000	-0,013	-0,089
-346,679	-200,000	0,012	-0,171
-345,664	173,518	0,067	0,070
-344,650	-30,323	-0,031	0,013
-343,635	432,675	0,045	0,071
-342,620	800,000	0,027	0,064
-341,606	-172,083	0,059	0,001
-340,591	405,266	0,049	-0,074
-339,577	-200,000	-0,045	-0,228
-338,562	-200,000	-0,020	0,092
-337,548	325,542	0,056	0,077
-336,533	494,971	0,044	0,073
-335,518	-76,477	0,090	-0,023
-334,504	-200,000	0,003	0,089
-333,489	-35,174	-0,068	0,027
-332,475	-128,477	0,055	0,006
-331,460	186,485	-0,058	-0,062
-330,445	-15,674	0,086	-0,039
-329,431	-200,000	-0,007	-0,035
-328,416	481,065	0,006	0,010
-327,402	288,255	0,050	-0,065
-326,387	104,765	-0,036	-0,030
-325,372	36,504	0,023	0,014
-324,358	111,974	0,119	-0,103
-323,343	277,126	-0,135	-0,172
-322,329	-59,370	0,087	-0,027
-321,314	190,000	0,055	0,059
-320,299	-200,000	-0,034	0,129
-319,285	-200,000	-0,030	0,161
-318,270	319,520	0,016	-0,022
-317,256	462,848	0,009	-0,015
-316,241	207,030	-0,130	-0,145
-315,226	800,000	0,044	0,104
-314,212	176,698	0,047	-0,049
-313,197	492,195	0,046	-0,076
-312,183	-50,462	0,078	0,026
-311,168	-200,000	0,002	-0,035
-310,153	-4,840	-0,097	0,048
-309,139	6,931	-0,146	0,077
-308,124	-200,000	-0,003	0,020
-307,110	-110,637	0,043	-0,006
-306,095	800,000	-0,037	0,099
-305,080	-51,968	-0,051	-0,017
-304,066	-200,000	0,003	-0,076
-303,051	16,989	-0,202	-0,114
-302,037	126,256	0,102	-0,092
-301,022	246,529	-0,026	0,032
-300,008	-200,000	-0,019	-0,064
-298,993	34,562	0,117	0,073
-297,978	-200,000	0,022	0,155
-296,964	-135,014	-0,140	0,012
-295,949	800,000	-0,009	0,023
-294,935	-90,235	0,069	0,014
-293,920	237,846	0,097	0,116
-292,905	-32,575	-0,069	0,027
-291,891	216,450	0,042	-0,048
-290,876	-39,739	0,122	-0,046
-289,862	327,080	-0,031	-0,043
-288,847	-91,482	-0,153	-0,031
-287,832	-75,098	0,096	0,024
-286,818	-105,206	0,046	0,007
-285,803	146,245	0,126	0,121
-284,789	800,000	-0,064	-0,130
-283,774	-200,000	-0,001	0,080
-282,759	-56,000	0,047	0,015
-281,745	-18,281	-0,039	-0,017
-280,730	-75,978	0,105	-0,026
-279,716	-80,451	-0,108	-0,025
-278,701	70,075	0,109	0,080
-277,686	-32,226	-0,123	-0,049
-276,672	150,721	-0,091	0,088
-275,657	92,819	-0,091	0,074
-274,643	-83,897	-0,100	0,023
-273,628	17,284	-0,150	-0,085
-272,613	220,853	-0,001	-0,001
-271,599	-200,000	0,022	-0,094
-270,584	-16,259	0,095	0,043
-269,570	-200,000	0,010	0,135
-268,555	-200,000	0,001	-0,060
-267,540	-200,000	0,006	-0,035
-266,526	-200,000	0,052	0,190
-265,511	-200,000	0,031	-0,151
-264,497	-90,883	0,067	-0,014
-263,482	112,071	-0,045	0,039
-262,467	90,123	0,055	0,044
-261,453	-106,069	-0,130	-0,021
-260,438	226,861	-0,058	0,067
-259,424	13,234	-0,074	-0,041
-258,409	15,344	0,055	0,031
-257,395	-200,000	0,028	-0,209
-256,380	-168,314	0,102	-0,003
-255,365	-19,501	-0,147	0,065
-254,351	-12,283	-0,058	0,027
-253,336	595,785	0,048	-0,084
-252,322	738,357	-0,062	0,119
-251,307	8,904	-0,039	0,021
-250,292	-200,000	-0,010	-0,076
-249,278	-200,000	0,010	0,112
-248,263	-26,333	-0,143	0,059
-247,249	97,496	0,135	0,110
-246,234	-200,000	-0,026	-0,169
-245,219	228,336	0,034	0,039
-244,205	109,622	-0,100	-0,085
-243,190	178,292	0,101	0,105
-242,176	478,414	-0,052	0,084
-241,161	-107,370	-0,052	0,008
-240,146	800,000	0,032	0,088
-239,132	173,608	-0,182	-0,188
-238,117	800,000	-0,058	-0,150
-237,103	229,322	-0,052	-0,060
-236,088	-153,330	0,107	-0,005
-235,073	-200,000	-0,001	0,143
-234,059	-200,000	-0,015	0,134
-233,044	-87,658	-0,103	0,022
-232,030	-200,000	-0,006	-0,049
-231,015	249,663	-0,030	0,037
-230,000	-200,000	-0,026	-0,159
-228,986	-200,000	-0,000	-0,169
-227,971	-104,197	-0,023	-0,004
-226,957	-149,514	0,097	-0,005
-225,942	-77,592	-0,049	0,012
-224,927	800,000	0,071	-0,202
-223,913	800,000	-0,088	-0,216
-222,898	-97,628	0,021	0,004
-221,884	22,552	-0,133	0,077
-220,869	-66,952	-0,052	0,014
-219,855	125,249	0,107	0,096
-218,840	66,994	0,071	-0,051
-217,825	800,000	0,030	0,076
-216,811	252,382	-0,024	0,030
-215,796	800,000	-0,083	-0,197
-214,782	-9,746	0,116	0,055
-213,767	344,950	-0,090	0,126
-212,752	-16,713	-0,038	-0,017
-211,738	181,388	-0,077	0,080
-210,723	-200,000	0,004	0,020
-209,709	-200,000	-0,005	-0,072
-208,694	442,822	0,007	0,010
-207,679	-37,606	0,024	-0,009
-206,665	51,634	0,056	-0,038
-205,650	-200,000	0,000	-0,022
-204,636	-20,691	0,177	0,077
-203,621	-195,241	0,030	0,000
-202,606	41,600	-0,084	0,054
-201,592	233,503	0,061	-0,072
-200,577	348,386	-0,039	-0,055
-199,563	-69,762	-0,083	0,023
-198,548	-200,000	-0,014	0,136
-197,533	85,132	0,035	-0,027
-196,519	62,247	-0,057	-0,040
-195,504	-5,888	0,112	-0,054
-194,490	-200,000	-0,020	-0,198
-193,475	-200,000	-0,015	-0,146
-192,460	-121,542	0,060	-0,007
-191,446	102,490	-0,052	-0,043
-190,431	-153,805	0,042	-0,002
-189,417	-200,000	0,027	0,159
-188,402	800,000	0,047	0,130
-187,387	-200,000	0,006	-0,114
-186,373	-73,978	-0,136	0,035
-185,358	128,137	0,092	-0,084
-184,344	-93,159	0,129	0,025
-183,329	-200,000	-0,012	0,092
-182,315	136,591	-0,042	-0,039
-181,300	220,620	0,027	-0,031
-180,285	800,000	-0,054	-0,108
-179,271	125,724	-0,021	0,019
-178,256	-200,000	0,013	-0,050
-177,242	800,000	0,017	0,046
-176,227	-116,764	0,022	-0,003
-175,212	248,456	0,054	0,065
-174,198	-12,688	0,097	-0,045
-173,183	314,684	-0,074	-0,099
-172,169	-139,258	-0,166	-0,013
-171,154	15,569	-0,112	-0,063
-170,139	-200,000	0,040	0,135
-169,125	-94,884	-0,042	0,008
-168,110	-72,048	0,049	-0,013
-167,096	365,499	-0,054	0,078
-166,081	-42,480	-0,058	-0,021
-165,066	331,285	0,023	-0,032
-164,052	315,049	0,022	-0,029
-163,037	-200,000	0,004	-0,020
-162,023	202,196	0,087	-0,095
-161,008	650,229	0,049	0,089
-159,993	-64,172	-0,097	-0,028
-158,979	-112,671	-0,061	0,008
-157,964	290,711	-0,042	-0,054
-156,950	-200,000	0,022	-0,087
-155,935	-200,000	0,005	-0,083
-154,920	206,698	-0,052	0,058
-153,906	-200,000	-0,014	-0,064
-152,891	800,000	-0,072	0,168
-151,877	792,861	-0,007	0,013
-150,862	-136,617	0,199	-0,016
-149,847	300,639	-0,101	0,133
-148,833	-200,000	0,036	-0,128
-147,818	23,456	0,114	0,067
-146,804	32,126	0,047	-0,029
-145,789	65,872	-0,061	-0,044
-144,775	92,718	-0,042	0,034
-143,760	-200,000	0,028	-0,116
-142,745	-200,000	-0,053	-0,237
-141,731	800,000	-0,070	-0,140
-140,716	417,379	0,103	-0,157
-139,702	-200,000	0,019	0,140
-138,687	-25,679	0,127	0,053
-137,672	-20,738	0,205	-0,089
-136,658	253,718	-0,060	-0,073
-135,643	-200,000	-0,010	-0,156
-134,629	183,118	-0,103	-0,108
-133,614	800,000	0,029	0,078
-132,599	-200,000	0,005	0,071
-131,585	-200,000	-0,015	-0,047
-130,570	800,000	0,058	0,120
-129,556	800,000	-0,005	0,010
-128,541	-189,106	-0,138	-0,001
-127,526	296,465	0,068	-0,089
-126,512	61,005	0,050	-0,035
-125,497	118,518	-0,099	0,086
-124,483	-200,000	0,017	-0,059
-123,468	20,454	0,095	-0,055
-122,453	49,775	0,034	-0,023
-121,439	-200,000	-0,003	0,013
-120,424	414,205	-0,042	0,064
-119,410	129,812	0,107	0,098
-118,395	-79,541	0,090	0,021
-117,380	-200,000	-0,020	0,125
-116,366	-86,781	-0,127	-0,027
-115,351	800,000	-0,022	-0,064
-114,337	107,451	-0,105	-0,088
-113,322	-200,000	0,013	-0,088
-112,307	514,178	0,032	-0,054
-111,293	-148,630	0,170	-0,010
-110,278	-46,195	-0,017	0,006
-109,264	253,829	0,117	0,143
-108,249	-22,371	-0,063	-0,027
-107,234	-59,308	-0,143	-0,043
-106,220	427,992	0,040	-0,062
-105,205	-48,933	0,035	-0,012
-104,191	108,543	0,078	0,066
-103,176	-76,002	0,095	-0,024
-102,162	51,388	0,048	0,033
-101,147	51,346	0,106	0,072
-100,132	-77,082	0,036	-0,009
-99,118	316,029	0,101	0,136
-98,103	109,300	-0,117	-0,100
-97,089	128,858	0,033	-0,030
-96,074	-101,998	0,046	-0,008
-95,059	779,125	0,032	0,062
-94,045	800,000	-0,002	0,004
-93,030	800,000	-0,048	-0,101
-92,016	352,059	0,090	-0,126
-91,001	-119,857	-0,035	0,004
-89,986	800,000	-0,020	0,045
-88,972	513,332	0,059	0,098
-87,957	800,000	0,043	0,096
-86,943	259,021	0,088	0,107
-85,928	-96,747	-0,062	-0,012
-84,913	-200,000	0,006	-0,023
-83,899	234,871	-0,023	0,027
-82,884	93,001	-0,106	0,084
-81,870	405,417	0,048	-0,072
-80,855	800,000	0,048	-0,118
-79,840	309,529	-0,086	0,114
-78,826	9,615	0,024	0,013
-77,811	-157,521	-0,097	-0,004
-76,797	262,806	0,073	-0,090
-75,782	255,223	0,048	0,058
-74,767	396,716	-0,064	0,096
-73,753	68,123	0,174	0,126
-72,738	167,791	0,031	0,032
-71,724	-200,000	-0,006	-0,039
-70,709	-200,000	0,021	-0,076
-69,694	15,011	-0,076	-0,042
-68,680	-200,000	-0,016	-0,070
-67,665	31,364	0,143	0,087
-66,651	-200,000	0,018	0,108
-65,636	-200,000	0,001	0,075
-64,622	552,825	-0,024	-0,042
-63,607	-200,000	-0,014	0,066
-62,592	-200,000	0,001	-0,054
-61,578	-97,500	-0,125	0,023
-60,563	377,342	0,051	0,074
-59,549	391,964	0,017	-0,025
-58,534	-35,284	-1,592	-0,610
-57,519	424,097	-1,425	-2,177
-56,505	-200,000	-0,585	-4,549
-55,490	244,359	0,927	1,105
-54,476	800,000	5,044	11,382
-53,461	-200,000	19,253	320,729
-52,446	-200,000	741,113	2335,288
-51,432	573,077	1655,860	2869,042
-50,417	78,197	1671,294	1261,532
-49,403	21,278	1544,216	885,622
-48,388	15,163	1466,691	811,418
-47,373	17,962	1457,037	819,578
-46,359	16,714	1446,538	807,651
-45,344	13,368	1441,945	789,029
-44,330	13,340	1439,846	787,713
-43,315	13,351	1438,307	786,892
-42,300	13,363	1436,537	785,953
-41,286	13,356	1435,268	785,192
-40,271	13,342	1434,112	784,461
-39,257	13,315	1432,971	783,677
-38,242	13,378	1431,451	783,116
-37,227	13,366	1430,288	782,389
-36,213	13,344	1428,984	781,541
-35,198	13,375	1427,758	780,986
-34,184	13,395	1427,021	780,650
-33,169	13,315	1425,627	779,476
-32,154	13,402	1424,497	779,239
-31,140	13,396	1423,131	778,433
-30,125	13,380	1422,286	777,862
-29,111	13,432	1420,861	777,300
-28,096	13,368	1419,943	776,463
-27,082	13,327	1418,731	775,579
-26,067	13,290	1417,738	774,828
-25,052	13,315	1416,512	774,247
-24,038	13,268	1415,708	773,552
-23,023	13,321	1414,431	773,077
-22,009	13,246	1413,689	772,285
-20,994	13,292	1412,517	771,830
-19,979	13,280	1411,818	771,361
-18,965	13,299	1410,817	770,876
-17,950	13,265	1409,950	770,210
-16,936	13,282	1408,876	769,671
-15,921	13,213	1407,868	768,770
-14,906	13,204	1406,984	768,213
-13,892	13,212	1406,028	767,700
-12,877	13,198	1405,309	767,212
-11,863	13,224	1404,257	766,725
-10,848	13,178	1403,418	766,023
-9,833	13,145	1402,560	765,372
-8,819	13,172	1401,576	764,929
-7,804	13,108	1400,819	764,186
-6,790	13,131	1399,601	763,599
-5,775	13,165	1398,510	763,134
-4,760	13,143	1397,574	762,488
-3,746	13,128	1396,688	761,908
-2,731	13,136	1395,969	761,522
-1,717	13,075	1395,212	760,793
-0,702	13,060	1393,428	759,721
0,313	16,960	1310,220	732,407
1,327	33,266	703,650	431,016
2,342	51,171	123,336	82,651
3,356	1,561	16,728	8,489
4,371	12,543	3,221	1,752
5,386	-67,530	0,585	0,161
6,400	-200,000	0,045	0,313
7,415	57,782	-0,250	-0,173
8,429	74,225	-0,296	-0,219
9,444	212,066	-0,188	-0,210
10,459	31,025	-0,205	-0,124
11,473	69,340	-0,311	-0,226
12,488	-143,766	-0,273	0,018
13,502	-83,730	-0,383	-0,086
14,517	-34,089	-0,295	-0,114
15,531	-21,977	-0,485	-0,207
16,546	6,551	-0,333	-0,174
17,561	102,668	-0,354	-0,293
18,575	262,854	-0,145	-0,179
19,590	228,053	-0,308	-0,355
20,604	57,536	-0,192	-0,132
21,619	61,503	-0,455	-0,319
22,634	101,119	-0,563	-0,463
23,648	130,868	-0,475	-0,430
24,663	23,262	-0,287	-0,166
25,677	133,591	-0,339	-0,310
26,692	53,088	-0,361	-0,243
27,707	13,384	-0,293	-0,160
28,721	245,008	-0,285	-0,339
29,736	53,114	-0,385	-0,260
30,750	317,039	-0,308	-0,411
31,765	34,114	-0,327	-0,201
32,780	147,444	-0,392	-0,373
33,794	129,507	-0,301	-0,272
34,809	239,632	-0,269	-0,317
35,823	14,988	-0,454	-0,250
36,838	146,945	-0,313	-0,297
37,853	102,757	-0,404	-0,333
38,867	103,922	-0,291	-0,241
39,882	-52,570	-0,369	-0,119
40,896	182,100	-0,295	-0,307
41,911	127,769	-0,277	-0,249
42,926	224,321	-0,257	-0,293
43,940	202,097	-0,340	-0,371
44,955	257,426	-0,276	-0,335
45,969	35,630	-0,451	-0,279
46,984	-49,493	-0,400	-0,134
47,999	444,701	-0,257	-0,399
49,013	138,709	-0,271	-0,251
50,028	26,267	-0,280	-0,164
51,042	112,183	-0,417	-0,355
52,057	-5,684	-0,344	-0,166
53,071	83,274	-0,361	-0,276
54,086	10,024	-0,269	-0,143
55,101	153,439	-0,308	-0,298
56,115	237,641	-0,246	-0,288
57,130	-62,745	-0,300	-0,087
58,144	-26,724	-0,514	-0,211
59,159	58,608	-0,378	-0,261
60,174	127,344	-0,276	-0,247
61,188	52,249	-0,252	-0,169
62,203	245,484	-0,288	-0,342
63,217	338,579	-0,191	-0,263
64,232	-16,308	-0,435	-0,194
65,247	322,235	-0,178	-0,239
66,261	212,212	-0,220	-0,244
67,276	88,653	-0,325	-0,254
68,290	-5,208	-0,300	-0,145
69,305	6,138	-0,348	-0,181
70,320	437,692	-0,178	-0,274
71,334	-65,547	-0,373	-0,105
72,349	9,256	-0,414	-0,220
73,363	153,748	-0,252	-0,243
74,378	-5,538	-0,379	-0,182
75,393	-26,734	-0,276	-0,113
76,407	-37,027	-0,315	-0,118
77,422	536,999	-0,089	-0,149
78,436	-94,866	-0,307	-0,058
79,451	100,124	-0,391	-0,318
80,466	147,437	-0,318	-0,301
81,480	-50,722	-0,483	-0,159
82,495	59,797	-0,285	-0,197
83,509	85,929	-0,259	-0,200
84,524	-37,521	-0,288	-0,107
85,539	-131,788	-0,294	-0,027
86,553	-57,334	-0,346	-0,106
87,568	40,689	-0,283	-0,179
88,582	72,591	-0,349	-0,255
89,597	146,099	-0,350	-0,330
90,611	-18,480	-0,350	-0,153
91,626	24,256	-0,256	-0,148
92,641	106,654	-0,241	-0,200
93,655	101,601	-0,225	-0,184
94,670	104,065	-0,180	-0,149
95,684	-10,055	-0,336	-0,156
96,699	63,199	-0,242	-0,170
97,714	800,000	-0,084	-0,259
98,728	800,000	-0,079	-0,237
99,743	319,708	-0,144	-0,193
100,757	31,248	-0,224	-0,134
101,772	-78,904	-0,434	-0,103
102,787	105,658	-0,305	-0,253
103,801	267,775	-0,197	-0,242
104,816	27,005	-0,202	-0,118
105,830	277,518	-0,243	-0,303
106,845	79,468	-0,208	-0,156
107,860	86,387	-0,222	-0,171
108,874	-8,502	-0,287	-0,135
109,889	27,112	-0,252	-0,148
110,903	209,257	-0,193	-0,213
111,918	-55,961	-0,362	-0,112
112,933	351,406	-0,202	-0,280
113,947	47,875	-0,187	-0,122
114,962	12,508	-0,374	-0,202
115,976	22,879	-0,299	-0,171
116,991	-102,145	-0,247	-0,041
118,006	33,095	-0,296	-0,179
119,020	201,654	-0,210	-0,227
120,035	73,245	-0,296	-0,217
121,049	30,735	-0,234	-0,140
122,064	85,116	-0,224	-0,172
123,079	136,394	-0,174	-0,159
124,093	-31,687	-0,331	-0,129
125,108	179,547	-0,312	-0,320
126,122	183,304	-0,261	-0,270
127,137	-51,654	-0,331	-0,107
128,151	192,687	-0,247	-0,261
129,166	56,831	-0,227	-0,155
130,181	85,367	-0,257	-0,197
131,195	47,776	-0,367	-0,239
132,210	194,047	-0,260	-0,276
133,224	73,537	-0,239	-0,175
134,239	-23,290	-0,318	-0,133
135,254	161,020	-0,092	-0,090
136,268	-102,562	-0,211	0,035
137,283	1,063	-0,200	-0,100
138,297	288,901	-0,206	-0,262
139,312	79,302	-0,294	-0,220
140,327	-33,927	-0,303	-0,116
141,341	171,120	-0,202	-0,203
142,356	-38,112	-0,317	-0,117
143,370	800,000	-0,071	-0,209
144,385	-81,052	-0,228	-0,052
145,400	95,344	-0,285	-0,227
146,414	-30,579	-0,304	-0,120
147,429	62,993	-0,143	-0,100
148,443	-17,362	-0,178	-0,078
149,458	76,680	-0,140	-0,103
150,473	110,115	-0,213	-0,179
151,487	63,285	-0,322	-0,225
152,502	166,434	-0,177	-0,175
153,516	8,625	-0,355	-0,186
154,531	45,556	-0,344	-0,221
155,546	10,519	-0,340	-0,180
156,560	131,854	-0,196	-0,177
157,575	307,866	-0,209	-0,272
158,589	-82,629	-0,240	-0,054
159,604	6,051	-0,332	-0,171
160,619	91,710	-0,284	-0,223
161,633	367,793	-0,241	-0,340
162,648	242,080	-0,264	-0,308
163,662	36,491	-0,253	-0,155
164,677	-57,610	-0,248	-0,075
165,692	29,340	-0,233	-0,138
166,706	-27,054	-0,241	0,098
167,721	67,515	-0,330	-0,235
168,735	18,554	-0,277	-0,154
169,750	200,695	-0,169	-0,182
170,764	2,766	-0,186	-0,094
171,779	-163,763	-0,261	-0,008
172,794	680,355	-0,157	-0,285
173,808	218,149	-0,261	-0,291
174,823	-150,919	-0,273	-0,014
175,837	-20,716	-0,206	-0,088
176,852	275,544	-0,210	-0,260
177,867	115,483	-0,207	-0,176
178,881	-27,148	-0,236	-0,096
179,896	60,418	-0,150	-0,103
180,910	180,535	-0,240	-0,246
181,925	37,794	-0,218	-0,134
182,940	143,295	-0,307	-0,284
183,954	355,694	-0,129	-0,180
184,969	173,720	-0,205	-0,206
185,983	304,650	-0,079	-0,102
186,998	74,408	-0,074	0,054
188,013	-80,477	-0,187	-0,043
189,027	-100,556	-0,192	-0,033
190,042	69,132	-0,246	-0,176
191,056	-66,418	-0,240	-0,066
192,071	-133,441	-0,313	-0,027
193,086	-70,377	-0,185	-0,048
194,100	41,773	-0,257	-0,162
195,115	-200,000	-0,070	-0,243
196,129	180,196	-0,229	-0,234
197,144	225,059	-0,226	-0,255
198,159	-163,537	-0,256	-0,008
199,173	-4,308	-0,191	-0,092
200,188	9,952	-0,114	-0,060
201,202	-32,761	-0,107	-0,041
202,217	-92,231	-0,195	-0,038
203,232	436,031	-0,134	-0,203
204,246	-9,678	-0,295	-0,136
205,261	81,442	-0,120	-0,090
206,275	-49,308	-0,286	-0,094
207,290	213,323	-0,065	-0,071
208,304	106,730	-0,237	-0,195
209,319	114,515	-0,202	-0,171
210,334	-96,826	-0,211	-0,038
211,348	-93,875	-0,102	0,019
212,363	46,560	-0,167	-0,107
213,377	-49,810	-0,264	-0,086
214,392	-41,635	-0,255	-0,090
215,407	62,098	-0,189	-0,130
216,421	305,645	-0,089	-0,116
217,436	800,000	-0,065	-0,162
218,450	52,608	-0,317	-0,210
219,465	515,377	-0,126	-0,205
220,480	800,000	-0,081	-0,177
221,494	46,460	-0,188	-0,121
222,509	296,878	-0,126	-0,161
223,523	-101,578	-0,120	-0,020
224,538	135,629	-0,181	-0,164
225,553	92,412	-0,237	-0,185
226,567	33,330	-0,185	-0,111
227,582	146,016	-0,126	-0,117
228,596	96,475	-0,104	-0,083
229,611	-11,884	-0,227	-0,103
230,626	118,871	-0,139	-0,119
231,640	13,745	-0,192	-0,103
232,655	122,933	-0,276	-0,240
233,669	141,652	-0,187	-0,172
234,684	-9,760	-0,133	-0,061
235,699	226,738	-0,113	-0,128
236,713	-124,098	-0,189	-0,020
237,728	800,000	-0,037	-0,086
238,742	-0,759	-0,169	-0,083
239,757	85,153	-0,181	-0,137
240,772	242,619	-0,210	-0,244
241,786	176,296	-0,205	-0,207
242,801	-76,125	-0,182	-0,044
243,815	235,327	-0,149	-0,170
244,830	29,506	-0,251	-0,148
245,844	36,209	-0,178	-0,108
246,859	-200,000	-0,039	-0,213
247,874	229,695	-0,144	-0,163
248,888	97,449	-0,194	-0,154
249,903	41,663	-0,225	-0,141
250,917	449,014	-0,104	-0,159
251,932	582,687	-0,014	0,024
252,947	-5,638	-0,159	-0,075
253,961	-45,427	-0,187	-0,064
254,976	186,624	-0,203	-0,210
255,990	38,135	-0,120	-0,074
257,005	-62,476	-0,167	0,048
258,020	181,394	-0,133	-0,135
259,034	121,032	-0,012	0,010
260,049	-3,870	-0,174	-0,083
261,063	61,520	-0,097	-0,067
262,078	226,931	-0,225	-0,253
263,093	41,593	-0,175	-0,109
264,107	-200,000	-0,047	-0,273
265,122	800,000	-0,095	-0,184
266,136	10,409	-0,171	-0,090
267,151	25,345	-0,259	-0,149
268,166	102,972	-0,060	-0,049
269,180	148,525	-0,194	-0,181
270,195	60,475	-0,142	-0,097
271,209	41,384	-0,247	-0,154
272,224	118,567	-0,247	-0,211
273,239	2,501	-0,181	-0,090
274,253	158,549	-0,088	-0,085
275,268	-200,000	0,008	-0,080
276,282	95,409	-0,098	-0,077
277,297	3,636	-0,407	-0,204
278,312	40,824	-0,219	-0,136
279,326	178,588	-0,164	-0,165
280,341	-98,147	-0,175	0,031
281,355	-122,012	-0,229	0,026
282,370	-124,939	-0,214	0,022
283,384	159,184	-0,162	-0,155
284,399	65,310	-0,187	-0,130
285,414	93,880	-0,143	-0,112
286,428	800,000	-0,070	-0,163
287,443	204,677	-0,092	-0,099
288,457	-12,937	-0,167	-0,074
289,472	23,055	-0,041	-0,023
290,487	98,372	-0,055	-0,043
291,501	106,252	-0,192	-0,157
292,516	-200,000	0,014	-0,100
293,530	69,766	-0,072	-0,051
294,545	-119,366	-0,281	-0,033
295,560	230,095	-0,150	-0,170
296,574	-111,478	-0,178	-0,025
297,589	-81,303	-0,212	-0,048
298,603	36,197	-0,165	-0,100
299,618	9,933	-0,151	-0,079
300,633	222,951	-0,092	-0,102
301,647	-113,247	-0,037	-0,005
302,662	150,465	-0,115	-0,108
303,676	-110,016	-0,156	-0,022
304,691	800,000	-0,120	-0,238
305,706	7,339	-0,153	-0,079
306,720	45,338	-0,194	-0,123
307,735	32,941	-0,117	-0,070
308,749	159,384	-0,052	-0,050
309,764	41,065	-0,119	-0,074
310,779	-200,000	-0,008	-0,042
311,793	800,000	-0,053	-0,158
312,808	124,342	-0,126	-0,109
313,822	94,939	-0,183	-0,143
314,837	-153,566	-0,226	-0,011
315,852	-18,237	-0,057	-0,024
316,866	-200,000	-0,012	-0,114
317,881	2,666	-0,151	-0,075
318,895	356,244	-0,112	-0,155
319,910	86,314	-0,159	-0,121
320,925	34,348	-0,197	-0,118
321,939	191,453	-0,098	-0,102
322,954	331,836	-0,102	-0,136
323,968	-70,777	-0,188	-0,049
324,983	-113,474	-0,170	0,023
325,997	-200,000	-0,029	-0,191
327,012	-57,102	-0,178	-0,054
328,027	-42,349	-0,255	0,089
329,041	-64,187	-0,173	-0,048
330,056	164,189	-0,076	0,074
331,070	-91,498	-0,182	-0,035
332,085	-82,791	-0,175	-0,038
333,100	19,661	-0,119	-0,066
334,114	-200,000	-0,009	-0,226
335,129	207,429	-0,170	-0,183
336,143	398,199	-0,134	-0,193
337,158	245,804	-0,124	-0,144
338,173	-116,401	-0,103	0,013
339,187	75,685	-0,049	-0,036
340,202	222,514	-0,093	-0,103
341,216	115,314	-0,146	-0,123
342,231	-89,938	-0,173	-0,034
343,246	265,580	-0,156	-0,188
344,260	76,092	-0,054	-0,039
345,275	612,379	-0,091	-0,156
346,289	253,709	-0,133	-0,156
347,304	-40,763	-0,139	-0,049
348,319	-151,455	-0,096	-0,005
349,333	62,678	-0,158	-0,109
350,348	-40,065	-0,188	0,067
351,362	-67,840	-0,193	-0,051
352,377	-37,253	-0,085	0,031
353,392	173,361	-0,120	-0,119
354,406	-106,290	-0,127	0,019
355,421	211,121	1311,892	1416,956
356,435	162,555	1472,273	1417,448
