DTS Sentinel unit serial number:	SN410029Multiplexer serial number:	ORYXHardware model number:	OX2-SRSoftware version number:	ORYX F/W v4,00 Oryx Data Collector v3.7.2.0data status	okinstallation	B3 Nyhavnadifferential loss correction	single-endedforward channel	channel 1reverse channel	N/Adate	2023/11/29time	04:17:30forward acquisition time	300,00reverse acquisition time	0,00gamma	499,1914k internal	0,3211k external	0,3211temperature offset calibration	1,0000default loss term (dB/km)	0,3820temperature slope calibration	1,0000multiplexer offset coefficient	1,0000multiplexer slope coefficient	1,0000fibre end	0,00T internal ref (°C)	9,34T ext. ref 1 (°C)	-6,08T ext. ref 2 (°C)	-6,18length (m)	temperature (°C)	Stokes	anti-Stokes-744,400	800,000	-0,150	-0,319
-743,385	-200,000	-0,035	0,264
-742,371	334,637	-0,110	-0,155
-741,356	800,000	0,113	0,311
-740,342	141,155	-0,170	-0,163
-739,327	-200,000	0,030	0,367
-738,312	315,362	-0,191	-0,262
-737,298	-200,000	-0,004	0,292
-736,283	297,560	-0,175	-0,234
-735,269	-200,000	-0,028	0,205
-734,254	-200,000	-0,029	-0,111
-733,239	-23,440	-0,193	0,084
-732,225	-200,000	-0,020	-0,238
-731,210	79,257	0,133	0,103
-730,196	193,547	0,051	-0,056
-729,181	-86,184	-0,171	0,038
-728,167	363,625	0,118	-0,173
-727,152	-200,000	0,021	-0,082
-726,137	671,692	0,032	-0,061
-725,123	6,967	-0,137	-0,074
-724,108	-200,000	0,016	-0,121
-723,094	-92,117	-0,073	0,015
-722,079	-70,416	-0,090	-0,025
-721,064	244,576	0,055	-0,067
-720,050	-104,412	-0,152	0,025
-719,035	-80,149	-0,158	0,038
-718,021	-6,191	-0,094	0,046
-717,006	207,535	-0,185	-0,210
-715,991	-131,996	-0,037	0,003
-714,977	-125,636	0,042	-0,005
-713,962	800,000	-0,021	-0,050
-712,948	162,083	-0,089	0,090
-711,933	427,315	0,076	0,120
-710,918	166,421	-0,035	0,036
-709,904	800,000	-0,026	-0,076
-708,889	-123,089	0,051	0,006
-707,875	-200,000	-0,032	-0,146
-706,860	-200,000	0,008	-0,117
-705,845	124,724	-0,136	0,124
-704,831	-101,919	-0,132	0,023
-703,816	6,001	0,073	0,039
-702,802	169,158	0,013	-0,014
-701,787	98,769	-0,063	-0,053
-700,772	308,528	-0,047	0,064
-699,758	491,237	-0,025	0,041
-698,743	-200,000	-0,020	-0,073
-697,729	156,857	-0,031	-0,031
-696,714	41,827	0,008	-0,006
-695,699	-200,000	0,008	0,082
-694,685	-123,435	-0,084	0,010
-693,670	104,609	-0,098	-0,083
-692,656	-200,000	0,006	0,034
-691,641	-99,162	0,057	0,010
-690,627	60,479	0,080	0,057
-689,612	335,917	-0,065	0,092
-688,597	-200,000	-0,001	-0,016
-687,583	-17,108	-0,106	0,048
-686,568	-200,000	-0,036	-0,152
-685,554	-200,000	0,002	-0,085
-684,539	525,302	0,027	-0,046
-683,524	-200,000	-0,046	-0,190
-682,510	-32,141	-0,140	-0,056
-681,495	-49,506	-0,115	-0,039
-680,481	191,957	-0,070	-0,077
-679,466	-82,247	-0,076	0,018
-678,451	-200,000	-0,016	-0,074
-677,437	800,000	-0,038	-0,087
-676,422	-17,163	-0,088	0,040
-675,408	-200,000	-0,009	-0,057
-674,393	-139,655	-0,088	-0,007
-673,378	1,934	-0,086	0,045
-672,364	-47,491	-0,111	-0,039
-671,349	-118,660	-0,129	0,016
-670,335	157,675	0,061	-0,061
-669,320	107,236	-0,042	0,036
-668,305	320,622	0,072	0,099
-667,291	-200,000	-0,012	-0,195
-666,276	384,909	0,067	-0,100
-665,262	-80,656	-0,124	-0,030
-664,247	-87,968	0,044	0,010
-663,232	326,905	-0,014	0,019
-662,218	58,797	-0,052	-0,037
-661,203	-200,000	-0,023	0,141
-660,189	290,529	-0,046	0,060
-659,174	252,676	-0,115	-0,142
-658,159	243,450	-0,125	-0,152
-657,145	-64,390	0,136	0,040
-656,130	-83,873	0,055	0,013
-655,116	88,907	0,096	0,077
-654,101	-200,000	-0,030	0,123
-653,086	-8,295	-0,088	0,042
-652,072	438,807	-0,067	0,105
-651,057	438,561	0,058	-0,091
-650,043	800,000	0,036	-0,079
-649,028	-200,000	0,017	-0,115
-648,014	381,960	0,045	-0,067
-646,999	574,343	0,028	-0,049
-645,984	60,651	0,075	-0,054
-644,970	33,135	-0,064	-0,040
-643,955	-84,039	-0,106	0,024
-642,941	-114,689	-0,126	-0,017
-641,926	581,270	0,038	-0,068
-640,911	-200,000	-0,026	0,105
-639,897	77,226	0,040	-0,031
-638,882	-57,472	-0,075	-0,024
-637,868	800,000	-0,026	0,077
-636,853	101,805	0,051	-0,043
-635,838	-55,033	-0,083	0,027
-634,824	-200,000	-0,007	0,052
-633,809	-11,073	0,074	-0,035
-632,795	142,950	-0,121	0,116
-631,780	-5,766	0,065	0,032
-630,765	-118,958	-0,095	-0,012
-629,751	-18,257	-0,061	0,028
-628,736	158,917	-0,122	-0,123
-627,722	190,320	0,077	-0,084
-626,707	-200,000	-0,017	0,067
-625,692	-13,794	-0,041	-0,019
-624,678	246,112	-0,018	-0,022
-623,663	5,379	-0,112	0,059
-622,649	274,116	-0,158	-0,202
-621,634	472,600	-0,085	-0,139
-620,619	-22,326	-0,074	-0,032
-619,605	763,193	0,077	-0,151
-618,590	298,602	0,030	-0,040
-617,576	-200,000	-0,012	0,184
-616,561	-200,000	0,003	-0,015
-615,546	800,000	0,044	-0,130
-614,532	-132,648	-0,133	0,012
-613,517	-200,000	-0,001	0,005
-612,503	150,018	0,104	0,102
-611,488	800,000	-0,085	0,191
-610,474	36,687	0,041	-0,026
-609,459	-121,816	-0,128	-0,015
-608,444	45,384	-0,058	0,038
-607,430	35,989	0,100	-0,063
-606,415	800,000	-0,051	-0,129
-605,401	618,314	-0,065	-0,118
-604,386	-79,843	0,056	-0,013
-603,371	-7,266	0,111	0,054
-602,357	2,722	-0,127	-0,066
-601,342	-200,000	-0,031	-0,100
-600,328	161,498	-0,105	-0,106
-599,313	51,529	-0,013	-0,009
-598,298	-200,000	0,009	0,045
-597,284	800,000	0,039	-0,081
-596,269	-200,000	-0,031	0,196
-595,255	66,430	0,035	-0,026
-594,240	800,000	0,015	-0,042
-593,225	-49,228	-0,109	-0,037
-592,211	738,763	0,029	-0,056
-591,196	110,171	0,081	-0,070
-590,182	-38,060	-0,192	-0,073
-589,167	-200,000	-0,031	0,102
-588,152	-131,402	0,052	0,005
-587,138	782,025	-0,028	-0,056
-586,123	-64,243	0,034	0,010
-585,109	203,698	0,006	0,006
-584,094	362,771	-0,038	-0,055
-583,079	-105,194	-0,031	-0,005
-582,065	-147,207	-0,097	0,006
-581,050	-200,000	-0,031	-0,191
-580,036	190,336	-0,101	-0,110
-579,021	-163,364	-0,061	0,002
-578,006	45,873	0,061	-0,040
-576,992	137,367	-0,068	-0,065
-575,977	-49,372	-0,102	-0,035
-574,963	373,471	0,068	-0,100
-573,948	-107,296	-0,041	-0,006
-572,934	-125,641	-0,050	0,005
-571,919	-86,678	-0,077	-0,017
-570,904	63,708	-0,067	-0,048
-569,890	506,203	0,048	-0,081
-568,875	-200,000	0,011	0,067
-567,861	-150,606	0,092	0,005
-566,846	158,766	-0,082	-0,083
-565,831	122,503	-0,026	0,024
-564,817	800,000	0,059	-0,123
-563,802	153,775	-0,143	-0,141
-562,788	-94,764	0,119	-0,023
-561,773	-173,158	0,144	-0,003
-560,758	-200,000	0,010	-0,072
-559,744	798,913	0,016	0,032
-558,729	-200,000	-0,023	-0,137
-557,715	800,000	-0,034	-0,085
-556,700	-38,822	0,085	0,032
-555,685	352,596	-0,021	0,031
-554,671	78,639	-0,052	-0,040
-553,656	800,000	0,013	0,041
-552,642	132,950	-0,097	0,090
-551,627	-124,950	0,145	-0,016
-550,612	-151,043	-0,067	-0,004
-549,598	-200,000	0,002	0,053
-548,583	41,938	0,010	0,007
-547,569	-200,000	-0,002	-0,053
-546,554	46,443	-0,026	0,017
-545,539	18,597	-0,055	0,031
-544,525	6,858	0,065	-0,035
-543,510	-38,250	0,041	0,015
-542,496	-131,749	-0,133	-0,012
-541,481	-200,000	-0,052	-0,179
-540,466	-200,000	0,003	-0,077
-539,452	434,871	-0,048	0,076
-538,437	-65,016	0,049	-0,014
-537,423	30,761	0,074	0,045
-536,408	-41,687	-0,156	-0,057
-535,393	34,876	-0,119	-0,075
-534,379	103,076	0,070	-0,059
-533,364	-200,000	0,052	-0,210
-532,350	397,745	0,041	-0,061
-531,335	330,910	0,033	0,046
-530,321	55,383	-0,079	-0,055
-529,306	158,614	0,031	0,030
-528,291	800,000	0,018	0,038
-527,277	355,477	0,038	-0,054
-526,262	4,238	0,085	-0,044
-525,248	-42,427	-0,015	0,005
-524,233	-123,227	-0,063	-0,007
-523,218	33,900	-0,039	0,024
-522,204	-33,554	0,030	-0,012
-521,189	-139,365	-0,174	0,013
-520,175	800,000	0,023	0,060
-519,160	-200,000	-0,008	-0,049
-518,145	-41,836	-0,073	0,027
-517,131	46,460	0,077	0,051
-516,116	528,191	0,036	0,061
-515,102	-62,121	-0,060	-0,018
-514,087	228,922	-0,082	-0,096
-513,072	-106,840	-0,094	-0,015
-512,058	143,700	0,113	-0,108
-511,043	-15,299	-0,025	-0,012
-510,029	29,076	0,158	0,096
-509,014	-3,001	0,037	0,019
-507,999	72,544	-0,054	-0,040
-506,985	-200,000	0,007	0,026
-505,970	-200,000	0,018	-0,128
-504,956	220,543	-0,068	-0,078
-503,941	800,000	-0,011	0,028
-502,926	-147,529	0,091	0,005
-501,912	33,526	0,026	-0,016
-500,897	-100,499	-0,051	0,009
-499,883	-40,839	0,060	0,022
-498,868	-200,000	-0,006	-0,022
-497,853	-14,016	0,025	0,012
-496,839	203,360	0,034	0,038
-495,824	-22,464	-0,089	0,039
-494,810	-200,000	0,012	-0,067
-493,795	800,000	0,063	-0,177
-492,781	217,056	-0,128	-0,146
-491,766	-186,543	-0,086	-0,001
-490,751	119,281	-0,026	-0,023
-489,737	251,936	0,080	-0,098
-488,722	106,007	-0,060	0,051
-487,708	800,000	0,071	-0,157
-486,693	-200,000	-0,010	0,055
-485,678	-108,037	-0,089	0,014
-484,664	-12,844	-0,054	0,025
-483,649	-200,000	-0,012	0,045
-482,635	53,344	0,058	0,040
-481,620	-146,126	0,078	0,005
-480,605	-200,000	0,001	-0,056
-479,591	377,701	0,025	0,037
-478,576	34,542	0,183	-0,115
-477,562	-81,761	-0,046	-0,011
-476,547	83,163	0,038	0,029
-475,532	-200,000	-0,015	-0,084
-474,518	-200,000	-0,006	-0,082
-473,503	50,758	-0,095	0,064
-472,489	531,119	0,027	0,046
-471,474	616,347	0,037	0,067
-470,459	-159,693	0,038	-0,001
-469,445	342,318	0,105	-0,147
-468,430	619,519	-0,022	0,040
-467,416	477,438	0,002	0,003
-466,401	-171,834	0,090	0,002
-465,386	288,200	0,027	0,035
-464,372	-86,416	0,054	-0,012
-463,357	-200,000	-0,008	0,162
-462,343	-200,000	-0,016	-0,128
-461,328	-15,709	-0,177	-0,081
-460,313	62,146	0,064	-0,046
-459,299	-44,321	-0,130	0,047
-458,284	176,969	0,070	0,073
-457,270	-36,867	-0,029	0,011
-456,255	-176,549	0,163	0,003
-455,241	800,000	-0,037	-0,094
-454,226	41,074	0,121	0,078
-453,211	-25,403	0,063	0,027
-452,197	-1,019	-0,115	0,058
-451,182	145,574	0,142	0,137
-450,168	-98,151	-0,061	-0,011
-449,153	800,000	-0,018	0,044
-448,138	38,179	0,050	-0,032
-447,124	800,000	0,033	-0,100
-446,109	-102,926	-0,138	-0,023
-445,095	-200,000	0,012	-0,095
-444,080	-123,790	0,111	0,012
-443,065	-200,000	-0,008	0,041
-442,051	-114,713	0,086	0,012
-441,036	257,957	-0,039	-0,048
-440,022	248,267	-0,128	-0,155
-439,007	-200,000	-0,012	-0,072
-437,992	800,000	0,076	0,151
-436,978	23,896	0,064	0,038
-435,963	-200,000	-0,017	-0,073
-434,949	-200,000	-0,014	0,080
-433,934	800,000	0,033	-0,080
-432,919	800,000	-0,037	-0,104
-431,905	-200,000	0,009	-0,031
-430,890	800,000	0,031	0,098
-429,876	-200,000	0,004	-0,027
-428,861	-200,000	0,013	0,089
-427,846	-147,931	-0,030	0,002
-426,832	-66,502	-0,139	-0,039
-425,817	111,642	-0,030	-0,026
-424,803	374,923	-0,115	-0,169
-423,788	-140,419	0,069	0,005
-422,773	-43,125	-0,030	0,011
-421,759	-200,000	0,009	-0,075
-420,744	-40,718	-0,140	0,052
-419,730	-108,497	0,082	0,012
-418,715	217,712	-0,026	-0,030
-417,701	103,047	-0,021	-0,018
-416,686	605,006	-0,058	-0,105
-415,671	502,722	0,086	-0,143
-414,657	-200,000	-0,034	-0,112
-413,642	-51,629	-0,105	0,035
-412,628	36,505	-0,142	-0,089
-411,613	-200,000	0,038	-0,158
-410,598	-126,475	0,059	-0,006
-409,584	-42,236	-0,147	-0,053
-408,569	144,474	0,145	0,138
-407,555	524,104	-0,036	0,061
-406,540	-200,000	-0,006	-0,073
-405,525	280,031	-0,068	0,087
-404,511	61,309	-0,090	0,064
-403,496	800,000	0,045	0,135
-402,482	800,000	-0,039	-0,091
-401,467	544,946	0,069	0,118
-400,452	22,603	-0,013	0,007
-399,438	-127,090	-0,046	0,005
-398,423	800,000	-0,024	-0,073
-397,409	-200,000	0,001	-0,005
-396,394	269,849	-0,030	-0,038
-395,379	26,216	-0,085	0,051
-394,365	-200,000	0,015	0,199
-393,350	800,000	0,016	0,040
-392,336	611,879	0,059	0,106
-391,321	56,815	-0,050	-0,035
-390,306	681,177	-0,030	-0,056
-389,292	57,217	0,107	-0,075
-388,277	247,181	-0,048	-0,058
-387,263	-19,579	0,082	-0,036
-386,248	123,312	0,010	-0,009
-385,233	-80,072	-0,070	-0,017
-384,219	431,814	-0,072	0,112
-383,204	-200,000	0,020	0,097
-382,190	786,109	0,020	-0,040
-381,175	-200,000	0,004	0,026
-380,160	800,000	0,019	0,060
-379,146	-74,874	0,115	0,029
-378,131	-31,363	-0,152	0,061
-377,117	800,000	-0,027	-0,072
-376,102	-200,000	-0,006	0,056
-375,088	800,000	0,089	-0,198
-374,073	-200,000	-0,011	-0,172
-373,058	576,246	0,040	0,070
-372,044	-200,000	0,006	-0,055
-371,029	-200,000	0,011	0,057
-370,015	-113,795	-0,016	-0,002
-369,000	28,576	-0,109	0,066
-367,985	252,082	0,059	-0,071
-366,971	-88,232	-0,029	0,006
-365,956	-92,384	0,101	-0,020
-364,942	-200,000	0,001	0,005
-363,927	300,481	0,106	0,141
-362,912	-200,000	-0,031	0,203
-361,898	431,050	0,028	0,043
-360,883	230,911	0,066	-0,078
-359,869	-200,000	-0,001	-0,065
-358,854	-200,000	-0,010	-0,035
-357,839	157,792	-0,046	0,045
-356,825	52,047	0,041	-0,028
-355,810	-11,918	-0,067	-0,031
-354,796	-200,000	-0,024	0,085
-353,781	-71,659	0,005	0,001
-352,766	-200,000	-0,009	-0,084
-351,752	370,541	0,042	-0,061
-350,737	-200,000	0,012	0,066
-349,723	800,000	-0,024	0,075
-348,708	538,952	0,065	0,111
-347,693	199,729	-0,062	0,068
-346,679	70,918	-0,096	0,071
-345,664	-200,000	-0,020	0,084
-344,650	476,250	-0,055	0,089
-343,635	-200,000	0,017	-0,056
-342,620	-200,000	-0,015	-0,126
-341,606	373,507	0,051	0,074
-340,591	-82,006	-0,112	-0,026
-339,577	-200,000	-0,003	-0,047
-338,562	136,040	-0,066	0,061
-337,548	318,306	-0,048	-0,065
-336,533	-182,754	-0,036	0,000
-335,518	55,165	0,129	-0,089
-334,504	-200,000	0,012	-0,053
-333,489	86,243	0,123	-0,096
-332,475	508,760	-0,042	-0,069
-331,460	-200,000	0,002	-0,068
-330,445	-122,755	0,126	0,014
-329,431	71,294	-0,098	0,073
-328,416	-200,000	-0,023	-0,076
-327,402	-200,000	-0,002	0,042
-326,387	800,000	0,057	0,116
-325,372	700,193	0,046	0,087
-324,358	800,000	-0,072	-0,177
-323,343	182,643	0,029	-0,030
-322,329	-163,655	-0,150	-0,005
-321,314	208,307	-0,031	0,035
-320,299	-32,777	0,134	0,053
-319,285	547,846	-0,058	-0,099
-318,270	-113,882	0,111	-0,015
-317,256	113,132	0,100	0,086
-316,241	82,667	0,077	0,059
-315,226	-107,871	0,091	0,014
-314,212	-200,000	0,073	0,301
-313,197	92,290	-0,033	-0,027
-312,183	483,911	0,080	0,130
-311,168	-88,246	-0,116	-0,025
-310,153	-181,049	-0,102	0,001
-309,139	292,413	-0,045	0,058
-308,124	440,405	0,011	0,017
-307,110	-79,584	0,168	-0,040
-306,095	154,250	-0,053	0,052
-305,080	260,831	0,031	0,039
-304,066	800,000	0,049	0,123
-303,051	800,000	-0,062	-0,134
-302,037	306,090	-0,083	0,111
-301,022	-82,679	0,038	0,009
-300,008	-53,914	-0,154	0,050
-298,993	-200,000	-0,021	0,081
-297,978	800,000	0,026	0,055
-296,964	326,869	-0,041	0,057
-295,949	68,200	-0,054	-0,039
-294,935	-68,587	0,095	0,026
-293,920	-93,025	-0,037	-0,007
-292,905	800,000	0,031	0,093
-291,891	-200,000	0,012	0,121
-290,876	-200,000	0,005	0,076
-289,862	-200,000	-0,022	0,125
-288,847	403,113	0,013	0,020
-287,832	-200,000	0,018	0,076
-286,818	800,000	0,014	-0,037
-285,803	45,289	-0,131	0,086
-284,789	800,000	-0,028	0,071
-283,774	800,000	0,018	-0,047
-282,759	64,005	0,083	0,059
-281,745	-150,458	0,065	0,003
-280,730	129,839	-0,074	0,068
-279,716	472,962	-0,010	-0,016
-278,701	-32,988	0,125	-0,049
-277,686	-73,251	0,059	0,015
-276,672	-200,000	-0,003	0,073
-275,657	207,559	-0,006	-0,007
-274,643	18,602	0,134	-0,076
-273,628	26,088	-0,112	-0,066
-272,613	-200,000	-0,020	0,100
-271,599	56,317	0,080	-0,055
-270,584	-200,000	0,018	0,081
-269,570	-77,132	0,048	0,012
-268,555	89,426	0,138	0,109
-267,540	-7,771	-0,031	0,015
-266,526	315,869	-0,104	-0,141
-265,511	-200,000	-0,013	-0,251
-264,497	-200,000	-0,008	-0,054
-263,482	89,019	0,049	0,039
-262,467	800,000	-0,022	0,055
-261,453	71,074	-0,053	0,039
-260,438	350,328	0,020	0,028
-259,424	407,017	-0,047	-0,072
-258,409	130,976	-0,065	0,059
-257,395	-62,881	0,134	0,039
-256,380	-200,000	-0,030	0,154
-255,365	-200,000	-0,084	0,000
-254,351	-61,155	0,154	-0,046
-253,336	-200,000	0,009	-0,070
-252,322	-132,675	0,117	0,010
-251,307	-86,628	-0,164	-0,036
-250,292	56,916	0,120	-0,083
-249,278	3,850	0,028	-0,014
-248,263	800,000	-0,031	0,086
-247,249	-200,000	-0,031	0,140
-246,234	-162,434	-0,165	-0,006
-245,219	146,355	0,091	-0,087
-244,205	-200,000	-0,006	0,031
-243,190	-200,000	-0,014	0,059
-242,176	800,000	0,030	0,063
-241,161	-151,270	0,207	0,011
-240,146	109,873	0,063	0,054
-239,132	208,888	0,078	0,087
-238,117	41,066	-0,037	0,024
-237,103	-56,377	0,068	-0,021
-236,088	-116,037	-0,054	-0,007
-235,073	-38,111	0,164	0,062
-234,059	-56,193	0,062	0,019
-233,044	182,484	0,114	0,119
-232,030	-200,000	-0,038	0,123
-231,015	7,820	0,054	-0,029
-230,000	174,685	-0,121	0,125
-228,986	47,404	0,152	-0,101
-227,971	68,134	0,043	0,031
-226,957	800,000	-0,064	0,157
-225,942	-200,000	-0,001	0,095
-224,927	-200,000	-0,001	0,014
-223,913	-200,000	0,020	-0,073
-222,898	800,000	-0,018	-0,043
-221,884	-20,061	-0,022	-0,009
-220,869	-11,863	-0,111	0,051
-219,855	188,570	0,109	0,116
-218,840	-200,000	-0,012	-0,074
-217,825	-140,739	-0,151	-0,011
-216,811	89,482	0,074	-0,059
-215,796	-5,947	-0,104	-0,050
-214,782	55,671	-0,018	-0,013
-213,767	444,038	0,036	0,057
-212,752	-200,000	0,019	0,078
-211,738	355,578	0,081	0,114
-210,723	297,126	0,061	0,080
-209,709	36,581	0,034	0,021
-208,694	115,037	0,098	0,085
-207,679	-48,279	0,045	-0,015
-206,665	-200,000	0,010	-0,107
-205,650	-137,495	0,104	0,008
-204,636	800,000	0,011	0,022
-203,621	72,847	0,059	-0,044
-202,606	88,607	-0,051	-0,041
-201,592	800,000	-0,042	-0,095
-200,577	800,000	0,028	0,073
-199,563	800,000	-0,019	-0,059
-198,548	17,165	0,057	-0,032
-197,533	29,507	0,097	0,058
-196,519	750,904	0,007	0,013
-195,504	-75,815	0,138	0,035
-194,490	-16,639	-0,059	-0,026
-193,475	-1,400	0,056	-0,028
-192,460	-200,000	-0,005	-0,021
-191,446	-106,756	0,087	0,014
-190,431	83,720	-0,035	0,027
-189,417	800,000	0,068	0,165
-188,402	-84,511	0,051	0,011
-187,387	-200,000	-0,018	0,072
-186,373	-73,963	0,145	-0,037
-185,358	149,015	0,032	0,030
-184,344	800,000	-0,026	-0,069
-183,329	-97,337	-0,009	0,002
-182,315	-51,281	0,078	-0,026
-181,300	114,158	-0,014	-0,012
-180,285	56,990	-0,140	-0,097
-179,271	596,873	-0,061	-0,107
-178,256	-50,301	0,160	0,053
-177,242	177,135	-0,051	0,053
-176,227	-121,289	0,037	-0,004
-175,212	-70,028	0,068	-0,018
-174,198	-200,000	-0,005	0,025
-173,183	151,516	-0,097	0,094
-172,169	-200,000	-0,024	0,097
-171,154	77,845	0,089	-0,067
-170,139	144,396	0,052	0,049
-169,125	255,447	0,058	0,070
-168,110	-200,000	-0,005	0,050
-167,096	-97,586	0,018	-0,003
-166,081	800,000	0,016	-0,032
-165,066	-200,000	-0,013	0,122
-164,052	402,122	0,057	0,085
-163,037	136,676	-0,191	0,177
-162,023	33,223	0,067	-0,041
-161,008	-200,000	-0,002	0,081
-159,993	260,597	-0,066	0,081
-158,979	-90,757	-0,146	0,030
-157,964	-18,751	0,108	-0,048
-156,950	209,445	0,046	0,051
-155,935	262,479	0,035	0,043
-154,920	800,000	0,075	0,200
-153,906	800,000	0,077	0,203
-152,891	-200,000	-0,006	-0,049
-151,877	800,000	-0,031	-0,096
-150,862	20,789	-0,088	-0,050
-149,847	-200,000	0,015	0,068
-148,833	-144,611	-0,061	0,004
-147,818	800,000	0,039	0,080
-146,804	-98,714	0,127	-0,023
-145,789	-200,000	-0,021	0,103
-144,775	191,781	-0,029	-0,031
-143,760	-200,000	-0,018	-0,156
-142,745	800,000	0,014	0,034
-141,731	259,731	0,081	-0,099
-140,716	-125,734	0,186	-0,020
-139,702	800,000	0,058	0,183
-138,687	-200,000	0,048	0,233
-137,672	-118,638	-0,039	0,005
-136,658	-95,875	-0,065	0,012
-135,643	48,467	-0,140	-0,092
-134,629	483,628	0,023	0,037
-133,614	54,433	-0,099	0,067
-132,599	-39,297	0,110	0,041
-131,585	175,671	-0,061	0,062
-130,570	-200,000	0,013	0,122
-129,556	289,318	-0,035	0,044
-128,541	-50,624	0,055	0,018
-127,526	-110,358	0,072	0,010
-126,512	-200,000	-0,040	-0,188
-125,497	-200,000	0,000	-0,032
-124,483	-2,234	0,115	0,057
-123,468	-200,000	-0,029	0,137
-122,453	-36,786	0,019	-0,007
-121,439	88,961	-0,123	-0,097
-120,424	-69,245	0,029	0,008
-119,410	-200,000	0,008	0,122
-118,395	-200,000	-0,003	0,130
-117,380	-140,403	0,091	0,007
-116,366	-200,000	-0,024	-0,085
-115,351	411,326	0,051	0,077
-114,337	2,253	0,132	-0,067
-113,322	602,822	-0,034	0,060
-112,307	-200,000	-0,019	0,086
-111,293	97,583	0,133	0,108
-110,278	262,198	0,088	0,108
-109,264	-200,000	-0,037	0,156
-108,249	-200,000	-0,005	-0,143
-107,234	-23,378	-0,101	-0,043
-106,220	-161,417	-0,006	-0,000
-105,205	-145,680	0,093	-0,006
-104,191	800,000	0,022	0,051
-103,176	800,000	0,082	0,163
-102,162	-200,000	-0,006	0,155
-101,147	783,743	-0,065	0,126
-100,132	154,575	-0,089	-0,087
-99,118	-14,028	0,050	-0,023
-98,103	430,709	0,023	-0,036
-97,089	130,187	0,141	0,127
-96,074	-81,565	0,058	0,013
-95,059	-160,085	0,075	0,003
-94,045	-200,000	0,027	-0,145
-93,030	-200,000	-0,049	-0,159
-92,016	-200,000	0,012	0,116
-91,001	-200,000	0,009	-0,029
-89,986	-200,000	0,014	0,082
-88,972	185,673	-0,071	0,074
-87,957	390,930	0,042	0,062
-86,943	104,672	-0,038	0,031
-85,928	-85,529	0,003	0,001
-84,913	-143,494	0,027	-0,002
-83,899	-100,129	0,024	-0,004
-82,884	-71,991	-0,060	0,016
-81,870	-72,341	0,046	0,012
-80,855	233,686	0,100	0,116
-79,840	-171,022	-0,023	-0,001
-78,826	-8,611	0,045	-0,021
-77,811	370,861	-0,021	-0,030
-76,797	15,931	-0,060	0,033
-75,782	227,498	0,018	0,021
-74,767	738,799	0,073	0,139
-73,753	-54,180	0,186	0,059
-72,738	-200,000	0,011	0,103
-71,724	-138,659	-0,137	-0,010
-70,709	-72,340	0,084	-0,022
-69,694	370,495	-0,009	0,013
-68,680	327,395	0,070	-0,095
-67,665	384,878	0,065	0,095
-66,651	800,000	-0,053	0,127
-65,636	800,000	-0,019	-0,059
-64,622	214,827	-0,057	0,064
-63,607	-200,000	-0,016	-0,074
-62,592	-34,781	0,056	-0,022
-61,578	800,000	-0,012	-0,033
-60,563	-200,000	0,089	0,000
-59,549	572,902	-0,022	-0,037
-58,534	24,968	-2,034	-1,188
-57,519	727,769	-1,018	-1,926
-56,505	-200,000	-0,280	-4,241
-55,490	556,093	0,952	1,624
-54,476	800,000	5,168	11,163
-53,461	-200,000	21,690	340,243
-52,446	800,000	761,260	2326,574
-51,432	543,288	1658,184	2803,359
-50,417	70,760	1655,070	1207,809
-49,403	17,062	1528,739	852,818
-48,388	11,126	1452,856	781,861
-47,373	19,162	1444,582	815,826
-46,359	14,629	1433,331	787,955
-45,344	9,433	1429,504	761,152
-44,330	9,434	1427,438	760,026
-43,315	9,384	1425,780	758,879
-42,300	9,408	1423,971	758,000
-41,286	9,480	1422,461	757,505
-40,271	9,371	1421,607	756,505
-39,257	9,368	1420,422	755,831
-38,242	9,403	1419,279	755,358
-37,227	9,392	1418,065	754,627
-36,213	9,426	1416,825	754,100
-35,198	9,429	1415,703	753,489
-34,184	9,450	1414,672	753,009
-33,169	9,369	1413,568	752,009
-32,154	9,420	1412,389	751,593
-31,140	9,440	1411,013	750,923
-30,125	9,464	1409,775	750,348
-29,111	9,439	1408,726	749,642
-28,096	9,424	1407,671	748,979
-27,082	9,372	1406,430	748,047
-26,067	9,336	1405,470	747,341
-25,052	9,375	1404,277	746,856
-24,038	9,426	1403,358	746,578
-23,023	9,369	1402,535	745,843
-22,009	9,339	1401,428	745,083
-20,994	9,379	1400,341	744,664
-19,979	9,398	1399,573	744,315
-18,965	9,332	1398,530	743,424
-17,950	9,341	1397,621	742,952
-16,936	9,288	1396,828	742,254
-15,921	9,271	1395,737	741,566
-14,906	9,301	1394,896	741,229
-13,892	9,304	1393,821	740,644
-12,877	9,277	1393,164	740,137
-11,863	9,322	1392,160	739,785
-10,848	9,264	1391,293	739,026
-9,833	9,270	1390,174	738,432
-8,819	9,217	1389,539	737,818
-7,804	9,204	1388,387	737,116
-6,790	9,211	1387,508	736,656
-5,775	9,206	1386,489	736,062
-4,760	9,195	1385,443	735,424
-3,746	9,166	1384,688	734,863
-2,731	9,208	1383,871	734,591
-1,717	9,188	1382,860	733,935
-0,702	9,140	1381,244	732,827
0,313	13,382	1293,461	705,524
1,327	29,737	685,471	410,737
2,342	46,262	118,310	77,195
3,356	1,480	16,633	8,410
4,371	16,694	3,575	1,988
5,386	-11,600	1,291	0,596
6,400	800,000	0,242	0,611
7,415	35,592	-0,135	-0,083
8,429	-83,949	-0,423	-0,094
9,444	-23,480	-0,321	-0,135
10,459	143,232	-0,250	-0,234
11,473	129,599	-0,152	-0,137
12,488	160,041	-0,264	-0,260
13,502	334,106	-0,208	-0,284
14,517	128,401	-0,236	-0,212
15,531	-59,968	-0,424	-0,127
16,546	42,087	-0,230	-0,147
17,561	209,848	-0,294	-0,326
18,575	254,371	-0,142	-0,172
19,590	-154,554	-0,259	-0,012
20,604	-117,544	-0,230	0,029
21,619	-0,452	-0,449	-0,224
22,634	48,823	-0,413	-0,273
23,648	18,509	-0,451	-0,253
24,663	394,056	-0,243	-0,358
25,677	71,049	-0,291	-0,212
26,692	-97,031	-0,315	-0,057
27,707	169,587	-0,337	-0,339
28,721	20,224	-0,364	-0,206
29,736	-106,251	-0,307	-0,048
30,750	67,867	-0,285	-0,205
31,765	140,236	-0,341	-0,317
32,780	35,987	-0,338	-0,209
33,794	-24,671	-0,335	-0,140
34,809	252,971	-0,249	-0,299
35,823	30,399	-0,458	-0,274
36,838	18,272	-0,370	-0,207
37,853	36,692	-0,411	-0,255
38,867	120,618	-0,256	-0,223
39,882	165,980	-0,231	-0,230
40,896	42,895	-0,436	-0,279
41,911	-111,899	-0,288	-0,040
42,926	96,766	-0,317	-0,255
43,940	43,439	-0,404	-0,259
44,955	132,047	-0,204	-0,185
45,969	91,470	-0,283	-0,223
46,984	-37,808	-0,334	-0,124
47,999	12,803	-0,274	-0,148
49,013	-154,631	-0,291	-0,013
50,028	93,494	-0,321	-0,255
51,042	12,060	-0,390	-0,210
52,057	99,127	-0,358	-0,290
53,071	223,143	-0,241	-0,273
54,086	-6,859	-0,301	-0,143
55,101	90,724	-0,215	-0,169
56,115	-26,200	-0,330	-0,135
57,130	181,524	-0,283	-0,293
58,144	13,343	-0,275	-0,149
59,159	48,310	-0,432	-0,283
60,174	391,222	-0,254	-0,371
61,188	-59,864	-0,248	-0,074
62,203	3,512	-0,322	-0,164
63,217	147,307	-0,191	-0,180
64,232	44,430	-0,285	-0,183
65,247	-19,786	-0,482	-0,208
66,261	103,069	-0,298	-0,245
67,276	99,831	-0,266	-0,216
68,290	-58,568	-0,341	-0,103
69,305	237,290	-0,230	-0,268
70,320	226,253	-0,212	-0,241
71,334	-39,157	-0,264	-0,097
72,349	-80,649	-0,407	-0,094
73,363	58,686	-0,290	-0,200
74,378	44,682	-0,321	-0,206
75,393	-71,775	-0,315	-0,082
76,407	21,824	-0,311	-0,177
77,422	15,790	-0,267	-0,147
78,436	-148,672	-0,318	-0,018
79,451	-71,468	-0,420	-0,109
80,466	-109,614	-0,244	-0,036
81,480	56,700	-0,213	-0,145
82,495	4,674	-0,306	-0,157
83,509	-6,378	-0,203	-0,096
84,524	110,097	-0,176	-0,148
85,539	10,710	-0,305	-0,163
86,553	5,909	-0,310	-0,160
87,568	-34,261	-0,329	-0,126
88,582	202,235	-0,269	-0,291
89,597	-17,982	-0,382	-0,167
90,611	50,715	-0,231	-0,153
91,626	-157,532	-0,296	-0,012
92,641	-11,106	-0,259	-0,119
93,655	-173,165	-0,382	0,008
94,670	203,423	-0,210	-0,228
95,684	-2,474	-0,264	-0,129
96,699	149,999	-0,322	-0,305
97,714	-20,246	-0,314	-0,135
98,728	38,252	-0,246	-0,153
99,743	72,312	-0,326	-0,237
100,757	467,704	-0,154	-0,242
101,772	142,449	-0,242	-0,225
102,787	82,265	-0,273	-0,207
103,801	-40,382	-0,245	-0,088
104,816	150,893	-0,244	-0,232
105,830	227,492	-0,148	-0,169
106,845	-178,019	-0,219	-0,004
107,860	62,266	-0,198	-0,138
108,874	25,801	-0,318	-0,185
109,889	90,042	-0,290	-0,227
110,903	17,452	-0,277	-0,153
111,918	269,298	-0,340	-0,418
112,933	188,444	-0,206	-0,216
113,947	129,955	-0,242	-0,216
114,962	12,576	-0,233	-0,125
115,976	119,075	-0,264	-0,228
116,991	363,176	-0,218	-0,306
118,006	100,156	-0,268	-0,217
119,020	24,763	-0,252	-0,146
120,035	38,860	-0,295	-0,184
121,049	259,940	-0,290	-0,351
122,064	46,527	-0,173	-0,112
123,079	142,608	-0,284	-0,264
124,093	-120,237	-0,226	-0,027
125,108	68,368	-0,287	-0,205
126,122	55,016	-0,354	-0,238
127,137	208,562	-0,233	-0,254
128,151	-22,622	-0,208	-0,087
129,166	558,405	-0,116	-0,195
130,181	241,721	-0,252	-0,294
131,195	144,971	-0,238	-0,222
132,210	100,754	-0,231	-0,187
133,224	-141,283	-0,291	-0,020
134,239	-101,018	-0,176	-0,030
135,254	-99,106	-0,097	-0,017
136,268	25,436	-0,138	-0,080
137,283	-41,890	-0,198	0,071
138,297	306,363	-0,167	-0,217
139,312	170,808	-0,292	-0,292
140,327	413,346	-0,120	-0,179
141,341	-51,141	-0,236	-0,077
142,356	45,835	-0,286	-0,184
143,370	99,463	-0,169	-0,137
144,385	-31,327	-0,161	-0,063
145,400	48,067	-0,308	-0,200
146,414	52,642	-0,214	-0,142
147,429	74,480	-0,243	-0,178
148,443	-70,914	-0,203	-0,053
149,458	-83,795	-0,300	-0,066
150,473	26,477	-0,242	-0,141
151,487	18,575	-0,283	-0,157
152,502	297,962	-0,171	-0,219
153,516	-67,680	-0,252	-0,068
154,531	57,493	-0,205	-0,139
155,546	72,254	-0,317	-0,230
156,560	-40,899	-0,148	-0,053
157,575	247,996	-0,113	-0,133
158,589	148,554	-0,101	-0,095
159,604	55,912	-0,160	-0,108
160,619	54,673	-0,171	-0,114
161,633	73,496	-0,260	-0,189
162,648	-129,376	-0,217	0,021
163,662	264,596	-0,161	-0,195
164,677	-127,098	-0,192	-0,019
165,692	-170,167	-0,175	0,004
166,706	239,436	-0,163	-0,189
167,721	241,749	-0,201	-0,234
168,735	119,203	-0,366	-0,314
169,750	307,826	-0,109	-0,142
170,764	-75,032	-0,213	-0,053
171,779	-53,723	-0,310	-0,098
172,794	800,000	-0,109	-0,322
173,808	-197,401	-0,283	0,001
174,823	22,229	-0,210	-0,119
175,837	-38,073	-0,337	-0,124
176,852	-87,043	-0,287	0,060
177,867	-59,918	-0,186	0,055
178,881	375,184	-0,109	-0,155
179,896	46,683	-0,254	-0,163
180,910	763,792	-0,134	-0,253
181,925	97,083	-0,175	-0,139
182,940	-18,523	-0,216	-0,093
183,954	138,157	-0,173	-0,158
184,969	-200,000	-0,060	-0,273
185,983	-12,948	-0,140	-0,063
186,998	4,762	-0,216	-0,110
188,013	97,868	-0,219	-0,175
189,027	139,822	-0,198	-0,181
190,042	190,201	-0,210	-0,219
191,056	-18,987	-0,268	-0,115
192,071	39,333	-0,237	-0,147
193,086	65,358	-0,220	-0,154
194,100	14,216	-0,155	-0,083
195,115	47,674	-0,253	-0,164
196,129	247,746	-0,142	-0,167
197,144	88,787	-0,260	-0,200
198,159	120,559	-0,220	-0,190
199,173	45,491	-0,127	-0,081
200,188	7,498	-0,132	-0,068
201,202	176,107	-0,133	-0,134
202,217	0,099	-0,216	-0,106
203,232	165,916	-0,185	-0,182
204,246	-68,209	-0,286	-0,077
205,261	800,000	-0,049	-0,118
206,275	-54,996	-0,329	-0,102
207,290	18,632	-0,158	-0,087
208,304	505,240	-0,129	-0,208
209,319	-7,825	-0,357	-0,166
210,334	210,197	-0,118	-0,129
211,348	-133,998	-0,182	0,015
212,363	104,779	-0,221	-0,180
213,377	68,114	-0,287	-0,203
214,392	143,584	-0,197	-0,182
215,407	6,334	-0,186	-0,095
216,421	280,041	-0,218	-0,270
217,436	63,058	-0,221	-0,153
218,450	28,412	-0,059	-0,034
219,465	-9,779	-0,166	-0,076
220,480	-134,132	-0,167	-0,014
221,494	326,503	-0,134	-0,178
222,509	-85,279	-0,177	-0,038
223,523	139,871	-0,177	-0,161
224,538	31,773	-0,333	-0,198
225,553	1,176	-0,273	-0,135
226,567	-89,931	-0,277	-0,056
227,582	238,056	-0,170	-0,195
228,596	355,592	-0,134	-0,185
229,611	71,440	-0,175	-0,126
230,626	426,371	-0,168	-0,251
231,640	-34,069	-0,273	-0,103
232,655	-49,885	-0,092	-0,030
233,669	520,269	-0,075	-0,123
234,684	329,707	-0,182	-0,243
235,699	76,394	-0,272	-0,199
236,713	21,142	-0,095	-0,053
237,728	-61,631	-0,182	-0,052
238,742	190,433	-0,177	-0,184
239,757	-6,392	-0,207	-0,097
240,772	290,178	-0,163	-0,205
241,786	89,270	-0,251	-0,193
242,801	15,392	-0,232	-0,125
243,815	56,531	-0,105	-0,070
244,830	-1,806	-0,087	-0,042
245,844	60,064	-0,198	-0,135
246,859	-1,227	-0,139	-0,067
247,874	102,478	-0,162	-0,131
248,888	424,222	-0,074	-0,110
249,903	26,510	-0,172	-0,099
250,917	800,000	-0,062	-0,130
251,932	85,930	-0,165	-0,125
252,947	127,044	-0,155	-0,136
253,961	111,942	-0,111	-0,093
254,976	109,888	-0,094	-0,078
255,990	-53,795	-0,190	-0,059
257,005	800,000	-0,094	-0,180
258,020	393,184	-0,070	-0,101
259,034	111,047	-0,127	-0,105
260,049	154,068	-0,103	-0,098
261,063	495,409	-0,148	-0,236
262,078	-122,054	-0,244	-0,027
263,093	411,690	-0,141	-0,207
264,107	-44,949	-0,130	-0,044
265,122	-119,533	-0,206	-0,024
266,136	-73,920	-0,156	-0,039
267,151	-89,181	-0,281	-0,057
268,166	-186,511	-0,183	0,002
269,180	-17,175	-0,196	-0,085
270,195	41,314	-0,205	-0,127
271,209	13,219	-0,225	-0,120
272,224	-65,287	-0,117	-0,032
273,239	-171,850	-0,171	-0,004
274,253	313,187	-0,123	-0,160
275,268	-48,154	-0,210	-0,069
276,282	488,624	-0,166	-0,261
277,297	197,419	-0,204	-0,215
278,312	35,702	-0,180	-0,109
279,326	21,100	-0,190	-0,106
280,341	-166,792	-0,218	0,006
281,355	129,685	-0,081	-0,072
282,370	-64,584	-0,132	-0,037
283,384	-55,638	-0,228	-0,070
284,399	800,000	-0,077	-0,184
285,414	-55,535	-0,255	-0,078
286,428	251,167	-0,181	-0,213
287,443	-82,717	-0,246	-0,054
288,457	-101,447	-0,155	-0,026
289,472	195,349	-0,175	-0,183
290,487	-200,000	-0,096	-0,298
291,501	453,209	-0,098	-0,150
292,516	588,135	-0,110	-0,187
293,530	-13,452	-0,296	-0,132
294,545	-51,700	-0,077	-0,025
295,560	44,770	-0,141	-0,089
296,574	-64,865	-0,131	-0,036
297,589	-200,000	0,001	-0,107
298,603	23,406	-0,207	-0,117
299,618	-200,000	0,045	-0,221
300,633	21,496	-0,169	-0,094
301,647	800,000	-0,023	0,057
302,662	-103,437	-0,160	-0,026
303,676	237,019	-0,040	-0,046
304,691	127,841	-0,080	-0,070
305,706	-136,738	-0,100	0,008
306,720	-200,000	-0,035	-0,120
307,735	-111,937	-0,124	-0,017
308,749	-46,129	-0,098	-0,033
309,764	800,000	-0,011	-0,022
310,779	2,671	-0,151	-0,075
311,793	177,268	-0,143	-0,143
312,808	41,651	-0,151	-0,093
313,822	-90,281	-0,168	-0,033
314,837	800,000	-0,067	-0,155
315,852	622,431	-0,051	0,088
316,866	304,493	-0,127	-0,162
317,881	800,000	-0,037	-0,072
318,895	-64,237	0,044	0,012
319,910	188,057	-0,128	-0,131
320,925	-41,954	-0,145	-0,051
321,939	218,100	-0,063	-0,069
322,954	-134,005	-0,162	-0,014
323,968	465,016	-0,147	-0,226
324,983	-95,896	-0,170	-0,031
325,997	13,608	-0,172	-0,091
327,012	489,085	-0,107	-0,168
328,027	544,415	-0,072	-0,118
329,041	83,612	-0,087	-0,065
330,056	-200,000	0,011	-0,218
331,070	78,614	-0,088	-0,064
332,085	486,453	-0,057	0,089
333,100	-30,790	-0,177	-0,068
334,114	-89,390	-0,085	0,017
335,129	330,613	-0,108	-0,142
336,143	-98,426	-0,088	-0,015
337,158	-30,245	-0,182	-0,070
338,173	-29,140	-0,067	0,026
339,187	106,654	-0,080	-0,065
340,202	-69,313	-0,101	-0,026
341,216	196,457	-0,081	-0,085
342,231	-165,595	-0,107	-0,003
343,246	-6,164	0,082	-0,038
344,260	-63,658	0,077	-0,021
345,275	-180,660	-0,191	0,003
346,289	-182,891	-0,225	-0,003
347,304	108,109	-0,251	-0,205
348,319	159,178	-0,146	-0,139
349,333	218,819	-0,107	-0,118
350,348	56,140	-0,174	-0,116
351,362	-0,050	-0,203	-0,099
352,377	503,828	0,028	-0,045
353,392	145,659	-0,114	-0,104
354,406	-200,000	-0,062	-0,227
355,421	208,758	1305,124	1398,281
356,435	160,649	1464,641	1398,762
