DTS Sentinel unit serial number:	SN410029Multiplexer serial number:	ORYXHardware model number:	OX2-SRSoftware version number:	ORYX F/W v4,00 Oryx Data Collector v3.7.2.0data status	okinstallation	B3 Nyhavnadifferential loss correction	single-endedforward channel	channel 1reverse channel	N/Adate	2023/12/02time	01:22:30forward acquisition time	300,00reverse acquisition time	0,00gamma	499,1914k internal	0,3196k external	0,3196temperature offset calibration	1,0000default loss term (dB/km)	0,3820temperature slope calibration	1,0000multiplexer offset coefficient	1,0000multiplexer slope coefficient	1,0000fibre end	0,00T internal ref (°C)	16,48T ext. ref 1 (°C)	1,90T ext. ref 2 (°C)	1,89length (m)	temperature (°C)	Stokes	anti-Stokes-744,400	339,758	-0,195	-0,277
-743,385	-200,000	0,029	0,276
-742,371	93,164	-0,243	-0,200
-741,356	-200,000	0,102	0,354
-740,342	91,347	-0,156	-0,128
-739,327	800,000	0,125	0,373
-738,312	145,718	-0,232	-0,227
-737,298	-200,000	-0,012	0,346
-736,283	175,360	-0,093	-0,099
-735,269	-200,000	0,056	0,405
-734,254	-35,225	-0,311	-0,123
-733,239	-1,793	-0,231	0,118
-732,225	612,310	-0,115	-0,211
-731,210	-200,000	0,016	0,083
-730,196	-77,592	-0,134	0,034
-729,181	-112,488	0,164	0,024
-728,167	-72,067	-0,096	-0,026
-727,152	-200,000	0,006	0,073
-726,137	-119,465	-0,187	0,023
-725,123	464,158	-0,086	-0,140
-724,108	78,619	-0,081	-0,063
-723,094	-110,914	-0,180	-0,027
-722,079	-67,378	0,040	-0,011
-721,064	-163,745	-0,121	0,004
-720,050	-200,000	-0,015	0,071
-719,035	136,793	0,073	0,069
-718,021	150,222	-0,057	-0,056
-717,006	309,681	-0,105	-0,143
-715,991	225,917	-0,040	-0,048
-714,977	-102,655	-0,063	0,011
-713,962	-83,804	-0,111	0,026
-712,948	661,189	-0,068	0,128
-711,933	5,438	0,024	0,013
-710,918	361,745	-0,045	-0,066
-709,904	-75,409	-0,088	0,023
-708,889	121,801	-0,061	0,055
-707,875	79,341	-0,115	0,090
-706,860	-200,000	-0,010	0,133
-705,845	12,313	0,082	0,046
-704,831	53,793	0,112	0,078
-703,816	570,062	0,044	0,079
-702,802	-25,104	0,048	-0,021
-701,787	800,000	-0,013	0,040
-700,772	800,000	0,048	-0,111
-699,758	182,457	0,028	0,030
-698,743	800,000	0,023	0,053
-697,729	14,676	-0,066	0,037
-696,714	212,883	-0,032	-0,036
-695,699	160,675	-0,033	-0,034
-694,685	-158,213	0,115	-0,005
-693,670	-142,479	-0,021	-0,001
-692,656	61,557	-0,058	-0,042
-691,641	173,300	-0,074	-0,078
-690,627	-116,101	0,055	0,007
-689,612	-200,000	0,013	-0,050
-688,597	-99,314	0,026	0,005
-687,583	-200,000	-0,018	-0,247
-686,568	-200,000	-0,012	-0,172
-685,554	256,705	-0,081	-0,101
-684,539	-115,733	0,135	0,018
-683,524	144,628	0,054	-0,052
-682,510	-64,103	-0,021	0,006
-681,495	572,224	-0,051	-0,091
-680,481	13,794	-0,074	-0,042
-679,466	800,000	-0,042	-0,115
-678,451	-200,000	-0,001	0,073
-677,437	-60,778	0,032	0,010
-676,422	431,437	0,046	0,072
-675,408	94,291	0,060	0,049
-674,393	-200,000	-0,012	-0,151
-673,378	-51,730	-0,091	0,031
-672,364	187,577	-0,011	0,012
-671,349	62,590	-0,064	0,047
-670,335	-200,000	0,007	-0,117
-669,320	222,394	0,062	0,073
-668,305	-200,000	-0,022	0,075
-667,291	-81,229	-0,162	0,039
-666,276	583,260	-0,037	-0,067
-665,262	602,379	-0,033	-0,060
-664,247	43,711	0,120	-0,080
-663,232	-132,893	0,054	-0,005
-662,218	-48,130	0,109	-0,038
-661,203	-64,343	0,116	0,034
-660,189	38,045	-0,178	0,115
-659,174	-62,483	0,176	0,053
-658,159	49,267	0,050	-0,034
-657,145	800,000	0,013	0,036
-656,130	-200,000	-0,010	0,057
-655,116	-200,000	0,024	0,113
-654,101	-200,000	0,023	0,084
-653,086	218,782	-0,031	-0,036
-652,072	122,502	-0,069	-0,063
-651,057	-54,759	-0,091	0,030
-650,043	40,691	0,049	-0,032
-649,028	161,459	0,007	0,007
-648,014	-4,864	0,054	-0,027
-646,999	523,210	0,035	0,060
-645,984	-0,768	0,152	-0,078
-644,970	4,302	-0,087	-0,046
-643,955	-101,133	-0,189	-0,033
-642,941	-200,000	0,004	-0,218
-641,926	13,125	-0,058	-0,032
-640,911	-62,697	-0,055	0,016
-639,897	372,048	0,042	0,062
-638,882	-200,000	-0,008	0,062
-637,868	-200,000	0,004	-0,028
-636,853	-200,000	-0,006	-0,079
-635,838	0,498	0,133	0,069
-634,824	-200,000	0,022	0,120
-633,809	-124,872	0,100	0,011
-632,795	-200,000	0,010	0,077
-631,780	-118,200	-0,115	-0,015
-630,765	-71,487	0,161	-0,043
-629,751	800,000	0,022	-0,060
-628,736	-31,896	-0,034	-0,014
-627,722	-82,753	0,147	0,034
-626,707	800,000	0,053	0,140
-625,692	726,740	0,010	-0,020
-624,678	238,228	-0,058	0,070
-623,663	-200,000	0,036	-0,140
-622,649	800,000	-0,027	0,056
-621,634	-117,069	-0,109	-0,014
-620,619	-73,754	-0,036	0,009
-619,605	-200,000	0,013	-0,125
-618,590	380,710	-0,058	-0,086
-617,576	7,830	-0,017	0,009
-616,561	93,323	0,062	-0,051
-615,546	311,944	-0,047	0,064
-614,532	22,749	-0,088	-0,052
-613,517	800,000	0,018	-0,053
-612,503	182,954	0,040	0,042
-611,488	-124,298	-0,061	-0,007
-610,474	-76,709	-0,067	-0,017
-609,459	-26,149	-0,045	-0,019
-608,444	-94,070	0,018	0,004
-607,430	-200,000	0,014	-0,056
-606,415	800,000	-0,065	-0,151
-605,401	-200,000	0,028	0,098
-604,386	38,011	0,133	-0,085
-603,371	-200,000	-0,027	0,143
-602,357	-200,000	-0,004	0,055
-601,342	-122,234	0,036	0,004
-600,328	-200,000	-0,011	0,041
-599,313	88,519	-0,092	0,074
-598,298	-200,000	-0,005	-0,066
-597,284	-200,000	0,006	-0,029
-596,269	435,874	-0,008	0,013
-595,255	-6,140	0,176	0,087
-594,240	-68,242	-0,053	-0,015
-593,225	131,769	-0,089	-0,083
-592,211	320,458	-0,079	-0,110
-591,196	-9,266	-0,023	0,011
-590,182	-7,501	-0,117	0,057
-589,167	-200,000	0,003	0,030
-588,152	50,254	-0,060	-0,041
-587,138	332,581	-0,061	0,086
-586,123	-200,000	-0,009	0,066
-585,109	-105,518	-0,075	0,012
-584,094	14,058	-0,020	-0,011
-583,079	-6,699	-0,063	0,031
-582,065	-33,875	0,027	-0,011
-581,050	-200,000	0,026	0,230
-580,036	800,000	-0,041	0,090
-579,021	97,197	-0,046	-0,039
-578,006	168,488	-0,132	0,136
-576,992	231,233	-0,028	0,033
-575,977	-11,587	0,051	-0,024
-574,963	-200,000	0,035	0,130
-573,948	-62,484	0,041	-0,012
-572,934	-200,000	-0,018	0,099
-571,919	197,795	-0,072	-0,079
-570,904	800,000	0,041	-0,101
-569,890	-45,808	0,077	0,027
-568,875	-1,506	-0,091	-0,046
-567,861	93,755	0,096	0,079
-566,846	69,362	-0,059	0,044
-565,831	306,063	-0,036	0,048
-564,817	48,834	-0,021	0,014
-563,802	-79,676	-0,081	0,020
-562,788	-157,746	0,042	-0,002
-561,773	-43,241	-0,042	-0,015
-560,758	133,731	-0,029	-0,027
-559,744	-164,924	0,012	-0,000
-558,729	114,498	-0,060	-0,053
-557,715	800,000	0,051	0,119
-556,700	800,000	0,015	0,039
-555,685	160,470	-0,043	-0,043
-554,671	554,642	0,047	0,082
-553,656	800,000	-0,048	0,098
-552,642	-200,000	-0,005	0,226
-551,627	-4,948	0,080	0,039
-550,612	14,120	-0,118	0,066
-549,598	-200,000	0,004	-0,050
-548,583	-200,000	0,005	-0,024
-547,569	-52,914	0,034	-0,011
-546,554	-200,000	-0,012	0,147
-545,539	54,442	0,037	-0,025
-544,525	532,564	-0,084	0,144
-543,510	800,000	-0,044	-0,102
-542,496	452,376	0,033	-0,052
-541,481	-200,000	0,034	-0,144
-540,466	-200,000	0,015	-0,067
-539,452	242,165	0,025	-0,030
-538,437	-112,444	0,142	-0,020
-537,423	63,398	-0,173	0,125
-536,408	425,989	-0,012	-0,018
-535,393	-139,065	-0,009	0,001
-534,379	-61,096	-0,037	0,011
-533,364	54,292	0,029	0,020
-532,350	-200,000	-0,008	-0,115
-531,335	-158,977	0,101	0,004
-530,321	585,143	-0,050	-0,088
-529,306	377,329	-0,029	0,043
-528,291	169,296	-0,100	-0,104
-527,277	177,026	0,015	0,015
-526,262	800,000	0,033	-0,104
-525,248	-128,836	0,014	0,001
-524,233	-21,563	0,067	0,029
-523,218	88,180	0,100	-0,080
-522,204	55,969	-0,083	-0,058
-521,189	-9,188	-0,105	-0,051
-520,175	-32,762	-0,130	-0,052
-519,160	-200,000	-0,014	-0,057
-518,145	416,968	-0,071	-0,109
-517,131	-200,000	-0,007	-0,065
-516,116	10,789	-0,129	-0,071
-515,102	206,804	0,048	0,054
-514,087	-69,164	0,032	0,009
-513,072	-200,000	-0,000	0,013
-512,058	-46,572	-0,067	-0,024
-511,043	-149,518	-0,053	-0,003
-510,029	83,811	-0,020	0,016
-509,014	-138,466	0,035	-0,003
-507,999	92,268	-0,103	0,084
-506,985	-200,000	-0,035	0,140
-505,970	800,000	0,064	-0,183
-504,956	52,552	-0,074	-0,051
-503,941	6,869	-0,077	0,041
-502,926	800,000	0,027	0,056
-501,912	-200,000	-0,004	0,030
-500,897	-200,000	-0,002	0,082
-499,883	41,795	0,011	0,008
-498,868	100,122	0,040	-0,033
-497,853	423,289	0,014	-0,022
-496,839	-200,000	-0,008	0,058
-495,824	26,213	-0,070	0,042
-494,810	288,632	-0,107	0,140
-493,795	140,119	-0,047	0,045
-492,781	155,119	0,060	0,060
-491,766	432,959	-0,062	-0,097
-490,751	800,000	-0,007	-0,023
-489,737	-25,662	-0,071	-0,030
-488,722	218,225	0,061	-0,071
-487,708	-59,823	0,057	-0,017
-486,693	-200,000	0,009	-0,115
-485,678	35,540	-0,127	-0,081
-484,664	33,894	-0,099	0,062
-483,649	800,000	0,028	-0,069
-482,635	-200,000	-0,039	0,188
-481,620	161,278	0,048	0,049
-480,605	-200,000	-0,029	0,209
-479,591	13,517	0,098	0,055
-478,576	800,000	-0,056	0,125
-477,562	160,647	0,016	-0,016
-476,547	203,490	0,050	0,056
-475,532	-21,422	-0,051	-0,022
-474,518	-200,000	-0,016	-0,130
-473,503	-141,141	0,060	0,004
-472,489	715,988	-0,067	0,128
-471,474	-200,000	0,003	-0,085
-470,459	-200,000	0,018	-0,078
-469,445	800,000	0,060	-0,142
-468,430	-200,000	-0,002	-0,027
-467,416	721,376	-0,024	0,047
-466,401	50,182	-0,069	0,047
-465,386	277,648	0,046	-0,059
-464,372	206,213	-0,108	-0,121
-463,357	-200,000	0,002	-0,080
-462,343	780,558	0,100	-0,198
-461,328	-200,000	0,017	0,100
-460,313	304,070	-0,032	0,043
-459,299	-128,728	0,080	-0,008
-458,284	-32,563	-0,037	-0,015
-457,270	133,488	0,105	0,098
-456,255	800,000	0,028	-0,066
-455,241	-84,444	-0,143	-0,032
-454,226	602,845	0,031	0,055
-453,211	-92,818	0,119	0,024
-452,197	-200,000	0,007	0,084
-451,182	800,000	0,075	0,158
-450,168	239,678	-0,061	0,073
-449,153	34,773	-0,110	-0,069
-448,138	-200,000	-0,023	-0,092
-447,124	198,753	-0,083	-0,092
-446,109	-200,000	-0,025	-0,088
-445,095	44,616	0,064	0,042
-444,080	-200,000	-0,013	-0,070
-443,065	100,724	-0,082	0,069
-442,051	-200,000	-0,015	-0,062
-441,036	7,935	-0,104	-0,056
-440,022	-96,948	0,027	-0,005
-439,007	779,407	-0,048	-0,094
-437,992	-200,000	0,009	0,091
-436,978	-31,223	0,120	0,048
-435,963	-70,290	-0,119	-0,032
-434,949	-116,971	-0,073	-0,010
-433,934	-168,710	-0,023	0,001
-432,919	-200,000	-0,052	-0,188
-431,905	-200,000	0,007	0,093
-430,890	-163,513	0,173	0,006
-429,876	107,900	0,014	0,012
-428,861	234,412	0,046	0,055
-427,846	-79,086	-0,096	0,023
-426,832	-200,000	-0,015	-0,050
-425,817	-200,000	-0,002	0,018
-424,803	800,000	0,042	-0,123
-423,788	-90,814	-0,145	-0,030
-422,773	-139,164	0,154	-0,012
-421,759	800,000	0,048	-0,146
-420,744	37,278	0,023	0,015
-419,730	-200,000	-0,015	-0,112
-418,715	-11,675	0,049	0,023
-417,701	163,009	0,077	-0,077
-416,686	505,217	0,065	-0,108
-415,671	-7,446	0,034	0,016
-414,657	-200,000	0,010	0,038
-413,642	-200,000	0,044	0,176
-412,628	-200,000	0,002	-0,033
-411,613	-200,000	-0,019	-0,079
-410,598	-200,000	0,006	0,050
-409,584	33,465	0,045	0,028
-408,569	-170,791	0,225	0,005
-407,555	-200,000	0,003	-0,085
-406,540	11,743	0,061	-0,033
-405,525	378,751	0,044	-0,066
-404,511	179,207	-0,145	0,152
-403,496	-139,462	-0,061	0,005
-402,482	-200,000	0,026	0,093
-401,467	169,550	0,101	-0,104
-400,452	800,000	-0,013	0,031
-399,438	-173,727	-0,085	-0,002
-398,423	-200,000	-0,018	0,123
-397,409	143,242	-0,096	-0,091
-396,394	-200,000	-0,032	0,172
-395,379	-18,390	0,075	0,034
-394,365	399,134	0,009	-0,013
-393,350	-14,654	0,095	0,044
-392,336	-200,000	-0,002	0,081
-391,321	-40,051	0,084	-0,031
-390,306	61,432	-0,184	0,132
-389,292	152,036	-0,040	-0,039
-388,277	153,886	0,097	-0,096
-387,263	-4,608	0,137	0,068
-386,248	330,322	0,029	0,041
-385,233	137,355	0,051	-0,048
-384,219	126,510	-0,111	0,101
-383,204	44,394	0,023	0,015
-382,190	560,884	0,064	-0,111
-381,175	-200,000	0,009	-0,132
-380,160	800,000	0,046	0,102
-379,146	542,187	-0,018	-0,031
-378,131	371,330	0,015	-0,021
-377,117	-200,000	0,001	0,079
-376,102	626,193	-0,036	-0,065
-375,088	-200,000	-0,006	-0,099
-374,073	61,478	-0,145	-0,103
-373,058	-200,000	-0,016	-0,133
-372,044	-32,197	0,081	-0,032
-371,029	-200,000	0,050	0,191
-370,015	135,657	-0,129	0,121
-369,000	-200,000	0,012	-0,111
-367,985	330,171	-0,110	0,152
-366,971	690,508	-0,021	0,039
-365,956	626,789	0,060	0,109
-364,942	-125,852	-0,060	-0,006
-363,927	-137,521	0,051	0,004
-362,912	800,000	0,027	0,057
-361,898	270,126	0,056	0,071
-360,883	136,538	-0,122	-0,114
-359,869	-200,000	0,029	-0,107
-358,854	2,264	0,099	0,051
-357,839	-39,394	0,086	-0,032
-356,825	800,000	0,031	0,068
-355,810	140,809	-0,023	-0,022
-354,796	-27,754	-0,110	0,046
-353,781	93,554	-0,065	0,053
-352,766	-73,804	-0,088	-0,023
-351,752	116,075	0,042	0,037
-350,737	-18,732	0,108	0,048
-349,723	-90,490	-0,086	-0,018
-348,708	202,988	0,109	0,121
-347,693	-200,000	0,017	0,192
-346,679	-27,412	-0,038	0,016
-345,664	102,256	-0,041	-0,034
-344,650	38,382	-0,072	0,046
-343,635	-200,000	0,176	-0,000
-342,620	37,677	0,149	0,095
-341,606	-200,000	-0,007	0,034
-340,591	-80,248	0,012	0,003
-339,577	95,943	-0,054	-0,044
-338,562	-200,000	0,011	-0,042
-337,548	-92,848	-0,017	0,003
-336,533	296,703	0,071	0,093
-335,518	367,494	0,084	-0,122
-334,504	-9,161	-0,108	0,051
-333,489	54,253	0,076	-0,053
-332,475	-138,008	0,154	-0,012
-331,460	139,620	0,076	-0,072
-330,445	-158,729	-0,087	-0,003
-329,431	-47,391	0,027	0,009
-328,416	-17,183	0,126	0,057
-327,402	-200,000	0,041	0,148
-326,387	-200,000	0,015	-0,079
-325,372	-122,081	0,050	0,006
-324,358	-158,069	0,108	-0,004
-323,343	102,038	0,062	-0,052
-322,329	87,966	0,122	0,097
-321,314	217,562	-0,027	0,031
-320,299	-14,266	0,057	0,026
-319,285	502,917	-0,069	-0,115
-318,270	123,709	-0,041	0,037
-317,256	-73,060	-0,092	-0,024
-316,241	-200,000	0,007	0,066
-315,226	-129,535	0,118	0,012
-314,212	800,000	-0,032	0,079
-313,197	-21,493	-0,014	0,006
-312,183	800,000	0,030	0,090
-311,168	-200,000	0,004	-0,075
-310,153	73,349	-0,157	-0,118
-309,139	17,230	0,058	-0,033
-308,124	627,683	0,012	0,022
-307,110	84,399	0,175	0,137
-306,095	-26,625	-0,126	0,053
-305,080	-57,047	0,054	0,017
-304,066	-26,313	-0,128	-0,053
-303,051	800,000	-0,011	-0,033
-302,037	93,576	-0,027	-0,022
-301,022	679,736	0,079	-0,148
-300,008	46,889	0,135	0,089
-298,993	393,310	0,085	0,128
-297,978	141,430	0,031	-0,030
-296,964	-200,000	-0,012	-0,045
-295,949	259,267	0,020	0,025
-294,935	800,000	-0,028	-0,056
-293,920	-53,815	-0,022	-0,007
-292,905	182,626	0,019	0,020
-291,891	-200,000	0,004	0,057
-290,876	-200,000	-0,025	-0,229
-289,862	800,000	-0,021	-0,063
-288,847	199,504	0,044	-0,048
-287,832	-143,086	-0,064	0,004
-286,818	-200,000	-0,001	-0,018
-285,803	531,338	-0,034	0,058
-284,789	176,994	-0,150	0,157
-283,774	-75,172	-0,212	-0,054
-282,759	195,671	-0,027	-0,029
-281,745	329,771	-0,035	-0,048
-280,730	174,643	-0,092	-0,096
-279,716	-200,000	0,024	-0,142
-278,701	-133,242	-0,153	0,014
-277,686	548,424	0,064	0,110
-276,672	-66,528	0,055	0,016
-275,657	166,039	0,041	0,041
-274,643	-115,480	-0,129	-0,017
-273,628	800,000	-0,059	-0,154
-272,613	24,881	-0,075	-0,044
-271,599	86,218	0,138	0,108
-270,584	-108,409	-0,132	-0,020
-269,570	139,347	-0,050	0,047
-268,555	-200,000	-0,002	0,102
-267,540	-101,773	-0,081	-0,014
-266,526	121,573	0,053	0,047
-265,511	44,195	0,071	0,046
-264,497	78,897	0,116	0,088
-263,482	-200,000	0,013	0,120
-262,467	-105,147	0,133	-0,022
-261,453	20,636	0,097	-0,056
-260,438	-42,013	-0,047	0,017
-259,424	800,000	0,052	-0,152
-258,409	-200,000	0,002	-0,082
-257,395	-200,000	0,022	-0,200
-256,380	610,151	-0,035	0,062
-255,365	7,441	0,080	0,043
-254,351	342,476	0,044	-0,062
-253,336	-200,000	0,020	-0,120
-252,322	-7,371	-0,023	-0,011
-251,307	-93,640	-0,047	0,009
-250,292	-200,000	0,007	0,023
-249,278	-200,000	-0,008	-0,049
-248,263	231,963	0,051	0,060
-247,249	525,652	0,036	0,061
-246,234	-98,818	0,063	0,011
-245,219	-39,060	-0,049	0,018
-244,205	76,238	0,045	-0,034
-243,190	-200,000	0,011	-0,077
-242,176	-84,577	-0,061	-0,014
-241,161	-200,000	-0,005	-0,043
-240,146	4,132	0,085	-0,045
-239,132	-89,253	0,132	0,028
-238,117	46,407	-0,078	0,051
-237,103	-67,281	0,102	0,028
-236,088	27,980	0,070	-0,042
-235,073	-114,806	0,135	-0,018
-234,059	-200,000	0,022	-0,081
-233,044	337,198	0,058	0,081
-232,030	800,000	-0,059	0,140
-231,015	-200,000	0,005	-0,058
-230,000	51,627	0,124	-0,084
-228,986	124,572	0,050	-0,045
-227,971	-200,000	-0,035	-0,111
-226,957	27,196	0,029	-0,017
-225,942	-135,167	0,033	0,003
-224,927	152,733	-0,018	0,017
-223,913	-103,486	0,021	-0,004
-222,898	-200,000	-0,003	0,078
-221,884	-41,992	-0,171	-0,062
-220,869	512,396	0,036	-0,061
-219,855	-200,000	0,004	-0,026
-218,840	-200,000	0,009	0,049
-217,825	-56,607	0,057	0,018
-216,811	349,529	-0,062	-0,087
-215,796	54,983	-0,069	-0,047
-214,782	327,214	0,025	0,034
-213,767	348,671	0,015	0,022
-212,752	-170,574	-0,065	0,002
-211,738	-165,470	0,069	0,002
-210,723	800,000	-0,044	0,104
-209,709	83,073	-0,069	-0,054
-208,694	-177,215	0,077	-0,001
-207,679	-62,841	0,005	0,002
-206,665	-200,000	0,006	0,079
-205,650	-29,854	0,139	0,056
-204,636	-200,000	0,012	0,062
-203,621	-200,000	0,023	0,087
-202,606	-37,731	-0,056	-0,021
-201,592	9,112	-0,181	0,097
-200,577	15,192	-0,089	-0,050
-199,563	75,428	0,103	0,078
-198,548	800,000	0,045	-0,109
-197,533	245,486	0,073	-0,088
-196,519	538,587	-0,035	-0,060
-195,504	-200,000	-0,005	-0,023
-194,490	-200,000	0,028	-0,152
-193,475	62,371	-0,059	-0,042
-192,460	16,671	0,096	-0,054
-191,446	-121,058	-0,029	0,003
-190,431	556,317	-0,062	0,108
-189,417	-95,545	-0,120	0,023
-188,402	61,525	-0,024	0,017
-187,387	243,526	-0,047	-0,056
-186,373	-47,642	0,031	0,011
-185,358	-200,000	0,011	-0,057
-184,344	-200,000	-0,005	0,049
-183,329	800,000	-0,016	0,041
-182,315	279,515	-0,060	0,076
-181,300	-12,303	-0,034	-0,016
-180,285	-33,834	0,138	-0,054
-179,271	-200,000	-0,002	0,081
-178,256	602,290	0,048	-0,085
-177,242	760,458	0,081	-0,158
-176,227	-68,312	0,055	-0,015
-175,212	111,633	-0,038	0,032
-174,198	37,168	-0,041	0,026
-173,183	282,889	-0,058	-0,074
-172,169	-16,308	-0,055	0,025
-171,154	-87,563	0,088	0,019
-170,139	800,000	0,046	-0,128
-169,125	800,000	0,078	0,192
-168,110	-200,000	-0,007	-0,058
-167,096	473,040	-0,049	-0,079
-166,081	-200,000	-0,000	-0,142
-165,066	581,823	0,034	-0,059
-164,052	-190,168	-0,020	-0,000
-163,037	-173,593	0,090	-0,002
-162,023	35,105	-0,044	0,028
-161,008	-175,508	-0,083	-0,002
-159,993	245,880	-0,037	0,044
-158,979	-7,966	0,087	0,042
-157,964	-52,407	0,027	-0,009
-156,950	-73,786	-0,105	0,027
-155,935	-38,240	0,024	-0,009
-154,920	-105,214	0,144	0,023
-153,906	-200,000	-0,019	0,132
-152,891	-200,000	-0,005	0,037
-151,877	-115,526	-0,017	0,002
-150,862	119,723	-0,129	-0,114
-149,847	-200,000	-0,012	0,052
-148,833	68,883	0,126	0,092
-147,818	800,000	0,005	-0,011
-146,804	-28,485	0,088	0,036
-145,789	-75,464	0,126	-0,032
-144,775	-200,000	0,007	-0,068
-143,760	-129,809	-0,030	-0,003
-142,745	43,316	0,037	-0,024
-141,731	436,391	0,046	-0,071
-140,716	-200,000	-0,006	0,062
-139,702	-200,000	0,017	0,156
-138,687	-200,000	-0,001	0,016
-137,672	-191,945	0,058	0,000
-136,658	430,468	0,041	-0,064
-135,643	31,692	-0,125	-0,076
-134,629	800,000	0,039	0,081
-133,614	800,000	0,088	0,194
-132,599	-200,000	-0,004	0,119
-131,585	-200,000	-0,008	0,082
-130,570	-200,000	-0,033	-0,134
-129,556	800,000	-0,026	-0,055
-128,541	-181,242	-0,145	-0,002
-127,526	-179,393	-0,095	-0,001
-126,512	179,170	0,042	-0,044
-125,497	800,000	0,041	0,109
-124,483	-200,000	0,015	-0,089
-123,468	367,020	-0,036	-0,052
-122,453	76,222	-0,066	0,050
-121,439	-114,904	-0,124	-0,017
-120,424	451,627	0,035	-0,055
-119,410	-153,091	0,056	-0,003
-118,395	-0,617	0,151	-0,076
-117,380	-4,595	-0,089	-0,043
-116,366	800,000	-0,026	0,079
-115,351	-63,383	0,092	-0,027
-114,337	76,671	0,151	-0,114
-113,322	698,810	0,042	-0,079
-112,307	800,000	-0,027	0,058
-111,293	-200,000	0,013	-0,047
-110,278	376,223	-0,020	-0,029
-109,264	-200,000	0,005	0,029
-108,249	180,387	0,064	0,067
-107,234	94,713	-0,115	0,093
-106,220	43,798	0,020	-0,013
-105,205	800,000	0,032	-0,074
-104,191	-200,000	0,021	0,119
-103,176	-68,544	0,115	0,031
-102,162	800,000	-0,025	0,051
-101,147	-21,735	-0,082	-0,035
-100,132	-101,473	-0,068	0,012
-99,118	-53,389	-0,062	0,020
-98,103	-92,191	0,178	0,035
-97,089	-200,000	0,024	0,207
-96,074	-156,744	-0,157	-0,007
-95,059	224,090	-0,009	-0,011
-94,045	475,970	0,053	-0,085
-93,030	651,945	0,059	0,107
-92,016	-76,077	-0,015	0,004
-91,001	160,351	-0,051	-0,051
-89,986	-200,000	0,009	0,070
-88,972	572,113	0,054	0,094
-87,957	-200,000	0,010	0,051
-86,943	-200,000	0,025	-0,082
-85,928	-65,572	0,048	0,014
-84,913	-29,905	0,072	0,029
-83,899	-177,670	0,164	-0,003
-82,884	-200,000	-0,003	-0,078
-81,870	548,225	0,040	0,068
-80,855	-200,000	-0,018	0,100
-79,840	800,000	-0,035	0,086
-78,826	48,089	0,134	0,089
-77,811	311,647	0,046	-0,061
-76,797	133,689	-0,080	0,073
-75,782	174,391	0,107	0,110
-74,767	108,233	0,051	-0,043
-73,753	800,000	-0,023	-0,045
-72,738	318,496	-0,062	0,084
-71,724	796,035	0,019	-0,038
-70,709	-134,924	-0,175	-0,015
-69,694	-200,000	-0,027	-0,139
-68,680	-157,435	0,084	0,004
-67,665	624,931	0,032	-0,057
-66,651	800,000	-0,054	-0,158
-65,636	428,244	-0,062	0,096
-64,622	-200,000	0,007	-0,046
-63,607	-159,148	0,043	-0,002
-62,592	296,784	-0,065	0,085
-61,578	-200,000	0,000	-0,053
-60,563	12,557	0,113	0,062
-59,549	-187,283	-0,075	0,001
-58,534	-92,051	-1,281	-0,255
-57,519	412,573	-1,573	-2,378
-56,505	-200,000	-0,349	-4,244
-55,490	135,397	0,858	0,792
-54,476	800,000	4,742	11,167
-53,461	-200,000	17,196	270,588
-52,446	800,000	716,131	2184,897
-51,432	551,790	1630,474	2787,177
-50,417	81,203	1655,846	1267,209
-49,403	24,257	1530,065	894,074
-48,388	18,302	1453,356	820,587
-47,373	18,485	1443,048	815,609
-46,359	18,152	1433,916	808,836
-45,344	16,604	1429,051	798,710
-44,330	16,571	1427,046	797,402
-43,315	16,562	1425,558	796,498
-42,300	16,595	1423,899	795,692
-41,286	16,662	1422,679	795,298
-40,271	16,576	1421,354	794,120
-39,257	16,553	1420,115	793,286
-38,242	16,594	1418,809	792,720
-37,227	16,631	1417,437	792,095
-36,213	16,617	1416,356	791,394
-35,198	16,550	1415,146	790,371
-34,184	16,597	1414,081	789,965
-33,169	16,531	1412,862	788,947
-32,154	16,557	1411,984	788,545
-31,140	16,582	1410,603	787,860
-30,125	16,616	1409,527	787,387
-29,111	16,615	1408,220	786,621
-28,096	16,536	1407,354	785,736
-27,082	16,517	1405,988	784,852
-26,067	16,521	1404,899	784,231
-25,052	16,518	1403,946	783,657
-24,038	16,523	1402,856	783,040
-23,023	16,487	1401,852	782,280
-22,009	16,475	1400,852	781,637
-20,994	16,448	1399,966	780,985
-19,979	16,453	1398,953	780,414
-18,965	16,444	1398,021	779,819
-17,950	16,441	1397,068	779,242
-16,936	16,456	1396,216	778,808
-15,921	16,413	1395,072	777,938
-14,906	16,374	1394,109	777,190
-13,892	16,438	1392,970	776,821
-12,877	16,432	1392,251	776,362
-11,863	16,397	1391,427	775,710
-10,848	16,424	1390,479	775,272
-9,833	16,390	1389,526	774,554
-8,819	16,332	1388,718	773,807
-7,804	16,333	1387,483	773,091
-6,790	16,329	1386,544	772,520
-5,775	16,278	1385,583	771,721
-4,760	16,273	1385,012	771,348
-3,746	16,278	1383,984	770,767
-2,731	16,293	1383,148	770,340
-1,717	16,280	1382,145	769,693
-0,702	16,290	1380,241	768,647
0,313	20,106	1302,089	742,704
1,327	36,605	707,760	441,976
2,342	56,198	125,880	86,510
3,356	2,737	16,684	8,547
4,371	-1,441	3,274	1,631
5,386	0,647	0,507	0,256
6,400	-50,104	0,069	0,023
7,415	120,101	-0,219	-0,192
8,429	409,525	-0,182	-0,274
9,444	50,597	-0,335	-0,224
10,459	39,192	-0,308	-0,195
11,473	47,534	-0,448	-0,295
12,488	368,805	-0,194	-0,278
13,502	-15,820	-0,303	-0,136
14,517	23,093	-0,308	-0,179
15,531	122,949	-0,346	-0,307
16,546	3,251	-0,429	-0,220
17,561	34,545	-0,416	-0,257
18,575	127,068	-0,115	-0,103
19,590	1,933	-0,308	-0,157
20,604	-65,425	-0,341	-0,096
21,619	100,065	-0,439	-0,360
22,634	238,863	-0,285	-0,336
23,648	111,331	-0,377	-0,321
24,663	33,115	-0,389	-0,238
25,677	141,140	-0,394	-0,369
26,692	124,259	-0,182	-0,161
27,707	-34,271	-0,284	-0,110
28,721	111,194	-0,207	-0,176
29,736	103,297	-0,369	-0,306
30,750	6,566	-0,375	-0,196
31,765	81,995	-0,437	-0,334
32,780	263,451	-0,373	-0,460
33,794	72,952	-0,356	-0,263
34,809	13,483	-0,507	-0,277
35,823	-46,864	-0,358	-0,123
36,838	182,569	-0,415	-0,432
37,853	43,974	-0,351	-0,227
38,867	123,068	-0,452	-0,400
39,882	85,106	-0,327	-0,253
40,896	16,321	-0,307	-0,170
41,911	104,934	-0,389	-0,324
42,926	403,296	-0,174	-0,260
43,940	100,637	-0,268	-0,220
44,955	102,683	-0,351	-0,290
45,969	51,896	-0,306	-0,205
46,984	26,382	-0,269	-0,159
47,999	18,159	-0,315	-0,177
49,013	49,964	-0,287	-0,191
50,028	-44,938	-0,388	-0,136
51,042	4,376	-0,287	-0,148
52,057	32,445	-0,402	-0,245
53,071	98,872	-0,367	-0,299
54,086	203,542	-0,317	-0,346
55,101	41,481	-0,255	-0,163
56,115	108,933	-0,450	-0,380
57,130	-17,323	-0,354	-0,157
58,144	-36,562	-0,413	-0,156
59,159	-24,709	-0,396	-0,165
60,174	28,422	-0,499	-0,296
61,188	-109,682	-0,559	-0,082
62,203	31,346	-0,367	-0,221
63,217	195,305	-0,347	-0,372
64,232	91,647	-0,314	-0,248
65,247	123,768	-0,373	-0,330
66,261	-48,603	-0,404	-0,136
67,276	28,408	-0,386	-0,229
68,290	46,935	-0,324	-0,212
69,305	80,230	-0,294	-0,223
70,320	-50,916	-0,344	-0,113
71,334	495,162	-0,143	-0,231
72,349	165,918	-0,302	-0,302
73,363	96,599	-0,320	-0,258
74,378	384,258	-0,208	-0,302
75,393	120,438	-0,311	-0,272
76,407	-21,503	-0,167	-0,071
77,422	102,395	-0,272	-0,224
78,436	-38,834	-0,327	-0,121
79,451	68,419	-0,296	-0,213
80,466	101,410	-0,263	-0,216
81,480	-51,025	-0,333	-0,109
82,495	55,246	-0,345	-0,235
83,509	91,103	-0,399	-0,315
84,524	33,777	-0,223	-0,136
85,539	-91,972	-0,318	-0,063
86,553	-144,812	-0,230	-0,015
87,568	-4,397	-0,252	-0,122
88,582	108,870	-0,332	-0,279
89,597	124,752	-0,276	-0,244
90,611	-41,063	-0,301	-0,109
91,626	-19,091	-0,332	-0,144
92,641	-101,566	-0,314	-0,053
93,655	50,350	-0,262	-0,174
94,670	64,128	-0,240	-0,170
95,684	206,867	-0,278	-0,305
96,699	260,653	-0,216	-0,263
97,714	-24,676	-0,266	-0,111
98,728	1,902	-0,283	-0,143
99,743	-78,301	-0,256	-0,061
100,757	-27,148	-0,246	-0,100
101,772	104,239	-0,203	-0,167
102,787	-25,316	-0,279	-0,116
103,801	102,907	-0,149	-0,122
104,816	109,441	-0,210	-0,177
105,830	73,678	-0,248	-0,182
106,845	-85,075	-0,342	-0,075
107,860	-124,818	-0,145	-0,015
108,874	162,849	-0,290	-0,287
109,889	157,686	-0,285	-0,277
110,903	800,000	-0,159	-0,361
111,918	122,515	-0,187	-0,164
112,933	406,306	-0,191	-0,283
113,947	-9,244	-0,299	-0,140
114,962	-22,951	-0,226	-0,095
115,976	141,368	-0,255	-0,237
116,991	60,291	-0,280	-0,194
118,006	132,009	-0,346	-0,313
119,020	686,448	-0,187	-0,344
120,035	-64,728	-0,175	-0,049
121,049	247,094	-0,231	-0,274
122,064	22,228	-0,284	-0,162
123,079	-104,666	-0,233	-0,037
124,093	32,709	-0,353	-0,213
125,108	-28,470	-0,332	-0,134
126,122	480,724	-0,102	-0,163
127,137	-63,607	-0,299	-0,086
128,151	163,069	-0,194	-0,191
129,166	58,675	-0,196	-0,135
130,181	65,414	-0,268	-0,190
131,195	37,136	-0,225	-0,140
132,210	136,595	-0,260	-0,238
133,224	187,199	-0,213	-0,223
134,239	-28,062	-0,384	-0,155
135,254	800,000	-0,097	-0,201
136,268	67,479	-0,289	-0,206
137,283	-69,340	-0,282	-0,075
138,297	-160,012	-0,162	-0,006
139,312	91,908	-0,246	-0,194
140,327	497,978	-0,149	-0,240
141,341	78,408	-0,299	-0,223
142,356	-18,956	-0,253	-0,110
143,370	30,572	-0,250	-0,149
144,385	15,144	-0,227	-0,124
145,400	-99,772	-0,341	-0,059
146,414	75,757	-0,313	-0,231
147,429	163,437	-0,216	-0,213
148,443	132,645	-0,226	-0,204
149,458	319,708	-0,231	-0,308
150,473	437,595	-0,135	-0,207
151,487	280,773	-0,222	-0,278
152,502	468,130	-0,191	-0,301
153,516	91,615	-0,280	-0,220
154,531	40,244	-0,351	-0,220
155,546	74,206	-0,288	-0,211
156,560	442,164	-0,094	-0,145
157,575	-2,714	-0,233	-0,114
158,589	800,000	-0,115	-0,345
159,604	-52,655	-0,208	-0,067
160,619	303,399	-0,258	-0,335
161,633	173,927	-0,268	-0,271
162,648	56,864	-0,195	-0,132
163,662	18,307	-0,347	-0,193
164,677	69,453	-0,217	-0,156
165,692	-18,899	-0,156	-0,068
166,706	-125,646	-0,301	-0,031
167,721	-81,339	-0,365	-0,083
168,735	393,296	-0,214	-0,312
169,750	117,099	-0,234	-0,201
170,764	231,921	-0,199	-0,228
171,779	702,020	-0,058	-0,108
172,794	-68,663	-0,321	-0,086
173,808	16,622	-0,145	-0,080
174,823	259,004	-0,151	-0,182
175,837	-11,878	-0,275	-0,126
176,852	-10,980	-0,248	-0,114
177,867	122,773	-0,216	-0,188
178,881	138,833	-0,154	-0,141
179,896	152,362	-0,257	-0,245
180,910	60,990	-0,174	-0,120
181,925	85,523	-0,251	-0,192
182,940	694,968	-0,170	-0,312
183,954	430,062	-0,098	-0,149
184,969	3,586	-0,109	-0,055
185,983	-6,104	-0,160	-0,076
186,998	23,173	-0,195	-0,111
188,013	72,692	-0,191	-0,139
189,027	33,943	-0,226	-0,137
190,042	-4,812	-0,157	-0,075
191,056	117,690	-0,201	-0,173
192,071	331,450	-0,101	-0,136
193,086	77,922	-0,253	-0,188
194,100	-13,447	-0,238	-0,107
195,115	98,084	-0,114	-0,092
196,129	11,321	-0,168	-0,090
197,144	800,000	-0,165	-0,341
198,159	70,741	-0,270	-0,195
199,173	301,005	-0,140	-0,180
200,188	61,874	-0,204	-0,142
201,202	18,259	-0,204	-0,113
202,217	210,047	-0,166	-0,182
203,232	7,540	-0,197	-0,102
204,246	22,718	-0,246	-0,140
205,261	321,194	-0,116	-0,154
206,275	299,130	-0,168	-0,216
207,290	646,922	-0,145	-0,259
208,304	800,000	-0,056	-0,115
209,319	39,751	-0,237	-0,148
210,334	151,394	-0,185	-0,175
211,348	165,623	-0,208	-0,205
212,363	69,808	-0,186	-0,133
213,377	58,370	-0,219	-0,149
214,392	47,170	-0,161	-0,104
215,407	-57,936	-0,170	-0,051
216,421	-60,998	-0,157	-0,046
217,436	182,326	-0,218	-0,223
218,450	800,000	-0,156	-0,306
219,465	-14,387	-0,307	-0,137
220,480	-169,435	-0,167	0,004
221,494	800,000	-0,114	-0,264
222,509	-71,530	-0,214	-0,055
223,523	1,881	-0,205	-0,102
224,538	129,510	-0,292	-0,259
225,553	66,063	-0,236	-0,166
226,567	629,833	-0,105	-0,186
227,582	-51,553	-0,277	-0,089
228,596	-48,775	-0,179	-0,059
229,611	-77,406	-0,075	0,018
230,626	-25,575	-0,128	-0,052
231,640	33,020	-0,143	-0,086
232,655	-44,770	-0,223	-0,077
233,669	109,999	-0,136	-0,113
234,684	68,257	-0,231	-0,164
235,699	-200,000	-0,077	-0,238
236,713	43,084	-0,150	-0,095
237,728	747,598	-0,090	-0,169
238,742	63,564	-0,189	-0,132
239,757	800,000	-0,085	-0,256
240,772	264,947	-0,216	-0,261
241,786	255,136	-0,229	-0,273
242,801	-69,968	-0,202	-0,053
243,815	141,680	-0,069	-0,063
244,830	121,048	-0,119	-0,103
245,844	800,000	-0,083	-0,207
246,859	-78,343	-0,244	-0,058
247,874	-20,405	-0,256	-0,109
248,888	800,000	-0,100	-0,220
249,903	93,884	-0,115	-0,090
250,917	-26,526	-0,157	-0,063
251,932	86,976	-0,129	0,099
252,947	-8,486	-0,134	-0,062
253,961	800,000	-0,071	-0,146
254,976	-100,656	-0,192	0,033
255,990	531,618	-0,179	-0,294
257,005	800,000	-0,115	-0,319
258,020	4,899	-0,232	-0,118
259,034	60,657	-0,169	-0,116
260,049	39,008	-0,154	-0,095
261,063	-113,647	-0,081	-0,011
262,078	82,148	-0,259	-0,194
263,093	659,833	-0,137	-0,245
264,107	83,984	-0,163	-0,123
265,122	-35,530	-0,163	-0,061
266,136	800,000	-0,009	-0,021
267,151	-115,560	-0,187	-0,024
268,166	731,134	-0,072	-0,134
269,180	604,282	-0,107	-0,184
270,195	764,535	-0,150	-0,284
271,209	-82,644	-0,217	-0,048
272,224	418,687	-0,157	-0,234
273,239	230,621	-0,115	-0,131
274,253	-133,657	-0,180	-0,015
275,268	-64,099	-0,288	-0,081
276,282	92,376	-0,312	-0,244
277,297	-98,953	-0,273	-0,047
278,312	127,714	-0,105	-0,092
279,326	191,671	-0,142	-0,148
280,341	65,751	-0,135	-0,094
281,355	634,189	-0,074	-0,130
282,370	443,980	-0,120	-0,183
283,384	28,307	-0,237	-0,138
284,399	146,873	-0,176	-0,163
285,414	165,691	-0,139	-0,136
286,428	3,234	-0,200	-0,100
287,443	-72,511	-0,041	-0,010
288,457	-152,649	-0,177	-0,009
289,472	800,000	0,038	-0,083
290,487	-75,874	-0,184	-0,045
291,501	142,776	-0,163	-0,150
292,516	-88,686	-0,206	-0,042
293,530	-0,551	-0,122	-0,060
294,545	199,037	-0,102	-0,108
295,560	-200,000	-0,027	-0,101
296,574	-180,307	-0,210	-0,003
297,589	6,250	-0,157	-0,080
298,603	101,220	-0,169	-0,136
299,618	-32,322	-0,287	-0,110
300,633	155,908	-0,060	-0,057
301,647	439,334	-0,092	-0,140
302,662	-200,000	0,006	-0,108
303,676	-32,297	-0,024	-0,009
304,691	800,000	-0,063	-0,130
305,706	74,692	-0,131	-0,095
306,720	394,015	-0,158	-0,227
307,735	69,954	-0,112	-0,079
308,749	54,631	-0,175	-0,116
309,764	800,000	-0,022	-0,064
310,779	225,483	-0,145	-0,162
311,793	9,909	-0,183	-0,095
312,808	97,174	-0,130	-0,103
313,822	54,686	-0,223	-0,148
314,837	49,165	-0,073	-0,047
315,852	278,464	-0,176	-0,217
316,866	29,415	-0,090	0,053
317,881	-200,000	-0,021	-0,103
318,895	46,725	-0,131	-0,084
319,910	-80,241	-0,270	-0,062
320,925	14,866	-0,222	-0,119
321,939	-200,000	-0,062	-0,204
322,954	-3,992	-0,148	-0,070
323,968	-42,673	-0,062	-0,022
324,983	699,238	-0,018	-0,034
325,997	167,340	-0,212	-0,208
327,012	800,000	-0,069	-0,160
328,027	-26,326	-0,088	-0,036
329,041	238,398	-0,135	-0,155
330,056	-149,472	-0,144	0,008
331,070	800,000	-0,077	-0,175
332,085	-28,512	-0,106	-0,042
333,100	-119,531	-0,135	-0,016
334,114	85,991	-0,230	-0,174
335,129	641,791	-0,112	-0,197
336,143	-127,292	-0,156	-0,015
337,158	800,000	-0,096	-0,193
338,173	-9,768	-0,077	-0,035
339,187	-20,929	-0,149	-0,062
340,202	97,884	-0,110	-0,087
341,216	278,646	-0,050	-0,062
342,231	201,131	-0,145	-0,154
343,246	800,000	-0,072	-0,183
344,260	75,679	-0,090	-0,066
345,275	315,367	-0,036	0,047
346,289	573,723	-0,104	-0,175
347,304	-200,000	-0,044	-0,201
348,319	-200,000	-0,055	-0,194
349,333	800,000	-0,112	-0,244
350,348	192,532	-0,129	-0,135
351,362	535,220	-0,079	-0,129
352,377	169,759	-0,131	-0,129
353,392	459,692	-0,119	-0,183
354,406	-88,922	-0,118	0,024
355,421	209,465	1313,658	1416,292
356,435	161,215	1474,293	1416,825
