DTS Sentinel unit serial number:	SN410029Multiplexer serial number:	ORYXHardware model number:	OX2-SRSoftware version number:	ORYX F/W v4,00 Oryx Data Collector v3.7.2.0data status	okinstallation	B3 Nyhavnadifferential loss correction	single-endedforward channel	channel 1reverse channel	N/Adate	2023/11/29time	17:47:30forward acquisition time	300,00reverse acquisition time	0,00gamma	499,1914k internal	0,3209k external	0,3209temperature offset calibration	1,0000default loss term (dB/km)	0,3820temperature slope calibration	1,0000multiplexer offset coefficient	1,0000multiplexer slope coefficient	1,0000fibre end	0,00T internal ref (°C)	11,25T ext. ref 1 (°C)	-4,05T ext. ref 2 (°C)	-4,13length (m)	temperature (°C)	Stokes	anti-Stokes-744,400	194,275	-0,247	-0,272
-743,385	-200,000	0,034	0,217
-742,371	-66,609	-0,257	-0,073
-741,356	-200,000	-0,038	0,284
-740,342	800,000	-0,089	-0,193
-739,327	-200,000	-0,053	0,242
-738,312	800,000	-0,095	-0,203
-737,298	800,000	-0,101	0,280
-736,283	186,371	-0,134	-0,145
-735,269	-200,000	0,068	0,245
-734,254	105,626	-0,297	-0,255
-733,239	537,145	-0,113	0,196
-732,225	234,481	-0,123	-0,148
-731,210	-200,000	0,043	0,163
-730,196	29,681	-0,098	0,060
-729,181	385,548	-0,018	-0,027
-728,167	-200,000	0,002	-0,062
-727,152	71,255	0,012	-0,009
-726,137	179,864	-0,092	-0,098
-725,123	43,599	-0,068	-0,045
-724,108	412,776	-0,088	0,136
-723,094	-22,692	-0,053	0,023
-722,079	800,000	-0,039	0,119
-721,064	-200,000	-0,009	-0,123
-720,050	-200,000	0,005	-0,112
-719,035	201,407	0,025	-0,028
-718,021	177,712	-0,015	0,016
-717,006	800,000	-0,029	0,064
-715,991	57,178	-0,137	-0,097
-714,977	-124,907	-0,092	-0,010
-713,962	-200,000	0,000	-0,099
-712,948	9,976	0,111	-0,061
-711,933	10,906	-0,008	0,005
-710,918	-200,000	0,043	0,150
-709,904	-159,303	-0,328	-0,013
-708,889	266,740	-0,045	-0,057
-707,875	800,000	-0,077	-0,158
-706,860	-200,000	-0,010	0,033
-705,845	126,718	-0,067	0,062
-704,831	-66,175	0,073	0,021
-703,816	495,354	-0,024	0,040
-702,802	698,671	-0,033	0,062
-701,787	800,000	-0,118	-0,269
-700,772	800,000	0,061	-0,134
-699,758	800,000	0,030	-0,087
-698,743	-200,000	0,006	0,074
-697,729	-200,000	0,000	0,060
-696,714	9,268	-0,030	0,016
-695,699	68,417	-0,102	0,075
-694,685	-124,165	-0,058	0,007
-693,670	-200,000	0,027	-0,114
-692,656	-200,000	0,013	0,046
-691,641	800,000	0,043	-0,124
-690,627	-200,000	0,006	0,073
-689,612	-55,349	0,098	0,032
-688,597	800,000	-0,064	-0,177
-687,583	137,836	-0,150	-0,142
-686,568	130,859	-0,081	-0,075
-685,554	-2,125	0,123	-0,062
-684,539	262,267	0,027	-0,034
-683,524	-85,571	0,084	-0,019
-682,510	-200,000	-0,054	0,172
-681,495	-139,394	-0,041	0,003
-680,481	545,750	-0,029	-0,050
-679,466	503,668	-0,069	-0,117
-678,451	-200,000	-0,023	-0,100
-677,437	251,274	-0,124	-0,152
-676,422	-200,000	-0,000	0,087
-675,408	215,533	0,035	-0,041
-674,393	-200,000	0,002	-0,085
-673,378	-32,670	-0,079	-0,032
-672,364	153,864	-0,118	-0,117
-671,349	62,641	0,028	-0,020
-670,335	238,306	0,055	0,066
-669,320	-6,011	-0,092	0,045
-668,305	487,921	-0,086	0,143
-667,291	214,420	-0,128	-0,147
-666,276	524,110	-0,054	-0,093
-665,262	-51,114	-0,149	-0,050
-664,247	-200,000	0,005	0,052
-663,232	-55,351	-0,051	0,017
-662,218	-200,000	0,021	-0,160
-661,203	-88,533	0,052	-0,011
-660,189	800,000	0,032	-0,085
-659,174	311,951	-0,057	0,077
-658,159	-200,000	0,022	0,099
-657,145	-200,000	-0,014	-0,166
-656,130	-200,000	-0,006	-0,042
-655,116	314,033	-0,102	0,140
-654,101	-200,000	-0,005	0,148
-653,086	146,626	-0,066	0,064
-652,072	214,461	-0,014	-0,016
-651,057	-200,000	-0,004	0,038
-650,043	-200,000	-0,013	-0,086
-649,028	-200,000	-0,016	-0,052
-648,014	-42,140	-0,032	-0,012
-646,999	86,570	0,055	0,044
-645,984	789,130	0,010	0,019
-644,970	224,489	-0,037	-0,043
-643,955	256,387	-0,087	-0,109
-642,941	-3,823	-0,086	0,043
-641,926	800,000	-0,024	-0,074
-640,911	13,695	-0,151	-0,084
-639,897	64,423	-0,049	0,036
-638,882	521,208	0,019	0,033
-637,868	-200,000	-0,022	-0,123
-636,853	-121,141	-0,166	0,020
-635,838	-84,553	-0,089	0,020
-634,824	800,000	0,019	-0,050
-633,809	800,000	0,030	0,075
-632,795	-101,561	0,075	-0,013
-631,780	800,000	-0,045	-0,090
-630,765	9,522	-0,113	-0,062
-629,751	-200,000	-0,025	-0,081
-628,736	147,736	-0,096	-0,093
-627,722	16,491	-0,026	0,015
-626,707	260,746	-0,067	-0,084
-625,692	-200,000	-0,003	-0,092
-624,678	77,210	-0,077	0,059
-623,663	800,000	0,015	-0,044
-622,649	648,614	0,018	-0,033
-621,634	-200,000	0,002	-0,096
-620,619	110,479	0,059	0,052
-619,605	254,620	0,052	0,065
-618,590	99,077	-0,112	0,093
-617,576	29,002	-0,055	-0,033
-616,561	800,000	-0,025	0,056
-615,546	-200,000	0,003	-0,114
-614,532	800,000	0,032	-0,085
-613,517	551,775	-0,027	-0,047
-612,503	163,442	0,090	0,091
-611,488	77,263	0,089	0,068
-610,474	-21,704	-0,054	-0,024
-609,459	800,000	-0,019	-0,052
-608,444	-72,063	-0,078	0,021
-607,430	75,600	-0,074	0,057
-606,415	-65,550	-0,091	-0,026
-605,401	45,494	0,164	-0,109
-604,386	152,778	-0,025	0,025
-603,371	-200,000	0,006	-0,062
-602,357	-169,655	-0,118	-0,003
-601,342	-139,381	-0,025	-0,002
-600,328	290,302	0,042	-0,056
-599,313	-13,079	-0,054	0,025
-598,298	-200,000	0,012	-0,142
-597,284	651,304	-0,047	0,086
-596,269	800,000	0,032	0,072
-595,255	-69,037	-0,120	-0,033
-594,240	-184,110	-0,055	0,001
-593,225	351,674	-0,077	0,111
-592,211	227,560	-0,022	0,026
-591,196	-6,364	0,106	-0,052
-590,182	800,000	-0,054	-0,131
-589,167	-200,000	0,004	-0,048
-588,152	-47,932	0,148	0,051
-587,138	-200,000	0,011	-0,054
-586,123	793,363	-0,021	-0,041
-585,109	-94,868	0,037	-0,007
-584,094	96,348	0,033	-0,027
-583,079	17,953	-0,060	0,034
-582,065	157,236	0,099	0,099
-581,050	800,000	-0,038	0,077
-580,036	-85,625	-0,057	0,013
-579,021	800,000	0,023	-0,055
-578,006	-200,000	0,004	0,059
-576,992	-70,327	-0,026	0,007
-575,977	-126,328	0,110	-0,012
-574,963	-152,283	-0,102	0,005
-573,948	395,454	0,082	0,123
-572,934	-77,241	0,068	-0,017
-571,919	479,904	0,035	0,058
-570,904	85,475	-0,035	-0,028
-569,890	-137,773	0,085	-0,007
-568,875	678,999	-0,040	0,075
-567,861	193,165	0,060	-0,065
-566,846	370,201	0,035	-0,051
-565,831	-48,496	-0,072	0,025
-564,817	438,761	-0,059	0,093
-563,802	163,846	-0,021	0,021
-562,788	2,276	-0,122	-0,063
-561,773	0,033	0,099	-0,050
-560,758	80,705	0,018	-0,014
-559,744	800,000	-0,029	0,071
-558,729	293,923	0,027	-0,036
-557,715	-200,000	0,035	-0,124
-556,700	-135,335	-0,117	-0,010
-555,685	800,000	0,026	-0,071
-554,671	585,584	0,025	0,045
-553,656	-200,000	0,024	0,114
-552,642	110,743	-0,059	-0,051
-551,627	-64,247	0,195	-0,057
-550,612	294,711	0,040	-0,053
-549,598	-15,545	-0,118	-0,054
-548,583	194,001	0,060	0,066
-547,569	800,000	0,047	0,093
-546,554	70,149	-0,052	-0,038
-545,539	83,180	-0,041	0,032
-544,525	-46,392	0,103	-0,036
-543,510	-138,221	0,139	-0,011
-542,496	-37,277	-0,052	0,020
-541,481	439,196	0,032	0,050
-540,466	51,772	0,027	-0,018
-539,452	-152,531	0,066	0,003
-538,437	-200,000	-0,020	0,084
-537,423	62,367	0,112	0,081
-536,408	-200,000	0,011	0,060
-535,393	456,580	-0,071	-0,114
-534,379	184,261	0,016	-0,017
-533,364	-40,447	0,123	0,046
-532,350	-144,682	-0,065	0,004
-531,335	-200,000	0,012	-0,089
-530,321	259,524	0,063	-0,079
-529,306	-200,000	-0,014	-0,074
-528,291	531,186	0,043	-0,074
-527,277	-200,000	-0,057	-0,199
-526,262	-48,623	0,046	-0,016
-525,248	6,029	-0,027	0,015
-524,233	-70,882	-0,100	0,027
-523,218	635,410	-0,043	0,079
-522,204	800,000	-0,031	0,092
-521,189	-71,617	-0,058	-0,015
-520,175	-89,083	-0,095	-0,020
-519,160	106,165	-0,021	0,018
-518,145	24,478	-0,083	0,049
-517,131	-200,000	-0,016	0,117
-516,116	94,345	-0,137	0,112
-515,102	-200,000	0,017	0,061
-514,087	-52,470	0,046	-0,015
-513,072	800,000	0,073	-0,147
-512,058	-200,000	0,037	-0,154
-511,043	-129,320	0,091	-0,009
-510,029	-200,000	0,017	-0,064
-509,014	-200,000	0,018	0,073
-507,999	-99,415	0,057	0,010
-506,985	-25,834	-0,066	-0,028
-505,970	9,479	-0,083	-0,045
-504,956	-151,158	-0,118	0,006
-503,941	89,759	0,132	0,106
-502,926	383,922	0,030	0,044
-501,912	242,241	0,028	0,034
-500,897	-137,209	-0,017	-0,001
-499,883	800,000	-0,033	0,091
-498,868	84,675	-0,056	-0,044
-497,853	-5,774	-0,038	0,019
-496,839	238,434	-0,073	-0,088
-495,824	196,928	0,061	0,066
-494,810	475,391	0,064	0,104
-493,795	-64,100	-0,142	0,041
-492,781	72,843	0,124	-0,093
-491,766	-200,000	-0,022	0,111
-490,751	3,931	-0,071	-0,037
-489,737	-200,000	0,003	-0,047
-488,722	76,411	0,177	-0,135
-487,708	131,886	0,024	0,022
-486,693	45,723	-0,057	0,038
-485,678	-200,000	-0,016	0,067
-484,664	640,215	0,039	-0,071
-483,649	-123,666	0,048	-0,005
-482,635	-200,000	0,008	-0,046
-481,620	-200,000	-0,006	0,051
-480,605	-200,000	-0,024	-0,166
-479,591	800,000	-0,041	-0,081
-478,576	224,695	-0,019	-0,022
-477,562	-200,000	0,003	-0,093
-476,547	-200,000	-0,022	-0,141
-475,532	347,336	-0,016	0,022
-474,518	800,000	0,019	-0,057
-473,503	66,729	-0,152	0,111
-472,489	-143,663	0,053	0,004
-471,474	800,000	0,017	-0,040
-470,459	168,773	-0,075	-0,077
-469,445	-200,000	-0,045	-0,220
-468,430	-200,000	0,031	-0,116
-467,416	-200,000	0,005	0,128
-466,401	45,826	-0,072	-0,048
-465,386	-138,422	-0,079	0,006
-464,372	-74,170	0,094	0,024
-463,357	-131,482	-0,071	0,007
-462,343	110,603	-0,012	-0,010
-461,328	-200,000	-0,009	-0,059
-460,313	-200,000	0,029	-0,101
-459,299	149,701	0,108	-0,105
-458,284	-200,000	-0,012	0,153
-457,270	-196,144	0,138	0,001
-456,255	-65,352	-0,092	-0,026
-455,241	-200,000	0,010	-0,088
-454,226	-200,000	0,024	-0,244
-453,211	620,085	-0,023	0,041
-452,197	-200,000	-0,006	0,102
-451,182	800,000	-0,046	0,127
-450,168	-113,196	-0,123	0,017
-449,153	294,898	-0,090	0,119
-448,138	113,944	0,045	-0,040
-447,124	-125,284	0,062	-0,007
-446,109	-200,000	0,008	-0,046
-445,095	-200,000	0,001	-0,045
-444,080	17,694	-0,022	-0,012
-443,065	800,000	-0,027	-0,083
-442,051	-21,429	0,122	-0,053
-441,036	104,996	-0,123	-0,104
-440,022	-33,209	-0,115	-0,045
-439,007	-63,767	0,069	0,020
-437,992	800,000	-0,029	-0,084
-436,978	735,444	0,086	-0,165
-435,963	-200,000	-0,006	-0,109
-434,949	340,529	-0,029	0,041
-433,934	-80,599	-0,203	-0,048
-432,919	-66,450	-0,078	0,022
-431,905	-9,397	-0,175	0,083
-430,890	-146,952	0,107	0,007
-429,876	-200,000	-0,016	0,060
-428,861	432,788	0,043	0,067
-427,846	-200,000	0,027	0,111
-426,832	-200,000	-0,004	0,053
-425,817	97,052	0,067	0,055
-424,803	60,775	0,114	-0,081
-423,788	-126,709	0,054	-0,006
-422,773	-200,000	0,005	0,042
-421,759	-106,081	0,131	0,021
-420,744	26,365	0,071	0,042
-419,730	234,640	-0,028	0,033
-418,715	172,232	-0,093	-0,095
-417,701	-200,000	0,034	-0,116
-416,686	-96,050	0,205	0,039
-415,671	-47,704	0,093	0,032
-414,657	-200,000	0,000	-0,092
-413,642	554,569	0,022	-0,038
-412,628	-200,000	-0,037	-0,158
-411,613	58,249	-0,074	0,052
-410,598	-200,000	-0,013	0,122
-409,584	596,424	-0,058	-0,104
-408,569	60,745	0,028	0,020
-407,555	-30,381	0,055	0,022
-406,540	-154,021	-0,091	0,004
-405,525	-200,000	0,015	0,120
-404,511	195,420	0,054	0,058
-403,496	704,884	0,007	0,013
-402,482	800,000	0,047	0,123
-401,467	158,075	0,093	0,092
-400,452	-58,345	-0,050	0,016
-399,438	46,689	-0,108	0,072
-398,423	-200,000	0,021	-0,102
-397,409	7,681	0,081	-0,043
-396,394	-82,965	-0,148	-0,034
-395,379	66,687	-0,037	0,027
-394,365	-159,769	0,086	-0,003
-393,350	-200,000	0,002	0,124
-392,336	-65,101	0,055	-0,016
-391,321	351,097	-0,067	0,095
-390,306	-200,000	0,032	-0,149
-389,292	246,545	0,125	-0,151
-388,277	208,449	-0,043	0,048
-387,263	-18,123	0,192	0,086
-386,248	203,381	-0,104	0,115
-385,233	215,637	0,061	0,069
-384,219	800,000	-0,045	0,122
-383,204	124,880	-0,155	0,140
-382,190	-2,498	-0,134	-0,067
-381,175	-33,178	-0,036	0,014
-380,160	-200,000	0,022	0,155
-379,146	800,000	0,006	0,018
-378,131	271,973	0,146	0,185
-377,117	159,675	0,027	-0,027
-376,102	27,760	-0,033	-0,020
-375,088	-200,000	-0,011	-0,066
-374,073	287,610	-0,066	-0,086
-373,058	800,000	0,029	-0,064
-372,044	-27,539	0,040	0,017
-371,029	-147,034	-0,134	0,008
-370,015	800,000	0,007	0,019
-369,000	800,000	-0,032	-0,081
-367,985	-200,000	0,019	-0,140
-366,971	800,000	-0,027	0,084
-365,956	39,214	0,078	0,050
-364,942	406,315	-0,132	0,199
-363,927	224,740	0,103	0,119
-362,912	350,457	-0,088	0,124
-361,898	87,500	0,116	0,092
-360,883	-120,231	-0,120	0,014
-359,869	165,114	-0,092	-0,093
-358,854	194,674	0,048	0,052
-357,839	-21,800	-0,014	-0,006
-356,825	401,673	-0,054	0,081
-355,810	1,268	0,063	0,032
-354,796	-50,192	0,064	-0,021
-353,781	85,994	-0,036	0,028
-352,766	-175,625	-0,132	-0,002
-351,752	-200,000	-0,006	0,127
-350,737	259,229	0,066	-0,081
-349,723	-38,285	0,132	0,050
-348,708	220,476	0,035	0,040
-347,693	-68,652	0,041	0,011
-346,679	-200,000	0,044	0,227
-345,664	-12,827	-0,075	-0,035
-344,650	249,638	0,091	-0,110
-343,635	402,198	-0,057	-0,086
-342,620	-26,373	0,154	0,064
-341,606	160,375	-0,068	0,068
-340,591	182,692	-0,002	-0,002
-339,577	-26,304	-0,025	-0,010
-338,562	-150,427	-0,140	0,008
-337,548	800,000	0,061	-0,139
-336,533	360,350	0,083	0,119
-335,518	-200,000	0,003	-0,029
-334,504	800,000	-0,039	0,093
-333,489	23,259	-0,050	0,029
-332,475	-200,000	0,049	0,173
-331,460	-5,973	-0,018	-0,009
-330,445	245,927	-0,079	-0,095
-329,431	-200,000	0,021	0,173
-328,416	-200,000	-0,003	0,092
-327,402	22,954	0,025	0,014
-326,387	89,222	-0,026	0,021
-325,372	-200,000	-0,001	-0,027
-324,358	-200,000	-0,050	-0,213
-323,343	-200,000	0,008	-0,045
-322,329	152,122	0,012	-0,012
-321,314	-75,421	0,119	-0,030
-320,299	19,402	0,108	-0,062
-319,285	259,437	-0,046	-0,057
-318,270	114,051	-0,119	-0,103
-317,256	-7,434	-0,117	-0,056
-316,241	128,078	0,089	0,081
-315,226	-144,197	-0,076	0,005
-314,212	65,660	0,088	0,063
-313,197	158,049	0,105	-0,104
-312,183	-147,911	-0,041	0,002
-311,168	230,967	0,048	-0,056
-310,153	800,000	0,010	-0,024
-309,139	-107,399	0,030	0,005
-308,124	-87,340	-0,101	0,022
-307,110	479,190	0,044	0,071
-306,095	687,895	0,052	-0,097
-305,080	411,522	0,069	0,104
-304,066	15,947	-0,082	-0,046
-303,051	555,615	-0,046	-0,080
-302,037	-200,000	-0,023	-0,094
-301,022	-200,000	0,001	-0,045
-300,008	219,856	0,096	0,109
-298,993	-200,000	-0,028	0,128
-297,978	-103,262	0,149	0,025
-296,964	-200,000	-0,009	0,096
-295,949	800,000	-0,061	0,141
-294,935	164,008	-0,107	-0,107
-293,920	-200,000	0,011	0,138
-292,905	800,000	0,063	0,138
-291,891	-71,370	0,154	0,041
-290,876	58,502	0,038	-0,027
-289,862	40,724	-0,120	-0,077
-288,847	439,816	0,108	-0,169
-287,832	-19,632	0,093	-0,041
-286,818	104,937	0,057	0,048
-285,803	103,478	0,094	0,079
-284,789	328,908	0,077	-0,106
-283,774	169,937	0,055	-0,056
-282,759	-89,697	-0,064	-0,013
-281,745	-200,000	-0,012	-0,129
-280,730	-14,093	-0,148	-0,068
-279,716	-47,620	0,075	-0,026
-278,701	-65,442	0,166	0,047
-277,686	-200,000	0,009	0,092
-276,672	800,000	0,089	0,218
-275,657	-32,361	-0,060	0,024
-274,643	0,319	-0,106	-0,054
-273,628	773,377	-0,059	-0,115
-272,613	446,007	0,044	-0,070
-271,599	800,000	-0,062	-0,129
-270,584	-200,000	-0,006	0,087
-269,570	800,000	-0,029	0,078
-268,555	596,182	-0,033	0,058
-267,540	-98,231	0,147	0,027
-266,526	160,179	0,060	0,060
-265,511	-24,534	-0,058	-0,025
-264,497	-200,000	0,003	0,056
-263,482	-8,581	-0,090	0,043
-262,467	176,109	0,132	0,136
-261,453	571,453	-0,071	-0,124
-260,438	193,833	0,087	-0,094
-259,424	269,582	0,072	-0,090
-258,409	479,531	0,050	0,081
-257,395	-82,912	0,109	-0,025
-256,380	-200,000	0,002	0,032
-255,365	-93,570	0,086	0,017
-254,351	-200,000	0,005	-0,073
-253,336	-157,216	0,064	0,003
-252,322	-153,583	-0,121	0,006
-251,307	-200,000	-0,023	0,075
-250,292	-20,046	0,052	0,023
-249,278	192,357	0,025	0,026
-248,263	-200,000	0,016	-0,137
-247,249	-104,024	-0,123	0,020
-246,234	-112,937	-0,094	0,013
-245,219	237,534	0,045	-0,053
-244,205	-200,000	0,020	-0,103
-243,190	56,531	0,139	0,096
-242,176	-13,907	0,090	0,041
-241,161	-10,825	0,138	0,065
-240,146	60,950	-0,201	0,142
-239,132	63,828	0,101	0,072
-238,117	-200,000	-0,013	0,124
-237,103	-200,000	0,013	0,086
-236,088	800,000	0,048	-0,136
-235,073	169,643	-0,012	0,012
-234,059	-119,195	0,015	-0,002
-233,044	-12,753	0,097	-0,045
-232,030	-58,849	-0,085	0,026
-231,015	-22,948	0,035	0,015
-230,000	186,215	-0,093	-0,098
-228,986	-200,000	-0,014	-0,058
-227,971	-200,000	0,045	-0,163
-226,957	-200,000	0,018	0,106
-225,942	0,661	-0,080	-0,041
-224,927	766,958	0,043	0,083
-223,913	-200,000	0,006	0,123
-222,898	800,000	-0,062	-0,144
-221,884	800,000	-0,024	-0,057
-220,869	120,568	-0,055	-0,048
-219,855	-110,190	0,059	-0,009
-218,840	800,000	0,009	0,027
-217,825	122,881	-0,027	0,024
-216,811	-13,460	-0,025	-0,012
-215,796	-24,529	-0,059	-0,025
-214,782	68,482	-0,059	-0,043
-213,767	43,435	0,061	-0,040
-212,752	-184,520	0,183	0,002
-211,738	122,406	0,119	0,106
-210,723	-141,090	-0,091	0,006
-209,709	-200,000	-0,012	0,061
-208,694	-200,000	-0,033	-0,154
-207,679	196,082	0,076	-0,082
-206,665	162,067	-0,059	0,059
-205,650	-86,185	0,088	0,019
-204,636	617,336	0,135	0,242
-203,621	-12,924	-0,138	0,064
-202,606	-200,000	0,015	0,099
-201,592	-65,608	-0,112	-0,032
-200,577	-114,103	-0,091	-0,012
-199,563	104,519	0,079	-0,066
-198,548	-130,226	-0,068	0,006
-197,533	-64,571	-0,174	0,050
-196,519	-49,152	0,135	0,046
-195,504	-124,176	0,127	-0,014
-194,490	329,368	0,034	-0,046
-193,475	355,315	0,133	-0,189
-192,460	46,396	0,057	0,037
-191,446	-200,000	0,005	0,082
-190,431	790,913	0,041	-0,080
-189,417	-200,000	0,048	0,193
-188,402	426,713	-0,070	-0,108
-187,387	21,017	-0,069	-0,040
-186,373	580,529	-0,082	-0,143
-185,358	104,918	-0,038	0,032
-184,344	-200,000	-0,042	0,192
-183,329	187,449	0,124	0,132
-182,315	-200,000	-0,008	0,057
-181,300	131,685	0,037	-0,034
-180,285	800,000	-0,083	-0,177
-179,271	3,685	0,055	0,028
-178,256	-200,000	-0,022	0,115
-177,242	-200,000	0,000	-0,055
-176,227	-98,549	0,056	0,010
-175,212	-200,000	-0,006	0,099
-174,198	-151,038	-0,066	0,003
-173,183	-200,000	-0,027	-0,111
-172,169	-35,462	-0,182	0,070
-171,154	649,779	0,040	-0,074
-170,139	-60,923	-0,118	0,035
-169,125	-146,355	-0,099	-0,006
-168,110	-3,122	-0,064	-0,031
-167,096	130,369	0,061	0,056
-166,081	-200,000	0,009	-0,088
-165,066	-58,265	-0,017	0,005
-164,052	-200,000	-0,008	-0,141
-163,037	93,122	0,090	-0,072
-162,023	188,908	0,083	0,088
-161,008	-43,255	0,065	0,023
-159,993	61,738	-0,136	-0,096
-158,979	-200,000	-0,015	0,070
-157,964	234,929	0,080	0,094
-156,950	800,000	-0,034	0,105
-155,935	-61,127	-0,169	-0,050
-154,920	-79,399	0,135	-0,032
-153,906	800,000	0,077	0,160
-152,891	-32,399	0,056	0,022
-151,877	361,118	-0,135	0,192
-150,862	-200,000	0,009	0,083
-149,847	800,000	-0,048	0,132
-148,833	-200,000	0,009	-0,109
-147,818	-200,000	-0,000	-0,017
-146,804	-200,000	0,125	0,000
-145,789	108,853	-0,112	-0,095
-144,775	-149,149	0,027	-0,001
-143,760	-42,868	-0,113	-0,041
-142,745	101,194	-0,034	0,028
-141,731	-49,582	0,070	-0,023
-140,716	-200,000	0,020	-0,185
-139,702	87,409	0,197	0,154
-138,687	506,514	-0,097	-0,160
-137,672	-41,795	-0,098	-0,035
-136,658	9,931	-0,076	-0,041
-135,643	620,042	0,055	0,098
-134,629	-200,000	-0,001	-0,006
-133,614	800,000	0,048	0,097
-132,599	149,386	0,184	0,176
-131,585	-164,486	-0,167	-0,005
-130,570	-91,728	-0,060	0,012
-129,556	125,268	0,032	-0,029
-128,541	-85,073	-0,078	0,017
-127,526	-93,395	-0,084	-0,016
-126,512	-7,923	-0,106	0,050
-125,497	800,000	0,019	0,038
-124,483	654,972	0,063	0,115
-123,468	-70,170	-0,111	-0,030
-122,453	80,287	-0,051	-0,039
-121,439	577,281	-0,068	-0,118
-120,424	-138,362	-0,101	-0,008
-119,410	42,763	-0,112	-0,072
-118,395	146,464	0,002	-0,002
-117,380	-22,415	-0,048	0,021
-116,366	-59,352	0,067	-0,020
-115,351	-22,313	-0,071	-0,030
-114,337	47,785	0,037	0,024
-113,322	297,427	0,088	0,115
-112,307	-200,000	0,022	0,073
-111,293	-60,875	0,130	0,039
-110,278	85,198	-0,092	0,071
-109,264	-22,395	-0,029	0,012
-108,249	-146,097	0,092	0,006
-107,234	488,551	-0,074	-0,119
-106,220	800,000	-0,035	0,068
-105,205	800,000	-0,038	0,106
-104,191	655,490	0,057	-0,105
-103,176	475,391	0,074	0,118
-102,162	50,589	0,126	0,084
-101,147	-35,687	-0,115	-0,044
-100,132	-200,000	-0,005	-0,036
-99,118	17,809	-0,044	-0,025
-98,103	285,879	-0,011	-0,014
-97,089	171,547	0,080	0,081
-96,074	-200,000	-0,001	0,065
-95,059	800,000	0,007	0,021
-94,045	16,503	0,103	-0,058
-93,030	668,572	-0,083	-0,152
-92,016	-200,000	-0,014	0,058
-91,001	349,469	0,077	0,108
-89,986	330,528	0,048	-0,065
-88,972	219,982	-0,167	-0,189
-87,957	-200,000	0,001	0,184
-86,943	779,781	-0,054	-0,104
-85,928	800,000	0,011	-0,033
-84,913	-200,000	0,001	0,018
-83,899	-200,000	0,011	-0,044
-82,884	800,000	-0,028	0,080
-81,870	79,054	-0,020	-0,015
-80,855	153,312	-0,068	-0,066
-79,840	-137,017	0,089	-0,007
-78,826	-32,381	-0,081	-0,032
-77,811	80,988	-0,068	-0,052
-76,797	-200,000	0,006	-0,030
-75,782	57,532	-0,025	-0,017
-74,767	-200,000	0,002	0,140
-73,753	-8,342	0,126	-0,060
-72,738	627,622	0,026	-0,047
-71,724	800,000	-0,050	0,109
-70,709	368,301	0,049	-0,070
-69,694	800,000	-0,016	0,050
-68,680	-200,000	-0,001	0,021
-67,665	-200,000	-0,010	0,084
-66,651	786,602	-0,021	0,041
-65,636	703,404	-0,069	-0,129
-64,622	800,000	-0,030	0,085
-63,607	364,797	0,026	-0,038
-62,592	800,000	-0,020	0,043
-61,578	-70,823	-0,055	0,015
-60,563	-200,000	-0,061	0,205
-59,549	-69,752	0,054	0,014
-58,534	22,339	-1,992	-1,147
-57,519	475,162	-1,256	-2,011
-56,505	-200,000	-0,235	-4,329
-55,490	561,099	0,812	1,392
-54,476	800,000	4,975	11,332
-53,461	-200,000	20,605	328,117
-52,446	800,000	753,913	2316,280
-51,432	551,182	1659,369	2823,318
-50,417	73,884	1663,854	1230,836
-49,403	19,093	1536,904	868,139
-48,388	13,101	1459,734	795,558
-47,373	18,828	1450,581	818,046
-46,359	16,025	1440,053	798,728
-45,344	11,367	1435,753	774,121
-44,330	11,278	1433,984	772,712
-43,315	11,301	1432,041	771,746
-42,300	11,312	1429,882	770,606
-41,286	11,374	1428,616	770,185
-40,271	11,295	1427,395	769,123
-39,257	11,265	1426,396	768,410
-38,242	11,336	1425,218	768,085
-37,227	11,269	1424,070	767,117
-36,213	11,310	1422,593	766,485
-35,198	11,295	1421,750	765,927
-34,184	11,363	1420,659	765,629
-33,169	11,331	1419,276	764,703
-32,154	11,383	1418,316	764,401
-31,140	11,413	1417,043	763,828
-30,125	11,409	1416,049	763,243
-29,111	11,382	1414,942	762,490
-28,096	11,345	1413,926	761,737
-27,082	11,310	1412,544	760,799
-26,067	11,301	1411,601	760,216
-25,052	11,289	1410,601	759,593
-24,038	11,318	1409,459	759,081
-23,023	11,256	1408,665	758,335
-22,009	11,270	1407,376	757,675
-20,994	11,268	1406,519	757,175
-19,979	11,278	1405,630	756,715
-18,965	11,254	1404,576	756,006
-17,950	11,236	1403,824	755,488
-16,936	11,230	1402,899	754,928
-15,921	11,161	1402,061	754,126
-14,906	11,230	1400,928	753,808
-13,892	11,202	1400,198	753,257
-12,877	11,218	1399,085	752,704
-11,863	11,160	1398,321	751,990
-10,848	11,155	1397,478	751,485
-9,833	11,134	1396,617	750,896
-8,819	11,091	1395,930	750,295
-7,804	11,143	1394,733	749,862
-6,790	11,074	1393,855	749,044
-5,775	11,075	1392,684	748,390
-4,760	11,137	1391,854	748,200
-3,746	11,129	1390,883	747,610
-2,731	11,111	1390,165	747,111
-1,717	11,046	1389,387	746,367
-0,702	11,079	1387,415	745,427
0,313	15,099	1301,666	717,780
1,327	31,348	693,809	419,593
2,342	48,827	120,460	79,624
3,356	-0,877	16,552	8,243
4,371	4,206	3,425	1,764
5,386	-37,551	0,890	0,333
6,400	-200,000	0,123	0,405
7,415	137,045	-0,213	-0,197
8,429	207,027	-0,286	-0,314
9,444	108,722	-0,346	-0,291
10,459	21,702	-0,215	-0,123
11,473	213,555	-0,187	-0,209
12,488	54,763	-0,353	-0,240
13,502	-32,158	-0,386	-0,151
14,517	80,859	-0,281	-0,213
15,531	15,615	-0,306	-0,169
16,546	118,828	-0,323	-0,281
17,561	125,760	-0,369	-0,328
18,575	800,000	0,018	-0,049
19,590	573,004	-0,125	-0,216
20,604	-1,418	-0,200	-0,099
21,619	45,690	-0,355	-0,231
22,634	102,442	-0,360	-0,296
23,648	117,246	-0,436	-0,377
24,663	-6,215	-0,483	-0,232
25,677	31,185	-0,400	-0,241
26,692	94,283	-0,286	-0,229
27,707	455,236	-0,192	-0,301
28,721	54,745	-0,313	-0,212
29,736	75,697	-0,335	-0,249
30,750	49,224	-0,476	-0,315
31,765	360,171	-0,241	-0,341
32,780	68,222	-0,291	-0,209
33,794	119,261	-0,372	-0,324
34,809	69,800	-0,319	-0,231
35,823	63,465	-0,334	-0,236
36,838	47,594	-0,368	-0,241
37,853	-13,414	-0,421	-0,191
38,867	640,885	-0,176	-0,317
39,882	483,451	-0,212	-0,340
40,896	-86,313	-0,405	-0,087
41,911	45,679	-0,306	-0,198
42,926	24,714	-0,385	-0,223
43,940	-48,761	-0,490	-0,164
44,955	121,251	-0,389	-0,340
45,969	65,755	-0,294	-0,209
46,984	126,344	-0,329	-0,293
47,999	194,951	-0,267	-0,285
49,013	44,971	-0,377	-0,243
50,028	-24,360	-0,405	-0,169
51,042	44,472	-0,386	-0,249
52,057	172,434	-0,190	-0,192
53,071	71,457	-0,350	-0,255
54,086	78,569	-0,340	-0,255
55,101	-65,045	-0,338	-0,095
56,115	109,817	-0,347	-0,292
57,130	-10,579	-0,370	-0,171
58,144	203,223	-0,216	-0,235
59,159	177,549	-0,378	-0,387
60,174	68,805	-0,420	-0,303
61,188	99,863	-0,279	-0,227
62,203	-14,781	-0,323	-0,145
63,217	25,841	-0,312	-0,182
64,232	-89,480	-0,438	-0,090
65,247	-3,449	-0,368	-0,179
66,261	114,546	-0,300	-0,256
67,276	10,471	-0,420	-0,224
68,290	6,771	-0,266	-0,138
69,305	64,901	-0,278	-0,197
70,320	42,959	-0,238	-0,152
71,334	128,155	-0,333	-0,297
72,349	13,135	-0,366	-0,198
73,363	95,716	-0,281	-0,225
74,378	-17,713	-0,244	-0,107
75,393	112,142	-0,347	-0,294
76,407	-16,138	-0,394	-0,175
77,422	-0,652	-0,262	-0,130
78,436	254,677	-0,283	-0,340
79,451	764,299	-0,117	-0,224
80,466	77,527	-0,259	-0,193
81,480	63,576	-0,313	-0,220
82,495	247,124	-0,228	-0,270
83,509	124,779	-0,248	-0,219
84,524	176,656	-0,133	-0,136
85,539	88,743	-0,309	-0,240
86,553	-186,127	-0,257	-0,003
87,568	301,592	-0,218	-0,283
88,582	8,806	-0,313	-0,165
89,597	-41,458	-0,228	-0,082
90,611	37,118	-0,326	-0,201
91,626	50,402	-0,236	-0,156
92,641	111,492	-0,207	-0,174
93,655	-147,421	-0,272	-0,016
94,670	-5,894	-0,467	-0,223
95,684	45,193	-0,327	-0,211
96,699	24,961	-0,320	-0,185
97,714	90,720	-0,204	-0,159
98,728	-5,987	-0,312	-0,149
99,743	-82,741	-0,186	-0,042
100,757	427,682	-0,160	-0,243
101,772	194,777	-0,308	-0,327
102,787	15,421	-0,384	-0,210
103,801	198,142	-0,254	-0,272
104,816	215,499	-0,244	-0,271
105,830	-117,055	-0,259	-0,033
106,845	116,220	-0,168	-0,144
107,860	18,781	-0,252	-0,141
108,874	10,804	-0,292	-0,155
109,889	-33,986	-0,334	-0,128
110,903	214,910	-0,276	-0,307
111,918	-14,355	-0,354	-0,159
112,933	7,115	-0,277	-0,144
113,947	68,195	-0,233	-0,166
114,962	120,297	-0,288	-0,250
115,976	-73,488	-0,234	-0,059
116,991	-88,083	-0,260	-0,054
118,006	-95,867	-0,293	-0,054
119,020	70,302	-0,229	-0,165
120,035	10,598	-0,319	-0,169
121,049	0,721	-0,197	-0,098
122,064	71,880	-0,317	-0,230
123,079	-41,540	-0,396	-0,141
124,093	132,988	-0,297	-0,268
125,108	118,722	-0,284	-0,245
126,122	71,862	-0,199	-0,144
127,137	164,590	-0,167	-0,165
128,151	-8,050	-0,297	-0,139
129,166	-200,000	-0,019	-0,142
130,181	32,635	-0,187	-0,113
131,195	-122,708	-0,325	-0,036
132,210	162,029	-0,343	-0,336
133,224	93,933	-0,271	-0,215
134,239	107,650	-0,272	-0,226
135,254	-54,538	-0,248	-0,078
136,268	169,224	-0,202	-0,201
137,283	14,794	-0,227	-0,123
138,297	-19,752	-0,258	-0,111
139,312	41,976	-0,280	-0,177
140,327	-24,322	-0,303	-0,125
141,341	-97,456	-0,362	-0,065
142,356	145,176	-0,150	-0,140
143,370	54,171	-0,198	-0,133
144,385	514,162	-0,098	-0,161
145,400	111,285	-0,270	-0,227
146,414	131,898	-0,351	-0,315
147,429	93,789	-0,335	-0,264
148,443	-53,314	-0,123	-0,039
149,458	-50,882	-0,225	-0,073
150,473	-72,565	-0,239	-0,061
151,487	-43,021	-0,358	-0,126
152,502	186,881	-0,133	-0,139
153,516	70,055	-0,311	-0,223
154,531	19,905	-0,265	-0,148
155,546	774,039	-0,082	-0,157
156,560	37,367	-0,163	-0,100
157,575	37,304	-0,218	-0,134
158,589	8,675	-0,307	-0,160
159,604	2,702	-0,326	-0,164
160,619	-60,365	-0,278	-0,082
161,633	-85,121	-0,263	-0,057
162,648	-119,848	-0,214	-0,025
163,662	-2,167	-0,173	-0,084
164,677	-89,272	-0,185	-0,038
165,692	70,143	-0,240	-0,172
166,706	30,421	-0,261	-0,155
167,721	350,988	-0,150	-0,207
168,735	5,390	-0,300	-0,153
169,750	119,958	-0,239	-0,206
170,764	12,934	-0,161	-0,086
171,779	5,369	-0,341	-0,174
172,794	152,102	-0,205	-0,194
173,808	21,341	-0,301	-0,170
174,823	207,092	-0,250	-0,271
175,837	103,819	-0,175	-0,143
176,852	161,731	-0,173	-0,168
177,867	800,000	-0,059	-0,181
178,881	-100,479	-0,226	-0,038
179,896	172,979	-0,137	-0,137
180,910	171,645	-0,185	-0,184
181,925	800,000	-0,150	-0,350
182,940	107,989	-0,238	-0,197
183,954	800,000	-0,168	-0,383
184,969	37,371	-0,187	-0,115
185,983	800,000	-0,064	-0,160
186,998	193,699	-0,130	-0,136
188,013	43,624	-0,249	-0,158
189,027	-37,208	-0,312	-0,115
190,042	-7,314	-0,187	-0,088
191,056	-120,449	-0,127	-0,015
192,071	-19,013	-0,297	-0,128
193,086	190,522	-0,133	-0,138
194,100	-2,897	-0,180	-0,087
195,115	194,957	-0,112	-0,118
196,129	196,665	-0,237	-0,251
197,144	800,000	-0,121	-0,240
198,159	122,545	-0,195	-0,169
199,173	106,613	-0,150	-0,124
200,188	-95,302	-0,204	-0,038
201,202	203,793	-0,128	-0,138
202,217	483,807	-0,142	-0,226
203,232	34,816	-0,212	-0,128
204,246	250,775	-0,257	-0,303
205,261	162,582	-0,282	-0,274
206,275	39,245	-0,169	-0,105
207,290	450,300	-0,055	-0,084
208,304	94,483	-0,236	-0,186
209,319	-41,996	-0,281	-0,099
210,334	420,526	-0,189	-0,282
211,348	85,500	-0,272	-0,207
212,363	252,186	-0,135	-0,160
213,377	14,504	-0,198	-0,107
214,392	-34,803	-0,178	-0,067
215,407	181,821	-0,171	-0,175
216,421	-21,947	-0,273	-0,114
217,436	84,393	-0,151	-0,115
218,450	364,706	-0,207	-0,289
219,465	-60,892	-0,230	-0,067
220,480	-131,432	-0,122	0,011
221,494	23,928	-0,151	-0,086
222,509	-131,735	-0,156	0,014
223,523	202,623	-0,114	-0,121
224,538	83,214	-0,166	-0,125
225,553	110,652	-0,186	-0,155
226,567	65,876	-0,272	-0,190
227,582	69,309	-0,327	-0,233
228,596	-93,157	-0,191	-0,036
229,611	-25,204	-0,294	-0,120
230,626	19,235	-0,175	-0,097
231,640	78,259	-0,208	-0,153
232,655	-15,686	-0,374	-0,164
233,669	-11,382	-0,407	-0,184
234,684	81,705	-0,168	-0,126
235,699	177,035	-0,287	-0,289
236,713	149,929	-0,169	-0,159
237,728	-135,014	-0,192	-0,016
238,742	-16,568	-0,311	-0,136
239,757	-94,901	-0,207	0,038
240,772	156,457	-0,191	-0,182
241,786	52,859	-0,224	-0,148
242,801	670,177	-0,198	-0,355
243,815	167,138	-0,163	-0,160
244,830	-96,142	-0,235	0,043
245,844	-162,671	-0,149	0,005
246,859	-116,703	-0,218	-0,027
247,874	15,535	-0,245	-0,133
248,888	3,037	-0,212	-0,106
249,903	108,071	-0,192	-0,158
250,917	247,316	-0,125	-0,146
251,932	259,418	-0,220	-0,263
252,947	23,724	-0,144	0,082
253,961	181,867	-0,176	-0,179
254,976	105,121	-0,215	-0,175
255,990	-200,000	-0,066	-0,221
257,005	800,000	-0,079	-0,169
258,020	125,430	-0,094	-0,082
259,034	-115,929	-0,055	-0,007
260,049	160,426	-0,160	-0,154
261,063	800,000	-0,058	-0,154
262,078	153,787	-0,127	-0,120
263,093	51,437	-0,176	-0,115
264,107	-194,421	-0,261	-0,001
265,122	-126,313	-0,204	-0,021
266,136	116,882	-0,133	-0,113
267,151	-108,810	-0,176	-0,026
268,166	311,074	-0,223	-0,289
269,180	11,588	-0,112	-0,059
270,195	-24,152	-0,250	-0,102
271,209	-48,754	-0,075	-0,025
272,224	142,212	-0,194	-0,177
273,239	-18,168	-0,183	-0,079
274,253	172,805	-0,119	-0,119
275,268	-143,387	-0,217	0,014
276,282	-107,854	-0,277	-0,041
277,297	673,636	-0,159	-0,285
278,312	-52,590	-0,260	-0,082
279,326	197,630	-0,175	-0,184
280,341	11,417	-0,163	-0,086
281,355	-4,205	-0,198	-0,094
282,370	154,260	-0,147	-0,139
283,384	21,712	-0,050	-0,028
284,399	179,914	-0,198	-0,200
285,414	199,447	-0,173	-0,182
286,428	-2,260	-0,153	-0,074
287,443	-200,000	-0,047	-0,210
288,457	800,000	-0,017	-0,040
289,472	-96,578	-0,264	0,047
290,487	193,279	-0,151	-0,157
291,501	242,340	-0,142	-0,164
292,516	743,889	-0,050	-0,094
293,530	-81,460	-0,173	0,039
294,545	-191,760	-0,180	0,001
295,560	455,890	-0,072	-0,110
296,574	95,382	-0,218	-0,170
297,589	800,000	-0,066	-0,146
298,603	105,246	-0,196	-0,159
299,618	-88,469	-0,173	-0,035
300,633	561,071	-0,121	-0,201
301,647	-200,000	-0,032	-0,145
302,662	-112,521	-0,274	0,037
303,676	-122,737	-0,207	-0,023
304,691	53,787	-0,227	-0,149
305,706	132,691	-0,197	-0,175
306,720	-40,260	-0,095	-0,034
307,735	-87,980	-0,178	-0,036
308,749	617,186	-0,049	-0,085
309,764	-88,846	-0,075	-0,015
310,779	104,977	-0,124	-0,100
311,793	-200,000	0,007	-0,148
312,808	-3,593	-0,239	-0,114
313,822	100,316	-0,061	-0,048
314,837	28,258	-0,063	-0,036
315,852	483,383	-0,006	-0,009
316,866	465,193	0,032	0,049
317,881	345,889	-0,032	-0,043
318,895	6,748	-0,162	-0,082
319,910	148,191	-0,111	-0,103
320,925	571,743	-0,098	-0,164
321,939	79,409	-0,123	-0,091
322,954	800,000	-0,090	-0,175
323,968	-6,299	-0,068	-0,032
324,983	-135,487	-0,177	0,014
325,997	-45,538	-0,054	-0,018
327,012	66,437	-0,166	-0,116
328,027	52,831	-0,229	-0,150
329,041	-109,145	-0,040	0,006
330,056	-144,093	-0,222	-0,014
331,070	11,946	-0,189	0,099
332,085	-68,460	-0,169	-0,045
333,100	-153,194	-0,247	0,012
334,114	-97,938	-0,145	-0,025
335,129	135,003	-0,110	-0,098
336,143	389,364	-0,155	-0,221
337,158	-117,104	-0,106	-0,013
338,173	141,171	-0,086	0,078
339,187	57,948	-0,096	0,064
340,202	-64,122	-0,127	-0,035
341,216	434,546	-0,028	0,041
342,231	25,568	-0,197	-0,112
343,246	-73,643	-0,239	-0,059
344,260	-200,000	-0,024	0,105
345,275	800,000	-0,069	-0,138
346,289	800,000	-0,038	-0,079
347,304	-107,116	-0,032	0,005
348,319	-117,804	-0,134	-0,016
349,333	304,936	-0,176	-0,224
350,348	185,105	-0,132	-0,134
351,362	262,741	-0,112	-0,133
352,377	-200,000	-0,052	-0,209
353,392	72,419	-0,138	0,098
354,406	-28,811	-0,056	-0,022
355,421	207,407	1308,864	1398,947
356,435	159,556	1468,852	1399,447
