DTS Sentinel unit serial number:	SN410029Multiplexer serial number:	ORYXHardware model number:	OX2-SRSoftware version number:	ORYX F/W v4,00 Oryx Data Collector v3.7.2.0data status	okinstallation	B3 Nyhavnadifferential loss correction	single-endedforward channel	channel 1reverse channel	N/Adate	2023/11/30time	11:22:30forward acquisition time	300,00reverse acquisition time	0,00gamma	499,1914k internal	0,3211k external	0,3211temperature offset calibration	1,0000default loss term (dB/km)	0,3820temperature slope calibration	1,0000multiplexer offset coefficient	1,0000multiplexer slope coefficient	1,0000fibre end	0,00T internal ref (°C)	9,46T ext. ref 1 (°C)	-5,68T ext. ref 2 (°C)	-5,79length (m)	temperature (°C)	Stokes	anti-Stokes-744,400	110,267	-0,164	-0,143
-743,385	800,000	-0,099	0,245
-742,371	106,812	-0,105	-0,091
-741,356	-200,000	0,049	0,286
-740,342	563,815	-0,111	-0,196
-739,327	800,000	-0,156	0,398
-738,312	20,654	-0,160	-0,094
-737,298	-200,000	0,019	0,372
-736,283	800,000	-0,069	-0,192
-735,269	-200,000	-0,004	0,388
-734,254	742,271	-0,157	-0,308
-733,239	38,046	-0,091	0,059
-732,225	-200,000	-0,075	-0,241
-731,210	800,000	0,080	0,164
-730,196	-75,632	0,015	0,004
-729,181	-200,000	0,028	-0,100
-728,167	800,000	0,031	-0,081
-727,152	773,797	0,044	-0,088
-726,137	-200,000	0,008	-0,050
-725,123	34,122	0,017	0,011
-724,108	800,000	-0,073	-0,153
-723,094	39,596	-0,134	-0,087
-722,079	-83,766	-0,211	0,048
-721,064	-48,764	0,096	0,033
-720,050	168,116	-0,042	0,043
-719,035	800,000	0,025	0,080
-718,021	-161,510	0,093	-0,003
-717,006	800,000	0,016	0,051
-715,991	-200,000	0,005	-0,083
-714,977	-200,000	-0,020	-0,073
-713,962	800,000	0,084	0,236
-712,948	-26,416	0,112	-0,047
-711,933	-200,000	0,009	0,056
-710,918	-121,894	-0,011	-0,001
-709,904	-200,000	0,050	-0,163
-708,889	-127,994	-0,180	0,018
-707,875	800,000	-0,049	-0,118
-706,860	-200,000	-0,005	-0,065
-705,845	169,525	0,071	0,073
-704,831	-84,852	-0,104	-0,023
-703,816	281,980	0,013	0,017
-702,802	-200,000	0,008	0,026
-701,787	-74,482	0,148	-0,038
-700,772	113,651	0,055	0,049
-699,758	124,967	-0,082	0,075
-698,743	23,837	-0,062	-0,037
-697,729	800,000	0,095	0,192
-696,714	726,057	-0,059	0,114
-695,699	-200,000	-0,000	0,031
-694,685	-49,318	-0,127	-0,044
-693,670	-200,000	-0,027	-0,094
-692,656	25,068	0,086	-0,051
-691,641	308,795	0,051	0,068
-690,627	331,156	0,091	0,128
-689,612	316,656	-0,031	0,043
-688,597	-200,000	-0,014	0,127
-687,583	-200,000	0,003	-0,110
-686,568	71,910	-0,086	-0,065
-685,554	800,000	0,041	-0,114
-684,539	-90,162	0,033	0,007
-683,524	-5,637	0,068	0,034
-682,510	-58,871	-0,145	0,045
-681,495	281,353	-0,005	0,007
-680,481	322,248	0,098	0,135
-679,466	-200,000	-0,014	0,091
-678,451	389,141	0,047	0,071
-677,437	-27,745	0,098	-0,041
-676,422	106,914	-0,030	0,025
-675,408	161,987	0,107	-0,108
-674,393	-200,000	-0,011	-0,066
-673,378	-170,610	-0,173	-0,004
-672,364	190,818	-0,076	0,083
-671,349	372,691	0,080	0,117
-670,335	800,000	-0,065	-0,133
-669,320	800,000	-0,042	-0,090
-668,305	19,053	0,108	0,062
-667,291	483,485	0,042	0,070
-666,276	-151,136	-0,076	-0,004
-665,262	-200,000	0,017	0,062
-664,247	-149,796	-0,108	0,006
-663,232	-200,000	-0,023	0,075
-662,218	386,474	0,050	0,075
-661,203	644,106	-0,022	0,042
-660,189	-200,000	-0,010	-0,148
-659,174	249,768	-0,036	0,044
-658,159	-136,276	0,191	-0,016
-657,145	76,737	0,026	0,020
-656,130	66,776	0,062	0,046
-655,116	-200,000	0,002	0,114
-654,101	57,828	0,085	-0,060
-653,086	567,074	-0,019	0,033
-652,072	-48,665	-0,073	-0,025
-651,057	-200,000	-0,016	-0,063
-650,043	92,800	0,054	0,044
-649,028	-200,000	-0,040	-0,147
-648,014	-39,868	-0,105	-0,040
-646,999	-198,898	-0,065	-0,000
-645,984	159,042	0,068	0,069
-644,970	-25,483	0,063	-0,027
-643,955	237,952	0,044	-0,053
-642,941	25,079	-0,066	-0,039
-641,926	-200,000	-0,033	-0,135
-640,911	335,769	-0,064	0,089
-639,897	214,483	-0,029	-0,033
-638,882	-200,000	0,010	-0,050
-637,868	-200,000	-0,006	0,029
-636,853	-117,046	0,154	-0,020
-635,838	263,428	-0,091	-0,115
-634,824	-109,338	-0,042	-0,006
-633,809	-50,843	0,067	-0,023
-632,795	-159,123	0,109	-0,004
-631,780	-46,163	0,098	-0,035
-630,765	238,714	-0,054	0,065
-629,751	800,000	-0,070	-0,164
-628,736	-52,462	-0,031	0,010
-627,722	-112,589	0,145	0,021
-626,707	454,447	-0,076	0,121
-625,692	-200,000	-0,003	0,090
-624,678	-96,937	0,209	0,039
-623,663	-42,867	0,119	0,043
-622,649	-200,000	0,013	-0,128
-621,634	800,000	0,037	-0,115
-620,619	10,223	0,090	0,049
-619,605	-200,000	-0,017	0,060
-618,590	72,764	-0,054	0,041
-617,576	-200,000	0,019	0,076
-616,561	161,837	-0,098	-0,099
-615,546	28,440	-0,136	0,083
-614,532	-200,000	0,013	-0,076
-613,517	103,984	-0,086	-0,073
-612,503	-113,791	0,011	0,002
-611,488	279,971	0,025	-0,032
-610,474	800,000	-0,012	-0,032
-609,459	87,203	0,093	-0,074
-608,444	42,644	-0,127	-0,083
-607,430	-200,000	-0,002	-0,015
-606,415	328,125	0,122	-0,170
-605,401	300,051	-0,052	0,069
-604,386	-200,000	0,029	0,102
-603,371	-39,780	0,081	-0,030
-602,357	-200,000	0,015	0,080
-601,342	-200,000	0,006	0,052
-600,328	11,592	-0,072	-0,040
-599,313	-26,975	-0,089	0,037
-598,298	800,000	-0,017	-0,036
-597,284	310,336	-0,129	0,174
-596,269	103,026	0,053	0,045
-595,255	-200,000	-0,012	-0,050
-594,240	-180,545	-0,144	-0,002
-593,225	-129,668	-0,087	-0,009
-592,211	-30,251	-0,034	-0,014
-591,196	46,561	-0,081	-0,054
-590,182	-67,503	-0,160	-0,045
-589,167	-41,314	0,081	0,030
-588,152	555,889	0,062	0,108
-587,138	-103,578	-0,104	-0,017
-586,123	-93,115	-0,140	-0,028
-585,109	-32,682	0,026	-0,010
-584,094	13,814	-0,053	0,030
-583,079	52,159	0,109	0,074
-582,065	230,077	0,062	0,074
-581,050	-178,095	0,081	0,001
-580,036	800,000	0,008	-0,019
-579,021	800,000	0,037	-0,108
-578,006	-46,988	-0,060	0,021
-576,992	-61,714	-0,108	-0,032
-575,977	12,792	0,141	-0,078
-574,963	516,755	-0,031	0,053
-573,948	800,000	-0,057	0,119
-572,934	99,377	0,066	0,055
-571,919	-10,864	-0,174	-0,083
-570,904	800,000	0,032	-0,076
-569,890	150,944	-0,096	-0,094
-568,875	800,000	0,032	0,087
-567,861	800,000	-0,046	-0,130
-566,846	-200,000	0,002	0,042
-565,831	34,823	-0,144	0,091
-564,817	394,961	0,077	0,116
-563,802	-70,446	-0,196	0,053
-562,788	-121,619	0,112	0,013
-561,773	-87,177	-0,137	-0,030
-560,758	-62,820	0,206	0,061
-559,744	116,832	0,084	0,074
-558,729	800,000	0,042	0,096
-557,715	125,064	-0,131	0,119
-556,700	-144,590	0,106	-0,007
-555,685	-200,000	-0,015	-0,195
-554,671	28,685	-0,122	0,074
-553,656	-200,000	-0,004	-0,068
-552,642	800,000	0,063	0,179
-551,627	-70,206	-0,100	-0,027
-550,612	178,632	0,066	0,069
-549,598	-103,601	-0,175	-0,029
-548,583	-200,000	0,007	0,077
-547,569	340,732	0,081	-0,114
-546,554	61,935	-0,059	-0,042
-545,539	-3,050	0,094	0,047
-544,525	171,334	0,091	0,094
-543,510	-60,617	0,107	0,033
-542,496	99,910	-0,078	-0,065
-541,481	800,000	0,042	-0,119
-540,466	-100,784	-0,109	-0,019
-539,452	-200,000	0,001	-0,025
-538,437	715,525	0,033	0,064
-537,423	-200,000	-0,027	0,134
-536,408	565,634	-0,021	-0,038
-535,393	-200,000	-0,025	0,097
-534,379	473,736	-0,041	-0,067
-533,364	187,848	-0,131	0,141
-532,350	-200,000	-0,005	0,169
-531,335	-200,000	-0,002	-0,076
-530,321	-97,692	0,103	-0,019
-529,306	76,961	-0,171	-0,130
-528,291	800,000	-0,044	-0,098
-527,277	188,770	0,064	-0,069
-526,262	26,777	-0,047	-0,028
-525,248	800,000	-0,032	0,079
-524,233	800,000	0,023	0,062
-523,218	-200,000	-0,011	0,142
-522,204	-90,213	-0,091	0,019
-521,189	636,071	-0,008	-0,015
-520,175	-200,000	0,041	-0,132
-519,160	244,496	0,016	-0,020
-518,145	-89,090	-0,054	-0,011
-517,131	-200,000	0,017	-0,111
-516,116	-193,213	0,078	-0,000
-515,102	46,105	-0,055	-0,037
-514,087	249,214	-0,051	0,062
-513,072	161,857	-0,016	-0,016
-512,058	123,203	-0,105	0,094
-511,043	611,275	0,043	0,078
-510,029	-200,000	0,013	0,091
-509,014	800,000	0,050	0,104
-507,999	-200,000	-0,004	0,068
-506,985	-51,544	-0,296	0,099
-505,970	800,000	-0,033	-0,096
-504,956	325,423	0,065	0,089
-503,941	-63,418	-0,070	0,021
-502,926	456,467	0,048	0,076
-501,912	-200,000	-0,007	0,063
-500,897	199,978	0,067	0,074
-499,883	-136,234	-0,084	0,007
-498,868	770,168	-0,044	-0,086
-497,853	-72,777	0,163	0,043
-496,839	-161,380	0,061	0,002
-495,824	304,269	0,038	0,051
-494,810	-200,000	-0,009	-0,080
-493,795	800,000	-0,023	-0,050
-492,781	134,975	0,075	-0,070
-491,766	-200,000	0,001	-0,032
-490,751	-2,208	-0,027	0,013
-489,737	-69,141	0,057	0,016
-488,722	800,000	0,048	0,099
-487,708	220,237	0,072	-0,083
-486,693	742,799	0,039	-0,076
-485,678	-94,834	0,098	0,019
-484,664	694,672	0,058	-0,110
-483,649	314,586	0,043	0,058
-482,635	-200,000	0,002	-0,035
-481,620	-102,919	-0,128	0,022
-480,605	188,855	-0,052	0,056
-479,591	-111,781	0,103	-0,015
-478,576	-86,503	-0,042	0,009
-477,562	368,791	0,017	-0,025
-476,547	120,598	0,124	-0,110
-475,532	52,471	0,061	-0,042
-474,518	800,000	-0,082	-0,166
-473,503	800,000	-0,037	-0,092
-472,489	-16,693	0,136	-0,061
-471,474	-130,056	-0,155	0,015
-470,459	-200,000	-0,006	-0,155
-469,445	-56,148	-0,059	-0,019
-468,430	800,000	-0,060	-0,132
-467,416	409,390	0,041	-0,062
-466,401	47,532	0,240	0,161
-465,386	211,776	-0,033	0,037
-464,372	252,573	0,095	0,117
-463,357	26,171	-0,058	-0,035
-462,343	174,435	-0,024	0,025
-461,328	-200,000	-0,002	0,014
-460,313	-189,992	0,037	0,000
-459,299	667,096	0,082	-0,152
-458,284	-200,000	-0,022	0,114
-457,270	513,896	0,091	0,153
-456,255	-200,000	0,010	0,098
-455,241	-19,267	-0,202	-0,089
-454,226	-81,658	0,159	-0,037
-453,211	-200,000	-0,004	-0,085
-452,197	587,171	0,090	-0,160
-451,182	75,026	0,053	-0,040
-450,168	164,205	-0,085	0,085
-449,153	-77,411	0,054	-0,013
-448,138	-200,000	-0,022	0,092
-447,124	198,290	-0,105	-0,115
-446,109	-200,000	0,006	-0,042
-445,095	4,718	-0,023	-0,012
-444,080	118,998	0,102	0,091
-443,065	-172,460	-0,109	-0,002
-442,051	-196,324	-0,053	-0,000
-441,036	-200,000	-0,054	-0,201
-440,022	-73,051	-0,071	-0,018
-439,007	210,048	0,032	-0,037
-437,992	-200,000	0,005	-0,164
-436,978	214,035	0,026	-0,030
-435,963	350,142	0,056	0,079
-434,949	-175,661	-0,009	0,000
-433,934	20,480	0,078	0,045
-432,919	-105,187	-0,068	-0,011
-431,905	800,000	-0,035	-0,072
-430,890	195,355	0,029	0,031
-429,876	207,609	-0,037	0,042
-428,861	800,000	0,041	0,117
-427,846	-200,000	-0,021	0,080
-426,832	12,172	0,051	-0,028
-425,817	-141,892	0,052	0,004
-424,803	474,442	0,065	0,106
-423,788	148,857	-0,030	0,029
-422,773	10,420	0,139	0,076
-421,759	-105,452	-0,075	0,012
-420,744	-200,000	0,033	-0,159
-419,730	57,697	-0,034	-0,024
-418,715	-200,000	0,016	-0,111
-417,701	800,000	-0,048	-0,119
-416,686	800,000	0,025	0,056
-415,671	442,462	0,069	0,108
-414,657	-50,916	0,131	-0,044
-413,642	-178,029	0,093	-0,002
-412,628	120,134	-0,029	0,026
-411,613	76,148	-0,053	-0,040
-410,598	51,644	-0,049	-0,033
-409,584	-131,046	0,023	-0,002
-408,569	-200,000	0,011	-0,071
-407,555	-85,047	0,123	-0,027
-406,540	-200,000	0,011	-0,048
-405,525	-81,570	0,095	-0,022
-404,511	-200,000	0,010	-0,104
-403,496	800,000	0,016	0,040
-402,482	-4,788	0,115	-0,057
-401,467	-200,000	0,019	0,081
-400,452	-200,000	0,007	0,071
-399,438	524,089	0,029	0,048
-398,423	-75,671	-0,194	-0,049
-397,409	297,202	-0,038	0,050
-396,394	405,418	-0,019	-0,029
-395,379	800,000	0,040	0,103
-394,365	98,010	0,047	0,039
-393,350	800,000	-0,069	0,139
-392,336	800,000	-0,050	0,129
-391,321	74,554	0,065	-0,049
-390,306	131,170	-0,113	-0,103
-389,292	-3,832	-0,067	-0,033
-388,277	-200,000	0,012	-0,070
-387,263	192,032	0,075	0,081
-386,248	48,478	0,120	0,080
-385,233	-200,000	-0,006	-0,077
-384,219	800,000	0,025	0,063
-383,204	70,835	-0,207	-0,153
-382,190	800,000	0,019	-0,056
-381,175	-20,990	0,076	-0,033
-380,160	120,817	0,040	-0,036
-379,146	800,000	0,033	-0,077
-378,131	352,774	-0,043	0,062
-377,117	552,326	-0,057	-0,099
-376,102	-113,057	-0,134	0,019
-375,088	-200,000	-0,010	0,033
-374,073	800,000	-0,032	-0,093
-373,058	765,692	0,069	-0,135
-372,044	800,000	-0,018	0,036
-371,029	-148,027	0,121	-0,007
-370,015	-200,000	-0,009	0,133
-369,000	-58,612	-0,065	0,020
-367,985	800,000	0,009	-0,019
-366,971	-200,000	-0,060	0,202
-365,956	-200,000	-0,046	0,153
-364,942	-137,495	-0,056	-0,004
-363,927	293,300	0,020	-0,027
-362,912	-139,710	-0,073	-0,005
-361,898	-200,000	0,005	0,028
-360,883	146,087	-0,023	-0,022
-359,869	-46,458	0,094	0,033
-358,854	-200,000	-0,005	-0,118
-357,839	131,834	-0,016	0,015
-356,825	25,664	-0,049	0,029
-355,810	-25,644	-0,149	-0,063
-354,796	130,023	-0,035	0,032
-353,781	-200,000	0,004	0,054
-352,766	109,072	-0,034	0,029
-351,752	160,691	-0,087	-0,087
-350,737	66,871	-0,096	0,070
-349,723	800,000	-0,053	0,108
-348,708	-126,508	0,164	0,017
-347,693	800,000	-0,062	-0,157
-346,679	-50,850	-0,080	0,027
-345,664	323,773	-0,068	0,093
-344,650	123,892	0,133	-0,119
-343,635	207,150	-0,048	0,054
-342,620	371,769	-0,039	0,056
-341,606	-66,701	0,063	-0,018
-340,591	92,342	0,061	0,049
-339,577	800,000	0,044	0,097
-338,562	-103,219	0,141	0,024
-337,548	110,107	0,091	0,078
-336,533	-200,000	-0,012	-0,162
-335,518	137,767	-0,022	-0,020
-334,504	18,561	0,050	-0,028
-333,489	166,134	0,019	0,019
-332,475	-200,000	0,033	-0,141
-331,460	-29,336	-0,103	-0,042
-330,445	173,693	-0,114	0,118
-329,431	334,905	-0,015	0,021
-328,416	-200,000	0,039	0,134
-327,402	-65,991	0,052	-0,015
-326,387	154,912	-0,078	0,077
-325,372	-200,000	0,001	0,051
-324,358	800,000	-0,055	-0,120
-323,343	465,220	-0,010	0,015
-322,329	-200,000	-0,003	0,031
-321,314	115,328	0,072	-0,063
-320,299	-43,245	-0,016	-0,006
-319,285	45,472	0,021	0,014
-318,270	-200,000	0,001	-0,030
-317,256	-35,618	-0,097	0,037
-316,241	-200,000	0,002	0,050
-315,226	-200,000	0,012	0,069
-314,212	-200,000	-0,007	0,116
-313,197	445,751	0,043	0,068
-312,183	96,959	0,040	-0,033
-311,168	-200,000	0,024	0,092
-310,153	216,359	0,032	0,036
-309,139	259,173	-0,091	-0,112
-308,124	-148,567	0,142	-0,008
-307,110	141,578	-0,122	-0,115
-306,095	-36,142	0,113	-0,043
-305,080	256,675	-0,072	0,088
-304,066	-103,815	-0,114	-0,019
-303,051	-200,000	0,003	0,030
-302,037	-139,917	-0,119	0,009
-301,022	243,153	0,076	-0,091
-300,008	800,000	-0,058	0,162
-298,993	47,162	0,031	-0,021
-297,978	-132,830	-0,071	0,006
-296,964	-200,000	-0,017	-0,116
-295,949	-24,949	-0,129	-0,054
-294,935	207,768	-0,086	-0,096
-293,920	-200,000	0,000	-0,137
-292,905	-0,886	0,024	-0,012
-291,891	52,173	0,018	-0,012
-290,876	-33,846	0,041	-0,016
-289,862	432,835	-0,027	-0,043
-288,847	-103,817	-0,072	0,012
-287,832	106,106	-0,059	-0,050
-286,818	800,000	0,048	-0,105
-285,803	274,709	0,021	0,027
-284,789	-109,242	0,079	0,012
-283,774	-200,000	-0,018	0,098
-282,759	800,000	-0,027	0,078
-281,745	-200,000	-0,035	-0,160
-280,730	-200,000	0,002	0,011
-279,716	-78,166	-0,031	-0,007
-278,701	639,059	0,005	0,009
-277,686	-200,000	-0,005	0,070
-276,672	125,898	0,094	0,084
-275,657	89,990	-0,042	0,033
-274,643	-20,134	-0,091	0,040
-273,628	664,723	0,057	-0,105
-272,613	-200,000	0,018	-0,110
-271,599	-71,786	0,181	0,048
-270,584	-200,000	0,016	-0,054
-269,570	800,000	0,104	0,228
-268,555	-200,000	0,023	0,077
-267,540	625,000	-0,018	-0,033
-266,526	26,707	0,086	-0,051
-265,511	123,469	-0,076	-0,068
-264,497	-200,000	-0,011	-0,077
-263,482	113,758	0,053	0,046
-262,467	-112,014	-0,095	-0,013
-261,453	800,000	0,021	0,058
-260,438	-200,000	0,030	-0,098
-259,424	-48,089	-0,058	-0,020
-258,409	192,091	-0,073	0,078
-257,395	800,000	-0,021	-0,055
-256,380	87,322	-0,071	0,056
-255,365	107,883	0,093	0,079
-254,351	-80,269	-0,030	-0,007
-253,336	116,295	0,104	0,091
-252,322	-200,000	-0,004	-0,016
-251,307	8,866	0,041	0,022
-250,292	-31,079	0,109	0,043
-249,278	28,811	-0,112	-0,067
-248,263	19,496	0,085	0,048
-247,249	800,000	0,047	0,104
-246,234	-46,097	-0,123	0,043
-245,219	800,000	-0,010	-0,023
-244,205	-139,284	-0,054	-0,004
-243,190	-59,300	-0,014	-0,004
-242,176	-74,652	0,189	-0,048
-241,161	634,885	-0,021	-0,038
-240,146	800,000	-0,009	-0,021
-239,132	-200,000	-0,003	0,037
-238,117	-200,000	0,021	-0,100
-237,103	-200,000	-0,001	-0,123
-236,088	-200,000	0,021	-0,123
-235,073	732,177	0,018	-0,035
-234,059	63,730	-0,036	0,026
-233,044	318,988	0,034	0,046
-232,030	143,907	0,048	0,045
-231,015	-56,211	0,045	-0,014
-230,000	-200,000	-0,010	-0,092
-228,986	-200,000	-0,000	-0,014
-227,971	135,463	0,090	0,084
-226,957	-200,000	0,027	0,104
-225,942	0,845	0,063	0,032
-224,927	235,025	0,029	-0,035
-223,913	136,888	-0,139	-0,129
-222,898	-200,000	0,005	0,081
-221,884	-200,000	-0,026	0,124
-220,869	112,915	-0,086	0,074
-219,855	-200,000	-0,010	0,043
-218,840	-200,000	0,013	-0,064
-217,825	-200,000	0,004	-0,048
-216,811	-5,153	-0,123	0,060
-215,796	-54,728	-0,046	-0,015
-214,782	-155,201	0,219	-0,010
-213,767	-141,077	0,165	-0,012
-212,752	-114,915	-0,059	-0,008
-211,738	342,035	-0,038	0,053
-210,723	60,983	0,066	0,046
-209,709	-11,292	-0,112	-0,052
-208,694	164,508	-0,056	-0,056
-207,679	325,600	-0,085	0,115
-206,665	38,086	0,022	0,014
-205,650	-200,000	0,020	0,113
-204,636	70,684	0,065	-0,048
-203,621	130,189	-0,071	0,065
-202,606	-88,396	0,073	0,015
-201,592	192,247	0,019	-0,021
-200,577	-200,000	0,014	-0,072
-199,563	-200,000	0,009	-0,100
-198,548	-149,468	0,136	0,008
-197,533	122,052	-0,086	-0,076
-196,519	-72,924	0,104	-0,027
-195,504	-19,038	0,077	-0,034
-194,490	-200,000	0,009	-0,106
-193,475	-200,000	0,014	-0,149
-192,460	800,000	-0,014	-0,042
-191,446	-200,000	0,010	0,143
-190,431	471,520	0,060	0,096
-189,417	63,887	-0,084	0,060
-188,402	-108,106	0,080	-0,012
-187,387	-13,368	-0,013	0,006
-186,373	-200,000	0,020	-0,209
-185,358	-138,205	-0,132	0,010
-184,344	-43,423	0,176	0,063
-183,329	-200,000	0,008	0,116
-182,315	218,231	0,065	0,074
-181,300	307,951	-0,046	0,061
-180,285	-79,356	-0,168	-0,040
-179,271	514,812	-0,061	0,102
-178,256	800,000	-0,013	0,027
-177,242	-41,649	0,118	-0,043
-176,227	19,286	0,043	-0,024
-175,212	-200,000	-0,030	0,176
-174,198	234,547	-0,080	0,094
-173,183	536,276	-0,052	-0,088
-172,169	27,563	0,083	-0,050
-171,154	-17,755	-0,061	-0,027
-170,139	-115,949	0,096	0,012
-169,125	-155,560	0,124	0,006
-168,110	-121,839	0,199	0,023
-167,096	-200,000	0,020	0,124
-166,081	70,498	0,035	0,026
-165,066	544,310	0,079	-0,134
-164,052	-46,575	-0,160	0,055
-163,037	-88,022	0,105	-0,022
-162,023	180,702	-0,039	-0,041
-161,008	-98,719	0,142	-0,025
-159,993	800,000	0,016	0,046
-158,979	-200,000	-0,002	-0,067
-157,964	49,666	-0,114	-0,076
-156,950	-200,000	-0,000	-0,042
-155,935	-133,514	-0,150	0,013
-154,920	95,164	0,035	-0,028
-153,906	-200,000	0,041	0,170
-152,891	-200,000	-0,007	-0,063
-151,877	-33,473	0,073	-0,028
-150,862	131,056	-0,129	-0,117
-149,847	200,842	0,078	-0,085
-148,833	-200,000	0,018	-0,100
-147,818	122,212	0,096	-0,085
-146,804	-200,000	-0,001	-0,013
-145,789	800,000	-0,056	-0,154
-144,775	120,154	-0,076	-0,067
-143,760	800,000	-0,032	-0,085
-142,745	294,351	0,040	-0,052
-141,731	48,979	-0,071	0,047
-140,716	-200,000	-0,005	-0,028
-139,702	-200,000	0,017	0,076
-138,687	193,289	0,022	0,024
-137,672	-200,000	0,023	0,092
-136,658	-169,636	-0,028	0,001
-135,643	800,000	-0,043	-0,111
-134,629	182,548	0,029	0,030
-133,614	-8,717	-0,007	-0,003
-132,599	62,264	0,085	0,060
-131,585	-100,328	0,042	-0,007
-130,570	295,643	0,029	-0,037
-129,556	800,000	-0,046	0,098
-128,541	800,000	0,022	-0,061
-127,526	-200,000	0,008	-0,143
-126,512	-200,000	-0,049	0,158
-125,497	-200,000	0,011	0,106
-124,483	69,180	-0,072	-0,052
-123,468	-200,000	-0,003	-0,182
-122,453	120,136	0,033	0,029
-121,439	800,000	-0,053	-0,112
-120,424	106,495	0,044	-0,037
-119,410	800,000	-0,005	-0,013
-118,395	-200,000	0,033	0,000
-117,380	155,551	0,194	0,189
-116,366	-200,000	-0,003	0,031
-115,351	-200,000	-0,039	0,148
-114,337	245,194	-0,101	-0,121
-113,322	-117,665	0,066	0,008
-112,307	566,433	-0,050	0,086
-111,293	376,023	0,090	-0,130
-110,278	207,506	-0,089	0,099
-109,264	36,899	-0,113	0,071
-108,249	718,186	-0,047	0,089
-107,234	148,680	-0,041	0,039
-106,220	-98,208	-0,104	0,019
-105,205	329,301	0,039	-0,053
-104,191	128,186	0,103	0,092
-103,176	-200,000	-0,000	0,028
-102,162	46,362	-0,015	0,010
-101,147	800,000	0,017	0,046
-100,132	110,239	-0,071	0,060
-99,118	102,306	-0,145	-0,119
-98,103	20,743	0,056	0,032
-97,089	93,889	0,015	-0,012
-96,074	35,260	-0,022	-0,014
-95,059	800,000	0,010	0,023
-94,045	-200,000	-0,018	0,061
-93,030	27,103	-0,038	-0,022
-92,016	800,000	0,032	-0,074
-91,001	140,725	-0,154	-0,144
-89,986	77,365	0,086	0,065
-88,972	22,786	-0,038	-0,022
-87,957	-19,552	0,052	0,023
-86,943	91,612	-0,063	-0,050
-85,928	-200,000	-0,015	-0,107
-84,913	-148,854	0,086	0,005
-83,899	-200,000	-0,027	0,186
-82,884	800,000	0,022	-0,059
-81,870	-200,000	-0,013	0,105
-80,855	87,232	0,083	0,065
-79,840	36,369	-0,229	-0,143
-78,826	-200,000	-0,028	-0,131
-77,811	-115,350	-0,118	0,016
-76,797	-200,000	0,027	-0,143
-75,782	29,910	0,045	-0,027
-74,767	-85,750	0,128	-0,028
-73,753	-200,000	0,029	-0,127
-72,738	-101,209	-0,148	0,025
-71,724	5,973	-0,044	-0,023
-70,709	134,967	0,019	-0,017
-69,694	-200,000	-0,019	-0,209
-68,680	36,153	0,108	0,067
-67,665	-27,246	0,086	0,035
-66,651	-168,281	0,076	0,002
-65,636	328,459	-0,038	0,052
-64,622	-200,000	0,013	-0,229
-63,607	256,853	-0,073	-0,088
-62,592	377,874	0,051	-0,074
-61,578	651,830	-0,068	0,123
-60,563	-200,000	0,020	0,079
-59,549	307,876	-0,044	-0,058
-58,534	79,506	-1,927	-1,458
-57,519	485,094	-1,225	-1,976
-56,505	-200,000	-0,363	-4,514
-55,490	457,784	0,972	1,529
-54,476	800,000	5,123	11,247
-53,461	-200,000	21,801	343,842
-52,446	800,000	763,253	2337,802
-51,432	544,816	1661,614	2812,126
-50,417	71,192	1658,123	1212,140
-49,403	17,184	1531,567	854,942
-48,388	11,316	1455,417	784,094
-47,373	19,315	1447,324	818,036
-46,359	14,753	1436,308	790,115
-45,344	9,573	1432,150	763,166
-44,330	9,497	1430,266	761,769
-43,315	9,476	1428,499	760,698
-42,300	9,478	1426,674	759,704
-41,286	9,538	1425,365	759,260
-40,271	9,488	1424,313	758,436
-39,257	9,507	1423,079	757,836
-38,242	9,553	1421,789	757,338
-37,227	9,492	1420,921	756,556
-36,213	9,588	1419,362	756,151
-35,198	9,521	1418,374	755,278
-34,184	9,584	1417,336	754,994
-33,169	9,478	1415,842	753,668
-32,154	9,527	1415,160	753,506
-31,140	9,548	1413,686	752,789
-30,125	9,579	1412,649	752,355
-29,111	9,552	1411,278	751,466
-28,096	9,554	1410,000	750,766
-27,082	9,507	1408,919	749,941
-26,067	9,446	1408,115	749,195
-25,052	9,493	1406,937	748,761
-24,038	9,553	1405,858	748,436
-23,023	9,467	1405,198	747,652
-22,009	9,535	1403,999	747,301
-20,994	9,484	1403,104	746,559
-19,979	9,495	1402,031	746,009
-18,965	9,449	1401,230	745,340
-17,950	9,452	1400,226	744,789
-16,936	9,409	1399,461	744,155
-15,921	9,376	1398,462	743,438
-14,906	9,429	1397,409	743,097
-13,892	9,415	1396,713	742,633
-12,877	9,468	1395,775	742,351
-11,863	9,418	1395,020	741,685
-10,848	9,364	1393,941	740,835
-9,833	9,341	1393,065	740,232
-8,819	9,242	1392,442	739,413
-7,804	9,318	1391,312	739,134
-6,790	9,331	1390,144	738,546
-5,775	9,280	1389,190	737,772
-4,760	9,311	1388,205	737,362
-3,746	9,313	1387,358	736,896
-2,731	9,357	1386,444	736,583
-1,717	9,318	1385,568	735,906
-0,702	9,301	1383,713	734,818
0,313	13,343	1296,090	706,727
1,327	29,516	686,879	411,049
2,342	45,875	118,547	77,196
3,356	-0,122	16,503	8,255
4,371	-12,418	3,694	1,695
5,386	25,099	1,217	0,710
6,400	800,000	0,233	0,622
7,415	148,692	-0,130	-0,124
8,429	800,000	-0,166	-0,348
9,444	-108,008	-0,412	-0,062
10,459	93,599	-0,233	-0,186
11,473	21,273	-0,334	-0,190
12,488	98,932	-0,314	-0,256
13,502	-138,563	-0,314	-0,024
14,517	-18,941	-0,357	-0,156
15,531	19,325	-0,352	-0,199
16,546	50,601	-0,282	-0,188
17,561	-15,820	-0,385	-0,172
18,575	100,879	-0,204	-0,167
19,590	800,000	-0,105	-0,228
20,604	36,044	-0,184	-0,114
21,619	128,721	-0,431	-0,387
22,634	76,380	-0,309	-0,230
23,648	59,355	-0,471	-0,326
24,663	97,260	-0,444	-0,358
25,677	76,580	-0,421	-0,314
26,692	196,520	-0,221	-0,237
27,707	9,247	-0,354	-0,188
28,721	100,970	-0,313	-0,256
29,736	119,723	-0,253	-0,220
30,750	133,944	-0,318	-0,289
31,765	108,874	-0,397	-0,334
32,780	245,457	-0,271	-0,321
33,794	154,963	-0,321	-0,310
34,809	25,732	-0,309	-0,180
35,823	196,207	-0,297	-0,319
36,838	33,496	-0,304	-0,185
37,853	139,350	-0,399	-0,369
38,867	444,445	-0,209	-0,324
39,882	84,473	-0,318	-0,245
40,896	-23,171	-0,357	-0,150
41,911	130,097	-0,225	-0,202
42,926	-128,635	-0,311	-0,030
43,940	20,533	-0,260	-0,148
44,955	10,200	-0,360	-0,192
45,969	0,846	-0,414	-0,208
46,984	152,869	-0,315	-0,303
47,999	78,425	-0,284	-0,213
49,013	209,615	-0,257	-0,284
50,028	80,019	-0,284	-0,214
51,042	150,569	-0,229	-0,219
52,057	-18,804	-0,379	-0,165
53,071	127,303	-0,343	-0,306
54,086	69,260	-0,405	-0,292
55,101	-28,851	-0,323	-0,130
56,115	-10,789	-0,240	-0,111
57,130	90,362	-0,361	-0,283
58,144	-7,904	-0,426	-0,201
59,159	29,118	-0,452	-0,269
60,174	41,299	-0,327	-0,207
61,188	10,567	-0,435	-0,232
62,203	20,016	-0,275	-0,155
63,217	-128,649	-0,332	-0,033
64,232	121,000	-0,163	-0,142
65,247	-58,339	-0,388	-0,118
66,261	175,935	-0,286	-0,291
67,276	-47,673	-0,414	-0,140
68,290	-43,450	-0,361	-0,127
69,305	-76,061	-0,236	-0,058
70,320	125,135	-0,145	-0,128
71,334	4,383	-0,297	-0,152
72,349	46,382	-0,240	-0,156
73,363	-65,209	-0,353	-0,099
74,378	-81,686	-0,376	-0,086
75,393	84,988	-0,340	-0,261
76,407	713,996	-0,129	-0,241
77,422	99,545	-0,298	-0,241
78,436	5,492	-0,268	-0,138
79,451	-52,582	-0,309	-0,099
80,466	-83,294	-0,508	-0,113
81,480	93,290	-0,287	-0,227
82,495	-38,346	-0,337	-0,124
83,509	-7,748	-0,386	-0,182
84,524	245,214	-0,175	-0,206
85,539	-19,343	-0,275	-0,119
86,553	122,714	-0,241	-0,211
87,568	-24,955	-0,374	-0,155
88,582	-38,118	-0,285	-0,105
89,597	-82,852	-0,380	-0,085
90,611	6,000	-0,151	-0,078
91,626	-4,670	-0,143	-0,069
92,641	83,162	-0,205	-0,156
93,655	-64,702	-0,273	-0,077
94,670	28,985	-0,264	-0,156
95,684	-14,298	-0,331	-0,149
96,699	113,791	-0,123	-0,104
97,714	-40,648	-0,226	-0,081
98,728	37,308	-0,203	-0,126
99,743	-57,724	-0,282	-0,086
100,757	52,041	-0,190	-0,126
101,772	119,372	-0,231	-0,200
102,787	32,161	-0,320	-0,192
103,801	-5,165	-0,411	-0,197
104,816	34,960	-0,281	-0,172
105,830	324,362	-0,175	-0,235
106,845	-114,477	-0,320	-0,042
107,860	-5,347	-0,257	-0,123
108,874	20,902	-0,404	-0,228
109,889	-70,164	-0,214	-0,056
110,903	714,416	-0,127	-0,237
111,918	106,137	-0,262	-0,217
112,933	87,478	-0,202	-0,156
113,947	35,937	-0,147	-0,090
114,962	-47,184	-0,247	-0,084
115,976	72,740	-0,253	-0,184
116,991	-34,278	-0,343	-0,131
118,006	-200,000	-0,074	-0,283
119,020	-69,236	-0,321	-0,085
120,035	-97,876	-0,227	0,040
121,049	133,498	-0,267	-0,241
122,064	138,249	-0,181	-0,165
123,079	132,556	-0,286	-0,258
124,093	124,553	-0,378	-0,332
125,108	24,331	-0,284	-0,163
126,122	60,213	-0,297	-0,205
127,137	136,017	-0,261	-0,237
128,151	25,269	-0,185	-0,107
129,166	259,960	-0,105	-0,126
130,181	96,027	-0,202	-0,161
131,195	93,084	-0,262	-0,206
132,210	99,264	-0,179	-0,145
133,224	-49,371	-0,235	-0,078
134,239	143,151	-0,172	-0,160
135,254	-39,230	-0,282	-0,103
136,268	800,000	-0,112	-0,227
137,283	210,757	-0,230	-0,252
138,297	16,519	-0,244	-0,134
139,312	-32,546	-0,406	-0,157
140,327	100,982	-0,346	-0,280
141,341	96,726	-0,279	-0,222
142,356	-37,036	-0,223	-0,083
143,370	-14,074	-0,273	-0,122
144,385	175,205	-0,230	-0,232
145,400	190,050	-0,262	-0,274
146,414	177,355	-0,308	-0,313
147,429	-15,303	-0,282	-0,125
148,443	-58,695	-0,146	-0,044
149,458	-141,382	-0,198	-0,014
150,473	6,977	-0,144	-0,074
151,487	-16,879	-0,182	-0,080
152,502	122,696	-0,207	-0,180
153,516	-5,380	-0,310	-0,148
154,531	511,860	-0,214	-0,348
155,546	187,106	-0,203	-0,210
156,560	15,426	-0,302	-0,165
157,575	-162,720	-0,215	-0,007
158,589	255,485	-0,173	-0,207
159,604	100,118	-0,180	-0,145
160,619	8,439	-0,332	-0,173
161,633	57,136	-0,347	-0,235
162,648	126,512	-0,231	-0,203
163,662	-6,884	-0,196	-0,092
164,677	141,515	-0,132	-0,122
165,692	-47,304	-0,273	-0,092
166,706	114,982	-0,236	-0,200
167,721	-67,756	-0,254	-0,069
168,735	-9,075	-0,319	-0,148
169,750	-53,060	-0,250	-0,080
170,764	609,670	-0,180	-0,315
171,779	-55,393	-0,166	0,051
172,794	78,458	-0,167	-0,124
173,808	54,880	-0,158	-0,106
174,823	-9,989	-0,309	-0,142
175,837	190,671	-0,200	-0,210
176,852	33,303	-0,293	-0,176
177,867	7,017	-0,213	-0,110
178,881	405,378	-0,141	-0,207
179,896	157,261	-0,109	-0,104
180,910	42,350	-0,157	-0,099
181,925	133,883	-0,220	-0,198
182,940	195,058	-0,199	-0,210
183,954	50,511	-0,285	-0,187
184,969	-13,001	-0,356	-0,160
185,983	80,325	-0,213	-0,159
186,998	20,211	-0,100	-0,056
188,013	-110,191	-0,277	-0,040
189,027	-34,135	-0,283	-0,107
190,042	259,054	-0,206	-0,248
191,056	183,275	-0,273	-0,280
192,071	98,089	-0,212	-0,170
193,086	64,159	-0,283	-0,197
194,100	427,252	-0,169	-0,253
195,115	18,987	-0,214	-0,119
196,129	31,924	-0,273	-0,162
197,144	165,960	-0,199	-0,195
198,159	73,188	-0,214	-0,155
199,173	38,352	-0,204	-0,126
200,188	-134,295	-0,184	-0,015
201,202	-23,940	-0,086	-0,036
202,217	-60,389	-0,260	-0,076
203,232	800,000	-0,072	-0,220
204,246	136,263	-0,235	-0,213
205,261	-78,461	-0,225	0,053
206,275	34,824	-0,173	-0,105
207,290	105,399	-0,178	-0,146
208,304	26,963	-0,226	-0,131
209,319	64,639	-0,128	-0,090
210,334	74,338	-0,149	-0,108
211,348	104,251	-0,259	-0,211
212,363	19,781	-0,279	-0,155
213,377	102,884	-0,143	-0,116
214,392	32,315	-0,226	-0,135
215,407	73,108	-0,123	-0,089
216,421	195,199	-0,208	-0,219
217,436	134,074	-0,291	-0,261
218,450	-39,947	-0,175	-0,063
219,465	-1,573	-0,210	-0,102
220,480	-110,292	-0,213	-0,030
221,494	-167,837	-0,144	0,004
222,509	-172,874	-0,244	0,005
223,523	-94,743	-0,172	-0,032
224,538	133,960	-0,288	-0,258
225,553	189,381	-0,149	-0,155
226,567	35,936	-0,176	-0,107
227,582	124,638	-0,205	-0,178
228,596	3,138	-0,172	-0,086
229,611	800,000	-0,102	-0,247
230,626	128,717	-0,131	-0,116
231,640	-133,926	-0,293	-0,025
232,655	136,031	-0,143	-0,129
233,669	117,233	-0,240	-0,204
234,684	800,000	-0,112	-0,216
235,699	624,378	-0,149	-0,261
236,713	-3,945	-0,212	-0,101
237,728	-55,571	-0,221	-0,068
238,742	168,787	-0,154	-0,151
239,757	50,970	-0,190	-0,124
240,772	55,384	-0,361	-0,241
241,786	155,329	-0,250	-0,238
242,801	104,026	-0,091	-0,073
243,815	381,721	-0,095	-0,136
244,830	119,146	-0,227	-0,194
245,844	426,602	-0,141	-0,211
246,859	129,064	-0,234	-0,206
247,874	227,039	-0,132	-0,148
248,888	717,163	-0,148	-0,273
249,903	800,000	-0,082	-0,160
250,917	-13,295	-0,138	0,062
251,932	-24,838	-0,055	-0,022
252,947	-100,427	-0,201	-0,034
253,961	-132,993	-0,269	0,023
254,976	32,885	-0,201	-0,120
255,990	181,736	-0,190	-0,193
257,005	169,101	-0,169	-0,167
258,020	114,665	-0,168	-0,141
259,034	-19,067	-0,142	0,061
260,049	254,951	-0,105	-0,124
261,063	413,952	-0,131	-0,193
262,078	155,663	-0,194	-0,184
263,093	688,614	-0,088	-0,159
264,107	376,318	-0,170	-0,240
265,122	11,120	-0,101	-0,053
266,136	50,859	-0,147	-0,096
267,151	-10,794	-0,177	-0,080
268,166	346,774	-0,173	-0,236
269,180	91,880	-0,178	-0,138
270,195	14,753	-0,201	-0,108
271,209	167,853	-0,122	-0,119
272,224	800,000	-0,034	-0,069
273,239	-16,906	-0,171	-0,074
274,253	-98,309	-0,022	0,004
275,268	267,604	-0,100	-0,120
276,282	-57,615	-0,277	-0,083
277,297	113,978	-0,227	-0,190
278,312	449,242	-0,115	-0,175
279,326	556,132	-0,163	-0,272
280,341	423,509	0,046	-0,068
281,355	-47,984	-0,195	-0,065
282,370	-24,379	-0,213	-0,087
283,384	-65,438	-0,194	-0,053
284,399	124,487	-0,196	-0,170
285,414	21,815	-0,188	-0,105
286,428	113,467	-0,129	-0,108
287,443	-200,000	-0,022	-0,104
288,457	-37,778	-0,131	-0,048
289,472	-102,458	-0,202	-0,033
290,487	145,524	-0,196	-0,180
291,501	644,027	-0,062	-0,109
292,516	-200,000	-0,017	-0,068
293,530	-68,888	-0,058	0,015
294,545	27,391	-0,156	-0,090
295,560	624,269	-0,068	-0,118
296,574	88,904	-0,186	-0,142
297,589	272,119	-0,143	-0,173
298,603	534,039	-0,083	-0,135
299,618	682,927	-0,104	-0,186
300,633	153,526	-0,194	-0,183
301,647	513,339	-0,099	-0,159
302,662	92,192	-0,160	-0,124
303,676	8,536	-0,266	-0,137
304,691	-91,935	-0,262	-0,051
305,706	-35,289	-0,236	-0,088
306,720	101,463	-0,189	-0,151
307,735	12,163	-0,140	-0,074
308,749	-55,467	-0,082	-0,025
309,764	171,965	-0,121	-0,119
310,779	4,141	-0,109	-0,054
311,793	-7,745	-0,254	-0,117
312,808	527,907	-0,112	-0,182
313,822	61,856	-0,202	-0,138
314,837	-94,690	-0,259	-0,048
315,852	-200,000	-0,037	-0,168
316,866	-76,489	-0,183	-0,044
317,881	55,794	-0,122	-0,081
318,895	193,123	-0,211	-0,219
319,910	165,454	-0,217	-0,210
320,925	-25,921	-0,199	-0,080
321,939	36,768	-0,161	-0,098
322,954	-96,285	-0,063	0,011
323,968	-120,020	-0,149	0,017
324,983	-121,958	-0,210	0,023
325,997	-200,000	-0,035	-0,109
327,012	-139,108	-0,086	-0,006
328,027	428,409	-0,113	-0,168
329,041	-200,000	0,006	-0,142
330,056	-20,726	-0,149	0,062
331,070	-107,975	-0,082	-0,012
332,085	772,826	-0,029	-0,055
333,100	94,950	-0,109	-0,085
334,114	800,000	0,025	-0,075
335,129	122,801	-0,238	-0,204
336,143	464,359	-0,067	-0,103
337,158	334,702	-0,088	-0,117
338,173	-18,362	-0,096	0,041
339,187	800,000	-0,024	-0,063
340,202	-3,316	-0,156	-0,074
341,216	-122,868	-0,143	-0,016
342,231	800,000	-0,031	-0,061
343,246	-53,661	-0,101	-0,031
344,260	663,521	-0,069	-0,123
345,275	-34,941	-0,119	-0,044
346,289	-20,115	-0,074	-0,031
347,304	800,000	-0,070	-0,198
348,319	-200,000	-0,024	-0,106
349,333	32,414	-0,110	-0,065
350,348	45,472	0,063	-0,040
351,362	-80,505	-0,096	-0,022
352,377	-176,684	-0,162	0,003
353,392	-200,000	-0,015	0,063
354,406	97,944	-0,205	-0,161
355,421	206,699	1310,274	1397,454
356,435	158,975	1470,428	1397,923
