DTS Sentinel unit serial number:	SN410029Multiplexer serial number:	ORYXHardware model number:	OX2-SRSoftware version number:	ORYX F/W v4,00 Oryx Data Collector v3.7.2.0data status	okinstallation	B3 Nyhavnadifferential loss correction	single-endedforward channel	channel 1reverse channel	N/Adate	2023/11/29time	20:42:30forward acquisition time	300,00reverse acquisition time	0,00gamma	499,1914k internal	0,3210k external	0,3210temperature offset calibration	1,0000default loss term (dB/km)	0,3820temperature slope calibration	1,0000multiplexer offset coefficient	1,0000multiplexer slope coefficient	1,0000fibre end	0,00T internal ref (°C)	10,85T ext. ref 1 (°C)	-4,23T ext. ref 2 (°C)	-4,31length (m)	temperature (°C)	Stokes	anti-Stokes-744,400	344,512	-0,224	-0,319
-743,385	-200,000	0,033	0,386
-742,371	483,854	-0,166	-0,275
-741,356	-200,000	0,015	0,420
-740,342	37,380	-0,241	-0,154
-739,327	-200,000	0,056	0,351
-738,312	185,473	-0,278	-0,300
-737,298	-200,000	-0,010	0,269
-736,283	800,000	-0,103	-0,297
-735,269	-200,000	0,035	0,234
-734,254	85,061	-0,172	-0,137
-733,239	800,000	-0,092	0,197
-732,225	-200,000	-0,034	-0,207
-731,210	-109,318	0,195	0,030
-730,196	-169,053	-0,043	0,001
-729,181	249,847	-0,081	-0,100
-728,167	-138,291	-0,040	-0,003
-727,152	-0,041	-0,045	-0,023
-726,137	-200,000	-0,003	-0,041
-725,123	206,741	-0,087	0,098
-724,108	800,000	-0,044	-0,111
-723,094	83,159	-0,104	-0,082
-722,079	-13,490	-0,102	-0,048
-721,064	-102,991	-0,065	-0,011
-720,050	13,945	-0,022	-0,012
-719,035	-119,523	-0,050	0,006
-718,021	800,000	-0,066	0,150
-717,006	-200,000	0,042	-0,146
-715,991	-137,039	0,073	-0,006
-714,977	-200,000	0,035	-0,156
-713,962	-129,438	0,042	-0,004
-712,948	800,000	0,079	-0,169
-711,933	154,967	0,029	0,029
-710,918	-200,000	-0,004	-0,066
-709,904	706,836	-0,048	-0,092
-708,889	-200,000	-0,036	-0,173
-707,875	800,000	0,020	-0,049
-706,860	-77,004	-0,084	-0,021
-705,845	-148,078	0,045	-0,003
-704,831	104,268	0,066	0,057
-703,816	-200,000	0,019	-0,190
-702,802	10,949	0,152	0,084
-701,787	30,784	-0,023	0,015
-700,772	32,475	-0,012	-0,007
-699,758	-65,987	-0,102	0,029
-698,743	-126,702	0,128	-0,013
-697,729	383,111	0,020	0,030
-696,714	800,000	-0,071	0,162
-695,699	-75,558	-0,030	-0,008
-694,685	-200,000	-0,005	-0,030
-693,670	-56,348	-0,102	0,033
-692,656	-46,565	0,050	-0,018
-691,641	323,361	0,027	-0,038
-690,627	-126,246	0,115	-0,012
-689,612	800,000	-0,025	-0,068
-688,597	304,434	0,037	0,050
-687,583	-200,000	0,014	-0,072
-686,568	562,807	-0,046	0,081
-685,554	-99,913	-0,049	0,009
-684,539	44,124	0,138	0,091
-683,524	800,000	0,035	-0,072
-682,510	10,838	-0,062	0,034
-681,495	109,074	-0,092	-0,079
-680,481	129,484	0,032	-0,029
-679,466	-200,000	0,011	-0,048
-678,451	-200,000	0,013	-0,043
-677,437	8,128	0,130	0,070
-676,422	-67,820	0,060	-0,017
-675,408	-200,000	0,004	0,144
-674,393	-29,377	-0,160	-0,066
-673,378	-200,000	0,023	-0,076
-672,364	683,794	-0,066	-0,125
-671,349	205,697	0,033	-0,038
-670,335	-23,646	0,071	-0,031
-669,320	-200,000	0,015	-0,079
-668,305	718,379	-0,030	-0,059
-667,291	-200,000	-0,006	-0,102
-666,276	578,840	-0,055	-0,098
-665,262	-105,189	-0,145	-0,024
-664,247	-200,000	-0,004	0,058
-663,232	477,585	0,028	0,047
-662,218	-200,000	0,037	0,129
-661,203	46,029	0,070	0,047
-660,189	-75,012	0,090	0,023
-659,174	-200,000	-0,013	-0,133
-658,159	800,000	0,028	0,060
-657,145	99,891	-0,078	0,066
-656,130	-200,000	-0,003	0,174
-655,116	-43,286	0,032	0,012
-654,101	81,925	-0,058	0,046
-653,086	-200,000	0,017	0,119
-652,072	-31,807	-0,066	-0,027
-651,057	125,929	-0,100	-0,091
-650,043	800,000	-0,037	-0,118
-649,028	-129,268	0,093	0,009
-648,014	80,955	0,063	-0,049
-646,999	303,367	0,106	0,143
-645,984	-200,000	0,000	0,036
-644,970	255,270	0,102	-0,126
-643,955	-152,796	0,071	0,004
-642,941	-86,727	-0,174	0,038
-641,926	-200,000	0,006	-0,039
-640,911	477,067	-0,071	-0,116
-639,897	488,638	0,088	0,146
-638,882	-200,000	0,025	-0,102
-637,868	-200,000	0,024	-0,167
-636,853	800,000	0,012	-0,035
-635,838	346,023	-0,088	-0,126
-634,824	-55,772	-0,142	-0,046
-633,809	64,556	0,028	-0,021
-632,795	-200,000	0,006	-0,061
-631,780	119,655	-0,017	0,015
-630,765	483,288	-0,077	-0,128
-629,751	-200,000	0,018	-0,067
-628,736	88,858	-0,159	-0,128
-627,722	89,132	0,117	-0,094
-626,707	128,275	-0,066	-0,060
-625,692	-200,000	0,008	-0,114
-624,678	-200,000	-0,012	-0,119
-623,663	-200,000	0,026	-0,095
-622,649	800,000	0,053	-0,120
-621,634	-63,736	-0,043	0,013
-620,619	-59,546	-0,094	-0,029
-619,605	128,576	0,074	0,068
-618,590	148,465	-0,027	-0,026
-617,576	800,000	-0,041	-0,085
-616,561	-200,000	0,044	-0,153
-615,546	-200,000	-0,023	-0,119
-614,532	340,470	-0,037	-0,053
-613,517	-200,000	0,057	-0,270
-612,503	-200,000	0,029	0,094
-611,488	33,972	0,069	0,043
-610,474	119,471	0,016	-0,015
-609,459	800,000	-0,085	0,185
-608,444	347,256	-0,049	-0,069
-607,430	-99,725	0,105	-0,019
-606,415	418,333	0,036	0,056
-605,401	30,253	0,055	-0,034
-604,386	-200,000	-0,024	0,188
-603,371	58,605	-0,114	-0,080
-602,357	-77,831	-0,012	0,003
-601,342	-111,654	-0,160	-0,023
-600,328	255,912	-0,118	-0,146
-599,313	169,586	0,090	0,092
-598,298	-80,131	-0,066	-0,016
-597,284	193,383	-0,025	0,027
-596,269	-66,176	0,106	-0,030
-595,255	-64,863	0,069	0,020
-594,240	-196,486	-0,147	-0,001
-593,225	-150,535	-0,091	-0,005
-592,211	365,129	0,018	-0,026
-591,196	-200,000	0,001	-0,039
-590,182	123,419	-0,054	0,049
-589,167	-102,058	-0,099	-0,017
-588,152	-142,139	-0,085	-0,006
-587,138	244,349	-0,121	-0,146
-586,123	203,694	0,034	0,038
-585,109	800,000	-0,049	0,100
-584,094	8,945	-0,069	-0,038
-583,079	-34,162	-0,067	0,026
-582,065	9,526	0,073	-0,039
-581,050	-200,000	0,020	0,142
-580,036	-124,588	-0,067	0,007
-579,021	-34,374	-0,207	0,081
-578,006	-76,952	0,032	0,008
-576,992	232,399	0,166	0,197
-575,977	36,216	0,025	0,016
-574,963	3,253	0,076	0,040
-573,948	-200,000	0,027	0,126
-572,934	-200,000	-0,002	-0,014
-571,919	-200,000	0,012	-0,222
-570,904	800,000	-0,037	-0,108
-569,890	-111,144	0,195	-0,028
-568,875	800,000	0,020	0,051
-567,861	800,000	0,086	0,174
-566,846	-200,000	0,001	-0,043
-565,831	165,450	-0,142	-0,145
-564,817	-42,652	0,102	-0,037
-563,802	300,563	-0,107	-0,142
-562,788	-129,795	-0,113	-0,011
-561,773	-35,313	0,194	-0,076
-560,758	-42,114	-0,055	0,020
-559,744	-48,990	0,071	-0,024
-558,729	-109,888	0,029	0,004
-557,715	74,783	-0,049	-0,037
-556,700	20,897	-0,064	0,037
-555,685	-200,000	0,004	0,092
-554,671	52,366	-0,042	-0,029
-553,656	-153,944	-0,189	0,009
-552,642	-131,920	0,193	0,018
-551,627	-68,937	0,071	-0,020
-550,612	-200,000	-0,047	-0,161
-549,598	-137,728	0,055	-0,004
-548,583	491,493	-0,047	-0,078
-547,569	800,000	-0,039	-0,119
-546,554	6,981	0,110	0,059
-545,539	-200,000	0,001	0,044
-544,525	-200,000	0,023	-0,080
-543,510	-113,209	0,179	-0,025
-542,496	800,000	-0,048	0,136
-541,481	-40,915	-0,128	-0,048
-540,466	404,779	0,036	-0,055
-539,452	-200,000	0,016	0,059
-538,437	800,000	0,051	0,121
-537,423	-125,906	0,060	0,006
-536,408	110,664	-0,107	-0,093
-535,393	116,801	-0,067	0,059
-534,379	800,000	0,049	0,126
-533,364	208,946	-0,034	-0,038
-532,350	-200,000	-0,039	0,157
-531,335	-9,332	0,161	0,077
-530,321	-200,000	0,007	-0,038
-529,306	190,656	0,068	-0,074
-528,291	-149,511	-0,050	-0,003
-527,277	800,000	0,020	0,048
-526,262	-200,000	-0,008	-0,111
-525,248	126,128	-0,057	0,052
-524,233	32,376	-0,052	0,032
-523,218	74,307	-0,064	-0,049
-522,204	203,414	0,022	0,024
-521,189	-34,859	-0,129	0,050
-520,175	-76,056	0,076	0,019
-519,160	717,531	-0,017	-0,032
-518,145	-200,000	-0,003	-0,045
-517,131	302,928	0,028	0,037
-516,116	-34,326	0,063	0,025
-515,102	718,413	0,026	0,049
-514,087	-120,083	-0,212	0,026
-513,072	131,754	-0,055	-0,051
-512,058	175,424	-0,031	-0,032
-511,043	-141,309	0,022	0,002
-510,029	264,071	0,021	0,027
-509,014	-49,962	0,179	-0,061
-507,999	800,000	0,055	0,124
-506,985	283,317	0,013	0,017
-505,970	-136,819	0,056	0,005
-504,956	109,581	-0,098	0,084
-503,941	800,000	0,045	0,131
-502,926	-200,000	0,005	0,159
-501,912	-200,000	-0,037	0,141
-500,897	800,000	-0,026	0,066
-499,883	-200,000	0,011	0,077
-498,868	542,627	0,051	0,089
-497,853	-181,372	-0,054	-0,001
-496,839	-200,000	0,019	0,066
-495,824	-200,000	-0,003	0,068
-494,810	134,550	0,073	-0,068
-493,795	-186,231	0,063	-0,001
-492,781	79,514	-0,108	0,083
-491,766	629,041	-0,013	-0,024
-490,751	-200,000	0,007	-0,086
-489,737	128,723	-0,038	-0,035
-488,722	-200,000	-0,009	0,089
-487,708	25,703	0,065	0,039
-486,693	-21,815	-0,018	0,008
-485,678	-83,439	-0,072	0,017
-484,664	-169,708	0,053	0,001
-483,649	114,147	-0,166	-0,145
-482,635	-23,614	-0,034	0,014
-481,620	62,223	0,088	0,063
-480,605	-200,000	0,016	0,144
-479,591	153,792	-0,026	0,025
-478,576	-93,032	0,068	-0,013
-477,562	-22,900	-0,037	0,016
-476,547	-142,206	0,030	0,002
-475,532	-82,195	-0,134	-0,031
-474,518	49,915	0,064	-0,043
-473,503	-31,819	0,049	0,020
-472,489	-61,314	0,064	0,019
-471,474	800,000	0,023	0,073
-470,459	800,000	0,021	-0,062
-469,445	50,498	0,067	-0,046
-468,430	-163,439	-0,059	-0,002
-467,416	800,000	0,009	0,024
-466,401	-111,273	-0,046	0,007
-465,386	800,000	0,066	0,157
-464,372	-30,455	-0,038	0,016
-463,357	10,703	-0,043	0,023
-462,343	800,000	-0,072	-0,154
-461,328	-200,000	0,027	-0,126
-460,313	51,568	-0,016	-0,011
-459,299	-39,207	0,142	0,053
-458,284	800,000	0,024	0,064
-457,270	29,798	0,059	0,036
-456,255	305,285	-0,101	-0,134
-455,241	-56,129	0,079	0,025
-454,226	-200,000	0,002	0,095
-453,211	-125,685	0,052	-0,006
-452,197	-46,348	0,013	0,005
-451,182	-200,000	-0,002	0,014
-450,168	-90,698	-0,088	0,018
-449,153	-42,125	-0,025	-0,009
-448,138	-200,000	-0,003	-0,042
-447,124	256,903	0,095	-0,117
-446,109	800,000	0,044	-0,111
-445,095	167,349	-0,018	0,019
-444,080	792,325	0,019	0,038
-443,065	202,004	0,088	0,097
-442,051	-41,983	-0,125	-0,046
-441,036	388,945	0,075	0,112
-440,022	74,516	0,040	-0,030
-439,007	33,758	-0,073	0,045
-437,992	800,000	0,047	0,121
-436,978	9,844	0,072	-0,039
-435,963	-200,000	-0,009	0,094
-434,949	-200,000	0,013	-0,116
-433,934	52,368	-0,148	0,101
-432,919	-171,154	0,095	-0,002
-431,905	800,000	0,053	0,135
-430,890	-119,209	-0,114	0,014
-429,876	85,111	0,129	0,101
-428,861	-200,000	-0,021	0,092
-427,846	141,243	-0,054	0,051
-426,832	800,000	0,008	-0,022
-425,817	800,000	-0,025	-0,055
-424,803	-200,000	0,000	-0,016
-423,788	202,024	0,145	-0,160
-422,773	68,618	0,081	0,060
-421,759	-200,000	-0,010	0,149
-420,744	-59,472	-0,070	0,021
-419,730	28,958	-0,116	0,070
-418,715	169,105	-0,091	-0,093
-417,701	348,320	-0,025	-0,035
-416,686	248,169	-0,076	0,092
-415,671	-200,000	0,172	0,000
-414,657	216,332	-0,056	0,064
-413,642	-200,000	-0,008	0,113
-412,628	484,587	0,037	-0,061
-411,613	-98,555	0,050	-0,009
-410,598	-186,427	-0,107	-0,001
-409,584	332,692	0,060	-0,083
-408,569	-102,731	0,100	-0,017
-407,555	-200,000	-0,011	0,138
-406,540	-17,827	0,069	-0,031
-405,525	68,216	-0,091	-0,066
-404,511	800,000	-0,045	-0,130
-403,496	-74,181	0,073	-0,019
-402,482	-41,866	0,043	0,016
-401,467	-200,000	0,007	-0,059
-400,452	60,962	0,152	0,108
-399,438	108,517	0,079	0,068
-398,423	212,936	-0,067	0,076
-397,409	-153,434	-0,079	0,004
-396,394	-200,000	0,004	-0,047
-395,379	207,495	-0,032	-0,036
-394,365	800,000	0,044	0,125
-393,350	-174,670	-0,079	0,002
-392,336	387,602	0,041	0,062
-391,321	800,000	0,035	-0,081
-390,306	-96,176	-0,146	-0,027
-389,292	800,000	-0,029	-0,081
-388,277	31,509	-0,037	-0,023
-387,263	-101,156	0,073	0,013
-386,248	-143,215	0,053	0,004
-385,233	-48,606	-0,152	0,052
-384,219	-200,000	0,006	0,077
-383,204	123,716	0,126	0,113
-382,190	135,633	-0,020	-0,019
-381,175	144,324	-0,051	-0,048
-380,160	-200,000	0,016	0,151
-379,146	-200,000	0,001	0,022
-378,131	386,230	-0,105	-0,155
-377,117	205,931	-0,018	-0,020
-376,102	800,000	-0,019	-0,046
-375,088	96,481	-0,042	0,034
-374,073	527,289	-0,069	0,117
-373,058	194,969	-0,096	0,105
-372,044	94,046	-0,075	-0,061
-371,029	-7,104	0,057	-0,028
-370,015	800,000	0,045	-0,121
-369,000	-200,000	0,010	-0,121
-367,985	713,610	0,063	-0,119
-366,971	-180,221	-0,151	-0,002
-365,956	800,000	0,048	0,109
-364,942	277,407	0,158	-0,201
-363,927	-200,000	-0,022	-0,084
-362,912	800,000	0,021	0,046
-361,898	446,238	-0,041	0,064
-360,883	800,000	-0,025	-0,076
-359,869	-117,773	-0,047	0,006
-358,854	-200,000	0,001	0,006
-357,839	35,824	-0,018	0,011
-356,825	779,651	0,057	0,112
-355,810	-200,000	-0,036	-0,120
-354,796	-200,000	0,013	-0,161
-353,781	-200,000	0,020	-0,237
-352,766	311,497	0,015	0,020
-351,752	800,000	0,020	-0,060
-350,737	-188,567	-0,081	-0,001
-349,723	-70,669	0,119	0,032
-348,708	589,167	0,043	0,077
-347,693	-128,500	-0,111	0,011
-346,679	-57,479	0,161	0,050
-345,664	-200,000	-0,004	0,103
-344,650	-28,318	-0,075	-0,031
-343,635	-63,031	0,030	-0,009
-342,620	171,314	0,141	0,145
-341,606	-0,220	-0,082	0,041
-340,591	-84,174	-0,006	0,001
-339,577	-31,762	-0,029	-0,012
-338,562	19,535	0,093	-0,053
-337,548	283,433	0,011	0,014
-336,533	-200,000	-0,040	-0,141
-335,518	5,836	0,042	-0,022
-334,504	306,453	-0,034	0,045
-333,489	-174,712	-0,088	0,002
-332,475	-200,000	0,041	-0,129
-331,460	800,000	-0,045	-0,097
-330,445	-200,000	-0,009	0,076
-329,431	-124,310	-0,014	0,002
-328,416	-62,786	0,198	0,058
-327,402	-50,358	0,213	0,072
-326,387	-200,000	0,018	-0,148
-325,372	-200,000	0,003	-0,027
-324,358	366,456	-0,019	0,027
-323,343	-129,449	-0,087	0,009
-322,329	72,728	0,087	-0,065
-321,314	-200,000	-0,001	-0,072
-320,299	480,956	-0,010	0,017
-319,285	-200,000	0,009	-0,135
-318,270	-200,000	0,000	-0,010
-317,256	800,000	-0,050	-0,149
-316,241	376,864	-0,044	0,064
-315,226	20,132	0,051	-0,029
-314,212	800,000	-0,041	-0,121
-313,197	443,006	-0,085	-0,133
-312,183	199,899	-0,120	0,132
-311,168	-200,000	-0,011	-0,098
-310,153	-0,798	-0,110	-0,056
-309,139	800,000	-0,013	0,035
-308,124	64,699	0,138	0,099
-307,110	-51,279	0,119	0,039
-306,095	210,728	0,052	0,059
-305,080	611,693	0,076	0,137
-304,066	90,595	-0,066	0,052
-303,051	161,529	0,067	0,067
-302,037	698,493	-0,052	-0,098
-301,022	-200,000	0,009	-0,037
-300,008	26,293	0,083	-0,049
-298,993	380,909	-0,046	0,068
-297,978	681,570	0,005	0,010
-296,964	81,245	-0,062	-0,048
-295,949	-115,862	-0,251	-0,033
-294,935	800,000	0,039	-0,082
-293,920	-200,000	0,028	-0,091
-292,905	-92,527	0,048	-0,009
-291,891	599,289	0,022	0,040
-290,876	-175,271	0,136	0,003
-289,862	197,781	0,034	0,037
-288,847	163,290	-0,060	0,060
-287,832	154,989	-0,049	0,048
-286,818	233,674	0,072	0,084
-285,803	100,486	0,142	0,118
-284,789	47,514	0,036	-0,024
-283,774	12,135	-0,083	0,045
-282,759	293,213	-0,039	-0,051
-281,745	-200,000	-0,028	-0,170
-280,730	26,715	-0,030	-0,018
-279,716	55,437	0,123	0,084
-278,701	201,607	0,100	0,110
-277,686	398,635	0,078	0,116
-276,672	143,932	-0,056	0,053
-275,657	28,868	0,089	-0,054
-274,643	141,363	-0,100	0,094
-273,628	395,629	0,030	0,044
-272,613	581,037	-0,033	-0,059
-271,599	800,000	0,060	-0,140
-270,584	-101,740	-0,111	-0,019
-269,570	111,011	0,104	-0,089
-268,555	-101,049	0,033	-0,006
-267,540	-48,038	-0,210	-0,072
-266,526	-200,000	-0,006	0,081
-265,511	-52,844	0,083	0,027
-264,497	618,348	-0,058	-0,104
-263,482	-200,000	-0,002	0,082
-262,467	-200,000	-0,005	-0,044
-261,453	346,732	0,012	0,017
-260,438	187,307	0,091	0,097
-259,424	319,121	0,050	0,068
-258,409	-104,730	-0,125	-0,020
-257,395	77,306	-0,087	0,066
-256,380	314,802	0,078	0,105
-255,365	-200,000	-0,022	0,089
-254,351	502,015	-0,015	0,024
-253,336	-200,000	0,001	-0,039
-252,322	62,725	-0,057	0,041
-251,307	172,727	-0,038	-0,039
-250,292	-200,000	0,019	0,071
-249,278	70,638	0,061	0,045
-248,263	-200,000	-0,015	0,121
-247,249	333,494	0,061	0,084
-246,234	-200,000	-0,026	0,115
-245,219	800,000	-0,046	-0,112
-244,205	100,385	-0,050	-0,041
-243,190	-92,159	-0,140	0,028
-242,176	551,710	0,030	-0,052
-241,161	800,000	0,035	-0,078
-240,146	122,099	-0,062	0,055
-239,132	3,007	-0,056	0,029
-238,117	133,824	-0,133	-0,123
-237,103	72,263	-0,036	0,026
-236,088	-10,953	-0,071	0,033
-235,073	800,000	0,015	-0,038
-234,059	370,364	0,051	-0,074
-233,044	-200,000	-0,007	0,086
-232,030	-200,000	-0,041	-0,133
-231,015	-200,000	0,015	0,106
-230,000	800,000	-0,072	-0,176
-228,986	91,950	-0,128	-0,103
-227,971	800,000	0,034	-0,079
-226,957	10,577	0,072	-0,039
-225,942	690,556	-0,011	-0,021
-224,927	-34,476	-0,068	0,026
-223,913	48,098	-0,059	0,039
-222,898	154,778	-0,105	-0,102
-221,884	-200,000	0,014	-0,067
-220,869	-41,168	0,063	0,023
-219,855	-98,361	0,063	-0,011
-218,840	612,751	0,014	0,026
-217,825	-200,000	0,000	-0,010
-216,811	-109,940	-0,176	0,026
-215,796	-200,000	0,008	-0,088
-214,782	800,000	0,045	-0,126
-213,767	80,590	0,051	-0,039
-212,752	389,034	-0,032	0,048
-211,738	-178,129	0,073	0,001
-210,723	-103,884	-0,060	-0,010
-209,709	396,048	-0,062	-0,093
-208,694	323,419	-0,074	-0,101
-207,679	434,383	-0,033	-0,051
-206,665	-25,413	-0,184	0,077
-205,650	-37,016	0,119	0,045
-204,636	-93,023	0,065	-0,013
-203,621	249,706	0,074	0,089
-202,606	-47,023	-0,164	0,057
-201,592	-200,000	0,001	-0,036
-200,577	-44,383	-0,078	0,028
-199,563	41,767	-0,037	-0,024
-198,548	-200,000	0,028	0,139
-197,533	-200,000	-0,007	0,103
-196,519	800,000	0,009	0,023
-195,504	-4,366	-0,121	-0,059
-194,490	64,857	-0,059	-0,042
-193,475	45,023	0,149	-0,097
-192,460	118,668	0,106	0,093
-191,446	94,530	0,047	0,038
-190,431	-200,000	-0,021	0,127
-189,417	291,648	-0,024	0,031
-188,402	360,301	0,007	0,011
-187,387	-12,837	-0,135	-0,062
-186,373	132,631	0,096	-0,088
-185,358	708,214	-0,113	0,213
-184,344	21,620	0,196	0,113
-183,329	800,000	0,007	-0,021
-182,315	-200,000	-0,010	0,078
-181,300	5,463	0,041	0,022
-180,285	-83,338	-0,134	-0,030
-179,271	-63,112	-0,042	-0,012
-178,256	118,714	0,092	0,081
-177,242	332,032	-0,068	0,094
-176,227	-101,634	0,131	-0,022
-175,212	407,375	0,063	0,095
-174,198	289,706	0,031	0,040
-173,183	55,317	-0,125	-0,086
-172,169	-200,000	0,041	-0,204
-171,154	-200,000	0,006	-0,036
-170,139	-67,517	0,173	-0,048
-169,125	-91,330	0,131	-0,026
-168,110	-200,000	-0,010	0,089
-167,096	-200,000	0,003	-0,048
-166,081	-168,149	-0,090	-0,002
-165,066	-87,152	0,076	-0,016
-164,052	-107,608	0,094	-0,014
-163,037	-67,261	0,136	0,038
-162,023	87,299	0,108	0,085
-161,008	-87,204	0,112	-0,024
-159,993	-53,109	0,084	-0,027
-158,979	616,545	-0,046	0,082
-157,964	-84,946	-0,051	0,011
-156,950	800,000	0,071	0,158
-155,935	304,029	0,112	0,147
-154,920	-152,015	0,057	-0,003
-153,906	22,086	-0,042	0,024
-152,891	-77,647	-0,106	0,026
-151,877	-127,828	-0,016	0,002
-150,862	176,942	0,046	-0,048
-149,847	180,550	0,071	-0,074
-148,833	17,454	0,157	-0,088
-147,818	-149,639	-0,103	0,006
-146,804	93,830	-0,025	0,020
-145,789	195,332	0,132	0,142
-144,775	800,000	-0,065	-0,154
-143,760	-21,113	-0,012	-0,005
-142,745	-124,197	0,038	-0,004
-141,731	800,000	0,022	-0,056
-140,716	473,012	-0,042	0,068
-139,702	-200,000	-0,006	-0,047
-138,687	-10,782	-0,087	-0,041
-137,672	-200,000	-0,000	0,036
-136,658	79,060	0,089	-0,068
-135,643	800,000	-0,011	-0,031
-134,629	-112,064	0,056	0,008
-133,614	-200,000	0,008	0,095
-132,599	800,000	-0,009	-0,028
-131,585	-200,000	-0,049	0,196
-130,570	-200,000	-0,013	-0,131
-129,556	51,827	-0,060	-0,040
-128,541	-200,000	0,000	-0,010
-127,526	-55,392	-0,019	-0,006
-126,512	-157,861	0,089	-0,004
-125,497	158,224	0,111	0,109
-124,483	-200,000	-0,023	0,128
-123,468	576,500	-0,047	-0,082
-122,453	800,000	-0,041	-0,105
-121,439	23,166	0,046	0,027
-120,424	-141,589	0,015	-0,001
-119,410	-88,910	-0,151	0,031
-118,395	320,639	0,096	0,130
-117,380	49,265	0,119	-0,079
-116,366	652,952	0,023	-0,042
-115,351	-200,000	0,003	0,110
-114,337	-102,686	-0,153	0,026
-113,322	40,712	-0,058	0,037
-112,307	67,901	0,030	-0,021
-111,293	800,000	-0,013	0,036
-110,278	418,725	-0,049	-0,074
-109,264	90,022	0,070	0,056
-108,249	8,096	0,115	0,061
-107,234	-200,000	0,003	0,045
-106,220	-55,262	-0,058	-0,018
-105,205	-1,396	0,162	0,081
-104,191	800,000	-0,051	0,124
-103,176	-200,000	0,008	-0,054
-102,162	-30,295	-0,029	0,012
-101,147	-200,000	-0,003	-0,098
-100,132	476,011	0,081	-0,130
-99,118	-24,499	0,009	-0,004
-98,103	-187,585	0,058	-0,001
-97,089	136,623	0,063	0,058
-96,074	800,000	0,010	0,031
-95,059	-200,000	-0,014	0,057
-94,045	800,000	0,025	-0,070
-93,030	-84,874	-0,074	-0,016
-92,016	163,103	-0,050	0,050
-91,001	800,000	-0,054	0,137
-89,986	-200,000	-0,003	-0,104
-88,972	-200,000	-0,022	0,112
-87,957	-106,014	-0,104	-0,016
-86,943	105,625	0,026	0,021
-85,928	9,805	-0,157	-0,084
-84,913	309,473	-0,054	-0,072
-83,899	-200,000	0,019	-0,092
-82,884	-28,676	0,056	0,023
-81,870	300,666	0,055	-0,072
-80,855	-200,000	-0,016	-0,112
-79,840	-14,594	-0,185	0,084
-78,826	54,134	-0,066	-0,045
-77,811	327,053	0,043	0,058
-76,797	79,393	0,081	-0,061
-75,782	439,645	0,026	0,041
-74,767	251,161	0,148	0,179
-73,753	800,000	0,064	0,132
-72,738	-88,138	-0,115	0,024
-71,724	800,000	-0,025	-0,058
-70,709	-200,000	-0,038	-0,172
-69,694	800,000	-0,040	-0,092
-68,680	-146,425	-0,036	-0,002
-67,665	18,250	0,060	0,034
-66,651	375,774	0,080	-0,116
-65,636	-101,874	-0,050	-0,008
-64,622	-47,534	0,031	-0,011
-63,607	91,101	-0,155	-0,123
-62,592	-179,317	0,060	-0,001
-61,578	232,308	-0,061	-0,071
-60,563	-51,822	0,156	-0,051
-59,549	-200,000	-0,024	0,141
-58,534	6,333	-1,938	-1,012
-57,519	541,092	-1,234	-2,084
-56,505	-200,000	-0,356	-4,355
-55,490	421,873	0,886	1,346
-54,476	800,000	5,050	11,148
-53,461	-200,000	21,063	329,799
-52,446	800,000	757,750	2324,382
-51,432	550,068	1662,450	2825,459
-50,417	73,453	1663,915	1228,337
-49,403	18,718	1536,890	865,990
-48,388	12,687	1460,059	793,507
-47,373	19,057	1450,748	819,009
-46,359	15,877	1440,012	797,779
-45,344	10,985	1435,939	772,184
-44,330	10,914	1433,970	770,757
-43,315	10,891	1432,142	769,633
-42,300	10,902	1430,318	768,675
-41,286	10,924	1429,142	768,116
-40,271	10,848	1427,818	767,012
-39,257	10,858	1426,667	766,411
-38,242	10,915	1425,544	766,048
-37,227	10,933	1424,468	765,525
-36,213	10,948	1423,155	764,863
-35,198	10,899	1422,162	764,064
-34,184	10,970	1421,286	763,901
-33,169	10,869	1419,829	762,611
-32,154	10,958	1418,792	762,443
-31,140	10,938	1417,615	761,684
-30,125	10,979	1416,558	761,281
-29,111	10,967	1415,446	760,595
-28,096	10,905	1414,313	759,666
-27,082	10,915	1412,928	758,938
-26,067	10,903	1412,156	758,438
-25,052	10,886	1411,012	757,712
-24,038	10,876	1410,029	757,110
-23,023	10,876	1409,050	756,555
-22,009	10,874	1407,906	755,897
-20,994	10,892	1406,923	755,425
-19,979	10,876	1406,153	754,906
-18,965	10,835	1405,120	754,130
-17,950	10,829	1404,158	753,558
-16,936	10,807	1403,426	753,032
-15,921	10,753	1402,471	752,239
-14,906	10,769	1401,443	751,732
-13,892	10,823	1400,368	751,377
-12,877	10,783	1399,772	750,839
-11,863	10,770	1398,845	750,251
-10,848	10,747	1398,154	749,745
-9,833	10,737	1397,101	749,104
-8,819	10,689	1396,284	748,413
-7,804	10,738	1395,317	748,092
-6,790	10,700	1394,273	747,330
-5,775	10,719	1393,197	746,810
-4,760	10,733	1392,255	746,338
-3,746	10,739	1391,259	745,803
-2,731	10,725	1390,344	745,217
-1,717	10,694	1389,750	744,728
-0,702	10,666	1387,949	743,605
0,313	14,739	1301,409	715,888
1,327	31,088	692,634	418,181
2,342	48,206	120,119	79,139
3,356	0,998	16,508	8,323
4,371	2,737	3,497	1,783
5,386	-7,650	0,831	0,395
6,400	-200,000	-0,022	0,439
7,415	7,341	-0,224	-0,118
8,429	321,670	-0,190	-0,255
9,444	12,196	-0,328	-0,178
10,459	95,977	-0,333	-0,268
11,473	34,555	-0,259	-0,159
12,488	800,000	-0,094	-0,183
13,502	0,328	-0,346	-0,174
14,517	-52,762	-0,317	-0,103
15,531	82,878	-0,361	-0,277
16,546	77,904	-0,349	-0,262
17,561	-32,648	-0,348	-0,136
18,575	-78,282	-0,142	-0,034
19,590	64,480	-0,368	-0,261
20,604	163,255	-0,269	-0,266
21,619	31,791	-0,500	-0,302
22,634	232,219	-0,361	-0,418
23,648	15,774	-0,498	-0,275
24,663	182,666	-0,297	-0,309
25,677	148,424	-0,226	-0,215
26,692	181,767	-0,261	-0,271
27,707	193,260	-0,276	-0,295
28,721	40,135	-0,273	-0,172
29,736	49,308	-0,313	-0,206
30,750	120,869	-0,312	-0,273
31,765	218,537	-0,305	-0,343
32,780	207,683	-0,328	-0,361
33,794	1,134	-0,271	-0,136
34,809	213,928	-0,261	-0,291
35,823	-79,676	-0,349	-0,082
36,838	103,805	-0,390	-0,322
37,853	166,868	-0,327	-0,326
38,867	72,629	-0,370	-0,271
39,882	107,491	-0,333	-0,279
40,896	554,701	-0,161	-0,274
41,911	168,267	-0,204	-0,204
42,926	-89,629	-0,298	-0,061
43,940	53,482	-0,338	-0,228
44,955	59,468	-0,399	-0,276
45,969	-9,086	-0,431	-0,202
46,984	-5,961	-0,319	-0,153
47,999	194,595	-0,229	-0,244
49,013	68,418	-0,420	-0,302
50,028	339,458	-0,187	-0,257
51,042	96,460	-0,384	-0,308
52,057	44,646	-0,450	-0,290
53,071	-74,172	-0,410	-0,104
54,086	-8,451	-0,253	-0,119
55,101	160,922	-0,264	-0,259
56,115	113,082	-0,286	-0,243
57,130	-4,721	-0,320	-0,154
58,144	-57,525	-0,416	-0,127
59,159	787,313	-0,241	-0,467
60,174	20,757	-0,407	-0,231
61,188	49,889	-0,226	-0,149
62,203	121,121	-0,200	-0,175
63,217	3,232	-0,275	-0,140
64,232	61,848	-0,422	-0,295
65,247	-46,051	-0,303	-0,104
66,261	131,048	-0,287	-0,258
67,276	41,558	-0,373	-0,236
68,290	10,219	-0,189	-0,100
69,305	-156,189	-0,389	-0,017
70,320	-40,688	-0,260	-0,094
71,334	7,919	-0,302	-0,158
72,349	-96,207	-0,246	-0,045
73,363	-19,220	-0,312	-0,135
74,378	138,267	-0,305	-0,280
75,393	-52,151	-0,322	-0,104
76,407	34,138	-0,195	-0,119
77,422	-81,583	-0,344	-0,079
78,436	45,737	-0,214	-0,138
79,451	18,591	-0,296	-0,165
80,466	120,982	-0,375	-0,327
81,480	120,027	-0,211	-0,183
82,495	122,139	-0,199	-0,174
83,509	188,529	-0,140	-0,147
84,524	10,088	-0,279	-0,148
85,539	106,262	-0,256	-0,212
86,553	43,860	-0,286	-0,183
87,568	166,910	-0,316	-0,314
88,582	-26,040	-0,217	-0,089
89,597	100,266	-0,367	-0,298
90,611	-136,001	-0,305	-0,025
91,626	-11,834	-0,277	-0,127
92,641	55,577	-0,255	-0,173
93,655	113,363	-0,281	-0,239
94,670	11,597	-0,254	-0,136
95,684	-51,876	-0,347	-0,112
96,699	-9,058	-0,195	-0,091
97,714	104,235	-0,298	-0,246
98,728	181,157	-0,142	-0,146
99,743	539,413	-0,124	-0,207
100,757	101,941	-0,163	-0,133
101,772	15,987	-0,353	-0,194
102,787	21,442	-0,267	-0,151
103,801	38,145	-0,334	-0,207
104,816	97,638	-0,161	-0,130
105,830	68,986	-0,193	-0,139
106,845	202,981	-0,226	-0,245
107,860	-21,069	-0,262	-0,111
108,874	-22,571	-0,358	-0,151
109,889	-67,913	-0,190	-0,051
110,903	161,790	-0,253	-0,248
111,918	109,852	-0,258	-0,216
112,933	96,590	-0,225	-0,180
113,947	420,941	-0,195	-0,292
114,962	42,441	-0,172	-0,109
115,976	167,675	-0,196	-0,195
116,991	32,351	-0,270	-0,163
118,006	72,579	-0,265	-0,193
119,020	-63,438	-0,183	-0,052
120,035	35,489	-0,213	-0,130
121,049	-10,148	-0,342	-0,158
122,064	204,023	-0,219	-0,237
123,079	347,777	-0,150	-0,207
124,093	113,798	-0,317	-0,269
125,108	30,499	-0,299	-0,178
126,122	223,500	-0,207	-0,234
127,137	115,770	-0,327	-0,279
128,151	98,218	-0,129	-0,104
129,166	365,879	-0,096	-0,136
130,181	50,509	-0,274	-0,181
131,195	-159,888	-0,158	0,006
132,210	107,228	-0,209	-0,174
133,224	59,387	-0,227	-0,156
134,239	-116,189	-0,267	-0,034
135,254	-82,698	-0,318	-0,071
136,268	-49,353	-0,304	-0,101
137,283	101,244	-0,219	-0,177
138,297	-128,979	-0,258	0,025
139,312	-35,329	-0,313	-0,118
140,327	227,910	-0,258	-0,293
141,341	43,379	-0,254	-0,161
142,356	11,516	-0,270	-0,144
143,370	270,769	-0,211	-0,259
144,385	106,302	-0,223	-0,184
145,400	74,828	-0,301	-0,221
146,414	70,747	-0,244	-0,176
147,429	-42,388	-0,302	-0,107
148,443	140,520	-0,199	-0,183
149,458	84,005	-0,169	-0,129
150,473	-200,000	-0,045	-0,167
151,487	-5,724	-0,179	-0,085
152,502	266,636	-0,148	-0,180
153,516	233,622	-0,283	-0,325
154,531	356,656	-0,197	-0,274
155,546	172,843	-0,179	-0,180
156,560	56,944	-0,269	-0,182
157,575	104,318	-0,155	-0,127
158,589	53,356	-0,191	-0,127
159,604	-200,000	-0,032	-0,103
160,619	-56,301	-0,263	-0,081
161,633	205,649	-0,226	-0,245
162,648	50,411	-0,317	-0,208
163,662	144,353	-0,178	-0,165
164,677	238,401	-0,181	-0,210
165,692	11,890	-0,245	-0,131
166,706	-2,933	-0,300	-0,145
167,721	209,124	-0,161	-0,176
168,735	106,887	-0,308	-0,254
169,750	122,297	-0,271	-0,236
170,764	64,995	-0,194	-0,136
171,779	222,723	-0,168	-0,188
172,794	123,259	-0,204	-0,178
173,808	22,238	-0,367	-0,208
174,823	11,277	-0,322	-0,171
175,837	308,489	-0,206	-0,268
176,852	800,000	-0,137	-0,308
177,867	15,307	-0,325	-0,176
178,881	800,000	-0,077	-0,215
179,896	18,677	-0,242	-0,134
180,910	183,588	-0,184	-0,189
181,925	105,705	-0,311	-0,256
182,940	196,253	-0,247	-0,262
183,954	97,929	-0,229	-0,183
184,969	416,106	-0,100	-0,149
185,983	56,926	-0,120	-0,081
186,998	800,000	-0,159	-0,331
188,013	141,572	-0,113	-0,104
189,027	93,670	-0,292	-0,230
190,042	-6,029	-0,236	-0,112
191,056	0,614	-0,273	-0,135
192,071	213,691	-0,270	-0,297
193,086	61,372	-0,206	-0,142
194,100	-47,486	-0,251	-0,084
195,115	612,368	-0,145	-0,252
196,129	43,867	-0,249	-0,158
197,144	52,275	-0,230	-0,152
198,159	197,340	-0,174	-0,185
199,173	42,542	-0,306	-0,193
200,188	154,490	-0,184	-0,175
201,202	-176,822	-0,097	-0,002
202,217	-73,820	-0,216	-0,054
203,232	800,000	-0,127	-0,298
204,246	258,271	-0,135	-0,161
205,261	174,866	-0,207	-0,208
206,275	136,736	-0,194	-0,175
207,290	245,488	-0,163	-0,190
208,304	222,215	-0,080	-0,089
209,319	21,486	-0,190	-0,107
210,334	25,961	-0,093	-0,053
211,348	87,050	-0,173	-0,132
212,363	175,893	-0,201	-0,202
213,377	45,158	-0,234	-0,149
214,392	63,134	-0,228	-0,158
215,407	110,704	-0,089	-0,074
216,421	-64,273	-0,223	-0,062
217,436	-21,211	-0,235	-0,099
218,450	303,726	-0,161	-0,207
219,465	-200,000	-0,092	-0,290
220,480	80,927	-0,269	-0,200
221,494	236,501	-0,218	-0,251
222,509	226,565	-0,143	-0,161
223,523	161,877	-0,164	-0,159
224,538	91,483	-0,154	-0,120
225,553	9,587	-0,127	-0,066
226,567	411,227	-0,135	-0,199
227,582	203,894	-0,166	-0,178
228,596	38,722	-0,143	-0,088
229,611	-200,000	0,012	-0,049
230,626	-28,735	-0,204	-0,081
231,640	-114,292	-0,219	-0,029
232,655	199,980	-0,218	-0,232
233,669	368,975	-0,166	-0,232
234,684	-5,688	-0,182	-0,086
235,699	2,240	-0,154	-0,077
236,713	-200,000	-0,023	-0,121
237,728	195,456	-0,125	-0,131
238,742	348,209	-0,146	-0,199
239,757	140,449	-0,258	-0,236
240,772	289,327	-0,131	-0,164
241,786	-74,892	-0,283	-0,070
242,801	100,202	-0,232	-0,186
243,815	-87,842	-0,355	-0,073
244,830	-111,548	-0,142	0,020
245,844	-182,259	-0,151	0,002
246,859	72,703	-0,197	-0,142
247,874	136,329	-0,227	-0,204
248,888	-106,046	-0,264	-0,041
249,903	187,473	-0,174	-0,179
250,917	557,885	-0,098	-0,164
251,932	-67,537	-0,195	0,052
252,947	255,766	-0,199	-0,236
253,961	167,394	-0,161	-0,158
254,976	29,089	-0,223	-0,130
255,990	45,814	-0,184	-0,117
257,005	265,417	-0,124	-0,149
258,020	-121,603	-0,163	0,018
259,034	387,878	-0,152	-0,218
260,049	82,104	-0,134	-0,100
261,063	84,631	-0,216	-0,163
262,078	-21,152	-0,153	-0,064
263,093	115,195	-0,156	-0,132
264,107	118,354	-0,189	-0,160
265,122	-200,000	-0,071	-0,219
266,136	-65,852	-0,193	-0,053
267,151	-200,000	-0,007	-0,156
268,166	632,241	-0,055	-0,096
269,180	500,817	-0,150	-0,240
270,195	67,116	-0,100	-0,070
271,209	208,708	-0,164	-0,177
272,224	162,899	-0,176	-0,171
273,239	-103,950	-0,183	-0,029
274,253	46,042	-0,133	-0,085
275,268	800,000	-0,098	-0,280
276,282	236,234	-0,170	-0,194
277,297	272,469	-0,166	-0,203
278,312	86,200	-0,176	-0,133
279,326	-50,694	-0,161	-0,052
280,341	-99,588	-0,215	0,037
281,355	800,000	-0,104	-0,220
282,370	251,838	-0,160	-0,188
283,384	58,021	-0,319	-0,215
284,399	111,392	-0,130	-0,108
285,414	25,455	-0,144	-0,082
286,428	316,768	-0,112	-0,146
287,443	14,032	-0,174	-0,093
288,457	688,383	-0,107	-0,194
289,472	800,000	-0,094	-0,251
290,487	183,189	-0,111	-0,113
291,501	800,000	-0,084	-0,241
292,516	-124,210	-0,147	-0,016
293,530	335,413	-0,124	-0,166
294,545	800,000	-0,038	-0,085
295,560	308,149	-0,104	-0,134
296,574	206,350	-0,087	-0,094
297,589	5,293	-0,155	0,078
298,603	220,680	-0,080	-0,089
299,618	66,503	-0,141	-0,098
300,633	201,891	-0,073	-0,078
301,647	-8,293	-0,112	-0,052
302,662	-90,126	-0,074	0,015
303,676	378,923	-0,038	-0,054
304,691	33,024	-0,170	-0,101
305,706	91,123	-0,184	-0,142
306,720	112,349	-0,233	-0,194
307,735	-107,735	-0,171	-0,025
308,749	800,000	-0,096	-0,214
309,764	-200,000	-0,014	-0,059
310,779	37,635	-0,115	-0,070
311,793	-118,316	-0,183	-0,022
312,808	197,601	-0,162	-0,170
313,822	272,266	-0,161	-0,195
314,837	106,306	-0,144	-0,117
315,852	79,319	-0,203	-0,149
316,866	-38,045	-0,134	-0,049
317,881	51,439	-0,135	-0,088
318,895	348,415	-0,107	-0,145
319,910	38,158	-0,236	-0,144
320,925	-18,413	-0,165	-0,070
321,939	430,991	-0,090	-0,134
322,954	155,191	-0,113	-0,107
323,968	-143,273	-0,073	0,005
324,983	92,873	-0,100	-0,077
325,997	-114,132	-0,132	-0,017
327,012	61,040	0,021	-0,014
328,027	-9,778	-0,164	-0,075
329,041	399,029	-0,112	-0,161
330,056	-1,310	0,014	-0,007
331,070	-200,000	-0,042	-0,168
332,085	-61,041	-0,163	-0,047
333,100	-33,618	-0,266	-0,100
334,114	-29,734	-0,182	-0,071
335,129	106,618	-0,204	-0,166
336,143	69,018	-0,197	-0,138
337,158	215,394	-0,066	-0,072
338,173	13,695	-0,104	-0,055
339,187	54,325	-0,133	-0,087
340,202	319,184	-0,046	-0,060
341,216	-200,000	-0,042	-0,188
342,231	18,204	-0,143	-0,078
343,246	-200,000	-0,010	-0,172
344,260	80,279	-0,125	-0,092
345,275	207,415	0,049	-0,053
346,289	66,717	-0,124	-0,086
347,304	800,000	-0,095	-0,251
348,319	-200,000	-0,021	-0,076
349,333	423,905	-0,101	-0,149
350,348	98,952	-0,126	-0,099
351,362	54,946	-0,253	-0,167
352,377	-68,186	-0,085	-0,022
353,392	-35,939	-0,092	0,034
354,406	-34,140	-0,223	-0,083
355,421	207,035	1309,856	1398,490
356,435	159,246	1469,984	1398,979
