DTS Sentinel unit serial number:	SN410029Multiplexer serial number:	ORYXHardware model number:	OX2-SRSoftware version number:	ORYX F/W v4,00 Oryx Data Collector v3.7.2.0data status	okinstallation	B3 Nyhavnadifferential loss correction	single-endedforward channel	channel 1reverse channel	N/Adate	2023/11/29time	00:57:30forward acquisition time	300,00reverse acquisition time	0,00gamma	499,1914k internal	0,3212k external	0,3212temperature offset calibration	1,0000default loss term (dB/km)	0,3820temperature slope calibration	1,0000multiplexer offset coefficient	1,0000multiplexer slope coefficient	1,0000fibre end	0,00T internal ref (°C)	9,30T ext. ref 1 (°C)	-5,00T ext. ref 2 (°C)	-5,13length (m)	temperature (°C)	Stokes	anti-Stokes-744,400	-4,775	-0,254	-0,126
-743,385	497,848	0,084	0,141
-742,371	99,242	-0,132	-0,111
-741,356	800,000	0,097	0,308
-740,342	0,582	-0,292	-0,151
-739,327	-200,000	0,006	0,197
-738,312	270,648	-0,230	-0,294
-737,298	463,226	-0,112	0,182
-736,283	18,835	-0,261	-0,151
-735,269	-200,000	0,022	0,307
-734,254	350,342	-0,123	-0,176
-733,239	-21,370	-0,278	0,122
-732,225	-200,000	-0,045	-0,288
-731,210	-50,888	0,167	0,057
-730,196	97,044	-0,052	-0,043
-729,181	465,779	-0,143	-0,233
-728,167	-125,573	-0,132	-0,014
-727,152	37,448	0,116	0,074
-726,137	-18,180	0,055	-0,025
-725,123	99,404	-0,179	-0,150
-724,108	-200,000	0,003	0,020
-723,094	493,072	-0,095	-0,158
-722,079	-99,680	-0,132	0,024
-721,064	-200,000	0,012	0,089
-720,050	-3,460	0,053	-0,027
-719,035	800,000	-0,048	-0,103
-718,021	44,766	-0,066	0,044
-717,006	800,000	-0,083	-0,191
-715,991	316,841	-0,126	-0,172
-714,977	354,289	-0,043	-0,061
-713,962	-4,657	-0,115	0,057
-712,948	-200,000	0,005	0,071
-711,933	800,000	-0,035	0,075
-710,918	800,000	0,030	0,067
-709,904	-2,839	0,058	0,029
-708,889	800,000	0,035	-0,094
-707,875	10,567	-0,042	-0,023
-706,860	282,771	0,033	-0,044
-705,845	-200,000	-0,015	-0,113
-704,831	-125,980	-0,040	-0,004
-703,816	-62,565	-0,048	0,014
-702,802	-200,000	-0,017	-0,091
-701,787	-200,000	-0,016	0,079
-700,772	-141,856	-0,060	-0,004
-699,758	-200,000	0,022	-0,088
-698,743	800,000	0,019	-0,041
-697,729	800,000	-0,031	-0,095
-696,714	-129,080	-0,021	-0,002
-695,699	-13,331	-0,111	0,052
-694,685	-200,000	-0,012	-0,099
-693,670	207,667	0,096	-0,109
-692,656	-200,000	0,011	0,060
-691,641	-200,000	-0,019	0,078
-690,627	311,233	-0,049	-0,066
-689,612	800,000	-0,045	0,120
-688,597	220,778	-0,084	0,098
-687,583	51,749	-0,068	-0,047
-686,568	-179,754	-0,129	0,002
-685,554	-24,201	-0,033	0,014
-684,539	-19,200	-0,048	0,022
-683,524	-137,907	-0,070	0,006
-682,510	284,358	0,078	-0,101
-681,495	712,852	-0,076	-0,146
-680,481	88,302	0,096	0,077
-679,466	-117,392	-0,109	-0,014
-678,451	-20,442	-0,078	-0,035
-677,437	21,957	-0,125	-0,073
-676,422	-97,997	-0,033	0,006
-675,408	20,915	0,051	-0,030
-674,393	573,238	-0,078	0,138
-673,378	-200,000	-0,006	0,050
-672,364	-175,434	-0,163	0,003
-671,349	800,000	-0,047	-0,113
-670,335	292,910	0,027	0,036
-669,320	217,534	-0,082	0,095
-668,305	-98,945	0,119	0,022
-667,291	66,367	-0,040	0,030
-666,276	800,000	-0,036	-0,076
-665,262	800,000	-0,048	-0,137
-664,247	800,000	-0,052	-0,105
-663,232	278,621	0,044	0,057
-662,218	-96,774	-0,045	0,009
-661,203	197,696	0,062	0,068
-660,189	-63,861	-0,249	0,073
-659,174	69,188	-0,028	-0,021
-658,159	251,990	-0,078	-0,096
-657,145	-200,000	0,004	0,042
-656,130	184,237	0,083	-0,089
-655,116	138,000	-0,104	0,098
-654,101	-139,854	0,158	0,012
-653,086	-1,290	-0,037	0,019
-652,072	-57,481	-0,020	0,006
-651,057	227,158	-0,054	-0,064
-650,043	-36,754	-0,133	0,051
-649,028	77,282	0,083	-0,063
-648,014	800,000	0,046	0,124
-646,999	-200,000	0,012	-0,103
-645,984	67,238	0,012	0,009
-644,970	39,919	-0,030	-0,020
-643,955	-124,964	-0,117	-0,013
-642,941	391,029	-0,109	-0,163
-641,926	-136,341	-0,063	0,005
-640,911	-56,962	0,156	0,049
-639,897	50,284	0,022	0,015
-638,882	327,454	0,080	0,111
-637,868	182,859	-0,106	-0,113
-636,853	139,119	-0,092	0,087
-635,838	-18,360	0,039	0,018
-634,824	409,500	0,057	-0,088
-633,809	33,777	0,069	0,044
-632,795	-83,684	0,048	0,011
-631,780	8,910	0,136	-0,074
-630,765	371,695	-0,065	-0,096
-629,751	-149,890	0,041	-0,002
-628,736	49,516	0,153	-0,104
-627,722	-61,193	-0,117	-0,035
-626,707	355,505	-0,082	-0,118
-625,692	-200,000	-0,014	0,086
-624,678	-156,529	0,072	0,003
-623,663	-200,000	0,001	-0,083
-622,649	-200,000	-0,007	0,072
-621,634	44,385	-0,091	0,060
-620,619	482,404	-0,013	0,022
-619,605	-85,670	0,087	-0,019
-618,590	-200,000	0,006	-0,030
-617,576	60,369	0,088	0,063
-616,561	96,358	-0,034	0,028
-615,546	-102,585	0,085	0,014
-614,532	800,000	0,011	-0,024
-613,517	156,068	-0,061	-0,061
-612,503	-65,002	-0,070	-0,020
-611,488	800,000	0,025	-0,061
-610,474	128,197	0,048	-0,044
-609,459	-185,170	-0,087	-0,001
-608,444	115,345	0,061	-0,054
-607,430	800,000	-0,050	-0,129
-606,415	570,160	-0,057	-0,100
-605,401	299,581	-0,016	0,022
-604,386	-200,000	0,004	0,245
-603,371	44,471	0,047	-0,031
-602,357	-117,061	0,073	0,009
-601,342	800,000	-0,013	-0,037
-600,328	-31,410	-0,135	-0,055
-599,313	-200,000	-0,001	-0,109
-598,298	-200,000	-0,000	0,074
-597,284	51,686	0,111	-0,076
-596,269	-29,840	0,052	0,021
-595,255	4,746	0,039	-0,021
-594,240	-200,000	-0,026	-0,123
-593,225	8,087	0,045	0,024
-592,211	257,905	-0,149	-0,185
-591,196	-123,932	0,108	-0,012
-590,182	-122,725	-0,191	-0,022
-589,167	46,925	0,012	-0,008
-588,152	-112,811	-0,110	0,016
-587,138	800,000	0,082	0,178
-586,123	-85,018	-0,071	-0,016
-585,109	433,207	-0,075	-0,118
-584,094	249,599	-0,092	0,112
-583,079	-86,846	0,046	0,010
-582,065	-200,000	-0,012	-0,137
-581,050	346,274	-0,059	-0,084
-580,036	40,097	-0,037	0,024
-579,021	800,000	-0,041	-0,095
-578,006	-200,000	0,006	0,050
-576,992	-200,000	0,000	-0,132
-575,977	125,064	-0,023	0,021
-574,963	-55,508	-0,035	-0,011
-573,948	45,303	0,109	-0,072
-572,934	800,000	0,023	0,046
-571,919	99,907	-0,104	0,087
-570,904	800,000	0,091	-0,201
-569,890	-200,000	0,002	-0,081
-568,875	56,110	0,084	0,058
-567,861	-120,743	-0,055	0,007
-566,846	-200,000	-0,020	-0,068
-565,831	800,000	-0,016	0,050
-564,817	-200,000	0,011	0,044
-563,802	586,354	0,059	-0,105
-562,788	800,000	0,051	-0,105
-561,773	-200,000	-0,002	-0,111
-560,758	-17,880	-0,040	0,018
-559,744	-135,286	0,144	0,012
-558,729	133,538	0,038	-0,036
-557,715	-158,649	-0,012	-0,000
-556,700	558,322	-0,060	-0,105
-555,685	21,567	0,081	-0,047
-554,671	467,489	0,044	0,071
-553,656	800,000	-0,036	-0,106
-552,642	-200,000	0,002	-0,138
-551,627	10,094	0,059	0,032
-550,612	379,540	-0,070	-0,103
-549,598	-200,000	0,026	-0,119
-548,583	-200,000	0,004	-0,198
-547,569	303,446	-0,037	-0,049
-546,554	606,830	-0,037	0,067
-545,539	-200,000	0,000	-0,066
-544,525	201,072	-0,112	0,124
-543,510	765,077	-0,006	0,012
-542,496	-73,107	-0,069	0,018
-541,481	-199,223	0,191	0,001
-540,466	-172,325	-0,071	-0,002
-539,452	745,697	-0,053	0,104
-538,437	23,745	0,134	0,079
-537,423	-200,000	-0,000	0,022
-536,408	-105,324	0,069	0,011
-535,393	63,503	-0,050	-0,036
-534,379	186,305	-0,054	-0,057
-533,364	228,336	-0,096	0,112
-532,350	-89,695	0,060	-0,013
-531,335	-84,445	0,199	-0,045
-530,321	-200,000	0,019	-0,109
-529,306	290,322	-0,049	0,064
-528,291	213,063	-0,012	0,013
-527,277	596,151	-0,050	-0,089
-526,262	665,856	-0,019	0,036
-525,248	268,643	-0,034	-0,043
-524,233	256,074	0,049	0,060
-523,218	800,000	-0,020	0,061
-522,204	-10,591	0,093	0,044
-521,189	-63,446	-0,165	-0,049
-520,175	341,989	-0,017	-0,024
-519,160	135,270	0,046	0,043
-518,145	800,000	0,015	0,042
-517,131	501,829	0,098	0,163
-516,116	230,642	0,081	0,095
-515,102	180,650	0,044	0,047
-514,087	-169,147	0,020	-0,001
-513,072	344,952	0,012	0,018
-512,058	405,723	0,095	-0,144
-511,043	-200,000	-0,006	-0,048
-510,029	-78,915	0,166	0,040
-509,014	397,728	-0,024	0,037
-507,999	800,000	-0,038	0,105
-506,985	-139,387	-0,076	0,006
-505,970	-200,000	-0,015	-0,142
-504,956	-78,852	-0,112	-0,027
-503,941	-200,000	-0,007	-0,035
-502,926	-123,377	-0,021	-0,002
-501,912	-200,000	0,016	0,090
-500,897	-72,458	0,048	-0,013
-499,883	800,000	0,034	0,101
-498,868	235,434	-0,103	-0,122
-497,853	87,011	-0,074	-0,059
-496,839	-200,000	-0,003	-0,053
-495,824	143,191	-0,053	-0,051
-494,810	800,000	0,012	-0,039
-493,795	-49,888	-0,099	-0,033
-492,781	800,000	-0,040	0,112
-491,766	800,000	-0,054	-0,133
-490,751	378,585	-0,061	-0,089
-489,737	531,807	0,034	0,058
-488,722	800,000	-0,011	0,026
-487,708	49,888	0,099	0,067
-486,693	-200,000	-0,023	0,154
-485,678	24,481	0,086	0,051
-484,664	131,334	-0,046	0,042
-483,649	-54,775	-0,119	0,038
-482,635	-38,183	0,052	0,020
-481,620	164,968	0,106	-0,107
-480,605	497,806	0,035	0,057
-479,591	158,861	-0,031	-0,031
-478,576	39,571	-0,010	0,007
-477,562	123,301	0,014	0,013
-476,547	248,443	-0,128	-0,156
-475,532	-151,081	0,077	-0,004
-474,518	434,988	-0,112	0,176
-473,503	-200,000	-0,010	-0,097
-472,489	800,000	0,044	0,135
-471,474	-200,000	-0,012	-0,223
-470,459	-64,840	-0,141	-0,041
-469,445	-200,000	-0,002	-0,083
-468,430	-200,000	-0,016	0,111
-467,416	800,000	-0,055	-0,146
-466,401	-128,854	0,049	0,005
-465,386	12,545	-0,056	0,031
-464,372	392,895	-0,030	-0,045
-463,357	427,391	-0,021	-0,032
-462,343	279,728	-0,111	-0,142
-461,328	-200,000	0,001	-0,116
-460,313	800,000	0,014	0,042
-459,299	478,579	-0,031	0,051
-458,284	48,484	-0,029	0,020
-457,270	89,453	0,153	-0,122
-456,255	401,211	-0,023	0,035
-455,241	294,037	-0,056	-0,074
-454,226	-150,994	-0,123	0,007
-453,211	-36,482	-0,116	0,045
-452,197	361,341	0,071	0,102
-451,182	-40,224	0,054	-0,020
-450,168	-200,000	-0,020	0,145
-449,153	800,000	-0,039	-0,098
-448,138	800,000	0,042	-0,132
-447,124	140,087	-0,030	0,029
-446,109	-200,000	0,003	0,067
-445,095	98,216	0,038	-0,031
-444,080	227,426	-0,019	-0,023
-443,065	-78,048	0,074	-0,018
-442,051	304,377	-0,050	-0,066
-441,036	-109,914	0,034	0,005
-440,022	109,989	-0,137	-0,117
-439,007	-200,000	-0,027	-0,116
-437,992	299,265	-0,019	-0,026
-436,978	-90,699	0,209	0,043
-435,963	210,996	0,059	0,067
-434,949	138,147	0,033	-0,031
-433,934	182,503	-0,080	-0,084
-432,919	445,846	-0,098	-0,155
-431,905	800,000	-0,046	-0,113
-430,890	656,771	0,021	0,039
-429,876	58,614	-0,104	0,073
-428,861	-200,000	-0,005	0,066
-427,846	-200,000	-0,009	-0,096
-426,832	755,206	-0,058	-0,113
-425,817	-15,417	-0,188	-0,086
-424,803	-200,000	0,063	-0,214
-423,788	-144,395	0,149	-0,010
-422,773	30,837	0,099	0,060
-421,759	411,165	0,059	-0,090
-420,744	196,757	0,013	0,014
-419,730	98,641	-0,069	-0,057
-418,715	-32,491	0,095	0,038
-417,701	-200,000	-0,008	-0,046
-416,686	551,910	0,031	0,053
-415,671	113,036	0,091	0,079
-414,657	-139,987	0,110	-0,008
-413,642	194,963	0,005	0,005
-412,628	-200,000	0,018	-0,058
-411,613	-84,510	-0,115	0,026
-410,598	-64,651	-0,104	0,030
-409,584	134,299	0,089	-0,082
-408,569	42,954	0,105	0,068
-407,555	-200,000	0,014	0,095
-406,540	-200,000	-0,007	0,124
-405,525	126,849	0,125	-0,114
-404,511	-25,866	-0,108	0,045
-403,496	339,716	0,079	-0,110
-402,482	23,095	0,120	0,071
-401,467	-1,798	0,039	-0,020
-400,452	5,554	-0,060	0,032
-399,438	-200,000	0,017	0,074
-398,423	472,629	0,021	-0,033
-397,409	-110,971	0,014	0,002
-396,394	227,452	0,045	-0,052
-395,379	27,115	0,136	-0,082
-394,365	398,832	-0,044	0,067
-393,350	-82,351	-0,066	0,015
-392,336	262,925	0,017	-0,021
-391,321	800,000	-0,086	0,180
-390,306	113,752	0,087	0,075
-389,292	23,488	-0,058	-0,034
-388,277	-78,174	-0,111	0,027
-387,263	800,000	0,060	0,136
-386,248	314,983	0,031	0,042
-385,233	-200,000	0,009	-0,162
-384,219	-101,268	0,057	-0,010
-383,204	156,104	0,103	0,102
-382,190	-200,000	-0,052	0,173
-381,175	-143,919	0,043	0,003
-380,160	449,551	-0,034	0,053
-379,146	123,085	0,089	-0,079
-378,131	-200,000	-0,003	0,030
-377,117	161,630	-0,029	0,029
-376,102	694,080	0,056	-0,106
-375,088	-171,832	-0,201	0,005
-374,073	-163,433	-0,107	0,004
-373,058	88,039	0,161	-0,127
-372,044	800,000	-0,029	0,078
-371,029	634,907	-0,035	0,064
-370,015	185,675	0,107	0,113
-369,000	-200,000	-0,010	0,052
-367,985	-56,444	0,027	-0,009
-366,971	-43,668	-0,061	0,022
-365,956	52,885	-0,129	-0,088
-364,942	195,459	0,091	0,099
-363,927	-200,000	-0,045	0,175
-362,912	648,041	0,037	0,068
-361,898	-96,983	-0,125	0,023
-360,883	-200,000	0,003	0,140
-359,869	-11,459	-0,101	-0,047
-358,854	712,843	-0,086	0,163
-357,839	-200,000	-0,029	0,108
-356,825	-50,405	0,077	0,026
-355,810	-200,000	0,008	0,130
-354,796	65,340	-0,164	-0,118
-353,781	800,000	-0,031	-0,065
-352,766	6,418	-0,071	-0,038
-351,752	346,975	0,100	0,141
-350,737	-200,000	-0,042	-0,136
-349,723	800,000	-0,018	-0,047
-348,708	775,383	0,025	0,049
-347,693	-200,000	-0,014	0,087
-346,679	-200,000	-0,105	0,000
-345,664	26,892	0,035	-0,021
-344,650	-200,000	-0,009	0,125
-343,635	150,722	0,030	0,029
-342,620	454,039	0,034	0,054
-341,606	-14,815	-0,079	-0,036
-340,591	-138,373	0,095	0,007
-339,577	235,875	-0,068	-0,080
-338,562	800,000	-0,029	0,060
-337,548	-67,410	-0,067	-0,019
-336,533	800,000	0,059	0,129
-335,518	-200,000	0,006	0,030
-334,504	503,896	-0,033	0,054
-333,489	-129,888	-0,035	0,003
-332,475	-147,706	-0,015	-0,001
-331,460	-111,345	-0,127	-0,018
-330,445	-200,000	0,021	-0,085
-329,431	155,414	0,040	-0,040
-328,416	-20,295	-0,073	0,032
-327,402	-56,849	0,146	-0,046
-326,387	800,000	0,017	-0,043
-325,372	52,357	-0,049	0,033
-324,358	110,645	-0,109	-0,093
-323,343	-200,000	0,010	-0,074
-322,329	-64,219	0,035	0,010
-321,314	251,433	0,093	0,113
-320,299	-200,000	-0,008	0,148
-319,285	542,579	-0,077	0,132
-318,270	-200,000	-0,019	-0,061
-317,256	314,615	-0,062	-0,084
-316,241	587,543	-0,045	-0,079
-315,226	313,799	-0,046	0,061
-314,212	116,647	0,095	0,083
-313,197	64,518	0,051	-0,037
-312,183	-200,000	-0,004	0,037
-311,168	-66,061	0,018	0,005
-310,153	53,418	0,079	0,054
-309,139	-200,000	0,025	0,098
-308,124	420,655	0,054	-0,082
-307,110	-200,000	-0,004	0,028
-306,095	116,844	0,096	0,084
-305,080	-130,754	0,089	0,008
-304,066	-88,035	-0,076	0,016
-303,051	-152,354	-0,096	-0,005
-302,037	12,156	-0,116	-0,063
-301,022	534,415	-0,073	0,123
-300,008	582,435	0,036	0,064
-298,993	-42,564	0,157	0,057
-297,978	-200,000	-0,017	-0,069
-296,964	-90,715	-0,083	-0,017
-295,949	186,719	-0,063	-0,067
-294,935	9,675	-0,112	0,060
-293,920	-105,815	0,063	0,010
-292,905	-200,000	0,017	0,064
-291,891	136,458	-0,014	-0,013
-290,876	-13,033	0,074	-0,034
-289,862	-200,000	0,016	-0,087
-288,847	-200,000	-0,020	-0,078
-287,832	52,338	-0,073	-0,050
-286,818	-21,806	-0,126	-0,054
-285,803	-200,000	0,004	0,037
-284,789	106,556	-0,023	-0,020
-283,774	752,708	0,090	0,175
-282,759	-200,000	0,004	0,078
-281,745	-92,116	-0,120	-0,024
-280,730	-21,960	-0,050	-0,021
-279,716	-116,727	0,031	0,004
-278,701	168,648	0,055	0,056
-277,686	-77,966	0,131	0,032
-276,672	199,925	-0,082	-0,090
-275,657	19,897	0,061	-0,035
-274,643	19,670	-0,157	-0,090
-273,628	-28,864	0,033	-0,013
-272,613	519,481	0,054	-0,090
-271,599	-85,744	0,140	0,031
-270,584	-146,984	-0,146	0,009
-269,570	-49,617	0,085	0,029
-268,555	-200,000	0,008	-0,108
-267,540	106,968	0,071	-0,060
-266,526	99,111	-0,145	-0,119
-265,511	-6,217	0,036	-0,018
-264,497	53,155	-0,075	0,051
-263,482	647,661	-0,032	0,059
-262,467	-49,763	-0,166	-0,056
-261,453	32,395	-0,035	-0,022
-260,438	-200,000	0,004	0,035
-259,424	510,019	-0,056	0,092
-258,409	-200,000	0,003	-0,011
-257,395	-80,911	0,098	-0,023
-256,380	800,000	-0,008	-0,023
-255,365	-200,000	0,024	0,096
-254,351	-20,894	-0,058	0,025
-253,336	634,660	-0,051	-0,092
-252,322	-200,000	0,018	0,097
-251,307	490,907	0,042	-0,069
-250,292	276,488	0,047	0,060
-249,278	-169,167	0,136	-0,004
-248,263	-200,000	0,054	0,187
-247,249	16,401	0,107	0,060
-246,234	-109,197	-0,072	0,011
-245,219	258,809	-0,103	-0,126
-244,205	732,631	-0,091	0,173
-243,190	-200,000	-0,030	-0,127
-242,176	-200,000	-0,015	0,196
-241,161	-77,321	0,135	-0,033
-240,146	-200,000	0,005	0,038
-239,132	-170,641	-0,029	0,001
-238,117	271,366	-0,057	-0,071
-237,103	281,307	-0,154	-0,197
-236,088	467,509	-0,043	0,069
-235,073	286,340	0,059	0,076
-234,059	210,717	0,175	0,196
-233,044	34,125	0,148	0,091
-232,030	-200,000	-0,021	-0,136
-231,015	416,114	0,016	-0,024
-230,000	-53,973	-0,025	0,008
-228,986	-18,779	0,047	0,021
-227,971	-110,981	0,117	0,017
-226,957	54,861	0,181	0,124
-225,942	-16,269	0,081	-0,036
-224,927	646,517	0,038	0,068
-223,913	-185,345	-0,042	0,000
-222,898	42,356	-0,048	-0,031
-221,884	-51,094	-0,199	0,066
-220,869	-200,000	-0,008	0,100
-219,855	-200,000	0,003	0,216
-218,840	112,012	0,111	0,095
-217,825	23,501	-0,089	0,052
-216,811	-154,075	-0,120	0,006
-215,796	800,000	0,017	0,048
-214,782	800,000	-0,026	0,076
-213,767	118,166	0,098	0,086
-212,752	397,918	0,032	-0,048
-211,738	-197,864	0,161	0,001
-210,723	-200,000	-0,023	0,112
-209,709	800,000	0,009	-0,023
-208,694	645,848	0,016	-0,029
-207,679	137,928	-0,102	-0,095
-206,665	-89,911	0,113	0,023
-205,650	-124,154	0,038	-0,004
-204,636	-65,116	-0,065	-0,019
-203,621	201,802	0,077	0,084
-202,606	-85,558	-0,120	-0,026
-201,592	-5,777	0,066	0,032
-200,577	143,100	0,072	-0,068
-199,563	111,526	-0,062	0,053
-198,548	-5,993	-0,070	-0,034
-197,533	7,071	0,051	0,027
-196,519	90,515	-0,126	0,100
-195,504	-105,029	-0,066	-0,011
-194,490	-200,000	-0,007	-0,095
-193,475	109,761	-0,099	-0,084
-192,460	-200,000	0,013	0,091
-191,446	128,560	0,027	0,025
-190,431	162,769	0,094	0,094
-189,417	-64,487	-0,025	0,007
-188,402	294,526	0,043	-0,056
-187,387	20,346	0,049	0,028
-186,373	303,609	0,107	-0,141
-185,358	103,961	-0,099	0,082
-184,344	326,973	0,043	0,058
-183,329	200,818	-0,043	-0,046
-182,315	800,000	-0,041	0,082
-181,300	-200,000	0,012	0,037
-180,285	800,000	-0,053	-0,137
-179,271	375,319	0,098	-0,143
-178,256	50,997	0,044	0,030
-177,242	-80,462	0,162	0,038
-176,227	-153,295	0,115	0,006
-175,212	231,667	0,115	0,134
-174,198	522,151	0,047	0,079
-173,183	17,957	0,030	-0,017
-172,169	-26,789	-0,112	0,046
-171,154	126,193	-0,022	-0,019
-170,139	800,000	0,047	0,117
-169,125	-200,000	0,014	-0,098
-168,110	596,609	-0,024	-0,043
-167,096	-200,000	-0,006	0,028
-166,081	173,066	0,131	0,134
-165,066	-36,731	-0,120	0,046
-164,052	191,178	0,014	0,015
-163,037	385,712	0,029	0,042
-162,023	498,377	-0,033	-0,054
-161,008	-66,307	0,067	-0,019
-159,993	800,000	-0,041	0,098
-158,979	489,813	-0,030	-0,048
-157,964	88,646	0,079	-0,062
-156,950	-190,737	0,027	-0,000
-155,935	-200,000	-0,011	-0,047
-154,920	-200,000	0,012	0,040
-153,906	-24,253	0,086	-0,036
-152,891	405,120	-0,012	0,018
-151,877	313,496	-0,053	-0,071
-150,862	-76,491	-0,144	0,036
-149,847	800,000	0,029	-0,087
-148,833	-142,183	-0,047	-0,003
-147,818	740,511	0,034	0,064
-146,804	144,807	-0,054	-0,052
-145,789	113,521	-0,095	-0,082
-144,775	-61,965	-0,029	0,009
-143,760	65,465	0,030	-0,022
-142,745	-200,000	-0,024	0,096
-141,731	-8,527	-0,055	-0,026
-140,716	800,000	-0,012	-0,032
-139,702	-200,000	0,010	0,117
-138,687	434,566	-0,016	-0,025
-137,672	-144,366	-0,111	0,007
-136,658	-200,000	0,015	-0,134
-135,643	152,156	-0,051	-0,049
-134,629	800,000	0,013	0,035
-133,614	-85,984	0,105	-0,023
-132,599	209,987	0,035	-0,039
-131,585	-172,318	0,041	-0,001
-130,570	-141,604	0,050	-0,004
-129,556	800,000	-0,022	-0,067
-128,541	309,442	0,026	-0,034
-127,526	235,566	-0,058	0,067
-126,512	-200,000	-0,016	-0,058
-125,497	-200,000	-0,024	0,123
-124,483	167,215	-0,064	-0,065
-123,468	192,715	0,070	0,074
-122,453	32,456	-0,197	0,120
-121,439	800,000	0,046	0,114
-120,424	154,512	-0,088	-0,085
-119,410	-111,071	0,077	-0,011
-118,395	298,128	-0,054	0,070
-117,380	48,162	-0,191	0,126
-116,366	800,000	0,041	-0,104
-115,351	68,986	-0,063	-0,046
-114,337	800,000	-0,057	-0,131
-113,322	360,496	-0,026	-0,038
-112,307	24,358	-0,043	-0,025
-111,293	-138,380	0,178	-0,014
-110,278	-200,000	-0,015	0,112
-109,264	367,159	-0,047	0,068
-108,249	57,249	-0,036	0,025
-107,234	-2,861	0,074	0,037
-106,220	662,155	-0,016	0,029
-105,205	-125,746	0,077	0,008
-104,191	800,000	-0,053	0,120
-103,176	-200,000	0,008	-0,041
-102,162	92,918	0,135	0,108
-101,147	-62,566	-0,064	0,019
-100,132	-200,000	0,037	-0,146
-99,118	-14,382	0,061	-0,028
-98,103	-187,397	0,150	-0,001
-97,089	-45,804	0,049	0,017
-96,074	-38,296	-0,120	0,045
-95,059	125,533	0,113	0,101
-94,045	217,999	0,052	-0,059
-93,030	80,601	-0,059	-0,045
-92,016	-64,505	-0,061	-0,017
-91,001	448,812	0,067	-0,105
-89,986	-200,000	0,014	0,089
-88,972	-200,000	0,020	0,128
-87,957	-139,437	-0,166	-0,012
-86,943	-200,000	0,001	-0,015
-85,928	430,534	0,015	-0,023
-84,913	172,357	-0,064	0,066
-83,899	-200,000	-0,011	-0,073
-82,884	135,576	0,075	0,069
-81,870	144,604	0,091	0,086
-80,855	800,000	0,022	0,047
-79,840	44,729	0,052	-0,034
-78,826	-200,000	-0,016	0,072
-77,811	187,976	-0,124	0,131
-76,797	202,321	-0,068	0,074
-75,782	265,608	0,139	-0,172
-74,767	-200,000	0,035	0,129
-73,753	509,874	0,086	-0,141
-72,738	-200,000	-0,030	-0,155
-71,724	-200,000	-0,035	-0,245
-70,709	495,346	-0,067	-0,110
-69,694	351,551	0,039	-0,054
-68,680	-200,000	-0,027	0,112
-67,665	-37,761	0,093	0,035
-66,651	-186,902	0,062	-0,001
-65,636	800,000	-0,024	-0,067
-64,622	-200,000	-0,001	0,109
-63,607	280,464	0,044	-0,056
-62,592	35,073	-0,074	-0,046
-61,578	800,000	0,042	0,112
-60,563	141,543	-0,033	0,031
-59,549	397,695	-0,021	0,030
-58,534	41,877	-2,126	-1,358
-57,519	470,270	-1,259	-2,004
-56,505	-200,000	-0,332	-4,257
-55,490	800,000	0,792	1,659
-54,476	800,000	5,124	10,952
-53,461	-200,000	21,549	341,281
-52,446	800,000	761,824	2328,005
-51,432	542,980	1658,532	2802,300
-50,417	70,794	1655,301	1207,718
-49,403	17,023	1528,912	852,416
-48,388	11,107	1452,678	781,398
-47,373	19,217	1444,304	815,641
-46,359	14,613	1433,119	787,482
-45,344	9,428	1429,253	760,724
-44,330	9,386	1427,194	759,399
-43,315	9,326	1425,535	758,201
-42,300	9,351	1423,777	757,357
-41,286	9,410	1422,516	756,933
-40,271	9,388	1421,315	756,160
-39,257	9,346	1420,091	755,279
-38,242	9,364	1419,062	754,786
-37,227	9,389	1418,035	754,331
-36,213	9,401	1416,685	753,638
-35,198	9,430	1415,362	753,040
-34,184	9,377	1414,625	752,371
-33,169	9,307	1413,292	751,303
-32,154	9,394	1412,236	751,120
-31,140	9,366	1410,849	750,222
-30,125	9,396	1409,820	749,787
-29,111	9,393	1408,616	749,098
-28,096	9,358	1407,435	748,281
-27,082	9,313	1406,260	747,416
-26,067	9,319	1405,263	746,885
-25,052	9,340	1404,076	746,321
-24,038	9,368	1403,296	746,007
-23,023	9,349	1402,338	745,380
-22,009	9,356	1401,233	744,792
-20,994	9,334	1400,053	744,034
-19,979	9,348	1399,242	743,641
-18,965	9,293	1398,429	742,923
-17,950	9,315	1397,378	742,436
-16,936	9,278	1396,741	741,896
-15,921	9,196	1395,720	740,944
-14,906	9,252	1394,624	740,592
-13,892	9,302	1393,634	740,269
-12,877	9,303	1392,942	739,876
-11,863	9,244	1392,056	739,104
-10,848	9,220	1391,152	738,486
-9,833	9,209	1390,176	737,888
-8,819	9,147	1389,501	737,212
-7,804	9,162	1388,402	736,668
-6,790	9,130	1387,306	735,912
-5,775	9,143	1386,428	735,476
-4,760	9,129	1385,629	734,960
-3,746	9,193	1384,146	734,437
-2,731	9,150	1383,697	733,972
-1,717	9,140	1382,828	733,437
-0,702	9,148	1381,055	732,505
0,313	13,356	1293,512	705,188
1,327	29,755	685,171	410,450
2,342	46,196	118,273	77,118
3,356	1,711	16,338	8,271
4,371	9,068	3,604	1,913
5,386	-3,804	1,098	0,535
6,400	703,811	0,348	0,650
7,415	-36,489	-0,225	-0,085
8,429	119,718	-0,283	-0,247
9,444	23,161	-0,269	-0,155
10,459	24,906	-0,257	-0,150
11,473	22,229	-0,287	-0,165
12,488	-134,265	-0,155	0,013
13,502	74,085	-0,271	-0,200
14,517	135,970	-0,340	-0,312
15,531	256,749	-0,327	-0,397
16,546	273,458	-0,264	-0,329
17,561	192,011	-0,236	-0,251
18,575	124,105	-0,264	-0,234
19,590	256,351	-0,180	-0,218
20,604	-149,264	-0,363	0,020
21,619	29,666	-0,424	-0,253
22,634	462,132	-0,327	-0,515
23,648	50,707	-0,425	-0,283
24,663	-59,078	-0,509	-0,154
25,677	31,301	-0,475	-0,286
26,692	269,467	-0,192	-0,238
27,707	-59,170	-0,405	-0,122
28,721	52,278	-0,447	-0,299
29,736	88,842	-0,288	-0,225
30,750	169,703	-0,381	-0,384
31,765	230,195	-0,292	-0,336
32,780	51,609	-0,465	-0,310
33,794	151,398	-0,257	-0,246
34,809	-71,184	-0,276	-0,072
35,823	0,968	-0,353	-0,178
36,838	170,214	-0,292	-0,294
37,853	36,912	-0,487	-0,302
38,867	117,635	-0,249	-0,215
39,882	117,234	-0,238	-0,205
40,896	-23,690	-0,377	-0,158
41,911	92,008	-0,235	-0,186
42,926	80,808	-0,256	-0,193
43,940	100,224	-0,495	-0,403
44,955	-66,937	-0,467	-0,129
45,969	18,709	-0,355	-0,199
46,984	90,900	-0,407	-0,320
47,999	116,439	-0,344	-0,296
49,013	26,118	-0,301	-0,176
50,028	-62,832	-0,328	-0,095
51,042	-74,553	-0,553	-0,139
52,057	201,856	-0,305	-0,330
53,071	79,275	-0,360	-0,270
54,086	-36,635	-0,455	-0,171
55,101	191,413	-0,281	-0,297
56,115	80,776	-0,360	-0,272
57,130	-48,560	-0,442	-0,148
58,144	-7,573	-0,528	-0,249
59,159	7,065	-0,356	-0,185
60,174	121,000	-0,248	-0,216
61,188	-103,575	-0,386	-0,063
62,203	433,385	-0,144	-0,220
63,217	48,767	-0,265	-0,174
64,232	23,917	-0,383	-0,221
65,247	68,547	-0,341	-0,245
66,261	-56,754	-0,333	-0,103
67,276	42,655	-0,407	-0,259
68,290	82,564	-0,331	-0,252
69,305	-83,288	-0,447	-0,100
70,320	-118,539	-0,322	-0,040
71,334	163,358	-0,259	-0,255
72,349	49,118	-0,381	-0,250
73,363	17,670	-0,378	-0,210
74,378	94,455	-0,379	-0,301
75,393	37,545	-0,317	-0,197
76,407	18,814	-0,213	-0,119
77,422	-57,721	-0,379	-0,115
78,436	-115,808	-0,358	-0,046
79,451	82,082	-0,307	-0,233
80,466	89,380	-0,190	-0,149
81,480	5,098	-0,351	-0,181
82,495	37,080	-0,212	-0,131
83,509	62,286	-0,230	-0,161
84,524	279,555	-0,118	-0,148
85,539	107,128	-0,306	-0,255
86,553	84,110	-0,372	-0,284
87,568	217,700	-0,256	-0,286
88,582	53,231	-0,312	-0,209
89,597	175,771	-0,219	-0,222
90,611	128,318	-0,260	-0,232
91,626	-44,434	-0,231	-0,080
92,641	39,861	-0,265	-0,166
93,655	-4,621	-0,394	-0,190
94,670	-182,564	-0,206	-0,003
95,684	38,151	-0,256	-0,159
96,699	4,728	-0,364	-0,187
97,714	188,629	-0,152	-0,159
98,728	-45,825	-0,188	-0,064
99,743	-96,806	-0,242	-0,044
100,757	-20,553	-0,241	-0,103
101,772	-26,688	-0,296	-0,120
102,787	116,419	-0,264	-0,226
103,801	19,048	-0,420	-0,235
104,816	49,526	-0,288	-0,189
105,830	100,959	-0,164	-0,133
106,845	46,140	-0,212	-0,137
107,860	-19,435	-0,242	-0,104
108,874	-22,127	-0,247	-0,104
109,889	-26,947	-0,403	-0,164
110,903	103,275	-0,225	-0,185
111,918	-70,681	-0,243	-0,064
112,933	-24,944	-0,196	-0,081
113,947	22,528	-0,078	-0,044
114,962	-54,137	-0,293	-0,093
115,976	-4,395	-0,327	-0,157
116,991	-75,131	-0,344	-0,085
118,006	20,672	-0,346	-0,195
119,020	209,458	-0,212	-0,232
120,035	-176,239	-0,112	-0,002
121,049	-95,002	-0,233	-0,044
122,064	62,744	-0,249	-0,174
123,079	183,128	-0,190	-0,196
124,093	176,459	-0,206	-0,209
125,108	-4,689	-0,314	-0,151
126,122	-71,063	-0,302	-0,079
127,137	-23,656	-0,317	-0,132
128,151	-17,100	-0,206	-0,090
129,166	-118,773	-0,280	-0,034
130,181	82,046	-0,305	-0,230
131,195	201,674	-0,240	-0,258
132,210	154,494	-0,318	-0,305
133,224	-79,897	-0,237	-0,055
134,239	121,766	-0,232	-0,202
135,254	104,737	-0,212	-0,174
136,268	-61,329	-0,208	-0,061
137,283	37,702	-0,185	-0,114
138,297	156,824	-0,305	-0,294
139,312	372,823	-0,161	-0,229
140,327	-1,472	-0,183	-0,090
141,341	-101,419	-0,273	-0,046
142,356	70,162	-0,428	-0,308
143,370	-47,259	-0,174	-0,059
144,385	354,196	-0,179	-0,248
145,400	334,213	-0,211	-0,285
146,414	-7,811	-0,318	-0,149
147,429	52,062	-0,220	-0,146
148,443	222,298	-0,175	-0,196
149,458	-63,399	-0,174	-0,049
150,473	-105,686	-0,109	-0,017
151,487	44,258	-0,224	-0,143
152,502	1,675	-0,325	-0,163
153,516	47,500	-0,338	-0,219
154,531	-75,999	-0,293	-0,072
155,546	48,342	-0,231	-0,150
156,560	124,065	-0,232	-0,203
157,575	3,111	-0,285	-0,144
158,589	-109,680	-0,167	-0,024
159,604	17,446	-0,227	-0,125
160,619	79,818	-0,268	-0,200
161,633	-95,760	-0,314	-0,058
162,648	-31,034	-0,200	-0,078
163,662	118,884	-0,153	-0,132
164,677	410,713	-0,145	-0,214
165,692	62,392	-0,178	-0,123
166,706	12,477	-0,166	-0,089
167,721	-2,517	-0,293	-0,142
168,735	129,943	-0,324	-0,288
169,750	211,663	-0,228	-0,250
170,764	39,313	-0,226	-0,140
171,779	-68,713	-0,285	-0,076
172,794	51,049	-0,076	-0,050
173,808	58,811	-0,204	-0,139
174,823	127,367	-0,088	-0,078
175,837	221,176	-0,273	-0,305
176,852	-89,183	-0,264	-0,054
177,867	800,000	-0,045	-0,099
178,881	800,000	-0,110	-0,239
179,896	-70,116	-0,154	-0,040
180,910	461,457	-0,153	-0,238
181,925	46,847	-0,202	-0,130
182,940	-104,109	-0,437	-0,070
183,954	-39,170	-0,280	-0,102
184,969	142,440	-0,191	-0,176
185,983	800,000	-0,081	-0,176
186,998	1,104	-0,213	-0,106
188,013	736,292	-0,143	-0,266
189,027	49,975	-0,255	-0,167
190,042	157,070	-0,141	-0,135
191,056	-102,007	-0,279	-0,046
192,071	-32,116	-0,159	-0,061
193,086	185,580	-0,103	-0,106
194,100	185,111	-0,169	-0,174
195,115	171,745	-0,189	-0,188
196,129	-60,221	-0,277	-0,081
197,144	-122,751	-0,181	0,020
198,159	-172,029	-0,232	0,005
199,173	357,638	-0,160	-0,222
200,188	41,492	-0,179	-0,112
201,202	-59,167	-0,221	-0,066
202,217	-28,543	-0,140	-0,056
203,232	78,428	-0,185	-0,136
204,246	201,269	-0,222	-0,237
205,261	-54,062	-0,269	-0,084
206,275	-97,488	-0,248	-0,044
207,290	237,037	-0,119	-0,137
208,304	253,145	-0,138	-0,163
209,319	-145,290	-0,188	-0,012
210,334	216,024	-0,170	-0,187
211,348	166,695	-0,139	-0,136
212,363	-77,512	-0,241	-0,057
213,377	-22,610	-0,079	-0,033
214,392	-49,485	-0,083	-0,027
215,407	79,334	-0,163	-0,121
216,421	-26,550	-0,128	0,052
217,436	64,155	-0,252	-0,175
218,450	24,691	-0,218	-0,125
219,465	-11,055	-0,352	-0,160
220,480	311,050	-0,188	-0,245
221,494	76,605	-0,239	-0,175
222,509	175,864	-0,129	-0,129
223,523	-200,000	0,021	-0,183
224,538	800,000	-0,047	-0,133
225,553	122,948	-0,163	-0,141
226,567	157,572	-0,214	-0,205
227,582	800,000	-0,097	-0,248
228,596	-94,280	-0,160	-0,030
229,611	17,288	-0,211	-0,115
230,626	360,272	-0,030	-0,041
231,640	-46,164	-0,269	-0,091
232,655	477,791	-0,111	-0,175
233,669	35,761	-0,125	-0,076
234,684	-70,839	-0,254	-0,066
235,699	206,253	-0,092	-0,099
236,713	323,595	-0,119	-0,157
237,728	-170,530	-0,090	0,002
238,742	-200,000	-0,046	-0,206
239,757	207,368	-0,165	-0,178
240,772	800,000	-0,132	-0,260
241,786	457,605	-0,113	-0,174
242,801	-22,750	-0,255	-0,106
243,815	472,131	-0,139	-0,217
244,830	301,470	-0,064	-0,081
245,844	49,121	-0,200	-0,129
246,859	123,240	-0,256	-0,221
247,874	800,000	-0,118	-0,259
248,888	109,169	-0,148	-0,122
249,903	164,864	-0,231	-0,225
250,917	-96,370	-0,231	0,042
251,932	127,716	-0,088	-0,077
252,947	-47,940	-0,226	-0,075
253,961	-60,115	-0,073	-0,021
254,976	800,000	-0,147	-0,302
255,990	-52,606	-0,275	-0,087
257,005	-132,674	-0,066	-0,006
258,020	-83,689	-0,141	-0,031
259,034	-200,000	0,028	-0,131
260,049	61,400	-0,186	-0,127
261,063	-61,634	-0,160	0,046
262,078	57,512	-0,090	-0,060
263,093	225,736	-0,195	-0,218
264,107	299,586	-0,178	-0,227
265,122	169,080	-0,236	-0,233
266,136	534,346	-0,109	-0,178
267,151	800,000	-0,057	-0,127
268,166	25,203	-0,091	-0,052
269,180	10,070	-0,139	-0,073
270,195	78,864	-0,194	-0,143
271,209	656,651	-0,129	-0,228
272,224	-101,666	-0,174	-0,029
273,239	-200,000	-0,023	0,090
274,253	-51,666	-0,168	-0,054
275,268	37,333	-0,202	-0,123
276,282	-40,883	-0,268	-0,095
277,297	22,287	-0,237	-0,133
278,312	57,042	-0,118	-0,079
279,326	7,961	-0,141	-0,073
280,341	-85,583	-0,179	-0,038
281,355	125,719	-0,157	-0,137
282,370	-70,848	-0,260	0,067
283,384	63,944	-0,275	-0,190
284,399	-1,531	-0,147	-0,071
285,414	59,171	-0,212	-0,143
286,428	317,163	-0,168	-0,220
287,443	-14,935	-0,238	-0,104
288,457	-128,155	-0,288	-0,028
289,472	114,727	-0,165	-0,138
290,487	-17,771	-0,145	-0,062
291,501	800,000	-0,089	-0,264
292,516	275,387	-0,103	-0,126
293,530	142,800	-0,214	-0,196
294,545	42,180	-0,162	-0,101
295,560	-40,779	-0,180	-0,064
296,574	-79,558	-0,078	0,018
297,589	-200,000	-0,019	-0,103
298,603	92,587	-0,150	-0,116
299,618	-200,000	-0,051	-0,306
300,633	574,552	-0,097	-0,164
301,647	108,426	-0,184	-0,151
302,662	-86,186	-0,268	-0,056
303,676	12,023	-0,222	-0,117
304,691	800,000	-0,047	-0,120
305,706	-45,130	-0,225	-0,076
306,720	2,495	-0,178	-0,088
307,735	-106,963	-0,186	-0,028
308,749	302,694	-0,092	-0,118
309,764	800,000	-0,069	-0,156
310,779	224,184	-0,114	-0,127
311,793	620,890	-0,099	-0,171
312,808	-119,426	-0,278	-0,033
313,822	-130,676	-0,177	0,016
314,837	-67,490	-0,089	-0,024
315,852	-19,614	-0,150	-0,063
316,866	-14,459	0,054	0,024
317,881	90,334	-0,171	-0,131
318,895	-107,007	-0,145	-0,022
319,910	-200,000	-0,057	-0,221
320,925	93,854	-0,095	-0,073
321,939	209,472	-0,084	-0,090
322,954	-68,172	-0,086	0,023
323,968	539,868	0,089	-0,145
324,983	41,186	-0,169	-0,105
325,997	-48,691	-0,098	-0,032
327,012	415,726	-0,072	-0,106
328,027	-75,819	-0,206	-0,050
329,041	353,575	-0,130	-0,177
330,056	800,000	-0,086	-0,178
331,070	-137,932	-0,054	-0,004
332,085	-200,000	-0,102	-0,000
333,100	800,000	-0,056	-0,114
334,114	-68,874	-0,160	-0,042
335,129	109,773	-0,256	-0,210
336,143	-49,360	-0,192	-0,062
337,158	-39,321	-0,039	0,014
338,173	67,659	-0,056	-0,039
339,187	-32,243	-0,129	-0,049
340,202	800,000	-0,025	-0,058
341,216	177,173	-0,163	-0,162
342,231	-9,675	-0,175	-0,079
343,246	587,918	-0,027	-0,046
344,260	-181,123	-0,074	0,001
345,275	625,533	-0,055	-0,095
346,289	98,648	-0,128	0,101
347,304	19,395	-0,184	-0,101
348,319	-24,245	-0,078	-0,032
349,333	-132,397	-0,160	0,014
350,348	-95,544	-0,096	0,017
351,362	-62,842	-0,148	-0,042
352,377	187,620	-0,130	-0,133
353,392	-24,812	-0,106	0,043
354,406	62,062	-0,157	-0,107
355,421	206,480	1307,146	1393,079
356,435	158,796	1466,928	1393,550
