DTS Sentinel unit serial number:	SN410029Multiplexer serial number:	ORYXHardware model number:	OX2-SRSoftware version number:	ORYX F/W v4,00 Oryx Data Collector v3.7.2.0data status	okinstallation	B3 Nyhavnadifferential loss correction	single-endedforward channel	channel 1reverse channel	N/Adate	2023/12/04time	17:07:30forward acquisition time	300,00reverse acquisition time	0,00gamma	499,1914k internal	0,3200k external	0,3200temperature offset calibration	1,0000default loss term (dB/km)	0,3820temperature slope calibration	1,0000multiplexer offset coefficient	1,0000multiplexer slope coefficient	1,0000fibre end	0,00T internal ref (°C)	15,13T ext. ref 1 (°C)	0,06T ext. ref 2 (°C)	0,04length (m)	temperature (°C)	Stokes	anti-Stokes-744,400	255,642	-0,201	-0,251
-743,385	-200,000	0,025	0,246
-742,371	460,067	-0,178	-0,290
-741,356	-200,000	0,015	0,293
-740,342	800,000	-0,092	-0,251
-739,327	800,000	-0,134	0,284
-738,312	470,357	-0,223	-0,366
-737,298	-200,000	-0,076	0,338
-736,283	182,085	-0,224	-0,241
-735,269	-200,000	0,047	0,254
-734,254	550,223	-0,101	-0,176
-733,239	59,285	-0,259	0,185
-732,225	684,623	-0,095	-0,181
-731,210	143,243	0,040	0,039
-730,196	800,000	-0,063	-0,179
-729,181	35,799	-0,102	-0,065
-728,167	-106,390	0,020	0,003
-727,152	800,000	-0,071	-0,159
-726,137	800,000	-0,053	-0,111
-725,123	-151,671	-0,309	0,016
-724,108	224,407	0,031	-0,036
-723,094	-149,021	-0,077	0,004
-722,079	229,468	0,042	-0,050
-721,064	247,828	-0,031	0,038
-720,050	-43,779	-0,099	0,036
-719,035	-20,533	-0,111	0,049
-718,021	-6,742	0,021	-0,010
-717,006	-29,346	-0,146	0,061
-715,991	-200,000	0,022	-0,095
-714,977	800,000	0,027	-0,066
-713,962	-200,000	-0,014	-0,159
-712,948	176,138	-0,122	0,129
-711,933	57,487	-0,048	-0,034
-710,918	380,310	-0,039	0,059
-709,904	-108,811	-0,040	-0,006
-708,889	800,000	-0,044	-0,091
-707,875	-16,806	-0,021	-0,010
-706,860	-100,503	0,026	0,005
-705,845	-183,511	-0,107	-0,001
-704,831	800,000	-0,044	-0,141
-703,816	228,017	0,060	-0,071
-702,802	3,870	0,111	0,059
-701,787	-37,507	-0,102	0,040
-700,772	191,828	-0,123	-0,135
-699,758	-12,041	-0,135	-0,064
-698,743	-100,066	-0,058	-0,010
-697,729	262,941	-0,048	0,061
-696,714	800,000	0,077	0,179
-695,699	-200,000	-0,004	-0,126
-694,685	-200,000	-0,024	-0,143
-693,670	19,638	-0,110	-0,064
-692,656	496,764	-0,089	-0,150
-691,641	-109,024	0,115	0,018
-690,627	37,813	-0,064	0,041
-689,612	11,875	0,039	0,022
-688,597	-38,692	-0,149	0,057
-687,583	202,220	0,064	-0,072
-686,568	-200,000	-0,001	-0,101
-685,554	178,272	-0,103	-0,110
-684,539	800,000	0,090	-0,188
-683,524	12,942	0,125	0,070
-682,510	-200,000	0,014	0,056
-681,495	800,000	0,038	-0,098
-680,481	317,481	-0,131	-0,180
-679,466	-200,000	-0,007	0,031
-678,451	-95,382	0,037	0,007
-677,437	-33,440	-0,138	0,055
-676,422	-17,236	-0,118	0,054
-675,408	-122,003	-0,050	0,006
-674,393	800,000	-0,036	-0,075
-673,378	-200,000	-0,020	-0,070
-672,364	-64,393	-0,133	-0,039
-671,349	-200,000	0,017	-0,069
-670,335	-70,676	-0,112	-0,031
-669,320	-178,248	0,156	-0,003
-668,305	-200,000	-0,004	0,045
-667,291	224,528	-0,119	-0,140
-666,276	-200,000	0,017	-0,070
-665,262	-105,723	-0,112	0,018
-664,247	-32,212	-0,063	0,026
-663,232	152,611	-0,037	-0,037
-662,218	122,549	0,083	-0,075
-661,203	800,000	-0,055	0,145
-660,189	-16,025	0,115	0,053
-659,174	-110,705	-0,163	0,024
-658,159	368,035	0,120	-0,176
-657,145	615,966	-0,117	-0,214
-656,130	103,731	-0,049	0,042
-655,116	-2,704	0,002	-0,001
-654,101	-86,557	0,059	-0,013
-653,086	138,750	-0,057	0,055
-652,072	800,000	-0,003	0,007
-651,057	-80,481	-0,101	-0,024
-650,043	800,000	0,035	0,069
-649,028	-200,000	0,035	-0,118
-648,014	-195,906	-0,154	-0,001
-646,999	-200,000	-0,000	0,077
-645,984	-130,790	-0,045	0,004
-644,970	-200,000	-0,010	0,072
-643,955	-200,000	-0,011	0,140
-642,941	-200,000	-0,015	0,089
-641,926	-81,955	-0,077	-0,018
-640,911	-200,000	0,029	0,119
-639,897	-42,961	-0,066	0,024
-638,882	-200,000	-0,012	0,051
-637,868	280,132	0,046	0,060
-636,853	-109,283	-0,182	-0,028
-635,838	-21,194	-0,058	0,026
-634,824	597,826	0,057	0,102
-633,809	-73,860	0,016	-0,004
-632,795	-200,000	0,005	0,107
-631,780	549,469	-0,087	0,151
-630,765	800,000	-0,034	-0,106
-629,751	-200,000	-0,009	0,173
-628,736	-200,000	0,014	0,044
-627,722	-200,000	-0,019	0,078
-626,707	-200,000	-0,020	0,109
-625,692	247,433	0,044	-0,054
-624,678	-41,100	0,042	-0,016
-623,663	119,790	0,097	-0,087
-622,649	227,742	0,041	0,048
-621,634	-56,955	0,063	-0,020
-620,619	92,327	0,049	-0,040
-619,605	147,029	0,066	-0,064
-618,590	-200,000	-0,025	-0,084
-617,576	-145,509	-0,152	-0,010
-616,561	384,654	-0,078	-0,117
-615,546	-200,000	-0,008	-0,132
-614,532	772,876	-0,077	-0,154
-613,517	-98,546	-0,140	-0,026
-612,503	79,728	0,057	-0,044
-611,488	117,286	-0,060	0,054
-610,474	-19,085	-0,053	-0,024
-609,459	120,602	0,031	-0,028
-608,444	800,000	0,003	0,008
-607,430	370,194	0,070	-0,103
-606,415	43,206	-0,142	0,094
-605,401	800,000	0,019	0,050
-604,386	685,456	0,082	0,155
-603,371	371,511	0,043	0,063
-602,357	366,852	-0,016	0,023
-601,342	77,062	-0,115	-0,088
-600,328	-160,920	-0,104	-0,004
-599,313	-200,000	-0,012	0,099
-598,298	800,000	0,030	0,077
-597,284	-195,567	-0,129	-0,001
-596,269	800,000	0,045	-0,106
-595,255	321,542	-0,074	-0,102
-594,240	-6,244	0,158	0,078
-593,225	92,403	-0,047	-0,038
-592,211	-200,000	0,019	-0,140
-591,196	445,407	0,033	0,052
-590,182	131,889	-0,097	0,091
-589,167	800,000	0,057	0,139
-588,152	-75,172	0,092	-0,024
-587,138	327,439	-0,031	0,043
-586,123	0,848	0,049	0,025
-585,109	-200,000	0,006	-0,098
-584,094	189,152	-0,050	0,054
-583,079	-13,179	-0,059	-0,028
-582,065	-52,726	0,105	0,035
-581,050	-200,000	0,004	0,161
-580,036	-200,000	0,020	-0,106
-579,021	147,645	-0,120	-0,117
-578,006	135,832	0,076	0,072
-576,992	-2,812	0,053	-0,027
-575,977	-91,691	-0,115	-0,023
-574,963	421,425	0,053	-0,082
-573,948	88,475	0,118	0,094
-572,934	-200,000	0,004	-0,048
-571,919	190,532	-0,134	-0,145
-570,904	800,000	0,023	-0,060
-569,890	-200,000	-0,009	-0,053
-568,875	257,034	0,021	0,026
-567,861	-200,000	-0,012	-0,052
-566,846	603,220	0,024	0,043
-565,831	-200,000	0,021	-0,138
-564,817	-200,000	0,003	0,024
-563,802	800,000	-0,031	0,070
-562,788	527,855	0,057	0,098
-561,773	697,295	0,074	-0,141
-560,758	377,479	-0,039	0,058
-559,744	-200,000	0,032	0,110
-558,729	-200,000	0,019	-0,080
-557,715	548,617	-0,038	-0,066
-556,700	277,526	0,063	-0,081
-555,685	-79,061	-0,159	-0,039
-554,671	800,000	0,042	-0,102
-553,656	-200,000	-0,033	0,122
-552,642	-45,937	0,133	-0,047
-551,627	-91,848	0,025	0,005
-550,612	683,371	0,046	0,086
-549,598	-116,924	-0,076	0,010
-548,583	46,002	-0,010	0,007
-547,569	-200,000	0,014	0,062
-546,554	-19,706	0,090	-0,040
-545,539	242,476	-0,044	0,053
-544,525	153,469	0,149	0,147
-543,510	39,270	-0,107	-0,069
-542,496	363,193	0,069	-0,100
-541,481	-49,162	-0,121	-0,042
-540,466	-200,000	0,022	0,085
-539,452	-51,552	0,027	-0,009
-538,437	800,000	-0,005	0,017
-537,423	-200,000	0,009	-0,035
-536,408	322,232	0,080	-0,110
-535,393	-140,852	-0,065	-0,005
-534,379	800,000	-0,043	-0,135
-533,364	103,820	0,067	0,056
-532,350	52,483	0,054	-0,037
-531,335	-46,332	0,061	0,021
-530,321	-200,000	0,000	-0,004
-529,306	-7,856	-0,045	0,022
-528,291	-9,310	0,081	-0,039
-527,277	191,339	0,100	-0,109
-526,262	-186,267	-0,054	-0,001
-525,248	800,000	-0,006	0,018
-524,233	-200,000	-0,040	-0,131
-523,218	230,611	-0,054	0,064
-522,204	196,625	0,019	-0,021
-521,189	70,431	0,080	0,060
-520,175	800,000	-0,038	-0,108
-519,160	800,000	-0,052	-0,110
-518,145	209,365	-0,055	0,062
-517,131	308,166	0,025	0,033
-516,116	7,688	0,078	-0,042
-515,102	800,000	0,048	-0,097
-514,087	-171,937	0,098	0,002
-513,072	61,365	0,055	-0,039
-512,058	-104,864	-0,016	-0,003
-511,043	-131,967	0,012	0,001
-510,029	94,676	0,038	0,031
-509,014	382,622	0,037	0,055
-507,999	430,021	-0,061	0,096
-506,985	25,933	0,121	-0,073
-505,970	-200,000	0,002	0,107
-504,956	800,000	-0,032	-0,065
-503,941	184,215	0,015	-0,016
-502,926	-129,742	-0,025	0,002
-501,912	-45,821	0,109	0,039
-500,897	800,000	-0,027	0,058
-499,883	-64,358	-0,120	-0,035
-498,868	-98,773	-0,131	-0,024
-497,853	800,000	0,015	-0,048
-496,839	245,028	0,088	0,107
-495,824	-72,806	0,082	0,022
-494,810	800,000	0,039	-0,096
-493,795	-200,000	0,010	0,214
-492,781	325,479	0,028	-0,038
-491,766	-54,728	0,089	0,029
-490,751	-200,000	0,015	0,052
-489,737	-200,000	0,009	-0,050
-488,722	800,000	0,044	-0,102
-487,708	153,446	0,041	0,040
-486,693	-200,000	-0,041	-0,153
-485,678	61,745	0,092	-0,066
-484,664	800,000	-0,102	-0,218
-483,649	156,832	-0,108	-0,108
-482,635	-200,000	-0,020	-0,207
-481,620	-200,000	0,025	0,089
-480,605	-200,000	-0,008	0,136
-479,591	800,000	-0,057	0,114
-478,576	481,263	0,072	-0,119
-477,562	168,525	-0,107	0,110
-476,547	-200,000	-0,008	-0,058
-475,532	-200,000	0,005	0,051
-474,518	-57,299	0,075	-0,024
-473,503	50,932	0,240	0,163
-472,489	800,000	-0,029	0,072
-471,474	-63,375	0,102	-0,030
-470,459	-200,000	-0,019	-0,074
-469,445	455,677	0,040	0,065
-468,430	0,630	0,107	-0,055
-467,416	-38,673	0,016	0,006
-466,401	195,269	0,049	-0,054
-465,386	-200,000	0,011	-0,067
-464,372	203,397	0,090	-0,100
-463,357	-43,734	-0,077	0,028
-462,343	-200,000	0,004	0,060
-461,328	437,187	-0,058	-0,091
-460,313	-200,000	-0,006	-0,067
-459,299	-200,000	-0,005	0,041
-458,284	250,788	0,115	0,140
-457,270	172,473	-0,073	0,076
-456,255	-200,000	-0,036	-0,169
-455,241	261,452	-0,087	-0,108
-454,226	-90,587	0,140	0,029
-453,211	800,000	0,076	-0,196
-452,197	25,746	0,065	-0,039
-451,182	62,167	-0,089	0,064
-450,168	-200,000	0,002	0,035
-449,153	800,000	-0,042	-0,087
-448,138	139,632	-0,031	-0,029
-447,124	800,000	-0,026	-0,053
-446,109	146,249	-0,091	-0,088
-445,095	19,612	-0,098	-0,057
-444,080	800,000	0,023	-0,052
-443,065	9,914	0,086	0,047
-442,051	-200,000	-0,017	0,131
-441,036	29,684	0,055	-0,034
-440,022	800,000	0,029	-0,073
-439,007	800,000	0,020	0,056
-437,992	-50,555	0,070	-0,024
-436,978	-158,470	-0,077	-0,003
-435,963	-168,440	0,064	0,002
-434,949	-149,567	-0,093	-0,005
-433,934	800,000	0,025	0,061
-432,919	69,567	-0,107	0,079
-431,905	-200,000	0,000	0,170
-430,890	-46,217	-0,040	0,014
-429,876	143,784	0,075	0,072
-428,861	61,892	-0,084	0,060
-427,846	800,000	-0,020	0,041
-426,832	-200,000	-0,001	-0,087
-425,817	-32,978	-0,026	-0,010
-424,803	-121,283	0,083	-0,010
-423,788	-5,789	0,006	0,003
-422,773	800,000	0,045	0,090
-421,759	94,422	0,053	-0,043
-420,744	800,000	0,043	0,099
-419,730	744,315	-0,033	-0,065
-418,715	-200,000	-0,060	-0,195
-417,701	-200,000	-0,014	0,055
-416,686	800,000	0,084	0,192
-415,671	-200,000	-0,019	-0,079
-414,657	296,235	0,033	0,044
-413,642	-200,000	-0,019	-0,132
-412,628	-200,000	0,000	-0,062
-411,613	-83,269	-0,042	0,010
-410,598	58,734	-0,063	-0,044
-409,584	49,332	0,032	0,021
-408,569	800,000	0,023	0,057
-407,555	-200,000	-0,006	-0,026
-406,540	-92,429	-0,110	0,022
-405,525	800,000	-0,032	-0,069
-404,511	800,000	-0,049	-0,114
-403,496	-200,000	0,019	-0,075
-402,482	262,407	0,018	-0,023
-401,467	-200,000	-0,014	0,074
-400,452	104,422	0,101	-0,085
-399,438	-200,000	0,010	-0,047
-398,423	-200,000	-0,037	-0,000
-397,409	131,152	-0,048	-0,045
-396,394	-200,000	-0,003	-0,040
-395,379	769,173	-0,091	0,178
-394,365	186,576	-0,095	0,102
-393,350	-43,084	0,060	0,022
-392,336	572,763	0,035	0,061
-391,321	-200,000	-0,009	-0,079
-390,306	-200,000	-0,012	-0,086
-389,292	-41,502	0,145	-0,053
-388,277	441,646	0,027	0,042
-387,263	233,259	0,095	0,112
-386,248	-16,996	0,019	0,009
-385,233	800,000	-0,035	0,107
-384,219	-142,365	-0,040	0,003
-383,204	97,350	-0,030	-0,025
-382,190	-200,000	-0,020	-0,124
-381,175	-200,000	-0,024	-0,139
-380,160	-200,000	0,020	-0,084
-379,146	-200,000	0,042	0,135
-378,131	-46,942	0,080	-0,028
-377,117	238,752	-0,028	0,034
-376,102	-200,000	0,027	0,129
-375,088	170,952	-0,070	0,072
-374,073	-14,837	-0,051	0,024
-373,058	-200,000	-0,001	-0,029
-372,044	64,303	0,051	0,037
-371,029	800,000	0,083	0,200
-370,015	-28,039	-0,146	-0,060
-369,000	497,960	-0,046	0,076
-367,985	48,975	0,066	0,045
-366,971	800,000	-0,046	0,146
-365,956	-200,000	-0,015	0,086
-364,942	-200,000	0,021	0,134
-363,927	4,797	-0,082	0,043
-362,912	-176,110	-0,030	-0,001
-361,898	800,000	-0,050	-0,106
-360,883	153,602	0,062	0,061
-359,869	-141,698	-0,073	-0,005
-358,854	-141,351	0,157	-0,011
-357,839	-200,000	-0,026	-0,134
-356,825	-200,000	0,001	-0,065
-355,810	-42,243	-0,077	-0,028
-354,796	-102,693	-0,053	-0,009
-353,781	598,182	0,034	-0,061
-352,766	-58,601	0,022	0,007
-351,752	-14,859	0,028	-0,013
-350,737	747,733	0,047	0,091
-349,723	-200,000	0,008	-0,076
-348,708	800,000	-0,028	-0,067
-347,693	40,463	-0,066	0,043
-346,679	196,484	-0,051	0,056
-345,664	-200,000	-0,007	-0,062
-344,650	42,766	-0,077	-0,050
-343,635	80,547	0,063	-0,049
-342,620	-200,000	0,013	0,123
-341,606	-200,000	-0,001	0,059
-340,591	-115,641	-0,067	-0,009
-339,577	512,732	-0,088	-0,147
-338,562	-8,265	0,020	0,009
-337,548	800,000	0,077	-0,182
-336,533	-81,633	-0,065	0,015
-335,518	-200,000	-0,003	-0,062
-334,504	-200,000	-0,001	0,102
-333,489	-27,271	-0,049	-0,020
-332,475	-92,647	-0,160	-0,032
-331,460	-200,000	0,002	0,018
-330,445	47,874	-0,169	-0,113
-329,431	411,357	-0,047	0,071
-328,416	399,282	0,023	0,035
-327,402	22,092	0,060	0,035
-326,387	-43,352	-0,174	0,063
-325,372	-153,298	0,036	-0,002
-324,358	65,702	-0,030	0,022
-323,343	800,000	0,036	0,075
-322,329	147,436	0,090	-0,087
-321,314	96,224	0,021	-0,017
-320,299	462,688	0,070	0,112
-319,285	-98,525	0,032	-0,006
-318,270	-112,042	0,071	-0,010
-317,256	-13,785	-0,155	-0,071
-316,241	-160,335	0,086	-0,003
-315,226	81,033	-0,087	0,067
-314,212	-200,000	-0,006	0,022
-313,197	139,134	-0,012	0,011
-312,183	-200,000	0,000	0,053
-311,168	-47,354	-0,093	0,032
-310,153	48,503	-0,153	-0,102
-309,139	800,000	0,026	0,059
-308,124	37,045	-0,115	-0,073
-307,110	-143,666	-0,031	-0,002
-306,095	162,398	0,083	0,084
-305,080	-141,942	0,034	-0,002
-304,066	-200,000	0,009	0,119
-303,051	-12,988	-0,074	-0,034
-302,037	431,698	0,027	-0,041
-301,022	-87,652	0,017	-0,004
-300,008	131,776	0,184	0,170
-298,993	87,242	0,103	0,081
-297,978	223,464	0,018	-0,021
-296,964	-83,994	0,080	-0,018
-295,949	-77,952	-0,118	0,029
-294,935	-200,000	0,004	-0,072
-293,920	-5,049	-0,112	-0,055
-292,905	9,043	0,034	0,018
-291,891	78,025	0,038	-0,029
-290,876	-200,000	-0,001	0,053
-289,862	-100,769	-0,120	-0,021
-288,847	188,618	-0,078	-0,083
-287,832	259,479	-0,060	-0,074
-286,818	800,000	0,055	0,119
-285,803	800,000	-0,060	0,120
-284,789	24,311	0,081	-0,048
-283,774	-200,000	0,009	-0,094
-282,759	19,686	0,089	0,051
-281,745	42,689	-0,105	0,068
-280,730	-76,623	-0,151	0,038
-279,716	-83,124	-0,093	0,021
-278,701	87,299	0,109	0,086
-277,686	-37,784	0,151	-0,057
-276,672	-200,000	-0,003	-0,073
-275,657	248,813	-0,050	-0,061
-274,643	494,295	0,047	-0,078
-273,628	-153,381	-0,086	0,004
-272,613	-61,960	0,088	-0,026
-271,599	-200,000	-0,006	-0,026
-270,584	86,225	0,113	-0,089
-269,570	561,625	-0,015	-0,026
-268,555	800,000	-0,018	0,048
-267,540	800,000	-0,018	0,040
-266,526	800,000	-0,032	-0,075
-265,511	800,000	-0,031	-0,094
-264,497	-200,000	0,024	0,093
-263,482	800,000	-0,028	-0,070
-262,467	-138,765	0,111	0,009
-261,453	-200,000	-0,032	0,170
-260,438	800,000	0,036	0,095
-259,424	48,565	-0,034	-0,023
-258,409	-200,000	-0,019	-0,101
-257,395	-200,000	-0,036	-0,116
-256,380	94,801	0,148	-0,120
-255,365	118,368	-0,134	0,118
-254,351	785,764	-0,047	-0,092
-253,336	-200,000	0,009	0,031
-252,322	164,817	-0,119	-0,120
-251,307	-200,000	0,007	-0,083
-250,292	26,629	0,118	-0,070
-249,278	790,245	-0,018	-0,036
-248,263	-120,586	0,132	-0,016
-247,249	-54,179	0,112	0,036
-246,234	42,162	-0,153	-0,099
-245,219	800,000	-0,040	-0,096
-244,205	-133,931	-0,109	0,009
-243,190	-49,685	0,068	0,023
-242,176	166,118	-0,075	0,075
-241,161	-32,295	0,131	-0,052
-240,146	-200,000	0,115	0,000
-239,132	-200,000	0,001	0,037
-238,117	-152,892	0,109	-0,005
-237,103	101,814	0,067	-0,056
-236,088	800,000	-0,070	-0,150
-235,073	-159,245	-0,066	0,003
-234,059	800,000	0,061	0,137
-233,044	44,531	-0,083	-0,055
-232,030	-29,740	-0,134	-0,054
-231,015	249,873	0,035	0,042
-230,000	43,208	-0,068	0,044
-228,986	243,603	-0,022	-0,026
-227,971	-200,000	0,026	-0,112
-226,957	-17,868	0,098	0,044
-225,942	800,000	-0,027	-0,063
-224,927	27,777	0,066	0,039
-223,913	425,877	-0,059	0,091
-222,898	-56,686	-0,135	-0,042
-221,884	238,642	0,042	-0,050
-220,869	-156,471	-0,121	0,005
-219,855	317,349	0,106	0,144
-218,840	-200,000	0,008	0,103
-217,825	46,519	0,085	-0,056
-216,811	171,280	0,069	-0,071
-215,796	-200,000	0,011	-0,051
-214,782	-200,000	0,063	0,201
-213,767	-80,034	0,041	0,010
-212,752	-200,000	0,020	0,077
-211,738	6,709	0,101	-0,053
-210,723	800,000	-0,013	0,028
-209,709	-140,078	0,026	0,002
-208,694	800,000	0,079	-0,195
-207,679	65,447	-0,112	-0,080
-206,665	-200,000	-0,005	0,061
-205,650	-112,027	-0,123	0,017
-204,636	-126,324	0,071	-0,007
-203,621	800,000	-0,009	0,024
-202,606	800,000	-0,049	0,108
-201,592	211,471	0,054	0,060
-200,577	110,589	0,046	-0,039
-199,563	-133,941	0,063	-0,006
-198,548	-200,000	0,002	0,117
-197,533	434,208	0,074	0,115
-196,519	800,000	-0,025	0,072
-195,504	800,000	-0,089	0,198
-194,490	460,368	0,050	-0,080
-193,475	412,698	-0,069	-0,105
-192,460	800,000	0,055	-0,115
-191,446	-115,456	0,016	0,002
-190,431	391,840	0,054	0,080
-189,417	284,912	0,051	-0,066
-188,402	-200,000	-0,001	-0,062
-187,387	-113,953	-0,095	0,013
-186,373	-90,040	0,099	-0,020
-185,358	-200,000	0,015	0,076
-184,344	-200,000	-0,025	0,112
-183,329	172,860	0,120	0,123
-182,315	-168,409	0,045	-0,001
-181,300	800,000	0,048	0,103
-180,285	77,321	-0,182	-0,137
-179,271	-44,836	-0,087	-0,031
-178,256	44,291	0,057	0,037
-177,242	173,906	-0,070	0,072
-176,227	6,938	0,138	-0,073
-175,212	-83,707	-0,046	-0,010
-174,198	-141,649	0,132	-0,009
-173,183	-144,847	0,165	0,011
-172,169	-82,762	-0,093	-0,021
-171,154	338,489	-0,035	0,049
-170,139	556,354	-0,079	-0,135
-169,125	-200,000	0,050	0,223
-168,110	-37,633	0,153	-0,058
-167,096	141,751	-0,035	0,033
-166,081	-200,000	-0,004	-0,032
-165,066	4,779	-0,118	-0,061
-164,052	342,666	0,020	-0,027
-163,037	83,755	0,049	0,038
-162,023	800,000	0,016	0,046
-161,008	-62,283	0,089	0,026
-159,993	-200,000	0,015	0,140
-158,979	-21,009	-0,084	-0,036
-157,964	141,637	-0,071	0,067
-156,950	-74,014	-0,069	-0,018
-155,935	66,085	-0,039	0,028
-154,920	60,202	-0,087	0,061
-153,906	-200,000	-0,004	-0,023
-152,891	800,000	0,028	0,069
-151,877	-9,987	-0,062	0,029
-150,862	-200,000	-0,026	0,113
-149,847	417,849	-0,038	-0,058
-148,833	-64,052	0,084	-0,024
-147,818	-119,735	0,163	0,020
-146,804	800,000	0,042	0,099
-145,789	-8,833	0,052	0,025
-144,775	-11,781	-0,054	0,025
-143,760	-144,399	-0,025	-0,002
-142,745	-26,562	-0,042	-0,018
-141,731	191,472	0,030	-0,033
-140,716	-200,000	0,001	0,027
-139,702	800,000	0,013	-0,034
-138,687	-8,329	-0,033	0,016
-137,672	198,657	0,092	0,100
-136,658	-153,917	-0,154	-0,007
-135,643	-115,472	-0,015	0,002
-134,629	-157,428	-0,136	0,006
-133,614	-74,799	0,079	-0,020
-132,599	-123,260	0,086	0,010
-131,585	493,503	0,041	0,066
-130,570	800,000	-0,010	-0,031
-129,556	148,292	0,059	0,056
-128,541	800,000	-0,027	0,073
-127,526	26,519	0,044	-0,026
-126,512	-200,000	0,055	0,177
-125,497	-200,000	0,003	0,180
-124,483	-23,441	-0,075	0,032
-123,468	-33,548	-0,151	0,059
-122,453	-18,646	-0,056	0,025
-121,439	800,000	-0,036	-0,102
-120,424	238,597	-0,095	0,112
-119,410	800,000	-0,022	-0,067
-118,395	65,523	-0,080	0,058
-117,380	318,313	0,061	0,083
-116,366	800,000	0,035	0,085
-115,351	-29,448	-0,029	0,012
-114,337	-80,012	0,070	-0,017
-113,322	61,805	-0,077	-0,054
-112,307	-200,000	0,020	0,159
-111,293	545,695	-0,052	0,089
-110,278	23,765	0,038	0,022
-109,264	569,737	0,019	-0,032
-108,249	-200,000	-0,010	0,053
-107,234	-200,000	-0,026	0,092
-106,220	180,235	-0,071	0,074
-105,205	-130,777	0,116	-0,011
-104,191	487,390	-0,053	0,087
-103,176	-11,996	0,083	-0,039
-102,162	244,181	0,011	0,013
-101,147	138,617	-0,033	-0,031
-100,132	-48,692	-0,093	0,032
-99,118	53,180	0,110	-0,075
-98,103	-200,000	-0,007	0,106
-97,089	-1,908	-0,076	-0,038
-96,074	-63,302	0,159	-0,046
-95,059	33,185	-0,069	-0,042
-94,045	-200,000	0,034	-0,128
-93,030	-200,000	-0,017	-0,087
-92,016	-200,000	-0,001	0,017
-91,001	800,000	0,042	-0,097
-89,986	-174,481	-0,066	-0,001
-88,972	-200,000	0,048	0,226
-87,957	3,711	0,172	0,089
-86,943	62,844	-0,065	0,046
-85,928	50,611	0,053	-0,036
-84,913	-81,699	-0,173	-0,040
-83,899	-200,000	0,023	0,189
-82,884	55,762	-0,121	0,083
-81,870	25,948	0,105	0,062
-80,855	-200,000	-0,004	0,071
-79,840	-200,000	0,007	-0,047
-78,826	-139,534	-0,091	-0,007
-77,811	-108,338	-0,074	-0,011
-76,797	-121,185	0,161	-0,019
-75,782	423,798	-0,022	0,034
-74,767	-200,000	0,018	0,121
-73,753	-15,468	-0,070	0,032
-72,738	-104,792	0,056	0,009
-71,724	687,817	0,037	0,069
-70,709	274,766	-0,027	-0,034
-69,694	800,000	0,066	-0,164
-68,680	157,925	-0,125	-0,123
-67,665	304,481	0,047	0,062
-66,651	449,359	0,089	0,140
-65,636	-132,088	0,069	0,006
-64,622	59,985	-0,057	0,040
-63,607	800,000	-0,014	-0,040
-62,592	-163,982	-0,036	0,001
-61,578	-68,408	-0,092	0,025
-60,563	-200,000	-0,006	-0,060
-59,549	-64,458	-0,130	-0,037
-58,534	-33,257	-1,354	-0,528
-57,519	366,828	-1,559	-2,235
-56,505	-200,000	-0,553	-4,549
-55,490	177,260	0,866	0,894
-54,476	800,000	4,810	11,234
-53,461	-200,000	18,029	285,941
-52,446	800,000	726,715	2222,611
-51,432	553,684	1642,438	2807,790
-50,417	79,386	1664,867	1263,215
-49,403	23,036	1538,682	891,726
-48,388	16,969	1462,035	817,931
-47,373	17,859	1451,795	816,452
-46,359	17,276	1442,427	808,364
-45,344	15,287	1437,650	796,162
-44,330	15,162	1435,622	794,412
-43,315	15,201	1434,108	793,727
-42,300	15,148	1432,487	792,549
-41,286	15,208	1431,231	792,108
-40,271	15,183	1430,038	791,299
-39,257	15,141	1428,912	790,440
-38,242	15,237	1427,405	790,032
-37,227	15,235	1426,093	789,264
-36,213	15,261	1424,878	788,685
-35,198	15,234	1423,765	787,911
-34,184	15,284	1422,736	787,545
-33,169	15,195	1421,650	786,493
-32,154	15,257	1420,612	786,182
-31,140	15,274	1419,238	785,466
-30,125	15,302	1418,010	784,888
-29,111	15,217	1417,194	784,006
-28,096	15,261	1415,716	783,362
-27,082	15,186	1414,766	782,456
-26,067	15,232	1413,498	781,939
-25,052	15,176	1412,805	781,263
-24,038	15,172	1411,516	780,500
-23,023	15,188	1410,467	779,963
-22,009	15,161	1409,580	779,314
-20,994	15,095	1408,915	778,606
-19,979	15,083	1407,879	777,948
-18,965	15,091	1406,728	777,318
-17,950	15,130	1405,734	776,921
-16,936	15,063	1405,104	776,232
-15,921	15,066	1403,884	775,541
-14,906	15,091	1402,729	774,984
-13,892	15,083	1402,048	774,542
-12,877	15,034	1401,188	773,808
-11,863	15,039	1400,219	773,266
-10,848	15,060	1399,172	772,754
-9,833	15,014	1398,451	772,110
-8,819	14,987	1397,568	771,470
-7,804	14,969	1396,587	770,814
-6,790	14,946	1395,463	770,056
-5,775	14,955	1394,408	769,482
-4,760	14,930	1393,601	768,893
-3,746	14,949	1392,896	768,563
-2,731	14,935	1392,099	768,025
-1,717	14,950	1391,087	767,507
-0,702	14,992	1389,081	766,563
0,313	18,765	1308,745	739,701
1,327	35,178	707,402	437,887
2,342	53,715	125,089	84,870
3,356	5,340	16,629	8,653
4,371	13,729	3,084	1,691
5,386	-37,710	0,524	0,196
6,400	-200,000	-0,019	0,135
7,415	-10,483	-0,187	-0,087
8,429	54,777	-0,361	-0,246
9,444	-13,915	-0,333	-0,151
10,459	-85,516	-0,225	-0,049
11,473	107,830	-0,180	-0,152
12,488	82,753	-0,261	-0,201
13,502	2,202	-0,331	-0,168
14,517	41,728	-0,304	-0,195
15,531	24,130	-0,312	-0,182
16,546	106,652	-0,385	-0,323
17,561	11,200	-0,354	-0,191
18,575	118,191	-0,203	0,177
19,590	-40,129	-0,346	-0,127
20,604	10,423	-0,229	-0,123
21,619	54,961	-0,349	-0,238
22,634	140,771	-0,406	-0,379
23,648	95,632	-0,417	-0,336
24,663	85,811	-0,334	-0,260
25,677	37,055	-0,330	-0,206
26,692	51,408	-0,298	-0,200
27,707	86,919	-0,443	-0,345
28,721	67,361	-0,350	-0,252
29,736	99,234	-0,328	-0,268
30,750	154,442	-0,304	-0,295
31,765	20,704	-0,472	-0,269
32,780	53,802	-0,362	-0,245
33,794	78,766	-0,360	-0,272
34,809	135,779	-0,267	-0,245
35,823	277,889	-0,289	-0,364
36,838	113,345	-0,493	-0,422
37,853	116,361	-0,380	-0,328
38,867	227,477	-0,259	-0,298
39,882	217,133	-0,227	-0,256
40,896	97,317	-0,369	-0,299
41,911	48,596	-0,416	-0,275
42,926	160,585	-0,293	-0,289
43,940	68,304	-0,392	-0,283
44,955	92,015	-0,366	-0,291
45,969	59,097	-0,416	-0,288
46,984	38,366	-0,361	-0,226
47,999	233,967	-0,135	-0,157
49,013	108,596	-0,317	-0,267
50,028	-48,794	-0,389	-0,131
51,042	64,873	-0,315	-0,224
52,057	32,126	-0,384	-0,233
53,071	15,832	-0,356	-0,197
54,086	91,119	-0,220	-0,174
55,101	446,269	-0,255	-0,396
56,115	38,963	-0,360	-0,226
57,130	95,171	-0,335	-0,269
58,144	154,007	-0,349	-0,337
59,159	23,449	-0,482	-0,279
60,174	298,355	-0,249	-0,324
61,188	214,134	-0,362	-0,404
62,203	76,330	-0,273	-0,204
63,217	80,250	-0,271	-0,205
64,232	-17,210	-0,448	-0,198
65,247	35,568	-0,439	-0,271
66,261	146,662	-0,369	-0,349
67,276	-12,675	-0,313	-0,143
68,290	81,280	-0,325	-0,247
69,305	-10,215	-0,340	-0,158
70,320	71,972	-0,274	-0,200
71,334	-82,818	-0,294	-0,066
72,349	43,576	-0,377	-0,242
73,363	112,321	-0,391	-0,333
74,378	65,961	-0,352	-0,250
75,393	753,970	-0,163	-0,311
76,407	309,233	-0,261	-0,344
77,422	116,872	-0,166	-0,143
78,436	-4,040	-0,286	-0,139
79,451	108,719	-0,245	-0,206
80,466	134,943	-0,239	-0,218
81,480	17,332	-0,285	-0,159
82,495	101,096	-0,334	-0,273
83,509	30,337	-0,245	-0,147
84,524	251,430	-0,261	-0,313
85,539	-114,491	-0,338	-0,045
86,553	344,003	-0,237	-0,328
87,568	11,014	-0,445	-0,238
88,582	218,001	-0,296	-0,332
89,597	74,592	-0,380	-0,280
90,611	24,923	-0,301	-0,175
91,626	-90,603	-0,400	-0,081
92,641	-82,210	-0,210	-0,048
93,655	-29,525	-0,308	-0,123
94,670	303,950	-0,285	-0,372
95,684	6,302	-0,352	-0,183
96,699	194,238	-0,283	-0,301
97,714	21,562	-0,354	-0,202
98,728	178,557	-0,176	-0,180
99,743	208,189	-0,165	-0,181
100,757	52,882	-0,284	-0,190
101,772	5,521	-0,398	-0,205
102,787	210,222	-0,272	-0,300
103,801	87,015	-0,411	-0,318
104,816	62,992	-0,189	-0,133
105,830	462,333	-0,150	-0,236
106,845	14,165	-0,188	-0,102
107,860	45,498	-0,312	-0,202
108,874	165,443	-0,206	-0,204
109,889	163,322	-0,227	-0,224
110,903	51,010	-0,169	-0,112
111,918	244,554	-0,280	-0,330
112,933	2,849	-0,360	-0,183
113,947	120,904	-0,263	-0,230
114,962	18,084	-0,328	-0,183
115,976	350,599	-0,094	-0,130
116,991	121,219	-0,304	-0,265
118,006	-50,871	-0,421	-0,138
119,020	140,834	-0,225	-0,209
120,035	240,391	-0,168	-0,196
121,049	-125,643	-0,102	-0,011
122,064	-55,389	-0,318	-0,099
123,079	-21,632	-0,302	-0,129
124,093	20,859	-0,349	-0,197
125,108	75,538	-0,280	-0,206
126,122	138,679	-0,240	-0,221
127,137	26,057	-0,275	-0,160
128,151	115,490	-0,213	-0,182
129,166	-75,096	-0,293	-0,073
130,181	410,370	-0,217	-0,324
131,195	-21,911	-0,394	-0,167
132,210	249,607	-0,254	-0,302
133,224	4,630	-0,301	-0,154
134,239	60,644	-0,210	-0,145
135,254	10,711	-0,133	-0,071
136,268	91,795	-0,246	-0,194
137,283	-40,005	-0,295	-0,107
138,297	66,960	-0,302	-0,215
139,312	239,994	-0,222	-0,259
140,327	447,222	-0,140	-0,216
141,341	364,017	-0,167	-0,235
142,356	46,026	-0,180	-0,116
143,370	107,369	-0,271	-0,225
144,385	236,662	-0,239	-0,277
145,400	323,556	-0,174	-0,233
146,414	172,320	-0,237	-0,238
147,429	358,872	-0,268	-0,375
148,443	78,988	-0,232	-0,173
149,458	-139,188	-0,198	0,015
150,473	94,515	-0,186	-0,148
151,487	162,624	-0,207	-0,203
152,502	-78,518	-0,224	-0,053
153,516	43,570	-0,308	-0,196
154,531	444,810	-0,154	-0,236
155,546	-39,477	-0,280	-0,102
156,560	84,475	-0,248	-0,190
157,575	-4,125	-0,322	-0,155
158,589	140,316	-0,239	-0,220
159,604	-25,956	-0,245	-0,100
160,619	320,591	-0,134	-0,179
161,633	17,181	-0,284	-0,157
162,648	105,299	-0,207	-0,170
163,662	14,812	-0,281	-0,153
164,677	94,089	-0,253	-0,200
165,692	-85,875	-0,237	-0,051
166,706	1,765	-0,231	-0,116
167,721	-70,304	-0,311	-0,082
168,735	281,696	-0,188	-0,236
169,750	138,903	-0,155	-0,142
170,764	94,221	-0,317	-0,251
171,779	49,296	-0,158	-0,104
172,794	217,093	-0,193	-0,214
173,808	702,373	-0,116	-0,213
174,823	196,431	-0,201	-0,213
175,837	158,933	-0,233	-0,226
176,852	79,485	-0,116	-0,087
177,867	-75,428	-0,157	-0,039
178,881	-135,996	-0,278	-0,022
179,896	-165,366	-0,273	0,008
180,910	417,335	-0,116	-0,173
181,925	-139,393	-0,330	-0,024
182,940	38,160	-0,222	-0,138
183,954	263,163	-0,194	-0,235
184,969	179,480	-0,192	-0,196
185,983	63,554	-0,159	-0,111
186,998	147,745	-0,210	-0,197
188,013	150,785	-0,190	-0,180
189,027	205,006	-0,283	-0,306
190,042	43,029	-0,414	-0,262
191,056	-67,703	-0,245	-0,066
192,071	-101,067	-0,281	-0,047
193,086	156,250	-0,210	-0,202
194,100	800,000	-0,077	-0,231
195,115	-92,375	-0,321	-0,062
196,129	20,993	-0,161	-0,090
197,144	-106,367	-0,194	-0,030
198,159	109,580	-0,243	-0,202
199,173	-31,501	-0,246	-0,096
200,188	-115,198	-0,211	-0,027
201,202	654,407	-0,142	-0,255
202,217	18,310	-0,263	-0,146
203,232	88,893	-0,229	-0,177
204,246	-75,024	-0,264	-0,065
205,261	536,993	-0,182	-0,302
206,275	492,397	-0,158	-0,253
207,290	-184,982	-0,070	0,001
208,304	623,848	-0,105	-0,185
209,319	19,045	-0,129	-0,072
210,334	798,838	-0,128	-0,246
211,348	290,829	-0,211	-0,268
212,363	111,553	-0,217	-0,182
213,377	58,043	-0,098	-0,066
214,392	-73,537	-0,189	-0,048
215,407	800,000	-0,077	-0,164
216,421	-101,754	-0,271	-0,045
217,436	-107,849	-0,260	0,039
218,450	75,797	-0,064	-0,047
219,465	-24,279	-0,172	-0,071
220,480	-110,702	-0,186	-0,026
221,494	-21,168	-0,141	-0,060
222,509	51,556	-0,101	-0,067
223,523	641,952	-0,155	-0,275
224,538	800,000	-0,060	-0,129
225,553	433,096	-0,179	-0,271
226,567	22,012	-0,275	-0,155
227,582	-40,467	-0,251	-0,090
228,596	-107,658	-0,267	-0,040
229,611	-200,000	-0,013	-0,113
230,626	-69,167	-0,163	-0,043
231,640	460,925	-0,129	-0,200
232,655	1,863	-0,132	-0,066
233,669	-101,463	-0,172	-0,029
234,684	217,148	-0,196	-0,217
235,699	95,038	-0,215	-0,170
236,713	522,538	-0,180	-0,294
237,728	800,000	-0,039	-0,079
238,742	12,768	-0,149	-0,079
239,757	-2,379	-0,271	-0,131
240,772	-19,481	-0,312	-0,133
241,786	370,212	-0,107	-0,150
242,801	-75,447	-0,130	-0,032
243,815	100,159	-0,163	-0,131
244,830	-58,191	-0,182	-0,055
245,844	92,338	-0,099	-0,077
246,859	-70,727	-0,212	-0,055
247,874	69,716	-0,185	-0,132
248,888	800,000	-0,045	-0,126
249,903	-21,998	-0,135	-0,057
250,917	121,813	-0,117	-0,101
251,932	186,065	-0,181	-0,186
252,947	-162,525	-0,161	-0,005
253,961	-29,924	-0,185	-0,073
254,976	-49,552	-0,310	-0,102
255,990	-200,000	-0,051	-0,307
257,005	800,000	-0,055	-0,130
258,020	209,937	-0,172	-0,187
259,034	-103,952	-0,247	-0,040
260,049	73,983	-0,255	-0,185
261,063	497,368	-0,145	-0,231
262,078	117,057	-0,145	-0,123
263,093	78,340	-0,173	-0,128
264,107	324,577	-0,168	-0,222
265,122	-135,127	-0,194	-0,016
266,136	710,905	-0,100	-0,184
267,151	23,142	-0,134	-0,076
268,166	53,076	-0,062	-0,041
269,180	360,668	-0,182	-0,253
270,195	360,933	-0,174	-0,242
271,209	47,290	-0,241	-0,155
272,224	-200,000	-0,024	-0,156
273,239	87,939	-0,176	-0,135
274,253	43,863	-0,182	-0,115
275,268	-11,562	-0,360	-0,163
276,282	147,929	-0,183	-0,171
277,297	198,786	-0,139	-0,147
278,312	800,000	-0,090	-0,222
279,326	225,623	-0,112	-0,125
280,341	-60,932	-0,257	-0,075
281,355	300,483	-0,095	-0,121
282,370	-64,703	-0,167	-0,047
283,384	-73,622	-0,205	-0,051
284,399	-77,928	-0,221	-0,052
285,414	62,415	-0,177	-0,122
286,428	-63,757	-0,113	-0,032
287,443	126,031	-0,174	-0,151
288,457	-61,079	-0,042	-0,012
289,472	-25,938	-0,195	-0,079
290,487	-59,566	-0,301	-0,088
291,501	38,492	-0,132	-0,081
292,516	335,004	-0,213	-0,285
293,530	543,260	-0,098	-0,162
294,545	309,220	-0,066	-0,085
295,560	-190,012	-0,199	0,001
296,574	-14,168	-0,122	-0,054
297,589	251,899	-0,133	-0,156
298,603	-125,221	-0,250	-0,026
299,618	12,721	-0,295	-0,157
300,633	800,000	-0,080	-0,168
301,647	30,248	-0,128	-0,075
302,662	-168,171	-0,086	0,002
303,676	-43,082	-0,146	-0,051
304,691	319,720	-0,163	-0,213
305,706	505,018	-0,122	-0,196
306,720	114,064	-0,111	-0,093
307,735	-92,849	-0,255	-0,049
308,749	141,769	-0,169	-0,154
309,764	-66,544	-0,088	-0,024
310,779	71,671	-0,202	0,144
311,793	-73,150	-0,155	0,039
312,808	94,215	-0,166	-0,130
313,822	604,229	-0,073	-0,125
314,837	107,220	-0,248	-0,203
315,852	-151,629	-0,039	-0,002
316,866	-200,000	0,005	-0,170
317,881	503,343	-0,059	-0,095
318,895	35,405	-0,203	-0,122
319,910	149,958	-0,133	-0,124
320,925	413,215	-0,100	-0,147
321,939	800,000	-0,097	-0,240
322,954	284,443	-0,119	-0,148
323,968	1,140	-0,117	-0,058
324,983	172,619	-0,145	-0,144
325,997	-77,707	-0,232	-0,055
327,012	-120,697	-0,149	-0,017
328,027	800,000	-0,121	-0,307
329,041	-164,875	-0,146	0,004
330,056	227,897	-0,068	-0,076
331,070	-9,103	-0,102	-0,047
332,085	-50,843	-0,117	-0,038
333,100	-99,751	-0,063	-0,011
334,114	152,905	-0,164	-0,154
335,129	74,917	-0,216	-0,156
336,143	-123,815	-0,138	0,015
337,158	-31,655	-0,197	-0,076
338,173	-77,379	-0,129	0,031
339,187	355,409	-0,153	-0,210
340,202	-195,688	-0,115	-0,001
341,216	-34,337	-0,262	-0,098
342,231	15,890	-0,212	-0,114
343,246	-154,195	-0,121	0,005
344,260	157,192	-0,138	-0,131
345,275	661,919	-0,072	-0,129
346,289	396,774	-0,034	-0,049
347,304	-37,487	-0,221	-0,081
348,319	114,086	-0,207	-0,172
349,333	415,670	-0,152	-0,224
350,348	396,463	-0,116	-0,167
351,362	62,743	-0,265	-0,182
352,377	-16,900	-0,155	0,067
353,392	134,333	-0,089	-0,079
354,406	206,969	-0,108	-0,115
355,421	207,525	1318,557	1413,769
356,435	159,643	1479,761	1414,277
