DTS Sentinel unit serial number:	SN410029Multiplexer serial number:	ORYXHardware model number:	OX2-SRSoftware version number:	ORYX F/W v4,00 Oryx Data Collector v3.7.2.0data status	okinstallation	B3 Nyhavnadifferential loss correction	single-endedforward channel	channel 1reverse channel	N/Adate	2023/11/30time	19:12:30forward acquisition time	300,00reverse acquisition time	0,00gamma	499,1914k internal	0,3205k external	0,3205temperature offset calibration	1,0000default loss term (dB/km)	0,3820temperature slope calibration	1,0000multiplexer offset coefficient	1,0000multiplexer slope coefficient	1,0000fibre end	0,00T internal ref (°C)	12,17T ext. ref 1 (°C)	-3,07T ext. ref 2 (°C)	-3,20length (m)	temperature (°C)	Stokes	anti-Stokes-744,400	800,000	-0,092	-0,254
-743,385	800,000	-0,164	0,406
-742,371	-200,000	-0,049	-0,278
-741,356	-200,000	0,085	0,330
-740,342	-50,223	-0,165	-0,056
-739,327	-200,000	0,044	0,328
-738,312	94,380	-0,283	-0,233
-737,298	800,000	-0,068	0,140
-736,283	22,874	-0,205	-0,122
-735,269	800,000	0,181	0,425
-734,254	69,371	-0,177	-0,132
-733,239	-188,120	-0,390	0,004
-732,225	603,814	-0,178	-0,323
-731,210	800,000	0,075	0,187
-730,196	800,000	0,010	0,028
-729,181	-58,674	-0,024	0,008
-728,167	800,000	-0,034	-0,087
-727,152	-83,434	-0,098	-0,022
-726,137	760,708	-0,040	-0,079
-725,123	17,568	0,105	0,060
-724,108	-64,044	-0,099	0,029
-723,094	453,501	-0,104	-0,168
-722,079	-38,410	-0,131	-0,050
-721,064	-200,000	-0,007	0,070
-720,050	-60,963	0,147	-0,045
-719,035	800,000	0,022	0,061
-718,021	-200,000	0,012	0,073
-717,006	-200,000	0,008	-0,113
-715,991	155,504	-0,051	-0,051
-714,977	-200,000	0,007	-0,028
-713,962	16,863	0,019	-0,011
-712,948	583,919	-0,031	-0,055
-711,933	75,273	-0,093	0,071
-710,918	-148,973	-0,059	-0,003
-709,904	-61,957	-0,136	-0,041
-708,889	-49,716	-0,101	-0,035
-707,875	111,636	-0,120	-0,105
-706,860	-192,577	0,105	-0,001
-705,845	120,061	0,068	0,061
-704,831	-88,823	0,025	0,005
-703,816	-200,000	0,002	0,050
-702,802	-91,727	-0,130	0,027
-701,787	-200,000	0,023	-0,113
-700,772	-200,000	0,017	-0,148
-699,758	-200,000	-0,023	-0,078
-698,743	675,755	0,022	0,042
-697,729	275,328	0,101	0,130
-696,714	-200,000	-0,022	-0,173
-695,699	-163,754	-0,187	0,006
-694,685	-52,462	0,078	-0,026
-693,670	-4,473	-0,078	-0,039
-692,656	526,170	0,068	-0,116
-691,641	-18,514	0,047	-0,021
-690,627	46,495	0,062	0,041
-689,612	-200,000	-0,028	0,101
-688,597	-45,400	-0,037	-0,013
-687,583	89,487	-0,187	-0,151
-686,568	-29,336	-0,042	0,017
-685,554	-200,000	-0,010	-0,111
-684,539	91,846	0,077	0,063
-683,524	-200,000	0,007	-0,048
-682,510	438,063	-0,033	-0,052
-681,495	292,726	0,049	-0,065
-680,481	-169,324	0,059	-0,002
-679,466	36,136	-0,105	-0,067
-678,451	-200,000	-0,003	-0,024
-677,437	85,083	-0,077	-0,061
-676,422	357,671	0,049	-0,070
-675,408	442,196	0,098	0,156
-674,393	123,906	-0,039	-0,036
-673,378	206,690	-0,119	-0,135
-672,364	-200,000	0,022	-0,104
-671,349	-174,847	0,032	0,001
-670,335	228,529	-0,033	-0,039
-669,320	-200,000	0,033	0,134
-668,305	73,958	-0,064	-0,049
-667,291	800,000	-0,022	0,049
-666,276	-134,892	-0,075	-0,007
-665,262	-47,635	0,064	-0,022
-664,247	-200,000	0,007	-0,071
-663,232	14,273	0,025	0,014
-662,218	-200,000	-0,001	0,033
-661,203	-200,000	-0,028	0,168
-660,189	800,000	-0,057	0,131
-659,174	-2,719	-0,116	-0,058
-658,159	-3,346	-0,102	-0,051
-657,145	333,825	-0,044	0,062
-656,130	-200,000	-0,010	-0,048
-655,116	155,246	-0,043	0,043
-654,101	26,542	0,071	-0,043
-653,086	272,362	0,005	-0,007
-652,072	-80,324	-0,169	-0,041
-651,057	-200,000	-0,035	-0,125
-650,043	-93,994	-0,045	-0,009
-649,028	142,155	0,043	0,042
-648,014	97,827	-0,116	0,096
-646,999	-200,000	-0,068	0,233
-645,984	202,153	0,039	-0,043
-644,970	800,000	0,057	-0,157
-643,955	68,909	-0,112	-0,083
-642,941	-1,152	-0,133	-0,068
-641,926	-105,836	-0,133	0,022
-640,911	208,777	0,037	-0,042
-639,897	-80,132	0,022	-0,005
-638,882	405,713	0,014	-0,021
-637,868	522,717	0,110	-0,188
-636,853	-200,000	-0,012	-0,113
-635,838	50,704	-0,038	0,026
-634,824	438,192	0,049	-0,077
-633,809	164,886	0,012	-0,012
-632,795	800,000	-0,048	0,102
-631,780	-132,302	0,174	-0,016
-630,765	-69,817	-0,056	0,015
-629,751	-4,864	0,103	-0,051
-628,736	-46,111	0,022	-0,008
-627,722	-36,379	-0,066	-0,025
-626,707	86,707	0,045	0,036
-625,692	35,939	0,057	0,036
-624,678	319,522	0,012	0,016
-623,663	239,029	0,051	0,062
-622,649	-26,524	0,027	0,011
-621,634	-111,066	-0,134	0,020
-620,619	-200,000	-0,034	-0,129
-619,605	-59,798	0,109	-0,033
-618,590	782,361	0,061	-0,122
-617,576	800,000	-0,077	0,174
-616,561	-56,195	0,069	0,022
-615,546	-129,758	-0,033	-0,003
-614,532	-200,000	-0,003	-0,019
-613,517	5,634	-0,093	-0,049
-612,503	-200,000	0,007	-0,134
-611,488	800,000	0,054	-0,112
-610,474	800,000	-0,008	-0,017
-609,459	-56,858	-0,032	0,010
-608,444	-170,670	-0,017	0,000
-607,430	-200,000	0,009	0,051
-606,415	-145,606	0,049	0,003
-605,401	203,960	0,115	0,128
-604,386	595,167	0,018	0,033
-603,371	305,885	0,016	-0,022
-602,357	-200,000	-0,006	-0,063
-601,342	-200,000	0,009	-0,104
-600,328	800,000	-0,051	-0,137
-599,313	-200,000	-0,018	-0,062
-598,298	346,601	-0,094	-0,134
-597,284	-45,148	0,177	0,063
-596,269	94,746	-0,206	0,169
-595,255	-200,000	-0,027	0,134
-594,240	57,342	-0,084	0,059
-593,225	-200,000	0,017	-0,155
-592,211	800,000	-0,026	-0,075
-591,196	800,000	-0,012	-0,028
-590,182	-3,686	-0,070	-0,035
-589,167	-200,000	0,001	0,061
-588,152	-200,000	-0,045	0,181
-587,138	663,836	0,036	-0,068
-586,123	-85,663	0,042	0,009
-585,109	-200,000	0,011	0,067
-584,094	-120,573	-0,050	0,006
-583,079	92,610	-0,059	0,048
-582,065	-200,000	0,001	0,032
-581,050	-14,131	0,010	0,005
-580,036	-121,718	-0,186	0,022
-579,021	460,678	-0,049	-0,079
-578,006	481,959	0,076	-0,124
-576,992	27,062	0,051	-0,031
-575,977	61,235	0,059	0,042
-574,963	216,768	-0,102	0,117
-573,948	340,245	-0,020	0,028
-572,934	160,008	-0,011	0,011
-571,919	800,000	-0,022	-0,063
-570,904	278,420	-0,104	-0,134
-569,890	-147,061	0,057	0,003
-568,875	800,000	-0,022	0,067
-567,861	-200,000	-0,016	0,067
-566,846	800,000	0,020	0,054
-565,831	101,577	0,059	0,050
-564,817	174,039	-0,023	-0,024
-563,802	-135,006	0,050	0,004
-562,788	174,653	0,069	-0,072
-561,773	313,406	0,094	-0,128
-560,758	714,525	0,055	-0,106
-559,744	2,390	-0,075	-0,039
-558,729	-93,525	0,091	0,018
-557,715	33,676	0,041	-0,026
-556,700	445,354	-0,027	-0,043
-555,685	-71,658	-0,029	0,008
-554,671	488,673	0,008	-0,013
-553,656	800,000	-0,016	-0,046
-552,642	-98,233	0,020	0,004
-551,627	453,486	0,042	-0,067
-550,612	31,488	-0,085	-0,052
-549,598	15,787	0,068	0,038
-548,583	-200,000	0,004	-0,042
-547,569	201,481	0,071	0,079
-546,554	48,871	-0,033	0,022
-545,539	-40,689	-0,096	-0,036
-544,525	-63,600	-0,069	0,020
-543,510	-200,000	0,006	0,095
-542,496	-10,873	-0,020	-0,009
-541,481	800,000	-0,069	-0,201
-540,466	-200,000	-0,000	-0,077
-539,452	-129,833	-0,152	-0,015
-538,437	135,358	0,149	0,139
-537,423	-200,000	0,002	-0,011
-536,408	55,331	0,049	-0,034
-535,393	344,232	-0,070	0,100
-534,379	800,000	0,028	-0,063
-533,364	-200,000	0,002	0,036
-532,350	-60,763	-0,072	-0,022
-531,335	-16,296	0,120	0,055
-530,321	-82,039	0,090	-0,021
-529,306	51,420	-0,033	0,023
-528,291	-45,954	-0,133	-0,047
-527,277	-145,054	-0,095	0,006
-526,262	800,000	0,026	-0,055
-525,248	234,075	0,119	0,142
-524,233	329,475	-0,014	-0,020
-523,218	-200,000	0,002	-0,046
-522,204	75,464	-0,054	0,041
-521,189	800,000	0,022	-0,057
-520,175	663,862	-0,056	0,104
-519,160	338,361	-0,040	0,056
-518,145	-25,928	-0,043	0,018
-517,131	-39,739	0,114	-0,043
-516,116	92,118	0,071	0,058
-515,102	466,554	0,079	0,127
-514,087	268,789	-0,050	-0,064
-513,072	-200,000	0,003	-0,221
-512,058	-27,473	-0,130	-0,054
-511,043	19,715	-0,033	-0,019
-510,029	-35,244	0,052	0,020
-509,014	-63,016	-0,107	-0,032
-507,999	-200,000	-0,009	-0,042
-506,985	-200,000	0,017	-0,133
-505,970	-164,770	-0,215	-0,007
-504,956	-106,892	-0,040	0,006
-503,941	-200,000	-0,008	0,114
-502,926	195,012	0,099	0,109
-501,912	-136,726	-0,065	-0,005
-500,897	77,186	-0,057	-0,043
-499,883	-200,000	-0,020	-0,092
-498,868	755,542	0,056	-0,110
-497,853	-123,205	-0,116	0,013
-496,839	-200,000	-0,005	0,030
-495,824	800,000	-0,043	-0,122
-494,810	-52,141	0,146	0,048
-493,795	800,000	0,013	-0,038
-492,781	-145,854	-0,082	0,005
-491,766	800,000	0,058	-0,163
-490,751	149,211	-0,025	-0,025
-489,737	73,157	-0,119	-0,089
-488,722	-58,262	-0,033	0,010
-487,708	-28,428	-0,014	-0,006
-486,693	-75,466	0,090	0,023
-485,678	111,777	-0,076	0,066
-484,664	696,522	0,039	-0,075
-483,649	-165,578	-0,117	-0,004
-482,635	-200,000	0,009	0,072
-481,620	309,550	-0,027	-0,037
-480,605	-42,528	0,166	0,060
-479,591	-200,000	0,006	-0,094
-478,576	-120,685	-0,053	0,006
-477,562	-18,626	-0,135	0,060
-476,547	378,154	0,006	-0,010
-475,532	71,075	-0,087	0,065
-474,518	800,000	-0,033	-0,078
-473,503	800,000	0,039	0,099
-472,489	-83,370	0,123	0,028
-471,474	236,858	0,097	0,116
-470,459	-200,000	0,019	0,101
-469,445	202,876	-0,052	0,058
-468,430	48,354	-0,067	0,045
-467,416	201,170	0,072	0,080
-466,401	203,402	0,071	0,079
-465,386	800,000	-0,073	0,173
-464,372	338,274	-0,018	0,025
-463,357	-41,676	0,085	-0,031
-462,343	60,743	-0,144	-0,103
-461,328	-100,365	-0,050	-0,009
-460,313	219,771	0,007	0,008
-459,299	54,656	-0,050	-0,035
-458,284	98,151	0,113	0,093
-457,270	158,557	-0,067	0,067
-456,255	-200,000	0,014	-0,056
-455,241	800,000	0,019	0,051
-454,226	800,000	-0,059	-0,138
-453,211	-200,000	-0,006	-0,026
-452,197	-60,489	0,067	-0,020
-451,182	3,286	0,091	0,047
-450,168	90,657	0,075	0,060
-449,153	393,135	0,093	-0,139
-448,138	-5,220	-0,047	-0,023
-447,124	7,163	-0,007	0,004
-446,109	-113,050	-0,056	-0,008
-445,095	-115,353	0,053	0,007
-444,080	800,000	0,038	-0,102
-443,065	-200,000	0,013	-0,126
-442,051	800,000	-0,062	0,181
-441,036	-200,000	0,013	-0,080
-440,022	-200,000	-0,015	-0,071
-439,007	-143,903	0,134	0,009
-437,992	86,283	-0,041	-0,032
-436,978	-108,706	0,095	0,014
-435,963	-200,000	0,006	0,067
-434,949	-131,391	-0,065	0,006
-433,934	512,296	0,081	-0,135
-432,919	-200,000	-0,030	-0,208
-431,905	800,000	0,027	-0,055
-430,890	-90,417	0,140	0,029
-429,876	-102,714	0,045	0,008
-428,861	800,000	-0,006	-0,014
-427,846	800,000	0,029	-0,086
-426,832	11,119	0,041	-0,022
-425,817	20,036	-0,048	-0,028
-424,803	-200,000	0,007	-0,028
-423,788	800,000	0,040	0,113
-422,773	130,515	0,076	0,070
-421,759	-129,854	0,153	-0,015
-420,744	-10,287	0,095	0,045
-419,730	-167,299	-0,095	0,003
-418,715	-90,162	-0,089	-0,019
-417,701	255,702	0,136	-0,167
-416,686	50,874	0,096	-0,065
-415,671	-79,340	0,209	0,050
-414,657	-107,668	-0,011	0,002
-413,642	-5,212	0,068	0,033
-412,628	-3,645	0,107	0,053
-411,613	-79,541	-0,216	-0,052
-410,598	-200,000	-0,012	-0,099
-409,584	-72,464	-0,031	-0,008
-408,569	800,000	0,062	0,125
-407,555	196,382	-0,062	0,068
-406,540	296,775	-0,050	-0,066
-405,525	167,807	-0,035	0,036
-404,511	-200,000	-0,034	-0,147
-403,496	83,594	0,033	-0,026
-402,482	7,455	-0,065	0,035
-401,467	686,754	-0,018	-0,033
-400,452	-157,694	-0,070	-0,003
-399,438	35,859	0,069	0,043
-398,423	-67,832	0,015	0,004
-397,409	-172,892	-0,148	0,003
-396,394	-131,537	-0,042	-0,004
-395,379	-14,727	0,019	-0,009
-394,365	-67,818	0,015	0,004
-393,350	800,000	0,026	0,072
-392,336	-200,000	-0,001	-0,009
-391,321	600,238	-0,058	0,104
-390,306	-200,000	0,014	-0,057
-389,292	33,420	0,053	-0,033
-388,277	-94,260	-0,099	0,019
-387,263	-14,840	0,127	0,058
-386,248	800,000	-0,039	0,103
-385,233	51,864	-0,139	0,094
-384,219	88,741	0,055	-0,044
-383,204	166,079	-0,057	-0,058
-382,190	-32,106	-0,036	-0,015
-381,175	60,323	-0,058	0,041
-380,160	800,000	-0,032	-0,099
-379,146	-161,459	0,126	-0,005
-378,131	-92,005	0,099	0,020
-377,117	211,285	0,062	-0,070
-376,102	-99,654	-0,083	0,015
-375,088	701,564	0,065	-0,122
-374,073	-200,000	-0,020	-0,142
-373,058	3,852	0,106	0,055
-372,044	-200,000	0,043	0,143
-371,029	-4,459	0,093	0,046
-370,015	-86,176	-0,134	0,029
-369,000	5,625	0,050	0,026
-367,985	-106,341	-0,088	0,014
-366,971	-76,842	0,078	-0,019
-365,956	-200,000	-0,014	-0,067
-364,942	204,074	0,090	0,100
-363,927	800,000	-0,079	0,201
-362,912	-200,000	-0,036	-0,128
-361,898	-200,000	0,067	0,278
-360,883	800,000	0,085	0,199
-359,869	164,858	-0,098	0,099
-358,854	55,778	-0,011	0,008
-357,839	-100,268	0,254	0,045
-356,825	800,000	0,061	0,129
-355,810	800,000	0,044	0,110
-354,796	-63,637	-0,175	-0,051
-353,781	800,000	0,006	-0,014
-352,766	213,451	-0,061	-0,069
-351,752	55,864	-0,030	-0,021
-350,737	-200,000	0,002	-0,048
-349,723	-96,608	0,062	0,012
-348,708	-200,000	0,021	-0,082
-347,693	-98,806	-0,086	0,016
-346,679	-200,000	-0,048	-0,173
-345,664	148,393	-0,044	-0,042
-344,650	800,000	0,047	0,107
-343,635	800,000	-0,010	-0,025
-342,620	-17,535	-0,021	0,009
-341,606	-200,000	0,056	0,184
-340,591	-139,322	-0,146	-0,011
-339,577	257,754	-0,018	0,022
-338,562	88,235	-0,064	-0,051
-337,548	-200,000	0,010	-0,083
-336,533	-200,000	-0,026	0,140
-335,518	-200,000	-0,001	-0,003
-334,504	-200,000	0,016	0,095
-333,489	-200,000	-0,009	-0,031
-332,475	-70,821	-0,061	-0,016
-331,460	-200,000	0,020	-0,168
-330,445	-200,000	-0,002	-0,065
-329,431	-16,064	0,079	-0,036
-328,416	7,009	0,090	0,048
-327,402	-99,295	0,071	0,013
-326,387	-200,000	-0,001	0,035
-325,372	-3,454	-0,144	0,071
-324,358	73,381	-0,085	-0,064
-323,343	-200,000	-0,001	-0,087
-322,329	129,100	0,070	0,064
-321,314	-200,000	0,024	0,115
-320,299	-200,000	0,016	-0,072
-319,285	-78,248	-0,044	-0,011
-318,270	99,840	-0,031	-0,026
-317,256	-74,199	-0,129	-0,033
-316,241	262,506	0,041	-0,051
-315,226	295,305	-0,060	0,079
-314,212	-200,000	0,015	-0,092
-313,197	338,737	0,075	0,105
-312,183	281,711	0,075	-0,097
-311,168	62,497	-0,104	0,074
-310,153	301,748	-0,130	-0,172
-309,139	-200,000	-0,024	-0,136
-308,124	84,437	-0,044	0,034
-307,110	-137,684	0,096	-0,008
-306,095	121,052	0,074	0,066
-305,080	-80,239	0,058	-0,014
-304,066	0,228	-0,102	0,052
-303,051	-22,330	0,094	-0,040
-302,037	-200,000	-0,060	-0,204
-301,022	-66,314	0,071	-0,020
-300,008	220,427	0,098	0,113
-298,993	26,033	0,069	0,041
-297,978	77,274	-0,018	-0,014
-296,964	-28,162	0,082	-0,034
-295,949	234,265	-0,061	-0,071
-294,935	-200,000	0,011	-0,048
-293,920	294,405	0,023	-0,030
-292,905	74,541	0,029	0,022
-291,891	800,000	0,028	0,061
-290,876	-200,000	0,027	0,139
-289,862	-163,335	0,109	0,004
-288,847	-27,579	-0,042	-0,017
-287,832	-200,000	0,038	0,186
-286,818	588,120	-0,049	-0,086
-285,803	338,870	0,081	-0,113
-284,789	1,476	0,133	0,068
-283,774	115,416	-0,087	0,076
-282,759	320,752	-0,049	0,066
-281,745	-102,308	-0,159	-0,027
-280,730	572,634	0,043	0,074
-279,716	352,161	0,081	0,114
-278,701	-200,000	0,006	-0,026
-277,686	-200,000	-0,019	0,096
-276,672	308,652	0,021	0,028
-275,657	213,035	0,078	-0,088
-274,643	-200,000	0,006	-0,030
-273,628	111,818	-0,071	-0,061
-272,613	538,552	0,125	0,212
-271,599	-138,023	0,078	0,006
-270,584	567,474	0,069	-0,120
-269,570	-111,935	0,101	0,014
-268,555	184,259	0,054	-0,057
-267,540	191,703	0,143	0,154
-266,526	421,501	-0,061	-0,093
-265,511	-70,867	0,120	-0,032
-264,497	44,050	0,161	-0,105
-263,482	112,750	-0,084	-0,072
-262,467	800,000	0,035	-0,090
-261,453	-141,628	0,112	-0,008
-260,438	800,000	0,030	-0,073
-259,424	250,664	-0,105	-0,128
-258,409	-200,000	0,004	0,023
-257,395	675,211	0,033	0,062
-256,380	-200,000	-0,013	0,059
-255,365	-94,385	0,085	0,016
-254,351	800,000	-0,033	-0,078
-253,336	117,897	-0,065	-0,057
-252,322	-7,245	-0,148	-0,071
-251,307	81,368	0,061	-0,047
-250,292	-88,100	0,105	-0,022
-249,278	11,195	-0,076	0,041
-248,263	-87,733	0,185	-0,039
-247,249	708,943	0,045	0,084
-246,234	662,040	-0,061	0,112
-245,219	-148,157	-0,082	0,005
-244,205	138,289	-0,092	-0,086
-243,190	-200,000	-0,012	-0,077
-242,176	800,000	0,029	0,059
-241,161	181,905	0,066	-0,069
-240,146	128,582	-0,074	-0,068
-239,132	-114,022	-0,109	0,015
-238,117	-200,000	-0,006	0,052
-237,103	-126,110	-0,043	0,005
-236,088	800,000	0,010	0,022
-235,073	103,286	0,091	-0,076
-234,059	-200,000	0,003	0,077
-233,044	800,000	0,067	0,139
-232,030	800,000	-0,045	0,098
-231,015	41,661	-0,104	-0,067
-230,000	-98,140	-0,098	-0,018
-228,986	28,371	-0,064	-0,038
-227,971	-200,000	-0,018	-0,081
-226,957	47,778	0,053	0,035
-225,942	-200,000	0,022	0,108
-224,927	397,104	-0,066	-0,098
-223,913	-140,117	-0,152	0,011
-222,898	153,682	-0,037	0,036
-221,884	-40,841	0,185	-0,068
-220,869	-22,742	-0,040	0,017
-219,855	-200,000	0,038	0,164
-218,840	-9,271	0,061	-0,029
-217,825	236,676	0,026	0,030
-216,811	41,336	-0,012	-0,008
-215,796	-200,000	0,021	-0,069
-214,782	686,959	0,019	-0,036
-213,767	316,199	0,025	-0,033
-212,752	800,000	0,028	0,068
-211,738	-11,605	0,100	-0,046
-210,723	76,768	0,046	-0,035
-209,709	-200,000	-0,011	-0,043
-208,694	122,354	-0,035	0,031
-207,679	28,660	-0,080	-0,048
-206,665	376,407	0,007	-0,011
-205,650	85,364	-0,018	0,014
-204,636	14,289	-0,098	0,054
-203,621	-200,000	-0,005	0,076
-202,606	769,258	-0,066	0,128
-201,592	-22,964	-0,069	0,030
-200,577	37,096	0,052	-0,032
-199,563	-51,447	0,084	-0,028
-198,548	-149,160	-0,141	0,008
-197,533	800,000	0,026	0,065
-196,519	58,352	-0,129	0,090
-195,504	-38,854	0,053	0,020
-194,490	52,756	-0,100	-0,068
-193,475	800,000	0,027	-0,058
-192,460	-19,067	0,082	-0,036
-191,446	-78,293	0,137	-0,033
-190,431	135,033	0,079	0,073
-189,417	-122,011	-0,106	-0,012
-188,402	-33,827	0,076	0,030
-187,387	766,500	-0,017	0,034
-186,373	800,000	-0,036	-0,075
-185,358	-200,000	0,012	0,147
-184,344	-93,619	0,108	-0,021
-183,329	-200,000	-0,008	-0,045
-182,315	207,617	-0,115	0,127
-181,300	-200,000	-0,015	-0,078
-180,285	796,860	-0,022	0,043
-179,271	-200,000	0,025	-0,103
-178,256	-81,994	0,092	-0,021
-177,242	800,000	-0,069	0,148
-176,227	-200,000	-0,012	0,193
-175,212	80,086	0,031	-0,024
-174,198	-1,238	-0,175	0,087
-173,183	241,498	-0,025	0,030
-172,169	-69,248	-0,088	-0,024
-171,154	-39,614	-0,064	-0,024
-170,139	-200,000	-0,002	0,187
-169,125	355,845	-0,018	0,026
-168,110	800,000	0,010	-0,029
-167,096	-114,052	-0,037	0,005
-166,081	16,855	0,050	0,028
-165,066	-62,306	-0,140	-0,041
-164,052	138,849	-0,140	-0,130
-163,037	8,190	-0,052	-0,028
-162,023	46,489	0,063	0,041
-161,008	-200,000	0,030	0,204
-159,993	88,021	-0,096	0,076
-158,979	-35,884	0,026	0,010
-157,964	-69,073	-0,073	0,020
-156,950	-106,329	0,133	-0,021
-155,935	800,000	0,035	0,096
-154,920	-200,000	0,010	0,051
-153,906	800,000	0,021	0,060
-152,891	667,829	-0,007	-0,012
-151,877	800,000	0,045	-0,100
-150,862	427,777	-0,026	-0,039
-149,847	121,544	0,066	0,059
-148,833	425,336	-0,035	0,053
-147,818	-20,363	0,140	0,061
-146,804	-200,000	-0,002	0,112
-145,789	-200,000	0,002	0,183
-144,775	450,752	0,088	0,139
-143,760	-200,000	0,009	0,083
-142,745	5,488	0,110	0,058
-141,731	800,000	0,093	0,218
-140,716	-85,319	0,032	-0,007
-139,702	216,653	0,044	0,050
-138,687	-200,000	-0,001	0,027
-137,672	-200,000	-0,006	0,047
-136,658	-28,571	-0,209	-0,085
-135,643	-151,108	-0,181	0,009
-134,629	-200,000	-0,032	-0,120
-133,614	85,397	0,056	0,044
-132,599	-200,000	0,011	0,095
-131,585	-200,000	-0,029	0,095
-130,570	-92,520	-0,062	-0,012
-129,556	-200,000	0,001	-0,051
-128,541	337,075	0,030	0,041
-127,526	140,884	0,148	-0,139
-126,512	-200,000	-0,008	0,124
-125,497	444,759	-0,044	0,068
-124,483	800,000	0,055	-0,148
-123,468	-48,569	-0,098	0,033
-122,453	800,000	-0,043	0,120
-121,439	-200,000	0,004	0,025
-120,424	-200,000	-0,005	-0,033
-119,410	709,617	0,089	0,168
-118,395	260,550	-0,050	0,061
-117,380	-200,000	0,000	0,086
-116,366	-136,315	0,127	0,010
-115,351	-105,675	-0,050	0,008
-114,337	800,000	-0,080	-0,173
-113,322	-45,098	-0,202	0,071
-112,307	-200,000	0,001	-0,096
-111,293	125,190	-0,034	-0,030
-110,278	88,669	-0,036	-0,029
-109,264	387,055	0,113	0,166
-108,249	-200,000	-0,002	-0,026
-107,234	-97,460	-0,136	-0,025
-106,220	-85,228	-0,128	-0,028
-105,205	10,000	-0,049	-0,026
-104,191	463,291	0,076	0,121
-103,176	-200,000	0,036	0,165
-102,162	3,631	0,063	-0,033
-101,147	493,732	-0,044	0,072
-100,132	562,415	-0,056	-0,096
-99,118	-200,000	0,009	-0,029
-98,103	312,146	-0,111	0,148
-97,089	22,338	0,116	0,067
-96,074	44,312	0,192	-0,125
-95,059	-200,000	-0,019	-0,105
-94,045	105,579	0,047	-0,040
-93,030	-200,000	-0,142	0,000
-92,016	127,530	-0,067	-0,061
-91,001	800,000	-0,070	-0,153
-89,986	-200,000	0,021	0,115
-88,972	-200,000	0,005	0,153
-87,957	-200,000	0,017	0,073
-86,943	-200,000	-0,001	0,061
-85,928	-98,778	-0,078	-0,014
-84,913	-200,000	0,012	0,064
-83,899	-200,000	-0,013	0,108
-82,884	-96,662	0,074	-0,014
-81,870	-200,000	0,017	0,077
-80,855	87,565	-0,127	0,100
-79,840	-153,018	0,112	0,005
-78,826	-200,000	0,027	0,118
-77,811	-43,043	-0,037	0,013
-76,797	166,887	-0,037	0,037
-75,782	-200,000	0,007	-0,097
-74,767	800,000	0,029	0,077
-73,753	800,000	-0,049	-0,114
-72,738	13,421	-0,095	0,052
-71,724	17,398	0,060	-0,033
-70,709	12,755	-0,048	-0,026
-69,694	-103,767	-0,126	-0,021
-68,680	-200,000	0,040	0,171
-67,665	-65,231	-0,021	-0,006
-66,651	-88,345	-0,090	0,019
-65,636	306,053	0,050	0,066
-64,622	-50,571	-0,112	0,037
-63,607	590,601	-0,083	-0,145
-62,592	-200,000	-0,009	-0,082
-61,578	111,829	0,098	0,084
-60,563	-95,700	0,161	-0,030
-59,549	-200,000	0,016	0,120
-58,534	25,026	-1,847	-1,081
-57,519	578,663	-1,276	-2,218
-56,505	-200,000	-0,407	-4,368
-55,490	229,853	0,897	1,038
-54,476	800,000	5,106	11,422
-53,461	-200,000	20,254	328,520
-52,446	800,000	750,743	2318,635
-51,432	551,473	1659,902	2828,184
-50,417	75,156	1668,222	1242,036
-49,403	19,979	1541,023	876,011
-48,388	14,018	1463,227	802,864
-47,373	18,758	1453,803	820,502
-46,359	16,628	1442,944	804,169
-45,344	12,308	1438,404	780,979
-44,330	12,202	1436,746	779,540
-43,315	12,188	1434,989	778,490
-42,300	12,223	1433,347	777,735
-41,286	12,224	1432,175	777,073
-40,271	12,213	1430,781	776,234
-39,257	12,221	1429,451	775,519
-38,242	12,255	1428,130	774,933
-37,227	12,248	1427,045	774,279
-36,213	12,261	1425,667	773,562
-35,198	12,222	1424,586	772,759
-34,184	12,256	1423,756	772,440
-33,169	12,260	1422,280	771,627
-32,154	12,293	1421,049	771,085
-31,140	12,259	1419,964	770,304
-30,125	12,305	1418,718	769,816
-29,111	12,288	1417,764	769,185
-28,096	12,231	1416,662	768,289
-27,082	12,183	1415,498	767,403
-26,067	12,210	1414,478	766,947
-25,052	12,256	1413,479	766,591
-24,038	12,199	1412,260	765,631
-23,023	12,248	1411,325	765,322
-22,009	12,189	1410,352	764,489
-20,994	12,179	1409,311	763,848
-19,979	12,170	1408,655	763,420
-18,965	12,124	1407,713	762,664
-17,950	12,169	1406,811	762,353
-16,936	12,153	1405,824	761,717
-15,921	12,084	1404,822	760,822
-14,906	12,130	1403,773	760,436
-13,892	12,123	1402,996	759,952
-12,877	12,111	1402,161	759,415
-11,863	12,101	1401,134	758,783
-10,848	12,059	1400,217	758,058
-9,833	12,009	1399,445	757,378
-8,819	11,972	1398,852	756,854
-7,804	12,030	1397,687	756,465
-6,790	12,034	1396,494	755,809
-5,775	12,045	1395,497	755,287
-4,760	11,997	1394,698	754,602
-3,746	11,991	1393,862	754,094
-2,731	12,014	1392,827	753,611
-1,717	11,982	1392,221	753,105
-0,702	11,948	1390,361	751,910
0,313	15,807	1305,638	723,894
1,327	31,823	698,251	423,863
2,342	48,978	121,839	80,689
3,356	1,781	16,626	8,438
4,371	6,822	3,394	1,780
5,386	-60,001	0,603	0,181
6,400	-200,000	0,075	0,291
7,415	800,000	-0,102	-0,302
8,429	119,857	-0,297	-0,260
9,444	89,809	-0,330	-0,260
10,459	19,553	-0,266	-0,151
11,473	3,231	-0,260	-0,133
12,488	306,417	-0,151	-0,199
13,502	-73,286	-0,403	-0,103
14,517	5,281	-0,270	-0,140
15,531	177,981	-0,259	-0,267
16,546	92,460	-0,262	-0,209
17,561	42,653	-0,285	-0,183
18,575	-88,063	-0,310	-0,065
19,590	416,818	-0,159	-0,241
20,604	-41,422	-0,422	-0,152
21,619	103,376	-0,421	-0,348
22,634	83,766	-0,441	-0,339
23,648	70,316	-0,515	-0,375
24,663	46,975	-0,446	-0,292
25,677	-81,112	-0,408	-0,094
26,692	3,464	-0,394	-0,202
27,707	94,759	-0,296	-0,237
28,721	206,553	-0,361	-0,397
29,736	274,098	-0,243	-0,303
30,750	111,306	-0,297	-0,253
31,765	18,670	-0,466	-0,262
32,780	186,219	-0,263	-0,276
33,794	-69,198	-0,320	-0,086
34,809	-101,593	-0,379	-0,064
35,823	4,522	-0,371	-0,191
36,838	127,762	-0,315	-0,282
37,853	-65,751	-0,436	-0,122
38,867	5,094	-0,446	-0,231
39,882	64,557	-0,415	-0,294
40,896	26,550	-0,372	-0,218
41,911	45,985	-0,390	-0,254
42,926	-4,436	-0,331	-0,161
43,940	5,778	-0,489	-0,254
44,955	235,134	-0,274	-0,319
45,969	53,137	-0,346	-0,233
46,984	137,926	-0,264	-0,243
47,999	45,213	-0,382	-0,247
49,013	33,622	-0,331	-0,202
50,028	-15,194	-0,364	-0,163
51,042	65,430	-0,334	-0,237
52,057	237,355	-0,232	-0,270
53,071	280,082	-0,337	-0,425
54,086	299,695	-0,202	-0,262
55,101	28,512	-0,370	-0,220
56,115	-11,356	-0,388	-0,179
57,130	54,792	-0,517	-0,350
58,144	99,134	-0,341	-0,277
59,159	25,176	-0,377	-0,219
60,174	140,400	-0,319	-0,296
61,188	163,978	-0,252	-0,249
62,203	87,433	-0,311	-0,242
63,217	-7,874	-0,405	-0,192
64,232	-60,853	-0,396	-0,117
65,247	53,563	-0,468	-0,315
66,261	218,777	-0,334	-0,376
67,276	275,537	-0,300	-0,375
68,290	-36,606	-0,318	-0,120
69,305	158,583	-0,322	-0,314
70,320	38,287	-0,283	-0,176
71,334	95,995	-0,308	-0,247
72,349	32,294	-0,363	-0,219
73,363	78,432	-0,221	-0,165
74,378	-13,703	-0,416	-0,188
75,393	77,879	-0,218	-0,163
76,407	800,000	-0,150	-0,303
77,422	11,050	-0,189	-0,101
78,436	-48,123	-0,263	-0,089
79,451	-114,155	-0,427	-0,057
80,466	-63,578	-0,428	-0,122
81,480	-37,993	-0,331	-0,123
82,495	95,394	-0,283	-0,227
83,509	90,338	-0,282	-0,221
84,524	188,511	-0,221	-0,232
85,539	324,613	-0,231	-0,310
86,553	-95,683	-0,370	-0,069
87,568	63,308	-0,293	-0,205
88,582	160,970	-0,252	-0,247
89,597	112,329	-0,269	-0,228
90,611	-18,327	-0,327	-0,143
91,626	-112,598	-0,190	-0,026
92,641	28,168	-0,259	-0,153
93,655	-27,227	-0,304	-0,124
94,670	208,239	-0,200	-0,219
95,684	61,046	-0,261	-0,181
96,699	141,306	-0,336	-0,312
97,714	70,247	-0,246	-0,178
98,728	175,459	-0,174	-0,176
99,743	-98,025	-0,314	-0,056
100,757	596,736	-0,151	-0,264
101,772	-13,748	-0,354	-0,160
102,787	-68,074	-0,493	-0,134
103,801	598,771	-0,135	-0,235
104,816	14,226	-0,357	-0,195
105,830	-20,281	-0,255	-0,110
106,845	292,653	-0,144	-0,184
107,860	-42,915	-0,331	-0,117
108,874	49,329	-0,299	-0,196
109,889	146,570	-0,236	-0,222
110,903	60,875	-0,241	-0,167
111,918	-64,624	-0,296	-0,083
112,933	114,687	-0,297	-0,253
113,947	800,000	-0,143	-0,280
114,962	-56,004	-0,180	-0,056
115,976	105,310	-0,212	-0,175
116,991	80,858	-0,334	-0,252
118,006	186,976	-0,253	-0,264
119,020	-77,611	-0,359	-0,086
120,035	218,477	-0,150	-0,168
121,049	340,897	-0,100	-0,136
122,064	37,166	-0,221	-0,136
123,079	-17,729	-0,269	-0,118
124,093	-17,384	-0,294	-0,129
125,108	79,142	-0,243	-0,181
126,122	223,113	-0,170	-0,192
127,137	-139,679	-0,319	-0,023
128,151	-24,166	-0,252	-0,105
129,166	82,253	-0,181	-0,137
130,181	-36,407	-0,306	-0,115
131,195	-86,586	-0,151	-0,032
132,210	-47,822	-0,345	-0,116
133,224	128,379	-0,229	-0,203
134,239	800,000	-0,074	-0,173
135,254	-62,068	-0,162	-0,047
136,268	-25,388	-0,275	-0,113
137,283	155,058	-0,262	-0,252
138,297	103,392	-0,214	-0,175
139,312	800,000	-0,098	-0,235
140,327	-136,351	-0,213	0,017
141,341	-105,925	-0,167	-0,026
142,356	110,079	-0,143	-0,120
143,370	643,383	-0,161	-0,288
144,385	122,964	-0,150	-0,131
145,400	121,553	-0,180	-0,157
146,414	98,049	-0,310	-0,249
147,429	172,861	-0,256	-0,257
148,443	145,816	-0,276	-0,258
149,458	106,753	-0,180	-0,149
150,473	-37,721	-0,316	-0,117
151,487	106,361	-0,315	-0,260
152,502	77,710	-0,260	-0,193
153,516	169,397	-0,247	-0,246
154,531	202,688	-0,280	-0,302
155,546	99,395	-0,196	-0,158
156,560	194,225	-0,240	-0,254
157,575	107,814	-0,201	-0,167
158,589	800,000	-0,086	-0,215
159,604	127,103	-0,276	-0,244
160,619	114,224	-0,184	-0,156
161,633	65,049	-0,307	-0,215
162,648	162,877	-0,162	-0,159
163,662	-159,739	-0,251	0,009
164,677	-71,623	-0,077	-0,020
165,692	114,938	-0,181	-0,154
166,706	-135,449	-0,273	-0,022
167,721	32,319	-0,312	-0,187
168,735	93,016	-0,184	-0,144
169,750	-55,351	-0,248	-0,077
170,764	-18,556	-0,221	-0,096
171,779	-18,722	-0,241	-0,104
172,794	-42,089	-0,208	-0,074
173,808	247,546	-0,192	-0,226
174,823	-121,039	-0,359	-0,041
175,837	227,679	-0,149	-0,168
176,852	202,163	-0,135	-0,145
177,867	51,377	-0,257	-0,169
178,881	-63,089	-0,179	-0,051
179,896	-83,391	-0,242	-0,054
180,910	106,208	-0,360	-0,297
181,925	358,685	-0,189	-0,264
182,940	-13,411	-0,339	-0,152
183,954	31,784	-0,260	-0,155
184,969	229,946	-0,172	-0,196
185,983	800,000	-0,056	-0,139
186,998	291,293	-0,058	-0,074
188,013	109,701	-0,187	-0,156
189,027	77,731	-0,248	-0,183
190,042	89,897	-0,463	-0,359
191,056	317,462	-0,237	-0,312
192,071	-124,510	-0,285	-0,030
193,086	-129,337	-0,141	-0,013
194,100	219,755	-0,165	-0,183
195,115	226,511	-0,182	-0,205
196,129	-1,464	-0,209	-0,102
197,144	410,185	-0,163	-0,241
198,159	289,537	-0,182	-0,230
199,173	172,349	-0,178	-0,178
200,188	-132,356	-0,209	-0,019
201,202	596,311	-0,110	-0,190
202,217	25,275	-0,143	-0,083
203,232	134,916	-0,138	-0,125
204,246	324,890	-0,169	-0,225
205,261	279,075	-0,172	-0,214
206,275	800,000	-0,091	-0,204
207,290	-124,560	-0,217	-0,023
208,304	-71,472	-0,227	-0,058
209,319	503,370	-0,139	-0,224
210,334	207,329	-0,142	-0,154
211,348	-16,710	-0,326	-0,142
212,363	9,830	-0,172	-0,090
213,377	-189,542	-0,233	0,002
214,392	88,028	-0,187	-0,144
215,407	51,085	-0,081	-0,053
216,421	84,938	-0,128	-0,097
217,436	363,281	-0,149	-0,208
218,450	-126,001	-0,228	-0,023
219,465	-149,079	-0,182	-0,010
220,480	76,066	-0,152	-0,112
221,494	-60,386	-0,221	-0,065
222,509	-64,004	-0,105	-0,030
223,523	420,392	-0,129	-0,192
224,538	390,914	-0,136	-0,195
225,553	160,198	-0,194	-0,187
226,567	61,758	-0,147	-0,101
227,582	800,000	-0,091	-0,219
228,596	-62,828	-0,119	-0,034
229,611	152,609	-0,086	-0,082
230,626	800,000	-0,040	-0,103
231,640	351,600	-0,222	-0,306
232,655	9,107	-0,266	-0,139
233,669	250,201	-0,221	-0,261
234,684	-77,886	-0,259	-0,061
235,699	-58,293	-0,078	-0,023
236,713	246,025	-0,119	-0,139
237,728	12,462	-0,143	-0,076
238,742	800,000	-0,097	-0,214
239,757	800,000	-0,110	-0,247
240,772	-22,011	-0,253	-0,106
241,786	-90,295	-0,126	-0,025
242,801	-79,470	-0,180	-0,042
243,815	131,699	-0,174	-0,154
244,830	15,824	-0,134	-0,072
245,844	120,158	-0,081	-0,070
246,859	-8,971	-0,190	-0,088
247,874	68,428	-0,195	-0,138
248,888	172,453	-0,028	-0,028
249,903	449,492	-0,070	-0,107
250,917	40,347	-0,099	-0,062
251,932	71,845	-0,082	-0,059
252,947	120,204	-0,158	-0,135
253,961	65,857	-0,228	-0,160
254,976	106,348	-0,186	-0,153
255,990	159,076	-0,196	-0,188
257,005	55,969	-0,135	-0,090
258,020	117,115	-0,189	-0,160
259,034	-59,078	-0,178	0,053
260,049	-65,149	-0,267	-0,074
261,063	159,487	-0,102	-0,098
262,078	800,000	-0,122	-0,248
263,093	69,568	-0,260	-0,185
264,107	137,780	-0,246	-0,222
265,122	-200,000	-0,002	-0,252
266,136	-76,504	-0,076	-0,018
267,151	-5,788	-0,186	-0,088
268,166	42,857	-0,286	-0,179
269,180	-100,047	-0,146	-0,025
270,195	128,593	-0,197	-0,173
271,209	800,000	0,045	-0,121
272,224	406,333	-0,048	-0,070
273,239	49,943	-0,133	0,086
274,253	78,631	-0,217	-0,160
275,268	36,455	-0,220	-0,133
276,282	-200,000	-0,007	-0,285
277,297	800,000	-0,110	-0,234
278,312	100,057	-0,137	-0,109
279,326	162,782	-0,152	-0,147
280,341	385,638	-0,134	-0,191
281,355	359,162	-0,105	-0,145
282,370	132,552	-0,184	-0,164
283,384	3,433	-0,201	-0,101
284,399	-59,460	-0,135	-0,040
285,414	91,378	-0,289	-0,223
286,428	74,929	-0,144	-0,104
287,443	-170,710	-0,077	0,002
288,457	-64,324	-0,153	-0,043
289,472	27,850	-0,167	-0,097
290,487	-49,328	-0,144	0,047
291,501	-25,098	-0,226	-0,092
292,516	489,286	-0,116	-0,183
293,530	143,478	-0,196	-0,180
294,545	226,549	-0,166	-0,186
295,560	17,736	-0,046	-0,025
296,574	-81,546	-0,140	-0,032
297,589	-11,967	-0,187	-0,084
298,603	-65,665	-0,267	-0,073
299,618	130,143	-0,207	-0,183
300,633	98,028	-0,217	-0,172
301,647	136,621	-0,102	-0,092
302,662	290,153	-0,164	-0,206
303,676	-23,641	-0,208	0,086
304,691	89,664	-0,095	-0,073
305,706	8,717	-0,211	-0,109
306,720	30,098	-0,187	-0,110
307,735	-134,440	-0,176	-0,015
308,749	85,609	0,062	-0,047
309,764	119,665	-0,109	-0,093
310,779	366,077	-0,066	-0,092
311,793	-120,780	-0,214	-0,025
312,808	101,177	-0,184	-0,147
313,822	136,424	-0,164	-0,148
314,837	-92,762	-0,178	-0,034
315,852	-107,969	-0,277	-0,041
316,866	520,328	-0,121	-0,196
317,881	-55,658	-0,159	-0,049
318,895	-96,079	-0,239	-0,043
319,910	50,123	-0,167	-0,108
320,925	55,027	-0,208	-0,138
321,939	800,000	-0,028	-0,072
322,954	-24,500	-0,088	-0,036
323,968	-68,177	-0,255	0,068
324,983	-85,686	-0,151	0,032
325,997	258,873	-0,126	-0,149
327,012	35,020	-0,029	0,017
328,027	-59,530	-0,083	-0,024
329,041	5,479	-0,184	-0,093
330,056	-38,408	-0,117	0,042
331,070	2,812	-0,181	-0,090
332,085	-181,142	-0,208	0,003
333,100	-87,661	-0,240	-0,049
334,114	-200,000	-0,017	-0,105
335,129	-48,229	-0,259	-0,085
336,143	584,447	-0,160	-0,270
337,158	135,452	-0,097	-0,087
338,173	-11,989	-0,121	0,054
339,187	156,461	-0,118	-0,112
340,202	-53,488	-0,273	-0,085
341,216	-6,198	-0,253	-0,118
342,231	17,416	-0,155	-0,084
343,246	-97,690	-0,135	0,024
344,260	-54,392	-0,040	-0,012
345,275	199,670	-0,041	-0,043
346,289	-11,258	-0,177	-0,080
347,304	0,024	-0,175	-0,085
348,319	-200,000	-0,005	-0,189
349,333	628,310	-0,093	-0,162
350,348	10,851	-0,253	-0,132
351,362	800,000	-0,057	-0,119
352,377	202,456	-0,049	-0,052
353,392	-44,517	-0,138	-0,047
354,406	-12,430	-0,254	-0,113
355,421	207,895	1313,478	1407,026
356,435	159,941	1474,061	1407,522
