DTS Sentinel unit serial number:	SN410029Multiplexer serial number:	ORYXHardware model number:	OX2-SRSoftware version number:	ORYX F/W v4,00 Oryx Data Collector v3.7.2.0data status	okinstallation	B3 Nyhavnadifferential loss correction	single-endedforward channel	channel 1reverse channel	N/Adate	2023/12/01time	07:02:30forward acquisition time	300,00reverse acquisition time	0,00gamma	499,1914k internal	0,3213k external	0,3213temperature offset calibration	1,0000default loss term (dB/km)	0,3820temperature slope calibration	1,0000multiplexer offset coefficient	1,0000multiplexer slope coefficient	1,0000fibre end	0,00T internal ref (°C)	7,92T ext. ref 1 (°C)	-6,31T ext. ref 2 (°C)	-6,46length (m)	temperature (°C)	Stokes	anti-Stokes-744,400	571,543	-0,144	-0,254
-743,385	-200,000	-0,006	0,275
-742,371	70,540	-0,121	-0,091
-741,356	-200,000	-0,031	0,378
-740,342	-53,848	-0,153	-0,050
-739,327	642,337	-0,118	0,218
-738,312	150,726	-0,224	-0,220
-737,298	288,496	-0,102	0,135
-736,283	188,364	-0,140	-0,152
-735,269	-200,000	-0,017	0,269
-734,254	594,667	-0,175	-0,315
-733,239	-99,407	-0,322	0,058
-732,225	139,456	-0,223	-0,213
-731,210	143,712	0,081	0,078
-730,196	-200,000	0,003	-0,076
-729,181	-33,785	-0,114	0,045
-728,167	79,648	-0,040	0,031
-727,152	-200,000	0,002	-0,047
-726,137	-200,000	0,001	-0,055
-725,123	800,000	-0,035	-0,111
-724,108	662,846	-0,058	-0,108
-723,094	198,623	-0,128	-0,142
-722,079	800,000	-0,018	-0,055
-721,064	217,152	0,087	-0,100
-720,050	-200,000	-0,002	0,077
-719,035	184,567	-0,065	0,070
-718,021	-200,000	-0,015	0,175
-717,006	108,937	-0,081	-0,070
-715,991	-200,000	-0,016	-0,147
-714,977	292,729	-0,109	-0,144
-713,962	150,949	-0,070	-0,068
-712,948	-2,408	-0,047	-0,024
-711,933	-200,000	0,005	0,045
-710,918	-88,675	-0,034	-0,007
-709,904	78,126	-0,075	-0,058
-708,889	251,385	-0,075	-0,092
-707,875	-81,245	-0,023	-0,005
-706,860	800,000	0,015	-0,042
-705,845	-107,179	0,083	-0,013
-704,831	273,834	0,066	0,085
-703,816	7,470	-0,022	-0,012
-702,802	-200,000	0,002	-0,164
-701,787	-119,876	-0,123	-0,015
-700,772	-113,226	-0,123	0,017
-699,758	410,024	-0,081	-0,124
-698,743	800,000	0,036	0,107
-697,729	-200,000	-0,005	0,076
-696,714	-200,000	0,017	0,059
-695,699	244,440	-0,109	-0,133
-694,685	-200,000	0,003	-0,092
-693,670	684,412	0,051	-0,097
-692,656	800,000	-0,039	-0,121
-691,641	800,000	-0,047	-0,095
-690,627	-15,485	0,086	0,040
-689,612	-8,739	-0,138	0,067
-688,597	800,000	0,042	-0,099
-687,583	-76,990	-0,026	0,006
-686,568	50,035	0,065	-0,044
-685,554	800,000	-0,039	0,083
-684,539	-200,000	0,048	0,154
-683,524	-200,000	0,023	0,088
-682,510	800,000	0,016	0,033
-681,495	-200,000	-0,001	-0,002
-680,481	-144,315	-0,119	-0,008
-679,466	800,000	0,035	-0,109
-678,451	373,971	-0,059	-0,088
-677,437	-115,262	0,144	0,019
-676,422	-13,929	0,021	-0,010
-675,408	800,000	0,024	0,076
-674,393	-131,046	0,078	-0,007
-673,378	361,132	-0,075	-0,109
-672,364	-34,006	-0,115	-0,045
-671,349	185,839	-0,081	-0,087
-670,335	213,286	0,072	0,082
-669,320	-154,891	-0,009	0,000
-668,305	-102,362	-0,089	-0,015
-667,291	375,495	0,060	-0,088
-666,276	41,554	-0,106	-0,069
-665,262	-25,754	-0,128	-0,054
-664,247	182,541	-0,071	-0,076
-663,232	800,000	-0,045	0,110
-662,218	-103,811	-0,127	-0,021
-661,203	-200,000	0,017	0,098
-660,189	64,539	0,077	0,056
-659,174	-89,864	-0,115	0,024
-658,159	-200,000	0,026	-0,117
-657,145	-200,000	0,024	-0,092
-656,130	-200,000	-0,048	-0,189
-655,116	674,856	0,056	-0,105
-654,101	-89,356	0,063	0,013
-653,086	-32,525	0,203	-0,081
-652,072	-200,000	-0,029	-0,102
-651,057	358,742	-0,069	-0,100
-650,043	-200,000	-0,012	-0,086
-649,028	-146,908	-0,023	-0,001
-648,014	107,154	0,069	0,059
-646,999	234,465	0,071	-0,085
-645,984	-17,136	-0,049	0,022
-644,970	-116,697	-0,070	0,009
-643,955	-200,000	-0,011	0,090
-642,941	-200,000	-0,003	0,131
-641,926	-200,000	-0,012	-0,042
-640,911	31,217	0,058	0,036
-639,897	-87,649	0,069	-0,015
-638,882	-53,655	0,033	0,011
-637,868	-143,428	0,075	-0,005
-636,853	790,110	0,050	-0,100
-635,838	-113,372	-0,192	-0,027
-634,824	-200,000	-0,032	-0,132
-633,809	-165,223	0,125	-0,004
-632,795	298,914	0,046	0,062
-631,780	800,000	-0,033	-0,082
-630,765	-37,576	0,070	-0,027
-629,751	10,423	-0,154	0,084
-628,736	-126,836	0,063	0,007
-627,722	800,000	-0,034	-0,084
-626,707	-200,000	-0,012	-0,122
-625,692	121,699	0,083	-0,075
-624,678	-200,000	0,001	0,021
-623,663	-54,496	0,030	-0,010
-622,649	-140,083	-0,081	0,006
-621,634	-200,000	-0,006	-0,104
-620,619	-105,035	-0,075	0,012
-619,605	-36,491	0,039	0,015
-618,590	3,959	-0,174	0,092
-617,576	-200,000	0,015	0,055
-616,561	-29,661	0,053	-0,022
-615,546	-1,343	0,031	0,016
-614,532	55,381	-0,036	0,025
-613,517	-200,000	0,012	0,069
-612,503	116,732	0,027	0,024
-611,488	154,690	-0,042	0,042
-610,474	666,734	0,067	0,125
-609,459	-200,000	-0,012	-0,096
-608,444	-200,000	0,008	0,027
-607,430	-76,427	-0,136	-0,034
-606,415	2,867	0,059	-0,031
-605,401	-200,000	0,051	0,000
-604,386	-200,000	-0,002	-0,024
-603,371	-200,000	-0,005	0,125
-602,357	513,195	-0,043	0,073
-601,342	800,000	-0,041	-0,112
-600,328	-200,000	-0,015	-0,076
-599,313	178,060	-0,051	0,053
-598,298	-200,000	-0,020	0,079
-597,284	-3,302	0,049	0,024
-596,269	49,859	-0,101	-0,068
-595,255	800,000	0,048	-0,115
-594,240	297,667	0,110	0,146
-593,225	188,283	-0,047	-0,050
-592,211	-7,997	0,044	0,021
-591,196	-200,000	0,004	0,051
-590,182	8,682	0,124	0,067
-589,167	-200,000	-0,030	0,134
-588,152	800,000	0,027	0,071
-587,138	28,304	0,070	-0,042
-586,123	685,465	-0,077	-0,146
-585,109	-200,000	-0,002	-0,086
-584,094	800,000	0,014	-0,030
-583,079	56,532	0,112	0,078
-582,065	-43,418	-0,093	0,033
-581,050	23,812	-0,117	0,069
-580,036	169,331	-0,073	0,075
-579,021	800,000	-0,060	0,128
-578,006	-105,297	-0,167	0,027
-576,992	393,571	0,017	0,025
-575,977	9,738	-0,005	0,003
-574,963	62,813	0,074	-0,053
-573,948	-126,138	-0,066	0,007
-572,934	-200,000	0,008	-0,136
-571,919	282,182	-0,080	-0,104
-570,904	-200,000	-0,046	-0,171
-569,890	-89,565	0,150	0,031
-568,875	-200,000	-0,003	0,092
-567,861	3,639	-0,072	-0,038
-566,846	28,345	0,122	0,074
-565,831	688,598	-0,057	-0,107
-564,817	539,587	-0,066	-0,113
-563,802	-200,000	0,001	-0,024
-562,788	12,727	-0,136	-0,076
-561,773	766,660	0,014	0,028
-560,758	215,672	0,121	-0,139
-559,744	406,795	-0,017	-0,026
-558,729	302,144	0,032	0,043
-557,715	800,000	0,030	-0,087
-556,700	247,600	-0,106	-0,129
-555,685	-200,000	-0,012	0,052
-554,671	-71,868	0,107	0,028
-553,656	62,021	-0,066	-0,048
-552,642	-80,779	-0,048	-0,011
-551,627	54,100	0,025	0,017
-550,612	139,325	-0,019	0,018
-549,598	-200,000	0,023	0,093
-548,583	800,000	-0,023	0,067
-547,569	-125,715	-0,103	0,011
-546,554	-200,000	0,000	0,015
-545,539	-181,378	0,109	-0,002
-544,525	159,646	0,033	-0,033
-543,510	800,000	-0,028	-0,076
-542,496	-145,869	-0,139	-0,009
-541,481	356,261	-0,095	0,137
-540,466	-200,000	-0,027	-0,137
-539,452	-114,250	0,067	-0,009
-538,437	-22,301	0,119	0,052
-537,423	-200,000	-0,012	0,127
-536,408	207,833	-0,067	0,075
-535,393	56,420	-0,070	-0,049
-534,379	800,000	-0,039	-0,097
-533,364	-106,647	0,064	0,010
-532,350	340,592	-0,005	0,007
-531,335	-200,000	0,001	-0,071
-530,321	800,000	0,018	0,036
-529,306	774,346	0,031	-0,061
-528,291	573,935	-0,057	0,100
-527,277	38,916	-0,055	-0,035
-526,262	-200,000	-0,030	-0,111
-525,248	-7,046	-0,096	-0,047
-524,233	-45,133	-0,051	0,018
-523,218	98,725	0,004	0,003
-522,204	0,129	-0,092	-0,047
-521,189	-200,000	0,024	0,090
-520,175	169,311	-0,051	0,053
-519,160	200,806	0,044	-0,049
-518,145	173,227	-0,043	0,044
-517,131	-10,318	0,135	-0,064
-516,116	235,043	0,060	-0,071
-515,102	6,137	-0,123	0,066
-514,087	-97,436	0,068	0,013
-513,072	74,535	-0,059	-0,045
-512,058	476,834	-0,032	-0,052
-511,043	-78,758	0,087	0,021
-510,029	11,209	0,044	-0,024
-509,014	262,769	-0,082	0,103
-507,999	-200,000	-0,002	0,068
-506,985	-200,000	-0,006	-0,249
-505,970	800,000	-0,058	-0,161
-504,956	426,686	-0,013	-0,020
-503,941	503,075	-0,023	0,038
-502,926	-21,360	0,058	0,025
-501,912	-200,000	0,022	0,075
-500,897	88,078	-0,043	0,034
-499,883	549,541	-0,033	-0,057
-498,868	-159,633	-0,161	0,006
-497,853	-200,000	-0,013	-0,148
-496,839	9,159	-0,079	0,043
-495,824	-200,000	0,010	0,078
-494,810	-200,000	0,002	-0,083
-493,795	54,121	-0,092	0,064
-492,781	-200,000	0,023	-0,084
-491,766	-65,382	-0,227	0,065
-490,751	-200,000	0,000	0,026
-489,737	-200,000	0,008	-0,082
-488,722	-200,000	0,032	-0,130
-487,708	91,076	-0,068	0,054
-486,693	-186,248	-0,095	-0,001
-485,678	125,009	0,059	-0,053
-484,664	220,279	-0,092	-0,106
-483,649	325,935	-0,031	-0,043
-482,635	-75,733	0,077	-0,020
-481,620	111,602	-0,055	0,047
-480,605	252,210	0,074	-0,091
-479,591	384,894	-0,010	-0,014
-478,576	-118,340	0,061	0,008
-477,562	-200,000	-0,044	-0,175
-476,547	-200,000	0,003	0,029
-475,532	20,825	-0,039	-0,022
-474,518	-200,000	-0,005	-0,033
-473,503	38,809	0,192	0,123
-472,489	800,000	0,045	0,117
-471,474	800,000	0,033	-0,095
-470,459	-200,000	0,016	-0,141
-469,445	348,832	-0,114	-0,162
-468,430	-200,000	0,023	-0,105
-467,416	-133,853	-0,033	-0,003
-466,401	388,341	0,066	0,098
-465,386	673,544	0,063	-0,117
-464,372	612,560	0,044	-0,079
-463,357	-59,432	0,073	-0,022
-462,343	-71,456	-0,036	-0,010
-461,328	-91,363	-0,204	0,041
-460,313	-12,491	-0,055	0,026
-459,299	-52,704	0,033	-0,011
-458,284	-23,295	-0,046	-0,020
-457,270	-200,000	-0,026	-0,101
-456,255	800,000	-0,024	-0,070
-455,241	800,000	0,109	-0,224
-454,226	193,581	-0,120	-0,131
-453,211	-200,000	0,003	-0,215
-452,197	184,289	0,111	0,118
-451,182	25,900	-0,004	0,002
-450,168	77,971	0,048	0,037
-449,153	272,836	-0,022	-0,028
-448,138	258,357	-0,140	-0,173
-447,124	-200,000	-0,011	-0,095
-446,109	618,324	0,030	0,054
-445,095	800,000	0,030	0,060
-444,080	322,974	0,086	0,117
-443,065	-200,000	-0,007	0,179
-442,051	60,343	-0,096	0,068
-441,036	83,062	-0,079	-0,061
-440,022	322,398	0,031	0,042
-439,007	-200,000	-0,013	-0,064
-437,992	274,956	0,050	0,064
-436,978	-73,521	0,249	0,065
-435,963	-122,457	-0,059	-0,007
-434,949	39,084	-0,079	0,051
-433,934	-188,538	0,113	0,001
-432,919	-200,000	0,011	-0,129
-431,905	-143,212	-0,108	0,007
-430,890	210,106	-0,089	0,101
-429,876	-200,000	-0,010	0,112
-428,861	-90,877	0,074	0,015
-427,846	439,418	0,023	0,036
-426,832	-200,000	0,003	-0,034
-425,817	-88,845	-0,069	0,014
-424,803	-83,808	0,026	0,006
-423,788	800,000	0,059	-0,140
-422,773	55,495	0,080	0,055
-421,759	595,116	0,013	0,023
-420,744	-84,290	-0,087	0,020
-419,730	106,611	-0,064	-0,054
-418,715	619,341	0,009	-0,016
-417,701	-94,043	0,090	-0,017
-416,686	56,622	0,130	0,090
-415,671	-130,955	0,197	0,019
-414,657	604,304	-0,033	0,059
-413,642	32,861	0,131	-0,081
-412,628	-48,267	-0,085	-0,029
-411,613	-39,006	-0,048	0,018
-410,598	-176,590	-0,126	0,002
-409,584	-200,000	-0,000	-0,049
-408,569	-25,921	0,136	0,057
-407,555	200,201	0,105	0,115
-406,540	-200,000	0,031	0,104
-405,525	-148,188	-0,245	-0,014
-404,511	261,317	0,125	0,155
-403,496	329,420	0,077	-0,107
-402,482	-188,484	0,064	-0,001
-401,467	-82,973	-0,052	-0,012
-400,452	-83,283	0,052	0,012
-399,438	-200,000	0,005	0,034
-398,423	-200,000	0,010	-0,173
-397,409	-111,879	-0,192	-0,027
-396,394	-200,000	0,010	0,139
-395,379	85,857	-0,013	0,010
-394,365	-132,606	0,192	-0,017
-393,350	-68,565	0,087	-0,024
-392,336	-87,568	0,041	0,009
-391,321	61,048	-0,126	0,089
-390,306	71,520	-0,097	-0,072
-389,292	64,618	0,043	-0,031
-388,277	-77,348	0,055	-0,014
-387,263	-104,883	0,118	0,019
-386,248	-102,518	-0,115	-0,019
-385,233	172,402	0,107	-0,110
-384,219	-200,000	-0,009	-0,118
-383,204	53,087	-0,059	0,040
-382,190	21,886	-0,028	-0,016
-381,175	-40,652	0,164	-0,061
-380,160	209,674	0,129	0,145
-379,146	-200,000	0,029	0,115
-378,131	-102,770	0,042	-0,007
-377,117	-99,449	-0,045	-0,008
-376,102	-200,000	0,004	-0,095
-375,088	-200,000	-0,002	0,021
-374,073	-49,827	0,134	-0,045
-373,058	-39,120	-0,054	-0,020
-372,044	800,000	0,065	0,149
-371,029	-200,000	0,001	0,010
-370,015	-200,000	0,022	-0,148
-369,000	-82,555	0,072	0,017
-367,985	-121,083	0,132	-0,016
-366,971	-31,267	-0,068	0,027
-365,956	414,507	0,034	0,052
-364,942	603,369	-0,038	-0,067
-363,927	-200,000	-0,008	0,036
-362,912	-184,263	0,188	-0,002
-361,898	-197,839	-0,075	0,000
-360,883	-3,298	-0,155	0,077
-359,869	194,663	-0,170	-0,185
-358,854	-70,991	0,155	0,041
-357,839	-12,087	0,024	-0,011
-356,825	-103,426	0,060	0,010
-355,810	-64,985	0,035	-0,010
-354,796	-128,538	0,058	-0,006
-353,781	225,532	-0,147	-0,170
-352,766	-90,310	-0,087	-0,018
-351,752	-19,116	0,035	-0,015
-350,737	9,242	-0,043	0,023
-349,723	-200,000	0,008	0,037
-348,708	236,831	0,064	0,076
-347,693	-119,438	-0,160	0,020
-346,679	40,808	0,072	0,046
-345,664	-11,353	-0,084	-0,040
-344,650	-139,008	0,065	0,005
-343,635	-200,000	-0,034	0,172
-342,620	800,000	-0,068	0,144
-341,606	0,452	-0,033	-0,017
-340,591	307,792	0,009	0,012
-339,577	446,464	-0,070	-0,111
-338,562	-200,000	-0,005	-0,160
-337,548	-132,708	0,061	-0,006
-336,533	-15,969	0,034	0,015
-335,518	97,948	0,091	0,075
-334,504	-200,000	0,009	0,100
-333,489	511,298	0,039	-0,065
-332,475	-200,000	-0,003	0,022
-331,460	122,268	0,040	0,036
-330,445	95,293	-0,057	-0,046
-329,431	-124,127	-0,101	0,011
-328,416	800,000	0,073	0,182
-327,402	-200,000	-0,002	0,079
-326,387	598,287	-0,100	0,177
-325,372	-136,936	-0,093	-0,007
-324,358	233,392	-0,012	0,014
-323,343	-29,576	0,118	0,048
-322,329	-87,004	0,016	-0,003
-321,314	178,497	0,158	0,164
-320,299	-103,095	-0,037	-0,006
-319,285	-200,000	-0,001	0,069
-318,270	-20,441	0,115	0,050
-317,256	124,548	-0,025	-0,023
-316,241	-76,704	-0,238	-0,059
-315,226	11,267	0,030	0,016
-314,212	-8,329	0,073	0,035
-313,197	-200,000	0,016	-0,085
-312,183	129,382	-0,067	0,061
-311,168	398,735	0,023	-0,034
-310,153	-200,000	-0,041	-0,172
-309,139	-144,293	-0,162	-0,011
-308,124	-200,000	0,010	-0,083
-307,110	-200,000	0,019	0,087
-306,095	354,491	0,079	-0,112
-305,080	800,000	0,026	0,081
-304,066	137,121	-0,050	0,046
-303,051	-154,496	-0,097	-0,005
-302,037	-200,000	-0,035	-0,185
-301,022	210,768	-0,031	0,035
-300,008	-76,165	0,049	0,012
-298,993	128,189	0,123	0,112
-297,978	-200,000	0,017	-0,078
-296,964	800,000	-0,028	-0,075
-295,949	-200,000	0,021	-0,140
-294,935	20,634	0,116	0,067
-293,920	-165,773	-0,086	0,003
-292,905	-180,746	-0,053	0,001
-291,891	-200,000	-0,020	0,103
-290,876	-17,783	-0,047	-0,021
-289,862	-10,395	0,004	-0,002
-288,847	800,000	-0,059	-0,181
-287,832	-108,633	-0,107	-0,016
-286,818	-41,610	-0,085	0,031
-285,803	-105,906	0,073	0,012
-284,789	177,818	0,062	0,065
-283,774	-200,000	-0,004	0,044
-282,759	-183,474	-0,134	0,002
-281,745	85,269	-0,097	-0,076
-280,730	207,322	0,049	-0,054
-279,716	-32,792	0,101	0,040
-278,701	-200,000	-0,016	0,064
-277,686	-25,859	-0,102	0,043
-276,672	-200,000	0,036	0,170
-275,657	90,350	0,102	0,081
-274,643	351,423	0,030	0,043
-273,628	194,972	-0,051	0,055
-272,613	143,230	0,099	0,094
-271,599	-200,000	0,026	-0,097
-270,584	187,673	0,189	0,201
-269,570	-114,992	0,061	0,008
-268,555	-166,108	-0,110	-0,003
-267,540	705,324	-0,013	-0,024
-266,526	504,838	0,036	-0,059
-265,511	800,000	-0,048	0,109
-264,497	-200,000	0,037	0,158
-263,482	-113,299	0,103	0,014
-262,467	-163,109	-0,125	0,004
-261,453	26,612	-0,159	0,094
-260,438	-200,000	0,002	-0,162
-259,424	-200,000	0,022	0,085
-258,409	423,303	0,051	0,078
-257,395	-139,192	0,031	-0,002
-256,380	239,378	0,063	0,074
-255,365	-25,034	0,139	0,058
-254,351	800,000	0,027	-0,083
-253,336	-200,000	-0,031	-0,180
-252,322	222,519	0,042	0,048
-251,307	143,600	-0,042	0,040
-250,292	287,015	-0,042	-0,055
-249,278	36,815	0,077	0,048
-248,263	800,000	0,037	0,075
-247,249	-131,972	0,086	0,008
-246,234	-200,000	-0,015	-0,138
-245,219	-200,000	0,029	-0,139
-244,205	655,912	0,011	0,019
-243,190	585,722	-0,038	0,067
-242,176	39,826	0,145	0,092
-241,161	121,068	0,077	-0,068
-240,146	57,274	0,022	0,015
-239,132	145,494	-0,044	-0,042
-238,117	-200,000	0,025	-0,175
-237,103	-200,000	0,019	-0,080
-236,088	-200,000	-0,030	-0,120
-235,073	-128,393	0,175	0,017
-234,059	-81,968	0,085	0,020
-233,044	148,808	-0,096	-0,092
-232,030	99,985	-0,078	-0,064
-231,015	-200,000	-0,016	-0,110
-230,000	764,625	-0,043	-0,084
-228,986	696,495	-0,058	-0,108
-227,971	95,828	0,131	-0,106
-226,957	-123,803	-0,049	0,005
-225,942	146,932	0,098	0,094
-224,927	-125,955	0,034	0,004
-223,913	513,396	-0,048	0,079
-222,898	800,000	-0,024	-0,071
-221,884	68,186	0,084	-0,061
-220,869	139,523	0,039	0,036
-219,855	55,734	-0,032	0,022
-218,840	581,754	-0,117	0,205
-217,825	3,010	-0,085	0,044
-216,811	-44,597	0,122	0,043
-215,796	115,057	-0,017	0,014
-214,782	-154,727	0,042	0,002
-213,767	800,000	-0,047	0,133
-212,752	-163,607	0,033	-0,001
-211,738	379,247	0,035	0,050
-210,723	175,617	-0,048	0,049
-209,709	800,000	-0,023	-0,049
-208,694	177,714	-0,019	-0,020
-207,679	143,216	-0,034	-0,032
-206,665	-200,000	-0,012	0,107
-205,650	-200,000	-0,033	0,110
-204,636	-200,000	-0,021	0,089
-203,621	256,695	-0,043	0,053
-202,606	24,632	-0,152	-0,089
-201,592	-200,000	0,013	0,093
-200,577	39,580	-0,115	0,073
-199,563	-121,250	0,141	0,017
-198,548	70,388	0,146	0,107
-197,533	-200,000	-0,013	0,077
-196,519	314,363	-0,054	0,072
-195,504	283,889	-0,086	-0,110
-194,490	174,952	-0,067	-0,069
-193,475	-104,999	0,058	-0,009
-192,460	600,476	-0,021	0,037
-191,446	-39,015	0,079	0,029
-190,431	800,000	-0,042	0,121
-189,417	200,432	-0,053	0,058
-188,402	94,291	-0,065	-0,052
-187,387	-200,000	0,003	-0,041
-186,373	800,000	-0,024	-0,054
-185,358	800,000	-0,027	0,085
-184,344	16,475	0,058	-0,032
-183,329	-200,000	-0,012	0,055
-182,315	33,412	-0,056	0,035
-181,300	433,308	0,063	0,097
-180,285	88,006	0,069	0,054
-179,271	43,399	0,015	0,010
-178,256	-112,543	0,060	0,008
-177,242	-16,878	-0,174	-0,077
-176,227	494,694	0,055	0,090
-175,212	651,132	-0,050	0,091
-174,198	-200,000	-0,008	-0,095
-173,183	-173,505	0,088	-0,002
-172,169	458,400	0,053	0,083
-171,154	-200,000	-0,005	-0,084
-170,139	-137,612	0,146	0,011
-169,125	-200,000	0,015	0,076
-168,110	-68,849	0,063	-0,017
-167,096	800,000	0,040	0,107
-166,081	244,697	0,021	-0,025
-165,066	-200,000	0,020	0,082
-164,052	-200,000	-0,008	0,056
-163,037	-200,000	0,015	0,110
-162,023	265,500	0,039	-0,049
-161,008	-200,000	0,000	-0,038
-159,993	-34,751	0,063	-0,024
-158,979	-77,497	-0,183	-0,045
-157,964	800,000	-0,039	-0,084
-156,950	42,480	-0,101	-0,065
-155,935	-200,000	-0,012	-0,076
-154,920	-119,452	0,025	0,003
-153,906	305,430	0,043	0,057
-152,891	-67,296	0,152	0,042
-151,877	304,659	-0,103	-0,136
-150,862	393,621	-0,043	-0,063
-149,847	-200,000	-0,008	-0,047
-148,833	219,340	-0,026	-0,030
-147,818	800,000	0,031	0,073
-146,804	264,482	0,028	-0,034
-145,789	-11,241	0,121	-0,056
-144,775	-200,000	-0,013	-0,083
-143,760	-200,000	0,004	-0,033
-142,745	-41,857	-0,093	0,033
-141,731	-38,904	-0,099	-0,037
-140,716	-200,000	-0,012	0,137
-139,702	-200,000	-0,007	-0,033
-138,687	24,097	0,077	-0,045
-137,672	-200,000	-0,003	-0,014
-136,658	-55,472	-0,170	-0,054
-135,643	-200,000	-0,005	-0,039
-134,629	46,807	0,111	-0,073
-133,614	327,337	0,052	0,071
-132,599	-63,800	-0,025	0,007
-131,585	167,428	-0,077	-0,077
-130,570	800,000	0,041	-0,090
-129,556	-200,000	0,003	-0,130
-128,541	-200,000	-0,048	-0,163
-127,526	1,230	0,116	-0,059
-126,512	0,524	0,112	0,056
-125,497	800,000	-0,017	0,039
-124,483	-7,962	0,106	-0,050
-123,468	-42,648	0,054	0,019
-122,453	8,030	-0,105	0,055
-121,439	90,281	-0,059	0,046
-120,424	-200,000	-0,006	0,032
-119,410	800,000	0,045	0,089
-118,395	512,491	-0,047	-0,077
-117,380	-17,045	0,235	0,104
-116,366	800,000	0,042	-0,113
-115,351	289,137	-0,060	-0,077
-114,337	-95,046	-0,064	0,012
-113,322	319,662	0,064	0,085
-112,307	-130,290	-0,075	-0,007
-111,293	-200,000	0,010	0,037
-110,278	800,000	-0,030	0,092
-109,264	84,573	0,136	0,105
-108,249	800,000	-0,044	-0,100
-107,234	110,403	-0,108	-0,092
-106,220	-35,098	0,113	0,043
-105,205	-200,000	-0,018	0,062
-104,191	221,823	0,099	0,112
-103,176	88,811	0,099	0,078
-102,162	290,571	-0,056	0,072
-101,147	-126,861	0,134	0,014
-100,132	156,445	0,034	-0,033
-99,118	-30,304	-0,038	0,015
-98,103	-200,000	-0,000	0,068
-97,089	800,000	-0,048	-0,133
-96,074	800,000	-0,033	0,077
-95,059	-141,494	-0,057	0,004
-94,045	143,671	-0,088	0,083
-93,030	-170,331	0,129	-0,003
-92,016	-200,000	-0,019	-0,111
-91,001	-200,000	-0,018	0,174
-89,986	796,608	-0,031	0,062
-88,972	-200,000	-0,007	0,144
-87,957	-200,000	0,054	0,186
-86,943	-172,403	0,084	0,002
-85,928	137,894	-0,047	-0,043
-84,913	-200,000	-0,001	-0,127
-83,899	173,115	-0,043	0,044
-82,884	148,367	0,031	-0,030
-81,870	249,752	-0,028	-0,033
-80,855	-200,000	0,009	-0,039
-79,840	166,922	-0,020	0,020
-78,826	199,005	0,069	-0,074
-77,811	800,000	0,026	-0,052
-76,797	-134,189	0,067	0,006
-75,782	-200,000	-0,003	-0,091
-74,767	-41,222	0,165	0,060
-73,753	381,520	-0,065	0,094
-72,738	-85,910	0,091	0,020
-71,724	53,574	0,111	0,075
-70,709	168,774	0,043	0,043
-69,694	-140,173	-0,025	-0,002
-68,680	695,601	0,076	0,141
-67,665	-200,000	0,024	0,087
-66,651	-82,592	0,064	-0,014
-65,636	800,000	-0,037	0,103
-64,622	30,119	0,186	-0,112
-63,607	61,393	0,015	0,011
-62,592	-101,656	0,046	-0,008
-61,578	800,000	0,027	0,067
-60,563	-200,000	-0,024	0,077
-59,549	-69,176	-0,065	0,018
-58,534	56,959	-2,177	-1,495
-57,519	598,509	-0,979	-1,719
-56,505	-200,000	-0,426	-4,517
-55,490	480,169	1,002	1,608
-54,476	800,000	5,291	11,647
-53,461	-200,000	22,303	346,820
-52,446	800,000	757,605	2294,537
-51,432	533,808	1644,199	2757,886
-50,417	67,891	1643,247	1183,796
-49,403	15,575	1520,532	840,172
-48,388	9,737	1446,637	771,290
-47,373	19,212	1438,826	812,244
-46,359	13,341	1427,208	777,953
-45,344	8,101	1423,513	751,122
-44,330	8,031	1421,454	749,675
-43,315	7,984	1419,528	748,409
-42,300	7,977	1417,851	747,461
-41,286	8,058	1416,459	747,079
-40,271	8,016	1415,414	746,300
-39,257	7,984	1414,330	745,547
-38,242	8,040	1413,112	745,142
-37,227	8,010	1412,093	744,431
-36,213	8,045	1410,640	743,803
-35,198	8,021	1409,416	743,012
-34,184	8,014	1408,576	742,509
-33,169	7,977	1407,154	741,556
-32,154	8,008	1406,342	741,245
-31,140	7,980	1405,033	740,393
-30,125	8,086	1403,641	740,128
-29,111	7,991	1402,780	739,197
-28,096	7,998	1401,609	738,583
-27,082	7,930	1400,486	737,647
-26,067	7,950	1399,449	737,163
-25,052	7,947	1398,367	736,550
-24,038	7,955	1397,476	736,089
-23,023	7,964	1396,281	735,474
-22,009	7,934	1395,113	734,689
-20,994	7,897	1394,392	734,111
-19,979	7,917	1393,392	733,648
-18,965	7,919	1392,298	733,049
-17,950	7,900	1391,502	732,514
-16,936	7,879	1390,616	731,924
-15,921	7,855	1389,562	731,229
-14,906	7,858	1388,661	730,736
-13,892	7,935	1387,465	730,434
-12,877	7,873	1386,732	729,735
-11,863	7,882	1386,124	729,425
-10,848	7,822	1385,325	728,700
-9,833	7,805	1384,404	728,109
-8,819	7,762	1383,577	727,448
-7,804	7,758	1382,477	726,821
-6,790	7,788	1381,355	726,343
-5,775	7,793	1380,558	725,916
-4,760	7,777	1379,536	725,275
-3,746	7,798	1378,619	724,863
-2,731	7,797	1377,661	724,322
-1,717	7,756	1376,861	723,689
-0,702	7,775	1375,162	722,854
0,313	11,758	1285,541	693,787
1,327	27,620	677,316	400,888
2,342	42,551	116,557	74,614
3,356	-3,762	16,647	8,119
4,371	-4,100	3,838	1,867
5,386	13,213	1,430	0,778
6,400	800,000	0,264	0,642
7,415	-153,811	-0,141	-0,007
8,429	-50,032	-0,244	-0,081
9,444	-69,960	-0,382	-0,102
10,459	12,056	-0,277	-0,150
11,473	71,126	-0,323	-0,235
12,488	4,753	-0,250	-0,129
13,502	124,907	-0,234	-0,207
14,517	350,929	-0,210	-0,293
15,531	131,892	-0,272	-0,247
16,546	88,617	-0,318	-0,249
17,561	34,550	-0,442	-0,271
18,575	-65,930	-0,214	-0,060
19,590	800,000	-0,148	-0,297
20,604	199,718	-0,145	-0,157
21,619	127,400	-0,412	-0,368
22,634	122,818	-0,379	-0,334
23,648	66,184	-0,401	-0,286
24,663	91,388	-0,449	-0,354
25,677	73,413	-0,224	-0,164
26,692	48,951	-0,433	-0,285
27,707	-22,845	-0,226	-0,095
28,721	16,334	-0,463	-0,256
29,736	138,126	-0,250	-0,230
30,750	184,750	-0,353	-0,369
31,765	-14,352	-0,411	-0,186
32,780	19,589	-0,302	-0,171
33,794	-30,607	-0,498	-0,197
34,809	-38,422	-0,306	-0,113
35,823	42,418	-0,389	-0,248
36,838	120,975	-0,312	-0,273
37,853	508,593	-0,219	-0,359
38,867	147,963	-0,384	-0,364
39,882	-29,412	-0,386	-0,154
40,896	49,809	-0,310	-0,205
41,911	-28,848	-0,329	-0,132
42,926	269,237	-0,255	-0,316
43,940	2,240	-0,393	-0,199
44,955	87,020	-0,416	-0,322
45,969	235,561	-0,315	-0,366
46,984	35,430	-0,278	-0,171
47,999	15,598	-0,373	-0,205
49,013	8,230	-0,327	-0,172
50,028	66,995	-0,260	-0,186
51,042	4,131	-0,488	-0,250
52,057	161,940	-0,250	-0,246
53,071	59,451	-0,378	-0,261
54,086	248,525	-0,312	-0,371
55,101	28,979	-0,276	-0,164
56,115	-13,137	-0,445	-0,202
57,130	-57,980	-0,407	-0,124
58,144	32,247	-0,230	-0,139
59,159	63,941	-0,449	-0,316
60,174	388,569	-0,291	-0,423
61,188	74,757	-0,332	-0,245
62,203	228,253	-0,283	-0,324
63,217	148,625	-0,261	-0,248
64,232	-60,253	-0,391	-0,116
65,247	-18,991	-0,441	-0,192
66,261	-8,690	-0,494	-0,232
67,276	-61,782	-0,418	-0,122
68,290	19,346	-0,380	-0,213
69,305	-4,270	-0,286	-0,138
70,320	-136,939	-0,353	-0,028
71,334	123,982	-0,226	-0,199
72,349	-150,363	-0,301	-0,016
73,363	249,507	-0,279	-0,332
74,378	-45,244	-0,294	-0,102
75,393	26,563	-0,351	-0,205
76,407	19,908	-0,346	-0,195
77,422	50,508	-0,250	-0,165
78,436	-79,432	-0,188	-0,044
79,451	-79,680	-0,291	-0,068
80,466	74,539	-0,334	-0,245
81,480	116,674	-0,258	-0,221
82,495	38,194	-0,331	-0,206
83,509	-37,516	-0,303	-0,112
84,524	49,424	-0,243	-0,160
85,539	72,945	-0,221	-0,162
86,553	104,256	-0,422	-0,347
87,568	19,923	-0,280	-0,158
88,582	3,418	-0,361	-0,183
89,597	183,575	-0,245	-0,254
90,611	-167,590	-0,234	-0,006
91,626	31,516	-0,220	-0,132
92,641	-168,915	-0,239	0,006
93,655	-39,228	-0,245	-0,090
94,670	59,044	-0,351	-0,241
95,684	250,049	-0,316	-0,376
96,699	385,220	-0,250	-0,361
97,714	25,129	-0,380	-0,220
98,728	-44,699	-0,220	-0,076
99,743	-3,638	-0,267	-0,129
100,757	35,177	-0,147	-0,090
101,772	55,149	-0,180	-0,121
102,787	74,739	-0,407	-0,299
103,801	16,825	-0,330	-0,182
104,816	31,901	-0,196	-0,118
105,830	4,220	-0,387	-0,197
106,845	87,317	-0,047	-0,036
107,860	-34,032	-0,343	-0,131
108,874	64,218	-0,318	-0,223
109,889	106,203	-0,267	-0,221
110,903	294,287	-0,300	-0,384
111,918	215,254	-0,175	-0,194
112,933	41,456	-0,224	-0,141
113,947	7,137	-0,250	-0,130
114,962	-21,124	-0,298	-0,127
115,976	40,994	-0,206	-0,129
116,991	175,200	-0,205	-0,207
118,006	134,197	-0,265	-0,239
119,020	234,593	-0,183	-0,211
120,035	15,750	-0,188	-0,103
121,049	-108,725	-0,361	-0,053
122,064	256,424	-0,187	-0,224
123,079	29,878	-0,338	-0,201
124,093	23,465	-0,241	-0,138
125,108	78,773	-0,192	-0,143
126,122	72,594	-0,218	-0,159
127,137	-122,338	-0,247	-0,028
128,151	152,665	-0,182	-0,173
129,166	-21,469	-0,282	-0,119
130,181	52,745	-0,266	-0,177
131,195	75,143	-0,293	-0,215
132,210	-28,585	-0,341	-0,136
133,224	-115,354	-0,205	-0,027
134,239	-5,120	-0,268	-0,128
135,254	-188,842	-0,129	0,001
136,268	-62,498	-0,230	-0,066
137,283	-79,900	-0,186	-0,043
138,297	75,137	-0,322	-0,236
139,312	75,170	-0,267	-0,196
140,327	18,990	-0,198	-0,110
141,341	89,443	-0,153	-0,119
142,356	-34,840	-0,286	-0,108
143,370	-58,627	-0,143	-0,043
144,385	28,814	-0,165	-0,097
145,400	-48,590	-0,359	-0,119
146,414	316,437	-0,234	-0,308
147,429	126,366	-0,298	-0,262
148,443	-17,595	-0,363	-0,158
149,458	197,124	-0,156	-0,166
150,473	-10,414	-0,168	-0,077
151,487	116,592	-0,235	-0,200
152,502	22,184	-0,364	-0,206
153,516	86,584	-0,293	-0,225
154,531	593,922	-0,115	-0,199
155,546	-17,419	-0,366	-0,159
156,560	64,273	-0,182	-0,127
157,575	89,388	-0,154	-0,120
158,589	224,245	-0,156	-0,176
159,604	4,014	-0,230	-0,117
160,619	171,098	-0,165	-0,164
161,633	-47,045	-0,307	-0,104
162,648	115,429	-0,206	-0,175
163,662	99,715	-0,133	-0,107
164,677	96,594	-0,149	-0,118
165,692	462,676	-0,108	-0,169
166,706	104,758	-0,205	-0,168
167,721	129,652	-0,150	-0,133
168,735	19,153	-0,344	-0,191
169,750	-20,780	-0,203	-0,086
170,764	73,360	-0,196	-0,142
171,779	22,124	-0,262	-0,148
172,794	-64,181	-0,185	-0,052
173,808	-128,366	-0,168	0,016
174,823	164,493	-0,189	-0,185
175,837	46,397	-0,248	-0,159
176,852	-16,203	-0,249	-0,109
177,867	-26,343	-0,176	-0,071
178,881	-23,232	-0,148	-0,061
179,896	71,550	-0,270	-0,194
180,910	113,664	-0,155	-0,131
181,925	25,844	-0,263	-0,152
182,940	-88,786	-0,135	-0,028
183,954	91,042	-0,203	-0,158
184,969	2,898	-0,195	-0,098
185,983	190,270	-0,268	-0,280
186,998	800,000	-0,102	-0,264
188,013	49,889	-0,206	-0,134
189,027	241,107	-0,221	-0,257
190,042	225,539	-0,215	-0,241
191,056	118,732	-0,173	-0,148
192,071	-200,000	-0,039	-0,134
193,086	281,185	-0,100	-0,125
194,100	800,000	-0,085	-0,176
195,115	-120,092	-0,225	-0,026
196,129	29,465	-0,232	-0,136
197,144	35,734	-0,254	-0,154
198,159	33,000	-0,288	-0,172
199,173	-200,000	-0,051	-0,185
200,188	212,918	-0,047	-0,052
201,202	14,769	-0,227	-0,123
202,217	223,778	-0,213	-0,239
203,232	-167,187	-0,243	-0,007
204,246	52,542	-0,225	-0,148
205,261	4,133	-0,227	-0,114
206,275	144,157	-0,183	-0,169
207,290	800,000	-0,085	-0,223
208,304	-64,116	-0,158	-0,044
209,319	-192,373	-0,155	0,001
210,334	-35,628	-0,209	-0,078
211,348	-109,070	-0,218	-0,032
212,363	-59,770	-0,151	-0,044
213,377	-141,514	-0,201	-0,014
214,392	800,000	-0,062	-0,124
215,407	54,529	-0,100	-0,067
216,421	-31,261	-0,248	-0,096
217,436	75,926	-0,187	-0,136
218,450	142,079	-0,257	-0,235
219,465	-152,347	-0,242	-0,012
220,480	212,733	-0,158	-0,172
221,494	434,177	-0,102	-0,153
222,509	374,743	-0,100	-0,142
223,523	-91,551	-0,280	-0,055
224,538	-21,353	-0,312	-0,131
225,553	137,485	-0,294	-0,266
226,567	-189,307	-0,165	-0,001
227,582	234,286	-0,154	-0,176
228,596	371,830	-0,110	-0,155
229,611	-27,543	-0,318	-0,127
230,626	-53,230	-0,183	-0,058
231,640	-52,222	-0,190	-0,060
232,655	421,600	-0,149	-0,222
233,669	248,134	-0,126	-0,148
234,684	92,567	-0,180	-0,140
235,699	205,987	-0,103	-0,110
236,713	124,546	-0,242	-0,210
237,728	-120,224	-0,232	-0,027
238,742	104,382	-0,233	-0,190
239,757	112,251	-0,119	-0,099
240,772	-23,335	-0,163	-0,067
241,786	-97,821	-0,236	-0,042
242,801	274,565	-0,101	-0,123
243,815	2,929	-0,128	-0,064
244,830	-165,851	-0,163	0,005
245,844	-97,067	-0,225	-0,040
246,859	-21,275	-0,262	-0,110
247,874	416,052	-0,090	-0,132
248,888	407,358	-0,144	-0,211
249,903	43,429	-0,217	-0,136
250,917	103,499	-0,155	-0,126
251,932	-21,721	-0,118	-0,049
252,947	708,122	-0,108	-0,198
253,961	310,677	-0,130	-0,169
254,976	29,589	-0,240	-0,140
255,990	-27,179	-0,170	-0,068
257,005	-71,116	-0,192	-0,049
258,020	59,649	-0,215	-0,146
259,034	-200,000	0,014	-0,148
260,049	209,516	-0,072	-0,078
261,063	181,262	-0,205	-0,208
262,078	46,161	-0,215	-0,137
263,093	6,928	-0,326	-0,167
264,107	-36,517	-0,180	-0,067
265,122	-200,000	-0,096	-0,331
266,136	191,948	-0,188	-0,195
267,151	16,028	-0,154	-0,083
268,166	-102,995	-0,174	0,028
269,180	253,615	-0,165	-0,195
270,195	-84,798	-0,148	0,032
271,209	6,067	-0,297	-0,151
272,224	-156,940	-0,154	-0,006
273,239	-59,155	0,050	-0,015
274,253	120,629	-0,106	-0,090
275,268	607,307	-0,143	-0,246
276,282	800,000	-0,085	-0,194
277,297	-56,322	-0,264	-0,080
278,312	-90,921	-0,201	-0,039
279,326	172,886	-0,136	-0,135
280,341	155,517	-0,175	-0,166
281,355	123,486	-0,149	-0,129
282,370	333,465	-0,213	-0,284
283,384	119,888	-0,155	-0,132
284,399	207,744	-0,233	-0,250
285,414	216,135	-0,096	-0,105
286,428	97,941	-0,182	-0,144
287,443	326,790	-0,028	-0,037
288,457	261,018	-0,084	-0,101
289,472	254,831	-0,082	-0,097
290,487	-78,733	-0,239	-0,056
291,501	15,298	-0,267	-0,144
292,516	21,167	-0,240	-0,133
293,530	-121,937	-0,171	-0,019
294,545	-19,062	-0,111	0,047
295,560	313,230	-0,032	0,042
296,574	-20,437	-0,198	-0,083
297,589	128,108	-0,136	-0,119
298,603	617,426	-0,111	-0,192
299,618	800,000	-0,033	-0,072
300,633	-85,077	-0,139	-0,030
301,647	800,000	-0,150	-0,349
302,662	146,226	-0,057	-0,053
303,676	-147,876	-0,188	0,011
304,691	85,482	-0,153	-0,116
305,706	744,938	-0,068	-0,126
306,720	158,091	-0,189	-0,180
307,735	-41,480	-0,046	-0,016
308,749	-142,389	-0,041	0,003
309,764	-27,653	-0,094	-0,037
310,779	8,182	-0,068	0,035
311,793	-47,944	-0,158	-0,052
312,808	7,677	-0,206	-0,106
313,822	-150,404	-0,146	0,008
314,837	132,911	-0,080	-0,071
315,852	-19,909	-0,184	-0,077
316,866	69,158	-0,067	0,047
317,881	-132,266	-0,203	0,018
318,895	-134,500	-0,094	0,008
319,910	340,872	-0,159	-0,214
320,925	-148,050	-0,116	-0,006
321,939	800,000	-0,031	-0,083
322,954	800,000	-0,059	-0,134
323,968	168,990	-0,145	-0,142
324,983	473,245	-0,090	-0,139
325,997	702,348	-0,096	-0,174
327,012	19,669	-0,122	-0,067
328,027	182,173	-0,161	-0,162
329,041	275,773	-0,190	-0,232
330,056	243,648	-0,175	0,201
331,070	154,342	-0,158	-0,149
332,085	-36,876	-0,181	-0,066
333,100	536,468	-0,070	-0,114
334,114	299,412	-0,087	-0,110
335,129	764,504	0,089	-0,166
336,143	471,159	-0,106	-0,163
337,158	-200,000	-0,017	-0,078
338,173	601,383	-0,083	-0,142
339,187	444,171	-0,054	-0,082
340,202	10,292	-0,050	-0,026
341,216	125,022	-0,046	-0,040
342,231	-91,691	-0,134	-0,026
343,246	374,614	-0,109	-0,153
344,260	-145,281	-0,181	0,011
345,275	-200,000	-0,036	-0,174
346,289	-200,000	0,022	-0,166
347,304	273,460	-0,106	0,128
348,319	800,000	-0,019	0,048
349,333	-200,000	-0,020	-0,091
350,348	-44,958	-0,158	-0,053
351,362	800,000	-0,113	-0,253
352,377	800,000	-0,040	-0,094
353,392	-32,103	-0,146	-0,056
354,406	316,245	-0,060	-0,077
355,421	208,193	1308,696	1399,423
356,435	160,191	1468,607	1399,864
