DTS Sentinel unit serial number:	SN410029Multiplexer serial number:	ORYXHardware model number:	OX2-SRSoftware version number:	ORYX F/W v4,00 Oryx Data Collector v3.7.2.0data status	okinstallation	B3 Nyhavnadifferential loss correction	single-endedforward channel	channel 1reverse channel	N/Adate	2023/12/02time	05:57:30forward acquisition time	300,00reverse acquisition time	0,00gamma	499,1914k internal	0,3194k external	0,3194temperature offset calibration	1,0000default loss term (dB/km)	0,3820temperature slope calibration	1,0000multiplexer offset coefficient	1,0000multiplexer slope coefficient	1,0000fibre end	0,00T internal ref (°C)	16,12T ext. ref 1 (°C)	0,86T ext. ref 2 (°C)	0,85length (m)	temperature (°C)	Stokes	anti-Stokes-744,400	207,137	-0,278	-0,316
-743,385	-200,000	0,009	0,420
-742,371	95,664	-0,224	-0,186
-741,356	800,000	0,092	0,266
-740,342	58,363	-0,152	-0,109
-739,327	-200,000	0,023	0,228
-738,312	124,015	-0,187	-0,171
-737,298	-200,000	0,025	0,302
-736,283	225,000	-0,189	-0,223
-735,269	-200,000	-0,002	0,341
-734,254	183,196	-0,262	-0,282
-733,239	154,236	-0,210	0,210
-732,225	-200,000	-0,032	-0,163
-731,210	31,647	0,183	0,115
-730,196	-0,274	-0,034	-0,018
-729,181	59,270	-0,087	0,063
-728,167	-22,027	-0,180	0,079
-727,152	-200,000	0,028	-0,096
-726,137	-48,599	-0,168	-0,059
-725,123	-139,561	-0,113	0,009
-724,108	-82,646	-0,170	0,040
-723,094	599,913	-0,090	-0,164
-722,079	-35,120	-0,075	0,030
-721,064	191,421	-0,035	0,039
-720,050	800,000	-0,009	-0,028
-719,035	-52,626	-0,105	0,035
-718,021	800,000	-0,037	0,080
-717,006	-80,253	-0,170	0,041
-715,991	662,268	-0,028	-0,053
-714,977	328,408	0,023	-0,032
-713,962	-200,000	0,008	-0,051
-712,948	-49,978	-0,062	-0,021
-711,933	800,000	0,080	-0,197
-710,918	-11,036	-0,060	-0,029
-709,904	800,000	-0,017	-0,044
-708,889	80,887	-0,107	-0,084
-707,875	-200,000	-0,012	-0,141
-706,860	39,792	-0,130	-0,085
-705,845	-80,670	0,063	-0,015
-704,831	-200,000	-0,002	-0,095
-703,816	800,000	-0,008	0,027
-702,802	79,834	-0,082	0,064
-701,787	-57,109	-0,052	0,016
-700,772	-108,227	-0,150	0,023
-699,758	573,677	-0,098	-0,175
-698,743	371,602	0,024	0,035
-697,729	-51,188	0,137	0,046
-696,714	800,000	-0,031	0,076
-695,699	-200,000	-0,037	0,188
-694,685	-200,000	-0,039	-0,151
-693,670	362,907	-0,064	-0,094
-692,656	-200,000	-0,027	0,206
-691,641	-16,700	-0,076	0,035
-690,627	-135,827	-0,031	-0,003
-689,612	10,060	-0,170	0,094
-688,597	-43,014	-0,149	0,055
-687,583	249,563	-0,066	0,082
-686,568	39,541	-0,060	-0,039
-685,554	800,000	0,061	-0,184
-684,539	75,592	-0,034	0,026
-683,524	73,292	0,073	0,056
-682,510	467,165	0,067	0,110
-681,495	29,424	0,104	-0,064
-680,481	-102,594	-0,141	0,024
-679,466	13,655	-0,078	-0,044
-678,451	69,036	0,092	0,069
-677,437	-186,215	0,234	-0,002
-676,422	800,000	-0,037	0,096
-675,408	-200,000	-0,034	0,139
-674,393	34,274	-0,106	0,067
-673,378	-132,667	-0,130	-0,012
-672,364	124,515	-0,066	0,060
-671,349	-200,000	-0,012	-0,156
-670,335	-200,000	0,004	-0,080
-669,320	163,092	-0,052	0,053
-668,305	-200,000	-0,012	0,136
-667,291	173,414	-0,019	0,020
-666,276	-70,633	-0,114	-0,031
-665,262	250,099	-0,103	0,128
-664,247	-16,851	-0,172	0,079
-663,232	239,493	-0,043	-0,053
-662,218	42,434	0,066	-0,043
-661,203	-200,000	-0,010	0,139
-660,189	-43,957	-0,077	-0,028
-659,174	268,340	-0,078	0,100
-658,159	-38,019	-0,167	-0,064
-657,145	800,000	-0,039	-0,099
-656,130	800,000	0,037	-0,101
-655,116	8,587	-0,062	-0,034
-654,101	-200,000	0,000	0,006
-653,086	-55,066	-0,057	0,018
-652,072	800,000	-0,034	0,074
-651,057	-163,456	-0,072	0,002
-650,043	61,389	0,012	0,009
-649,028	-141,934	0,028	-0,002
-648,014	-118,574	0,046	0,006
-646,999	138,009	-0,021	0,020
-645,984	800,000	0,015	-0,042
-644,970	-179,810	-0,080	-0,001
-643,955	-200,000	-0,019	-0,082
-642,941	-106,012	-0,090	-0,015
-641,926	610,317	0,045	0,082
-640,911	-200,000	-0,033	0,131
-639,897	707,983	-0,027	-0,051
-638,882	366,639	0,066	0,097
-637,868	669,033	-0,051	0,096
-636,853	800,000	0,017	-0,054
-635,838	-150,592	-0,200	0,011
-634,824	-200,000	-0,019	-0,112
-633,809	-102,649	0,125	0,021
-632,795	135,557	-0,045	-0,042
-631,780	-78,089	0,114	-0,028
-630,765	-200,000	0,015	0,103
-629,751	-200,000	0,009	-0,039
-628,736	-200,000	0,013	0,075
-627,722	766,337	0,024	-0,047
-626,707	-200,000	-0,009	0,049
-625,692	125,401	0,047	0,043
-624,678	-200,000	0,057	0,186
-623,663	-200,000	0,010	-0,101
-622,649	-52,531	-0,031	0,010
-621,634	-120,950	0,114	0,014
-620,619	-200,000	0,014	-0,123
-619,605	800,000	0,037	0,083
-618,590	-109,521	0,051	-0,008
-617,576	361,806	-0,037	-0,054
-616,561	-200,000	0,015	0,050
-615,546	779,333	-0,061	0,122
-614,532	185,487	-0,031	0,034
-613,517	-200,000	0,009	-0,100
-612,503	-166,129	-0,135	0,004
-611,488	-43,387	0,083	0,030
-610,474	218,565	0,066	-0,077
-609,459	95,149	0,073	-0,060
-608,444	800,000	-0,050	-0,119
-607,430	50,260	-0,084	-0,057
-606,415	-69,727	-0,022	-0,006
-605,401	-200,000	0,012	0,048
-604,386	800,000	-0,059	0,124
-603,371	800,000	-0,025	-0,072
-602,357	-200,000	-0,020	-0,192
-601,342	800,000	-0,048	-0,106
-600,328	-200,000	0,001	-0,022
-599,313	-200,000	0,011	0,035
-598,298	331,426	-0,019	-0,027
-597,284	55,135	0,117	0,082
-596,269	-200,000	0,001	0,052
-595,255	-200,000	-0,014	-0,144
-594,240	-71,776	0,080	0,021
-593,225	-95,486	0,004	0,001
-592,211	-200,000	0,010	-0,080
-591,196	105,488	0,064	-0,055
-590,182	-33,334	-0,113	-0,045
-589,167	-200,000	0,015	0,143
-588,152	104,668	-0,046	-0,040
-587,138	20,898	-0,089	-0,052
-586,123	542,197	0,037	-0,064
-585,109	-200,000	-0,004	-0,107
-584,094	70,393	-0,150	-0,112
-583,079	53,469	0,073	0,051
-582,065	25,086	0,081	0,049
-581,050	-200,000	-0,002	0,016
-580,036	731,755	0,033	-0,064
-579,021	-200,000	-0,003	-0,064
-578,006	800,000	-0,060	-0,138
-576,992	104,389	-0,099	0,085
-575,977	122,181	0,076	0,069
-574,963	-38,763	0,087	0,033
-573,948	690,852	-0,080	0,153
-572,934	100,331	-0,074	-0,062
-571,919	309,160	-0,021	0,029
-570,904	-200,000	0,001	0,053
-569,890	-200,000	-0,001	-0,024
-568,875	-3,699	0,078	0,039
-567,861	-200,000	0,032	0,118
-566,846	-200,000	0,013	0,129
-565,831	800,000	0,017	0,034
-564,817	-200,000	0,017	-0,161
-563,802	394,630	0,081	-0,122
-562,788	5,393	-0,093	0,050
-561,773	381,729	0,061	0,091
-560,758	-200,000	-0,021	-0,083
-559,744	193,199	-0,072	0,079
-558,729	203,591	-0,043	0,048
-557,715	-76,544	-0,120	-0,030
-556,700	73,048	0,064	-0,049
-555,685	-200,000	0,000	-0,046
-554,671	181,131	-0,114	0,121
-553,656	-174,317	0,112	-0,002
-552,642	-135,399	0,039	0,003
-551,627	-51,914	-0,031	0,010
-550,612	10,901	-0,040	-0,022
-549,598	66,669	-0,121	-0,089
-548,583	90,635	0,061	0,049
-547,569	-200,000	-0,000	0,132
-546,554	37,762	-0,024	-0,015
-545,539	116,357	0,194	0,172
-544,525	800,000	0,035	0,107
-543,510	800,000	0,039	0,104
-542,496	303,501	-0,085	-0,114
-541,481	800,000	-0,019	0,057
-540,466	36,797	-0,063	-0,041
-539,452	-14,229	0,054	0,025
-538,437	-18,456	0,069	0,031
-537,423	-200,000	0,011	0,049
-536,408	-200,000	0,007	-0,085
-535,393	77,973	-0,099	-0,076
-534,379	-61,004	0,020	0,006
-533,364	-23,609	0,069	0,030
-532,350	-87,921	-0,129	-0,028
-531,335	19,672	0,150	0,087
-530,321	-173,093	0,164	0,004
-529,306	-163,082	0,040	0,001
-528,291	-133,039	0,017	0,002
-527,277	175,113	0,114	-0,119
-526,262	132,921	-0,028	0,026
-525,248	-136,621	0,065	-0,005
-524,233	283,001	-0,017	-0,022
-523,218	-106,849	0,087	-0,014
-522,204	-86,189	-0,194	0,043
-521,189	-133,416	-0,100	0,009
-520,175	579,352	-0,046	-0,082
-519,160	-80,105	-0,056	0,014
-518,145	-200,000	-0,005	0,060
-517,131	800,000	0,021	0,049
-516,116	-200,000	-0,040	0,129
-515,102	537,031	0,011	-0,018
-514,087	-200,000	-0,025	-0,089
-513,072	1,370	-0,078	-0,040
-512,058	303,065	-0,093	-0,125
-511,043	-112,402	0,087	0,012
-510,029	9,878	-0,037	0,020
-509,014	142,033	-0,084	0,080
-507,999	-10,853	0,066	0,032
-506,985	112,549	0,068	-0,060
-505,970	25,733	-0,052	-0,031
-504,956	21,717	-0,102	-0,060
-503,941	800,000	-0,006	0,016
-502,926	93,067	-0,014	0,011
-501,912	152,309	0,032	0,032
-500,897	-200,000	-0,021	0,094
-499,883	103,836	0,096	0,081
-498,868	404,640	-0,023	-0,035
-497,853	-200,000	-0,036	0,139
-496,839	800,000	-0,019	-0,052
-495,824	800,000	-0,027	0,074
-494,810	-113,538	0,078	-0,011
-493,795	-200,000	-0,033	0,169
-492,781	-200,000	0,017	-0,096
-491,766	-28,307	-0,051	-0,021
-490,751	126,658	-0,050	0,045
-489,737	-71,788	-0,114	-0,030
-488,722	297,079	0,047	0,062
-487,708	23,459	0,059	-0,035
-486,693	568,186	0,042	-0,074
-485,678	338,418	0,007	0,009
-484,664	-200,000	-0,038	0,188
-483,649	422,413	-0,082	-0,127
-482,635	800,000	0,046	-0,134
-481,620	219,257	-0,071	0,082
-480,605	63,099	-0,058	0,042
-479,591	93,811	0,114	-0,093
-478,576	52,013	-0,021	-0,015
-477,562	800,000	-0,029	-0,077
-476,547	8,118	-0,037	-0,020
-475,532	-176,274	0,053	-0,001
-474,518	-41,400	-0,126	0,047
-473,503	-200,000	0,009	0,038
-472,489	800,000	-0,008	0,024
-471,474	538,772	-0,050	0,086
-470,459	546,067	0,056	-0,097
-469,445	161,861	-0,041	-0,042
-468,430	-200,000	-0,005	-0,080
-467,416	111,615	-0,103	0,090
-466,401	-200,000	0,010	0,135
-465,386	-88,985	0,111	-0,024
-464,372	800,000	0,013	0,040
-463,357	800,000	0,041	0,095
-462,343	-53,854	0,026	0,008
-461,328	-200,000	-0,021	0,067
-460,313	52,039	0,030	-0,021
-459,299	-72,391	0,090	-0,024
-458,284	-136,991	0,091	-0,007
-457,270	280,694	-0,047	0,060
-456,255	53,249	0,061	0,042
-455,241	114,218	0,084	0,073
-454,226	800,000	0,035	0,095
-453,211	-78,284	-0,184	0,045
-452,197	-145,278	0,071	-0,005
-451,182	385,990	-0,021	0,031
-450,168	-78,278	-0,019	-0,005
-449,153	-28,341	-0,141	0,058
-448,138	-200,000	-0,026	-0,154
-447,124	123,047	-0,078	0,070
-446,109	-112,692	-0,249	0,035
-445,095	-7,215	0,102	-0,050
-444,080	-65,580	0,036	0,010
-443,065	357,639	-0,040	0,057
-442,051	100,702	0,049	-0,041
-441,036	-200,000	0,001	-0,099
-440,022	-67,310	0,080	0,023
-439,007	-56,099	-0,044	-0,014
-437,992	254,082	0,067	0,083
-436,978	-41,932	-0,066	0,024
-435,963	-23,648	0,025	-0,011
-434,949	-165,520	-0,112	0,003
-433,934	157,403	-0,077	-0,077
-432,919	1,497	0,175	-0,090
-431,905	-99,533	-0,112	-0,020
-430,890	800,000	0,076	-0,228
-429,876	800,000	0,021	0,060
-428,861	800,000	-0,031	0,065
-427,846	800,000	0,021	0,057
-426,832	-200,000	-0,011	-0,105
-425,817	144,949	-0,041	-0,039
-424,803	-200,000	0,011	-0,142
-423,788	-104,848	0,038	-0,006
-422,773	729,686	0,008	-0,015
-421,759	-70,488	0,160	-0,043
-420,744	-200,000	-0,021	-0,077
-419,730	800,000	-0,024	-0,055
-418,715	-200,000	0,006	-0,026
-417,701	600,283	0,015	0,027
-416,686	-200,000	-0,001	0,018
-415,671	126,165	0,064	-0,059
-414,657	800,000	0,038	0,110
-413,642	-77,581	-0,064	-0,016
-412,628	158,300	-0,107	0,107
-411,613	148,702	-0,039	-0,038
-410,598	368,315	0,042	-0,061
-409,584	-94,599	0,145	-0,028
-408,569	-200,000	-0,023	0,082
-407,555	-200,000	0,022	0,088
-406,540	-200,000	0,018	0,073
-405,525	800,000	0,035	0,096
-404,511	-45,645	-0,150	-0,053
-403,496	-200,000	0,022	-0,102
-402,482	-200,000	-0,017	-0,118
-401,467	179,230	0,118	-0,124
-400,452	-200,000	0,020	0,228
-399,438	84,960	0,074	0,058
-398,423	-143,115	0,074	0,005
-397,409	800,000	-0,054	-0,131
-396,394	-200,000	-0,005	-0,056
-395,379	41,233	-0,035	0,022
-394,365	165,333	-0,052	-0,052
-393,350	800,000	-0,024	0,063
-392,336	-200,000	-0,017	0,189
-391,321	193,829	-0,049	-0,054
-390,306	-200,000	0,040	-0,142
-389,292	203,080	-0,118	-0,131
-388,277	34,700	-0,041	-0,026
-387,263	134,623	0,090	-0,084
-386,248	800,000	-0,010	-0,024
-385,233	279,038	0,040	0,052
-384,219	-114,033	0,119	-0,016
-383,204	800,000	-0,016	-0,046
-382,190	-200,000	0,019	0,092
-381,175	-200,000	-0,018	-0,087
-380,160	-200,000	-0,014	0,098
-379,146	-83,086	-0,079	0,018
-378,131	-200,000	0,004	0,032
-377,117	610,967	-0,045	-0,080
-376,102	-200,000	-0,008	-0,066
-375,088	-115,594	0,062	0,008
-374,073	213,662	0,059	-0,067
-373,058	461,009	-0,043	-0,069
-372,044	651,189	-0,039	0,072
-371,029	93,415	0,141	0,114
-370,015	800,000	0,014	-0,032
-369,000	293,823	-0,040	0,053
-367,985	33,020	0,092	-0,057
-366,971	389,599	0,025	0,037
-365,956	85,185	0,070	-0,055
-364,942	-200,000	-0,009	0,122
-363,927	-200,000	-0,016	0,116
-362,912	-200,000	0,013	0,154
-361,898	-200,000	0,014	0,067
-360,883	263,474	-0,054	-0,067
-359,869	61,154	-0,064	-0,046
-358,854	-45,560	0,071	-0,025
-357,839	-87,714	0,076	-0,016
-356,825	-117,942	0,084	-0,011
-355,810	-163,159	0,092	0,003
-354,796	367,575	-0,085	-0,124
-353,781	388,062	-0,031	-0,046
-352,766	-32,382	-0,094	-0,037
-351,752	-140,696	-0,063	0,005
-350,737	-128,756	0,165	0,016
-349,723	800,000	0,039	-0,087
-348,708	-200,000	-0,044	0,217
-347,693	-132,934	-0,102	-0,009
-346,679	396,928	0,086	-0,129
-345,664	-200,000	-0,021	-0,091
-344,650	237,217	-0,034	0,040
-343,635	-200,000	-0,001	0,024
-342,620	-200,000	0,055	-0,000
-341,606	-200,000	0,012	-0,087
-340,591	800,000	-0,020	-0,059
-339,577	800,000	-0,027	0,065
-338,562	48,177	0,113	0,076
-337,548	800,000	-0,017	-0,044
-336,533	800,000	-0,072	0,168
-335,518	53,425	0,064	0,044
-334,504	-166,937	-0,055	0,002
-333,489	-87,818	-0,144	0,031
-332,475	-200,000	-0,003	0,023
-331,460	-52,524	0,037	-0,012
-330,445	514,700	0,098	0,165
-329,431	-200,000	-0,004	0,066
-328,416	-200,000	0,025	0,106
-327,402	-200,000	-0,016	-0,101
-326,387	800,000	0,043	-0,122
-325,372	800,000	-0,021	0,047
-324,358	108,649	-0,083	0,071
-323,343	47,504	0,103	-0,069
-322,329	800,000	0,030	-0,060
-321,314	250,806	0,054	0,066
-320,299	-200,000	-0,002	0,046
-319,285	-200,000	-0,020	0,094
-318,270	-200,000	0,005	0,047
-317,256	-200,000	-0,000	-0,102
-316,241	-10,771	-0,116	0,055
-315,226	-133,005	0,097	0,009
-314,212	25,824	0,012	-0,007
-313,197	82,384	0,059	0,046
-312,183	-140,904	-0,059	0,004
-311,168	165,969	-0,021	0,021
-310,153	800,000	-0,027	-0,086
-309,139	-62,834	0,050	-0,015
-308,124	-200,000	0,021	0,076
-307,110	-125,022	0,065	0,007
-306,095	-200,000	-0,003	0,033
-305,080	25,736	0,051	-0,030
-304,066	183,420	-0,059	0,062
-303,051	800,000	0,038	-0,115
-302,037	228,924	-0,051	-0,059
-301,022	-5,312	0,057	-0,028
-300,008	800,000	-0,053	0,130
-298,993	800,000	-0,035	0,099
-297,978	30,804	-0,062	-0,038
-296,964	262,495	-0,037	0,045
-295,949	-32,355	-0,097	0,038
-294,935	800,000	0,009	-0,026
-293,920	3,782	-0,059	-0,031
-292,905	-61,623	0,051	0,015
-291,891	-13,832	0,079	0,036
-290,876	-200,000	0,000	-0,015
-289,862	800,000	-0,084	-0,187
-288,847	642,410	0,019	0,034
-287,832	-107,412	-0,232	-0,036
-286,818	-130,148	-0,066	-0,006
-285,803	-109,378	-0,049	-0,007
-284,789	221,755	-0,067	0,077
-283,774	800,000	-0,011	-0,028
-282,759	284,653	0,037	-0,048
-281,745	-200,000	-0,002	-0,069
-280,730	800,000	-0,033	-0,066
-279,716	-105,199	0,115	-0,019
-278,701	-200,000	-0,002	-0,046
-277,686	-200,000	-0,004	0,081
-276,672	-200,000	0,014	0,133
-275,657	-97,260	0,032	0,006
-274,643	-141,899	-0,173	0,012
-273,628	13,648	0,054	0,030
-272,613	791,935	0,091	-0,179
-271,599	-200,000	-0,003	-0,066
-270,584	275,923	0,016	0,021
-269,570	22,620	-0,094	0,055
-268,555	-70,931	-0,047	0,013
-267,540	-22,171	0,048	0,021
-266,526	84,035	0,021	-0,017
-265,511	523,514	-0,015	-0,026
-264,497	-200,000	0,018	0,111
-263,482	-200,000	0,002	0,040
-262,467	404,164	0,056	0,085
-261,453	-200,000	-0,022	-0,070
-260,438	-200,000	0,034	-0,127
-259,424	255,406	0,051	-0,062
-258,409	198,934	0,072	0,079
-257,395	243,795	0,022	-0,026
-256,380	-55,579	0,094	0,030
-255,365	-16,683	-0,039	0,018
-254,351	-85,757	-0,149	0,033
-253,336	392,389	0,031	-0,046
-252,322	-200,000	-0,001	0,032
-251,307	112,408	-0,038	0,033
-250,292	-38,503	0,053	-0,020
-249,278	-182,726	0,100	0,001
-248,263	800,000	-0,021	0,057
-247,249	34,343	0,151	0,094
-246,234	-123,323	0,054	0,006
-245,219	20,573	-0,179	-0,103
-244,205	192,941	0,041	-0,045
-243,190	-163,282	-0,155	-0,005
-242,176	379,419	0,129	0,190
-241,161	800,000	0,019	0,039
-240,146	-74,147	0,084	-0,021
-239,132	346,231	-0,058	-0,081
-238,117	449,883	-0,090	-0,142
-237,103	-40,491	0,040	-0,015
-236,088	105,997	0,025	-0,021
-235,073	-78,033	0,085	0,021
-234,059	800,000	-0,056	0,119
-233,044	360,307	0,055	0,079
-232,030	-160,371	0,060	0,002
-231,015	800,000	-0,009	-0,021
-230,000	-53,739	0,134	-0,043
-228,986	-200,000	-0,006	-0,057
-227,971	69,296	0,049	-0,036
-226,957	440,653	-0,006	-0,010
-225,942	800,000	0,073	0,187
-224,927	-115,661	0,068	0,009
-223,913	800,000	-0,052	-0,114
-222,898	138,938	-0,060	-0,056
-221,884	-149,738	-0,019	0,001
-220,869	51,978	-0,173	0,117
-219,855	69,498	0,046	0,034
-218,840	25,479	0,058	0,034
-217,825	3,916	0,067	-0,035
-216,811	-3,804	-0,133	-0,066
-215,796	-200,000	-0,007	-0,123
-214,782	171,566	0,122	-0,125
-213,767	-200,000	-0,024	-0,078
-212,752	-50,225	0,043	-0,014
-211,738	14,896	0,110	-0,061
-210,723	32,743	-0,060	-0,037
-209,709	800,000	-0,026	-0,057
-208,694	19,816	0,114	-0,066
-207,679	36,755	-0,083	-0,052
-206,665	19,474	0,080	0,046
-205,650	-200,000	-0,004	0,043
-204,636	184,783	-0,083	0,088
-203,621	-200,000	0,028	0,107
-202,606	13,196	-0,026	0,014
-201,592	-200,000	-0,001	-0,091
-200,577	-23,052	0,022	-0,009
-199,563	800,000	-0,085	-0,175
-198,548	-9,481	0,032	0,015
-197,533	800,000	0,036	0,092
-196,519	195,385	0,077	0,083
-195,504	270,866	-0,126	-0,159
-194,490	800,000	-0,035	0,080
-193,475	169,977	-0,092	0,094
-192,460	475,079	0,066	0,106
-191,446	-200,000	-0,001	0,032
-190,431	-200,000	0,005	-0,151
-189,417	376,626	-0,053	-0,078
-188,402	-200,000	0,019	0,195
-187,387	-200,000	0,004	0,052
-186,373	198,222	-0,069	-0,076
-185,358	138,100	0,049	0,045
-184,344	800,000	0,024	-0,056
-183,329	-81,268	0,060	-0,014
-182,315	-200,000	-0,005	-0,127
-181,300	-148,359	-0,060	0,003
-180,285	800,000	0,013	0,039
-179,271	-57,571	0,089	-0,028
-178,256	-200,000	0,001	-0,052
-177,242	37,081	-0,134	0,084
-176,227	158,671	0,018	-0,018
-175,212	-74,338	0,202	0,052
-174,198	-200,000	0,014	-0,056
-173,183	-200,000	0,014	-0,067
-172,169	299,755	0,073	-0,096
-171,154	234,701	-0,053	0,063
-170,139	479,054	-0,012	-0,019
-169,125	-200,000	0,017	0,064
-168,110	-111,016	-0,118	-0,017
-167,096	-115,761	-0,088	-0,012
-166,081	82,181	-0,091	-0,070
-165,066	-47,421	-0,179	-0,062
-164,052	164,308	-0,045	-0,045
-163,037	245,716	-0,024	-0,029
-162,023	800,000	0,027	-0,076
-161,008	171,272	0,042	0,043
-159,993	-122,381	0,117	0,013
-158,979	-22,220	0,094	-0,041
-157,964	283,158	-0,092	-0,118
-156,950	-38,374	-0,106	0,040
-155,935	-200,000	0,009	0,067
-154,920	34,133	0,056	-0,035
-153,906	86,935	0,100	0,079
-152,891	55,023	-0,028	0,019
-151,877	-0,082	-0,092	0,047
-150,862	479,286	0,068	0,111
-149,847	117,265	-0,127	0,111
-148,833	11,421	0,043	0,023
-147,818	520,836	0,014	0,024
-146,804	-35,153	-0,164	0,063
-145,789	316,728	-0,012	-0,016
-144,775	-34,890	0,015	0,006
-143,760	800,000	-0,042	0,100
-142,745	-200,000	-0,009	-0,117
-141,731	654,159	0,081	-0,148
-140,716	-200,000	0,016	-0,075
-139,702	-200,000	0,018	0,075
-138,687	311,514	0,037	-0,050
-137,672	41,882	-0,112	0,072
-136,658	714,267	0,022	-0,041
-135,643	-104,212	-0,094	-0,015
-134,629	-200,000	0,036	-0,148
-133,614	11,962	-0,005	0,003
-132,599	700,597	0,080	-0,150
-131,585	37,224	-0,034	-0,021
-130,570	187,608	-0,111	-0,118
-129,556	-200,000	-0,036	0,125
-128,541	-39,044	-0,127	-0,047
-127,526	-39,841	-0,041	0,015
-126,512	-91,304	-0,004	-0,001
-125,497	-21,511	0,185	0,080
-124,483	-105,245	-0,061	0,010
-123,468	-200,000	0,009	0,079
-122,453	591,200	-0,061	-0,107
-121,439	-59,159	-0,131	0,040
-120,424	-200,000	0,006	-0,079
-119,410	800,000	-0,018	0,054
-118,395	-200,000	0,100	-0,000
-117,380	180,218	0,156	0,163
-116,366	-200,000	-0,001	-0,024
-115,351	290,940	-0,039	-0,051
-114,337	546,430	-0,048	0,082
-113,322	-200,000	0,028	-0,096
-112,307	105,069	0,066	0,056
-111,293	346,442	0,128	0,180
-110,278	561,789	0,072	0,125
-109,264	11,922	-0,078	0,043
-108,249	-200,000	-0,024	-0,139
-107,234	62,537	-0,104	-0,074
-106,220	800,000	0,030	-0,087
-105,205	57,879	0,082	-0,057
-104,191	800,000	0,045	0,136
-103,176	-200,000	-0,022	0,105
-102,162	32,191	0,117	0,071
-101,147	336,003	-0,017	0,024
-100,132	-8,055	0,071	-0,034
-99,118	800,000	-0,033	0,071
-98,103	466,605	0,113	-0,180
-97,089	692,454	0,025	0,047
-96,074	268,676	-0,052	0,066
-95,059	-200,000	0,005	0,026
-94,045	-142,791	-0,149	-0,010
-93,030	262,655	-0,013	0,016
-92,016	-72,068	-0,041	-0,011
-91,001	9,593	-0,121	-0,065
-89,986	-1,884	0,169	-0,084
-88,972	58,968	-0,066	-0,046
-87,957	-200,000	0,125	0,000
-86,943	-200,000	0,006	-0,101
-85,928	262,178	-0,014	0,018
-84,913	15,817	-0,061	-0,034
-83,899	235,316	-0,049	0,057
-82,884	704,997	-0,016	-0,030
-81,870	-1,917	0,129	0,064
-80,855	-200,000	0,005	0,049
-79,840	800,000	-0,013	0,032
-78,826	253,196	0,035	0,042
-77,811	-200,000	0,003	-0,242
-76,797	99,168	0,046	0,038
-75,782	264,171	-0,071	-0,088
-74,767	-95,512	-0,078	0,015
-73,753	800,000	0,014	-0,041
-72,738	-52,613	-0,065	-0,021
-71,724	-45,422	-0,095	-0,033
-70,709	-184,108	-0,031	-0,000
-69,694	-59,862	-0,105	-0,032
-68,680	-200,000	-0,009	-0,054
-67,665	-22,890	0,143	-0,061
-66,651	391,718	-0,055	0,081
-65,636	75,761	0,069	0,052
-64,622	93,926	-0,208	0,168
-63,607	800,000	-0,059	-0,160
-62,592	-200,000	-0,006	-0,084
-61,578	-200,000	-0,018	0,083
-60,563	289,222	0,110	0,142
-59,549	10,894	0,021	0,011
-58,534	-84,975	-1,403	-0,310
-57,519	329,936	-1,567	-2,146
-56,505	-200,000	-0,474	-4,437
-55,490	92,480	0,958	0,766
-54,476	800,000	4,837	11,176
-53,461	-200,000	17,644	280,505
-52,446	800,000	720,054	2221,980
-51,432	562,721	1634,400	2817,572
-50,417	81,163	1658,155	1269,442
-49,403	23,958	1532,054	894,198
-48,388	17,986	1455,316	820,603
-47,373	18,420	1444,956	816,808
-46,359	17,982	1435,534	809,362
-45,344	16,222	1430,985	798,398
-44,330	16,226	1428,830	797,183
-43,315	16,171	1427,286	796,030
-42,300	16,195	1425,655	795,202
-41,286	16,239	1424,516	794,739
-40,271	16,202	1423,206	793,802
-39,257	16,240	1421,686	793,104
-38,242	16,255	1420,513	792,492
-37,227	16,263	1419,329	791,834
-36,213	16,233	1418,007	790,926
-35,198	16,186	1416,758	789,973
-34,184	16,232	1415,979	789,726
-33,169	16,195	1414,639	788,772
-32,154	16,183	1413,878	788,260
-31,140	16,240	1412,355	787,647
-30,125	16,272	1411,167	787,103
-29,111	16,218	1410,209	786,288
-28,096	16,173	1409,199	785,480
-27,082	16,109	1407,990	784,474
-26,067	16,147	1406,807	783,963
-25,052	16,147	1405,653	783,290
-24,038	16,138	1404,764	782,722
-23,023	16,123	1403,657	782,003
-22,009	16,146	1402,691	781,540
-20,994	16,074	1401,698	780,623
-19,979	16,094	1400,930	780,256
-18,965	16,122	1399,807	779,731
-17,950	16,093	1398,833	779,024
-16,936	16,112	1397,749	778,477
-15,921	16,043	1396,846	777,619
-14,906	16,073	1395,733	777,112
-13,892	16,103	1394,659	776,621
-12,877	16,089	1393,855	776,079
-11,863	16,054	1393,215	775,527
-10,848	16,033	1392,103	774,781
-9,833	16,045	1391,173	774,285
-8,819	16,007	1390,002	773,431
-7,804	15,957	1389,337	772,797
-6,790	15,939	1388,227	772,070
-5,775	15,959	1387,106	771,506
-4,760	15,963	1386,329	771,060
-3,746	15,967	1385,564	770,623
-2,731	15,970	1384,831	770,201
-1,717	15,923	1383,651	769,298
-0,702	15,973	1381,790	768,459
0,313	19,698	1303,026	741,867
1,327	36,147	706,545	440,398
2,342	55,468	125,325	85,885
3,356	5,792	16,438	8,594
4,371	8,836	3,051	1,626
5,386	-21,608	0,561	0,241
6,400	-200,000	-0,009	0,108
7,415	176,106	-0,184	-0,190
8,429	83,482	-0,228	-0,176
9,444	39,768	-0,399	-0,253
10,459	217,041	-0,288	-0,325
11,473	109,031	-0,255	-0,216
12,488	-55,803	-0,326	-0,103
13,502	-6,561	-0,230	-0,111
14,517	21,070	-0,381	-0,218
15,531	114,390	-0,257	-0,222
16,546	-15,367	-0,252	-0,114
17,561	0,978	-0,450	-0,228
18,575	-49,404	-0,239	-0,080
19,590	186,774	-0,222	-0,235
20,604	43,076	-0,201	-0,130
21,619	-28,673	-0,390	-0,158
22,634	-32,379	-0,500	-0,196
23,648	-16,640	-0,506	-0,226
24,663	103,056	-0,411	-0,341
25,677	179,233	-0,306	-0,317
26,692	177,399	-0,243	-0,251
27,707	526,841	-0,192	-0,321
28,721	111,900	-0,345	-0,295
29,736	183,530	-0,292	-0,306
30,750	199,912	-0,464	-0,504
31,765	374,699	-0,312	-0,451
32,780	206,747	-0,315	-0,348
33,794	61,793	-0,312	-0,220
34,809	41,468	-0,424	-0,271
35,823	167,567	-0,245	-0,246
36,838	92,737	-0,391	-0,312
37,853	190,510	-0,332	-0,353
38,867	161,525	-0,294	-0,291
39,882	-4,730	-0,474	-0,230
40,896	52,341	-0,285	-0,192
41,911	-25,078	-0,292	-0,122
42,926	71,074	-0,405	-0,296
43,940	-14,522	-0,413	-0,187
44,955	119,961	-0,326	-0,285
45,969	-28,578	-0,388	-0,157
46,984	103,227	-0,245	-0,203
47,999	7,683	-0,226	-0,119
49,013	67,027	-0,196	-0,141
50,028	169,457	-0,272	-0,275
51,042	178,632	-0,264	-0,273
52,057	-82,334	-0,382	-0,087
53,071	130,782	-0,346	-0,313
54,086	195,746	-0,225	-0,242
55,101	174,112	-0,248	-0,253
56,115	65,784	-0,404	-0,288
57,130	31,669	-0,337	-0,204
58,144	79,802	-0,336	-0,255
59,159	104,261	-0,370	-0,307
60,174	-56,275	-0,454	-0,142
61,188	-19,073	-0,423	-0,185
62,203	-23,960	-0,363	-0,152
63,217	202,773	-0,265	-0,289
64,232	44,845	-0,301	-0,195
65,247	-58,849	-0,474	-0,144
66,261	131,993	-0,330	-0,300
67,276	248,855	-0,276	-0,331
68,290	336,271	-0,185	-0,254
69,305	81,023	-0,234	-0,178
70,320	-82,972	-0,286	-0,064
71,334	37,778	-0,274	-0,171
72,349	22,191	-0,335	-0,192
73,363	49,453	-0,296	-0,196
74,378	87,313	-0,270	-0,210
75,393	-23,810	-0,399	-0,168
76,407	-59,379	-0,298	-0,090
77,422	-39,275	-0,337	-0,124
78,436	-151,532	-0,297	-0,015
79,451	33,653	-0,258	-0,158
80,466	159,948	-0,292	-0,287
81,480	140,361	-0,310	-0,288
82,495	4,909	-0,340	-0,176
83,509	117,623	-0,223	-0,193
84,524	-51,438	-0,277	-0,091
85,539	-20,504	-0,422	-0,182
86,553	40,110	-0,352	-0,222
87,568	162,827	-0,236	-0,233
88,582	-13,558	-0,231	-0,105
89,597	68,695	-0,373	-0,269
90,611	15,793	-0,286	-0,158
91,626	53,409	-0,348	-0,235
92,641	68,017	-0,355	-0,255
93,655	-112,412	-0,180	0,025
94,670	1,637	-0,322	-0,163
95,684	1,412	-0,380	-0,191
96,699	277,796	-0,255	-0,319
97,714	-16,059	-0,325	-0,145
98,728	195,416	-0,150	-0,160
99,743	-29,316	-0,262	-0,105
100,757	-16,289	-0,345	-0,153
101,772	-4,845	-0,254	-0,123
102,787	118,897	-0,379	-0,329
103,801	157,337	-0,246	-0,240
104,816	56,001	-0,279	-0,190
105,830	-17,937	-0,277	-0,122
106,845	-128,462	-0,298	-0,029
107,860	80,477	-0,235	-0,178
108,874	-68,029	-0,277	-0,075
109,889	14,366	-0,286	-0,156
110,903	99,890	-0,283	-0,230
111,918	235,173	-0,185	-0,214
112,933	-93,048	-0,248	-0,048
113,947	91,446	-0,253	-0,199
114,962	7,234	-0,201	-0,105
115,976	-10,938	-0,390	-0,180
116,991	132,508	-0,293	-0,266
118,006	19,328	-0,356	-0,200
119,020	-16,330	-0,244	-0,108
120,035	21,132	-0,191	-0,109
121,049	-8,904	-0,252	-0,118
122,064	80,058	-0,185	-0,139
123,079	-31,095	-0,386	-0,152
124,093	-7,416	-0,184	-0,087
125,108	52,556	-0,307	-0,205
126,122	-92,639	-0,212	-0,041
127,137	-107,682	-0,334	-0,051
128,151	-3,674	-0,256	-0,124
129,166	73,346	-0,325	-0,238
130,181	-9,101	-0,096	-0,045
131,195	346,786	-0,190	-0,263
132,210	92,115	-0,257	-0,203
133,224	37,135	-0,262	-0,162
134,239	92,300	-0,301	-0,237
135,254	202,481	-0,203	-0,220
136,268	-53,253	-0,243	-0,078
137,283	124,348	-0,148	-0,130
138,297	27,204	-0,369	-0,216
139,312	267,484	-0,209	-0,257
140,327	227,825	-0,170	-0,194
141,341	-22,662	-0,185	-0,078
142,356	99,469	-0,174	-0,141
143,370	-182,446	-0,163	-0,002
144,385	-32,964	-0,316	-0,122
145,400	176,808	-0,242	-0,247
146,414	64,274	-0,397	-0,280
147,429	-49,040	-0,429	-0,143
148,443	218,899	-0,263	-0,294
149,458	33,749	-0,197	-0,120
150,473	109,530	-0,253	-0,212
151,487	-8,753	-0,295	-0,138
152,502	331,096	-0,239	-0,323
153,516	42,374	-0,280	-0,178
154,531	5,526	-0,345	-0,178
155,546	167,936	-0,192	-0,191
156,560	-13,934	-0,268	-0,121
157,575	-19,368	-0,253	-0,109
158,589	-53,795	-0,269	-0,085
159,604	-34,455	-0,347	-0,132
160,619	-33,066	-0,325	-0,125
161,633	102,750	-0,357	-0,292
162,648	-95,110	-0,177	-0,033
163,662	165,904	-0,148	-0,146
164,677	78,873	-0,242	-0,181
165,692	147,264	-0,230	-0,216
166,706	99,813	-0,313	-0,253
167,721	191,522	-0,210	-0,222
168,735	317,049	-0,178	-0,236
169,750	11,673	-0,316	-0,169
170,764	73,851	-0,228	-0,167
171,779	-124,364	-0,275	-0,030
172,794	392,185	-0,132	-0,192
173,808	3,448	-0,206	-0,105
174,823	24,873	-0,309	-0,179
175,837	28,035	-0,218	-0,128
176,852	217,553	-0,249	-0,278
177,867	75,149	-0,168	-0,123
178,881	800,000	-0,176	-0,351
179,896	-200,000	-0,035	-0,148
180,910	74,910	-0,275	-0,202
181,925	48,055	-0,169	-0,110
182,940	59,825	-0,347	-0,239
183,954	60,500	-0,163	-0,112
184,969	149,160	-0,244	-0,231
185,983	-54,355	-0,241	-0,076
186,998	25,064	-0,201	-0,116
188,013	124,927	-0,185	-0,163
189,027	354,926	-0,196	-0,272
190,042	-6,161	-0,341	-0,162
191,056	683,967	-0,145	-0,264
192,071	800,000	-0,072	-0,158
193,086	800,000	-0,085	-0,223
194,100	-42,658	-0,217	-0,077
195,115	-140,540	-0,309	-0,022
196,129	-84,356	-0,226	-0,049
197,144	142,267	-0,222	-0,205
198,159	69,523	-0,261	-0,187
199,173	800,000	-0,095	-0,231
200,188	-15,823	-0,222	-0,098
201,202	-40,865	-0,217	-0,078
202,217	115,718	-0,186	-0,159
203,232	-81,187	-0,173	-0,039
204,246	211,580	-0,163	-0,179
205,261	60,623	-0,230	-0,159
206,275	214,725	-0,154	-0,171
207,290	65,055	-0,188	-0,132
208,304	800,000	-0,150	-0,299
209,319	54,953	-0,281	-0,189
210,334	35,207	-0,276	-0,168
211,348	84,178	-0,277	-0,210
212,363	38,378	-0,274	-0,170
213,377	282,520	-0,213	-0,267
214,392	23,461	-0,186	-0,106
215,407	-76,526	-0,213	-0,052
216,421	800,000	-0,078	-0,217
217,436	-34,349	-0,250	-0,095
218,450	73,518	-0,164	-0,119
219,465	87,125	-0,037	-0,029
220,480	8,005	-0,199	-0,103
221,494	800,000	-0,053	-0,131
222,509	345,020	-0,112	-0,154
223,523	-200,000	-0,052	-0,173
224,538	58,671	-0,182	-0,124
225,553	92,052	-0,193	-0,151
226,567	65,636	-0,281	-0,198
227,582	-18,578	-0,110	0,048
228,596	-124,726	-0,268	-0,029
229,611	-142,388	-0,175	-0,012
230,626	-51,900	-0,243	-0,078
231,640	138,702	-0,160	-0,146
232,655	169,372	-0,229	-0,227
233,669	-200,000	-0,049	-0,195
234,684	19,068	-0,287	-0,160
235,699	-46,195	-0,251	-0,085
236,713	41,912	-0,181	-0,114
237,728	-43,569	-0,129	-0,045
238,742	244,827	-0,169	-0,198
239,757	291,325	-0,121	-0,153
240,772	154,326	-0,290	-0,276
241,786	508,616	-0,079	-0,127
242,801	-192,563	-0,260	-0,002
243,815	-38,728	-0,211	-0,077
244,830	96,006	-0,193	-0,153
245,844	800,000	-0,097	-0,296
246,859	32,214	-0,175	-0,105
247,874	0,602	-0,283	-0,140
248,888	57,842	-0,186	-0,126
249,903	143,187	-0,125	-0,115
250,917	239,786	-0,169	-0,195
251,932	-81,166	-0,139	-0,032
252,947	800,000	-0,030	-0,081
253,961	48,837	-0,259	-0,168
254,976	55,049	-0,230	-0,154
255,990	243,362	-0,184	-0,215
257,005	800,000	-0,026	-0,060
258,020	-23,481	-0,202	-0,084
259,034	88,866	-0,172	-0,133
260,049	-11,465	-0,227	-0,103
261,063	580,665	-0,136	-0,232
262,078	177,633	-0,195	-0,198
263,093	582,444	-0,102	-0,175
264,107	13,165	-0,187	-0,100
265,122	-7,300	-0,236	-0,111
266,136	245,730	-0,115	-0,134
267,151	525,290	-0,114	-0,186
268,166	18,272	-0,323	-0,178
269,180	800,000	-0,126	-0,256
270,195	4,194	-0,192	-0,097
271,209	27,032	-0,217	-0,125
272,224	215,389	-0,130	-0,144
273,239	10,176	-0,115	-0,061
274,253	96,934	-0,176	-0,140
275,268	242,427	-0,206	-0,240
276,282	-24,857	-0,178	-0,073
277,297	133,627	-0,166	-0,149
278,312	307,871	-0,210	-0,271
279,326	101,328	-0,128	-0,103
280,341	261,705	-0,125	-0,150
281,355	84,120	-0,194	-0,147
282,370	213,099	-0,098	-0,107
283,384	364,931	-0,106	-0,148
284,399	-78,568	-0,233	-0,055
285,414	95,252	-0,124	-0,097
286,428	-193,450	-0,181	0,001
287,443	143,053	-0,103	-0,095
288,457	-71,695	-0,216	-0,055
289,472	130,400	-0,187	-0,166
290,487	56,033	-0,200	-0,134
291,501	21,757	-0,288	-0,162
292,516	281,903	-0,086	-0,107
293,530	92,788	-0,201	-0,157
294,545	216,722	-0,124	-0,137
295,560	49,589	-0,216	-0,140
296,574	108,222	-0,156	-0,129
297,589	149,615	-0,103	-0,097
298,603	93,063	-0,162	-0,127
299,618	120,388	-0,155	-0,133
300,633	100,153	-0,159	-0,127
301,647	207,651	-0,136	-0,147
302,662	12,277	-0,067	0,035
303,676	-4,073	-0,239	-0,114
304,691	-12,348	-0,114	-0,051
305,706	-78,281	-0,235	-0,055
306,720	6,010	-0,160	-0,082
307,735	800,000	-0,054	-0,121
308,749	356,366	-0,106	-0,146
309,764	800,000	-0,037	-0,089
310,779	265,684	-0,145	-0,175
311,793	-71,986	-0,128	-0,033
312,808	303,655	-0,175	-0,225
313,822	410,911	-0,163	-0,240
314,837	-80,645	-0,146	-0,033
315,852	53,082	-0,246	-0,162
316,866	143,076	-0,077	-0,071
317,881	-127,194	-0,142	0,014
318,895	26,621	-0,247	-0,142
319,910	-51,561	-0,128	-0,041
320,925	116,878	-0,147	-0,124
321,939	800,000	-0,085	-0,183
322,954	-121,120	-0,092	-0,011
323,968	-124,048	-0,158	0,017
324,983	100,049	-0,050	-0,040
325,997	80,392	-0,060	-0,044
327,012	47,057	-0,167	-0,107
328,027	504,241	-0,253	-0,404
329,041	345,573	-0,047	-0,064
330,056	24,254	-0,244	-0,139
331,070	86,424	-0,052	-0,039
332,085	-200,000	-0,029	-0,106
333,100	147,598	-0,070	-0,065
334,114	280,056	-0,130	-0,160
335,129	314,502	-0,176	-0,228
336,143	-22,082	-0,182	-0,076
337,158	133,796	-0,070	-0,063
338,173	16,021	-0,055	-0,030
339,187	475,775	-0,069	-0,108
340,202	-63,136	-0,126	0,035
341,216	-48,660	-0,190	-0,063
342,231	-160,007	-0,167	0,006
343,246	112,632	-0,182	-0,152
344,260	-86,473	-0,245	-0,051
345,275	144,312	-0,077	0,070
346,289	50,753	-0,074	-0,048
347,304	-113,534	-0,125	-0,017
348,319	87,870	-0,182	-0,139
349,333	110,397	-0,166	-0,137
350,348	-76,425	-0,248	-0,060
351,362	26,042	-0,208	-0,119
352,377	800,000	-0,047	-0,096
353,392	-52,013	-0,139	-0,044
354,406	-93,659	-0,070	-0,013
355,421	208,683	1314,593	1415,669
356,435	160,582	1475,330	1416,193
