DTS Sentinel unit serial number:	SN410029Multiplexer serial number:	ORYXHardware model number:	OX2-SRSoftware version number:	ORYX F/W v4,00 Oryx Data Collector v3.7.2.0data status	okinstallation	B3 Nyhavnadifferential loss correction	single-endedforward channel	channel 1reverse channel	N/Adate	2023/12/01time	10:37:30forward acquisition time	300,00reverse acquisition time	0,00gamma	499,1914k internal	0,3213k external	0,3213temperature offset calibration	1,0000default loss term (dB/km)	0,3820temperature slope calibration	1,0000multiplexer offset coefficient	1,0000multiplexer slope coefficient	1,0000fibre end	0,00T internal ref (°C)	8,11T ext. ref 1 (°C)	-6,21T ext. ref 2 (°C)	-6,31length (m)	temperature (°C)	Stokes	anti-Stokes-744,400	800,000	-0,096	-0,271
-743,385	-200,000	0,030	0,182
-742,371	134,565	-0,179	-0,169
-741,356	614,559	0,097	0,177
-740,342	800,000	-0,101	-0,264
-739,327	478,101	-0,137	0,225
-738,312	319,291	-0,162	-0,223
-737,298	-200,000	-0,027	0,172
-736,283	800,000	-0,079	-0,217
-735,269	-200,000	-0,066	0,223
-734,254	159,577	-0,180	-0,182
-733,239	28,558	-0,217	-0,133
-732,225	290,868	-0,240	-0,317
-731,210	-200,000	0,008	0,108
-730,196	-186,477	-0,084	0,001
-729,181	-200,000	0,012	-0,046
-728,167	150,379	0,077	-0,076
-727,152	-200,000	0,006	0,196
-726,137	-105,165	-0,061	0,010
-725,123	-200,000	-0,014	0,075
-724,108	42,443	-0,196	-0,129
-723,094	50,417	-0,169	-0,116
-722,079	-11,962	-0,067	-0,032
-721,064	132,162	0,021	0,020
-720,050	-32,130	0,070	-0,028
-719,035	50,993	-0,120	0,082
-718,021	800,000	0,023	-0,049
-717,006	-66,452	-0,105	-0,030
-715,991	180,723	-0,110	-0,117
-714,977	602,313	-0,052	-0,094
-713,962	-200,000	-0,006	-0,022
-712,948	332,094	0,104	-0,146
-711,933	732,134	0,038	0,074
-710,918	-200,000	-0,006	-0,022
-709,904	-200,000	-0,029	-0,131
-708,889	315,023	-0,089	-0,121
-707,875	-51,700	-0,038	-0,013
-706,860	223,251	0,075	0,088
-705,845	-94,208	0,111	0,022
-704,831	-27,958	-0,168	0,070
-703,816	95,664	0,033	0,027
-702,802	342,285	-0,037	-0,053
-701,787	-200,000	-0,039	-0,164
-700,772	-200,000	-0,020	-0,177
-699,758	-142,047	0,033	0,002
-698,743	800,000	-0,028	0,088
-697,729	73,316	-0,043	-0,033
-696,714	221,336	-0,008	0,009
-695,699	-200,000	0,044	-0,156
-694,685	800,000	0,047	-0,115
-693,670	800,000	-0,017	0,047
-692,656	15,222	-0,037	0,021
-691,641	-200,000	-0,052	0,191
-690,627	-82,630	-0,045	-0,010
-689,612	-200,000	-0,002	0,090
-688,597	723,192	-0,040	-0,077
-687,583	-110,968	-0,080	-0,012
-686,568	-200,000	0,034	-0,166
-685,554	800,000	-0,062	-0,145
-684,539	800,000	-0,035	-0,087
-683,524	741,860	0,008	0,015
-682,510	-82,897	-0,093	-0,022
-681,495	-200,000	0,004	-0,031
-680,481	-200,000	-0,003	0,059
-679,466	-200,000	-0,157	-0,000
-678,451	-99,213	-0,116	-0,021
-677,437	-200,000	-0,004	-0,042
-676,422	-200,000	-0,000	0,038
-675,408	800,000	0,024	0,067
-674,393	-133,381	0,048	0,004
-673,378	800,000	-0,028	0,075
-672,364	-24,368	-0,063	-0,027
-671,349	-96,537	-0,097	0,018
-670,335	800,000	0,062	-0,188
-669,320	-200,000	-0,013	-0,086
-668,305	-200,000	0,009	-0,071
-667,291	-122,817	0,088	0,010
-666,276	318,784	0,013	0,017
-665,262	800,000	0,010	-0,024
-664,247	174,500	-0,031	-0,033
-663,232	8,262	-0,046	-0,025
-662,218	291,144	0,108	0,142
-661,203	-85,312	-0,039	0,009
-660,189	276,087	0,072	0,092
-659,174	-200,000	-0,017	-0,068
-658,159	-200,000	-0,002	0,064
-657,145	-200,000	-0,045	-0,147
-656,130	-5,350	0,054	-0,026
-655,116	-1,044	-0,119	-0,060
-654,101	492,671	0,017	0,029
-653,086	58,381	-0,021	-0,015
-652,072	-200,000	0,026	0,109
-651,057	333,679	-0,055	0,077
-650,043	-200,000	0,046	0,210
-649,028	-171,592	0,073	0,002
-648,014	65,973	-0,075	-0,055
-646,999	-200,000	0,018	0,083
-645,984	800,000	-0,058	0,134
-644,970	-65,827	0,143	-0,041
-643,955	-65,731	-0,021	-0,006
-642,941	-23,978	0,079	0,034
-641,926	70,768	0,078	-0,058
-640,911	800,000	-0,035	0,101
-639,897	-200,000	-0,025	-0,105
-638,882	40,239	-0,083	-0,053
-637,868	800,000	-0,022	-0,055
-636,853	19,197	-0,122	-0,070
-635,838	-82,120	-0,057	0,013
-634,824	800,000	0,035	0,070
-633,809	800,000	-0,041	0,123
-632,795	-116,849	0,058	-0,008
-631,780	90,403	-0,203	-0,164
-630,765	-200,000	-0,005	0,131
-629,751	-200,000	0,012	0,063
-628,736	-7,952	-0,105	0,051
-627,722	43,106	-0,028	-0,018
-626,707	319,813	-0,067	0,092
-625,692	104,937	0,069	0,059
-624,678	-93,307	0,030	0,006
-623,663	254,330	0,098	0,122
-622,649	112,353	-0,123	-0,107
-621,634	800,000	0,038	-0,079
-620,619	710,173	-0,086	-0,164
-619,605	-200,000	0,027	0,089
-618,590	-200,000	-0,036	-0,144
-617,576	-31,008	-0,036	0,015
-616,561	74,934	0,032	-0,025
-615,546	-148,993	0,116	0,007
-614,532	-200,000	-0,013	-0,091
-613,517	-4,434	-0,085	0,042
-612,503	251,346	0,094	0,115
-611,488	242,057	0,008	-0,010
-610,474	284,662	0,069	0,090
-609,459	135,931	0,074	-0,069
-608,444	-200,000	0,016	-0,141
-607,430	147,633	-0,090	-0,087
-606,415	-43,408	0,093	0,034
-605,401	106,846	0,167	0,143
-604,386	138,338	0,111	-0,105
-603,371	105,359	-0,092	-0,078
-602,357	-96,035	-0,218	-0,041
-601,342	154,398	-0,102	-0,101
-600,328	800,000	0,065	-0,175
-599,313	800,000	-0,027	-0,060
-598,298	605,912	-0,039	0,070
-597,284	-200,000	-0,024	-0,100
-596,269	-46,016	0,094	-0,033
-595,255	-200,000	0,005	0,041
-594,240	79,306	-0,102	-0,079
-593,225	-101,930	-0,108	-0,019
-592,211	171,345	-0,087	-0,090
-591,196	-200,000	-0,000	-0,009
-590,182	-4,058	-0,107	-0,053
-589,167	485,678	0,029	0,047
-588,152	-6,965	-0,043	-0,021
-587,138	588,644	-0,042	0,074
-586,123	117,591	0,085	0,075
-585,109	232,042	0,019	-0,022
-584,094	-36,926	-0,115	-0,044
-583,079	-88,716	0,086	-0,018
-582,065	-200,000	0,017	-0,097
-581,050	-200,000	-0,021	0,118
-580,036	-98,299	0,064	0,012
-579,021	-200,000	-0,003	-0,114
-578,006	800,000	-0,040	-0,121
-576,992	63,589	0,060	0,043
-575,977	202,958	0,089	0,100
-574,963	-200,000	0,017	0,073
-573,948	-200,000	-0,000	0,083
-572,934	-200,000	-0,021	0,068
-571,919	377,857	-0,074	0,110
-570,904	291,483	0,057	-0,075
-569,890	-36,577	-0,272	-0,105
-568,875	-200,000	0,031	-0,098
-567,861	117,044	0,088	0,078
-566,846	407,121	-0,070	0,107
-565,831	370,348	0,047	-0,069
-564,817	-117,077	-0,142	-0,018
-563,802	143,363	-0,031	-0,030
-562,788	639,785	-0,003	-0,005
-561,773	5,471	-0,095	-0,050
-560,758	-128,684	0,050	-0,005
-559,744	-200,000	-0,031	-0,121
-558,729	81,896	0,050	-0,039
-557,715	800,000	-0,028	0,080
-556,700	-200,000	0,015	-0,058
-555,685	800,000	-0,063	-0,143
-554,671	630,154	-0,065	-0,119
-553,656	-104,510	-0,033	0,005
-552,642	800,000	0,057	0,129
-551,627	-75,031	-0,161	-0,041
-550,612	-200,000	-0,017	-0,204
-549,598	-20,957	0,030	-0,013
-548,583	336,948	-0,017	0,024
-547,569	-155,988	-0,096	0,004
-546,554	607,185	0,040	0,072
-545,539	-200,000	-0,013	-0,108
-544,525	-39,548	0,108	0,041
-543,510	-200,000	0,011	-0,038
-542,496	-200,000	-0,031	-0,205
-541,481	50,792	-0,137	-0,093
-540,466	197,866	-0,025	-0,028
-539,452	-200,000	-0,016	0,062
-538,437	701,284	0,065	0,124
-537,423	-200,000	0,007	0,066
-536,408	-200,000	0,010	-0,047
-535,393	-200,000	-0,027	-0,114
-534,379	669,523	-0,020	-0,037
-533,364	-200,000	0,000	0,062
-532,350	-74,288	0,073	-0,019
-531,335	-200,000	-0,019	0,064
-530,321	600,456	-0,056	-0,100
-529,306	-200,000	-0,013	0,056
-528,291	0,342	-0,051	0,026
-527,277	104,469	0,059	-0,049
-526,262	800,000	-0,077	-0,167
-525,248	320,153	0,035	0,048
-524,233	-200,000	-0,012	-0,059
-523,218	-106,680	-0,025	0,004
-522,204	-11,332	0,089	-0,042
-521,189	800,000	0,021	0,064
-520,175	800,000	-0,054	-0,133
-519,160	800,000	-0,031	0,098
-518,145	-106,565	0,105	-0,017
-517,131	32,910	0,038	0,024
-516,116	-60,333	0,123	0,037
-515,102	-121,888	-0,065	0,008
-514,087	-200,000	-0,009	-0,140
-513,072	-108,815	0,166	0,025
-512,058	-200,000	0,005	-0,019
-511,043	-144,869	-0,050	-0,003
-510,029	35,727	0,023	-0,014
-509,014	-180,855	-0,121	0,002
-507,999	-200,000	0,021	0,071
-506,985	-129,202	-0,162	0,016
-505,970	209,007	-0,112	-0,126
-504,956	379,870	-0,096	-0,142
-503,941	-160,982	-0,114	0,004
-502,926	16,307	-0,084	0,048
-501,912	176,637	0,169	0,177
-500,897	324,977	-0,030	0,041
-499,883	-149,898	-0,088	0,005
-498,868	800,000	0,052	-0,128
-497,853	642,113	0,010	-0,018
-496,839	18,437	0,068	-0,039
-495,824	800,000	-0,040	-0,105
-494,810	-46,708	-0,090	0,032
-493,795	-175,808	0,091	-0,002
-492,781	800,000	0,049	0,106
-491,766	-200,000	-0,025	0,082
-490,751	-200,000	0,016	0,052
-489,737	641,392	-0,047	0,087
-488,722	-200,000	-0,002	0,038
-487,708	-200,000	0,019	0,070
-486,693	800,000	-0,049	0,138
-485,678	515,130	0,029	-0,048
-484,664	-200,000	0,016	-0,110
-483,649	-112,380	0,110	0,016
-482,635	688,198	0,065	0,122
-481,620	7,066	0,068	0,036
-480,605	-200,000	-0,002	-0,068
-479,591	800,000	-0,097	-0,252
-478,576	-87,517	-0,043	0,009
-477,562	-65,473	-0,108	-0,031
-476,547	74,918	-0,120	0,091
-475,532	-200,000	-0,025	-0,198
-474,518	67,816	-0,097	0,071
-473,503	117,786	0,057	0,051
-472,489	123,202	-0,056	0,050
-471,474	-96,905	-0,137	0,026
-470,459	183,396	0,044	-0,046
-469,445	166,282	-0,122	-0,124
-468,430	17,306	0,123	0,070
-467,416	-200,000	0,019	-0,061
-466,401	800,000	0,032	0,070
-465,386	-53,831	0,085	-0,028
-464,372	177,385	-0,103	0,107
-463,357	99,288	-0,064	0,053
-462,343	-200,000	0,004	-0,066
-461,328	-200,000	0,022	-0,123
-460,313	-155,253	-0,127	0,006
-459,299	41,253	0,178	0,115
-458,284	-37,082	-0,084	0,032
-457,270	-107,299	0,209	0,033
-456,255	-81,329	-0,119	0,028
-455,241	-200,000	0,014	-0,063
-454,226	-200,000	0,013	-0,073
-453,211	-113,601	-0,110	-0,015
-452,197	322,941	-0,073	-0,100
-451,182	372,694	-0,058	-0,085
-450,168	49,103	-0,068	-0,046
-449,153	486,060	-0,036	0,060
-448,138	598,461	-0,073	-0,130
-447,124	137,303	-0,077	-0,072
-446,109	173,394	-0,038	-0,039
-445,095	84,354	-0,035	-0,027
-444,080	-60,092	0,044	0,013
-443,065	235,638	0,026	0,031
-442,051	-200,000	0,003	-0,053
-441,036	-10,672	-0,072	0,034
-440,022	-200,000	0,005	-0,058
-439,007	800,000	-0,059	0,178
-437,992	-200,000	0,036	0,149
-436,978	-58,743	0,060	-0,018
-435,963	-200,000	-0,025	-0,119
-434,949	698,093	-0,076	0,143
-433,934	-32,284	-0,071	0,028
-432,919	800,000	-0,005	-0,015
-431,905	-82,035	0,032	-0,007
-430,890	494,534	0,073	-0,121
-429,876	367,346	-0,075	-0,109
-428,861	34,157	0,111	-0,069
-427,846	-88,937	-0,108	-0,023
-426,832	408,376	-0,030	0,046
-425,817	800,000	0,007	-0,017
-424,803	83,834	0,009	-0,007
-423,788	154,252	0,079	0,078
-422,773	-93,343	0,064	0,013
-421,759	470,159	0,117	0,188
-420,744	-200,000	0,001	0,091
-419,730	-169,451	0,101	0,003
-418,715	489,193	0,032	0,052
-417,701	598,906	0,071	-0,126
-416,686	-58,348	0,069	0,021
-415,671	800,000	-0,042	0,114
-414,657	118,407	0,099	0,087
-413,642	330,491	0,049	-0,067
-412,628	193,265	-0,075	-0,081
-411,613	-39,460	0,099	0,037
-410,598	-200,000	-0,001	0,032
-409,584	-200,000	0,009	0,157
-408,569	-91,421	0,195	0,039
-407,555	800,000	-0,026	0,059
-406,540	-5,760	-0,083	0,041
-405,525	82,486	0,072	-0,056
-404,511	47,707	-0,037	-0,025
-403,496	800,000	-0,050	-0,129
-402,482	96,516	0,054	-0,044
-401,467	-15,674	-0,077	-0,035
-400,452	-200,000	-0,001	0,083
-399,438	312,221	-0,038	0,051
-398,423	-48,234	0,049	-0,017
-397,409	800,000	-0,033	-0,072
-396,394	-121,312	-0,122	-0,014
-395,379	800,000	-0,014	-0,044
-394,365	736,423	0,058	0,112
-393,350	11,712	0,105	0,057
-392,336	-200,000	0,013	0,112
-391,321	-200,000	0,008	-0,033
-390,306	-44,621	-0,076	0,027
-389,292	33,119	-0,069	-0,042
-388,277	800,000	0,019	-0,038
-387,263	164,729	0,054	-0,054
-386,248	207,460	-0,117	0,131
-385,233	-200,000	0,009	0,063
-384,219	272,207	-0,075	0,094
-383,204	-200,000	0,009	-0,047
-382,190	-136,328	-0,037	0,003
-381,175	-200,000	0,008	0,106
-380,160	166,428	-0,104	0,105
-379,146	-91,213	0,134	0,027
-378,131	-200,000	0,015	-0,072
-377,117	17,177	0,031	-0,018
-376,102	30,547	-0,105	0,064
-375,088	-200,000	0,004	-0,031
-374,073	-177,242	0,118	-0,002
-373,058	-81,422	0,105	0,025
-372,044	800,000	-0,019	0,040
-371,029	-36,274	0,125	-0,048
-370,015	-200,000	0,022	-0,084
-369,000	800,000	0,030	-0,073
-367,985	-200,000	0,018	-0,062
-366,971	-104,238	-0,084	0,014
-365,956	124,149	-0,035	0,032
-364,942	800,000	0,054	0,170
-363,927	-136,968	0,047	-0,004
-362,912	-140,288	-0,104	0,008
-361,898	407,267	-0,066	-0,099
-360,883	-8,301	0,142	-0,068
-359,869	-158,969	0,046	0,002
-358,854	800,000	0,052	0,122
-357,839	800,000	0,031	-0,095
-356,825	41,369	0,016	0,010
-355,810	-135,725	0,084	-0,007
-354,796	-158,916	0,090	-0,004
-353,781	486,358	-0,016	-0,027
-352,766	207,330	-0,057	0,064
-351,752	-200,000	-0,011	-0,048
-350,737	-32,807	0,053	-0,021
-349,723	59,183	0,034	0,024
-348,708	-156,126	-0,075	0,003
-347,693	65,105	0,057	-0,041
-346,679	-38,590	0,073	-0,027
-345,664	46,498	-0,100	-0,066
-344,650	-16,577	0,052	0,023
-343,635	-200,000	-0,016	-0,079
-342,620	-56,828	0,202	0,063
-341,606	-99,392	-0,059	0,010
-340,591	-49,021	-0,088	-0,030
-339,577	800,000	-0,019	-0,056
-338,562	31,719	0,069	-0,042
-337,548	-3,276	-0,066	-0,032
-336,533	97,771	0,127	0,104
-335,518	73,537	0,059	0,044
-334,504	800,000	0,026	0,053
-333,489	-83,545	0,107	-0,024
-332,475	311,909	0,060	0,080
-331,460	24,216	-0,085	-0,050
-330,445	391,708	0,120	-0,178
-329,431	-200,000	-0,032	0,134
-328,416	-200,000	0,004	-0,099
-327,402	30,383	0,122	0,074
-326,387	319,473	-0,051	-0,069
-325,372	287,366	-0,044	0,057
-324,358	800,000	0,015	0,037
-323,343	-182,447	-0,144	0,002
-322,329	-91,778	0,179	0,036
-321,314	800,000	-0,042	0,094
-320,299	-200,000	0,005	0,039
-319,285	31,198	-0,053	0,032
-318,270	-173,068	-0,055	0,001
-317,256	-28,141	0,012	-0,005
-316,241	-200,000	0,003	0,052
-315,226	-56,933	0,190	0,059
-314,212	-200,000	0,002	0,121
-313,197	484,621	-0,007	0,011
-312,183	-10,435	0,085	-0,040
-311,168	-84,980	-0,154	-0,034
-310,153	-200,000	-0,004	-0,257
-309,139	-200,000	-0,006	0,067
-308,124	-200,000	0,029	0,098
-307,110	-200,000	-0,019	0,117
-306,095	800,000	-0,033	0,081
-305,080	-200,000	-0,010	0,058
-304,066	-171,150	0,096	0,002
-303,051	-200,000	-0,076	-0,242
-302,037	-200,000	-0,009	-0,040
-301,022	-200,000	-0,003	0,062
-300,008	239,282	-0,025	0,030
-298,993	800,000	0,059	0,130
-297,978	-200,000	0,005	0,048
-296,964	207,773	-0,023	0,026
-295,949	-51,836	0,096	-0,032
-294,935	-105,157	-0,023	-0,004
-293,920	199,498	0,067	0,074
-292,905	267,856	-0,077	0,096
-291,891	800,000	0,019	0,045
-290,876	-100,166	0,020	-0,004
-289,862	735,626	-0,039	0,076
-288,847	-200,000	0,016	0,109
-287,832	9,758	-0,082	-0,044
-286,818	64,138	0,090	0,064
-285,803	215,342	0,055	0,062
-284,789	77,896	-0,088	0,066
-283,774	170,944	0,054	-0,055
-282,759	-200,000	0,001	-0,006
-281,745	800,000	-0,033	0,099
-280,730	788,895	-0,083	-0,164
-279,716	-31,233	0,146	-0,058
-278,701	800,000	0,015	0,034
-277,686	-133,702	-0,096	0,008
-276,672	180,534	-0,068	-0,071
-275,657	-200,000	-0,012	-0,100
-274,643	-99,565	0,131	0,023
-273,628	359,353	0,139	-0,199
-272,613	-200,000	-0,005	-0,035
-271,599	-200,000	0,061	0,241
-270,584	-200,000	0,016	0,233
-269,570	-148,081	0,077	-0,004
-268,555	667,805	0,063	-0,116
-267,540	618,669	-0,051	-0,091
-266,526	107,785	0,075	-0,064
-265,511	153,843	-0,066	-0,065
-264,497	303,462	-0,023	0,030
-263,482	87,644	0,097	0,076
-262,467	-200,000	0,023	0,131
-261,453	209,740	0,067	0,075
-260,438	-79,134	0,116	0,028
-259,424	-200,000	-0,004	-0,119
-258,409	800,000	-0,095	-0,211
-257,395	126,310	0,011	0,009
-256,380	-200,000	0,009	-0,033
-255,365	-80,246	0,116	0,027
-254,351	-200,000	-0,008	0,117
-253,336	-47,231	-0,164	0,056
-252,322	800,000	0,024	-0,060
-251,307	-200,000	0,002	-0,126
-250,292	-172,451	-0,127	-0,003
-249,278	-200,000	0,010	0,034
-248,263	58,535	0,181	0,126
-247,249	-142,139	0,051	-0,004
-246,234	-200,000	0,030	0,097
-245,219	-200,000	-0,040	-0,133
-244,205	-86,341	0,076	0,017
-243,190	218,261	0,069	0,079
-242,176	-163,415	0,074	-0,002
-241,161	118,522	0,087	0,076
-240,146	-200,000	-0,009	0,048
-239,132	-200,000	-0,026	0,108
-238,117	-200,000	0,034	0,109
-237,103	800,000	0,048	0,111
-236,088	-123,134	0,100	0,011
-235,073	555,501	0,047	0,080
-234,059	18,118	-0,122	-0,069
-233,044	-184,297	-0,096	-0,001
-232,030	375,792	0,025	0,037
-231,015	429,575	-0,062	-0,096
-230,000	-200,000	0,007	-0,052
-228,986	708,635	0,061	-0,114
-227,971	-200,000	-0,018	0,061
-226,957	800,000	-0,011	-0,031
-225,942	289,327	-0,072	0,093
-224,927	233,147	-0,085	0,100
-223,913	-132,914	-0,119	-0,011
-222,898	101,746	-0,006	-0,005
-221,884	-200,000	0,004	0,066
-220,869	313,747	-0,067	-0,089
-219,855	800,000	-0,049	0,125
-218,840	-108,413	-0,152	0,023
-217,825	17,216	0,127	0,071
-216,811	-200,000	0,010	-0,064
-215,796	-200,000	0,010	-0,096
-214,782	-168,491	-0,036	0,001
-213,767	382,650	0,014	-0,021
-212,752	-114,621	-0,092	0,012
-211,738	119,685	0,081	0,071
-210,723	574,657	0,078	0,135
-209,709	130,827	0,095	-0,086
-208,694	564,443	-0,047	-0,081
-207,679	119,068	0,024	0,021
-206,665	-142,190	0,068	0,005
-205,650	171,891	-0,060	-0,061
-204,636	-200,000	0,016	0,121
-203,621	262,899	0,052	-0,065
-202,606	-200,000	-0,021	0,097
-201,592	-200,000	-0,021	-0,146
-200,577	800,000	-0,031	-0,071
-199,563	-60,000	0,087	-0,026
-198,548	-200,000	-0,003	-0,060
-197,533	800,000	0,020	0,053
-196,519	-38,253	0,161	0,060
-195,504	800,000	-0,036	-0,100
-194,490	-200,000	0,012	0,045
-193,475	14,808	0,107	-0,059
-192,460	265,607	0,080	-0,099
-191,446	562,733	0,122	0,210
-190,431	152,697	-0,093	0,090
-189,417	800,000	-0,047	0,146
-188,402	800,000	0,057	0,165
-187,387	201,183	0,059	-0,064
-186,373	-72,650	-0,114	0,029
-185,358	-200,000	0,013	0,061
-184,344	-130,743	-0,033	0,003
-183,329	106,315	-0,167	0,141
-182,315	-20,556	0,085	0,037
-181,300	-200,000	-0,008	-0,034
-180,285	-54,996	-0,069	0,022
-179,271	364,418	0,027	0,039
-178,256	609,467	0,057	-0,101
-177,242	165,491	-0,095	-0,095
-176,227	396,867	0,065	-0,097
-175,212	-103,323	0,071	0,012
-174,198	-200,000	-0,025	0,107
-173,183	-200,000	0,004	-0,037
-172,169	312,678	-0,048	-0,064
-171,154	-200,000	-0,021	-0,146
-170,139	800,000	0,056	0,114
-169,125	800,000	-0,017	-0,053
-168,110	-23,365	0,104	-0,044
-167,096	158,589	0,022	0,022
-166,081	598,341	-0,056	-0,099
-165,066	-82,444	-0,125	-0,029
-164,052	800,000	0,038	-0,088
-163,037	466,440	0,027	0,043
-162,023	-200,000	-0,008	0,094
-161,008	-200,000	0,005	-0,024
-159,993	295,934	-0,005	-0,007
-158,979	-196,126	-0,070	0,000
-157,964	399,954	-0,064	-0,095
-156,950	97,723	0,075	-0,061
-155,935	241,845	-0,054	-0,064
-154,920	272,823	-0,024	-0,030
-153,906	731,785	0,033	0,062
-152,891	-11,824	-0,048	0,022
-151,877	-200,000	0,016	-0,055
-150,862	-4,823	-0,031	-0,015
-149,847	-53,959	-0,075	0,024
-148,833	-73,390	-0,043	-0,011
-147,818	-30,781	0,056	0,022
-146,804	-34,577	0,137	-0,053
-145,789	117,162	-0,108	0,094
-144,775	-105,486	-0,113	-0,018
-143,760	-200,000	-0,037	-0,206
-142,745	-85,700	-0,200	-0,044
-141,731	-200,000	-0,006	0,067
-140,716	3,072	-0,024	0,012
-139,702	-82,649	0,237	0,054
-138,687	288,437	-0,071	0,091
-137,672	-200,000	-0,019	0,088
-136,658	-60,651	0,033	-0,010
-135,643	-200,000	-0,006	0,059
-134,629	400,915	-0,054	0,080
-133,614	373,950	0,004	-0,005
-132,599	193,068	0,101	0,108
-131,585	800,000	0,044	0,126
-130,570	-90,803	0,090	-0,018
-129,556	173,384	-0,055	-0,057
-128,541	310,391	0,043	-0,058
-127,526	8,229	-0,025	-0,013
-126,512	-195,317	0,061	-0,000
-125,497	438,351	-0,055	0,085
-124,483	-54,440	0,059	0,019
-123,468	68,629	0,117	0,085
-122,453	-9,090	-0,149	-0,070
-121,439	-200,000	0,014	-0,053
-120,424	362,001	-0,059	-0,083
-119,410	-71,843	-0,142	0,037
-118,395	-70,594	-0,040	0,011
-117,380	-48,455	0,091	0,031
-116,366	800,000	-0,017	-0,043
-115,351	-200,000	0,014	0,123
-114,337	264,048	-0,068	-0,084
-113,322	55,235	0,116	-0,079
-112,307	29,574	-0,058	0,035
-111,293	-12,285	0,121	-0,056
-110,278	387,455	-0,047	0,068
-109,264	-200,000	-0,031	0,166
-108,249	140,957	0,022	-0,021
-107,234	-167,019	-0,045	0,001
-106,220	79,432	-0,073	0,055
-105,205	227,431	0,110	0,126
-104,191	371,512	-0,058	-0,083
-103,176	187,524	0,138	0,146
-102,162	245,752	0,177	-0,211
-101,147	287,564	0,054	-0,069
-100,132	-167,490	-0,129	0,004
-99,118	-200,000	0,019	-0,099
-98,103	-200,000	0,035	0,153
-97,089	-40,767	0,096	-0,035
-96,074	-147,046	-0,058	0,003
-95,059	-140,304	0,051	-0,004
-94,045	-161,042	0,084	0,003
-93,030	-200,000	-0,006	0,033
-92,016	1,482	-0,035	-0,018
-91,001	-60,913	0,111	0,033
-89,986	-133,365	0,021	-0,002
-88,972	-200,000	-0,011	-0,106
-87,957	-96,810	-0,060	-0,011
-86,943	407,432	0,057	-0,085
-85,928	-200,000	-0,021	-0,103
-84,913	23,580	-0,053	-0,031
-83,899	282,118	-0,114	0,144
-82,884	421,614	0,049	0,074
-81,870	129,412	0,051	0,046
-80,855	212,439	-0,083	0,093
-79,840	543,549	-0,055	-0,093
-78,826	-200,000	-0,015	-0,135
-77,811	-200,000	0,015	-0,077
-76,797	330,703	0,048	0,065
-75,782	8,002	0,088	-0,046
-74,767	-200,000	0,014	0,047
-73,753	-85,888	0,170	0,037
-72,738	108,960	-0,119	0,100
-71,724	-94,649	0,064	-0,012
-70,709	-200,000	-0,002	-0,058
-69,694	-10,823	0,057	0,026
-68,680	202,091	0,073	-0,079
-67,665	-80,730	0,036	0,008
-66,651	-12,859	0,047	0,022
-65,636	-200,000	0,022	0,088
-64,622	111,636	0,019	-0,016
-63,607	492,936	-0,032	0,052
-62,592	-75,884	-0,144	0,036
-61,578	55,629	0,027	-0,018
-60,563	543,856	-0,024	0,041
-59,549	227,450	0,067	0,077
-58,534	44,354	-2,160	-1,396
-57,519	575,703	-1,027	-1,776
-56,505	-200,000	-0,418	-4,540
-55,490	594,670	0,975	1,707
-54,476	800,000	5,156	11,378
-53,461	-200,000	22,489	346,005
-52,446	800,000	757,979	2296,247
-51,432	534,498	1645,488	2761,230
-50,417	68,206	1643,934	1185,774
-49,403	15,738	1521,180	841,263
-48,388	9,965	1446,858	772,427
-47,373	19,263	1439,521	812,798
-46,359	13,453	1427,885	778,771
-45,344	8,282	1423,977	752,149
-44,330	8,224	1422,066	750,834
-43,315	8,173	1420,234	749,597
-42,300	8,192	1418,299	748,635
-41,286	8,249	1416,931	748,153
-40,271	8,176	1416,038	747,307
-39,257	8,175	1414,814	746,629
-38,242	8,222	1413,812	746,292
-37,227	8,234	1412,419	745,581
-36,213	8,214	1411,193	744,810
-35,198	8,202	1410,039	744,118
-34,184	8,249	1408,974	743,745
-33,169	8,151	1407,746	742,608
-32,154	8,183	1406,816	742,240
-31,140	8,170	1405,584	741,498
-30,125	8,238	1404,379	741,149
-29,111	8,189	1403,233	740,286
-28,096	8,174	1402,030	739,553
-27,082	8,168	1400,697	738,795
-26,067	8,107	1400,067	738,148
-25,052	8,164	1398,843	737,737
-24,038	8,134	1397,913	737,078
-23,023	8,146	1396,807	736,522
-22,009	8,137	1395,714	735,876
-20,994	8,130	1394,907	735,389
-19,979	8,092	1393,876	734,636
-18,965	8,100	1392,825	734,092
-17,950	8,092	1391,936	733,556
-16,936	8,048	1391,130	732,899
-15,921	8,036	1390,187	732,317
-14,906	8,037	1389,211	731,780
-13,892	8,070	1388,043	731,290
-12,877	8,047	1387,508	730,870
-11,863	8,080	1386,668	730,551
-10,848	8,041	1385,778	729,872
-9,833	8,007	1384,789	729,170
-8,819	7,956	1384,082	728,533
-7,804	7,940	1383,087	727,905
-6,790	7,955	1381,829	727,282
-5,775	7,973	1380,887	726,840
-4,760	7,985	1380,073	726,441
-3,746	8,014	1379,080	726,020
-2,731	8,024	1378,133	725,540
-1,717	7,990	1377,368	724,952
-0,702	7,963	1375,674	723,908
0,313	11,957	1286,232	694,939
1,327	27,656	678,115	401,400
2,342	42,954	116,576	74,770
3,356	-0,059	16,617	8,310
4,371	8,971	3,971	2,105
5,386	-4,493	1,398	0,678
6,400	800,000	0,199	0,576
7,415	-36,843	-0,310	-0,117
8,429	-43,774	-0,261	-0,092
9,444	13,492	-0,209	-0,114
10,459	-54,815	-0,297	-0,094
11,473	512,749	-0,149	-0,245
12,488	-13,534	-0,243	-0,111
13,502	-20,191	-0,358	-0,155
14,517	135,525	-0,267	-0,244
15,531	186,834	-0,265	-0,278
16,546	-24,318	-0,396	-0,165
17,561	257,413	-0,293	-0,355
18,575	-49,566	-0,261	0,087
19,590	38,715	-0,101	-0,063
20,604	7,040	-0,165	-0,086
21,619	73,151	-0,444	-0,326
22,634	90,557	-0,419	-0,330
23,648	76,147	-0,424	-0,316
24,663	87,424	-0,299	-0,232
25,677	348,649	-0,217	-0,302
26,692	-17,611	-0,306	-0,135
27,707	16,907	-0,288	-0,160
28,721	62,406	-0,345	-0,242
29,736	120,798	-0,369	-0,323
30,750	120,814	-0,474	-0,414
31,765	35,450	-0,361	-0,222
32,780	42,754	-0,298	-0,191
33,794	58,628	-0,308	-0,212
34,809	225,474	-0,223	-0,254
35,823	6,704	-0,484	-0,252
36,838	6,734	-0,365	-0,190
37,853	61,708	-0,290	-0,202
38,867	800,000	-0,210	-0,411
39,882	164,023	-0,267	-0,264
40,896	95,346	-0,202	-0,161
41,911	-120,834	-0,335	0,039
42,926	145,637	-0,275	-0,259
43,940	117,806	-0,346	-0,299
44,955	43,249	-0,366	-0,234
45,969	279,210	-0,171	-0,215
46,984	59,972	-0,312	-0,216
47,999	230,494	-0,207	-0,238
49,013	77,301	-0,352	-0,263
50,028	285,525	-0,143	-0,181
51,042	-13,649	-0,314	-0,142
52,057	117,167	-0,365	-0,315
53,071	118,712	-0,379	-0,329
54,086	107,437	-0,169	-0,141
55,101	66,848	-0,260	-0,185
56,115	13,489	-0,341	-0,185
57,130	55,853	-0,234	-0,159
58,144	242,039	-0,307	-0,360
59,159	39,652	-0,383	-0,240
60,174	-33,554	-0,333	-0,129
61,188	-20,173	-0,492	-0,211
62,203	80,299	-0,281	-0,212
63,217	5,010	-0,339	-0,175
64,232	69,732	-0,379	-0,274
65,247	67,683	-0,382	-0,273
66,261	21,027	-0,448	-0,254
67,276	11,833	-0,263	-0,141
68,290	109,287	-0,182	-0,153
69,305	90,506	-0,338	-0,265
70,320	21,090	-0,319	-0,181
71,334	197,897	-0,251	-0,269
72,349	38,094	-0,289	-0,180
73,363	-17,454	-0,315	-0,138
74,378	52,114	-0,317	-0,211
75,393	4,939	-0,376	-0,193
76,407	49,120	-0,344	-0,226
77,422	72,051	-0,367	-0,267
78,436	-153,788	-0,329	-0,016
79,451	56,536	-0,427	-0,290
80,466	28,060	-0,281	-0,166
81,480	8,974	-0,336	-0,177
82,495	366,286	-0,209	-0,295
83,509	-0,403	-0,314	-0,156
84,524	1,723	-0,303	-0,152
85,539	367,776	-0,175	-0,249
86,553	259,270	-0,201	-0,244
87,568	47,532	-0,361	-0,235
88,582	113,770	-0,277	-0,235
89,597	312,584	-0,212	-0,279
90,611	9,411	-0,314	-0,166
91,626	131,034	-0,205	-0,184
92,641	97,221	-0,201	-0,162
93,655	37,314	-0,211	-0,130
94,670	40,607	-0,283	-0,178
95,684	85,160	-0,173	-0,133
96,699	-8,193	-0,333	-0,156
97,714	-3,192	-0,320	-0,156
98,728	-67,283	-0,325	-0,089
99,743	299,054	-0,200	-0,257
100,757	119,178	-0,208	-0,180
101,772	-73,395	-0,379	-0,096
102,787	28,229	-0,248	-0,146
103,801	163,714	-0,230	-0,226
104,816	-112,992	-0,222	0,030
105,830	62,379	-0,325	-0,227
106,845	-4,457	-0,310	-0,149
107,860	-65,590	-0,328	-0,091
108,874	168,114	-0,202	-0,201
109,889	304,395	-0,210	-0,272
110,903	147,348	-0,268	-0,252
111,918	-119,680	-0,226	0,027
112,933	-79,927	-0,315	-0,073
113,947	255,477	-0,256	-0,307
114,962	119,791	-0,164	-0,142
115,976	102,215	-0,261	-0,213
116,991	23,527	-0,247	-0,141
118,006	-84,889	-0,265	-0,058
119,020	143,625	-0,293	-0,272
120,035	16,253	-0,267	-0,146
121,049	-10,331	-0,215	-0,099
122,064	-187,755	-0,181	0,002
123,079	40,430	-0,334	-0,209
124,093	442,157	-0,154	-0,236
125,108	675,745	-0,191	-0,348
126,122	47,209	-0,347	-0,225
127,137	72,200	-0,208	-0,151
128,151	-150,571	-0,250	-0,013
129,166	-150,955	-0,238	-0,012
130,181	-34,021	-0,228	-0,087
131,195	49,533	-0,191	-0,125
132,210	268,378	-0,152	-0,185
133,224	174,384	-0,152	-0,153
134,239	-72,528	-0,362	-0,092
135,254	-152,610	-0,201	0,010
136,268	-170,723	-0,225	0,005
137,283	143,547	-0,319	-0,296
138,297	117,914	-0,216	-0,185
139,312	105,691	-0,234	-0,193
140,327	158,178	-0,256	-0,247
141,341	81,779	-0,168	-0,127
142,356	800,000	-0,133	-0,323
143,370	60,889	-0,137	-0,094
144,385	105,344	-0,202	-0,166
145,400	143,003	-0,145	-0,134
146,414	64,513	-0,253	-0,177
147,429	-88,609	-0,322	-0,066
148,443	166,894	-0,234	-0,231
149,458	295,198	-0,220	-0,281
150,473	62,311	-0,251	-0,174
151,487	3,269	-0,245	-0,124
152,502	-33,810	-0,189	-0,072
153,516	-72,367	-0,300	-0,077
154,531	208,667	-0,143	-0,156
155,546	616,469	-0,149	-0,261
156,560	171,760	-0,158	-0,158
157,575	-18,114	-0,170	-0,074
158,589	184,479	-0,145	-0,150
159,604	204,916	-0,186	-0,200
160,619	50,531	-0,365	-0,240
161,633	70,042	-0,254	-0,182
162,648	348,524	-0,174	-0,239
163,662	57,114	-0,216	-0,146
164,677	-29,505	-0,277	-0,109
165,692	-200,000	-0,039	-0,156
166,706	-90,609	-0,252	0,050
167,721	133,434	-0,123	-0,110
168,735	55,456	-0,219	-0,147
169,750	13,781	-0,183	-0,098
170,764	-79,195	-0,238	-0,056
171,779	-89,849	-0,271	-0,055
172,794	-18,810	-0,233	-0,100
173,808	-29,671	-0,344	-0,136
174,823	11,200	-0,236	-0,125
175,837	283,663	-0,189	-0,237
176,852	52,744	-0,188	-0,124
177,867	-62,045	-0,263	-0,076
178,881	-143,065	-0,105	0,007
179,896	89,740	-0,240	-0,186
180,910	57,633	-0,113	-0,076
181,925	213,271	-0,271	-0,297
182,940	800,000	-0,109	-0,256
183,954	123,406	-0,171	-0,149
184,969	73,205	-0,195	-0,141
185,983	-0,675	-0,276	-0,135
186,998	-155,564	-0,158	-0,007
188,013	217,733	-0,225	-0,249
189,027	102,877	-0,231	-0,188
190,042	43,563	-0,257	-0,163
191,056	48,493	-0,257	-0,166
192,071	-18,547	-0,198	-0,085
193,086	649,556	-0,040	-0,072
194,100	85,159	-0,181	-0,137
195,115	-101,496	-0,298	-0,050
196,129	221,201	-0,199	-0,221
197,144	48,696	-0,254	-0,165
198,159	800,000	-0,109	-0,214
199,173	-59,373	-0,168	-0,050
200,188	137,695	-0,091	-0,083
201,202	-154,032	-0,234	-0,011
202,217	172,750	-0,193	-0,192
203,232	800,000	-0,130	-0,270
204,246	707,651	-0,092	-0,169
205,261	-130,063	-0,259	-0,024
206,275	-2,378	-0,351	-0,170
207,290	36,899	-0,221	-0,135
208,304	-39,275	-0,146	-0,053
209,319	26,956	-0,210	-0,122
210,334	59,446	-0,249	-0,169
211,348	176,297	-0,183	-0,184
212,363	226,108	-0,219	-0,246
213,377	132,818	-0,238	-0,213
214,392	182,664	-0,195	-0,199
215,407	193,893	-0,140	-0,147
216,421	-128,498	-0,163	-0,016
217,436	218,459	-0,162	-0,179
218,450	84,364	-0,193	-0,146
219,465	7,648	-0,107	-0,055
220,480	-58,398	0,018	0,006
221,494	-200,000	-0,035	-0,107
222,509	800,000	-0,055	-0,122
223,523	30,924	-0,185	-0,109
224,538	43,197	-0,177	-0,111
225,553	-136,516	-0,153	0,012
226,567	-36,461	-0,249	-0,092
227,582	-101,503	-0,219	-0,037
228,596	36,605	-0,133	-0,081
229,611	12,914	-0,161	-0,086
230,626	16,643	-0,244	-0,133
231,640	52,704	-0,134	-0,088
232,655	270,538	-0,170	-0,207
233,669	194,861	-0,123	-0,129
234,684	-186,741	-0,345	0,003
235,699	-130,221	-0,186	-0,017
236,713	586,166	-0,021	0,037
237,728	-21,784	-0,232	-0,097
238,742	-200,000	-0,006	-0,156
239,757	-200,000	0,056	-0,231
240,772	201,766	-0,151	-0,161
241,786	128,243	-0,104	-0,091
242,801	213,853	-0,154	-0,168
243,815	179,499	-0,102	-0,103
244,830	227,762	-0,096	-0,108
245,844	-101,103	-0,172	0,029
246,859	-180,882	-0,064	0,001
247,874	307,276	-0,198	-0,255
248,888	543,990	-0,105	-0,174
249,903	-185,671	-0,161	-0,002
250,917	-51,986	-0,109	-0,035
251,932	-12,442	-0,234	-0,105
252,947	108,617	-0,187	-0,154
253,961	27,991	-0,207	-0,120
254,976	-32,797	-0,127	0,048
255,990	-16,496	-0,230	-0,100
257,005	-54,124	-0,177	-0,055
258,020	140,880	-0,168	-0,153
259,034	356,104	-0,069	-0,095
260,049	37,065	-0,110	-0,067
261,063	-21,861	-0,095	-0,040
262,078	800,000	-0,102	-0,209
263,093	134,618	-0,188	-0,168
264,107	800,000	-0,093	-0,254
265,122	218,837	-0,189	-0,209
266,136	-70,580	-0,087	0,023
267,151	38,558	-0,159	-0,097
268,166	-200,000	-0,013	-0,065
269,180	-24,149	-0,263	-0,108
270,195	304,201	-0,175	-0,224
271,209	-18,534	-0,270	-0,115
272,224	290,548	-0,044	0,055
273,239	125,809	-0,086	-0,075
274,253	-113,566	-0,182	-0,024
275,268	-3,109	-0,222	-0,106
276,282	323,058	-0,132	-0,173
277,297	574,520	-0,168	-0,284
278,312	77,641	-0,173	-0,127
279,326	52,417	-0,136	-0,089
280,341	800,000	-0,059	-0,116
281,355	153,072	-0,139	-0,131
282,370	313,881	-0,199	-0,258
283,384	-43,373	-0,264	-0,091
284,399	99,176	-0,132	-0,105
285,414	187,273	-0,163	-0,167
286,428	86,341	-0,103	-0,078
287,443	41,069	-0,150	-0,093
288,457	93,138	-0,248	-0,192
289,472	357,287	-0,089	0,122
290,487	-114,065	-0,155	0,020
291,501	59,723	-0,154	-0,104
292,516	66,602	-0,158	-0,110
293,530	337,681	-0,146	-0,195
294,545	248,906	-0,128	-0,150
295,560	-200,000	-0,032	-0,133
296,574	137,729	-0,249	-0,224
297,589	121,879	-0,178	-0,152
298,603	76,531	-0,239	-0,174
299,618	-20,331	-0,182	-0,077
300,633	64,301	-0,188	-0,130
301,647	-119,559	-0,252	-0,030
302,662	183,177	-0,124	-0,126
303,676	569,633	-0,142	-0,238
304,691	77,070	-0,254	-0,185
305,706	800,000	-0,081	-0,165
306,720	-19,432	-0,167	-0,071
307,735	65,452	-0,147	-0,102
308,749	800,000	-0,037	-0,086
309,764	36,354	-0,046	0,028
310,779	79,304	-0,084	-0,061
311,793	-23,534	-0,283	-0,116
312,808	800,000	-0,126	-0,299
313,822	-35,091	-0,116	-0,043
314,837	800,000	-0,058	-0,153
315,852	255,463	-0,172	-0,203
316,866	-77,731	-0,150	-0,035
317,881	-131,316	-0,054	-0,005
318,895	577,435	-0,042	-0,071
319,910	57,055	-0,148	-0,099
320,925	47,143	-0,233	-0,148
321,939	800,000	-0,070	-0,210
322,954	-72,888	-0,164	0,041
323,968	337,871	-0,077	-0,102
324,983	3,697	-0,117	0,059
325,997	-188,711	-0,209	-0,002
327,012	251,617	-0,094	-0,110
328,027	9,735	-0,106	-0,055
329,041	357,946	-0,129	-0,176
330,056	800,000	-0,031	-0,066
331,070	123,111	-0,056	0,048
332,085	52,954	-0,028	0,019
333,100	271,754	-0,049	-0,059
334,114	300,866	-0,136	-0,172
335,129	800,000	-0,065	-0,135
336,143	51,302	-0,060	-0,039
337,158	-200,000	0,040	-0,139
338,173	-200,000	-0,033	0,104
339,187	-85,837	-0,184	-0,039
340,202	-200,000	-0,024	-0,140
341,216	800,000	-0,045	-0,113
342,231	110,992	-0,248	-0,204
343,246	50,279	-0,177	-0,114
344,260	-70,020	-0,060	0,016
345,275	-200,000	-0,022	0,086
346,289	-119,324	-0,131	0,015
347,304	-68,162	-0,024	0,006
348,319	10,681	-0,171	-0,089
349,333	-52,531	-0,155	-0,049
350,348	-53,172	-0,124	-0,039
351,362	800,000	-0,103	-0,201
352,377	-27,275	-0,087	-0,035
353,392	-160,942	-0,156	0,005
354,406	-78,579	-0,122	-0,028
355,421	207,784	1310,619	1400,104
356,435	159,854	1470,781	1400,539
