DTS Sentinel unit serial number:	SN410029Multiplexer serial number:	ORYXHardware model number:	OX2-SRSoftware version number:	ORYX F/W v4,00 Oryx Data Collector v3.7.2.0data status	okinstallation	B3 Nyhavnadifferential loss correction	single-endedforward channel	channel 1reverse channel	N/Adate	2023/12/04time	04:37:30forward acquisition time	300,00reverse acquisition time	0,00gamma	499,1914k internal	0,3206k external	0,3206temperature offset calibration	1,0000default loss term (dB/km)	0,3820temperature slope calibration	1,0000multiplexer offset coefficient	1,0000multiplexer slope coefficient	1,0000fibre end	0,00T internal ref (°C)	11,97T ext. ref 1 (°C)	-3,12T ext. ref 2 (°C)	-3,15length (m)	temperature (°C)	Stokes	anti-Stokes-744,400	333,422	-0,205	-0,288
-743,385	-200,000	-0,001	0,353
-742,371	751,916	-0,123	-0,242
-741,356	800,000	-0,136	0,356
-740,342	-12,239	-0,183	-0,086
-739,327	-200,000	-0,068	0,260
-738,312	-200,000	-0,023	-0,320
-737,298	-200,000	-0,001	0,229
-736,283	83,473	-0,255	-0,201
-735,269	-200,000	0,003	0,285
-734,254	270,670	-0,177	-0,226
-733,239	370,187	-0,109	0,161
-732,225	-200,000	-0,023	-0,144
-731,210	-200,000	0,007	0,091
-730,196	-200,000	0,020	-0,093
-729,181	71,527	-0,074	-0,056
-728,167	-97,812	-0,125	-0,023
-727,152	-200,000	-0,006	-0,066
-726,137	402,142	-0,038	0,058
-725,123	-200,000	0,011	-0,086
-724,108	-113,523	-0,161	-0,023
-723,094	65,802	-0,168	-0,124
-722,079	800,000	-0,006	0,012
-721,064	-200,000	0,018	-0,128
-720,050	-164,855	-0,078	0,002
-719,035	-85,925	0,093	-0,021
-718,021	2,441	-0,164	-0,086
-717,006	134,657	-0,069	0,065
-715,991	634,598	-0,043	-0,079
-714,977	-85,515	-0,098	-0,022
-713,962	371,838	0,030	-0,045
-712,948	800,000	-0,030	0,086
-711,933	110,022	-0,089	-0,077
-710,918	4,701	0,099	-0,053
-709,904	105,760	0,062	-0,053
-708,889	72,583	-0,071	-0,054
-707,875	-67,627	-0,063	-0,018
-706,860	103,357	-0,022	-0,019
-705,845	-200,000	0,001	-0,017
-704,831	19,217	0,060	-0,035
-703,816	275,177	0,026	0,034
-702,802	800,000	0,026	-0,056
-701,787	-51,857	0,088	-0,029
-700,772	-66,524	-0,108	-0,031
-699,758	-85,938	-0,090	0,020
-698,743	430,761	0,052	0,082
-697,729	-96,077	0,088	-0,017
-696,714	130,500	0,021	-0,020
-695,699	200,676	-0,084	0,094
-694,685	-200,000	0,000	-0,050
-693,670	-52,014	-0,068	0,023
-692,656	-38,446	-0,068	0,026
-691,641	-28,957	-0,127	0,053
-690,627	-198,011	-0,083	-0,000
-689,612	395,341	0,038	0,057
-688,597	-150,095	-0,181	0,010
-687,583	-200,000	-0,007	-0,042
-686,568	-39,701	-0,264	-0,100
-685,554	-64,972	-0,174	0,051
-684,539	8,962	0,230	0,125
-683,524	-143,039	-0,008	-0,001
-682,510	800,000	0,039	-0,126
-681,495	-5,709	0,055	0,027
-680,481	25,190	-0,050	-0,030
-679,466	-14,140	-0,056	-0,026
-678,451	-42,721	0,152	-0,056
-677,437	441,078	-0,062	0,098
-676,422	800,000	0,012	0,029
-675,408	-80,767	0,020	0,005
-674,393	-200,000	0,008	0,043
-673,378	800,000	-0,071	-0,220
-672,364	217,105	0,037	-0,043
-671,349	569,046	-0,044	0,077
-670,335	800,000	0,039	0,086
-669,320	-200,000	0,013	0,233
-668,305	38,859	-0,103	0,066
-667,291	-139,782	0,031	-0,002
-666,276	309,188	-0,090	0,122
-665,262	-200,000	0,008	-0,158
-664,247	21,722	0,095	0,056
-663,232	-157,969	-0,103	-0,004
-662,218	-200,000	0,040	0,170
-661,203	800,000	0,019	-0,056
-660,189	451,093	-0,072	-0,115
-659,174	-13,730	-0,190	-0,089
-658,159	34,784	0,049	0,031
-657,145	-200,000	-0,025	-0,142
-656,130	800,000	0,035	-0,073
-655,116	800,000	0,048	-0,133
-654,101	-55,343	0,044	-0,014
-653,086	800,000	-0,025	-0,075
-652,072	25,176	-0,145	-0,087
-651,057	800,000	0,059	-0,155
-650,043	10,050	-0,170	-0,093
-649,028	-117,092	-0,083	-0,011
-648,014	-123,794	-0,098	-0,011
-646,999	-14,192	-0,118	0,055
-645,984	800,000	0,063	-0,142
-644,970	-200,000	-0,003	-0,085
-643,955	453,920	-0,058	0,093
-642,941	800,000	-0,016	-0,034
-641,926	-200,000	-0,018	-0,086
-640,911	-65,109	0,139	0,040
-639,897	118,854	-0,022	-0,020
-638,882	-182,654	-0,126	-0,002
-637,868	-6,288	-0,095	0,047
-636,853	448,392	-0,047	0,075
-635,838	-118,765	-0,089	-0,011
-634,824	51,358	0,086	-0,059
-633,809	-107,649	-0,071	-0,011
-632,795	-8,591	-0,134	0,065
-631,780	76,453	0,103	0,079
-630,765	97,618	-0,063	0,053
-629,751	9,153	0,046	-0,025
-628,736	464,560	0,062	-0,101
-627,722	3,086	0,015	0,008
-626,707	800,000	-0,063	0,128
-625,692	-48,171	-0,070	0,024
-624,678	-67,943	-0,148	-0,041
-623,663	114,792	0,076	-0,067
-622,649	528,506	-0,046	-0,080
-621,634	354,218	0,036	-0,052
-620,619	-200,000	-0,014	0,046
-619,605	800,000	0,006	-0,016
-618,590	2,637	0,025	-0,013
-617,576	287,720	0,062	-0,082
-616,561	-144,089	-0,141	-0,009
-615,546	-200,000	0,007	0,060
-614,532	-173,826	-0,180	-0,004
-613,517	80,269	-0,012	0,009
-612,503	-75,463	-0,107	-0,027
-611,488	800,000	0,042	-0,105
-610,474	531,748	0,040	0,068
-609,459	78,550	-0,047	0,036
-608,444	-108,705	-0,052	-0,008
-607,430	-89,419	-0,063	-0,013
-606,415	-200,000	0,006	-0,086
-605,401	-155,733	-0,045	0,002
-604,386	800,000	0,074	-0,197
-603,371	-142,886	-0,111	0,008
-602,357	451,568	0,043	0,069
-601,342	-97,703	-0,088	-0,016
-600,328	800,000	-0,042	-0,112
-599,313	4,112	-0,030	0,016
-598,298	-87,388	-0,073	-0,016
-597,284	414,704	0,049	-0,076
-596,269	-159,128	0,103	0,004
-595,255	-200,000	0,020	-0,084
-594,240	-200,000	0,003	-0,067
-593,225	201,497	-0,055	-0,061
-592,211	-22,419	-0,099	-0,043
-591,196	-200,000	-0,012	0,148
-590,182	-36,354	0,075	0,029
-589,167	49,304	0,101	0,068
-588,152	344,180	0,088	0,125
-587,138	-200,000	-0,001	-0,048
-586,123	54,494	-0,058	-0,040
-585,109	-73,302	-0,079	0,021
-584,094	23,145	-0,140	0,083
-583,079	-27,376	0,170	-0,071
-582,065	167,876	0,041	0,043
-581,050	-200,000	0,047	0,153
-580,036	-38,956	-0,113	0,043
-579,021	-200,000	-0,067	0,218
-578,006	-200,000	-0,003	-0,076
-576,992	-96,687	-0,126	0,024
-575,977	164,859	0,036	-0,036
-574,963	325,803	0,067	0,093
-573,948	49,092	0,081	-0,055
-572,934	-200,000	-0,017	0,062
-571,919	14,417	-0,057	-0,032
-570,904	-200,000	-0,009	-0,216
-569,890	800,000	-0,019	-0,054
-568,875	800,000	-0,066	-0,177
-567,861	-20,679	0,121	0,053
-566,846	-200,000	-0,032	0,131
-565,831	-200,000	0,007	-0,078
-564,817	-200,000	-0,000	-0,032
-563,802	-200,000	-0,019	-0,123
-562,788	255,881	-0,038	0,047
-561,773	-200,000	-0,035	0,194
-560,758	-200,000	0,034	0,119
-559,744	144,006	-0,084	0,080
-558,729	-12,913	0,066	-0,031
-557,715	49,367	-0,112	0,076
-556,700	425,850	0,050	0,078
-555,685	54,379	0,048	-0,033
-554,671	86,078	0,011	0,009
-553,656	-176,833	0,108	-0,002
-552,642	602,349	-0,033	0,059
-551,627	800,000	-0,056	-0,136
-550,612	-11,367	0,120	-0,057
-549,598	-200,000	-0,013	-0,139
-548,583	193,925	0,061	0,067
-547,569	-200,000	-0,016	-0,154
-546,554	189,480	0,106	-0,115
-545,539	113,767	0,147	0,129
-544,525	-43,414	-0,115	0,042
-543,510	-200,000	0,005	-0,077
-542,496	-69,879	-0,028	-0,008
-541,481	-90,822	-0,134	-0,028
-540,466	332,776	0,060	0,084
-539,452	-42,156	-0,082	-0,030
-538,437	553,111	0,016	0,028
-537,423	-42,861	0,116	0,042
-536,408	323,600	-0,019	0,026
-535,393	329,201	-0,054	-0,074
-534,379	52,344	0,039	0,027
-533,364	311,090	0,014	0,019
-532,350	-200,000	-0,005	0,109
-531,335	-60,318	-0,076	0,023
-530,321	-200,000	-0,002	-0,036
-529,306	113,896	0,093	0,082
-528,291	184,406	-0,074	-0,079
-527,277	800,000	0,026	0,080
-526,262	-3,820	-0,097	0,048
-525,248	-200,000	-0,017	0,072
-524,233	50,314	0,103	-0,070
-523,218	-200,000	0,019	0,071
-522,204	376,971	-0,065	0,096
-521,189	-38,517	-0,067	0,025
-520,175	-200,000	-0,010	0,151
-519,160	-188,746	0,076	0,001
-518,145	58,066	0,037	0,026
-517,131	-200,000	0,024	0,120
-516,116	135,081	0,091	0,085
-515,102	207,995	-0,037	0,041
-514,087	135,436	-0,047	-0,044
-513,072	335,997	-0,060	-0,084
-512,058	-76,009	-0,115	-0,029
-511,043	19,042	0,034	0,020
-510,029	-112,607	0,142	-0,020
-509,014	108,596	0,086	0,074
-507,999	-200,000	0,017	0,076
-506,985	-200,000	-0,004	0,175
-505,970	-200,000	-0,014	-0,134
-504,956	-70,501	-0,059	0,016
-503,941	800,000	-0,006	-0,017
-502,926	409,712	-0,013	0,020
-501,912	103,872	-0,148	0,125
-500,897	142,648	0,082	0,079
-499,883	-28,768	-0,090	0,037
-498,868	-150,538	0,159	-0,009
-497,853	-106,217	0,043	-0,007
-496,839	618,064	0,082	0,148
-495,824	800,000	0,058	0,132
-494,810	232,230	-0,058	0,069
-493,795	39,445	-0,058	0,038
-492,781	28,074	-0,109	-0,066
-491,766	185,281	-0,084	-0,090
-490,751	-16,662	0,092	-0,042
-489,737	800,000	-0,050	-0,108
-488,722	-200,000	-0,002	0,034
-487,708	457,869	0,052	0,084
-486,693	-85,946	0,087	-0,019
-485,678	-138,715	-0,120	0,009
-484,664	535,782	-0,030	-0,051
-483,649	800,000	0,049	-0,140
-482,635	-200,000	-0,008	-0,052
-481,620	-200,000	-0,007	-0,066
-480,605	-45,221	-0,054	0,019
-479,591	-149,323	-0,044	-0,003
-478,576	-200,000	-0,012	-0,068
-477,562	-200,000	-0,005	-0,021
-476,547	800,000	0,014	0,029
-475,532	14,781	-0,078	0,044
-474,518	69,834	0,046	0,034
-473,503	-55,569	0,066	-0,021
-472,489	-194,344	0,075	-0,000
-471,474	328,564	-0,059	0,082
-470,459	71,204	-0,172	-0,128
-469,445	-200,000	0,012	-0,080
-468,430	541,249	-0,031	0,054
-467,416	-5,629	0,152	-0,075
-466,401	4,652	-0,068	0,036
-465,386	-200,000	0,046	0,180
-464,372	800,000	-0,018	0,051
-463,357	338,326	-0,023	0,032
-462,343	-30,595	-0,077	-0,031
-461,328	-121,031	0,103	-0,012
-460,313	-200,000	-0,003	0,085
-459,299	800,000	0,041	0,090
-458,284	-200,000	0,033	0,185
-457,270	406,337	0,059	-0,090
-456,255	22,381	-0,058	-0,034
-455,241	402,113	-0,023	-0,034
-454,226	-200,000	-0,021	-0,122
-453,211	800,000	0,021	-0,062
-452,197	-45,899	-0,072	-0,025
-451,182	-200,000	0,014	0,078
-450,168	568,916	-0,054	0,095
-449,153	-95,058	-0,066	-0,013
-448,138	-26,093	0,182	-0,076
-447,124	-200,000	-0,024	-0,155
-446,109	-200,000	0,038	-0,156
-445,095	-200,000	0,021	0,102
-444,080	586,715	0,090	0,160
-443,065	-80,425	0,071	-0,017
-442,051	-200,000	0,015	0,113
-441,036	800,000	-0,015	-0,030
-440,022	-65,983	-0,127	-0,036
-439,007	-200,000	-0,000	-0,203
-437,992	786,224	0,016	-0,031
-436,978	-200,000	0,045	0,149
-435,963	-200,000	-0,025	0,079
-434,949	-131,682	-0,035	-0,003
-433,934	800,000	0,026	-0,069
-432,919	-122,817	-0,046	-0,005
-431,905	-200,000	0,027	-0,098
-430,890	-77,134	-0,190	-0,047
-429,876	531,959	0,070	0,119
-428,861	-145,001	0,131	-0,008
-427,846	184,774	0,024	-0,025
-426,832	-182,630	-0,176	0,002
-425,817	-200,000	-0,013	-0,066
-424,803	-36,217	-0,100	0,038
-423,788	183,343	0,042	0,044
-422,773	-35,509	0,116	0,045
-421,759	-80,212	0,037	0,009
-420,744	335,776	0,046	-0,064
-419,730	-148,868	-0,065	0,004
-418,715	-147,163	-0,163	0,010
-417,701	-87,944	0,173	-0,037
-416,686	151,175	0,032	-0,031
-415,671	23,030	0,102	-0,060
-414,657	95,632	0,120	0,098
-413,642	800,000	-0,047	0,136
-412,628	-77,063	0,020	-0,005
-411,613	-200,000	0,020	-0,222
-410,598	-78,588	-0,091	0,022
-409,584	248,213	0,107	0,130
-408,569	800,000	0,022	0,061
-407,555	800,000	-0,047	0,143
-406,540	-200,000	-0,002	0,031
-405,525	-200,000	-0,023	-0,126
-404,511	161,084	0,077	0,077
-403,496	-56,685	-0,091	-0,029
-402,482	55,463	-0,018	0,012
-401,467	-114,013	0,068	0,009
-400,452	186,747	-0,043	-0,046
-399,438	-183,360	0,159	-0,002
-398,423	-78,776	-0,069	-0,017
-397,409	-148,306	-0,125	-0,007
-396,394	8,632	0,043	0,023
-395,379	-70,590	0,051	0,014
-394,365	-56,990	0,063	-0,020
-393,350	574,572	0,013	-0,023
-392,336	-17,170	0,084	-0,038
-391,321	-200,000	0,035	0,119
-390,306	236,964	-0,093	-0,111
-389,292	-200,000	0,006	-0,092
-388,277	726,090	0,043	-0,082
-387,263	800,000	0,020	-0,057
-386,248	-200,000	0,006	0,085
-385,233	800,000	0,025	-0,056
-384,219	800,000	0,026	0,059
-383,204	-100,137	-0,184	0,033
-382,190	800,000	-0,062	0,159
-381,175	508,344	-0,011	-0,018
-380,160	103,836	0,144	0,121
-379,146	205,647	0,118	-0,132
-378,131	-49,410	0,073	-0,025
-377,117	93,336	-0,072	-0,059
-376,102	-200,000	-0,001	-0,045
-375,088	-84,447	0,126	-0,028
-374,073	248,958	-0,017	-0,021
-373,058	266,989	0,063	-0,079
-372,044	24,259	-0,042	-0,025
-371,029	-200,000	-0,001	0,065
-370,015	96,882	-0,069	-0,056
-369,000	800,000	-0,047	-0,101
-367,985	-200,000	-0,044	-0,352
-366,971	166,642	-0,116	0,118
-365,956	800,000	0,045	0,107
-364,942	-23,142	0,027	-0,012
-363,927	17,466	0,091	0,051
-362,912	96,627	-0,038	0,031
-361,898	-200,000	0,008	-0,042
-360,883	599,192	-0,026	0,047
-359,869	79,965	-0,037	-0,029
-358,854	391,112	0,042	-0,062
-357,839	445,754	0,034	0,054
-356,825	800,000	0,023	0,062
-355,810	248,444	0,059	0,072
-354,796	800,000	0,015	0,032
-353,781	-200,000	0,010	-0,105
-352,766	-56,772	0,037	0,012
-351,752	250,916	-0,166	-0,202
-350,737	-39,716	-0,054	0,020
-349,723	-166,635	0,051	0,001
-348,708	490,699	-0,049	0,080
-347,693	-102,237	-0,010	0,002
-346,679	343,941	-0,013	0,018
-345,664	800,000	-0,034	-0,071
-344,650	-7,448	-0,047	-0,023
-343,635	-127,389	0,081	-0,008
-342,620	67,417	0,065	-0,048
-341,606	800,000	-0,043	-0,088
-340,591	-200,000	0,001	-0,049
-339,577	-200,000	-0,004	-0,044
-338,562	800,000	-0,033	-0,095
-337,548	150,886	0,068	0,066
-336,533	-200,000	-0,006	0,033
-335,518	-2,688	-0,015	-0,007
-334,504	228,477	-0,053	0,062
-333,489	-200,000	-0,013	-0,090
-332,475	-160,508	-0,037	-0,001
-331,460	668,886	0,045	-0,083
-330,445	247,907	0,108	-0,131
-329,431	-190,445	-0,140	0,001
-328,416	-60,505	0,160	0,048
-327,402	800,000	0,028	0,083
-326,387	-73,475	0,088	-0,023
-325,372	-81,917	-0,059	0,014
-324,358	99,295	-0,037	0,030
-323,343	136,891	0,051	0,048
-322,329	254,679	0,066	0,080
-321,314	-200,000	-0,007	-0,031
-320,299	498,948	-0,048	-0,079
-319,285	-111,532	0,064	0,009
-318,270	-57,241	-0,052	0,016
-317,256	-9,871	-0,121	0,057
-316,241	-200,000	0,013	-0,049
-315,226	-200,000	0,028	-0,158
-314,212	800,000	-0,042	-0,106
-313,197	800,000	0,072	0,171
-312,183	-11,887	0,074	-0,034
-311,168	183,705	-0,057	-0,061
-310,153	21,042	0,056	-0,033
-309,139	-36,517	0,123	0,047
-308,124	362,609	0,080	0,115
-307,110	800,000	-0,042	0,122
-306,095	800,000	0,025	-0,052
-305,080	232,809	-0,051	-0,060
-304,066	-200,000	0,017	-0,060
-303,051	-200,000	-0,003	-0,065
-302,037	-45,647	0,046	0,016
-301,022	320,308	-0,041	-0,056
-300,008	-95,325	0,137	-0,026
-298,993	-65,769	0,123	-0,035
-297,978	-200,000	-0,020	-0,084
-296,964	800,000	-0,003	0,005
-295,949	-44,287	-0,111	-0,040
-294,935	800,000	0,057	-0,113
-293,920	-65,005	0,062	0,018
-292,905	654,869	0,078	-0,143
-291,891	-106,778	0,093	0,015
-290,876	800,000	0,038	-0,079
-289,862	-200,000	0,018	-0,074
-288,847	762,231	-0,076	-0,147
-287,832	34,241	-0,074	0,046
-286,818	17,973	-0,049	-0,028
-285,803	36,552	-0,062	0,039
-284,789	800,000	0,037	0,113
-283,774	101,430	-0,024	-0,020
-282,759	-200,000	-0,002	0,057
-281,745	-200,000	-0,017	-0,146
-280,730	-68,773	-0,118	-0,032
-279,716	59,810	0,028	-0,020
-278,701	326,318	0,042	-0,058
-277,686	-73,698	0,102	-0,026
-276,672	500,940	-0,052	0,085
-275,657	-169,482	0,055	-0,001
-274,643	-63,032	0,030	0,009
-273,628	202,672	-0,111	-0,122
-272,613	-56,458	0,106	-0,033
-271,599	-130,664	0,038	-0,004
-270,584	-200,000	0,005	-0,067
-269,570	289,074	-0,042	-0,054
-268,555	-113,953	-0,106	-0,014
-267,540	70,597	-0,038	0,028
-266,526	-200,000	-0,010	0,083
-265,511	232,585	-0,055	-0,064
-264,497	5,001	0,083	0,044
-263,482	448,264	0,081	0,127
-262,467	-59,477	0,118	-0,036
-261,453	71,652	0,095	-0,070
-260,438	329,519	0,024	0,032
-259,424	-65,414	-0,098	0,028
-258,409	3,466	-0,048	0,025
-257,395	369,652	0,090	0,131
-256,380	22,011	-0,061	0,036
-255,365	-200,000	0,040	0,130
-254,351	-200,000	0,019	0,090
-253,336	310,629	-0,106	0,141
-252,322	-200,000	-0,012	0,049
-251,307	132,431	0,091	-0,084
-250,292	150,632	0,065	-0,063
-249,278	227,586	-0,037	0,043
-248,263	-200,000	0,029	0,137
-247,249	-1,819	0,053	0,027
-246,234	-200,000	0,000	-0,044
-245,219	-200,000	0,042	-0,198
-244,205	-200,000	-0,009	0,056
-243,190	-180,007	-0,125	0,002
-242,176	-136,710	0,122	0,010
-241,161	-200,000	-0,009	0,067
-240,146	-120,210	0,052	-0,006
-239,132	-200,000	-0,000	-0,043
-238,117	37,227	-0,102	-0,064
-237,103	568,698	-0,029	0,051
-236,088	181,474	-0,051	0,054
-235,073	75,907	0,108	0,081
-234,059	117,062	0,048	0,042
-233,044	42,707	-0,028	-0,018
-232,030	-13,831	-0,110	-0,050
-231,015	10,338	-0,100	-0,054
-230,000	156,145	-0,029	-0,028
-228,986	-49,260	-0,118	-0,040
-227,971	392,956	0,095	0,140
-226,957	800,000	-0,032	0,072
-225,942	-200,000	0,001	0,080
-224,927	-7,423	-0,078	-0,037
-223,913	178,281	0,063	-0,065
-222,898	32,710	-0,108	-0,066
-221,884	-171,938	-0,173	-0,004
-220,869	98,284	0,016	-0,013
-219,855	800,000	-0,056	0,162
-218,840	-63,293	0,201	0,059
-217,825	-200,000	0,040	-0,160
-216,811	699,053	-0,033	0,062
-215,796	574,654	-0,044	-0,077
-214,782	271,353	0,082	0,103
-213,767	365,410	-0,034	-0,048
-212,752	262,868	0,068	0,085
-211,738	-11,485	-0,037	0,017
-210,723	-134,051	0,048	-0,004
-209,709	-53,741	-0,025	0,008
-208,694	221,781	-0,072	-0,082
-207,679	-61,687	-0,060	0,018
-206,665	-200,000	-0,015	0,126
-205,650	-19,178	0,103	-0,045
-204,636	-14,226	0,140	0,064
-203,621	-200,000	-0,032	0,116
-202,606	118,894	0,107	0,094
-201,592	158,033	-0,092	-0,091
-200,577	-90,768	0,132	-0,027
-199,563	47,920	-0,081	-0,054
-198,548	-1,130	0,032	0,016
-197,533	86,960	0,081	0,064
-196,519	115,098	0,071	0,061
-195,504	-200,000	-0,004	0,060
-194,490	-1,497	-0,078	-0,039
-193,475	-200,000	-0,023	-0,125
-192,460	-200,000	-0,009	0,075
-191,446	800,000	0,033	0,082
-190,431	94,089	-0,090	0,073
-189,417	-5,716	0,009	0,005
-188,402	151,656	0,043	0,042
-187,387	800,000	0,082	-0,165
-186,373	-123,164	-0,078	-0,009
-185,358	138,734	-0,044	0,041
-184,344	-200,000	-0,043	0,181
-183,329	800,000	0,045	0,093
-182,315	407,589	0,049	-0,074
-181,300	-200,000	0,000	0,147
-180,285	-26,566	0,034	0,014
-179,271	-200,000	0,007	0,044
-178,256	51,238	0,026	-0,017
-177,242	180,971	-0,023	-0,024
-176,227	800,000	0,046	0,111
-175,212	501,480	0,043	0,071
-174,198	-127,602	-0,070	0,007
-173,183	-62,806	-0,059	-0,017
-172,169	800,000	0,021	-0,061
-171,154	-200,000	-0,002	0,024
-170,139	-200,000	0,004	-0,124
-169,125	-103,966	0,090	0,015
-168,110	-71,702	-0,027	-0,007
-167,096	-121,525	0,101	-0,012
-166,081	779,876	-0,042	-0,082
-165,066	154,139	0,017	-0,016
-164,052	227,324	-0,154	-0,178
-163,037	800,000	0,036	0,089
-162,023	446,348	-0,015	0,023
-161,008	-29,458	0,035	-0,014
-159,993	-200,000	0,010	-0,081
-158,979	800,000	-0,021	0,052
-157,964	800,000	0,004	0,013
-156,950	800,000	-0,030	-0,072
-155,935	101,825	0,052	-0,043
-154,920	-3,744	0,110	-0,054
-153,906	-200,000	-0,013	0,067
-152,891	800,000	0,029	-0,090
-151,877	420,872	0,021	0,033
-150,862	800,000	0,057	-0,118
-149,847	-200,000	-0,031	-0,114
-148,833	97,312	0,042	-0,034
-147,818	-200,000	0,031	0,149
-146,804	-42,221	-0,022	0,008
-145,789	100,385	-0,075	0,062
-144,775	-118,188	-0,138	-0,017
-143,760	-200,000	-0,005	0,051
-142,745	177,510	-0,057	-0,059
-141,731	26,754	-0,008	-0,005
-140,716	45,641	0,086	-0,056
-139,702	800,000	-0,055	-0,110
-138,687	800,000	-0,043	-0,124
-137,672	-15,497	-0,080	-0,036
-136,658	152,684	-0,038	-0,037
-135,643	-200,000	0,035	-0,124
-134,629	-200,000	-0,005	-0,101
-133,614	-26,209	0,040	-0,017
-132,599	800,000	-0,012	-0,030
-131,585	465,489	-0,094	0,149
-130,570	307,312	0,033	-0,044
-129,556	53,640	0,125	-0,085
-128,541	-200,000	-0,013	-0,099
-127,526	109,959	0,049	0,041
-126,512	800,000	0,020	-0,050
-125,497	-18,738	0,036	0,016
-124,483	323,991	-0,043	0,059
-123,468	150,754	-0,037	0,036
-122,453	-200,000	0,011	-0,202
-121,439	136,435	0,064	-0,060
-120,424	556,167	-0,056	-0,097
-119,410	-154,259	-0,064	-0,003
-118,395	229,969	0,075	0,087
-117,380	189,204	0,014	-0,015
-116,366	-73,056	0,093	0,024
-115,351	206,135	0,035	0,038
-114,337	91,380	-0,182	-0,145
-113,322	4,878	0,084	-0,044
-112,307	-79,647	0,059	-0,014
-111,293	738,363	0,033	-0,062
-110,278	140,254	0,037	0,035
-109,264	-200,000	0,005	-0,030
-108,249	-89,139	-0,078	0,016
-107,234	-61,930	0,042	0,012
-106,220	-200,000	0,000	-0,004
-105,205	-104,539	-0,053	0,009
-104,191	800,000	0,080	-0,169
-103,176	800,000	0,096	0,197
-102,162	-200,000	0,009	-0,030
-101,147	172,352	-0,091	0,093
-100,132	-156,127	-0,096	-0,004
-99,118	-200,000	-0,007	-0,102
-98,103	308,007	0,064	-0,085
-97,089	-123,715	0,071	-0,008
-96,074	-200,000	0,004	-0,037
-95,059	356,558	-0,050	-0,071
-94,045	-200,000	-0,000	0,023
-93,030	-110,040	-0,043	-0,006
-92,016	-200,000	-0,020	-0,084
-91,001	-88,736	0,053	-0,011
-89,986	-4,567	0,129	0,063
-88,972	122,093	0,098	0,087
-87,957	-39,449	0,136	-0,050
-86,943	-200,000	-0,008	-0,161
-85,928	-200,000	-0,026	-0,121
-84,913	800,000	0,053	-0,162
-83,899	175,141	0,106	0,109
-82,884	-8,429	-0,159	0,075
-81,870	-53,390	-0,030	-0,010
-80,855	-200,000	0,010	0,089
-79,840	-127,339	0,164	-0,017
-78,826	424,382	-0,021	-0,032
-77,811	16,166	0,161	-0,090
-76,797	164,438	0,033	0,033
-75,782	-132,494	-0,045	0,004
-74,767	-200,000	0,021	-0,085
-73,753	99,836	0,071	0,058
-72,738	-59,253	0,039	0,012
-71,724	-200,000	0,012	0,043
-70,709	212,131	-0,103	-0,115
-69,694	-29,578	0,074	0,030
-68,680	800,000	-0,059	-0,134
-67,665	96,287	0,099	0,080
-66,651	-200,000	0,003	0,018
-65,636	338,189	0,054	-0,075
-64,622	478,948	0,108	-0,173
-63,607	-98,186	0,084	-0,015
-62,592	-200,000	0,025	-0,132
-61,578	-151,042	0,061	0,003
-60,563	-200,000	0,019	-0,074
-59,549	213,010	0,105	0,117
-58,534	-14,652	-1,977	-0,895
-57,519	385,113	-1,366	-1,998
-56,505	-200,000	-0,653	-4,601
-55,490	300,710	1,049	1,371
-54,476	800,000	4,906	11,056
-53,461	-200,000	20,247	324,533
-52,446	800,000	752,327	2311,986
-51,432	549,097	1662,817	2827,781
-50,417	74,690	1671,325	1241,780
-49,403	19,830	1544,559	877,132
-48,388	13,809	1466,999	803,799
-47,373	18,424	1457,177	820,672
-46,359	16,272	1446,895	804,544
-45,344	12,113	1442,370	782,079
-44,330	12,007	1440,721	780,645
-43,315	12,009	1438,761	779,561
-42,300	12,029	1437,040	778,693
-41,286	12,056	1435,758	778,097
-40,271	12,031	1434,444	777,235
-39,257	12,028	1433,276	776,559
-38,242	12,053	1432,144	776,033
-37,227	12,049	1430,964	775,343
-36,213	12,055	1429,488	774,540
-35,198	12,062	1428,216	773,856
-34,184	12,050	1427,612	773,439
-33,169	12,030	1426,078	772,485
-32,154	12,087	1424,988	772,134
-31,140	12,095	1423,755	771,470
-30,125	12,097	1422,630	770,842
-29,111	12,066	1421,507	770,055
-28,096	12,101	1420,226	769,494
-27,082	11,985	1419,275	768,405
-26,067	11,977	1418,109	767,702
-25,052	11,997	1417,052	767,197
-24,038	12,000	1416,068	766,645
-23,023	11,974	1415,140	765,989
-22,009	11,983	1413,891	765,328
-20,994	11,966	1413,205	764,845
-19,979	11,992	1412,081	764,329
-18,965	11,964	1411,160	763,671
-17,950	11,945	1410,508	763,194
-16,936	11,979	1409,690	762,883
-15,921	11,955	1408,344	762,013
-14,906	11,914	1407,702	761,444
-13,892	11,875	1406,790	760,735
-12,877	11,922	1405,859	760,420
-11,863	11,893	1404,938	759,759
-10,848	11,912	1403,911	759,262
-9,833	11,881	1403,200	758,700
-8,819	11,806	1402,355	757,866
-7,804	11,790	1401,295	757,191
-6,790	11,787	1400,233	756,572
-5,775	11,809	1399,302	756,138
-4,760	11,798	1398,406	755,574
-3,746	11,854	1397,285	755,197
-2,731	11,824	1396,692	754,711
-1,717	11,783	1395,811	754,014
-0,702	11,772	1393,914	752,908
0,313	15,740	1308,687	725,185
1,327	32,044	699,082	424,807
2,342	49,373	121,810	80,812
3,356	1,442	16,677	8,444
4,371	-3,833	3,260	1,592
5,386	3,815	0,641	0,329
6,400	-200,000	0,066	0,386
7,415	96,560	-0,257	-0,207
8,429	-6,945	-0,241	-0,115
9,444	46,968	-0,345	-0,226
10,459	275,985	-0,199	-0,250
11,473	-28,093	-0,361	-0,147
12,488	186,684	-0,284	-0,299
13,502	-45,753	-0,366	-0,127
14,517	34,909	-0,355	-0,219
15,531	12,567	-0,444	-0,241
16,546	-4,680	-0,400	-0,194
17,561	53,991	-0,424	-0,287
18,575	-51,266	-0,197	-0,065
19,590	-17,077	-0,198	-0,088
20,604	36,436	-0,350	-0,218
21,619	21,280	-0,467	-0,267
22,634	79,890	-0,534	-0,404
23,648	502,834	-0,243	-0,398
24,663	29,172	-0,377	-0,225
25,677	102,972	-0,249	-0,206
26,692	90,017	-0,336	-0,265
27,707	-27,413	-0,401	-0,164
28,721	141,471	-0,370	-0,345
29,736	25,115	-0,374	-0,218
30,750	29,568	-0,405	-0,242
31,765	120,314	-0,385	-0,337
32,780	98,550	-0,395	-0,321
33,794	-59,689	-0,247	-0,074
34,809	114,491	-0,305	-0,262
35,823	-17,821	-0,449	-0,198
36,838	7,327	-0,371	-0,195
37,853	58,074	-0,445	-0,307
38,867	171,240	-0,315	-0,318
39,882	196,372	-0,259	-0,278
40,896	296,130	-0,216	-0,279
41,911	43,961	-0,343	-0,221
42,926	54,638	-0,386	-0,262
43,940	85,535	-0,259	-0,200
44,955	-6,522	-0,453	-0,216
45,969	230,654	-0,333	-0,384
46,984	64,470	-0,268	-0,190
47,999	-35,797	-0,306	-0,116
49,013	2,449	-0,325	-0,165
50,028	175,678	-0,338	-0,345
51,042	64,170	-0,370	-0,262
52,057	46,087	-0,430	-0,280
53,071	169,691	-0,322	-0,324
54,086	58,337	-0,381	-0,262
55,101	198,914	-0,281	-0,303
56,115	16,137	-0,289	-0,160
57,130	62,476	-0,326	-0,229
58,144	248,425	-0,277	-0,330
59,159	51,445	-0,351	-0,234
60,174	-13,876	-0,419	-0,190
61,188	116,446	-0,287	-0,247
62,203	6,273	-0,281	-0,146
63,217	82,700	-0,259	-0,197
64,232	27,380	-0,370	-0,218
65,247	7,029	-0,439	-0,229
66,261	83,903	-0,303	-0,232
67,276	63,380	-0,284	-0,200
68,290	-65,668	-0,318	-0,089
69,305	141,819	-0,353	-0,328
70,320	-51,935	-0,263	-0,085
71,334	199,214	-0,171	-0,184
72,349	32,145	-0,418	-0,253
73,363	99,625	-0,326	-0,265
74,378	-54,252	-0,322	-0,102
75,393	-10,736	-0,342	-0,158
76,407	31,249	-0,341	-0,205
77,422	-37,766	-0,379	-0,141
78,436	140,480	-0,196	-0,182
79,451	53,466	-0,269	-0,181
80,466	190,657	-0,294	-0,310
81,480	-18,904	-0,383	-0,167
82,495	-79,245	-0,244	-0,057
83,509	25,574	-0,250	-0,145
84,524	77,887	-0,297	-0,222
85,539	49,639	-0,281	-0,185
86,553	-93,389	-0,261	-0,050
87,568	-14,263	-0,378	-0,170
88,582	800,000	-0,124	-0,279
89,597	17,882	-0,368	-0,205
90,611	140,323	-0,151	-0,140
91,626	144,933	-0,259	-0,243
92,641	-9,402	-0,290	-0,135
93,655	-7,696	-0,353	-0,167
94,670	-53,417	-0,274	-0,088
95,684	38,335	-0,363	-0,226
96,699	310,369	-0,188	-0,248
97,714	327,065	-0,139	-0,187
98,728	-122,284	-0,288	-0,033
99,743	76,320	-0,200	-0,148
100,757	0,150	-0,261	-0,130
101,772	39,320	-0,284	-0,178
102,787	43,607	-0,419	-0,268
103,801	123,559	-0,197	-0,173
104,816	25,732	-0,280	-0,163
105,830	-21,150	-0,303	-0,129
106,845	-36,063	-0,274	-0,103
107,860	395,214	-0,134	-0,195
108,874	6,959	-0,326	-0,169
109,889	-31,201	-0,303	-0,119
110,903	202,214	-0,269	-0,291
111,918	195,269	-0,272	-0,289
112,933	65,355	-0,221	-0,156
113,947	-41,159	-0,197	-0,071
114,962	-144,883	-0,250	0,016
115,976	108,146	-0,219	-0,182
116,991	9,401	-0,348	-0,184
118,006	105,889	-0,221	-0,183
119,020	-10,858	-0,256	-0,118
120,035	-2,181	-0,243	-0,119
121,049	27,512	-0,281	-0,165
122,064	-8,189	-0,285	-0,134
123,079	-200,000	-0,029	-0,097
124,093	370,210	-0,179	-0,255
125,108	40,144	-0,375	-0,235
126,122	70,838	-0,305	-0,220
127,137	-112,729	-0,234	-0,032
128,151	-26,821	-0,333	-0,136
129,166	117,030	-0,220	-0,188
130,181	176,458	-0,245	-0,249
131,195	19,110	-0,136	-0,076
132,210	-60,326	-0,245	-0,072
133,224	81,034	-0,355	-0,268
134,239	270,696	-0,134	-0,165
135,254	-33,344	-0,205	-0,079
136,268	-170,072	-0,147	0,004
137,283	-58,805	-0,246	-0,074
138,297	127,667	-0,259	-0,230
139,312	-8,167	-0,270	-0,127
140,327	113,121	-0,334	-0,282
141,341	586,879	-0,098	-0,170
142,356	-17,325	-0,149	-0,065
143,370	14,810	-0,197	-0,107
144,385	55,479	-0,277	-0,187
145,400	-75,177	-0,293	-0,073
146,414	89,862	-0,314	-0,245
147,429	40,570	-0,244	-0,153
148,443	318,009	-0,168	-0,222
149,458	150,548	-0,259	-0,245
150,473	-165,558	-0,211	0,006
151,487	159,956	-0,189	-0,184
152,502	-48,391	-0,268	-0,090
153,516	367,752	-0,246	-0,348
154,531	38,792	-0,230	-0,143
155,546	-12,775	-0,267	-0,121
156,560	83,352	-0,234	-0,178
157,575	-107,122	-0,285	0,043
158,589	-50,977	-0,311	-0,101
159,604	1,280	-0,312	-0,156
160,619	393,973	-0,215	-0,313
161,633	134,489	-0,206	-0,186
162,648	7,364	-0,244	-0,126
163,662	49,066	-0,266	-0,174
164,677	158,249	-0,167	-0,161
165,692	285,763	-0,152	-0,192
166,706	-51,773	-0,179	-0,058
167,721	-23,859	-0,248	-0,103
168,735	359,203	-0,187	-0,261
169,750	800,000	-0,083	-0,175
170,764	29,863	-0,167	-0,099
171,779	60,775	-0,263	-0,181
172,794	74,797	-0,286	-0,209
173,808	68,312	-0,219	-0,156
174,823	33,374	-0,363	-0,219
175,837	-62,395	-0,334	-0,096
176,852	35,617	-0,298	-0,182
177,867	-200,000	-0,012	-0,080
178,881	86,433	-0,218	-0,167
179,896	81,468	-0,230	-0,172
180,910	474,605	-0,119	-0,187
181,925	46,786	-0,253	-0,163
182,940	147,821	-0,223	-0,210
183,954	133,550	-0,317	-0,285
184,969	55,280	-0,283	-0,190
185,983	-84,776	-0,198	-0,043
186,998	645,138	-0,120	-0,214
188,013	-69,956	-0,214	0,056
189,027	800,000	-0,154	-0,354
190,042	20,599	-0,196	-0,110
191,056	-15,489	-0,182	-0,080
192,071	125,882	-0,167	-0,147
193,086	391,022	-0,184	-0,266
194,100	155,704	-0,120	-0,115
195,115	168,073	-0,199	-0,197
196,129	-62,553	-0,234	-0,067
197,144	99,907	-0,248	-0,200
198,159	636,043	-0,109	-0,193
199,173	-15,177	-0,198	-0,087
200,188	63,043	-0,227	-0,157
201,202	-17,164	-0,262	-0,114
202,217	-63,308	-0,196	-0,056
203,232	-98,133	-0,303	-0,054
204,246	-105,152	-0,260	-0,041
205,261	353,856	-0,173	-0,238
206,275	22,761	-0,246	-0,140
207,290	64,984	-0,151	-0,105
208,304	-157,464	-0,084	0,003
209,319	320,128	-0,171	-0,226
210,334	188,111	-0,202	-0,210
211,348	161,060	-0,235	-0,228
212,363	80,323	-0,198	-0,147
213,377	66,093	-0,254	-0,179
214,392	173,199	-0,236	-0,236
215,407	-2,423	-0,227	-0,110
216,421	57,904	-0,147	-0,099
217,436	639,428	-0,116	-0,206
218,450	-27,281	-0,311	-0,125
219,465	57,392	-0,259	-0,175
220,480	286,838	-0,096	-0,121
221,494	-200,000	0,018	-0,237
222,509	10,193	-0,239	-0,125
223,523	-155,338	-0,139	-0,006
224,538	-30,132	-0,184	0,072
225,553	62,297	-0,213	-0,147
226,567	800,000	-0,091	-0,218
227,582	207,832	-0,140	-0,152
228,596	19,961	-0,168	-0,093
229,611	472,443	-0,071	-0,111
230,626	-72,828	-0,098	-0,025
231,640	-37,966	-0,147	-0,054
232,655	15,735	-0,199	-0,108
233,669	-92,430	-0,273	-0,053
234,684	145,305	-0,192	-0,178
235,699	-11,849	-0,198	-0,090
236,713	-117,084	-0,261	-0,033
237,728	157,250	-0,168	-0,161
238,742	227,034	-0,144	-0,162
239,757	142,746	-0,198	-0,182
240,772	800,000	-0,115	-0,240
241,786	65,016	-0,301	-0,210
242,801	41,691	-0,214	-0,134
243,815	-200,000	-0,117	-0,000
244,830	-200,000	0,014	-0,084
245,844	263,789	-0,092	-0,111
246,859	800,000	-0,079	-0,151
247,874	293,926	-0,179	-0,226
248,888	225,479	-0,154	-0,172
249,903	704,146	-0,130	-0,237
250,917	357,190	-0,106	-0,146
251,932	-6,527	-0,166	-0,078
252,947	-89,144	-0,083	0,017
253,961	52,452	-0,272	-0,179
254,976	-18,951	-0,338	-0,145
255,990	357,208	-0,155	-0,214
257,005	310,855	-0,137	-0,178
258,020	-200,000	-0,050	-0,159
259,034	800,000	-0,033	-0,065
260,049	-4,369	-0,119	-0,056
261,063	-8,949	-0,251	-0,116
262,078	451,871	-0,121	-0,185
263,093	227,737	-0,178	-0,200
264,107	179,324	-0,187	-0,189
265,122	458,992	-0,095	-0,146
266,136	-44,355	-0,269	-0,092
267,151	101,429	-0,183	-0,147
268,166	-29,934	-0,264	-0,103
269,180	309,224	-0,056	-0,072
270,195	230,550	-0,153	-0,173
271,209	-101,602	-0,329	-0,055
272,224	-83,080	-0,140	-0,031
273,239	-100,185	-0,070	-0,012
274,253	202,397	-0,117	-0,125
275,268	418,853	-0,128	-0,190
276,282	507,888	-0,109	-0,176
277,297	87,787	-0,200	-0,153
278,312	261,955	-0,164	-0,196
279,326	800,000	-0,099	-0,226
280,341	557,191	-0,114	-0,190
281,355	-95,307	-0,124	-0,023
282,370	-36,016	-0,103	-0,038
283,384	-41,401	-0,286	-0,101
284,399	20,060	-0,289	-0,160
285,414	163,915	-0,096	-0,093
286,428	96,303	-0,155	-0,122
287,443	-2,308	-0,056	-0,027
288,457	-166,473	-0,134	0,004
289,472	800,000	-0,078	-0,173
290,487	269,749	-0,151	-0,183
291,501	108,537	-0,177	-0,145
292,516	9,778	-0,134	-0,070
293,530	-96,166	-0,101	-0,018
294,545	100,328	-0,169	-0,135
295,560	-200,000	-0,026	-0,171
296,574	-110,435	-0,148	-0,021
297,589	565,394	-0,119	-0,200
298,603	-15,166	-0,261	-0,115
299,618	746,956	-0,121	-0,226
300,633	437,098	-0,085	-0,128
301,647	126,542	-0,129	-0,113
302,662	109,759	-0,138	-0,114
303,676	404,644	-0,124	-0,181
304,691	800,000	-0,102	-0,203
305,706	312,577	-0,145	-0,188
306,720	17,022	-0,166	-0,090
307,735	172,749	-0,149	-0,147
308,749	800,000	-0,081	-0,201
309,764	-5,025	-0,100	0,047
310,779	-32,720	-0,099	-0,038
311,793	31,502	-0,152	-0,089
312,808	164,450	-0,155	-0,151
313,822	219,869	-0,225	-0,248
314,837	15,002	-0,275	-0,148
315,852	-200,000	-0,007	0,022
316,866	-128,867	-0,063	-0,006
317,881	48,849	-0,040	0,026
318,895	46,228	-0,212	-0,135
319,910	-72,524	-0,236	-0,060
320,925	193,525	-0,153	-0,159
321,939	11,817	-0,230	-0,121
322,954	-11,546	-0,160	-0,072
323,968	-81,071	-0,156	0,035
324,983	41,007	-0,247	-0,153
325,997	51,675	-0,162	-0,106
327,012	115,897	-0,143	-0,120
328,027	23,493	-0,192	-0,108
329,041	3,759	-0,283	-0,142
330,056	-155,546	-0,160	-0,007
331,070	-38,339	-0,149	0,054
332,085	275,263	-0,069	0,084
333,100	-78,421	-0,212	-0,049
334,114	800,000	-0,068	-0,180
335,129	69,077	-0,128	-0,090
336,143	-32,601	-0,197	-0,075
337,158	360,884	-0,068	-0,093
338,173	800,000	-0,044	-0,092
339,187	-88,382	-0,054	-0,011
340,202	58,862	-0,192	-0,129
341,216	-17,948	-0,224	0,096
342,231	95,278	-0,160	-0,125
343,246	-4,045	-0,244	-0,116
344,260	139,010	-0,058	-0,052
345,275	-200,000	-0,017	-0,052
346,289	-96,923	-0,078	-0,014
347,304	159,551	-0,090	-0,086
348,319	800,000	-0,022	-0,052
349,333	309,870	-0,103	-0,132
350,348	-38,630	-0,103	-0,037
351,362	764,511	-0,052	-0,097
352,377	-29,044	-0,189	-0,074
353,392	-97,733	-0,097	-0,017
354,406	-200,000	-0,042	-0,162
355,421	209,623	1313,689	1412,281
356,435	161,344	1474,261	1412,753
