DTS Sentinel unit serial number:	SN410029Multiplexer serial number:	ORYXHardware model number:	OX2-SRSoftware version number:	ORYX F/W v4,00 Oryx Data Collector v3.7.2.0data status	okinstallation	B3 Nyhavnadifferential loss correction	single-endedforward channel	channel 1reverse channel	N/Adate	2023/12/01time	09:37:30forward acquisition time	300,00reverse acquisition time	0,00gamma	499,1914k internal	0,3213k external	0,3213temperature offset calibration	1,0000default loss term (dB/km)	0,3820temperature slope calibration	1,0000multiplexer offset coefficient	1,0000multiplexer slope coefficient	1,0000fibre end	0,00T internal ref (°C)	8,00T ext. ref 1 (°C)	-6,53T ext. ref 2 (°C)	-6,65length (m)	temperature (°C)	Stokes	anti-Stokes-744,400	800,000	-0,153	-0,372
-743,385	-200,000	0,098	0,368
-742,371	-200,000	0,016	-0,180
-741,356	-200,000	0,061	0,254
-740,342	-38,668	-0,303	-0,115
-739,327	800,000	-0,083	0,192
-738,312	-38,222	-0,160	-0,061
-737,298	800,000	-0,138	0,330
-736,283	320,269	-0,119	-0,164
-735,269	-200,000	-0,057	0,391
-734,254	26,275	-0,231	-0,140
-733,239	-180,609	-0,180	0,003
-732,225	146,738	-0,111	-0,108
-731,210	83,132	0,114	0,090
-730,196	-41,618	-0,080	-0,030
-729,181	-200,000	0,019	0,067
-728,167	-200,000	-0,014	-0,050
-727,152	-200,000	0,012	0,116
-726,137	0,893	-0,064	-0,033
-725,123	800,000	-0,072	-0,216
-724,108	-200,000	-0,027	-0,089
-723,094	-155,038	-0,152	-0,007
-722,079	586,341	0,033	-0,059
-721,064	-67,064	-0,218	-0,062
-720,050	-139,300	-0,107	0,008
-719,035	-200,000	0,008	-0,062
-718,021	2,369	-0,077	0,040
-717,006	-98,992	-0,153	-0,028
-715,991	-134,806	-0,146	0,013
-714,977	48,256	0,108	-0,073
-713,962	409,179	0,057	-0,088
-712,948	-200,000	0,007	-0,100
-711,933	514,604	0,041	0,069
-710,918	800,000	-0,012	-0,032
-709,904	0,172	0,029	-0,015
-708,889	-115,134	-0,089	0,012
-707,875	-45,008	-0,008	-0,003
-706,860	121,359	0,140	-0,126
-705,845	800,000	0,066	0,162
-704,831	154,341	0,020	-0,020
-703,816	64,657	-0,093	0,068
-702,802	-200,000	0,019	-0,068
-701,787	75,493	-0,091	-0,069
-700,772	-111,007	-0,066	0,010
-699,758	21,552	-0,044	0,026
-698,743	178,299	-0,091	0,096
-697,729	-200,000	-0,035	0,112
-696,714	-200,000	0,034	0,117
-695,699	403,975	-0,086	0,131
-694,685	800,000	-0,081	-0,184
-693,670	157,914	-0,043	-0,043
-692,656	-200,000	-0,029	-0,182
-691,641	-200,000	0,009	0,063
-690,627	494,388	0,038	0,064
-689,612	800,000	0,015	0,039
-688,597	-200,000	-0,022	-0,192
-687,583	-200,000	-0,030	-0,133
-686,568	91,267	0,081	-0,066
-685,554	753,405	-0,026	-0,051
-684,539	523,534	-0,050	0,085
-683,524	-200,000	-0,015	0,101
-682,510	-77,019	-0,062	0,015
-681,495	392,060	-0,088	-0,132
-680,481	12,533	-0,076	-0,043
-679,466	-70,521	-0,208	-0,056
-678,451	-35,131	0,009	0,004
-677,437	-88,892	0,126	0,027
-676,422	-200,000	0,019	0,064
-675,408	103,531	-0,068	-0,058
-674,393	-148,972	0,113	-0,006
-673,378	-28,580	-0,212	-0,088
-672,364	-200,000	-0,003	-0,019
-671,349	168,078	-0,052	-0,054
-670,335	-200,000	-0,030	0,166
-669,320	-114,703	0,029	0,004
-668,305	-108,441	-0,062	0,010
-667,291	2,126	-0,081	-0,042
-666,276	123,639	-0,109	-0,099
-665,262	452,228	0,130	-0,209
-664,247	97,526	-0,105	-0,087
-663,232	-61,302	0,071	0,022
-662,218	800,000	0,054	0,124
-661,203	-200,000	-0,011	0,083
-660,189	800,000	-0,004	-0,008
-659,174	-128,740	-0,065	0,007
-658,159	76,769	0,094	-0,072
-657,145	800,000	-0,019	-0,043
-656,130	-50,101	0,236	-0,080
-655,116	-126,695	-0,042	-0,004
-654,101	92,718	0,013	-0,011
-653,086	130,015	-0,045	-0,042
-652,072	42,025	-0,074	-0,049
-651,057	460,419	-0,037	-0,060
-650,043	-200,000	0,008	-0,049
-649,028	50,428	-0,094	-0,064
-648,014	192,969	0,061	0,067
-646,999	110,941	0,056	0,049
-645,984	418,865	0,028	0,044
-644,970	-103,290	-0,137	0,023
-643,955	-46,879	0,107	-0,038
-642,941	19,396	-0,117	-0,068
-641,926	800,000	0,032	-0,068
-640,911	-200,000	0,030	0,185
-639,897	49,765	0,081	0,055
-638,882	218,017	0,059	-0,069
-637,868	45,044	-0,029	0,019
-636,853	-1,703	-0,087	-0,044
-635,838	37,263	-0,026	-0,017
-634,824	61,062	-0,082	0,059
-633,809	15,036	-0,034	0,019
-632,795	-200,000	-0,005	-0,146
-631,780	184,882	-0,054	-0,058
-630,765	-29,649	-0,153	-0,063
-629,751	91,573	-0,150	-0,122
-628,736	88,544	0,051	-0,041
-627,722	705,819	0,021	-0,040
-626,707	-108,720	-0,102	-0,016
-625,692	-200,000	-0,018	-0,056
-624,678	143,756	-0,014	-0,013
-623,663	-200,000	0,014	-0,087
-622,649	-82,654	-0,117	-0,027
-621,634	800,000	0,018	-0,049
-620,619	303,920	-0,027	-0,036
-619,605	-200,000	0,029	0,105
-618,590	263,307	-0,092	0,115
-617,576	-62,590	0,026	-0,008
-616,561	-200,000	0,010	-0,132
-615,546	800,000	-0,025	0,066
-614,532	-72,748	0,129	-0,034
-613,517	-200,000	-0,020	-0,151
-612,503	-134,976	-0,074	0,006
-611,488	800,000	0,030	0,087
-610,474	292,175	0,112	0,147
-609,459	207,216	-0,085	-0,095
-608,444	-200,000	0,008	0,118
-607,430	-200,000	-0,002	0,024
-606,415	-200,000	-0,018	-0,082
-605,401	14,765	-0,092	-0,052
-604,386	-12,501	0,037	-0,017
-603,371	800,000	0,032	-0,075
-602,357	-76,836	-0,119	-0,030
-601,342	72,137	-0,123	-0,092
-600,328	-28,997	0,074	-0,031
-599,313	-120,361	-0,087	-0,011
-598,298	243,417	0,044	-0,053
-597,284	-41,692	-0,073	-0,027
-596,269	26,592	-0,048	0,029
-595,255	-189,734	-0,023	-0,000
-594,240	-97,502	0,140	-0,026
-593,225	230,468	0,065	0,077
-592,211	-28,588	-0,029	0,012
-591,196	-50,139	-0,101	-0,034
-590,182	-67,919	0,161	-0,045
-589,167	-200,000	-0,009	0,077
-588,152	-200,000	0,032	0,124
-587,138	-65,348	-0,103	-0,030
-586,123	-200,000	-0,013	0,088
-585,109	620,260	-0,036	-0,065
-584,094	-110,030	0,156	0,023
-583,079	117,835	0,055	-0,048
-582,065	-200,000	-0,028	0,116
-581,050	166,371	0,105	0,107
-580,036	105,408	-0,071	0,060
-579,021	-187,775	-0,050	0,000
-578,006	800,000	-0,097	-0,237
-576,992	-200,000	-0,003	-0,069
-575,977	-99,034	0,109	-0,020
-574,963	459,177	0,080	-0,128
-573,948	-107,104	0,108	0,017
-572,934	-200,000	0,009	0,041
-571,919	-200,000	0,000	-0,181
-570,904	800,000	-0,041	-0,126
-569,890	-200,000	0,005	0,027
-568,875	-43,297	-0,035	-0,013
-567,861	-200,000	0,005	-0,085
-566,846	-135,583	-0,141	0,012
-565,831	171,229	-0,023	-0,024
-564,817	-200,000	-0,020	-0,177
-563,802	7,411	0,035	-0,019
-562,788	-25,666	-0,115	-0,049
-561,773	-200,000	-0,027	0,089
-560,758	137,313	0,071	0,067
-559,744	538,230	-0,024	0,042
-558,729	-9,707	-0,100	-0,048
-557,715	258,937	0,055	0,069
-556,700	-200,000	0,004	-0,204
-555,685	800,000	-0,054	-0,153
-554,671	200,117	-0,098	0,108
-553,656	-200,000	0,040	0,139
-552,642	-26,507	-0,084	-0,035
-551,627	-134,351	0,224	0,020
-550,612	-200,000	0,002	-0,199
-549,598	-200,000	0,014	-0,142
-548,583	-200,000	0,008	-0,063
-547,569	199,818	0,016	0,018
-546,554	202,684	0,164	0,183
-545,539	-125,181	-0,045	-0,005
-544,525	396,800	-0,041	-0,061
-543,510	800,000	0,039	-0,092
-542,496	-32,613	-0,129	-0,052
-541,481	447,078	-0,068	-0,107
-540,466	-200,000	0,004	-0,027
-539,452	111,919	-0,064	0,056
-538,437	-120,836	0,100	-0,012
-537,423	29,046	-0,198	0,120
-536,408	-200,000	0,007	-0,027
-535,393	-39,210	-0,033	0,012
-534,379	-27,573	-0,072	0,030
-533,364	485,869	0,046	0,076
-532,350	-35,900	0,096	-0,037
-531,335	54,101	-0,103	-0,071
-530,321	13,661	-0,036	-0,020
-529,306	-200,000	0,007	-0,160
-528,291	-200,000	-0,002	0,150
-527,277	-122,336	-0,059	-0,007
-526,262	161,027	0,066	-0,066
-525,248	100,575	-0,065	0,054
-524,233	64,806	-0,085	0,061
-523,218	-105,882	0,119	-0,019
-522,204	28,346	-0,093	-0,056
-521,189	335,156	0,035	0,049
-520,175	160,602	-0,053	-0,053
-519,160	-142,026	0,128	-0,009
-518,145	800,000	0,009	0,018
-517,131	-200,000	-0,008	0,070
-516,116	202,065	-0,041	0,045
-515,102	-200,000	-0,040	-0,147
-514,087	59,800	0,070	0,049
-513,072	-200,000	-0,025	-0,107
-512,058	66,285	-0,051	-0,037
-511,043	-109,640	-0,097	0,015
-510,029	800,000	0,017	-0,045
-509,014	800,000	0,065	0,149
-507,999	-78,601	-0,102	0,025
-506,985	17,118	-0,076	0,043
-505,970	800,000	0,018	-0,040
-504,956	-200,000	-0,007	0,057
-503,941	28,846	0,160	-0,097
-502,926	-200,000	-0,004	-0,041
-501,912	800,000	-0,090	0,226
-500,897	-200,000	-0,016	0,082
-499,883	342,885	-0,093	-0,131
-498,868	202,070	-0,007	-0,008
-497,853	-19,541	-0,040	0,018
-496,839	-39,339	-0,053	0,020
-495,824	-42,202	0,051	0,019
-494,810	-87,507	-0,086	0,018
-493,795	94,615	-0,047	-0,038
-492,781	-31,804	0,131	-0,053
-491,766	3,613	-0,113	-0,059
-490,751	800,000	0,044	-0,119
-489,737	316,156	0,009	0,012
-488,722	521,830	0,111	-0,187
-487,708	202,259	0,028	0,031
-486,693	800,000	-0,053	0,131
-485,678	463,222	-0,087	-0,140
-484,664	480,585	0,055	-0,091
-483,649	800,000	-0,060	-0,131
-482,635	-200,000	0,052	-0,198
-481,620	-200,000	-0,000	0,025
-480,605	178,502	0,062	0,065
-479,591	454,923	0,028	-0,045
-478,576	-186,893	-0,086	0,001
-477,562	-200,000	-0,002	0,015
-476,547	711,195	-0,013	-0,024
-475,532	-200,000	-0,019	-0,113
-474,518	-166,347	0,072	0,002
-473,503	-146,665	0,094	0,006
-472,489	-111,482	0,116	0,017
-471,474	7,571	-0,108	0,058
-470,459	438,632	-0,047	-0,074
-469,445	728,213	0,047	0,090
-468,430	100,553	-0,064	-0,053
-467,416	-200,000	0,015	0,049
-466,401	-200,000	0,024	0,121
-465,386	-200,000	0,033	0,177
-464,372	-130,125	-0,128	-0,012
-463,357	800,000	0,031	0,071
-462,343	-135,289	0,069	-0,006
-461,328	28,439	-0,067	0,040
-460,313	27,992	-0,032	0,019
-459,299	156,366	0,027	0,027
-458,284	-200,000	0,011	-0,121
-457,270	-200,000	0,001	0,037
-456,255	122,026	0,087	-0,077
-455,241	-200,000	-0,017	-0,070
-454,226	-200,000	0,010	-0,146
-453,211	299,969	-0,020	-0,026
-452,197	-169,590	0,126	0,003
-451,182	98,403	-0,069	0,057
-450,168	-126,357	-0,048	0,005
-449,153	-41,440	0,067	0,024
-448,138	272,794	0,064	-0,082
-447,124	169,954	-0,052	0,054
-446,109	265,136	-0,070	0,088
-445,095	148,443	-0,030	0,029
-444,080	98,123	0,095	0,078
-443,065	800,000	-0,049	0,100
-442,051	800,000	0,039	0,078
-441,036	659,861	-0,070	-0,130
-440,022	-74,636	-0,075	0,019
-439,007	342,966	0,095	-0,133
-437,992	321,545	-0,076	0,104
-436,978	-129,048	0,054	0,005
-435,963	-200,000	0,004	0,052
-434,949	-69,132	-0,063	-0,017
-433,934	800,000	-0,073	-0,148
-432,919	-200,000	-0,020	0,063
-431,905	-155,259	0,164	0,008
-430,890	-12,812	-0,095	-0,044
-429,876	71,650	0,133	-0,099
-428,861	584,226	0,131	0,232
-427,846	-30,322	-0,075	0,030
-426,832	-158,643	-0,102	0,004
-425,817	-200,000	0,007	-0,042
-424,803	-125,450	-0,050	0,005
-423,788	-37,555	0,099	0,038
-422,773	79,855	0,042	0,032
-421,759	800,000	0,046	0,142
-420,744	-200,000	-0,002	0,057
-419,730	570,484	-0,051	-0,090
-418,715	58,093	0,084	-0,059
-417,701	800,000	0,039	-0,107
-416,686	18,492	0,038	0,022
-415,671	-48,413	0,034	-0,012
-414,657	27,861	0,102	-0,061
-413,642	378,670	0,043	0,063
-412,628	-80,175	0,072	-0,017
-411,613	-200,000	-0,070	-0,248
-410,598	10,366	-0,052	-0,028
-409,584	117,811	-0,008	-0,007
-408,569	116,308	0,105	-0,092
-407,555	69,508	0,127	0,093
-406,540	-159,222	0,036	0,001
-405,525	-200,000	0,014	0,061
-404,511	-183,050	-0,325	0,004
-403,496	800,000	0,030	-0,094
-402,482	-19,619	0,116	0,051
-401,467	652,366	0,060	0,110
-400,452	-200,000	0,001	0,003
-399,438	-131,303	-0,144	0,013
-398,423	-88,811	0,094	0,020
-397,409	183,026	0,071	-0,075
-396,394	800,000	0,004	0,011
-395,379	333,487	-0,103	0,143
-394,365	-19,467	0,071	-0,031
-393,350	58,127	0,046	0,032
-392,336	-21,343	0,085	-0,037
-391,321	-200,000	-0,041	0,180
-390,306	-93,894	-0,031	-0,006
-389,292	340,935	0,047	-0,066
-388,277	-200,000	-0,018	0,078
-387,263	0,665	0,059	0,030
-386,248	228,458	0,029	-0,034
-385,233	-200,000	0,004	0,043
-384,219	-115,974	0,097	0,013
-383,204	-200,000	0,027	-0,115
-382,190	138,795	0,097	-0,092
-381,175	71,187	-0,036	-0,027
-380,160	145,223	0,076	0,073
-379,146	800,000	-0,014	-0,035
-378,131	97,733	0,097	0,079
-377,117	-45,434	-0,042	0,015
-376,102	108,487	0,076	0,065
-375,088	-135,850	-0,193	0,016
-374,073	800,000	0,055	0,129
-373,058	55,303	0,086	0,060
-372,044	-200,000	-0,017	0,189
-371,029	-200,000	-0,009	-0,070
-370,015	-200,000	-0,005	0,030
-369,000	800,000	0,050	-0,099
-367,985	-101,985	-0,170	0,029
-366,971	-200,000	-0,021	-0,101
-365,956	-200,000	0,001	0,053
-364,942	371,856	-0,094	0,137
-363,927	800,000	0,047	0,106
-362,912	40,279	0,054	0,035
-361,898	-128,591	0,143	-0,014
-360,883	-60,519	-0,179	0,054
-359,869	3,748	-0,034	-0,018
-358,854	-21,031	0,222	-0,096
-357,839	70,209	0,053	0,039
-356,825	-16,114	-0,123	0,056
-355,810	44,121	0,035	0,023
-354,796	-196,085	0,039	0,000
-353,781	-200,000	-0,007	0,127
-352,766	206,686	-0,021	0,023
-351,752	48,059	-0,125	0,083
-350,737	337,269	0,082	0,114
-349,723	800,000	-0,038	-0,118
-348,708	544,350	-0,046	0,078
-347,693	-132,116	-0,051	0,005
-346,679	-200,000	-0,005	-0,128
-345,664	800,000	-0,025	-0,070
-344,650	-145,234	0,063	-0,004
-343,635	122,784	0,080	0,072
-342,620	89,793	0,107	0,085
-341,606	-111,262	-0,109	0,016
-340,591	-72,355	0,047	-0,012
-339,577	-60,365	-0,051	0,015
-338,562	384,571	-0,110	0,163
-337,548	305,645	0,081	-0,107
-336,533	57,109	0,081	0,056
-335,518	123,704	-0,066	-0,059
-334,504	-124,166	0,092	-0,010
-333,489	-18,728	0,094	-0,042
-332,475	800,000	0,010	0,021
-331,460	-200,000	-0,038	-0,139
-330,445	-2,036	0,030	-0,015
-329,431	-150,626	0,102	-0,005
-328,416	-200,000	-0,009	0,116
-327,402	-200,000	-0,009	0,122
-326,387	58,662	-0,079	-0,055
-325,372	-69,921	-0,057	0,015
-324,358	150,071	-0,018	0,017
-323,343	-111,580	0,129	-0,019
-322,329	438,521	-0,079	0,123
-321,314	-119,485	0,081	0,010
-320,299	-200,000	0,033	0,159
-319,285	800,000	-0,023	0,066
-318,270	-200,000	0,007	-0,153
-317,256	-110,463	-0,162	-0,024
-316,241	-85,719	-0,033	-0,007
-315,226	-200,000	-0,044	-0,162
-314,212	-113,437	0,121	-0,017
-313,197	525,509	0,030	0,051
-312,183	800,000	-0,043	-0,105
-311,168	-200,000	-0,001	0,077
-310,153	800,000	0,065	-0,130
-309,139	-200,000	-0,010	0,059
-308,124	50,830	-0,049	-0,033
-307,110	800,000	0,006	0,019
-306,095	610,133	0,078	0,140
-305,080	-200,000	0,009	-0,122
-304,066	250,745	-0,041	0,050
-303,051	253,020	0,069	-0,084
-302,037	-179,869	0,128	0,002
-301,022	-141,584	-0,084	0,006
-300,008	-13,560	0,106	-0,049
-298,993	-200,000	0,002	0,101
-297,978	-80,354	0,118	-0,028
-296,964	777,853	-0,031	0,061
-295,949	245,316	-0,080	0,096
-294,935	4,589	-0,137	0,072
-293,920	315,271	-0,055	0,073
-292,905	95,978	0,143	0,116
-291,891	-200,000	-0,004	0,104
-290,876	-200,000	-0,005	-0,064
-289,862	800,000	0,003	-0,008
-288,847	-200,000	0,006	-0,097
-287,832	-115,805	-0,121	0,016
-286,818	-200,000	-0,018	-0,085
-285,803	-48,426	-0,066	-0,022
-284,789	27,215	-0,094	0,056
-283,774	-58,739	0,158	0,048
-282,759	599,668	0,063	-0,112
-281,745	145,700	0,064	0,061
-280,730	-33,477	-0,045	0,018
-279,716	-200,000	-0,008	-0,097
-278,701	-173,344	0,155	0,003
-277,686	33,723	0,106	0,065
-276,672	-200,000	0,033	0,141
-275,657	-200,000	-0,006	0,082
-274,643	-200,000	0,001	-0,044
-273,628	8,365	-0,111	-0,059
-272,613	-91,529	-0,084	0,017
-271,599	-200,000	0,002	0,048
-270,584	92,176	0,043	0,034
-269,570	-119,632	-0,039	-0,005
-268,555	-100,529	-0,025	-0,004
-267,540	19,402	-0,073	-0,041
-266,526	80,824	0,019	-0,014
-265,511	107,712	0,008	-0,007
-264,497	465,516	0,039	0,063
-263,482	150,440	-0,087	0,085
-262,467	431,622	-0,054	0,083
-261,453	-64,197	-0,032	-0,009
-260,438	609,358	-0,022	-0,039
-259,424	-52,524	-0,054	0,018
-258,409	-31,328	0,072	0,029
-257,395	115,771	0,090	0,078
-256,380	-24,923	0,168	0,071
-255,365	-11,002	0,178	0,083
-254,351	445,453	-0,039	0,061
-253,336	-68,784	-0,056	-0,015
-252,322	248,268	-0,131	-0,157
-251,307	241,079	-0,062	-0,074
-250,292	-200,000	-0,004	-0,046
-249,278	5,217	0,074	0,039
-248,263	355,699	-0,040	-0,057
-247,249	9,147	-0,086	-0,046
-246,234	60,840	-0,050	0,035
-245,219	-82,000	0,088	-0,020
-244,205	-200,000	0,017	0,081
-243,190	800,000	0,017	-0,033
-242,176	800,000	0,021	-0,058
-241,161	209,908	-0,088	0,098
-240,146	-200,000	0,027	-0,169
-239,132	40,515	-0,047	-0,030
-238,117	-48,062	0,073	-0,025
-237,103	689,805	0,012	-0,022
-236,088	356,039	-0,028	-0,039
-235,073	-72,321	0,109	0,028
-234,059	800,000	-0,046	0,105
-233,044	11,356	-0,083	0,045
-232,030	800,000	0,020	-0,060
-231,015	65,548	-0,049	-0,035
-230,000	-144,470	-0,135	0,009
-228,986	800,000	-0,007	-0,017
-227,971	-114,022	0,094	0,013
-226,957	-200,000	-0,003	-0,043
-225,942	55,456	0,097	0,067
-224,927	71,776	0,014	0,011
-223,913	148,011	0,088	-0,085
-222,898	-200,000	0,006	-0,056
-221,884	744,970	-0,081	0,155
-220,869	-31,056	0,075	-0,030
-219,855	-6,107	0,018	-0,009
-218,840	66,241	0,055	-0,039
-217,825	218,594	0,050	0,056
-216,811	-93,500	-0,072	-0,014
-215,796	800,000	-0,033	-0,093
-214,782	800,000	-0,038	0,107
-213,767	-93,799	0,177	-0,034
-212,752	800,000	-0,043	0,100
-211,738	-200,000	0,067	0,226
-210,723	-200,000	0,005	0,061
-209,709	116,052	0,005	0,004
-208,694	800,000	-0,091	-0,208
-207,679	800,000	-0,041	0,088
-206,665	-200,000	0,008	-0,042
-205,650	-200,000	-0,012	-0,143
-204,636	800,000	0,042	0,104
-203,621	146,687	0,010	-0,009
-202,606	-103,650	-0,044	0,007
-201,592	-200,000	-0,020	0,123
-200,577	61,377	-0,090	-0,064
-199,563	-200,000	0,004	-0,048
-198,548	32,255	0,089	-0,054
-197,533	-104,711	-0,031	0,005
-196,519	-194,949	0,158	0,001
-195,504	-25,398	-0,077	-0,032
-194,490	66,944	-0,112	0,081
-193,475	171,408	0,020	0,020
-192,460	-200,000	-0,038	-0,167
-191,446	-147,834	0,040	-0,002
-190,431	-200,000	-0,002	0,072
-189,417	673,104	-0,068	0,125
-188,402	62,329	0,131	0,093
-187,387	-12,859	0,010	0,005
-186,373	-82,841	-0,197	0,045
-185,358	260,624	0,090	0,110
-184,344	-128,814	-0,107	0,011
-183,329	-132,164	0,103	-0,009
-182,315	-200,000	-0,017	-0,103
-181,300	250,691	-0,086	-0,104
-180,285	-28,705	0,023	-0,009
-179,271	-200,000	0,056	-0,250
-178,256	79,346	0,065	0,049
-177,242	260,398	0,056	0,069
-176,227	489,424	-0,023	0,038
-175,212	16,846	-0,027	0,015
-174,198	-102,780	-0,067	-0,011
-173,183	-200,000	-0,054	0,227
-172,169	-95,429	-0,161	0,030
-171,154	-96,426	0,055	0,010
-170,139	416,475	0,028	0,043
-169,125	-25,183	0,144	-0,060
-168,110	-94,645	0,037	-0,007
-167,096	545,716	0,033	0,055
-166,081	-60,143	-0,016	-0,005
-165,066	-49,283	0,052	-0,017
-164,052	-200,000	-0,013	-0,121
-163,037	72,043	0,061	-0,045
-162,023	556,126	0,018	0,032
-161,008	-171,862	-0,094	-0,002
-159,993	-200,000	-0,004	-0,040
-158,979	579,457	0,053	-0,092
-157,964	-46,872	-0,104	-0,036
-156,950	-200,000	-0,010	0,096
-155,935	-200,000	0,027	0,094
-154,920	-200,000	-0,024	0,186
-153,906	800,000	-0,023	0,053
-152,891	49,378	0,121	-0,080
-151,877	800,000	0,011	0,025
-150,862	-40,190	-0,080	0,030
-149,847	202,307	-0,042	-0,045
-148,833	203,466	0,037	-0,040
-147,818	261,175	0,129	0,159
-146,804	-89,180	-0,075	0,016
-145,789	-200,000	0,003	0,081
-144,775	-200,000	-0,011	-0,116
-143,760	-60,247	-0,047	-0,014
-142,745	800,000	0,029	-0,069
-141,731	-105,595	0,111	0,018
-140,716	800,000	-0,106	0,282
-139,702	16,749	0,025	-0,014
-138,687	800,000	0,018	0,055
-137,672	-101,620	-0,064	-0,011
-136,658	800,000	-0,044	-0,098
-135,643	101,388	-0,122	0,101
-134,629	-200,000	0,000	0,002
-133,614	189,514	0,042	0,044
-132,599	-200,000	-0,059	0,184
-131,585	37,163	-0,031	0,020
-130,570	-122,795	0,145	-0,016
-129,556	-17,626	-0,079	-0,035
-128,541	-113,750	-0,050	0,007
-127,526	-9,517	-0,106	-0,050
-126,512	-98,870	0,118	0,021
-125,497	82,206	0,104	0,080
-124,483	-200,000	-0,052	0,175
-123,468	-97,828	-0,185	-0,034
-122,453	95,773	0,041	-0,033
-121,439	800,000	-0,039	-0,087
-120,424	-71,569	-0,209	-0,055
-119,410	232,155	0,030	0,035
-118,395	46,573	0,059	0,039
-117,380	728,057	-0,035	0,066
-116,366	17,181	0,191	0,107
-115,351	-7,404	-0,117	0,056
-114,337	25,946	-0,071	-0,042
-113,322	-200,000	-0,003	0,051
-112,307	-200,000	-0,010	-0,123
-111,293	-89,302	0,080	-0,017
-110,278	293,699	0,071	0,092
-109,264	-197,084	-0,055	-0,000
-108,249	-135,970	-0,054	0,004
-107,234	771,145	0,055	0,106
-106,220	800,000	0,029	-0,081
-105,205	-200,000	-0,027	0,132
-104,191	102,904	0,137	0,114
-103,176	800,000	-0,034	0,083
-102,162	800,000	-0,079	0,168
-101,147	115,971	0,157	-0,136
-100,132	169,537	-0,102	-0,104
-99,118	103,459	-0,060	0,049
-98,103	154,585	-0,096	0,094
-97,089	30,286	0,115	-0,069
-96,074	-119,468	-0,183	0,022
-95,059	800,000	0,039	0,095
-94,045	-149,074	-0,037	0,002
-93,030	-90,161	0,106	0,022
-92,016	-93,152	-0,078	0,015
-91,001	-200,000	0,010	-0,056
-89,986	800,000	-0,003	-0,007
-88,972	-22,247	0,115	-0,049
-87,957	-112,107	-0,278	0,039
-86,943	-27,564	0,177	0,072
-85,928	-153,391	-0,099	0,005
-84,913	-200,000	0,032	-0,102
-83,899	800,000	-0,018	-0,047
-82,884	-25,328	0,104	0,043
-81,870	37,909	-0,140	-0,088
-80,855	800,000	-0,029	0,069
-79,840	-200,000	-0,016	0,105
-78,826	539,937	0,074	0,125
-77,811	-73,951	-0,181	0,046
-76,797	23,287	0,207	-0,120
-75,782	-101,908	-0,124	0,021
-74,767	269,998	0,085	0,106
-73,753	-200,000	-0,005	0,087
-72,738	-200,000	-0,004	0,071
-71,724	30,312	-0,137	-0,082
-70,709	-200,000	-0,001	-0,069
-69,694	-200,000	0,009	-0,033
-68,680	69,756	-0,077	0,056
-67,665	71,632	0,022	0,016
-66,651	-142,291	0,068	-0,005
-65,636	83,686	-0,084	-0,065
-64,622	800,000	-0,049	-0,110
-63,607	-200,000	0,005	-0,031
-62,592	339,851	-0,110	-0,152
-61,578	-181,700	0,116	0,002
-60,563	195,209	0,031	0,033
-59,549	-200,000	-0,029	0,115
-58,534	59,506	-2,061	-1,432
-57,519	558,614	-1,034	-1,767
-56,505	-200,000	-0,346	-4,437
-55,490	800,000	0,819	1,669
-54,476	800,000	5,231	11,571
-53,461	-200,000	22,433	348,680
-52,446	800,000	757,961	2295,299
-51,432	533,547	1644,449	2757,758
-50,417	67,886	1643,172	1183,720
-49,403	15,623	1520,630	840,466
-48,388	9,849	1446,423	771,719
-47,373	19,406	1439,148	813,347
-46,359	13,366	1427,647	778,311
-45,344	8,173	1423,564	751,490
-44,330	8,129	1421,604	750,217
-43,315	8,056	1419,960	748,974
-42,300	8,093	1418,007	748,090
-41,286	8,167	1416,681	747,709
-40,271	8,120	1415,597	746,886
-39,257	8,051	1414,649	746,030
-38,242	8,078	1413,590	745,571
-37,227	8,098	1412,309	744,960
-36,213	8,121	1410,672	744,175
-35,198	8,104	1409,537	743,465
-34,184	8,137	1408,769	743,188
-33,169	8,018	1407,672	742,022
-32,154	8,100	1406,523	741,773
-31,140	8,071	1405,248	740,931
-30,125	8,131	1403,936	740,492
-29,111	8,089	1402,909	739,723
-28,096	8,088	1401,838	739,126
-27,082	8,019	1400,618	738,134
-26,067	8,016	1399,476	737,488
-25,052	8,032	1398,506	737,020
-24,038	8,035	1397,643	736,551
-23,023	8,037	1396,528	735,943
-22,009	7,991	1395,651	735,240
-20,994	7,999	1394,523	734,653
-19,979	7,991	1393,661	734,131
-18,965	7,985	1392,662	733,548
-17,950	8,033	1391,505	733,135
-16,936	7,975	1390,929	732,534
-15,921	7,897	1389,890	731,595
-14,906	7,914	1388,888	731,119
-13,892	7,994	1387,724	730,844
-12,877	7,955	1387,318	730,421
-11,863	7,942	1386,430	729,865
-10,848	7,909	1385,466	729,178
-9,833	7,896	1384,495	728,578
-8,819	7,877	1383,724	728,057
-7,804	7,852	1382,673	727,358
-6,790	7,864	1381,749	726,900
-5,775	7,846	1380,746	726,259
-4,760	7,861	1379,803	725,804
-3,746	7,869	1378,847	725,309
-2,731	7,900	1377,962	724,955
-1,717	7,900	1377,162	724,504
-0,702	7,841	1375,380	723,269
0,313	11,790	1285,611	693,965
1,327	27,443	677,025	400,325
2,342	42,650	116,499	74,614
3,356	-0,273	16,613	8,297
4,371	2,449	3,865	1,965
5,386	40,321	1,260	0,797
6,400	800,000	0,285	0,609
7,415	-127,897	-0,173	-0,017
8,429	-139,705	-0,163	0,012
9,444	82,588	-0,251	-0,192
10,459	101,990	-0,122	-0,100
11,473	-20,990	-0,306	-0,132
12,488	91,964	-0,198	-0,157
13,502	55,905	-0,270	-0,184
14,517	-37,431	-0,410	-0,153
15,531	40,185	-0,394	-0,249
16,546	85,988	-0,298	-0,230
17,561	-49,916	-0,351	-0,117
18,575	3,794	-0,190	-0,097
19,590	197,236	-0,245	-0,263
20,604	230,846	-0,179	-0,206
21,619	52,197	-0,442	-0,296
22,634	-32,439	-0,557	-0,218
23,648	-6,082	-0,425	-0,204
24,663	63,920	-0,387	-0,274
25,677	-1,189	-0,421	-0,208
26,692	115,309	-0,271	-0,233
27,707	116,978	-0,273	-0,235
28,721	39,599	-0,422	-0,266
29,736	111,750	-0,361	-0,306
30,750	191,338	-0,367	-0,389
31,765	4,877	-0,408	-0,210
32,780	86,927	-0,276	-0,214
33,794	149,372	-0,364	-0,347
34,809	-8,246	-0,464	-0,219
35,823	37,876	-0,475	-0,296
36,838	-7,954	-0,373	-0,176
37,853	112,543	-0,319	-0,272
38,867	142,565	-0,345	-0,322
39,882	124,048	-0,323	-0,285
40,896	129,733	-0,245	-0,220
41,911	6,184	-0,394	-0,204
42,926	103,414	-0,231	-0,191
43,940	35,714	-0,448	-0,276
44,955	-12,740	-0,371	-0,169
45,969	4,107	-0,516	-0,264
46,984	108,740	-0,368	-0,309
47,999	-95,093	-0,395	-0,074
49,013	85,605	-0,137	-0,106
50,028	-45,327	-0,509	-0,176
51,042	118,651	-0,313	-0,271
52,057	27,446	-0,375	-0,221
53,071	61,629	-0,391	-0,273
54,086	77,363	-0,409	-0,305
55,101	45,056	-0,316	-0,204
56,115	50,812	-0,353	-0,234
57,130	166,329	-0,305	-0,304
58,144	28,261	-0,394	-0,233
59,159	249,184	-0,231	-0,274
60,174	22,165	-0,449	-0,256
61,188	75,918	-0,308	-0,228
62,203	0,864	-0,258	-0,129
63,217	237,588	-0,277	-0,322
64,232	96,653	-0,229	-0,184
65,247	274,256	-0,241	-0,299
66,261	26,168	-0,386	-0,225
67,276	106,063	-0,251	-0,208
68,290	120,952	-0,299	-0,261
69,305	66,702	-0,292	-0,208
70,320	-136,218	-0,292	-0,024
71,334	485,266	-0,154	-0,247
72,349	80,446	-0,396	-0,299
73,363	94,608	-0,310	-0,247
74,378	-10,786	-0,383	-0,177
75,393	-11,898	-0,345	-0,158
76,407	197,309	-0,202	-0,216
77,422	45,525	-0,300	-0,194
78,436	95,797	-0,312	-0,249
79,451	9,741	-0,307	-0,163
80,466	70,046	-0,318	-0,229
81,480	121,510	-0,303	-0,265
82,495	-103,920	-0,398	-0,064
83,509	155,154	-0,225	-0,217
84,524	-2,143	-0,284	-0,139
85,539	-55,267	-0,278	-0,087
86,553	-53,820	-0,370	-0,117
87,568	89,320	-0,277	-0,216
88,582	-45,161	-0,418	-0,145
89,597	131,067	-0,246	-0,221
90,611	-7,498	-0,158	-0,075
91,626	-93,593	-0,340	0,065
92,641	-60,765	-0,282	-0,083
93,655	-25,844	-0,340	-0,139
94,670	-6,561	-0,303	-0,144
95,684	77,205	-0,266	-0,198
96,699	197,592	-0,238	-0,254
97,714	-100,965	-0,224	-0,038
98,728	-51,416	-0,215	-0,070
99,743	-132,553	-0,183	-0,016
100,757	128,042	-0,188	-0,167
101,772	98,991	-0,290	-0,234
102,787	50,637	-0,320	-0,211
103,801	108,893	-0,240	-0,200
104,816	-75,322	-0,383	-0,095
105,830	118,320	-0,288	-0,248
106,845	43,224	-0,288	-0,183
107,860	-75,541	-0,287	-0,071
108,874	-160,665	-0,303	0,011
109,889	-16,757	-0,321	-0,141
110,903	42,807	-0,318	-0,202
111,918	-109,487	-0,286	-0,042
112,933	64,915	-0,151	-0,106
113,947	40,556	-0,179	-0,112
114,962	41,604	-0,206	-0,130
115,976	14,770	-0,307	-0,167
116,991	30,876	-0,254	-0,152
118,006	274,241	-0,182	-0,225
119,020	189,126	-0,219	-0,229
120,035	95,541	-0,212	-0,168
121,049	-35,664	-0,325	-0,122
122,064	450,006	-0,141	-0,218
123,079	-125,713	-0,264	-0,028
124,093	185,758	-0,238	-0,247
125,108	-18,588	-0,445	-0,193
126,122	-119,593	-0,213	0,025
127,137	35,492	-0,312	-0,190
128,151	40,600	-0,278	-0,174
129,166	101,298	-0,193	-0,157
130,181	-13,294	-0,311	-0,140
131,195	154,893	-0,237	-0,228
132,210	-30,807	-0,314	-0,123
133,224	114,713	-0,186	-0,158
134,239	71,615	-0,166	-0,120
135,254	-47,175	-0,165	-0,056
136,268	-31,090	-0,313	-0,123
137,283	178,135	-0,165	-0,168
138,297	225,223	-0,260	-0,294
139,312	143,878	-0,221	-0,205
140,327	203,808	-0,272	-0,293
141,341	-7,835	-0,307	-0,144
142,356	8,601	-0,220	-0,115
143,370	-71,152	-0,142	-0,037
144,385	62,013	-0,162	-0,112
145,400	4,533	-0,282	-0,143
146,414	-57,925	-0,361	-0,109
147,429	111,235	-0,261	-0,219
148,443	121,345	-0,211	-0,183
149,458	72,328	-0,257	-0,186
150,473	124,339	-0,182	-0,159
151,487	-13,919	-0,251	-0,112
152,502	-18,446	-0,391	-0,169
153,516	55,454	-0,284	-0,191
154,531	64,139	-0,330	-0,231
155,546	301,209	-0,173	-0,222
156,560	123,254	-0,145	-0,126
157,575	213,246	-0,198	-0,218
158,589	-22,084	-0,245	-0,103
159,604	186,034	-0,175	-0,181
160,619	60,849	-0,207	-0,143
161,633	54,660	-0,249	-0,167
162,648	376,125	-0,240	-0,341
163,662	-200,000	-0,064	-0,296
164,677	-17,488	-0,149	-0,065
165,692	405,620	-0,152	-0,223
166,706	143,779	-0,237	-0,219
167,721	118,315	-0,253	-0,217
168,735	514,861	-0,101	-0,165
169,750	263,934	-0,221	-0,267
170,764	139,943	-0,178	-0,163
171,779	403,423	-0,139	-0,203
172,794	-112,161	-0,133	-0,018
173,808	129,724	-0,211	-0,187
174,823	-2,371	-0,345	-0,167
175,837	-39,643	-0,327	-0,118
176,852	-8,502	-0,235	-0,109
177,867	-78,908	-0,381	-0,089
178,881	688,840	-0,148	-0,270
179,896	36,325	-0,129	-0,079
180,910	62,346	-0,208	-0,144
181,925	-39,635	-0,343	-0,124
182,940	222,013	-0,180	-0,201
183,954	31,305	-0,329	-0,196
184,969	110,560	-0,186	-0,155
185,983	139,692	-0,205	-0,187
186,998	-7,391	-0,203	-0,095
188,013	-5,719	-0,214	-0,101
189,027	-44,004	-0,248	-0,086
190,042	92,373	-0,203	-0,159
191,056	521,251	-0,141	-0,231
192,071	75,489	-0,144	-0,106
193,086	52,697	-0,284	-0,188
194,100	316,964	-0,097	-0,128
195,115	77,162	-0,200	-0,147
196,129	49,267	-0,222	-0,144
197,144	62,763	-0,287	-0,199
198,159	-77,599	-0,341	-0,081
199,173	800,000	-0,084	-0,198
200,188	-158,896	-0,306	-0,012
201,202	277,753	-0,116	-0,144
202,217	800,000	-0,179	-0,346
203,232	174,286	-0,294	-0,294
204,246	110,060	-0,222	-0,184
205,261	721,073	-0,103	-0,191
206,275	-53,542	-0,177	-0,056
207,290	83,438	-0,150	-0,113
208,304	117,428	-0,169	-0,144
209,319	240,778	-0,117	-0,135
210,334	-71,007	-0,306	-0,079
211,348	88,270	-0,287	-0,221
212,363	427,523	-0,181	-0,271
213,377	-74,026	-0,218	-0,054
214,392	-12,252	-0,193	-0,087
215,407	-65,677	-0,273	-0,075
216,421	26,309	-0,150	-0,086
217,436	180,132	-0,114	-0,116
218,450	800,000	-0,107	-0,210
219,465	28,288	-0,237	-0,138
220,480	30,218	-0,216	-0,127
221,494	236,954	-0,042	0,048
222,509	107,357	-0,171	-0,141
223,523	-56,044	-0,166	-0,051
224,538	-132,259	-0,255	0,022
225,553	-132,709	-0,305	-0,027
226,567	-33,037	-0,226	-0,086
227,582	-150,827	-0,158	-0,008
228,596	-172,123	-0,284	0,006
229,611	160,683	-0,078	-0,075
230,626	10,640	-0,135	-0,071
231,640	76,646	-0,167	-0,123
232,655	-6,979	-0,281	-0,131
233,669	115,739	-0,311	-0,263
234,684	-54,935	-0,201	-0,062
235,699	-87,088	-0,170	0,035
236,713	178,020	-0,197	-0,198
237,728	-77,116	-0,132	-0,031
238,742	-107,900	-0,104	-0,015
239,757	-1,165	-0,128	-0,062
240,772	-52,484	-0,160	-0,051
241,786	331,163	-0,163	-0,217
242,801	190,619	-0,129	-0,134
243,815	301,672	-0,056	-0,071
244,830	123,492	-0,109	-0,094
245,844	99,849	-0,201	-0,161
246,859	201,424	-0,160	-0,170
247,874	-55,406	-0,198	-0,061
248,888	268,494	-0,107	-0,129
249,903	481,897	-0,086	-0,136
250,917	800,000	-0,076	-0,149
251,932	-200,000	-0,037	-0,157
252,947	-18,439	-0,167	0,072
253,961	253,278	-0,156	-0,184
254,976	45,561	-0,217	-0,138
255,990	258,197	-0,100	-0,119
257,005	193,262	-0,088	-0,091
258,020	800,000	-0,071	-0,192
259,034	9,523	-0,065	-0,034
260,049	-85,397	-0,202	0,043
261,063	-16,505	-0,179	-0,078
262,078	-3,498	-0,186	-0,089
263,093	14,844	-0,141	-0,076
264,107	-20,017	-0,055	-0,023
265,122	306,548	-0,164	-0,211
266,136	15,591	-0,109	-0,059
267,151	527,552	-0,089	-0,146
268,166	100,846	-0,261	-0,209
269,180	-160,708	-0,257	0,009
270,195	-91,282	-0,174	0,034
271,209	-58,527	-0,196	-0,058
272,224	81,301	-0,029	-0,022
273,239	-26,487	-0,190	-0,076
274,253	32,643	-0,194	-0,115
275,268	-16,322	-0,187	-0,081
276,282	-2,586	-0,274	-0,132
277,297	610,235	-0,137	-0,237
278,312	131,390	-0,128	-0,113
279,326	-64,058	-0,139	-0,039
280,341	378,480	-0,160	-0,225
281,355	-103,360	-0,138	-0,022
282,370	284,351	-0,116	-0,144
283,384	90,261	-0,171	-0,131
284,399	6,264	-0,233	-0,118
285,414	16,884	-0,237	-0,129
286,428	-14,087	-0,148	0,066
287,443	-113,024	-0,051	0,007
288,457	-165,325	-0,274	-0,008
289,472	-44,455	-0,251	-0,086
290,487	-12,818	-0,161	-0,072
291,501	24,303	-0,165	-0,093
292,516	95,728	-0,081	-0,063
293,530	36,292	-0,124	-0,075
294,545	800,000	0,045	-0,132
295,560	132,407	-0,080	-0,071
296,574	-127,834	-0,157	-0,015
297,589	164,513	-0,125	-0,122
298,603	169,735	-0,142	-0,139
299,618	141,562	-0,123	-0,112
300,633	35,965	-0,037	-0,023
301,647	702,597	-0,046	-0,083
302,662	179,258	-0,100	-0,100
303,676	-48,659	-0,250	-0,082
304,691	229,423	-0,064	-0,072
305,706	515,614	-0,060	-0,097
306,720	553,631	-0,108	-0,179
307,735	-93,342	-0,059	-0,011
308,749	-54,457	-0,131	0,040
309,764	-97,101	-0,203	-0,036
310,779	66,318	-0,128	-0,089
311,793	-98,340	-0,103	-0,018
312,808	216,437	-0,143	-0,156
313,822	435,604	-0,075	-0,113
314,837	-200,000	-0,065	-0,237
315,852	72,202	-0,117	-0,084
316,866	-144,043	-0,098	-0,006
317,881	800,000	-0,057	0,109
318,895	89,276	-0,211	-0,161
319,910	-37,805	-0,245	-0,089
320,925	-79,769	-0,184	-0,042
321,939	-200,000	-0,021	-0,134
322,954	18,069	-0,185	-0,101
323,968	196,447	-0,197	-0,206
324,983	-112,405	-0,121	0,016
325,997	-41,633	-0,175	0,061
327,012	-127,787	-0,144	0,014
328,027	202,526	-0,154	-0,163
329,041	95,495	-0,143	-0,112
330,056	25,963	-0,087	-0,050
331,070	140,106	-0,032	0,029
332,085	800,000	-0,057	-0,164
333,100	-102,417	-0,186	-0,030
334,114	-100,298	-0,100	0,017
335,129	17,526	-0,166	-0,090
336,143	-35,737	-0,064	-0,024
337,158	-200,000	-0,024	-0,124
338,173	-41,293	-0,084	0,030
339,187	-80,612	-0,116	-0,026
340,202	158,796	-0,032	-0,031
341,216	319,397	-0,083	-0,108
342,231	301,964	-0,061	-0,078
343,246	182,721	-0,161	-0,162
344,260	397,589	-0,036	0,052
345,275	800,000	0,064	-0,138
346,289	14,674	-0,143	-0,076
347,304	151,605	-0,067	-0,062
348,319	-200,000	-0,071	-0,240
349,333	408,961	-0,103	-0,149
350,348	-200,000	0,001	-0,137
351,362	475,101	-0,048	-0,075
352,377	-27,146	-0,179	-0,071
353,392	-138,932	-0,084	0,006
354,406	170,301	-0,143	-0,139
355,421	208,228	1311,499	1402,529
356,435	160,217	1471,759	1402,966
