DTS Sentinel unit serial number:	SN410029Multiplexer serial number:	ORYXHardware model number:	OX2-SRSoftware version number:	ORYX F/W v4,00 Oryx Data Collector v3.7.2.0data status	okinstallation	B3 Nyhavnadifferential loss correction	single-endedforward channel	channel 1reverse channel	N/Adate	2023/11/29time	13:47:30forward acquisition time	300,00reverse acquisition time	0,00gamma	499,1914k internal	0,3212k external	0,3212temperature offset calibration	1,0000default loss term (dB/km)	0,3820temperature slope calibration	1,0000multiplexer offset coefficient	1,0000multiplexer slope coefficient	1,0000fibre end	0,00T internal ref (°C)	10,55T ext. ref 1 (°C)	-3,41T ext. ref 2 (°C)	-3,54length (m)	temperature (°C)	Stokes	anti-Stokes-744,400	186,645	-0,123	-0,133
-743,385	-200,000	-0,067	0,345
-742,371	371,485	-0,121	-0,179
-741,356	-200,000	0,035	0,373
-740,342	60,493	-0,282	-0,202
-739,327	-200,000	0,062	0,251
-738,312	352,737	-0,213	-0,306
-737,298	-200,000	-0,005	0,206
-736,283	140,620	-0,267	-0,256
-735,269	-200,000	0,040	0,296
-734,254	129,726	-0,175	-0,163
-733,239	95,969	-0,263	0,218
-732,225	-200,000	0,024	-0,123
-731,210	800,000	0,021	0,046
-730,196	163,357	0,081	-0,083
-729,181	800,000	-0,028	-0,082
-728,167	-102,684	-0,056	0,010
-727,152	-200,000	0,012	0,061
-726,137	46,208	-0,042	0,028
-725,123	-74,632	-0,073	-0,019
-724,108	40,560	0,138	0,090
-723,094	800,000	0,026	-0,065
-722,079	-119,690	0,092	-0,011
-721,064	-200,000	-0,023	-0,123
-720,050	-200,000	-0,027	-0,099
-719,035	661,640	0,062	-0,116
-718,021	800,000	-0,023	0,062
-717,006	266,841	0,053	-0,068
-715,991	-162,204	0,043	-0,002
-714,977	417,305	-0,118	-0,184
-713,962	49,429	0,102	0,069
-712,948	52,407	-0,083	-0,057
-711,933	-200,000	0,026	0,089
-710,918	16,616	0,026	0,015
-709,904	354,816	0,028	-0,041
-708,889	-200,000	-0,007	-0,039
-707,875	-7,806	-0,061	0,030
-706,860	800,000	-0,035	0,089
-705,845	-200,000	-0,007	0,036
-704,831	81,510	0,057	-0,045
-703,816	9,521	-0,087	-0,048
-702,802	-51,591	-0,110	-0,037
-701,787	800,000	-0,041	-0,104
-700,772	-200,000	-0,020	-0,124
-699,758	-78,707	-0,101	0,025
-698,743	-37,680	0,078	0,030
-697,729	800,000	0,081	0,169
-696,714	800,000	-0,050	0,111
-695,699	305,934	-0,051	0,069
-694,685	800,000	-0,035	0,092
-693,670	-134,394	0,016	0,001
-692,656	-38,131	-0,028	-0,011
-691,641	-200,000	-0,030	0,105
-690,627	93,520	0,133	0,109
-689,612	-200,000	-0,006	0,090
-688,597	561,144	-0,033	0,059
-687,583	86,840	-0,023	0,018
-686,568	197,146	-0,113	0,124
-685,554	-24,220	-0,109	0,047
-684,539	100,826	0,096	0,081
-683,524	-131,302	-0,095	-0,009
-682,510	-200,000	0,022	-0,091
-681,495	800,000	0,046	-0,123
-680,481	-200,000	0,041	0,132
-679,466	132,104	0,042	-0,039
-678,451	200,827	-0,056	-0,063
-677,437	-200,000	0,004	-0,125
-676,422	134,276	0,029	-0,028
-675,408	-18,375	-0,069	-0,031
-674,393	-200,000	0,013	-0,059
-673,378	-70,052	0,052	-0,014
-672,364	800,000	-0,055	-0,158
-671,349	32,877	0,050	0,031
-670,335	134,458	0,075	0,070
-669,320	-40,257	-0,100	0,037
-668,305	545,144	0,108	0,188
-667,291	266,848	-0,086	-0,109
-666,276	-4,463	-0,041	-0,020
-665,262	-200,000	-0,010	-0,032
-664,247	681,147	-0,042	0,080
-663,232	-200,000	0,015	0,087
-662,218	-200,000	-0,010	0,071
-661,203	-200,000	-0,016	0,094
-660,189	-77,645	0,083	0,021
-659,174	111,460	-0,104	-0,091
-658,159	-73,471	-0,041	0,011
-657,145	-200,000	-0,026	-0,092
-656,130	-16,696	-0,031	-0,014
-655,116	-59,768	-0,177	0,055
-654,101	-200,000	-0,042	-0,151
-653,086	-128,516	-0,030	0,003
-652,072	554,937	0,044	-0,076
-651,057	-44,997	-0,103	0,037
-650,043	-200,000	0,004	-0,084
-649,028	-95,433	-0,037	-0,007
-648,014	-112,375	0,069	-0,010
-646,999	-108,474	0,127	-0,020
-645,984	-89,014	-0,139	-0,029
-644,970	800,000	-0,003	-0,007
-643,955	26,340	-0,073	-0,044
-642,941	63,517	-0,091	-0,066
-641,926	-200,000	0,001	-0,048
-640,911	-200,000	0,039	0,139
-639,897	-114,209	-0,118	-0,016
-638,882	-200,000	0,006	0,097
-637,868	54,866	-0,076	0,053
-636,853	80,278	-0,035	0,028
-635,838	355,997	-0,083	-0,120
-634,824	469,837	-0,032	-0,053
-633,809	-200,000	0,022	0,074
-632,795	800,000	0,036	-0,083
-631,780	74,719	-0,092	-0,070
-630,765	109,938	0,025	-0,022
-629,751	190,944	-0,071	-0,077
-628,736	116,945	-0,086	-0,077
-627,722	-38,319	-0,057	0,022
-626,707	229,294	0,088	-0,104
-625,692	22,686	0,095	-0,056
-624,678	30,982	0,077	-0,047
-623,663	500,077	0,024	-0,041
-622,649	-200,000	0,011	0,101
-621,634	187,052	0,114	0,123
-620,619	-48,544	-0,047	-0,016
-619,605	173,069	0,058	-0,061
-618,590	164,018	0,046	0,047
-617,576	800,000	0,041	0,100
-616,561	270,283	0,078	-0,099
-615,546	800,000	0,019	-0,050
-614,532	-66,937	-0,082	0,023
-613,517	-15,820	0,065	0,030
-612,503	-84,040	-0,068	-0,016
-611,488	216,939	0,061	-0,070
-610,474	-200,000	-0,023	0,094
-609,459	81,645	-0,076	0,059
-608,444	257,034	-0,075	0,093
-607,430	800,000	0,041	-0,129
-606,415	290,849	0,037	-0,049
-605,401	60,289	0,065	-0,046
-604,386	-26,374	0,092	-0,039
-603,371	221,657	-0,083	0,097
-602,357	-200,000	-0,016	0,080
-601,342	-134,960	-0,137	-0,012
-600,328	70,425	0,059	-0,044
-599,313	-1,259	0,043	-0,022
-598,298	-147,142	-0,173	-0,010
-597,284	-130,070	0,105	-0,010
-596,269	456,009	-0,031	0,050
-595,255	-19,730	0,043	0,019
-594,240	-136,540	-0,113	-0,009
-593,225	-159,742	-0,050	0,002
-592,211	6,538	-0,084	-0,045
-591,196	-1,350	0,161	0,081
-590,182	137,529	0,089	0,084
-589,167	-200,000	0,002	0,052
-588,152	-200,000	0,017	-0,135
-587,138	800,000	-0,011	0,029
-586,123	383,236	0,015	-0,023
-585,109	-95,647	-0,056	0,011
-584,094	-42,276	-0,092	0,034
-583,079	-200,000	0,017	0,181
-582,065	608,267	-0,036	0,065
-581,050	250,347	-0,049	-0,061
-580,036	730,198	0,022	0,043
-579,021	800,000	0,030	-0,066
-578,006	-132,413	-0,040	0,004
-576,992	-151,062	0,045	-0,002
-575,977	202,672	-0,070	0,078
-574,963	479,125	0,039	-0,064
-573,948	113,158	0,063	-0,055
-572,934	-157,377	-0,018	-0,001
-571,919	397,472	-0,050	-0,076
-570,904	-200,000	-0,019	-0,069
-569,890	800,000	0,034	0,098
-568,875	135,132	-0,023	-0,022
-567,861	-200,000	0,006	0,044
-566,846	-17,082	0,096	0,043
-565,831	-101,677	0,061	-0,011
-564,817	95,058	0,023	-0,019
-563,802	-195,106	-0,085	-0,000
-562,788	262,613	0,091	-0,114
-561,773	101,515	-0,048	-0,040
-560,758	145,650	-0,003	0,003
-559,744	115,618	0,035	-0,030
-558,729	93,558	-0,070	-0,057
-557,715	9,953	-0,077	-0,042
-556,700	800,000	0,025	0,053
-555,685	132,940	-0,070	-0,065
-554,671	-200,000	-0,034	-0,111
-553,656	-200,000	-0,006	0,049
-552,642	364,288	0,048	0,069
-551,627	-200,000	0,017	0,125
-550,612	-70,226	-0,045	0,012
-549,598	377,453	0,067	-0,099
-548,583	-200,000	-0,024	-0,136
-547,569	172,644	0,087	-0,091
-546,554	63,353	0,102	-0,074
-545,539	-181,881	-0,095	0,001
-544,525	-135,162	0,099	0,008
-543,510	-200,000	-0,002	-0,015
-542,496	-200,000	0,003	0,018
-541,481	-200,000	-0,010	-0,157
-540,466	192,013	0,048	0,052
-539,452	748,923	0,049	0,095
-538,437	-35,485	0,083	-0,032
-537,423	-200,000	0,009	0,137
-536,408	-138,520	-0,097	-0,008
-535,393	-200,000	0,014	0,049
-534,379	168,103	-0,095	-0,098
-533,364	-38,373	-0,208	0,079
-532,350	470,526	-0,006	-0,010
-531,335	800,000	0,021	-0,049
-530,321	-167,524	0,176	0,005
-529,306	-60,834	-0,039	0,012
-528,291	322,653	-0,072	0,099
-527,277	79,046	-0,046	-0,036
-526,262	-200,000	-0,001	0,016
-525,248	800,000	-0,028	0,066
-524,233	267,679	0,026	-0,033
-523,218	-200,000	0,038	-0,140
-522,204	-200,000	-0,009	0,052
-521,189	32,707	-0,051	0,032
-520,175	-200,000	-0,013	-0,067
-519,160	-200,000	-0,017	-0,093
-518,145	14,933	-0,019	0,010
-517,131	-27,559	0,066	0,028
-516,116	386,914	0,081	0,121
-515,102	-135,541	-0,043	0,004
-514,087	178,556	0,073	-0,076
-513,072	174,024	-0,047	-0,049
-512,058	8,532	-0,103	-0,055
-511,043	58,152	0,074	0,052
-510,029	529,333	0,058	-0,098
-509,014	82,191	0,073	-0,057
-507,999	-150,083	-0,079	-0,004
-506,985	149,505	-0,098	-0,095
-505,970	20,345	0,040	-0,023
-504,956	800,000	-0,079	-0,167
-503,941	-40,596	0,101	-0,037
-502,926	50,836	-0,075	-0,051
-501,912	17,984	0,025	-0,014
-500,897	96,465	-0,082	0,067
-499,883	-128,500	-0,030	0,003
-498,868	-31,569	-0,187	0,075
-497,853	-35,014	-0,169	-0,066
-496,839	-69,252	0,091	-0,025
-495,824	243,760	0,051	0,062
-494,810	-122,115	0,057	0,007
-493,795	-200,000	-0,010	-0,058
-492,781	800,000	-0,026	-0,061
-491,766	-200,000	-0,008	-0,046
-490,751	-52,323	-0,124	-0,041
-489,737	323,478	0,066	0,091
-488,722	800,000	-0,018	0,043
-487,708	321,086	0,057	0,077
-486,693	-200,000	0,012	-0,071
-485,678	-36,005	-0,046	0,018
-484,664	-200,000	-0,007	-0,086
-483,649	29,430	-0,063	-0,038
-482,635	7,661	0,030	0,016
-481,620	130,459	0,047	0,044
-480,605	800,000	-0,023	0,051
-479,591	612,123	0,047	-0,085
-478,576	800,000	-0,019	0,039
-477,562	-142,153	-0,179	-0,013
-476,547	-200,000	-0,002	0,019
-475,532	338,756	-0,055	0,077
-474,518	301,014	0,063	0,084
-473,503	-200,000	-0,017	0,231
-472,489	479,968	0,046	0,074
-471,474	-200,000	0,032	-0,173
-470,459	-161,804	-0,072	0,003
-469,445	129,193	-0,020	-0,018
-468,430	17,553	-0,075	-0,043
-467,416	21,634	0,159	-0,093
-466,401	-22,736	0,085	0,037
-465,386	282,890	-0,138	0,178
-464,372	707,019	-0,018	-0,035
-463,357	241,639	0,095	-0,114
-462,343	298,253	-0,005	0,007
-461,328	563,664	-0,014	-0,025
-460,313	-108,087	0,106	0,016
-459,299	800,000	-0,023	0,063
-458,284	-83,901	0,180	-0,041
-457,270	-69,987	-0,164	0,045
-456,255	-116,898	-0,098	-0,013
-455,241	-200,000	-0,032	-0,101
-454,226	-200,000	-0,007	-0,073
-453,211	576,889	0,039	0,068
-452,197	-200,000	-0,016	-0,193
-451,182	-56,660	-0,018	0,006
-450,168	-9,287	-0,072	0,034
-449,153	591,771	0,027	0,048
-448,138	135,013	-0,085	0,080
-447,124	157,147	0,093	0,092
-446,109	800,000	0,029	-0,066
-445,095	-200,000	-0,012	0,075
-444,080	-200,000	-0,010	-0,107
-443,065	-200,000	0,008	-0,039
-442,051	800,000	0,039	0,104
-441,036	800,000	-0,030	-0,085
-440,022	800,000	0,056	0,162
-439,007	303,973	-0,085	-0,114
-437,992	800,000	0,052	0,144
-436,978	800,000	0,056	0,115
-435,963	-200,000	-0,006	0,031
-434,949	-142,409	-0,160	-0,011
-433,934	-200,000	-0,002	-0,026
-432,919	-68,427	-0,171	-0,047
-431,905	258,371	-0,021	-0,026
-430,890	-9,501	0,050	0,024
-429,876	683,907	-0,025	-0,047
-428,861	-20,854	-0,047	0,021
-427,846	800,000	-0,037	0,107
-426,832	-13,456	-0,028	-0,013
-425,817	-17,156	0,102	-0,046
-424,803	-149,322	-0,054	0,003
-423,788	703,764	0,094	0,178
-422,773	-200,000	-0,018	-0,103
-421,759	59,415	0,119	-0,084
-420,744	334,464	0,076	0,106
-419,730	-36,039	0,075	-0,029
-418,715	-41,464	0,024	0,009
-417,701	255,499	-0,053	0,065
-416,686	800,000	0,039	0,089
-415,671	-200,000	0,037	0,225
-414,657	-7,921	0,031	-0,015
-413,642	800,000	0,032	0,077
-412,628	800,000	-0,011	-0,033
-411,613	300,337	-0,040	-0,053
-410,598	-53,500	0,032	-0,010
-409,584	-25,378	0,038	0,016
-408,569	-109,857	0,066	0,010
-407,555	-200,000	-0,000	-0,012
-406,540	-200,000	0,019	0,143
-405,525	-200,000	0,005	-0,109
-404,511	77,757	0,073	-0,056
-403,496	-200,000	-0,020	-0,073
-402,482	283,191	0,110	0,142
-401,467	800,000	0,050	0,151
-400,452	243,512	0,037	0,044
-399,438	30,989	0,025	-0,016
-398,423	167,301	-0,001	-0,002
-397,409	283,529	-0,133	-0,171
-396,394	29,372	0,096	-0,058
-395,379	-200,000	-0,009	0,035
-394,365	-200,000	0,021	0,146
-393,350	-8,421	-0,058	0,028
-392,336	-200,000	-0,007	-0,073
-391,321	637,835	0,012	-0,022
-390,306	-70,233	0,071	0,019
-389,292	-94,011	-0,116	-0,023
-388,277	38,975	-0,064	0,041
-387,263	351,693	0,055	0,079
-386,248	533,525	-0,055	-0,093
-385,233	229,615	0,086	-0,100
-384,219	800,000	-0,049	0,102
-383,204	-174,174	-0,105	0,002
-382,190	800,000	-0,103	-0,265
-381,175	-131,707	0,080	-0,007
-380,160	-200,000	0,008	0,138
-379,146	-194,318	-0,074	0,000
-378,131	183,789	0,018	0,019
-377,117	-52,287	0,130	-0,043
-376,102	-200,000	-0,034	0,129
-375,088	-128,017	0,081	-0,008
-374,073	106,041	-0,053	-0,045
-373,058	-200,000	-0,020	0,084
-372,044	209,402	0,010	-0,011
-371,029	-200,000	-0,001	0,052
-370,015	-3,160	-0,102	-0,050
-369,000	-125,819	-0,093	0,010
-367,985	800,000	0,036	0,081
-366,971	252,578	-0,146	-0,178
-365,956	-200,000	0,015	-0,057
-364,942	299,292	0,044	-0,058
-363,927	-125,796	0,091	0,010
-362,912	-135,593	0,058	-0,005
-361,898	511,248	0,059	0,099
-360,883	-200,000	-0,020	-0,065
-359,869	-98,862	0,158	-0,028
-358,854	434,063	-0,033	-0,051
-357,839	-122,442	-0,044	-0,005
-356,825	800,000	-0,019	-0,045
-355,810	-200,000	-0,027	-0,103
-354,796	796,187	0,024	-0,047
-353,781	800,000	-0,017	-0,044
-352,766	800,000	0,012	0,028
-351,752	416,273	0,045	0,069
-350,737	800,000	-0,050	-0,119
-349,723	25,518	0,054	0,032
-348,708	-26,885	0,146	0,060
-347,693	-200,000	0,016	0,075
-346,679	123,745	0,074	0,067
-345,664	377,097	0,012	0,018
-344,650	214,370	-0,060	-0,068
-343,635	-9,109	0,114	0,054
-342,620	618,503	-0,099	0,178
-341,606	-200,000	-0,023	0,116
-340,591	24,100	0,018	-0,010
-339,577	47,835	-0,106	-0,071
-338,562	377,380	-0,034	-0,049
-337,548	-200,000	-0,025	-0,104
-336,533	800,000	-0,033	0,076
-335,518	429,813	0,100	-0,155
-334,504	69,822	-0,057	-0,042
-333,489	104,200	0,054	0,046
-332,475	-200,000	0,008	-0,057
-331,460	477,428	-0,104	-0,169
-330,445	548,297	-0,057	-0,097
-329,431	-200,000	0,001	0,041
-328,416	183,688	0,122	0,129
-327,402	-200,000	0,027	-0,129
-326,387	-200,000	0,014	-0,109
-325,372	224,608	0,044	-0,051
-324,358	-200,000	0,033	-0,114
-323,343	-177,639	-0,146	0,002
-322,329	194,064	-0,078	0,084
-321,314	-107,449	0,105	-0,016
-320,299	-200,000	-0,007	0,117
-319,285	-200,000	0,013	0,089
-318,270	126,795	-0,056	-0,051
-317,256	-129,221	0,056	0,005
-316,241	-113,689	-0,058	-0,008
-315,226	-200,000	-0,016	-0,112
-314,212	-117,536	0,030	0,004
-313,197	-200,000	-0,010	0,084
-312,183	-128,385	0,104	0,010
-311,168	186,023	0,016	-0,017
-310,153	-200,000	0,009	-0,042
-309,139	96,547	-0,055	0,045
-308,124	-200,000	-0,020	0,128
-307,110	168,797	0,095	0,097
-306,095	37,592	0,074	0,047
-305,080	-32,736	-0,097	0,038
-304,066	24,788	0,111	0,065
-303,051	536,359	-0,058	-0,098
-302,037	63,957	0,084	0,060
-301,022	-200,000	0,003	0,012
-300,008	-200,000	0,008	0,064
-298,993	-146,374	0,076	0,005
-297,978	-200,000	-0,003	0,103
-296,964	-64,527	0,020	-0,006
-295,949	125,487	0,082	0,074
-294,935	311,141	-0,080	-0,107
-293,920	48,864	-0,052	0,035
-292,905	-200,000	-0,004	0,203
-291,891	-14,640	0,111	-0,050
-290,876	-138,853	-0,098	-0,007
-289,862	95,632	-0,046	0,038
-288,847	-68,054	0,092	0,025
-287,832	285,602	0,051	-0,066
-286,818	26,972	0,050	0,030
-285,803	-108,495	0,068	-0,010
-284,789	129,696	-0,025	-0,023
-283,774	-13,244	-0,090	0,041
-282,759	-200,000	-0,020	-0,077
-281,745	-200,000	-0,001	-0,021
-280,730	800,000	0,021	-0,056
-279,716	35,788	0,083	0,052
-278,701	-200,000	0,018	-0,095
-277,686	236,839	0,114	0,134
-276,672	86,433	-0,043	0,034
-275,657	800,000	-0,058	-0,115
-274,643	-141,787	0,041	0,003
-273,628	-200,000	-0,022	-0,075
-272,613	-200,000	0,033	0,185
-271,599	485,521	-0,062	0,101
-270,584	81,502	-0,133	-0,102
-269,570	-136,020	0,058	-0,005
-268,555	-72,208	-0,094	-0,025
-267,540	-49,809	-0,069	0,023
-266,526	-17,745	0,080	-0,036
-265,511	800,000	0,023	-0,051
-264,497	520,418	0,060	0,101
-263,482	275,124	-0,041	0,052
-262,467	-200,000	-0,018	0,102
-261,453	-126,718	0,019	0,002
-260,438	-121,470	-0,175	-0,020
-259,424	-155,354	-0,117	-0,005
-258,409	-138,566	-0,100	-0,008
-257,395	-96,910	0,106	0,020
-256,380	75,626	-0,045	-0,034
-255,365	141,968	0,118	0,111
-254,351	800,000	0,025	-0,076
-253,336	-200,000	0,026	-0,128
-252,322	6,333	-0,135	-0,071
-251,307	243,704	0,023	-0,027
-250,292	78,514	-0,047	-0,035
-249,278	17,499	0,085	-0,048
-248,263	-11,054	-0,056	0,026
-247,249	-200,000	-0,019	-0,146
-246,234	401,959	0,076	-0,115
-245,219	800,000	0,009	0,022
-244,205	-200,000	-0,051	0,173
-243,190	-30,786	-0,041	-0,016
-242,176	-200,000	-0,002	0,015
-241,161	-56,001	0,126	-0,040
-240,146	-174,266	-0,156	-0,003
-239,132	-200,000	-0,021	-0,084
-238,117	-17,829	-0,098	-0,044
-237,103	-200,000	-0,030	0,106
-236,088	60,653	0,125	0,088
-235,073	-200,000	0,036	0,148
-234,059	6,886	0,070	-0,037
-233,044	-34,984	0,137	-0,053
-232,030	441,626	0,045	-0,069
-231,015	-58,239	0,085	0,026
-230,000	169,463	-0,148	-0,151
-228,986	-25,742	-0,059	0,025
-227,971	321,486	0,098	0,133
-226,957	800,000	-0,002	0,004
-225,942	75,093	0,054	-0,041
-224,927	-64,390	0,041	0,012
-223,913	719,055	-0,077	0,145
-222,898	-80,465	-0,150	0,035
-221,884	-200,000	0,021	0,095
-220,869	168,048	-0,027	-0,027
-219,855	-200,000	-0,025	0,112
-218,840	-200,000	-0,000	-0,011
-217,825	321,449	-0,030	0,041
-216,811	-200,000	-0,007	-0,043
-215,796	350,366	-0,050	0,070
-214,782	265,799	-0,058	0,072
-213,767	57,647	0,126	-0,088
-212,752	180,551	0,096	0,100
-211,738	-111,978	-0,065	0,009
-210,723	-91,294	0,049	-0,010
-209,709	-198,471	0,057	-0,000
-208,694	-8,560	-0,084	0,040
-207,679	800,000	-0,033	-0,095
-206,665	-200,000	0,018	-0,126
-205,650	404,091	-0,066	0,099
-204,636	-200,000	0,031	-0,103
-203,621	800,000	0,024	0,069
-202,606	-43,578	0,116	0,041
-201,592	-98,193	-0,109	-0,020
-200,577	120,414	0,068	-0,060
-199,563	-150,149	0,134	-0,007
-198,548	251,826	-0,081	0,098
-197,533	800,000	0,041	0,120
-196,519	-173,466	0,068	-0,001
-195,504	800,000	0,016	0,050
-194,490	118,978	-0,072	0,063
-193,475	-200,000	-0,004	-0,040
-192,460	800,000	-0,071	0,180
-191,446	673,586	0,022	0,041
-190,431	-138,024	0,089	0,007
-189,417	-82,803	0,093	-0,021
-188,402	-133,828	-0,077	-0,007
-187,387	-156,989	-0,104	0,004
-186,373	137,854	0,113	-0,105
-185,358	-200,000	0,007	-0,096
-184,344	-200,000	-0,051	-0,164
-183,329	-68,511	0,168	0,046
-182,315	41,316	0,053	-0,034
-181,300	432,037	0,044	0,067
-180,285	9,212	0,078	-0,042
-179,271	-200,000	0,022	-0,127
-178,256	-200,000	-0,003	-0,185
-177,242	-70,076	0,158	0,042
-176,227	-200,000	0,010	0,233
-175,212	-78,550	-0,054	-0,013
-174,198	800,000	0,058	-0,129
-173,183	171,349	-0,061	-0,062
-172,169	-33,325	-0,103	-0,040
-171,154	800,000	0,036	-0,096
-170,139	220,476	0,082	-0,094
-169,125	-200,000	0,011	0,045
-168,110	800,000	0,050	0,125
-167,096	429,139	-0,070	0,108
-166,081	-51,644	-0,105	-0,034
-165,066	306,709	-0,026	0,034
-164,052	-14,664	-0,143	0,065
-163,037	-200,000	0,018	0,084
-162,023	800,000	-0,058	0,139
-161,008	2,686	0,054	-0,027
-159,993	-27,447	-0,032	-0,013
-158,979	-87,580	-0,080	0,017
-157,964	171,290	-0,099	-0,101
-156,950	515,494	0,034	-0,057
-155,935	-173,257	0,123	-0,003
-154,920	226,194	-0,027	0,031
-153,906	606,308	0,028	0,049
-152,891	-200,000	0,003	-0,077
-151,877	800,000	-0,030	-0,068
-150,862	-200,000	0,017	0,081
-149,847	800,000	0,045	-0,136
-148,833	-36,130	-0,131	-0,050
-147,818	37,381	-0,043	-0,027
-146,804	-200,000	-0,002	-0,087
-145,789	78,058	0,114	-0,086
-144,775	800,000	-0,047	-0,100
-143,760	800,000	0,071	-0,146
-142,745	-200,000	-0,054	-0,174
-141,731	651,363	0,009	-0,016
-140,716	-200,000	-0,026	0,121
-139,702	800,000	-0,039	-0,077
-138,687	-102,015	0,048	0,008
-137,672	52,204	-0,030	-0,020
-136,658	-200,000	0,010	0,076
-135,643	-60,611	-0,162	0,048
-134,629	521,266	-0,058	0,097
-133,614	67,583	0,033	0,024
-132,599	-127,002	0,031	-0,003
-131,585	165,605	0,103	-0,103
-130,570	-139,737	-0,044	-0,003
-129,556	-200,000	-0,012	-0,096
-128,541	-200,000	0,010	-0,095
-127,526	104,414	0,046	-0,038
-126,512	-200,000	0,002	-0,081
-125,497	438,073	0,022	0,034
-124,483	-200,000	-0,006	-0,129
-123,468	-200,000	-0,023	-0,082
-122,453	754,318	-0,046	0,089
-121,439	354,493	0,013	-0,018
-120,424	-79,073	-0,063	-0,015
-119,410	-22,736	0,159	0,067
-118,395	-200,000	-0,002	0,155
-117,380	-142,121	-0,009	0,001
-116,366	27,885	-0,150	-0,089
-115,351	-5,840	-0,062	-0,030
-114,337	800,000	-0,014	0,038
-113,322	-200,000	-0,001	0,029
-112,307	-200,000	0,015	0,112
-111,293	-33,548	0,062	-0,024
-110,278	316,293	0,056	0,075
-109,264	800,000	-0,012	-0,027
-108,249	-200,000	-0,030	-0,121
-107,234	800,000	-0,044	-0,117
-106,220	34,690	-0,057	0,035
-105,205	374,989	-0,035	-0,050
-104,191	50,854	0,106	-0,071
-103,176	-200,000	0,042	0,205
-102,162	-59,837	0,089	0,027
-101,147	-190,767	0,062	-0,000
-100,132	450,587	0,038	-0,060
-99,118	47,387	-0,114	-0,075
-98,103	-200,000	0,011	0,047
-97,089	311,991	-0,026	0,035
-96,074	-71,244	-0,103	0,027
-95,059	64,704	-0,052	0,037
-94,045	-200,000	0,000	0,041
-93,030	-200,000	0,010	0,060
-92,016	249,374	-0,067	-0,080
-91,001	141,293	0,052	0,048
-89,986	544,738	0,014	0,024
-88,972	20,350	0,143	0,082
-87,957	328,152	0,028	-0,038
-86,943	-121,892	-0,093	0,011
-85,928	-66,697	0,105	-0,029
-84,913	-78,889	-0,158	-0,038
-83,899	-119,997	0,046	0,005
-82,884	-55,161	0,132	0,042
-81,870	-16,548	0,028	-0,012
-80,855	-68,901	-0,107	-0,029
-79,840	-200,000	0,010	0,038
-78,826	172,771	-0,051	0,052
-77,811	529,968	0,051	-0,086
-76,797	210,548	-0,073	-0,081
-75,782	-200,000	-0,013	0,057
-74,767	-145,836	0,077	-0,005
-73,753	-200,000	-0,007	0,108
-72,738	-144,758	-0,015	0,001
-71,724	-62,272	0,143	-0,042
-70,709	170,468	-0,115	0,117
-69,694	800,000	0,028	0,066
-68,680	800,000	-0,030	0,060
-67,665	-200,000	-0,004	-0,027
-66,651	124,501	-0,100	0,089
-65,636	-200,000	0,037	0,128
-64,622	-200,000	0,002	-0,135
-63,607	337,606	-0,061	-0,084
-62,592	800,000	0,058	-0,147
-61,578	-24,812	-0,064	-0,027
-60,563	410,637	-0,061	0,092
-59,549	225,610	-0,044	0,050
-58,534	7,206	-2,029	-1,065
-57,519	568,791	-1,178	-2,029
-56,505	-200,000	-0,343	-4,313
-55,490	608,787	0,790	1,398
-54,476	800,000	5,054	11,505
-53,461	-200,000	20,883	332,195
-52,446	800,000	757,588	2330,088
-51,432	551,832	1661,225	2825,325
-50,417	73,376	1662,478	1226,142
-49,403	18,432	1535,410	863,180
-48,388	12,354	1458,758	790,707
-47,373	19,103	1449,365	817,951
-46,359	15,680	1438,761	795,666
-45,344	10,642	1434,595	769,360
-44,330	10,586	1432,700	768,044
-43,315	10,598	1430,857	767,082
-42,300	10,544	1429,155	765,884
-41,286	10,588	1427,804	765,338
-40,271	10,589	1426,465	764,597
-39,257	10,611	1425,398	764,098
-38,242	10,614	1424,168	763,423
-37,227	10,622	1423,294	762,960
-36,213	10,643	1422,189	762,436
-35,198	10,605	1420,954	761,565
-34,184	10,677	1419,817	761,265
-33,169	10,573	1418,515	760,049
-32,154	10,609	1417,651	759,724
-31,140	10,696	1416,237	759,345
-30,125	10,695	1415,182	758,743
-29,111	10,716	1414,030	758,196
-28,096	10,628	1412,914	757,156
-27,082	10,589	1411,663	756,272
-26,067	10,507	1410,860	755,424
-25,052	10,539	1409,762	754,958
-24,038	10,642	1408,352	754,657
-23,023	10,615	1407,600	754,097
-22,009	10,577	1406,665	753,389
-20,994	10,551	1405,640	752,689
-19,979	10,581	1404,653	752,271
-18,965	10,560	1403,789	751,678
-17,950	10,518	1402,912	750,984
-16,936	10,532	1402,034	750,550
-15,921	10,472	1400,971	749,672
-14,906	10,490	1400,042	749,228
-13,892	10,525	1398,912	748,754
-12,877	10,447	1398,457	748,122
-11,863	10,513	1397,636	747,960
-10,848	10,464	1396,742	747,224
-9,833	10,430	1395,830	746,548
-8,819	10,397	1394,823	745,825
-7,804	10,390	1394,010	745,331
-6,790	10,417	1392,917	744,842
-5,775	10,385	1391,949	744,147
-4,760	10,396	1390,931	743,622
-3,746	10,421	1390,128	743,278
-2,731	10,411	1389,172	742,694
-1,717	10,388	1388,613	742,257
-0,702	10,389	1386,483	741,093
0,313	14,446	1300,153	713,500
1,327	30,724	691,686	416,536
2,342	47,741	119,845	78,733
3,356	2,703	16,508	8,412
4,371	7,155	3,366	1,765
5,386	14,640	0,909	0,499
6,400	800,000	0,226	0,528
7,415	-77,984	-0,368	-0,089
8,429	421,885	-0,165	-0,250
9,444	25,755	-0,349	-0,205
10,459	-53,959	-0,286	-0,091
11,473	9,306	-0,282	-0,150
12,488	12,377	-0,282	-0,153
13,502	19,798	-0,249	-0,141
14,517	-55,298	-0,330	-0,104
15,531	-19,339	-0,432	-0,188
16,546	105,194	-0,260	-0,216
17,561	80,919	-0,350	-0,265
18,575	417,123	-0,089	-0,134
19,590	151,484	-0,166	-0,160
20,604	-120,077	-0,261	-0,031
21,619	104,833	-0,347	-0,288
22,634	170,854	-0,414	-0,418
23,648	26,632	-0,499	-0,293
24,663	60,534	-0,440	-0,306
25,677	6,602	-0,410	-0,214
26,692	-32,597	-0,320	0,125
27,707	157,311	-0,386	-0,376
28,721	34,503	-0,393	-0,241
29,736	66,529	-0,351	-0,251
30,750	11,323	-0,372	-0,200
31,765	42,125	-0,381	-0,243
32,780	86,814	-0,315	-0,244
33,794	93,950	-0,334	-0,266
34,809	83,324	-0,358	-0,274
35,823	-6,806	-0,418	-0,199
36,838	237,199	-0,288	-0,336
37,853	176,484	-0,327	-0,334
38,867	78,489	-0,374	-0,281
39,882	65,479	-0,296	-0,210
40,896	120,551	-0,298	-0,260
41,911	-1,370	-0,301	-0,149
42,926	154,390	-0,316	-0,305
43,940	30,175	-0,516	-0,309
44,955	69,786	-0,255	-0,184
45,969	63,125	-0,320	-0,225
46,984	80,008	-0,332	-0,251
47,999	362,899	-0,182	-0,257
49,013	37,708	-0,248	-0,154
50,028	-60,539	-0,432	-0,128
51,042	109,028	-0,228	-0,191
52,057	10,014	-0,388	-0,206
53,071	-6,041	-0,250	-0,120
54,086	-95,022	-0,350	-0,066
55,101	35,404	-0,361	-0,222
56,115	-52,394	-0,396	-0,128
57,130	79,417	-0,278	-0,209
58,144	-32,438	-0,395	-0,154
59,159	43,148	-0,440	-0,281
60,174	-11,850	-0,385	-0,177
61,188	125,837	-0,206	-0,183
62,203	14,709	-0,295	-0,161
63,217	-80,106	-0,428	-0,100
64,232	112,299	-0,286	-0,242
65,247	90,138	-0,317	-0,248
66,261	26,590	-0,281	-0,164
67,276	26,643	-0,359	-0,210
68,290	41,763	-0,409	-0,259
69,305	-28,104	-0,238	-0,096
70,320	55,832	-0,218	-0,148
71,334	54,626	-0,238	-0,160
72,349	80,514	-0,277	-0,209
73,363	-40,393	-0,344	-0,125
74,378	41,582	-0,154	-0,098
75,393	63,755	-0,415	-0,291
76,407	-28,039	-0,237	-0,096
77,422	114,543	-0,229	-0,196
78,436	39,505	-0,234	-0,146
79,451	11,860	-0,483	-0,259
80,466	17,716	-0,353	-0,196
81,480	24,377	-0,322	-0,186
82,495	83,047	-0,275	-0,209
83,509	138,404	-0,196	-0,180
84,524	33,674	-0,215	-0,130
85,539	-127,916	-0,351	-0,035
86,553	85,381	-0,262	-0,201
87,568	163,489	-0,310	-0,306
88,582	121,702	-0,330	-0,288
89,597	19,008	-0,271	-0,152
90,611	-113,855	-0,151	-0,020
91,626	-200,000	-0,038	-0,182
92,641	-17,808	-0,266	-0,116
93,655	66,997	-0,286	-0,204
94,670	-59,011	-0,350	-0,105
95,684	41,570	-0,338	-0,214
96,699	54,624	-0,209	-0,140
97,714	8,302	-0,188	-0,099
98,728	-94,071	-0,352	-0,067
99,743	-2,952	-0,199	-0,097
100,757	572,760	-0,154	-0,264
101,772	0,883	-0,338	-0,169
102,787	-30,616	-0,344	-0,136
103,801	9,204	-0,239	-0,126
104,816	30,949	-0,383	-0,229
105,830	8,610	-0,219	-0,115
106,845	-86,550	-0,228	0,048
107,860	-142,849	-0,259	-0,017
108,874	-48,523	-0,216	-0,072
109,889	24,006	-0,226	-0,130
110,903	56,809	-0,270	-0,183
111,918	80,311	-0,191	-0,143
112,933	-143,291	-0,229	-0,015
113,947	56,485	-0,218	-0,148
114,962	-61,358	-0,301	-0,088
115,976	-102,714	-0,273	-0,045
116,991	221,562	-0,235	-0,264
118,006	-31,192	-0,390	-0,153
119,020	-60,945	-0,298	-0,087
120,035	91,730	-0,236	-0,185
121,049	-8,410	-0,176	-0,082
122,064	-71,874	-0,277	-0,071
123,079	68,560	-0,274	-0,196
124,093	231,631	-0,234	-0,268
125,108	68,451	-0,124	-0,089
126,122	147,147	-0,196	-0,184
127,137	800,000	-0,049	-0,112
128,151	23,457	-0,144	-0,082
129,166	80,125	-0,297	-0,222
130,181	241,790	-0,197	-0,230
131,195	252,694	-0,189	-0,225
132,210	201,169	-0,284	-0,305
133,224	-24,123	-0,220	-0,091
134,239	137,027	-0,164	-0,149
135,254	19,778	-0,356	-0,199
136,268	46,183	-0,126	-0,081
137,283	178,329	-0,250	-0,255
138,297	-2,594	-0,339	-0,165
139,312	-32,655	-0,299	-0,115
140,327	201,774	-0,198	-0,213
141,341	45,159	-0,277	-0,178
142,356	-180,735	-0,251	-0,003
143,370	468,516	-0,107	-0,168
144,385	6,042	-0,282	-0,145
145,400	-62,523	-0,345	-0,099
146,414	161,154	-0,244	-0,237
147,429	-24,540	-0,311	-0,128
148,443	-48,135	-0,104	-0,035
149,458	137,882	-0,153	-0,140
150,473	59,410	-0,215	-0,147
151,487	98,818	-0,177	-0,142
152,502	41,874	-0,270	-0,170
153,516	111,192	-0,221	-0,186
154,531	-20,403	-0,319	-0,136
155,546	-19,429	-0,128	-0,055
156,560	337,709	-0,194	-0,263
157,575	-200,000	-0,195	-0,000
158,589	-44,564	-0,276	-0,095
159,604	-39,869	-0,139	-0,050
160,619	44,106	-0,143	-0,091
161,633	106,601	-0,239	-0,197
162,648	252,737	-0,122	-0,145
163,662	-76,469	-0,147	-0,036
164,677	-10,527	-0,187	0,086
165,692	248,193	-0,196	-0,231
166,706	-48,008	-0,281	-0,094
167,721	120,550	-0,219	-0,189
168,735	72,004	-0,272	-0,196
169,750	-18,597	-0,220	-0,095
170,764	89,931	-0,217	-0,168
171,779	182,830	-0,152	-0,156
172,794	-96,315	-0,069	-0,013
173,808	250,943	-0,198	-0,235
174,823	-57,897	-0,298	-0,090
175,837	90,180	-0,308	-0,239
176,852	38,534	-0,267	-0,165
177,867	75,826	-0,211	-0,155
178,881	226,222	-0,163	-0,183
179,896	-111,208	-0,161	-0,023
180,910	82,868	-0,252	-0,190
181,925	186,798	-0,197	-0,204
182,940	253,298	-0,241	-0,286
183,954	-13,942	-0,125	-0,056
184,969	-64,377	-0,227	-0,064
185,983	-80,726	-0,157	-0,036
186,998	-200,000	-0,028	-0,180
188,013	90,193	-0,306	-0,237
189,027	108,386	-0,241	-0,199
190,042	12,215	-0,253	-0,134
191,056	228,722	-0,180	-0,204
192,071	-24,096	-0,283	-0,117
193,086	-174,661	-0,201	0,004
194,100	-98,412	-0,205	0,036
195,115	-122,955	-0,203	-0,022
196,129	86,326	-0,279	-0,213
197,144	99,943	-0,166	-0,133
198,159	-136,417	-0,201	-0,016
199,173	299,131	-0,135	-0,173
200,188	138,585	-0,142	-0,129
201,202	500,406	-0,122	-0,196
202,217	16,109	-0,100	-0,055
203,232	117,854	-0,289	-0,247
204,246	86,781	-0,288	-0,220
205,261	87,445	-0,148	-0,114
206,275	247,454	-0,123	-0,144
207,290	-145,668	-0,043	-0,003
208,304	347,414	-0,129	-0,177
209,319	23,726	-0,315	-0,179
210,334	194,482	-0,238	-0,250
211,348	32,232	-0,178	-0,106
212,363	-29,886	-0,178	-0,070
213,377	-96,843	-0,337	0,061
214,392	42,120	-0,191	-0,120
215,407	221,882	-0,208	-0,232
216,421	304,051	-0,065	-0,083
217,436	-100,540	-0,274	-0,046
218,450	-73,213	-0,280	-0,070
219,465	142,408	-0,186	-0,171
220,480	1,105	-0,191	-0,095
221,494	288,334	-0,103	-0,129
222,509	87,474	-0,160	-0,122
223,523	383,370	-0,124	-0,177
224,538	-200,000	-0,013	-0,114
225,553	203,603	-0,222	-0,238
226,567	724,745	-0,120	-0,222
227,582	81,354	-0,181	-0,135
228,596	261,240	-0,106	-0,127
229,611	800,000	-0,040	0,077
230,626	19,451	-0,226	-0,125
231,640	316,090	-0,067	-0,087
232,655	437,647	-0,169	-0,255
233,669	-24,469	-0,260	-0,106
234,684	800,000	-0,087	-0,235
235,699	63,469	-0,114	-0,079
236,713	135,705	-0,119	-0,107
237,728	-151,238	-0,180	0,009
238,742	119,421	-0,113	-0,096
239,757	145,219	-0,228	-0,210
240,772	291,093	-0,110	-0,138
241,786	699,265	-0,147	-0,269
242,801	-194,425	-0,182	-0,001
243,815	27,246	-0,170	-0,099
244,830	-46,511	-0,258	-0,087
245,844	-200,000	-0,066	-0,253
246,859	-200,000	-0,036	-0,229
247,874	304,337	-0,130	-0,167
248,888	198,098	-0,116	-0,122
249,903	-200,000	-0,047	-0,186
250,917	-71,923	-0,161	-0,041
251,932	-132,222	-0,284	0,025
252,947	51,268	-0,209	-0,137
253,961	78,227	-0,194	-0,142
254,976	-115,604	-0,381	-0,049
255,990	14,790	-0,147	-0,079
257,005	73,406	-0,252	-0,182
258,020	99,817	-0,140	-0,112
259,034	-117,426	-0,130	-0,016
260,049	-200,000	-0,053	-0,197
261,063	277,983	-0,161	-0,198
262,078	-61,111	-0,167	-0,048
263,093	75,580	-0,206	-0,150
264,107	9,776	-0,226	-0,118
265,122	-74,601	-0,158	-0,039
266,136	58,962	-0,144	-0,098
267,151	246,099	-0,104	-0,121
268,166	208,788	-0,222	-0,240
269,180	192,875	-0,275	-0,287
270,195	335,488	-0,131	-0,175
271,209	-17,850	-0,156	-0,067
272,224	-72,129	-0,185	-0,047
273,239	-83,555	-0,197	-0,043
274,253	285,376	-0,087	-0,109
275,268	-200,000	-0,027	-0,124
276,282	-62,410	-0,153	-0,043
277,297	76,464	-0,231	-0,168
278,312	423,270	-0,086	-0,128
279,326	-4,191	-0,159	-0,076
280,341	280,791	-0,045	0,056
281,355	27,637	-0,070	-0,040
282,370	11,859	-0,243	-0,128
283,384	32,871	-0,069	-0,041
284,399	154,083	-0,181	-0,171
285,414	-18,433	-0,164	-0,070
286,428	-69,894	-0,173	-0,045
287,443	-59,212	-0,208	-0,061
288,457	-178,880	-0,228	-0,003
289,472	18,785	-0,016	-0,009
290,487	-100,845	-0,235	-0,039
291,501	-59,408	-0,147	-0,043
292,516	-175,882	-0,188	-0,003
293,530	-108,583	-0,194	0,028
294,545	-110,495	-0,207	-0,029
295,560	-40,446	-0,189	-0,067
296,574	800,000	-0,073	-0,158
297,589	41,248	-0,127	-0,079
298,603	95,665	-0,274	-0,214
299,618	80,211	-0,091	-0,067
300,633	97,432	-0,142	-0,112
301,647	52,844	-0,184	-0,121
302,662	254,795	-0,129	-0,152
303,676	-154,770	-0,106	0,005
304,691	48,005	-0,164	-0,105
305,706	-75,064	-0,079	-0,019
306,720	120,022	-0,118	-0,100
307,735	-6,702	-0,146	-0,068
308,749	-36,491	-0,186	-0,068
309,764	-148,748	-0,059	0,003
310,779	800,000	-0,033	-0,098
311,793	24,580	-0,168	-0,095
312,808	117,151	-0,257	-0,217
313,822	-157,561	-0,105	-0,004
314,837	40,385	-0,114	-0,071
315,852	-200,000	-0,002	-0,145
316,866	76,121	-0,134	-0,097
317,881	-35,711	-0,099	-0,037
318,895	127,184	-0,123	-0,107
319,910	-98,124	-0,115	-0,020
320,925	-58,290	-0,122	-0,036
321,939	-97,725	-0,161	-0,028
322,954	7,131	-0,084	-0,043
323,968	-71,935	-0,049	-0,012
324,983	75,528	-0,183	-0,132
325,997	-80,082	-0,201	0,046
327,012	205,635	-0,146	-0,156
328,027	725,005	-0,015	-0,028
329,041	405,637	-0,091	-0,133
330,056	111,730	-0,130	-0,108
331,070	-159,579	-0,173	0,006
332,085	183,510	-0,163	-0,165
333,100	-11,992	-0,167	-0,075
334,114	22,526	-0,188	0,105
335,129	40,061	-0,190	-0,116
336,143	224,096	-0,117	-0,130
337,158	341,255	-0,041	-0,055
338,173	621,069	-0,057	-0,099
339,187	-63,532	-0,238	0,067
340,202	-35,469	-0,188	-0,070
341,216	211,635	-0,083	-0,089
342,231	58,528	-0,183	-0,123
343,246	390,169	-0,119	-0,170
344,260	-17,794	-0,114	-0,049
345,275	-65,816	-0,091	-0,025
346,289	-67,180	-0,247	-0,066
347,304	124,017	-0,124	-0,106
348,319	706,595	-0,104	-0,188
349,333	800,000	-0,101	-0,213
350,348	102,598	-0,109	-0,087
351,362	-200,000	0,007	-0,081
352,377	-91,773	-0,095	0,018
353,392	-84,312	-0,153	-0,033
354,406	121,365	-0,128	-0,109
355,421	208,091	1306,580	1397,333
356,435	160,107	1466,295	1397,825
