DTS Sentinel unit serial number:	SN410029Multiplexer serial number:	ORYXHardware model number:	OX2-SRSoftware version number:	ORYX F/W v4,00 Oryx Data Collector v3.7.2.0data status	okinstallation	B3 Nyhavnadifferential loss correction	single-endedforward channel	channel 1reverse channel	N/Adate	2023/12/03time	02:52:30forward acquisition time	300,00reverse acquisition time	0,00gamma	499,1914k internal	0,3201k external	0,3201temperature offset calibration	1,0000default loss term (dB/km)	0,3820temperature slope calibration	1,0000multiplexer offset coefficient	1,0000multiplexer slope coefficient	1,0000fibre end	0,00T internal ref (°C)	13,31T ext. ref 1 (°C)	-1,66T ext. ref 2 (°C)	-1,68length (m)	temperature (°C)	Stokes	anti-Stokes-744,400	64,219	-0,215	-0,158
-743,385	800,000	0,066	0,206
-742,371	617,833	-0,149	-0,274
-741,356	800,000	0,134	0,286
-740,342	800,000	-0,079	-0,209
-739,327	-200,000	-0,032	0,316
-738,312	734,889	-0,147	-0,288
-737,298	336,320	-0,128	0,182
-736,283	203,048	-0,231	-0,260
-735,269	800,000	-0,083	0,238
-734,254	-73,390	-0,289	-0,076
-733,239	107,657	-0,203	0,175
-732,225	800,000	-0,099	-0,237
-731,210	68,447	0,041	0,030
-730,196	34,444	0,090	0,057
-729,181	-200,000	0,043	-0,145
-728,167	-77,558	-0,144	0,036
-727,152	0,589	0,030	0,015
-726,137	-108,681	-0,148	-0,023
-725,123	800,000	-0,070	-0,178
-724,108	-200,000	-0,004	-0,193
-723,094	-200,000	-0,000	-0,137
-722,079	-200,000	0,010	-0,093
-721,064	-200,000	-0,024	-0,172
-720,050	180,130	-0,107	-0,114
-719,035	800,000	0,060	-0,163
-718,021	800,000	-0,051	-0,131
-717,006	-200,000	-0,030	-0,106
-715,991	-200,000	-0,014	-0,071
-714,977	226,478	-0,051	-0,061
-713,962	-83,254	-0,043	0,010
-712,948	-115,889	0,281	0,038
-711,933	-200,000	-0,028	0,126
-710,918	800,000	-0,032	-0,083
-709,904	-1,872	-0,075	-0,038
-708,889	-96,672	-0,085	0,016
-707,875	774,022	-0,084	-0,167
-706,860	494,311	0,029	-0,049
-705,845	21,079	0,100	-0,059
-704,831	-200,000	0,003	0,011
-703,816	0,077	-0,010	-0,005
-702,802	800,000	-0,032	-0,091
-701,787	-31,612	-0,131	-0,053
-700,772	800,000	0,042	-0,087
-699,758	-37,078	-0,030	-0,012
-698,743	515,765	0,031	0,053
-697,729	-200,000	-0,035	0,193
-696,714	-52,818	-0,222	0,074
-695,699	18,530	-0,146	-0,084
-694,685	800,000	-0,003	-0,007
-693,670	666,689	-0,022	-0,042
-692,656	287,511	0,058	-0,076
-691,641	203,584	-0,027	0,030
-690,627	11,401	-0,055	0,030
-689,612	-113,809	-0,085	-0,012
-688,597	-42,668	-0,019	0,007
-687,583	-101,046	0,050	-0,009
-686,568	27,662	-0,116	-0,071
-685,554	224,190	-0,053	-0,063
-684,539	800,000	0,058	0,149
-683,524	-2,860	-0,130	-0,066
-682,510	11,186	0,056	-0,031
-681,495	344,247	-0,095	-0,136
-680,481	365,047	0,068	0,099
-679,466	-200,000	0,013	0,043
-678,451	-135,167	0,090	-0,008
-677,437	219,218	0,097	-0,112
-676,422	20,207	-0,163	0,095
-675,408	800,000	0,046	0,128
-674,393	-200,000	0,031	-0,270
-673,378	10,193	-0,120	-0,066
-672,364	-200,000	0,001	-0,090
-671,349	673,761	0,103	-0,195
-670,335	-200,000	-0,011	-0,042
-669,320	-200,000	-0,005	-0,061
-668,305	800,000	0,016	-0,049
-667,291	-200,000	-0,012	0,081
-666,276	800,000	0,035	-0,078
-665,262	-200,000	-0,001	-0,046
-664,247	-152,747	-0,010	-0,001
-663,232	-53,615	-0,054	0,018
-662,218	-54,735	0,089	0,029
-661,203	800,000	-0,024	0,054
-660,189	155,789	0,110	-0,110
-659,174	532,145	0,069	-0,118
-658,159	44,192	-0,177	-0,117
-657,145	-200,000	-0,015	-0,074
-656,130	-67,347	-0,155	-0,044
-655,116	507,806	-0,042	-0,071
-654,101	800,000	0,077	0,159
-653,086	-200,000	0,006	-0,033
-652,072	-200,000	0,025	0,182
-651,057	-79,886	-0,096	-0,023
-650,043	800,000	-0,027	0,063
-649,028	22,394	0,059	0,035
-648,014	800,000	-0,038	0,109
-646,999	-200,000	0,017	-0,088
-645,984	-33,003	0,111	0,045
-644,970	-200,000	-0,003	0,049
-643,955	150,458	0,051	-0,050
-642,941	800,000	-0,032	-0,078
-641,926	133,591	0,077	-0,072
-640,911	-76,369	0,077	-0,020
-639,897	-200,000	-0,026	0,115
-638,882	698,060	-0,032	-0,062
-637,868	194,437	-0,062	-0,068
-636,853	139,085	-0,028	-0,026
-635,838	373,566	-0,006	-0,009
-634,824	89,025	0,053	0,043
-633,809	800,000	-0,027	-0,054
-632,795	-118,038	0,234	-0,030
-631,780	0,603	-0,100	-0,052
-630,765	140,433	0,064	-0,062
-629,751	324,383	-0,096	-0,133
-628,736	583,794	0,088	-0,157
-627,722	216,064	-0,037	0,043
-626,707	800,000	0,022	0,045
-625,692	800,000	0,058	0,123
-624,678	-93,875	0,153	-0,030
-623,663	146,657	-0,036	-0,035
-622,649	371,353	0,002	-0,003
-621,634	-200,000	-0,045	-0,229
-620,619	790,830	-0,006	-0,012
-619,605	442,487	-0,048	-0,077
-618,590	-110,442	0,190	0,028
-617,576	-160,052	-0,083	-0,003
-616,561	43,725	-0,125	0,083
-615,546	-200,000	0,003	-0,050
-614,532	58,049	0,092	0,065
-613,517	683,514	-0,039	-0,074
-612,503	404,359	0,037	-0,056
-611,488	-200,000	-0,001	0,131
-610,474	361,196	0,078	-0,114
-609,459	47,244	0,104	-0,070
-608,444	261,952	0,039	-0,049
-607,430	272,817	-0,052	-0,066
-606,415	17,831	0,067	0,038
-605,401	-200,000	0,009	-0,045
-604,386	340,772	-0,022	-0,031
-603,371	-39,386	-0,074	0,028
-602,357	-109,221	-0,077	0,012
-601,342	-38,984	-0,065	0,025
-600,328	-125,020	-0,014	0,002
-599,313	800,000	-0,029	0,058
-598,298	-200,000	0,000	0,107
-597,284	-74,243	-0,090	-0,023
-596,269	76,819	0,050	0,038
-595,255	49,457	-0,071	-0,048
-594,240	362,277	0,088	-0,129
-593,225	-38,248	-0,241	0,092
-592,211	-99,747	-0,157	0,028
-591,196	101,154	-0,032	0,027
-590,182	-200,000	-0,066	0,000
-589,167	-200,000	0,007	0,031
-588,152	142,102	0,016	-0,015
-587,138	800,000	0,064	0,138
-586,123	311,951	-0,037	0,050
-585,109	55,538	0,096	-0,067
-584,094	800,000	0,031	-0,079
-583,079	-38,123	0,088	-0,033
-582,065	190,506	-0,017	0,019
-581,050	45,251	0,076	-0,050
-580,036	-93,874	-0,109	0,021
-579,021	150,219	-0,051	-0,050
-578,006	800,000	-0,028	0,064
-576,992	696,477	0,010	-0,019
-575,977	-200,000	-0,025	0,121
-574,963	517,868	0,128	0,218
-573,948	-67,291	-0,052	0,015
-572,934	-126,244	0,098	0,010
-571,919	-144,269	-0,080	-0,005
-570,904	19,116	-0,034	0,020
-569,890	-200,000	0,002	-0,194
-568,875	646,204	-0,097	-0,181
-567,861	301,440	-0,063	-0,084
-566,846	-11,041	0,130	-0,062
-565,831	-200,000	0,020	0,085
-564,817	284,989	-0,024	-0,031
-563,802	-200,000	0,011	-0,043
-562,788	-200,000	0,002	-0,096
-561,773	158,186	0,045	-0,045
-560,758	31,277	0,041	0,026
-559,744	-39,725	0,071	-0,027
-558,729	-200,000	-0,006	0,123
-557,715	-182,124	-0,147	0,002
-556,700	8,067	-0,044	-0,024
-555,685	-109,089	0,058	0,009
-554,671	-200,000	0,006	-0,023
-553,656	-87,605	0,074	-0,016
-552,642	-87,681	-0,106	0,023
-551,627	-37,608	0,039	0,015
-550,612	426,132	-0,031	-0,048
-549,598	440,274	-0,105	-0,167
-548,583	144,026	0,033	-0,032
-547,569	-38,671	0,090	-0,034
-546,554	488,172	0,046	0,076
-545,539	668,764	-0,030	0,057
-544,525	102,363	0,087	-0,073
-543,510	-166,397	0,011	0,000
-542,496	168,337	-0,129	-0,133
-541,481	243,547	-0,067	-0,081
-540,466	-200,000	0,001	-0,066
-539,452	-200,000	-0,039	-0,134
-538,437	-103,147	0,102	0,017
-537,423	-200,000	-0,020	0,084
-536,408	298,466	-0,003	-0,004
-535,393	-200,000	0,003	0,020
-534,379	800,000	0,059	-0,145
-533,364	-200,000	0,023	-0,151
-532,350	-200,000	0,030	0,141
-531,335	112,129	-0,114	0,099
-530,321	-66,244	0,078	-0,022
-529,306	800,000	0,046	0,094
-528,291	800,000	0,032	0,089
-527,277	107,468	-0,115	0,098
-526,262	-33,412	0,175	0,069
-525,248	150,710	0,095	-0,093
-524,233	-200,000	0,010	0,084
-523,218	-200,000	0,028	0,101
-522,204	-200,000	-0,048	0,000
-521,189	800,000	-0,013	0,035
-520,175	188,194	-0,044	-0,048
-519,160	-200,000	-0,012	-0,050
-518,145	69,389	-0,098	0,073
-517,131	315,982	-0,035	0,048
-516,116	13,438	-0,060	-0,033
-515,102	800,000	0,021	-0,063
-514,087	230,660	0,068	-0,081
-513,072	702,840	-0,003	0,007
-512,058	800,000	-0,024	0,069
-511,043	51,963	-0,040	-0,028
-510,029	-128,900	0,066	0,007
-509,014	369,348	0,025	0,036
-507,999	-2,108	0,067	-0,034
-506,985	638,302	-0,050	0,092
-505,970	-22,577	0,090	-0,039
-504,956	-60,343	0,107	0,033
-503,941	-94,249	0,059	-0,012
-502,926	-200,000	-0,029	0,206
-501,912	162,519	-0,048	-0,049
-500,897	91,694	-0,029	0,024
-499,883	162,599	0,071	-0,072
-498,868	160,565	-0,139	-0,140
-497,853	250,742	-0,058	-0,071
-496,839	154,813	-0,057	0,056
-495,824	-106,637	0,103	0,016
-494,810	800,000	0,032	0,088
-493,795	2,040	0,106	0,055
-492,781	-35,201	-0,067	-0,026
-491,766	559,108	0,049	-0,086
-490,751	-153,409	-0,134	-0,007
-489,737	-200,000	-0,012	-0,134
-488,722	-137,246	0,124	-0,010
-487,708	-53,467	-0,051	-0,017
-486,693	-156,583	0,126	0,006
-485,678	558,672	-0,037	-0,065
-484,664	-124,540	-0,051	0,006
-483,649	800,000	-0,031	-0,094
-482,635	800,000	0,017	0,041
-481,620	-106,315	0,205	0,033
-480,605	183,845	-0,083	-0,089
-479,591	117,241	0,044	-0,039
-478,576	39,393	-0,110	0,071
-477,562	-200,000	-0,019	-0,072
-476,547	584,783	-0,038	0,067
-475,532	-81,449	0,052	-0,012
-474,518	-33,143	0,071	0,028
-473,503	172,456	0,061	-0,063
-472,489	361,875	0,046	-0,066
-471,474	121,452	-0,075	0,067
-470,459	-91,296	-0,085	0,017
-469,445	259,699	-0,034	0,042
-468,430	-200,000	0,005	0,040
-467,416	-106,683	0,110	0,017
-466,401	-200,000	-0,006	0,142
-465,386	-200,000	0,014	0,060
-464,372	-76,208	-0,055	-0,014
-463,357	702,820	-0,040	0,076
-462,343	800,000	-0,047	-0,141
-461,328	65,360	0,145	-0,105
-460,313	235,872	0,081	-0,097
-459,299	103,956	0,119	0,100
-458,284	-130,964	0,085	-0,008
-457,270	35,897	0,073	-0,046
-456,255	-56,222	-0,134	-0,043
-455,241	81,138	-0,062	-0,048
-454,226	-58,179	-0,042	0,013
-453,211	354,730	-0,089	-0,128
-452,197	800,000	-0,010	-0,027
-451,182	800,000	-0,044	0,095
-450,168	71,634	-0,100	0,075
-449,153	-200,000	-0,006	-0,034
-448,138	335,073	0,032	-0,045
-447,124	-200,000	0,016	-0,114
-446,109	566,759	0,073	0,128
-445,095	-200,000	0,022	0,124
-444,080	-200,000	0,015	0,111
-443,065	-200,000	-0,006	0,176
-442,051	-200,000	0,002	-0,052
-441,036	800,000	0,038	-0,107
-440,022	-83,889	-0,069	0,016
-439,007	-68,241	-0,071	-0,020
-437,992	-4,853	0,119	0,059
-436,978	91,574	0,148	0,120
-435,963	85,362	0,080	0,063
-434,949	-157,522	-0,069	-0,003
-433,934	-21,031	0,110	-0,048
-432,919	-200,000	-0,005	0,073
-431,905	102,001	-0,067	0,057
-430,890	-46,852	-0,097	0,034
-429,876	-24,839	0,116	0,049
-428,861	-48,544	0,064	-0,022
-427,846	-103,449	-0,104	0,017
-426,832	800,000	-0,032	0,086
-425,817	800,000	-0,042	-0,095
-424,803	-200,000	-0,025	-0,098
-423,788	29,942	0,145	0,089
-422,773	800,000	-0,044	0,114
-421,759	215,612	-0,010	0,011
-420,744	-175,600	0,130	-0,002
-419,730	157,044	-0,052	-0,052
-418,715	-16,974	0,067	0,030
-417,701	-91,677	-0,176	-0,036
-416,686	75,363	0,046	-0,035
-415,671	-200,000	0,013	-0,093
-414,657	435,777	0,047	0,074
-413,642	-200,000	0,023	0,201
-412,628	-200,000	-0,000	-0,121
-411,613	30,974	-0,140	-0,086
-410,598	800,000	-0,055	0,169
-409,584	-200,000	-0,013	-0,051
-408,569	800,000	-0,016	0,038
-407,555	-91,529	0,106	0,021
-406,540	-85,715	-0,061	-0,013
-405,525	-200,000	0,029	-0,215
-404,511	31,889	-0,092	-0,057
-403,496	628,507	-0,094	-0,172
-402,482	-114,586	-0,016	0,002
-401,467	264,820	-0,050	0,063
-400,452	21,006	0,064	0,037
-399,438	0,182	-0,091	0,047
-398,423	-43,266	-0,153	0,055
-397,409	-127,963	-0,120	0,012
-396,394	134,560	-0,017	0,016
-395,379	-99,304	0,110	-0,020
-394,365	-45,300	0,044	-0,016
-393,350	446,501	0,039	0,062
-392,336	30,363	-0,070	-0,043
-391,321	800,000	0,040	-0,094
-390,306	331,188	-0,041	0,057
-389,292	-200,000	0,007	-0,068
-388,277	-200,000	-0,011	0,068
-387,263	-78,333	-0,217	-0,053
-386,248	795,556	-0,075	0,148
-385,233	135,247	-0,048	0,045
-384,219	-76,166	0,003	0,001
-383,204	800,000	0,044	-0,101
-382,190	800,000	0,027	-0,065
-381,175	56,566	0,108	-0,075
-380,160	-41,848	0,188	0,069
-379,146	-162,028	0,164	-0,006
-378,131	-200,000	-0,006	0,115
-377,117	214,547	0,019	0,021
-376,102	-80,932	-0,065	-0,015
-375,088	507,495	0,056	0,093
-374,073	208,158	0,051	0,057
-373,058	-200,000	-0,006	-0,090
-372,044	800,000	0,014	0,044
-371,029	-200,000	0,009	0,140
-370,015	-13,303	-0,044	-0,021
-369,000	328,501	-0,060	-0,082
-367,985	-66,691	-0,046	-0,013
-366,971	118,071	0,018	0,016
-365,956	-200,000	-0,001	0,083
-364,942	-28,297	0,140	0,058
-363,927	569,161	0,015	0,026
-362,912	139,667	0,116	0,110
-361,898	12,315	-0,030	0,017
-360,883	-82,585	-0,055	0,013
-359,869	-24,135	-0,006	-0,002
-358,854	46,869	-0,120	-0,080
-357,839	27,844	0,107	-0,064
-356,825	800,000	0,030	0,067
-355,810	800,000	-0,053	0,125
-354,796	-200,000	0,013	0,111
-353,781	-200,000	0,016	-0,182
-352,766	-200,000	-0,041	-0,135
-351,752	-200,000	0,017	-0,286
-350,737	-200,000	-0,008	-0,029
-349,723	24,030	-0,090	-0,053
-348,708	800,000	-0,006	-0,012
-347,693	79,889	0,059	0,046
-346,679	-7,489	0,095	-0,046
-345,664	24,397	0,056	0,033
-344,650	-200,000	0,029	0,117
-343,635	374,412	-0,052	0,076
-342,620	110,516	0,139	0,120
-341,606	800,000	0,044	0,122
-340,591	-200,000	-0,033	0,172
-339,577	226,727	-0,015	-0,017
-338,562	800,000	-0,025	-0,053
-337,548	-147,844	0,035	-0,002
-336,533	28,026	0,072	0,044
-335,518	-198,240	0,158	-0,001
-334,504	800,000	0,042	0,084
-333,489	492,740	0,016	0,027
-332,475	415,519	0,096	-0,148
-331,460	800,000	-0,084	-0,193
-330,445	406,462	-0,037	-0,056
-329,431	-61,724	0,092	0,027
-328,416	79,619	-0,073	0,056
-327,402	-200,000	0,003	-0,094
-326,387	-200,000	0,013	0,143
-325,372	240,738	-0,047	-0,057
-324,358	-20,506	-0,086	-0,038
-323,343	-45,918	0,120	-0,042
-322,329	45,433	-0,052	0,034
-321,314	663,865	-0,036	0,066
-320,299	628,373	0,043	0,079
-319,285	-53,303	-0,191	0,062
-318,270	-200,000	-0,018	-0,078
-317,256	-200,000	-0,034	-0,125
-316,241	-170,552	-0,036	0,001
-315,226	288,326	0,063	-0,081
-314,212	303,588	-0,007	0,009
-313,197	53,950	0,014	0,010
-312,183	45,161	0,059	-0,039
-311,168	735,236	0,012	-0,024
-310,153	-200,000	-0,018	0,106
-309,139	-45,131	-0,145	0,051
-308,124	800,000	-0,016	0,038
-307,110	-144,774	0,070	0,005
-306,095	-200,000	-0,012	0,052
-305,080	800,000	-0,010	-0,021
-304,066	-63,609	0,084	0,025
-303,051	21,259	-0,068	-0,040
-302,037	-200,000	-0,016	-0,194
-301,022	523,548	-0,023	-0,039
-300,008	320,599	-0,039	-0,054
-298,993	54,801	0,143	0,099
-297,978	800,000	0,035	0,089
-296,964	72,138	0,010	0,007
-295,949	-189,689	-0,094	-0,001
-294,935	32,661	0,019	0,012
-293,920	114,765	0,079	0,069
-292,905	201,228	0,008	-0,009
-291,891	-10,137	-0,034	0,016
-290,876	132,410	-0,074	-0,068
-289,862	-200,000	-0,029	-0,110
-288,847	800,000	0,072	-0,159
-287,832	55,390	0,088	-0,061
-286,818	178,324	-0,035	0,037
-285,803	87,140	-0,040	-0,032
-284,789	-20,439	0,167	0,073
-283,774	-200,000	0,005	0,127
-282,759	79,040	-0,106	0,081
-281,745	-200,000	-0,024	0,110
-280,730	-200,000	-0,007	-0,157
-279,716	-50,847	-0,123	-0,041
-278,701	25,307	0,039	-0,023
-277,686	126,208	0,076	-0,069
-276,672	-200,000	0,017	-0,071
-275,657	211,188	0,098	0,110
-274,643	-73,284	-0,100	-0,026
-273,628	-200,000	0,039	-0,230
-272,613	-117,407	0,024	-0,003
-271,599	188,015	0,056	-0,059
-270,584	-70,041	0,098	-0,026
-269,570	176,191	0,034	-0,035
-268,555	-200,000	0,003	0,072
-267,540	-50,469	-0,040	-0,013
-266,526	-102,388	-0,084	0,014
-265,511	800,000	-0,035	-0,074
-264,497	119,092	0,045	0,040
-263,482	-200,000	-0,003	-0,013
-262,467	-55,900	0,054	0,017
-261,453	800,000	-0,005	-0,014
-260,438	-44,024	-0,086	-0,031
-259,424	202,189	-0,090	0,099
-258,409	800,000	-0,021	0,049
-257,395	369,310	0,063	-0,092
-256,380	220,210	0,063	0,072
-255,365	800,000	0,034	0,098
-254,351	377,468	0,109	0,160
-253,336	249,839	0,055	-0,066
-252,322	-157,564	-0,186	0,008
-251,307	-81,796	-0,127	0,029
-250,292	-71,355	-0,068	0,018
-249,278	-149,102	-0,056	0,003
-248,263	213,545	-0,035	0,039
-247,249	82,420	0,033	0,026
-246,234	-200,000	0,032	-0,167
-245,219	-200,000	-0,033	-0,145
-244,205	-200,000	-0,001	-0,094
-243,190	393,643	-0,021	-0,032
-242,176	347,263	0,128	0,180
-241,161	-54,297	0,074	0,024
-240,146	-99,576	-0,064	-0,011
-239,132	611,000	0,043	-0,077
-238,117	16,388	-0,047	0,026
-237,103	-57,605	-0,065	-0,020
-236,088	-3,505	-0,067	-0,033
-235,073	800,000	0,013	0,034
-234,059	126,809	0,134	0,121
-233,044	-123,197	0,111	0,013
-232,030	-146,092	-0,251	0,016
-231,015	52,756	0,081	-0,055
-230,000	-200,000	0,002	-0,011
-228,986	-61,876	-0,037	-0,011
-227,971	800,000	-0,081	0,163
-226,957	183,242	0,038	-0,040
-225,942	800,000	-0,071	0,186
-224,927	68,957	-0,023	0,017
-223,913	800,000	-0,043	-0,094
-222,898	-36,197	-0,041	0,016
-221,884	800,000	-0,022	0,057
-220,869	120,193	0,047	0,041
-219,855	800,000	0,043	0,108
-218,840	-66,620	-0,011	0,003
-217,825	-200,000	0,002	-0,020
-216,811	-200,000	0,017	-0,102
-215,796	800,000	-0,017	0,045
-214,782	-12,836	-0,114	0,053
-213,767	120,577	0,125	0,111
-212,752	280,325	-0,045	0,058
-211,738	800,000	0,040	0,108
-210,723	122,348	0,080	0,071
-209,709	222,888	-0,104	0,120
-208,694	-56,792	-0,090	0,028
-207,679	-141,732	0,037	-0,003
-206,665	3,559	-0,180	-0,093
-205,650	256,127	-0,059	-0,073
-204,636	196,136	-0,085	0,092
-203,621	-200,000	-0,009	0,162
-202,606	-175,959	-0,070	-0,001
-201,592	-94,077	-0,145	-0,028
-200,577	156,872	0,000	-0,000
-199,563	-200,000	-0,003	-0,042
-198,548	191,737	-0,055	0,060
-197,533	-20,378	0,098	0,043
-196,519	-54,330	-0,030	-0,010
-195,504	-15,028	0,019	0,009
-194,490	396,892	-0,040	0,060
-193,475	120,445	-0,096	-0,085
-192,460	-45,796	-0,046	-0,016
-191,446	97,761	0,172	-0,141
-190,431	-200,000	-0,029	0,098
-189,417	-144,011	0,180	-0,012
-188,402	116,842	-0,118	0,103
-187,387	-106,572	-0,049	-0,008
-186,373	28,470	-0,092	-0,055
-185,358	-200,000	0,026	-0,082
-184,344	800,000	0,049	0,128
-183,329	-200,000	-0,004	0,051
-182,315	-87,186	0,052	-0,011
-181,300	-200,000	-0,014	-0,130
-180,285	-200,000	-0,007	0,075
-179,271	-82,447	-0,040	-0,009
-178,256	-66,218	0,046	0,013
-177,242	-145,651	0,010	-0,001
-176,227	-85,513	0,121	0,027
-175,212	-200,000	0,007	-0,068
-174,198	-200,000	0,006	-0,124
-173,183	-200,000	0,023	-0,106
-172,169	27,117	-0,080	-0,048
-171,154	-33,893	-0,093	-0,036
-170,139	14,055	0,073	-0,040
-169,125	106,725	0,047	0,040
-168,110	29,390	0,095	0,058
-167,096	-112,859	-0,169	-0,024
-166,081	-200,000	0,028	-0,231
-165,066	-46,418	-0,092	0,032
-164,052	-53,429	0,070	0,023
-163,037	-200,000	0,017	0,153
-162,023	-200,000	-0,014	0,092
-161,008	259,472	-0,107	0,132
-159,993	37,576	0,072	-0,045
-158,979	294,840	-0,059	-0,077
-157,964	-49,919	-0,090	0,030
-156,950	2,590	-0,018	0,009
-155,935	800,000	0,044	0,099
-154,920	-36,697	0,017	-0,007
-153,906	35,036	0,033	-0,021
-152,891	-170,921	0,022	-0,001
-151,877	75,108	-0,053	-0,040
-150,862	-136,207	-0,116	-0,009
-149,847	142,744	-0,078	-0,074
-148,833	82,028	-0,064	0,049
-147,818	140,115	-0,031	0,029
-146,804	800,000	0,054	0,120
-145,789	-200,000	-0,029	0,191
-144,775	633,280	-0,093	-0,168
-143,760	800,000	0,021	-0,059
-142,745	54,544	-0,178	-0,121
-141,731	-200,000	0,042	-0,159
-140,716	312,903	0,054	0,072
-139,702	37,193	0,069	-0,043
-138,687	22,163	0,189	-0,109
-137,672	279,711	-0,023	0,029
-136,658	800,000	-0,046	-0,115
-135,643	131,682	-0,070	-0,064
-134,629	800,000	0,044	0,121
-133,614	-65,916	0,149	-0,042
-132,599	320,923	-0,057	0,077
-131,585	-109,112	-0,122	-0,018
-130,570	-200,000	-0,009	-0,092
-129,556	-83,683	-0,020	0,005
-128,541	800,000	-0,050	-0,122
-127,526	7,940	0,167	0,088
-126,512	-78,001	-0,103	0,025
-125,497	169,125	0,063	0,063
-124,483	594,557	0,070	0,124
-123,468	-9,104	-0,038	0,018
-122,453	375,094	-0,077	-0,111
-121,439	-200,000	0,024	0,078
-120,424	800,000	0,030	0,091
-119,410	-200,000	0,005	-0,066
-118,395	235,352	0,038	-0,044
-117,380	-12,285	0,093	-0,043
-116,366	136,111	0,076	-0,070
-115,351	497,219	0,089	-0,146
-114,337	-117,263	-0,080	-0,010
-113,322	330,604	0,029	-0,040
-112,307	-112,378	0,138	0,019
-111,293	213,508	-0,094	-0,105
-110,278	-200,000	0,009	-0,058
-109,264	800,000	0,029	-0,085
-108,249	-94,168	-0,041	-0,008
-107,234	-200,000	0,025	-0,089
-106,220	43,360	0,107	0,069
-105,205	-200,000	-0,011	0,048
-104,191	-200,000	0,006	0,070
-103,176	-58,319	0,239	-0,073
-102,162	-55,999	0,033	-0,010
-101,147	234,476	-0,037	-0,044
-100,132	1,687	0,099	0,050
-99,118	-138,288	-0,094	-0,007
-98,103	-200,000	0,020	0,076
-97,089	-200,000	-0,000	0,187
-96,074	-38,736	-0,051	0,019
-95,059	-200,000	-0,012	-0,045
-94,045	90,029	0,071	-0,056
-93,030	-2,207	-0,093	0,046
-92,016	39,965	-0,074	-0,047
-91,001	218,379	0,081	-0,091
-89,986	-81,130	0,051	-0,012
-88,972	184,907	0,041	-0,043
-87,957	154,801	-0,021	-0,020
-86,943	-200,000	-0,002	-0,044
-85,928	216,216	-0,051	0,057
-84,913	61,337	-0,085	-0,060
-83,899	-200,000	-0,005	-0,022
-82,884	800,000	-0,090	0,180
-81,870	71,947	0,033	-0,024
-80,855	416,724	-0,070	-0,106
-79,840	627,808	0,135	-0,243
-78,826	-96,925	-0,052	-0,010
-77,811	219,255	-0,011	0,012
-76,797	46,457	-0,107	-0,070
-75,782	-60,190	0,169	0,051
-74,767	-200,000	0,010	-0,107
-73,753	257,224	0,077	0,094
-72,738	-200,000	-0,015	-0,081
-71,724	-69,254	-0,161	-0,044
-70,709	205,364	0,046	0,050
-69,694	583,133	0,044	0,076
-68,680	800,000	-0,092	0,187
-67,665	98,561	0,042	0,035
-66,651	-200,000	-0,008	0,178
-65,636	-200,000	-0,017	0,150
-64,622	142,924	-0,097	-0,091
-63,607	366,261	-0,036	-0,051
-62,592	33,838	-0,055	0,034
-61,578	-112,035	-0,091	-0,013
-60,563	723,629	0,037	0,070
-59,549	-62,507	0,108	0,032
-58,534	-58,763	-1,732	-0,528
-57,519	357,575	-1,471	-2,083
-56,505	-200,000	-0,553	-4,537
-55,490	227,990	0,910	1,051
-54,476	800,000	4,925	11,323
-53,461	-200,000	19,087	319,477
-52,446	-200,000	740,393	2333,582
-51,432	573,433	1655,466	2869,194
-50,417	78,274	1670,912	1261,689
-49,403	21,285	1543,752	885,430
-48,388	15,146	1466,422	811,223
-47,373	17,963	1456,426	819,274
-46,359	16,692	1446,396	807,502
-45,344	13,432	1441,928	789,357
-44,330	13,326	1439,940	787,730
-43,315	13,381	1437,925	786,859
-42,300	13,428	1436,335	786,183
-41,286	13,410	1435,088	785,384
-40,271	13,341	1433,827	784,335
-39,257	13,325	1432,623	783,570
-38,242	13,417	1431,144	783,167
-37,227	13,412	1429,991	782,483
-36,213	13,420	1428,715	781,791
-35,198	13,395	1427,403	780,920
-34,184	13,431	1426,612	780,630
-33,169	13,381	1425,354	779,673
-32,154	13,387	1424,348	779,118
-31,140	13,418	1422,920	778,452
-30,125	13,479	1421,601	777,993
-29,111	13,421	1420,649	777,164
-28,096	13,443	1419,488	776,604
-27,082	13,346	1418,596	775,624
-26,067	13,309	1417,364	774,749
-25,052	13,336	1416,241	774,229
-24,038	13,305	1415,337	773,561
-23,023	13,339	1414,451	773,202
-22,009	13,349	1413,317	772,602
-20,994	13,277	1412,519	771,795
-19,979	13,294	1411,650	771,368
-18,965	13,290	1410,587	770,738
-17,950	13,323	1409,556	770,299
-16,936	13,328	1408,666	769,806
-15,921	13,262	1407,432	768,792
-14,906	13,223	1406,682	768,172
-13,892	13,306	1405,703	767,994
-12,877	13,292	1404,975	767,501
-11,863	13,225	1404,104	766,678
-10,848	13,250	1403,175	766,259
-9,833	13,203	1402,384	765,576
-8,819	13,153	1401,565	764,869
-7,804	13,120	1400,745	764,238
-6,790	13,161	1399,583	763,764
-5,775	13,138	1398,530	763,051
-4,760	13,169	1397,401	762,548
-3,746	13,210	1396,424	762,174
-2,731	13,178	1395,664	761,582
-1,717	13,114	1394,900	760,839
-0,702	13,111	1393,118	759,824
0,313	16,944	1310,016	732,258
1,327	33,175	703,897	430,979
2,342	51,239	123,230	82,610
3,356	1,116	16,741	8,471
4,371	0,177	3,080	1,549
5,386	-82,238	0,569	0,130
6,400	-200,000	-0,007	0,199
7,415	-47,134	-0,236	-0,081
8,429	-93,207	-0,391	-0,076
9,444	8,968	-0,345	-0,184
10,459	-66,882	-0,302	-0,084
11,473	-29,995	-0,326	-0,131
12,488	45,662	-0,277	-0,181
13,502	63,801	-0,318	-0,225
14,517	100,754	-0,264	-0,217
15,531	109,228	-0,401	-0,339
16,546	133,463	-0,347	-0,318
17,561	14,864	-0,387	-0,213
18,575	56,208	-0,129	-0,088
19,590	216,930	-0,243	-0,273
20,604	-125,506	-0,322	0,034
21,619	-14,131	-0,528	-0,240
22,634	104,507	-0,350	-0,291
23,648	46,047	-0,341	-0,223
24,663	10,139	-0,428	-0,229
25,677	97,803	-0,293	-0,238
26,692	119,418	-0,432	-0,378
27,707	46,506	-0,333	-0,218
28,721	52,206	-0,362	-0,243
29,736	-44,612	-0,434	-0,152
30,750	146,127	-0,309	-0,293
31,765	-1,991	-0,362	-0,179
32,780	48,768	-0,335	-0,221
33,794	81,993	-0,283	-0,216
34,809	202,153	-0,295	-0,322
35,823	6,018	-0,341	-0,178
36,838	111,223	-0,352	-0,299
37,853	97,752	-0,429	-0,348
38,867	23,862	-0,579	-0,336
39,882	65,752	-0,480	-0,343
40,896	75,139	-0,347	-0,258
41,911	16,236	-0,354	-0,196
42,926	124,954	-0,313	-0,278
43,940	4,044	-0,406	-0,209
44,955	76,723	-0,309	-0,231
45,969	-9,586	-0,385	-0,180
46,984	122,873	-0,383	-0,338
47,999	229,448	-0,257	-0,296
49,013	177,575	-0,259	-0,266
50,028	84,446	-0,281	-0,216
51,042	93,170	-0,282	-0,224
52,057	115,195	-0,431	-0,371
53,071	60,579	-0,348	-0,242
54,086	69,623	-0,387	-0,281
55,101	-22,908	-0,367	-0,155
56,115	45,955	-0,265	-0,173
57,130	131,364	-0,408	-0,369
58,144	117,831	-0,500	-0,433
59,159	33,039	-0,429	-0,261
60,174	119,935	-0,230	-0,201
61,188	81,565	-0,465	-0,354
62,203	51,890	-0,314	-0,210
63,217	4,663	-0,383	-0,197
64,232	206,509	-0,368	-0,403
65,247	444,801	-0,207	-0,321
66,261	211,297	-0,254	-0,282
67,276	57,703	-0,337	-0,231
68,290	1,420	-0,391	-0,197
69,305	103,420	-0,300	-0,247
70,320	335,834	-0,153	-0,209
71,334	8,315	-0,345	-0,182
72,349	-24,256	-0,269	-0,112
73,363	1,502	-0,330	-0,166
74,378	83,090	-0,387	-0,295
75,393	99,905	-0,373	-0,304
76,407	-56,671	-0,289	-0,090
77,422	28,497	-0,241	-0,143
78,436	40,450	-0,337	-0,213
79,451	-44,560	-0,461	-0,161
80,466	-62,141	-0,244	-0,071
81,480	35,163	-0,336	-0,207
82,495	-33,658	-0,246	-0,095
83,509	3,206	-0,256	-0,130
84,524	109,271	-0,222	-0,186
85,539	7,773	-0,230	-0,121
86,553	-78,300	-0,329	-0,079
87,568	-84,780	-0,250	-0,055
88,582	-9,472	-0,213	-0,100
89,597	3,210	-0,386	-0,196
90,611	131,815	-0,249	-0,225
91,626	24,090	-0,240	-0,139
92,641	-12,715	-0,342	-0,156
93,655	86,627	-0,165	-0,127
94,670	34,312	-0,279	-0,170
95,684	75,616	-0,283	-0,210
96,699	166,639	-0,213	-0,212
97,714	57,391	-0,197	-0,135
98,728	679,838	-0,103	-0,190
99,743	-20,099	-0,238	-0,102
100,757	80,379	-0,204	-0,154
101,772	-25,549	-0,229	-0,095
102,787	127,544	-0,151	-0,134
103,801	142,445	-0,305	-0,284
104,816	315,627	-0,201	-0,266
105,830	-107,595	-0,217	-0,033
106,845	-4,965	-0,262	-0,126
107,860	6,709	-0,324	-0,169
108,874	123,341	-0,226	-0,198
109,889	35,023	-0,347	-0,212
110,903	36,044	-0,200	-0,123
111,918	745,142	-0,113	-0,213
112,933	528,914	-0,139	-0,230
113,947	110,713	-0,212	-0,179
114,962	-34,334	-0,204	-0,078
115,976	86,170	-0,237	-0,183
116,991	19,548	-0,311	-0,175
118,006	28,640	-0,316	-0,187
119,020	55,057	-0,149	-0,100
120,035	-8,930	-0,285	-0,133
121,049	-51,166	-0,251	-0,082
122,064	194,951	-0,132	-0,141
123,079	106,696	-0,242	-0,201
124,093	88,563	-0,232	-0,181
125,108	102,742	-0,172	-0,141
126,122	323,988	-0,225	-0,301
127,137	64,511	-0,266	-0,188
128,151	-59,019	-0,281	-0,084
129,166	157,963	-0,289	-0,280
130,181	23,849	-0,312	-0,180
131,195	64,872	-0,246	-0,173
132,210	-12,366	-0,209	-0,095
133,224	122,365	-0,258	-0,226
134,239	11,701	-0,278	-0,149
135,254	73,839	-0,246	-0,180
136,268	91,959	-0,175	-0,137
137,283	14,405	-0,311	-0,169
138,297	61,301	-0,279	-0,193
139,312	44,084	-0,214	-0,137
140,327	53,756	-0,389	-0,260
141,341	-5,082	-0,210	-0,101
142,356	735,056	-0,137	-0,258
143,370	546,652	-0,127	-0,213
144,385	102,308	-0,236	-0,193
145,400	25,080	-0,286	-0,166
146,414	97,347	-0,357	-0,286
147,429	-87,333	-0,113	-0,024
148,443	38,602	-0,296	-0,184
149,458	-65,033	-0,234	-0,066
150,473	666,298	-0,132	-0,239
151,487	23,088	-0,262	-0,150
152,502	135,832	-0,325	-0,296
153,516	156,059	-0,203	-0,196
154,531	82,399	-0,348	-0,264
155,546	288,382	-0,191	-0,242
156,560	263,592	-0,161	-0,195
157,575	-80,547	-0,111	-0,026
158,589	-34,390	-0,195	-0,074
159,604	-115,532	-0,280	-0,036
160,619	71,222	-0,221	-0,160
161,633	52,092	-0,286	-0,190
162,648	-11,441	-0,214	-0,098
163,662	91,170	-0,185	-0,145
164,677	507,734	-0,142	-0,231
165,692	-30,229	-0,234	-0,092
166,706	188,892	-0,254	-0,265
167,721	361,132	-0,147	-0,205
168,735	96,342	-0,271	-0,216
169,750	-23,082	-0,254	-0,106
170,764	114,389	-0,256	-0,217
171,779	-200,000	-0,037	-0,148
172,794	605,035	-0,075	-0,130
173,808	392,260	-0,109	-0,158
174,823	-58,301	-0,333	-0,100
175,837	59,250	-0,284	-0,194
176,852	-15,571	-0,226	-0,100
177,867	40,901	-0,289	-0,182
178,881	365,709	-0,134	-0,188
179,896	176,402	-0,196	-0,198
180,910	-200,000	-0,047	-0,194
181,925	-34,842	-0,217	-0,082
182,940	105,768	-0,303	-0,249
183,954	-125,528	-0,366	-0,038
184,969	-4,977	-0,224	-0,107
185,983	-112,926	-0,299	-0,041
186,998	-24,329	-0,199	-0,082
188,013	82,369	-0,201	-0,152
189,027	-32,233	-0,238	-0,092
190,042	100,715	-0,235	-0,190
191,056	-50,515	-0,242	-0,079
192,071	-200,000	0,039	-0,140
193,086	97,130	-0,169	-0,135
194,100	-27,543	-0,207	-0,083
195,115	220,119	-0,240	-0,268
196,129	253,308	-0,221	-0,263
197,144	107,997	-0,247	-0,205
198,159	-47,729	-0,137	-0,046
199,173	50,879	-0,268	-0,176
200,188	319,013	-0,165	-0,217
201,202	2,805	-0,115	-0,058
202,217	-63,954	-0,281	-0,079
203,232	26,823	-0,255	-0,148
204,246	51,261	-0,370	-0,244
205,261	121,829	-0,262	-0,227
206,275	49,249	-0,241	-0,157
207,290	137,994	-0,154	-0,141
208,304	-200,000	-0,092	-0,358
209,319	291,093	-0,208	-0,263
210,334	188,960	-0,118	-0,122
211,348	211,289	-0,150	-0,164
212,363	73,412	-0,194	-0,141
213,377	119,132	-0,134	-0,115
214,392	68,768	-0,243	-0,173
215,407	137,831	-0,189	-0,172
216,421	-4,937	-0,184	-0,088
217,436	-33,202	-0,250	-0,096
218,450	26,070	-0,168	-0,097
219,465	-150,448	-0,272	-0,014
220,480	303,483	-0,120	-0,155
221,494	99,915	-0,175	-0,140
222,509	800,000	-0,068	-0,134
223,523	-200,000	-0,062	-0,257
224,538	211,709	-0,216	-0,236
225,553	111,438	-0,125	-0,105
226,567	45,652	-0,213	-0,136
227,582	30,227	-0,255	-0,150
228,596	299,862	-0,181	-0,232
229,611	-4,217	-0,243	-0,116
230,626	-9,082	-0,141	-0,065
231,640	1,357	-0,138	-0,069
232,655	360,843	-0,219	-0,305
233,669	203,738	-0,184	-0,198
234,684	-119,526	-0,145	-0,017
235,699	266,062	-0,099	-0,120
236,713	173,774	-0,124	-0,124
237,728	464,436	-0,135	-0,211
238,742	343,275	-0,031	-0,042
239,757	-200,000	-0,190	0,001
240,772	143,960	-0,188	-0,174
241,786	110,606	-0,218	-0,182
242,801	463,840	-0,100	-0,155
243,815	-3,704	-0,182	-0,087
244,830	35,500	-0,263	-0,160
245,844	-126,178	-0,257	-0,026
246,859	800,000	-0,073	-0,208
247,874	-56,536	-0,241	-0,074
248,888	-8,298	-0,247	-0,115
249,903	32,556	-0,173	-0,104
250,917	6,731	-0,149	-0,076
251,932	800,000	-0,096	-0,218
252,947	631,168	-0,136	-0,239
253,961	3,823	-0,299	-0,151
254,976	-176,124	-0,206	-0,004
255,990	105,813	-0,016	-0,013
257,005	-200,000	-0,051	-0,233
258,020	12,050	-0,264	-0,140
259,034	265,456	-0,082	-0,099
260,049	49,384	-0,139	-0,091
261,063	-16,625	-0,137	-0,060
262,078	157,844	-0,190	-0,182
263,093	474,587	-0,194	-0,304
264,107	86,950	-0,177	-0,135
265,122	119,435	-0,100	-0,086
266,136	184,870	-0,151	-0,155
267,151	-73,873	-0,184	-0,046
268,166	96,954	-0,228	-0,181
269,180	-95,669	-0,118	-0,022
270,195	158,242	-0,233	-0,223
271,209	-103,851	-0,073	-0,012
272,224	152,532	-0,216	-0,204
273,239	-191,314	-0,191	0,001
274,253	55,880	-0,252	-0,169
275,268	-25,830	-0,162	-0,066
276,282	22,970	-0,120	-0,068
277,297	106,049	-0,217	-0,178
278,312	89,499	-0,144	-0,111
279,326	-173,293	-0,095	0,002
280,341	254,751	-0,213	-0,252
281,355	208,883	-0,202	-0,219
282,370	800,000	-0,104	-0,220
283,384	128,676	-0,183	-0,161
284,399	93,442	-0,152	-0,119
285,414	93,350	-0,163	-0,127
286,428	-173,141	-0,162	0,003
287,443	-75,437	-0,181	-0,044
288,457	800,000	-0,068	-0,195
289,472	359,236	-0,188	-0,260
290,487	-78,795	-0,226	-0,053
291,501	-98,486	-0,237	-0,041
292,516	155,721	-0,211	-0,200
293,530	38,516	-0,213	-0,130
294,545	-99,224	-0,143	0,025
295,560	-66,104	-0,268	-0,073
296,574	-86,849	-0,177	-0,037
297,589	57,408	-0,154	-0,104
298,603	295,343	-0,203	-0,257
299,618	153,876	-0,168	-0,159
300,633	-94,871	-0,146	-0,027
301,647	96,609	-0,248	-0,195
302,662	-200,000	-0,025	-0,094
303,676	70,515	-0,123	-0,088
304,691	-95,160	-0,161	-0,030
305,706	15,503	-0,173	-0,093
306,720	33,425	-0,231	-0,138
307,735	-200,000	-0,044	-0,228
308,749	-39,643	-0,232	-0,083
309,764	30,048	-0,123	-0,072
310,779	-117,624	-0,146	-0,018
311,793	-200,000	0,018	-0,096
312,808	-20,214	-0,198	-0,084
313,822	474,581	-0,098	-0,152
314,837	800,000	0,053	-0,139
315,852	-77,767	-0,094	-0,022
316,866	26,566	-0,168	-0,096
317,881	110,617	-0,113	-0,093
318,895	169,256	-0,158	-0,155
319,910	599,118	-0,128	-0,220
320,925	-109,330	-0,185	-0,027
321,939	59,389	-0,111	-0,075
322,954	-200,000	0,013	-0,189
323,968	-200,000	-0,014	-0,089
324,983	-9,252	-0,050	-0,023
325,997	800,000	-0,061	-0,161
327,012	175,274	-0,181	-0,180
328,027	61,827	-0,254	-0,174
329,041	93,230	-0,076	-0,059
330,056	-168,192	-0,111	-0,003
331,070	307,061	-0,122	-0,157
332,085	350,315	-0,089	-0,122
333,100	738,555	-0,110	-0,204
334,114	-82,410	-0,148	0,033
335,129	-14,465	-0,194	-0,086
336,143	89,533	-0,240	-0,184
337,158	208,774	-0,118	-0,127
338,173	12,133	-0,072	-0,038
339,187	137,440	-0,114	-0,102
340,202	33,184	-0,202	-0,120
341,216	38,677	-0,136	-0,083
342,231	180,502	-0,236	-0,238
343,246	800,000	-0,021	-0,061
344,260	-200,000	-0,009	-0,140
345,275	142,919	-0,085	-0,078
346,289	60,749	-0,130	-0,088
347,304	-148,460	-0,088	-0,005
348,319	656,588	-0,107	-0,189
349,333	429,298	-0,212	-0,316
350,348	-101,355	-0,076	-0,013
351,362	21,095	-0,173	-0,096
352,377	202,848	-0,119	-0,127
353,392	480,570	-0,100	-0,156
354,406	465,296	-0,153	-0,236
355,421	209,473	1312,751	1412,961
356,435	161,217	1473,253	1413,457
