DTS Sentinel unit serial number:	SN410029Multiplexer serial number:	ORYXHardware model number:	OX2-SRSoftware version number:	ORYX F/W v4,00 Oryx Data Collector v3.7.2.0data status	okinstallation	B3 Nyhavnadifferential loss correction	single-endedforward channel	channel 1reverse channel	N/Adate	2023/11/29time	07:32:30forward acquisition time	300,00reverse acquisition time	0,00gamma	499,1914k internal	0,3211k external	0,3211temperature offset calibration	1,0000default loss term (dB/km)	0,3820temperature slope calibration	1,0000multiplexer offset coefficient	1,0000multiplexer slope coefficient	1,0000fibre end	0,00T internal ref (°C)	8,88T ext. ref 1 (°C)	-6,47T ext. ref 2 (°C)	-6,56length (m)	temperature (°C)	Stokes	anti-Stokes-744,400	611,333	-0,118	-0,215
-743,385	-200,000	-0,004	0,272
-742,371	800,000	-0,093	-0,250
-741,356	-200,000	-0,025	0,418
-740,342	4,974	-0,124	-0,066
-739,327	-200,000	-0,038	0,375
-738,312	733,689	-0,128	-0,250
-737,298	-200,000	-0,014	0,173
-736,283	-200,000	0,020	-0,197
-735,269	-200,000	-0,007	0,216
-734,254	800,000	-0,175	-0,485
-733,239	-82,977	-0,144	0,033
-732,225	407,380	-0,144	-0,222
-731,210	33,643	0,140	0,088
-730,196	-200,000	-0,029	-0,097
-729,181	-123,047	-0,280	-0,032
-728,167	21,656	0,044	-0,026
-727,152	9,493	-0,044	0,024
-726,137	-102,776	-0,034	-0,006
-725,123	220,298	-0,041	-0,048
-724,108	-89,927	-0,044	0,009
-723,094	800,000	0,028	-0,059
-722,079	765,289	-0,030	-0,059
-721,064	-105,813	-0,154	-0,025
-720,050	-164,880	-0,101	0,003
-719,035	-104,437	-0,102	0,017
-718,021	114,195	-0,110	0,097
-717,006	800,000	0,010	-0,021
-715,991	-57,471	0,006	0,002
-714,977	-22,656	-0,108	-0,047
-713,962	468,950	0,055	0,089
-712,948	-64,795	0,058	0,017
-711,933	800,000	-0,041	0,108
-710,918	-112,070	0,089	-0,013
-709,904	-200,000	-0,021	-0,117
-708,889	55,252	-0,197	-0,138
-707,875	800,000	0,022	-0,070
-706,860	-108,788	-0,126	0,019
-705,845	257,801	0,021	-0,027
-704,831	577,316	-0,019	0,034
-703,816	202,536	0,024	-0,026
-702,802	-200,000	0,005	0,021
-701,787	193,064	-0,089	-0,097
-700,772	245,411	-0,053	-0,065
-699,758	-200,000	-0,010	0,057
-698,743	13,310	0,131	0,073
-697,729	156,806	-0,094	-0,094
-696,714	-81,507	0,110	0,026
-695,699	107,741	0,053	-0,046
-694,685	129,658	-0,132	-0,122
-693,670	-200,000	-0,030	-0,133
-692,656	-74,458	-0,015	-0,004
-691,641	-200,000	0,008	-0,035
-690,627	-200,000	-0,018	0,076
-689,612	-27,686	0,095	-0,040
-688,597	122,831	0,084	0,076
-687,583	-200,000	0,011	0,040
-686,568	-200,000	-0,003	-0,089
-685,554	-17,225	0,081	0,037
-684,539	-54,902	-0,052	-0,017
-683,524	-200,000	0,029	-0,138
-682,510	-9,250	-0,105	0,051
-681,495	111,914	-0,024	-0,021
-680,481	-40,584	-0,019	0,007
-679,466	93,212	-0,095	-0,078
-678,451	11,126	0,092	0,051
-677,437	-9,133	-0,070	0,034
-676,422	-200,000	0,020	-0,107
-675,408	-200,000	0,025	0,165
-674,393	-200,000	-0,019	-0,138
-673,378	800,000	0,017	-0,035
-672,364	-200,000	-0,033	-0,107
-671,349	-200,000	-0,003	-0,057
-670,335	-0,867	0,132	0,067
-669,320	-200,000	-0,004	0,024
-668,305	93,908	0,072	0,059
-667,291	-200,000	0,034	-0,156
-666,276	114,728	-0,036	-0,031
-665,262	-200,000	0,018	-0,102
-664,247	523,876	-0,060	-0,103
-663,232	133,538	0,105	-0,098
-662,218	506,610	-0,029	0,049
-661,203	-200,000	0,032	0,135
-660,189	180,598	-0,050	0,053
-659,174	800,000	0,056	-0,121
-658,159	386,662	0,064	-0,096
-657,145	659,861	0,049	-0,091
-656,130	39,263	0,039	-0,025
-655,116	800,000	-0,031	-0,073
-654,101	-200,000	0,019	0,179
-653,086	162,240	-0,028	-0,029
-652,072	-91,190	-0,170	-0,035
-651,057	-200,000	-0,026	-0,148
-650,043	-200,000	0,007	-0,024
-649,028	-200,000	0,002	-0,029
-648,014	-15,065	-0,119	-0,055
-646,999	-42,993	0,125	0,045
-645,984	-200,000	-0,002	-0,038
-644,970	26,307	0,103	0,062
-643,955	238,472	-0,143	-0,172
-642,941	157,164	-0,088	-0,088
-641,926	800,000	-0,035	-0,105
-640,911	-200,000	0,010	0,037
-639,897	-91,070	0,132	0,027
-638,882	-200,000	0,006	-0,020
-637,868	-54,749	0,142	0,046
-636,853	10,891	-0,128	-0,070
-635,838	90,743	-0,071	-0,058
-634,824	-68,923	0,081	-0,022
-633,809	800,000	0,044	0,090
-632,795	190,683	-0,054	0,058
-631,780	-200,000	-0,010	0,043
-630,765	161,848	-0,075	0,076
-629,751	800,000	-0,079	-0,168
-628,736	-127,134	-0,093	0,010
-627,722	602,816	-0,066	-0,119
-626,707	-8,387	0,081	-0,039
-625,692	-200,000	0,006	-0,045
-624,678	-200,000	-0,003	0,027
-623,663	490,391	-0,054	-0,090
-622,649	-107,599	-0,081	0,013
-621,634	191,384	0,062	-0,068
-620,619	-200,000	0,004	0,024
-619,605	800,000	-0,027	-0,056
-618,590	249,285	0,047	0,058
-617,576	-200,000	0,004	-0,014
-616,561	800,000	0,048	-0,118
-615,546	166,927	-0,030	-0,030
-614,532	-200,000	0,024	-0,123
-613,517	82,127	-0,122	-0,095
-612,503	30,357	0,085	-0,052
-611,488	61,843	0,089	0,064
-610,474	-200,000	-0,009	0,080
-609,459	-200,000	0,008	0,028
-608,444	-200,000	-0,021	-0,157
-607,430	-183,666	-0,082	-0,001
-606,415	800,000	-0,073	0,169
-605,401	-200,000	-0,033	0,138
-604,386	-70,171	-0,056	-0,015
-603,371	132,785	0,115	0,107
-602,357	39,442	0,092	0,059
-601,342	-189,777	-0,178	-0,001
-600,328	800,000	-0,008	0,024
-599,313	-62,349	-0,142	0,042
-598,298	799,482	0,021	-0,041
-597,284	786,090	-0,054	-0,108
-596,269	-200,000	-0,009	0,080
-595,255	800,000	-0,034	-0,072
-594,240	-96,739	-0,138	-0,026
-593,225	547,257	-0,041	0,070
-592,211	-165,431	-0,142	0,004
-591,196	-200,000	0,023	0,101
-590,182	60,707	0,105	0,075
-589,167	254,598	-0,039	0,048
-588,152	129,656	-0,054	0,049
-587,138	-60,113	0,039	-0,012
-586,123	-200,000	-0,026	-0,137
-585,109	-52,040	0,068	-0,023
-584,094	-45,683	0,021	-0,008
-583,079	161,768	-0,039	0,040
-582,065	-67,543	0,156	0,044
-581,050	-144,986	-0,065	0,004
-580,036	1,785	0,068	0,035
-579,021	-112,480	-0,065	-0,009
-578,006	-105,742	-0,114	0,018
-576,992	-164,237	-0,173	-0,006
-575,977	427,117	0,044	-0,068
-574,963	800,000	0,111	0,269
-573,948	-58,060	-0,071	0,022
-572,934	339,863	-0,024	0,034
-571,919	-20,185	-0,121	-0,053
-570,904	800,000	0,050	-0,149
-569,890	-133,036	-0,075	0,007
-568,875	195,110	0,072	0,079
-567,861	179,811	0,036	0,038
-566,846	-110,125	0,119	0,018
-565,831	-144,595	-0,057	0,004
-564,817	-200,000	0,010	-0,080
-563,802	-200,000	0,018	-0,077
-562,788	357,788	-0,129	-0,185
-561,773	800,000	-0,034	0,070
-560,758	102,775	-0,066	0,056
-559,744	660,533	0,036	-0,067
-558,729	14,893	0,048	-0,027
-557,715	-86,785	-0,148	0,032
-556,700	800,000	-0,010	-0,020
-555,685	-83,169	0,038	0,009
-554,671	-84,085	0,074	0,017
-553,656	214,233	0,018	-0,021
-552,642	-200,000	-0,005	0,034
-551,627	-12,728	0,100	0,047
-550,612	-176,037	-0,086	0,002
-549,598	-45,360	-0,074	0,026
-548,583	-182,106	0,108	-0,001
-547,569	-141,538	0,052	0,004
-546,554	425,424	0,061	0,095
-545,539	170,914	-0,078	0,080
-544,525	178,760	0,036	-0,038
-543,510	-200,000	0,022	-0,084
-542,496	444,343	-0,013	-0,020
-541,481	-200,000	-0,021	-0,070
-540,466	-200,000	-0,023	-0,087
-539,452	5,871	-0,005	0,003
-538,437	51,675	0,058	0,040
-537,423	-200,000	0,051	0,240
-536,408	466,587	0,060	0,096
-535,393	79,230	-0,055	-0,042
-534,379	-64,637	-0,173	-0,050
-533,364	90,504	-0,107	-0,086
-532,350	33,320	0,099	-0,062
-531,335	800,000	0,020	0,054
-530,321	12,358	0,069	-0,038
-529,306	800,000	0,036	-0,086
-528,291	-167,089	-0,158	0,005
-527,277	-200,000	-0,043	-0,148
-526,262	144,073	-0,071	0,068
-525,248	-93,294	-0,137	0,027
-524,233	800,000	-0,023	-0,053
-523,218	-63,332	0,038	0,011
-522,204	40,183	-0,042	-0,027
-521,189	-200,000	0,003	-0,030
-520,175	800,000	0,021	-0,056
-519,160	106,596	0,052	0,045
-518,145	42,435	0,077	0,050
-517,131	-200,000	0,009	-0,075
-516,116	-200,000	-0,010	-0,046
-515,102	-200,000	0,001	0,077
-514,087	100,929	-0,099	-0,083
-513,072	-200,000	-0,009	-0,151
-512,058	547,587	0,035	-0,061
-511,043	81,013	0,119	0,092
-510,029	135,954	0,023	-0,021
-509,014	-22,935	0,057	0,024
-507,999	22,611	0,089	0,052
-506,985	-47,378	0,103	-0,036
-505,970	-200,000	-0,015	-0,110
-504,956	-4,936	-0,041	0,020
-503,941	263,312	-0,069	0,086
-502,926	152,946	-0,087	0,086
-501,912	-99,156	0,098	-0,018
-500,897	-200,000	0,002	0,009
-499,883	158,184	-0,082	0,081
-498,868	256,786	-0,082	0,102
-497,853	210,550	0,092	-0,104
-496,839	800,000	0,019	0,049
-495,824	800,000	-0,015	0,030
-494,810	-85,674	-0,087	0,019
-493,795	-87,567	0,078	0,017
-492,781	-146,719	-0,096	-0,006
-491,766	216,388	-0,102	-0,117
-490,751	-125,337	-0,163	-0,018
-489,737	-115,133	0,102	0,014
-488,722	187,715	-0,046	0,049
-487,708	-86,252	0,055	0,012
-486,693	78,413	0,071	-0,054
-485,678	-200,000	-0,032	0,189
-484,664	416,106	-0,053	-0,082
-483,649	800,000	0,064	0,170
-482,635	-200,000	0,065	-0,299
-481,620	96,820	0,034	0,028
-480,605	-85,548	0,133	0,029
-479,591	-200,000	-0,010	0,091
-478,576	-73,909	0,115	0,030
-477,562	800,000	-0,073	0,182
-476,547	-200,000	-0,003	-0,134
-475,532	-200,000	0,009	0,052
-474,518	-200,000	-0,021	0,115
-473,503	-119,546	0,154	0,019
-472,489	193,557	0,056	-0,061
-471,474	27,830	0,120	-0,073
-470,459	53,530	-0,041	-0,028
-469,445	-106,845	-0,087	-0,014
-468,430	-200,000	-0,024	-0,096
-467,416	248,452	-0,099	0,121
-466,401	-66,220	0,089	0,025
-465,386	-9,167	0,044	0,021
-464,372	81,022	0,065	-0,050
-463,357	-13,559	0,103	-0,048
-462,343	-115,146	-0,098	-0,013
-461,328	-94,758	0,064	0,012
-460,313	494,428	-0,044	-0,072
-459,299	21,628	-0,103	-0,060
-458,284	11,347	-0,122	0,067
-457,270	-154,894	-0,118	0,005
-456,255	-132,732	0,160	-0,015
-455,241	-2,106	-0,177	-0,089
-454,226	-43,313	-0,138	-0,050
-453,211	-60,088	-0,151	0,046
-452,197	360,455	0,019	0,027
-451,182	-20,693	-0,197	-0,086
-450,168	-200,000	0,001	-0,052
-449,153	-74,284	0,197	0,051
-448,138	145,420	-0,046	0,044
-447,124	-200,000	-0,017	-0,117
-446,109	-139,161	0,083	0,006
-445,095	-35,970	0,034	-0,013
-444,080	-200,000	0,006	0,102
-443,065	281,079	0,121	0,156
-442,051	-27,747	-0,030	0,012
-441,036	138,185	0,039	-0,036
-440,022	70,570	0,066	0,049
-439,007	221,460	-0,098	0,113
-437,992	800,000	0,028	0,086
-436,978	-61,436	0,077	0,023
-435,963	800,000	-0,046	-0,099
-434,949	-87,064	-0,154	-0,033
-433,934	800,000	0,047	0,140
-432,919	-200,000	0,027	-0,104
-431,905	-200,000	0,012	-0,064
-430,890	-48,461	0,174	-0,060
-429,876	800,000	-0,016	0,050
-428,861	-94,725	-0,029	-0,006
-427,846	191,221	-0,079	-0,085
-426,832	800,000	0,051	-0,142
-425,817	-90,598	-0,212	-0,044
-424,803	-144,543	-0,071	0,005
-423,788	-59,750	0,134	-0,041
-422,773	800,000	0,030	0,064
-421,759	647,715	0,035	0,064
-420,744	-200,000	-0,001	-0,004
-419,730	-66,420	0,075	0,021
-418,715	-200,000	0,013	-0,045
-417,701	800,000	-0,031	0,088
-416,686	110,153	0,121	-0,104
-415,671	1,111	0,078	0,040
-414,657	-200,000	0,024	0,087
-413,642	242,816	0,090	-0,108
-412,628	0,734	-0,030	-0,015
-411,613	-200,000	-0,001	-0,080
-410,598	-141,718	0,095	-0,007
-409,584	-75,941	0,053	0,013
-408,569	799,319	0,015	0,030
-407,555	115,583	0,040	-0,035
-406,540	800,000	0,040	-0,114
-405,525	-60,742	-0,197	0,059
-404,511	183,481	0,094	0,100
-403,496	-200,000	-0,022	0,147
-402,482	193,051	0,050	0,054
-401,467	-154,438	-0,025	0,001
-400,452	800,000	-0,038	0,109
-399,438	-200,000	-0,026	-0,099
-398,423	-42,098	-0,076	-0,028
-397,409	108,932	-0,047	-0,040
-396,394	-126,282	-0,177	0,019
-395,379	-140,804	-0,082	-0,006
-394,365	-104,481	-0,088	-0,014
-393,350	-142,130	0,121	-0,008
-392,336	-200,000	0,012	0,087
-391,321	70,487	-0,012	0,009
-390,306	-200,000	-0,000	-0,083
-389,292	-4,914	-0,150	-0,074
-388,277	48,249	0,100	0,067
-387,263	-200,000	0,020	-0,069
-386,248	22,724	0,086	0,050
-385,233	-200,000	0,030	-0,106
-384,219	228,456	0,027	0,032
-383,204	-200,000	-0,033	-0,149
-382,190	296,954	-0,127	-0,167
-381,175	502,422	0,077	-0,128
-380,160	423,604	0,025	-0,039
-379,146	712,358	0,049	0,094
-378,131	-53,172	0,071	0,023
-377,117	-103,709	-0,168	-0,028
-376,102	88,757	0,053	0,042
-375,088	-200,000	-0,008	0,049
-374,073	250,606	-0,054	-0,066
-373,058	-53,819	0,048	-0,016
-372,044	-65,482	-0,021	-0,006
-371,029	-200,000	0,008	0,196
-370,015	-34,790	-0,021	-0,008
-369,000	3,404	-0,068	0,035
-367,985	-72,980	-0,095	-0,025
-366,971	-200,000	0,014	0,112
-365,956	64,342	-0,057	0,041
-364,942	-200,000	-0,003	-0,098
-363,927	371,713	-0,080	0,116
-362,912	-176,646	0,059	0,001
-361,898	191,079	0,189	-0,203
-360,883	-42,179	0,049	-0,018
-359,869	800,000	0,028	-0,086
-358,854	-200,000	-0,016	-0,144
-357,839	575,202	-0,030	-0,053
-356,825	-70,025	0,021	0,006
-355,810	193,295	0,136	0,147
-354,796	352,198	0,044	-0,062
-353,781	800,000	0,028	0,066
-352,766	420,922	0,024	-0,037
-351,752	342,657	0,034	0,048
-350,737	-200,000	-0,033	0,118
-349,723	-104,204	0,185	0,030
-348,708	-94,835	-0,058	0,011
-347,693	-200,000	-0,022	-0,091
-346,679	-200,000	0,039	-0,141
-345,664	-200,000	0,046	-0,160
-344,650	740,529	0,034	-0,065
-343,635	29,088	-0,116	-0,070
-342,620	-92,097	0,146	-0,029
-341,606	-51,744	-0,065	-0,022
-340,591	800,000	0,018	0,052
-339,577	144,808	0,022	-0,021
-338,562	46,379	0,043	0,029
-337,548	-76,764	0,272	0,067
-336,533	-46,449	0,081	0,028
-335,518	634,502	-0,018	0,032
-334,504	-200,000	0,067	0,233
-333,489	-200,000	-0,002	-0,022
-332,475	64,947	-0,066	0,047
-331,460	-114,929	-0,152	-0,020
-330,445	-109,560	-0,105	0,016
-329,431	16,102	0,130	0,073
-328,416	800,000	0,058	-0,118
-327,402	800,000	0,054	0,124
-326,387	68,409	0,065	-0,048
-325,372	586,007	0,003	0,006
-324,358	53,786	-0,060	0,041
-323,343	557,029	0,064	0,111
-322,329	78,857	-0,051	0,039
-321,314	-146,038	0,055	0,003
-320,299	-200,000	-0,013	-0,124
-319,285	800,000	-0,035	0,075
-318,270	43,630	0,046	-0,030
-317,256	166,243	-0,068	-0,068
-316,241	81,810	0,093	-0,071
-315,226	101,362	0,082	0,068
-314,212	349,494	0,038	0,053
-313,197	205,814	0,089	0,098
-312,183	15,847	-0,064	0,036
-311,168	659,970	-0,021	0,038
-310,153	76,163	0,065	-0,049
-309,139	6,928	-0,077	-0,041
-308,124	-200,000	-0,002	-0,008
-307,110	800,000	-0,011	0,028
-306,095	-20,725	0,058	0,025
-305,080	161,635	-0,034	0,033
-304,066	-7,289	-0,093	0,045
-303,051	-48,505	0,028	-0,009
-302,037	-65,452	-0,100	0,028
-301,022	800,000	0,048	-0,101
-300,008	-23,130	0,087	0,037
-298,993	-69,218	0,221	0,060
-297,978	800,000	0,068	0,153
-296,964	-96,349	0,024	-0,005
-295,949	70,978	-0,041	0,030
-294,935	800,000	-0,028	0,072
-293,920	800,000	-0,032	0,074
-292,905	-56,140	-0,234	-0,074
-291,891	-87,397	0,202	0,043
-290,876	-200,000	0,025	0,083
-289,862	-128,945	0,057	0,006
-288,847	44,346	-0,096	-0,063
-287,832	-200,000	-0,004	0,034
-286,818	-68,366	-0,061	-0,017
-285,803	-200,000	0,002	-0,165
-284,789	-70,835	0,018	-0,005
-283,774	-78,333	0,152	0,037
-282,759	235,072	-0,065	0,076
-281,745	-200,000	-0,009	0,067
-280,730	192,879	-0,108	-0,116
-279,716	-175,050	0,119	-0,002
-278,701	-42,458	0,108	0,039
-277,686	-189,009	-0,087	0,001
-276,672	800,000	0,032	0,091
-275,657	3,635	0,056	-0,029
-274,643	468,741	0,058	0,094
-273,628	183,306	-0,096	0,101
-272,613	87,485	-0,012	-0,009
-271,599	469,305	-0,046	0,073
-270,584	-27,404	-0,059	0,025
-269,570	-200,000	-0,018	0,166
-268,555	686,718	-0,029	0,055
-267,540	-200,000	-0,025	-0,095
-266,526	-95,988	-0,151	0,028
-265,511	-200,000	-0,007	-0,065
-264,497	-101,006	0,027	-0,005
-263,482	96,490	0,067	-0,054
-262,467	12,668	0,124	-0,068
-261,453	-123,224	-0,120	-0,014
-260,438	-83,945	-0,050	-0,011
-259,424	215,856	0,089	-0,100
-258,409	133,118	-0,098	0,090
-257,395	232,524	0,108	-0,126
-256,380	-136,169	0,042	-0,003
-255,365	29,663	0,085	0,051
-254,351	-40,961	-0,090	-0,033
-253,336	-200,000	0,005	-0,018
-252,322	63,732	-0,159	-0,113
-251,307	-200,000	-0,000	0,086
-250,292	205,058	0,048	-0,053
-249,278	66,018	-0,070	0,050
-248,263	97,275	-0,089	0,073
-247,249	800,000	-0,022	0,049
-246,234	185,293	0,026	-0,027
-245,219	800,000	-0,039	-0,108
-244,205	-200,000	0,024	-0,099
-243,190	-113,887	0,058	-0,008
-242,176	90,214	-0,055	-0,044
-241,161	800,000	-0,034	0,079
-240,146	-200,000	-0,012	0,045
-239,132	-49,440	-0,021	-0,007
-238,117	-80,288	-0,141	0,033
-237,103	-60,041	-0,160	0,048
-236,088	291,305	-0,061	-0,079
-235,073	84,707	0,075	0,058
-234,059	218,272	0,020	0,023
-233,044	800,000	0,019	-0,052
-232,030	167,939	-0,135	-0,137
-231,015	407,419	-0,068	-0,102
-230,000	-69,852	-0,042	0,011
-228,986	-20,307	0,119	0,052
-227,971	-84,906	0,239	-0,053
-226,957	-200,000	-0,006	0,073
-225,942	-55,052	0,024	-0,008
-224,927	-72,342	0,057	0,015
-223,913	800,000	0,035	-0,092
-222,898	-200,000	0,004	-0,043
-221,884	-22,786	-0,064	-0,027
-220,869	-113,795	0,014	-0,002
-219,855	-200,000	-0,001	0,173
-218,840	800,000	-0,084	0,178
-217,825	-105,597	0,054	-0,009
-216,811	-200,000	0,005	-0,056
-215,796	-41,307	-0,084	-0,031
-214,782	336,982	-0,046	0,064
-213,767	-124,958	-0,096	-0,010
-212,752	-200,000	0,001	0,043
-211,738	102,257	0,094	0,078
-210,723	-122,771	-0,073	0,008
-209,709	654,229	0,023	-0,043
-208,694	800,000	0,021	-0,061
-207,679	-105,558	0,061	0,010
-206,665	-35,775	0,108	-0,041
-205,650	-200,000	0,039	0,136
-204,636	83,009	0,161	0,124
-203,621	-200,000	0,003	-0,085
-202,606	-200,000	-0,006	-0,054
-201,592	-60,406	0,030	0,009
-200,577	-64,696	0,074	-0,021
-199,563	-77,788	-0,070	0,017
-198,548	800,000	0,032	0,088
-197,533	-117,465	0,089	-0,011
-196,519	-47,415	-0,133	0,046
-195,504	-146,675	-0,102	-0,006
-194,490	216,939	-0,090	0,102
-193,475	-200,000	0,001	0,053
-192,460	-200,000	-0,034	-0,114
-191,446	-82,836	0,017	-0,004
-190,431	232,095	0,015	-0,017
-189,417	457,115	-0,029	0,046
-188,402	800,000	0,052	-0,132
-187,387	800,000	0,013	0,034
-186,373	-125,495	-0,121	0,013
-185,358	-103,070	0,045	-0,007
-184,344	-137,416	0,101	0,008
-183,329	320,090	0,042	0,056
-182,315	345,598	-0,082	0,115
-181,300	-200,000	-0,007	-0,025
-180,285	800,000	0,030	-0,073
-179,271	-193,179	-0,175	0,001
-178,256	-38,192	-0,088	-0,033
-177,242	-7,764	0,065	-0,031
-176,227	43,092	0,044	0,028
-175,212	-189,825	0,057	-0,000
-174,198	323,293	-0,012	0,016
-173,183	-18,540	0,065	0,029
-172,169	800,000	0,040	0,082
-171,154	-200,000	0,012	0,067
-170,139	3,012	0,117	-0,060
-169,125	452,641	0,047	-0,074
-168,110	800,000	-0,019	-0,050
-167,096	382,527	0,014	0,021
-166,081	66,667	-0,014	-0,010
-165,066	800,000	0,047	-0,141
-164,052	-200,000	-0,014	-0,133
-163,037	310,933	0,130	0,173
-162,023	433,383	0,048	0,074
-161,008	800,000	-0,046	-0,124
-159,993	-200,000	-0,004	0,018
-158,979	-200,000	0,010	0,068
-157,964	-19,181	0,063	0,028
-156,950	309,119	-0,031	0,041
-155,935	256,080	0,033	-0,040
-154,920	-132,007	0,127	0,012
-153,906	-92,845	-0,233	0,046
-152,891	50,912	0,103	-0,069
-151,877	-9,569	-0,135	-0,063
-150,862	-200,000	0,017	-0,072
-149,847	-150,910	0,067	0,004
-148,833	800,000	0,011	0,033
-147,818	-8,626	0,088	-0,042
-146,804	-32,210	-0,029	-0,011
-145,789	-200,000	0,002	-0,027
-144,775	-200,000	0,034	-0,153
-143,760	163,862	-0,068	-0,068
-142,745	117,564	0,053	0,046
-141,731	4,953	0,107	-0,055
-140,716	74,151	0,090	0,067
-139,702	-200,000	0,030	-0,105
-138,687	160,848	0,015	-0,015
-137,672	-126,004	-0,123	-0,013
-136,658	-82,162	-0,049	-0,011
-135,643	175,610	0,066	-0,068
-134,629	-200,000	-0,004	0,163
-133,614	-129,078	0,188	0,018
-132,599	409,296	0,041	0,062
-131,585	-67,374	0,064	0,018
-130,570	-160,343	-0,101	-0,004
-129,556	323,593	0,093	-0,126
-128,541	-121,379	0,122	-0,014
-127,526	-139,585	0,161	-0,012
-126,512	776,810	-0,037	0,073
-125,497	-144,310	0,078	0,005
-124,483	800,000	0,035	-0,089
-123,468	-200,000	0,003	-0,068
-122,453	-200,000	-0,031	0,152
-121,439	20,582	-0,062	0,036
-120,424	800,000	-0,065	-0,169
-119,410	-48,781	0,105	-0,036
-118,395	13,255	0,207	0,113
-117,380	800,000	-0,030	-0,083
-116,366	800,000	0,051	0,125
-115,351	-200,000	0,007	-0,079
-114,337	240,223	-0,040	-0,047
-113,322	800,000	-0,070	0,141
-112,307	800,000	-0,055	0,154
-111,293	800,000	-0,034	-0,079
-110,278	478,698	0,085	0,136
-109,264	179,281	-0,056	-0,058
-108,249	800,000	-0,028	0,066
-107,234	-118,177	0,049	0,006
-106,220	52,128	-0,038	-0,026
-105,205	83,729	0,056	0,043
-104,191	-200,000	0,008	-0,027
-103,176	-60,999	-0,030	0,009
-102,162	199,651	-0,056	0,061
-101,147	800,000	-0,032	-0,079
-100,132	-134,756	-0,025	0,002
-99,118	36,299	-0,081	-0,050
-98,103	-163,303	0,111	-0,004
-97,089	-200,000	0,017	0,071
-96,074	-146,665	0,073	0,004
-95,059	-97,973	0,107	0,019
-94,045	-87,868	0,241	-0,051
-93,030	465,793	0,045	-0,071
-92,016	308,426	-0,018	-0,023
-91,001	265,541	0,105	0,130
-89,986	-87,098	0,157	-0,033
-88,972	-104,084	0,047	0,008
-87,957	-30,435	0,112	-0,045
-86,943	-23,200	-0,051	0,022
-85,928	-101,446	0,065	0,011
-84,913	59,736	-0,087	-0,060
-83,899	601,819	0,040	-0,071
-82,884	-200,000	0,033	-0,111
-81,870	-120,057	-0,211	0,025
-80,855	-200,000	-0,015	0,093
-79,840	-46,139	-0,126	0,044
-78,826	-200,000	-0,025	-0,120
-77,811	95,235	-0,042	0,034
-76,797	-200,000	-0,006	-0,041
-75,782	197,955	0,086	0,093
-74,767	800,000	-0,064	-0,178
-73,753	-97,208	-0,077	-0,014
-72,738	78,262	0,093	-0,070
-71,724	-200,000	-0,012	-0,098
-70,709	-70,818	0,095	-0,025
-69,694	101,821	-0,071	0,059
-68,680	-67,220	-0,225	0,062
-67,665	-88,415	0,086	-0,018
-66,651	-23,439	0,083	0,035
-65,636	51,013	-0,082	0,055
-64,622	-142,964	-0,085	-0,006
-63,607	22,308	-0,099	-0,057
-62,592	-70,459	-0,126	-0,033
-61,578	183,962	0,121	0,127
-60,563	-158,062	-0,068	0,003
-59,549	800,000	-0,039	0,078
-58,534	72,166	-1,985	-1,457
-57,519	552,402	-1,119	-1,904
-56,505	-200,000	-0,457	-4,285
-55,490	800,000	0,745	1,484
-54,476	800,000	5,300	11,507
-53,461	-200,000	21,891	336,905
-52,446	800,000	758,433	2293,187
-51,432	532,528	1652,017	2769,777
-50,417	69,071	1649,833	1195,201
-49,403	16,497	1524,686	847,572
-48,388	10,727	1449,270	777,885
-47,373	18,935	1441,464	812,859
-46,359	14,085	1430,196	783,529
-45,344	9,007	1426,103	757,201
-44,330	8,975	1424,268	756,043
-43,315	8,954	1422,505	754,980
-42,300	8,986	1420,545	754,060
-41,286	8,993	1419,527	753,523
-40,271	8,917	1418,305	752,483
-39,257	8,927	1416,994	751,804
-38,242	8,982	1415,951	751,482
-37,227	8,902	1415,034	750,589
-36,213	8,952	1413,665	750,070
-35,198	9,006	1412,291	749,565
-34,184	9,041	1411,286	749,164
-33,169	8,887	1410,179	747,823
-32,154	8,959	1409,240	747,637
-31,140	8,937	1407,830	746,755
-30,125	9,002	1406,623	746,390
-29,111	8,961	1405,457	745,550
-28,096	8,990	1404,270	745,025
-27,082	8,904	1403,077	743,959
-26,067	8,843	1402,192	743,176
-25,052	8,920	1400,968	742,858
-24,038	8,888	1400,300	742,324
-23,023	8,931	1399,106	741,862
-22,009	8,932	1397,999	741,250
-20,994	8,880	1396,990	740,443
-19,979	8,861	1396,318	739,972
-18,965	8,923	1395,133	739,602
-17,950	8,870	1394,318	738,896
-16,936	8,832	1393,481	738,246
-15,921	8,801	1392,429	737,513
-14,906	8,856	1391,309	737,148
-13,892	8,862	1390,523	736,729
-12,877	8,829	1389,761	736,146
-11,863	8,839	1388,941	735,728
-10,848	8,822	1388,054	735,149
-9,833	8,761	1387,137	734,351
-8,819	8,765	1386,347	733,924
-7,804	8,748	1385,189	733,204
-6,790	8,751	1384,036	732,577
-5,775	8,743	1383,163	732,051
-4,760	8,767	1382,360	731,706
-3,746	8,788	1381,273	731,197
-2,731	8,795	1380,428	730,756
-1,717	8,720	1379,620	729,953
-0,702	8,711	1377,986	729,016
0,313	12,790	1289,307	700,614
1,327	28,715	681,845	406,225
2,342	44,567	117,460	75,992
3,356	1,132	16,329	8,237
4,371	4,429	3,850	1,984
5,386	-1,818	1,268	0,627
6,400	521,434	0,353	0,585
7,415	-0,338	-0,235	-0,117
8,429	132,570	-0,253	-0,230
9,444	2,224	-0,315	-0,160
10,459	61,178	-0,225	-0,157
11,473	68,460	-0,240	-0,173
12,488	-66,897	-0,261	-0,072
13,502	7,825	-0,241	-0,127
14,517	-63,420	-0,360	-0,103
15,531	3,224	-0,333	-0,170
16,546	37,562	-0,352	-0,219
17,561	112,256	-0,412	-0,351
18,575	800,000	-0,058	-0,157
19,590	-36,684	-0,242	-0,091
20,604	-165,015	-0,331	-0,010
21,619	101,673	-0,409	-0,335
22,634	25,731	-0,523	-0,306
23,648	3,008	-0,447	-0,228
24,663	25,480	-0,378	-0,221
25,677	300,554	-0,258	-0,336
26,692	59,211	-0,360	-0,249
27,707	-44,118	-0,426	-0,150
28,721	220,233	-0,394	-0,445
29,736	150,955	-0,306	-0,293
30,750	123,659	-0,424	-0,375
31,765	6,845	-0,328	-0,171
32,780	253,214	-0,259	-0,311
33,794	101,353	-0,279	-0,228
34,809	-19,485	-0,475	-0,206
35,823	-24,007	-0,248	-0,104
36,838	223,252	-0,399	-0,454
37,853	-0,661	-0,462	-0,230
38,867	80,629	-0,285	-0,215
39,882	84,628	-0,419	-0,323
40,896	282,702	-0,300	-0,379
41,911	14,755	-0,419	-0,230
42,926	86,990	-0,301	-0,233
43,940	103,041	-0,326	-0,268
44,955	52,935	-0,406	-0,272
45,969	108,645	-0,427	-0,359
46,984	250,056	-0,252	-0,301
47,999	17,464	-0,231	-0,128
49,013	-47,060	-0,454	-0,155
50,028	699,818	-0,136	-0,252
51,042	4,851	-0,408	-0,210
52,057	133,838	-0,395	-0,359
53,071	130,063	-0,297	-0,267
54,086	147,067	-0,222	-0,210
55,101	48,669	-0,350	-0,230
56,115	41,170	-0,334	-0,212
57,130	34,854	-0,307	-0,188
58,144	94,150	-0,383	-0,305
59,159	-77,083	-0,387	-0,094
60,174	-55,019	-0,301	-0,095
61,188	34,563	-0,340	-0,208
62,203	133,235	-0,299	-0,271
63,217	121,329	-0,299	-0,261
64,232	25,552	-0,337	-0,196
65,247	-10,053	-0,376	-0,175
66,261	-21,259	-0,326	-0,139
67,276	19,198	-0,240	-0,135
68,290	40,855	-0,298	-0,188
69,305	82,799	-0,240	-0,183
70,320	-24,191	-0,290	-0,121
71,334	-42,430	-0,198	-0,070
72,349	91,428	-0,360	-0,283
73,363	800,000	-0,091	-0,181
74,378	90,818	-0,224	-0,176
75,393	16,282	-0,319	-0,176
76,407	30,165	-0,266	-0,159
77,422	41,777	-0,231	-0,146
78,436	45,370	-0,337	-0,218
79,451	-59,882	-0,401	-0,119
80,466	23,750	-0,337	-0,194
81,480	49,287	-0,401	-0,264
82,495	37,194	-0,332	-0,206
83,509	93,200	-0,207	-0,164
84,524	237,329	-0,316	-0,367
85,539	-6,681	-0,269	-0,127
86,553	-55,622	-0,290	-0,090
87,568	160,316	-0,302	-0,295
88,582	-7,873	-0,355	-0,167
89,597	263,320	-0,240	-0,293
90,611	333,306	-0,232	-0,315
91,626	99,561	-0,261	-0,211
92,641	-122,229	-0,175	-0,020
93,655	-20,542	-0,305	-0,130
94,670	-22,526	-0,459	-0,193
95,684	249,861	-0,252	-0,300
96,699	5,526	-0,374	-0,192
97,714	194,244	-0,235	-0,249
98,728	117,214	-0,188	-0,161
99,743	71,156	-0,459	-0,332
100,757	27,364	-0,285	-0,167
101,772	129,055	-0,281	-0,251
102,787	5,578	-0,249	-0,128
103,801	211,826	-0,240	-0,265
104,816	92,676	-0,315	-0,248
105,830	-90,801	-0,228	-0,045
106,845	-109,755	-0,234	-0,034
107,860	-34,331	-0,119	-0,045
108,874	151,988	-0,218	-0,207
109,889	135,893	-0,358	-0,326
110,903	45,003	-0,295	-0,189
111,918	11,494	-0,391	-0,209
112,933	-70,592	-0,237	-0,062
113,947	276,667	-0,142	-0,177
114,962	109,801	-0,221	-0,185
115,976	96,049	-0,262	-0,209
116,991	77,063	-0,271	-0,201
118,006	552,535	-0,133	-0,224
119,020	-97,898	-0,341	-0,061
120,035	-13,435	-0,113	-0,051
121,049	-56,509	-0,228	-0,070
122,064	442,661	-0,146	-0,224
123,079	-24,605	-0,215	-0,089
124,093	175,969	-0,185	-0,187
125,108	34,818	-0,303	-0,185
126,122	-43,057	-0,256	-0,090
127,137	38,223	-0,267	-0,165
128,151	579,339	-0,149	-0,255
129,166	299,524	-0,212	-0,273
130,181	164,352	-0,213	-0,210
131,195	-109,662	-0,213	-0,031
132,210	97,897	-0,333	-0,267
133,224	-36,735	-0,150	-0,056
134,239	158,048	-0,204	-0,198
135,254	28,547	-0,215	-0,126
136,268	175,371	-0,209	-0,211
137,283	96,287	-0,223	-0,177
138,297	-110,582	-0,296	-0,042
139,312	-103,958	-0,381	-0,061
140,327	-39,990	-0,095	-0,034
141,341	246,139	-0,134	-0,157
142,356	23,503	-0,173	-0,099
143,370	349,919	-0,146	-0,201
144,385	14,001	-0,193	-0,104
145,400	111,384	-0,286	-0,240
146,414	163,232	-0,346	-0,339
147,429	6,728	-0,278	-0,144
148,443	170,947	-0,206	-0,206
149,458	20,160	-0,261	-0,146
150,473	95,288	-0,127	-0,101
151,487	41,896	-0,222	-0,140
152,502	347,262	-0,184	-0,253
153,516	-45,316	-0,272	-0,093
154,531	176,815	-0,277	-0,281
155,546	11,890	-0,193	-0,103
156,560	800,000	-0,122	-0,276
157,575	6,808	-0,275	-0,142
158,589	132,041	-0,242	-0,217
159,604	-0,424	-0,242	-0,119
160,619	0,696	-0,133	-0,066
161,633	321,533	-0,101	-0,134
162,648	51,724	-0,196	-0,130
163,662	-2,622	-0,305	-0,148
164,677	42,575	-0,180	-0,114
165,692	88,331	-0,188	-0,145
166,706	9,706	-0,303	-0,159
167,721	-95,149	-0,170	-0,032
168,735	-155,643	-0,301	-0,013
169,750	69,541	-0,181	-0,129
170,764	-3,461	-0,222	-0,107
171,779	460,651	-0,111	-0,172
172,794	-60,295	-0,192	-0,056
173,808	3,033	-0,284	-0,143
174,823	34,092	-0,245	-0,148
175,837	12,982	-0,237	-0,127
176,852	-123,584	-0,345	-0,038
177,867	137,297	-0,155	-0,141
178,881	252,522	-0,179	-0,212
179,896	336,699	-0,147	-0,199
180,910	120,807	-0,174	-0,150
181,925	271,087	-0,209	-0,256
182,940	175,380	-0,263	-0,265
183,954	-11,045	-0,220	-0,101
184,969	-27,917	-0,203	-0,081
185,983	57,397	-0,250	-0,169
186,998	-13,082	-0,290	-0,130
188,013	87,879	-0,260	-0,200
189,027	391,363	-0,202	-0,292
190,042	125,378	-0,232	-0,203
191,056	289,828	-0,170	-0,215
192,071	58,475	-0,220	-0,150
193,086	-12,037	-0,176	-0,080
194,100	-1,136	-0,307	-0,150
195,115	-58,411	-0,115	-0,034
196,129	29,326	-0,201	-0,118
197,144	39,571	-0,274	-0,170
198,159	235,206	-0,150	-0,172
199,173	-125,676	-0,281	-0,029
200,188	-200,000	-0,004	-0,108
201,202	800,000	-0,055	-0,131
202,217	-125,689	-0,277	0,029
203,232	-29,839	-0,246	-0,097
204,246	345,631	-0,096	-0,130
205,261	114,111	-0,156	-0,131
206,275	195,207	-0,149	-0,157
207,290	-200,000	-0,030	-0,103
208,304	160,344	-0,200	-0,193
209,319	21,966	-0,167	-0,094
210,334	113,256	-0,227	-0,191
211,348	34,681	-0,226	-0,136
212,363	800,000	-0,106	-0,238
213,377	-53,593	-0,126	-0,040
214,392	16,011	-0,165	-0,090
215,407	-114,648	-0,218	0,029
216,421	122,742	-0,130	-0,113
217,436	97,447	-0,226	-0,180
218,450	101,966	-0,127	-0,103
219,465	-6,006	-0,180	-0,085
220,480	-135,466	-0,281	0,023
221,494	21,413	-0,244	-0,137
222,509	10,431	-0,167	-0,088
223,523	-200,000	0,007	-0,199
224,538	-31,599	-0,166	0,064
225,553	-90,387	-0,162	-0,032
226,567	97,194	-0,284	-0,225
227,582	137,370	-0,237	-0,214
228,596	-86,846	-0,247	-0,052
229,611	-200,000	-0,159	-0,000
230,626	89,450	-0,234	-0,181
231,640	19,346	-0,237	-0,131
232,655	-111,003	-0,209	0,029
233,669	-78,360	-0,166	-0,039
234,684	187,567	-0,128	-0,132
235,699	93,436	-0,217	-0,169
236,713	158,084	-0,071	-0,068
237,728	-200,000	0,022	-0,208
238,742	-167,345	-0,186	0,005
239,757	52,956	-0,265	-0,175
240,772	16,650	-0,312	-0,170
241,786	29,006	-0,244	-0,142
242,801	81,835	-0,172	-0,129
243,815	56,722	-0,178	-0,119
244,830	9,908	-0,235	-0,123
245,844	67,974	-0,120	-0,084
246,859	648,753	-0,121	-0,214
247,874	32,198	-0,243	-0,145
248,888	-8,183	-0,302	-0,140
249,903	-43,763	-0,243	-0,084
250,917	240,991	-0,156	-0,180
251,932	-120,192	-0,162	-0,019
252,947	-200,000	-0,138	-0,000
253,961	390,287	-0,129	-0,185
254,976	170,825	-0,195	-0,193
255,990	99,477	-0,201	-0,160
257,005	-10,256	-0,185	-0,084
258,020	-8,953	-0,291	-0,134
259,034	-200,000	0,004	-0,092
260,049	-12,197	-0,222	-0,100
261,063	80,518	-0,175	-0,130
262,078	411,314	-0,199	-0,292
263,093	372,775	-0,136	-0,191
264,107	-200,000	-0,044	-0,138
265,122	11,234	-0,121	-0,063
266,136	-72,923	-0,118	-0,030
267,151	-45,418	-0,170	-0,058
268,166	24,533	-0,242	-0,138
269,180	130,758	-0,141	-0,125
270,195	175,351	-0,174	-0,174
271,209	800,000	-0,031	-0,073
272,224	-29,255	-0,168	-0,066
273,239	173,975	-0,036	-0,036
274,253	20,586	-0,173	-0,096
275,268	-21,506	-0,143	-0,060
276,282	112,142	-0,136	-0,113
277,297	355,983	-0,128	-0,176
278,312	69,487	-0,249	-0,176
279,326	87,661	-0,159	-0,121
280,341	800,000	-0,038	-0,104
281,355	194,119	-0,152	-0,158
282,370	65,378	-0,209	-0,145
283,384	581,104	-0,148	-0,250
284,399	91,298	-0,196	-0,152
285,414	113,996	-0,133	-0,111
286,428	653,756	-0,031	-0,055
287,443	161,096	-0,116	-0,111
288,457	463,296	-0,138	-0,213
289,472	800,000	-0,086	-0,248
290,487	87,991	-0,213	-0,162
291,501	154,428	-0,292	-0,276
292,516	-116,999	-0,064	-0,008
293,530	800,000	-0,074	-0,162
294,545	31,999	-0,140	-0,083
295,560	97,755	-0,090	0,071
296,574	276,767	-0,160	-0,196
297,589	579,282	-0,066	-0,111
298,603	-68,902	-0,128	-0,034
299,618	-133,702	-0,219	-0,018
300,633	-200,000	0,027	-0,086
301,647	-200,000	-0,079	-0,265
302,662	46,054	-0,196	-0,125
303,676	128,772	-0,159	-0,139
304,691	800,000	-0,084	-0,238
305,706	9,127	-0,149	-0,077
306,720	800,000	-0,065	-0,154
307,735	-156,768	-0,091	-0,004
308,749	-160,843	-0,207	-0,007
309,764	11,839	-0,209	-0,110
310,779	-95,259	-0,119	-0,022
311,793	405,652	-0,113	-0,164
312,808	117,586	-0,098	-0,082
313,822	-200,000	-0,044	-0,239
314,837	226,730	-0,077	-0,086
315,852	-16,231	-0,224	-0,097
316,866	-200,000	-0,011	-0,107
317,881	-97,946	-0,267	-0,047
318,895	120,503	-0,145	-0,124
319,910	370,711	-0,113	-0,157
320,925	164,968	-0,124	-0,120
321,939	209,765	-0,121	-0,130
322,954	511,267	-0,090	-0,143
323,968	-148,641	0,046	-0,002
324,983	100,306	-0,168	-0,134
325,997	-28,409	-0,243	-0,096
327,012	-20,318	-0,179	-0,075
328,027	30,137	-0,145	-0,084
329,041	800,000	-0,081	-0,201
330,056	-102,783	-0,174	0,028
331,070	-153,787	-0,122	-0,006
332,085	-43,312	-0,181	-0,062
333,100	-7,628	-0,213	-0,098
334,114	-53,978	-0,154	0,048
335,129	314,006	-0,150	-0,194
336,143	234,134	-0,134	-0,151
337,158	13,838	-0,171	-0,091
338,173	21,164	-0,209	0,116
339,187	-112,586	-0,160	-0,022
340,202	-162,953	-0,170	-0,006
341,216	88,746	-0,184	-0,140
342,231	91,949	-0,143	-0,110
343,246	594,452	-0,117	-0,199
344,260	550,940	-0,092	-0,151
345,275	-17,909	-0,117	-0,050
346,289	261,729	-0,090	-0,107
347,304	-17,660	-0,249	-0,107
348,319	72,515	-0,171	-0,122
349,333	119,544	-0,179	-0,151
350,348	11,751	-0,140	-0,073
351,362	193,584	-0,072	-0,075
352,377	199,832	-0,078	-0,082
353,392	800,000	-0,051	-0,134
354,406	70,885	-0,137	-0,097
355,421	208,736	1304,282	1397,092
356,435	160,635	1463,684	1397,573
