DTS Sentinel unit serial number:	SN410029Multiplexer serial number:	ORYXHardware model number:	OX2-SRSoftware version number:	ORYX F/W v4,00 Oryx Data Collector v3.7.2.0data status	okinstallation	B3 Nyhavnadifferential loss correction	single-endedforward channel	channel 1reverse channel	N/Adate	2023/11/30time	21:42:30forward acquisition time	300,00reverse acquisition time	0,00gamma	499,1914k internal	0,3210k external	0,3210temperature offset calibration	1,0000default loss term (dB/km)	0,3820temperature slope calibration	1,0000multiplexer offset coefficient	1,0000multiplexer slope coefficient	1,0000fibre end	0,00T internal ref (°C)	10,46T ext. ref 1 (°C)	-4,80T ext. ref 2 (°C)	-4,92length (m)	temperature (°C)	Stokes	anti-Stokes-744,400	252,983	-0,145	-0,180
-743,385	-200,000	-0,047	0,316
-742,371	800,000	-0,086	-0,191
-741,356	-200,000	0,012	0,289
-740,342	6,915	-0,285	-0,154
-739,327	-200,000	-0,021	0,356
-738,312	-200,000	-0,031	-0,153
-737,298	496,584	-0,148	0,248
-736,283	755,600	-0,096	-0,189
-735,269	-200,000	-0,009	0,472
-734,254	36,013	-0,236	-0,150
-733,239	-50,275	-0,145	0,049
-732,225	127,604	-0,115	-0,106
-731,210	533,528	0,095	0,163
-730,196	-200,000	0,011	-0,161
-729,181	-200,000	0,025	-0,100
-728,167	271,918	0,031	0,039
-727,152	-158,196	0,051	0,002
-726,137	11,939	-0,118	-0,066
-725,123	-200,000	-0,011	-0,142
-724,108	317,767	-0,066	-0,091
-723,094	34,784	-0,024	-0,015
-722,079	157,049	-0,075	-0,075
-721,064	-36,788	-0,119	0,046
-720,050	-139,741	0,039	-0,003
-719,035	204,259	-0,077	-0,087
-718,021	-32,254	-0,160	-0,065
-717,006	-20,459	-0,104	-0,046
-715,991	-200,000	-0,028	-0,112
-714,977	797,748	0,008	-0,016
-713,962	547,995	-0,009	-0,016
-712,948	-165,674	0,064	-0,002
-711,933	-200,000	0,001	0,105
-710,918	-200,000	0,008	-0,075
-709,904	-79,947	-0,172	0,042
-708,889	-200,000	0,017	-0,135
-707,875	415,914	-0,051	0,079
-706,860	-200,000	0,026	0,117
-705,845	333,616	0,084	0,118
-704,831	184,365	-0,070	-0,075
-703,816	101,432	-0,037	0,031
-702,802	43,227	-0,109	-0,072
-701,787	-200,000	-0,041	-0,141
-700,772	441,141	-0,064	-0,102
-699,758	241,768	0,016	-0,019
-698,743	-200,000	0,017	0,058
-697,729	-125,622	-0,023	0,003
-696,714	-161,762	0,085	-0,003
-695,699	91,262	-0,075	-0,061
-694,685	-200,000	0,020	-0,111
-693,670	-3,731	-0,075	-0,038
-692,656	73,428	0,081	-0,062
-691,641	174,294	0,023	0,024
-690,627	12,194	0,083	0,046
-689,612	90,603	-0,128	0,103
-688,597	-200,000	-0,010	-0,102
-687,583	-37,440	-0,114	-0,044
-686,568	726,515	-0,022	0,043
-685,554	800,000	0,020	0,054
-684,539	800,000	0,037	-0,089
-683,524	-116,132	-0,124	0,017
-682,510	-119,022	0,064	-0,008
-681,495	-200,000	-0,017	-0,102
-680,481	-69,481	-0,146	-0,040
-679,466	392,659	-0,115	-0,174
-678,451	800,000	-0,012	0,037
-677,437	163,907	-0,047	0,048
-676,422	-53,100	0,068	-0,022
-675,408	-57,483	-0,093	-0,029
-674,393	-138,155	0,161	-0,013
-673,378	800,000	-0,018	0,038
-672,364	507,475	0,079	-0,133
-671,349	314,526	-0,024	0,033
-670,335	-200,000	-0,009	-0,030
-669,320	-200,000	0,041	0,167
-668,305	-200,000	-0,023	0,083
-667,291	-200,000	-0,017	-0,066
-666,276	-110,077	-0,123	0,018
-665,262	-200,000	0,033	-0,124
-664,247	-119,699	-0,041	-0,005
-663,232	18,738	0,071	-0,041
-662,218	-200,000	-0,016	-0,061
-661,203	-200,000	-0,001	-0,070
-660,189	-171,108	0,065	-0,002
-659,174	-24,838	-0,052	-0,022
-658,159	179,953	0,027	0,029
-657,145	-58,266	-0,074	-0,023
-656,130	405,080	0,055	-0,084
-655,116	-200,000	0,015	-0,200
-654,101	-200,000	-0,038	0,132
-653,086	-200,000	-0,013	0,047
-652,072	20,709	0,054	-0,031
-651,057	-200,000	-0,049	-0,223
-650,043	501,215	-0,031	-0,053
-649,028	61,321	-0,192	-0,138
-648,014	171,466	0,057	0,059
-646,999	800,000	0,018	-0,042
-645,984	-108,004	-0,154	0,024
-644,970	178,853	0,023	0,024
-643,955	-75,648	0,092	0,024
-642,941	-34,541	-0,045	0,018
-641,926	3,578	-0,059	0,031
-640,911	800,000	0,041	0,095
-639,897	246,910	-0,024	0,029
-638,882	-200,000	0,011	0,151
-637,868	-132,802	0,158	-0,014
-636,853	-200,000	-0,027	-0,138
-635,838	67,272	-0,127	-0,094
-634,824	-200,000	0,027	-0,092
-633,809	800,000	0,020	0,050
-632,795	107,576	0,102	0,088
-631,780	118,031	-0,077	0,069
-630,765	-200,000	0,043	-0,139
-629,751	-70,661	-0,070	0,019
-628,736	729,742	0,047	-0,090
-627,722	175,797	-0,158	0,165
-626,707	-137,122	0,179	-0,015
-625,692	800,000	-0,052	-0,142
-624,678	-200,000	0,058	0,000
-623,663	-103,730	-0,104	0,017
-622,649	-200,000	0,006	-0,094
-621,634	-99,373	-0,066	-0,012
-620,619	-101,632	-0,084	0,015
-619,605	723,178	0,028	0,055
-618,590	-200,000	-0,001	0,225
-617,576	276,361	0,068	0,087
-616,561	-118,283	-0,141	-0,018
-615,546	-200,000	0,020	-0,113
-614,532	70,387	-0,075	-0,056
-613,517	52,598	-0,043	-0,030
-612,503	115,206	-0,093	-0,082
-611,488	375,667	0,101	0,150
-610,474	-200,000	-0,047	0,173
-609,459	754,065	-0,050	0,097
-608,444	-200,000	-0,005	-0,093
-607,430	19,184	-0,150	0,086
-606,415	262,058	-0,148	-0,185
-605,401	-15,340	0,187	0,086
-604,386	800,000	0,037	0,081
-603,371	800,000	-0,032	0,074
-602,357	-180,130	0,092	-0,001
-601,342	17,551	-0,067	-0,038
-600,328	-164,505	-0,078	0,003
-599,313	42,654	-0,007	-0,005
-598,298	-178,972	-0,084	0,001
-597,284	-27,173	0,150	0,063
-596,269	104,466	0,023	0,019
-595,255	-53,695	0,069	0,023
-594,240	5,530	-0,033	0,017
-593,225	10,275	-0,182	0,100
-592,211	492,407	0,026	-0,043
-591,196	-200,000	0,011	-0,165
-590,182	307,828	-0,034	-0,046
-589,167	194,022	0,028	0,031
-588,152	565,846	-0,029	-0,051
-587,138	580,206	0,036	-0,065
-586,123	-59,696	-0,141	0,043
-585,109	-200,000	0,021	0,107
-584,094	-200,000	-0,023	-0,089
-583,079	-109,260	0,060	0,009
-582,065	-200,000	-0,014	0,091
-581,050	184,905	-0,049	-0,052
-580,036	86,107	-0,094	-0,075
-579,021	274,712	0,071	-0,091
-578,006	207,641	-0,071	-0,080
-576,992	-200,000	0,006	0,093
-575,977	67,637	-0,060	-0,044
-574,963	161,050	-0,071	0,072
-573,948	800,000	0,006	-0,016
-572,934	245,329	0,065	0,078
-571,919	-200,000	-0,013	-0,047
-570,904	144,467	0,026	-0,025
-569,890	-13,556	0,151	-0,070
-568,875	209,624	0,034	-0,038
-567,861	800,000	-0,044	0,092
-566,846	-200,000	-0,011	0,116
-565,831	17,156	-0,066	0,038
-564,817	-113,938	-0,089	-0,012
-563,802	-200,000	-0,006	0,105
-562,788	492,389	-0,093	-0,155
-561,773	-200,000	0,003	0,048
-560,758	-86,591	0,090	-0,020
-559,744	370,248	-0,055	0,080
-558,729	800,000	-0,050	0,105
-557,715	233,958	-0,064	-0,076
-556,700	-200,000	-0,032	0,116
-555,685	-200,000	-0,017	-0,058
-554,671	-81,944	0,028	0,006
-553,656	413,690	0,078	0,119
-552,642	158,009	-0,021	-0,021
-551,627	58,273	0,015	0,010
-550,612	73,593	-0,013	-0,010
-549,598	800,000	0,011	-0,024
-548,583	800,000	-0,022	0,068
-547,569	-125,721	0,121	-0,013
-546,554	800,000	0,059	-0,123
-545,539	220,123	0,045	0,052
-544,525	800,000	-0,047	-0,113
-543,510	-67,701	-0,070	-0,020
-542,496	-200,000	-0,007	-0,087
-541,481	3,701	-0,093	-0,049
-540,466	-200,000	0,003	-0,090
-539,452	627,506	-0,011	0,021
-538,437	514,292	-0,081	0,136
-537,423	-68,791	0,065	0,018
-536,408	100,631	-0,041	0,034
-535,393	407,898	0,051	-0,078
-534,379	212,726	-0,038	-0,043
-533,364	800,000	0,049	-0,147
-532,350	641,852	-0,021	-0,038
-531,335	-62,383	-0,088	0,026
-530,321	224,495	-0,077	0,089
-529,306	297,296	-0,103	0,136
-528,291	340,302	-0,024	0,033
-527,277	-106,711	-0,069	-0,011
-526,262	149,310	0,095	0,093
-525,248	800,000	0,015	0,040
-524,233	-48,994	0,109	-0,037
-523,218	-85,019	0,063	-0,014
-522,204	351,080	0,068	-0,097
-521,189	146,004	0,038	-0,037
-520,175	800,000	-0,040	-0,101
-519,160	378,173	0,024	0,035
-518,145	800,000	0,056	-0,119
-517,131	140,100	-0,135	0,128
-516,116	-200,000	-0,021	-0,109
-515,102	-14,062	-0,065	-0,030
-514,087	3,017	-0,130	0,068
-513,072	428,631	0,041	-0,065
-512,058	800,000	-0,050	-0,125
-511,043	800,000	0,038	-0,090
-510,029	111,862	0,047	-0,041
-509,014	349,430	0,061	-0,087
-507,999	80,390	-0,133	-0,103
-506,985	13,976	-0,053	0,030
-505,970	6,525	-0,163	-0,087
-504,956	24,764	-0,064	-0,038
-503,941	800,000	0,017	0,034
-502,926	93,222	0,068	0,056
-501,912	-24,310	-0,086	0,037
-500,897	800,000	-0,021	0,060
-499,883	137,201	-0,101	-0,095
-498,868	146,593	-0,039	0,038
-497,853	-200,000	0,014	-0,173
-496,839	-200,000	-0,027	-0,112
-495,824	173,118	0,068	-0,071
-494,810	-6,693	0,070	-0,034
-493,795	-116,031	-0,075	-0,010
-492,781	-17,524	0,045	-0,020
-491,766	-29,934	-0,219	-0,089
-490,751	-89,551	0,069	0,015
-489,737	800,000	0,023	-0,053
-488,722	-157,642	0,122	-0,005
-487,708	-200,000	-0,011	0,059
-486,693	227,746	0,080	0,094
-485,678	299,334	0,008	0,010
-484,664	553,475	0,094	-0,162
-483,649	-27,616	-0,112	-0,047
-482,635	-200,000	0,028	-0,109
-481,620	-200,000	-0,005	-0,036
-480,605	-168,607	0,063	-0,002
-479,591	-71,162	-0,091	0,024
-478,576	102,824	-0,043	-0,036
-477,562	35,263	-0,114	0,072
-476,547	-200,000	0,012	-0,140
-475,532	800,000	0,017	0,043
-474,518	-200,000	0,023	0,090
-473,503	125,847	0,080	0,072
-472,489	-200,000	0,021	0,108
-471,474	515,273	0,025	0,042
-470,459	511,255	-0,053	0,089
-469,445	182,533	-0,021	-0,023
-468,430	-70,392	0,024	0,007
-467,416	-43,596	0,185	0,067
-466,401	-200,000	-0,005	0,077
-465,386	198,256	-0,024	0,027
-464,372	86,658	0,037	-0,029
-463,357	800,000	-0,007	-0,019
-462,343	10,175	-0,071	-0,039
-461,328	-127,435	-0,039	0,004
-460,313	800,000	-0,048	0,136
-459,299	-137,968	-0,026	0,002
-458,284	100,628	0,063	0,053
-457,270	-200,000	0,025	0,000
-456,255	-200,000	-0,025	0,087
-455,241	-133,812	0,078	-0,007
-454,226	506,053	0,021	-0,035
-453,211	187,662	-0,099	0,107
-452,197	-18,381	0,076	-0,034
-451,182	-38,120	-0,021	0,008
-450,168	7,640	0,111	-0,059
-449,153	631,829	-0,025	-0,046
-448,138	136,241	-0,134	-0,125
-447,124	-200,000	0,004	-0,140
-446,109	-200,000	0,002	0,121
-445,095	-200,000	0,006	-0,038
-444,080	123,111	-0,112	-0,101
-443,065	-200,000	-0,007	0,128
-442,051	69,957	-0,066	0,048
-441,036	240,625	-0,042	0,050
-440,022	-103,544	0,102	0,017
-439,007	-102,209	0,021	0,004
-437,992	-200,000	0,007	0,036
-436,978	42,512	0,118	0,077
-435,963	82,719	0,062	-0,048
-434,949	153,142	-0,047	-0,046
-433,934	-102,359	0,067	-0,011
-432,919	-32,555	0,154	-0,061
-431,905	-123,989	0,146	-0,016
-430,890	-112,327	0,099	0,014
-429,876	328,329	0,079	-0,109
-428,861	-122,149	-0,082	-0,010
-427,846	-102,837	0,144	0,024
-426,832	-129,163	-0,129	-0,013
-425,817	-45,355	-0,208	-0,073
-424,803	-200,000	-0,001	0,031
-423,788	-5,984	-0,093	0,045
-422,773	10,892	-0,038	-0,021
-421,759	-29,947	-0,117	-0,047
-420,744	138,578	-0,066	-0,062
-419,730	-200,000	-0,009	0,162
-418,715	65,325	-0,150	-0,109
-417,701	-200,000	0,003	-0,154
-416,686	-200,000	-0,016	0,064
-415,671	262,499	-0,005	0,006
-414,657	-16,959	-0,027	-0,012
-413,642	501,078	-0,033	-0,055
-412,628	-200,000	0,006	-0,102
-411,613	-66,085	-0,174	-0,049
-410,598	-119,786	-0,028	0,003
-409,584	-200,000	0,002	0,021
-408,569	800,000	0,022	0,069
-407,555	-200,000	-0,007	0,052
-406,540	335,452	0,035	0,049
-405,525	-200,000	-0,024	0,150
-404,511	800,000	0,017	0,042
-403,496	190,474	-0,048	-0,051
-402,482	542,727	0,098	-0,167
-401,467	-90,030	0,070	-0,014
-400,452	106,829	0,122	-0,104
-399,438	-69,469	-0,073	0,020
-398,423	408,242	-0,069	-0,105
-397,409	800,000	-0,032	0,096
-396,394	-24,428	-0,164	-0,070
-395,379	77,776	-0,020	0,015
-394,365	-29,416	0,118	-0,048
-393,350	421,700	0,032	-0,049
-392,336	-172,985	-0,201	-0,004
-391,321	315,183	0,075	-0,102
-390,306	-200,000	0,028	-0,202
-389,292	175,798	-0,054	0,056
-388,277	29,682	-0,074	-0,045
-387,263	-200,000	-0,033	0,000
-386,248	-99,008	0,065	-0,012
-385,233	800,000	-0,018	0,052
-384,219	-80,932	0,054	0,013
-383,204	-77,966	-0,177	0,043
-382,190	-8,692	0,088	-0,042
-381,175	-11,805	-0,067	-0,031
-380,160	-119,556	0,069	0,008
-379,146	100,196	0,108	0,090
-378,131	-167,883	0,099	-0,003
-377,117	59,326	-0,045	0,032
-376,102	-200,000	-0,020	-0,121
-375,088	70,922	0,122	-0,090
-374,073	596,485	0,026	0,046
-373,058	-200,000	-0,003	0,112
-372,044	208,814	-0,111	0,125
-371,029	-10,621	-0,061	0,029
-370,015	174,814	-0,023	-0,024
-369,000	800,000	0,043	-0,127
-367,985	800,000	0,026	-0,057
-366,971	-200,000	-0,012	-0,105
-365,956	800,000	0,023	-0,064
-364,942	316,040	0,042	-0,057
-363,927	800,000	0,026	0,066
-362,912	-200,000	0,010	0,054
-361,898	800,000	-0,063	-0,172
-360,883	611,760	-0,040	-0,072
-359,869	-52,031	0,037	-0,012
-358,854	274,309	-0,068	0,086
-357,839	-72,755	0,147	0,038
-356,825	800,000	0,042	0,120
-355,810	-200,000	-0,020	-0,067
-354,796	62,715	-0,100	0,071
-353,781	149,845	0,112	-0,108
-352,766	-200,000	0,026	-0,172
-351,752	81,054	0,067	-0,052
-350,737	-55,500	-0,076	0,024
-349,723	182,713	0,118	0,125
-348,708	-167,447	-0,041	-0,001
-347,693	-200,000	-0,003	-0,044
-346,679	800,000	-0,054	0,121
-345,664	-116,198	-0,026	0,003
-344,650	-104,871	0,081	0,013
-343,635	-25,042	0,085	0,036
-342,620	800,000	-0,017	0,040
-341,606	-50,866	0,154	0,051
-340,591	-109,121	-0,067	-0,010
-339,577	371,565	0,018	0,027
-338,562	-200,000	0,030	-0,109
-337,548	-126,322	-0,070	0,007
-336,533	800,000	-0,037	0,078
-335,518	-200,000	-0,006	0,023
-334,504	535,400	-0,066	0,112
-333,489	-106,108	-0,215	0,034
-332,475	800,000	0,010	-0,022
-331,460	-200,000	0,008	0,074
-330,445	-200,000	-0,100	0,000
-329,431	-200,000	-0,002	-0,042
-328,416	591,780	0,078	0,138
-327,402	-194,642	0,191	0,001
-326,387	310,947	-0,044	0,059
-325,372	611,443	0,105	0,188
-324,358	-198,315	-0,019	0,000
-323,343	800,000	0,048	0,101
-322,329	48,708	-0,090	0,060
-321,314	-6,985	0,050	-0,024
-320,299	800,000	-0,029	-0,077
-319,285	410,951	0,027	0,041
-318,270	88,266	0,074	0,059
-317,256	312,476	-0,070	-0,094
-316,241	748,966	0,067	0,130
-315,226	13,275	0,077	-0,043
-314,212	681,342	0,049	-0,092
-313,197	758,391	0,068	0,132
-312,183	-115,530	-0,192	-0,025
-311,168	-76,946	0,040	-0,010
-310,153	800,000	-0,034	-0,095
-309,139	21,333	0,089	0,052
-308,124	-53,069	-0,148	-0,048
-307,110	-38,025	0,125	0,047
-306,095	23,427	-0,139	0,081
-305,080	-200,000	0,033	0,170
-304,066	800,000	-0,015	0,036
-303,051	-172,874	0,038	0,001
-302,037	-33,731	0,094	-0,037
-301,022	492,711	-0,023	-0,038
-300,008	-200,000	0,000	0,028
-298,993	-200,000	-0,006	0,062
-297,978	-200,000	-0,003	0,125
-296,964	78,705	-0,053	0,040
-295,949	-200,000	0,035	0,138
-294,935	-115,509	0,078	-0,010
-293,920	5,130	0,126	0,066
-292,905	-69,580	0,063	-0,017
-291,891	283,983	0,078	0,100
-290,876	-8,339	0,065	0,031
-289,862	353,524	0,063	-0,089
-288,847	800,000	-0,052	-0,155
-287,832	-200,000	-0,005	-0,057
-286,818	85,206	-0,045	0,035
-285,803	-15,225	-0,113	0,051
-284,789	-136,442	-0,109	0,009
-283,774	341,629	0,092	-0,128
-282,759	32,113	0,052	-0,032
-281,745	800,000	0,021	-0,041
-280,730	149,329	-0,035	-0,033
-279,716	-200,000	0,025	-0,100
-278,701	-8,579	0,081	0,039
-277,686	800,000	0,039	0,085
-276,672	-200,000	0,008	-0,053
-275,657	-176,606	0,074	0,001
-274,643	750,405	-0,092	-0,177
-273,628	63,738	0,079	-0,056
-272,613	-31,527	-0,037	0,015
-271,599	-200,000	-0,009	-0,046
-270,584	-138,551	0,077	0,006
-269,570	-36,890	-0,116	-0,044
-268,555	3,122	-0,113	0,058
-267,540	124,514	0,062	-0,055
-266,526	-200,000	-0,006	-0,045
-265,511	167,602	-0,143	-0,145
-264,497	-193,097	0,164	-0,001
-263,482	-200,000	0,003	0,048
-262,467	-82,627	0,229	-0,052
-261,453	800,000	0,025	-0,053
-260,438	-65,516	0,095	0,027
-259,424	95,047	-0,083	-0,067
-258,409	-200,000	-0,001	-0,080
-257,395	-200,000	-0,008	0,090
-256,380	800,000	-0,023	0,054
-255,365	800,000	0,076	0,172
-254,351	-98,879	0,114	-0,020
-253,336	-7,035	0,110	-0,053
-252,322	-27,573	-0,119	-0,049
-251,307	380,794	-0,063	0,092
-250,292	800,000	-0,016	0,035
-249,278	706,805	-0,066	0,124
-248,263	226,560	0,116	0,134
-247,249	-200,000	0,003	-0,012
-246,234	-142,238	-0,049	0,003
-245,219	44,355	-0,126	-0,082
-244,205	-83,309	0,034	-0,008
-243,190	-22,108	0,152	0,065
-242,176	-62,781	0,030	0,009
-241,161	309,969	0,055	0,073
-240,146	-163,243	0,044	0,001
-239,132	-13,700	0,085	0,039
-238,117	-200,000	-0,011	-0,073
-237,103	-200,000	0,017	-0,109
-236,088	207,910	-0,052	0,058
-235,073	87,615	0,045	0,035
-234,059	800,000	0,108	0,234
-233,044	-109,325	0,131	0,019
-232,030	-83,736	0,069	0,016
-231,015	800,000	-0,007	-0,018
-230,000	-52,015	-0,084	-0,028
-228,986	217,139	0,090	0,103
-227,971	-26,267	0,056	0,023
-226,957	-200,000	-0,004	-0,096
-225,942	-67,590	-0,080	0,022
-224,927	-200,000	-0,014	0,077
-223,913	163,005	-0,030	-0,030
-222,898	17,175	0,052	0,029
-221,884	-200,000	-0,012	0,054
-220,869	-167,405	0,075	0,002
-219,855	-200,000	0,026	0,113
-218,840	93,706	-0,075	-0,061
-217,825	-200,000	-0,034	0,108
-216,811	-85,823	0,185	-0,040
-215,796	323,843	-0,077	-0,104
-214,782	142,615	0,044	-0,041
-213,767	-200,000	-0,009	-0,054
-212,752	-200,000	0,120	-0,000
-211,738	225,430	0,023	-0,026
-210,723	132,359	0,050	0,046
-209,709	271,435	-0,064	0,080
-208,694	641,933	-0,047	0,085
-207,679	551,292	0,063	-0,108
-206,665	-200,000	0,015	-0,098
-205,650	-118,513	0,133	0,016
-204,636	-131,515	0,053	0,005
-203,621	-119,704	0,124	0,015
-202,606	-200,000	-0,010	0,045
-201,592	-200,000	-0,013	-0,045
-200,577	106,815	0,091	0,077
-199,563	-200,000	0,020	0,114
-198,548	-200,000	0,002	-0,018
-197,533	338,427	-0,044	-0,060
-196,519	-62,193	0,040	0,012
-195,504	-200,000	0,003	0,043
-194,490	131,385	-0,025	-0,023
-193,475	-200,000	-0,018	-0,071
-192,460	125,978	0,039	-0,035
-191,446	663,227	0,046	0,084
-190,431	573,369	-0,061	0,105
-189,417	-200,000	0,009	0,039
-188,402	-200,000	0,001	-0,040
-187,387	208,369	-0,095	-0,105
-186,373	800,000	0,007	-0,014
-185,358	800,000	-0,060	-0,137
-184,344	-56,607	0,116	0,036
-183,329	-71,922	-0,079	-0,021
-182,315	32,070	-0,118	0,072
-181,300	-200,000	-0,010	0,136
-180,285	-131,075	-0,111	0,010
-179,271	741,714	-0,021	0,040
-178,256	415,611	-0,059	-0,089
-177,242	527,428	0,017	0,029
-176,227	-40,641	0,122	-0,045
-175,212	175,882	-0,063	-0,065
-174,198	-153,506	0,082	-0,004
-173,183	-78,720	0,098	-0,023
-172,169	288,996	-0,046	-0,059
-171,154	40,566	0,056	0,036
-170,139	-200,000	0,007	0,105
-169,125	93,375	-0,115	-0,092
-168,110	800,000	0,049	0,112
-167,096	295,337	-0,062	0,081
-166,081	-200,000	0,037	-0,191
-165,066	47,679	0,046	0,031
-164,052	319,087	-0,022	-0,030
-163,037	25,976	-0,150	0,089
-162,023	20,636	0,101	-0,058
-161,008	-200,000	0,000	0,051
-159,993	355,899	-0,069	-0,098
-158,979	-178,946	-0,127	-0,002
-157,964	196,527	-0,045	-0,049
-156,950	-86,488	0,138	-0,030
-155,935	-105,024	0,065	0,010
-154,920	800,000	0,065	0,167
-153,906	15,225	0,176	0,097
-152,891	751,485	-0,037	-0,072
-151,877	-200,000	0,014	0,049
-150,862	108,419	0,042	0,035
-149,847	-172,638	0,162	-0,004
-148,833	640,813	-0,049	-0,088
-147,818	-200,000	0,003	0,085
-146,804	202,675	-0,074	0,082
-145,789	179,975	-0,016	-0,017
-144,775	-151,002	0,058	-0,003
-143,760	-6,555	0,073	0,035
-142,745	-136,638	-0,173	-0,014
-141,731	132,394	0,092	-0,084
-140,716	-55,524	-0,023	0,007
-139,702	454,615	0,052	0,083
-138,687	800,000	0,058	0,162
-137,672	-200,000	0,014	0,111
-136,658	104,038	-0,046	0,039
-135,643	-193,106	-0,030	-0,000
-134,629	29,437	0,074	-0,044
-133,614	455,694	0,085	-0,135
-132,599	800,000	-0,040	0,106
-131,585	330,052	0,077	0,105
-130,570	310,424	0,049	0,065
-129,556	-105,786	-0,082	-0,013
-128,541	346,629	-0,011	-0,015
-127,526	22,851	-0,043	0,025
-126,512	-162,278	0,018	0,001
-125,497	800,000	-0,004	0,011
-124,483	-95,727	0,095	0,018
-123,468	-152,897	0,016	0,001
-122,453	505,411	0,009	0,015
-121,439	800,000	-0,028	0,058
-120,424	96,276	0,067	0,054
-119,410	800,000	0,030	0,071
-118,395	-200,000	-0,006	-0,154
-117,380	-200,000	0,012	0,110
-116,366	139,885	0,066	-0,062
-115,351	-200,000	0,035	-0,230
-114,337	191,267	-0,108	-0,115
-113,322	14,114	0,048	-0,026
-112,307	-1,493	0,106	0,053
-111,293	51,829	0,053	0,036
-110,278	282,792	-0,085	0,108
-109,264	79,306	-0,074	0,056
-108,249	800,000	0,039	-0,080
-107,234	39,156	-0,047	0,030
-106,220	158,556	0,049	0,048
-105,205	438,009	-0,034	-0,052
-104,191	11,084	0,105	-0,056
-103,176	-200,000	0,033	0,166
-102,162	-200,000	-0,010	0,084
-101,147	800,000	-0,030	0,064
-100,132	-58,702	0,192	-0,058
-99,118	-24,919	-0,037	0,015
-98,103	-107,567	-0,112	-0,017
-97,089	375,156	-0,073	0,105
-96,074	-82,721	0,046	0,010
-95,059	-200,000	-0,004	0,029
-94,045	441,366	-0,065	-0,100
-93,030	343,678	-0,020	0,027
-92,016	-200,000	0,027	-0,100
-91,001	-200,000	-0,022	0,096
-89,986	354,790	0,096	0,136
-88,972	-164,182	-0,148	-0,005
-87,957	350,594	-0,053	0,074
-86,943	587,002	-0,061	-0,107
-85,928	505,797	-0,021	-0,034
-84,913	-115,041	0,023	-0,003
-83,899	-72,176	-0,039	0,010
-82,884	675,617	0,035	0,064
-81,870	45,698	-0,075	-0,049
-80,855	-200,000	0,002	0,108
-79,840	-200,000	0,025	0,084
-78,826	-200,000	0,001	-0,022
-77,811	188,364	-0,046	-0,049
-76,797	118,237	-0,107	-0,093
-75,782	31,394	0,039	-0,024
-74,767	-152,931	0,089	0,004
-73,753	-5,368	-0,123	0,059
-72,738	-200,000	-0,018	0,061
-71,724	800,000	-0,035	-0,083
-70,709	-200,000	-0,030	-0,110
-69,694	72,385	-0,089	-0,065
-68,680	-142,304	0,172	-0,012
-67,665	-119,258	0,090	0,011
-66,651	110,809	0,068	0,058
-65,636	556,483	0,018	-0,031
-64,622	-200,000	-0,009	-0,087
-63,607	-114,411	0,094	0,013
-62,592	144,897	-0,099	0,093
-61,578	27,116	-0,114	0,068
-60,563	-181,728	0,063	-0,001
-59,549	719,567	0,077	0,145
-58,534	25,192	-1,975	-1,155
-57,519	371,130	-1,377	-1,978
-56,505	-200,000	-0,445	-4,411
-55,490	369,705	0,941	1,350
-54,476	800,000	5,119	11,839
-53,461	-200,000	21,246	340,350
-52,446	800,000	759,537	2354,331
-51,432	557,799	1663,453	2843,441
-50,417	73,822	1664,563	1230,821
-49,403	18,357	1537,967	864,847
-48,388	12,280	1461,308	792,289
-47,373	19,462	1452,140	821,818
-46,359	15,730	1441,369	797,911
-45,344	10,548	1437,441	770,981
-44,330	10,538	1435,153	769,675
-43,315	10,467	1433,464	768,400
-42,300	10,466	1431,942	767,550
-41,286	10,505	1430,442	766,902
-40,271	10,555	1429,124	766,402
-39,257	10,530	1428,129	765,717
-38,242	10,509	1426,913	764,934
-37,227	10,516	1426,047	764,474
-36,213	10,538	1424,765	763,860
-35,198	10,521	1423,460	763,053
-34,184	10,575	1422,898	762,975
-33,169	10,524	1421,230	761,810
-32,154	10,542	1420,314	761,371
-31,140	10,572	1419,199	760,887
-30,125	10,613	1417,893	760,350
-29,111	10,539	1416,679	759,318
-28,096	10,545	1415,670	758,775
-27,082	10,502	1414,315	757,818
-26,067	10,459	1413,569	757,185
-25,052	10,488	1412,539	756,739
-24,038	10,541	1411,099	756,188
-23,023	10,521	1410,301	755,638
-22,009	10,514	1409,251	755,012
-20,994	10,484	1408,201	754,276
-19,979	10,462	1407,456	753,747
-18,965	10,470	1406,521	753,252
-17,950	10,440	1405,679	752,631
-16,936	10,409	1405,061	752,125
-15,921	10,382	1403,972	751,385
-14,906	10,399	1402,923	750,876
-13,892	10,439	1401,737	750,398
-12,877	10,368	1401,296	749,800
-11,863	10,422	1400,212	749,443
-10,848	10,397	1399,267	748,790
-9,833	10,331	1398,483	748,033
-8,819	10,275	1397,705	747,330
-7,804	10,325	1396,845	747,070
-6,790	10,302	1395,824	746,389
-5,775	10,303	1394,593	745,704
-4,760	10,336	1393,526	745,258
-3,746	10,296	1392,792	744,652
-2,731	10,316	1391,773	744,168
-1,717	10,277	1391,253	743,679
-0,702	10,298	1389,127	742,613
0,313	14,233	1301,970	714,085
1,327	30,238	692,017	415,934
2,342	46,809	119,978	78,520
3,356	-0,251	16,610	8,305
4,371	3,218	3,510	1,796
5,386	26,544	0,925	0,545
6,400	-200,000	0,170	0,581
7,415	296,224	-0,194	-0,252
8,429	68,711	-0,215	-0,156
9,444	-41,536	-0,349	-0,126
10,459	25,693	-0,275	-0,161
11,473	334,505	-0,195	-0,267
12,488	112,166	-0,219	-0,186
13,502	364,783	-0,152	-0,216
14,517	-53,339	-0,229	-0,074
15,531	54,559	-0,298	-0,202
16,546	77,321	-0,312	-0,234
17,561	-75,890	-0,396	-0,098
18,575	-120,336	-0,160	-0,019
19,590	105,083	-0,265	-0,221
20,604	30,902	-0,232	-0,140
21,619	75,667	-0,432	-0,321
22,634	65,059	-0,426	-0,303
23,648	174,612	-0,411	-0,419
24,663	50,545	-0,420	-0,279
25,677	50,877	-0,356	-0,237
26,692	0,280	-0,325	-0,163
27,707	30,718	-0,300	-0,180
28,721	23,661	-0,425	-0,245
29,736	27,602	-0,505	-0,299
30,750	131,124	-0,376	-0,340
31,765	-0,610	-0,471	-0,234
32,780	75,356	-0,426	-0,316
33,794	110,224	-0,234	-0,197
34,809	-72,650	-0,272	-0,070
35,823	96,309	-0,307	-0,247
36,838	-25,674	-0,560	-0,231
37,853	57,337	-0,399	-0,274
38,867	129,518	-0,350	-0,315
39,882	104,987	-0,347	-0,288
40,896	49,053	-0,356	-0,235
41,911	85,379	-0,339	-0,261
42,926	-18,538	-0,454	-0,198
43,940	-40,643	-0,377	-0,137
44,955	48,623	-0,429	-0,282
45,969	-7,438	-0,416	-0,197
46,984	54,573	-0,331	-0,224
47,999	5,373	-0,325	-0,168
49,013	37,616	-0,338	-0,211
50,028	289,121	-0,258	-0,330
51,042	91,167	-0,428	-0,337
52,057	6,216	-0,384	-0,199
53,071	234,793	-0,324	-0,376
54,086	-10,947	-0,443	-0,204
55,101	15,509	-0,235	-0,129
56,115	175,836	-0,309	-0,315
57,130	73,781	-0,359	-0,264
58,144	5,600	-0,558	-0,289
59,159	27,807	-0,397	-0,235
60,174	58,654	-0,415	-0,286
61,188	114,126	-0,260	-0,222
62,203	77,655	-0,380	-0,284
63,217	263,644	-0,212	-0,259
64,232	-20,508	-0,339	-0,146
65,247	60,414	-0,314	-0,218
66,261	77,033	-0,316	-0,236
67,276	25,107	-0,488	-0,283
68,290	78,482	-0,350	-0,262
69,305	242,910	-0,261	-0,307
70,320	-32,172	-0,318	-0,124
71,334	98,206	-0,242	-0,196
72,349	-44,209	-0,252	-0,088
73,363	134,203	-0,265	-0,241
74,378	94,899	-0,346	-0,276
75,393	139,766	-0,309	-0,285
76,407	-193,573	-0,327	0,002
77,422	33,937	-0,300	-0,183
78,436	3,582	-0,208	-0,106
79,451	66,100	-0,317	-0,225
80,466	65,057	-0,311	-0,220
81,480	71,828	-0,301	-0,219
82,495	-17,966	-0,325	-0,142
83,509	134,478	-0,376	-0,342
84,524	56,889	-0,325	-0,222
85,539	-123,839	-0,320	-0,035
86,553	-19,808	-0,309	-0,133
87,568	-27,321	-0,308	-0,125
88,582	43,230	-0,387	-0,247
89,597	183,808	-0,185	-0,192
90,611	-54,522	-0,328	-0,103
91,626	3,965	-0,236	0,120
92,641	-189,904	-0,342	-0,003
93,655	-47,349	-0,172	-0,058
94,670	179,753	-0,270	-0,277
95,684	65,670	-0,343	-0,243
96,699	-13,021	-0,275	-0,125
97,714	155,211	-0,165	-0,159
98,728	119,501	-0,268	-0,232
99,743	-1,773	-0,135	-0,066
100,757	9,807	-0,272	-0,144
101,772	-9,801	-0,441	-0,204
102,787	-95,071	-0,283	-0,053
103,801	21,788	-0,400	-0,227
104,816	-123,080	-0,326	-0,036
105,830	-1,759	-0,240	-0,118
106,845	-35,817	-0,181	-0,068
107,860	183,502	-0,187	-0,193
108,874	392,431	-0,162	-0,236
109,889	133,894	-0,245	-0,221
110,903	87,628	-0,285	-0,220
111,918	162,267	-0,293	-0,287
112,933	781,740	-0,107	-0,206
113,947	413,304	-0,161	-0,240
114,962	101,048	-0,275	-0,224
115,976	49,595	-0,336	-0,221
116,991	152,485	-0,240	-0,229
118,006	195,091	-0,191	-0,203
119,020	84,623	-0,291	-0,222
120,035	-24,607	-0,144	-0,060
121,049	-70,854	-0,233	-0,061
122,064	-124,025	-0,216	0,023
123,079	332,965	-0,126	-0,170
124,093	234,565	-0,242	-0,278
125,108	253,071	-0,122	-0,146
126,122	33,945	-0,247	-0,150
127,137	370,325	-0,259	-0,367
128,151	717,861	-0,053	-0,100
129,166	-147,575	-0,227	-0,013
130,181	124,260	-0,096	-0,084
131,195	31,017	-0,199	-0,119
132,210	-35,136	-0,302	-0,114
133,224	-62,127	-0,257	-0,074
134,239	237,825	-0,149	-0,173
135,254	-73,402	-0,299	-0,076
136,268	-35,968	-0,227	-0,085
137,283	134,673	-0,114	-0,104
138,297	30,938	-0,254	-0,151
139,312	236,227	-0,185	-0,214
140,327	-90,637	-0,286	-0,057
141,341	292,258	-0,182	-0,232
142,356	229,752	-0,190	-0,217
143,370	121,482	-0,294	-0,255
144,385	201,897	-0,275	-0,295
145,400	-171,505	-0,283	-0,006
146,414	61,048	-0,281	-0,194
147,429	69,971	-0,236	-0,169
148,443	100,382	-0,217	-0,175
149,458	36,164	-0,246	-0,150
150,473	59,366	-0,218	-0,149
151,487	-75,767	-0,201	-0,049
152,502	363,828	-0,172	-0,242
153,516	-52,500	-0,253	-0,081
154,531	132,951	-0,201	-0,181
155,546	-78,866	-0,298	-0,070
156,560	31,150	-0,232	-0,139
157,575	-95,321	-0,265	-0,049
158,589	160,736	-0,205	-0,199
159,604	-26,238	-0,366	-0,149
160,619	202,932	-0,192	-0,206
161,633	124,846	-0,367	-0,321
162,648	-5,112	-0,250	-0,119
163,662	23,801	-0,165	-0,094
164,677	-54,748	-0,283	-0,088
165,692	-22,692	-0,338	-0,142
166,706	131,929	-0,161	-0,144
167,721	30,996	-0,289	-0,172
168,735	30,927	-0,263	-0,156
169,750	170,700	-0,167	-0,166
170,764	35,877	-0,301	-0,183
171,779	-7,275	-0,265	-0,124
172,794	-1,541	-0,215	-0,105
173,808	323,510	-0,208	-0,277
174,823	384,033	-0,186	-0,267
175,837	93,755	-0,286	-0,225
176,852	-38,543	-0,279	-0,102
177,867	39,580	-0,106	-0,066
178,881	9,728	-0,204	-0,107
179,896	-107,252	-0,317	0,048
180,910	124,877	-0,139	-0,122
181,925	47,124	-0,328	-0,212
182,940	0,053	-0,225	-0,111
183,954	121,194	-0,241	-0,208
184,969	2,703	-0,193	-0,097
185,983	93,455	-0,237	-0,186
186,998	534,259	-0,167	-0,276
188,013	248,408	-0,165	-0,194
189,027	-21,512	-0,254	-0,107
190,042	-15,708	-0,250	-0,110
191,056	408,059	-0,134	-0,197
192,071	417,330	-0,110	-0,163
193,086	-127,504	-0,274	0,027
194,100	63,494	-0,122	-0,085
195,115	-36,068	-0,271	-0,101
196,129	255,230	-0,108	-0,128
197,144	330,969	-0,245	-0,328
198,159	58,250	-0,280	-0,190
199,173	-200,000	-0,010	-0,148
200,188	190,087	-0,186	-0,194
201,202	215,332	-0,235	-0,259
202,217	138,312	-0,200	-0,182
203,232	-161,149	-0,241	0,009
204,246	234,078	-0,162	-0,185
205,261	52,941	-0,147	-0,097
206,275	151,776	-0,128	-0,121
207,290	18,695	-0,273	-0,151
208,304	243,972	-0,109	0,127
209,319	-97,616	-0,235	-0,042
210,334	14,404	-0,127	-0,068
211,348	92,629	-0,188	-0,147
212,363	-133,744	-0,329	-0,028
213,377	91,507	-0,208	-0,162
214,392	800,000	-0,138	-0,265
215,407	95,931	-0,285	-0,226
216,421	468,816	-0,082	-0,127
217,436	-145,402	-0,085	0,005
218,450	20,341	-0,219	-0,122
219,465	6,595	-0,294	-0,151
220,480	66,264	-0,244	-0,171
221,494	278,689	-0,237	-0,293
222,509	800,000	-0,062	-0,191
223,523	-53,168	-0,209	-0,066
224,538	43,331	-0,246	-0,155
225,553	163,328	-0,183	-0,178
226,567	-12,887	-0,146	-0,065
227,582	-85,445	-0,236	-0,051
228,596	34,016	-0,158	-0,095
229,611	-32,078	-0,150	-0,058
230,626	87,184	-0,241	-0,184
231,640	210,361	-0,133	-0,144
232,655	92,518	-0,292	-0,227
233,669	95,946	-0,293	-0,231
234,684	110,989	-0,222	-0,184
235,699	113,468	-0,136	-0,114
236,713	336,896	-0,150	-0,202
237,728	112,724	-0,167	-0,139
238,742	193,597	-0,096	-0,101
239,757	286,963	-0,121	-0,151
240,772	-56,068	-0,180	-0,055
241,786	800,000	-0,137	-0,298
242,801	-25,448	-0,126	0,051
243,815	-72,075	-0,149	-0,038
244,830	178,992	-0,158	-0,159
245,844	-75,199	-0,177	0,043
246,859	105,396	-0,144	-0,117
247,874	163,981	-0,206	-0,201
248,888	-22,597	-0,195	-0,081
249,903	177,031	-0,147	-0,148
250,917	337,996	-0,121	-0,163
251,932	-200,000	-0,020	-0,119
252,947	306,060	-0,187	-0,241
253,961	18,747	-0,165	-0,091
254,976	122,067	-0,248	-0,214
255,990	383,590	-0,175	-0,249
257,005	107,372	-0,170	-0,140
258,020	82,839	-0,071	0,053
259,034	-106,967	-0,171	0,026
260,049	-56,170	-0,190	-0,058
261,063	111,535	-0,266	-0,221
262,078	11,315	-0,175	-0,092
263,093	-93,301	-0,246	-0,047
264,107	-111,324	-0,173	-0,024
265,122	77,383	-0,099	-0,072
266,136	-200,000	-0,009	-0,040
267,151	72,115	-0,094	0,068
268,166	-109,684	-0,086	-0,012
269,180	44,881	-0,159	-0,101
270,195	-200,000	-0,025	-0,091
271,209	124,437	-0,114	-0,099
272,224	-4,762	-0,167	-0,079
273,239	0,294	-0,053	0,026
274,253	-44,348	-0,216	-0,074
275,268	95,493	-0,239	-0,188
276,282	115,526	-0,142	-0,119
277,297	288,054	-0,174	-0,217
278,312	-150,192	-0,285	0,015
279,326	53,738	-0,189	-0,125
280,341	320,329	-0,080	-0,104
281,355	-96,501	-0,106	-0,019
282,370	-161,242	-0,192	0,007
283,384	235,143	-0,135	-0,154
284,399	64,838	-0,213	-0,147
285,414	-60,793	-0,183	-0,053
286,428	209,448	-0,102	0,110
287,443	-109,526	-0,136	-0,020
288,457	-28,782	-0,243	-0,096
289,472	432,582	-0,060	-0,089
290,487	-95,291	-0,281	-0,051
291,501	-24,081	-0,115	0,047
292,516	-84,817	-0,127	-0,027
293,530	46,238	-0,169	0,107
294,545	54,291	-0,211	-0,139
295,560	800,000	-0,073	-0,184
296,574	92,302	-0,112	-0,087
297,589	153,884	-0,098	0,093
298,603	121,474	-0,195	-0,167
299,618	800,000	-0,051	-0,128
300,633	304,930	-0,090	-0,115
301,647	74,906	-0,187	-0,135
302,662	19,502	-0,114	-0,063
303,676	-89,907	-0,084	-0,017
304,691	25,483	-0,065	-0,037
305,706	-50,851	-0,254	-0,082
306,720	-1,816	-0,194	-0,093
307,735	800,000	-0,077	-0,155
308,749	627,191	-0,074	-0,129
309,764	-200,000	-0,002	-0,030
310,779	21,539	-0,213	-0,119
311,793	-105,109	-0,224	-0,035
312,808	88,704	-0,173	-0,132
313,822	241,634	-0,161	-0,185
314,837	278,547	-0,107	-0,131
315,852	301,570	-0,119	-0,152
316,866	-4,005	-0,032	-0,015
317,881	-36,863	-0,127	-0,046
318,895	-28,488	-0,179	-0,071
319,910	800,000	-0,127	-0,277
320,925	800,000	-0,162	-0,310
321,939	9,133	-0,128	-0,066
322,954	148,084	-0,231	-0,214
323,968	-200,000	-0,035	-0,132
324,983	84,629	-0,033	-0,025
325,997	21,510	-0,148	-0,082
327,012	219,999	-0,133	-0,146
328,027	515,090	-0,109	-0,176
329,041	333,962	-0,127	-0,169
330,056	-26,902	-0,110	-0,044
331,070	-119,973	-0,185	-0,022
332,085	219,041	-0,121	-0,133
333,100	129,227	-0,181	-0,158
334,114	216,303	-0,173	-0,189
335,129	205,671	-0,148	-0,158
336,143	190,305	-0,112	-0,116
337,158	-200,000	-0,061	-0,328
338,173	70,877	-0,168	-0,119
339,187	-58,377	-0,048	-0,014
340,202	109,402	-0,212	-0,174
341,216	61,593	-0,131	0,089
342,231	45,093	-0,136	-0,086
343,246	50,271	-0,205	-0,132
344,260	242,170	-0,078	-0,089
345,275	-7,556	-0,094	0,043
346,289	83,541	-0,097	-0,072
347,304	371,713	-0,087	-0,122
348,319	10,785	-0,052	-0,027
349,333	126,303	-0,184	-0,159
350,348	800,000	-0,044	-0,091
351,362	290,360	-0,133	-0,165
352,377	-123,825	-0,095	-0,010
353,392	-60,274	-0,112	0,032
354,406	149,618	-0,065	0,060
355,421	207,376	1311,817	1401,759
356,435	159,527	1472,149	1402,230
