DTS Sentinel unit serial number:	SN410029Multiplexer serial number:	ORYXHardware model number:	OX2-SRSoftware version number:	ORYX F/W v4,00 Oryx Data Collector v3.7.2.0data status	okinstallation	B3 Nyhavnadifferential loss correction	single-endedforward channel	channel 1reverse channel	N/Adate	2023/12/04time	11:12:30forward acquisition time	300,00reverse acquisition time	0,00gamma	499,1914k internal	0,3202k external	0,3202temperature offset calibration	1,0000default loss term (dB/km)	0,3820temperature slope calibration	1,0000multiplexer offset coefficient	1,0000multiplexer slope coefficient	1,0000fibre end	0,00T internal ref (°C)	13,88T ext. ref 1 (°C)	-0,40T ext. ref 2 (°C)	-0,42length (m)	temperature (°C)	Stokes	anti-Stokes-744,400	181,662	-0,165	-0,177
-743,385	322,049	0,169	0,234
-742,371	800,000	-0,069	-0,192
-741,356	-200,000	-0,034	0,361
-740,342	90,787	-0,120	-0,098
-739,327	-200,000	0,020	0,261
-738,312	239,503	-0,193	-0,234
-737,298	800,000	-0,121	0,332
-736,283	514,277	-0,149	-0,253
-735,269	-200,000	0,075	0,346
-734,254	206,247	-0,101	-0,114
-733,239	36,937	-0,268	0,172
-732,225	68,925	-0,191	-0,142
-731,210	240,243	0,136	0,165
-730,196	-12,538	-0,012	0,006
-729,181	-189,280	-0,120	0,001
-728,167	157,065	-0,081	-0,081
-727,152	-92,730	-0,069	-0,014
-726,137	-53,894	-0,072	-0,024
-725,123	27,867	-0,126	0,077
-724,108	160,755	-0,100	-0,101
-723,094	800,000	0,021	-0,066
-722,079	-200,000	0,016	-0,165
-721,064	-200,000	-0,006	-0,036
-720,050	-200,000	0,003	-0,048
-719,035	679,420	0,042	0,080
-718,021	-200,000	0,009	0,065
-717,006	-152,127	-0,102	-0,005
-715,991	152,689	-0,123	-0,122
-714,977	-200,000	0,031	-0,202
-713,962	355,906	0,010	-0,015
-712,948	437,368	0,023	-0,037
-711,933	243,767	-0,035	0,043
-710,918	286,359	-0,043	-0,057
-709,904	-142,281	0,013	0,001
-708,889	263,957	-0,048	-0,060
-707,875	-81,339	0,137	-0,032
-706,860	201,596	0,089	-0,100
-705,845	26,969	-0,024	0,015
-704,831	-111,373	0,068	-0,010
-703,816	38,422	-0,179	0,116
-702,802	-116,993	-0,104	-0,014
-701,787	800,000	-0,069	0,149
-700,772	-72,363	-0,090	0,024
-699,758	11,331	-0,140	0,078
-698,743	-109,999	0,033	-0,005
-697,729	-105,643	0,012	-0,002
-696,714	125,567	-0,084	0,077
-695,699	-109,879	0,084	0,013
-694,685	-149,531	-0,124	-0,007
-693,670	-200,000	-0,004	-0,079
-692,656	197,568	-0,136	0,151
-691,641	50,995	0,025	-0,017
-690,627	-113,812	0,142	0,020
-689,612	10,444	-0,083	-0,046
-688,597	-118,019	0,064	0,008
-687,583	-73,398	-0,177	0,047
-686,568	148,329	-0,079	-0,078
-685,554	-200,000	-0,016	-0,115
-684,539	-37,357	-0,084	-0,032
-683,524	800,000	0,012	0,037
-682,510	404,174	0,075	-0,115
-681,495	-200,000	0,011	-0,138
-680,481	114,960	-0,074	-0,065
-679,466	28,256	-0,234	0,143
-678,451	-200,000	0,001	-0,067
-677,437	-3,341	-0,119	-0,060
-676,422	272,155	-0,100	0,128
-675,408	140,662	-0,031	-0,030
-674,393	56,252	-0,061	-0,043
-673,378	-29,739	-0,084	0,035
-672,364	223,302	-0,028	-0,033
-671,349	-147,851	-0,094	0,006
-670,335	84,988	0,082	-0,065
-669,320	-200,000	-0,004	0,058
-668,305	143,425	0,042	0,040
-667,291	-28,003	0,077	-0,032
-666,276	-200,000	0,011	-0,151
-665,262	220,380	-0,047	-0,055
-664,247	-200,000	0,006	0,057
-663,232	8,449	0,044	0,024
-662,218	800,000	0,020	0,060
-661,203	800,000	0,014	0,037
-660,189	18,440	0,015	0,008
-659,174	-98,690	-0,184	0,034
-658,159	137,515	-0,107	-0,101
-657,145	188,999	0,048	-0,053
-656,130	459,900	-0,075	0,121
-655,116	129,074	-0,100	0,092
-654,101	-200,000	0,000	0,054
-653,086	468,945	-0,024	-0,039
-652,072	-200,000	0,056	-0,237
-651,057	800,000	0,024	0,059
-650,043	-63,788	-0,037	0,011
-649,028	-200,000	0,024	-0,105
-648,014	-182,564	0,123	-0,002
-646,999	-200,000	0,021	-0,090
-645,984	605,778	-0,022	0,040
-644,970	599,219	-0,043	-0,077
-643,955	145,812	-0,086	-0,083
-642,941	697,271	-0,037	-0,071
-641,926	-53,863	-0,065	-0,021
-640,911	67,068	0,028	-0,021
-639,897	-200,000	0,022	0,075
-638,882	17,743	-0,070	-0,040
-637,868	204,953	0,045	-0,051
-636,853	-200,000	0,031	-0,103
-635,838	322,137	-0,032	0,044
-634,824	-200,000	-0,002	-0,066
-633,809	68,390	0,059	-0,043
-632,795	147,030	-0,007	0,007
-631,780	472,311	-0,093	0,151
-630,765	-200,000	0,006	-0,087
-629,751	-45,305	-0,165	0,059
-628,736	-200,000	0,019	-0,179
-627,722	800,000	0,034	-0,086
-626,707	39,817	0,061	0,040
-625,692	-80,414	0,166	0,040
-624,678	156,208	0,100	0,100
-623,663	61,554	-0,154	0,111
-622,649	506,186	-0,017	0,029
-621,634	-52,058	0,087	-0,029
-620,619	358,971	0,068	-0,098
-619,605	286,990	0,000	0,000
-618,590	-82,943	-0,040	0,009
-617,576	-128,931	0,131	-0,013
-616,561	-119,020	-0,072	-0,009
-615,546	-19,549	0,100	-0,045
-614,532	-200,000	0,032	-0,144
-613,517	143,765	-0,024	-0,023
-612,503	-85,330	-0,053	0,012
-611,488	153,174	-0,058	0,058
-610,474	800,000	-0,039	-0,110
-609,459	800,000	0,046	0,122
-608,444	-200,000	0,041	-0,145
-607,430	800,000	-0,041	-0,103
-606,415	-167,875	-0,072	0,002
-605,401	-200,000	0,014	0,069
-604,386	-200,000	-0,005	-0,046
-603,371	-137,478	-0,106	0,009
-602,357	32,228	0,074	-0,046
-601,342	800,000	-0,032	0,076
-600,328	-181,311	-0,088	-0,001
-599,313	-200,000	-0,024	0,111
-598,298	-112,914	0,065	-0,009
-597,284	-104,640	0,097	0,016
-596,269	193,338	0,085	0,093
-595,255	128,917	-0,102	0,094
-594,240	800,000	0,013	-0,031
-593,225	-200,000	-0,021	-0,169
-592,211	-200,000	0,018	0,078
-591,196	800,000	-0,098	-0,214
-590,182	601,007	0,016	-0,029
-589,167	179,013	0,103	-0,109
-588,152	174,755	-0,039	-0,041
-587,138	130,127	0,093	-0,086
-586,123	-14,668	-0,161	-0,074
-585,109	800,000	-0,052	-0,113
-584,094	634,679	-0,012	-0,023
-583,079	800,000	0,063	-0,190
-582,065	221,298	-0,026	0,030
-581,050	-39,344	0,080	-0,030
-580,036	-200,000	0,008	-0,048
-579,021	-105,950	0,119	0,019
-578,006	800,000	0,050	-0,106
-576,992	-200,000	-0,012	-0,163
-575,977	87,003	0,016	-0,013
-574,963	-11,998	-0,019	-0,009
-573,948	-55,348	0,123	0,039
-572,934	548,278	0,047	0,081
-571,919	-200,000	0,034	-0,157
-570,904	278,356	-0,081	-0,105
-569,890	25,599	-0,093	0,056
-568,875	-126,214	0,031	0,003
-567,861	-164,130	0,105	0,003
-566,846	-200,000	0,001	-0,007
-565,831	-200,000	0,003	-0,078
-564,817	-200,000	-0,008	-0,057
-563,802	409,573	-0,078	-0,120
-562,788	-200,000	-0,014	-0,142
-561,773	440,641	0,017	-0,026
-560,758	-98,896	0,018	0,003
-559,744	177,260	0,016	-0,017
-558,729	-200,000	0,008	0,043
-557,715	800,000	-0,009	-0,022
-556,700	-200,000	0,004	-0,018
-555,685	35,125	-0,071	-0,045
-554,671	140,832	0,025	-0,024
-553,656	-200,000	0,022	-0,134
-552,642	800,000	-0,047	0,105
-551,627	-97,566	0,060	0,011
-550,612	81,425	-0,030	-0,023
-549,598	-164,708	-0,011	-0,000
-548,583	19,906	-0,082	-0,047
-547,569	-200,000	0,004	0,058
-546,554	116,648	-0,200	0,177
-545,539	-200,000	0,028	0,151
-544,525	-143,042	-0,158	0,011
-543,510	-37,836	-0,053	0,020
-542,496	105,735	0,065	0,056
-541,481	295,797	-0,050	-0,066
-540,466	-179,790	0,044	0,001
-539,452	40,514	0,095	0,062
-538,437	-84,953	0,040	0,009
-537,423	-62,588	0,148	0,044
-536,408	167,395	0,065	-0,067
-535,393	180,052	-0,112	0,118
-534,379	-54,787	-0,064	-0,021
-533,364	445,143	0,030	-0,048
-532,350	313,646	-0,013	0,018
-531,335	-0,725	-0,048	-0,024
-530,321	-83,517	0,104	-0,024
-529,306	-3,332	-0,037	-0,018
-528,291	-200,000	-0,034	-0,143
-527,277	-91,803	-0,125	0,025
-526,262	-200,000	0,019	0,072
-525,248	800,000	0,021	-0,067
-524,233	397,192	0,091	0,138
-523,218	-90,737	0,107	0,022
-522,204	430,218	-0,066	-0,103
-521,189	-99,181	-0,116	0,021
-520,175	800,000	-0,046	-0,094
-519,160	-66,961	0,135	-0,038
-518,145	-9,058	0,094	0,045
-517,131	-164,480	0,089	0,003
-516,116	15,706	0,168	0,095
-515,102	-111,482	-0,127	0,018
-514,087	-200,000	-0,007	-0,096
-513,072	23,175	-0,176	-0,104
-512,058	-200,000	0,009	-0,034
-511,043	364,582	0,064	0,093
-510,029	178,672	-0,011	-0,011
-509,014	-23,009	-0,149	-0,064
-507,999	-25,874	0,118	-0,050
-506,985	-74,605	-0,117	-0,030
-505,970	-200,000	-0,003	0,026
-504,956	-200,000	0,032	-0,206
-503,941	800,000	-0,037	-0,075
-502,926	25,853	0,127	0,076
-501,912	-200,000	-0,020	0,130
-500,897	-138,656	-0,138	-0,011
-499,883	246,311	0,054	0,065
-498,868	-104,237	-0,084	0,014
-497,853	70,594	0,075	0,056
-496,839	-9,781	0,054	0,026
-495,824	800,000	0,041	0,127
-494,810	-125,054	0,106	0,012
-493,795	800,000	0,065	0,142
-492,781	31,058	0,076	0,047
-491,766	-200,000	-0,029	-0,118
-490,751	-51,269	-0,160	0,054
-489,737	-200,000	0,002	-0,044
-488,722	-80,754	0,128	0,030
-487,708	35,838	-0,005	-0,003
-486,693	-53,848	-0,063	0,020
-485,678	-200,000	0,006	0,045
-484,664	-200,000	-0,030	-0,116
-483,649	-120,247	-0,017	-0,002
-482,635	6,279	0,126	0,067
-481,620	-128,360	0,110	-0,011
-480,605	667,048	-0,068	0,127
-479,591	118,483	-0,101	0,089
-478,576	28,706	-0,137	-0,083
-477,562	76,566	-0,225	0,171
-476,547	225,133	-0,128	-0,149
-475,532	-200,000	0,008	0,048
-474,518	-200,000	-0,006	-0,092
-473,503	67,258	0,155	-0,114
-472,489	318,684	-0,057	0,078
-471,474	800,000	0,024	0,059
-470,459	171,060	-0,094	-0,097
-469,445	-62,745	-0,170	-0,050
-468,430	-200,000	0,004	0,059
-467,416	800,000	-0,023	0,073
-466,401	800,000	0,017	-0,045
-465,386	25,620	-0,061	-0,036
-464,372	546,859	0,065	0,113
-463,357	-200,000	0,002	0,012
-462,343	-169,944	0,106	0,003
-461,328	278,741	0,076	-0,097
-460,313	107,674	0,066	-0,057
-459,299	-79,013	0,130	0,032
-458,284	-113,899	0,052	0,007
-457,270	131,685	0,046	-0,042
-456,255	800,000	0,024	-0,062
-455,241	-130,830	-0,095	-0,009
-454,226	-119,835	0,037	0,005
-453,211	-200,000	0,010	0,053
-452,197	-200,000	-0,007	0,064
-451,182	-200,000	-0,007	0,037
-450,168	185,695	-0,110	0,117
-449,153	361,416	-0,050	-0,072
-448,138	-200,000	-0,003	-0,062
-447,124	177,865	-0,058	-0,061
-446,109	64,162	-0,024	-0,017
-445,095	-200,000	-0,003	0,044
-444,080	-200,000	0,020	-0,113
-443,065	548,244	0,010	-0,017
-442,051	-200,000	-0,031	0,107
-441,036	-200,000	-0,053	-0,228
-440,022	-200,000	-0,021	0,168
-439,007	-19,546	-0,046	-0,020
-437,992	139,208	-0,088	0,083
-436,978	800,000	-0,036	0,099
-435,963	800,000	0,019	0,039
-434,949	-200,000	-0,004	-0,043
-433,934	180,967	0,026	-0,028
-432,919	-200,000	-0,010	-0,080
-431,905	800,000	0,031	-0,085
-430,890	304,265	0,036	-0,048
-429,876	478,824	0,047	0,076
-428,861	-200,000	0,010	0,050
-427,846	164,179	0,043	0,044
-426,832	-92,925	-0,029	-0,006
-425,817	-70,649	-0,141	0,038
-424,803	243,983	0,033	0,040
-423,788	101,496	0,124	0,104
-422,773	110,014	0,146	0,126
-421,759	-99,413	0,021	-0,004
-420,744	800,000	0,039	-0,116
-419,730	-23,555	-0,068	0,029
-418,715	347,406	-0,073	-0,103
-417,701	-94,055	0,096	0,019
-416,686	800,000	-0,012	-0,029
-415,671	-200,000	0,141	0,000
-414,657	-200,000	0,010	0,048
-413,642	-160,226	-0,021	-0,001
-412,628	-139,311	0,109	-0,008
-411,613	-104,961	-0,101	0,016
-410,598	99,661	-0,069	-0,058
-409,584	175,637	-0,022	0,022
-408,569	111,354	0,077	-0,066
-407,555	-127,793	-0,106	0,011
-406,540	-200,000	0,028	0,111
-405,525	-96,632	-0,064	-0,012
-404,511	-91,622	-0,088	-0,018
-403,496	172,457	-0,030	0,031
-402,482	265,032	-0,014	-0,017
-401,467	282,507	-0,103	-0,133
-400,452	-200,000	0,003	-0,022
-399,438	800,000	-0,014	0,038
-398,423	-76,728	0,110	-0,027
-397,409	-61,747	-0,111	0,033
-396,394	800,000	-0,027	0,076
-395,379	367,570	0,034	0,049
-394,365	-79,929	0,103	0,025
-393,350	-76,220	0,073	-0,018
-392,336	-200,000	0,003	-0,011
-391,321	15,580	-0,053	-0,030
-390,306	800,000	-0,024	-0,052
-389,292	611,770	0,021	-0,038
-388,277	-23,327	0,072	-0,031
-387,263	299,934	-0,035	0,047
-386,248	-200,000	0,009	0,120
-385,233	-200,000	-0,006	0,105
-384,219	186,302	0,058	-0,062
-383,204	-200,000	-0,021	-0,090
-382,190	658,792	-0,082	-0,152
-381,175	-200,000	-0,063	-0,201
-380,160	-133,064	-0,082	-0,007
-379,146	43,875	0,029	0,019
-378,131	161,832	0,032	-0,032
-377,117	68,617	0,108	-0,080
-376,102	-9,215	-0,064	-0,031
-375,088	539,267	-0,022	-0,037
-374,073	83,548	-0,049	0,038
-373,058	-200,000	0,028	0,152
-372,044	-200,000	0,009	0,052
-371,029	109,640	0,154	0,132
-370,015	419,419	-0,056	0,086
-369,000	800,000	-0,062	-0,172
-367,985	-200,000	-0,028	0,126
-366,971	-16,022	0,158	-0,072
-365,956	-121,994	0,029	0,003
-364,942	-165,755	0,227	0,007
-363,927	-123,311	0,096	-0,011
-362,912	137,761	-0,083	-0,077
-361,898	-67,137	-0,176	0,049
-360,883	676,875	-0,049	0,092
-359,869	-200,000	-0,007	-0,076
-358,854	-129,707	0,101	-0,010
-357,839	800,000	0,017	0,043
-356,825	-82,488	-0,112	0,026
-355,810	-43,713	-0,051	0,018
-354,796	-29,377	0,089	-0,036
-353,781	-54,878	0,132	0,042
-352,766	-159,928	-0,072	0,003
-351,752	496,401	0,032	0,053
-350,737	23,848	-0,028	0,016
-349,723	-200,000	-0,000	-0,046
-348,708	-124,436	-0,066	0,007
-347,693	136,995	-0,070	-0,066
-346,679	-78,145	-0,048	-0,012
-345,664	-200,000	0,005	0,021
-344,650	238,373	0,110	-0,131
-343,635	-75,058	0,061	-0,015
-342,620	-200,000	0,001	-0,006
-341,606	-200,000	-0,000	0,014
-340,591	-107,608	-0,140	-0,022
-339,577	800,000	-0,090	-0,208
-338,562	95,182	-0,094	0,076
-337,548	76,328	-0,087	0,066
-336,533	-200,000	0,010	0,108
-335,518	173,343	0,138	0,142
-334,504	800,000	-0,025	0,059
-333,489	37,525	-0,081	0,051
-332,475	410,946	-0,036	0,055
-331,460	-200,000	-0,003	-0,086
-330,445	-156,671	0,048	-0,002
-329,431	-146,691	0,091	0,006
-328,416	-94,489	-0,009	-0,002
-327,402	-200,000	0,017	0,097
-326,387	800,000	-0,022	-0,053
-325,372	-165,344	-0,024	-0,001
-324,358	15,217	-0,103	0,058
-323,343	191,807	-0,062	-0,067
-322,329	-55,570	0,057	0,018
-321,314	-200,000	0,008	-0,150
-320,299	-200,000	-0,018	0,102
-319,285	18,022	0,095	0,054
-318,270	-200,000	-0,016	-0,083
-317,256	-72,267	0,040	0,011
-316,241	-165,812	0,087	-0,003
-315,226	21,956	0,082	0,048
-314,212	-35,626	0,147	0,057
-313,197	-78,351	0,112	0,027
-312,183	-16,650	0,046	0,021
-311,168	776,865	0,013	0,026
-310,153	-200,000	-0,014	-0,165
-309,139	800,000	0,053	-0,135
-308,124	-102,120	-0,042	0,007
-307,110	800,000	-0,028	0,071
-306,095	445,833	0,064	0,101
-305,080	119,929	-0,079	0,070
-304,066	4,204	0,104	0,054
-303,051	2,371	-0,158	-0,081
-302,037	-173,351	-0,034	0,001
-301,022	-6,643	-0,067	0,033
-300,008	231,601	0,063	0,074
-298,993	300,205	0,061	0,080
-297,978	-200,000	0,012	0,049
-296,964	473,213	-0,030	0,048
-295,949	-123,218	0,061	-0,007
-294,935	-93,266	0,021	0,004
-293,920	-137,419	0,151	0,012
-292,905	60,484	-0,023	0,016
-291,891	-200,000	0,019	-0,062
-290,876	90,622	-0,105	-0,084
-289,862	-105,177	-0,036	0,006
-288,847	-200,000	-0,010	0,079
-287,832	-76,214	-0,042	-0,011
-286,818	-32,636	0,096	-0,038
-285,803	125,977	0,028	0,025
-284,789	603,976	0,056	0,100
-283,774	-78,170	0,055	0,013
-282,759	800,000	-0,035	0,085
-281,745	800,000	0,104	-0,272
-280,730	-68,669	-0,226	-0,062
-279,716	-151,885	-0,060	-0,003
-278,701	663,607	-0,029	-0,054
-277,686	-200,000	0,040	0,172
-276,672	-120,374	0,123	0,015
-275,657	90,446	-0,059	0,047
-274,643	608,559	0,074	0,132
-273,628	-30,647	-0,133	-0,053
-272,613	415,746	0,065	-0,099
-271,599	-200,000	0,009	-0,057
-270,584	-65,727	-0,033	-0,009
-269,570	211,126	-0,021	-0,023
-268,555	800,000	-0,034	0,086
-267,540	800,000	0,022	0,046
-266,526	-12,751	-0,051	-0,024
-265,511	379,730	0,012	0,018
-264,497	-200,000	0,017	0,101
-263,482	264,113	0,124	0,154
-262,467	-200,000	-0,005	0,045
-261,453	57,384	0,022	0,015
-260,438	253,551	-0,124	-0,151
-259,424	-200,000	-0,005	0,050
-258,409	257,708	0,043	-0,053
-257,395	46,590	-0,125	0,082
-256,380	-33,628	0,084	0,033
-255,365	-167,104	-0,085	-0,002
-254,351	194,228	-0,106	0,115
-253,336	-7,171	-0,069	0,033
-252,322	800,000	-0,039	0,100
-251,307	608,264	-0,036	-0,065
-250,292	800,000	-0,031	0,080
-249,278	-200,000	-0,036	0,132
-248,263	-48,421	0,138	0,047
-247,249	84,324	-0,096	0,075
-246,234	79,406	-0,028	-0,021
-245,219	105,324	-0,018	0,015
-244,205	-38,635	-0,084	-0,031
-243,190	45,110	0,024	-0,016
-242,176	91,887	0,047	-0,037
-241,161	-200,000	-0,018	0,092
-240,146	-200,000	-0,018	-0,083
-239,132	-107,452	-0,111	-0,017
-238,117	800,000	-0,012	0,035
-237,103	382,608	0,033	0,049
-236,088	-200,000	0,032	-0,112
-235,073	492,980	0,107	-0,176
-234,059	179,678	-0,086	0,090
-233,044	144,763	0,021	0,020
-232,030	-200,000	-0,006	0,049
-231,015	212,822	-0,022	0,024
-230,000	248,877	-0,023	-0,028
-228,986	707,447	-0,049	0,092
-227,971	800,000	0,027	0,053
-226,957	-8,401	0,064	-0,031
-225,942	-200,000	0,015	-0,052
-224,927	-4,230	0,008	0,004
-223,913	541,340	0,041	-0,070
-222,898	-22,937	0,005	0,002
-221,884	59,899	-0,016	0,011
-220,869	168,773	0,086	0,088
-219,855	-200,000	-0,035	0,132
-218,840	-200,000	0,027	0,161
-217,825	800,000	0,027	-0,078
-216,811	287,968	0,066	0,086
-215,796	-154,026	-0,156	-0,007
-214,782	-123,774	-0,078	0,009
-213,767	176,863	0,048	-0,049
-212,752	-71,560	0,223	0,059
-211,738	-200,000	-0,007	-0,105
-210,723	-20,014	-0,101	0,044
-209,709	-56,412	-0,131	0,041
-208,694	-1,044	-0,110	0,055
-207,679	98,796	-0,068	-0,055
-206,665	34,423	0,007	-0,004
-205,650	-141,971	-0,123	-0,009
-204,636	-36,738	-0,008	0,003
-203,621	800,000	-0,027	-0,059
-202,606	-200,000	0,015	-0,070
-201,592	-108,425	0,047	0,007
-200,577	800,000	0,039	-0,099
-199,563	254,598	0,051	-0,062
-198,548	-15,324	-0,086	-0,039
-197,533	-138,275	0,104	-0,008
-196,519	9,841	-0,110	0,059
-195,504	-41,714	-0,023	0,008
-194,490	-45,791	-0,147	-0,051
-193,475	-200,000	0,040	0,157
-192,460	-200,000	0,003	0,030
-191,446	35,184	-0,083	0,052
-190,431	91,632	0,083	0,066
-189,417	-122,339	0,058	-0,007
-188,402	800,000	0,023	-0,064
-187,387	-200,000	-0,014	-0,063
-186,373	-4,263	0,025	0,012
-185,358	303,631	-0,040	-0,052
-184,344	57,596	0,150	0,104
-183,329	531,287	-0,066	0,112
-182,315	204,766	0,076	0,084
-181,300	44,795	-0,140	0,092
-180,285	-200,000	-0,014	-0,047
-179,271	157,034	0,092	-0,090
-178,256	-200,000	-0,009	0,188
-177,242	-56,131	0,069	0,022
-176,227	234,272	-0,094	-0,111
-175,212	-151,552	0,161	0,008
-174,198	52,365	0,141	-0,095
-173,183	-200,000	-0,030	-0,112
-172,169	790,853	0,046	0,091
-171,154	36,043	0,076	-0,047
-170,139	15,272	0,072	-0,040
-169,125	800,000	-0,073	0,161
-168,110	545,030	0,054	-0,092
-167,096	277,711	0,070	-0,089
-166,081	34,473	-0,093	-0,058
-165,066	228,589	0,062	-0,071
-164,052	218,090	-0,152	0,173
-163,037	79,390	0,058	0,044
-162,023	-200,000	0,014	0,059
-161,008	372,340	-0,064	0,093
-159,993	60,390	0,093	-0,066
-158,979	146,961	0,092	0,088
-157,964	-11,489	0,090	0,042
-156,950	-116,474	-0,091	0,012
-155,935	800,000	-0,019	0,057
-154,920	-162,841	0,069	-0,002
-153,906	-200,000	0,016	0,149
-152,891	-200,000	0,003	0,052
-151,877	-67,123	-0,104	-0,029
-150,862	800,000	0,039	-0,118
-149,847	20,251	0,038	-0,022
-148,833	426,620	0,047	0,073
-147,818	800,000	-0,021	0,063
-146,804	530,810	-0,039	0,065
-145,789	343,688	-0,042	-0,058
-144,775	-43,980	-0,134	-0,047
-143,760	636,465	-0,049	0,088
-142,745	-200,000	0,002	0,043
-141,731	-142,175	0,060	0,004
-140,716	-142,075	-0,070	0,005
-139,702	509,099	-0,050	0,083
-138,687	112,403	0,071	0,061
-137,672	29,509	-0,047	0,029
-136,658	59,190	-0,081	-0,056
-135,643	276,806	-0,031	-0,039
-134,629	-27,354	0,044	-0,018
-133,614	404,899	-0,067	0,100
-132,599	379,373	-0,060	0,087
-131,585	-40,562	-0,088	0,032
-130,570	314,268	-0,037	0,050
-129,556	-129,685	-0,024	0,002
-128,541	-7,777	-0,128	0,061
-127,526	46,215	0,092	0,061
-126,512	414,246	-0,069	-0,104
-125,497	-87,000	-0,057	0,012
-124,483	-167,033	-0,161	0,005
-123,468	28,769	0,198	-0,119
-122,453	-79,932	-0,065	-0,015
-121,439	-200,000	-0,001	-0,010
-120,424	460,012	-0,040	-0,063
-119,410	294,116	-0,081	-0,105
-118,395	800,000	-0,044	0,100
-117,380	83,548	0,057	0,044
-116,366	-200,000	-0,003	-0,036
-115,351	-200,000	0,011	0,048
-114,337	-200,000	-0,032	-0,187
-113,322	-137,247	0,070	0,006
-112,307	800,000	-0,036	0,078
-111,293	-200,000	-0,005	-0,052
-110,278	-200,000	0,024	0,122
-109,264	86,164	-0,069	-0,054
-108,249	3,480	0,199	-0,102
-107,234	800,000	0,044	0,113
-106,220	215,762	-0,102	0,115
-105,205	50,726	-0,112	0,075
-104,191	52,329	0,028	0,019
-103,176	800,000	-0,049	-0,099
-102,162	-96,955	0,107	-0,020
-101,147	-200,000	-0,012	-0,104
-100,132	-200,000	0,010	-0,190
-99,118	800,000	-0,080	-0,223
-98,103	800,000	-0,013	-0,040
-97,089	800,000	0,024	0,049
-96,074	-200,000	-0,017	0,116
-95,059	-62,605	-0,049	0,014
-94,045	-200,000	0,014	-0,118
-93,030	385,122	-0,025	0,036
-92,016	800,000	-0,059	-0,157
-91,001	84,408	-0,092	-0,072
-89,986	-200,000	-0,066	-0,221
-88,972	-35,015	0,097	0,037
-87,957	-42,564	0,028	0,010
-86,943	56,935	-0,145	-0,100
-85,928	610,876	-0,006	-0,011
-84,913	800,000	-0,029	-0,060
-83,899	-148,268	0,016	-0,001
-82,884	418,355	-0,029	-0,044
-81,870	800,000	0,031	0,073
-80,855	108,846	0,028	0,024
-79,840	800,000	0,030	-0,072
-78,826	-200,000	-0,007	0,056
-77,811	617,156	-0,059	-0,106
-76,797	-89,614	0,171	0,035
-75,782	-4,883	0,107	0,052
-74,767	-200,000	-0,034	0,130
-73,753	-74,757	0,101	-0,026
-72,738	-200,000	0,010	-0,034
-71,724	367,054	0,078	-0,112
-70,709	13,936	-0,130	-0,072
-69,694	115,718	0,020	-0,017
-68,680	800,000	-0,047	0,095
-67,665	726,758	0,042	0,079
-66,651	-32,978	-0,101	0,039
-65,636	800,000	0,017	0,038
-64,622	229,218	0,031	-0,036
-63,607	634,545	-0,064	-0,115
-62,592	-200,000	-0,006	-0,023
-61,578	331,292	0,023	-0,031
-60,563	-58,877	0,100	-0,030
-59,549	52,667	-0,066	0,044
-58,534	-49,604	-1,677	-0,562
-57,519	546,014	-1,247	-2,119
-56,505	-200,000	-0,519	-4,531
-55,490	218,269	0,950	1,075
-54,476	800,000	4,835	10,993
-53,461	-200,000	18,749	308,385
-52,446	-200,000	737,443	2306,493
-51,432	571,645	1653,362	2860,684
-50,417	78,995	1670,027	1264,124
-49,403	21,886	1542,806	887,549
-48,388	15,760	1465,667	813,426
-47,373	17,738	1455,608	817,356
-46,359	16,790	1445,834	807,293
-45,344	14,004	1441,199	791,347
-44,330	13,923	1439,168	789,811
-43,315	13,885	1437,640	788,759
-42,300	13,931	1435,983	788,040
-41,286	13,997	1434,495	787,507
-40,271	13,966	1433,141	786,582
-39,257	13,937	1432,064	785,823
-38,242	13,985	1430,847	785,353
-37,227	13,985	1429,699	784,692
-36,213	14,003	1428,111	783,874
-35,198	13,987	1427,155	783,241
-34,184	14,010	1426,163	782,776
-33,169	13,947	1424,900	781,754
-32,154	13,992	1423,842	781,354
-31,140	14,021	1422,373	780,653
-30,125	14,010	1421,236	779,950
-29,111	13,981	1420,229	779,226
-28,096	13,995	1418,986	778,579
-27,082	13,912	1418,087	777,667
-26,067	13,869	1417,045	776,861
-25,052	13,954	1415,912	776,608
-24,038	13,860	1415,060	775,668
-23,023	13,889	1413,891	775,134
-22,009	13,923	1412,841	774,688
-20,994	13,891	1412,069	774,084
-19,979	13,885	1411,212	773,555
-18,965	13,833	1410,303	772,779
-17,950	13,876	1409,126	772,305
-16,936	13,806	1408,492	771,602
-15,921	13,837	1407,291	771,056
-14,906	13,842	1406,304	770,509
-13,892	13,848	1405,328	769,970
-12,877	13,813	1404,526	769,340
-11,863	13,807	1403,618	768,781
-10,848	13,774	1402,781	768,142
-9,833	13,768	1401,879	767,586
-8,819	13,747	1400,980	766,966
-7,804	13,735	1400,066	766,382
-6,790	13,773	1398,967	765,926
-5,775	13,724	1398,027	765,154
-4,760	13,691	1397,245	764,543
-3,746	13,706	1396,185	764,003
-2,731	13,691	1395,562	763,559
-1,717	13,667	1394,640	762,912
-0,702	13,742	1392,739	762,191
0,313	17,567	1310,645	734,982
1,327	33,781	705,600	433,218
2,342	52,028	123,989	83,392
3,356	2,157	16,784	8,547
4,371	-13,160	3,263	1,493
5,386	-86,336	0,573	0,124
6,400	265,290	0,121	0,149
7,415	29,348	-0,224	-0,134
8,429	-58,066	-0,374	-0,115
9,444	111,566	-0,259	-0,221
10,459	800,000	-0,102	-0,303
11,473	27,135	-0,403	-0,239
12,488	-24,378	-0,250	-0,105
13,502	-54,844	-0,344	-0,109
14,517	30,240	-0,323	-0,194
15,531	146,450	-0,395	-0,375
16,546	120,852	-0,384	-0,338
17,561	100,105	-0,424	-0,347
18,575	-101,242	-0,175	-0,030
19,590	159,419	-0,268	-0,264
20,604	-140,794	-0,359	-0,026
21,619	86,284	-0,458	-0,356
22,634	13,905	-0,382	-0,209
23,648	92,112	-0,437	-0,347
24,663	107,057	-0,375	-0,314
25,677	54,584	-0,275	-0,187
26,692	28,609	-0,344	-0,205
27,707	7,817	-0,294	-0,155
28,721	-72,281	-0,407	-0,106
29,736	167,560	-0,413	-0,415
30,750	46,111	-0,468	-0,305
31,765	91,896	-0,494	-0,392
32,780	166,193	-0,427	-0,427
33,794	119,689	-0,271	-0,237
34,809	283,896	-0,232	-0,295
35,823	45,988	-0,353	-0,230
36,838	20,556	-0,461	-0,262
37,853	152,403	-0,340	-0,327
38,867	94,012	-0,384	-0,307
39,882	94,420	-0,315	-0,252
40,896	172,299	-0,198	-0,201
41,911	-6,767	-0,330	-0,158
42,926	-10,895	-0,268	-0,124
43,940	112,703	-0,417	-0,356
44,955	47,943	-0,471	-0,309
45,969	789,058	-0,146	-0,284
46,984	137,448	-0,311	-0,286
47,999	42,038	-0,348	-0,222
49,013	48,186	-0,254	-0,167
50,028	114,201	-0,254	-0,217
51,042	55,908	-0,336	-0,229
52,057	29,208	-0,309	-0,185
53,071	141,542	-0,296	-0,276
54,086	92,277	-0,341	-0,271
55,101	105,974	-0,334	-0,278
56,115	-5,634	-0,327	-0,157
57,130	-68,659	-0,420	-0,114
58,144	111,333	-0,375	-0,318
59,159	210,931	-0,361	-0,400
60,174	141,859	-0,452	-0,422
61,188	6,756	-0,490	-0,256
62,203	30,139	-0,343	-0,206
63,217	68,914	-0,316	-0,228
64,232	110,141	-0,286	-0,241
65,247	322,424	-0,262	-0,352
66,261	150,986	-0,427	-0,409
67,276	108,043	-0,329	-0,276
68,290	77,532	-0,332	-0,248
69,305	137,793	-0,263	-0,242
70,320	429,333	-0,191	-0,292
71,334	167,140	-0,294	-0,294
72,349	-84,166	-0,373	-0,082
73,363	59,997	-0,353	-0,245
74,378	4,289	-0,326	-0,167
75,393	-41,947	-0,459	-0,164
76,407	136,135	-0,267	-0,245
77,422	136,420	-0,209	-0,192
78,436	-9,469	-0,295	-0,138
79,451	-23,210	-0,444	-0,187
80,466	148,727	-0,200	-0,190
81,480	161,909	-0,196	-0,193
82,495	18,459	-0,386	-0,216
83,509	212,062	-0,248	-0,275
84,524	28,143	-0,371	-0,219
85,539	-7,377	-0,196	-0,093
86,553	132,595	-0,270	-0,244
87,568	30,684	-0,218	-0,130
88,582	141,367	-0,282	-0,262
89,597	136,619	-0,238	-0,218
90,611	81,425	-0,323	-0,244
91,626	301,124	-0,149	-0,193
92,641	-106,666	-0,275	-0,042
93,655	-31,014	-0,320	-0,126
94,670	-69,812	-0,370	-0,098
95,684	15,679	-0,305	-0,168
96,699	190,486	-0,217	-0,229
97,714	396,922	-0,235	-0,346
98,728	222,482	-0,160	-0,181
99,743	129,640	-0,259	-0,232
100,757	119,681	-0,275	-0,239
101,772	-55,541	-0,314	-0,098
102,787	132,984	-0,318	-0,288
103,801	75,418	-0,355	-0,263
104,816	268,590	-0,225	-0,277
105,830	29,812	-0,296	-0,176
106,845	-6,205	-0,318	-0,151
107,860	277,546	-0,182	-0,227
108,874	46,902	-0,298	-0,194
109,889	134,025	-0,308	-0,279
110,903	371,019	-0,201	-0,287
111,918	354,223	-0,204	-0,284
112,933	-4,676	-0,237	-0,114
113,947	-70,221	-0,130	-0,034
114,962	155,332	-0,141	-0,136
115,976	800,000	-0,157	-0,319
116,991	259,006	-0,274	-0,332
118,006	74,781	-0,191	-0,140
119,020	-19,087	-0,298	-0,129
120,035	-5,322	-0,243	-0,116
121,049	87,065	-0,341	-0,263
122,064	12,235	-0,251	-0,135
123,079	-125,315	-0,332	-0,035
124,093	77,035	-0,372	-0,276
125,108	221,018	-0,313	-0,352
126,122	800,000	-0,126	-0,263
127,137	18,006	-0,178	-0,099
128,151	307,794	-0,219	-0,287
129,166	76,135	-0,264	-0,195
130,181	54,791	-0,268	-0,181
131,195	110,986	-0,321	-0,270
132,210	179,129	-0,155	-0,158
133,224	137,843	-0,269	-0,246
134,239	178,981	-0,182	-0,186
135,254	258,439	-0,199	-0,240
136,268	8,407	-0,282	-0,148
137,283	35,541	-0,205	-0,126
138,297	231,707	-0,259	-0,297
139,312	800,000	-0,096	-0,221
140,327	116,623	-0,251	-0,215
141,341	234,845	-0,167	-0,192
142,356	92,903	-0,232	-0,183
143,370	273,697	-0,169	-0,209
144,385	143,193	-0,293	-0,273
145,400	26,496	-0,363	-0,212
146,414	108,523	-0,270	-0,225
147,429	263,158	-0,270	-0,328
148,443	256,977	-0,276	-0,332
149,458	199,126	-0,166	-0,178
150,473	-11,716	-0,153	-0,070
151,487	56,679	-0,116	-0,078
152,502	163,938	-0,235	-0,231
153,516	422,313	-0,193	-0,290
154,531	62,617	-0,229	-0,159
155,546	97,804	-0,200	-0,161
156,560	-181,204	-0,274	-0,004
157,575	-144,935	-0,335	-0,021
158,589	719,093	-0,087	-0,163
159,604	-28,051	-0,306	-0,123
160,619	258,643	-0,279	-0,336
161,633	86,592	-0,217	-0,167
162,648	30,334	-0,329	-0,196
163,662	166,642	-0,251	-0,249
164,677	132,982	-0,097	-0,087
165,692	-79,494	-0,266	-0,062
166,706	446,595	-0,132	-0,202
167,721	239,551	-0,174	-0,202
168,735	552,491	-0,198	-0,333
169,750	328,626	-0,117	-0,157
170,764	23,928	-0,237	-0,136
171,779	-3,183	-0,227	-0,110
172,794	12,242	-0,143	-0,077
173,808	-68,592	-0,248	-0,066
174,823	247,674	-0,227	-0,268
175,837	-14,515	-0,260	-0,116
176,852	17,831	-0,298	-0,165
177,867	232,692	-0,201	-0,231
178,881	-2,149	-0,202	-0,099
179,896	-0,281	-0,155	-0,077
180,910	-6,547	-0,254	-0,120
181,925	132,515	-0,197	-0,177
182,940	-10,476	-0,297	-0,137
183,954	329,436	-0,241	-0,323
184,969	-4,140	-0,203	-0,097
185,983	3,771	-0,285	-0,144
186,998	-121,584	-0,214	0,024
188,013	198,094	-0,150	-0,160
189,027	250,577	-0,161	-0,191
190,042	15,851	-0,287	-0,156
191,056	121,178	-0,283	-0,245
192,071	-2,373	-0,159	-0,077
193,086	3,553	-0,283	-0,143
194,100	65,566	-0,165	-0,116
195,115	-2,806	-0,185	-0,090
196,129	215,877	-0,214	-0,236
197,144	126,267	-0,286	-0,251
198,159	97,027	-0,269	-0,214
199,173	15,096	-0,324	-0,176
200,188	48,089	-0,147	-0,095
201,202	595,005	-0,093	-0,161
202,217	109,614	-0,169	-0,141
203,232	136,871	-0,170	-0,155
204,246	46,452	-0,358	-0,230
205,261	328,143	-0,184	-0,246
206,275	8,293	-0,178	-0,093
207,290	800,000	-0,094	-0,265
208,304	165,147	-0,134	-0,132
209,319	178,440	-0,177	-0,180
210,334	6,189	-0,259	-0,133
211,348	-88,442	-0,307	-0,063
212,363	47,876	-0,323	-0,209
213,377	99,819	-0,253	-0,203
214,392	-85,366	-0,157	-0,034
215,407	-42,324	-0,078	0,027
216,421	800,000	-0,048	-0,135
217,436	800,000	-0,123	-0,255
218,450	317,731	-0,189	-0,249
219,465	231,010	-0,164	-0,186
220,480	252,114	-0,168	-0,199
221,494	-82,064	-0,217	-0,049
222,509	156,131	-0,155	-0,148
223,523	800,000	-0,035	-0,078
224,538	43,990	-0,308	-0,195
225,553	28,688	-0,258	-0,151
226,567	326,225	-0,088	-0,117
227,582	97,896	-0,165	-0,131
228,596	290,890	-0,195	-0,247
229,611	-51,615	-0,106	0,034
230,626	121,203	-0,273	-0,236
231,640	-155,635	-0,186	-0,008
232,655	32,938	-0,202	-0,121
233,669	800,000	-0,043	-0,132
234,684	103,883	-0,210	-0,171
235,699	135,716	-0,040	-0,036
236,713	249,240	-0,105	-0,123
237,728	244,214	-0,148	-0,172
238,742	300,001	-0,166	-0,213
239,757	20,957	-0,291	-0,163
240,772	800,000	-0,173	-0,347
241,786	800,000	-0,074	-0,145
242,801	403,914	-0,122	-0,179
243,815	800,000	-0,105	-0,212
244,830	-62,008	-0,196	-0,056
245,844	195,957	-0,221	-0,233
246,859	3,196	-0,261	-0,131
247,874	231,482	-0,173	-0,196
248,888	-75,679	-0,213	-0,052
249,903	-12,008	-0,131	-0,059
250,917	-66,876	-0,120	-0,033
251,932	-200,000	-0,041	-0,130
252,947	48,528	-0,218	-0,141
253,961	635,401	-0,067	-0,119
254,976	211,894	-0,251	-0,274
255,990	35,677	-0,146	-0,088
257,005	142,038	-0,170	-0,156
258,020	79,334	-0,249	-0,184
259,034	-200,000	-0,059	-0,305
260,049	-24,738	-0,214	-0,088
261,063	152,555	-0,240	-0,226
262,078	-26,902	-0,269	-0,108
263,093	-200,000	-0,069	-0,216
264,107	374,770	-0,129	-0,182
265,122	76,465	-0,085	0,062
266,136	195,893	-0,174	-0,183
267,151	-130,497	-0,133	-0,012
268,166	-125,396	-0,325	0,034
269,180	-37,306	-0,143	-0,052
270,195	34,541	-0,185	-0,111
271,209	52,248	-0,124	-0,082
272,224	173,784	-0,182	-0,182
273,239	-22,811	-0,207	-0,086
274,253	-83,026	-0,210	-0,046
275,268	-54,676	-0,140	-0,043
276,282	73,630	0,034	-0,025
277,297	169,808	-0,160	-0,158
278,312	395,196	-0,094	-0,136
279,326	-119,202	-0,157	-0,019
280,341	66,768	-0,239	-0,168
281,355	8,178	-0,181	-0,093
282,370	800,000	-0,067	-0,149
283,384	294,626	-0,194	-0,246
284,399	41,563	-0,231	-0,144
285,414	236,725	-0,134	-0,153
286,428	26,958	-0,216	-0,125
287,443	241,713	-0,054	0,062
288,457	451,339	-0,020	-0,031
289,472	186,514	-0,212	-0,218
290,487	115,767	-0,163	-0,138
291,501	21,382	-0,269	-0,151
292,516	-100,024	-0,168	-0,029
293,530	17,408	-0,134	-0,073
294,545	152,973	-0,131	-0,124
295,560	47,398	-0,130	-0,083
296,574	415,507	-0,073	-0,107
297,589	216,062	-0,225	-0,247
298,603	36,775	-0,309	-0,188
299,618	155,506	-0,091	0,087
300,633	-120,837	-0,089	0,010
301,647	111,759	-0,087	-0,072
302,662	86,029	-0,124	-0,094
303,676	131,858	-0,182	-0,162
304,691	166,651	-0,170	-0,167
305,706	67,293	-0,233	-0,164
306,720	157,374	-0,144	-0,137
307,735	-91,529	-0,197	0,038
308,749	33,242	-0,169	-0,100
309,764	-173,747	-0,187	-0,004
310,779	118,872	-0,099	0,084
311,793	-76,974	-0,130	0,031
312,808	179,337	-0,198	-0,200
313,822	-66,640	-0,131	-0,036
314,837	-125,942	-0,102	-0,010
315,852	-22,424	-0,126	-0,052
316,866	-83,479	-0,094	-0,021
317,881	32,138	-0,123	0,073
318,895	54,274	-0,090	-0,059
319,910	182,292	-0,209	-0,212
320,925	174,925	-0,224	-0,223
321,939	157,070	-0,182	-0,173
322,954	392,339	-0,064	-0,091
323,968	-61,665	-0,022	-0,006
324,983	-121,908	-0,067	0,008
325,997	90,112	-0,111	-0,085
327,012	443,843	-0,088	-0,133
328,027	-86,580	-0,215	-0,045
329,041	125,587	-0,167	-0,145
330,056	80,653	-0,079	-0,059
331,070	126,997	-0,172	-0,150
332,085	-111,267	-0,210	-0,029
333,100	-13,073	-0,166	-0,074
334,114	-200,000	-0,065	-0,211
335,129	89,003	-0,168	-0,128
336,143	-59,589	-0,210	-0,061
337,158	8,190	-0,118	-0,061
338,173	-59,023	-0,041	0,012
339,187	-200,000	-0,043	0,166
340,202	-3,811	-0,119	-0,056
341,216	97,575	-0,091	-0,072
342,231	159,501	-0,187	-0,179
343,246	-138,411	-0,182	-0,014
344,260	-42,765	-0,124	-0,043
345,275	-16,429	-0,130	-0,057
346,289	-78,286	-0,224	-0,052
347,304	-40,824	-0,226	-0,080
348,319	545,205	-0,116	-0,191
349,333	-132,906	-0,094	-0,008
350,348	-165,447	-0,242	-0,007
351,362	25,526	-0,203	-0,116
352,377	188,278	-0,097	-0,100
353,392	345,238	-0,031	-0,042
354,406	-200,000	0,018	0,125
355,421	209,449	1316,854	1416,668
356,435	161,204	1477,832	1417,163
