DTS Sentinel unit serial number:	SN410029Multiplexer serial number:	ORYXHardware model number:	OX2-SRSoftware version number:	ORYX F/W v4,00 Oryx Data Collector v3.7.2.0data status	okinstallation	B3 Nyhavnadifferential loss correction	single-endedforward channel	channel 1reverse channel	N/Adate	2023/11/30time	14:12:30forward acquisition time	300,00reverse acquisition time	0,00gamma	499,1914k internal	0,3211k external	0,3211temperature offset calibration	1,0000default loss term (dB/km)	0,3820temperature slope calibration	1,0000multiplexer offset coefficient	1,0000multiplexer slope coefficient	1,0000fibre end	0,00T internal ref (°C)	11,48T ext. ref 1 (°C)	-1,84T ext. ref 2 (°C)	-1,91length (m)	temperature (°C)	Stokes	anti-Stokes-744,400	579,799	-0,113	-0,201
-743,385	800,000	0,084	0,247
-742,371	527,795	-0,165	-0,283
-741,356	419,852	0,196	0,305
-740,342	239,100	-0,143	-0,173
-739,327	-200,000	-0,015	0,293
-738,312	748,631	-0,150	-0,294
-737,298	247,051	-0,124	0,152
-736,283	223,378	-0,155	-0,181
-735,269	800,000	-0,099	0,279
-734,254	222,535	-0,155	-0,181
-733,239	-119,759	-0,449	0,055
-732,225	-200,000	-0,069	-0,221
-731,210	557,777	0,062	0,109
-730,196	-77,737	-0,244	-0,061
-729,181	-200,000	0,033	-0,120
-728,167	-200,000	0,007	-0,101
-727,152	84,072	-0,075	0,059
-726,137	-23,136	-0,113	-0,049
-725,123	189,786	-0,057	0,062
-724,108	-69,084	-0,098	-0,027
-723,094	-200,000	0,002	-0,040
-722,079	-96,023	-0,154	-0,029
-721,064	-129,347	-0,075	0,007
-720,050	294,460	0,081	-0,108
-719,035	177,366	-0,074	0,079
-718,021	201,758	-0,064	-0,072
-717,006	-74,541	-0,048	0,012
-715,991	137,706	-0,181	-0,172
-714,977	800,000	-0,028	-0,067
-713,962	388,433	-0,106	0,159
-712,948	-70,261	-0,116	-0,032
-711,933	-87,427	-0,035	-0,008
-710,918	-200,000	-0,018	0,135
-709,904	-0,960	-0,087	-0,045
-708,889	-93,903	-0,157	-0,031
-707,875	-28,300	-0,033	-0,014
-706,860	-11,638	0,046	0,022
-705,845	-115,643	0,056	-0,007
-704,831	-200,000	-0,004	0,025
-703,816	669,792	0,028	-0,052
-702,802	800,000	0,031	0,076
-701,787	-133,061	-0,152	0,014
-700,772	-22,003	-0,055	-0,024
-699,758	725,384	0,086	0,166
-698,743	246,784	0,052	0,064
-697,729	800,000	0,103	0,246
-696,714	-200,000	0,029	0,115
-695,699	665,203	0,043	0,080
-694,685	-83,925	-0,039	0,009
-693,670	89,694	-0,104	-0,084
-692,656	5,293	-0,147	0,078
-691,641	800,000	-0,034	-0,087
-690,627	74,041	0,063	0,048
-689,612	-200,000	0,003	0,070
-688,597	10,958	-0,096	-0,053
-687,583	135,877	0,053	-0,050
-686,568	334,326	-0,073	-0,102
-685,554	97,600	0,107	-0,089
-684,539	398,185	-0,088	-0,134
-683,524	8,504	0,151	0,082
-682,510	64,527	-0,094	0,069
-681,495	-200,000	-0,012	-0,046
-680,481	-10,770	-0,048	-0,023
-679,466	-151,505	0,079	0,004
-678,451	-0,066	-0,042	-0,021
-677,437	396,391	0,114	-0,173
-676,422	-109,680	0,108	0,016
-675,408	134,983	-0,037	0,035
-674,393	800,000	-0,057	0,119
-673,378	88,308	-0,097	0,077
-672,364	-84,369	0,042	0,010
-671,349	301,317	-0,026	-0,034
-670,335	164,431	-0,100	0,102
-669,320	410,100	0,044	0,067
-668,305	163,480	-0,035	0,035
-667,291	462,160	0,047	-0,076
-666,276	-200,000	0,027	-0,131
-665,262	-118,251	-0,068	-0,009
-664,247	221,574	-0,059	-0,069
-663,232	-35,192	-0,056	0,022
-662,218	744,006	0,023	0,045
-661,203	800,000	-0,041	0,083
-660,189	-200,000	0,019	0,068
-659,174	-55,435	-0,058	-0,019
-658,159	124,378	-0,087	-0,079
-657,145	800,000	0,014	-0,044
-656,130	-200,000	0,033	-0,178
-655,116	555,659	0,026	-0,045
-654,101	-200,000	0,033	0,198
-653,086	108,834	-0,054	0,046
-652,072	55,813	-0,043	0,030
-651,057	800,000	-0,036	-0,105
-650,043	576,544	-0,081	-0,144
-649,028	-200,000	0,004	-0,076
-648,014	259,407	0,034	0,042
-646,999	-200,000	0,022	0,085
-645,984	800,000	0,026	0,084
-644,970	800,000	0,041	-0,107
-643,955	215,350	0,104	-0,119
-642,941	421,500	-0,029	-0,045
-641,926	67,211	-0,058	-0,043
-640,911	29,384	-0,053	-0,032
-639,897	800,000	0,033	0,084
-638,882	-12,725	-0,131	-0,061
-637,868	248,857	-0,033	-0,040
-636,853	23,180	0,028	0,017
-635,838	-200,000	-0,018	-0,086
-634,824	347,328	0,039	-0,055
-633,809	332,259	0,064	-0,090
-632,795	29,788	-0,085	0,052
-631,780	-129,036	0,063	0,006
-630,765	680,387	0,060	0,113
-629,751	66,762	-0,048	0,036
-628,736	-200,000	-0,008	-0,055
-627,722	-18,512	-0,039	-0,017
-626,707	787,923	0,127	0,253
-625,692	-78,133	0,068	0,017
-624,678	362,422	-0,028	-0,040
-623,663	-200,000	-0,009	-0,108
-622,649	100,624	-0,083	-0,070
-621,634	41,898	-0,193	-0,126
-620,619	-16,074	-0,123	-0,056
-619,605	246,825	-0,102	0,124
-618,590	327,803	0,038	0,053
-617,576	-200,000	0,011	0,059
-616,561	458,622	0,077	-0,124
-615,546	-200,000	0,003	-0,063
-614,532	-24,729	-0,031	-0,013
-613,517	800,000	-0,034	-0,069
-612,503	800,000	-0,060	-0,130
-611,488	-200,000	0,034	-0,155
-610,474	-152,727	-0,125	0,006
-609,459	90,196	0,100	-0,081
-608,444	-200,000	0,008	-0,130
-607,430	-35,714	-0,044	0,017
-606,415	-105,614	-0,036	-0,006
-605,401	298,417	-0,032	-0,042
-604,386	275,974	0,026	0,034
-603,371	-200,000	0,012	0,053
-602,357	-200,000	-0,015	0,116
-601,342	-98,541	0,050	-0,009
-600,328	-33,072	-0,095	0,038
-599,313	800,000	0,032	0,077
-598,298	719,936	0,026	-0,050
-597,284	699,657	-0,035	0,067
-596,269	-139,471	-0,074	-0,006
-595,255	-182,260	0,133	0,002
-594,240	800,000	-0,029	-0,088
-593,225	-200,000	-0,025	0,082
-592,211	497,835	0,071	-0,118
-591,196	-172,457	-0,106	-0,002
-590,182	800,000	-0,026	-0,061
-589,167	147,070	0,082	-0,079
-588,152	-200,000	-0,013	-0,056
-587,138	800,000	0,042	0,123
-586,123	-11,470	-0,024	-0,011
-585,109	-200,000	0,020	-0,224
-584,094	310,175	-0,106	-0,143
-583,079	-200,000	0,018	-0,069
-582,065	20,542	-0,132	-0,077
-581,050	5,371	0,086	0,046
-580,036	-57,596	-0,106	-0,033
-579,021	-93,905	-0,141	0,028
-578,006	800,000	0,020	-0,045
-576,992	-90,419	-0,065	0,013
-575,977	-55,260	0,107	-0,034
-574,963	800,000	0,024	-0,050
-573,948	176,690	-0,032	0,033
-572,934	-200,000	0,003	0,050
-571,919	-200,000	0,035	0,151
-570,904	397,819	-0,055	-0,082
-569,890	800,000	0,033	-0,092
-568,875	-128,763	0,202	0,020
-567,861	-200,000	-0,012	0,092
-566,846	45,519	-0,030	-0,020
-565,831	-87,839	-0,031	-0,007
-564,817	-124,187	0,172	-0,019
-563,802	-127,466	0,033	0,003
-562,788	512,757	-0,117	-0,197
-561,773	744,526	0,070	-0,137
-560,758	284,930	0,067	0,087
-559,744	-200,000	-0,003	-0,086
-558,729	-95,076	0,135	0,026
-557,715	-200,000	-0,015	0,115
-556,700	-183,846	-0,101	0,001
-555,685	800,000	0,029	0,072
-554,671	95,437	-0,009	0,008
-553,656	-107,025	0,123	0,019
-552,642	191,822	0,054	0,058
-551,627	-200,000	0,011	-0,143
-550,612	114,712	-0,094	-0,082
-549,598	-200,000	-0,000	-0,090
-548,583	800,000	-0,014	-0,045
-547,569	19,689	0,154	-0,089
-546,554	-200,000	-0,002	-0,038
-545,539	593,389	0,038	0,067
-544,525	76,906	-0,090	0,069
-543,510	-23,210	-0,105	0,045
-542,496	-97,509	0,030	0,006
-541,481	519,730	-0,043	-0,073
-540,466	185,332	0,026	0,028
-539,452	-102,351	0,146	-0,025
-538,437	2,949	-0,145	0,076
-537,423	-54,124	0,085	-0,028
-536,408	-18,304	-0,110	0,049
-535,393	800,000	0,031	-0,073
-534,379	358,388	-0,071	-0,103
-533,364	-160,181	-0,086	0,003
-532,350	282,530	0,051	0,067
-531,335	80,855	-0,082	-0,063
-530,321	800,000	0,016	-0,052
-529,306	-69,134	-0,138	-0,038
-528,291	661,004	-0,098	-0,182
-527,277	6,801	0,076	0,041
-526,262	107,827	0,087	0,075
-525,248	-200,000	0,001	0,059
-524,233	-60,712	-0,040	-0,012
-523,218	795,490	-0,021	0,043
-522,204	-125,371	0,048	0,005
-521,189	800,000	-0,008	0,023
-520,175	-59,857	0,101	-0,031
-519,160	350,966	-0,060	-0,086
-518,145	-200,000	-0,006	0,139
-517,131	-200,000	0,024	0,141
-516,116	-50,987	-0,104	-0,035
-515,102	533,582	-0,089	0,153
-514,087	303,854	-0,021	0,028
-513,072	188,063	-0,133	-0,143
-512,058	309,672	0,019	0,026
-511,043	-200,000	-0,004	-0,047
-510,029	219,252	0,088	0,102
-509,014	-13,795	0,204	0,095
-507,999	800,000	-0,031	0,093
-506,985	10,596	-0,070	-0,038
-505,970	-200,000	0,009	-0,032
-504,956	15,437	-0,100	-0,056
-503,941	-12,615	0,117	-0,055
-502,926	-200,000	0,002	-0,135
-501,912	-200,000	0,054	0,176
-500,897	800,000	0,057	0,120
-499,883	-200,000	-0,005	0,042
-498,868	393,043	-0,040	0,060
-497,853	-200,000	0,003	0,038
-496,839	101,550	0,033	0,028
-495,824	-200,000	0,034	0,163
-494,810	142,114	0,069	0,066
-493,795	800,000	0,042	0,126
-492,781	139,421	-0,063	-0,060
-491,766	150,585	-0,066	-0,064
-490,751	800,000	0,041	0,118
-489,737	662,915	0,058	0,109
-488,722	800,000	0,042	0,134
-487,708	-148,133	0,093	0,005
-486,693	293,822	0,066	-0,087
-485,678	-70,423	-0,135	-0,037
-484,664	-200,000	-0,000	-0,098
-483,649	800,000	-0,043	-0,093
-482,635	-136,886	0,072	-0,006
-481,620	73,260	0,069	-0,052
-480,605	-80,447	-0,071	-0,017
-479,591	344,398	0,122	0,172
-478,576	-66,295	-0,140	-0,040
-477,562	-62,341	0,063	-0,019
-476,547	-35,680	0,093	0,036
-475,532	276,241	-0,059	0,076
-474,518	145,914	0,030	-0,028
-473,503	800,000	0,029	0,079
-472,489	-103,350	0,196	-0,033
-471,474	676,518	-0,102	-0,191
-470,459	800,000	0,018	-0,037
-469,445	800,000	-0,049	-0,149
-468,430	137,367	-0,046	-0,043
-467,416	-200,000	0,003	0,040
-466,401	-200,000	0,024	0,098
-465,386	800,000	-0,023	0,066
-464,372	58,697	0,032	-0,023
-463,357	800,000	-0,038	-0,082
-462,343	-200,000	-0,005	0,040
-461,328	800,000	-0,025	-0,074
-460,313	249,729	0,067	-0,082
-459,299	-200,000	0,024	0,140
-458,284	42,298	0,170	0,111
-457,270	800,000	0,018	0,051
-456,255	14,048	-0,125	0,069
-455,241	-200,000	-0,067	-0,237
-454,226	800,000	0,063	0,164
-453,211	-200,000	-0,014	-0,091
-452,197	-200,000	0,020	-0,099
-451,182	-200,000	-0,008	0,148
-450,168	800,000	-0,037	0,090
-449,153	91,330	0,080	0,064
-448,138	58,333	-0,182	-0,128
-447,124	183,699	0,031	0,033
-446,109	459,451	0,039	0,063
-445,095	-32,445	-0,099	0,039
-444,080	107,319	0,093	0,079
-443,065	-39,657	-0,065	-0,024
-442,051	23,827	0,101	0,060
-441,036	58,269	0,113	-0,079
-440,022	89,207	-0,042	-0,033
-439,007	-87,862	-0,131	-0,028
-437,992	700,891	-0,089	0,170
-436,978	-200,000	-0,002	0,072
-435,963	767,512	-0,072	0,141
-434,949	800,000	-0,033	-0,077
-433,934	-200,000	-0,011	-0,113
-432,919	-200,000	-0,003	-0,049
-431,905	-63,780	0,058	0,017
-430,890	-5,253	0,207	-0,101
-429,876	125,841	0,070	-0,063
-428,861	800,000	0,048	0,126
-427,846	800,000	0,024	0,060
-426,832	30,783	-0,102	0,063
-425,817	800,000	0,020	0,056
-424,803	56,231	0,094	-0,065
-423,788	-71,846	0,078	0,021
-422,773	269,172	-0,041	0,051
-421,759	-128,211	0,093	0,009
-420,744	-99,874	0,149	-0,026
-419,730	-11,109	-0,067	-0,031
-418,715	429,163	-0,106	0,165
-417,701	24,304	0,028	-0,017
-416,686	-117,955	-0,051	0,006
-415,671	-74,298	-0,128	0,033
-414,657	-58,345	0,085	-0,026
-413,642	236,675	0,042	0,050
-412,628	-122,785	-0,067	0,008
-411,613	-84,941	0,148	-0,033
-410,598	242,723	-0,073	-0,088
-409,584	371,117	-0,048	-0,070
-408,569	-103,181	0,055	-0,009
-407,555	96,235	0,023	0,019
-406,540	-200,000	-0,026	-0,090
-405,525	-200,000	0,002	-0,066
-404,511	-200,000	0,035	-0,130
-403,496	233,997	0,048	0,056
-402,482	98,365	0,086	0,071
-401,467	273,550	0,072	0,092
-400,452	-200,000	0,005	0,069
-399,438	800,000	-0,019	0,057
-398,423	384,766	-0,067	0,100
-397,409	-200,000	0,004	0,125
-396,394	-200,000	0,014	-0,063
-395,379	45,980	0,115	0,076
-394,365	262,459	0,021	0,026
-393,350	-118,639	0,077	0,010
-392,336	800,000	-0,050	-0,105
-391,321	-25,492	-0,108	0,045
-390,306	67,470	-0,118	-0,086
-389,292	108,997	-0,106	-0,090
-388,277	-200,000	-0,017	0,147
-387,263	84,018	0,165	0,129
-386,248	-200,000	-0,018	0,063
-385,233	226,111	-0,031	-0,036
-384,219	-78,284	-0,148	-0,036
-383,204	764,443	0,033	-0,064
-382,190	46,092	0,114	-0,075
-381,175	-96,468	0,104	0,019
-380,160	38,052	0,023	0,015
-379,146	216,135	0,052	0,060
-378,131	-32,067	0,079	0,031
-377,117	7,825	-0,011	0,006
-376,102	-5,787	0,056	-0,028
-375,088	-85,626	-0,207	0,046
-374,073	-200,000	0,007	-0,061
-373,058	-200,000	0,052	0,000
-372,044	-181,649	0,095	-0,001
-371,029	118,474	0,074	0,065
-370,015	-200,000	0,008	0,047
-369,000	-200,000	0,007	-0,079
-367,985	507,197	-0,078	-0,129
-366,971	586,545	0,017	0,031
-365,956	-200,000	-0,001	-0,049
-364,942	169,961	-0,035	0,036
-363,927	-73,166	-0,024	-0,006
-362,912	345,736	0,042	-0,060
-361,898	420,023	0,042	-0,065
-360,883	98,461	-0,065	-0,054
-359,869	-200,000	0,007	-0,139
-358,854	-144,624	-0,212	-0,014
-357,839	-65,427	-0,031	0,009
-356,825	-165,258	0,062	0,002
-355,810	-200,000	0,023	0,088
-354,796	226,134	-0,094	0,109
-353,781	800,000	-0,017	0,036
-352,766	345,369	0,095	0,133
-351,752	268,614	0,058	0,073
-350,737	-200,000	0,024	0,159
-349,723	60,972	-0,133	0,094
-348,708	-70,356	0,168	0,045
-347,693	114,897	-0,060	-0,052
-346,679	-200,000	-0,034	-0,125
-345,664	15,183	-0,121	-0,068
-344,650	-200,000	0,006	-0,048
-343,635	-8,997	0,080	0,038
-342,620	77,372	-0,085	0,065
-341,606	-200,000	-0,013	0,134
-340,591	-42,466	0,012	-0,004
-339,577	-200,000	-0,006	-0,045
-338,562	639,865	-0,058	-0,105
-337,548	-55,277	0,091	-0,029
-336,533	800,000	-0,011	0,024
-335,518	82,702	0,281	0,218
-334,504	-200,000	0,034	0,251
-333,489	-200,000	0,003	0,124
-332,475	-43,802	-0,007	-0,003
-331,460	106,660	-0,137	-0,116
-330,445	62,885	-0,088	0,062
-329,431	-18,283	0,070	0,031
-328,416	800,000	0,069	-0,186
-327,402	-68,855	0,080	0,022
-326,387	-111,912	0,066	-0,009
-325,372	-114,141	-0,185	0,025
-324,358	-109,039	-0,092	-0,014
-323,343	-200,000	0,013	-0,063
-322,329	-78,365	-0,137	-0,033
-321,314	-54,936	0,226	0,072
-320,299	-200,000	-0,024	0,128
-319,285	714,028	-0,040	-0,075
-318,270	-20,607	-0,146	-0,064
-317,256	800,000	-0,024	-0,068
-316,241	92,221	-0,054	0,043
-315,226	32,253	-0,088	0,054
-314,212	-200,000	-0,004	0,074
-313,197	-200,000	0,045	0,145
-312,183	-64,241	0,036	-0,010
-311,168	314,183	-0,049	0,065
-310,153	-62,753	-0,054	-0,016
-309,139	-87,943	0,067	-0,014
-308,124	-200,000	-0,018	-0,105
-307,110	81,370	0,125	-0,096
-306,095	231,894	0,039	-0,046
-305,080	-200,000	-0,014	0,141
-304,066	627,577	0,052	0,093
-303,051	-100,332	-0,073	0,013
-302,037	228,155	0,052	-0,060
-301,022	-200,000	-0,013	-0,059
-300,008	277,003	0,022	-0,028
-298,993	-200,000	-0,017	0,139
-297,978	91,484	-0,052	0,042
-296,964	-148,864	-0,097	-0,005
-295,949	559,017	-0,035	0,060
-294,935	-22,298	0,058	0,025
-293,920	-200,000	-0,006	0,129
-292,905	-200,000	0,013	-0,105
-291,891	22,569	0,057	0,033
-290,876	-200,000	-0,009	0,091
-289,862	-68,519	-0,029	-0,008
-288,847	800,000	-0,047	-0,124
-287,832	-200,000	-0,011	-0,123
-286,818	270,534	0,058	-0,073
-285,803	-200,000	-0,006	-0,086
-284,789	-126,988	-0,096	0,010
-283,774	-200,000	0,008	-0,046
-282,759	-200,000	-0,036	-0,130
-281,745	800,000	-0,048	0,114
-280,730	179,505	0,038	-0,040
-279,716	800,000	0,018	-0,049
-278,701	-46,982	-0,054	0,019
-277,686	800,000	0,045	-0,102
-276,672	-200,000	-0,017	0,078
-275,657	318,542	-0,049	0,066
-274,643	-200,000	-0,027	-0,092
-273,628	-3,617	-0,131	-0,065
-272,613	-48,032	0,013	-0,004
-271,599	-119,771	-0,068	0,008
-270,584	-96,772	0,138	-0,026
-269,570	-14,818	0,058	0,027
-268,555	-200,000	-0,004	0,127
-267,540	10,684	-0,068	0,037
-266,526	-200,000	-0,004	-0,140
-265,511	370,865	-0,056	0,081
-264,497	-93,445	0,019	-0,004
-263,482	55,741	0,069	0,048
-262,467	703,924	0,061	0,115
-261,453	-79,412	0,186	-0,045
-260,438	-200,000	-0,000	-0,087
-259,424	249,868	-0,098	-0,119
-258,409	800,000	-0,052	-0,142
-257,395	-180,457	0,123	-0,002
-256,380	5,998	-0,003	-0,001
-255,365	800,000	-0,014	0,030
-254,351	-200,000	-0,014	0,143
-253,336	122,817	-0,145	-0,129
-252,322	800,000	0,017	0,045
-251,307	800,000	-0,043	-0,134
-250,292	24,244	0,026	0,015
-249,278	579,129	0,071	-0,124
-248,263	-137,197	0,212	-0,017
-247,249	800,000	-0,040	0,110
-246,234	693,430	-0,043	-0,080
-245,219	-11,001	-0,084	-0,039
-244,205	-146,944	-0,121	0,007
-243,190	-70,939	0,055	0,015
-242,176	-200,000	0,001	0,083
-241,161	-200,000	0,039	0,132
-240,146	228,410	0,033	0,038
-239,132	731,760	0,041	-0,078
-238,117	48,464	-0,139	-0,093
-237,103	205,997	0,083	0,092
-236,088	555,877	-0,073	0,125
-235,073	-51,952	0,105	0,034
-234,059	800,000	-0,036	0,101
-233,044	-3,480	0,112	-0,055
-232,030	-200,000	-0,030	0,136
-231,015	117,387	0,111	-0,097
-230,000	12,114	-0,146	-0,079
-228,986	-200,000	0,012	0,079
-227,971	-200,000	-0,002	-0,099
-226,957	400,652	-0,023	0,034
-225,942	37,355	0,063	0,040
-224,927	37,293	-0,077	0,048
-223,913	-20,748	-0,040	0,018
-222,898	800,000	-0,039	-0,100
-221,884	-67,673	-0,044	-0,012
-220,869	800,000	0,013	0,029
-219,855	127,582	-0,051	0,046
-218,840	-100,202	0,108	0,019
-217,825	800,000	-0,023	-0,053
-216,811	448,784	0,025	0,040
-215,796	245,147	-0,045	0,054
-214,782	-59,720	0,044	0,013
-213,767	-200,000	0,021	0,130
-212,752	-70,398	-0,079	0,021
-211,738	243,926	0,023	0,028
-210,723	718,001	0,053	0,101
-209,709	-114,628	-0,157	-0,021
-208,694	-200,000	0,013	-0,078
-207,679	18,810	-0,050	0,029
-206,665	-200,000	0,025	-0,123
-205,650	-98,450	0,142	-0,025
-204,636	397,099	0,038	-0,057
-203,621	290,116	0,040	-0,052
-202,606	800,000	0,040	-0,103
-201,592	112,037	-0,067	-0,058
-200,577	-200,000	0,004	-0,069
-199,563	147,258	0,031	-0,030
-198,548	109,499	0,064	-0,055
-197,533	777,338	0,010	0,020
-196,519	-17,150	-0,179	0,080
-195,504	800,000	0,017	-0,047
-194,490	-50,134	-0,088	-0,030
-193,475	152,484	-0,065	0,064
-192,460	-14,588	-0,043	0,020
-191,446	-145,126	0,017	-0,001
-190,431	-160,910	0,223	0,008
-189,417	-200,000	0,008	-0,028
-188,402	-48,283	-0,140	-0,048
-187,387	238,474	0,080	-0,095
-186,373	633,399	-0,050	-0,091
-185,358	-75,385	0,084	0,021
-184,344	-114,508	-0,189	0,025
-183,329	481,111	0,061	0,099
-182,315	-21,751	0,067	0,029
-181,300	318,013	-0,109	0,146
-180,285	182,997	-0,069	-0,073
-179,271	-138,869	0,061	-0,005
-178,256	-200,000	-0,005	-0,053
-177,242	-200,000	-0,026	-0,123
-176,227	800,000	0,038	0,118
-175,212	-200,000	-0,023	0,107
-174,198	-90,032	0,019	-0,004
-173,183	-84,680	-0,068	-0,015
-172,169	382,607	-0,046	-0,067
-171,154	800,000	-0,037	-0,106
-170,139	-90,759	0,098	-0,020
-169,125	800,000	-0,020	0,048
-168,110	-88,632	0,069	-0,014
-167,096	800,000	0,020	-0,046
-166,081	800,000	-0,046	0,103
-165,066	-200,000	-0,011	-0,265
-164,052	261,781	-0,009	0,011
-163,037	13,626	0,064	0,035
-162,023	55,382	0,110	0,075
-161,008	-40,289	-0,039	0,014
-159,993	800,000	-0,019	0,054
-158,979	40,217	0,056	0,036
-157,964	-123,021	-0,133	0,015
-156,950	159,409	0,060	0,059
-155,935	-20,848	0,016	0,007
-154,920	-16,423	0,058	0,026
-153,906	310,774	-0,034	0,046
-152,891	369,198	-0,070	-0,100
-151,877	218,136	-0,104	-0,118
-150,862	216,879	-0,078	-0,088
-149,847	404,073	-0,003	-0,004
-148,833	-200,000	-0,025	0,090
-147,818	38,176	0,055	0,034
-146,804	-200,000	-0,007	0,056
-145,789	169,599	-0,095	0,096
-144,775	-115,855	0,047	-0,006
-143,760	800,000	-0,028	0,065
-142,745	606,315	0,026	-0,046
-141,731	-200,000	0,004	-0,077
-140,716	187,062	0,087	0,092
-139,702	-160,578	0,208	-0,008
-138,687	79,075	0,097	0,073
-137,672	79,568	0,078	-0,059
-136,658	-36,289	0,110	0,042
-135,643	-200,000	0,018	-0,059
-134,629	800,000	-0,072	0,194
-133,614	-151,046	0,150	0,008
-132,599	92,641	-0,082	-0,065
-131,585	-113,072	0,136	0,019
-130,570	-96,806	0,108	0,020
-129,556	220,269	0,032	0,036
-128,541	-48,614	-0,078	0,026
-127,526	-56,725	0,175	-0,055
-126,512	-139,152	-0,027	-0,002
-125,497	-160,530	0,039	0,001
-124,483	-200,000	-0,002	-0,063
-123,468	800,000	-0,030	0,090
-122,453	188,085	0,066	0,069
-121,439	-91,214	-0,078	0,016
-120,424	-158,065	-0,077	0,003
-119,410	666,711	0,053	0,097
-118,395	-0,378	-0,135	0,068
-117,380	800,000	0,029	0,069
-116,366	800,000	0,067	0,147
-115,351	-200,000	0,003	-0,143
-114,337	62,150	-0,090	-0,064
-113,322	-81,132	0,068	0,016
-112,307	-200,000	0,026	-0,196
-111,293	50,642	-0,084	0,056
-110,278	-200,000	0,030	0,113
-109,264	159,150	-0,026	0,025
-108,249	-125,689	0,040	-0,004
-107,234	-200,000	0,003	0,042
-106,220	-200,000	-0,020	-0,165
-105,205	800,000	0,056	-0,167
-104,191	-73,583	0,036	-0,009
-103,176	-200,000	0,007	-0,148
-102,162	-78,091	-0,240	-0,058
-101,147	-200,000	0,003	-0,061
-100,132	-200,000	-0,038	0,122
-99,118	-200,000	-0,000	-0,051
-98,103	800,000	-0,036	-0,094
-97,089	0,670	0,083	0,042
-96,074	-200,000	0,010	0,221
-95,059	302,089	0,016	0,020
-94,045	-200,000	0,006	-0,111
-93,030	-15,150	-0,124	0,056
-92,016	88,254	-0,193	-0,151
-91,001	-200,000	-0,009	0,086
-89,986	-126,767	0,101	0,010
-88,972	305,307	-0,096	0,126
-87,957	52,959	-0,210	0,141
-86,943	622,161	-0,039	0,070
-85,928	-200,000	0,030	0,125
-84,913	800,000	0,015	-0,038
-83,899	800,000	0,063	0,126
-82,884	800,000	-0,029	-0,057
-81,870	412,560	0,083	0,125
-80,855	136,002	0,021	0,019
-79,840	800,000	-0,029	0,081
-78,826	800,000	-0,013	0,030
-77,811	-200,000	0,005	-0,033
-76,797	-200,000	-0,006	0,253
-75,782	55,577	0,067	-0,046
-74,767	-200,000	0,031	0,159
-73,753	152,968	0,066	0,063
-72,738	496,027	-0,080	0,130
-71,724	13,425	0,100	0,055
-70,709	800,000	-0,073	-0,154
-69,694	182,092	-0,069	0,072
-68,680	-200,000	-0,003	-0,047
-67,665	226,915	0,080	0,092
-66,651	-42,067	-0,037	-0,013
-65,636	800,000	-0,079	-0,237
-64,622	-74,137	-0,079	0,020
-63,607	171,415	-0,086	-0,088
-62,592	-152,777	-0,006	0,000
-61,578	-200,000	-0,015	0,062
-60,563	-2,783	-0,041	0,020
-59,549	-200,000	0,022	0,222
-58,534	45,033	-1,739	-1,129
-57,519	570,556	-1,315	-2,268
-56,505	-200,000	-0,146	-4,390
-55,490	483,406	0,829	1,336
-54,476	800,000	5,144	11,479
-53,461	-200,000	20,242	328,213
-52,446	800,000	751,621	2311,037
-51,432	549,919	1658,335	2817,412
-50,417	74,260	1665,087	1232,996
-49,403	19,329	1538,312	869,664
-48,388	13,312	1460,392	796,509
-47,373	18,818	1450,811	817,684
-46,359	16,244	1440,395	799,530
-45,344	11,607	1435,926	774,944
-44,330	11,533	1434,057	773,550
-43,315	11,512	1432,197	772,415
-42,300	11,555	1430,517	771,681
-41,286	11,548	1429,246	770,935
-40,271	11,497	1428,023	770,000
-39,257	11,523	1426,897	769,488
-38,242	11,538	1425,817	768,945
-37,227	11,523	1424,530	768,151
-36,213	11,568	1423,159	767,595
-35,198	11,533	1422,066	766,808
-34,184	11,590	1420,909	766,421
-33,169	11,507	1419,798	765,402
-32,154	11,566	1418,782	765,102
-31,140	11,628	1417,500	764,674
-30,125	11,689	1416,288	764,276
-29,111	11,567	1415,315	763,145
-28,096	11,610	1413,963	762,587
-27,082	11,578	1412,857	761,813
-26,067	11,493	1412,073	760,961
-25,052	11,507	1410,826	760,325
-24,038	11,519	1409,898	759,848
-23,023	11,477	1408,905	759,089
-22,009	11,509	1407,742	758,579
-20,994	11,456	1406,925	757,861
-19,979	11,511	1405,916	757,545
-18,965	11,491	1405,186	757,031
-17,950	11,485	1404,113	756,390
-16,936	11,418	1403,494	755,717
-15,921	11,457	1402,276	755,210
-14,906	11,401	1401,370	754,434
-13,892	11,434	1400,267	753,964
-12,877	11,425	1399,576	753,521
-11,863	11,417	1398,709	752,986
-10,848	11,445	1397,732	752,562
-9,833	11,326	1397,004	751,588
-8,819	11,364	1396,061	751,224
-7,804	11,320	1395,165	750,510
-6,790	11,291	1394,241	749,847
-5,775	11,338	1392,959	749,345
-4,760	11,339	1392,212	748,921
-3,746	11,341	1391,228	748,370
-2,731	11,348	1390,381	747,916
-1,717	11,289	1389,815	747,310
-0,702	11,324	1387,938	746,433
0,313	15,460	1303,112	719,748
1,327	31,901	696,343	422,151
2,342	49,832	121,243	80,486
3,356	0,688	16,684	8,392
4,371	-0,625	3,320	1,655
5,386	-6,028	0,793	0,381
6,400	-200,000	0,013	0,477
7,415	91,089	-0,241	-0,190
8,429	179,735	-0,212	-0,220
9,444	-61,431	-0,336	-0,099
10,459	-15,411	-0,251	-0,113
11,473	93,258	-0,245	-0,195
12,488	-73,213	-0,337	-0,086
13,502	-37,091	-0,356	-0,134
14,517	-0,377	-0,354	-0,176
15,531	7,494	-0,443	-0,233
16,546	-29,678	-0,378	-0,151
17,561	-127,022	-0,343	-0,035
18,575	78,678	-0,271	-0,204
19,590	-11,982	-0,206	-0,095
20,604	104,368	-0,167	-0,139
21,619	-11,962	-0,527	-0,242
22,634	129,657	-0,458	-0,412
23,648	67,755	-0,565	-0,406
24,663	-2,377	-0,467	-0,230
25,677	121,724	-0,261	-0,229
26,692	136,445	-0,248	-0,228
27,707	45,518	-0,401	-0,260
28,721	240,072	-0,212	-0,249
29,736	50,109	-0,486	-0,322
30,750	97,088	-0,295	-0,238
31,765	45,832	-0,291	-0,189
32,780	18,805	-0,356	-0,200
33,794	-11,053	-0,368	-0,170
34,809	-27,556	-0,301	-0,122
35,823	-0,386	-0,470	-0,234
36,838	4,237	-0,303	-0,156
37,853	185,395	-0,339	-0,355
38,867	194,874	-0,258	-0,275
39,882	205,024	-0,253	-0,276
40,896	210,922	-0,293	-0,324
41,911	350,434	-0,307	-0,428
42,926	328,951	-0,176	-0,238
43,940	32,849	-0,350	-0,213
44,955	32,320	-0,346	-0,210
45,969	0,498	-0,453	-0,227
46,984	33,789	-0,357	-0,218
47,999	-14,013	-0,256	-0,116
49,013	35,991	-0,306	-0,189
50,028	25,296	-0,298	-0,174
51,042	285,587	-0,263	-0,334
52,057	30,386	-0,391	-0,234
53,071	91,986	-0,435	-0,344
54,086	68,445	-0,358	-0,257
55,101	276,301	-0,267	-0,334
56,115	-52,244	-0,351	-0,113
57,130	-27,756	-0,273	-0,111
58,144	206,103	-0,252	-0,276
59,159	25,216	-0,317	-0,184
60,174	161,707	-0,302	-0,297
61,188	800,000	-0,137	-0,282
62,203	34,403	-0,282	-0,172
63,217	96,545	-0,373	-0,300
64,232	11,849	-0,308	-0,166
65,247	1,491	-0,396	-0,199
66,261	369,008	-0,256	-0,364
67,276	27,968	-0,398	-0,235
68,290	48,938	-0,502	-0,330
69,305	204,870	-0,275	-0,299
70,320	-4,222	-0,306	-0,148
71,334	65,968	-0,139	-0,099
72,349	-9,725	-0,323	-0,150
73,363	-11,323	-0,385	-0,177
74,378	48,022	-0,342	-0,223
75,393	170,363	-0,189	-0,190
76,407	-52,651	-0,316	-0,102
77,422	48,451	-0,232	-0,152
78,436	-40,175	-0,368	-0,134
79,451	-1,293	-0,415	-0,205
80,466	-23,153	-0,305	-0,128
81,480	-23,541	-0,333	-0,140
82,495	82,535	-0,256	-0,194
83,509	71,337	-0,277	-0,201
84,524	73,839	-0,297	-0,218
85,539	-55,994	-0,325	-0,101
86,553	87,857	-0,253	-0,196
87,568	145,139	-0,299	-0,280
88,582	9,248	-0,251	-0,132
89,597	-22,018	-0,319	-0,135
90,611	-22,738	-0,235	-0,099
91,626	201,491	-0,229	-0,248
92,641	95,963	-0,252	-0,201
93,655	609,060	-0,244	-0,427
94,670	117,130	-0,287	-0,247
95,684	5,720	-0,353	-0,182
96,699	207,687	-0,228	-0,249
97,714	204,974	-0,218	-0,237
98,728	-66,440	-0,389	-0,107
99,743	316,073	-0,172	-0,228
100,757	59,277	-0,242	-0,166
101,772	117,427	-0,257	-0,221
102,787	53,325	-0,272	-0,182
103,801	90,658	-0,274	-0,215
104,816	126,461	-0,333	-0,294
105,830	139,751	-0,243	-0,224
106,845	148,239	-0,268	-0,253
107,860	49,853	-0,189	-0,124
108,874	67,002	-0,309	-0,220
109,889	24,343	-0,217	-0,125
110,903	-15,842	-0,336	-0,149
111,918	7,380	-0,196	-0,102
112,933	-93,493	-0,277	-0,053
113,947	102,253	-0,188	-0,154
114,962	183,771	-0,232	-0,240
115,976	-48,305	-0,339	-0,113
116,991	89,918	-0,204	-0,159
118,006	317,367	-0,251	-0,333
119,020	80,454	-0,206	-0,155
120,035	20,793	-0,305	-0,172
121,049	26,188	-0,287	-0,167
122,064	-135,387	-0,267	-0,022
123,079	104,850	-0,192	-0,158
124,093	76,441	-0,350	-0,258
125,108	332,975	-0,204	-0,276
126,122	81,578	-0,266	-0,201
127,137	95,601	-0,166	-0,132
128,151	-200,000	-0,003	-0,113
129,166	-2,207	-0,307	-0,150
130,181	310,937	-0,129	-0,169
131,195	99,524	-0,152	-0,123
132,210	-6,550	-0,269	-0,127
133,224	80,079	-0,203	-0,152
134,239	36,417	-0,228	-0,140
135,254	59,763	-0,166	-0,114
136,268	-93,314	-0,245	0,047
137,283	255,245	-0,155	-0,186
138,297	168,111	-0,298	-0,296
139,312	-12,096	-0,288	-0,131
140,327	506,576	-0,214	-0,346
141,341	-200,000	-0,040	-0,226
142,356	196,715	-0,232	-0,246
143,370	424,444	-0,131	-0,198
144,385	-164,199	-0,204	0,006
145,400	-19,047	-0,219	-0,094
146,414	277,709	-0,235	-0,292
147,429	28,271	-0,353	-0,207
148,443	38,164	-0,233	-0,144
149,458	197,682	-0,227	-0,242
150,473	-5,481	-0,194	-0,092
151,487	-126,323	-0,191	-0,020
152,502	46,393	-0,426	-0,274
153,516	21,541	-0,211	-0,119
154,531	256,910	-0,196	-0,234
155,546	406,025	-0,161	-0,238
156,560	-92,818	-0,230	-0,044
157,575	-22,589	-0,346	-0,145
158,589	-71,847	-0,408	-0,105
159,604	278,956	-0,238	-0,297
160,619	146,134	-0,289	-0,270
161,633	129,236	-0,242	-0,215
162,648	56,422	-0,249	-0,168
163,662	-133,193	-0,222	-0,019
164,677	58,319	-0,178	-0,121
165,692	396,241	-0,194	-0,283
166,706	93,765	-0,298	-0,235
167,721	-6,754	-0,231	-0,109
168,735	-67,402	-0,150	0,041
169,750	48,759	-0,273	-0,178
170,764	542,488	-0,130	-0,216
171,779	175,586	-0,189	-0,190
172,794	572,924	-0,168	-0,285
173,808	22,980	-0,231	-0,132
174,823	21,084	-0,239	-0,135
175,837	561,507	-0,117	-0,198
176,852	-4,438	-0,368	-0,176
177,867	72,125	-0,303	-0,219
178,881	66,908	-0,224	-0,158
179,896	33,503	-0,220	-0,133
180,910	52,082	-0,284	-0,187
181,925	146,698	-0,226	-0,211
182,940	123,586	-0,256	-0,223
183,954	-73,647	-0,257	-0,065
184,969	321,977	-0,143	-0,189
185,983	-124,083	-0,173	-0,019
186,998	-97,427	-0,064	-0,011
188,013	-52,339	-0,163	0,052
189,027	100,149	-0,201	-0,162
190,042	64,091	-0,243	-0,169
191,056	75,667	-0,284	-0,208
192,071	182,156	-0,145	-0,148
193,086	13,013	-0,150	-0,080
194,100	268,457	-0,186	-0,226
195,115	209,920	-0,226	-0,246
196,129	32,522	-0,209	-0,125
197,144	-92,569	-0,253	-0,049
198,159	53,681	-0,167	-0,111
199,173	85,184	-0,160	-0,122
200,188	800,000	-0,124	-0,294
201,202	320,437	-0,120	-0,159
202,217	75,720	-0,091	-0,067
203,232	0,705	-0,330	-0,163
204,246	138,676	-0,306	-0,279
205,261	56,867	-0,219	-0,148
206,275	-27,200	-0,352	-0,141
207,290	13,018	-0,194	-0,104
208,304	480,860	-0,083	-0,131
209,319	51,424	-0,249	-0,164
210,334	-81,464	-0,232	-0,052
211,348	33,948	-0,363	-0,219
212,363	366,018	-0,170	-0,237
213,377	76,251	-0,109	-0,080
214,392	2,190	-0,137	0,068
215,407	-108,198	-0,142	0,021
216,421	148,094	-0,098	-0,091
217,436	158,455	-0,152	-0,146
218,450	-72,668	-0,178	-0,045
219,465	91,894	-0,155	-0,120
220,480	2,889	-0,245	-0,122
221,494	542,398	-0,115	-0,190
222,509	7,261	-0,109	-0,056
223,523	210,816	-0,112	-0,122
224,538	107,273	-0,138	-0,114
225,553	-111,575	-0,237	-0,033
226,567	279,176	-0,164	-0,203
227,582	-142,417	-0,077	0,005
228,596	180,519	-0,151	-0,153
229,611	3,108	-0,281	-0,141
230,626	-178,039	-0,215	-0,003
231,640	-105,675	-0,258	-0,040
232,655	8,284	-0,231	-0,119
233,669	75,933	-0,243	-0,177
234,684	209,302	-0,189	-0,205
235,699	73,180	-0,172	-0,124
236,713	-200,000	-0,044	-0,186
237,728	-100,834	-0,091	-0,015
238,742	-88,031	-0,280	-0,058
239,757	167,568	-0,149	-0,146
240,772	64,649	-0,271	-0,188
241,786	80,011	-0,203	-0,151
242,801	126,934	-0,088	-0,077
243,815	168,029	-0,096	-0,095
244,830	-60,768	-0,184	-0,054
245,844	800,000	-0,047	-0,093
246,859	-200,000	-0,051	-0,156
247,874	197,157	-0,248	-0,261
248,888	176,349	-0,178	-0,178
249,903	162,946	-0,168	-0,163
250,917	-20,593	-0,139	-0,059
251,932	-99,812	-0,216	-0,037
252,947	-64,610	-0,173	0,048
253,961	181,806	-0,137	-0,139
254,976	100,572	-0,235	-0,188
255,990	-33,771	-0,153	-0,058
257,005	66,532	-0,142	-0,099
258,020	263,654	-0,183	-0,219
259,034	96,093	-0,241	-0,190
260,049	-78,034	-0,155	-0,037
261,063	384,007	-0,108	-0,153
262,078	146,554	-0,297	-0,275
263,093	-172,360	-0,182	0,004
264,107	53,427	-0,217	-0,143
265,122	800,000	-0,046	-0,121
266,136	-16,220	-0,140	-0,061
267,151	-22,683	-0,215	-0,089
268,166	41,086	-0,166	-0,103
269,180	102,764	-0,209	-0,169
270,195	24,724	-0,223	-0,127
271,209	-71,908	-0,083	-0,021
272,224	-141,844	-0,206	-0,014
273,239	-36,769	-0,240	-0,088
274,253	-68,517	-0,166	-0,044
275,268	-66,780	-0,192	-0,052
276,282	800,000	-0,080	-0,208
277,297	800,000	-0,086	-0,174
278,312	-25,454	-0,095	0,039
279,326	161,385	-0,107	-0,103
280,341	800,000	-0,076	-0,183
281,355	59,697	-0,149	-0,101
282,370	-101,016	-0,181	0,030
283,384	76,459	-0,185	-0,135
284,399	196,969	-0,247	-0,259
285,414	218,473	-0,144	-0,159
286,428	744,766	-0,112	-0,207
287,443	-159,987	-0,129	0,005
288,457	37,463	-0,191	-0,116
289,472	73,980	-0,208	-0,150
290,487	577,669	-0,123	-0,208
291,501	82,707	-0,227	-0,169
292,516	419,615	-0,069	-0,102
293,530	40,097	-0,140	-0,086
294,545	267,888	-0,105	-0,126
295,560	81,282	-0,323	-0,240
296,574	-138,117	-0,174	0,013
297,589	-24,060	-0,260	-0,106
298,603	81,756	-0,197	-0,146
299,618	-200,000	-0,054	-0,193
300,633	-31,515	-0,147	0,056
301,647	535,451	-0,062	-0,101
302,662	-22,094	-0,158	-0,065
303,676	106,130	-0,091	0,074
304,691	-89,381	-0,140	-0,028
305,706	-200,000	0,027	-0,121
306,720	520,795	-0,194	-0,314
307,735	800,000	-0,111	-0,218
308,749	44,701	-0,126	-0,079
309,764	-73,209	-0,012	-0,003
310,779	-85,549	-0,019	-0,004
311,793	-19,682	-0,255	-0,108
312,808	800,000	-0,070	-0,138
313,822	137,122	-0,115	-0,103
314,837	27,514	-0,135	-0,078
315,852	187,792	-0,137	-0,141
316,866	249,697	-0,130	-0,151
317,881	-158,510	-0,169	-0,007
318,895	-7,253	-0,178	-0,083
319,910	247,174	-0,168	-0,195
320,925	-113,070	-0,159	-0,021
321,939	319,033	-0,067	0,088
322,954	-89,096	-0,104	0,021
323,968	-144,460	-0,221	0,014
324,983	-35,579	-0,141	0,052
325,997	164,621	-0,104	-0,100
327,012	147,427	-0,071	-0,066
328,027	92,613	-0,136	-0,105
329,041	233,074	-0,175	-0,198
330,056	202,516	-0,092	-0,097
331,070	-76,578	-0,150	0,036
332,085	-200,000	0,025	-0,097
333,100	152,362	-0,031	-0,029
334,114	183,842	-0,195	-0,197
335,129	172,848	-0,103	-0,101
336,143	-33,860	-0,128	-0,048
337,158	-182,005	-0,072	-0,001
338,173	15,027	-0,065	0,035
339,187	-200,000	-0,007	0,041
340,202	-57,456	-0,093	-0,028
341,216	-76,548	-0,102	-0,024
342,231	82,239	-0,166	-0,123
343,246	-18,476	-0,105	0,045
344,260	135,856	-0,073	-0,065
345,275	98,500	-0,141	-0,111
346,289	-200,000	-0,011	-0,102
347,304	426,948	-0,057	-0,085
348,319	181,312	-0,113	-0,113
349,333	800,000	-0,055	-0,104
350,348	165,120	-0,150	-0,145
351,362	201,993	-0,201	-0,212
352,377	0,958	-0,090	-0,044
353,392	-1,595	-0,163	-0,078
354,406	-17,934	-0,090	-0,038
355,421	207,201	1311,248	1400,112
356,435	159,386	1471,529	1400,604
