DTS Sentinel unit serial number:	SN410029Multiplexer serial number:	ORYXHardware model number:	OX2-SRSoftware version number:	ORYX F/W v4,00 Oryx Data Collector v3.7.2.0data status	okinstallation	B3 Nyhavnadifferential loss correction	single-endedforward channel	channel 1reverse channel	N/Adate	2023/12/03time	23:47:30forward acquisition time	300,00reverse acquisition time	0,00gamma	499,1914k internal	0,3202k external	0,3202temperature offset calibration	1,0000default loss term (dB/km)	0,3820temperature slope calibration	1,0000multiplexer offset coefficient	1,0000multiplexer slope coefficient	1,0000fibre end	0,00T internal ref (°C)	12,82T ext. ref 1 (°C)	-2,44T ext. ref 2 (°C)	-2,45length (m)	temperature (°C)	Stokes	anti-Stokes-744,400	88,453	-0,258	-0,208
-743,385	-200,000	0,037	0,188
-742,371	503,308	-0,151	-0,255
-741,356	-200,000	-0,018	0,384
-740,342	183,076	-0,227	-0,244
-739,327	-200,000	-0,055	0,206
-738,312	47,114	-0,192	-0,130
-737,298	-200,000	-0,078	0,318
-736,283	248,029	-0,186	-0,229
-735,269	-200,000	0,047	0,248
-734,254	345,478	-0,209	-0,300
-733,239	-151,117	-0,237	0,013
-732,225	-200,000	-0,009	-0,151
-731,210	-148,259	0,122	-0,007
-730,196	70,946	-0,127	0,096
-729,181	98,125	-0,085	-0,071
-728,167	227,187	-0,063	-0,075
-727,152	800,000	-0,027	-0,068
-726,137	-17,952	-0,099	-0,045
-725,123	-200,000	0,013	0,085
-724,108	-200,000	-0,041	-0,134
-723,094	-200,000	-0,036	-0,230
-722,079	-200,000	-0,056	-0,187
-721,064	-200,000	0,001	-0,060
-720,050	-200,000	0,010	-0,064
-719,035	800,000	0,020	0,051
-718,021	-73,107	-0,111	-0,029
-717,006	-51,832	-0,126	-0,042
-715,991	36,394	-0,180	-0,115
-714,977	417,939	0,004	-0,006
-713,962	-200,000	0,013	0,053
-712,948	115,846	-0,080	0,071
-711,933	89,145	-0,021	-0,017
-710,918	-200,000	0,003	-0,022
-709,904	-74,279	0,056	0,014
-708,889	-200,000	0,008	-0,167
-707,875	714,571	-0,036	-0,070
-706,860	-15,722	-0,051	0,024
-705,845	-13,485	0,230	0,108
-704,831	175,899	0,073	0,077
-703,816	148,860	-0,019	-0,018
-702,802	-88,352	-0,051	-0,011
-701,787	-154,564	-0,052	-0,002
-700,772	201,231	-0,094	-0,105
-699,758	446,026	-0,063	0,101
-698,743	-32,564	0,099	-0,040
-697,729	589,774	-0,067	0,120
-696,714	126,659	0,128	0,117
-695,699	-97,333	-0,025	0,005
-694,685	-200,000	-0,008	-0,028
-693,670	569,531	-0,069	-0,122
-692,656	141,682	-0,036	-0,035
-691,641	-200,000	-0,022	0,230
-690,627	161,592	-0,041	-0,042
-689,612	119,223	-0,076	0,068
-688,597	346,939	-0,050	0,071
-687,583	22,557	-0,074	0,044
-686,568	644,197	-0,054	-0,101
-685,554	442,362	0,053	-0,084
-684,539	800,000	0,036	-0,096
-683,524	-88,717	0,076	0,016
-682,510	-35,935	0,093	-0,036
-681,495	666,238	-0,067	0,126
-680,481	-145,559	-0,092	-0,006
-679,466	-200,000	-0,013	-0,088
-678,451	-26,005	-0,055	0,023
-677,437	-130,268	0,089	-0,009
-676,422	535,002	-0,078	-0,134
-675,408	-175,524	-0,044	-0,001
-674,393	-200,000	0,001	-0,010
-673,378	172,317	-0,042	0,044
-672,364	674,565	-0,101	-0,190
-671,349	-200,000	-0,046	-0,162
-670,335	800,000	0,026	-0,082
-669,320	371,468	0,057	0,085
-668,305	-160,218	0,060	-0,002
-667,291	455,335	-0,095	0,153
-666,276	15,781	0,097	-0,055
-665,262	-92,112	-0,133	-0,027
-664,247	800,000	-0,039	0,106
-663,232	-200,000	0,007	-0,054
-662,218	-73,670	0,042	0,011
-661,203	-64,469	0,101	0,030
-660,189	-200,000	0,007	0,052
-659,174	-8,963	-0,146	-0,071
-658,159	-44,966	-0,056	0,020
-657,145	-65,030	-0,030	0,009
-656,130	196,187	0,034	0,037
-655,116	-200,000	0,013	0,048
-654,101	-200,000	-0,006	0,075
-653,086	-161,688	0,042	0,002
-652,072	-12,407	-0,102	-0,048
-651,057	-90,135	0,021	-0,004
-650,043	-200,000	-0,028	-0,171
-649,028	0,227	0,051	0,026
-648,014	77,961	0,094	0,073
-646,999	-200,000	0,000	0,008
-645,984	-200,000	0,014	0,083
-644,970	-200,000	-0,020	-0,152
-643,955	800,000	-0,012	0,032
-642,941	87,417	0,038	-0,030
-641,926	130,149	-0,102	-0,095
-640,911	-109,889	0,109	0,016
-639,897	-200,000	-0,006	-0,073
-638,882	32,508	0,079	-0,049
-637,868	-41,005	-0,117	0,044
-636,853	70,171	-0,058	-0,043
-635,838	130,519	-0,025	-0,023
-634,824	710,951	-0,074	0,143
-633,809	-198,308	0,097	0,000
-632,795	-161,307	0,090	-0,003
-631,780	653,304	-0,013	-0,024
-630,765	374,859	0,057	0,085
-629,751	-200,000	-0,034	-0,135
-628,736	400,696	-0,080	-0,121
-627,722	800,000	-0,044	-0,107
-626,707	65,463	0,062	-0,045
-625,692	440,558	-0,043	0,068
-624,678	266,901	0,023	0,029
-623,663	-60,271	0,098	-0,030
-622,649	-200,000	0,031	0,153
-621,634	282,298	-0,096	-0,124
-620,619	414,903	-0,028	-0,043
-619,605	237,648	-0,038	0,046
-618,590	-40,929	0,068	0,025
-617,576	124,308	0,059	0,054
-616,561	-54,323	-0,110	0,036
-615,546	447,552	-0,071	-0,113
-614,532	113,137	-0,077	-0,067
-613,517	588,887	-0,062	-0,111
-612,503	61,845	-0,040	-0,029
-611,488	160,623	0,016	-0,016
-610,474	670,670	0,085	-0,161
-609,459	-2,338	-0,030	0,015
-608,444	-64,135	-0,210	-0,062
-607,430	154,500	0,043	-0,043
-606,415	553,790	-0,039	0,067
-605,401	-114,516	-0,073	-0,010
-604,386	462,533	0,064	0,104
-603,371	-172,431	-0,136	-0,003
-602,357	74,948	0,090	0,068
-601,342	-155,755	-0,080	0,004
-600,328	282,668	-0,005	0,007
-599,313	207,405	0,030	-0,033
-598,298	-200,000	0,004	0,026
-597,284	534,842	0,026	0,045
-596,269	50,969	0,080	-0,055
-595,255	-200,000	-0,010	0,087
-594,240	-200,000	-0,009	-0,081
-593,225	-106,632	0,036	-0,006
-592,211	-200,000	-0,006	0,033
-591,196	-158,311	-0,091	0,004
-590,182	617,069	0,036	0,066
-589,167	24,058	0,135	0,080
-588,152	-200,000	0,000	0,150
-587,138	34,210	-0,078	0,049
-586,123	800,000	-0,063	-0,163
-585,109	311,561	-0,052	-0,070
-584,094	800,000	-0,036	-0,075
-583,079	800,000	-0,051	-0,133
-582,065	26,390	0,169	-0,102
-581,050	104,177	-0,106	-0,090
-580,036	514,695	0,052	-0,088
-579,021	605,994	-0,116	-0,209
-578,006	-200,000	-0,008	-0,081
-576,992	158,180	0,033	0,033
-575,977	-78,433	0,012	-0,003
-574,963	-53,282	-0,037	-0,012
-573,948	-200,000	-0,008	0,095
-572,934	-86,108	-0,011	-0,002
-571,919	-147,863	0,120	-0,007
-570,904	800,000	-0,040	-0,114
-569,890	-42,633	0,049	-0,018
-568,875	0,649	-0,076	0,039
-567,861	-200,000	-0,009	0,049
-566,846	-88,841	0,087	-0,018
-565,831	-200,000	-0,137	0,000
-564,817	230,816	0,023	-0,027
-563,802	46,841	-0,040	-0,027
-562,788	124,693	0,051	0,047
-561,773	-76,651	0,056	0,014
-560,758	-200,000	0,042	0,165
-559,744	-97,197	-0,148	-0,028
-558,729	-200,000	-0,008	-0,071
-557,715	-149,497	-0,135	0,008
-556,700	231,232	0,025	0,030
-555,685	385,651	-0,089	-0,132
-554,671	-200,000	-0,004	-0,052
-553,656	106,217	0,040	-0,034
-552,642	26,897	-0,028	0,017
-551,627	164,116	-0,036	-0,037
-550,612	128,474	0,007	-0,007
-549,598	-200,000	-0,031	-0,123
-548,583	101,468	-0,138	0,116
-547,569	-200,000	-0,012	-0,137
-546,554	167,949	0,081	-0,083
-545,539	422,248	0,042	0,065
-544,525	209,156	0,015	0,017
-543,510	-133,720	-0,185	-0,016
-542,496	515,457	-0,062	-0,104
-541,481	-200,000	0,035	-0,157
-540,466	-200,000	-0,002	-0,064
-539,452	513,034	-0,065	0,109
-538,437	800,000	-0,061	0,169
-537,423	181,928	-0,107	-0,114
-536,408	-200,000	-0,004	0,028
-535,393	-20,684	0,049	0,022
-534,379	129,817	-0,074	-0,068
-533,364	9,220	0,038	0,020
-532,350	189,523	0,023	0,025
-531,335	-96,159	0,147	0,028
-530,321	8,719	0,061	0,033
-529,306	-17,968	-0,068	0,030
-528,291	-108,552	-0,201	0,031
-527,277	51,640	-0,146	-0,100
-526,262	716,359	0,024	0,045
-525,248	-200,000	-0,002	0,091
-524,233	-200,000	0,009	0,052
-523,218	560,651	-0,077	0,134
-522,204	-159,018	0,090	-0,004
-521,189	171,435	-0,073	-0,075
-520,175	-78,009	0,111	-0,027
-519,160	12,795	-0,152	-0,084
-518,145	674,038	0,060	-0,113
-517,131	-146,045	0,043	0,003
-516,116	-13,427	-0,083	0,039
-515,102	-108,858	0,075	0,011
-514,087	-200,000	-0,002	-0,139
-513,072	-7,616	0,055	0,027
-512,058	-120,516	0,032	0,004
-511,043	800,000	-0,026	-0,074
-510,029	371,499	0,063	0,093
-509,014	368,398	0,068	0,099
-507,999	23,956	-0,037	0,022
-506,985	147,896	-0,064	0,063
-505,970	176,992	-0,033	-0,035
-504,956	-31,332	-0,114	0,046
-503,941	8,000	0,082	-0,044
-502,926	319,912	0,042	0,057
-501,912	-36,563	0,057	-0,022
-500,897	-63,870	-0,056	-0,017
-499,883	368,356	-0,044	0,064
-498,868	-67,746	-0,011	-0,003
-497,853	64,602	-0,091	-0,066
-496,839	-58,864	-0,046	0,014
-495,824	-45,295	-0,018	-0,006
-494,810	89,601	0,099	0,080
-493,795	507,041	0,028	0,047
-492,781	-200,000	0,003	-0,032
-491,766	-200,000	-0,018	-0,110
-490,751	11,906	-0,062	0,034
-489,737	-35,811	0,089	0,035
-488,722	651,541	-0,052	0,097
-487,708	-148,326	0,223	-0,013
-486,693	-21,065	0,075	0,033
-485,678	-200,000	0,021	-0,097
-484,664	280,415	-0,065	0,083
-483,649	-200,000	-0,009	0,117
-482,635	-100,360	0,062	0,011
-481,620	-49,301	-0,115	0,039
-480,605	93,467	0,062	0,050
-479,591	800,000	0,045	0,143
-478,576	325,070	0,021	0,028
-477,562	46,376	0,038	-0,025
-476,547	-200,000	-0,041	-0,184
-475,532	559,828	-0,050	-0,088
-474,518	-200,000	0,038	-0,129
-473,503	-70,162	0,085	0,023
-472,489	379,209	0,019	0,028
-471,474	-121,932	0,076	-0,009
-470,459	222,082	-0,094	0,110
-469,445	-200,000	-0,006	-0,074
-468,430	-135,047	-0,076	0,007
-467,416	353,001	0,108	0,155
-466,401	35,898	0,079	0,050
-465,386	-55,978	-0,103	0,033
-464,372	-200,000	-0,005	-0,025
-463,357	-200,000	-0,012	-0,069
-462,343	259,151	-0,050	0,062
-461,328	-44,855	0,081	-0,029
-460,313	53,119	-0,074	0,051
-459,299	-200,000	-0,023	0,076
-458,284	-114,112	0,118	-0,016
-457,270	252,259	0,017	0,020
-456,255	8,579	-0,073	-0,039
-455,241	-200,000	0,010	-0,104
-454,226	-122,004	-0,088	-0,010
-453,211	-108,582	0,087	0,013
-452,197	-200,000	0,027	0,087
-451,182	561,724	0,098	0,172
-450,168	377,686	-0,032	0,047
-449,153	149,686	0,095	0,092
-448,138	-23,500	0,113	0,048
-447,124	-200,000	-0,007	0,078
-446,109	-39,331	0,114	-0,043
-445,095	261,668	0,021	-0,026
-444,080	538,371	-0,058	-0,100
-443,065	10,091	-0,110	-0,060
-442,051	90,309	-0,046	0,037
-441,036	800,000	-0,030	0,066
-440,022	268,679	-0,042	-0,053
-439,007	-15,125	0,044	0,020
-437,992	-200,000	0,036	0,186
-436,978	-200,000	0,001	-0,051
-435,963	-200,000	0,008	0,094
-434,949	-200,000	0,002	-0,112
-433,934	-200,000	0,010	-0,067
-432,919	-128,422	0,082	-0,008
-431,905	609,784	0,058	0,105
-430,890	564,032	0,102	0,179
-429,876	102,076	0,052	0,044
-428,861	-200,000	0,046	0,161
-427,846	-48,424	-0,080	-0,027
-426,832	-111,254	0,153	0,022
-425,817	227,373	-0,034	-0,039
-424,803	540,418	-0,043	0,073
-423,788	-25,695	0,198	-0,083
-422,773	146,575	-0,061	-0,059
-421,759	514,180	0,077	0,130
-420,744	-154,866	0,052	0,002
-419,730	-165,304	-0,156	-0,005
-418,715	-200,000	-0,026	-0,140
-417,701	8,877	-0,212	-0,114
-416,686	356,517	-0,018	-0,026
-415,671	154,333	0,091	0,090
-414,657	-200,000	-0,013	0,068
-413,642	624,950	0,023	0,042
-412,628	-200,000	0,015	0,059
-411,613	118,165	0,035	-0,031
-410,598	-200,000	-0,024	-0,089
-409,584	58,090	0,177	-0,124
-408,569	31,704	-0,095	-0,059
-407,555	800,000	0,076	0,165
-406,540	109,763	0,041	-0,036
-405,525	396,656	0,034	-0,051
-404,511	-72,539	-0,083	0,022
-403,496	800,000	0,031	0,091
-402,482	800,000	0,037	-0,092
-401,467	-69,963	0,065	0,018
-400,452	375,721	-0,035	0,052
-399,438	70,374	-0,043	0,032
-398,423	-200,000	0,003	-0,033
-397,409	-179,096	-0,109	-0,002
-396,394	213,369	-0,054	-0,061
-395,379	-96,203	0,112	-0,021
-394,365	800,000	0,040	0,099
-393,350	-10,351	0,069	-0,033
-392,336	18,780	-0,044	0,025
-391,321	396,078	-0,054	-0,081
-390,306	-200,000	-0,001	0,008
-389,292	-172,784	0,053	-0,001
-388,277	-112,745	0,034	-0,005
-387,263	-200,000	0,013	0,051
-386,248	-200,000	0,015	0,056
-385,233	-78,855	-0,022	0,005
-384,219	-23,345	-0,053	0,023
-383,204	-95,672	-0,061	-0,012
-382,190	-200,000	-0,021	-0,071
-381,175	-11,960	-0,067	-0,031
-380,160	-42,114	-0,021	-0,007
-379,146	572,174	0,024	0,042
-378,131	343,082	0,117	0,164
-377,117	714,221	-0,009	-0,018
-376,102	326,867	-0,073	-0,101
-375,088	-95,418	-0,072	-0,014
-374,073	-200,000	-0,018	-0,058
-373,058	54,191	0,043	0,030
-372,044	-200,000	-0,007	-0,023
-371,029	-28,609	0,099	-0,041
-370,015	-65,036	0,135	-0,039
-369,000	71,067	-0,050	0,037
-367,985	-200,000	-0,011	-0,044
-366,971	-200,000	-0,013	-0,183
-365,956	-200,000	0,000	0,046
-364,942	-192,829	0,072	0,000
-363,927	13,821	0,064	0,035
-362,912	800,000	-0,044	-0,138
-361,898	163,853	0,065	-0,065
-360,883	-17,868	-0,090	0,040
-359,869	366,622	0,052	-0,075
-358,854	800,000	0,029	-0,084
-357,839	-200,000	-0,005	0,033
-356,825	-148,301	0,052	0,003
-355,810	-18,325	0,092	-0,041
-354,796	-89,022	-0,083	-0,017
-353,781	-165,116	-0,012	-0,000
-352,766	83,985	0,060	0,047
-351,752	523,633	-0,014	0,024
-350,737	800,000	0,025	0,059
-349,723	311,405	0,025	-0,034
-348,708	388,658	0,053	0,079
-347,693	181,911	0,063	-0,067
-346,679	777,251	-0,033	0,065
-345,664	-65,086	0,097	-0,028
-344,650	-200,000	-0,008	0,056
-343,635	-200,000	-0,036	0,120
-342,620	800,000	0,068	0,138
-341,606	-36,405	-0,074	-0,028
-340,591	-84,987	0,080	0,018
-339,577	44,636	0,051	0,033
-338,562	-32,639	-0,049	0,019
-337,548	-135,683	-0,064	0,005
-336,533	-86,072	0,158	-0,035
-335,518	-200,000	-0,044	0,161
-334,504	137,668	0,096	0,090
-333,489	-24,546	-0,256	-0,109
-332,475	800,000	-0,026	-0,061
-331,460	-200,000	-0,004	-0,077
-330,445	-22,200	-0,150	-0,065
-329,431	399,030	-0,021	-0,032
-328,416	64,784	-0,023	-0,017
-327,402	173,889	-0,036	-0,037
-326,387	-118,533	0,034	-0,004
-325,372	-200,000	0,043	0,137
-324,358	-88,700	0,028	-0,006
-323,343	-200,000	0,015	0,072
-322,329	-61,310	-0,067	0,020
-321,314	-200,000	-0,000	0,077
-320,299	800,000	-0,013	-0,039
-319,285	157,842	-0,058	0,058
-318,270	-158,644	-0,025	0,001
-317,256	-200,000	-0,016	0,058
-316,241	118,308	0,099	-0,087
-315,226	650,285	-0,047	0,086
-314,212	9,266	0,042	0,023
-313,197	-43,516	0,067	0,024
-312,183	13,690	-0,013	0,007
-311,168	51,114	0,084	-0,057
-310,153	-77,961	-0,144	-0,035
-309,139	-47,751	0,038	0,013
-308,124	800,000	0,021	-0,065
-307,110	174,985	-0,058	0,060
-306,095	291,014	-0,048	0,063
-305,080	-99,687	-0,162	0,029
-304,066	786,875	0,022	0,043
-303,051	12,598	-0,097	-0,053
-302,037	121,145	0,062	0,055
-301,022	800,000	-0,028	0,078
-300,008	225,546	0,039	0,046
-298,993	-61,002	0,151	0,045
-297,978	-100,993	-0,098	-0,017
-296,964	32,987	-0,065	-0,040
-295,949	214,269	-0,114	-0,129
-294,935	-32,621	-0,061	-0,024
-293,920	-200,000	-0,003	0,039
-292,905	-23,953	0,056	0,024
-291,891	115,647	0,040	-0,035
-290,876	139,709	-0,097	0,091
-289,862	41,464	-0,115	0,074
-288,847	44,432	-0,068	-0,045
-287,832	-74,093	-0,158	-0,041
-286,818	800,000	-0,046	-0,137
-285,803	-171,468	0,159	0,004
-284,789	-200,000	0,054	0,189
-283,774	184,975	0,154	0,163
-282,759	800,000	-0,033	-0,077
-281,745	-43,223	0,120	0,043
-280,730	177,270	-0,065	0,067
-279,716	-200,000	-0,006	-0,042
-278,701	-200,000	0,012	0,121
-277,686	236,810	-0,059	-0,070
-276,672	-5,140	0,054	0,027
-275,657	394,722	0,044	0,066
-274,643	554,199	-0,053	-0,091
-273,628	-200,000	-0,015	0,054
-272,613	5,347	-0,057	0,030
-271,599	-200,000	0,001	0,035
-270,584	265,096	-0,051	-0,064
-269,570	-48,961	0,105	0,036
-268,555	505,433	-0,036	0,060
-267,540	-130,888	-0,144	-0,014
-266,526	282,494	0,043	0,056
-265,511	797,538	-0,019	-0,037
-264,497	215,168	-0,072	0,081
-263,482	-21,077	0,091	0,040
-262,467	95,989	0,034	-0,028
-261,453	-200,000	-0,003	-0,067
-260,438	-200,000	0,024	-0,122
-259,424	237,776	0,071	0,084
-258,409	-200,000	0,028	-0,124
-257,395	743,374	0,058	0,112
-256,380	129,812	0,032	0,030
-255,365	30,971	0,147	0,090
-254,351	-82,615	0,110	0,025
-253,336	-11,871	-0,095	0,044
-252,322	-181,547	-0,101	0,001
-251,307	25,534	0,001	0,000
-250,292	-141,036	0,098	0,007
-249,278	-188,744	0,015	0,000
-248,263	489,592	0,060	0,098
-247,249	-58,578	-0,069	0,021
-246,234	113,153	0,128	0,111
-245,219	-200,000	0,011	-0,126
-244,205	502,309	-0,036	-0,059
-243,190	93,452	0,060	0,049
-242,176	-123,346	0,123	-0,014
-241,161	-111,718	0,140	-0,020
-240,146	800,000	-0,035	-0,077
-239,132	-200,000	-0,010	0,093
-238,117	-41,091	0,067	-0,025
-237,103	-200,000	0,018	-0,076
-236,088	81,764	-0,032	-0,025
-235,073	480,729	0,035	-0,056
-234,059	-200,000	0,012	-0,154
-233,044	800,000	-0,024	0,074
-232,030	-200,000	0,006	0,040
-231,015	125,541	0,062	0,056
-230,000	173,300	-0,051	0,052
-228,986	-180,563	-0,104	-0,001
-227,971	-200,000	0,021	-0,102
-226,957	800,000	-0,011	0,024
-225,942	355,684	-0,080	0,114
-224,927	632,948	0,031	-0,056
-223,913	39,955	-0,140	-0,089
-222,898	155,007	-0,075	0,074
-221,884	-200,000	0,004	0,082
-220,869	-52,284	0,096	-0,031
-219,855	-4,554	0,239	0,117
-218,840	364,558	-0,009	0,013
-217,825	186,062	-0,099	0,105
-216,811	143,396	-0,088	0,083
-215,796	7,999	0,072	0,038
-214,782	-200,000	0,010	-0,063
-213,767	274,735	0,104	-0,131
-212,752	31,970	-0,060	0,037
-211,738	800,000	0,042	0,089
-210,723	-200,000	-0,021	-0,066
-209,709	-38,476	-0,019	0,007
-208,694	-104,344	0,029	-0,005
-207,679	763,515	-0,013	0,024
-206,665	147,795	0,023	-0,022
-205,650	-37,385	0,091	-0,034
-204,636	800,000	-0,052	0,164
-203,621	-200,000	0,002	-0,112
-202,606	-49,186	-0,032	-0,011
-201,592	38,738	-0,143	-0,091
-200,577	165,097	-0,058	0,058
-199,563	800,000	0,013	-0,041
-198,548	-200,000	-0,018	-0,065
-197,533	-158,133	0,081	0,003
-196,519	476,822	-0,013	0,020
-195,504	800,000	-0,044	0,134
-194,490	800,000	-0,047	-0,108
-193,475	-200,000	-0,003	-0,092
-192,460	-110,088	-0,086	-0,013
-191,446	-200,000	0,017	0,155
-190,431	356,338	0,062	-0,089
-189,417	-200,000	-0,054	-0,198
-188,402	800,000	0,057	-0,154
-187,387	800,000	0,038	-0,097
-186,373	74,918	0,097	-0,073
-185,358	606,199	-0,060	-0,108
-184,344	-200,000	0,032	0,123
-183,329	-200,000	-0,026	0,124
-182,315	481,842	-0,079	0,127
-181,300	-135,117	0,047	-0,004
-180,285	-200,000	0,025	-0,131
-179,271	800,000	-0,042	0,125
-178,256	-200,000	-0,036	-0,118
-177,242	-200,000	0,017	-0,123
-176,227	-84,020	0,119	0,027
-175,212	-200,000	0,028	0,111
-174,198	-155,619	-0,121	0,005
-173,183	-200,000	-0,004	-0,015
-172,169	120,832	0,036	0,032
-171,154	800,000	-0,047	-0,099
-170,139	-200,000	0,010	0,086
-169,125	190,882	-0,107	-0,115
-168,110	-200,000	-0,005	-0,110
-167,096	-200,000	0,010	-0,080
-166,081	-200,000	0,026	-0,094
-165,066	800,000	0,009	-0,026
-164,052	800,000	0,004	0,011
-163,037	-108,293	0,084	0,013
-162,023	-71,308	-0,124	-0,033
-161,008	66,176	0,061	-0,044
-159,993	-8,047	-0,068	-0,032
-158,979	150,841	-0,011	0,011
-157,964	800,000	-0,023	-0,056
-156,950	-2,418	0,038	0,019
-155,935	800,000	0,046	-0,106
-154,920	800,000	0,057	0,158
-153,906	-198,977	0,063	0,000
-152,891	-200,000	0,014	0,125
-151,877	-200,000	-0,021	-0,105
-150,862	-200,000	0,002	-0,100
-149,847	504,556	-0,105	-0,174
-148,833	800,000	-0,053	-0,112
-147,818	288,771	-0,018	0,024
-146,804	233,372	0,052	-0,060
-145,789	303,859	0,088	0,116
-144,775	-80,997	-0,034	0,008
-143,760	-200,000	-0,002	0,036
-142,745	-200,000	0,000	0,019
-141,731	16,574	-0,043	0,024
-140,716	331,376	0,016	-0,022
-139,702	-200,000	0,025	0,081
-138,687	-200,000	0,026	0,134
-137,672	800,000	-0,061	0,164
-136,658	-200,000	-0,001	-0,070
-135,643	16,599	0,084	-0,047
-134,629	34,767	0,089	0,055
-133,614	48,114	-0,095	0,063
-132,599	-200,000	-0,036	0,116
-131,585	717,820	0,031	0,058
-130,570	34,233	-0,060	-0,037
-129,556	-149,579	-0,133	-0,007
-128,541	189,257	-0,070	-0,075
-127,526	20,158	-0,070	-0,040
-126,512	-188,855	0,111	0,001
-125,497	18,226	-0,022	0,012
-124,483	130,534	-0,029	-0,026
-123,468	37,992	-0,052	-0,033
-122,453	-66,243	-0,070	-0,020
-121,439	800,000	0,018	0,050
-120,424	-88,184	-0,108	0,023
-119,410	800,000	0,029	0,062
-118,395	-116,839	0,177	0,023
-117,380	-158,337	-0,134	0,005
-116,366	-200,000	0,007	0,027
-115,351	800,000	0,014	0,034
-114,337	-200,000	-0,003	-0,107
-113,322	800,000	0,028	-0,084
-112,307	607,989	0,064	0,113
-111,293	197,348	0,056	-0,061
-110,278	659,682	0,043	0,079
-109,264	-200,000	0,004	-0,018
-108,249	-20,819	0,030	0,013
-107,234	309,947	-0,096	0,127
-106,220	-158,946	-0,020	-0,001
-105,205	-94,411	-0,065	0,013
-104,191	236,883	0,121	0,142
-103,176	-34,158	0,085	0,033
-102,162	-200,000	-0,002	0,012
-101,147	-200,000	0,004	0,015
-100,132	-200,000	0,023	-0,136
-99,118	232,908	-0,021	0,025
-98,103	-122,998	0,139	0,016
-97,089	-8,148	0,156	0,074
-96,074	-200,000	-0,023	-0,081
-95,059	-200,000	0,018	0,168
-94,045	82,767	-0,082	-0,063
-93,030	163,611	-0,039	0,038
-92,016	-146,129	-0,161	-0,010
-91,001	-200,000	-0,002	-0,010
-89,986	515,827	0,017	-0,028
-88,972	-200,000	-0,001	0,108
-87,957	171,451	-0,104	0,106
-86,943	20,335	-0,095	-0,055
-85,928	115,980	-0,065	0,056
-84,913	391,710	0,048	-0,071
-83,899	-127,352	0,102	0,010
-82,884	396,712	0,117	-0,174
-81,870	51,594	0,026	0,017
-80,855	165,006	-0,118	0,118
-79,840	564,460	-0,055	-0,095
-78,826	-72,921	-0,194	-0,050
-77,811	41,573	0,062	-0,040
-76,797	589,885	-0,026	-0,045
-75,782	336,881	0,047	0,065
-74,767	800,000	-0,057	0,171
-73,753	87,322	0,126	0,099
-72,738	-200,000	-0,001	-0,078
-71,724	800,000	0,020	0,042
-70,709	333,642	-0,071	-0,098
-69,694	-200,000	0,035	-0,110
-68,680	-66,964	0,147	0,041
-67,665	800,000	-0,038	0,113
-66,651	4,937	-0,032	0,017
-65,636	10,674	-0,136	0,073
-64,622	72,176	0,049	-0,036
-63,607	-200,000	-0,011	-0,126
-62,592	-127,982	0,086	0,009
-61,578	-49,038	-0,117	-0,040
-60,563	800,000	-0,030	-0,089
-59,549	-200,000	-0,019	-0,079
-58,534	-18,607	-1,621	-0,713
-57,519	394,534	-1,271	-1,880
-56,505	-200,000	-0,474	-4,629
-55,490	287,710	0,938	1,204
-54,476	800,000	4,969	11,354
-53,461	-200,000	19,399	325,452
-52,446	-200,000	745,232	2333,208
-51,432	566,155	1657,518	2857,322
-50,417	77,114	1670,798	1255,342
-49,403	20,794	1544,304	882,999
-48,388	14,704	1466,792	809,051
-47,373	18,136	1456,999	820,205
-46,359	16,555	1446,743	806,821
-45,344	12,920	1442,107	786,784
-44,330	12,845	1440,424	785,478
-43,315	12,855	1438,464	784,426
-42,300	12,871	1436,739	783,531
-41,286	12,900	1435,438	782,927
-40,271	12,822	1434,308	781,908
-39,257	12,844	1432,977	781,259
-38,242	12,921	1431,619	780,850
-37,227	12,916	1430,449	780,157
-36,213	12,922	1429,068	779,403
-35,198	12,912	1428,010	778,750
-34,184	12,941	1427,223	778,426
-33,169	12,864	1425,855	777,284
-32,154	12,925	1424,500	776,802
-31,140	12,936	1423,087	776,054
-30,125	12,991	1422,284	775,845
-29,111	12,909	1420,963	774,704
-28,096	12,938	1419,889	774,228
-27,082	12,872	1418,928	773,360
-26,067	12,893	1417,678	772,748
-25,052	12,852	1416,788	772,037
-24,038	12,826	1415,771	771,330
-23,023	12,837	1414,801	770,823
-22,009	12,799	1413,716	770,024
-20,994	12,814	1412,788	769,557
-19,979	12,844	1411,932	769,202
-18,965	12,810	1410,861	768,426
-17,950	12,823	1409,910	767,941
-16,936	12,768	1409,213	767,275
-15,921	12,763	1408,014	766,565
-14,906	12,770	1407,124	766,083
-13,892	12,756	1406,184	765,477
-12,877	12,772	1405,306	765,042
-11,863	12,757	1404,358	764,428
-10,848	12,756	1403,747	764,058
-9,833	12,714	1402,660	763,242
-8,819	12,657	1401,897	762,528
-7,804	12,670	1401,088	762,119
-6,790	12,649	1399,883	761,338
-5,775	12,659	1398,811	760,768
-4,760	12,667	1397,825	760,238
-3,746	12,659	1396,873	759,655
-2,731	12,665	1396,139	759,255
-1,717	12,628	1395,264	758,578
-0,702	12,594	1393,597	757,484
0,313	16,449	1309,397	729,564
1,327	32,668	701,538	428,258
2,342	50,343	122,560	81,789
3,356	-0,274	16,617	8,328
4,371	2,024	3,262	1,660
5,386	-21,668	0,569	0,244
6,400	800,000	0,094	0,262
7,415	96,029	-0,187	-0,151
8,429	115,131	-0,253	-0,219
9,444	131,707	-0,231	-0,210
10,459	136,767	-0,179	-0,165
11,473	-58,442	-0,286	-0,087
12,488	47,946	-0,314	-0,207
13,502	-104,484	-0,345	-0,056
14,517	-43,934	-0,336	-0,119
15,531	174,566	-0,395	-0,404
16,546	58,868	-0,348	-0,241
17,561	164,291	-0,293	-0,291
18,575	37,916	-0,206	-0,129
19,590	85,797	-0,239	-0,186
20,604	-164,198	-0,254	0,008
21,619	169,453	-0,387	-0,390
22,634	33,965	-0,500	-0,307
23,648	72,713	-0,424	-0,312
24,663	191,541	-0,310	-0,330
25,677	-10,957	-0,403	-0,187
26,692	112,726	-0,283	-0,242
27,707	6,518	-0,285	-0,149
28,721	-52,129	-0,522	-0,170
29,736	220,006	-0,341	-0,385
30,750	207,392	-0,361	-0,398
31,765	282,843	-0,396	-0,503
32,780	64,807	-0,450	-0,320
33,794	178,101	-0,374	-0,386
34,809	43,492	-0,419	-0,270
35,823	209,944	-0,335	-0,371
36,838	81,582	-0,404	-0,308
37,853	75,899	-0,312	-0,232
38,867	54,026	-0,332	-0,224
39,882	-32,894	-0,401	-0,156
40,896	-1,853	-0,366	-0,181
41,911	184,246	-0,290	-0,303
42,926	189,878	-0,253	-0,268
43,940	66,544	-0,367	-0,263
44,955	239,134	-0,307	-0,361
45,969	17,631	-0,430	-0,240
46,984	58,159	-0,404	-0,278
47,999	166,287	-0,264	-0,263
49,013	167,416	-0,288	-0,288
50,028	397,465	-0,219	-0,324
51,042	76,561	-0,402	-0,300
52,057	163,572	-0,309	-0,306
53,071	115,713	-0,382	-0,329
54,086	-18,811	-0,372	-0,162
55,101	50,629	-0,396	-0,264
56,115	134,543	-0,286	-0,262
57,130	248,307	-0,364	-0,435
58,144	14,477	-0,432	-0,237
59,159	148,635	-0,259	-0,247
60,174	88,517	-0,388	-0,303
61,188	287,134	-0,224	-0,286
62,203	180,690	-0,223	-0,230
63,217	129,717	-0,251	-0,225
64,232	17,492	-0,336	-0,187
65,247	0,723	-0,337	-0,169
66,261	36,977	-0,409	-0,254
67,276	33,558	-0,386	-0,235
68,290	126,525	-0,405	-0,360
69,305	-56,334	-0,312	-0,097
70,320	-9,450	-0,374	-0,175
71,334	41,480	-0,255	-0,162
72,349	316,153	-0,246	-0,328
73,363	6,527	-0,500	-0,261
74,378	190,180	-0,252	-0,266
75,393	-12,452	-0,376	-0,172
76,407	518,743	-0,169	-0,279
77,422	52,048	-0,349	-0,233
78,436	133,105	-0,215	-0,195
79,451	56,929	-0,273	-0,187
80,466	371,337	-0,306	-0,438
81,480	108,137	-0,279	-0,233
82,495	43,852	-0,337	-0,216
83,509	11,828	-0,288	-0,155
84,524	4,468	-0,096	-0,049
85,539	-59,141	-0,331	-0,100
86,553	-118,320	-0,276	-0,034
87,568	182,871	-0,297	-0,308
88,582	458,135	-0,155	-0,243
89,597	-8,320	-0,400	-0,188
90,611	-43,286	-0,202	-0,071
91,626	80,405	-0,247	-0,186
92,641	191,979	-0,271	-0,287
93,655	14,417	-0,471	-0,257
94,670	334,694	-0,222	-0,302
95,684	123,505	-0,231	-0,203
96,699	70,003	-0,285	-0,206
97,714	44,592	-0,255	-0,164
98,728	-178,865	-0,176	-0,003
99,743	87,039	-0,326	-0,252
100,757	-87,516	-0,306	-0,064
101,772	8,033	-0,210	-0,110
102,787	44,158	-0,275	-0,176
103,801	-17,176	-0,257	-0,113
104,816	-18,295	-0,282	-0,123
105,830	62,879	-0,337	-0,236
106,845	63,631	-0,196	-0,138
107,860	207,866	-0,169	-0,185
108,874	91,046	-0,324	-0,254
109,889	179,648	-0,296	-0,304
110,903	122,383	-0,307	-0,269
111,918	155,868	-0,215	-0,208
112,933	35,203	-0,238	-0,146
113,947	-29,543	-0,270	-0,107
114,962	-66,996	-0,206	-0,057
115,976	22,352	-0,256	-0,146
116,991	-18,279	-0,230	-0,100
118,006	-34,421	-0,350	-0,134
119,020	-19,101	-0,303	-0,131
120,035	52,967	-0,207	-0,138
121,049	96,043	-0,208	-0,167
122,064	42,937	-0,205	-0,131
123,079	77,796	-0,281	-0,209
124,093	248,201	-0,283	-0,336
125,108	-49,929	-0,415	-0,137
126,122	158,194	-0,279	-0,271
127,137	-37,601	-0,230	-0,085
128,151	37,188	-0,140	-0,087
129,166	-9,643	-0,175	-0,081
130,181	90,328	-0,167	-0,131
131,195	130,886	-0,285	-0,256
132,210	5,817	-0,323	-0,167
133,224	-18,910	-0,300	-0,130
134,239	37,561	-0,231	-0,143
135,254	800,000	-0,078	-0,187
136,268	-8,162	-0,416	-0,195
137,283	70,121	-0,208	-0,150
138,297	50,214	-0,300	-0,198
139,312	54,163	-0,278	-0,187
140,327	234,683	-0,252	-0,291
141,341	-27,333	-0,336	-0,136
142,356	12,895	-0,265	-0,143
143,370	104,010	-0,240	-0,197
144,385	42,232	-0,245	-0,155
145,400	62,848	-0,161	-0,112
146,414	25,793	-0,262	-0,152
147,429	648,589	-0,155	-0,277
148,443	81,984	-0,306	-0,232
149,458	800,000	-0,140	-0,306
150,473	27,223	-0,143	-0,084
151,487	42,532	-0,203	-0,129
152,502	83,266	-0,236	-0,179
153,516	-41,745	-0,166	-0,059
154,531	80,453	-0,267	-0,201
155,546	77,596	-0,249	-0,185
156,560	-68,087	-0,286	-0,077
157,575	-35,342	-0,222	-0,084
158,589	50,982	-0,222	-0,147
159,604	9,524	-0,199	-0,105
160,619	-1,665	-0,357	-0,175
161,633	110,005	-0,297	-0,249
162,648	-38,676	-0,258	-0,094
163,662	56,350	-0,171	-0,115
164,677	80,395	-0,120	-0,090
165,692	-34,153	-0,238	-0,091
166,706	-104,507	-0,282	-0,045
167,721	306,602	-0,180	-0,234
168,735	154,370	-0,348	-0,333
169,750	800,000	-0,141	-0,295
170,764	117,953	-0,185	-0,158
171,779	246,926	-0,237	-0,279
172,794	-3,545	-0,273	-0,132
173,808	-88,920	-0,372	-0,076
174,823	356,960	-0,190	-0,265
175,837	-118,174	-0,250	-0,031
176,852	-60,610	-0,167	-0,049
177,867	800,000	-0,111	-0,222
178,881	79,682	-0,173	-0,129
179,896	-20,717	-0,260	-0,111
180,910	17,708	-0,323	-0,178
181,925	107,847	-0,294	-0,244
182,940	103,670	-0,252	-0,206
183,954	127,035	-0,106	-0,094
184,969	800,000	-0,060	-0,126
185,983	43,479	-0,156	-0,099
186,998	135,149	-0,187	-0,170
188,013	-148,283	-0,179	-0,010
189,027	28,490	-0,310	-0,182
190,042	556,771	-0,074	-0,125
191,056	404,360	-0,162	-0,238
192,071	79,812	-0,189	-0,141
193,086	17,761	-0,190	-0,105
194,100	800,000	-0,090	-0,190
195,115	236,460	-0,179	-0,206
196,129	-123,011	-0,253	0,028
197,144	-3,851	-0,192	-0,092
198,159	88,352	-0,290	-0,224
199,173	115,996	-0,179	-0,153
200,188	-34,792	-0,301	-0,114
201,202	480,470	-0,113	-0,179
202,217	496,857	-0,145	-0,233
203,232	216,127	-0,271	-0,300
204,246	600,236	-0,160	-0,278
205,261	800,000	-0,090	-0,252
206,275	17,689	-0,200	-0,110
207,290	294,165	-0,210	-0,267
208,304	174,944	-0,200	-0,201
209,319	-0,316	-0,192	-0,094
210,334	366,564	-0,146	-0,206
211,348	439,027	-0,143	-0,218
212,363	11,037	-0,297	-0,157
213,377	186,148	-0,122	-0,126
214,392	169,757	-0,060	-0,059
215,407	80,436	-0,190	-0,142
216,421	264,895	-0,100	-0,121
217,436	-51,493	-0,330	-0,106
218,450	609,853	-0,185	-0,323
219,465	122,471	-0,175	-0,152
220,480	-14,719	-0,277	-0,123
221,494	242,159	-0,090	-0,105
222,509	-115,380	-0,158	-0,020
223,523	-136,723	-0,183	-0,014
224,538	502,928	-0,069	-0,111
225,553	751,890	-0,124	-0,233
226,567	232,192	-0,209	-0,238
227,582	210,832	-0,193	-0,211
228,596	121,025	-0,174	-0,150
229,611	174,750	-0,127	-0,128
230,626	27,351	-0,100	-0,058
231,640	167,119	-0,174	-0,171
232,655	9,435	-0,226	-0,118
233,669	235,567	-0,192	-0,220
234,684	800,000	-0,125	-0,273
235,699	128,664	-0,211	-0,187
236,713	692,684	-0,106	-0,194
237,728	-6,805	-0,239	-0,112
238,742	84,660	-0,284	-0,215
239,757	-40,653	-0,277	-0,099
240,772	58,606	-0,160	-0,109
241,786	800,000	-0,110	-0,230
242,801	-15,282	-0,375	-0,165
243,815	289,130	-0,057	-0,071
244,830	197,145	-0,217	-0,230
245,844	-107,525	-0,223	-0,033
246,859	176,497	-0,188	-0,190
247,874	-30,544	-0,179	-0,070
248,888	34,558	-0,162	-0,098
249,903	30,192	-0,244	-0,144
250,917	-30,402	-0,233	-0,091
251,932	-130,200	-0,209	-0,019
252,947	30,611	-0,101	-0,060
253,961	-38,245	-0,282	-0,103
254,976	501,438	-0,155	-0,248
255,990	109,229	-0,207	-0,171
257,005	337,491	-0,151	-0,204
258,020	48,458	-0,224	-0,145
259,034	-200,000	-0,075	-0,297
260,049	200,316	-0,150	-0,159
261,063	-10,579	-0,148	-0,067
262,078	54,440	-0,242	-0,161
263,093	17,983	-0,243	-0,133
264,107	108,487	-0,105	-0,086
265,122	800,000	-0,082	-0,174
266,136	22,726	-0,143	-0,081
267,151	-117,978	-0,041	-0,005
268,166	27,755	-0,180	-0,105
269,180	448,186	-0,097	-0,148
270,195	62,771	-0,230	-0,159
271,209	-22,463	-0,153	-0,064
272,224	-200,000	-0,008	-0,211
273,239	800,000	-0,064	-0,142
274,253	-21,912	-0,066	-0,027
275,268	115,014	-0,051	-0,043
276,282	115,131	-0,224	-0,189
277,297	-200,000	-0,049	-0,203
278,312	192,455	-0,206	-0,215
279,326	783,599	-0,091	-0,173
280,341	-63,209	-0,149	-0,042
281,355	-167,724	-0,199	-0,005
282,370	674,583	-0,127	-0,228
283,384	97,676	-0,121	-0,096
284,399	-160,776	-0,154	0,006
285,414	232,592	-0,191	-0,217
286,428	18,290	-0,158	-0,087
287,443	-200,000	-0,041	-0,154
288,457	27,548	-0,106	-0,061
289,472	-158,583	-0,245	0,010
290,487	129,303	-0,146	-0,129
291,501	71,762	-0,260	-0,186
292,516	-69,897	-0,241	-0,063
293,530	62,746	-0,269	-0,185
294,545	253,699	-0,116	-0,136
295,560	800,000	-0,066	-0,132
296,574	410,437	-0,117	-0,171
297,589	31,451	-0,214	-0,126
298,603	105,556	-0,126	-0,103
299,618	65,352	-0,242	-0,168
300,633	45,166	-0,232	-0,147
301,647	84,153	-0,101	-0,076
302,662	185,681	-0,222	-0,228
303,676	-47,549	-0,251	-0,084
304,691	-159,310	-0,132	0,005
305,706	211,964	-0,170	-0,185
306,720	44,312	-0,135	-0,085
307,735	-36,381	-0,226	-0,084
308,749	640,875	-0,079	-0,139
309,764	223,515	-0,058	-0,064
310,779	176,104	-0,065	-0,065
311,793	48,483	-0,107	-0,069
312,808	-99,616	-0,176	-0,030
313,822	-90,221	-0,301	-0,060
314,837	87,839	-0,153	-0,116
315,852	-87,258	-0,199	-0,041
316,866	-115,611	-0,157	0,020
317,881	-200,000	-0,029	-0,159
318,895	411,825	-0,122	-0,179
319,910	258,310	-0,244	-0,290
320,925	-200,000	-0,009	-0,246
321,939	800,000	-0,077	-0,172
322,954	562,775	-0,047	-0,078
323,968	184,542	-0,110	-0,112
324,983	-200,000	-0,046	-0,282
325,997	16,338	-0,183	-0,099
327,012	-36,025	-0,204	-0,075
328,027	800,000	-0,058	-0,156
329,041	91,562	-0,112	-0,086
330,056	111,876	-0,211	-0,175
331,070	288,158	-0,114	-0,142
332,085	27,316	-0,094	-0,054
333,100	47,407	-0,160	-0,103
334,114	519,043	-0,145	-0,234
335,129	-59,588	-0,228	-0,067
336,143	-121,916	-0,209	0,023
337,158	-97,583	-0,162	0,029
338,173	-63,795	-0,105	-0,029
339,187	452,327	-0,123	-0,187
340,202	-122,380	-0,101	-0,011
341,216	570,394	-0,055	-0,093
342,231	-81,613	-0,099	-0,022
343,246	177,555	-0,082	-0,082
344,260	271,808	-0,155	-0,188
345,275	322,376	-0,072	-0,095
346,289	-69,706	-0,025	-0,007
347,304	-133,372	-0,044	-0,004
348,319	-28,889	-0,218	-0,085
349,333	111,119	-0,127	-0,105
350,348	-125,378	-0,223	-0,023
351,362	-200,000	-0,255	-0,000
352,377	-61,027	-0,119	-0,034
353,392	67,876	-0,047	0,033
354,406	112,972	-0,118	-0,098
355,421	208,276	1314,173	1410,477
356,435	160,246	1474,829	1410,945
