DTS Sentinel unit serial number:	SN410029Multiplexer serial number:	ORYXHardware model number:	OX2-SRSoftware version number:	ORYX F/W v4,00 Oryx Data Collector v3.7.2.0data status	okinstallation	B3 Nyhavnadifferential loss correction	single-endedforward channel	channel 1reverse channel	N/Adate	2023/11/30time	03:52:30forward acquisition time	300,00reverse acquisition time	0,00gamma	499,1914k internal	0,3211k external	0,3211temperature offset calibration	1,0000default loss term (dB/km)	0,3820temperature slope calibration	1,0000multiplexer offset coefficient	1,0000multiplexer slope coefficient	1,0000fibre end	0,00T internal ref (°C)	10,15T ext. ref 1 (°C)	-5,36T ext. ref 2 (°C)	-5,43length (m)	temperature (°C)	Stokes	anti-Stokes-744,400	489,706	-0,170	-0,283
-743,385	800,000	0,115	0,355
-742,371	211,726	-0,178	-0,203
-741,356	-200,000	-0,021	0,221
-740,342	196,365	-0,166	-0,184
-739,327	440,357	-0,160	0,254
-738,312	800,000	-0,152	-0,322
-737,298	800,000	-0,097	0,268
-736,283	92,986	-0,246	-0,202
-735,269	783,509	-0,101	0,201
-734,254	-200,000	-0,083	-0,275
-733,239	-71,538	-0,264	0,071
-732,225	800,000	-0,075	-0,182
-731,210	-200,000	-0,043	0,157
-730,196	800,000	0,038	-0,100
-729,181	-200,000	0,005	-0,080
-728,167	-12,994	0,062	-0,029
-727,152	-98,897	0,143	0,026
-726,137	14,395	-0,122	-0,069
-725,123	-27,980	0,122	0,051
-724,108	24,958	-0,105	-0,063
-723,094	-110,757	-0,155	-0,023
-722,079	110,395	-0,096	-0,083
-721,064	-200,000	0,014	-0,074
-720,050	-200,000	-0,014	0,082
-719,035	443,126	-0,085	0,136
-718,021	50,162	-0,073	0,050
-717,006	-3,004	-0,102	0,051
-715,991	188,235	-0,088	-0,095
-714,977	-200,000	0,001	-0,055
-713,962	251,937	-0,024	0,030
-712,948	-119,068	-0,147	-0,018
-711,933	57,675	0,041	0,029
-710,918	103,245	-0,066	-0,056
-709,904	800,000	0,103	-0,233
-708,889	-85,863	-0,065	-0,014
-707,875	800,000	0,023	-0,074
-706,860	768,449	-0,082	-0,162
-705,845	66,158	0,068	-0,050
-704,831	800,000	-0,039	0,108
-703,816	438,792	-0,051	-0,080
-702,802	-57,117	-0,139	-0,044
-701,787	187,540	-0,010	0,010
-700,772	436,137	-0,058	-0,091
-699,758	-200,000	-0,016	-0,093
-698,743	-45,003	0,083	-0,030
-697,729	800,000	0,048	0,140
-696,714	-200,000	-0,005	0,167
-695,699	14,443	-0,047	0,026
-694,685	-41,041	-0,118	-0,044
-693,670	-107,540	-0,147	-0,023
-692,656	-200,000	0,006	-0,024
-691,641	-44,604	-0,002	0,001
-690,627	800,000	0,008	-0,021
-689,612	-167,149	0,069	0,002
-688,597	-200,000	0,046	0,170
-687,583	-200,000	-0,001	-0,024
-686,568	399,592	0,053	-0,081
-685,554	501,373	-0,057	-0,096
-684,539	800,000	-0,063	-0,128
-683,524	800,000	0,023	0,061
-682,510	800,000	-0,054	0,170
-681,495	5,711	-0,089	-0,047
-680,481	-25,209	-0,158	-0,067
-679,466	9,219	-0,069	-0,038
-678,451	-200,000	0,001	0,040
-677,437	240,342	0,080	0,096
-676,422	400,248	-0,100	-0,153
-675,408	800,000	-0,066	-0,175
-674,393	63,725	0,103	-0,075
-673,378	-129,363	0,114	0,011
-672,364	86,497	-0,035	0,028
-671,349	-91,806	0,066	0,013
-670,335	189,497	-0,088	0,095
-669,320	-200,000	0,035	0,165
-668,305	-86,601	-0,106	0,023
-667,291	-140,321	-0,040	-0,003
-666,276	143,699	-0,100	-0,097
-665,262	689,059	0,027	-0,051
-664,247	800,000	-0,016	-0,050
-663,232	-53,032	0,089	0,030
-662,218	-200,000	0,027	0,136
-661,203	105,000	-0,053	-0,045
-660,189	-200,000	0,005	0,016
-659,174	-89,409	0,125	-0,026
-658,159	579,880	-0,095	-0,169
-657,145	89,809	-0,134	-0,108
-656,130	-200,000	-0,000	-0,078
-655,116	-200,000	0,002	0,080
-654,101	52,087	0,008	0,005
-653,086	-41,940	0,054	-0,020
-652,072	122,936	-0,081	-0,073
-651,057	-11,818	-0,045	0,021
-650,043	-102,059	-0,168	-0,029
-649,028	759,205	-0,085	0,167
-648,014	250,896	0,065	0,081
-646,999	-18,063	0,098	-0,044
-645,984	591,035	-0,044	0,078
-644,970	800,000	0,029	-0,088
-643,955	77,421	-0,160	-0,123
-642,941	408,358	-0,113	-0,173
-641,926	-200,000	-0,004	0,022
-640,911	396,749	0,016	-0,023
-639,897	113,072	0,024	0,021
-638,882	-56,489	-0,091	-0,029
-637,868	196,830	0,037	0,040
-636,853	-145,134	-0,061	0,004
-635,838	-13,526	-0,057	-0,027
-634,824	420,917	-0,040	0,062
-633,809	147,228	-0,084	0,082
-632,795	-88,044	0,059	-0,013
-631,780	800,000	-0,028	0,065
-630,765	384,117	0,007	-0,010
-629,751	244,034	0,107	-0,130
-628,736	-174,605	-0,132	0,003
-627,722	-66,292	-0,075	0,021
-626,707	207,516	-0,041	-0,046
-625,692	-38,016	-0,088	0,034
-624,678	41,771	-0,106	0,069
-623,663	-200,000	0,046	0,161
-622,649	-192,245	-0,203	0,001
-621,634	-200,000	-0,000	0,101
-620,619	800,000	-0,008	-0,016
-619,605	-187,878	0,154	0,001
-618,590	146,540	0,072	-0,070
-617,576	-56,914	-0,019	-0,006
-616,561	-200,000	-0,023	0,074
-615,546	608,227	-0,042	0,075
-614,532	397,821	0,035	-0,053
-613,517	42,911	-0,053	0,035
-612,503	-200,000	0,003	-0,067
-611,488	-59,006	0,160	-0,049
-610,474	-200,000	0,004	0,030
-609,459	-87,130	-0,124	0,027
-608,444	173,149	0,069	-0,071
-607,430	-200,000	0,030	-0,186
-606,415	20,061	-0,115	0,067
-605,401	631,272	0,041	-0,076
-604,386	800,000	0,026	-0,073
-603,371	209,438	0,051	0,057
-602,357	-60,770	-0,065	-0,020
-601,342	-200,000	0,011	0,052
-600,328	-2,656	-0,089	-0,045
-599,313	-134,359	-0,049	-0,004
-598,298	-82,705	-0,053	-0,012
-597,284	-102,385	-0,020	-0,003
-596,269	800,000	0,037	0,078
-595,255	800,000	-0,025	-0,057
-594,240	-6,058	-0,098	0,048
-593,225	800,000	0,023	-0,051
-592,211	495,664	-0,081	-0,134
-591,196	-200,000	-0,037	-0,234
-590,182	800,000	0,015	-0,043
-589,167	175,437	0,032	-0,033
-588,152	-129,190	0,040	-0,004
-587,138	411,838	0,041	0,063
-586,123	-2,825	0,035	-0,018
-585,109	-200,000	0,007	-0,069
-584,094	238,766	-0,080	-0,096
-583,079	-137,767	-0,062	-0,005
-582,065	505,522	0,004	0,007
-581,050	67,629	0,008	-0,006
-580,036	50,201	-0,039	-0,027
-579,021	-69,094	-0,077	0,021
-578,006	800,000	-0,016	-0,041
-576,992	-1,913	0,115	-0,058
-575,977	-200,000	0,016	-0,183
-574,963	-200,000	-0,001	-0,011
-573,948	-44,634	-0,066	0,024
-572,934	-102,860	-0,134	0,023
-571,919	287,438	0,075	-0,098
-570,904	22,343	-0,143	-0,084
-569,890	-30,348	0,119	-0,048
-568,875	81,488	-0,060	-0,047
-567,861	-132,694	-0,041	0,004
-566,846	-147,426	-0,079	0,005
-565,831	800,000	0,056	-0,119
-564,817	-49,364	0,069	0,023
-563,802	0,365	0,109	0,056
-562,788	689,018	-0,038	-0,073
-561,773	79,451	0,101	-0,078
-560,758	-200,000	-0,007	0,126
-559,744	-170,056	-0,088	-0,002
-558,729	-130,082	-0,044	-0,004
-557,715	9,801	-0,076	-0,041
-556,700	-200,000	-0,029	-0,118
-555,685	410,157	0,104	-0,158
-554,671	12,876	-0,118	-0,066
-553,656	-200,000	-0,041	0,185
-552,642	203,504	0,070	0,078
-551,627	-7,077	-0,070	0,034
-550,612	-200,000	0,012	0,040
-549,598	-148,665	-0,104	-0,006
-548,583	143,912	-0,088	-0,085
-547,569	-200,000	-0,009	0,114
-546,554	-200,000	-0,007	0,043
-545,539	202,932	0,106	-0,118
-544,525	171,464	0,086	0,089
-543,510	-23,161	0,077	-0,033
-542,496	800,000	-0,032	-0,093
-541,481	95,475	-0,048	-0,039
-540,466	-49,580	-0,122	0,042
-539,452	322,278	0,039	0,054
-538,437	22,550	0,082	0,048
-537,423	154,277	-0,069	0,068
-536,408	-151,330	-0,059	-0,003
-535,393	800,000	-0,030	-0,087
-534,379	-38,941	-0,166	0,063
-533,364	-200,000	0,021	-0,126
-532,350	-200,000	0,011	0,115
-531,335	-61,230	0,047	0,014
-530,321	13,360	0,132	-0,073
-529,306	-123,550	-0,084	0,009
-528,291	-6,943	-0,089	-0,043
-527,277	-200,000	-0,021	-0,070
-526,262	390,312	0,092	0,137
-525,248	-107,773	-0,050	-0,008
-524,233	198,312	0,123	0,135
-523,218	62,648	-0,035	-0,025
-522,204	800,000	0,047	-0,126
-521,189	-200,000	0,014	0,044
-520,175	-72,953	-0,062	-0,016
-519,160	-200,000	0,008	0,093
-518,145	-200,000	0,006	-0,070
-517,131	35,969	0,125	-0,079
-516,116	800,000	0,014	0,030
-515,102	-200,000	0,018	0,106
-514,087	-154,426	-0,007	0,000
-513,072	256,361	-0,074	-0,092
-512,058	-47,792	-0,059	-0,020
-511,043	-200,000	0,013	0,088
-510,029	-27,741	0,089	0,037
-509,014	204,568	0,032	0,036
-507,999	32,489	-0,097	-0,060
-506,985	-200,000	0,012	-0,059
-505,970	800,000	-0,079	-0,164
-504,956	123,046	0,092	0,083
-503,941	-200,000	0,011	0,055
-502,926	28,602	-0,185	0,112
-501,912	-200,000	0,006	0,132
-500,897	587,746	-0,046	-0,081
-499,883	149,896	0,027	-0,026
-498,868	800,000	0,041	-0,103
-497,853	-200,000	0,004	0,130
-496,839	-200,000	-0,022	-0,123
-495,824	800,000	0,031	-0,065
-494,810	191,880	0,060	0,065
-493,795	-117,383	0,030	0,004
-492,781	-200,000	-0,012	-0,056
-491,766	800,000	-0,035	-0,093
-490,751	-133,542	0,074	0,007
-489,737	800,000	0,085	0,177
-488,722	-200,000	-0,020	-0,111
-487,708	140,784	0,058	0,055
-486,693	287,267	-0,019	-0,025
-485,678	171,133	-0,073	0,075
-484,664	29,339	-0,037	0,023
-483,649	-55,278	-0,115	-0,037
-482,635	800,000	0,019	-0,053
-481,620	-200,000	0,005	-0,185
-480,605	-200,000	-0,012	-0,124
-479,591	-200,000	-0,009	0,069
-478,576	20,853	-0,104	-0,061
-477,562	449,283	-0,044	-0,070
-476,547	210,039	-0,148	-0,167
-475,532	475,539	0,082	-0,134
-474,518	-200,000	0,029	-0,098
-473,503	-105,206	0,182	-0,029
-472,489	-200,000	0,030	0,117
-471,474	352,261	-0,075	0,107
-470,459	-200,000	-0,023	-0,169
-469,445	800,000	-0,013	0,031
-468,430	-80,390	-0,049	0,012
-467,416	438,893	-0,025	0,040
-466,401	102,738	0,053	0,045
-465,386	-200,000	0,024	0,146
-464,372	-200,000	-0,012	0,046
-463,357	12,115	0,047	-0,026
-462,343	261,450	-0,073	-0,091
-461,328	-44,454	0,114	0,041
-460,313	-200,000	0,040	-0,146
-459,299	-25,882	0,032	-0,013
-458,284	594,852	0,072	0,127
-457,270	-200,000	-0,011	0,086
-456,255	-79,675	-0,035	0,008
-455,241	250,303	-0,023	-0,028
-454,226	300,504	0,045	-0,060
-453,211	79,898	-0,123	-0,094
-452,197	-63,584	0,270	0,079
-451,182	-150,902	-0,099	-0,005
-450,168	-200,000	-0,007	0,119
-449,153	164,830	0,093	0,094
-448,138	444,761	-0,083	-0,131
-447,124	243,890	0,036	-0,044
-446,109	177,351	-0,061	-0,063
-445,095	-62,635	-0,057	0,017
-444,080	-6,694	-0,047	0,023
-443,065	-103,890	0,130	-0,021
-442,051	-200,000	-0,012	0,039
-441,036	30,078	0,044	0,027
-440,022	-200,000	0,027	0,126
-439,007	-200,000	0,027	-0,138
-437,992	106,675	0,089	-0,076
-436,978	-110,889	-0,020	-0,003
-435,963	-200,000	-0,010	0,150
-434,949	97,778	0,013	-0,011
-433,934	-89,680	-0,138	0,029
-432,919	-72,315	-0,087	-0,023
-431,905	-134,908	-0,108	-0,009
-430,890	-200,000	-0,048	0,168
-429,876	122,209	-0,079	0,070
-428,861	674,391	-0,035	0,066
-427,846	-200,000	-0,006	0,140
-426,832	800,000	-0,034	-0,093
-425,817	155,456	-0,111	-0,110
-424,803	158,249	-0,085	-0,085
-423,788	-200,000	0,008	-0,033
-422,773	735,594	0,071	0,137
-421,759	455,274	-0,092	0,146
-420,744	-200,000	0,044	0,141
-419,730	139,193	-0,054	-0,051
-418,715	800,000	0,046	-0,096
-417,701	-29,756	0,080	-0,032
-416,686	117,176	0,053	-0,047
-415,671	39,840	0,149	0,096
-414,657	-83,109	-0,146	0,033
-413,642	-80,889	-0,163	0,038
-412,628	301,644	-0,068	-0,090
-411,613	-103,650	0,029	-0,005
-410,598	-155,050	-0,230	0,011
-409,584	559,830	-0,043	0,074
-408,569	-32,591	0,127	0,050
-407,555	105,696	0,097	0,082
-406,540	66,806	0,119	-0,086
-405,525	-200,000	-0,008	0,026
-404,511	-144,806	-0,144	0,009
-403,496	220,887	0,031	0,036
-402,482	-200,000	0,014	-0,044
-401,467	-95,870	-0,095	0,018
-400,452	-200,000	-0,010	0,064
-399,438	800,000	0,025	0,055
-398,423	310,756	-0,083	-0,112
-397,409	-126,688	0,155	-0,016
-396,394	-200,000	-0,003	-0,093
-395,379	747,805	-0,045	-0,086
-394,365	68,177	0,079	0,058
-393,350	-200,000	-0,003	0,121
-392,336	106,073	0,063	0,053
-391,321	-141,952	-0,050	-0,004
-390,306	-170,591	-0,058	0,001
-389,292	-200,000	-0,015	-0,065
-388,277	236,678	0,086	-0,102
-387,263	24,702	0,182	0,108
-386,248	-23,734	0,094	0,040
-385,233	800,000	0,052	0,137
-384,219	669,148	-0,044	0,083
-383,204	38,915	-0,036	-0,023
-382,190	-200,000	-0,005	0,030
-381,175	76,430	0,078	0,059
-380,160	8,713	-0,013	-0,007
-379,146	13,858	-0,202	0,112
-378,131	366,893	-0,061	0,088
-377,117	800,000	-0,013	0,027
-376,102	-200,000	0,010	-0,132
-375,088	-108,566	0,126	-0,019
-374,073	195,682	0,072	0,078
-373,058	-38,642	0,080	-0,030
-372,044	-84,554	0,084	0,019
-371,029	146,807	0,148	0,142
-370,015	-200,000	0,013	-0,107
-369,000	493,980	-0,088	-0,145
-367,985	402,713	-0,029	-0,044
-366,971	-136,352	-0,037	0,003
-365,956	658,497	0,038	-0,070
-364,942	-200,000	0,031	0,118
-363,927	224,818	0,160	-0,185
-362,912	783,712	-0,013	0,026
-361,898	335,704	-0,014	-0,019
-360,883	800,000	-0,032	-0,074
-359,869	-188,992	-0,167	-0,001
-358,854	319,684	-0,036	-0,049
-357,839	-59,094	0,074	-0,023
-356,825	-117,099	0,122	0,016
-355,810	29,147	-0,085	-0,051
-354,796	64,656	0,147	0,106
-353,781	800,000	-0,032	-0,089
-352,766	213,479	0,045	-0,050
-351,752	-7,180	0,078	0,038
-350,737	229,592	-0,052	0,060
-349,723	-6,411	0,121	0,059
-348,708	-88,117	0,161	0,034
-347,693	-200,000	0,029	-0,095
-346,679	-17,134	-0,188	0,084
-345,664	769,194	0,036	0,070
-344,650	662,026	-0,073	0,136
-343,635	100,839	0,069	-0,057
-342,620	800,000	0,026	0,054
-341,606	388,922	0,022	0,032
-340,591	277,627	-0,114	0,145
-339,577	-200,000	0,012	-0,182
-338,562	800,000	0,037	-0,078
-337,548	163,355	0,018	0,018
-336,533	237,336	0,001	-0,001
-335,518	92,987	0,043	0,035
-334,504	83,786	-0,056	0,043
-333,489	800,000	-0,055	-0,116
-332,475	800,000	0,068	-0,197
-331,460	-126,472	-0,133	0,014
-330,445	-100,963	0,146	0,025
-329,431	-200,000	0,036	-0,138
-328,416	31,954	-0,062	-0,038
-327,402	175,994	0,102	-0,106
-326,387	800,000	0,050	-0,144
-325,372	-141,378	-0,136	-0,010
-324,358	408,440	-0,004	0,006
-323,343	-200,000	-0,021	0,100
-322,329	65,984	0,107	0,077
-321,314	-200,000	-0,014	0,123
-320,299	-200,000	0,051	0,163
-319,285	-108,631	-0,023	0,003
-318,270	-130,566	-0,082	0,008
-317,256	-80,566	0,099	0,023
-316,241	-75,502	0,104	-0,026
-315,226	-200,000	0,009	0,055
-314,212	-6,079	0,127	0,061
-313,197	-200,000	-0,012	0,108
-312,183	-153,601	-0,104	-0,005
-311,168	10,457	-0,070	0,038
-310,153	416,395	0,027	-0,041
-309,139	-45,981	0,083	0,029
-308,124	800,000	0,001	0,003
-307,110	-12,002	0,189	0,088
-306,095	551,027	0,089	0,152
-305,080	-200,000	0,004	0,070
-304,066	-200,000	0,002	-0,057
-303,051	155,498	0,092	-0,091
-302,037	629,078	-0,106	0,192
-301,022	800,000	0,022	0,056
-300,008	-41,334	0,094	0,034
-298,993	-162,424	0,112	0,004
-297,978	85,336	0,103	-0,080
-296,964	112,097	0,108	-0,093
-295,949	-200,000	0,010	-0,104
-294,935	226,930	-0,079	0,091
-293,920	-55,385	0,065	-0,021
-292,905	404,389	0,058	0,087
-291,891	-200,000	-0,014	-0,124
-290,876	-200,000	-0,024	0,091
-289,862	-200,000	0,011	0,100
-288,847	800,000	-0,044	0,127
-287,832	-200,000	0,052	-0,181
-286,818	-200,000	0,013	-0,136
-285,803	97,012	-0,045	-0,037
-284,789	800,000	-0,035	0,101
-283,774	-31,218	0,035	-0,014
-282,759	711,208	0,054	0,103
-281,745	171,414	-0,062	-0,064
-280,730	800,000	-0,022	-0,055
-279,716	116,991	0,028	0,024
-278,701	425,862	0,047	0,072
-277,686	70,763	0,057	-0,042
-276,672	243,476	0,084	0,100
-275,657	800,000	0,016	0,037
-274,643	106,772	-0,057	0,048
-273,628	54,770	-0,026	0,018
-272,613	379,645	0,083	0,122
-271,599	-160,131	0,141	0,005
-270,584	-200,000	-0,032	0,114
-269,570	-84,757	0,087	-0,019
-268,555	-159,053	-0,049	0,002
-267,540	-34,060	0,078	-0,030
-266,526	-200,000	-0,014	-0,118
-265,511	-200,000	0,020	0,068
-264,497	-200,000	0,039	-0,216
-263,482	121,229	-0,081	0,072
-262,467	-200,000	0,031	0,107
-261,453	-95,366	0,124	-0,024
-260,438	285,072	0,053	-0,068
-259,424	68,691	-0,086	0,063
-258,409	-200,000	0,003	0,178
-257,395	800,000	-0,015	0,037
-256,380	-200,000	0,025	0,089
-255,365	-200,000	-0,009	0,212
-254,351	625,549	0,052	-0,094
-253,336	-172,315	0,148	-0,003
-252,322	50,905	0,040	-0,027
-251,307	494,820	0,025	0,041
-250,292	-200,000	0,014	-0,045
-249,278	800,000	0,006	0,016
-248,263	800,000	0,027	0,075
-247,249	151,804	-0,082	0,080
-246,234	239,440	-0,060	0,071
-245,219	-82,554	0,115	0,026
-244,205	800,000	-0,053	-0,160
-243,190	-150,673	0,125	-0,007
-242,176	800,000	0,042	0,083
-241,161	158,319	0,102	0,101
-240,146	23,455	0,147	0,086
-239,132	-148,449	-0,108	0,006
-238,117	48,287	0,072	-0,048
-237,103	-48,644	-0,080	-0,027
-236,088	689,489	-0,019	-0,036
-235,073	-30,326	0,115	-0,046
-234,059	800,000	-0,064	0,148
-233,044	-200,000	0,008	-0,079
-232,030	-200,000	-0,020	0,107
-231,015	109,008	-0,090	-0,076
-230,000	137,555	-0,052	-0,049
-228,986	333,461	0,034	0,046
-227,971	-200,000	0,016	0,055
-226,957	495,041	-0,049	0,081
-225,942	673,824	0,022	0,040
-224,927	132,998	0,126	-0,116
-223,913	-119,348	-0,248	-0,030
-222,898	-18,147	-0,172	0,076
-221,884	83,475	0,050	0,039
-220,869	585,624	0,082	-0,143
-219,855	2,511	0,137	0,071
-218,840	542,429	-0,062	0,106
-217,825	-200,000	-0,018	-0,127
-216,811	800,000	-0,018	0,043
-215,796	-200,000	0,009	-0,138
-214,782	257,013	0,026	0,031
-213,767	-200,000	0,009	-0,047
-212,752	60,525	0,031	0,022
-211,738	-101,296	0,126	-0,022
-210,723	-200,000	-0,021	-0,212
-209,709	198,038	-0,145	-0,157
-208,694	67,825	-0,085	-0,061
-207,679	12,429	0,123	0,067
-206,665	-200,000	-0,021	0,153
-205,650	-163,435	0,039	-0,001
-204,636	504,183	-0,046	0,075
-203,621	-200,000	0,046	0,144
-202,606	-53,682	0,007	0,002
-201,592	356,485	-0,130	-0,184
-200,577	83,692	-0,141	-0,109
-199,563	-101,753	-0,018	0,003
-198,548	-80,018	0,154	0,036
-197,533	64,640	0,041	-0,029
-196,519	-158,607	0,136	-0,005
-195,504	-64,740	0,056	0,016
-194,490	-200,000	-0,011	-0,096
-193,475	-200,000	0,036	-0,167
-192,460	-200,000	0,010	0,054
-191,446	-70,848	-0,048	0,013
-190,431	-84,228	0,145	-0,032
-189,417	96,551	-0,028	0,023
-188,402	-7,865	-0,043	0,021
-187,387	202,856	-0,062	-0,068
-186,373	-29,799	0,135	-0,054
-185,358	-94,036	0,099	0,019
-184,344	270,870	-0,075	-0,094
-183,329	214,214	-0,044	0,049
-182,315	127,630	0,046	0,042
-181,300	-161,553	-0,169	0,006
-180,285	800,000	-0,039	0,117
-179,271	368,865	-0,035	-0,051
-178,256	-162,626	0,099	0,003
-177,242	-128,244	-0,156	-0,016
-176,227	271,973	-0,064	0,080
-175,212	751,290	-0,044	0,085
-174,198	-200,000	0,021	0,071
-173,183	800,000	0,042	-0,085
-172,169	28,642	-0,080	-0,048
-171,154	-145,559	-0,104	0,006
-170,139	-31,435	-0,120	-0,048
-169,125	-80,498	0,075	-0,017
-168,110	542,490	-0,054	0,092
-167,096	-200,000	-0,001	-0,042
-166,081	-37,467	-0,095	-0,036
-165,066	-14,469	-0,134	-0,061
-164,052	-132,682	0,024	-0,002
-163,037	658,101	-0,042	-0,076
-162,023	598,405	0,038	-0,067
-161,008	-141,402	0,125	0,009
-159,993	-52,419	-0,162	0,053
-158,979	-75,378	-0,131	0,033
-157,964	800,000	0,038	-0,079
-156,950	800,000	-0,035	-0,108
-155,935	-136,772	-0,143	0,011
-154,920	275,089	0,067	0,084
-153,906	138,959	0,094	0,087
-152,891	130,551	0,061	0,055
-151,877	101,072	0,075	0,062
-150,862	-59,802	-0,043	-0,013
-149,847	-200,000	0,025	0,087
-148,833	-200,000	0,001	0,043
-147,818	109,501	0,114	0,097
-146,804	42,417	-0,022	-0,014
-145,789	205,893	0,025	0,027
-144,775	62,437	-0,039	-0,028
-143,760	-39,365	-0,096	0,036
-142,745	800,000	0,026	-0,067
-141,731	800,000	0,049	0,120
-140,716	210,185	0,040	0,044
-139,702	-127,825	-0,095	-0,010
-138,687	-200,000	0,016	-0,064
-137,672	800,000	-0,040	0,122
-136,658	12,248	0,017	-0,009
-135,643	122,219	0,066	0,058
-134,629	-177,697	-0,090	-0,002
-133,614	-200,000	0,006	-0,034
-132,599	307,532	0,122	0,161
-131,585	800,000	0,025	0,051
-130,570	69,551	0,099	0,072
-129,556	-125,158	-0,063	0,007
-128,541	375,535	-0,040	-0,058
-127,526	-99,407	-0,169	-0,030
-126,512	-200,000	0,002	-0,112
-125,497	211,369	0,033	0,036
-124,483	-15,587	-0,136	0,061
-123,468	-200,000	0,006	0,149
-122,453	-152,326	-0,080	0,004
-121,439	577,388	-0,071	-0,123
-120,424	-163,390	0,036	0,001
-119,410	800,000	0,061	0,148
-118,395	-200,000	-0,007	-0,083
-117,380	-119,762	0,060	-0,007
-116,366	-166,449	-0,215	-0,006
-115,351	28,725	0,082	0,049
-114,337	117,527	-0,115	0,101
-113,322	-41,086	0,067	0,024
-112,307	800,000	-0,014	0,036
-111,293	67,310	-0,104	0,075
-110,278	-42,353	0,094	-0,034
-109,264	24,973	-0,059	0,035
-108,249	39,910	-0,041	-0,026
-107,234	-35,557	0,067	-0,026
-106,220	-200,000	0,003	0,057
-105,205	48,952	-0,058	-0,039
-104,191	800,000	0,068	0,171
-103,176	800,000	-0,003	0,007
-102,162	-15,582	0,097	-0,044
-101,147	-200,000	0,015	0,058
-100,132	2,384	-0,066	-0,034
-99,118	326,284	-0,072	-0,098
-98,103	412,821	-0,050	0,075
-97,089	800,000	0,023	0,055
-96,074	-1,891	0,052	0,026
-95,059	800,000	0,026	-0,060
-94,045	-63,884	0,085	0,024
-93,030	800,000	0,030	-0,059
-92,016	114,868	-0,139	-0,120
-91,001	-22,693	0,050	-0,021
-89,986	-200,000	-0,026	0,109
-88,972	-200,000	0,054	0,176
-87,957	95,051	-0,071	-0,057
-86,943	-34,655	0,117	-0,045
-85,928	800,000	0,028	-0,085
-84,913	112,584	-0,011	-0,009
-83,899	-98,233	0,127	-0,023
-82,884	-18,682	0,084	-0,037
-81,870	-88,803	-0,123	0,026
-80,855	800,000	-0,023	0,056
-79,840	800,000	-0,052	0,110
-78,826	-93,558	-0,053	0,010
-77,811	-45,823	0,091	-0,031
-76,797	54,131	0,091	-0,062
-75,782	-200,000	-0,005	-0,047
-74,767	450,661	-0,053	0,084
-73,753	-109,408	0,077	0,011
-72,738	-67,551	-0,093	-0,026
-71,724	-200,000	-0,000	-0,111
-70,709	800,000	-0,011	0,028
-69,694	125,684	-0,120	-0,107
-68,680	-124,240	0,050	0,005
-67,665	118,167	0,094	0,082
-66,651	-200,000	-0,003	0,145
-65,636	-200,000	0,020	-0,101
-64,622	135,200	-0,041	-0,037
-63,607	45,686	-0,097	0,063
-62,592	-129,574	0,085	0,008
-61,578	-40,452	-0,120	-0,044
-60,563	4,312	0,022	0,011
-59,549	300,160	0,004	0,005
-58,534	37,402	-1,875	-1,171
-57,519	380,339	-1,408	-2,044
-56,505	-200,000	-0,273	-4,373
-55,490	800,000	0,817	1,618
-54,476	800,000	5,097	11,220
-53,461	-200,000	21,371	340,608
-52,446	800,000	760,174	2360,387
-51,432	559,633	1662,857	2845,274
-50,417	73,609	1661,567	1227,128
-49,403	18,061	1534,956	861,379
-48,388	12,005	1458,524	789,191
-47,373	19,439	1449,707	820,067
-46,359	15,481	1438,751	795,017
-45,344	10,288	1434,616	767,976
-44,330	10,236	1432,751	766,701
-43,315	10,175	1431,032	765,461
-42,300	10,219	1429,239	764,679
-41,286	10,210	1428,173	764,036
-40,271	10,200	1426,751	763,196
-39,257	10,154	1425,911	762,500
-38,242	10,206	1424,657	762,044
-37,227	10,213	1423,440	761,399
-36,213	10,243	1422,182	760,839
-35,198	10,213	1420,951	760,004
-34,184	10,253	1420,206	759,764
-33,169	10,173	1418,701	758,552
-32,154	10,251	1417,766	758,391
-31,140	10,296	1416,370	757,826
-30,125	10,284	1415,391	757,217
-29,111	10,256	1414,287	756,462
-28,096	10,251	1412,901	755,667
-27,082	10,177	1411,874	754,744
-26,067	10,188	1410,574	754,067
-25,052	10,190	1409,754	753,611
-24,038	10,229	1408,880	753,296
-23,023	10,212	1407,828	752,625
-22,009	10,206	1406,697	751,961
-20,994	10,204	1405,585	751,325
-19,979	10,168	1404,977	750,803
-18,965	10,142	1404,015	750,138
-17,950	10,149	1402,950	749,575
-16,936	10,112	1402,211	748,977
-15,921	10,129	1401,078	748,422
-14,906	10,082	1400,485	747,856
-13,892	10,111	1399,317	747,335
-12,877	10,079	1398,630	746,792
-11,863	10,097	1397,411	746,192
-10,848	10,053	1396,954	745,718
-9,833	10,040	1395,806	745,015
-8,819	9,974	1395,137	744,320
-7,804	9,996	1394,075	743,828
-6,790	10,017	1393,111	743,380
-5,775	10,000	1392,023	742,691
-4,760	9,990	1391,297	742,230
-3,746	10,006	1390,190	741,681
-2,731	9,995	1389,179	741,065
-1,717	10,006	1388,407	740,674
-0,702	9,984	1386,604	739,577
0,313	14,032	1299,557	711,669
1,327	30,409	689,944	414,938
2,342	47,104	119,216	78,108
3,356	0,655	16,550	8,323
4,371	0,335	3,469	1,741
5,386	-24,613	1,040	0,434
6,400	674,263	0,270	0,496
7,415	68,989	-0,183	-0,132
8,429	256,217	-0,201	-0,244
9,444	5,878	-0,351	-0,182
10,459	-71,160	-0,213	-0,056
11,473	-48,310	-0,279	-0,094
12,488	366,848	-0,202	-0,288
13,502	24,999	-0,223	-0,130
14,517	86,364	-0,255	-0,198
15,531	76,434	-0,297	-0,222
16,546	120,881	-0,313	-0,274
17,561	179,015	-0,217	-0,223
18,575	514,445	-0,120	-0,197
19,590	125,324	-0,298	-0,265
20,604	-87,687	-0,330	-0,069
21,619	-46,808	-0,393	-0,135
22,634	91,458	-0,418	-0,331
23,648	141,892	-0,388	-0,362
24,663	3,438	-0,457	-0,234
25,677	93,627	-0,300	-0,239
26,692	-88,716	-0,302	-0,063
27,707	11,448	-0,368	-0,198
28,721	261,271	-0,408	-0,499
29,736	318,724	-0,297	-0,398
30,750	101,254	-0,507	-0,415
31,765	153,196	-0,396	-0,382
32,780	411,200	-0,227	-0,340
33,794	47,941	-0,384	-0,252
34,809	103,113	-0,338	-0,278
35,823	65,403	-0,342	-0,243
36,838	209,587	-0,186	-0,206
37,853	98,101	-0,362	-0,293
38,867	55,973	-0,446	-0,304
39,882	70,076	-0,323	-0,234
40,896	-18,411	-0,442	-0,193
41,911	71,364	-0,363	-0,265
42,926	116,037	-0,317	-0,273
43,940	44,506	-0,351	-0,227
44,955	162,981	-0,232	-0,229
45,969	-17,846	-0,396	-0,174
46,984	6,490	-0,267	-0,139
47,999	21,887	-0,296	-0,169
49,013	45,163	-0,283	-0,183
50,028	52,891	-0,222	-0,149
51,042	69,566	-0,269	-0,194
52,057	74,506	-0,368	-0,272
53,071	7,030	-0,364	-0,190
54,086	167,326	-0,212	-0,212
55,101	-6,044	-0,280	-0,134
56,115	-28,651	-0,470	-0,189
57,130	-43,574	-0,318	-0,112
58,144	-48,241	-0,298	-0,100
59,159	-56,583	-0,417	-0,129
60,174	98,044	-0,225	-0,181
61,188	-48,208	-0,333	-0,112
62,203	101,077	-0,332	-0,271
63,217	94,686	-0,232	-0,185
64,232	32,150	-0,308	-0,186
65,247	-1,693	-0,395	-0,194
66,261	20,259	-0,381	-0,215
67,276	-68,538	-0,405	-0,109
68,290	206,266	-0,269	-0,294
69,305	135,768	-0,183	-0,167
70,320	-57,154	-0,310	-0,095
71,334	-18,332	-0,431	-0,188
72,349	84,484	-0,256	-0,197
73,363	-47,475	-0,420	-0,142
74,378	64,441	-0,465	-0,328
75,393	142,659	-0,209	-0,195
76,407	40,167	-0,280	-0,176
77,422	67,788	-0,199	-0,142
78,436	-12,581	-0,324	-0,148
79,451	39,162	-0,395	-0,247
80,466	60,245	-0,280	-0,194
81,480	9,541	-0,223	-0,118
82,495	293,353	-0,178	-0,229
83,509	-59,345	-0,311	-0,093
84,524	6,523	-0,217	-0,113
85,539	128,776	-0,237	-0,212
86,553	-2,246	-0,321	-0,157
87,568	-50,056	-0,340	-0,112
88,582	100,268	-0,249	-0,202
89,597	21,123	-0,257	-0,146
90,611	207,430	-0,214	-0,234
91,626	203,156	-0,154	-0,166
92,641	54,970	-0,250	-0,169
93,655	45,967	-0,267	-0,173
94,670	296,508	-0,275	-0,353
95,684	138,298	-0,284	-0,260
96,699	144,487	-0,212	-0,198
97,714	106,965	-0,257	-0,213
98,728	7,014	-0,326	-0,169
99,743	110,247	-0,302	-0,254
100,757	-12,465	-0,290	-0,132
101,772	79,621	-0,375	-0,281
102,787	40,131	-0,316	-0,198
103,801	49,498	-0,249	-0,164
104,816	260,243	-0,168	-0,203
105,830	-4,739	-0,351	-0,169
106,845	49,588	-0,223	-0,146
107,860	245,332	-0,197	-0,232
108,874	235,745	-0,244	-0,282
109,889	48,789	-0,463	-0,303
110,903	63,387	-0,276	-0,193
111,918	-61,314	-0,224	-0,065
112,933	-70,231	-0,257	-0,068
113,947	90,041	-0,187	-0,146
114,962	163,174	-0,135	-0,133
115,976	18,817	-0,266	-0,148
116,991	212,291	-0,176	-0,194
118,006	398,525	-0,150	-0,220
119,020	94,092	-0,116	-0,092
120,035	195,601	-0,183	-0,195
121,049	-91,028	-0,306	-0,061
122,064	356,789	-0,130	-0,182
123,079	342,645	-0,203	-0,278
124,093	170,602	-0,205	-0,205
125,108	55,830	-0,311	-0,210
126,122	190,129	-0,195	-0,204
127,137	103,626	-0,183	-0,150
128,151	453,176	-0,138	-0,213
129,166	-106,759	-0,258	0,040
130,181	-45,575	-0,149	-0,051
131,195	290,946	-0,175	-0,223
132,210	20,456	-0,294	-0,165
133,224	158,013	-0,152	-0,147
134,239	287,170	-0,282	-0,357
135,254	598,532	-0,153	-0,266
136,268	323,178	-0,164	-0,219
137,283	-100,637	-0,237	0,040
138,297	-39,908	-0,274	-0,099
139,312	800,000	-0,168	-0,373
140,327	253,753	-0,168	-0,201
141,341	179,268	-0,158	-0,161
142,356	428,342	-0,132	-0,200
143,370	119,953	-0,239	-0,207
144,385	41,630	-0,257	-0,162
145,400	145,277	-0,244	-0,227
146,414	282,757	-0,171	-0,214
147,429	321,030	-0,195	-0,259
148,443	115,288	-0,143	-0,122
149,458	105,391	-0,240	-0,198
150,473	-49,013	-0,423	-0,140
151,487	329,859	-0,164	-0,220
152,502	-33,932	-0,318	-0,121
153,516	31,547	-0,201	-0,120
154,531	800,000	-0,144	-0,284
155,546	26,424	-0,238	-0,138
156,560	83,862	-0,201	-0,153
157,575	124,377	-0,283	-0,248
158,589	-29,253	-0,282	-0,112
159,604	-84,199	-0,203	-0,044
160,619	187,032	-0,220	-0,229
161,633	-84,561	-0,314	-0,068
162,648	197,542	-0,296	-0,315
163,662	31,064	-0,162	-0,096
164,677	510,896	-0,091	-0,147
165,692	53,101	-0,285	-0,190
166,706	-28,629	-0,245	-0,098
167,721	218,422	-0,244	-0,271
168,735	19,171	-0,188	-0,104
169,750	304,279	-0,216	-0,279
170,764	732,224	-0,069	-0,130
171,779	-64,368	-0,280	-0,079
172,794	485,055	-0,144	-0,229
173,808	56,815	-0,274	-0,185
174,823	124,943	-0,293	-0,256
175,837	3,778	-0,256	-0,129
176,852	71,912	-0,200	-0,144
177,867	-38,498	-0,160	-0,059
178,881	147,349	-0,123	-0,115
179,896	-44,934	-0,160	-0,055
180,910	191,132	-0,168	-0,175
181,925	-62,640	-0,294	-0,084
182,940	603,751	-0,140	-0,243
183,954	50,017	-0,171	-0,112
184,969	105,670	-0,261	-0,214
185,983	-21,085	-0,179	-0,076
186,998	85,663	-0,118	-0,090
188,013	380,176	-0,124	-0,177
189,027	72,779	-0,318	-0,230
190,042	135,058	-0,186	-0,168
191,056	159,987	-0,229	-0,221
192,071	67,147	-0,265	-0,187
193,086	800,000	-0,138	-0,318
194,100	800,000	-0,056	-0,139
195,115	-32,650	-0,214	-0,082
196,129	184,885	-0,231	-0,237
197,144	375,061	-0,135	-0,191
198,159	41,206	-0,262	-0,164
199,173	74,998	-0,167	-0,122
200,188	-200,000	-0,037	-0,203
201,202	16,557	-0,101	-0,055
202,217	275,146	-0,116	-0,143
203,232	335,391	-0,134	-0,180
204,246	-14,561	-0,333	-0,148
205,261	194,900	-0,161	-0,170
206,275	800,000	-0,061	-0,176
207,290	-178,787	-0,228	0,004
208,304	84,012	-0,196	-0,148
209,319	196,156	-0,209	-0,220
210,334	41,038	-0,255	-0,159
211,348	-17,406	-0,290	-0,126
212,363	-97,581	-0,189	0,034
213,377	68,123	-0,171	-0,121
214,392	-175,399	-0,199	0,004
215,407	288,515	-0,076	-0,096
216,421	-34,606	-0,077	-0,029
217,436	443,585	-0,166	-0,253
218,450	-88,309	-0,318	-0,065
219,465	62,199	-0,200	-0,138
220,480	197,621	-0,151	-0,160
221,494	13,284	-0,200	-0,107
222,509	800,000	-0,073	-0,175
223,523	-15,437	-0,274	-0,120
224,538	147,310	-0,054	-0,050
225,553	250,939	-0,162	-0,191
226,567	3,062	-0,192	-0,096
227,582	265,335	-0,169	-0,204
228,596	-200,000	-0,034	-0,209
229,611	485,726	-0,085	-0,135
230,626	-42,390	-0,245	-0,086
231,640	267,681	-0,067	-0,082
232,655	-122,647	-0,222	-0,025
233,669	509,199	-0,130	-0,210
234,684	-200,000	-0,029	-0,227
235,699	24,277	-0,150	-0,085
236,713	-10,556	-0,131	-0,059
237,728	49,867	-0,127	-0,082
238,742	-200,000	-0,076	-0,235
239,757	-5,352	-0,178	-0,084
240,772	346,819	-0,122	-0,167
241,786	24,269	-0,186	-0,106
242,801	-103,562	-0,078	-0,013
243,815	36,959	-0,208	-0,127
244,830	328,292	-0,163	-0,216
245,844	57,896	-0,164	-0,111
246,859	359,038	-0,066	-0,091
247,874	30,697	-0,246	-0,145
248,888	131,740	-0,183	-0,162
249,903	549,410	-0,078	-0,129
250,917	120,902	-0,233	-0,200
251,932	-88,540	-0,076	-0,015
252,947	695,265	-0,076	-0,138
253,961	25,047	-0,163	-0,093
254,976	-79,411	-0,216	-0,050
255,990	113,770	-0,186	-0,156
257,005	91,813	-0,215	-0,167
258,020	-110,695	-0,094	-0,013
259,034	-108,821	-0,175	-0,025
260,049	93,076	-0,244	-0,190
261,063	100,487	-0,072	-0,058
262,078	54,152	-0,140	-0,092
263,093	267,731	-0,203	-0,246
264,107	800,000	-0,084	-0,166
265,122	-145,809	-0,209	-0,013
266,136	-98,852	-0,237	-0,041
267,151	122,491	-0,104	-0,090
268,166	-200,000	-0,154	0,000
269,180	11,043	-0,138	-0,072
270,195	124,838	-0,124	-0,108
271,209	-11,711	-0,137	-0,062
272,224	15,677	-0,108	-0,058
273,239	680,472	-0,119	-0,215
274,253	-44,120	-0,163	-0,056
275,268	34,587	-0,333	-0,200
276,282	311,976	-0,231	-0,299
277,297	83,963	-0,171	-0,129
278,312	49,409	-0,297	-0,192
279,326	59,756	-0,140	-0,095
280,341	396,404	-0,128	-0,184
281,355	800,000	-0,043	-0,109
282,370	800,000	-0,125	-0,325
283,384	-200,000	-0,069	-0,243
284,399	511,239	-0,110	-0,178
285,414	-125,435	-0,161	0,017
286,428	308,377	-0,258	-0,332
287,443	444,358	-0,113	-0,171
288,457	209,840	-0,176	-0,190
289,472	800,000	-0,087	-0,176
290,487	315,793	-0,148	-0,192
291,501	375,966	-0,120	-0,168
292,516	-85,472	-0,232	-0,049
293,530	369,624	-0,135	-0,189
294,545	223,541	-0,110	-0,122
295,560	-200,000	0,001	-0,090
296,574	-51,678	-0,212	-0,068
297,589	-44,008	-0,135	-0,047
298,603	-55,024	-0,238	-0,073
299,618	800,000	-0,081	-0,192
300,633	-116,034	-0,058	-0,007
301,647	84,277	-0,158	-0,119
302,662	-5,164	-0,172	-0,081
303,676	-200,000	-0,012	-0,119
304,691	13,847	-0,190	-0,101
305,706	398,957	-0,108	-0,155
306,720	313,141	-0,102	-0,132
307,735	800,000	-0,068	-0,139
308,749	800,000	-0,065	0,133
309,764	-200,000	0,029	-0,130
310,779	800,000	-0,067	-0,166
311,793	800,000	-0,075	-0,185
312,808	800,000	-0,096	-0,185
313,822	-68,358	-0,119	-0,032
314,837	-44,010	-0,068	-0,023
315,852	800,000	-0,083	-0,196
316,866	153,558	0,044	-0,042
317,881	-5,048	-0,301	-0,142
318,895	-16,454	-0,191	-0,083
319,910	141,372	-0,165	-0,150
320,925	52,939	-0,142	-0,093
321,939	-6,833	-0,068	0,032
322,954	183,218	-0,093	-0,094
323,968	-126,492	-0,163	0,016
324,983	20,147	-0,054	0,030
325,997	-96,198	-0,178	-0,032
327,012	379,125	-0,077	-0,108
328,027	122,045	-0,138	-0,118
329,041	47,550	-0,072	-0,046
330,056	290,042	-0,098	-0,122
331,070	-118,146	-0,127	-0,015
332,085	102,169	-0,057	-0,045
333,100	-98,631	-0,153	-0,027
334,114	800,000	-0,112	-0,231
335,129	708,286	-0,165	-0,300
336,143	39,166	-0,123	-0,075
337,158	-93,042	-0,113	0,021
338,173	69,494	-0,212	-0,149
339,187	33,838	-0,074	-0,044
340,202	202,001	-0,080	-0,084
341,216	608,497	-0,097	-0,167
342,231	800,000	-0,081	-0,163
343,246	329,448	-0,160	-0,212
344,260	-94,496	-0,106	-0,020
345,275	800,000	0,018	-0,041
346,289	-103,119	-0,095	-0,015
347,304	-51,867	-0,133	-0,042
348,319	-135,365	-0,185	0,015
349,333	183,814	-0,169	-0,172
350,348	159,545	-0,129	-0,123
351,362	448,926	-0,177	-0,268
352,377	137,687	-0,183	-0,164
353,392	43,297	-0,116	-0,073
354,406	245,951	-0,081	-0,094
355,421	207,401	1310,952	1400,462
356,435	159,548	1471,178	1400,935
