DTS Sentinel unit serial number:	SN410029Multiplexer serial number:	ORYXHardware model number:	OX2-SRSoftware version number:	ORYX F/W v4,00 Oryx Data Collector v3.7.2.0data status	okinstallation	B3 Nyhavnadifferential loss correction	single-endedforward channel	channel 1reverse channel	N/Adate	2023/11/30time	05:12:30forward acquisition time	300,00reverse acquisition time	0,00gamma	499,1914k internal	0,3211k external	0,3211temperature offset calibration	1,0000default loss term (dB/km)	0,3820temperature slope calibration	1,0000multiplexer offset coefficient	1,0000multiplexer slope coefficient	1,0000fibre end	0,00T internal ref (°C)	10,19T ext. ref 1 (°C)	-5,13T ext. ref 2 (°C)	-5,21length (m)	temperature (°C)	Stokes	anti-Stokes-744,400	65,451	-0,234	-0,172
-743,385	800,000	0,096	0,241
-742,371	-200,000	-0,030	-0,173
-741,356	-200,000	0,014	0,307
-740,342	-121,047	-0,254	-0,031
-739,327	-200,000	0,004	0,304
-738,312	238,526	-0,271	-0,327
-737,298	-200,000	-0,029	0,193
-736,283	225,846	-0,198	-0,233
-735,269	800,000	-0,064	0,178
-734,254	-200,000	-0,040	-0,386
-733,239	-49,129	-0,241	0,083
-732,225	800,000	-0,078	-0,167
-731,210	-39,643	0,229	0,086
-730,196	-200,000	-0,022	0,115
-729,181	319,748	-0,039	0,054
-728,167	-42,511	-0,092	0,034
-727,152	684,299	0,032	0,060
-726,137	20,249	-0,126	-0,074
-725,123	-83,294	-0,049	-0,011
-724,108	-43,415	-0,119	-0,043
-723,094	395,211	-0,050	-0,076
-722,079	-99,587	-0,153	0,028
-721,064	555,434	-0,007	-0,012
-720,050	-105,919	0,128	0,021
-719,035	-44,470	-0,028	-0,010
-718,021	180,421	-0,126	0,134
-717,006	800,000	0,002	0,007
-715,991	106,590	-0,104	-0,089
-714,977	-115,808	0,082	0,011
-713,962	-188,516	0,033	-0,000
-712,948	746,096	0,044	0,085
-711,933	557,175	0,072	0,125
-710,918	515,395	-0,037	-0,063
-709,904	88,720	-0,049	0,040
-708,889	218,648	-0,097	-0,113
-707,875	-200,000	0,002	-0,104
-706,860	800,000	-0,005	0,015
-705,845	44,007	0,095	0,063
-704,831	74,306	-0,017	0,013
-703,816	391,821	0,152	0,229
-702,802	-200,000	0,022	-0,171
-701,787	122,075	0,032	-0,029
-700,772	461,165	0,032	-0,052
-699,758	270,893	-0,062	-0,079
-698,743	-200,000	0,018	0,112
-697,729	214,436	0,086	0,099
-696,714	-135,581	-0,045	-0,004
-695,699	97,833	0,084	0,070
-694,685	-128,601	-0,104	-0,010
-693,670	14,090	-0,202	0,114
-692,656	465,711	-0,050	0,082
-691,641	151,335	-0,099	0,097
-690,627	-200,000	0,002	-0,062
-689,612	-200,000	0,021	0,101
-688,597	800,000	-0,023	-0,061
-687,583	-200,000	-0,010	-0,040
-686,568	-48,573	0,071	0,024
-685,554	-47,209	-0,093	-0,033
-684,539	-200,000	0,017	-0,157
-683,524	184,076	-0,091	0,098
-682,510	59,773	-0,142	0,101
-681,495	33,613	0,059	0,037
-680,481	-200,000	-0,030	0,191
-679,466	61,523	0,050	-0,036
-678,451	290,356	-0,090	-0,118
-677,437	-178,302	0,122	-0,002
-676,422	-11,715	-0,088	0,042
-675,408	-62,654	0,131	-0,039
-674,393	-43,716	-0,058	-0,021
-673,378	144,340	-0,075	-0,072
-672,364	-11,986	0,064	-0,030
-671,349	-200,000	-0,027	-0,106
-670,335	-58,021	-0,089	-0,028
-669,320	-46,698	-0,089	0,031
-668,305	-34,772	0,115	-0,045
-667,291	131,656	-0,026	0,025
-666,276	750,972	-0,037	0,073
-665,262	404,645	-0,077	0,118
-664,247	-200,000	-0,000	-0,204
-663,232	167,972	-0,086	-0,088
-662,218	-200,000	-0,042	0,211
-661,203	-140,896	0,137	-0,010
-660,189	71,434	0,034	0,026
-659,174	-30,332	-0,104	-0,043
-658,159	-200,000	0,020	-0,077
-657,145	800,000	-0,035	0,077
-656,130	268,507	-0,108	0,137
-655,116	-200,000	-0,015	-0,124
-654,101	93,976	0,055	-0,045
-653,086	-200,000	-0,004	0,061
-652,072	7,200	-0,065	-0,035
-651,057	-200,000	0,025	-0,174
-650,043	-93,240	-0,143	0,028
-649,028	-200,000	0,002	-0,048
-648,014	-200,000	0,002	-0,090
-646,999	-93,497	0,210	-0,042
-645,984	-75,821	0,096	0,025
-644,970	-200,000	-0,000	-0,146
-643,955	-200,000	0,014	-0,152
-642,941	-107,898	0,030	0,005
-641,926	532,286	-0,065	-0,112
-640,911	800,000	0,039	0,082
-639,897	800,000	-0,056	0,138
-638,882	-32,786	0,137	0,055
-637,868	81,114	0,069	0,054
-636,853	-32,031	-0,167	0,067
-635,838	-200,000	0,001	-0,113
-634,824	-200,000	0,003	-0,035
-633,809	69,970	0,089	-0,066
-632,795	670,458	0,039	0,073
-631,780	-200,000	0,010	0,080
-630,765	-12,218	-0,088	0,041
-629,751	-40,290	-0,103	0,038
-628,736	-200,000	-0,017	-0,122
-627,722	-41,373	0,029	-0,011
-626,707	457,524	0,090	0,145
-625,692	37,147	0,087	0,055
-624,678	-200,000	-0,008	0,144
-623,663	11,139	0,031	0,017
-622,649	-51,176	-0,119	0,040
-621,634	69,641	-0,091	-0,067
-620,619	-177,192	-0,088	0,002
-619,605	415,413	0,027	-0,042
-618,590	-6,235	0,041	0,020
-617,576	-10,950	0,041	0,019
-616,561	-41,986	-0,047	-0,017
-615,546	139,594	0,094	-0,089
-614,532	800,000	-0,012	0,029
-613,517	800,000	0,026	-0,064
-612,503	328,459	-0,025	0,034
-611,488	-200,000	-0,019	0,099
-610,474	-200,000	0,010	0,062
-609,459	-80,315	-0,125	-0,030
-608,444	-90,773	-0,059	-0,012
-607,430	-125,110	-0,179	0,020
-606,415	-133,424	0,146	-0,013
-605,401	-64,272	-0,145	0,042
-604,386	52,871	0,067	-0,046
-603,371	-200,000	0,009	0,047
-602,357	36,169	0,088	0,056
-601,342	-200,000	-0,020	0,124
-600,328	-47,603	-0,055	-0,019
-599,313	-170,654	-0,186	0,005
-598,298	-78,287	0,052	0,013
-597,284	-45,585	-0,020	-0,007
-596,269	-200,000	-0,034	-0,119
-595,255	70,588	0,098	-0,073
-594,240	-200,000	-0,005	-0,033
-593,225	-200,000	-0,013	-0,050
-592,211	800,000	-0,027	-0,069
-591,196	210,300	0,034	-0,038
-590,182	-200,000	-0,006	0,143
-589,167	191,701	-0,063	0,069
-588,152	-3,140	0,118	0,059
-587,138	54,591	-0,086	-0,059
-586,123	-74,057	-0,158	-0,041
-585,109	-149,845	0,107	-0,006
-584,094	-35,092	0,060	-0,024
-583,079	-200,000	0,006	-0,073
-582,065	262,697	0,037	0,046
-581,050	18,320	0,055	-0,031
-580,036	190,702	-0,037	0,040
-579,021	437,162	-0,056	0,088
-578,006	-105,603	-0,048	-0,008
-576,992	15,367	-0,112	0,063
-575,977	345,002	0,050	-0,071
-574,963	0,925	-0,048	0,025
-573,948	800,000	0,042	-0,129
-572,934	-200,000	0,001	-0,077
-571,919	57,415	-0,120	-0,084
-570,904	-200,000	-0,007	-0,158
-569,890	-70,325	0,150	0,041
-568,875	110,018	-0,094	0,082
-567,861	-200,000	0,000	0,116
-566,846	-42,868	0,197	0,072
-565,831	-37,389	0,145	0,055
-564,817	800,000	-0,042	-0,085
-563,802	79,159	0,086	-0,066
-562,788	545,942	-0,068	-0,117
-561,773	751,987	-0,086	-0,168
-560,758	-200,000	0,032	0,140
-559,744	800,000	0,006	0,012
-558,729	-200,000	-0,016	-0,084
-557,715	-161,433	0,034	0,001
-556,700	31,892	-0,045	-0,028
-555,685	-200,000	-0,036	-0,156
-554,671	-200,000	-0,024	-0,212
-553,656	-136,028	0,044	0,004
-552,642	583,363	-0,063	-0,112
-551,627	484,796	-0,039	0,065
-550,612	-110,310	0,044	-0,006
-549,598	306,827	0,098	-0,131
-548,583	-125,964	-0,149	0,016
-547,569	490,683	-0,016	-0,026
-546,554	86,592	0,103	0,082
-545,539	6,773	-0,151	-0,081
-544,525	-200,000	-0,001	0,121
-543,510	-200,000	0,016	0,155
-542,496	-200,000	-0,003	-0,013
-541,481	-101,286	-0,053	0,009
-540,466	-200,000	-0,004	-0,237
-539,452	800,000	-0,039	-0,100
-538,437	800,000	-0,047	0,105
-537,423	66,084	0,092	0,067
-536,408	-137,733	-0,068	0,005
-535,393	-88,722	0,038	-0,008
-534,379	-82,812	0,085	-0,020
-533,364	-200,000	0,022	0,101
-532,350	-149,650	0,039	0,002
-531,335	-104,475	0,144	-0,024
-530,321	84,461	0,090	0,071
-529,306	295,600	0,033	-0,043
-528,291	800,000	-0,009	-0,020
-527,277	361,522	-0,081	-0,118
-526,262	-83,155	-0,072	0,017
-525,248	119,693	0,046	0,041
-524,233	-200,000	-0,051	0,165
-523,218	135,896	0,081	0,076
-522,204	-63,674	-0,083	-0,024
-521,189	-23,753	0,061	-0,026
-520,175	12,822	-0,113	0,063
-519,160	20,452	-0,073	0,042
-518,145	105,810	0,100	0,085
-517,131	800,000	-0,021	0,043
-516,116	-132,596	0,056	0,005
-515,102	-200,000	0,006	-0,059
-514,087	217,634	0,080	0,091
-513,072	800,000	0,059	-0,127
-512,058	-99,204	-0,105	-0,019
-511,043	-78,200	0,007	0,002
-510,029	-53,194	-0,033	0,011
-509,014	161,510	-0,077	-0,077
-507,999	-200,000	0,023	-0,087
-506,985	-150,964	-0,102	0,005
-505,970	229,581	-0,056	-0,066
-504,956	122,066	0,029	-0,026
-503,941	686,800	0,052	-0,098
-502,926	-200,000	0,020	0,139
-501,912	83,347	0,046	0,036
-500,897	-200,000	-0,004	0,079
-499,883	800,000	0,015	0,039
-498,868	-200,000	0,022	-0,110
-497,853	48,366	-0,058	-0,039
-496,839	-9,682	0,068	-0,032
-495,824	800,000	-0,030	-0,063
-494,810	246,948	0,029	0,035
-493,795	379,992	0,113	-0,166
-492,781	-200,000	0,014	0,075
-491,766	-124,330	-0,083	-0,009
-490,751	800,000	-0,038	-0,094
-489,737	173,533	-0,033	0,034
-488,722	17,435	0,120	-0,068
-487,708	240,850	0,030	-0,036
-486,693	124,166	-0,053	-0,048
-485,678	86,652	0,072	-0,057
-484,664	40,639	0,057	0,037
-483,649	800,000	-0,049	-0,110
-482,635	-5,185	-0,040	-0,020
-481,620	800,000	0,069	0,159
-480,605	-200,000	0,007	0,044
-479,591	-200,000	0,011	-0,042
-478,576	255,668	-0,102	0,125
-477,562	391,503	-0,070	-0,104
-476,547	374,372	-0,045	-0,066
-475,532	-200,000	0,030	-0,138
-474,518	70,933	0,081	0,060
-473,503	8,123	0,043	0,023
-472,489	576,377	-0,049	0,086
-471,474	82,047	0,033	0,026
-470,459	-34,110	-0,006	0,003
-469,445	800,000	-0,025	-0,057
-468,430	189,129	0,050	-0,054
-467,416	688,526	-0,014	-0,026
-466,401	-122,265	0,075	-0,009
-465,386	-153,287	-0,029	-0,001
-464,372	243,942	-0,090	-0,108
-463,357	-113,889	0,121	0,017
-462,343	-200,000	-0,008	-0,131
-461,328	115,376	-0,066	-0,058
-460,313	-200,000	0,076	0,000
-459,299	334,491	0,127	0,177
-458,284	-2,379	0,057	0,029
-457,270	-19,648	0,111	0,049
-456,255	-71,312	0,058	-0,015
-455,241	53,504	0,070	-0,048
-454,226	-200,000	-0,020	-0,124
-453,211	15,906	-0,018	-0,010
-452,197	-174,333	0,116	-0,002
-451,182	264,913	-0,136	-0,170
-450,168	-200,000	-0,020	0,069
-449,153	-89,890	-0,099	0,021
-448,138	529,735	0,020	-0,034
-447,124	800,000	0,018	-0,039
-446,109	-129,661	-0,025	-0,002
-445,095	38,636	0,104	-0,066
-444,080	-200,000	-0,039	-0,180
-443,065	57,490	0,055	0,038
-442,051	-200,000	-0,008	-0,050
-441,036	-83,780	-0,004	-0,001
-440,022	-7,764	-0,057	0,028
-439,007	81,158	-0,090	-0,070
-437,992	-75,386	-0,088	-0,022
-436,978	97,742	0,089	0,073
-435,963	137,352	0,052	0,049
-434,949	-200,000	-0,010	-0,080
-433,934	-13,632	-0,057	0,026
-432,919	-67,276	0,041	0,012
-431,905	-159,817	-0,129	0,005
-430,890	-131,327	-0,070	-0,007
-429,876	136,981	0,116	0,108
-428,861	-37,201	0,101	-0,039
-427,846	800,000	-0,023	0,050
-426,832	-112,276	0,081	0,011
-425,817	70,857	-0,103	0,077
-424,803	-200,000	-0,009	0,084
-423,788	420,249	-0,052	0,080
-422,773	-200,000	0,036	0,149
-421,759	-200,000	0,004	0,081
-420,744	78,575	-0,083	0,064
-419,730	-110,567	-0,080	0,012
-418,715	-200,000	0,007	0,040
-417,701	130,016	-0,088	0,081
-416,686	-8,081	0,043	0,021
-415,671	-49,247	0,094	-0,032
-414,657	-200,000	0,002	0,103
-413,642	311,955	0,089	0,120
-412,628	70,298	-0,030	-0,022
-411,613	-112,344	-0,044	0,006
-410,598	-200,000	-0,010	-0,097
-409,584	77,041	-0,034	0,026
-408,569	30,031	-0,018	-0,011
-407,555	11,658	0,033	-0,018
-406,540	-97,440	-0,018	-0,003
-405,525	-135,223	-0,025	-0,002
-404,511	8,098	-0,046	-0,025
-403,496	54,311	0,030	0,021
-402,482	93,109	-0,022	0,018
-401,467	-59,911	0,044	-0,013
-400,452	-149,440	0,087	-0,005
-399,438	-73,521	-0,045	-0,012
-398,423	-20,104	-0,124	0,055
-397,409	-134,558	-0,043	0,004
-396,394	45,151	0,171	-0,112
-395,379	-127,631	0,119	0,012
-394,365	61,709	0,040	0,029
-393,350	696,256	0,055	0,104
-392,336	-71,871	0,017	-0,004
-391,321	800,000	-0,028	0,075
-390,306	149,448	0,119	-0,115
-389,292	-60,764	-0,151	0,045
-388,277	294,326	0,035	0,046
-387,263	-31,323	-0,024	0,010
-386,248	-90,406	-0,048	-0,010
-385,233	129,632	0,075	-0,069
-384,219	-200,000	0,006	-0,067
-383,204	-200,000	-0,008	-0,056
-382,190	280,302	-0,056	0,071
-381,175	20,734	0,080	0,046
-380,160	270,536	0,093	0,118
-379,146	-62,104	0,095	0,028
-378,131	-200,000	-0,045	0,146
-377,117	-55,566	-0,206	0,066
-376,102	104,598	-0,077	-0,065
-375,088	114,044	-0,072	0,063
-374,073	800,000	0,015	0,045
-373,058	310,090	0,057	0,076
-372,044	-200,000	0,000	0,120
-371,029	-36,953	0,076	-0,029
-370,015	-200,000	-0,025	-0,145
-369,000	-62,934	-0,039	-0,012
-367,985	-200,000	0,005	0,074
-366,971	95,696	-0,163	-0,133
-365,956	-33,327	0,158	0,062
-364,942	-44,643	-0,041	0,015
-363,927	-135,384	0,047	0,004
-362,912	-75,680	0,017	-0,004
-361,898	138,166	0,017	-0,016
-360,883	-200,000	-0,046	-0,241
-359,869	-200,000	0,015	0,053
-358,854	301,637	-0,059	-0,078
-357,839	-200,000	0,001	0,080
-356,825	439,064	0,083	0,130
-355,810	107,403	-0,109	0,092
-354,796	276,163	-0,017	0,022
-353,781	-164,582	0,119	0,004
-352,766	650,069	-0,070	-0,128
-351,752	800,000	-0,022	0,057
-350,737	-137,475	0,042	-0,003
-349,723	497,058	0,139	0,229
-348,708	-74,175	-0,145	0,037
-347,693	231,157	-0,069	-0,081
-346,679	155,878	-0,036	0,035
-345,664	35,293	0,090	-0,056
-344,650	-84,820	0,101	0,022
-343,635	-15,691	0,048	-0,022
-342,620	-15,462	0,194	0,088
-341,606	800,000	0,039	-0,082
-340,591	-200,000	0,016	0,054
-339,577	-200,000	-0,006	-0,057
-338,562	-200,000	-0,023	-0,193
-337,548	800,000	-0,068	0,186
-336,533	87,753	0,092	0,072
-335,518	800,000	0,046	0,130
-334,504	-50,878	0,116	0,039
-333,489	138,175	-0,047	0,044
-332,475	-163,468	-0,079	0,003
-331,460	49,158	0,086	0,057
-330,445	800,000	-0,057	-0,122
-329,431	800,000	-0,028	-0,058
-328,416	-96,190	0,120	0,022
-327,402	-200,000	0,021	0,094
-326,387	-200,000	-0,002	-0,137
-325,372	-93,826	-0,197	-0,038
-324,358	800,000	-0,043	0,088
-323,343	800,000	0,038	-0,086
-322,329	-190,285	-0,066	-0,001
-321,314	-100,250	0,079	0,014
-320,299	-200,000	0,019	0,071
-319,285	-200,000	-0,008	-0,040
-318,270	-13,341	-0,156	-0,072
-317,256	800,000	0,029	-0,085
-316,241	737,447	-0,040	0,078
-315,226	213,537	-0,029	0,033
-314,212	-125,203	0,075	0,008
-313,197	0,139	0,071	0,036
-312,183	142,160	0,053	0,050
-311,168	-200,000	-0,015	-0,171
-310,153	800,000	-0,054	0,129
-309,139	-200,000	-0,012	-0,137
-308,124	129,527	0,008	-0,008
-307,110	735,790	-0,017	-0,032
-306,095	102,528	0,008	0,007
-305,080	55,752	0,164	0,113
-304,066	-93,980	-0,177	-0,034
-303,051	-111,605	-0,148	0,021
-302,037	289,009	-0,079	0,102
-301,022	-47,991	-0,081	0,028
-300,008	-200,000	-0,018	-0,106
-298,993	-48,149	0,064	0,022
-297,978	709,000	-0,046	-0,088
-296,964	483,989	0,067	0,109
-295,949	106,769	-0,120	-0,101
-294,935	-200,000	-0,011	-0,052
-293,920	88,586	-0,118	-0,094
-292,905	800,000	0,048	0,101
-291,891	-200,000	-0,015	-0,090
-290,876	-72,400	-0,070	-0,018
-289,862	-49,165	-0,059	-0,020
-288,847	800,000	-0,032	-0,073
-287,832	626,678	-0,074	0,133
-286,818	-16,840	0,153	-0,069
-285,803	-88,989	0,061	-0,013
-284,789	-152,170	-0,083	-0,004
-283,774	-200,000	-0,030	-0,112
-282,759	-45,727	-0,221	-0,077
-281,745	-154,017	-0,072	-0,003
-280,730	-200,000	-0,001	-0,150
-279,716	519,284	0,061	-0,101
-278,701	-200,000	-0,004	0,066
-277,686	-200,000	0,072	0,000
-276,672	45,795	0,013	0,009
-275,657	800,000	0,027	-0,059
-274,643	-90,673	-0,075	-0,015
-273,628	101,175	-0,072	0,060
-272,613	-31,046	-0,067	-0,027
-271,599	800,000	-0,028	-0,058
-270,584	-121,581	0,038	0,004
-269,570	39,440	0,080	-0,051
-268,555	66,448	-0,096	0,069
-267,540	-200,000	-0,011	-0,068
-266,526	-149,596	0,059	0,003
-265,511	164,409	-0,034	-0,034
-264,497	-95,676	-0,047	0,009
-263,482	-107,384	0,155	0,024
-262,467	800,000	0,048	0,126
-261,453	-98,103	-0,056	0,010
-260,438	-200,000	0,001	0,025
-259,424	-200,000	-0,018	-0,106
-258,409	567,989	-0,071	-0,123
-257,395	96,119	-0,057	0,046
-256,380	-200,000	0,012	0,095
-255,365	70,236	0,036	0,027
-254,351	-200,000	0,010	-0,067
-253,336	-16,595	-0,104	0,047
-252,322	-109,548	-0,100	0,015
-251,307	291,537	0,050	0,065
-250,292	332,478	0,009	-0,012
-249,278	43,570	-0,062	0,040
-248,263	-51,139	0,120	0,040
-247,249	800,000	0,044	0,096
-246,234	-200,000	0,043	0,137
-245,219	-136,669	0,091	0,007
-244,205	-20,894	-0,059	-0,026
-243,190	-110,513	0,141	-0,021
-242,176	-14,585	0,041	-0,019
-241,161	-200,000	-0,010	0,055
-240,146	-200,000	-0,040	0,212
-239,132	-21,712	-0,049	0,021
-238,117	-200,000	0,027	-0,118
-237,103	392,139	-0,084	-0,125
-236,088	-200,000	0,008	-0,121
-235,073	205,896	0,081	0,090
-234,059	67,571	0,130	0,094
-233,044	161,163	-0,058	0,058
-232,030	93,605	-0,055	0,044
-231,015	-187,488	0,074	0,001
-230,000	265,725	-0,025	-0,032
-228,986	-128,043	0,029	0,003
-227,971	-127,617	0,169	-0,017
-226,957	-200,000	-0,006	0,026
-225,942	70,741	0,091	0,067
-224,927	-200,000	-0,006	0,068
-223,913	800,000	-0,012	-0,036
-222,898	317,100	0,037	0,050
-221,884	800,000	0,067	0,161
-220,869	110,367	-0,087	-0,074
-219,855	-118,633	-0,035	-0,004
-218,840	800,000	0,046	0,131
-217,825	-181,176	-0,109	0,002
-216,811	800,000	0,010	-0,027
-215,796	263,167	-0,059	-0,074
-214,782	134,555	0,101	-0,093
-213,767	800,000	0,040	0,112
-212,752	37,010	0,042	-0,026
-211,738	194,501	0,020	0,022
-210,723	-200,000	-0,002	-0,123
-209,709	106,017	-0,068	0,057
-208,694	-100,067	-0,104	-0,018
-207,679	800,000	0,068	-0,145
-206,665	800,000	-0,022	0,052
-205,650	335,869	-0,080	-0,110
-204,636	167,245	-0,035	0,035
-203,621	-60,800	-0,106	0,032
-202,606	121,672	-0,025	0,022
-201,592	800,000	-0,026	-0,064
-200,577	412,142	0,089	0,134
-199,563	-76,877	-0,096	0,024
-198,548	-200,000	-0,011	0,172
-197,533	800,000	0,061	0,125
-196,519	-71,225	0,078	0,021
-195,504	-200,000	-0,006	0,033
-194,490	277,860	-0,118	-0,150
-193,475	215,543	-0,037	-0,042
-192,460	-200,000	0,011	-0,081
-191,446	5,500	-0,027	0,014
-190,431	-200,000	0,022	0,092
-189,417	-175,213	0,101	0,002
-188,402	204,918	0,076	-0,084
-187,387	158,861	-0,086	-0,085
-186,373	-22,233	-0,100	0,043
-185,358	-49,158	0,127	-0,043
-184,344	-200,000	-0,002	0,041
-183,329	-5,330	0,057	-0,028
-182,315	800,000	-0,030	0,081
-181,300	274,326	0,033	0,041
-180,285	-200,000	-0,001	0,046
-179,271	52,411	-0,041	-0,028
-178,256	-158,645	-0,074	0,003
-177,242	387,753	0,040	-0,059
-176,227	313,741	0,048	0,065
-175,212	5,796	-0,129	0,068
-174,198	51,039	-0,110	-0,074
-173,183	1,076	-0,039	0,020
-172,169	777,848	-0,051	-0,100
-171,154	79,267	-0,028	-0,021
-170,139	226,307	0,122	-0,141
-169,125	12,083	0,109	0,059
-168,110	800,000	0,005	-0,013
-167,096	800,000	0,019	-0,057
-166,081	61,012	0,033	0,023
-165,066	-38,364	0,019	-0,007
-164,052	-200,000	0,018	0,070
-163,037	-200,000	0,010	0,040
-162,023	195,798	0,103	0,111
-161,008	38,644	0,086	0,054
-159,993	-151,687	-0,069	-0,004
-158,979	-200,000	-0,039	-0,135
-157,964	-200,000	0,007	-0,045
-156,950	-68,900	-0,134	-0,036
-155,935	483,234	0,057	-0,091
-154,920	800,000	0,078	0,165
-153,906	381,779	0,043	0,063
-152,891	121,737	-0,067	0,059
-151,877	54,314	0,064	0,044
-150,862	118,704	0,049	-0,042
-149,847	800,000	0,023	-0,061
-148,833	-200,000	0,010	-0,073
-147,818	110,293	0,019	-0,016
-146,804	-200,000	-0,014	0,139
-145,789	-156,830	0,199	-0,008
-144,775	-200,000	-0,025	0,091
-143,760	-52,314	-0,038	0,012
-142,745	207,522	0,101	-0,112
-141,731	146,626	0,036	-0,034
-140,716	449,941	-0,055	-0,086
-139,702	-200,000	-0,008	0,066
-138,687	-35,232	0,067	-0,026
-137,672	-200,000	0,003	0,032
-136,658	-200,000	-0,017	-0,068
-135,643	81,047	-0,064	-0,049
-134,629	37,191	0,024	-0,015
-133,614	0,318	0,102	0,051
-132,599	-77,473	-0,055	-0,014
-131,585	-85,843	-0,079	0,017
-130,570	38,070	0,053	0,033
-129,556	55,403	-0,042	-0,029
-128,541	28,285	-0,078	-0,047
-127,526	-27,098	-0,104	0,043
-126,512	40,497	0,100	-0,064
-125,497	800,000	-0,017	-0,049
-124,483	84,270	0,063	0,049
-123,468	-200,000	0,010	0,066
-122,453	237,212	-0,082	-0,096
-121,439	-200,000	0,004	-0,051
-120,424	-200,000	-0,013	-0,211
-119,410	418,845	-0,050	-0,075
-118,395	-104,098	0,056	0,009
-117,380	-9,844	-0,035	-0,016
-116,366	-200,000	0,019	0,104
-115,351	30,905	-0,090	-0,054
-114,337	170,047	-0,027	0,027
-113,322	-200,000	0,019	0,098
-112,307	-80,339	0,027	0,006
-111,293	-152,395	-0,034	-0,002
-110,278	-200,000	-0,037	0,123
-109,264	148,392	-0,104	-0,099
-108,249	21,912	-0,106	-0,061
-107,234	-200,000	0,001	-0,015
-106,220	-200,000	0,018	-0,076
-105,205	800,000	-0,057	0,141
-104,191	124,079	0,067	0,060
-103,176	-200,000	0,025	0,092
-102,162	800,000	0,059	-0,129
-101,147	-143,240	0,060	0,004
-100,132	201,727	-0,030	0,033
-99,118	102,427	-0,106	-0,087
-98,103	29,218	-0,033	0,020
-97,089	-200,000	-0,039	0,128
-96,074	-72,610	0,146	0,038
-95,059	509,106	-0,087	0,144
-94,045	-200,000	0,058	-0,203
-93,030	212,065	-0,040	-0,045
-92,016	140,513	0,047	-0,044
-91,001	488,545	0,104	0,168
-89,986	-79,371	-0,049	0,012
-88,972	800,000	-0,020	0,040
-87,957	175,268	-0,074	0,076
-86,943	54,347	-0,084	0,057
-85,928	800,000	-0,027	0,055
-84,913	-133,331	-0,149	0,013
-83,899	-200,000	0,011	-0,088
-82,884	597,678	0,084	-0,147
-81,870	800,000	-0,021	0,049
-80,855	-200,000	0,021	0,080
-79,840	-33,151	0,024	0,009
-78,826	183,013	-0,093	-0,098
-77,811	-200,000	0,021	-0,079
-76,797	-200,000	0,011	-0,127
-75,782	285,187	0,067	0,085
-74,767	31,090	-0,010	-0,006
-73,753	-200,000	-0,015	-0,123
-72,738	579,487	0,021	-0,036
-71,724	-200,000	0,031	0,116
-70,709	24,582	0,091	0,053
-69,694	48,391	-0,131	-0,086
-68,680	-200,000	0,005	0,097
-67,665	-66,898	0,130	-0,036
-66,651	2,027	-0,028	0,014
-65,636	65,072	-0,045	-0,032
-64,622	-151,972	-0,056	0,003
-63,607	0,316	-0,119	-0,060
-62,592	-200,000	0,007	-0,136
-61,578	14,141	0,074	0,041
-60,563	71,497	0,089	0,065
-59,549	-200,000	-0,001	0,047
-58,534	26,139	-2,075	-1,220
-57,519	346,883	-1,394	-1,942
-56,505	-200,000	-0,321	-4,424
-55,490	557,076	0,886	1,514
-54,476	800,000	5,133	11,321
-53,461	-200,000	21,217	339,323
-52,446	800,000	759,105	2356,058
-51,432	559,207	1662,151	2843,105
-50,417	73,588	1661,733	1227,104
-49,403	18,098	1534,934	861,526
-48,388	12,019	1458,388	789,162
-47,373	19,321	1449,201	819,194
-46,359	15,447	1438,789	794,853
-45,344	10,273	1434,585	767,867
-44,330	10,262	1432,610	766,725
-43,315	10,203	1430,888	765,492
-42,300	10,188	1429,256	764,517
-41,286	10,266	1427,914	764,141
-40,271	10,231	1426,740	763,315
-39,257	10,223	1425,442	762,553
-38,242	10,263	1424,402	762,156
-37,227	10,290	1423,244	761,632
-36,213	10,298	1421,854	760,897
-35,198	10,239	1420,906	760,079
-34,184	10,327	1419,862	759,910
-33,169	10,234	1418,597	758,760
-32,154	10,268	1417,567	758,342
-31,140	10,273	1416,316	757,667
-30,125	10,315	1415,311	757,295
-29,111	10,302	1414,079	756,543
-28,096	10,267	1412,893	755,717
-27,082	10,264	1411,664	755,015
-26,067	10,186	1410,948	754,235
-25,052	10,224	1409,840	753,793
-24,038	10,223	1408,658	753,123
-23,023	10,241	1407,607	752,617
-22,009	10,228	1406,728	752,057
-20,994	10,195	1405,558	751,247
-19,979	10,212	1404,768	750,877
-18,965	10,203	1403,706	750,235
-17,950	10,192	1402,880	749,715
-16,936	10,191	1402,100	749,262
-15,921	10,144	1401,072	748,463
-14,906	10,110	1400,130	747,774
-13,892	10,159	1399,202	747,475
-12,877	10,128	1398,324	746,832
-11,863	10,138	1397,585	746,455
-10,848	10,057	1396,841	745,650
-9,833	10,038	1395,804	744,980
-8,819	10,009	1395,146	744,467
-7,804	10,032	1394,096	743,979
-6,790	10,017	1393,036	743,318
-5,775	10,014	1392,063	742,756
-4,760	10,079	1390,816	742,360
-3,746	10,009	1389,845	741,489
-2,731	9,988	1389,220	741,027
-1,717	9,999	1388,522	740,676
-0,702	10,031	1386,328	739,624
0,313	14,071	1299,472	711,767
1,327	30,359	690,234	414,988
2,342	46,794	119,448	78,140
3,356	0,347	16,549	8,305
4,371	3,733	3,353	1,720
5,386	-84,471	1,048	0,232
6,400	800,000	0,224	0,566
7,415	-32,763	-0,239	-0,093
8,429	46,843	-0,231	-0,151
9,444	120,711	-0,292	-0,256
10,459	-3,619	-0,286	-0,139
11,473	1,441	-0,194	-0,098
12,488	-140,292	-0,316	-0,023
13,502	-47,263	-0,317	-0,108
14,517	-56,419	-0,228	-0,071
15,531	-18,217	-0,251	-0,110
16,546	168,316	-0,343	-0,345
17,561	328,631	-0,269	-0,366
18,575	220,145	-0,113	-0,128
19,590	800,000	-0,154	-0,356
20,604	74,317	-0,185	-0,136
21,619	181,315	-0,383	-0,397
22,634	60,300	-0,380	-0,264
23,648	61,130	-0,487	-0,340
24,663	78,509	-0,474	-0,357
25,677	-61,244	-0,353	-0,104
26,692	-80,584	-0,334	-0,078
27,707	113,107	-0,348	-0,297
28,721	95,725	-0,334	-0,268
29,736	42,416	-0,404	-0,258
30,750	200,542	-0,315	-0,341
31,765	61,119	-0,275	-0,192
32,780	25,173	-0,333	-0,194
33,794	10,384	-0,389	-0,207
34,809	236,470	-0,230	-0,268
35,823	-9,905	-0,353	-0,164
36,838	45,122	-0,391	-0,253
37,853	220,436	-0,326	-0,368
38,867	68,612	-0,335	-0,241
39,882	153,424	-0,300	-0,289
40,896	334,206	-0,293	-0,400
41,911	26,664	-0,291	-0,171
42,926	123,134	-0,312	-0,275
43,940	0,062	-0,419	-0,209
44,955	-35,844	-0,388	-0,147
45,969	118,027	-0,339	-0,294
46,984	-38,894	-0,265	-0,098
47,999	0,003	-0,305	-0,152
49,013	-150,189	-0,359	-0,019
50,028	238,279	-0,257	-0,300
51,042	143,709	-0,302	-0,282
52,057	234,985	-0,271	-0,315
53,071	64,279	-0,417	-0,295
54,086	-18,969	-0,316	-0,137
55,101	298,407	-0,218	-0,282
56,115	-15,109	-0,206	-0,092
57,130	-7,151	-0,383	-0,182
58,144	22,049	-0,320	-0,183
59,159	-28,579	-0,297	-0,119
60,174	62,601	-0,396	-0,277
61,188	-63,360	-0,317	-0,091
62,203	90,459	-0,334	-0,262
63,217	-30,608	-0,386	-0,153
64,232	-23,104	-0,454	-0,191
65,247	101,495	-0,423	-0,346
66,261	-3,023	-0,355	-0,173
67,276	104,743	-0,314	-0,259
68,290	487,707	-0,244	-0,391
69,305	-26,456	-0,416	-0,170
70,320	0,334	-0,299	-0,149
71,334	25,839	-0,325	-0,189
72,349	122,193	-0,236	-0,207
73,363	-22,876	-0,408	-0,172
74,378	193,566	-0,209	-0,222
75,393	35,135	-0,325	-0,199
76,407	100,822	-0,245	-0,199
77,422	-6,684	-0,325	-0,154
78,436	105,426	-0,276	-0,228
79,451	43,520	-0,246	-0,157
80,466	40,865	-0,410	-0,259
81,480	-95,840	-0,255	-0,047
82,495	96,318	-0,244	-0,195
83,509	65,737	-0,217	-0,154
84,524	-88,111	-0,252	-0,052
85,539	22,404	-0,270	-0,154
86,553	-15,845	-0,195	-0,087
87,568	182,203	-0,275	-0,284
88,582	69,398	-0,340	-0,245
89,597	338,559	-0,155	-0,212
90,611	40,911	-0,235	-0,148
91,626	800,000	-0,100	-0,228
92,641	210,395	-0,330	-0,363
93,655	218,382	-0,183	-0,205
94,670	190,014	-0,262	-0,276
95,684	34,808	-0,405	-0,247
96,699	139,998	-0,241	-0,222
97,714	-66,129	-0,290	-0,080
98,728	-93,111	-0,158	0,030
99,743	28,496	-0,288	-0,170
100,757	-97,197	-0,235	0,043
101,772	-1,915	-0,319	-0,156
102,787	38,745	-0,322	-0,201
103,801	104,124	-0,304	-0,250
104,816	7,867	-0,292	-0,152
105,830	34,729	-0,223	-0,136
106,845	57,891	-0,246	-0,168
107,860	58,712	-0,317	-0,217
108,874	157,347	-0,159	-0,154
109,889	99,092	-0,316	-0,255
110,903	201,068	-0,276	-0,297
111,918	161,109	-0,208	-0,204
112,933	87,209	-0,196	-0,151
113,947	187,343	-0,181	-0,189
114,962	165,445	-0,266	-0,263
115,976	117,028	-0,383	-0,329
116,991	33,074	-0,223	-0,135
118,006	167,116	-0,203	-0,201
119,020	271,085	-0,134	-0,165
120,035	361,402	-0,207	-0,291
121,049	91,462	-0,220	-0,172
122,064	339,125	-0,175	-0,238
123,079	62,715	-0,196	-0,136
124,093	189,253	-0,266	-0,278
125,108	414,427	-0,205	-0,306
126,122	55,647	-0,349	-0,236
127,137	130,497	-0,249	-0,223
128,151	58,995	-0,149	-0,102
129,166	318,963	-0,165	-0,219
130,181	60,065	-0,258	-0,177
131,195	-15,919	-0,248	-0,110
132,210	31,599	-0,304	-0,182
133,224	234,986	-0,159	-0,183
134,239	85,171	-0,214	-0,164
135,254	84,318	-0,178	-0,135
136,268	-46,564	-0,239	-0,081
137,283	100,534	-0,262	-0,212
138,297	197,287	-0,265	-0,282
139,312	195,898	-0,141	-0,150
140,327	120,168	-0,348	-0,301
141,341	30,905	-0,252	-0,150
142,356	162,626	-0,142	-0,139
143,370	37,067	-0,205	-0,126
144,385	47,172	-0,196	-0,127
145,400	271,117	-0,219	-0,269
146,414	-13,634	-0,351	-0,158
147,429	159,630	-0,249	-0,241
148,443	220,761	-0,198	-0,221
149,458	79,463	-0,169	-0,126
150,473	596,251	-0,077	-0,133
151,487	14,090	-0,312	-0,168
152,502	48,258	-0,161	-0,104
153,516	154,061	-0,299	-0,285
154,531	439,623	-0,165	-0,252
155,546	-86,188	-0,237	-0,050
156,560	-43,368	-0,248	-0,087
157,575	-21,458	-0,169	-0,071
158,589	-44,077	-0,194	-0,067
159,604	-200,000	-0,082	-0,272
160,619	84,995	-0,313	-0,238
161,633	367,985	-0,203	-0,286
162,648	-19,920	-0,229	-0,098
163,662	30,753	-0,444	-0,264
164,677	-84,762	-0,255	-0,055
165,692	800,000	-0,113	-0,240
166,706	32,574	-0,247	-0,148
167,721	-68,515	-0,281	-0,075
168,735	34,481	-0,274	-0,166
169,750	218,156	-0,196	-0,217
170,764	-15,643	-0,126	-0,056
171,779	-200,000	-0,028	-0,104
172,794	-48,330	-0,243	-0,081
173,808	-121,847	-0,251	0,028
174,823	-6,500	-0,347	-0,164
175,837	153,854	-0,261	-0,249
176,852	-70,437	-0,280	-0,073
177,867	104,025	-0,236	-0,192
178,881	35,512	-0,278	-0,169
179,896	-3,236	-0,270	-0,130
180,910	182,717	-0,178	-0,182
181,925	249,839	-0,186	-0,219
182,940	79,671	-0,272	-0,202
183,954	-78,944	-0,107	-0,025
184,969	-17,782	-0,128	-0,056
185,983	43,892	-0,119	-0,076
186,998	-78,388	-0,287	-0,068
188,013	194,420	-0,120	-0,127
189,027	-141,772	-0,168	-0,012
190,042	45,012	-0,357	-0,228
191,056	45,611	-0,181	-0,116
192,071	-200,000	-0,015	-0,179
193,086	-89,890	-0,359	-0,072
194,100	71,259	-0,129	-0,093
195,115	-47,628	-0,375	-0,125
196,129	7,806	-0,388	-0,201
197,144	-200,000	-0,064	-0,305
198,159	134,668	-0,210	-0,189
199,173	121,077	-0,169	-0,146
200,188	755,508	-0,154	-0,290
201,202	112,650	-0,140	-0,118
202,217	185,462	-0,152	-0,156
203,232	800,000	-0,097	-0,288
204,246	159,167	-0,240	-0,231
205,261	326,188	-0,129	-0,172
206,275	253,491	-0,121	-0,144
207,290	-80,593	-0,183	-0,042
208,304	352,023	-0,088	-0,121
209,319	-98,621	-0,125	-0,022
210,334	78,549	-0,304	-0,225
211,348	-76,842	-0,336	-0,081
212,363	66,507	-0,173	-0,121
213,377	800,000	-0,135	-0,261
214,392	199,774	-0,240	-0,255
215,407	800,000	-0,038	-0,099
216,421	-200,000	-0,030	-0,126
217,436	70,384	-0,161	-0,115
218,450	-30,807	-0,177	-0,069
219,465	-31,724	-0,195	-0,075
220,480	-75,450	-0,136	-0,033
221,494	272,019	-0,132	-0,161
222,509	-8,807	-0,068	-0,032
223,523	-94,452	-0,103	-0,019
224,538	-96,701	-0,235	-0,042
225,553	353,103	-0,121	-0,166
226,567	-22,750	-0,179	-0,075
227,582	322,745	-0,106	-0,140
228,596	402,446	-0,098	-0,143
229,611	-161,152	-0,154	0,005
230,626	281,339	-0,073	-0,090
231,640	-115,743	-0,091	-0,012
232,655	7,805	-0,264	-0,136
233,669	-152,522	-0,144	-0,007
234,684	11,276	-0,264	-0,139
235,699	-83,125	-0,232	-0,051
236,713	-59,317	-0,227	-0,067
237,728	-97,907	-0,269	-0,047
238,742	800,000	-0,147	-0,338
239,757	-58,587	-0,190	-0,057
240,772	-6,296	-0,312	-0,147
241,786	1,862	-0,155	-0,077
242,801	414,121	-0,074	-0,110
243,815	800,000	-0,083	-0,206
244,830	32,289	-0,138	0,082
245,844	49,892	-0,186	-0,121
246,859	52,845	-0,140	-0,092
247,874	357,403	-0,151	-0,208
248,888	127,431	-0,161	-0,141
249,903	51,584	-0,166	-0,108
250,917	-200,000	-0,037	-0,196
251,932	51,892	-0,231	-0,152
252,947	-104,168	-0,146	-0,023
253,961	379,829	-0,133	-0,188
254,976	-28,487	-0,321	-0,127
255,990	-117,213	-0,233	-0,029
257,005	-85,166	-0,097	-0,021
258,020	40,713	-0,169	-0,105
259,034	343,791	-0,159	-0,215
260,049	261,036	-0,203	-0,243
261,063	612,249	-0,129	-0,224
262,078	165,087	-0,209	-0,204
263,093	-25,489	-0,137	-0,056
264,107	-3,077	-0,111	-0,053
265,122	-200,000	-0,022	-0,070
266,136	44,119	-0,140	-0,089
267,151	51,589	-0,092	-0,060
268,166	225,044	-0,125	-0,140
269,180	-25,277	-0,118	-0,048
270,195	326,602	-0,138	-0,183
271,209	-84,246	-0,279	-0,060
272,224	-104,638	-0,202	-0,032
273,239	-200,000	-0,024	-0,239
274,253	751,485	-0,142	-0,266
275,268	158,361	-0,150	-0,143
276,282	-153,004	-0,266	-0,013
277,297	46,448	-0,212	-0,135
278,312	-200,000	-0,002	-0,096
279,326	-20,930	-0,190	-0,080
280,341	-68,940	-0,079	-0,021
281,355	330,126	-0,078	-0,103
282,370	-2,379	-0,186	-0,090
283,384	791,871	-0,120	-0,228
284,399	282,695	-0,178	-0,220
285,414	-57,883	-0,155	-0,046
286,428	148,182	-0,100	-0,093
287,443	-78,763	-0,136	0,032
288,457	367,596	-0,070	-0,097
289,472	800,000	-0,097	-0,218
290,487	800,000	-0,035	-0,084
291,501	-200,000	0,008	-0,105
292,516	-200,000	0,014	-0,056
293,530	-106,778	-0,091	-0,014
294,545	800,000	-0,066	-0,167
295,560	636,650	-0,100	-0,175
296,574	64,541	-0,172	-0,119
297,589	382,588	-0,076	-0,107
298,603	-200,000	-0,040	-0,200
299,618	74,048	-0,206	-0,148
300,633	17,160	-0,139	-0,076
301,647	111,587	-0,134	-0,111
302,662	279,295	-0,050	0,062
303,676	-200,000	0,008	-0,257
304,691	13,205	-0,255	-0,135
305,706	800,000	-0,108	-0,297
306,720	-200,000	-0,031	-0,104
307,735	4,696	-0,160	-0,080
308,749	260,023	-0,073	-0,086
309,764	800,000	-0,054	-0,103
310,779	-88,711	-0,125	-0,025
311,793	152,193	-0,107	-0,100
312,808	32,663	-0,148	-0,088
313,822	800,000	-0,108	-0,226
314,837	-84,451	-0,309	0,066
315,852	-76,999	-0,066	-0,016
316,866	-61,819	-0,092	-0,026
317,881	100,885	-0,089	0,071
318,895	724,636	-0,107	-0,196
319,910	501,208	-0,051	-0,082
320,925	25,201	-0,126	0,072
321,939	66,224	-0,207	-0,144
322,954	-200,000	-0,067	-0,000
323,968	800,000	-0,077	-0,187
324,983	293,936	-0,115	-0,144
325,997	104,828	-0,066	-0,053
327,012	230,300	-0,112	-0,125
328,027	214,132	-0,169	-0,183
329,041	354,795	-0,114	-0,155
330,056	-200,000	-0,023	-0,141
331,070	551,397	-0,100	-0,165
332,085	-103,620	-0,130	-0,021
333,100	-0,418	-0,191	-0,093
334,114	-119,909	-0,143	-0,017
335,129	180,655	-0,093	-0,094
336,143	400,636	-0,086	-0,124
337,158	-193,465	-0,238	-0,001
338,173	190,674	-0,095	-0,098
339,187	535,267	-0,054	-0,088
340,202	-200,000	-0,017	-0,067
341,216	-114,704	-0,159	-0,021
342,231	-58,909	-0,202	-0,059
343,246	-62,119	-0,122	-0,035
344,260	113,711	-0,063	-0,052
345,275	-54,180	-0,236	-0,073
346,289	-123,150	-0,154	0,017
347,304	800,000	-0,030	-0,071
348,319	-104,886	-0,231	-0,036
349,333	-120,904	-0,113	-0,013
350,348	-65,253	-0,159	-0,044
351,362	-13,477	-0,183	-0,081
352,377	-200,000	-0,144	0,000
353,392	260,597	-0,092	-0,109
354,406	-113,767	-0,045	-0,006
355,421	207,821	1310,245	1400,931
356,435	159,888	1470,381	1401,403
