DTS Sentinel unit serial number:	SN410029Multiplexer serial number:	ORYXHardware model number:	OX2-SRSoftware version number:	ORYX F/W v4,00 Oryx Data Collector v3.7.2.0data status	okinstallation	B3 Nyhavnadifferential loss correction	single-endedforward channel	channel 1reverse channel	N/Adate	2023/12/01time	08:37:30forward acquisition time	300,00reverse acquisition time	0,00gamma	499,1914k internal	0,3213k external	0,3213temperature offset calibration	1,0000default loss term (dB/km)	0,3820temperature slope calibration	1,0000multiplexer offset coefficient	1,0000multiplexer slope coefficient	1,0000fibre end	0,00T internal ref (°C)	8,00T ext. ref 1 (°C)	-6,45T ext. ref 2 (°C)	-6,60length (m)	temperature (°C)	Stokes	anti-Stokes-744,400	21,286	-0,287	-0,168
-743,385	-200,000	-0,041	0,218
-742,371	-200,000	-0,066	-0,225
-741,356	-200,000	0,034	0,375
-740,342	-200,000	-0,058	-0,220
-739,327	-200,000	-0,010	0,295
-738,312	177,339	-0,269	-0,284
-737,298	-200,000	0,030	0,146
-736,283	800,000	-0,077	-0,213
-735,269	-200,000	-0,008	0,183
-734,254	333,993	-0,180	-0,253
-733,239	-104,433	-0,182	0,030
-732,225	698,251	-0,091	-0,175
-731,210	-200,000	0,032	0,119
-730,196	-169,411	-0,113	-0,003
-729,181	-121,666	0,084	0,010
-728,167	-200,000	-0,014	0,151
-727,152	-38,498	-0,048	-0,018
-726,137	-75,538	-0,093	0,024
-725,123	22,728	0,020	0,012
-724,108	-141,416	0,075	-0,005
-723,094	548,066	-0,039	-0,068
-722,079	-127,886	-0,038	-0,004
-721,064	16,728	-0,135	-0,077
-720,050	236,434	-0,022	-0,026
-719,035	89,072	0,060	0,048
-718,021	-74,008	-0,052	-0,014
-717,006	800,000	-0,050	-0,155
-715,991	48,794	-0,049	0,033
-714,977	161,920	-0,090	-0,092
-713,962	177,298	0,035	-0,037
-712,948	-200,000	-0,017	-0,146
-711,933	-200,000	0,007	-0,061
-710,918	-200,000	-0,028	0,123
-709,904	269,999	-0,074	0,095
-708,889	-200,000	-0,091	-0,304
-707,875	-5,166	-0,081	0,040
-706,860	-200,000	-0,026	-0,119
-705,845	-21,456	-0,046	0,020
-704,831	800,000	0,058	-0,159
-703,816	27,231	-0,067	0,040
-702,802	438,509	-0,035	-0,056
-701,787	-200,000	-0,014	0,000
-700,772	38,235	0,050	-0,032
-699,758	-200,000	-0,010	-0,055
-698,743	30,069	0,122	0,075
-697,729	80,629	0,111	0,087
-696,714	-200,000	-0,004	0,069
-695,699	64,005	-0,006	-0,005
-694,685	-106,069	-0,065	0,010
-693,670	-82,960	-0,111	-0,026
-692,656	-51,425	0,047	-0,016
-691,641	-200,000	0,007	0,090
-690,627	21,551	0,039	-0,023
-689,612	-120,987	0,020	-0,002
-688,597	-66,084	-0,175	0,050
-687,583	171,091	0,091	-0,095
-686,568	-200,000	0,010	-0,138
-685,554	-200,000	0,004	0,029
-684,539	-200,000	0,034	-0,152
-683,524	-167,405	0,124	0,004
-682,510	-108,339	-0,036	0,006
-681,495	181,860	0,076	0,081
-680,481	310,290	-0,097	-0,132
-679,466	12,213	-0,132	-0,073
-678,451	-88,506	0,020	0,004
-677,437	94,292	-0,066	-0,054
-676,422	-57,015	0,102	0,032
-675,408	47,887	0,112	0,076
-674,393	75,785	-0,059	0,045
-673,378	-2,191	-0,048	0,024
-672,364	27,935	0,147	-0,089
-671,349	72,939	0,025	-0,019
-670,335	-185,240	-0,024	-0,000
-669,320	313,203	0,039	0,053
-668,305	-22,324	-0,036	0,016
-667,291	430,763	0,065	0,103
-666,276	540,424	-0,061	0,106
-665,262	701,381	0,016	0,030
-664,247	-200,000	-0,029	-0,102
-663,232	-19,199	0,125	0,056
-662,218	68,886	-0,022	-0,016
-661,203	800,000	0,006	-0,013
-660,189	-114,714	0,017	-0,002
-659,174	-200,000	0,024	-0,110
-658,159	800,000	-0,026	-0,060
-657,145	259,695	-0,113	0,141
-656,130	-200,000	0,008	0,055
-655,116	800,000	-0,027	0,069
-654,101	-200,000	-0,001	0,055
-653,086	-200,000	0,017	0,089
-652,072	800,000	-0,035	-0,081
-651,057	-29,539	-0,079	-0,033
-650,043	-200,000	-0,004	-0,081
-649,028	-200,000	-0,028	0,136
-648,014	530,238	0,134	0,230
-646,999	93,115	-0,117	-0,095
-645,984	166,187	0,075	0,076
-644,970	-92,083	0,046	-0,009
-643,955	468,802	-0,013	-0,021
-642,941	-200,000	-0,009	-0,031
-641,926	-200,000	-0,009	0,040
-640,911	-13,487	0,041	0,019
-639,897	-37,136	0,013	0,005
-638,882	800,000	0,037	0,095
-637,868	-41,102	-0,081	0,030
-636,853	-70,702	-0,064	-0,017
-635,838	120,881	0,054	0,048
-634,824	-200,000	-0,010	-0,037
-633,809	207,913	-0,051	0,057
-632,795	-69,124	0,196	0,054
-631,780	-200,000	0,007	-0,066
-630,765	800,000	-0,013	-0,039
-629,751	318,422	0,056	-0,077
-628,736	-131,724	0,034	-0,003
-627,722	195,086	-0,052	0,057
-626,707	-153,114	-0,077	-0,004
-625,692	141,574	0,088	0,084
-624,678	-200,000	-0,003	0,040
-623,663	800,000	-0,021	-0,063
-622,649	-89,847	-0,124	-0,026
-621,634	-11,819	-0,116	-0,055
-620,619	86,810	0,048	0,039
-619,605	-76,976	0,033	-0,008
-618,590	-200,000	0,002	0,030
-617,576	141,324	0,043	0,041
-616,561	-200,000	0,015	0,062
-615,546	431,330	-0,014	-0,021
-614,532	342,270	-0,063	0,089
-613,517	503,727	-0,023	-0,038
-612,503	32,598	-0,039	0,024
-611,488	-200,000	0,030	0,151
-610,474	800,000	0,024	0,058
-609,459	-64,538	-0,143	0,042
-608,444	385,758	-0,131	-0,196
-607,430	97,062	-0,101	0,084
-606,415	-6,189	-0,141	-0,069
-605,401	15,295	-0,116	0,065
-604,386	645,990	-0,043	-0,079
-603,371	-139,747	0,148	0,011
-602,357	-21,336	0,030	-0,013
-601,342	477,432	0,081	-0,132
-600,328	27,806	-0,106	-0,064
-599,313	-66,908	-0,069	0,020
-598,298	-9,353	-0,053	-0,025
-597,284	800,000	-0,010	0,028
-596,269	800,000	-0,011	-0,033
-595,255	149,718	-0,064	0,062
-594,240	800,000	0,054	-0,146
-593,225	-200,000	0,004	-0,125
-592,211	-200,000	-0,030	-0,127
-591,196	-200,000	0,012	-0,073
-590,182	-2,916	0,081	0,040
-589,167	-50,690	-0,089	0,030
-588,152	800,000	0,026	0,071
-587,138	-200,000	0,041	0,157
-586,123	-200,000	0,000	0,004
-585,109	-109,916	-0,081	0,012
-584,094	-200,000	-0,022	-0,099
-583,079	-200,000	0,015	0,055
-582,065	800,000	-0,025	-0,077
-581,050	259,343	0,057	0,071
-580,036	116,427	-0,036	-0,032
-579,021	-147,778	-0,163	0,010
-578,006	-93,416	-0,083	0,016
-576,992	383,561	0,046	0,068
-575,977	330,682	0,021	0,029
-574,963	642,951	0,059	0,109
-573,948	-200,000	-0,018	0,159
-572,934	140,053	0,035	-0,033
-571,919	800,000	0,030	-0,085
-570,904	-200,000	0,016	0,084
-569,890	156,723	0,035	0,035
-568,875	510,004	0,044	-0,074
-567,861	-200,000	0,027	-0,104
-566,846	800,000	-0,037	0,074
-565,831	42,126	-0,077	0,050
-564,817	-114,780	0,099	-0,013
-563,802	-200,000	-0,001	0,059
-562,788	59,007	0,108	0,077
-561,773	220,324	-0,044	0,051
-560,758	800,000	-0,030	0,084
-559,744	458,902	0,076	0,123
-558,729	43,905	-0,059	-0,039
-557,715	-74,355	-0,157	0,040
-556,700	-200,000	-0,055	-0,186
-555,685	297,906	0,068	-0,090
-554,671	43,611	-0,013	-0,008
-553,656	309,003	0,058	-0,078
-552,642	-54,200	0,053	-0,017
-551,627	-200,000	-0,009	0,078
-550,612	-84,258	-0,090	0,020
-549,598	122,046	-0,045	0,041
-548,583	-23,026	0,073	-0,032
-547,569	209,426	-0,110	0,124
-546,554	800,000	-0,024	0,067
-545,539	800,000	0,014	-0,031
-544,525	35,425	0,082	-0,051
-543,510	112,931	-0,066	0,058
-542,496	-84,612	-0,047	-0,011
-541,481	800,000	-0,067	-0,179
-540,466	160,094	-0,043	-0,043
-539,452	-107,034	0,093	-0,015
-538,437	-3,104	0,163	-0,081
-537,423	-15,398	0,023	0,010
-536,408	-200,000	0,025	-0,117
-535,393	-34,181	-0,113	0,045
-534,379	-9,039	0,075	-0,036
-533,364	213,774	-0,054	-0,062
-532,350	296,342	-0,045	-0,060
-531,335	-37,859	-0,027	0,010
-530,321	27,523	0,106	-0,064
-529,306	-131,580	0,087	-0,008
-528,291	69,681	0,048	-0,035
-527,277	-169,422	0,035	-0,001
-526,262	643,299	0,022	-0,041
-525,248	-110,438	0,103	-0,015
-524,233	351,141	0,061	0,087
-523,218	96,986	0,091	0,075
-522,204	64,707	-0,144	-0,104
-521,189	15,619	-0,027	0,015
-520,175	-200,000	0,001	-0,020
-519,160	-25,830	-0,074	-0,031
-518,145	-200,000	-0,007	-0,026
-517,131	-200,000	0,014	0,068
-516,116	73,993	0,114	0,085
-515,102	94,944	0,076	-0,062
-514,087	172,454	0,034	-0,035
-513,072	616,611	-0,044	-0,080
-512,058	335,916	-0,089	-0,124
-511,043	294,048	0,097	-0,127
-510,029	800,000	-0,015	0,041
-509,014	394,487	0,014	-0,021
-507,999	-200,000	0,027	0,089
-506,985	800,000	-0,031	-0,096
-505,970	-104,282	-0,047	0,008
-504,956	111,915	-0,035	0,030
-503,941	85,190	0,146	0,115
-502,926	184,534	0,090	-0,096
-501,912	-15,559	0,062	0,028
-500,897	-67,063	-0,195	0,055
-499,883	241,717	-0,026	-0,031
-498,868	227,789	0,080	-0,094
-497,853	32,471	0,029	0,018
-496,839	-200,000	0,021	-0,125
-495,824	105,886	0,116	-0,098
-494,810	-200,000	-0,034	0,110
-493,795	800,000	0,030	0,093
-492,781	445,504	-0,047	-0,074
-491,766	-200,000	0,001	-0,133
-490,751	137,212	-0,068	0,064
-489,737	250,502	0,092	0,112
-488,722	-200,000	-0,004	0,033
-487,708	-200,000	0,010	0,051
-486,693	17,672	0,017	0,010
-485,678	-200,000	0,018	0,085
-484,664	-6,736	-0,016	-0,008
-483,649	24,456	-0,044	-0,026
-482,635	-200,000	-0,010	-0,157
-481,620	-200,000	-0,013	0,126
-480,605	-32,002	0,009	0,003
-479,591	210,776	-0,024	-0,027
-478,576	-60,703	-0,020	0,006
-477,562	800,000	0,050	-0,144
-476,547	-93,285	-0,203	-0,040
-475,532	800,000	-0,024	-0,056
-474,518	-139,218	-0,034	-0,003
-473,503	156,504	-0,022	-0,022
-472,489	-200,000	0,023	0,076
-471,474	-200,000	0,020	0,098
-470,459	159,352	0,062	-0,062
-469,445	-200,000	0,014	0,086
-468,430	-147,572	-0,137	-0,008
-467,416	-45,524	-0,113	-0,040
-466,401	4,077	0,098	-0,051
-465,386	-200,000	-0,006	-0,020
-464,372	88,918	0,059	0,047
-463,357	86,999	-0,082	0,065
-462,343	-120,539	-0,062	-0,007
-461,328	433,792	0,042	0,066
-460,313	-200,000	0,011	0,100
-459,299	27,877	0,093	0,056
-458,284	800,000	-0,041	0,088
-457,270	-200,000	0,009	0,110
-456,255	-200,000	0,008	-0,074
-455,241	44,987	-0,056	-0,037
-454,226	55,891	-0,087	-0,060
-453,211	800,000	-0,030	0,087
-452,197	87,001	0,154	0,122
-451,182	-52,716	-0,143	-0,047
-450,168	-39,159	0,132	0,049
-449,153	800,000	0,021	0,056
-448,138	-126,758	-0,111	-0,012
-447,124	315,737	-0,061	-0,082
-446,109	-144,350	0,128	0,008
-445,095	125,616	0,043	-0,039
-444,080	18,132	-0,074	-0,042
-443,065	-22,339	0,128	-0,055
-442,051	-8,150	-0,092	0,044
-441,036	-200,000	0,008	-0,153
-440,022	171,273	0,065	-0,066
-439,007	-120,247	0,057	0,007
-437,992	-200,000	0,010	0,062
-436,978	-88,720	0,079	-0,017
-435,963	-200,000	-0,021	-0,077
-434,949	-200,000	-0,018	-0,056
-433,934	-200,000	0,015	-0,063
-432,919	-10,657	-0,039	0,018
-431,905	252,247	0,092	-0,112
-430,890	312,365	0,044	0,060
-429,876	-200,000	-0,021	0,175
-428,861	47,322	-0,026	0,017
-427,846	-27,794	-0,075	-0,031
-426,832	118,939	0,142	0,126
-425,817	800,000	-0,045	-0,130
-424,803	47,665	0,049	-0,033
-423,788	-70,272	0,101	-0,027
-422,773	252,534	-0,055	-0,068
-421,759	800,000	0,049	0,105
-420,744	-200,000	-0,024	0,082
-419,730	-53,440	-0,063	0,020
-418,715	50,514	-0,152	-0,103
-417,701	270,254	0,090	-0,114
-416,686	471,647	-0,031	-0,050
-415,671	-25,584	0,130	0,055
-414,657	-200,000	0,001	0,043
-413,642	114,723	-0,052	0,045
-412,628	128,320	-0,104	-0,095
-411,613	-99,344	0,093	-0,017
-410,598	800,000	0,060	0,145
-409,584	49,074	-0,033	-0,022
-408,569	510,393	0,077	0,129
-407,555	169,543	0,026	0,026
-406,540	-200,000	0,008	0,034
-405,525	-20,945	0,063	0,027
-404,511	90,446	-0,147	0,117
-403,496	800,000	-0,027	0,074
-402,482	11,232	-0,168	-0,091
-401,467	102,575	0,063	0,053
-400,452	51,009	0,110	0,074
-399,438	-200,000	-0,020	0,070
-398,423	-187,374	-0,122	0,001
-397,409	557,911	-0,097	-0,168
-396,394	-200,000	0,023	-0,106
-395,379	-128,951	-0,021	-0,002
-394,365	-122,314	0,051	0,006
-393,350	363,618	0,059	0,085
-392,336	-200,000	0,020	0,072
-391,321	-47,265	-0,096	-0,033
-390,306	315,747	0,074	-0,099
-389,292	260,071	0,042	-0,052
-388,277	23,654	0,081	0,047
-387,263	-161,067	0,114	0,004
-386,248	-50,310	-0,022	0,007
-385,233	-18,149	0,087	0,039
-384,219	-200,000	0,043	-0,194
-383,204	-42,312	-0,124	0,045
-382,190	-200,000	0,006	-0,145
-381,175	-200,000	0,014	0,046
-380,160	19,061	0,114	0,065
-379,146	-200,000	0,013	0,185
-378,131	242,390	-0,085	0,102
-377,117	98,053	-0,030	-0,025
-376,102	169,579	0,065	-0,066
-375,088	285,660	-0,066	-0,085
-374,073	800,000	0,045	-0,094
-373,058	-2,093	-0,049	0,024
-372,044	800,000	0,029	0,083
-371,029	23,089	0,050	-0,030
-370,015	-200,000	-0,021	0,073
-369,000	800,000	0,031	-0,062
-367,985	-200,000	-0,036	-0,119
-366,971	323,769	-0,116	-0,158
-365,956	-200,000	-0,007	-0,039
-364,942	341,866	0,047	0,066
-363,927	-16,290	-0,019	-0,009
-362,912	168,619	0,094	-0,096
-361,898	105,403	-0,162	-0,136
-360,883	107,655	-0,064	-0,054
-359,869	470,348	-0,009	-0,015
-358,854	-200,000	-0,027	0,109
-357,839	-200,000	0,000	0,084
-356,825	-39,093	0,061	-0,023
-355,810	6,670	-0,020	0,011
-354,796	48,805	-0,014	-0,009
-353,781	-200,000	0,010	-0,055
-352,766	192,331	0,034	0,036
-351,752	196,236	0,071	-0,077
-350,737	143,477	0,107	-0,102
-349,723	800,000	0,033	0,089
-348,708	-162,803	0,058	-0,002
-347,693	800,000	0,065	-0,150
-346,679	-200,000	-0,023	-0,087
-345,664	-54,311	0,083	-0,027
-344,650	61,282	0,035	-0,025
-343,635	3,530	-0,061	0,032
-342,620	-200,000	-0,012	0,044
-341,606	98,219	0,068	-0,056
-340,591	-200,000	0,019	-0,166
-339,577	685,968	0,012	0,022
-338,562	800,000	-0,037	-0,106
-337,548	32,291	0,067	-0,041
-336,533	-161,869	0,098	-0,003
-335,518	239,827	0,084	0,100
-334,504	426,785	0,020	0,031
-333,489	50,999	0,042	0,028
-332,475	245,528	0,046	0,055
-331,460	265,682	0,037	0,046
-330,445	800,000	-0,016	0,034
-329,431	800,000	0,055	0,161
-328,416	-200,000	-0,031	0,189
-327,402	237,934	-0,107	0,127
-326,387	106,746	-0,031	0,027
-325,372	-24,956	0,088	-0,037
-324,358	203,888	0,069	-0,076
-323,343	172,173	0,062	-0,063
-322,329	-191,396	-0,096	-0,001
-321,314	-200,000	-0,029	0,174
-320,299	800,000	0,079	0,168
-319,285	-63,826	-0,132	-0,038
-318,270	368,821	0,025	-0,036
-317,256	800,000	-0,026	-0,062
-316,241	-200,000	0,032	0,126
-315,226	-200,000	-0,014	-0,082
-314,212	110,983	-0,051	0,044
-313,197	-200,000	0,001	0,111
-312,183	201,213	0,036	-0,040
-311,168	-200,000	0,015	-0,103
-310,153	-200,000	-0,002	-0,088
-309,139	-60,785	-0,176	-0,053
-308,124	-135,534	0,056	-0,005
-307,110	544,449	-0,038	-0,065
-306,095	-157,777	0,134	0,006
-305,080	-171,902	-0,016	-0,000
-304,066	37,949	0,044	0,028
-303,051	-101,932	-0,103	-0,018
-302,037	200,449	-0,033	0,036
-301,022	-56,024	-0,047	0,015
-300,008	34,335	0,025	-0,015
-298,993	-200,000	0,018	0,091
-297,978	391,184	-0,098	0,146
-296,964	-45,178	-0,115	0,041
-295,949	396,887	0,034	0,051
-294,935	-163,159	-0,114	-0,004
-293,920	-200,000	-0,016	-0,062
-292,905	-200,000	-0,044	0,154
-291,891	264,926	0,016	0,020
-290,876	-83,320	-0,109	-0,025
-289,862	400,641	0,052	-0,077
-288,847	-144,704	-0,051	-0,003
-287,832	139,246	-0,058	0,054
-286,818	800,000	-0,029	0,064
-285,803	254,827	0,097	0,118
-284,789	-58,628	0,044	-0,013
-283,774	-200,000	0,014	0,047
-282,759	800,000	0,046	0,092
-281,745	-200,000	-0,003	-0,148
-280,730	-200,000	0,007	0,033
-279,716	-200,000	-0,007	0,122
-278,701	17,922	-0,040	0,023
-277,686	-200,000	-0,015	0,087
-276,672	-38,029	-0,046	0,017
-275,657	-200,000	0,028	0,102
-274,643	-110,571	-0,112	0,016
-273,628	800,000	-0,035	-0,071
-272,613	-200,000	0,008	-0,114
-271,599	552,173	0,009	-0,015
-270,584	-59,995	0,169	0,051
-269,570	354,102	0,015	0,021
-268,555	-48,266	-0,041	-0,014
-267,540	179,916	0,069	-0,072
-266,526	-66,902	0,062	-0,017
-265,511	-200,000	0,004	0,184
-264,497	64,694	-0,045	-0,032
-263,482	-63,613	0,100	-0,029
-262,467	600,719	0,011	0,020
-261,453	-200,000	-0,006	0,117
-260,438	-74,321	0,131	-0,033
-259,424	-152,566	0,126	-0,006
-258,409	549,030	-0,026	0,044
-257,395	104,829	0,069	-0,058
-256,380	127,017	0,014	0,013
-255,365	800,000	0,049	0,108
-254,351	235,275	-0,017	0,020
-253,336	-155,011	0,068	0,003
-252,322	-200,000	-0,003	-0,153
-251,307	800,000	-0,031	-0,074
-250,292	-200,000	-0,026	-0,190
-249,278	-30,809	0,100	0,040
-248,263	328,468	0,100	-0,137
-247,249	155,743	0,107	-0,105
-246,234	-2,641	0,035	-0,018
-245,219	-200,000	0,014	-0,155
-244,205	62,333	0,039	-0,027
-243,190	-101,658	0,115	0,020
-242,176	-200,000	0,012	-0,060
-241,161	800,000	-0,029	0,068
-240,146	-78,933	-0,075	-0,018
-239,132	502,550	-0,063	0,103
-238,117	800,000	-0,059	-0,135
-237,103	-200,000	-0,004	0,017
-236,088	43,015	0,141	-0,091
-235,073	184,858	-0,028	0,030
-234,059	-164,223	-0,022	-0,001
-233,044	502,370	-0,023	0,039
-232,030	-200,000	-0,006	-0,038
-231,015	-200,000	-0,001	0,018
-230,000	9,038	0,045	0,024
-228,986	-44,035	-0,044	-0,016
-227,971	-21,189	-0,044	-0,019
-226,957	-13,013	0,097	0,045
-225,942	-47,393	-0,165	0,057
-224,927	-200,000	-0,017	-0,085
-223,913	670,895	0,036	-0,067
-222,898	-200,000	0,026	-0,155
-221,884	-79,528	-0,027	0,006
-220,869	-200,000	0,002	0,089
-219,855	-200,000	-0,003	0,013
-218,840	-13,727	0,042	-0,019
-217,825	-33,322	-0,140	0,055
-216,811	574,513	0,027	0,048
-215,796	-7,330	-0,051	-0,024
-214,782	800,000	0,039	0,076
-213,767	-200,000	0,016	0,090
-212,752	115,481	0,079	0,068
-211,738	132,435	-0,057	0,052
-210,723	-141,737	0,112	0,008
-209,709	-200,000	0,008	0,080
-208,694	-78,798	-0,075	0,018
-207,679	-200,000	0,008	0,050
-206,665	-55,888	-0,053	0,017
-205,650	-200,000	0,016	-0,083
-204,636	-55,469	-0,026	0,008
-203,621	100,448	-0,092	-0,075
-202,606	-19,413	-0,116	-0,051
-201,592	-156,834	0,087	0,004
-200,577	-200,000	0,000	-0,076
-199,563	-41,292	-0,086	0,031
-198,548	-160,711	0,069	0,003
-197,533	-80,351	0,046	0,011
-196,519	800,000	-0,031	-0,084
-195,504	-115,138	-0,107	-0,014
-194,490	336,508	-0,055	-0,076
-193,475	369,460	0,065	-0,093
-192,460	-55,871	-0,109	0,034
-191,446	-94,192	0,070	0,013
-190,431	117,224	0,138	0,121
-189,417	175,067	-0,051	-0,052
-188,402	234,059	0,120	-0,140
-187,387	-162,641	-0,119	0,004
-186,373	216,210	-0,031	-0,035
-185,358	-200,000	-0,064	-0,211
-184,344	-12,342	-0,044	0,020
-183,329	208,075	0,086	0,095
-182,315	-27,473	-0,204	0,084
-181,300	800,000	-0,008	-0,023
-180,285	411,434	-0,099	-0,149
-179,271	-165,528	0,156	0,005
-178,256	-99,818	-0,102	-0,018
-177,242	-200,000	0,018	0,082
-176,227	50,230	-0,060	-0,040
-175,212	-117,175	-0,112	0,014
-174,198	642,675	-0,018	0,033
-173,183	94,982	-0,024	0,019
-172,169	-22,733	-0,194	0,083
-171,154	-200,000	0,007	0,077
-170,139	221,998	0,007	-0,009
-169,125	153,574	0,108	0,105
-168,110	248,281	-0,039	0,047
-167,096	-1,027	-0,117	0,058
-166,081	-46,488	-0,097	-0,033
-165,066	800,000	-0,048	-0,098
-164,052	-40,466	0,118	-0,043
-163,037	493,494	0,099	-0,162
-162,023	6,835	-0,113	0,059
-161,008	-21,761	0,197	-0,084
-159,993	-200,000	0,000	0,043
-158,979	574,668	-0,047	-0,082
-157,964	417,829	-0,026	-0,040
-156,950	-86,347	-0,101	-0,022
-155,935	44,422	0,032	0,021
-154,920	30,563	0,093	0,056
-153,906	-200,000	0,016	0,094
-152,891	530,589	-0,020	0,033
-151,877	-179,463	0,034	0,001
-150,862	-27,075	-0,116	-0,048
-149,847	-88,494	0,071	-0,015
-148,833	5,403	0,102	-0,053
-147,818	-65,696	0,046	0,013
-146,804	23,977	0,053	0,031
-145,789	800,000	-0,039	0,079
-144,775	404,092	0,060	-0,089
-143,760	52,558	-0,040	0,027
-142,745	121,525	-0,025	-0,022
-141,731	790,998	0,024	0,047
-140,716	28,463	-0,065	-0,039
-139,702	673,774	0,087	0,161
-138,687	-200,000	-0,026	0,111
-137,672	-200,000	-0,012	0,067
-136,658	280,995	-0,085	-0,108
-135,643	-200,000	-0,001	-0,028
-134,629	102,224	-0,112	0,092
-133,614	-7,998	0,109	0,052
-132,599	-165,740	-0,020	0,001
-131,585	15,835	-0,121	0,067
-130,570	89,445	0,162	0,127
-129,556	-56,703	0,081	0,025
-128,541	-55,385	-0,047	0,015
-127,526	204,050	0,072	0,078
-126,512	-196,564	-0,131	0,001
-125,497	-72,618	0,103	0,027
-124,483	-30,496	0,125	-0,050
-123,468	-54,191	0,183	-0,058
-122,453	18,366	0,029	0,017
-121,439	129,315	0,080	0,072
-120,424	-58,771	-0,095	-0,029
-119,410	-126,419	0,223	0,023
-118,395	785,589	-0,042	-0,082
-117,380	236,152	0,052	-0,060
-116,366	-110,082	0,093	-0,014
-115,351	1,640	0,088	-0,045
-114,337	-35,362	-0,060	-0,023
-113,322	800,000	0,053	0,113
-112,307	1,849	-0,030	-0,015
-111,293	-169,715	0,135	-0,003
-110,278	800,000	0,042	0,105
-109,264	-200,000	0,027	-0,097
-108,249	-136,785	-0,057	-0,005
-107,234	78,081	-0,094	-0,071
-106,220	175,720	-0,133	-0,136
-105,205	2,484	0,107	0,055
-104,191	800,000	0,071	0,160
-103,176	-200,000	-0,004	0,034
-102,162	-135,616	-0,196	-0,016
-101,147	84,368	0,057	-0,044
-100,132	-200,000	-0,008	-0,084
-99,118	-200,000	0,007	0,021
-98,103	-25,965	0,091	0,038
-97,089	-38,622	-0,049	0,018
-96,074	800,000	-0,042	0,095
-95,059	-200,000	0,023	0,144
-94,045	411,931	-0,025	0,037
-93,030	800,000	0,006	-0,017
-92,016	-200,000	0,011	-0,099
-91,001	800,000	0,057	0,118
-89,986	800,000	-0,012	0,035
-88,972	-200,000	0,024	0,196
-87,957	-101,466	0,104	-0,018
-86,943	-115,013	-0,118	-0,016
-85,928	800,000	0,015	0,039
-84,913	-30,762	0,138	-0,055
-83,899	478,032	-0,040	-0,065
-82,884	47,819	0,062	0,041
-81,870	133,014	0,168	0,153
-80,855	688,380	0,025	-0,046
-79,840	-82,218	-0,211	0,048
-78,826	37,168	0,098	0,061
-77,811	-93,749	-0,019	-0,004
-76,797	-200,000	0,002	-0,027
-75,782	800,000	-0,051	-0,140
-74,767	424,372	-0,048	0,073
-73,753	-150,604	0,154	-0,008
-72,738	213,891	0,086	-0,096
-71,724	800,000	0,047	0,109
-70,709	350,252	-0,067	0,094
-69,694	-93,476	-0,160	-0,031
-68,680	464,447	0,082	0,130
-67,665	-200,000	-0,034	0,120
-66,651	-3,177	0,083	0,041
-65,636	601,886	0,046	0,082
-64,622	-79,728	-0,037	-0,009
-63,607	-200,000	-0,003	0,081
-62,592	-17,424	0,028	0,012
-61,578	800,000	-0,022	0,047
-60,563	-200,000	0,054	-0,219
-59,549	507,475	0,065	0,107
-58,534	58,250	-2,197	-1,517
-57,519	714,803	-1,014	-1,906
-56,505	-200,000	-0,464	-4,499
-55,490	640,942	0,916	1,652
-54,476	800,000	5,294	11,491
-53,461	-200,000	22,625	347,082
-52,446	800,000	757,389	2291,474
-51,432	533,167	1643,232	2754,676
-50,417	67,862	1642,064	1182,698
-49,403	15,652	1519,393	839,859
-48,388	9,860	1445,592	771,260
-47,373	19,305	1438,296	812,317
-46,359	13,359	1426,661	777,674
-45,344	8,226	1422,429	751,080
-44,330	8,139	1420,862	749,811
-43,315	8,088	1418,873	748,491
-42,300	8,082	1417,269	747,586
-41,286	8,145	1415,932	747,148
-40,271	8,084	1414,722	746,192
-39,257	8,102	1413,210	745,448
-38,242	8,113	1412,344	745,016
-37,227	8,102	1411,484	744,479
-36,213	8,114	1409,922	743,681
-35,198	8,087	1408,765	742,918
-34,184	8,119	1408,001	742,634
-33,169	8,027	1406,480	741,372
-32,154	8,046	1405,872	741,112
-31,140	8,080	1404,377	740,453
-30,125	8,116	1403,031	739,883
-29,111	8,112	1401,899	739,234
-28,096	8,069	1401,036	738,552
-27,082	8,023	1399,655	737,580
-26,067	7,995	1398,748	736,944
-25,052	8,088	1397,422	736,647
-24,038	8,045	1396,468	735,915
-23,023	8,059	1395,539	735,460
-22,009	8,029	1394,469	734,731
-20,994	7,990	1393,670	734,100
-19,979	7,957	1392,725	733,419
-18,965	7,976	1391,610	732,890
-17,950	7,990	1390,789	732,492
-16,936	7,961	1389,839	731,829
-15,921	7,904	1389,046	731,120
-14,906	7,960	1387,800	730,695
-13,892	8,021	1386,942	730,496
-12,877	7,948	1386,323	729,801
-11,863	7,953	1385,524	729,377
-10,848	7,888	1384,698	728,615
-9,833	7,827	1384,018	727,945
-8,819	7,854	1382,677	727,333
-7,804	7,860	1381,842	726,894
-6,790	7,851	1380,780	726,267
-5,775	7,878	1379,698	725,790
-4,760	7,873	1379,017	725,384
-3,746	7,846	1377,792	724,585
-2,731	7,897	1376,938	724,343
-1,717	7,842	1376,296	723,723
-0,702	7,863	1374,597	722,898
0,313	11,786	1284,674	693,380
1,327	27,476	676,690	400,165
2,342	42,901	116,500	74,702
3,356	0,255	16,579	8,309
4,371	-1,117	3,987	1,980
5,386	6,329	1,438	0,750
6,400	800,000	0,255	0,665
7,415	6,482	-0,324	-0,169
8,429	-66,856	-0,298	-0,082
9,444	73,356	-0,254	-0,187
10,459	50,287	-0,242	-0,161
11,473	-28,042	-0,186	-0,075
12,488	-50,161	-0,216	-0,072
13,502	-29,423	-0,209	-0,084
14,517	52,015	-0,185	-0,124
15,531	-36,236	-0,403	-0,152
16,546	14,825	-0,367	-0,201
17,561	656,779	-0,198	-0,360
18,575	-121,794	-0,061	-0,007
19,590	159,812	-0,252	-0,247
20,604	-34,035	-0,258	-0,099
21,619	-11,911	-0,503	-0,231
22,634	96,232	-0,434	-0,349
23,648	116,651	-0,384	-0,331
24,663	304,258	-0,219	-0,286
25,677	250,240	-0,265	-0,317
26,692	84,024	-0,357	-0,274
27,707	174,030	-0,326	-0,331
28,721	-68,998	-0,412	-0,111
29,736	44,570	-0,419	-0,270
30,750	21,232	-0,345	-0,196
31,765	11,501	-0,409	-0,220
32,780	47,042	-0,397	-0,259
33,794	15,243	-0,253	-0,139
34,809	-41,924	-0,228	-0,082
35,823	42,836	-0,378	-0,242
36,838	-3,225	-0,408	-0,199
37,853	-6,641	-0,460	-0,219
38,867	133,514	-0,389	-0,354
39,882	227,931	-0,252	-0,288
40,896	120,323	-0,257	-0,224
41,911	125,853	-0,344	-0,305
42,926	67,000	-0,356	-0,254
43,940	31,807	-0,379	-0,229
44,955	79,521	-0,321	-0,242
45,969	25,456	-0,303	-0,176
46,984	249,789	-0,310	-0,370
47,999	79,826	-0,288	-0,217
49,013	17,210	-0,308	-0,171
50,028	56,180	-0,288	-0,196
51,042	202,220	-0,286	-0,309
52,057	10,454	-0,284	-0,152
53,071	135,675	-0,301	-0,275
54,086	103,051	-0,275	-0,226
55,101	21,233	-0,320	-0,182
56,115	43,925	-0,369	-0,237
57,130	-5,160	-0,298	-0,143
58,144	31,836	-0,342	-0,206
59,159	58,693	-0,383	-0,263
60,174	21,199	-0,487	-0,277
61,188	0,661	-0,424	-0,212
62,203	86,860	-0,227	-0,176
63,217	-48,939	-0,385	-0,129
64,232	41,655	-0,349	-0,221
65,247	113,531	-0,381	-0,324
66,261	-27,501	-0,387	-0,157
67,276	46,072	-0,328	-0,213
68,290	65,714	-0,345	-0,245
69,305	36,509	-0,396	-0,244
70,320	-37,416	-0,258	-0,096
71,334	-34,873	-0,202	-0,077
72,349	-31,619	-0,398	-0,156
73,363	61,095	-0,227	-0,158
74,378	-28,623	-0,461	-0,185
75,393	140,281	-0,217	-0,201
76,407	7,411	-0,218	-0,114
77,422	-159,693	-0,255	0,010
78,436	60,679	-0,256	-0,177
79,451	36,041	-0,229	-0,141
80,466	14,198	-0,474	-0,258
81,480	106,256	-0,226	-0,188
82,495	61,427	-0,308	-0,214
83,509	86,577	-0,313	-0,241
84,524	78,827	-0,287	-0,215
85,539	386,559	-0,110	-0,159
86,553	-44,005	-0,383	-0,134
87,568	75,723	-0,304	-0,225
88,582	84,371	-0,308	-0,235
89,597	512,644	-0,120	-0,196
90,611	63,567	-0,306	-0,214
91,626	96,895	-0,212	-0,170
92,641	-95,148	-0,249	-0,046
93,655	145,326	-0,137	-0,128
94,670	212,055	-0,215	-0,237
95,684	145,696	-0,232	-0,217
96,699	99,268	-0,333	-0,269
97,714	-3,505	-0,290	-0,141
98,728	-73,014	-0,302	-0,077
99,743	7,873	-0,297	-0,155
100,757	-36,253	-0,301	-0,113
101,772	23,861	-0,316	-0,182
102,787	165,207	-0,261	-0,258
103,801	161,111	-0,355	-0,346
104,816	74,049	-0,247	-0,181
105,830	146,163	-0,185	-0,173
106,845	-103,544	-0,311	-0,051
107,860	69,718	-0,119	-0,086
108,874	-57,085	-0,209	-0,064
109,889	128,386	-0,266	-0,237
110,903	16,314	-0,283	-0,155
111,918	-57,220	-0,254	-0,077
112,933	52,895	-0,178	-0,119
113,947	-95,045	-0,202	-0,038
114,962	-24,615	-0,330	-0,136
115,976	-200,000	-0,043	-0,192
116,991	-44,920	-0,418	-0,144
118,006	64,241	-0,335	-0,235
119,020	8,063	-0,286	-0,149
120,035	33,242	-0,227	-0,137
121,049	-59,622	-0,209	-0,062
122,064	86,266	-0,187	-0,143
123,079	-83,884	-0,264	-0,058
124,093	-90,964	-0,334	-0,066
125,108	149,338	-0,199	-0,188
126,122	13,738	-0,359	-0,194
127,137	-138,529	-0,135	-0,010
128,151	19,415	-0,201	-0,112
129,166	-30,135	-0,152	-0,060
130,181	800,000	-0,150	-0,299
131,195	-96,405	-0,370	-0,068
132,210	207,904	-0,153	-0,167
133,224	541,998	-0,179	-0,298
134,239	580,147	-0,116	-0,199
135,254	-63,979	-0,170	-0,048
136,268	-106,292	-0,300	-0,046
137,283	380,923	-0,216	-0,310
138,297	36,431	-0,264	-0,162
139,312	44,867	-0,233	-0,149
140,327	19,429	-0,242	-0,135
141,341	666,540	-0,131	-0,237
142,356	-81,659	-0,453	-0,103
143,370	-113,489	-0,176	0,024
144,385	-10,380	-0,191	-0,088
145,400	190,819	-0,257	-0,269
146,414	800,000	-0,139	-0,300
147,429	5,042	-0,276	-0,141
148,443	42,156	-0,286	-0,180
149,458	615,712	-0,073	-0,128
150,473	800,000	-0,097	-0,277
151,487	102,335	-0,235	-0,191
152,502	164,722	-0,169	-0,166
153,516	-9,340	-0,205	-0,095
154,531	-21,635	-0,255	-0,108
155,546	800,000	-0,137	-0,280
156,560	189,638	-0,194	-0,203
157,575	173,091	-0,141	-0,141
158,589	-23,996	-0,203	-0,084
159,604	202,747	-0,205	-0,220
160,619	251,896	-0,211	-0,251
161,633	-18,282	-0,369	-0,160
162,648	164,524	-0,263	-0,258
163,662	108,722	-0,218	-0,181
164,677	436,784	-0,069	-0,106
165,692	-19,091	-0,249	-0,107
166,706	-40,048	-0,214	-0,077
167,721	212,120	-0,242	-0,266
168,735	180,555	-0,184	-0,188
169,750	563,256	-0,101	-0,170
170,764	456,091	-0,123	-0,190
171,779	125,067	-0,186	-0,163
172,794	105,050	-0,233	-0,191
173,808	199,067	-0,141	-0,150
174,823	27,644	-0,330	-0,192
175,837	-6,478	-0,223	-0,105
176,852	35,942	-0,256	-0,156
177,867	149,089	-0,172	-0,161
178,881	44,749	-0,084	-0,053
179,896	92,707	-0,186	-0,146
180,910	558,426	-0,132	-0,222
181,925	159,388	-0,262	-0,253
182,940	53,681	-0,228	-0,152
183,954	12,942	-0,219	-0,117
184,969	7,636	-0,201	-0,104
185,983	-98,107	-0,265	-0,047
186,998	343,758	-0,236	-0,322
188,013	139,777	-0,200	-0,183
189,027	-60,545	-0,400	-0,117
190,042	800,000	-0,122	-0,275
191,056	197,274	-0,234	-0,248
192,071	296,732	-0,115	-0,146
193,086	800,000	-0,085	-0,225
194,100	110,465	-0,142	-0,118
195,115	36,510	-0,161	-0,098
196,129	46,903	-0,321	-0,206
197,144	251,481	-0,151	-0,178
198,159	20,992	-0,289	-0,162
199,173	-23,696	-0,172	-0,071
200,188	-7,515	-0,220	-0,103
201,202	53,454	-0,104	-0,069
202,217	429,570	-0,139	-0,210
203,232	4,663	-0,161	-0,082
204,246	229,315	-0,219	-0,248
205,261	202,451	-0,194	-0,207
206,275	240,917	-0,088	-0,101
207,290	-141,943	-0,102	-0,007
208,304	230,677	-0,138	-0,157
209,319	53,995	-0,183	-0,122
210,334	800,000	-0,110	-0,216
211,348	199,828	-0,270	-0,287
212,363	110,708	-0,179	-0,149
213,377	183,342	-0,206	-0,210
214,392	800,000	-0,118	-0,288
215,407	51,100	-0,205	-0,134
216,421	22,607	-0,248	-0,140
217,436	41,383	-0,262	-0,164
218,450	69,266	-0,138	-0,098
219,465	69,838	-0,323	-0,230
220,480	48,814	-0,202	-0,130
221,494	297,072	-0,155	-0,198
222,509	109,442	-0,152	-0,125
223,523	62,020	-0,160	-0,110
224,538	-27,376	-0,206	-0,082
225,553	126,759	-0,216	-0,189
226,567	347,694	-0,114	-0,156
227,582	644,842	-0,169	-0,299
228,596	800,000	-0,094	-0,197
229,611	647,263	-0,114	-0,201
230,626	18,435	-0,224	-0,123
231,640	6,106	-0,183	-0,093
232,655	-46,031	-0,263	-0,089
233,669	-50,737	-0,256	-0,083
234,684	303,713	-0,158	-0,202
235,699	-50,428	-0,219	0,071
236,713	-200,000	0,006	-0,039
237,728	234,507	-0,120	-0,137
238,742	93,577	-0,212	-0,165
239,757	164,473	-0,184	-0,179
240,772	101,752	-0,136	-0,110
241,786	122,539	-0,160	-0,138
242,801	166,355	-0,171	-0,167
243,815	54,440	-0,055	-0,037
244,830	512,858	-0,158	-0,255
245,844	87,994	-0,134	-0,103
246,859	258,993	-0,184	-0,220
247,874	-67,360	-0,316	-0,085
248,888	9,185	-0,193	-0,100
249,903	800,000	-0,043	-0,129
250,917	32,455	-0,072	-0,043
251,932	229,797	-0,110	-0,124
252,947	99,423	-0,153	-0,122
253,961	147,919	-0,168	-0,156
254,976	-58,245	-0,281	-0,084
255,990	-39,862	-0,206	-0,074
257,005	20,421	-0,157	-0,087
258,020	63,581	-0,062	-0,043
259,034	265,747	-0,075	-0,090
260,049	-169,975	-0,198	-0,005
261,063	89,834	-0,243	-0,187
262,078	145,498	-0,138	-0,128
263,093	-81,757	-0,282	-0,063
264,107	-25,162	-0,114	-0,046
265,122	-30,263	-0,022	-0,009
266,136	800,000	-0,032	-0,077
267,151	586,187	-0,092	-0,156
268,166	-17,988	-0,279	-0,120
269,180	-17,785	-0,179	-0,077
270,195	-200,000	0,016	-0,169
271,209	800,000	-0,071	-0,194
272,224	-200,000	-0,059	-0,242
273,239	173,855	-0,243	-0,242
274,253	800,000	-0,049	-0,137
275,268	375,315	-0,132	-0,186
276,282	36,934	-0,248	-0,151
277,297	420,149	-0,144	-0,213
278,312	619,255	-0,108	-0,187
279,326	98,524	-0,181	-0,143
280,341	220,513	-0,121	-0,133
281,355	-19,344	-0,120	-0,051
282,370	101,635	-0,110	-0,088
283,384	13,048	-0,175	-0,093
284,399	603,485	-0,105	-0,180
285,414	-20,795	-0,240	-0,101
286,428	58,788	-0,082	-0,055
287,443	-200,000	-0,033	-0,109
288,457	-12,464	-0,061	0,027
289,472	98,067	-0,110	-0,087
290,487	435,479	-0,130	-0,195
291,501	120,625	-0,199	-0,170
292,516	-88,508	-0,127	-0,026
293,530	108,055	-0,165	-0,135
294,545	-43,413	-0,120	-0,041
295,560	199,890	-0,079	-0,084
296,574	-52,505	-0,106	-0,033
297,589	68,560	-0,139	-0,098
298,603	-48,736	-0,122	-0,040
299,618	-69,240	-0,148	-0,039
300,633	122,033	-0,159	-0,136
301,647	-200,000	-0,016	-0,051
302,662	-126,521	-0,140	0,014
303,676	-49,336	-0,176	0,057
304,691	-69,829	-0,184	-0,048
305,706	565,937	-0,121	-0,203
306,720	6,829	-0,137	-0,070
307,735	-100,686	-0,154	-0,026
308,749	31,745	-0,131	-0,077
309,764	-13,711	-0,088	0,039
310,779	66,688	-0,057	-0,040
311,793	-200,000	0,005	-0,138
312,808	800,000	-0,029	0,056
313,822	138,549	-0,103	-0,093
314,837	800,000	-0,035	-0,071
315,852	58,032	-0,193	-0,130
316,866	545,094	-0,075	-0,124
317,881	-25,711	-0,057	-0,023
318,895	-200,000	-0,021	-0,127
319,910	-35,407	-0,178	-0,066
320,925	185,555	-0,157	-0,160
321,939	40,293	-0,194	-0,119
322,954	800,000	0,052	-0,115
323,968	669,372	-0,108	-0,193
324,983	351,724	-0,045	-0,061
325,997	171,427	-0,036	-0,036
327,012	9,745	-0,165	-0,085
328,027	21,050	-0,111	-0,061
329,041	136,582	-0,085	-0,076
330,056	130,041	-0,070	-0,062
331,070	20,994	-0,183	-0,101
332,085	135,320	-0,068	-0,060
333,100	-200,000	-0,003	0,049
334,114	-77,064	-0,119	-0,028
335,129	-200,000	-0,012	-0,095
336,143	-200,000	0,017	-0,061
337,158	-126,546	-0,182	-0,018
338,173	7,985	-0,068	0,035
339,187	-89,498	0,020	0,004
340,202	118,501	-0,163	-0,137
341,216	196,411	-0,143	-0,149
342,231	233,682	-0,188	-0,212
343,246	-165,167	-0,201	-0,006
344,260	199,516	-0,162	-0,170
345,275	59,894	-0,030	-0,020
346,289	800,000	-0,017	-0,037
347,304	800,000	-0,035	-0,080
348,319	-35,331	-0,175	-0,065
349,333	-134,355	-0,222	-0,018
350,348	731,785	-0,093	-0,172
351,362	-157,029	-0,161	-0,007
352,377	-200,000	-0,020	-0,077
353,392	-36,245	-0,225	-0,082
354,406	441,672	0,014	0,020
355,421	208,690	1307,982	1400,040
356,435	160,596	1467,781	1400,465
