DTS Sentinel unit serial number:	SN410029Multiplexer serial number:	ORYXHardware model number:	OX2-SRSoftware version number:	ORYX F/W v4,00 Oryx Data Collector v3.7.2.0data status	okinstallation	B3 Nyhavnadifferential loss correction	single-endedforward channel	channel 1reverse channel	N/Adate	2023/11/30time	20:07:30forward acquisition time	300,00reverse acquisition time	0,00gamma	499,1914k internal	0,3208k external	0,3208temperature offset calibration	1,0000default loss term (dB/km)	0,3820temperature slope calibration	1,0000multiplexer offset coefficient	1,0000multiplexer slope coefficient	1,0000fibre end	0,00T internal ref (°C)	11,52T ext. ref 1 (°C)	-3,85T ext. ref 2 (°C)	-3,97length (m)	temperature (°C)	Stokes	anti-Stokes-744,400	470,764	-0,096	-0,158
-743,385	800,000	-0,090	0,263
-742,371	30,177	-0,117	-0,072
-741,356	-200,000	0,018	0,357
-740,342	293,195	-0,192	-0,254
-739,327	-200,000	-0,069	0,324
-738,312	738,935	-0,182	-0,356
-737,298	207,187	-0,165	0,187
-736,283	256,342	-0,242	-0,303
-735,269	800,000	-0,119	0,356
-734,254	800,000	-0,079	-0,235
-733,239	106,970	-0,175	0,151
-732,225	-200,000	-0,062	-0,238
-731,210	-200,000	0,068	0,260
-730,196	-200,000	0,027	0,122
-729,181	-166,892	-0,036	0,001
-728,167	239,669	-0,048	0,059
-727,152	-6,241	-0,150	0,074
-726,137	-35,560	-0,157	-0,062
-725,123	393,724	0,033	-0,050
-724,108	6,329	-0,161	-0,086
-723,094	-46,392	-0,134	-0,047
-722,079	150,096	0,014	-0,014
-721,064	-91,764	-0,062	0,013
-720,050	470,231	0,060	-0,099
-719,035	608,381	0,024	-0,043
-718,021	268,056	-0,076	0,097
-717,006	-200,000	0,032	-0,106
-715,991	59,063	-0,130	-0,093
-714,977	167,392	-0,026	-0,026
-713,962	800,000	0,040	-0,086
-712,948	582,252	-0,021	-0,037
-711,933	454,462	-0,015	-0,024
-710,918	-200,000	0,014	0,049
-709,904	54,783	-0,080	-0,056
-708,889	800,000	-0,033	-0,081
-707,875	511,963	-0,076	-0,129
-706,860	149,951	-0,033	0,032
-705,845	-200,000	0,002	0,020
-704,831	380,981	-0,053	-0,080
-703,816	800,000	-0,050	0,130
-702,802	9,780	-0,019	-0,010
-701,787	43,346	-0,042	-0,028
-700,772	-43,731	0,140	-0,051
-699,758	-46,133	-0,136	-0,048
-698,743	202,126	0,047	0,052
-697,729	88,332	0,101	0,081
-696,714	-76,528	0,054	0,014
-695,699	407,799	-0,010	0,016
-694,685	57,357	-0,093	-0,065
-693,670	276,947	-0,111	-0,143
-692,656	63,589	0,049	0,036
-691,641	203,442	0,028	-0,032
-690,627	-112,087	0,137	0,020
-689,612	-176,309	-0,128	-0,002
-688,597	-200,000	-0,006	-0,170
-687,583	6,433	-0,093	-0,050
-686,568	-200,000	-0,005	-0,160
-685,554	-107,014	-0,189	-0,030
-684,539	73,608	0,117	0,089
-683,524	-103,631	0,058	-0,010
-682,510	-56,607	-0,073	0,023
-681,495	-200,000	0,014	0,087
-680,481	363,772	-0,084	-0,122
-679,466	162,193	-0,214	-0,217
-678,451	-123,147	0,048	0,005
-677,437	-200,000	-0,007	-0,068
-676,422	800,000	-0,020	0,042
-675,408	-13,131	-0,132	0,062
-674,393	-136,983	0,099	0,008
-673,378	-5,762	-0,079	0,039
-672,364	-107,139	0,021	-0,003
-671,349	-63,297	0,051	0,015
-670,335	5,822	0,061	0,033
-669,320	-200,000	0,034	0,133
-668,305	800,000	-0,026	0,062
-667,291	544,632	0,044	0,077
-666,276	-110,069	-0,193	0,029
-665,262	800,000	-0,059	-0,148
-664,247	91,355	-0,070	0,057
-663,232	-200,000	0,002	-0,044
-662,218	-130,731	-0,029	0,003
-661,203	-61,553	0,113	0,034
-660,189	39,839	0,139	-0,090
-659,174	771,033	-0,011	0,022
-658,159	117,551	-0,111	-0,099
-657,145	-200,000	-0,013	-0,048
-656,130	-14,036	-0,072	-0,033
-655,116	-200,000	-0,010	-0,093
-654,101	-177,188	0,155	-0,003
-653,086	-77,740	-0,035	0,009
-652,072	166,476	0,113	-0,116
-651,057	187,656	0,071	-0,077
-650,043	-200,000	0,013	-0,094
-649,028	800,000	-0,043	-0,127
-648,014	800,000	-0,057	-0,143
-646,999	41,637	-0,094	0,061
-645,984	617,231	-0,063	0,115
-644,970	-200,000	0,003	-0,031
-643,955	800,000	0,034	0,096
-642,941	-84,616	-0,036	0,008
-641,926	-200,000	-0,010	0,064
-640,911	-71,302	0,048	-0,013
-639,897	800,000	0,016	0,039
-638,882	-200,000	0,010	0,162
-637,868	-200,000	-0,010	0,061
-636,853	-32,910	-0,145	-0,058
-635,838	44,951	-0,049	-0,033
-634,824	-42,610	-0,043	0,016
-633,809	-8,482	0,170	0,082
-632,795	-135,766	-0,097	-0,008
-631,780	-60,605	0,077	-0,024
-630,765	-200,000	-0,047	-0,171
-629,751	-135,656	0,064	0,005
-628,736	61,577	-0,112	-0,080
-627,722	-92,639	0,157	-0,032
-626,707	800,000	0,077	0,167
-625,692	249,319	0,074	0,091
-624,678	442,742	-0,041	-0,064
-623,663	-77,570	0,076	-0,019
-622,649	-34,835	-0,071	0,028
-621,634	577,269	-0,064	-0,113
-620,619	322,820	-0,077	-0,106
-619,605	10,749	0,152	-0,083
-618,590	-200,000	-0,007	-0,058
-617,576	800,000	0,049	-0,103
-616,561	-21,984	-0,065	-0,028
-615,546	7,581	-0,094	-0,051
-614,532	-200,000	-0,026	0,111
-613,517	-200,000	-0,009	-0,034
-612,503	45,490	-0,083	0,055
-611,488	27,948	0,060	-0,036
-610,474	-200,000	0,007	-0,041
-609,459	125,384	0,072	0,066
-608,444	-52,230	-0,096	0,032
-607,430	800,000	-0,033	-0,103
-606,415	-146,994	-0,061	0,004
-605,401	-35,508	-0,043	-0,017
-604,386	-48,951	0,080	-0,028
-603,371	-76,659	0,059	-0,015
-602,357	-193,826	-0,180	-0,001
-601,342	-43,817	-0,113	0,041
-600,328	515,942	-0,030	0,051
-599,313	-117,696	-0,097	-0,012
-598,298	-200,000	0,013	0,065
-597,284	-200,000	0,005	0,110
-596,269	800,000	-0,022	0,058
-595,255	125,173	0,091	-0,083
-594,240	611,783	-0,035	0,063
-593,225	34,575	0,026	-0,017
-592,211	-182,792	-0,126	-0,002
-591,196	800,000	0,044	0,093
-590,182	-45,519	0,050	-0,018
-589,167	551,170	0,067	-0,117
-588,152	-43,439	-0,095	-0,035
-587,138	564,543	0,111	-0,195
-586,123	-132,070	-0,076	-0,007
-585,109	38,848	0,098	-0,063
-584,094	800,000	0,018	0,052
-583,079	800,000	0,028	0,071
-582,065	312,989	0,084	0,114
-581,050	151,983	-0,116	0,114
-580,036	800,000	0,013	-0,040
-579,021	-48,650	-0,146	-0,050
-578,006	379,259	-0,029	0,043
-576,992	-2,499	-0,123	0,062
-575,977	53,805	-0,044	-0,030
-574,963	-42,578	0,056	0,020
-573,948	-119,553	0,081	-0,010
-572,934	144,779	0,115	0,111
-571,919	70,201	-0,011	0,008
-570,904	-200,000	0,015	-0,065
-569,890	-50,057	0,084	0,029
-568,875	12,259	-0,065	-0,036
-567,861	-200,000	-0,001	0,080
-566,846	-200,000	-0,036	0,136
-565,831	-200,000	-0,010	-0,070
-564,817	-1,109	0,063	-0,032
-563,802	-55,070	-0,115	0,037
-562,788	-200,000	0,007	0,090
-561,773	794,784	0,026	0,052
-560,758	-44,089	0,201	-0,072
-559,744	-200,000	-0,015	-0,067
-558,729	94,352	-0,002	0,001
-557,715	-158,851	0,075	0,003
-556,700	-95,966	-0,137	0,026
-555,685	-200,000	0,004	-0,125
-554,671	83,577	0,081	-0,063
-553,656	39,407	-0,089	0,057
-552,642	-68,043	0,102	-0,029
-551,627	229,777	0,087	0,102
-550,612	-8,098	-0,070	0,034
-549,598	-55,986	-0,184	-0,059
-548,583	4,162	-0,090	-0,047
-547,569	-79,157	-0,044	-0,011
-546,554	97,692	0,124	0,103
-545,539	-112,582	0,095	0,014
-544,525	-61,882	-0,096	0,029
-543,510	-200,000	0,001	-0,074
-542,496	-200,000	0,026	-0,165
-541,481	247,650	-0,063	-0,077
-540,466	-200,000	0,022	-0,072
-539,452	310,696	0,085	-0,115
-538,437	360,692	0,028	-0,041
-537,423	-83,041	-0,121	-0,028
-536,408	-120,822	0,026	0,003
-535,393	-200,000	-0,111	-0,000
-534,379	-134,484	0,162	-0,014
-533,364	-200,000	-0,042	0,150
-532,350	751,841	0,050	-0,099
-531,335	-64,185	-0,152	-0,044
-530,321	-180,102	0,115	0,002
-529,306	-25,292	0,068	-0,029
-528,291	800,000	-0,047	0,125
-527,277	80,905	-0,194	-0,151
-526,262	307,354	-0,029	-0,039
-525,248	160,025	0,070	0,070
-524,233	325,730	0,015	-0,021
-523,218	-41,954	0,094	-0,035
-522,204	386,080	-0,037	0,055
-521,189	-200,000	-0,016	-0,050
-520,175	-44,477	-0,043	0,015
-519,160	800,000	-0,056	-0,113
-518,145	-97,424	0,135	-0,025
-517,131	-200,000	0,001	0,055
-516,116	-43,603	0,063	-0,023
-515,102	71,120	-0,087	-0,065
-514,087	-3,045	-0,096	-0,048
-513,072	293,864	-0,059	-0,078
-512,058	162,597	-0,036	-0,036
-511,043	2,112	0,020	-0,011
-510,029	570,627	0,060	0,106
-509,014	-59,759	-0,127	0,039
-507,999	-200,000	0,013	-0,068
-506,985	77,428	0,106	-0,081
-505,970	-8,399	-0,132	-0,064
-504,956	281,930	-0,060	0,078
-503,941	185,242	-0,046	0,049
-502,926	-200,000	0,007	0,097
-501,912	-200,000	-0,022	0,239
-500,897	-28,523	0,155	0,064
-499,883	-2,601	-0,053	-0,027
-498,868	-200,000	0,038	-0,165
-497,853	-61,810	-0,053	0,016
-496,839	-200,000	0,002	-0,012
-495,824	792,055	0,047	-0,094
-494,810	-58,605	0,077	0,024
-493,795	34,322	-0,036	0,022
-492,781	197,607	-0,026	-0,028
-491,766	-1,028	-0,126	0,064
-490,751	-200,000	0,017	-0,141
-489,737	217,336	0,026	-0,030
-488,722	430,233	0,111	0,173
-487,708	-200,000	0,028	0,094
-486,693	509,024	-0,018	-0,031
-485,678	-200,000	-0,019	-0,102
-484,664	39,238	-0,128	0,082
-483,649	-148,363	-0,175	-0,010
-482,635	-200,000	-0,014	-0,060
-481,620	306,628	-0,005	-0,007
-480,605	-190,012	0,155	0,001
-479,591	-135,324	-0,059	-0,005
-478,576	467,557	-0,034	-0,055
-477,562	-81,050	-0,075	-0,018
-476,547	-37,195	-0,048	-0,018
-475,532	-130,677	-0,012	-0,001
-474,518	-62,839	0,134	0,040
-473,503	4,777	-0,055	0,029
-472,489	-10,780	0,081	0,038
-471,474	-136,968	0,084	0,007
-470,459	183,171	0,039	0,041
-469,445	-127,589	-0,111	0,011
-468,430	206,601	-0,111	-0,125
-467,416	-77,076	-0,067	0,017
-466,401	800,000	0,070	0,159
-465,386	-200,000	-0,002	0,072
-464,372	-200,000	-0,055	-0,218
-463,357	-200,000	0,001	-0,022
-462,343	-200,000	-0,005	-0,073
-461,328	800,000	-0,029	0,061
-460,313	3,709	0,082	-0,043
-459,299	-200,000	0,009	0,040
-458,284	66,548	0,029	-0,021
-457,270	-24,191	0,040	-0,017
-456,255	56,945	-0,128	-0,090
-455,241	-22,303	0,008	0,003
-454,226	-49,529	-0,127	-0,043
-453,211	-168,317	0,144	-0,004
-452,197	-90,432	0,091	-0,019
-451,182	-200,000	0,027	0,090
-450,168	321,905	-0,069	-0,095
-449,153	-200,000	-0,009	0,084
-448,138	-110,507	-0,048	-0,007
-447,124	-177,609	-0,049	0,001
-446,109	-104,201	0,094	0,015
-445,095	493,303	-0,091	0,151
-444,080	-31,346	0,165	0,066
-443,065	105,435	0,078	0,066
-442,051	2,297	-0,032	0,017
-441,036	-189,150	0,068	-0,001
-440,022	-200,000	0,013	-0,073
-439,007	319,205	-0,067	0,092
-437,992	800,000	0,066	0,208
-436,978	-200,000	-0,025	0,086
-435,963	797,084	0,038	-0,075
-434,949	-200,000	-0,022	-0,081
-433,934	-200,000	0,001	-0,045
-432,919	-200,000	0,035	-0,118
-431,905	123,206	0,053	-0,048
-430,890	-12,285	0,076	0,036
-429,876	-200,000	0,010	0,138
-428,861	-34,943	-0,076	0,030
-427,846	-53,522	-0,062	0,020
-426,832	-120,587	-0,025	-0,003
-425,817	-59,918	-0,035	-0,011
-424,803	-200,000	-0,061	-0,000
-423,788	800,000	0,030	0,089
-422,773	-82,537	0,061	0,014
-421,759	800,000	0,017	-0,050
-420,744	92,739	-0,016	-0,013
-419,730	-114,926	-0,085	0,011
-418,715	656,149	-0,070	-0,130
-417,701	-18,654	-0,070	0,031
-416,686	-200,000	-0,013	0,095
-415,671	-200,000	-0,011	-0,110
-414,657	144,631	0,131	0,126
-413,642	13,598	-0,097	-0,054
-412,628	88,363	-0,064	0,051
-411,613	91,403	0,063	-0,051
-410,598	62,006	-0,120	-0,086
-409,584	486,873	0,013	0,021
-408,569	205,235	0,082	-0,091
-407,555	800,000	-0,038	0,080
-406,540	800,000	0,048	0,104
-405,525	0,934	-0,043	0,022
-404,511	-200,000	-0,006	-0,070
-403,496	75,379	0,082	0,062
-402,482	152,118	-0,138	-0,135
-401,467	671,692	0,047	0,087
-400,452	258,650	0,078	0,096
-399,438	-200,000	-0,007	0,034
-398,423	313,997	-0,137	-0,185
-397,409	-135,728	-0,073	0,006
-396,394	473,795	-0,075	-0,122
-395,379	-57,563	-0,069	0,021
-394,365	800,000	0,027	0,063
-393,350	-73,822	-0,062	-0,016
-392,336	-200,000	0,008	0,043
-391,321	-200,000	-0,020	0,221
-390,306	-200,000	-0,003	-0,179
-389,292	-55,522	-0,133	-0,043
-388,277	658,726	0,060	-0,110
-387,263	271,194	0,057	0,072
-386,248	-200,000	0,000	0,179
-385,233	597,659	0,021	0,038
-384,219	-200,000	-0,003	0,149
-383,204	251,511	-0,016	0,020
-382,190	800,000	0,005	-0,014
-381,175	4,359	0,145	0,076
-380,160	-28,646	-0,033	0,013
-379,146	-154,971	0,060	-0,003
-378,131	40,713	-0,029	-0,018
-377,117	74,950	0,043	-0,033
-376,102	105,220	-0,057	-0,048
-375,088	800,000	0,047	0,103
-374,073	788,809	-0,044	-0,086
-373,058	-165,802	0,126	0,004
-372,044	-99,171	-0,044	-0,008
-371,029	458,379	0,099	0,159
-370,015	13,749	0,201	-0,111
-369,000	-176,240	-0,155	0,003
-367,985	197,508	-0,051	-0,056
-366,971	800,000	-0,064	-0,149
-365,956	14,939	-0,134	0,075
-364,942	-21,074	0,088	-0,038
-363,927	-160,897	-0,114	-0,004
-362,912	800,000	-0,032	-0,078
-361,898	46,954	-0,103	0,068
-360,883	218,688	-0,055	-0,063
-359,869	92,081	-0,121	-0,097
-358,854	89,451	0,109	-0,087
-357,839	195,013	0,138	0,150
-356,825	345,516	-0,025	0,036
-355,810	800,000	-0,022	-0,062
-354,796	800,000	0,034	0,073
-353,781	-200,000	-0,006	0,055
-352,766	189,778	0,045	0,048
-351,752	363,847	0,064	-0,093
-350,737	-51,749	0,224	0,074
-349,723	-200,000	0,007	0,073
-348,708	519,556	-0,050	-0,083
-347,693	-96,299	0,075	-0,014
-346,679	-200,000	0,003	-0,124
-345,664	-200,000	-0,011	-0,140
-344,650	480,730	-0,057	0,093
-343,635	800,000	-0,030	0,084
-342,620	4,941	0,042	0,022
-341,606	411,996	0,027	-0,041
-340,591	-153,944	-0,077	0,004
-339,577	800,000	0,050	0,106
-338,562	-108,482	-0,044	-0,007
-337,548	228,657	-0,053	-0,062
-336,533	597,524	-0,039	0,069
-335,518	153,623	0,048	0,047
-334,504	-74,427	-0,064	0,016
-333,489	231,454	0,049	-0,058
-332,475	19,419	0,032	-0,018
-331,460	-200,000	-0,038	-0,198
-330,445	-112,730	0,102	0,014
-329,431	-200,000	0,020	-0,105
-328,416	-55,915	0,036	-0,011
-327,402	89,041	-0,065	0,052
-326,387	75,629	0,009	0,007
-325,372	800,000	-0,047	-0,098
-324,358	83,955	-0,051	-0,040
-323,343	-200,000	-0,013	0,048
-322,329	287,344	0,078	-0,101
-321,314	93,768	0,072	0,058
-320,299	725,562	-0,034	0,066
-319,285	28,116	-0,108	0,065
-318,270	-34,579	-0,103	0,040
-317,256	-38,020	-0,089	-0,033
-316,241	585,128	-0,063	0,110
-315,226	207,916	0,141	0,157
-314,212	-200,000	-0,010	-0,046
-313,197	-200,000	-0,004	0,023
-312,183	568,058	0,098	0,171
-311,168	-93,624	-0,106	-0,021
-310,153	595,620	-0,094	-0,167
-309,139	800,000	-0,047	-0,097
-308,124	-60,565	0,136	0,041
-307,110	326,246	0,015	-0,020
-306,095	-200,000	0,034	0,188
-305,080	265,733	0,117	0,146
-304,066	800,000	0,036	-0,095
-303,051	230,525	-0,083	-0,097
-302,037	-200,000	0,021	-0,170
-301,022	-52,016	0,072	0,024
-300,008	288,071	0,011	-0,014
-298,993	529,611	-0,005	-0,008
-297,978	306,802	-0,024	-0,032
-296,964	-128,506	-0,065	-0,007
-295,949	212,597	0,066	-0,075
-294,935	-176,428	-0,059	0,001
-293,920	151,797	0,070	0,068
-292,905	-114,510	-0,068	0,009
-291,891	28,511	0,080	-0,048
-290,876	32,862	0,198	0,122
-289,862	154,300	0,031	-0,031
-288,847	-200,000	-0,044	-0,150
-287,832	629,457	0,025	-0,045
-286,818	800,000	-0,094	0,207
-285,803	-21,352	0,153	0,066
-284,789	-48,319	-0,054	0,018
-283,774	30,873	0,057	0,034
-282,759	-177,074	-0,123	0,002
-281,745	496,553	0,077	-0,127
-280,730	-140,809	-0,190	-0,014
-279,716	223,240	-0,018	-0,020
-278,701	-200,000	0,035	-0,142
-277,686	-200,000	0,003	-0,019
-276,672	-30,997	0,136	0,055
-275,657	74,111	-0,022	-0,017
-274,643	453,759	-0,027	-0,043
-273,628	-111,687	-0,124	-0,018
-272,613	438,722	-0,067	-0,104
-271,599	-200,000	0,027	0,139
-270,584	37,599	-0,041	-0,026
-269,570	43,166	0,038	-0,024
-268,555	-200,000	-0,007	-0,076
-267,540	800,000	-0,007	0,018
-266,526	203,284	0,016	0,018
-265,511	-200,000	0,010	-0,046
-264,497	155,658	-0,173	0,170
-263,482	377,387	0,077	0,113
-262,467	800,000	0,028	0,067
-261,453	-200,000	-0,014	-0,051
-260,438	-200,000	-0,001	-0,065
-259,424	800,000	-0,062	-0,144
-258,409	-124,722	0,061	-0,007
-257,395	99,167	0,137	-0,113
-256,380	-200,000	-0,001	-0,036
-255,365	208,845	-0,004	-0,005
-254,351	-200,000	0,014	-0,046
-253,336	80,565	-0,006	-0,005
-252,322	-200,000	-0,018	0,069
-251,307	-87,974	0,055	-0,012
-250,292	-32,902	0,188	0,074
-249,278	-3,762	-0,146	0,072
-248,263	-35,854	0,073	0,028
-247,249	-94,012	0,051	0,010
-246,234	99,905	0,045	-0,037
-245,219	28,192	-0,022	0,013
-244,205	-17,502	0,055	0,025
-243,190	800,000	-0,018	0,037
-242,176	800,000	0,014	-0,028
-241,161	-99,034	-0,089	-0,016
-240,146	362,268	0,076	-0,110
-239,132	475,633	-0,044	0,072
-238,117	26,793	0,106	-0,063
-237,103	123,412	0,069	0,061
-236,088	-27,409	-0,063	0,026
-235,073	279,328	-0,094	0,120
-234,059	-47,694	0,093	-0,032
-233,044	171,133	0,053	0,054
-232,030	800,000	0,035	-0,081
-231,015	596,572	0,064	-0,112
-230,000	727,486	-0,011	-0,021
-228,986	800,000	0,083	0,259
-227,971	-121,590	0,238	0,028
-226,957	-84,160	-0,088	0,020
-225,942	226,945	-0,015	-0,018
-224,927	800,000	-0,063	0,147
-223,913	-51,856	-0,120	-0,039
-222,898	392,575	-0,048	-0,071
-221,884	-48,782	-0,081	0,028
-220,869	800,000	0,023	0,051
-219,855	-200,000	0,071	0,233
-218,840	800,000	0,036	0,096
-217,825	800,000	-0,023	0,063
-216,811	800,000	-0,026	0,064
-215,796	271,149	0,045	0,057
-214,782	-58,417	0,084	0,026
-213,767	-5,785	0,046	-0,022
-212,752	31,894	0,144	-0,088
-211,738	800,000	-0,048	0,096
-210,723	770,654	0,062	0,121
-209,709	800,000	0,030	0,072
-208,694	-200,000	-0,041	-0,209
-207,679	800,000	-0,010	-0,026
-206,665	-7,249	0,104	-0,050
-205,650	1,449	-0,049	-0,025
-204,636	-200,000	0,029	-0,119
-203,621	646,213	-0,051	-0,093
-202,606	-200,000	-0,010	0,143
-201,592	-199,859	-0,100	-0,000
-200,577	405,909	-0,039	0,059
-199,563	-62,686	0,080	0,024
-198,548	800,000	-0,031	-0,062
-197,533	-200,000	0,007	0,153
-196,519	-2,286	0,134	-0,067
-195,504	800,000	0,028	-0,079
-194,490	332,818	0,084	-0,116
-193,475	-93,766	-0,043	-0,008
-192,460	-200,000	-0,001	-0,140
-191,446	431,812	-0,040	0,062
-190,431	-53,563	0,102	-0,033
-189,417	-200,000	0,008	0,171
-188,402	-70,314	0,135	0,036
-187,387	256,803	-0,134	-0,163
-186,373	174,915	0,104	-0,107
-185,358	-122,404	-0,061	0,007
-184,344	626,875	0,066	0,119
-183,329	-200,000	-0,025	0,116
-182,315	800,000	0,036	0,105
-181,300	-200,000	-0,026	-0,120
-180,285	84,633	-0,096	-0,074
-179,271	365,491	0,042	-0,060
-178,256	-1,572	-0,066	-0,033
-177,242	-200,000	0,005	0,163
-176,227	173,250	-0,038	-0,039
-175,212	-200,000	0,005	-0,155
-174,198	53,829	-0,109	-0,074
-173,183	-60,272	0,046	-0,014
-172,169	475,669	-0,031	0,050
-171,154	78,389	-0,081	-0,061
-170,139	-151,539	0,161	0,008
-169,125	-11,387	0,032	-0,015
-168,110	264,506	0,053	0,066
-167,096	39,452	0,122	0,077
-166,081	48,937	-0,103	0,069
-165,066	800,000	0,061	-0,151
-164,052	60,297	0,021	0,015
-163,037	11,322	0,105	0,057
-162,023	117,210	0,077	0,067
-161,008	650,129	0,006	-0,011
-159,993	800,000	0,016	0,041
-158,979	128,576	-0,030	-0,027
-157,964	51,113	-0,114	-0,076
-156,950	124,432	-0,142	0,127
-155,935	47,576	0,088	-0,058
-154,920	71,769	0,122	-0,090
-153,906	543,062	0,022	0,037
-152,891	-169,012	0,049	0,001
-151,877	-152,687	0,093	-0,005
-150,862	96,755	0,119	-0,097
-149,847	-200,000	-0,028	-0,125
-148,833	-114,451	0,085	0,011
-147,818	-53,200	-0,121	-0,039
-146,804	-200,000	-0,004	0,024
-145,789	-68,051	0,108	0,030
-144,775	-112,599	0,066	0,009
-143,760	13,442	-0,083	-0,046
-142,745	204,737	0,023	0,025
-141,731	800,000	-0,032	0,078
-140,716	800,000	0,049	0,141
-139,702	-110,417	-0,062	0,009
-138,687	800,000	0,044	-0,095
-137,672	41,566	0,051	0,033
-136,658	611,932	0,030	0,053
-135,643	-4,296	0,025	-0,012
-134,629	-36,490	0,073	0,028
-133,614	-119,032	-0,020	0,003
-132,599	-200,000	-0,022	-0,103
-131,585	-43,982	0,078	-0,028
-130,570	-200,000	0,013	0,042
-129,556	322,796	-0,025	0,033
-128,541	-38,519	-0,081	-0,030
-127,526	81,694	0,085	-0,065
-126,512	-200,000	0,012	0,039
-125,497	19,260	0,245	0,139
-124,483	115,329	0,035	-0,030
-123,468	44,749	-0,002	0,001
-122,453	195,478	-0,222	-0,240
-121,439	-200,000	0,005	-0,128
-120,424	31,014	0,105	-0,063
-119,410	799,839	0,062	-0,123
-118,395	77,810	-0,021	-0,016
-117,380	800,000	-0,030	0,062
-116,366	-200,000	0,028	0,105
-115,351	247,226	0,078	-0,093
-114,337	175,106	-0,099	-0,101
-113,322	37,078	-0,019	-0,012
-112,307	114,322	-0,039	0,034
-111,293	-56,585	0,166	0,052
-110,278	-2,525	-0,079	-0,039
-109,264	800,000	-0,046	0,122
-108,249	161,822	-0,151	0,150
-107,234	-200,000	0,037	-0,138
-106,220	800,000	0,046	-0,111
-105,205	-84,692	0,156	0,034
-104,191	467,697	0,104	0,166
-103,176	289,887	0,022	-0,028
-102,162	-200,000	-0,022	0,085
-101,147	82,193	-0,092	0,070
-100,132	138,085	-0,094	-0,087
-99,118	95,715	-0,113	-0,091
-98,103	560,739	0,060	0,104
-97,089	500,945	0,001	-0,002
-96,074	-200,000	-0,008	0,092
-95,059	-200,000	0,015	-0,052
-94,045	56,542	0,049	0,034
-93,030	-47,828	-0,074	0,025
-92,016	-24,071	-0,094	0,040
-91,001	-74,008	0,080	0,020
-89,986	170,758	0,112	-0,114
-88,972	-200,000	-0,007	-0,175
-87,957	-48,039	-0,073	-0,025
-86,943	-200,000	0,015	0,150
-85,928	558,472	-0,063	-0,108
-84,913	132,023	-0,055	-0,050
-83,899	389,344	-0,072	0,106
-82,884	-198,113	0,059	0,000
-81,870	599,002	-0,067	0,118
-80,855	800,000	-0,011	-0,024
-79,840	533,895	-0,054	-0,091
-78,826	79,771	0,020	-0,015
-77,811	-91,708	0,135	-0,027
-76,797	476,571	0,052	-0,084
-75,782	40,431	-0,061	-0,039
-74,767	-200,000	0,015	-0,079
-73,753	24,534	0,056	-0,033
-72,738	-87,513	-0,034	0,007
-71,724	800,000	0,059	-0,157
-70,709	-157,343	0,082	-0,003
-69,694	267,238	-0,031	-0,039
-68,680	-116,844	0,160	0,020
-67,665	244,153	0,143	0,170
-66,651	254,451	-0,064	0,077
-65,636	-200,000	0,000	-0,125
-64,622	-200,000	-0,020	-0,169
-63,607	228,461	-0,076	-0,088
-62,592	-200,000	0,005	0,019
-61,578	-200,000	0,020	-0,134
-60,563	-200,000	0,018	0,203
-59,549	-45,307	0,133	0,046
-58,534	2,804	-1,932	-0,987
-57,519	454,426	-1,314	-2,064
-56,505	-200,000	-0,470	-4,450
-55,490	367,577	0,788	1,127
-54,476	800,000	4,864	11,449
-53,461	-200,000	20,532	329,916
-52,446	800,000	752,861	2319,402
-51,432	552,381	1659,981	2828,010
-50,417	74,330	1666,468	1235,557
-49,403	19,391	1539,786	871,643
-48,388	13,380	1462,388	798,688
-47,373	19,022	1453,035	820,701
-46,359	16,343	1442,444	801,904
-45,344	11,573	1438,442	776,876
-44,330	11,581	1436,319	775,738
-43,315	11,581	1434,248	774,588
-42,300	11,566	1432,582	773,588
-41,286	11,582	1431,419	773,006
-40,271	11,558	1430,182	772,192
-39,257	11,607	1428,832	771,664
-38,242	11,571	1427,767	770,887
-37,227	11,601	1426,580	770,358
-36,213	11,599	1425,182	769,564
-35,198	11,602	1424,283	769,064
-34,184	11,641	1422,997	768,522
-33,169	11,540	1422,051	767,505
-32,154	11,681	1420,747	767,435
-31,140	11,626	1419,705	766,580
-30,125	11,639	1418,541	765,985
-29,111	11,643	1417,277	765,291
-28,096	11,626	1416,204	764,599
-27,082	11,560	1415,090	763,661
-26,067	11,521	1414,238	762,985
-25,052	11,548	1413,047	762,439
-24,038	11,572	1412,032	761,974
-23,023	11,498	1411,078	761,084
-22,009	11,549	1409,797	760,602
-20,994	11,517	1409,037	760,010
-19,979	11,462	1408,256	759,301
-18,965	11,498	1407,225	758,881
-17,950	11,469	1406,333	758,235
-16,936	11,517	1405,383	757,920
-15,921	11,431	1404,335	756,920
-14,906	11,447	1403,535	756,534
-13,892	11,475	1402,462	756,056
-12,877	11,439	1401,831	755,521
-11,863	11,465	1400,749	755,028
-10,848	11,432	1399,904	754,387
-9,833	11,415	1399,125	753,858
-8,819	11,373	1398,316	753,197
-7,804	11,360	1397,213	752,514
-6,790	11,363	1396,251	751,982
-5,775	11,391	1395,113	751,466
-4,760	11,393	1394,217	750,966
-3,746	11,409	1393,394	750,567
-2,731	11,384	1392,583	749,980
-1,717	11,360	1391,750	749,394
-0,702	11,348	1389,824	748,271
0,313	15,311	1304,384	720,494
1,327	31,567	696,093	421,645
2,342	49,063	121,299	80,302
3,356	1,474	16,575	8,389
4,371	-4,213	3,345	1,629
5,386	11,912	0,712	0,385
6,400	800,000	0,186	0,478
7,415	58,005	-0,226	-0,156
8,429	19,913	-0,309	-0,175
9,444	-5,991	-0,306	-0,147
10,459	162,462	-0,252	-0,250
11,473	25,794	-0,285	-0,167
12,488	-13,199	-0,325	-0,148
13,502	62,385	-0,253	-0,178
14,517	178,188	-0,237	-0,244
15,531	-31,204	-0,408	-0,161
16,546	22,125	-0,362	-0,208
17,561	272,105	-0,273	-0,341
18,575	-140,805	-0,245	0,018
19,590	492,258	-0,190	-0,308
20,604	8,532	-0,295	-0,156
21,619	19,025	-0,430	-0,242
22,634	325,950	-0,345	-0,466
23,648	132,587	-0,343	-0,311
24,663	72,104	-0,315	-0,231
25,677	178,043	-0,292	-0,301
26,692	98,497	-0,358	-0,290
27,707	96,880	-0,292	-0,235
28,721	106,638	-0,391	-0,327
29,736	101,650	-0,263	-0,216
30,750	115,582	-0,382	-0,328
31,765	161,183	-0,397	-0,391
32,780	111,510	-0,219	-0,186
33,794	-14,778	-0,370	-0,167
34,809	-111,187	-0,389	-0,055
35,823	-43,393	-0,333	-0,118
36,838	78,179	-0,372	-0,279
37,853	105,000	-0,477	-0,396
38,867	119,605	-0,439	-0,383
39,882	319,387	-0,336	-0,450
40,896	35,240	-0,321	-0,198
41,911	-42,424	-0,384	-0,137
42,926	-7,167	-0,383	-0,182
43,940	205,422	-0,326	-0,357
44,955	107,985	-0,397	-0,333
45,969	158,905	-0,326	-0,319
46,984	-10,890	-0,369	-0,171
47,999	-45,516	-0,448	-0,155
49,013	45,834	-0,315	-0,204
50,028	-9,692	-0,441	-0,206
51,042	58,949	-0,344	-0,238
52,057	123,411	-0,360	-0,317
53,071	55,452	-0,300	-0,204
54,086	84,960	-0,228	-0,175
55,101	3,338	-0,458	-0,234
56,115	-12,550	-0,262	-0,120
57,130	102,339	-0,257	-0,211
58,144	25,502	-0,345	-0,201
59,159	131,354	-0,348	-0,314
60,174	256,701	-0,322	-0,390
61,188	45,280	-0,390	-0,252
62,203	54,684	-0,357	-0,241
63,217	-58,997	-0,343	-0,103
64,232	-57,791	-0,397	-0,121
65,247	23,679	-0,337	-0,194
66,261	107,539	-0,427	-0,357
67,276	313,512	-0,229	-0,303
68,290	19,952	-0,345	-0,195
69,305	-103,079	-0,373	-0,061
70,320	-10,215	-0,414	-0,192
71,334	-67,370	-0,452	-0,124
72,349	-18,086	-0,281	-0,123
73,363	110,455	-0,252	-0,213
74,378	73,034	-0,190	-0,139
75,393	227,653	-0,332	-0,380
76,407	308,022	-0,276	-0,362
77,422	76,278	-0,419	-0,311
78,436	7,121	-0,290	-0,151
79,451	-47,150	-0,316	-0,108
80,466	-7,584	-0,272	-0,129
81,480	89,233	-0,356	-0,278
82,495	35,957	-0,309	-0,190
83,509	130,467	-0,233	-0,209
84,524	664,310	-0,111	-0,202
85,539	375,546	-0,221	-0,316
86,553	48,365	-0,336	-0,220
87,568	266,905	-0,244	-0,299
88,582	151,355	-0,263	-0,251
89,597	159,600	-0,239	-0,234
90,611	-13,334	-0,316	-0,143
91,626	17,201	-0,279	-0,155
92,641	110,748	-0,279	-0,235
93,655	8,666	-0,292	-0,154
94,670	-58,096	-0,334	-0,101
95,684	-88,472	-0,368	-0,076
96,699	70,541	-0,362	-0,262
97,714	196,486	-0,321	-0,342
98,728	71,063	-0,199	-0,145
99,743	-52,929	-0,346	-0,111
100,757	-19,524	-0,365	-0,157
101,772	28,606	-0,288	-0,170
102,787	166,774	-0,300	-0,298
103,801	-20,951	-0,353	-0,151
104,816	20,323	-0,274	-0,154
105,830	111,401	-0,131	-0,111
106,845	-76,228	-0,272	-0,067
107,860	-22,103	-0,216	-0,091
108,874	-25,872	-0,434	-0,178
109,889	114,801	-0,263	-0,224
110,903	5,123	-0,259	-0,133
111,918	214,847	-0,288	-0,320
112,933	211,558	-0,164	-0,180
113,947	-71,721	-0,168	-0,043
114,962	-67,554	-0,315	-0,086
115,976	71,393	-0,240	-0,174
116,991	-10,607	-0,291	-0,134
118,006	124,180	-0,226	-0,198
119,020	305,224	-0,203	-0,265
120,035	42,626	-0,294	-0,186
121,049	-78,700	-0,163	0,039
122,064	607,285	-0,089	-0,156
123,079	-86,156	-0,113	0,024
124,093	91,842	-0,314	-0,247
125,108	46,182	-0,244	-0,157
126,122	1,141	-0,341	-0,170
127,137	227,728	-0,199	-0,226
128,151	-42,611	-0,219	-0,077
129,166	52,985	-0,210	-0,140
130,181	56,760	-0,272	-0,185
131,195	35,781	-0,130	-0,080
132,210	-38,341	-0,264	-0,097
133,224	-12,056	-0,464	-0,211
134,239	221,818	-0,246	-0,276
135,254	-41,295	-0,302	-0,108
136,268	37,777	-0,146	-0,090
137,283	95,772	-0,274	-0,218
138,297	-30,650	-0,234	-0,092
139,312	7,232	-0,242	-0,126
140,327	800,000	-0,068	-0,144
141,341	-200,000	-0,060	-0,208
142,356	61,027	-0,252	-0,174
143,370	207,440	-0,205	-0,223
144,385	200,086	-0,231	-0,247
145,400	236,951	-0,165	-0,191
146,414	19,337	-0,404	-0,226
147,429	75,209	-0,215	-0,158
148,443	36,885	-0,265	-0,163
149,458	519,891	-0,116	-0,191
150,473	97,083	-0,279	-0,223
151,487	63,036	-0,358	-0,250
152,502	800,000	-0,088	-0,204
153,516	-69,997	-0,303	-0,080
154,531	21,539	-0,382	-0,216
155,546	-60,431	-0,285	-0,084
156,560	-26,896	-0,249	-0,101
157,575	50,668	-0,108	-0,071
158,589	-44,938	-0,331	-0,114
159,604	13,003	-0,287	-0,154
160,619	147,579	-0,195	-0,183
161,633	115,367	-0,191	-0,162
162,648	123,660	-0,242	-0,211
163,662	28,518	-0,243	-0,143
164,677	202,734	-0,183	-0,197
165,692	96,084	-0,232	-0,184
166,706	69,452	-0,272	-0,195
167,721	-91,352	-0,130	-0,026
168,735	154,345	-0,203	-0,194
169,750	178,506	-0,193	-0,196
170,764	254,446	-0,178	-0,212
171,779	-46,958	-0,288	-0,097
172,794	46,410	-0,121	-0,078
173,808	4,824	-0,293	-0,149
174,823	-15,267	-0,216	-0,096
175,837	16,424	-0,297	-0,162
176,852	-108,755	-0,160	0,024
177,867	201,560	-0,237	-0,254
178,881	95,262	-0,210	-0,166
179,896	128,638	-0,177	-0,156
180,910	82,338	-0,256	-0,193
181,925	210,663	-0,181	-0,198
182,940	86,507	-0,168	0,128
183,954	123,250	-0,151	-0,131
184,969	635,218	-0,134	-0,238
185,983	167,193	-0,268	-0,264
186,998	101,500	-0,166	-0,134
188,013	209,048	-0,164	-0,179
189,027	23,514	-0,267	-0,152
190,042	-14,591	-0,293	-0,130
191,056	292,101	-0,192	-0,243
192,071	203,868	-0,262	-0,282
193,086	-18,464	-0,254	-0,110
194,100	65,198	-0,249	-0,174
195,115	-5,644	-0,303	-0,143
196,129	459,276	-0,153	-0,237
197,144	335,087	-0,162	-0,218
198,159	60,483	-0,136	-0,093
199,173	42,312	-0,305	-0,192
200,188	284,015	-0,076	-0,095
201,202	46,434	-0,204	-0,131
202,217	127,500	-0,238	-0,209
203,232	31,515	-0,272	-0,162
204,246	123,478	-0,276	-0,240
205,261	-22,116	-0,246	-0,103
206,275	-95,308	-0,233	0,043
207,290	35,027	-0,249	-0,151
208,304	138,658	-0,080	-0,073
209,319	-103,127	-0,145	-0,024
210,334	-200,000	-0,076	-0,235
211,348	-31,481	-0,318	-0,124
212,363	259,270	-0,126	-0,151
213,377	-79,978	-0,133	-0,031
214,392	-41,459	-0,242	0,086
215,407	98,088	-0,140	-0,112
216,421	33,908	-0,080	-0,048
217,436	18,747	-0,146	-0,081
218,450	151,752	-0,174	-0,164
219,465	200,803	-0,237	-0,253
220,480	158,789	-0,132	-0,127
221,494	-90,876	-0,266	-0,053
222,509	36,228	-0,200	-0,122
223,523	68,356	-0,234	-0,166
224,538	-40,159	-0,269	-0,096
225,553	-33,298	-0,149	-0,057
226,567	97,784	-0,204	-0,163
227,582	511,818	-0,182	-0,294
228,596	293,186	-0,148	-0,187
229,611	417,085	-0,135	-0,200
230,626	-137,878	-0,146	0,011
231,640	25,836	-0,166	-0,095
232,655	800,000	-0,079	-0,170
233,669	-69,374	-0,303	-0,080
234,684	104,873	-0,136	-0,111
235,699	11,989	-0,235	-0,124
236,713	14,637	-0,133	0,072
237,728	147,015	-0,238	-0,222
238,742	800,000	-0,083	-0,204
239,757	127,105	-0,196	-0,172
240,772	378,790	-0,169	-0,240
241,786	800,000	-0,055	-0,122
242,801	716,976	-0,070	-0,129
243,815	-200,000	-0,022	-0,107
244,830	-99,716	-0,274	-0,047
245,844	124,059	-0,229	-0,199
246,859	-47,608	-0,276	-0,092
247,874	210,942	-0,220	-0,239
248,888	-19,577	-0,201	-0,086
249,903	565,736	-0,118	-0,199
250,917	135,770	-0,175	-0,158
251,932	60,867	-0,167	-0,114
252,947	8,237	-0,216	-0,112
253,961	212,467	-0,205	-0,223
254,976	-27,173	-0,173	-0,069
255,990	19,483	-0,231	-0,128
257,005	676,993	-0,159	-0,286
258,020	72,554	-0,250	-0,180
259,034	800,000	-0,052	-0,147
260,049	39,573	-0,132	-0,082
261,063	64,400	-0,260	-0,181
262,078	78,730	-0,198	-0,146
263,093	800,000	-0,070	-0,171
264,107	342,849	-0,110	-0,149
265,122	103,977	-0,119	-0,096
266,136	-200,000	0,004	-0,052
267,151	-87,298	-0,130	-0,027
268,166	-12,285	-0,135	-0,060
269,180	184,654	-0,030	-0,031
270,195	35,835	-0,199	-0,120
271,209	50,903	-0,209	-0,137
272,224	346,887	-0,086	-0,117
273,239	504,184	-0,123	-0,197
274,253	31,670	-0,216	-0,128
275,268	185,626	-0,167	-0,171
276,282	-200,000	-0,036	-0,215
277,297	-4,391	-0,325	-0,154
278,312	-115,586	-0,147	-0,019
279,326	126,139	-0,159	-0,138
280,341	301,105	-0,094	-0,120
281,355	36,917	-0,128	-0,078
282,370	533,119	-0,127	-0,207
283,384	800,000	-0,074	-0,183
284,399	339,668	-0,113	-0,152
285,414	174,855	-0,168	-0,167
286,428	-151,174	-0,197	-0,010
287,443	95,827	-0,164	-0,129
288,457	-21,412	-0,208	-0,087
289,472	0,168	-0,252	-0,123
290,487	59,987	-0,194	-0,132
291,501	800,000	-0,150	-0,294
292,516	-50,843	-0,174	-0,056
293,530	179,482	-0,145	-0,146
294,545	37,159	-0,134	-0,081
295,560	-200,000	0,014	-0,086
296,574	243,186	-0,098	-0,113
297,589	82,963	-0,175	-0,131
298,603	-200,000	-0,045	-0,150
299,618	94,282	-0,270	-0,211
300,633	93,398	-0,127	-0,099
301,647	734,881	-0,096	-0,178
302,662	-32,812	-0,173	-0,066
303,676	-47,879	-0,249	-0,082
304,691	47,299	-0,227	-0,145
305,706	-118,798	-0,156	-0,019
306,720	-130,713	-0,199	-0,018
307,735	-103,469	-0,178	-0,029
308,749	-1,511	-0,152	-0,073
309,764	165,769	-0,161	-0,157
310,779	677,861	-0,092	-0,165
311,793	569,125	-0,166	-0,278
312,808	-175,603	-0,191	0,003
313,822	21,060	-0,154	-0,085
314,837	439,113	-0,099	-0,149
315,852	81,705	-0,100	-0,074
316,866	53,176	-0,189	-0,124
317,881	7,391	-0,209	-0,107
318,895	637,980	-0,111	-0,195
319,910	101,097	-0,168	-0,134
320,925	256,083	-0,158	-0,186
321,939	234,834	-0,066	-0,074
322,954	155,201	0,049	-0,046
323,968	315,977	-0,069	-0,090
324,983	-100,187	-0,170	0,029
325,997	34,540	-0,162	-0,097
327,012	800,000	-0,080	-0,195
328,027	800,000	-0,150	-0,305
329,041	156,438	-0,104	-0,098
330,056	-43,784	-0,027	-0,009
331,070	-102,938	-0,216	-0,035
332,085	133,006	-0,054	-0,048
333,100	-29,971	-0,151	-0,059
334,114	-200,000	-0,004	-0,203
335,129	-64,927	-0,190	-0,052
336,143	-74,143	-0,075	-0,019
337,158	-116,475	-0,164	0,021
338,173	-70,028	-0,183	-0,047
339,187	6,236	-0,024	-0,012
340,202	1,347	-0,165	-0,081
341,216	13,734	-0,115	-0,061
342,231	100,122	-0,202	-0,160
343,246	-16,999	-0,138	-0,060
344,260	-45,158	-0,232	-0,079
345,275	-93,363	-0,100	-0,019
346,289	4,119	-0,164	-0,082
347,304	120,884	-0,097	-0,082
348,319	277,616	-0,117	-0,143
349,333	289,499	-0,188	-0,233
350,348	-109,764	-0,130	-0,018
351,362	-72,137	-0,052	0,013
352,377	64,535	-0,092	-0,063
353,392	-18,712	-0,101	-0,043
354,406	-18,936	-0,124	-0,053
355,421	208,074	1311,770	1404,653
356,435	160,093	1472,110	1405,139
