DTS Sentinel unit serial number:	SN410029Multiplexer serial number:	ORYXHardware model number:	OX2-SRSoftware version number:	ORYX F/W v4,00 Oryx Data Collector v3.7.2.0data status	okinstallation	B3 Nyhavnadifferential loss correction	single-endedforward channel	channel 1reverse channel	N/Adate	2023/12/05time	02:37:30forward acquisition time	300,00reverse acquisition time	0,00gamma	499,1914k internal	0,3201k external	0,3201temperature offset calibration	1,0000default loss term (dB/km)	0,3820temperature slope calibration	1,0000multiplexer offset coefficient	1,0000multiplexer slope coefficient	1,0000fibre end	0,00T internal ref (°C)	14,00T ext. ref 1 (°C)	-0,65T ext. ref 2 (°C)	-0,68length (m)	temperature (°C)	Stokes	anti-Stokes-744,400	237,389	-0,224	-0,270
-743,385	-200,000	0,072	0,236
-742,371	340,784	-0,122	-0,174
-741,356	612,184	0,169	0,309
-740,342	19,405	-0,268	-0,156
-739,327	-200,000	-0,008	0,278
-738,312	210,177	-0,226	-0,259
-737,298	347,235	0,151	0,216
-736,283	338,750	-0,122	-0,173
-735,269	-200,000	0,029	0,231
-734,254	703,469	-0,124	-0,239
-733,239	184,771	-0,121	0,130
-732,225	-200,000	-0,060	-0,253
-731,210	101,281	0,208	0,176
-730,196	-200,000	0,006	-0,100
-729,181	19,439	-0,031	0,018
-728,167	9,336	-0,074	0,041
-727,152	745,881	0,078	0,154
-726,137	156,215	-0,148	-0,149
-725,123	-84,575	-0,036	0,008
-724,108	141,892	-0,082	-0,079
-723,094	151,393	-0,054	-0,054
-722,079	800,000	0,024	0,055
-721,064	9,389	-0,099	0,054
-720,050	91,525	-0,044	-0,036
-719,035	261,918	-0,042	-0,053
-718,021	800,000	0,007	0,016
-717,006	10,401	0,004	-0,002
-715,991	-200,000	-0,024	-0,134
-714,977	-200,000	0,001	0,041
-713,962	748,836	-0,101	-0,198
-712,948	44,509	0,109	-0,072
-711,933	-60,716	-0,026	-0,008
-710,918	-200,000	-0,000	0,121
-709,904	-3,119	-0,076	0,039
-708,889	-200,000	-0,022	0,183
-707,875	800,000	-0,014	-0,040
-706,860	-4,872	-0,033	-0,017
-705,845	338,883	-0,063	-0,090
-704,831	40,986	-0,107	0,070
-703,816	278,455	-0,035	-0,045
-702,802	34,246	-0,029	0,018
-701,787	203,504	-0,143	-0,161
-700,772	26,711	0,087	-0,053
-699,758	-200,000	0,000	-0,013
-698,743	-200,000	-0,013	0,052
-697,729	253,562	-0,012	0,015
-696,714	-66,872	-0,163	-0,046
-695,699	324,755	0,076	-0,106
-694,685	-83,892	-0,038	0,009
-693,670	-29,265	-0,112	0,046
-692,656	-112,488	0,007	0,001
-691,641	242,567	-0,065	0,079
-690,627	507,867	0,018	0,030
-689,612	71,532	-0,032	0,024
-688,597	-200,000	-0,019	-0,100
-687,583	800,000	-0,013	0,029
-686,568	-197,855	-0,171	0,001
-685,554	-200,000	-0,006	-0,105
-684,539	-100,656	0,058	0,010
-683,524	763,610	0,038	-0,076
-682,510	-200,000	-0,013	-0,088
-681,495	267,371	0,034	0,043
-680,481	153,497	-0,110	-0,110
-679,466	86,817	-0,106	-0,085
-678,451	3,248	-0,046	-0,024
-677,437	484,117	0,005	0,009
-676,422	291,580	-0,044	0,058
-675,408	800,000	-0,103	-0,211
-674,393	86,108	-0,053	-0,042
-673,378	800,000	-0,008	-0,023
-672,364	800,000	-0,029	-0,085
-671,349	-6,694	-0,027	0,013
-670,335	-6,007	0,065	-0,032
-669,320	-15,696	0,098	-0,045
-668,305	-200,000	0,011	0,045
-667,291	10,685	-0,069	0,038
-666,276	-200,000	-0,067	-0,220
-665,262	214,189	0,115	-0,132
-664,247	-200,000	0,043	-0,159
-663,232	800,000	-0,038	-0,087
-662,218	800,000	-0,023	-0,064
-661,203	-47,379	-0,066	-0,023
-660,189	-200,000	0,012	0,079
-659,174	-93,799	-0,047	0,009
-658,159	177,186	-0,075	-0,079
-657,145	-200,000	0,001	-0,120
-656,130	-160,526	-0,062	0,002
-655,116	119,679	0,066	0,059
-654,101	307,716	0,063	0,085
-653,086	-59,416	0,052	0,016
-652,072	800,000	0,045	0,091
-651,057	-41,643	-0,036	-0,013
-650,043	-131,166	0,024	0,002
-649,028	-130,247	0,051	0,005
-648,014	-53,614	0,101	0,033
-646,999	-200,000	0,023	0,130
-645,984	27,703	0,069	0,042
-644,970	-200,000	0,007	-0,065
-643,955	377,581	-0,064	-0,095
-642,941	13,134	-0,095	-0,053
-641,926	800,000	0,042	-0,123
-640,911	15,896	-0,032	-0,018
-639,897	-169,456	0,049	0,001
-638,882	-99,998	-0,043	-0,008
-637,868	-200,000	-0,002	0,031
-636,853	481,310	0,091	-0,150
-635,838	595,827	-0,019	0,035
-634,824	800,000	-0,049	-0,121
-633,809	-7,039	-0,036	-0,018
-632,795	-147,189	-0,170	-0,010
-631,780	77,101	0,035	-0,027
-630,765	10,249	-0,048	0,026
-629,751	300,609	-0,077	-0,103
-628,736	800,000	-0,068	-0,180
-627,722	-11,940	-0,152	-0,072
-626,707	800,000	0,003	0,006
-625,692	109,455	-0,047	-0,041
-624,678	-130,128	0,068	0,007
-623,663	-85,980	-0,047	-0,011
-622,649	-200,000	-0,015	0,097
-621,634	485,119	0,045	-0,074
-620,619	144,353	0,060	0,058
-619,605	-68,955	0,028	0,008
-618,590	-76,310	0,108	0,027
-617,576	-174,566	-0,046	0,001
-616,561	229,145	0,054	-0,064
-615,546	-116,080	-0,163	-0,022
-614,532	384,364	-0,017	-0,026
-613,517	350,741	0,129	-0,186
-612,503	31,807	-0,111	-0,069
-611,488	156,645	-0,076	-0,076
-610,474	102,214	0,083	-0,070
-609,459	-200,000	-0,005	0,114
-608,444	-126,024	-0,082	-0,009
-607,430	1,767	-0,082	0,043
-606,415	-85,598	-0,115	-0,026
-605,401	800,000	-0,018	-0,038
-604,386	70,041	-0,086	-0,064
-603,371	134,203	0,086	0,081
-602,357	441,825	-0,028	-0,045
-601,342	-200,000	0,000	0,077
-600,328	-168,081	-0,117	-0,003
-599,313	630,665	0,009	0,017
-598,298	800,000	0,012	-0,025
-597,284	-88,477	0,140	0,030
-596,269	52,746	-0,076	-0,053
-595,255	-200,000	0,023	0,104
-594,240	-12,112	-0,070	-0,033
-593,225	163,772	-0,082	-0,084
-592,211	-200,000	-0,010	-0,107
-591,196	-21,073	0,116	-0,051
-590,182	-6,047	0,052	0,026
-589,167	-200,000	0,029	0,101
-588,152	-131,114	-0,109	0,010
-587,138	81,335	-0,062	-0,048
-586,123	-157,709	0,085	0,004
-585,109	434,500	0,051	-0,080
-584,094	26,502	-0,066	0,040
-583,079	800,000	-0,054	-0,171
-582,065	-200,000	0,026	0,091
-581,050	-144,860	-0,161	-0,011
-580,036	800,000	0,012	0,037
-579,021	-200,000	0,005	0,039
-578,006	-200,000	-0,026	0,104
-576,992	800,000	-0,038	-0,108
-575,977	-125,811	0,154	0,017
-574,963	-50,108	-0,004	0,001
-573,948	800,000	-0,031	0,069
-572,934	800,000	0,046	0,100
-571,919	-138,260	-0,153	-0,012
-570,904	-25,491	0,097	0,041
-569,890	72,416	0,070	-0,053
-568,875	616,369	-0,024	-0,043
-567,861	188,626	0,076	0,082
-566,846	46,041	0,131	0,088
-565,831	800,000	-0,070	0,150
-564,817	523,580	-0,040	-0,067
-563,802	67,853	-0,080	-0,059
-562,788	107,724	0,075	-0,064
-561,773	462,234	-0,053	0,085
-560,758	391,184	-0,004	0,006
-559,744	800,000	0,006	-0,018
-558,729	-200,000	0,032	-0,105
-557,715	237,915	-0,038	0,045
-556,700	-98,450	0,052	0,010
-555,685	731,200	-0,005	0,009
-554,671	59,369	-0,089	0,063
-553,656	259,841	-0,048	0,060
-552,642	-200,000	0,003	-0,137
-551,627	35,315	-0,115	0,072
-550,612	335,716	0,059	-0,083
-549,598	682,306	-0,046	0,086
-548,583	414,919	0,038	-0,058
-547,569	800,000	-0,034	-0,068
-546,554	-200,000	0,074	0,281
-545,539	-118,495	0,048	0,006
-544,525	-133,341	0,088	-0,008
-543,510	510,594	-0,077	-0,131
-542,496	800,000	-0,034	0,083
-541,481	-200,000	-0,012	-0,094
-540,466	129,138	0,038	0,035
-539,452	-99,067	0,139	-0,025
-538,437	-100,925	0,159	-0,028
-537,423	-200,000	-0,019	0,091
-536,408	-200,000	0,013	0,060
-535,393	471,719	0,046	-0,075
-534,379	-9,764	-0,131	0,063
-533,364	47,893	0,087	0,058
-532,350	-200,000	-0,030	-0,102
-531,335	476,480	-0,019	0,032
-530,321	380,066	-0,065	0,097
-529,306	-200,000	0,017	-0,075
-528,291	-200,000	0,002	0,050
-527,277	100,280	-0,119	-0,100
-526,262	-2,871	0,076	-0,038
-525,248	541,306	-0,013	-0,023
-524,233	-200,000	0,006	0,189
-523,218	-118,231	0,097	0,012
-522,204	-200,000	-0,026	0,115
-521,189	-200,000	0,006	0,078
-520,175	286,286	0,031	0,041
-519,160	349,671	-0,081	-0,116
-518,145	-31,967	-0,035	0,014
-517,131	191,794	-0,106	0,115
-516,116	800,000	-0,053	0,126
-515,102	-91,718	0,004	-0,001
-514,087	-111,737	-0,164	0,024
-513,072	800,000	-0,056	-0,162
-512,058	-53,573	0,174	-0,057
-511,043	800,000	0,046	0,117
-510,029	-200,000	-0,031	0,129
-509,014	-88,068	0,132	0,028
-507,999	213,140	-0,039	-0,044
-506,985	160,672	-0,089	-0,089
-505,970	-200,000	0,031	-0,116
-504,956	593,878	-0,039	-0,069
-503,941	154,488	0,035	-0,035
-502,926	676,006	0,027	-0,051
-501,912	-29,797	0,117	-0,048
-500,897	-60,656	0,069	0,021
-499,883	85,873	0,040	-0,031
-498,868	-200,000	0,023	-0,213
-497,853	-62,591	-0,055	-0,016
-496,839	-65,991	0,075	0,021
-495,824	-200,000	-0,016	0,117
-494,810	-45,803	0,051	0,018
-493,795	27,942	0,047	-0,028
-492,781	-76,702	0,169	0,042
-491,766	403,217	0,058	0,089
-490,751	-200,000	-0,001	-0,099
-489,737	800,000	-0,013	0,038
-488,722	284,264	-0,024	-0,031
-487,708	144,972	0,115	0,110
-486,693	-200,000	0,005	0,032
-485,678	27,446	0,139	0,084
-484,664	-190,294	-0,087	0,001
-483,649	-200,000	0,028	0,154
-482,635	-200,000	-0,005	0,065
-481,620	639,051	0,038	0,070
-480,605	497,815	0,047	-0,078
-479,591	147,717	-0,050	0,049
-478,576	-200,000	0,000	-0,010
-477,562	590,467	-0,075	0,133
-476,547	-200,000	-0,004	0,045
-475,532	-200,000	-0,019	-0,063
-474,518	217,336	-0,057	0,065
-473,503	-159,640	-0,037	-0,001
-472,489	185,477	0,084	0,090
-471,474	-95,212	-0,096	-0,018
-470,459	28,263	0,046	-0,028
-469,445	-200,000	-0,011	-0,035
-468,430	32,769	0,037	-0,023
-467,416	-57,599	0,108	0,034
-466,401	192,522	-0,043	-0,046
-465,386	-88,789	0,089	-0,019
-464,372	-40,805	0,051	-0,019
-463,357	272,435	-0,053	-0,068
-462,343	-5,520	-0,149	-0,074
-461,328	578,846	-0,110	-0,195
-460,313	-147,255	0,128	0,008
-459,299	-192,335	-0,142	0,001
-458,284	12,930	-0,078	-0,044
-457,270	218,475	0,070	-0,080
-456,255	113,465	-0,092	-0,081
-455,241	-41,762	-0,059	-0,022
-454,226	9,267	0,089	0,049
-453,211	404,958	-0,011	0,017
-452,197	96,736	-0,025	0,021
-451,182	800,000	0,028	0,056
-450,168	-200,000	-0,002	-0,139
-449,153	39,063	-0,104	0,067
-448,138	-200,000	0,017	0,119
-447,124	-200,000	-0,008	-0,076
-446,109	6,384	0,077	-0,041
-445,095	-19,874	-0,007	0,003
-444,080	63,599	0,092	-0,066
-443,065	-11,468	0,134	-0,063
-442,051	97,242	0,022	0,018
-441,036	-36,069	-0,131	-0,050
-440,022	21,744	-0,057	-0,034
-439,007	317,170	0,129	0,175
-437,992	-82,156	0,114	-0,027
-436,978	507,745	0,053	0,089
-435,963	-200,000	-0,014	-0,079
-434,949	-200,000	-0,007	-0,108
-433,934	767,955	-0,069	-0,135
-432,919	7,418	-0,116	-0,062
-431,905	119,531	-0,096	-0,086
-430,890	-200,000	-0,026	-0,083
-429,876	-34,419	-0,040	0,016
-428,861	-200,000	0,020	0,115
-427,846	-200,000	0,008	0,046
-426,832	-200,000	-0,016	-0,074
-425,817	-153,399	-0,025	0,001
-424,803	-3,859	0,067	-0,033
-423,788	-200,000	0,013	-0,090
-422,773	-200,000	0,011	-0,048
-421,759	434,971	0,012	-0,019
-420,744	579,930	-0,043	-0,076
-419,730	-35,965	0,096	-0,037
-418,715	800,000	0,045	-0,134
-417,701	-86,625	-0,092	-0,020
-416,686	103,178	0,055	-0,047
-415,671	-106,241	0,050	-0,008
-414,657	-49,018	0,062	0,021
-413,642	102,740	0,057	-0,048
-412,628	5,137	-0,126	-0,066
-411,613	68,412	0,088	0,065
-410,598	-70,295	0,097	-0,026
-409,584	-125,989	0,080	-0,009
-408,569	800,000	0,023	0,057
-407,555	614,920	-0,038	0,069
-406,540	-200,000	0,024	0,124
-405,525	-200,000	0,000	-0,006
-404,511	-200,000	0,027	0,104
-403,496	363,582	-0,039	0,057
-402,482	82,043	0,037	0,029
-401,467	147,511	-0,005	-0,005
-400,452	-200,000	0,006	0,034
-399,438	-200,000	-0,014	0,052
-398,423	-81,328	-0,126	-0,030
-397,409	-32,608	-0,105	-0,042
-396,394	-112,698	0,048	-0,007
-395,379	-200,000	0,027	-0,108
-394,365	-200,000	-0,011	0,061
-393,350	-200,000	-0,041	0,189
-392,336	-74,902	0,051	0,013
-391,321	800,000	-0,034	0,079
-390,306	-200,000	0,014	0,123
-389,292	-99,532	0,047	0,008
-388,277	33,069	-0,027	-0,017
-387,263	-200,000	-0,001	-0,021
-386,248	498,098	0,043	0,072
-385,233	78,289	-0,080	0,061
-384,219	-200,000	-0,023	0,082
-383,204	15,301	-0,043	0,024
-382,190	-200,000	0,018	-0,136
-381,175	-138,235	-0,059	-0,005
-380,160	-43,859	-0,060	-0,022
-379,146	-67,236	-0,050	0,014
-378,131	357,975	0,027	0,039
-377,117	366,984	-0,057	0,083
-376,102	-81,197	-0,084	0,020
-375,088	152,016	-0,082	-0,080
-374,073	800,000	-0,030	0,080
-373,058	15,871	0,115	-0,065
-372,044	-200,000	-0,010	0,106
-371,029	417,665	0,063	0,097
-370,015	339,495	-0,047	-0,066
-369,000	-111,496	-0,049	-0,007
-367,985	-173,031	0,053	0,001
-366,971	-105,137	0,046	-0,007
-365,956	340,731	0,044	0,062
-364,942	800,000	0,021	-0,059
-363,927	-87,945	-0,076	-0,016
-362,912	-200,000	0,026	0,107
-361,898	-108,789	-0,046	-0,007
-360,883	800,000	-0,030	-0,074
-359,869	317,187	0,046	-0,063
-358,854	-200,000	0,023	-0,091
-357,839	133,425	-0,074	0,069
-356,825	169,570	-0,066	0,068
-355,810	800,000	0,025	0,050
-354,796	-200,000	-0,007	-0,141
-353,781	-200,000	0,002	-0,068
-352,766	-200,000	-0,038	0,134
-351,752	-200,000	0,016	-0,057
-350,737	-200,000	0,007	-0,057
-349,723	-9,976	-0,004	-0,002
-348,708	800,000	0,046	0,130
-347,693	-64,030	-0,123	-0,036
-346,679	-200,000	-0,031	-0,117
-345,664	73,404	-0,158	-0,118
-344,650	50,232	0,136	-0,092
-343,635	-200,000	-0,007	0,181
-342,620	280,036	0,135	0,174
-341,606	60,842	-0,043	-0,031
-340,591	-200,000	0,001	0,089
-339,577	-124,154	0,017	0,002
-338,562	54,278	-0,038	0,026
-337,548	66,693	0,038	0,028
-336,533	561,567	0,022	-0,037
-335,518	173,081	0,060	0,062
-334,504	329,166	-0,072	-0,100
-333,489	-200,000	-0,001	0,104
-332,475	5,473	0,049	-0,026
-331,460	-200,000	0,042	0,163
-330,445	-55,428	-0,078	-0,025
-329,431	261,866	0,072	0,089
-328,416	64,014	0,094	0,068
-327,402	-133,705	-0,014	-0,001
-326,387	25,835	0,072	0,043
-325,372	800,000	0,040	-0,118
-324,358	-200,000	-0,005	0,029
-323,343	800,000	0,027	0,077
-322,329	800,000	-0,022	0,064
-321,314	800,000	0,015	0,040
-320,299	-200,000	-0,017	0,114
-319,285	516,526	-0,044	0,074
-318,270	-200,000	0,002	0,063
-317,256	800,000	-0,036	-0,095
-316,241	-200,000	-0,004	-0,018
-315,226	-70,640	-0,034	-0,009
-314,212	78,937	0,129	0,099
-313,197	-200,000	0,024	0,125
-312,183	800,000	0,013	0,039
-311,168	800,000	-0,058	0,115
-310,153	695,272	-0,075	-0,142
-309,139	104,873	0,072	0,061
-308,124	800,000	-0,046	0,125
-307,110	800,000	0,008	-0,024
-306,095	81,586	0,097	-0,075
-305,080	258,198	0,093	0,114
-304,066	3,516	-0,105	0,055
-303,051	-200,000	0,010	-0,219
-302,037	64,458	-0,051	-0,037
-301,022	-20,171	-0,037	-0,016
-300,008	-71,748	0,081	-0,021
-298,993	-200,000	0,025	0,109
-297,978	-200,000	0,029	0,162
-296,964	800,000	-0,038	0,100
-295,949	798,892	-0,031	0,062
-294,935	244,329	-0,147	-0,176
-293,920	-42,792	0,009	-0,003
-292,905	25,032	0,039	0,023
-291,891	484,755	0,024	0,039
-290,876	-76,126	0,118	-0,030
-289,862	-86,592	0,149	-0,032
-288,847	-68,998	-0,121	0,033
-287,832	53,513	0,050	-0,034
-286,818	6,723	-0,046	-0,024
-285,803	-17,059	0,107	0,048
-284,789	-96,948	0,165	0,031
-283,774	-55,697	-0,066	-0,021
-282,759	-7,327	0,104	0,050
-281,745	-104,324	-0,160	0,026
-280,730	489,241	-0,054	-0,089
-279,716	321,407	-0,062	-0,084
-278,701	751,776	0,078	0,152
-277,686	-152,793	0,195	0,010
-276,672	-200,000	0,028	-0,171
-275,657	200,572	-0,102	0,112
-274,643	-2,144	0,039	0,020
-273,628	-200,000	-0,001	-0,101
-272,613	-200,000	0,007	0,120
-271,599	-200,000	-0,006	-0,033
-270,584	800,000	-0,036	0,077
-269,570	220,746	-0,072	0,082
-268,555	-172,237	0,008	0,000
-267,540	135,129	0,088	-0,082
-266,526	-31,909	0,146	-0,058
-265,511	-96,199	0,132	-0,025
-264,497	-200,000	-0,015	0,051
-263,482	-200,000	0,001	0,198
-262,467	7,625	-0,081	0,043
-261,453	-200,000	-0,001	0,003
-260,438	-200,000	0,011	-0,139
-259,424	-200,000	-0,007	0,163
-258,409	233,144	0,042	-0,050
-257,395	800,000	-0,047	-0,106
-256,380	-161,225	-0,115	0,004
-255,365	-30,630	0,076	0,031
-254,351	111,231	-0,025	-0,021
-253,336	-200,000	0,013	-0,089
-252,322	30,840	-0,133	-0,081
-251,307	-200,000	-0,007	-0,113
-250,292	-93,669	-0,128	-0,025
-249,278	-200,000	-0,001	0,008
-248,263	-44,490	0,046	0,016
-247,249	-200,000	-0,008	-0,041
-246,234	-200,000	-0,004	-0,129
-245,219	-200,000	0,012	0,076
-244,205	-135,498	-0,158	0,013
-243,190	-96,939	-0,062	0,012
-242,176	-200,000	-0,016	-0,171
-241,161	-200,000	0,024	0,108
-240,146	-118,098	-0,113	-0,014
-239,132	-200,000	0,024	-0,115
-238,117	-96,504	0,069	-0,013
-237,103	-200,000	0,000	0,002
-236,088	-99,843	0,094	-0,017
-235,073	-4,080	-0,036	0,018
-234,059	-200,000	-0,012	-0,079
-233,044	40,826	-0,102	-0,066
-232,030	-121,210	-0,194	0,023
-231,015	800,000	-0,064	-0,128
-230,000	-123,648	-0,079	-0,009
-228,986	-200,000	-0,007	0,085
-227,971	454,644	0,021	0,033
-226,957	56,405	0,073	0,051
-225,942	76,512	0,033	0,025
-224,927	105,760	0,068	0,057
-223,913	-200,000	-0,003	0,043
-222,898	620,724	0,022	-0,040
-221,884	464,802	0,060	-0,095
-220,869	-200,000	0,019	0,066
-219,855	121,121	-0,140	0,124
-218,840	800,000	0,020	0,050
-217,825	800,000	0,032	-0,076
-216,811	-80,030	0,108	-0,026
-215,796	800,000	0,021	-0,055
-214,782	60,496	-0,043	-0,030
-213,767	186,194	-0,013	0,014
-212,752	-200,000	0,001	0,005
-211,738	408,148	0,065	-0,099
-210,723	-29,911	-0,163	-0,066
-209,709	53,016	0,077	-0,052
-208,694	79,363	-0,090	-0,068
-207,679	-159,953	-0,109	0,004
-206,665	589,484	0,048	0,084
-205,650	52,524	-0,104	0,071
-204,636	-97,632	0,076	0,014
-203,621	-79,321	-0,105	0,025
-202,606	38,034	-0,064	0,040
-201,592	24,579	-0,068	-0,040
-200,577	390,070	0,026	-0,038
-199,563	295,772	-0,088	0,116
-198,548	195,588	0,050	0,054
-197,533	-64,330	0,157	0,045
-196,519	431,629	-0,079	0,123
-195,504	-145,467	-0,061	-0,004
-194,490	192,487	0,071	0,076
-193,475	-200,000	0,003	0,032
-192,460	347,822	0,035	0,050
-191,446	-117,770	0,064	0,008
-190,431	-92,740	0,072	-0,014
-189,417	234,505	0,089	-0,104
-188,402	-108,090	-0,161	-0,025
-187,387	485,749	-0,054	-0,088
-186,373	-123,253	-0,101	0,011
-185,358	-85,804	0,114	0,025
-184,344	-51,007	0,085	-0,028
-183,329	70,002	0,119	0,087
-182,315	-200,000	-0,015	0,116
-181,300	-88,728	-0,094	0,020
-180,285	-90,647	-0,119	-0,024
-179,271	800,000	0,073	-0,206
-178,256	-151,793	-0,246	0,013
-177,242	800,000	0,066	0,145
-176,227	62,517	0,122	0,087
-175,212	211,669	-0,076	0,085
-174,198	-200,000	-0,012	-0,066
-173,183	-200,000	-0,023	-0,130
-172,169	-64,599	0,093	-0,027
-171,154	-200,000	-0,006	-0,097
-170,139	2,021	0,107	-0,055
-169,125	199,568	0,093	-0,102
-168,110	-127,420	0,277	-0,028
-167,096	-200,000	-0,001	0,011
-166,081	-83,999	-0,041	-0,009
-165,066	364,992	-0,125	-0,179
-164,052	800,000	0,034	0,072
-163,037	148,534	-0,024	0,023
-162,023	-32,035	0,129	0,051
-161,008	-55,098	0,195	-0,062
-159,993	-37,968	0,109	-0,041
-158,979	392,372	-0,102	-0,151
-157,964	511,675	-0,050	-0,083
-156,950	169,412	0,039	-0,040
-155,935	430,650	-0,028	-0,043
-154,920	-128,491	0,039	0,004
-153,906	-200,000	0,019	0,191
-152,891	424,571	0,045	0,069
-151,877	-200,000	-0,017	-0,139
-150,862	68,669	-0,084	0,061
-149,847	800,000	-0,010	-0,022
-148,833	27,788	0,041	-0,025
-147,818	-26,015	0,033	-0,014
-146,804	62,794	0,070	0,050
-145,789	-200,000	-0,006	0,053
-144,775	541,338	0,042	0,071
-143,760	243,887	-0,050	-0,060
-142,745	-125,260	-0,074	-0,008
-141,731	-10,429	-0,124	0,058
-140,716	110,055	0,048	0,041
-139,702	89,880	0,104	0,082
-138,687	-200,000	-0,014	0,052
-137,672	102,120	0,064	0,053
-136,658	-200,000	-0,009	0,065
-135,643	-32,190	-0,107	0,042
-134,629	800,000	0,065	-0,131
-133,614	32,126	-0,043	-0,026
-132,599	-200,000	0,087	-0,000
-131,585	-200,000	0,000	-0,024
-130,570	8,041	-0,064	0,034
-129,556	-42,724	0,018	-0,006
-128,541	788,297	-0,084	-0,165
-127,526	-200,000	0,001	-0,131
-126,512	20,762	-0,043	-0,025
-125,497	-27,079	0,054	0,022
-124,483	131,883	0,082	-0,075
-123,468	127,084	-0,056	-0,050
-122,453	201,262	-0,111	-0,122
-121,439	52,457	-0,062	-0,042
-120,424	593,280	0,036	-0,063
-119,410	800,000	-0,028	0,072
-118,395	199,554	-0,035	0,038
-117,380	-98,838	-0,051	0,009
-116,366	-200,000	0,011	-0,043
-115,351	-23,840	0,183	-0,077
-114,337	276,371	-0,042	-0,053
-113,322	761,024	-0,017	0,033
-112,307	620,319	0,034	0,061
-111,293	-30,272	0,039	-0,016
-110,278	66,245	-0,035	0,025
-109,264	144,885	-0,098	0,093
-108,249	800,000	-0,023	0,069
-107,234	-71,185	-0,083	0,022
-106,220	126,761	0,052	-0,046
-105,205	800,000	0,061	-0,126
-104,191	-96,022	0,010	0,002
-103,176	-200,000	-0,007	0,171
-102,162	-200,000	0,017	-0,062
-101,147	376,716	0,039	-0,056
-100,132	-200,000	0,001	-0,102
-99,118	-200,000	0,004	0,030
-98,103	-200,000	0,004	-0,160
-97,089	-200,000	-0,049	-0,197
-96,074	800,000	-0,026	-0,065
-95,059	-200,000	-0,008	0,088
-94,045	-64,962	-0,105	-0,030
-93,030	59,259	0,081	-0,056
-92,016	-62,816	-0,134	-0,039
-91,001	800,000	0,018	-0,053
-89,986	-15,775	0,115	0,052
-88,972	-2,283	-0,062	0,031
-87,957	-130,020	0,157	0,015
-86,943	75,322	0,074	0,055
-85,928	170,226	0,029	0,030
-84,913	800,000	0,023	-0,062
-83,899	-70,238	-0,093	-0,025
-82,884	-147,410	0,059	0,003
-81,870	22,105	0,094	0,054
-80,855	-200,000	-0,019	-0,128
-79,840	-200,000	-0,010	-0,072
-78,826	-200,000	-0,019	-0,096
-77,811	-24,747	-0,033	-0,014
-76,797	800,000	-0,067	-0,132
-75,782	-130,652	0,142	0,013
-74,767	-200,000	0,015	0,070
-73,753	4,060	0,032	0,016
-72,738	65,796	-0,070	-0,050
-71,724	-198,256	0,154	0,001
-70,709	-41,432	-0,134	-0,048
-69,694	121,601	-0,040	0,036
-68,680	-58,760	0,102	0,031
-67,665	-200,000	-0,031	0,165
-66,651	-33,013	-0,051	0,020
-65,636	85,182	-0,025	-0,019
-64,622	800,000	-0,062	-0,127
-63,607	-168,645	0,101	0,003
-62,592	-140,053	-0,163	-0,012
-61,578	-200,000	0,014	0,082
-60,563	800,000	0,031	-0,069
-59,549	101,974	0,073	-0,061
-58,534	-40,774	-1,621	-0,591
-57,519	625,982	-1,178	-2,114
-56,505	-200,000	-0,725	-4,448
-55,490	157,584	1,043	1,023
-54,476	800,000	4,892	11,502
-53,461	-200,000	18,884	307,864
-52,446	-200,000	737,518	2304,942
-51,432	570,980	1653,708	2860,795
-50,417	79,101	1670,520	1265,408
-49,403	22,024	1543,291	888,792
-48,388	15,879	1466,041	814,453
-47,373	17,718	1456,135	817,799
-46,359	16,832	1446,242	807,965
-45,344	14,170	1441,398	792,484
-44,330	14,049	1439,614	790,894
-43,315	14,078	1438,078	790,157
-42,300	14,055	1436,283	789,027
-41,286	14,114	1435,099	788,627
-40,271	14,034	1433,823	787,515
-39,257	14,020	1432,725	786,815
-38,242	14,078	1431,264	786,255
-37,227	14,111	1430,085	785,734
-36,213	14,116	1428,773	785,005
-35,198	14,097	1427,621	784,252
-34,184	14,169	1426,577	783,990
-33,169	14,069	1425,262	782,759
-32,154	14,113	1424,317	782,419
-31,140	14,073	1423,105	781,534
-30,125	14,104	1421,962	781,020
-29,111	14,091	1421,008	780,402
-28,096	14,113	1419,570	779,686
-27,082	14,049	1418,500	778,766
-26,067	14,034	1417,524	778,131
-25,052	14,028	1416,478	777,494
-24,038	14,008	1415,411	776,785
-23,023	14,014	1414,384	776,218
-22,009	14,038	1413,351	775,734
-20,994	13,994	1412,567	775,069
-19,979	13,960	1411,613	774,355
-18,965	13,926	1410,827	773,732
-17,950	13,929	1409,891	773,200
-16,936	14,002	1408,806	772,918
-15,921	13,981	1407,625	772,139
-14,906	13,956	1406,731	771,504
-13,892	13,948	1406,091	771,085
-12,877	13,925	1405,218	770,467
-11,863	13,890	1404,096	769,657
-10,848	13,924	1403,219	769,306
-9,833	13,905	1402,466	768,774
-8,819	13,871	1401,632	768,128
-7,804	13,832	1400,632	767,367
-6,790	13,864	1399,475	766,853
-5,775	13,813	1398,459	766,030
-4,760	13,826	1397,613	765,596
-3,746	13,860	1396,736	765,242
-2,731	13,863	1395,936	764,787
-1,717	13,806	1395,015	763,988
-0,702	13,821	1393,331	763,103
0,313	17,653	1311,235	735,904
1,327	34,117	705,724	434,193
2,342	52,749	124,088	83,768
3,356	2,555	16,664	8,511
4,371	-4,615	3,207	1,560
5,386	21,049	0,601	0,344
6,400	-200,000	0,081	0,344
7,415	-50,534	-0,296	-0,098
8,429	-18,208	-0,367	-0,162
9,444	123,732	-0,251	-0,223
10,459	86,142	-0,346	-0,269
11,473	-149,283	-0,350	0,019
12,488	25,094	-0,265	-0,155
13,502	109,094	-0,246	-0,208
14,517	55,816	-0,295	-0,202
15,531	141,299	-0,361	-0,337
16,546	600,332	-0,211	-0,372
17,561	50,811	-0,353	-0,236
18,575	124,473	-0,145	-0,129
19,590	67,581	-0,176	-0,127
20,604	-87,234	-0,387	-0,082
21,619	47,549	-0,519	-0,341
22,634	147,382	-0,470	-0,447
23,648	46,877	-0,404	-0,265
24,663	238,823	-0,429	-0,504
25,677	-18,606	-0,495	-0,217
26,692	145,946	-0,315	-0,299
27,707	-60,983	-0,347	-0,103
28,721	153,398	-0,358	-0,346
29,736	80,635	-0,381	-0,290
30,750	194,639	-0,367	-0,393
31,765	358,674	-0,240	-0,339
32,780	96,046	-0,393	-0,317
33,794	182,260	-0,197	-0,205
34,809	-21,206	-0,296	-0,127
35,823	-89,932	-0,359	-0,073
36,838	152,890	-0,340	-0,328
37,853	59,219	-0,359	-0,249
38,867	136,981	-0,418	-0,385
39,882	53,609	-0,439	-0,297
40,896	393,488	-0,227	-0,334
41,911	49,054	-0,396	-0,262
42,926	59,775	-0,387	-0,269
43,940	72,856	-0,396	-0,291
44,955	14,885	-0,417	-0,229
45,969	3,355	-0,437	-0,224
46,984	91,445	-0,357	-0,283
47,999	-16,641	-0,421	-0,187
49,013	-39,893	-0,263	-0,096
50,028	160,850	-0,234	-0,230
51,042	309,496	-0,209	-0,276
52,057	136,850	-0,438	-0,403
53,071	177,336	-0,255	-0,262
54,086	213,400	-0,253	-0,282
55,101	-64,486	-0,288	-0,082
56,115	163,517	-0,266	-0,264
57,130	-49,916	-0,384	-0,128
58,144	18,016	-0,415	-0,232
59,159	102,337	-0,375	-0,308
60,174	62,405	-0,508	-0,357
61,188	-17,999	-0,335	-0,147
62,203	35,624	-0,239	-0,147
63,217	116,836	-0,333	-0,288
64,232	-41,007	-0,250	-0,090
65,247	425,946	-0,198	-0,301
66,261	290,693	-0,247	-0,316
67,276	162,353	-0,390	-0,385
68,290	339,263	-0,208	-0,285
69,305	26,429	-0,285	-0,167
70,320	405,957	-0,164	-0,244
71,334	-79,595	-0,343	-0,081
72,349	-42,394	-0,325	-0,116
73,363	86,205	-0,299	-0,231
74,378	129,475	-0,275	-0,247
75,393	174,590	-0,221	-0,225
76,407	-102,585	-0,276	-0,046
77,422	304,541	-0,216	-0,283
78,436	-95,041	-0,315	0,059
79,451	68,796	-0,281	-0,203
80,466	73,499	-0,319	-0,234
81,480	119,671	-0,367	-0,320
82,495	86,701	-0,163	-0,126
83,509	-64,940	-0,337	-0,095
84,524	-24,417	-0,384	-0,160
85,539	-36,130	-0,304	-0,115
86,553	141,493	-0,245	-0,228
87,568	58,224	-0,242	-0,166
88,582	-112,843	-0,307	-0,042
89,597	-58,359	-0,304	-0,092
90,611	12,843	-0,193	-0,104
91,626	39,205	-0,262	-0,164
92,641	201,783	-0,251	-0,271
93,655	200,705	-0,273	-0,295
94,670	93,936	-0,322	-0,256
95,684	-27,498	-0,345	-0,140
96,699	-43,318	-0,211	-0,074
97,714	136,884	-0,256	-0,235
98,728	-81,981	-0,244	-0,055
99,743	36,306	-0,313	-0,193
100,757	19,876	-0,312	-0,176
101,772	323,279	-0,215	-0,288
102,787	25,455	-0,290	-0,169
103,801	109,689	-0,263	-0,221
104,816	-11,624	-0,331	-0,152
105,830	64,966	-0,248	-0,176
106,845	-77,182	-0,207	-0,050
107,860	65,931	-0,202	-0,144
108,874	153,294	-0,217	-0,208
109,889	558,087	-0,177	-0,300
110,903	4,419	-0,282	-0,144
111,918	126,573	-0,176	-0,156
112,933	184,035	-0,249	-0,258
113,947	-32,725	-0,385	-0,149
114,962	-47,047	-0,329	-0,112
115,976	83,458	-0,322	-0,245
116,991	62,675	-0,257	-0,180
118,006	57,460	-0,238	-0,163
119,020	125,640	-0,193	-0,171
120,035	40,289	-0,245	-0,154
121,049	51,736	-0,324	-0,215
122,064	418,411	-0,218	-0,327
123,079	33,005	-0,272	-0,164
124,093	47,714	-0,376	-0,245
125,108	285,307	-0,190	-0,241
126,122	222,472	-0,180	-0,203
127,137	519,036	-0,168	-0,276
128,151	149,878	-0,212	-0,202
129,166	41,150	-0,171	-0,108
130,181	104,070	-0,250	-0,206
131,195	-19,530	-0,416	-0,179
132,210	168,480	-0,280	-0,279
133,224	122,483	-0,265	-0,232
134,239	2,998	-0,262	-0,132
135,254	376,437	-0,172	-0,247
136,268	255,488	-0,180	-0,216
137,283	-37,071	-0,169	-0,063
138,297	-35,212	-0,335	-0,127
139,312	36,423	-0,406	-0,250
140,327	60,592	-0,298	-0,206
141,341	99,760	-0,208	-0,168
142,356	193,478	-0,125	-0,133
143,370	203,583	-0,190	-0,205
144,385	52,239	-0,250	-0,166
145,400	-21,423	-0,305	-0,130
146,414	131,402	-0,291	-0,261
147,429	113,053	-0,236	-0,199
148,443	205,309	-0,225	-0,245
149,458	173,202	-0,268	-0,270
150,473	45,126	-0,311	-0,200
151,487	-156,902	-0,292	0,012
152,502	-27,420	-0,330	-0,134
153,516	179,514	-0,160	-0,164
154,531	138,448	-0,273	-0,250
155,546	90,793	-0,267	-0,209
156,560	0,444	-0,291	-0,144
157,575	-68,353	-0,262	-0,071
158,589	-100,760	-0,187	-0,032
159,604	32,382	-0,324	-0,195
160,619	428,185	-0,215	-0,326
161,633	51,729	-0,277	-0,183
162,648	-0,040	-0,290	-0,143
163,662	22,203	-0,177	-0,100
164,677	-20,940	-0,353	-0,150
165,692	29,051	-0,212	-0,125
166,706	304,643	-0,300	-0,389
167,721	542,796	-0,174	-0,291
168,735	249,447	-0,232	-0,275
169,750	124,923	-0,237	-0,208
170,764	218,042	-0,166	-0,185
171,779	-51,107	-0,197	-0,064
172,794	800,000	-0,048	-0,134
173,808	800,000	-0,101	-0,230
174,823	9,573	-0,327	-0,172
175,837	136,938	-0,239	-0,217
176,852	243,432	-0,229	-0,268
177,867	95,004	-0,179	-0,142
178,881	800,000	-0,093	-0,191
179,896	-165,072	-0,225	-0,007
180,910	322,993	-0,113	-0,150
181,925	-9,974	-0,188	-0,087
182,940	74,847	-0,294	-0,215
183,954	558,017	-0,151	-0,254
184,969	-63,821	-0,210	-0,059
185,983	-185,911	-0,169	0,002
186,998	241,673	-0,127	-0,148
188,013	100,489	-0,191	-0,154
189,027	60,878	-0,218	-0,150
190,042	314,853	-0,186	-0,245
191,056	800,000	-0,107	-0,249
192,071	397,335	-0,135	-0,197
193,086	433,788	-0,118	-0,179
194,100	47,474	-0,216	-0,140
195,115	213,865	-0,154	-0,169
196,129	-40,352	-0,171	-0,061
197,144	456,199	-0,129	-0,200
198,159	10,823	-0,209	-0,111
199,173	86,655	-0,175	-0,134
200,188	136,329	-0,119	-0,108
201,202	192,429	-0,140	-0,147
202,217	-37,871	-0,131	-0,048
203,232	-58,602	-0,251	-0,075
204,246	-68,321	-0,236	-0,063
205,261	-55,808	-0,332	-0,103
206,275	49,177	-0,221	-0,144
207,290	800,000	-0,076	-0,202
208,304	348,630	-0,046	-0,063
209,319	286,860	-0,220	-0,276
210,334	-173,272	-0,301	0,006
211,348	-30,227	-0,197	-0,078
212,363	-14,741	-0,339	-0,151
213,377	149,117	-0,188	-0,177
214,392	730,856	-0,094	-0,176
215,407	-101,354	-0,177	0,030
216,421	-35,877	-0,190	-0,071
217,436	135,590	-0,221	-0,200
218,450	116,889	-0,240	-0,205
219,465	269,525	-0,164	-0,201
220,480	118,153	-0,218	-0,186
221,494	-123,531	-0,220	0,024
222,509	-98,573	-0,215	-0,038
223,523	-24,498	-0,195	-0,080
224,538	156,561	-0,190	-0,183
225,553	192,828	-0,197	-0,207
226,567	123,960	-0,241	-0,210
227,582	-74,941	-0,191	-0,047
228,596	800,000	-0,052	-0,124
229,611	47,552	-0,167	-0,108
230,626	-23,871	-0,111	-0,046
231,640	-179,160	-0,220	-0,003
232,655	26,543	-0,163	-0,094
233,669	42,914	-0,329	-0,207
234,684	800,000	-0,054	-0,127
235,699	691,730	-0,122	-0,222
236,713	168,500	-0,264	-0,260
237,728	-200,000	0,019	-0,169
238,742	263,827	-0,208	-0,251
239,757	455,194	-0,097	-0,149
240,772	28,437	-0,250	-0,146
241,786	514,874	-0,118	-0,192
242,801	-7,581	-0,154	-0,072
243,815	512,053	-0,110	-0,178
244,830	66,854	-0,120	-0,084
245,844	327,482	-0,100	-0,133
246,859	270,358	-0,176	-0,214
247,874	189,954	-0,247	-0,257
248,888	754,531	-0,070	-0,132
249,903	-11,180	-0,319	-0,145
250,917	-41,869	-0,176	-0,062
251,932	63,000	-0,132	-0,091
252,947	-129,054	-0,232	0,022
253,961	-34,255	-0,125	-0,047
254,976	-88,086	-0,270	-0,056
255,990	800,000	-0,077	-0,228
257,005	156,609	-0,138	-0,132
258,020	191,604	-0,172	-0,179
259,034	-134,316	-0,227	-0,019
260,049	8,289	-0,207	-0,107
261,063	21,486	-0,162	-0,091
262,078	82,984	-0,127	-0,096
263,093	-200,000	-0,026	-0,247
264,107	-156,463	-0,222	0,009
265,122	-104,106	-0,174	0,028
266,136	-200,000	-0,049	-0,167
267,151	-200,000	-0,049	-0,159
268,166	263,843	-0,176	-0,213
269,180	-200,000	-0,078	-0,253
270,195	639,107	-0,137	-0,242
271,209	124,142	-0,226	-0,196
272,224	10,653	0,103	-0,054
273,239	364,953	-0,088	-0,123
274,253	242,360	-0,192	-0,222
275,268	-158,754	-0,182	-0,007
276,282	20,230	-0,229	-0,128
277,297	800,000	-0,148	-0,347
278,312	800,000	-0,155	-0,303
279,326	800,000	-0,092	-0,239
280,341	-139,482	0,027	0,002
281,355	775,461	-0,113	-0,215
282,370	451,768	-0,112	-0,172
283,384	40,154	-0,230	-0,142
284,399	-42,151	-0,249	-0,088
285,414	553,355	-0,130	-0,216
286,428	67,246	-0,224	-0,158
287,443	374,394	-0,065	0,091
288,457	596,843	-0,144	-0,247
289,472	617,221	-0,078	-0,135
290,487	198,651	-0,145	-0,154
291,501	800,000	-0,047	-0,096
292,516	800,000	-0,094	-0,244
293,530	406,744	-0,127	-0,185
294,545	53,599	-0,124	-0,082
295,560	-151,982	-0,143	-0,007
296,574	14,232	-0,139	-0,075
297,589	-200,000	-0,020	-0,105
298,603	-93,525	-0,159	-0,030
299,618	-35,714	-0,186	-0,069
300,633	-27,768	-0,197	-0,078
301,647	61,533	-0,039	-0,026
302,662	-134,636	-0,082	0,007
303,676	2,426	-0,208	-0,103
304,691	166,212	-0,188	-0,184
305,706	-27,921	-0,092	0,036
306,720	162,798	-0,243	-0,235
307,735	116,973	-0,225	-0,190
308,749	-85,391	-0,125	-0,027
309,764	20,993	-0,204	-0,114
310,779	268,892	-0,139	-0,168
311,793	78,274	-0,155	-0,114
312,808	24,844	-0,247	-0,141
313,822	148,380	-0,170	-0,158
314,837	145,177	-0,109	-0,101
315,852	479,884	-0,097	-0,151
316,866	-125,796	-0,123	0,013
317,881	-59,986	-0,093	-0,027
318,895	-200,000	-0,017	-0,120
319,910	14,003	-0,186	-0,099
320,925	386,061	-0,123	-0,175
321,939	-60,307	-0,217	-0,063
322,954	237,123	-0,133	-0,152
323,968	-96,767	-0,101	0,018
324,983	75,591	-0,179	-0,130
325,997	213,200	-0,151	-0,164
327,012	-0,808	-0,160	-0,078
328,027	-200,000	-0,020	-0,145
329,041	204,596	-0,121	-0,129
330,056	27,202	-0,238	-0,137
331,070	414,428	-0,067	-0,099
332,085	121,984	-0,103	-0,089
333,100	20,556	-0,066	0,037
334,114	297,184	-0,136	-0,172
335,129	351,560	-0,065	-0,089
336,143	231,256	-0,160	-0,180
337,158	-200,000	-0,070	-0,212
338,173	62,673	-0,131	-0,090
339,187	162,620	-0,013	-0,013
340,202	-144,583	-0,058	-0,004
341,216	-46,869	-0,230	-0,077
342,231	800,000	-0,042	-0,092
343,246	364,257	-0,117	-0,162
344,260	38,130	-0,141	-0,086
345,275	-200,000	-0,024	-0,143
346,289	-60,538	-0,050	-0,015
347,304	88,706	-0,178	-0,135
348,319	72,260	-0,225	-0,161
349,333	-56,265	-0,222	-0,067
350,348	210,045	-0,207	-0,223
351,362	-200,000	0,022	-0,127
352,377	15,278	-0,069	-0,037
353,392	800,000	0,054	-0,107
354,406	-54,944	-0,112	-0,034
355,421	208,220	1315,109	1411,475
356,435	160,207	1475,884	1411,973
