DTS Sentinel unit serial number:	SN410029Multiplexer serial number:	ORYXHardware model number:	OX2-SRSoftware version number:	ORYX F/W v4,00 Oryx Data Collector v3.7.2.0data status	okinstallation	B3 Nyhavnadifferential loss correction	single-endedforward channel	channel 1reverse channel	N/Adate	2023/12/03time	06:57:30forward acquisition time	300,00reverse acquisition time	0,00gamma	499,1914k internal	0,3202k external	0,3202temperature offset calibration	1,0000default loss term (dB/km)	0,3820temperature slope calibration	1,0000multiplexer offset coefficient	1,0000multiplexer slope coefficient	1,0000fibre end	0,00T internal ref (°C)	13,30T ext. ref 1 (°C)	-1,77T ext. ref 2 (°C)	-1,78length (m)	temperature (°C)	Stokes	anti-Stokes-744,400	140,591	-0,178	-0,171
-743,385	-200,000	0,022	0,282
-742,371	233,488	-0,208	-0,250
-741,356	-200,000	-0,021	0,414
-740,342	106,163	-0,196	-0,169
-739,327	-200,000	0,047	0,288
-738,312	207,273	-0,255	-0,290
-737,298	737,524	-0,138	0,270
-736,283	153,119	-0,281	-0,280
-735,269	800,000	0,102	0,247
-734,254	651,589	-0,182	-0,341
-733,239	146,624	-0,215	0,210
-732,225	800,000	-0,133	-0,368
-731,210	-200,000	-0,021	0,093
-730,196	-200,000	-0,003	-0,131
-729,181	667,558	0,055	-0,104
-728,167	800,000	-0,104	-0,210
-727,152	15,652	-0,203	0,116
-726,137	191,123	-0,084	-0,091
-725,123	-78,341	0,106	0,026
-724,108	-138,223	-0,102	-0,008
-723,094	111,179	0,080	-0,070
-722,079	-200,000	-0,018	-0,094
-721,064	-128,113	0,029	0,003
-720,050	-103,590	-0,066	-0,011
-719,035	-200,000	0,047	0,195
-718,021	546,810	-0,016	-0,027
-717,006	-200,000	-0,003	0,046
-715,991	-112,242	-0,132	-0,019
-714,977	800,000	-0,029	-0,068
-713,962	797,351	-0,045	-0,090
-712,948	340,351	-0,064	-0,091
-711,933	75,230	0,075	0,057
-710,918	275,517	-0,070	0,090
-709,904	-11,385	0,016	0,008
-708,889	-200,000	0,028	-0,103
-707,875	-200,000	0,020	0,102
-706,860	-200,000	-0,016	-0,156
-705,845	-169,248	0,235	0,006
-704,831	395,163	-0,034	0,052
-703,816	556,874	0,060	-0,106
-702,802	-200,000	-0,005	-0,050
-701,787	668,350	0,026	-0,049
-700,772	800,000	-0,039	-0,085
-699,758	41,635	-0,123	0,081
-698,743	32,025	0,122	-0,076
-697,729	-189,269	0,145	0,001
-696,714	92,358	-0,074	0,061
-695,699	80,117	0,038	-0,030
-694,685	-41,055	-0,074	-0,027
-693,670	502,816	-0,093	-0,157
-692,656	-36,289	-0,064	-0,025
-691,641	-12,631	0,076	-0,036
-690,627	-12,103	-0,027	0,013
-689,612	-200,000	-0,004	-0,058
-688,597	-35,959	-0,139	-0,054
-687,583	-200,000	0,006	-0,093
-686,568	-200,000	0,010	-0,203
-685,554	209,094	0,112	-0,128
-684,539	251,359	-0,063	-0,078
-683,524	258,543	0,062	0,078
-682,510	-59,958	-0,099	0,031
-681,495	712,879	0,056	0,108
-680,481	1,824	-0,088	-0,046
-679,466	800,000	-0,023	0,061
-678,451	800,000	-0,008	0,020
-677,437	-200,000	-0,004	0,072
-676,422	518,408	-0,089	0,152
-675,408	567,753	0,025	0,044
-674,393	138,841	-0,104	-0,099
-673,378	-200,000	-0,028	-0,093
-672,364	-128,564	-0,092	0,009
-671,349	60,945	-0,113	-0,081
-670,335	-189,325	0,066	-0,001
-669,320	87,501	0,038	-0,031
-668,305	279,469	-0,122	-0,159
-667,291	7,649	0,100	0,054
-666,276	182,587	-0,104	-0,111
-665,262	210,465	0,105	-0,120
-664,247	-200,000	0,049	-0,172
-663,232	-132,358	-0,199	0,018
-662,218	50,604	0,062	0,042
-661,203	-200,000	-0,008	-0,028
-660,189	-200,000	-0,014	0,047
-659,174	135,550	0,009	-0,009
-658,159	124,692	-0,117	-0,107
-657,145	61,426	-0,052	-0,037
-656,130	800,000	-0,037	0,089
-655,116	-39,978	-0,054	0,020
-654,101	-76,214	-0,038	-0,010
-653,086	75,624	0,052	0,040
-652,072	-120,214	-0,061	0,007
-651,057	48,946	-0,059	-0,040
-650,043	524,915	0,075	-0,128
-649,028	73,927	0,034	-0,025
-648,014	24,988	-0,016	0,010
-646,999	-130,742	0,087	-0,008
-645,984	-164,358	-0,183	-0,006
-644,970	-200,000	-0,009	-0,092
-643,955	-200,000	-0,016	-0,127
-642,941	662,534	-0,044	-0,082
-641,926	-200,000	-0,009	-0,232
-640,911	9,880	0,108	0,059
-639,897	667,253	0,097	0,183
-638,882	-105,195	-0,091	0,015
-637,868	-19,607	-0,159	0,071
-636,853	-200,000	-0,025	-0,084
-635,838	-96,468	-0,124	0,023
-634,824	494,478	-0,062	-0,103
-633,809	377,642	-0,014	0,021
-632,795	-13,772	0,069	-0,032
-631,780	800,000	0,044	0,116
-630,765	-200,000	-0,008	-0,054
-629,751	59,689	0,055	0,039
-628,736	-91,673	-0,013	-0,003
-627,722	200,790	-0,004	-0,004
-626,707	58,468	-0,133	0,094
-625,692	207,312	0,069	-0,078
-624,678	138,705	0,101	-0,096
-623,663	800,000	0,013	0,034
-622,649	17,568	-0,144	0,083
-621,634	318,419	0,035	-0,048
-620,619	263,800	-0,041	-0,052
-619,605	-82,826	-0,081	-0,019
-618,590	-200,000	0,023	0,104
-617,576	341,146	0,041	-0,058
-616,561	-200,000	-0,080	0,000
-615,546	17,906	-0,140	0,081
-614,532	-200,000	-0,038	-0,121
-613,517	-129,530	0,108	0,011
-612,503	800,000	-0,006	-0,013
-611,488	466,433	-0,051	-0,083
-610,474	28,865	0,066	0,040
-609,459	273,640	-0,025	0,032
-608,444	-200,000	0,025	-0,108
-607,430	25,719	-0,077	0,046
-606,415	800,000	0,022	0,046
-605,401	49,832	-0,031	0,021
-604,386	7,255	0,084	0,045
-603,371	-200,000	0,003	0,095
-602,357	90,973	0,073	0,059
-601,342	-86,134	0,081	0,018
-600,328	363,761	-0,110	-0,161
-599,313	-200,000	0,001	-0,142
-598,298	-200,000	0,001	-0,043
-597,284	-51,824	-0,056	-0,019
-596,269	86,274	-0,021	-0,017
-595,255	141,616	0,061	-0,058
-594,240	106,533	0,046	-0,039
-593,225	-155,153	0,144	-0,007
-592,211	-98,365	-0,027	-0,005
-591,196	-31,719	-0,093	0,038
-590,182	419,389	0,035	-0,054
-589,167	-5,588	0,080	0,040
-588,152	-43,243	-0,140	-0,051
-587,138	-31,232	0,086	-0,035
-586,123	-200,000	0,031	-0,127
-585,109	-72,867	-0,163	-0,043
-584,094	-200,000	-0,018	-0,185
-583,079	-113,524	0,214	0,030
-582,065	-200,000	0,017	0,187
-581,050	23,161	-0,104	0,061
-580,036	-38,413	0,086	-0,033
-579,021	-89,308	-0,130	-0,028
-578,006	-1,852	-0,074	0,037
-576,992	800,000	-0,058	-0,138
-575,977	211,034	-0,012	-0,014
-574,963	302,964	0,074	0,100
-573,948	-64,289	-0,058	0,017
-572,934	54,601	-0,129	-0,090
-571,919	62,493	-0,075	-0,054
-570,904	-200,000	-0,003	-0,252
-569,890	19,842	-0,038	0,022
-568,875	-200,000	0,041	-0,000
-567,861	800,000	0,012	0,030
-566,846	-121,314	-0,066	0,008
-565,831	-200,000	-0,100	0,000
-564,817	701,798	0,012	-0,024
-563,802	-103,975	-0,050	-0,008
-562,788	-153,189	0,137	0,007
-561,773	-200,000	-0,027	0,103
-560,758	-72,804	0,140	-0,037
-559,744	-87,325	0,204	0,044
-558,729	51,581	-0,096	-0,066
-557,715	-135,450	0,046	0,004
-556,700	-200,000	-0,011	0,084
-555,685	-50,096	-0,097	-0,033
-554,671	-126,346	0,100	-0,011
-553,656	-200,000	-0,009	0,034
-552,642	-171,458	0,018	0,000
-551,627	-81,147	-0,092	-0,022
-550,612	-200,000	-0,005	0,195
-549,598	-200,000	-0,004	0,062
-548,583	-200,000	0,010	0,085
-547,569	-191,809	-0,066	0,000
-546,554	309,628	0,070	0,094
-545,539	136,903	-0,028	-0,026
-544,525	191,892	-0,059	0,064
-543,510	167,543	-0,110	0,113
-542,496	-93,194	0,059	0,012
-541,481	78,784	0,105	-0,081
-540,466	-64,795	0,097	0,028
-539,452	800,000	-0,013	-0,030
-538,437	-64,482	-0,060	-0,017
-537,423	-87,000	-0,076	0,017
-536,408	-168,749	0,085	0,002
-535,393	726,488	-0,044	0,086
-534,379	46,427	0,059	-0,039
-533,364	176,453	0,082	-0,086
-532,350	-3,588	0,111	-0,056
-531,335	291,844	0,049	0,065
-530,321	-200,000	0,013	0,077
-529,306	68,647	-0,018	0,014
-528,291	470,665	-0,009	0,014
-527,277	-200,000	-0,010	-0,147
-526,262	-200,000	0,000	-0,139
-525,248	-200,000	-0,028	0,137
-524,233	-200,000	-0,034	0,144
-523,218	-110,556	0,120	-0,018
-522,204	-200,000	-0,015	0,084
-521,189	71,939	0,052	-0,039
-520,175	800,000	-0,056	-0,163
-519,160	149,386	0,025	0,024
-518,145	-3,309	0,061	-0,031
-517,131	800,000	0,053	0,128
-516,116	4,261	0,041	0,022
-515,102	-200,000	-0,004	0,057
-514,087	-200,000	0,016	0,098
-513,072	172,661	-0,013	0,014
-512,058	-77,802	-0,027	-0,007
-511,043	132,318	0,039	-0,036
-510,029	181,258	-0,084	-0,089
-509,014	-200,000	-0,025	-0,081
-507,999	-200,000	0,022	-0,141
-506,985	18,773	-0,102	0,059
-505,970	-200,000	-0,006	0,081
-504,956	16,930	0,058	-0,033
-503,941	206,015	0,081	-0,091
-502,926	-82,225	0,091	0,021
-501,912	-84,064	0,067	-0,015
-500,897	800,000	-0,033	0,099
-499,883	-130,931	-0,180	0,017
-498,868	-153,674	-0,068	-0,003
-497,853	-200,000	0,000	-0,036
-496,839	800,000	-0,043	-0,117
-495,824	800,000	0,010	0,025
-494,810	75,624	0,120	0,091
-493,795	-200,000	0,014	-0,102
-492,781	-84,042	0,028	0,006
-491,766	54,041	-0,091	-0,063
-490,751	53,304	-0,089	-0,062
-489,737	695,068	-0,079	0,151
-488,722	-62,625	0,130	0,039
-487,708	154,453	0,038	0,037
-486,693	214,300	-0,101	0,116
-485,678	-200,000	0,021	0,134
-484,664	-121,373	-0,028	0,003
-483,649	425,083	-0,051	-0,079
-482,635	237,296	0,060	0,071
-481,620	49,486	0,034	0,023
-480,605	800,000	-0,008	-0,021
-479,591	800,000	-0,012	-0,028
-478,576	-200,000	0,010	-0,066
-477,562	-200,000	0,000	-0,045
-476,547	569,970	0,018	-0,032
-475,532	800,000	-0,059	0,152
-474,518	170,078	0,008	-0,008
-473,503	-4,847	-0,029	-0,014
-472,489	-127,746	-0,142	0,015
-471,474	-200,000	0,006	-0,173
-470,459	-200,000	-0,036	-0,165
-469,445	-200,000	-0,009	-0,188
-468,430	-200,000	-0,016	-0,156
-467,416	19,501	-0,100	-0,058
-466,401	-59,149	0,081	-0,025
-465,386	319,289	-0,058	-0,079
-464,372	413,093	-0,093	-0,143
-463,357	800,000	-0,038	-0,110
-462,343	-5,818	0,041	-0,020
-461,328	-200,000	0,001	-0,055
-460,313	-126,957	0,105	-0,011
-459,299	800,000	0,022	-0,056
-458,284	800,000	0,047	0,119
-457,270	-82,791	0,135	-0,031
-456,255	1,106	-0,027	-0,014
-455,241	-37,746	0,117	-0,045
-454,226	48,245	-0,107	0,072
-453,211	-72,793	0,134	-0,035
-452,197	-96,803	-0,016	0,003
-451,182	150,056	0,052	-0,051
-450,168	282,905	-0,013	-0,017
-449,153	-200,000	0,012	0,078
-448,138	15,905	-0,140	0,079
-447,124	-200,000	-0,003	-0,085
-446,109	101,478	0,077	0,064
-445,095	800,000	0,025	0,054
-444,080	35,615	0,103	-0,065
-443,065	-112,594	0,127	-0,018
-442,051	436,369	0,029	0,046
-441,036	-200,000	0,005	-0,127
-440,022	80,235	-0,091	-0,070
-439,007	-115,032	0,091	0,012
-437,992	-56,894	0,096	0,030
-436,978	800,000	0,059	-0,142
-435,963	632,577	0,041	0,075
-434,949	-86,119	0,054	-0,012
-433,934	266,318	0,049	-0,061
-432,919	-59,565	0,091	0,028
-431,905	-40,804	-0,073	-0,027
-430,890	38,714	0,146	0,094
-429,876	56,691	-0,114	0,080
-428,861	-200,000	0,008	0,040
-427,846	1,211	0,084	0,043
-426,832	-95,488	-0,064	-0,012
-425,817	800,000	0,035	0,083
-424,803	800,000	-0,027	-0,072
-423,788	18,674	0,120	0,069
-422,773	-52,303	-0,064	0,021
-421,759	78,679	-0,023	0,018
-420,744	800,000	0,020	0,057
-419,730	-200,000	-0,008	-0,025
-418,715	117,699	-0,046	0,041
-417,701	800,000	-0,050	0,136
-416,686	-35,016	-0,048	-0,019
-415,671	428,905	0,072	0,112
-414,657	54,899	0,059	0,040
-413,642	-200,000	-0,003	0,066
-412,628	160,755	-0,029	-0,029
-411,613	-34,756	-0,120	-0,047
-410,598	-200,000	0,014	0,108
-409,584	14,053	0,072	0,040
-408,569	800,000	0,025	-0,070
-407,555	50,899	0,136	0,092
-406,540	-76,000	0,055	0,014
-405,525	800,000	-0,010	-0,028
-404,511	0,486	0,102	0,052
-403,496	167,231	-0,086	0,088
-402,482	-200,000	0,024	0,163
-401,467	-200,000	0,042	0,147
-400,452	50,474	0,043	-0,029
-399,438	-69,218	0,047	0,013
-398,423	-71,525	-0,040	0,011
-397,409	-200,000	0,014	-0,132
-396,394	18,042	0,108	-0,061
-395,379	16,856	0,023	0,013
-394,365	800,000	0,021	-0,063
-393,350	-200,000	0,005	-0,041
-392,336	66,058	-0,071	0,051
-391,321	333,290	0,058	-0,081
-390,306	-200,000	-0,008	-0,146
-389,292	212,388	0,084	-0,095
-388,277	127,856	-0,029	0,026
-387,263	197,754	-0,107	-0,118
-386,248	-149,707	0,092	-0,005
-385,233	-147,310	-0,055	-0,003
-384,219	379,896	0,047	0,069
-383,204	37,025	0,020	0,013
-382,190	94,200	-0,085	-0,069
-381,175	800,000	0,060	0,155
-380,160	-200,000	0,002	-0,012
-379,146	118,127	0,038	0,034
-378,131	-200,000	-0,042	0,166
-377,117	77,215	-0,061	0,046
-376,102	91,390	-0,130	0,105
-375,088	-153,428	-0,155	0,008
-374,073	-200,000	0,001	0,046
-373,058	83,161	-0,046	-0,036
-372,044	-200,000	-0,025	0,082
-371,029	-200,000	0,041	0,135
-370,015	-200,000	-0,002	-0,155
-369,000	76,195	-0,047	-0,035
-367,985	290,800	-0,067	-0,088
-366,971	164,961	-0,129	0,130
-365,956	-200,000	0,008	-0,074
-364,942	-200,000	0,006	-0,035
-363,927	-84,358	-0,020	-0,005
-362,912	143,647	-0,058	0,055
-361,898	-200,000	-0,040	-0,146
-360,883	12,184	-0,022	0,012
-359,869	-200,000	0,019	-0,227
-358,854	508,565	0,059	-0,099
-357,839	-137,067	0,086	0,007
-356,825	360,734	0,065	0,093
-355,810	210,578	-0,033	-0,037
-354,796	36,685	-0,089	-0,056
-353,781	1,768	-0,123	-0,063
-352,766	174,985	-0,064	-0,066
-351,752	-200,000	-0,001	0,177
-350,737	-98,604	0,141	0,026
-349,723	13,302	0,066	-0,037
-348,708	380,733	0,067	-0,099
-347,693	800,000	0,043	0,097
-346,679	-200,000	0,013	-0,056
-345,664	638,350	0,073	0,134
-344,650	373,665	-0,091	-0,133
-343,635	78,072	-0,026	-0,020
-342,620	433,947	0,039	0,061
-341,606	800,000	0,028	0,083
-340,591	-200,000	0,006	-0,067
-339,577	-83,441	-0,090	-0,020
-338,562	-200,000	0,015	-0,072
-337,548	-200,000	0,004	-0,057
-336,533	138,264	-0,061	-0,058
-335,518	-129,417	0,108	0,011
-334,504	-131,411	0,096	0,009
-333,489	52,720	-0,084	-0,057
-332,475	-7,792	0,073	-0,035
-331,460	800,000	0,055	0,113
-330,445	-100,929	-0,115	-0,020
-329,431	-129,705	0,172	-0,017
-328,416	217,434	0,110	0,126
-327,402	417,391	-0,031	0,047
-326,387	86,696	-0,066	0,052
-325,372	800,000	-0,044	0,117
-324,358	84,634	0,038	-0,029
-323,343	-200,000	0,003	-0,049
-322,329	141,000	0,016	-0,015
-321,314	363,694	0,022	0,031
-320,299	-200,000	0,021	0,091
-319,285	-70,866	-0,066	-0,018
-318,270	-200,000	0,015	0,073
-317,256	-17,561	-0,144	-0,064
-316,241	18,606	-0,172	-0,098
-315,226	-200,000	0,000	0,123
-314,212	42,326	0,043	0,028
-313,197	800,000	-0,026	0,062
-312,183	524,249	-0,019	-0,032
-311,168	32,105	-0,048	-0,029
-310,153	-185,446	0,165	0,002
-309,139	581,650	0,027	-0,048
-308,124	-173,469	0,052	0,001
-307,110	99,682	-0,108	0,090
-306,095	800,000	0,071	0,196
-305,080	489,688	-0,022	0,035
-304,066	-200,000	-0,008	0,069
-303,051	-200,000	-0,024	-0,100
-302,037	87,382	0,065	0,051
-301,022	-200,000	0,020	0,090
-300,008	-84,684	-0,158	0,035
-298,993	-200,000	0,002	0,038
-297,978	27,345	0,120	0,072
-296,964	624,857	-0,027	-0,049
-295,949	79,977	-0,133	-0,102
-294,935	800,000	-0,014	-0,028
-293,920	-166,365	0,016	0,000
-292,905	-200,000	0,013	0,042
-291,891	278,204	0,126	0,160
-290,876	206,997	-0,102	0,113
-289,862	-116,942	0,027	0,003
-288,847	800,000	-0,059	-0,142
-287,832	389,769	-0,029	-0,042
-286,818	-183,178	0,133	-0,002
-285,803	-200,000	-0,005	-0,029
-284,789	-200,000	-0,021	0,097
-283,774	25,872	0,049	-0,029
-282,759	-122,706	-0,158	0,018
-281,745	-200,000	0,016	-0,081
-280,730	-200,000	0,001	-0,118
-279,716	-200,000	0,001	0,006
-278,701	-120,012	0,055	-0,007
-277,686	71,311	-0,094	0,070
-276,672	-200,000	0,019	0,154
-275,657	47,283	0,048	-0,032
-274,643	502,611	-0,020	0,033
-273,628	84,101	-0,117	-0,091
-272,613	-6,771	-0,074	-0,036
-271,599	-200,000	-0,016	0,132
-270,584	-200,000	0,046	0,187
-269,570	73,637	-0,011	-0,009
-268,555	468,984	0,020	-0,032
-267,540	-200,000	0,014	-0,056
-266,526	138,151	-0,046	-0,043
-265,511	800,000	0,023	-0,050
-264,497	38,126	0,117	0,074
-263,482	35,017	0,109	0,068
-262,467	315,690	-0,012	0,017
-261,453	59,356	-0,071	-0,050
-260,438	177,215	-0,048	-0,050
-259,424	50,868	0,075	-0,050
-258,409	-9,204	-0,075	-0,035
-257,395	400,347	0,040	-0,060
-256,380	37,573	0,030	-0,019
-255,365	35,315	0,138	0,086
-254,351	97,272	-0,108	0,088
-253,336	-62,896	0,055	0,016
-252,322	-85,201	-0,065	-0,014
-251,307	800,000	-0,025	-0,057
-250,292	-200,000	0,002	-0,051
-249,278	-48,284	-0,009	0,003
-248,263	160,320	0,067	0,067
-247,249	-42,588	-0,135	0,049
-246,234	-76,586	0,074	-0,018
-245,219	-51,694	-0,128	-0,042
-244,205	-200,000	-0,046	-0,178
-243,190	129,758	-0,044	-0,040
-242,176	-90,176	-0,077	-0,016
-241,161	403,245	-0,046	-0,069
-240,146	75,828	0,102	0,077
-239,132	-122,844	-0,045	0,005
-238,117	3,055	-0,111	-0,057
-237,103	-200,000	0,004	0,017
-236,088	-61,807	-0,066	0,020
-235,073	-200,000	0,031	-0,108
-234,059	800,000	-0,009	-0,025
-233,044	255,253	-0,028	-0,034
-232,030	387,520	0,103	0,152
-231,015	800,000	-0,025	0,074
-230,000	-70,083	-0,069	0,019
-228,986	223,099	0,092	-0,106
-227,971	525,473	-0,050	0,084
-226,957	216,509	0,054	0,061
-225,942	-56,360	-0,080	0,025
-224,927	517,567	-0,043	-0,073
-223,913	154,746	0,041	-0,040
-222,898	306,268	-0,064	-0,086
-221,884	800,000	-0,011	0,022
-220,869	-117,691	0,121	0,015
-219,855	-200,000	-0,005	-0,078
-218,840	146,292	-0,059	-0,057
-217,825	44,970	-0,031	-0,021
-216,811	-101,960	-0,049	0,008
-215,796	-200,000	0,006	-0,092
-214,782	185,683	0,043	0,045
-213,767	-200,000	-0,011	0,064
-212,752	-40,648	-0,109	0,040
-211,738	800,000	0,036	-0,071
-210,723	79,736	-0,104	0,080
-209,709	-200,000	0,002	-0,146
-208,694	-7,631	-0,114	-0,055
-207,679	-58,829	0,017	0,005
-206,665	-5,418	0,051	-0,025
-205,650	800,000	0,045	0,108
-204,636	98,301	0,075	0,061
-203,621	455,854	-0,062	0,098
-202,606	-200,000	-0,004	-0,097
-201,592	800,000	0,039	0,111
-200,577	800,000	-0,016	0,050
-199,563	-15,641	0,064	-0,029
-198,548	-159,291	0,066	-0,003
-197,533	13,621	0,209	0,115
-196,519	381,048	0,073	-0,107
-195,504	800,000	-0,049	-0,133
-194,490	800,000	-0,014	0,034
-193,475	-200,000	0,013	-0,110
-192,460	-31,462	0,077	0,030
-191,446	-142,619	0,066	-0,005
-190,431	-87,387	0,101	0,022
-189,417	370,802	-0,042	0,061
-188,402	494,141	-0,027	0,044
-187,387	-22,854	0,043	0,018
-186,373	-200,000	0,001	-0,094
-185,358	-110,671	-0,026	-0,004
-184,344	-16,402	0,026	0,012
-183,329	262,473	0,123	0,152
-182,315	255,219	0,022	0,027
-181,300	70,362	-0,085	-0,063
-180,285	-200,000	0,000	0,056
-179,271	87,021	-0,129	-0,102
-178,256	-200,000	0,008	-0,087
-177,242	-5,465	-0,106	0,052
-176,227	-135,637	0,140	-0,012
-175,212	152,627	0,124	0,120
-174,198	198,599	0,048	0,052
-173,183	137,875	-0,088	-0,082
-172,169	-73,890	-0,053	0,014
-171,154	59,501	-0,152	0,106
-170,139	-7,363	-0,038	0,018
-169,125	-33,872	-0,034	-0,013
-168,110	242,129	0,059	-0,071
-167,096	-119,389	-0,082	-0,010
-166,081	87,899	-0,013	0,010
-165,066	-132,986	0,086	-0,008
-164,052	293,520	-0,041	0,053
-163,037	48,994	0,108	0,072
-162,023	439,682	0,088	0,137
-161,008	727,028	0,126	0,240
-159,993	203,195	0,043	-0,048
-158,979	-21,070	-0,124	-0,054
-157,964	-200,000	-0,003	-0,043
-156,950	353,879	0,098	-0,138
-155,935	-81,618	-0,069	-0,016
-154,920	-196,254	0,025	-0,000
-153,906	633,348	-0,066	0,119
-152,891	422,646	-0,068	0,104
-151,877	18,260	-0,031	-0,017
-150,862	768,074	-0,049	-0,096
-149,847	340,526	0,084	-0,116
-148,833	-200,000	-0,017	-0,125
-147,818	800,000	-0,025	-0,064
-146,804	-90,618	0,023	0,005
-145,789	103,552	0,078	-0,065
-144,775	-200,000	0,018	-0,069
-143,760	168,364	-0,111	0,112
-142,745	752,435	0,065	-0,124
-141,731	800,000	0,003	-0,010
-140,716	-200,000	-0,020	0,068
-139,702	-200,000	-0,000	0,126
-138,687	284,254	-0,058	-0,075
-137,672	-155,692	0,085	0,004
-136,658	-81,422	-0,063	-0,015
-135,643	-130,799	-0,182	-0,017
-134,629	-30,029	0,124	-0,050
-133,614	102,213	0,163	0,135
-132,599	-181,888	-0,173	-0,002
-131,585	-30,631	0,120	0,048
-130,570	-200,000	-0,009	-0,029
-129,556	-200,000	0,053	0,171
-128,541	-80,873	-0,031	0,007
-127,526	-173,144	0,105	-0,002
-126,512	101,388	0,040	0,033
-125,497	163,556	0,045	0,045
-124,483	704,307	0,049	-0,092
-123,468	283,316	0,083	0,106
-122,453	800,000	0,054	-0,120
-121,439	244,877	0,068	-0,081
-120,424	800,000	-0,109	-0,235
-119,410	217,364	0,039	-0,044
-118,395	586,581	-0,032	0,056
-117,380	-200,000	0,003	-0,042
-116,366	83,654	0,069	0,053
-115,351	224,366	-0,021	-0,024
-114,337	-65,867	-0,081	0,023
-113,322	228,829	-0,026	-0,030
-112,307	88,200	0,091	0,072
-111,293	13,029	0,103	-0,056
-110,278	150,948	-0,094	-0,091
-109,264	-200,000	0,007	-0,129
-108,249	-200,000	0,031	-0,150
-107,234	156,076	-0,070	-0,068
-106,220	75,685	-0,068	-0,051
-105,205	74,843	0,039	0,029
-104,191	-200,000	0,014	0,091
-103,176	603,748	-0,090	0,160
-102,162	800,000	-0,028	0,086
-101,147	513,340	0,042	0,069
-100,132	136,139	-0,157	0,145
-99,118	-168,624	0,032	-0,001
-98,103	266,028	0,042	0,052
-97,089	-77,848	-0,120	-0,029
-96,074	-200,000	-0,023	0,121
-95,059	164,869	0,050	0,050
-94,045	800,000	-0,026	-0,054
-93,030	-200,000	-0,030	0,120
-92,016	-200,000	0,058	-0,221
-91,001	-69,577	0,125	0,034
-89,986	23,135	0,057	0,033
-88,972	-200,000	0,020	0,107
-87,957	-200,000	-0,010	0,056
-86,943	-142,102	0,154	0,011
-85,928	800,000	-0,034	-0,106
-84,913	-21,887	-0,116	-0,050
-83,899	110,839	-0,035	-0,029
-82,884	-200,000	0,009	0,111
-81,870	800,000	-0,043	0,089
-80,855	-88,482	0,114	0,024
-79,840	-199,721	-0,090	0,000
-78,826	-38,769	0,112	-0,042
-77,811	-2,215	-0,030	0,015
-76,797	344,053	-0,080	-0,111
-75,782	-69,658	0,122	0,033
-74,767	64,773	-0,030	0,021
-73,753	-200,000	0,069	0,000
-72,738	-64,958	0,040	0,011
-71,724	239,781	0,021	-0,025
-70,709	-200,000	-0,043	-0,155
-69,694	172,032	-0,136	-0,138
-68,680	-107,411	0,036	-0,006
-67,665	342,602	0,105	-0,146
-66,651	329,533	0,052	0,070
-65,636	449,389	0,028	-0,043
-64,622	-49,472	-0,109	-0,037
-63,607	-200,000	-0,018	-0,060
-62,592	75,392	-0,040	-0,030
-61,578	176,456	0,105	0,108
-60,563	41,798	-0,067	-0,043
-59,549	-46,026	-0,076	-0,026
-58,534	-2,486	-1,623	-0,802
-57,519	466,390	-1,267	-2,017
-56,505	-200,000	-0,583	-4,545
-55,490	203,689	0,960	1,053
-54,476	800,000	5,012	11,469
-53,461	-200,000	19,229	321,001
-52,446	-200,000	740,900	2335,731
-51,432	573,226	1656,315	2869,633
-50,417	78,256	1671,918	1262,086
-49,403	21,302	1544,838	885,947
-48,388	15,181	1467,020	811,545
-47,373	18,073	1457,160	820,041
-46,359	16,732	1447,108	807,919
-45,344	13,435	1442,492	789,514
-44,330	13,340	1440,692	788,039
-43,315	13,351	1438,782	787,015
-42,300	13,373	1436,877	786,049
-41,286	13,367	1435,979	785,496
-40,271	13,359	1434,554	784,651
-39,257	13,329	1433,076	783,668
-38,242	13,393	1431,878	783,285
-37,227	13,387	1430,678	782,570
-36,213	13,404	1429,454	781,948
-35,198	13,417	1428,178	781,283
-34,184	13,413	1427,411	780,810
-33,169	13,380	1425,939	779,820
-32,154	13,405	1424,927	779,353
-31,140	13,441	1423,519	778,722
-30,125	13,442	1422,630	778,209
-29,111	13,438	1421,166	777,362
-28,096	13,432	1420,231	776,790
-27,082	13,367	1419,278	775,931
-26,067	13,348	1418,204	775,222
-25,052	13,321	1416,994	774,405
-24,038	13,322	1416,036	773,853
-23,023	13,331	1415,004	773,302
-22,009	13,321	1414,133	772,749
-20,994	13,268	1413,206	771,961
-19,979	13,275	1412,416	771,530
-18,965	13,256	1411,468	770,894
-17,950	13,270	1410,407	770,349
-16,936	13,242	1409,597	769,746
-15,921	13,251	1408,278	769,038
-14,906	13,251	1407,511	768,589
-13,892	13,264	1406,665	768,157
-12,877	13,203	1405,826	767,382
-11,863	13,215	1404,726	766,806
-10,848	13,212	1403,815	766,264
-9,833	13,208	1402,990	765,768
-8,819	13,117	1402,252	764,909
-7,804	13,162	1401,311	764,574
-6,790	13,174	1400,216	764,004
-5,775	13,184	1398,973	763,339
-4,760	13,157	1398,134	762,728
-3,746	13,159	1397,213	762,204
-2,731	13,158	1396,518	761,790
-1,717	13,110	1395,717	761,103
-0,702	13,109	1393,771	760,005
0,313	16,999	1310,566	732,644
1,327	33,237	704,027	431,106
2,342	51,101	123,394	82,648
3,356	3,165	16,590	8,507
4,371	-10,564	3,249	1,516
5,386	5,287	0,598	0,311
6,400	-200,000	-0,008	0,330
7,415	-33,126	-0,256	-0,100
8,429	80,880	-0,245	-0,186
9,444	-96,469	-0,363	-0,067
10,459	-24,475	-0,439	-0,184
11,473	256,241	-0,284	-0,345
12,488	-8,666	-0,308	-0,146
13,502	11,073	-0,348	-0,187
14,517	128,007	-0,209	-0,188
15,531	138,235	-0,388	-0,359
16,546	136,439	-0,268	-0,247
17,561	409,034	-0,254	-0,382
18,575	-28,980	-0,245	-0,099
19,590	475,640	-0,179	-0,287
20,604	432,818	-0,145	-0,223
21,619	147,821	-0,370	-0,352
22,634	10,537	-0,356	-0,191
23,648	152,425	-0,447	-0,431
24,663	158,587	-0,335	-0,328
25,677	3,699	-0,381	-0,196
26,692	-116,947	-0,342	-0,044
27,707	26,108	-0,340	-0,200
28,721	87,919	-0,331	-0,259
29,736	26,980	-0,491	-0,290
30,750	24,383	-0,371	-0,216
31,765	167,820	-0,375	-0,377
32,780	282,833	-0,329	-0,417
33,794	-23,108	-0,343	-0,145
34,809	28,810	-0,339	-0,202
35,823	-6,421	-0,446	-0,214
36,838	218,003	-0,358	-0,403
37,853	519,285	-0,238	-0,395
38,867	203,215	-0,321	-0,350
39,882	32,814	-0,345	-0,210
40,896	327,778	-0,258	-0,349
41,911	112,873	-0,293	-0,250
42,926	110,064	-0,377	-0,319
43,940	94,762	-0,312	-0,250
44,955	-7,113	-0,447	-0,213
45,969	-28,790	-0,410	-0,165
46,984	111,787	-0,270	-0,229
47,999	377,739	-0,248	-0,359
49,013	-72,104	-0,356	-0,092
50,028	18,470	-0,299	-0,168
51,042	-6,820	-0,317	-0,151
52,057	-43,899	-0,475	-0,167
53,071	353,805	-0,256	-0,359
54,086	18,172	-0,363	-0,203
55,101	120,713	-0,277	-0,242
56,115	34,428	-0,366	-0,224
57,130	-63,553	-0,454	-0,130
58,144	242,398	-0,205	-0,242
59,159	-23,666	-0,559	-0,235
60,174	204,715	-0,299	-0,327
61,188	797,121	-0,141	-0,275
62,203	158,067	-0,158	-0,154
63,217	59,469	-0,381	-0,264
64,232	184,295	-0,273	-0,285
65,247	83,590	-0,316	-0,242
66,261	116,742	-0,336	-0,290
67,276	-36,715	-0,467	-0,175
68,290	258,782	-0,271	-0,330
69,305	94,241	-0,185	-0,148
70,320	-51,018	-0,361	-0,119
71,334	-66,148	-0,371	-0,103
72,349	57,079	-0,253	-0,173
73,363	59,808	-0,414	-0,287
74,378	13,883	-0,400	-0,218
75,393	89,757	-0,375	-0,294
76,407	26,688	-0,306	-0,180
77,422	122,198	-0,255	-0,224
78,436	-0,431	-0,255	-0,127
79,451	-58,064	-0,281	-0,086
80,466	67,954	-0,357	-0,256
81,480	41,459	-0,289	-0,183
82,495	6,510	-0,357	-0,186
83,509	3,243	-0,329	-0,167
84,524	80,105	-0,202	-0,152
85,539	-12,553	-0,320	-0,146
86,553	27,795	-0,314	-0,185
87,568	110,705	-0,297	-0,251
88,582	25,564	-0,483	-0,282
89,597	800,000	-0,152	-0,306
90,611	-50,013	-0,342	-0,113
91,626	-54,865	-0,354	-0,111
92,641	21,478	-0,397	-0,226
93,655	106,695	-0,257	-0,214
94,670	-33,308	-0,382	-0,148
95,684	-32,959	-0,265	-0,103
96,699	58,852	-0,281	-0,193
97,714	-40,550	-0,203	-0,074
98,728	56,617	-0,318	-0,217
99,743	2,919	-0,261	-0,133
100,757	32,213	-0,304	-0,183
101,772	76,830	-0,256	-0,190
102,787	372,257	-0,145	-0,208
103,801	-33,146	-0,342	-0,132
104,816	160,854	-0,238	-0,234
105,830	-5,741	-0,352	-0,169
106,845	264,012	-0,173	-0,211
107,860	61,697	-0,147	-0,102
108,874	-26,857	-0,428	-0,174
109,889	173,860	-0,246	-0,249
110,903	72,563	-0,359	-0,262
111,918	198,864	-0,182	-0,196
112,933	26,276	-0,349	-0,204
113,947	48,174	-0,148	-0,097
114,962	343,577	-0,140	-0,192
115,976	-23,796	-0,279	-0,117
116,991	-13,482	-0,278	-0,126
118,006	-32,196	-0,333	-0,130
119,020	175,857	-0,299	-0,304
120,035	93,760	-0,161	-0,128
121,049	114,870	-0,159	-0,136
122,064	-145,232	-0,258	0,016
123,079	196,212	-0,216	-0,230
124,093	150,848	-0,236	-0,225
125,108	59,174	-0,288	-0,198
126,122	17,728	-0,311	-0,173
127,137	61,373	-0,192	-0,133
128,151	456,597	-0,217	-0,339
129,166	-102,229	-0,180	-0,030
130,181	146,958	-0,231	-0,218
131,195	199,773	-0,236	-0,253
132,210	657,748	-0,163	-0,294
133,224	-28,644	-0,175	-0,070
134,239	20,103	-0,261	-0,147
135,254	86,097	-0,175	-0,135
136,268	343,381	-0,152	-0,209
137,283	80,359	-0,317	-0,239
138,297	-19,601	-0,260	-0,112
139,312	-0,072	-0,241	-0,119
140,327	83,999	-0,158	-0,120
141,341	339,943	-0,159	-0,217
142,356	412,520	-0,138	-0,205
143,370	-24,363	-0,316	-0,131
144,385	-108,432	-0,425	-0,063
145,400	216,932	-0,121	-0,135
146,414	-58,086	-0,240	-0,073
147,429	-80,700	-0,219	-0,050
148,443	11,250	-0,119	-0,063
149,458	79,314	-0,153	-0,114
150,473	-200,000	-0,030	-0,118
151,487	-26,432	-0,305	-0,124
152,502	81,928	-0,268	-0,202
153,516	30,003	-0,285	-0,169
154,531	21,929	-0,358	-0,203
155,546	-108,610	-0,222	-0,033
156,560	-82,631	-0,185	-0,041
157,575	143,610	-0,297	-0,276
158,589	-11,112	-0,248	-0,113
159,604	-107,045	-0,248	-0,038
160,619	-38,085	-0,269	-0,099
161,633	127,828	-0,198	-0,175
162,648	31,672	-0,186	-0,111
163,662	35,068	-0,254	-0,155
164,677	80,174	-0,206	-0,154
165,692	76,556	-0,191	-0,141
166,706	94,550	-0,189	-0,149
167,721	-58,315	-0,297	-0,089
168,735	255,243	-0,210	-0,251
169,750	23,016	-0,210	-0,120
170,764	-79,935	-0,253	-0,059
171,779	28,278	-0,168	-0,098
172,794	63,840	-0,168	-0,117
173,808	102,285	-0,161	-0,131
174,823	13,454	-0,286	-0,154
175,837	304,920	-0,165	-0,214
176,852	83,429	-0,248	-0,188
177,867	92,715	-0,287	-0,226
178,881	74,431	-0,175	-0,128
179,896	-22,084	-0,233	-0,098
180,910	-17,115	-0,295	-0,129
181,925	7,799	-0,242	-0,126
182,940	87,212	-0,181	-0,139
183,954	21,027	-0,277	-0,156
184,969	-38,074	-0,317	-0,117
185,983	128,463	-0,116	-0,103
186,998	153,447	-0,123	-0,117
188,013	217,008	-0,185	-0,205
189,027	-28,414	-0,363	-0,145
190,042	353,325	-0,168	-0,233
191,056	4,029	-0,152	-0,077
192,071	686,014	-0,118	-0,215
193,086	-61,077	-0,149	-0,043
194,100	-96,881	-0,284	-0,051
195,115	66,911	-0,186	-0,132
196,129	-126,997	-0,384	-0,039
197,144	-10,104	-0,241	-0,111
198,159	62,743	-0,286	-0,198
199,173	800,000	-0,078	-0,208
200,188	141,753	-0,178	-0,164
201,202	-90,472	-0,265	0,053
202,217	69,318	-0,229	-0,164
203,232	-200,000	-0,064	-0,201
204,246	485,233	-0,130	-0,206
205,261	31,017	-0,215	-0,128
206,275	41,476	-0,158	-0,099
207,290	-138,001	-0,213	-0,016
208,304	-119,264	-0,154	-0,018
209,319	394,635	-0,064	-0,092
210,334	-160,527	-0,246	-0,009
211,348	627,709	-0,139	-0,246
212,363	284,039	-0,137	-0,172
213,377	5,325	-0,135	-0,069
214,392	200,708	-0,194	-0,207
215,407	-6,287	-0,225	-0,106
216,421	-42,741	-0,331	-0,116
217,436	157,009	-0,076	-0,073
218,450	512,848	-0,179	-0,291
219,465	313,197	-0,276	-0,360
220,480	-0,730	-0,198	-0,097
221,494	52,405	-0,140	-0,093
222,509	-200,000	-0,003	-0,112
223,523	286,925	-0,158	-0,198
224,538	-99,573	-0,283	-0,049
225,553	-15,384	-0,273	-0,121
226,567	305,383	-0,190	-0,245
227,582	176,107	-0,168	-0,169
228,596	348,571	-0,111	-0,152
229,611	-89,916	-0,206	-0,041
230,626	56,218	-0,219	-0,147
231,640	438,275	-0,178	-0,271
232,655	64,159	-0,270	-0,188
233,669	800,000	-0,140	-0,294
234,684	-120,062	-0,296	-0,035
235,699	93,873	-0,135	-0,106
236,713	83,041	-0,199	-0,150
237,728	-72,941	-0,135	-0,034
238,742	5,044	-0,149	-0,075
239,757	164,188	-0,251	-0,245
240,772	-79,948	-0,303	-0,070
241,786	284,638	-0,201	-0,251
242,801	-133,492	-0,162	0,014
243,815	69,213	-0,068	-0,048
244,830	290,882	-0,119	-0,150
245,844	105,759	-0,110	-0,090
246,859	-101,586	-0,152	-0,025
247,874	64,507	-0,225	-0,157
248,888	167,252	-0,262	-0,258
249,903	10,036	-0,232	-0,122
250,917	441,732	-0,060	-0,091
251,932	6,574	-0,107	-0,055
252,947	101,732	-0,151	-0,121
253,961	269,065	-0,214	-0,260
254,976	18,750	-0,208	-0,115
255,990	-60,084	-0,251	-0,074
257,005	151,459	-0,162	-0,153
258,020	-85,192	-0,175	-0,038
259,034	281,754	-0,170	-0,211
260,049	-76,865	-0,195	-0,047
261,063	52,886	-0,205	-0,135
262,078	32,822	-0,205	-0,122
263,093	-47,181	-0,142	-0,047
264,107	-40,738	-0,202	-0,072
265,122	-53,725	-0,190	-0,060
266,136	-75,789	-0,224	-0,055
267,151	-95,397	-0,212	-0,039
268,166	48,918	-0,194	-0,126
269,180	335,048	-0,164	-0,221
270,195	115,240	-0,155	-0,131
271,209	491,726	-0,174	-0,276
272,224	555,220	-0,092	-0,154
273,239	-200,000	0,000	-0,147
274,253	37,419	-0,136	-0,083
275,268	418,419	-0,125	-0,185
276,282	349,899	-0,207	-0,284
277,297	-44,599	-0,262	-0,090
278,312	24,155	-0,183	-0,104
279,326	-12,692	-0,120	-0,054
280,341	38,868	-0,182	-0,112
281,355	-28,780	-0,128	-0,051
282,370	800,000	-0,043	-0,123
283,384	-153,921	-0,228	0,011
284,399	183,474	-0,162	-0,166
285,414	800,000	-0,085	-0,164
286,428	-157,774	-0,052	0,002
287,443	-57,894	-0,176	-0,053
288,457	-52,106	-0,117	0,037
289,472	-170,237	-0,131	0,003
290,487	-44,155	-0,259	-0,089
291,501	556,313	-0,138	-0,231
292,516	-52,824	-0,041	-0,013
293,530	22,885	-0,161	-0,091
294,545	45,410	-0,186	-0,118
295,560	145,685	-0,190	-0,176
296,574	-140,407	-0,193	0,014
297,589	66,804	-0,079	-0,055
298,603	668,294	-0,088	-0,157
299,618	231,967	-0,107	-0,121
300,633	800,000	-0,029	-0,079
301,647	-45,522	-0,148	0,050
302,662	255,473	-0,119	-0,141
303,676	25,492	-0,162	-0,092
304,691	800,000	-0,100	-0,215
305,706	-51,306	-0,193	-0,062
306,720	800,000	-0,077	-0,166
307,735	165,547	-0,144	-0,140
308,749	240,684	-0,130	-0,150
309,764	-128,990	-0,138	-0,013
310,779	-161,107	-0,336	-0,012
311,793	93,511	-0,133	-0,104
312,808	-84,366	-0,191	0,041
313,822	-106,136	-0,136	-0,021
314,837	-43,823	-0,166	-0,057
315,852	3,108	-0,068	0,034
316,866	119,733	-0,041	-0,035
317,881	17,748	-0,230	-0,126
318,895	29,152	-0,157	-0,091
319,910	42,762	-0,240	-0,150
320,925	-80,116	-0,222	-0,051
321,939	-47,509	-0,158	-0,053
322,954	-15,313	-0,177	-0,077
323,968	-200,000	-0,050	-0,218
324,983	-32,105	-0,149	-0,057
325,997	1,065	-0,161	-0,079
327,012	395,541	-0,178	-0,256
328,027	-76,819	-0,185	-0,044
329,041	-18,210	-0,163	-0,070
330,056	52,176	-0,137	-0,090
331,070	-200,000	-0,010	0,033
332,085	-127,173	-0,176	-0,018
333,100	-51,831	-0,168	-0,053
334,114	-11,510	-0,192	-0,087
335,129	191,357	-0,137	-0,142
336,143	149,590	-0,154	-0,143
337,158	466,348	-0,075	-0,116
338,173	-143,097	-0,113	-0,007
339,187	-77,757	-0,211	-0,050
340,202	-17,188	-0,228	-0,099
341,216	389,735	-0,130	-0,185
342,231	4,346	-0,192	-0,096
343,246	-0,249	-0,078	-0,038
344,260	-200,000	0,021	-0,069
345,275	91,833	-0,017	0,013
346,289	141,667	-0,139	-0,126
347,304	-42,818	-0,121	0,042
348,319	-139,827	-0,163	0,012
349,333	-80,108	-0,227	-0,052
350,348	148,220	-0,159	-0,148
351,362	-119,562	-0,105	0,012
352,377	-90,761	-0,230	-0,045
353,392	13,169	-0,093	-0,049
354,406	101,117	-0,090	-0,072
355,421	209,674	1313,022	1413,556
356,435	161,383	1473,530	1414,038
