DTS Sentinel unit serial number:	SN410029Multiplexer serial number:	ORYXHardware model number:	OX2-SRSoftware version number:	ORYX F/W v4,00 Oryx Data Collector v3.7.2.0data status	okinstallation	B3 Nyhavnadifferential loss correction	single-endedforward channel	channel 1reverse channel	N/Adate	2023/11/30time	22:07:30forward acquisition time	300,00reverse acquisition time	0,00gamma	499,1914k internal	0,3210k external	0,3210temperature offset calibration	1,0000default loss term (dB/km)	0,3820temperature slope calibration	1,0000multiplexer offset coefficient	1,0000multiplexer slope coefficient	1,0000fibre end	0,00T internal ref (°C)	10,24T ext. ref 1 (°C)	-5,08T ext. ref 2 (°C)	-5,22length (m)	temperature (°C)	Stokes	anti-Stokes-744,400	337,582	-0,181	-0,255
-743,385	-200,000	-0,059	0,264
-742,371	-200,000	-0,097	-0,349
-741,356	-200,000	0,032	0,203
-740,342	402,700	-0,080	-0,122
-739,327	-200,000	0,013	0,334
-738,312	800,000	-0,118	-0,249
-737,298	-200,000	0,050	0,376
-736,283	309,791	-0,155	-0,210
-735,269	-200,000	-0,010	0,202
-734,254	583,738	-0,115	-0,206
-733,239	800,000	-0,065	0,149
-732,225	393,270	-0,161	-0,244
-731,210	800,000	0,071	0,183
-730,196	-200,000	-0,038	-0,229
-729,181	-68,305	-0,141	-0,039
-728,167	-149,969	0,100	0,006
-727,152	8,975	-0,016	-0,009
-726,137	-100,459	-0,045	-0,008
-725,123	-100,731	-0,065	0,012
-724,108	-114,781	-0,124	0,017
-723,094	-200,000	-0,031	-0,118
-722,079	-97,301	-0,109	0,020
-721,064	139,310	0,102	0,097
-720,050	-200,000	0,004	0,109
-719,035	107,293	0,065	0,056
-718,021	69,918	-0,078	0,058
-717,006	-200,000	0,013	-0,142
-715,991	800,000	0,051	-0,118
-714,977	-200,000	0,060	-0,200
-713,962	17,382	-0,055	0,032
-712,948	-31,196	-0,173	0,070
-711,933	-20,928	-0,055	0,024
-710,918	-118,654	0,067	0,008
-709,904	154,615	-0,094	-0,094
-708,889	-200,000	0,017	-0,091
-707,875	159,738	-0,106	-0,107
-706,860	65,876	0,182	-0,133
-705,845	-147,936	0,063	-0,004
-704,831	-110,007	0,176	0,026
-703,816	-157,918	0,055	0,002
-702,802	-3,039	-0,039	-0,020
-701,787	568,841	-0,061	-0,108
-700,772	-177,030	-0,061	0,001
-699,758	-200,000	-0,006	0,070
-698,743	-200,000	0,017	-0,056
-697,729	-85,724	-0,109	-0,024
-696,714	-110,257	0,038	-0,006
-695,699	-200,000	-0,001	-0,116
-694,685	-200,000	0,008	-0,045
-693,670	-60,673	-0,032	-0,010
-692,656	154,135	-0,022	-0,021
-691,641	17,606	0,072	0,041
-690,627	-17,820	0,114	-0,052
-689,612	800,000	-0,041	0,093
-688,597	226,439	-0,022	0,026
-687,583	800,000	-0,072	-0,148
-686,568	-83,798	-0,089	-0,020
-685,554	-200,000	-0,009	-0,067
-684,539	5,625	-0,018	0,010
-683,524	800,000	0,047	-0,105
-682,510	139,870	0,053	0,051
-681,495	339,670	-0,014	0,020
-680,481	0,914	-0,159	-0,082
-679,466	367,770	-0,049	0,072
-678,451	-66,452	-0,156	0,045
-677,437	-200,000	-0,002	-0,009
-676,422	31,457	-0,061	0,038
-675,408	197,994	-0,035	-0,039
-674,393	-74,635	0,024	0,006
-673,378	30,626	-0,119	-0,074
-672,364	-132,926	0,108	0,010
-671,349	-145,845	-0,228	0,014
-670,335	-35,014	-0,146	-0,057
-669,320	-200,000	0,029	0,000
-668,305	-200,000	-0,027	0,101
-667,291	-88,143	0,065	0,014
-666,276	343,501	-0,058	0,082
-665,262	-158,938	-0,111	-0,004
-664,247	54,224	0,023	-0,016
-663,232	55,437	-0,092	0,064
-662,218	-200,000	0,023	0,078
-661,203	133,782	-0,067	-0,063
-660,189	-134,878	-0,156	-0,013
-659,174	15,922	-0,101	-0,057
-658,159	515,981	-0,036	-0,061
-657,145	90,148	-0,004	0,003
-656,130	800,000	0,033	0,079
-655,116	32,146	-0,137	-0,085
-654,101	265,871	-0,011	-0,014
-653,086	-160,890	-0,106	0,004
-652,072	16,353	-0,063	-0,036
-651,057	372,893	-0,050	0,074
-650,043	32,566	-0,134	-0,084
-649,028	518,000	0,039	0,066
-648,014	187,072	0,082	0,088
-646,999	800,000	-0,042	-0,097
-645,984	800,000	0,037	0,091
-644,970	-73,198	-0,061	0,016
-643,955	-96,130	-0,154	-0,029
-642,941	800,000	-0,030	0,076
-641,926	138,090	-0,043	0,041
-640,911	-200,000	0,006	-0,050
-639,897	-200,000	0,013	0,056
-638,882	142,381	0,090	0,087
-637,868	118,990	0,040	0,036
-636,853	23,387	-0,190	-0,112
-635,838	-200,000	-0,011	-0,086
-634,824	307,270	-0,050	0,068
-633,809	148,474	0,129	0,125
-632,795	75,562	-0,048	-0,036
-631,780	98,642	0,160	0,133
-630,765	144,635	-0,043	0,041
-629,751	-31,094	-0,117	-0,048
-628,736	-200,000	-0,009	-0,042
-627,722	-102,474	0,097	-0,017
-626,707	800,000	-0,028	0,073
-625,692	-200,000	0,013	0,169
-624,678	44,301	0,089	-0,059
-623,663	-112,464	-0,119	0,017
-622,649	-20,818	-0,027	-0,012
-621,634	624,937	0,031	-0,056
-620,619	800,000	-0,069	-0,140
-619,605	-200,000	-0,003	-0,071
-618,590	162,798	0,022	0,023
-617,576	284,888	-0,027	-0,035
-616,561	-200,000	-0,004	0,060
-615,546	296,189	-0,130	-0,172
-614,532	-84,312	-0,046	-0,010
-613,517	-200,000	0,011	-0,048
-612,503	800,000	0,019	-0,051
-611,488	800,000	0,089	0,178
-610,474	-200,000	0,017	-0,064
-609,459	9,227	-0,035	-0,019
-608,444	117,426	-0,091	0,081
-607,430	-200,000	-0,014	0,108
-606,415	-16,398	-0,157	-0,071
-605,401	681,968	0,052	0,098
-604,386	-51,987	0,045	0,015
-603,371	800,000	0,018	0,046
-602,357	-200,000	-0,019	0,162
-601,342	-200,000	-0,006	-0,151
-600,328	-133,470	-0,033	0,003
-599,313	-200,000	-0,001	-0,015
-598,298	800,000	-0,068	0,180
-597,284	-0,246	0,136	-0,069
-596,269	800,000	-0,064	0,168
-595,255	574,696	0,070	0,123
-594,240	-200,000	0,024	-0,140
-593,225	-200,000	0,036	-0,154
-592,211	379,062	-0,037	-0,054
-591,196	576,896	0,005	-0,008
-590,182	800,000	-0,022	0,047
-589,167	-200,000	-0,016	0,154
-588,152	800,000	0,026	0,079
-587,138	-200,000	-0,037	-0,153
-586,123	-200,000	-0,004	-0,088
-585,109	-200,000	0,002	0,134
-584,094	-200,000	0,012	0,066
-583,079	54,712	-0,141	0,098
-582,065	800,000	-0,013	0,035
-581,050	84,199	-0,049	0,039
-580,036	-200,000	-0,009	-0,052
-579,021	51,943	0,071	-0,048
-578,006	55,768	-0,136	0,095
-576,992	-200,000	-0,016	-0,099
-575,977	-200,000	-0,020	0,082
-574,963	-200,000	-0,016	0,106
-573,948	-16,048	0,174	-0,080
-572,934	-166,390	-0,044	0,001
-571,919	-200,000	0,003	-0,036
-570,904	106,326	-0,097	-0,083
-569,890	-91,185	-0,122	0,025
-568,875	-126,378	0,083	-0,009
-567,861	494,104	-0,049	0,081
-566,846	-44,430	0,119	0,043
-565,831	-200,000	0,012	0,058
-564,817	-200,000	0,008	0,101
-563,802	-82,465	-0,055	-0,013
-562,788	800,000	0,066	-0,198
-561,773	368,356	-0,051	0,075
-560,758	-200,000	0,014	0,118
-559,744	-1,488	0,065	0,033
-558,729	-21,994	-0,085	-0,037
-557,715	147,164	0,046	0,045
-556,700	-103,224	0,049	-0,008
-555,685	357,376	0,058	-0,083
-554,671	-200,000	0,018	-0,162
-553,656	-200,000	0,034	0,181
-552,642	-13,881	-0,084	0,039
-551,627	-193,120	0,044	0,000
-550,612	-36,373	-0,104	-0,040
-549,598	-118,056	0,101	-0,013
-548,583	-200,000	0,018	-0,108
-547,569	-200,000	0,025	-0,117
-546,554	223,223	0,059	0,068
-545,539	-200,000	-0,001	0,090
-544,525	800,000	0,054	0,149
-543,510	-107,128	-0,082	-0,013
-542,496	19,019	-0,110	-0,063
-541,481	290,071	-0,030	0,039
-540,466	-200,000	0,015	-0,141
-539,452	800,000	0,023	-0,056
-538,437	67,668	-0,074	-0,054
-537,423	-200,000	0,004	0,102
-536,408	67,511	-0,086	-0,063
-535,393	378,787	0,054	-0,080
-534,379	142,270	-0,099	-0,095
-533,364	70,812	-0,053	0,040
-532,350	-200,000	0,018	0,079
-531,335	-31,215	0,129	0,052
-530,321	62,756	-0,035	0,025
-529,306	800,000	-0,021	0,058
-528,291	800,000	-0,011	0,032
-527,277	276,984	0,019	0,024
-526,262	-124,551	0,103	-0,011
-525,248	52,391	0,071	0,048
-524,233	-200,000	0,001	0,050
-523,218	218,754	0,088	-0,101
-522,204	-132,044	0,167	0,015
-521,189	94,213	-0,056	0,045
-520,175	131,036	-0,054	-0,050
-519,160	11,944	0,097	-0,053
-518,145	-200,000	-0,007	0,054
-517,131	-200,000	-0,005	0,150
-516,116	-138,429	-0,079	0,006
-515,102	46,012	-0,059	0,039
-514,087	-39,103	0,105	0,039
-513,072	109,016	0,025	0,021
-512,058	-138,414	0,073	0,006
-511,043	-200,000	0,038	-0,126
-510,029	800,000	-0,009	0,023
-509,014	-140,733	0,169	-0,012
-507,999	-155,516	-0,069	0,003
-506,985	800,000	-0,032	-0,067
-505,970	-80,903	0,045	0,011
-504,956	-200,000	-0,023	-0,113
-503,941	393,423	-0,076	-0,113
-502,926	-9,693	0,102	-0,049
-501,912	19,933	0,116	0,067
-500,897	-117,692	0,093	0,012
-499,883	-200,000	0,004	0,086
-498,868	-200,000	0,007	0,108
-497,853	21,076	-0,076	0,044
-496,839	428,058	-0,072	0,112
-495,824	-200,000	-0,001	0,005
-494,810	800,000	-0,027	0,059
-493,795	719,863	0,050	-0,095
-492,781	800,000	-0,052	0,110
-491,766	-77,690	-0,095	0,023
-490,751	79,008	-0,039	0,030
-489,737	94,506	0,009	0,007
-488,722	-200,000	0,003	-0,032
-487,708	-200,000	-0,002	0,029
-486,693	218,535	0,104	0,119
-485,678	-200,000	-0,029	0,143
-484,664	-16,670	-0,113	0,051
-483,649	-132,417	-0,157	0,014
-482,635	99,116	-0,013	-0,010
-481,620	-200,000	-0,015	0,074
-480,605	38,823	-0,070	0,045
-479,591	-138,331	0,042	0,003
-478,576	-98,251	-0,070	0,013
-477,562	-200,000	-0,001	-0,087
-476,547	456,304	-0,062	-0,099
-475,532	800,000	-0,029	-0,072
-474,518	800,000	-0,044	-0,105
-473,503	438,746	-0,015	0,024
-472,489	-137,317	0,030	-0,002
-471,474	-200,000	-0,001	-0,019
-470,459	-27,755	-0,101	0,042
-469,445	800,000	0,009	0,020
-468,430	800,000	0,008	-0,017
-467,416	-200,000	-0,037	-0,150
-466,401	347,443	-0,018	-0,025
-465,386	800,000	0,016	-0,034
-464,372	476,177	0,052	0,085
-463,357	-200,000	0,033	-0,107
-462,343	364,345	-0,007	-0,011
-461,328	-200,000	0,020	-0,069
-460,313	-45,379	-0,174	-0,062
-459,299	648,576	0,041	0,075
-458,284	107,460	0,104	0,089
-457,270	97,765	0,083	0,068
-456,255	-57,584	0,070	-0,022
-455,241	-6,507	-0,178	0,087
-454,226	-82,397	0,076	-0,018
-453,211	304,686	-0,041	0,054
-452,197	-23,048	0,031	-0,013
-451,182	452,559	-0,055	0,088
-450,168	-20,225	-0,035	0,016
-449,153	800,000	0,020	-0,051
-448,138	-200,000	-0,005	-0,053
-447,124	64,287	0,112	0,081
-446,109	-200,000	0,049	0,180
-445,095	307,653	0,068	-0,092
-444,080	-58,793	-0,023	0,007
-443,065	-67,648	-0,137	-0,038
-442,051	-200,000	-0,039	-0,144
-441,036	270,214	-0,118	-0,149
-440,022	22,942	-0,040	-0,024
-439,007	-200,000	0,000	-0,048
-437,992	92,377	0,160	-0,129
-436,978	-37,479	-0,088	-0,034
-435,963	-200,000	0,018	0,100
-434,949	800,000	0,060	-0,142
-433,934	134,950	-0,080	-0,074
-432,919	277,514	0,036	0,046
-431,905	133,771	0,035	-0,032
-430,890	-29,142	0,079	0,032
-429,876	684,741	0,021	0,040
-428,861	-69,012	0,175	0,048
-427,846	74,848	-0,070	0,053
-426,832	471,693	-0,042	-0,067
-425,817	243,121	0,111	-0,133
-424,803	-79,049	0,074	-0,018
-423,788	-15,314	0,238	-0,108
-422,773	-200,000	0,007	0,220
-421,759	635,121	-0,084	0,153
-420,744	-120,684	-0,080	0,010
-419,730	800,000	0,106	-0,315
-418,715	800,000	-0,042	-0,088
-417,701	-70,781	-0,095	-0,026
-416,686	21,380	0,136	0,079
-415,671	44,076	-0,146	0,096
-414,657	48,625	-0,147	0,098
-413,642	52,051	0,168	-0,114
-412,628	-200,000	0,010	-0,055
-411,613	800,000	0,022	0,058
-410,598	-200,000	0,028	-0,120
-409,584	-176,105	-0,167	-0,003
-408,569	259,984	-0,014	0,018
-407,555	64,804	0,053	-0,038
-406,540	-175,315	0,040	0,001
-405,525	7,355	0,013	-0,007
-404,511	-200,000	0,022	-0,102
-403,496	-37,953	0,035	-0,013
-402,482	-200,000	0,018	0,073
-401,467	-110,900	0,008	-0,001
-400,452	-40,759	-0,121	0,045
-399,438	-200,000	0,009	-0,096
-398,423	63,214	-0,075	0,053
-397,409	-55,488	0,032	0,010
-396,394	-9,578	0,076	0,036
-395,379	-138,080	0,068	-0,005
-394,365	595,125	-0,048	0,085
-393,350	2,319	0,015	-0,008
-392,336	19,959	-0,121	0,069
-391,321	-90,649	-0,106	-0,022
-390,306	491,334	-0,064	-0,104
-389,292	15,485	-0,126	-0,071
-388,277	94,404	0,033	-0,027
-387,263	-200,000	0,020	-0,100
-386,248	-81,460	0,086	-0,020
-385,233	-114,206	-0,065	0,009
-384,219	-200,000	0,019	0,081
-383,204	-200,000	0,011	0,036
-382,190	800,000	0,013	-0,033
-381,175	-98,524	-0,084	-0,015
-380,160	800,000	0,043	-0,113
-379,146	476,484	0,047	0,075
-378,131	210,444	0,036	0,040
-377,117	-200,000	-0,012	0,095
-376,102	234,426	-0,143	-0,169
-375,088	-200,000	0,021	-0,111
-374,073	437,280	-0,035	-0,055
-373,058	-90,618	-0,027	-0,005
-372,044	21,181	0,071	0,041
-371,029	-200,000	-0,015	0,098
-370,015	-81,812	0,095	0,022
-369,000	-200,000	0,001	-0,168
-367,985	-61,092	0,041	-0,012
-366,971	-99,004	-0,041	-0,007
-365,956	-139,484	0,095	0,007
-364,942	-200,000	-0,015	0,075
-363,927	-200,000	-0,023	0,134
-362,912	-121,681	0,042	0,005
-361,898	98,033	0,037	0,031
-360,883	-200,000	-0,011	-0,044
-359,869	158,335	-0,069	0,068
-358,854	800,000	-0,032	0,073
-357,839	55,675	-0,147	0,101
-356,825	-25,207	-0,095	0,040
-355,810	715,317	0,037	0,071
-354,796	487,395	0,029	0,047
-353,781	-7,981	-0,165	0,079
-352,766	800,000	0,030	-0,061
-351,752	-200,000	0,018	0,087
-350,737	-107,425	0,117	0,018
-349,723	-200,000	0,000	0,006
-348,708	339,985	-0,041	-0,058
-347,693	-36,782	-0,115	-0,044
-346,679	-68,077	0,051	0,014
-345,664	617,600	-0,081	0,146
-344,650	16,162	0,036	-0,020
-343,635	-200,000	0,038	-0,130
-342,620	-166,767	0,140	-0,004
-341,606	177,700	-0,067	-0,069
-340,591	-200,000	0,026	-0,119
-339,577	-131,411	0,049	0,005
-338,562	620,854	-0,044	0,079
-337,548	-200,000	-0,003	-0,175
-336,533	800,000	0,047	-0,124
-335,518	800,000	0,056	0,131
-334,504	108,922	0,047	-0,040
-333,489	-200,000	0,017	-0,072
-332,475	1,644	-0,077	-0,040
-331,460	88,775	-0,060	0,047
-330,445	-93,950	0,120	-0,023
-329,431	-143,637	0,021	0,001
-328,416	7,084	0,135	0,072
-327,402	-7,312	0,088	0,042
-326,387	260,329	-0,042	-0,052
-325,372	194,139	0,020	-0,021
-324,358	177,179	0,095	-0,098
-323,343	-57,925	0,069	-0,021
-322,329	-45,782	-0,069	0,024
-321,314	4,196	0,022	0,011
-320,299	11,653	0,086	-0,047
-319,285	800,000	-0,008	-0,019
-318,270	281,293	-0,046	0,059
-317,256	101,653	-0,067	-0,056
-316,241	800,000	-0,021	0,043
-315,226	-15,475	0,100	0,045
-314,212	281,057	0,089	0,114
-313,197	-119,354	-0,106	-0,013
-312,183	-92,998	-0,060	-0,012
-311,168	521,758	0,085	-0,142
-310,153	-104,075	-0,228	0,038
-309,139	-71,856	-0,048	0,013
-308,124	-21,163	-0,064	-0,028
-307,110	38,741	-0,049	0,031
-306,095	140,247	0,017	0,016
-305,080	133,911	-0,054	0,050
-304,066	-200,000	0,011	0,071
-303,051	344,456	0,035	-0,049
-302,037	-70,585	0,090	-0,024
-301,022	81,326	0,073	-0,056
-300,008	81,252	-0,061	0,047
-298,993	-81,182	0,167	-0,039
-297,978	213,079	-0,010	-0,012
-296,964	-138,525	-0,022	0,002
-295,949	-68,532	-0,132	0,036
-294,935	-200,000	-0,034	-0,111
-293,920	110,747	-0,065	-0,056
-292,905	-200,000	0,026	-0,089
-291,891	-90,977	-0,198	0,040
-290,876	34,417	-0,096	0,059
-289,862	29,626	0,058	-0,035
-288,847	-200,000	0,040	-0,179
-287,832	-77,374	0,086	-0,021
-286,818	800,000	0,040	-0,103
-285,803	800,000	-0,006	0,016
-284,789	241,903	0,113	0,135
-283,774	-150,386	0,069	0,004
-282,759	-200,000	-0,009	-0,078
-281,745	-125,074	-0,014	0,001
-280,730	-178,089	-0,204	0,003
-279,716	218,982	0,068	-0,078
-278,701	22,001	-0,067	0,039
-277,686	-73,915	0,138	-0,035
-276,672	640,082	-0,031	0,057
-275,657	-89,006	-0,115	-0,024
-274,643	-67,856	-0,087	0,024
-273,628	-200,000	0,002	-0,016
-272,613	-53,242	-0,025	0,008
-271,599	-162,521	-0,083	0,003
-270,584	800,000	0,069	0,157
-269,570	110,178	0,123	0,105
-268,555	571,765	-0,059	-0,103
-267,540	-200,000	-0,031	-0,131
-266,526	355,534	0,069	-0,098
-265,511	222,618	-0,053	-0,061
-264,497	-97,800	0,075	0,014
-263,482	-95,024	0,135	-0,026
-262,467	-200,000	-0,013	-0,046
-261,453	-200,000	-0,012	-0,039
-260,438	45,370	-0,080	-0,052
-259,424	800,000	-0,049	-0,099
-258,409	-200,000	0,013	0,071
-257,395	800,000	-0,062	0,149
-256,380	435,660	0,118	0,183
-255,365	-200,000	-0,006	0,054
-254,351	310,490	0,033	0,044
-253,336	-71,749	-0,114	0,030
-252,322	-80,810	-0,120	-0,028
-251,307	67,178	0,091	0,066
-250,292	66,836	0,077	-0,056
-249,278	8,793	0,057	0,030
-248,263	-200,000	0,006	-0,091
-247,249	34,590	-0,104	-0,065
-246,234	-45,436	-0,047	-0,016
-245,219	-200,000	-0,019	-0,060
-244,205	168,702	0,097	-0,098
-243,190	800,000	0,037	-0,098
-242,176	-200,000	-0,045	0,162
-241,161	227,897	0,122	0,141
-240,146	800,000	-0,048	0,139
-239,132	3,242	-0,101	-0,052
-238,117	-200,000	-0,003	0,012
-237,103	489,144	0,061	-0,100
-236,088	-200,000	-0,012	0,043
-235,073	-7,643	0,078	0,038
-234,059	800,000	-0,024	0,061
-233,044	-200,000	-0,014	-0,101
-232,030	-200,000	-0,016	-0,092
-231,015	114,580	0,136	-0,118
-230,000	102,573	-0,072	-0,060
-228,986	179,700	0,066	0,069
-227,971	-2,756	-0,143	-0,071
-226,957	-168,507	0,168	-0,004
-225,942	76,354	-0,037	-0,028
-224,927	475,270	-0,092	-0,148
-223,913	118,619	-0,021	-0,019
-222,898	-200,000	-0,024	-0,097
-221,884	42,296	0,130	-0,084
-220,869	-200,000	0,016	0,158
-219,855	-170,068	-0,140	0,003
-218,840	-56,023	0,173	0,054
-217,825	-18,278	-0,087	0,039
-216,811	-21,234	0,113	-0,049
-215,796	93,844	-0,081	0,066
-214,782	516,049	-0,129	-0,215
-213,767	-194,050	0,096	0,001
-212,752	-8,280	0,086	0,041
-211,738	231,751	-0,078	0,091
-210,723	-131,462	-0,052	0,005
-209,709	-113,548	0,108	-0,015
-208,694	91,237	-0,111	-0,089
-207,679	-200,000	0,030	0,109
-206,665	106,477	-0,038	-0,032
-205,650	54,047	0,176	0,120
-204,636	-200,000	-0,013	0,082
-203,621	490,945	0,058	-0,095
-202,606	-133,092	-0,238	0,021
-201,592	800,000	0,011	-0,032
-200,577	-200,000	-0,039	-0,136
-199,563	-192,267	-0,015	-0,000
-198,548	318,690	-0,069	0,093
-197,533	-21,669	-0,059	0,025
-196,519	378,036	-0,069	-0,101
-195,504	800,000	0,062	-0,140
-194,490	45,101	-0,095	0,062
-193,475	425,353	0,022	-0,033
-192,460	-11,255	-0,141	0,066
-191,446	44,582	0,071	0,046
-190,431	-200,000	-0,023	0,141
-189,417	257,968	0,091	-0,112
-188,402	335,293	0,123	-0,170
-187,387	-200,000	-0,045	-0,208
-186,373	-188,249	0,167	0,001
-185,358	-200,000	0,014	0,085
-184,344	-151,432	0,095	-0,005
-183,329	-200,000	0,054	-0,171
-182,315	63,431	0,093	0,066
-181,300	328,962	0,101	-0,138
-180,285	244,527	-0,110	0,131
-179,271	-74,916	-0,012	0,003
-178,256	-200,000	0,011	-0,045
-177,242	11,652	0,134	0,073
-176,227	77,163	-0,018	0,013
-175,212	800,000	-0,051	0,130
-174,198	-169,964	0,106	-0,003
-173,183	78,581	-0,049	0,037
-172,169	-128,422	-0,062	0,006
-171,154	800,000	-0,045	-0,121
-170,139	344,633	0,079	0,110
-169,125	94,569	0,074	0,060
-168,110	800,000	-0,018	-0,039
-167,096	135,417	-0,049	0,045
-166,081	589,567	0,006	-0,011
-165,066	800,000	-0,085	-0,181
-164,052	55,979	0,137	-0,094
-163,037	194,946	0,066	0,071
-162,023	-200,000	-0,056	0,191
-161,008	-200,000	0,106	0,000
-159,993	16,447	-0,032	-0,018
-158,979	800,000	0,013	0,033
-157,964	-200,000	0,030	0,000
-156,950	256,560	-0,057	0,070
-155,935	800,000	-0,045	0,096
-154,920	-8,622	0,122	0,058
-153,906	-75,477	0,094	0,024
-152,891	423,751	0,037	0,057
-151,877	-200,000	-0,044	-0,162
-150,862	623,046	0,024	-0,044
-149,847	526,299	-0,031	-0,052
-148,833	161,526	-0,059	-0,059
-147,818	-194,251	0,088	0,000
-146,804	-200,000	-0,012	-0,080
-145,789	-99,812	-0,171	0,030
-144,775	800,000	0,040	-0,087
-143,760	45,889	-0,093	0,061
-142,745	-200,000	0,001	0,049
-141,731	260,020	-0,062	0,076
-140,716	-123,644	0,158	0,018
-139,702	-66,733	0,081	0,023
-138,687	-200,000	0,031	0,103
-137,672	800,000	0,015	-0,031
-136,658	28,599	-0,148	-0,088
-135,643	484,579	-0,043	0,070
-134,629	186,747	-0,088	-0,093
-133,614	40,680	0,110	0,070
-132,599	-200,000	0,006	-0,032
-131,585	800,000	0,049	0,121
-130,570	-200,000	-0,001	-0,134
-129,556	290,058	0,038	0,049
-128,541	-200,000	0,001	0,086
-127,526	-47,405	-0,048	0,017
-126,512	522,747	0,069	0,115
-125,497	800,000	-0,022	-0,049
-124,483	-200,000	0,000	0,044
-123,468	101,888	-0,064	-0,053
-122,453	-200,000	0,018	0,057
-121,439	82,738	-0,097	0,075
-120,424	102,912	0,079	0,065
-119,410	548,688	-0,078	-0,134
-118,395	-200,000	-0,003	0,101
-117,380	173,294	-0,041	0,042
-116,366	-105,795	0,084	-0,013
-115,351	575,599	-0,033	0,057
-114,337	-114,681	-0,156	0,021
-113,322	93,214	-0,072	0,057
-112,307	286,106	0,034	0,044
-111,293	-94,696	0,071	-0,014
-110,278	-143,220	-0,060	0,004
-109,264	88,285	0,069	0,054
-108,249	-96,074	-0,216	-0,040
-107,234	95,397	-0,104	0,084
-106,220	-200,000	0,002	0,096
-105,205	-52,627	0,159	0,052
-104,191	458,016	0,038	0,060
-103,176	800,000	-0,046	0,129
-102,162	800,000	0,060	-0,164
-101,147	800,000	-0,099	-0,254
-100,132	267,117	-0,109	-0,135
-99,118	245,340	0,037	0,044
-98,103	202,212	-0,123	-0,135
-97,089	800,000	0,035	0,074
-96,074	80,135	0,092	0,070
-95,059	-200,000	0,008	0,132
-94,045	-89,984	-0,053	0,011
-93,030	800,000	-0,019	-0,046
-92,016	-200,000	-0,021	-0,163
-91,001	-150,886	-0,069	0,004
-89,986	219,766	-0,024	0,027
-88,972	50,135	-0,129	0,086
-87,957	-200,000	0,007	0,092
-86,943	79,221	-0,095	0,072
-85,928	800,000	-0,016	0,033
-84,913	-186,727	0,005	0,000
-83,899	1,323	0,035	-0,018
-82,884	-12,402	-0,038	-0,018
-81,870	-104,211	-0,043	0,007
-80,855	-200,000	-0,015	0,085
-79,840	498,332	-0,078	-0,127
-78,826	-200,000	-0,009	-0,049
-77,811	-19,517	-0,065	-0,028
-76,797	-200,000	-0,002	0,083
-75,782	-200,000	0,031	0,110
-74,767	-47,808	0,141	-0,048
-73,753	33,170	0,057	0,035
-72,738	-60,958	-0,065	0,019
-71,724	-172,870	0,061	0,001
-70,709	-200,000	-0,000	-0,109
-69,694	800,000	0,030	-0,077
-68,680	-128,680	0,073	0,007
-67,665	92,878	0,136	-0,108
-66,651	-130,008	0,040	0,004
-65,636	-198,526	-0,085	0,000
-64,622	70,178	-0,081	-0,059
-63,607	-200,000	-0,010	-0,063
-62,592	302,764	-0,042	-0,056
-61,578	-54,067	-0,078	-0,025
-60,563	66,360	0,059	-0,042
-59,549	228,591	-0,040	0,046
-58,534	47,943	-2,099	-1,382
-57,519	469,131	-1,192	-1,897
-56,505	-200,000	-0,335	-4,447
-55,490	378,583	0,878	1,272
-54,476	800,000	5,292	11,785
-53,461	-200,000	21,214	343,903
-52,446	800,000	760,534	2366,025
-51,432	560,409	1664,582	2850,379
-50,417	73,812	1664,157	1230,322
-49,403	18,150	1537,692	863,535
-48,388	12,072	1461,086	791,060
-47,373	19,636	1452,048	822,500
-46,359	15,602	1441,240	797,127
-45,344	10,325	1437,410	769,802
-44,330	10,296	1435,268	768,487
-43,315	10,245	1433,605	767,321
-42,300	10,336	1431,644	766,674
-41,286	10,331	1430,289	765,897
-40,271	10,252	1429,357	764,991
-39,257	10,298	1428,231	764,577
-38,242	10,320	1426,888	763,933
-37,227	10,282	1425,952	763,217
-36,213	10,328	1424,566	762,665
-35,198	10,336	1423,261	761,975
-34,184	10,395	1422,514	761,824
-33,169	10,270	1421,196	760,494
-32,154	10,344	1420,046	760,199
-31,140	10,341	1418,978	759,585
-30,125	10,373	1417,691	759,015
-29,111	10,366	1416,587	758,361
-28,096	10,295	1415,533	757,432
-27,082	10,275	1414,167	756,577
-26,067	10,273	1413,340	756,095
-25,052	10,290	1412,128	755,498
-24,038	10,274	1411,218	754,908
-23,023	10,264	1410,214	754,294
-22,009	10,254	1409,358	753,760
-20,994	10,264	1408,180	753,143
-19,979	10,285	1407,396	752,792
-18,965	10,261	1406,473	752,157
-17,950	10,221	1405,409	751,372
-16,936	10,186	1404,736	750,818
-15,921	10,211	1403,525	750,260
-14,906	10,167	1402,843	749,658
-13,892	10,172	1401,753	749,071
-12,877	10,135	1401,111	748,526
-11,863	10,112	1400,268	747,936
-10,848	10,154	1399,264	747,568
-9,833	10,142	1398,305	746,970
-8,819	10,098	1397,468	746,289
-7,804	10,083	1396,646	745,751
-6,790	10,040	1395,839	745,089
-5,775	10,108	1394,299	744,552
-4,760	10,108	1393,250	743,963
-3,746	10,122	1392,328	743,505
-2,731	10,094	1391,680	742,999
-1,717	10,063	1390,906	742,416
-0,702	10,050	1389,253	741,446
0,313	14,068	1301,540	713,051
1,327	30,133	691,417	415,285
2,342	46,990	119,669	78,377
3,356	1,376	16,543	8,361
4,371	-2,191	3,446	1,700
5,386	-9,640	1,041	0,488
6,400	-200,000	0,130	0,576
7,415	-61,865	-0,110	-0,032
8,429	-31,804	-0,317	-0,125
9,444	80,185	-0,340	-0,258
10,459	129,079	-0,336	-0,302
11,473	227,967	-0,240	-0,276
12,488	19,937	-0,363	-0,206
13,502	17,270	-0,406	-0,226
14,517	110,243	-0,268	-0,227
15,531	22,331	-0,338	-0,194
16,546	26,034	-0,392	-0,230
17,561	40,912	-0,370	-0,235
18,575	-153,200	-0,306	-0,015
19,590	357,065	-0,216	-0,305
20,604	-94,938	-0,260	-0,049
21,619	60,186	-0,516	-0,359
22,634	84,857	-0,457	-0,353
23,648	55,948	-0,507	-0,346
24,663	33,859	-0,453	-0,277
25,677	121,163	-0,339	-0,297
26,692	30,700	-0,469	-0,282
27,707	167,085	-0,344	-0,344
28,721	414,917	-0,207	-0,311
29,736	221,144	-0,329	-0,373
30,750	150,600	-0,350	-0,335
31,765	383,075	-0,208	-0,301
32,780	-8,801	-0,439	-0,206
33,794	19,432	-0,314	-0,177
34,809	14,208	-0,479	-0,262
35,823	177,853	-0,296	-0,304
36,838	14,635	-0,354	-0,194
37,853	355,266	-0,323	-0,453
38,867	92,227	-0,479	-0,379
39,882	192,444	-0,263	-0,280
40,896	-32,291	-0,216	-0,084
41,911	13,886	-0,197	-0,108
42,926	134,731	-0,246	-0,225
43,940	145,190	-0,273	-0,257
44,955	41,494	-0,454	-0,288
45,969	269,483	-0,314	-0,388
46,984	218,164	-0,284	-0,319
47,999	-25,667	-0,444	-0,183
49,013	83,102	-0,280	-0,214
50,028	64,412	-0,371	-0,262
51,042	23,521	-0,449	-0,259
52,057	64,984	-0,418	-0,296
53,071	124,728	-0,247	-0,218
54,086	168,940	-0,232	-0,233
55,101	104,425	-0,310	-0,256
56,115	123,552	-0,241	-0,212
57,130	240,475	-0,257	-0,301
58,144	-87,486	-0,424	-0,089
59,159	-6,348	-0,399	-0,190
60,174	223,269	-0,300	-0,341
61,188	-22,543	-0,204	-0,086
62,203	-18,083	-0,367	-0,161
63,217	-69,824	-0,394	-0,105
64,232	-60,532	-0,363	-0,107
65,247	55,180	-0,423	-0,286
66,261	225,280	-0,276	-0,314
67,276	67,687	-0,390	-0,279
68,290	-76,098	-0,340	-0,084
69,305	73,366	-0,278	-0,204
70,320	280,325	-0,200	-0,251
71,334	-102,043	-0,410	-0,069
72,349	-18,052	-0,385	-0,168
73,363	-40,827	-0,319	-0,115
74,378	72,327	-0,257	-0,188
75,393	31,996	-0,370	-0,223
76,407	2,035	-0,292	-0,147
77,422	76,498	-0,241	-0,179
78,436	-26,156	-0,366	-0,150
79,451	9,234	-0,380	-0,201
80,466	6,133	-0,450	-0,233
81,480	-66,651	-0,410	-0,113
82,495	-31,438	-0,226	-0,089
83,509	-18,494	-0,277	-0,120
84,524	-42,555	-0,322	-0,114
85,539	-32,829	-0,270	-0,105
86,553	51,733	-0,265	-0,176
87,568	22,945	-0,367	-0,210
88,582	670,446	-0,113	-0,207
89,597	-54,265	-0,355	-0,112
90,611	-38,379	-0,298	-0,110
91,626	87,514	-0,222	-0,172
92,641	-45,536	-0,357	-0,123
93,655	156,888	-0,199	-0,192
94,670	93,254	-0,252	-0,200
95,684	51,531	-0,273	-0,181
96,699	221,294	-0,198	-0,223
97,714	65,394	-0,351	-0,248
98,728	-5,280	-0,304	-0,146
99,743	130,497	-0,225	-0,201
100,757	8,028	-0,215	-0,113
101,772	42,046	-0,337	-0,214
102,787	-26,969	-0,398	-0,162
103,801	82,694	-0,296	-0,225
104,816	308,505	-0,227	-0,298
105,830	45,576	-0,265	-0,171
106,845	-63,199	-0,379	-0,109
107,860	18,119	-0,277	-0,154
108,874	257,435	-0,169	-0,203
109,889	8,151	-0,306	-0,160
110,903	322,327	-0,080	-0,107
111,918	153,923	-0,254	-0,243
112,933	240,751	-0,227	-0,265
113,947	43,627	-0,117	-0,074
114,962	-57,052	-0,423	-0,129
115,976	75,661	-0,153	-0,113
116,991	-57,718	-0,280	-0,085
118,006	-71,902	-0,181	-0,047
119,020	-29,566	-0,279	-0,111
120,035	-11,304	-0,167	-0,077
121,049	25,445	-0,288	-0,167
122,064	-162,410	-0,307	0,010
123,079	51,353	-0,178	-0,118
124,093	-33,884	-0,421	-0,161
125,108	93,530	-0,210	-0,166
126,122	62,021	-0,293	-0,203
127,137	21,946	-0,198	-0,112
128,151	-34,529	-0,199	-0,076
129,166	71,169	-0,194	-0,140
130,181	398,876	-0,126	-0,185
131,195	254,468	-0,191	-0,228
132,210	176,400	-0,245	-0,248
133,224	454,861	-0,183	-0,284
134,239	587,569	-0,141	-0,243
135,254	-96,967	-0,197	-0,036
136,268	75,567	-0,266	-0,196
137,283	40,872	-0,229	-0,144
138,297	5,380	-0,397	-0,203
139,312	-37,202	-0,192	-0,071
140,327	31,293	-0,265	-0,158
141,341	296,453	-0,160	-0,205
142,356	133,613	-0,200	-0,180
143,370	197,628	-0,153	-0,163
144,385	20,166	-0,392	-0,220
145,400	73,504	-0,231	-0,168
146,414	85,801	-0,175	-0,134
147,429	106,724	-0,333	-0,275
148,443	184,252	-0,263	-0,271
149,458	-92,595	-0,231	-0,045
150,473	259,944	-0,156	-0,189
151,487	-85,524	-0,147	0,032
152,502	29,184	-0,291	-0,172
153,516	41,854	-0,267	-0,168
154,531	21,789	-0,331	-0,187
155,546	-200,000	-0,078	-0,269
156,560	-91,249	-0,332	-0,066
157,575	31,610	-0,160	-0,095
158,589	-97,776	-0,402	-0,072
159,604	86,874	-0,255	-0,196
160,619	308,846	-0,154	-0,201
161,633	-5,625	-0,262	-0,124
162,648	187,691	-0,270	-0,280
163,662	1,211	-0,274	-0,136
164,677	56,331	-0,069	-0,047
165,692	-8,841	-0,217	-0,101
166,706	-64,236	-0,265	-0,075
167,721	221,211	-0,205	-0,230
168,735	191,423	-0,095	-0,100
169,750	-87,984	-0,205	-0,042
170,764	-153,595	-0,145	-0,007
171,779	62,114	-0,242	-0,167
172,794	77,747	-0,278	-0,206
173,808	2,568	-0,182	-0,091
174,823	67,874	-0,251	-0,178
175,837	620,215	-0,136	-0,239
176,852	147,707	-0,189	-0,177
177,867	186,238	-0,133	-0,138
178,881	-188,233	-0,069	-0,001
179,896	89,373	-0,236	-0,183
180,910	525,120	-0,193	-0,317
181,925	85,822	-0,299	-0,228
182,940	159,829	-0,192	-0,185
183,954	186,864	-0,180	-0,186
184,969	277,479	-0,144	-0,178
185,983	280,866	-0,178	-0,222
186,998	800,000	-0,100	-0,235
188,013	2,301	-0,212	-0,106
189,027	-43,612	-0,271	-0,094
190,042	800,000	-0,125	-0,313
191,056	31,178	-0,178	-0,106
192,071	113,187	-0,205	-0,172
193,086	293,479	-0,185	-0,234
194,100	156,110	-0,180	-0,172
195,115	-14,456	-0,340	-0,151
196,129	441,586	-0,207	-0,315
197,144	393,539	-0,108	-0,157
198,159	524,740	-0,173	-0,284
199,173	144,271	-0,246	-0,228
200,188	800,000	-0,055	-0,141
201,202	-95,038	-0,213	-0,039
202,217	800,000	-0,138	-0,278
203,232	-141,852	-0,240	0,016
204,246	229,763	-0,204	-0,231
205,261	-78,726	-0,346	-0,081
206,275	16,812	-0,164	-0,090
207,290	689,641	-0,119	-0,216
208,304	-200,000	-0,022	-0,147
209,319	800,000	-0,068	-0,142
210,334	65,871	-0,199	-0,139
211,348	245,273	-0,127	-0,149
212,363	24,993	-0,207	-0,119
213,377	587,657	-0,066	-0,113
214,392	-41,163	-0,140	-0,050
215,407	-88,005	-0,185	-0,038
216,421	-112,550	-0,098	0,013
217,436	-49,489	-0,220	-0,072
218,450	163,274	-0,194	-0,189
219,465	580,597	-0,102	-0,173
220,480	191,394	-0,169	-0,176
221,494	144,843	-0,250	-0,232
222,509	410,907	-0,133	-0,196
223,523	-186,938	-0,098	-0,001
224,538	196,243	-0,146	-0,153
225,553	180,988	-0,241	-0,245
226,567	373,369	-0,186	-0,262
227,582	-161,793	-0,149	-0,005
228,596	-38,248	-0,271	-0,099
229,611	-51,483	-0,159	-0,051
230,626	69,777	-0,186	-0,132
231,640	495,536	-0,110	-0,176
232,655	800,000	-0,160	-0,331
233,669	-200,000	-0,070	-0,306
234,684	189,702	-0,149	-0,155
235,699	745,807	-0,114	-0,213
236,713	-107,191	-0,201	0,030
237,728	153,634	-0,133	-0,126
238,742	-54,733	-0,090	-0,028
239,757	-69,587	-0,095	-0,025
240,772	159,406	-0,182	-0,175
241,786	-36,030	-0,253	-0,094
242,801	71,085	-0,151	-0,108
243,815	-83,678	-0,159	-0,035
244,830	13,273	-0,172	-0,092
245,844	149,920	-0,144	-0,135
246,859	201,845	-0,199	-0,213
247,874	63,894	-0,184	-0,128
248,888	-39,940	-0,206	-0,074
249,903	-120,775	-0,181	-0,021
250,917	45,788	-0,088	-0,056
251,932	-86,852	-0,108	-0,023
252,947	800,000	-0,092	-0,195
253,961	800,000	-0,076	-0,164
254,976	444,855	-0,129	-0,196
255,990	800,000	-0,102	-0,284
257,005	134,846	-0,125	-0,112
258,020	134,030	-0,148	-0,132
259,034	233,738	-0,174	-0,198
260,049	-177,171	-0,190	-0,003
261,063	-13,389	-0,218	-0,097
262,078	29,585	-0,217	-0,127
263,093	200,214	-0,114	-0,121
264,107	48,270	-0,134	-0,086
265,122	379,756	-0,064	-0,090
266,136	-12,757	-0,091	-0,041
267,151	-200,000	-0,040	-0,124
268,166	-29,088	-0,136	-0,054
269,180	8,864	-0,182	-0,094
270,195	290,432	-0,176	-0,221
271,209	-178,438	-0,111	0,002
272,224	409,568	-0,168	-0,245
273,239	800,000	-0,039	0,110
274,253	-71,192	-0,173	-0,045
275,268	11,642	-0,177	-0,093
276,282	-135,112	-0,121	0,010
277,297	-26,026	-0,223	-0,090
278,312	-78,914	-0,260	0,061
279,326	25,089	-0,117	-0,066
280,341	-112,911	-0,161	-0,022
281,355	-81,734	-0,138	-0,031
282,370	-30,834	-0,174	-0,068
283,384	-57,758	-0,188	-0,056
284,399	303,823	-0,162	-0,207
285,414	62,343	-0,236	-0,162
286,428	52,939	-0,144	-0,094
287,443	-22,627	-0,183	0,076
288,457	800,000	-0,059	-0,170
289,472	6,142	-0,187	-0,095
290,487	599,952	-0,197	-0,337
291,501	800,000	-0,109	-0,295
292,516	521,277	-0,085	-0,138
293,530	-200,000	-0,007	-0,106
294,545	-62,391	-0,213	-0,061
295,560	177,985	-0,110	-0,111
296,574	-200,000	-0,035	-0,183
297,589	391,819	-0,151	-0,217
298,603	-10,820	-0,222	-0,100
299,618	800,000	-0,092	-0,263
300,633	297,998	-0,066	-0,083
301,647	9,586	-0,091	-0,047
302,662	268,294	-0,073	-0,088
303,676	-200,000	-0,039	-0,127
304,691	6,329	-0,182	-0,093
305,706	450,292	-0,071	-0,109
306,720	330,635	-0,170	-0,225
307,735	1,898	-0,106	-0,052
308,749	-40,625	-0,066	0,023
309,764	-107,190	-0,187	-0,028
310,779	65,083	-0,155	-0,108
311,793	-151,089	-0,219	-0,011
312,808	-78,044	-0,065	0,015
313,822	640,840	-0,100	-0,175
314,837	29,921	-0,084	-0,049
315,852	-200,000	-0,072	-0,222
316,866	51,998	-0,115	0,075
317,881	-43,436	-0,114	-0,039
318,895	-106,811	-0,127	0,019
319,910	-200,000	-0,037	-0,152
320,925	543,271	-0,155	-0,255
321,939	-200,000	-0,062	-0,191
322,954	79,092	-0,135	-0,099
323,968	39,383	-0,095	-0,058
324,983	40,728	-0,137	-0,085
325,997	-151,737	-0,205	-0,010
327,012	-32,219	-0,117	-0,044
328,027	-15,228	-0,215	-0,094
329,041	-86,360	-0,142	-0,030
330,056	271,991	-0,072	-0,087
331,070	67,978	-0,163	-0,114
332,085	-200,000	-0,003	-0,040
333,100	-200,000	-0,012	0,072
334,114	108,937	-0,117	-0,096
335,129	160,073	-0,091	-0,087
336,143	800,000	-0,037	-0,097
337,158	-89,857	-0,044	-0,009
338,173	-17,142	-0,110	0,047
339,187	-134,880	-0,091	0,007
340,202	215,271	-0,130	-0,142
341,216	23,374	-0,131	-0,073
342,231	-83,461	-0,192	0,042
343,246	-34,386	-0,120	-0,045
344,260	-200,000	-0,020	0,070
345,275	44,310	-0,180	-0,113
346,289	800,000	-0,057	-0,132
347,304	116,956	-0,164	-0,137
348,319	102,303	-0,203	-0,162
349,333	24,502	-0,103	0,058
350,348	676,485	-0,015	0,026
351,362	115,899	-0,064	-0,054
352,377	95,206	0,051	-0,040
353,392	-178,408	-0,198	0,003
354,406	12,919	-0,203	-0,107
355,421	207,821	1311,942	1403,069
356,435	159,881	1472,309	1403,536
