DTS Sentinel unit serial number:	SN410029Multiplexer serial number:	ORYXHardware model number:	OX2-SRSoftware version number:	ORYX F/W v4,00 Oryx Data Collector v3.7.2.0data status	okinstallation	B3 Nyhavnadifferential loss correction	single-endedforward channel	channel 1reverse channel	N/Adate	2023/12/04time	13:52:30forward acquisition time	300,00reverse acquisition time	0,00gamma	499,1914k internal	0,3201k external	0,3201temperature offset calibration	1,0000default loss term (dB/km)	0,3820temperature slope calibration	1,0000multiplexer offset coefficient	1,0000multiplexer slope coefficient	1,0000fibre end	0,00T internal ref (°C)	14,94T ext. ref 1 (°C)	0,23T ext. ref 2 (°C)	0,22length (m)	temperature (°C)	Stokes	anti-Stokes-744,400	119,139	-0,168	-0,151
-743,385	-200,000	0,017	0,248
-742,371	55,616	-0,149	-0,105
-741,356	800,000	-0,122	0,316
-740,342	132,370	-0,202	-0,190
-739,327	-200,000	-0,076	0,249
-738,312	26,316	-0,220	-0,133
-737,298	-200,000	-0,056	0,325
-736,283	194,916	-0,201	-0,222
-735,269	800,000	0,102	0,299
-734,254	-24,704	-0,270	-0,116
-733,239	557,318	-0,109	0,191
-732,225	-200,000	-0,031	-0,110
-731,210	-63,611	0,109	0,032
-730,196	-158,275	-0,083	0,003
-729,181	-14,163	0,077	0,036
-728,167	-200,000	0,014	-0,086
-727,152	800,000	0,029	0,061
-726,137	-70,055	-0,114	0,031
-725,123	-200,000	-0,015	0,065
-724,108	634,739	0,075	-0,139
-723,094	-164,197	-0,180	-0,006
-722,079	-157,911	-0,118	-0,005
-721,064	282,342	-0,045	-0,059
-720,050	-28,315	0,027	-0,011
-719,035	4,640	-0,092	0,049
-718,021	88,409	-0,004	-0,003
-717,006	-67,236	-0,105	0,030
-715,991	-200,000	-0,019	-0,094
-714,977	800,000	-0,062	-0,131
-713,962	-136,917	0,066	0,005
-712,948	-103,849	0,142	-0,024
-711,933	800,000	-0,058	-0,125
-710,918	-200,000	-0,001	0,086
-709,904	728,511	-0,093	-0,182
-708,889	308,739	-0,034	-0,046
-707,875	-200,000	0,017	0,065
-706,860	597,611	-0,043	0,078
-705,845	800,000	-0,072	0,182
-704,831	0,255	0,079	0,041
-703,816	-200,000	0,022	0,108
-702,802	190,129	-0,077	-0,084
-701,787	-18,786	-0,073	-0,033
-700,772	-200,000	-0,004	-0,108
-699,758	79,521	0,075	-0,058
-698,743	-34,535	-0,110	-0,043
-697,729	-200,000	-0,003	0,135
-696,714	521,576	0,049	0,084
-695,699	-110,622	-0,156	-0,023
-694,685	-143,847	0,096	0,007
-693,670	800,000	0,044	-0,096
-692,656	123,074	-0,114	-0,104
-691,641	-200,000	0,001	0,009
-690,627	44,306	0,177	0,118
-689,612	-119,829	0,207	-0,026
-688,597	63,366	-0,062	0,045
-687,583	122,619	0,031	0,028
-686,568	16,970	-0,170	-0,098
-685,554	800,000	-0,046	-0,130
-684,539	-3,408	0,082	0,041
-683,524	-200,000	0,022	0,085
-682,510	134,432	-0,051	0,048
-681,495	-93,054	-0,098	0,020
-680,481	79,926	0,107	-0,084
-679,466	-39,180	-0,109	0,041
-678,451	-37,962	-0,067	0,026
-677,437	51,588	0,025	0,017
-676,422	24,602	-0,058	0,035
-675,408	-200,000	-0,040	0,141
-674,393	-81,547	0,052	-0,012
-673,378	129,083	-0,101	-0,094
-672,364	-162,545	-0,132	-0,005
-671,349	-200,000	0,002	0,083
-670,335	800,000	0,055	0,162
-669,320	-200,000	-0,008	0,058
-668,305	800,000	-0,019	-0,043
-667,291	-200,000	-0,043	0,142
-666,276	800,000	0,041	-0,129
-665,262	-200,000	0,000	-0,086
-664,247	800,000	0,025	0,059
-663,232	-67,135	0,095	-0,027
-662,218	365,359	0,040	-0,058
-661,203	403,259	0,064	0,098
-660,189	-200,000	0,053	-0,174
-659,174	104,224	-0,184	-0,157
-658,159	-200,000	-0,016	-0,206
-657,145	489,639	-0,053	-0,088
-656,130	144,954	-0,029	-0,028
-655,116	100,044	0,187	-0,157
-654,101	-104,794	-0,082	0,014
-653,086	-138,876	0,061	-0,005
-652,072	-200,000	-0,011	0,117
-651,057	-48,176	-0,268	-0,093
-650,043	-19,894	-0,031	0,014
-649,028	-118,106	-0,133	0,017
-648,014	571,773	-0,063	-0,112
-646,999	-200,000	0,019	-0,088
-645,984	194,156	0,053	0,059
-644,970	432,294	0,019	-0,029
-643,955	49,673	-0,125	-0,086
-642,941	-200,000	0,005	-0,055
-641,926	-187,133	-0,137	0,001
-640,911	-200,000	0,014	0,146
-639,897	42,181	-0,038	-0,025
-638,882	494,342	0,118	0,196
-637,868	-30,950	0,113	-0,046
-636,853	800,000	-0,021	-0,044
-635,838	105,838	0,012	0,010
-634,824	-85,318	0,111	-0,025
-633,809	267,347	-0,106	-0,135
-632,795	-105,684	0,134	0,022
-631,780	171,372	-0,065	0,068
-630,765	517,982	-0,032	-0,054
-629,751	95,755	-0,041	0,034
-628,736	109,819	-0,032	-0,028
-627,722	386,524	0,040	0,060
-626,707	19,861	0,065	-0,038
-625,692	138,639	0,016	-0,015
-624,678	106,528	-0,033	0,028
-623,663	-116,359	-0,023	-0,003
-622,649	-9,813	-0,035	0,017
-621,634	-200,000	-0,042	-0,156
-620,619	-80,374	0,125	-0,030
-619,605	-183,846	-0,098	-0,001
-618,590	800,000	-0,059	-0,156
-617,576	-151,016	-0,029	0,002
-616,561	-200,000	0,003	-0,118
-615,546	-200,000	0,011	-0,041
-614,532	181,059	0,062	-0,066
-613,517	153,265	0,100	-0,099
-612,503	-1,973	-0,095	-0,048
-611,488	191,572	0,049	-0,054
-610,474	177,120	-0,070	0,074
-609,459	199,958	-0,023	0,026
-608,444	-2,857	-0,089	-0,045
-607,430	-52,325	-0,098	-0,033
-606,415	130,529	0,023	0,021
-605,401	-6,195	0,026	0,013
-604,386	329,461	-0,078	0,109
-603,371	105,484	0,068	0,058
-602,357	0,682	0,114	0,059
-601,342	-97,258	-0,165	0,031
-600,328	-51,977	0,020	0,007
-599,313	-68,404	-0,131	-0,037
-598,298	185,286	-0,005	0,005
-597,284	-118,606	0,171	0,022
-596,269	223,019	0,020	0,023
-595,255	-124,327	0,076	0,008
-594,240	-200,000	-0,014	-0,054
-593,225	105,076	-0,063	-0,053
-592,211	-200,000	-0,015	-0,142
-591,196	-200,000	-0,004	0,069
-590,182	132,428	-0,033	-0,031
-589,167	792,212	-0,104	-0,208
-588,152	564,009	0,019	-0,033
-587,138	18,481	-0,073	0,042
-586,123	-57,174	-0,139	-0,044
-585,109	800,000	-0,010	-0,026
-584,094	-50,803	-0,218	-0,074
-583,079	183,665	0,083	-0,089
-582,065	-200,000	-0,009	0,223
-581,050	113,773	-0,034	-0,030
-580,036	-200,000	0,005	-0,092
-579,021	-12,676	-0,115	-0,054
-578,006	128,009	-0,089	-0,082
-576,992	410,843	-0,016	-0,024
-575,977	-86,166	-0,123	0,027
-574,963	-200,000	0,044	0,142
-573,948	33,197	0,058	-0,036
-572,934	290,622	-0,031	-0,041
-571,919	-200,000	0,073	-0,239
-570,904	736,274	-0,037	-0,073
-569,890	530,978	-0,012	-0,021
-568,875	-200,000	0,034	0,185
-567,861	800,000	0,058	0,161
-566,846	-23,428	0,084	0,036
-565,831	-13,067	-0,053	-0,025
-564,817	-3,076	-0,017	-0,009
-563,802	-44,109	0,059	-0,021
-562,788	-110,218	-0,095	0,014
-561,773	-200,000	-0,006	0,144
-560,758	210,777	0,127	0,145
-559,744	-81,869	-0,105	0,025
-558,729	28,805	0,091	-0,055
-557,715	331,158	-0,025	-0,036
-556,700	-200,000	0,026	-0,101
-555,685	-200,000	-0,020	-0,073
-554,671	-117,434	0,105	0,014
-553,656	-200,000	0,012	-0,091
-552,642	800,000	-0,025	0,072
-551,627	534,921	0,033	-0,056
-550,612	49,799	0,054	-0,037
-549,598	-200,000	-0,045	-0,234
-548,583	90,867	-0,036	-0,029
-547,569	-80,288	0,244	-0,058
-546,554	-41,945	-0,142	-0,052
-545,539	484,866	0,049	0,081
-544,525	-200,000	0,013	-0,060
-543,510	-200,000	0,007	0,067
-542,496	261,452	-0,038	0,048
-541,481	86,924	-0,078	-0,062
-540,466	-200,000	0,017	-0,076
-539,452	37,920	0,065	-0,042
-538,437	17,149	0,108	-0,062
-537,423	800,000	0,063	0,142
-536,408	-23,702	-0,083	-0,036
-535,393	205,267	0,084	-0,094
-534,379	291,409	-0,081	0,107
-533,364	-81,273	0,089	0,021
-532,350	200,442	0,117	-0,130
-531,335	107,730	-0,052	0,045
-530,321	-200,000	0,013	0,137
-529,306	270,822	-0,031	0,040
-528,291	-116,941	-0,065	0,008
-527,277	132,072	0,041	-0,038
-526,262	2,660	0,111	-0,058
-525,248	762,168	0,049	-0,096
-524,233	-200,000	0,008	-0,062
-523,218	-60,759	-0,027	0,008
-522,204	-200,000	0,014	0,153
-521,189	-200,000	-0,002	0,065
-520,175	800,000	-0,076	-0,164
-519,160	-165,209	0,038	-0,001
-518,145	638,668	0,018	0,033
-517,131	-114,554	0,148	0,020
-516,116	22,204	0,024	0,014
-515,102	-200,000	0,012	0,097
-514,087	-176,406	0,048	0,001
-513,072	800,000	0,012	0,031
-512,058	-200,000	-0,025	-0,085
-511,043	-200,000	0,020	-0,152
-510,029	-61,967	0,119	0,036
-509,014	44,401	-0,011	0,007
-507,999	-138,314	-0,029	-0,002
-506,985	-13,255	-0,191	0,089
-505,970	-149,388	-0,130	-0,007
-504,956	19,166	-0,149	-0,086
-503,941	132,953	0,045	0,042
-502,926	-200,000	-0,013	-0,086
-501,912	223,368	-0,095	0,111
-500,897	42,226	0,053	0,035
-499,883	-52,707	-0,041	0,013
-498,868	188,086	-0,099	0,106
-497,853	731,788	-0,022	-0,042
-496,839	-49,045	-0,102	0,035
-495,824	-200,000	0,042	0,174
-494,810	-200,000	0,016	-0,084
-493,795	-200,000	0,037	-0,161
-492,781	345,156	0,042	-0,060
-491,766	-26,227	-0,063	-0,026
-490,751	800,000	0,038	0,108
-489,737	-200,000	-0,023	0,085
-488,722	800,000	-0,026	-0,072
-487,708	-200,000	0,007	0,095
-486,693	800,000	0,004	0,012
-485,678	255,287	-0,032	-0,039
-484,664	800,000	-0,062	-0,135
-483,649	139,647	-0,041	0,039
-482,635	-45,775	-0,034	-0,012
-481,620	800,000	0,065	-0,142
-480,605	787,542	-0,071	0,142
-479,591	-18,329	-0,082	0,037
-478,576	-60,889	0,060	-0,018
-477,562	800,000	0,072	-0,180
-476,547	800,000	0,056	-0,114
-475,532	-200,000	0,003	0,040
-474,518	800,000	0,040	-0,117
-473,503	-200,000	0,021	-0,082
-472,489	679,086	-0,058	0,109
-471,474	302,031	-0,097	-0,130
-470,459	-68,480	-0,196	-0,054
-469,445	67,401	0,101	-0,074
-468,430	633,086	-0,070	-0,127
-467,416	-54,900	0,154	-0,050
-466,401	-200,000	0,003	0,079
-465,386	-55,912	-0,107	0,034
-464,372	-35,441	0,221	0,086
-463,357	124,341	-0,120	-0,109
-462,343	-173,911	-0,182	-0,004
-461,328	-200,000	0,024	0,162
-460,313	-169,507	0,050	0,001
-459,299	77,156	0,126	0,096
-458,284	463,774	0,036	0,058
-457,270	-97,057	0,196	-0,036
-456,255	-98,345	0,078	0,014
-455,241	-200,000	0,010	-0,031
-454,226	-31,851	0,019	-0,007
-453,211	800,000	-0,029	-0,060
-452,197	170,131	0,046	0,048
-451,182	68,045	-0,056	0,041
-450,168	19,741	0,114	-0,066
-449,153	42,228	-0,077	-0,050
-448,138	19,948	-0,096	-0,055
-447,124	-200,000	0,011	-0,189
-446,109	-147,590	0,096	-0,006
-445,095	159,339	0,140	0,140
-444,080	194,011	-0,055	0,060
-443,065	163,616	0,077	-0,078
-442,051	-200,000	-0,005	-0,054
-441,036	550,598	-0,016	0,028
-440,022	-200,000	0,040	-0,152
-439,007	-200,000	-0,003	0,068
-437,992	800,000	-0,041	0,098
-436,978	-76,357	0,237	0,060
-435,963	-200,000	0,032	0,137
-434,949	-200,000	0,002	0,156
-433,934	-200,000	-0,010	0,078
-432,919	-200,000	0,006	-0,107
-431,905	800,000	-0,061	-0,129
-430,890	301,308	0,065	-0,086
-429,876	35,728	-0,089	0,056
-428,861	-200,000	0,002	-0,032
-427,846	-200,000	0,005	0,077
-426,832	36,949	0,108	-0,069
-425,817	96,472	0,154	0,127
-424,803	234,385	-0,016	0,019
-423,788	289,675	-0,055	0,072
-422,773	72,331	-0,076	-0,057
-421,759	17,402	0,108	-0,061
-420,744	-15,969	-0,110	0,050
-419,730	-200,000	-0,000	0,042
-418,715	-103,235	-0,107	-0,018
-417,701	-14,771	-0,080	-0,037
-416,686	539,872	0,056	-0,096
-415,671	37,403	-0,096	-0,061
-414,657	-147,930	0,077	0,005
-413,642	550,770	0,036	0,062
-412,628	-122,105	-0,159	-0,018
-411,613	426,199	-0,058	-0,090
-410,598	40,790	0,037	-0,024
-409,584	-70,509	-0,039	0,011
-408,569	-165,045	0,075	-0,002
-407,555	-200,000	-0,006	0,124
-406,540	329,079	0,075	0,103
-405,525	536,614	0,009	-0,016
-404,511	-139,960	-0,045	0,003
-403,496	46,663	0,032	-0,021
-402,482	205,587	-0,062	-0,069
-401,467	271,435	0,045	0,057
-400,452	800,000	0,071	0,143
-399,438	-200,000	-0,012	0,108
-398,423	51,732	-0,110	-0,075
-397,409	126,000	-0,060	-0,055
-396,394	-19,092	0,048	-0,021
-395,379	-200,000	0,015	-0,051
-394,365	-17,382	0,163	0,073
-393,350	196,493	0,076	0,084
-392,336	-200,000	-0,008	0,089
-391,321	800,000	-0,005	0,014
-390,306	-53,109	-0,105	-0,034
-389,292	-200,000	0,013	-0,064
-388,277	-200,000	0,004	-0,100
-387,263	412,473	0,027	-0,041
-386,248	-44,969	0,162	0,057
-385,233	-200,000	0,028	0,121
-384,219	-71,139	-0,021	0,006
-383,204	92,137	-0,059	-0,048
-382,190	-90,004	-0,187	0,039
-381,175	237,737	-0,092	0,110
-380,160	800,000	-0,022	0,055
-379,146	-200,000	-0,007	-0,044
-378,131	-75,207	0,140	-0,036
-377,117	49,104	-0,071	-0,048
-376,102	-200,000	0,002	-0,054
-375,088	800,000	-0,037	-0,089
-374,073	648,888	0,060	-0,111
-373,058	800,000	-0,023	-0,057
-372,044	800,000	-0,055	0,115
-371,029	-200,000	-0,056	0,179
-370,015	286,021	-0,045	0,059
-369,000	12,099	-0,082	-0,045
-367,985	62,572	-0,042	0,030
-366,971	-53,197	0,072	0,024
-365,956	151,220	0,096	-0,093
-364,942	156,290	0,086	0,085
-363,927	112,882	0,023	-0,020
-362,912	-200,000	-0,013	0,042
-361,898	-200,000	0,006	0,032
-360,883	-33,471	-0,070	0,028
-359,869	-200,000	0,013	-0,056
-358,854	18,667	0,152	-0,087
-357,839	407,179	-0,048	0,073
-356,825	-88,341	0,135	0,029
-355,810	32,230	-0,054	0,033
-354,796	800,000	-0,043	0,085
-353,781	-200,000	-0,035	-0,121
-352,766	-4,034	0,067	0,033
-351,752	52,244	0,087	-0,059
-350,737	-200,000	0,004	0,027
-349,723	414,557	0,103	0,158
-348,708	-200,000	-0,004	0,130
-347,693	175,160	-0,033	-0,035
-346,679	800,000	0,022	-0,067
-345,664	47,347	-0,066	0,044
-344,650	200,475	-0,099	0,109
-343,635	95,702	0,018	-0,015
-342,620	-125,998	-0,042	0,004
-341,606	-173,859	-0,058	0,001
-340,591	15,425	-0,043	-0,024
-339,577	800,000	-0,009	0,020
-338,562	-200,000	-0,016	0,051
-337,548	217,453	-0,103	-0,118
-336,533	-81,595	0,119	0,028
-335,518	109,443	0,073	0,063
-334,504	800,000	-0,049	0,151
-333,489	-200,000	0,013	0,198
-332,475	147,411	0,046	0,045
-331,460	-189,991	-0,100	0,001
-330,445	2,890	0,092	0,048
-329,431	2,336	0,041	0,021
-328,416	800,000	-0,070	0,188
-327,402	800,000	0,025	0,051
-326,387	-200,000	-0,021	-0,085
-325,372	-21,206	-0,059	-0,026
-324,358	800,000	-0,077	-0,153
-323,343	19,378	0,023	0,013
-322,329	133,416	0,078	-0,072
-321,314	227,250	0,098	0,114
-320,299	728,020	-0,023	0,045
-319,285	800,000	0,036	0,108
-318,270	800,000	0,051	-0,136
-317,256	137,376	-0,035	0,033
-316,241	-200,000	0,043	0,184
-315,226	132,220	0,125	0,116
-314,212	247,511	0,092	0,111
-313,197	-1,626	0,101	0,051
-312,183	-159,260	-0,038	0,002
-311,168	800,000	-0,045	-0,135
-310,153	155,637	0,039	-0,038
-309,139	29,287	-0,059	0,036
-308,124	-138,836	0,114	-0,009
-307,110	-200,000	-0,005	-0,108
-306,095	-200,000	0,019	-0,113
-305,080	800,000	0,025	0,054
-304,066	447,797	0,021	-0,034
-303,051	139,701	-0,072	0,068
-302,037	-200,000	0,057	-0,259
-301,022	800,000	-0,038	0,104
-300,008	-200,000	-0,002	0,112
-298,993	691,542	0,072	0,135
-297,978	800,000	-0,044	0,095
-296,964	-200,000	0,006	0,156
-295,949	-98,988	-0,073	-0,013
-294,935	-200,000	0,001	0,060
-293,920	-68,193	-0,136	0,037
-292,905	47,826	0,052	0,035
-291,891	505,880	0,037	0,061
-290,876	291,457	-0,045	0,059
-289,862	555,111	-0,064	0,110
-288,847	82,727	0,158	0,123
-287,832	-200,000	-0,016	-0,085
-286,818	538,602	-0,081	-0,139
-285,803	387,606	0,035	0,052
-284,789	-200,000	0,030	0,105
-283,774	-41,311	-0,090	0,033
-282,759	800,000	-0,041	-0,112
-281,745	-200,000	0,005	-0,073
-280,730	343,267	0,033	-0,047
-279,716	800,000	0,029	-0,061
-278,701	800,000	-0,031	0,090
-277,686	-50,311	0,093	-0,031
-276,672	263,596	0,091	0,113
-275,657	90,002	-0,032	0,025
-274,643	-157,785	0,024	0,001
-273,628	45,272	-0,048	-0,032
-272,613	17,277	-0,102	0,058
-271,599	800,000	0,037	0,113
-270,584	800,000	0,081	0,175
-269,570	-200,000	-0,016	0,086
-268,555	71,379	0,159	-0,117
-267,540	253,081	-0,087	0,106
-266,526	-200,000	-0,014	-0,081
-265,511	-200,000	0,007	-0,057
-264,497	-200,000	0,010	-0,114
-263,482	163,465	-0,096	0,096
-262,467	116,100	0,071	-0,062
-261,453	-200,000	0,005	-0,020
-260,438	351,765	-0,024	-0,034
-259,424	-54,544	-0,122	0,039
-258,409	12,951	-0,066	-0,036
-257,395	-181,722	-0,081	-0,001
-256,380	212,918	-0,045	0,051
-255,365	800,000	0,025	0,077
-254,351	-200,000	-0,039	0,125
-253,336	529,650	0,107	-0,180
-252,322	89,383	-0,024	-0,019
-251,307	-120,207	-0,083	-0,010
-250,292	421,736	-0,059	0,090
-249,278	800,000	0,018	0,038
-248,263	-200,000	-0,016	0,090
-247,249	152,330	0,073	0,071
-246,234	-91,065	-0,051	0,010
-245,219	181,524	0,079	-0,083
-244,205	-200,000	-0,008	-0,043
-243,190	231,103	-0,020	-0,024
-242,176	-200,000	-0,001	0,088
-241,161	400,792	-0,072	-0,108
-240,146	-94,891	0,028	-0,005
-239,132	12,314	-0,017	-0,010
-238,117	26,713	-0,087	-0,052
-237,103	-200,000	0,021	-0,085
-236,088	-200,000	-0,015	-0,062
-235,073	-200,000	0,001	0,097
-234,059	25,189	0,052	0,031
-233,044	-200,000	0,005	0,023
-232,030	23,949	0,063	0,037
-231,015	800,000	-0,036	-0,075
-230,000	65,310	-0,191	-0,138
-228,986	800,000	-0,035	0,095
-227,971	145,455	0,114	-0,109
-226,957	-184,044	0,074	0,001
-225,942	800,000	0,046	0,096
-224,927	-200,000	0,014	-0,146
-223,913	68,752	-0,022	-0,016
-222,898	237,393	-0,004	-0,005
-221,884	-3,763	0,076	-0,038
-220,869	48,780	0,040	-0,027
-219,855	468,635	0,070	0,112
-218,840	590,340	-0,032	-0,057
-217,825	-200,000	-0,024	0,095
-216,811	46,912	0,102	-0,067
-215,796	-115,556	-0,015	-0,002
-214,782	800,000	-0,065	0,139
-213,767	-200,000	-0,039	-0,211
-212,752	-32,391	0,049	-0,019
-211,738	-200,000	0,021	-0,213
-210,723	-57,127	0,115	0,036
-209,709	405,554	-0,035	0,053
-208,694	-156,116	-0,014	0,001
-207,679	669,628	-0,044	-0,082
-206,665	-91,817	-0,131	0,026
-205,650	121,106	0,135	-0,120
-204,636	166,931	0,094	-0,095
-203,621	230,169	-0,038	0,044
-202,606	-200,000	0,023	0,181
-201,592	-33,735	-0,035	-0,014
-200,577	335,241	0,082	0,114
-199,563	188,937	-0,079	0,084
-198,548	641,213	-0,047	-0,086
-197,533	51,563	-0,082	-0,055
-196,519	800,000	-0,055	0,124
-195,504	53,909	0,053	0,036
-194,490	92,186	0,021	-0,017
-193,475	-200,000	-0,012	-0,162
-192,460	800,000	-0,043	0,103
-191,446	138,566	-0,097	0,091
-190,431	252,623	-0,116	0,142
-189,417	-200,000	-0,009	0,119
-188,402	-200,000	-0,008	-0,078
-187,387	161,495	-0,064	-0,063
-186,373	-200,000	-0,017	0,057
-185,358	-200,000	0,021	0,069
-184,344	-200,000	-0,033	-0,127
-183,329	210,202	0,077	0,086
-182,315	124,902	0,076	-0,068
-181,300	6,637	0,061	0,032
-180,285	800,000	0,030	-0,074
-179,271	-200,000	-0,016	0,086
-178,256	148,635	-0,078	-0,075
-177,242	-18,774	0,155	0,069
-176,227	-200,000	-0,003	-0,083
-175,212	-53,436	-0,127	-0,041
-174,198	-111,915	0,131	0,019
-173,183	-128,254	0,046	-0,005
-172,169	400,548	0,043	-0,065
-171,154	21,751	-0,077	-0,044
-170,139	102,897	0,167	-0,139
-169,125	345,045	-0,047	-0,065
-168,110	-143,145	0,079	-0,005
-167,096	223,723	-0,129	0,149
-166,081	-200,000	0,005	0,042
-165,066	227,056	0,029	-0,034
-164,052	616,703	0,055	0,098
-163,037	87,841	-0,110	0,087
-162,023	28,096	-0,139	0,083
-161,008	317,948	0,045	-0,061
-159,993	800,000	0,035	-0,083
-158,979	187,213	0,043	-0,046
-157,964	-143,382	-0,097	-0,006
-156,950	800,000	-0,002	-0,003
-155,935	509,113	0,053	-0,088
-154,920	664,609	-0,030	-0,056
-153,906	-95,806	0,050	0,009
-152,891	-160,801	0,137	-0,005
-151,877	75,287	-0,070	0,052
-150,862	38,400	0,050	0,031
-149,847	-112,102	-0,079	0,011
-148,833	-29,597	0,137	0,055
-147,818	65,805	0,016	0,011
-146,804	211,346	0,040	-0,045
-145,789	-200,000	-0,028	-0,162
-144,775	-187,561	0,056	-0,001
-143,760	-82,917	-0,059	0,013
-142,745	-161,519	-0,069	-0,002
-141,731	-200,000	0,012	-0,044
-140,716	-135,873	0,034	0,003
-139,702	363,141	-0,016	-0,023
-138,687	-182,680	-0,070	0,001
-137,672	-200,000	0,028	-0,116
-136,658	261,327	0,070	-0,086
-135,643	800,000	-0,025	-0,062
-134,629	-200,000	-0,023	0,182
-133,614	377,758	0,110	0,160
-132,599	-200,000	0,010	-0,058
-131,585	-200,000	0,009	0,115
-130,570	-61,564	-0,033	0,010
-129,556	-124,655	0,161	0,017
-128,541	800,000	0,072	0,194
-127,526	-18,229	0,039	0,017
-126,512	-131,861	-0,006	0,001
-125,497	800,000	0,027	0,082
-124,483	-200,000	0,004	0,144
-123,468	111,736	0,033	-0,029
-122,453	800,000	0,032	-0,087
-121,439	25,799	-0,113	0,067
-120,424	800,000	0,042	0,093
-119,410	-144,523	0,129	-0,008
-118,395	-36,791	-0,077	-0,029
-117,380	-99,161	0,083	0,015
-116,366	132,174	-0,029	-0,027
-115,351	-31,942	-0,127	0,050
-114,337	382,079	-0,016	0,024
-113,322	800,000	0,014	-0,030
-112,307	-39,216	0,088	0,033
-111,293	-35,283	0,096	-0,037
-110,278	-152,701	0,069	-0,003
-109,264	-13,929	0,023	0,010
-108,249	231,521	0,067	-0,078
-107,234	133,802	-0,024	0,022
-106,220	-36,041	-0,056	0,021
-105,205	-200,000	0,002	-0,106
-104,191	6,549	0,058	-0,030
-103,176	50,244	-0,033	0,022
-102,162	800,000	0,018	0,050
-101,147	-96,057	-0,065	0,012
-100,132	-196,461	-0,088	-0,000
-99,118	800,000	-0,011	-0,033
-98,103	-200,000	0,036	-0,123
-97,089	800,000	-0,013	-0,040
-96,074	-7,085	0,036	0,017
-95,059	48,829	0,094	-0,062
-94,045	-200,000	-0,003	-0,024
-93,030	-21,565	-0,090	0,039
-92,016	-91,560	-0,070	-0,014
-91,001	201,248	0,072	-0,079
-89,986	800,000	0,067	-0,132
-88,972	-200,000	-0,032	0,177
-87,957	-156,850	-0,032	-0,001
-86,943	800,000	-0,017	0,041
-85,928	800,000	-0,025	0,051
-84,913	-200,000	-0,030	0,157
-83,899	487,664	-0,019	0,031
-82,884	70,081	0,058	0,042
-81,870	48,107	-0,017	-0,011
-80,855	184,800	0,020	0,021
-79,840	-110,357	-0,088	-0,013
-78,826	800,000	0,032	-0,068
-77,811	800,000	-0,033	-0,076
-76,797	-200,000	-0,018	-0,092
-75,782	669,364	-0,028	0,051
-74,767	-200,000	-0,026	0,134
-73,753	-200,000	-0,010	0,084
-72,738	178,441	-0,085	0,088
-71,724	7,778	0,064	0,034
-70,709	-200,000	0,012	-0,069
-69,694	800,000	0,014	0,036
-68,680	800,000	0,038	-0,080
-67,665	-110,016	-0,096	-0,014
-66,651	800,000	0,014	0,036
-65,636	728,398	-0,038	0,073
-64,622	800,000	-0,066	0,159
-63,607	-190,033	-0,073	0,001
-62,592	220,934	-0,113	-0,129
-61,578	72,978	-0,110	0,081
-60,563	-3,527	0,014	0,007
-59,549	500,303	0,043	0,070
-58,534	-49,821	-1,478	-0,494
-57,519	385,695	-1,497	-2,194
-56,505	-200,000	-0,485	-4,445
-55,490	203,364	0,978	1,073
-54,476	800,000	4,656	11,080
-53,461	-200,000	18,258	288,047
-52,446	800,000	727,357	2229,546
-51,432	554,986	1643,216	2810,941
-50,417	79,226	1665,091	1262,192
-49,403	22,817	1538,976	890,517
-48,388	16,817	1462,210	817,045
-47,373	17,819	1452,235	816,262
-46,359	17,217	1442,674	807,975
-45,344	15,068	1438,154	795,154
-44,330	14,976	1436,190	793,598
-43,315	14,933	1434,557	792,462
-42,300	14,988	1432,754	791,694
-41,286	15,057	1431,503	791,299
-40,271	15,058	1430,096	790,497
-39,257	14,985	1429,199	789,623
-38,242	15,081	1427,716	789,226
-37,227	15,051	1426,469	788,362
-36,213	15,043	1425,367	787,686
-35,198	15,065	1424,032	787,022
-34,184	15,053	1423,236	786,491
-33,169	14,983	1422,150	785,533
-32,154	15,061	1420,804	785,123
-31,140	15,074	1419,694	784,542
-30,125	15,083	1418,381	783,825
-29,111	15,101	1417,207	783,229
-28,096	15,006	1416,310	782,258
-27,082	14,944	1415,342	781,399
-26,067	15,015	1413,942	780,931
-25,052	14,981	1413,072	780,261
-24,038	14,903	1412,269	779,417
-23,023	14,906	1411,075	778,743
-22,009	14,982	1409,716	778,317
-20,994	14,876	1409,299	777,561
-19,979	14,907	1408,233	777,088
-18,965	14,895	1407,051	776,348
-17,950	14,883	1406,242	775,815
-16,936	14,929	1405,254	775,452
-15,921	14,879	1404,138	774,572
-14,906	14,880	1403,243	774,053
-13,892	14,874	1402,350	773,502
-12,877	14,881	1401,507	773,038
-11,863	14,878	1400,532	772,458
-10,848	14,824	1399,884	771,817
-9,833	14,855	1398,760	771,312
-8,819	14,787	1398,025	770,562
-7,804	14,754	1397,181	769,910
-6,790	14,832	1395,824	769,493
-5,775	14,761	1394,866	768,608
-4,760	14,793	1394,049	768,276
-3,746	14,781	1393,295	767,774
-2,731	14,826	1392,192	767,343
-1,717	14,779	1391,583	766,758
-0,702	14,817	1389,733	765,884
0,313	18,491	1308,693	738,260
1,327	34,714	706,476	436,118
2,342	52,939	124,711	84,281
3,356	3,151	16,658	8,543
4,371	3,646	3,229	1,661
5,386	-58,469	0,555	0,170
6,400	-200,000	0,012	0,124
7,415	-21,448	-0,343	-0,147
8,429	173,644	-0,329	-0,336
9,444	129,393	-0,412	-0,372
10,459	-12,959	-0,473	-0,217
11,473	-22,408	-0,259	-0,110
12,488	139,346	-0,237	-0,221
13,502	-68,870	-0,366	-0,099
14,517	-17,059	-0,340	-0,151
15,531	5,071	-0,351	-0,182
16,546	207,084	-0,280	-0,309
17,561	93,356	-0,456	-0,364
18,575	-82,854	-0,204	0,046
19,590	84,831	-0,302	-0,233
20,604	-1,470	-0,152	-0,075
21,619	109,190	-0,432	-0,365
22,634	196,775	-0,356	-0,384
23,648	63,608	-0,369	-0,261
24,663	-5,414	-0,275	-0,133
25,677	5,782	-0,416	-0,216
26,692	31,916	-0,364	-0,221
27,707	62,057	-0,303	-0,213
28,721	74,699	-0,461	-0,342
29,736	85,016	-0,437	-0,338
30,750	66,504	-0,351	-0,251
31,765	226,174	-0,328	-0,376
32,780	32,394	-0,321	-0,195
33,794	23,067	-0,312	-0,180
34,809	65,237	-0,415	-0,295
35,823	337,124	-0,242	-0,332
36,838	244,988	-0,246	-0,293
37,853	237,528	-0,320	-0,375
38,867	-47,386	-0,301	-0,103
39,882	112,745	-0,383	-0,327
40,896	306,325	-0,329	-0,433
41,911	-41,475	-0,439	-0,158
42,926	45,397	-0,370	-0,240
43,940	132,230	-0,387	-0,352
44,955	11,610	-0,374	-0,202
45,969	-0,080	-0,410	-0,205
46,984	295,755	-0,283	-0,367
47,999	363,067	-0,186	-0,265
49,013	-121,031	-0,318	-0,037
50,028	104,900	-0,340	-0,283
51,042	56,126	-0,296	-0,202
52,057	-1,111	-0,519	-0,258
53,071	47,231	-0,358	-0,235
54,086	97,036	-0,394	-0,318
55,101	181,796	-0,199	-0,206
56,115	69,514	-0,356	-0,258
57,130	6,074	-0,453	-0,235
58,144	424,810	-0,193	-0,293
59,159	141,051	-0,382	-0,355
60,174	128,715	-0,341	-0,306
61,188	39,440	-0,343	-0,216
62,203	102,809	-0,314	-0,258
63,217	28,896	-0,306	-0,182
64,232	-18,067	-0,340	-0,149
65,247	138,697	-0,289	-0,267
66,261	28,147	-0,312	-0,185
67,276	61,418	-0,429	-0,300
68,290	146,878	-0,237	-0,225
69,305	0,207	-0,324	-0,162
70,320	-69,182	-0,275	-0,074
71,334	89,649	-0,301	-0,236
72,349	23,317	-0,357	-0,206
73,363	-3,647	-0,411	-0,200
74,378	209,973	-0,272	-0,301
75,393	-172,745	-0,342	-0,007
76,407	-96,602	-0,266	-0,049
77,422	-154,487	-0,334	-0,015
78,436	31,817	-0,239	-0,144
79,451	168,192	-0,269	-0,270
80,466	26,051	-0,306	-0,179
81,480	-66,812	-0,238	-0,066
82,495	68,940	-0,205	-0,147
83,509	-21,737	-0,220	-0,094
84,524	-99,095	-0,221	-0,039
85,539	-45,360	-0,252	-0,087
86,553	-86,840	-0,163	-0,035
87,568	131,769	-0,208	-0,188
88,582	3,339	-0,241	-0,123
89,597	-75,475	-0,277	-0,069
90,611	-42,008	-0,269	-0,096
91,626	25,702	-0,290	-0,169
92,641	76,188	-0,222	-0,165
93,655	-13,350	-0,262	-0,119
94,670	-24,267	-0,331	-0,138
95,684	118,054	-0,266	-0,230
96,699	67,106	-0,338	-0,242
97,714	-18,019	-0,320	-0,140
98,728	169,621	-0,242	-0,243
99,743	261,264	-0,244	-0,297
100,757	153,405	-0,232	-0,223
101,772	297,943	-0,275	-0,355
102,787	167,772	-0,257	-0,257
103,801	46,892	-0,283	-0,184
104,816	26,152	-0,296	-0,173
105,830	-61,577	-0,239	-0,070
106,845	83,136	-0,190	-0,145
107,860	-101,093	-0,263	-0,045
108,874	29,552	-0,225	-0,134
109,889	29,526	-0,301	-0,179
110,903	42,123	-0,342	-0,217
111,918	251,721	-0,167	-0,200
112,933	-32,207	-0,103	-0,040
113,947	20,200	-0,281	-0,159
114,962	-45,615	-0,270	-0,093
115,976	348,644	-0,150	-0,207
116,991	491,085	-0,145	-0,234
118,006	59,364	-0,290	-0,200
119,020	166,083	-0,180	-0,179
120,035	254,328	-0,235	-0,282
121,049	47,381	-0,140	-0,091
122,064	44,899	-0,172	-0,111
123,079	-102,560	-0,173	-0,029
124,093	800,000	-0,156	-0,332
125,108	7,440	-0,395	-0,206
126,122	115,446	-0,283	-0,242
127,137	-55,720	-0,107	-0,033
128,151	190,126	-0,205	-0,215
129,166	48,285	-0,221	-0,144
130,181	414,039	-0,227	-0,339
131,195	120,992	-0,299	-0,260
132,210	148,746	-0,200	-0,189
133,224	242,556	-0,207	-0,242
134,239	319,486	-0,172	-0,229
135,254	376,494	-0,179	-0,256
136,268	-126,124	-0,241	0,025
137,283	43,916	-0,204	-0,131
138,297	202,055	-0,308	-0,332
139,312	319,791	-0,230	-0,306
140,327	342,496	-0,246	-0,338
141,341	93,676	-0,304	-0,241
142,356	150,867	-0,203	-0,193
143,370	67,094	-0,227	-0,162
144,385	31,768	-0,262	-0,157
145,400	32,734	-0,216	-0,130
146,414	-13,992	-0,366	-0,164
147,429	370,959	-0,234	-0,332
148,443	800,000	-0,097	-0,233
149,458	336,769	-0,100	-0,135
150,473	20,171	-0,134	-0,075
151,487	13,350	-0,251	-0,135
152,502	76,303	-0,188	-0,139
153,516	86,536	-0,318	-0,245
154,531	57,531	-0,266	-0,181
155,546	-17,614	-0,334	-0,146
156,560	11,030	-0,252	-0,134
157,575	-78,069	-0,226	-0,054
158,589	800,000	-0,106	-0,213
159,604	84,459	-0,215	-0,164
160,619	104,858	-0,206	-0,170
161,633	137,927	-0,294	-0,269
162,648	-22,253	-0,274	-0,115
163,662	-62,148	-0,239	-0,069
164,677	185,822	-0,109	-0,113
165,692	-132,314	-0,199	-0,018
166,706	-74,813	-0,373	-0,093
167,721	136,022	-0,218	-0,198
168,735	-63,265	-0,203	-0,058
169,750	287,796	-0,158	-0,199
170,764	298,020	-0,199	-0,255
171,779	-11,408	-0,360	-0,165
172,794	800,000	-0,080	-0,156
173,808	-21,020	-0,165	-0,070
174,823	45,506	-0,300	-0,193
175,837	33,028	-0,354	-0,213
176,852	389,645	-0,139	-0,201
177,867	146,700	-0,158	-0,148
178,881	-89,956	-0,219	-0,044
179,896	-117,570	-0,293	-0,036
180,910	399,703	-0,249	-0,365
181,925	114,897	-0,249	-0,211
182,940	303,157	-0,132	-0,171
183,954	58,812	-0,333	-0,227
184,969	-6,744	-0,238	-0,112
185,983	40,228	-0,308	-0,192
186,998	92,384	-0,320	-0,251
188,013	-30,527	-0,250	-0,098
189,027	46,186	-0,329	-0,212
190,042	-18,390	-0,383	-0,166
191,056	52,796	-0,181	-0,120
192,071	-19,291	-0,200	-0,086
193,086	86,101	-0,162	-0,124
194,100	-200,000	-0,053	-0,171
195,115	-159,706	-0,312	0,012
196,129	394,232	-0,217	-0,315
197,144	142,684	-0,202	-0,187
198,159	59,746	-0,250	-0,171
199,173	370,314	-0,099	-0,140
200,188	-6,016	-0,247	-0,117
201,202	40,496	-0,110	-0,069
202,217	90,967	-0,178	-0,139
203,232	99,553	-0,211	-0,170
204,246	762,321	-0,175	-0,331
205,261	62,068	-0,220	-0,152
206,275	489,270	-0,152	-0,243
207,290	32,555	-0,257	-0,154
208,304	-111,598	-0,228	-0,032
209,319	-41,140	-0,059	0,021
210,334	-4,501	-0,211	-0,101
211,348	48,677	-0,273	-0,177
212,363	-62,155	-0,225	-0,065
213,377	7,853	-0,047	-0,024
214,392	147,213	-0,160	-0,150
215,407	156,726	-0,228	-0,219
216,421	86,825	-0,128	-0,098
217,436	-33,821	-0,215	-0,082
218,450	115,838	-0,112	-0,095
219,465	66,122	-0,256	-0,180
220,480	488,510	-0,168	-0,267
221,494	-23,651	-0,212	-0,088
222,509	155,039	-0,210	-0,201
223,523	3,138	-0,147	-0,074
224,538	114,956	-0,185	-0,157
225,553	351,338	-0,164	-0,226
226,567	255,196	-0,298	-0,355
227,582	-88,265	-0,260	-0,053
228,596	-200,000	-0,026	-0,086
229,611	152,364	-0,164	-0,156
230,626	30,846	-0,280	-0,166
231,640	37,355	-0,126	-0,077
232,655	573,970	-0,148	-0,251
233,669	152,306	-0,215	-0,203
234,684	-91,885	-0,312	-0,061
235,699	14,997	-0,307	-0,166
236,713	800,000	-0,065	-0,135
237,728	430,395	-0,054	-0,081
238,742	452,570	-0,146	-0,224
239,757	96,546	-0,251	-0,199
240,772	209,956	-0,220	-0,240
241,786	260,627	-0,235	-0,282
242,801	74,572	-0,128	-0,093
243,815	18,326	-0,136	-0,075
244,830	3,160	-0,185	-0,093
245,844	-19,771	-0,148	0,063
246,859	81,106	-0,171	-0,128
247,874	77,018	-0,153	-0,112
248,888	218,063	-0,102	-0,113
249,903	80,809	-0,110	-0,082
250,917	315,525	-0,134	-0,175
251,932	43,520	-0,183	-0,116
252,947	-110,479	-0,118	-0,017
253,961	-37,911	-0,104	-0,038
254,976	-135,735	-0,241	0,019
255,990	56,721	-0,162	-0,109
257,005	268,569	-0,228	-0,278
258,020	75,131	-0,164	-0,119
259,034	127,419	-0,160	-0,140
260,049	-78,063	-0,099	-0,023
261,063	800,000	-0,037	-0,073
262,078	701,163	-0,151	-0,276
263,093	43,473	-0,121	-0,076
264,107	142,826	-0,288	-0,265
265,122	800,000	-0,077	-0,174
266,136	800,000	-0,050	-0,123
267,151	-200,000	-0,032	-0,152
268,166	-200,000	-0,041	-0,166
269,180	143,269	-0,220	-0,203
270,195	72,398	-0,209	-0,150
271,209	-200,000	0,039	-0,224
272,224	-144,935	-0,066	-0,004
273,239	623,236	-0,073	-0,128
274,253	783,135	-0,108	-0,205
275,268	-129,887	-0,276	-0,026
276,282	138,793	-0,204	-0,185
277,297	32,089	-0,267	-0,158
278,312	299,086	-0,134	-0,171
279,326	105,155	-0,163	-0,133
280,341	800,000	-0,062	-0,157
281,355	1,415	-0,203	-0,100
282,370	23,672	-0,189	-0,107
283,384	36,501	-0,139	-0,084
284,399	160,356	-0,181	-0,175
285,414	60,823	-0,196	-0,134
286,428	-108,073	-0,058	-0,009
287,443	69,270	-0,172	-0,122
288,457	800,000	-0,146	-0,370
289,472	193,875	-0,129	-0,135
290,487	79,240	-0,201	-0,149
291,501	-200,000	-0,060	-0,204
292,516	-23,482	-0,147	-0,061
293,530	-44,047	-0,138	-0,047
294,545	776,231	-0,101	-0,190
295,560	-15,142	-0,189	-0,083
296,574	800,000	-0,049	-0,117
297,589	325,028	-0,223	-0,295
298,603	637,535	-0,144	-0,254
299,618	199,286	-0,146	-0,154
300,633	800,000	-0,062	-0,162
301,647	-57,704	-0,057	0,017
302,662	1,829	-0,137	-0,068
303,676	-83,277	-0,104	-0,023
304,691	-97,272	-0,135	-0,024
305,706	-200,000	-0,062	-0,269
306,720	0,943	-0,281	-0,138
307,735	-55,214	-0,224	-0,069
308,749	-127,416	-0,107	0,011
309,764	86,516	-0,016	0,012
310,779	-129,347	-0,058	0,005
311,793	-158,165	-0,204	-0,008
312,808	271,940	-0,099	-0,120
313,822	59,533	-0,095	-0,064
314,837	187,427	-0,104	-0,107
315,852	160,857	-0,180	-0,174
316,866	-31,673	-0,121	-0,047
317,881	90,197	-0,108	-0,083
318,895	-14,302	-0,222	-0,098
319,910	22,843	-0,207	-0,116
320,925	800,000	-0,079	-0,208
321,939	124,903	-0,110	-0,096
322,954	-200,000	-0,029	-0,199
323,968	124,492	-0,061	-0,053
324,983	-200,000	-0,032	-0,129
325,997	-200,000	-0,075	-0,308
327,012	-45,438	-0,166	-0,056
328,027	170,189	-0,146	-0,143
329,041	364,212	-0,135	-0,187
330,056	365,505	-0,100	-0,139
331,070	800,000	-0,054	-0,153
332,085	388,565	-0,094	0,134
333,100	134,234	-0,164	-0,146
334,114	800,000	-0,120	-0,246
335,129	195,844	-0,144	-0,151
336,143	-200,000	-0,024	-0,091
337,158	-30,631	-0,134	-0,052
338,173	-200,000	0,004	-0,091
339,187	723,096	-0,059	-0,108
340,202	87,990	-0,063	-0,048
341,216	-9,025	-0,197	-0,090
342,231	-116,746	-0,195	-0,024
343,246	61,635	-0,183	-0,125
344,260	-200,000	-0,031	-0,126
345,275	73,904	-0,159	-0,114
346,289	-64,527	-0,103	-0,028
347,304	35,207	-0,181	-0,109
348,319	-200,000	-0,041	-0,145
349,333	129,402	-0,128	-0,112
350,348	111,136	-0,179	-0,148
351,362	-75,157	-0,139	0,034
352,377	-158,559	-0,097	-0,004
353,392	800,000	-0,019	-0,055
354,406	84,535	-0,139	-0,104
355,421	209,222	1315,406	1415,129
356,435	161,015	1476,229	1415,626
