DTS Sentinel unit serial number:	SN410029Multiplexer serial number:	ORYXHardware model number:	OX2-SRSoftware version number:	ORYX F/W v4,00 Oryx Data Collector v3.7.2.0data status	okinstallation	B3 Nyhavnadifferential loss correction	single-endedforward channel	channel 1reverse channel	N/Adate	2023/12/02time	13:27:30forward acquisition time	300,00reverse acquisition time	0,00gamma	499,1914k internal	0,3199k external	0,3199temperature offset calibration	1,0000default loss term (dB/km)	0,3820temperature slope calibration	1,0000multiplexer offset coefficient	1,0000multiplexer slope coefficient	1,0000fibre end	0,00T internal ref (°C)	14,50T ext. ref 1 (°C)	0,19T ext. ref 2 (°C)	0,18length (m)	temperature (°C)	Stokes	anti-Stokes-744,400	-200,000	-0,026	-0,372
-743,385	-200,000	-0,033	0,287
-742,371	-200,000	-0,037	-0,120
-741,356	800,000	0,112	0,280
-740,342	212,038	-0,215	-0,247
-739,327	-200,000	-0,056	0,341
-738,312	800,000	-0,136	-0,300
-737,298	626,925	-0,056	0,103
-736,283	112,432	-0,295	-0,259
-735,269	-200,000	-0,065	0,353
-734,254	-24,974	-0,233	-0,100
-733,239	389,742	-0,129	0,196
-732,225	-200,000	-0,011	-0,234
-731,210	-75,545	0,171	0,044
-730,196	58,413	-0,145	-0,104
-729,181	-200,000	0,000	-0,014
-728,167	1,086	-0,077	-0,040
-727,152	800,000	0,023	-0,054
-726,137	-163,570	-0,040	0,001
-725,123	-12,565	-0,110	-0,052
-724,108	786,840	-0,081	-0,163
-723,094	-200,000	0,032	-0,121
-722,079	-37,898	-0,060	0,023
-721,064	-108,995	0,069	0,011
-720,050	599,708	-0,066	-0,120
-719,035	380,536	-0,019	0,028
-718,021	749,581	0,025	-0,049
-717,006	-200,000	-0,006	-0,105
-715,991	381,378	-0,118	-0,176
-714,977	-22,038	-0,058	-0,025
-713,962	-9,194	0,161	-0,078
-712,948	215,751	-0,042	-0,049
-711,933	-200,000	-0,007	-0,023
-710,918	-200,000	-0,005	-0,031
-709,904	45,436	-0,092	-0,061
-708,889	30,468	0,117	-0,072
-707,875	-151,334	-0,056	0,003
-706,860	800,000	0,032	-0,099
-705,845	800,000	0,045	0,092
-704,831	800,000	-0,026	0,053
-703,816	397,152	-0,043	0,066
-702,802	-200,000	0,037	-0,126
-701,787	494,418	-0,023	-0,038
-700,772	-67,301	-0,044	-0,012
-699,758	123,527	-0,078	-0,071
-698,743	195,368	-0,037	-0,041
-697,729	7,513	0,068	0,037
-696,714	-44,391	0,087	0,031
-695,699	77,896	0,065	-0,050
-694,685	717,742	-0,052	-0,101
-693,670	217,678	-0,122	-0,141
-692,656	363,234	0,077	-0,112
-691,641	670,011	0,047	-0,090
-690,627	0,896	-0,023	0,012
-689,612	-200,000	0,004	-0,043
-688,597	800,000	-0,015	-0,042
-687,583	-200,000	0,010	-0,185
-686,568	-200,000	0,002	0,024
-685,554	800,000	0,013	0,035
-684,539	800,000	-0,044	0,096
-683,524	72,988	0,055	-0,042
-682,510	-17,915	0,110	0,050
-681,495	-55,493	-0,201	0,065
-680,481	-52,993	0,014	-0,005
-679,466	645,232	-0,084	-0,157
-678,451	800,000	-0,029	-0,083
-677,437	5,431	0,168	-0,090
-676,422	-100,859	0,055	-0,010
-675,408	-20,613	-0,015	-0,007
-674,393	74,892	-0,030	-0,023
-673,378	-22,198	0,115	-0,051
-672,364	-16,486	-0,087	-0,040
-671,349	-16,489	0,045	0,021
-670,335	256,993	-0,061	0,076
-669,320	-200,000	0,023	0,195
-668,305	275,986	0,046	0,059
-667,291	118,440	0,023	-0,020
-666,276	-61,260	0,060	-0,018
-665,262	-200,000	0,032	-0,148
-664,247	-43,528	-0,086	-0,031
-663,232	-200,000	0,012	0,079
-662,218	-166,745	-0,024	-0,001
-661,203	722,683	0,005	0,010
-660,189	-9,451	-0,108	0,052
-659,174	800,000	-0,035	-0,096
-658,159	561,293	-0,035	0,061
-657,145	390,469	0,096	0,146
-656,130	375,375	-0,054	-0,080
-655,116	-90,747	0,136	-0,028
-654,101	14,109	-0,060	-0,034
-653,086	39,993	0,037	-0,024
-652,072	353,532	-0,006	-0,009
-651,057	-114,256	0,077	0,011
-650,043	339,937	-0,051	0,073
-649,028	-200,000	-0,003	0,036
-648,014	-135,486	0,069	-0,006
-646,999	423,021	0,081	0,127
-645,984	800,000	0,035	0,079
-644,970	25,950	-0,098	-0,059
-643,955	767,150	0,018	0,035
-642,941	800,000	-0,026	0,061
-641,926	-200,000	0,002	-0,052
-640,911	179,722	0,087	-0,093
-639,897	800,000	0,009	0,026
-638,882	15,752	0,037	-0,021
-637,868	441,053	0,053	-0,084
-636,853	-61,257	-0,109	0,033
-635,838	81,005	-0,039	-0,031
-634,824	-200,000	-0,014	-0,074
-633,809	800,000	-0,024	0,071
-632,795	-141,032	0,085	0,006
-631,780	-101,971	0,008	-0,001
-630,765	-90,233	-0,046	0,010
-629,751	89,658	-0,049	-0,039
-628,736	78,844	0,034	-0,026
-627,722	272,863	0,055	0,071
-626,707	-87,225	-0,065	0,014
-625,692	-43,854	0,042	0,015
-624,678	-200,000	-0,003	-0,058
-623,663	351,389	0,086	0,124
-622,649	778,557	0,071	-0,142
-621,634	-6,836	-0,177	-0,087
-620,619	-153,350	0,042	0,002
-619,605	11,276	0,059	0,033
-618,590	-36,006	0,064	-0,025
-617,576	157,417	0,057	-0,057
-616,561	-109,637	0,080	-0,012
-615,546	793,955	-0,041	-0,082
-614,532	-200,000	-0,007	-0,088
-613,517	-80,331	-0,176	-0,042
-612,503	800,000	0,027	0,082
-611,488	-200,000	-0,018	-0,089
-610,474	117,430	-0,089	0,079
-609,459	48,132	-0,052	0,035
-608,444	800,000	0,014	-0,035
-607,430	-200,000	-0,030	-0,131
-606,415	609,856	0,067	-0,121
-605,401	800,000	0,041	0,119
-604,386	518,040	0,093	0,159
-603,371	136,338	-0,112	0,106
-602,357	-83,755	-0,135	0,031
-601,342	30,753	-0,108	0,067
-600,328	0,641	-0,090	-0,046
-599,313	274,860	0,106	-0,136
-598,298	-200,000	0,005	0,022
-597,284	-36,286	0,198	0,077
-596,269	586,636	0,072	0,129
-595,255	-200,000	-0,004	0,126
-594,240	-200,000	0,004	-0,125
-593,225	-200,000	-0,013	-0,125
-592,211	800,000	0,020	-0,043
-591,196	-35,283	-0,050	-0,020
-590,182	-200,000	0,002	0,018
-589,167	-162,084	-0,092	-0,003
-588,152	-30,549	0,225	0,092
-587,138	800,000	-0,023	0,049
-586,123	800,000	-0,020	-0,045
-585,109	-200,000	-0,004	-0,019
-584,094	800,000	0,039	-0,091
-583,079	800,000	-0,072	0,189
-582,065	-200,000	0,014	0,081
-581,050	-28,719	-0,044	-0,018
-580,036	-135,901	-0,101	0,008
-579,021	-156,814	-0,097	-0,004
-578,006	-171,151	0,043	-0,001
-576,992	10,204	-0,108	-0,059
-575,977	322,389	0,027	0,038
-574,963	800,000	0,036	-0,080
-573,948	-93,275	0,115	0,023
-572,934	800,000	0,050	0,138
-571,919	61,533	-0,142	-0,102
-570,904	-200,000	0,022	0,101
-569,890	-200,000	-0,011	-0,131
-568,875	-60,384	-0,039	-0,012
-567,861	126,229	-0,026	-0,024
-566,846	284,159	-0,029	0,037
-565,831	33,759	-0,047	-0,029
-564,817	800,000	0,024	-0,072
-563,802	-113,107	0,092	-0,013
-562,788	-63,955	0,106	-0,031
-561,773	508,111	0,040	-0,067
-560,758	-39,674	-0,012	-0,004
-559,744	268,762	-0,035	0,045
-558,729	10,742	0,071	0,039
-557,715	-68,697	-0,044	-0,012
-556,700	-200,000	-0,009	-0,051
-555,685	-200,000	-0,013	-0,118
-554,671	800,000	-0,029	0,089
-553,656	48,346	0,097	0,066
-552,642	-98,754	0,012	0,002
-551,627	390,521	0,048	0,072
-550,612	800,000	0,043	-0,098
-549,598	59,229	-0,106	0,075
-548,583	-105,277	-0,225	-0,037
-547,569	800,000	-0,027	0,086
-546,554	120,437	-0,030	-0,027
-545,539	-90,562	0,069	0,014
-544,525	174,272	0,103	-0,107
-543,510	311,421	-0,070	-0,096
-542,496	162,941	-0,060	-0,061
-541,481	62,782	0,083	-0,060
-540,466	-107,319	0,008	-0,001
-539,452	374,415	-0,043	-0,063
-538,437	77,111	0,058	-0,044
-537,423	279,433	-0,027	-0,035
-536,408	-200,000	0,004	-0,111
-535,393	-32,410	-0,128	0,051
-534,379	560,528	-0,106	-0,185
-533,364	-200,000	0,007	-0,035
-532,350	800,000	0,028	-0,064
-531,335	-200,000	-0,008	0,042
-530,321	-39,958	-0,089	-0,033
-529,306	752,505	-0,032	0,063
-528,291	418,252	-0,039	0,060
-527,277	212,442	-0,096	0,109
-526,262	-200,000	-0,005	0,047
-525,248	800,000	-0,054	0,144
-524,233	767,348	-0,034	0,067
-523,218	526,953	0,038	0,065
-522,204	800,000	-0,064	0,171
-521,189	104,339	-0,056	0,048
-520,175	132,903	0,053	-0,049
-519,160	-200,000	0,008	0,124
-518,145	53,247	0,084	-0,058
-517,131	-82,303	-0,004	0,001
-516,116	-28,888	-0,125	0,052
-515,102	-200,000	-0,003	0,085
-514,087	-69,497	0,008	-0,002
-513,072	11,414	0,052	-0,029
-512,058	-200,000	-0,007	-0,026
-511,043	-200,000	0,016	-0,118
-510,029	-80,993	0,052	-0,012
-509,014	112,249	0,061	0,053
-507,999	-200,000	0,002	0,014
-506,985	-74,461	-0,099	-0,026
-505,970	-200,000	-0,010	0,109
-504,956	800,000	0,023	0,058
-503,941	-200,000	-0,017	-0,106
-502,926	735,807	0,025	0,049
-501,912	513,752	0,075	0,127
-500,897	539,328	-0,064	0,111
-499,883	-133,712	-0,074	-0,007
-498,868	95,265	-0,095	-0,078
-497,853	-29,386	0,068	-0,028
-496,839	226,972	-0,118	-0,138
-495,824	37,281	-0,056	0,036
-494,810	71,774	0,128	-0,096
-493,795	-163,464	-0,050	0,002
-492,781	319,297	-0,041	-0,056
-491,766	-102,322	-0,147	-0,025
-490,751	273,028	-0,039	-0,050
-489,737	-135,826	-0,127	0,011
-488,722	25,663	0,174	-0,104
-487,708	-169,806	-0,138	-0,004
-486,693	617,563	0,047	-0,085
-485,678	-200,000	-0,004	-0,038
-484,664	10,238	-0,096	0,052
-483,649	800,000	-0,072	0,147
-482,635	100,318	-0,026	-0,022
-481,620	800,000	-0,023	-0,047
-480,605	-88,280	-0,020	0,004
-479,591	671,174	0,035	0,065
-478,576	529,690	-0,013	-0,022
-477,562	800,000	0,041	-0,084
-476,547	193,432	0,011	-0,012
-475,532	94,946	-0,131	0,107
-474,518	800,000	0,044	-0,134
-473,503	121,877	-0,089	-0,080
-472,489	-139,266	0,121	0,009
-471,474	-56,200	-0,134	0,043
-470,459	5,786	-0,200	-0,106
-469,445	800,000	-0,015	-0,035
-468,430	288,351	0,011	-0,014
-467,416	465,967	0,052	-0,085
-466,401	-5,469	0,083	-0,041
-465,386	-200,000	0,000	0,121
-464,372	-200,000	-0,011	0,086
-463,357	-200,000	-0,001	0,011
-462,343	-114,938	-0,191	0,026
-461,328	-7,027	0,065	0,032
-460,313	161,528	-0,084	-0,085
-459,299	396,825	-0,016	0,024
-458,284	-44,449	0,050	0,018
-457,270	-200,000	0,007	0,036
-456,255	144,708	-0,091	-0,088
-455,241	800,000	0,036	-0,074
-454,226	261,643	0,048	-0,060
-453,211	131,688	-0,088	-0,082
-452,197	-200,000	0,014	-0,059
-451,182	430,423	-0,099	0,155
-450,168	-200,000	0,025	-0,081
-449,153	58,776	-0,049	0,034
-448,138	286,073	-0,070	-0,091
-447,124	154,667	0,032	0,032
-446,109	800,000	-0,042	-0,093
-445,095	39,123	-0,067	0,043
-444,080	207,799	-0,107	0,121
-443,065	-101,273	0,033	0,006
-442,051	-117,857	-0,099	-0,013
-441,036	-65,090	-0,052	-0,015
-440,022	-10,369	0,075	-0,036
-439,007	210,619	-0,051	0,058
-437,992	-200,000	-0,000	0,098
-436,978	212,265	0,088	-0,100
-435,963	-200,000	-0,015	-0,123
-434,949	-101,839	-0,074	0,013
-433,934	-200,000	0,005	0,049
-432,919	58,869	-0,092	0,065
-431,905	-200,000	-0,006	0,093
-430,890	152,988	0,122	0,120
-429,876	-200,000	-0,002	-0,026
-428,861	166,654	0,073	-0,074
-427,846	-103,822	-0,096	-0,016
-426,832	40,360	0,093	0,060
-425,817	-98,444	-0,141	-0,026
-424,803	-173,370	0,124	0,003
-423,788	-24,675	0,056	0,024
-422,773	-97,263	0,118	0,022
-421,759	-200,000	-0,023	0,221
-420,744	800,000	0,052	0,107
-419,730	139,224	0,026	-0,025
-418,715	-74,566	-0,188	0,048
-417,701	800,000	0,014	-0,042
-416,686	-2,018	0,037	0,019
-415,671	576,075	-0,094	0,165
-414,657	95,082	-0,012	0,010
-413,642	800,000	0,012	0,024
-412,628	-44,575	-0,222	-0,079
-411,613	536,806	0,040	-0,069
-410,598	-172,409	0,080	0,002
-409,584	-38,722	0,117	0,044
-408,569	275,096	-0,069	-0,088
-407,555	-200,000	0,071	0,000
-406,540	-200,000	0,040	-0,167
-405,525	7,025	0,048	-0,026
-404,511	-200,000	-0,003	-0,086
-403,496	800,000	-0,049	-0,110
-402,482	800,000	0,029	-0,065
-401,467	-11,740	0,126	-0,059
-400,452	-200,000	-0,007	0,031
-399,438	-200,000	0,032	-0,104
-398,423	136,646	-0,036	-0,034
-397,409	223,417	-0,016	0,018
-396,394	-7,528	-0,035	-0,017
-395,379	1,864	0,088	-0,046
-394,365	-103,117	-0,047	0,008
-393,350	206,218	-0,044	-0,049
-392,336	92,818	0,054	0,043
-391,321	800,000	-0,021	-0,066
-390,306	174,181	0,097	-0,101
-389,292	-23,200	-0,081	0,035
-388,277	92,420	0,121	-0,098
-387,263	-200,000	-0,002	0,067
-386,248	-200,000	0,005	-0,090
-385,233	-200,000	0,008	-0,094
-384,219	800,000	0,030	0,061
-383,204	-169,694	0,024	-0,001
-382,190	-86,845	-0,124	-0,027
-381,175	800,000	0,039	-0,108
-380,160	421,590	-0,018	0,027
-379,146	2,555	0,084	0,044
-378,131	-200,000	-0,012	0,159
-377,117	-200,000	0,011	0,101
-376,102	116,449	-0,053	0,047
-375,088	734,175	-0,071	-0,137
-374,073	151,999	-0,034	0,033
-373,058	-62,262	0,058	0,017
-372,044	800,000	0,038	-0,090
-371,029	-200,000	-0,005	-0,031
-370,015	-54,074	-0,064	-0,021
-369,000	110,254	0,060	0,052
-367,985	800,000	-0,032	-0,082
-366,971	452,477	-0,067	-0,106
-365,956	-200,000	0,020	-0,149
-364,942	157,986	-0,018	0,018
-363,927	800,000	-0,044	-0,099
-362,912	385,322	-0,066	0,097
-361,898	-200,000	0,016	-0,145
-360,883	59,639	-0,090	-0,063
-359,869	-173,806	-0,085	-0,002
-358,854	-89,143	0,109	0,023
-357,839	219,167	0,071	0,082
-356,825	142,901	0,119	0,113
-355,810	-166,985	0,092	0,003
-354,796	-110,084	-0,135	0,020
-353,781	-200,000	-0,002	-0,084
-352,766	465,920	0,065	0,104
-351,752	38,040	0,094	0,060
-350,737	-68,492	0,136	0,038
-349,723	499,488	0,056	-0,093
-348,708	-200,000	-0,011	-0,066
-347,693	-86,785	-0,107	0,023
-346,679	20,378	-0,120	-0,069
-345,664	-162,791	0,027	-0,001
-344,650	-33,616	0,113	0,044
-343,635	461,223	0,052	-0,083
-342,620	-111,434	-0,079	0,011
-341,606	-200,000	0,015	0,062
-340,591	800,000	0,009	-0,021
-339,577	-200,000	0,047	-0,159
-338,562	229,944	-0,065	-0,076
-337,548	183,298	-0,037	-0,039
-336,533	-200,000	-0,012	0,247
-335,518	435,961	0,061	0,095
-334,504	800,000	0,025	-0,061
-333,489	-70,783	0,078	-0,021
-332,475	194,601	0,111	-0,120
-331,460	287,722	-0,064	0,083
-330,445	227,609	-0,060	-0,070
-329,431	-88,733	0,165	-0,035
-328,416	-200,000	-0,002	0,044
-327,402	800,000	0,066	-0,132
-326,387	11,750	0,090	0,049
-325,372	-144,294	0,083	0,005
-324,358	-125,542	-0,040	0,004
-323,343	-65,191	-0,125	0,036
-322,329	-46,537	0,126	0,044
-321,314	87,662	0,077	-0,061
-320,299	-129,063	0,052	-0,005
-319,285	0,097	-0,086	-0,044
-318,270	268,517	-0,054	0,068
-317,256	83,715	0,073	-0,057
-316,241	-200,000	-0,003	-0,055
-315,226	-50,109	-0,011	-0,004
-314,212	-200,000	0,005	-0,023
-313,197	-200,000	-0,015	0,064
-312,183	31,989	-0,036	-0,022
-311,168	-200,000	0,012	-0,048
-310,153	-200,000	0,007	-0,144
-309,139	-36,139	0,027	-0,010
-308,124	-17,762	0,017	-0,008
-307,110	0,221	0,057	0,029
-306,095	726,367	0,030	0,057
-305,080	481,402	-0,050	0,082
-304,066	-19,970	-0,098	0,043
-303,051	-26,451	-0,089	0,037
-302,037	21,964	-0,115	-0,067
-301,022	-200,000	-0,000	0,043
-300,008	-64,869	0,066	-0,019
-298,993	86,096	0,097	0,076
-297,978	122,644	0,124	0,111
-296,964	406,291	0,024	0,037
-295,949	-200,000	-0,024	0,099
-294,935	360,959	-0,108	-0,155
-293,920	-164,171	0,128	0,004
-292,905	327,774	-0,041	0,057
-291,891	-200,000	-0,009	0,038
-290,876	130,609	0,051	0,047
-289,862	-133,279	0,059	0,005
-288,847	-107,459	0,113	-0,018
-287,832	25,273	0,022	0,013
-286,818	194,972	0,061	-0,066
-285,803	-33,085	0,138	-0,054
-284,789	40,680	-0,049	-0,032
-283,774	34,768	-0,036	0,023
-282,759	218,719	0,063	0,072
-281,745	-111,812	-0,086	0,012
-280,730	97,161	0,049	0,040
-279,716	107,461	0,101	0,086
-278,701	-200,000	-0,025	0,123
-277,686	-65,558	0,118	0,034
-276,672	-200,000	0,006	0,043
-275,657	800,000	0,017	-0,045
-274,643	800,000	0,017	-0,043
-273,628	-200,000	0,047	-0,155
-272,613	-58,316	0,061	0,019
-271,599	-60,485	0,017	0,005
-270,584	73,287	-0,044	0,033
-269,570	-22,353	0,096	0,041
-268,555	-1,220	0,040	0,020
-267,540	-200,000	-0,017	0,056
-266,526	33,952	-0,117	0,072
-265,511	368,969	-0,034	0,050
-264,497	378,802	0,053	-0,077
-263,482	4,027	-0,092	0,048
-262,467	800,000	0,047	0,123
-261,453	-200,000	-0,028	0,122
-260,438	-150,855	0,015	-0,001
-259,424	407,328	0,107	-0,162
-258,409	-200,000	-0,014	-0,062
-257,395	507,670	0,011	0,018
-256,380	249,360	0,022	0,026
-255,365	42,423	0,066	0,043
-254,351	26,778	0,113	0,068
-253,336	790,259	-0,031	0,061
-252,322	-200,000	-0,054	-0,179
-251,307	-137,074	0,093	0,008
-250,292	-200,000	0,020	0,162
-249,278	-200,000	0,005	0,101
-248,263	-7,097	0,128	-0,062
-247,249	68,966	-0,076	0,056
-246,234	658,253	-0,050	-0,092
-245,219	370,800	0,015	0,021
-244,205	132,918	-0,037	0,034
-243,190	800,000	-0,038	-0,085
-242,176	-143,110	0,079	0,005
-241,161	800,000	0,082	0,174
-240,146	800,000	-0,059	0,173
-239,132	800,000	0,026	0,065
-238,117	-200,000	0,014	0,111
-237,103	-146,700	-0,067	-0,004
-236,088	746,078	0,081	0,156
-235,073	800,000	-0,017	-0,043
-234,059	-200,000	0,033	0,158
-233,044	-12,672	0,030	-0,014
-232,030	223,082	-0,076	-0,088
-231,015	-75,922	-0,033	-0,008
-230,000	-128,931	-0,102	-0,010
-228,986	800,000	-0,065	-0,156
-227,971	18,651	0,043	-0,024
-226,957	0,591	0,047	-0,024
-225,942	307,293	0,076	0,101
-224,927	-41,552	0,045	0,017
-223,913	511,808	0,045	0,075
-222,898	-84,373	-0,097	-0,022
-221,884	419,386	0,086	0,131
-220,869	97,999	-0,115	0,094
-219,855	105,326	0,145	0,122
-218,840	96,351	-0,007	0,006
-217,825	19,826	0,187	-0,107
-216,811	-200,000	-0,003	0,053
-215,796	-200,000	0,005	0,025
-214,782	-50,570	-0,086	0,029
-213,767	46,970	0,067	0,044
-212,752	-144,581	0,069	0,004
-211,738	440,172	0,004	0,006
-210,723	42,288	-0,027	0,018
-209,709	-200,000	-0,031	-0,170
-208,694	201,215	-0,045	-0,050
-207,679	-19,204	-0,048	-0,021
-206,665	258,842	-0,129	0,159
-205,650	-70,457	0,051	0,014
-204,636	-200,000	0,010	0,075
-203,621	-200,000	-0,016	-0,158
-202,606	26,297	-0,092	-0,054
-201,592	66,221	-0,057	-0,041
-200,577	-200,000	0,018	-0,090
-199,563	344,757	0,053	0,075
-198,548	389,816	-0,032	-0,048
-197,533	561,530	0,029	-0,051
-196,519	-200,000	0,000	0,045
-195,504	656,263	-0,049	0,089
-194,490	62,388	0,044	0,032
-193,475	-200,000	-0,012	-0,113
-192,460	-107,252	0,067	0,010
-191,446	-43,287	0,190	0,068
-190,431	800,000	-0,028	-0,063
-189,417	312,086	-0,089	-0,119
-188,402	-200,000	-0,003	-0,111
-187,387	800,000	-0,045	-0,095
-186,373	-200,000	0,010	-0,067
-185,358	287,515	0,014	0,018
-184,344	2,991	0,128	0,066
-183,329	19,917	-0,161	-0,092
-182,315	800,000	0,029	0,089
-181,300	418,738	-0,026	-0,039
-180,285	5,788	-0,131	-0,069
-179,271	-200,000	0,002	0,018
-178,256	227,983	-0,107	0,124
-177,242	107,528	0,126	0,107
-176,227	392,868	0,033	0,050
-175,212	800,000	-0,009	0,025
-174,198	313,045	-0,042	0,056
-173,183	-200,000	-0,019	-0,117
-172,169	135,377	-0,211	-0,196
-171,154	179,392	0,024	-0,025
-170,139	-200,000	0,005	0,050
-169,125	28,195	0,029	0,018
-168,110	-200,000	-0,056	0,188
-167,096	800,000	0,042	-0,090
-166,081	168,140	0,070	0,071
-165,066	-200,000	-0,016	-0,108
-164,052	72,061	0,116	-0,086
-163,037	-81,169	0,059	0,014
-162,023	709,271	0,038	0,072
-161,008	-111,378	0,048	0,007
-159,993	-200,000	-0,007	0,041
-158,979	10,581	0,109	0,059
-157,964	-200,000	-0,009	-0,102
-156,950	-135,578	-0,157	-0,013
-155,935	800,000	0,024	0,061
-154,920	-200,000	0,007	0,158
-153,906	-200,000	0,003	-0,022
-152,891	800,000	0,023	0,067
-151,877	3,351	-0,108	0,056
-150,862	-114,506	-0,083	-0,011
-149,847	-200,000	-0,010	-0,043
-148,833	-200,000	0,008	-0,086
-147,818	-200,000	-0,012	0,107
-146,804	-135,366	0,034	0,003
-145,789	-152,499	-0,046	0,002
-144,775	-200,000	-0,001	-0,023
-143,760	-1,005	-0,106	-0,053
-142,745	-40,111	-0,056	-0,021
-141,731	68,324	0,029	0,021
-140,716	800,000	-0,015	0,040
-139,702	-13,617	0,100	0,046
-138,687	7,598	0,045	0,024
-137,672	-14,839	-0,145	0,066
-136,658	-149,579	0,093	-0,005
-135,643	105,725	-0,098	0,082
-134,629	228,698	0,054	0,062
-133,614	27,360	0,056	0,034
-132,599	71,885	0,019	0,014
-131,585	155,483	-0,092	0,090
-130,570	-200,000	-0,007	0,135
-129,556	-0,268	-0,011	-0,005
-128,541	159,606	-0,028	0,028
-127,526	-200,000	-0,005	-0,090
-126,512	603,500	0,031	0,055
-125,497	111,932	0,059	0,050
-124,483	-107,294	-0,134	0,021
-123,468	800,000	0,065	0,165
-122,453	71,528	-0,005	0,004
-121,439	-69,387	-0,105	0,028
-120,424	153,883	-0,024	0,023
-119,410	-103,173	0,044	0,007
-118,395	34,119	0,027	0,017
-117,380	661,809	0,033	0,061
-116,366	-200,000	0,004	-0,040
-115,351	800,000	0,010	-0,029
-114,337	17,137	-0,201	-0,113
-113,322	-63,663	-0,124	-0,036
-112,307	54,205	-0,048	-0,033
-111,293	341,004	0,026	0,036
-110,278	-25,754	0,045	0,019
-109,264	-71,786	0,093	0,025
-108,249	-153,433	-0,171	0,008
-107,234	420,807	-0,067	-0,102
-106,220	-136,655	0,031	-0,003
-105,205	-58,417	0,182	0,056
-104,191	290,705	-0,084	0,109
-103,176	-146,735	0,165	-0,010
-102,162	426,690	-0,034	0,052
-101,147	-77,433	-0,095	-0,023
-100,132	-200,000	0,041	-0,262
-99,118	-200,000	-0,011	-0,128
-98,103	-200,000	0,006	-0,076
-97,089	-84,147	0,064	0,014
-96,074	247,563	0,015	0,018
-95,059	-200,000	0,014	0,118
-94,045	248,909	-0,098	0,117
-93,030	325,574	0,021	0,028
-92,016	-200,000	0,032	-0,256
-91,001	-200,000	0,008	0,119
-89,986	800,000	0,039	-0,121
-88,972	-200,000	0,005	0,076
-87,957	550,137	0,042	-0,072
-86,943	-167,804	0,089	0,002
-85,928	-2,648	-0,075	-0,037
-84,913	26,283	-0,140	0,083
-83,899	-200,000	-0,003	0,087
-82,884	327,436	0,039	-0,053
-81,870	-62,216	0,076	-0,022
-80,855	800,000	0,012	0,030
-79,840	125,906	-0,006	0,005
-78,826	-38,784	-0,157	-0,058
-77,811	-86,068	-0,025	0,005
-76,797	-200,000	-0,003	0,080
-75,782	800,000	-0,057	0,116
-74,767	-120,710	-0,059	0,007
-73,753	-200,000	0,000	0,064
-72,738	-200,000	-0,000	0,170
-71,724	613,544	0,039	-0,069
-70,709	128,770	-0,112	-0,101
-69,694	197,416	0,063	0,068
-68,680	-114,983	0,077	0,010
-67,665	18,729	-0,060	-0,034
-66,651	-55,486	-0,189	0,060
-65,636	518,837	-0,017	0,029
-64,622	593,544	-0,019	0,033
-63,607	-200,000	-0,043	-0,227
-62,592	800,000	0,061	-0,124
-61,578	800,000	-0,024	0,055
-60,563	800,000	0,060	0,129
-59,549	-200,000	-0,007	0,102
-58,534	-8,738	-1,531	-0,725
-57,519	372,258	-1,514	-2,185
-56,505	-200,000	-0,500	-4,461
-55,490	148,384	0,954	0,913
-54,476	800,000	4,900	11,297
-53,461	-200,000	18,501	295,325
-52,446	800,000	730,873	2253,821
-51,432	560,085	1647,004	2829,659
-50,417	78,854	1666,879	1262,468
-49,403	22,444	1539,857	889,703
-48,388	16,382	1462,856	815,820
-47,373	17,851	1452,672	817,191
-46,359	17,125	1443,000	808,239
-45,344	14,680	1438,492	794,000
-44,330	14,565	1436,298	792,207
-43,315	14,565	1435,036	791,478
-42,300	14,550	1433,219	790,378
-41,286	14,622	1432,038	790,037
-40,271	14,583	1430,819	789,147
-39,257	14,567	1429,474	788,297
-38,242	14,633	1428,070	787,806
-37,227	14,629	1426,852	787,085
-36,213	14,622	1425,716	786,392
-35,198	14,631	1424,472	785,716
-34,184	14,623	1423,656	785,198
-33,169	14,578	1421,968	784,021
-32,154	14,624	1421,248	783,814
-31,140	14,622	1419,905	783,030
-30,125	14,631	1418,825	782,446
-29,111	14,598	1417,751	781,668
-28,096	14,640	1416,536	781,165
-27,082	14,545	1415,471	780,099
-26,067	14,526	1414,517	779,453
-25,052	14,532	1413,481	778,881
-24,038	14,508	1412,572	778,236
-23,023	14,533	1411,397	777,677
-22,009	14,538	1410,442	777,143
-20,994	14,443	1409,623	776,214
-19,979	14,505	1408,498	775,852
-18,965	14,411	1407,777	774,987
-17,950	14,495	1406,622	774,710
-16,936	14,503	1405,825	774,281
-15,921	14,442	1404,685	773,335
-14,906	14,385	1403,779	772,541
-13,892	14,371	1403,097	772,069
-12,877	14,450	1401,829	771,711
-11,863	14,430	1401,017	771,140
-10,848	14,446	1400,153	770,707
-9,833	14,409	1399,069	769,907
-8,819	14,334	1398,467	769,195
-7,804	14,319	1397,585	768,610
-6,790	14,377	1396,355	768,175
-5,775	14,355	1395,319	767,470
-4,760	14,309	1394,538	766,799
-3,746	14,348	1393,538	766,399
-2,731	14,337	1392,819	765,922
-1,717	14,328	1391,986	765,393
-0,702	14,361	1389,975	764,408
0,313	18,162	1308,926	737,441
1,327	34,728	705,782	436,003
2,342	52,932	124,418	84,134
3,356	3,091	16,669	8,551
4,371	-9,697	3,314	1,557
5,386	-19,685	0,530	0,231
6,400	294,925	0,096	0,124
7,415	-65,059	-0,274	-0,078
8,429	156,253	-0,230	-0,225
9,444	146,250	-0,290	-0,276
10,459	65,231	-0,297	-0,212
11,473	-43,835	-0,346	-0,122
12,488	143,641	-0,169	-0,160
13,502	305,105	-0,253	-0,334
14,517	220,332	-0,202	-0,229
15,531	-7,197	-0,354	-0,169
16,546	59,342	-0,416	-0,290
17,561	230,104	-0,276	-0,320
18,575	21,388	-0,315	-0,181
19,590	0,993	-0,231	-0,117
20,604	-60,858	-0,326	-0,097
21,619	6,475	-0,461	-0,241
22,634	364,555	-0,261	-0,373
23,648	76,752	-0,466	-0,349
24,663	22,082	-0,324	-0,187
25,677	140,787	-0,344	-0,321
26,692	157,083	-0,334	-0,327
27,707	336,632	-0,233	-0,321
28,721	597,110	-0,232	-0,407
29,736	36,973	-0,369	-0,230
30,750	264,087	-0,334	-0,411
31,765	106,359	-0,336	-0,281
32,780	-52,828	-0,439	-0,142
33,794	92,121	-0,294	-0,234
34,809	-37,871	-0,378	-0,141
35,823	45,286	-0,313	-0,204
36,838	19,353	-0,414	-0,234
37,853	120,006	-0,406	-0,356
38,867	149,287	-0,285	-0,272
39,882	35,427	-0,356	-0,220
40,896	12,514	-0,318	-0,172
41,911	30,040	-0,450	-0,270
42,926	218,252	-0,260	-0,293
43,940	62,610	-0,368	-0,259
44,955	196,014	-0,353	-0,379
45,969	41,162	-0,351	-0,223
46,984	105,989	-0,359	-0,300
47,999	-51,319	-0,314	-0,103
49,013	20,057	-0,277	-0,157
50,028	30,892	-0,396	-0,239
51,042	78,260	-0,248	-0,186
52,057	41,094	-0,469	-0,298
53,071	295,951	-0,285	-0,368
54,086	74,822	-0,290	-0,215
55,101	149,331	-0,302	-0,289
56,115	277,601	-0,167	-0,210
57,130	63,404	-0,372	-0,262
58,144	203,141	-0,352	-0,384
59,159	75,396	-0,407	-0,302
60,174	191,554	-0,294	-0,312
61,188	371,145	-0,205	-0,294
62,203	107,414	-0,364	-0,305
63,217	198,063	-0,240	-0,259
64,232	320,117	-0,226	-0,303
65,247	88,460	-0,397	-0,310
66,261	16,959	-0,198	-0,110
67,276	28,441	-0,393	-0,233
68,290	104,923	-0,287	-0,238
69,305	60,323	-0,375	-0,261
70,320	390,871	-0,196	-0,287
71,334	168,964	-0,345	-0,347
72,349	28,390	-0,416	-0,247
73,363	57,328	-0,387	-0,266
74,378	115,215	-0,274	-0,235
75,393	6,209	-0,249	-0,130
76,407	226,542	-0,212	-0,243
77,422	-6,661	-0,249	-0,119
78,436	174,711	-0,254	-0,258
79,451	6,006	-0,424	-0,220
80,466	216,667	-0,265	-0,296
81,480	176,682	-0,332	-0,340
82,495	77,911	-0,310	-0,232
83,509	150,127	-0,225	-0,214
84,524	-54,299	-0,312	-0,099
85,539	67,841	-0,210	-0,151
86,553	-48,844	-0,356	-0,119
87,568	-49,531	-0,285	-0,095
88,582	268,735	-0,194	-0,239
89,597	76,647	-0,382	-0,284
90,611	49,985	-0,352	-0,233
91,626	-31,304	-0,330	-0,130
92,641	216,757	-0,229	-0,256
93,655	5,369	-0,238	-0,123
94,670	28,683	-0,344	-0,204
95,684	88,681	-0,302	-0,235
96,699	54,535	-0,373	-0,252
97,714	329,409	-0,179	-0,242
98,728	173,820	-0,211	-0,215
99,743	25,537	-0,375	-0,219
100,757	688,154	-0,092	-0,170
101,772	24,219	-0,335	-0,194
102,787	47,234	-0,305	-0,199
103,801	383,444	-0,116	-0,167
104,816	48,252	-0,269	-0,176
105,830	306,932	-0,193	-0,253
106,845	428,124	-0,199	-0,302
107,860	152,014	-0,194	-0,186
108,874	110,770	-0,288	-0,243
109,889	-25,537	-0,387	-0,160
110,903	175,369	-0,168	-0,171
111,918	92,850	-0,251	-0,199
112,933	146,979	-0,164	-0,155
113,947	25,794	-0,234	-0,136
114,962	-33,401	-0,274	-0,106
115,976	13,974	-0,337	-0,183
116,991	128,008	-0,268	-0,239
118,006	199,685	-0,192	-0,207
119,020	69,954	-0,154	-0,111
120,035	271,611	-0,189	-0,233
121,049	150,188	-0,249	-0,237
122,064	334,977	-0,259	-0,353
123,079	-111,973	-0,340	-0,048
124,093	-62,903	-0,247	-0,071
125,108	121,636	-0,215	-0,188
126,122	-29,344	-0,312	-0,124
127,137	-71,744	-0,143	0,037
128,151	530,507	-0,091	-0,151
129,166	-66,683	-0,215	-0,059
130,181	249,315	-0,177	-0,211
131,195	-69,206	-0,306	-0,082
132,210	39,624	-0,239	-0,149
133,224	250,366	-0,220	-0,262
134,239	521,725	-0,184	-0,303
135,254	-90,761	-0,277	-0,055
136,268	204,828	-0,222	-0,241
137,283	202,354	-0,289	-0,312
138,297	32,678	-0,292	-0,176
139,312	-8,253	-0,246	-0,115
140,327	223,634	-0,161	-0,183
141,341	670,142	-0,138	-0,251
142,356	133,542	-0,176	-0,159
143,370	118,551	-0,273	-0,235
144,385	1,341	-0,319	-0,160
145,400	93,224	-0,315	-0,249
146,414	281,570	-0,185	-0,232
147,429	91,785	-0,218	-0,171
148,443	54,741	-0,258	-0,174
149,458	172,187	-0,156	-0,157
150,473	132,247	-0,199	-0,180
151,487	22,901	-0,191	-0,109
152,502	80,843	-0,212	-0,159
153,516	-22,188	-0,265	-0,112
154,531	800,000	-0,187	-0,374
155,546	250,955	-0,208	-0,247
156,560	-63,396	-0,228	-0,065
157,575	72,089	-0,233	-0,169
158,589	30,506	-0,218	-0,130
159,604	135,522	-0,123	-0,112
160,619	89,479	-0,345	-0,269
161,633	32,187	-0,319	-0,192
162,648	258,457	-0,245	-0,295
163,662	-90,064	-0,277	-0,056
164,677	-43,791	-0,240	-0,084
165,692	226,401	-0,162	-0,183
166,706	152,466	-0,227	-0,216
167,721	15,167	-0,161	-0,088
168,735	35,143	-0,336	-0,205
169,750	125,829	-0,245	-0,216
170,764	30,783	-0,127	-0,075
171,779	331,601	-0,113	-0,152
172,794	490,766	-0,113	-0,181
173,808	362,568	-0,208	-0,292
174,823	-13,274	-0,369	-0,167
175,837	690,188	-0,109	-0,200
176,852	174,257	-0,166	-0,168
177,867	186,364	-0,219	-0,227
178,881	-55,999	-0,215	-0,066
179,896	-97,374	-0,185	0,033
180,910	11,160	-0,326	-0,173
181,925	68,843	-0,170	-0,121
182,940	0,058	-0,223	-0,111
183,954	172,008	-0,210	-0,211
184,969	174,701	-0,302	-0,304
185,983	56,710	-0,155	-0,105
186,998	275,095	-0,105	-0,131
188,013	139,699	-0,244	-0,224
189,027	368,160	-0,141	-0,199
190,042	-17,587	-0,178	-0,077
191,056	101,638	-0,205	-0,166
192,071	12,566	-0,157	-0,084
193,086	-120,034	-0,260	-0,031
194,100	-200,000	-0,013	-0,193
195,115	14,090	-0,164	-0,088
196,129	87,467	-0,256	-0,197
197,144	155,881	-0,110	-0,105
198,159	-1,318	-0,272	-0,133
199,173	-0,637	-0,182	-0,089
200,188	-4,857	-0,154	-0,074
201,202	103,095	-0,184	-0,150
202,217	119,381	-0,155	-0,134
203,232	134,678	-0,236	-0,213
204,246	774,919	-0,097	-0,185
205,261	-117,198	-0,309	-0,039
206,275	62,850	-0,222	-0,154
207,290	44,656	-0,281	-0,179
208,304	-124,094	-0,254	0,027
209,319	110,995	-0,193	-0,161
210,334	20,557	-0,187	-0,105
211,348	33,974	-0,275	-0,166
212,363	626,718	-0,139	-0,245
213,377	278,278	0,004	-0,005
214,392	-119,583	-0,225	-0,027
215,407	70,728	-0,121	-0,087
216,421	554,022	-0,078	0,131
217,436	3,670	-0,191	-0,096
218,450	236,507	-0,091	-0,105
219,465	415,402	-0,173	-0,257
220,480	7,039	-0,219	-0,113
221,494	94,108	-0,189	-0,149
222,509	241,374	-0,188	-0,218
223,523	323,694	-0,132	-0,175
224,538	-76,438	-0,235	0,057
225,553	274,926	-0,186	-0,229
226,567	-39,096	-0,182	-0,066
227,582	57,268	-0,205	-0,139
228,596	-51,566	-0,127	-0,041
229,611	207,271	-0,178	-0,193
230,626	17,964	-0,195	-0,108
231,640	659,900	-0,103	-0,185
232,655	160,040	-0,267	-0,258
233,669	120,825	-0,289	-0,249
234,684	-9,265	-0,239	-0,110
235,699	186,768	-0,131	-0,136
236,713	205,680	-0,178	-0,192
237,728	-85,955	-0,199	-0,042
238,742	141,944	-0,096	-0,088
239,757	24,115	-0,257	-0,147
240,772	118,606	-0,216	-0,185
241,786	210,392	-0,164	-0,179
242,801	267,038	-0,127	-0,154
243,815	-105,694	-0,293	-0,046
244,830	39,707	-0,211	-0,131
245,844	-68,764	-0,209	-0,056
246,859	-12,814	-0,125	0,056
247,874	11,040	-0,143	-0,076
248,888	800,000	-0,101	-0,202
249,903	800,000	-0,102	-0,222
250,917	-34,941	-0,301	-0,113
251,932	-169,623	-0,156	0,004
252,947	-1,964	-0,236	-0,114
253,961	-146,046	-0,315	0,019
254,976	156,497	-0,234	-0,224
255,990	800,000	-0,108	-0,233
257,005	800,000	-0,106	-0,210
258,020	-13,301	-0,175	-0,078
259,034	-200,000	-0,020	-0,094
260,049	166,200	-0,183	-0,179
261,063	-52,827	-0,141	-0,045
262,078	308,826	-0,157	-0,203
263,093	28,174	-0,149	-0,087
264,107	-44,537	-0,180	-0,062
265,122	-8,179	-0,194	-0,090
266,136	-141,574	-0,081	-0,006
267,151	4,561	-0,076	-0,038
268,166	81,279	-0,242	-0,181
269,180	84,516	-0,087	0,065
270,195	-85,270	-0,164	-0,035
271,209	-67,503	-0,182	-0,049
272,224	5,388	-0,196	-0,100
273,239	23,991	-0,173	-0,099
274,253	5,992	-0,212	-0,108
275,268	65,958	-0,166	0,116
276,282	147,403	-0,145	-0,135
277,297	-48,842	-0,206	-0,068
278,312	77,714	-0,175	-0,129
279,326	40,338	-0,062	-0,038
280,341	543,433	-0,095	-0,158
281,355	-33,612	-0,227	-0,086
282,370	-20,527	-0,263	-0,111
283,384	-120,066	-0,254	-0,030
284,399	395,514	-0,208	-0,301
285,414	800,000	-0,130	-0,251
286,428	198,353	-0,175	-0,186
287,443	800,000	-0,050	-0,096
288,457	-34,784	-0,142	-0,053
289,472	-200,000	-0,051	-0,180
290,487	-13,856	-0,185	-0,082
291,501	115,439	-0,150	-0,126
292,516	-0,213	-0,178	-0,087
293,530	61,650	-0,053	-0,036
294,545	782,908	-0,081	-0,154
295,560	146,003	-0,134	-0,124
296,574	800,000	-0,071	-0,203
297,589	160,243	-0,176	-0,169
298,603	-200,000	-0,024	-0,202
299,618	200,787	-0,034	0,036
300,633	216,241	-0,153	-0,168
301,647	-84,390	-0,054	-0,012
302,662	459,783	-0,068	-0,105
303,676	38,595	-0,101	-0,062
304,691	279,890	-0,130	-0,161
305,706	-57,131	-0,268	-0,081
306,720	-25,883	-0,138	-0,056
307,735	651,468	-0,032	0,056
308,749	84,851	-0,116	-0,088
309,764	49,014	-0,115	-0,074
310,779	65,243	-0,117	-0,082
311,793	800,000	-0,070	-0,170
312,808	-91,076	-0,244	-0,048
313,822	36,245	-0,179	-0,108
314,837	-60,335	-0,193	-0,056
315,852	-25,608	-0,242	0,098
316,866	-50,480	-0,097	0,031
317,881	800,000	-0,047	-0,112
318,895	196,736	-0,079	-0,083
319,910	-200,000	-0,028	-0,216
320,925	39,362	-0,107	-0,066
321,939	-200,000	0,021	-0,120
322,954	-200,000	0,002	-0,192
323,968	-200,000	-0,002	-0,012
324,983	140,800	-0,135	-0,123
325,997	214,080	-0,095	-0,104
327,012	6,210	-0,210	-0,107
328,027	376,146	-0,168	-0,237
329,041	-124,949	-0,154	0,016
330,056	192,167	-0,087	-0,090
331,070	65,992	-0,127	-0,089
332,085	800,000	-0,049	-0,143
333,100	349,999	-0,083	-0,113
334,114	91,948	-0,153	-0,119
335,129	20,416	-0,145	0,080
336,143	187,426	-0,097	-0,100
337,158	422,633	-0,100	-0,147
338,173	-173,773	-0,084	0,002
339,187	-35,089	-0,102	-0,038
340,202	74,364	-0,152	-0,110
341,216	-124,142	-0,161	-0,017
342,231	718,538	-0,112	-0,205
343,246	-139,600	-0,125	-0,009
344,260	-14,352	-0,111	-0,049
345,275	-104,740	-0,261	-0,041
346,289	-92,623	-0,127	0,024
347,304	800,000	-0,105	-0,245
348,319	-78,613	-0,230	-0,053
349,333	144,288	-0,171	-0,157
350,348	481,253	-0,118	-0,185
351,362	141,400	-0,111	-0,101
352,377	800,000	-0,056	-0,135
353,392	94,950	-0,059	0,046
354,406	-146,496	-0,221	0,013
355,421	208,005	1312,897	1409,646
356,435	160,028	1473,434	1410,158
