DTS Sentinel unit serial number:	SN410029Multiplexer serial number:	ORYXHardware model number:	OX2-SRSoftware version number:	ORYX F/W v4,00 Oryx Data Collector v3.7.2.0data status	okinstallation	B3 Nyhavnadifferential loss correction	single-endedforward channel	channel 1reverse channel	N/Adate	2023/11/29time	23:22:30forward acquisition time	300,00reverse acquisition time	0,00gamma	499,1914k internal	0,3210k external	0,3210temperature offset calibration	1,0000default loss term (dB/km)	0,3820temperature slope calibration	1,0000multiplexer offset coefficient	1,0000multiplexer slope coefficient	1,0000fibre end	0,00T internal ref (°C)	10,88T ext. ref 1 (°C)	-3,94T ext. ref 2 (°C)	-4,03length (m)	temperature (°C)	Stokes	anti-Stokes-744,400	-15,087	-0,333	-0,154
-743,385	-200,000	0,021	0,277
-742,371	-200,000	0,015	-0,228
-741,356	-200,000	-0,065	0,258
-740,342	297,727	-0,110	-0,147
-739,327	780,251	-0,063	0,126
-738,312	507,113	-0,178	-0,301
-737,298	-200,000	0,018	0,158
-736,283	-200,000	-0,048	-0,193
-735,269	-200,000	0,010	0,274
-734,254	-200,000	-0,042	-0,160
-733,239	-73,420	-0,294	0,077
-732,225	800,000	-0,109	-0,271
-731,210	800,000	0,060	0,141
-730,196	800,000	-0,022	-0,049
-729,181	24,520	0,049	-0,029
-728,167	-110,120	-0,140	0,021
-727,152	800,000	-0,026	0,071
-726,137	-122,209	-0,118	-0,014
-725,123	-36,078	0,075	0,029
-724,108	-200,000	-0,068	-0,236
-723,094	800,000	-0,046	-0,100
-722,079	225,829	-0,040	-0,048
-721,064	96,331	-0,068	0,056
-720,050	471,396	0,083	-0,135
-719,035	-41,707	0,126	-0,047
-718,021	-200,000	-0,040	0,161
-717,006	-200,000	-0,024	0,086
-715,991	117,020	-0,134	-0,119
-714,977	800,000	0,011	-0,026
-713,962	99,211	-0,020	-0,017
-712,948	-200,000	-0,011	-0,070
-711,933	-25,091	-0,076	-0,032
-710,918	800,000	-0,019	-0,061
-709,904	-104,620	-0,161	-0,027
-708,889	-200,000	0,001	0,104
-707,875	800,000	0,035	0,072
-706,860	-65,475	-0,110	-0,032
-705,845	-63,892	0,105	0,031
-704,831	198,229	-0,022	-0,024
-703,816	-80,189	-0,132	0,032
-702,802	-200,000	0,031	0,162
-701,787	222,103	-0,135	-0,158
-700,772	155,990	-0,023	-0,023
-699,758	-200,000	0,011	0,137
-698,743	259,727	0,018	0,023
-697,729	-4,804	-0,108	0,054
-696,714	800,000	-0,043	0,119
-695,699	-123,292	0,074	-0,008
-694,685	-0,498	-0,046	0,023
-693,670	68,503	-0,187	-0,139
-692,656	92,820	0,181	-0,148
-691,641	351,238	-0,089	0,127
-690,627	-200,000	0,008	-0,028
-689,612	25,369	-0,004	0,003
-688,597	-48,025	0,056	0,019
-687,583	87,465	-0,042	-0,033
-686,568	-200,000	0,006	-0,115
-685,554	800,000	0,013	0,027
-684,539	-36,762	0,047	-0,018
-683,524	-150,902	0,114	-0,006
-682,510	-200,000	-0,008	0,065
-681,495	-52,783	-0,022	0,007
-680,481	-200,000	-0,019	0,102
-679,466	-8,337	-0,071	-0,034
-678,451	-200,000	-0,007	-0,061
-677,437	-104,932	-0,047	0,008
-676,422	-200,000	0,019	-0,065
-675,408	-71,810	-0,019	-0,005
-674,393	800,000	0,034	0,080
-673,378	-91,299	-0,154	0,032
-672,364	-200,000	0,008	-0,132
-671,349	512,265	0,040	-0,068
-670,335	746,395	-0,075	0,147
-669,320	435,350	0,033	0,053
-668,305	-106,274	-0,059	0,010
-667,291	-84,591	-0,066	0,015
-666,276	34,377	-0,063	-0,040
-665,262	-68,580	0,043	0,012
-664,247	800,000	-0,017	-0,049
-663,232	371,761	-0,071	0,105
-662,218	-200,000	0,024	0,083
-661,203	91,022	0,111	-0,090
-660,189	255,703	-0,065	0,081
-659,174	-129,426	-0,124	0,012
-658,159	-200,000	0,004	-0,187
-657,145	131,391	0,055	-0,051
-656,130	-165,521	0,083	-0,003
-655,116	-5,932	-0,127	0,063
-654,101	-29,051	-0,067	-0,028
-653,086	191,129	0,110	-0,120
-652,072	-200,000	-0,023	0,076
-651,057	63,759	-0,143	-0,103
-650,043	-112,403	-0,098	-0,014
-649,028	370,965	0,040	0,059
-648,014	-8,947	0,032	-0,015
-646,999	-200,000	0,005	-0,059
-645,984	-200,000	-0,009	0,034
-644,970	703,168	0,045	0,086
-643,955	299,179	-0,090	-0,120
-642,941	32,473	-0,139	-0,086
-641,926	-200,000	-0,030	0,145
-640,911	-88,315	0,035	-0,008
-639,897	476,029	0,031	-0,050
-638,882	800,000	-0,004	0,012
-637,868	44,126	0,056	0,037
-636,853	534,683	-0,049	-0,084
-635,838	210,246	-0,040	-0,046
-634,824	88,024	-0,078	-0,063
-633,809	-200,000	0,002	0,033
-632,795	57,107	0,063	0,045
-631,780	-101,832	0,114	0,020
-630,765	-200,000	-0,008	-0,166
-629,751	91,712	-0,102	-0,083
-628,736	713,301	-0,066	-0,127
-627,722	34,890	0,082	0,052
-626,707	-20,504	0,038	-0,017
-625,692	-56,514	0,051	0,016
-624,678	255,568	-0,027	-0,034
-623,663	33,611	0,097	-0,061
-622,649	129,484	-0,096	-0,088
-621,634	18,119	0,032	-0,018
-620,619	91,014	-0,084	-0,068
-619,605	-200,000	-0,006	-0,160
-618,590	-200,000	-0,031	0,107
-617,576	17,937	-0,135	0,077
-616,561	57,343	0,016	0,011
-615,546	-93,584	-0,028	-0,005
-614,532	-4,158	-0,078	-0,039
-613,517	-111,410	-0,138	-0,020
-612,503	-193,170	-0,086	0,001
-611,488	-26,943	0,118	0,049
-610,474	344,269	0,065	0,092
-609,459	149,246	-0,037	0,036
-608,444	417,201	-0,034	-0,052
-607,430	800,000	-0,093	-0,197
-606,415	800,000	0,036	0,079
-605,401	-200,000	-0,006	0,059
-604,386	-2,629	0,081	0,041
-603,371	379,616	-0,048	0,071
-602,357	494,875	0,079	0,131
-601,342	800,000	-0,029	-0,090
-600,328	-49,694	-0,062	-0,021
-599,313	800,000	-0,010	-0,023
-598,298	-172,120	-0,015	-0,000
-597,284	86,944	-0,028	0,022
-596,269	-74,571	-0,127	-0,033
-595,255	350,885	0,056	0,080
-594,240	174,289	0,065	-0,068
-593,225	-200,000	0,041	-0,155
-592,211	372,966	0,021	0,031
-591,196	370,886	0,010	-0,015
-590,182	167,758	-0,075	0,077
-589,167	51,828	0,066	0,045
-588,152	-83,100	0,033	0,008
-587,138	-48,640	-0,073	0,025
-586,123	18,752	0,030	0,017
-585,109	20,562	0,040	0,023
-584,094	-37,609	-0,117	-0,045
-583,079	34,332	0,139	-0,087
-582,065	-200,000	0,026	0,090
-581,050	-31,563	-0,107	0,043
-580,036	-200,000	0,017	-0,057
-579,021	742,635	0,072	0,140
-578,006	338,652	0,063	-0,088
-576,992	800,000	-0,018	-0,049
-575,977	-12,867	-0,067	-0,032
-574,963	800,000	-0,031	0,071
-573,948	-200,000	0,038	0,122
-572,934	162,828	0,090	0,091
-571,919	-48,038	-0,077	0,027
-570,904	100,282	0,056	-0,047
-569,890	-139,215	-0,059	0,005
-568,875	17,097	0,052	-0,030
-567,861	17,265	0,060	0,034
-566,846	94,523	0,136	0,111
-565,831	800,000	0,004	0,011
-564,817	-105,210	-0,114	0,019
-563,802	-200,000	-0,026	-0,096
-562,788	134,904	-0,078	-0,073
-561,773	210,266	0,057	-0,065
-560,758	178,373	0,035	0,037
-559,744	-200,000	0,006	0,072
-558,729	-162,017	0,022	0,001
-557,715	719,741	-0,036	0,070
-556,700	119,945	-0,015	-0,014
-555,685	-60,027	-0,006	-0,002
-554,671	249,464	-0,098	0,120
-553,656	800,000	-0,048	0,104
-552,642	-26,079	0,095	0,040
-551,627	399,276	-0,027	-0,041
-550,612	-54,592	0,047	-0,015
-549,598	624,282	-0,071	-0,130
-548,583	-200,000	-0,024	-0,092
-547,569	-2,541	0,139	-0,070
-546,554	205,029	-0,097	-0,109
-545,539	-136,338	0,168	0,014
-544,525	78,782	-0,087	0,067
-543,510	-11,487	-0,060	-0,028
-542,496	-200,000	0,002	-0,091
-541,481	-191,983	0,113	-0,001
-540,466	-200,000	0,009	-0,067
-539,452	254,454	-0,083	-0,102
-538,437	-200,000	0,038	0,123
-537,423	-107,346	-0,045	-0,007
-536,408	28,469	-0,114	-0,069
-535,393	415,486	-0,046	-0,070
-534,379	-59,553	0,084	-0,026
-533,364	-200,000	-0,021	0,113
-532,350	-4,474	0,113	0,056
-531,335	-28,195	0,047	-0,019
-530,321	713,169	-0,032	-0,061
-529,306	-200,000	0,006	0,088
-528,291	-113,434	-0,074	-0,010
-527,277	800,000	0,054	-0,127
-526,262	426,646	0,094	-0,147
-525,248	165,448	0,005	0,005
-524,233	-130,070	-0,078	0,008
-523,218	-84,975	-0,022	0,005
-522,204	640,292	-0,059	-0,108
-521,189	386,507	-0,121	-0,180
-520,175	800,000	0,018	-0,037
-519,160	7,337	-0,030	0,016
-518,145	800,000	0,021	0,063
-517,131	242,110	-0,053	0,064
-516,116	3,919	-0,040	-0,021
-515,102	-1,579	-0,097	0,049
-514,087	-200,000	-0,003	0,092
-513,072	72,713	0,099	-0,074
-512,058	-169,758	0,094	0,002
-511,043	-3,754	0,070	0,035
-510,029	-200,000	0,003	-0,019
-509,014	600,864	-0,044	-0,079
-507,999	5,535	0,114	0,060
-506,985	274,054	-0,071	0,090
-505,970	534,837	0,037	-0,063
-504,956	28,495	-0,130	0,079
-503,941	3,979	-0,076	0,040
-502,926	63,522	0,081	-0,058
-501,912	311,704	-0,088	-0,119
-500,897	64,609	-0,100	0,072
-499,883	479,641	-0,036	-0,059
-498,868	39,903	-0,078	-0,050
-497,853	201,308	0,030	0,034
-496,839	407,167	-0,015	0,023
-495,824	-18,293	0,100	0,045
-494,810	255,241	-0,031	0,038
-493,795	-200,000	0,005	-0,059
-492,781	115,039	0,070	0,061
-491,766	-200,000	0,004	0,103
-490,751	-90,876	-0,101	-0,021
-489,737	-200,000	0,000	-0,043
-488,722	-114,751	0,027	-0,004
-487,708	-135,511	-0,069	-0,006
-486,693	-112,686	-0,101	-0,014
-485,678	800,000	-0,068	0,141
-484,664	-93,666	0,137	-0,027
-483,649	-111,879	-0,168	-0,024
-482,635	8,665	-0,067	0,036
-481,620	-200,000	0,025	0,140
-480,605	-190,539	0,173	-0,001
-479,591	-1,686	0,050	-0,025
-478,576	800,000	-0,033	-0,088
-477,562	204,734	0,064	0,071
-476,547	136,517	-0,041	0,038
-475,532	214,502	-0,042	0,048
-474,518	502,429	0,017	0,028
-473,503	-53,566	0,119	0,039
-472,489	-200,000	-0,001	-0,086
-471,474	0,978	0,099	-0,051
-470,459	63,583	0,077	-0,055
-469,445	153,409	0,084	-0,082
-468,430	5,799	-0,073	-0,038
-467,416	80,275	0,078	-0,060
-466,401	-4,511	0,057	0,028
-465,386	-24,569	0,090	0,038
-464,372	800,000	-0,022	0,054
-463,357	44,363	-0,038	-0,025
-462,343	109,029	-0,068	-0,059
-461,328	38,711	-0,014	-0,009
-460,313	195,988	0,147	-0,160
-459,299	800,000	-0,054	0,154
-458,284	-200,000	0,006	-0,033
-457,270	34,863	0,071	-0,044
-456,255	800,000	0,048	-0,120
-455,241	-16,912	-0,016	-0,007
-454,226	-200,000	0,008	-0,037
-453,211	57,802	0,020	0,014
-452,197	155,285	0,062	0,061
-451,182	6,357	-0,041	-0,022
-450,168	800,000	0,038	-0,086
-449,153	-132,206	-0,087	-0,008
-448,138	232,302	0,085	-0,100
-447,124	-200,000	0,023	-0,109
-446,109	123,292	-0,057	0,052
-445,095	7,685	0,119	0,064
-444,080	140,903	0,081	0,077
-443,065	-104,059	0,115	0,019
-442,051	800,000	-0,117	-0,240
-441,036	151,717	0,139	-0,136
-440,022	109,182	0,061	0,052
-439,007	229,515	-0,041	-0,048
-437,992	-200,000	0,005	0,060
-436,978	36,210	0,033	0,021
-435,963	-90,444	-0,091	0,019
-434,949	29,564	-0,152	0,093
-433,934	134,786	0,157	-0,146
-432,919	43,200	-0,091	-0,059
-431,905	739,544	0,051	-0,099
-430,890	-85,982	0,092	0,020
-429,876	-200,000	-0,047	0,152
-428,861	113,180	0,067	-0,058
-427,846	253,384	-0,087	0,107
-426,832	800,000	0,013	-0,034
-425,817	-165,687	-0,153	0,005
-424,803	178,526	0,071	0,075
-423,788	538,025	-0,006	-0,010
-422,773	176,608	-0,072	0,075
-421,759	570,840	-0,046	0,081
-420,744	177,972	0,026	-0,027
-419,730	618,541	-0,013	0,023
-418,715	505,473	0,041	-0,068
-417,701	202,434	-0,060	0,066
-416,686	183,924	0,089	0,095
-415,671	69,679	-0,056	0,041
-414,657	7,503	-0,152	0,081
-413,642	800,000	-0,017	0,047
-412,628	-200,000	-0,016	-0,076
-411,613	119,524	-0,044	-0,039
-410,598	51,497	0,059	-0,040
-409,584	97,398	-0,039	-0,032
-408,569	28,790	-0,090	-0,055
-407,555	-106,039	-0,033	-0,005
-406,540	127,731	0,100	-0,091
-405,525	-200,000	-0,008	0,159
-404,511	111,252	-0,080	-0,069
-403,496	104,302	0,051	-0,043
-402,482	800,000	0,026	0,076
-401,467	97,215	-0,045	0,037
-400,452	130,176	0,047	-0,043
-399,438	-200,000	-0,034	0,147
-398,423	-33,879	-0,103	0,040
-397,409	-58,050	0,080	0,025
-396,394	800,000	0,068	-0,161
-395,379	-200,000	-0,030	-0,106
-394,365	-98,665	0,135	0,024
-393,350	297,293	-0,044	-0,058
-392,336	482,226	0,022	0,035
-391,321	143,598	0,065	-0,062
-390,306	226,461	-0,068	-0,079
-389,292	-116,989	0,066	-0,009
-388,277	503,091	0,058	-0,096
-387,263	-51,256	-0,007	0,002
-386,248	178,811	-0,095	-0,099
-385,233	242,164	0,037	-0,045
-384,219	149,633	-0,088	0,085
-383,204	-7,606	-0,051	0,024
-382,190	-200,000	0,020	0,104
-381,175	468,532	-0,082	-0,132
-380,160	-118,087	-0,071	0,009
-379,146	-79,638	0,059	0,014
-378,131	-200,000	-0,001	-0,073
-377,117	-200,000	-0,013	-0,113
-376,102	34,709	-0,094	-0,059
-375,088	790,690	-0,028	-0,055
-374,073	510,174	0,011	0,019
-373,058	57,017	-0,028	0,020
-372,044	325,862	0,057	-0,078
-371,029	1,804	0,046	0,024
-370,015	800,000	0,013	0,028
-369,000	112,546	0,054	-0,047
-367,985	800,000	-0,052	-0,158
-366,971	43,524	0,074	0,048
-365,956	-136,152	0,041	0,003
-364,942	469,740	0,039	0,063
-363,927	205,107	-0,102	-0,113
-362,912	65,407	0,140	0,101
-361,898	-200,000	0,027	0,105
-360,883	-48,704	-0,091	0,031
-359,869	-34,968	-0,152	-0,059
-358,854	287,675	0,022	0,028
-357,839	800,000	0,069	-0,142
-356,825	-97,508	0,033	0,006
-355,810	-7,606	0,161	0,077
-354,796	-80,576	-0,061	-0,014
-353,781	800,000	-0,053	-0,134
-352,766	-200,000	0,024	0,090
-351,752	-60,588	0,045	-0,014
-350,737	131,272	-0,071	0,065
-349,723	6,283	0,125	0,066
-348,708	202,000	-0,049	0,055
-347,693	-102,154	-0,076	-0,013
-346,679	-200,000	0,024	-0,081
-345,664	-200,000	0,009	0,085
-344,650	800,000	0,032	0,092
-343,635	201,797	-0,082	0,090
-342,620	-121,714	0,123	0,014
-341,606	-125,474	-0,083	0,009
-340,591	-56,338	0,112	0,035
-339,577	-77,250	-0,101	-0,025
-338,562	-52,050	-0,046	-0,015
-337,548	-200,000	0,016	0,172
-336,533	544,402	-0,044	0,075
-335,518	-107,187	0,066	-0,010
-334,504	-122,623	0,039	-0,004
-333,489	49,531	0,115	-0,077
-332,475	-200,000	-0,011	-0,039
-331,460	-200,000	-0,005	-0,093
-330,445	74,053	0,133	0,100
-329,431	-200,000	-0,010	0,226
-328,416	-200,000	0,022	-0,072
-327,402	-22,943	0,046	-0,020
-326,387	245,123	0,066	-0,079
-325,372	-77,576	-0,037	0,009
-324,358	16,027	-0,074	0,041
-323,343	-131,100	0,021	0,002
-322,329	-200,000	-0,010	-0,076
-321,314	-114,475	0,129	-0,017
-320,299	-200,000	0,014	0,252
-319,285	-49,920	0,083	-0,028
-318,270	800,000	-0,019	0,051
-317,256	-46,635	-0,122	0,042
-316,241	-5,204	-0,080	-0,039
-315,226	-51,965	-0,072	0,024
-314,212	179,035	0,091	-0,094
-313,197	-54,531	0,057	0,018
-312,183	651,479	-0,080	0,146
-311,168	367,077	-0,046	0,066
-310,153	358,647	-0,063	-0,089
-309,139	400,494	-0,050	-0,075
-308,124	-137,639	0,022	-0,002
-307,110	110,996	0,067	0,057
-306,095	-2,502	0,120	-0,060
-305,080	142,152	-0,054	0,051
-304,066	150,366	-0,044	0,043
-303,051	279,395	-0,074	-0,094
-302,037	-73,357	-0,061	0,016
-301,022	199,217	0,104	-0,114
-300,008	800,000	0,036	0,086
-298,993	800,000	-0,045	-0,111
-297,978	104,712	-0,062	-0,052
-296,964	-56,592	-0,043	0,014
-295,949	800,000	-0,033	-0,075
-294,935	-200,000	-0,003	0,039
-293,920	-44,109	-0,038	0,014
-292,905	800,000	-0,026	0,081
-291,891	118,163	0,078	-0,069
-290,876	57,566	-0,073	-0,051
-289,862	-200,000	0,041	-0,155
-288,847	278,704	-0,098	-0,125
-287,832	-200,000	-0,025	-0,103
-286,818	-200,000	0,003	0,069
-285,803	-41,481	0,117	-0,043
-284,789	-77,836	-0,117	0,029
-283,774	-200,000	-0,031	0,164
-282,759	-200,000	-0,011	-0,050
-281,745	-164,729	-0,072	0,002
-280,730	651,938	0,051	-0,093
-279,716	800,000	-0,039	0,103
-278,701	166,042	0,145	0,146
-277,686	-4,588	0,078	0,038
-276,672	-9,814	0,146	0,069
-275,657	-86,333	-0,083	-0,018
-274,643	-200,000	0,008	0,077
-273,628	119,298	0,049	0,043
-272,613	58,525	0,041	-0,028
-271,599	-200,000	0,009	-0,124
-270,584	96,876	0,127	-0,103
-269,570	-60,351	0,041	0,012
-268,555	241,578	0,044	-0,053
-267,540	800,000	-0,007	0,019
-266,526	-49,956	-0,050	-0,017
-265,511	-200,000	-0,009	0,036
-264,497	800,000	0,049	0,103
-263,482	800,000	-0,028	-0,060
-262,467	65,480	0,034	-0,025
-261,453	-200,000	-0,015	0,057
-260,438	121,990	-0,059	0,052
-259,424	-3,049	0,043	-0,021
-258,409	83,086	-0,026	0,020
-257,395	800,000	0,094	0,219
-256,380	689,304	0,047	0,088
-255,365	-200,000	0,019	-0,062
-254,351	30,949	-0,104	0,063
-253,336	447,971	0,064	0,101
-252,322	800,000	-0,052	-0,105
-251,307	-43,416	-0,172	-0,062
-250,292	39,909	-0,052	-0,033
-249,278	-34,560	0,015	0,006
-248,263	800,000	0,044	0,134
-247,249	-200,000	-0,004	0,032
-246,234	800,000	-0,050	0,103
-245,219	-75,381	-0,047	0,012
-244,205	102,732	0,027	0,022
-243,190	-59,483	-0,107	0,032
-242,176	21,727	-0,023	-0,013
-241,161	199,535	0,092	0,101
-240,146	720,970	0,042	0,080
-239,132	-28,485	-0,145	-0,059
-238,117	800,000	0,066	-0,190
-237,103	69,097	-0,119	-0,087
-236,088	-148,638	0,104	-0,006
-235,073	800,000	-0,005	-0,014
-234,059	231,980	-0,069	0,081
-233,044	371,359	0,079	0,114
-232,030	-111,484	-0,035	-0,005
-231,015	-200,000	-0,023	-0,114
-230,000	66,391	-0,050	0,036
-228,986	-52,857	-0,118	-0,039
-227,971	-200,000	0,007	0,054
-226,957	-200,000	0,005	0,090
-225,942	-106,023	-0,064	0,010
-224,927	-200,000	0,006	0,063
-223,913	52,499	-0,078	-0,053
-222,898	-81,507	-0,039	0,009
-221,884	-200,000	0,008	0,126
-220,869	493,501	0,037	0,061
-219,855	-200,000	0,021	0,073
-218,840	-55,425	0,132	0,042
-217,825	434,690	-0,052	-0,080
-216,811	-200,000	0,014	0,104
-215,796	-2,677	-0,113	0,056
-214,782	-53,313	0,066	0,021
-213,767	126,157	0,064	-0,058
-212,752	-97,638	0,081	-0,015
-211,738	-187,339	-0,037	0,000
-210,723	6,201	0,091	0,048
-209,709	-73,446	0,082	0,021
-208,694	167,077	-0,050	-0,051
-207,679	-200,000	-0,036	-0,133
-206,665	-21,483	0,114	-0,049
-205,650	-200,000	0,013	0,168
-204,636	369,463	-0,043	0,061
-203,621	-174,863	-0,106	0,002
-202,606	-200,000	0,001	-0,010
-201,592	23,931	-0,052	-0,030
-200,577	336,134	-0,102	-0,142
-199,563	-200,000	-0,013	0,055
-198,548	-51,364	0,094	0,031
-197,533	800,000	0,021	-0,052
-196,519	-200,000	0,001	-0,037
-195,504	-200,000	-0,004	0,017
-194,490	160,723	0,094	-0,093
-193,475	396,747	0,024	0,036
-192,460	696,024	0,066	0,124
-191,446	385,998	0,031	0,046
-190,431	362,654	0,080	0,115
-189,417	-200,000	-0,016	0,060
-188,402	-134,579	-0,062	0,005
-187,387	-40,952	-0,033	-0,012
-186,373	705,952	0,047	-0,088
-185,358	45,325	-0,078	-0,051
-184,344	-85,810	0,017	0,004
-183,329	-200,000	0,004	-0,028
-182,315	70,212	-0,071	0,052
-181,300	-200,000	-0,025	-0,097
-180,285	-2,593	0,089	0,044
-179,271	-176,335	-0,085	0,002
-178,256	272,353	0,025	0,031
-177,242	-200,000	-0,015	0,112
-176,227	-200,000	-0,001	0,063
-175,212	-200,000	0,042	0,150
-174,198	-36,555	-0,048	0,018
-173,183	342,284	0,054	0,075
-172,169	-200,000	0,017	-0,127
-171,154	800,000	-0,020	-0,051
-170,139	-59,143	0,044	0,013
-169,125	267,482	0,028	-0,035
-168,110	-52,156	0,037	0,012
-167,096	-115,045	-0,057	0,008
-166,081	-109,398	-0,130	-0,019
-165,066	4,933	-0,128	-0,067
-164,052	392,350	0,039	0,058
-163,037	-141,435	0,075	-0,005
-162,023	-56,602	0,104	-0,032
-161,008	-200,000	0,010	0,081
-159,993	12,013	0,225	-0,122
-158,979	412,494	-0,075	-0,113
-157,964	-200,000	-0,004	-0,036
-156,950	-200,000	0,021	0,078
-155,935	200,391	-0,037	0,040
-154,920	538,194	0,029	0,048
-153,906	224,793	-0,027	0,031
-152,891	245,949	0,056	0,067
-151,877	-200,000	0,015	0,050
-150,862	85,543	-0,105	-0,082
-149,847	697,526	-0,031	-0,057
-148,833	-200,000	0,026	0,103
-147,818	-200,000	-0,021	-0,079
-146,804	362,666	-0,025	0,035
-145,789	186,631	0,074	0,079
-144,775	-93,760	-0,047	-0,009
-143,760	92,924	-0,045	-0,036
-142,745	-94,207	-0,072	-0,014
-141,731	180,758	0,010	-0,011
-140,716	-37,748	-0,098	0,037
-139,702	435,313	0,059	0,092
-138,687	-51,310	-0,023	0,008
-137,672	-200,000	-0,001	-0,075
-136,658	215,947	-0,086	-0,097
-135,643	44,772	-0,083	-0,054
-134,629	156,828	0,032	-0,032
-133,614	180,924	0,127	0,132
-132,599	800,000	-0,075	0,203
-131,585	-133,510	-0,055	0,005
-130,570	-54,715	0,058	-0,018
-129,556	289,738	0,030	-0,039
-128,541	-75,231	-0,144	-0,036
-127,526	-59,613	0,131	0,039
-126,512	41,236	0,108	0,069
-125,497	-141,654	-0,062	-0,004
-124,483	113,471	-0,042	0,036
-123,468	156,170	-0,113	0,110
-122,453	800,000	-0,075	-0,158
-121,439	-200,000	0,004	-0,096
-120,424	269,085	-0,060	-0,075
-119,410	-200,000	-0,019	0,062
-118,395	800,000	-0,032	-0,067
-117,380	-117,759	0,126	-0,016
-116,366	167,593	0,061	-0,062
-115,351	599,394	-0,027	-0,047
-114,337	51,481	-0,133	-0,090
-113,322	1,575	0,098	-0,050
-112,307	202,370	0,073	0,080
-111,293	-55,099	0,127	-0,040
-110,278	-200,000	-0,008	0,094
-109,264	-200,000	-0,004	0,162
-108,249	-138,397	-0,105	-0,008
-107,234	-200,000	0,002	-0,065
-106,220	122,254	0,027	-0,024
-105,205	145,009	-0,032	-0,030
-104,191	-43,074	-0,116	0,041
-103,176	-200,000	0,030	0,200
-102,162	-200,000	0,000	0,080
-101,147	-185,390	-0,042	-0,000
-100,132	137,977	-0,070	0,064
-99,118	-17,870	-0,073	-0,032
-98,103	-200,000	-0,003	-0,096
-97,089	169,230	0,030	0,030
-96,074	-82,429	-0,149	0,034
-95,059	800,000	0,037	0,081
-94,045	222,440	-0,067	-0,076
-93,030	0,001	-0,053	0,027
-92,016	-200,000	-0,021	-0,098
-91,001	243,586	0,059	-0,070
-89,986	122,514	-0,035	0,031
-88,972	21,050	0,219	0,125
-87,957	800,000	-0,063	0,186
-86,943	800,000	0,020	-0,042
-85,928	201,488	-0,067	-0,073
-84,913	-73,990	-0,176	-0,045
-83,899	-26,017	0,083	0,034
-82,884	800,000	-0,008	-0,022
-81,870	-200,000	0,009	0,071
-80,855	-200,000	-0,025	0,082
-79,840	-200,000	0,002	0,053
-78,826	-200,000	-0,045	-0,144
-77,811	687,342	-0,077	-0,143
-76,797	119,113	0,077	-0,067
-75,782	116,454	0,055	0,047
-74,767	-200,000	0,039	0,128
-73,753	800,000	-0,030	0,086
-72,738	127,735	0,053	0,048
-71,724	-34,943	0,012	0,005
-70,709	-47,400	-0,254	-0,087
-69,694	-200,000	-0,007	0,073
-68,680	-70,918	0,064	0,017
-67,665	-64,161	0,115	0,033
-66,651	-68,122	0,081	-0,022
-65,636	-51,178	0,071	0,023
-64,622	-48,820	-0,064	-0,021
-63,607	335,993	-0,084	-0,116
-62,592	239,465	0,027	-0,032
-61,578	-200,000	-0,007	-0,050
-60,563	-37,164	-0,066	0,025
-59,549	-163,106	0,094	0,003
-58,534	3,286	-1,955	-1,002
-57,519	655,743	-1,108	-2,017
-56,505	-200,000	-0,382	-4,488
-55,490	352,477	0,975	1,368
-54,476	800,000	4,995	11,250
-53,461	-200,000	20,952	328,699
-52,446	800,000	757,429	2322,271
-51,432	550,297	1662,056	2825,348
-50,417	73,476	1663,871	1228,457
-49,403	18,710	1537,349	866,233
-48,388	12,726	1460,087	793,733
-47,373	19,003	1450,923	818,871
-46,359	15,869	1440,217	797,877
-45,344	10,983	1436,033	772,247
-44,330	10,946	1433,959	770,924
-43,315	10,856	1432,340	769,595
-42,300	10,941	1430,332	768,891
-41,286	10,946	1429,226	768,288
-40,271	10,877	1427,893	767,217
-39,257	10,921	1426,708	766,759
-38,242	10,954	1425,596	766,286
-37,227	10,943	1424,378	765,546
-36,213	10,920	1423,277	764,815
-35,198	10,927	1422,250	764,266
-34,184	10,990	1421,253	763,999
-33,169	10,937	1419,917	763,002
-32,154	10,982	1418,659	762,505
-31,140	11,019	1417,515	762,034
-30,125	11,031	1416,315	761,418
-29,111	10,997	1415,341	760,703
-28,096	10,985	1414,261	760,035
-27,082	10,930	1413,039	759,090
-26,067	10,929	1411,826	758,407
-25,052	10,925	1410,907	757,862
-24,038	10,914	1410,199	757,398
-23,023	10,898	1409,206	756,764
-22,009	10,898	1407,996	756,083
-20,994	10,907	1406,917	755,516
-19,979	10,922	1406,044	755,085
-18,965	10,904	1405,030	754,425
-17,950	10,859	1404,348	753,819
-16,936	10,854	1403,397	753,259
-15,921	10,770	1402,510	752,362
-14,906	10,795	1401,489	751,899
-13,892	10,835	1400,325	751,430
-12,877	10,806	1399,710	750,934
-11,863	10,822	1398,952	750,576
-10,848	10,810	1397,942	749,948
-9,833	10,769	1397,115	749,284
-8,819	10,682	1396,369	748,450
-7,804	10,728	1395,497	748,163
-6,790	10,710	1394,474	747,503
-5,775	10,732	1393,402	747,003
-4,760	10,741	1392,233	746,385
-3,746	10,748	1391,473	745,981
-2,731	10,764	1390,496	745,505
-1,717	10,718	1389,768	744,870
-0,702	10,674	1387,850	743,611
0,313	14,803	1301,640	716,313
1,327	31,194	693,028	418,669
2,342	48,469	120,151	79,263
3,356	1,109	16,548	8,349
4,371	-3,914	3,322	1,620
5,386	-47,838	0,966	0,328
6,400	-200,000	0,174	0,595
7,415	-108,738	-0,154	-0,023
8,429	-37,356	-0,267	-0,100
9,444	141,758	-0,265	-0,248
10,459	178,867	-0,226	-0,233
11,473	45,619	-0,259	-0,169
12,488	206,970	-0,306	-0,336
13,502	35,226	-0,315	-0,194
14,517	104,936	-0,301	-0,250
15,531	79,253	-0,275	-0,207
16,546	130,411	-0,271	-0,245
17,561	94,497	-0,365	-0,292
18,575	248,896	-0,164	-0,196
19,590	-32,971	-0,232	-0,090
20,604	-92,908	-0,291	-0,057
21,619	92,871	-0,387	-0,308
22,634	177,531	-0,351	-0,361
23,648	35,661	-0,544	-0,336
24,663	189,740	-0,216	-0,228
25,677	69,605	-0,244	-0,176
26,692	61,407	-0,399	-0,279
27,707	158,459	-0,311	-0,304
28,721	142,070	-0,417	-0,390
29,736	59,615	-0,353	-0,245
30,750	60,203	-0,367	-0,255
31,765	-27,421	-0,331	-0,135
32,780	105,797	-0,329	-0,274
33,794	107,413	-0,378	-0,316
34,809	81,574	-0,410	-0,312
35,823	69,321	-0,388	-0,280
36,838	392,004	-0,276	-0,405
37,853	204,209	-0,348	-0,379
38,867	48,027	-0,410	-0,269
39,882	224,319	-0,305	-0,347
40,896	74,907	-0,394	-0,292
41,911	124,071	-0,374	-0,331
42,926	113,545	-0,351	-0,299
43,940	152,088	-0,343	-0,329
44,955	194,116	-0,365	-0,389
45,969	61,880	-0,422	-0,295
46,984	-33,594	-0,303	-0,117
47,999	196,783	-0,270	-0,290
49,013	155,198	-0,269	-0,261
50,028	84,904	-0,452	-0,347
51,042	91,862	-0,343	-0,271
52,057	60,373	-0,413	-0,287
53,071	39,030	-0,450	-0,282
54,086	209,713	-0,240	-0,265
55,101	55,482	-0,410	-0,278
56,115	261,469	-0,259	-0,315
57,130	118,625	-0,311	-0,269
58,144	30,683	-0,295	-0,177
59,159	95,564	-0,290	-0,232
60,174	79,128	-0,357	-0,268
61,188	62,553	-0,308	-0,216
62,203	-110,349	-0,344	-0,050
63,217	69,465	-0,352	-0,254
64,232	-40,872	-0,439	-0,158
65,247	4,112	-0,492	-0,252
66,261	116,227	-0,392	-0,337
67,276	2,249	-0,361	-0,183
68,290	56,000	-0,267	-0,181
69,305	64,667	-0,239	-0,169
70,320	-78,320	-0,337	-0,081
71,334	22,347	-0,221	-0,126
72,349	-8,544	-0,292	-0,137
73,363	8,231	-0,219	-0,115
74,378	2,661	-0,334	-0,169
75,393	54,424	-0,303	-0,204
76,407	41,240	-0,239	-0,151
77,422	-13,583	-0,266	-0,120
78,436	58,261	-0,283	-0,194
79,451	-91,160	-0,256	-0,051
80,466	-36,519	-0,279	-0,105
81,480	-0,509	-0,461	-0,229
82,495	47,953	-0,262	-0,171
83,509	-2,055	-0,317	-0,155
84,524	155,870	-0,216	-0,209
85,539	-19,057	-0,261	-0,113
86,553	49,680	-0,236	-0,155
87,568	223,884	-0,251	-0,285
88,582	104,466	-0,276	-0,228
89,597	34,875	-0,192	-0,117
90,611	213,571	-0,182	-0,202
91,626	-38,576	-0,232	-0,085
92,641	-4,558	-0,214	-0,103
93,655	16,253	-0,290	-0,160
94,670	125,916	-0,374	-0,331
95,684	509,440	-0,212	-0,347
96,699	599,379	-0,174	-0,303
97,714	57,599	-0,227	-0,155
98,728	-4,556	-0,364	-0,175
99,743	15,337	-0,311	-0,170
100,757	71,144	-0,315	-0,228
101,772	85,420	-0,211	-0,162
102,787	726,833	-0,240	-0,450
103,801	75,137	-0,429	-0,316
104,816	311,885	-0,206	-0,271
105,830	84,093	-0,267	-0,204
106,845	471,971	-0,219	-0,346
107,860	-74,263	-0,295	-0,074
108,874	-63,480	-0,348	-0,099
109,889	-78,677	-0,238	-0,056
110,903	16,827	-0,362	-0,200
111,918	72,599	-0,219	-0,160
112,933	-92,625	-0,315	-0,061
113,947	-4,343	-0,301	-0,145
114,962	132,869	-0,281	-0,254
115,976	-39,643	-0,255	-0,093
116,991	3,703	-0,290	-0,147
118,006	135,853	-0,307	-0,280
119,020	-164,631	-0,109	0,003
120,035	128,363	-0,164	-0,146
121,049	217,972	-0,207	-0,231
122,064	36,017	-0,245	-0,150
123,079	-46,381	-0,268	-0,092
124,093	-50,606	-0,335	-0,110
125,108	19,600	-0,272	-0,152
126,122	-98,259	-0,127	-0,022
127,137	49,332	-0,186	-0,122
128,151	43,839	-0,276	-0,176
129,166	-88,077	-0,314	-0,065
130,181	-41,856	-0,256	-0,091
131,195	41,436	-0,404	-0,254
132,210	250,711	-0,231	-0,275
133,224	174,060	-0,211	-0,213
134,239	158,179	-0,306	-0,296
135,254	120,194	-0,315	-0,272
136,268	105,192	-0,293	-0,241
137,283	83,740	-0,237	-0,180
138,297	374,199	-0,165	-0,235
139,312	1,846	-0,310	-0,155
140,327	58,350	-0,233	-0,159
141,341	725,251	-0,107	-0,199
142,356	404,382	-0,121	-0,178
143,370	43,711	-0,322	-0,205
144,385	341,232	-0,153	-0,208
145,400	207,827	-0,202	-0,220
146,414	134,667	-0,296	-0,267
147,429	171,044	-0,316	-0,316
148,443	-14,175	-0,258	-0,115
149,458	333,703	-0,131	-0,177
150,473	-148,203	-0,285	-0,016
151,487	-65,029	-0,161	-0,045
152,502	202,494	-0,225	-0,242
153,516	266,149	-0,303	-0,369
154,531	57,797	-0,155	-0,105
155,546	145,716	-0,158	-0,147
156,560	250,140	-0,246	-0,292
157,575	-35,659	-0,222	-0,083
158,589	-59,324	-0,215	-0,064
159,604	75,067	-0,238	-0,174
160,619	141,406	-0,212	-0,195
161,633	229,079	-0,176	-0,200
162,648	249,021	-0,134	-0,158
163,662	8,550	-0,225	-0,117
164,677	61,481	-0,200	-0,138
165,692	-52,465	-0,359	-0,115
166,706	94,030	-0,269	-0,212
167,721	18,035	-0,244	-0,135
168,735	16,944	-0,283	-0,155
169,750	-14,168	-0,148	-0,066
170,764	70,883	-0,203	-0,146
171,779	-58,737	-0,183	-0,055
172,794	30,828	-0,199	-0,118
173,808	439,943	-0,161	-0,245
174,823	76,583	-0,170	-0,125
175,837	66,986	-0,251	-0,178
176,852	220,576	-0,137	-0,153
177,867	-192,339	-0,234	-0,001
178,881	102,348	-0,252	-0,205
179,896	800,000	-0,166	-0,378
180,910	71,446	-0,245	-0,176
181,925	106,385	-0,191	-0,157
182,940	143,076	-0,199	-0,184
183,954	-66,441	-0,362	-0,099
184,969	148,587	-0,156	-0,146
185,983	-57,329	-0,269	-0,082
186,998	105,378	-0,224	-0,184
188,013	252,620	-0,197	-0,234
189,027	23,640	-0,355	-0,202
190,042	171,196	-0,317	-0,315
191,056	431,393	-0,164	-0,248
192,071	-15,605	-0,154	-0,068
193,086	-55,540	-0,202	-0,062
194,100	224,692	-0,093	-0,105
195,115	248,211	-0,227	-0,267
196,129	121,380	-0,240	-0,208
197,144	21,391	-0,214	-0,120
198,159	68,182	-0,213	-0,151
199,173	316,920	-0,126	-0,165
200,188	57,351	-0,172	-0,116
201,202	-73,844	-0,265	0,066
202,217	171,970	-0,202	-0,201
203,232	211,141	-0,152	-0,166
204,246	30,835	-0,217	-0,129
205,261	680,465	-0,086	-0,155
206,275	104,253	-0,261	-0,213
207,290	104,439	-0,107	-0,088
208,304	800,000	-0,054	-0,140
209,319	-20,338	-0,159	-0,067
210,334	-47,563	-0,140	-0,047
211,348	176,701	-0,153	-0,154
212,363	260,306	-0,127	-0,153
213,377	107,584	-0,225	-0,186
214,392	-200,000	-0,024	-0,090
215,407	-53,207	-0,101	0,032
216,421	-19,972	-0,197	-0,084
217,436	223,482	-0,189	-0,211
218,450	102,758	-0,190	-0,154
219,465	108,428	-0,210	-0,173
220,480	624,777	-0,146	-0,255
221,494	800,000	-0,086	-0,175
222,509	116,686	-0,190	-0,161
223,523	-26,864	-0,134	-0,054
224,538	800,000	-0,085	-0,250
225,553	149,927	-0,199	-0,187
226,567	82,379	-0,245	-0,184
227,582	392,316	-0,129	-0,187
228,596	30,992	-0,156	-0,093
229,611	-113,123	-0,263	-0,035
230,626	-84,299	-0,162	-0,035
231,640	117,805	-0,224	-0,191
232,655	800,000	-0,132	-0,281
233,669	-10,376	-0,232	-0,106
234,684	800,000	-0,135	-0,302
235,699	188,974	-0,230	-0,238
236,713	275,451	-0,128	-0,157
237,728	219,222	-0,197	-0,218
238,742	-120,502	-0,275	-0,032
239,757	56,847	-0,220	-0,148
240,772	366,772	-0,101	-0,142
241,786	-29,285	-0,249	-0,098
242,801	567,389	-0,166	-0,280
243,815	-200,000	-0,043	-0,178
244,830	133,157	-0,094	-0,084
245,844	-59,009	-0,276	-0,082
246,859	55,813	-0,211	-0,141
247,874	132,926	-0,200	-0,179
248,888	738,165	-0,070	-0,130
249,903	147,371	-0,224	-0,208
250,917	33,105	-0,127	-0,076
251,932	-49,134	-0,130	-0,043
252,947	800,000	-0,098	-0,250
253,961	-41,421	-0,187	-0,066
254,976	84,331	-0,287	-0,217
255,990	650,230	-0,156	-0,276
257,005	-97,614	-0,219	-0,039
258,020	81,416	0,055	-0,041
259,034	408,812	-0,068	-0,099
260,049	5,213	-0,197	-0,100
261,063	-69,218	-0,189	-0,050
262,078	137,474	-0,125	-0,113
263,093	189,375	-0,127	-0,131
264,107	157,127	-0,276	-0,263
265,122	144,528	-0,161	-0,149
266,136	358,519	-0,178	-0,245
267,151	504,321	-0,195	-0,312
268,166	800,000	-0,189	-0,385
269,180	-22,443	-0,167	0,069
270,195	375,461	-0,085	-0,120
271,209	-200,000	-0,001	-0,147
272,224	170,771	-0,091	-0,090
273,239	53,522	-0,081	-0,054
274,253	-34,471	-0,149	-0,056
275,268	26,549	-0,271	-0,156
276,282	124,957	-0,183	-0,159
277,297	73,701	-0,183	-0,132
278,312	-4,352	-0,164	-0,078
279,326	231,496	-0,125	-0,141
280,341	15,382	-0,135	-0,073
281,355	-165,864	-0,049	0,001
282,370	35,689	-0,201	-0,121
283,384	239,743	-0,150	-0,172
284,399	93,786	-0,176	-0,137
285,414	529,074	-0,076	-0,124
286,428	-36,948	-0,153	0,056
287,443	-4,162	-0,119	0,057
288,457	-65,594	-0,104	-0,028
289,472	9,900	-0,206	-0,107
290,487	-8,898	-0,235	-0,108
291,501	95,478	-0,122	-0,096
292,516	281,696	-0,199	-0,246
293,530	-128,036	-0,193	-0,019
294,545	209,221	-0,108	-0,116
295,560	-128,387	-0,184	0,018
296,574	399,513	-0,121	-0,175
297,589	20,407	-0,101	-0,056
298,603	409,598	-0,151	-0,221
299,618	84,897	-0,193	-0,145
300,633	-200,000	-0,058	-0,291
301,647	69,386	-0,162	-0,114
302,662	117,390	-0,137	-0,116
303,676	94,340	-0,272	-0,212
304,691	403,966	-0,164	-0,238
305,706	71,327	-0,239	-0,170
306,720	800,000	-0,045	-0,108
307,735	201,454	-0,110	-0,117
308,749	-60,148	-0,219	-0,064
309,764	-136,381	-0,139	0,011
310,779	227,527	-0,097	-0,109
311,793	-11,524	-0,152	-0,068
312,808	81,294	-0,188	-0,139
313,822	-41,019	-0,201	-0,071
314,837	669,109	-0,061	-0,109
315,852	-200,000	-0,009	-0,137
316,866	498,208	-0,127	-0,202
317,881	106,467	-0,153	-0,124
318,895	406,850	-0,167	-0,243
319,910	76,134	-0,177	-0,129
320,925	275,180	-0,174	-0,213
321,939	260,422	-0,186	-0,221
322,954	26,786	-0,185	-0,106
323,968	38,927	-0,087	-0,053
324,983	-107,521	-0,146	0,022
325,997	559,857	-0,086	-0,142
327,012	350,622	-0,033	-0,045
328,027	240,453	-0,169	-0,193
329,041	-125,764	-0,168	-0,017
330,056	149,236	-0,168	-0,156
331,070	-105,087	-0,200	0,031
332,085	-32,084	-0,188	-0,072
333,100	380,560	-0,093	-0,132
334,114	-88,682	-0,240	0,048
335,129	9,524	-0,131	-0,068
336,143	305,618	-0,131	-0,167
337,158	800,000	-0,053	-0,126
338,173	315,498	-0,098	-0,126
339,187	94,649	-0,161	-0,125
340,202	76,328	-0,125	-0,091
341,216	800,000	-0,100	-0,211
342,231	237,806	-0,089	0,101
343,246	-54,932	-0,237	0,073
344,260	199,641	-0,114	-0,120
345,275	112,818	-0,211	-0,175
346,289	133,019	-0,138	-0,122
347,304	-149,307	-0,127	0,007
348,319	274,354	-0,035	-0,043
349,333	226,959	-0,107	-0,119
350,348	43,376	-0,221	-0,138
351,362	-200,000	0,002	-0,008
352,377	-147,335	-0,128	-0,007
353,392	800,000	-0,027	-0,056
354,406	-139,467	-0,177	0,013
355,421	206,763	1310,927	1398,853
356,435	159,029	1471,168	1399,336
