DTS Sentinel unit serial number:	SN410029Multiplexer serial number:	ORYXHardware model number:	OX2-SRSoftware version number:	ORYX F/W v4,00 Oryx Data Collector v3.7.2.0data status	okinstallation	B3 Nyhavnadifferential loss correction	single-endedforward channel	channel 1reverse channel	N/Adate	2023/12/01time	20:52:30forward acquisition time	300,00reverse acquisition time	0,00gamma	499,1914k internal	0,3197k external	0,3197temperature offset calibration	1,0000default loss term (dB/km)	0,3820temperature slope calibration	1,0000multiplexer offset coefficient	1,0000multiplexer slope coefficient	1,0000fibre end	0,00T internal ref (°C)	15,99T ext. ref 1 (°C)	1,45T ext. ref 2 (°C)	1,46length (m)	temperature (°C)	Stokes	anti-Stokes-744,400	121,696	-0,267	-0,243
-743,385	-200,000	0,012	0,220
-742,371	800,000	-0,125	-0,261
-741,356	-200,000	-0,008	0,249
-740,342	231,700	-0,264	-0,316
-739,327	-200,000	0,049	0,383
-738,312	95,690	-0,259	-0,216
-737,298	-200,000	-0,051	0,368
-736,283	41,190	-0,264	-0,173
-735,269	800,000	-0,068	0,180
-734,254	-200,000	0,003	-0,097
-733,239	-200,000	-0,070	0,231
-732,225	-200,000	-0,072	-0,274
-731,210	-200,000	0,015	0,111
-730,196	-102,121	-0,055	0,010
-729,181	-200,000	-0,018	-0,090
-728,167	-200,000	-0,029	-0,127
-727,152	-82,202	0,077	0,018
-726,137	-200,000	-0,011	-0,084
-725,123	800,000	0,032	-0,069
-724,108	-200,000	-0,030	-0,098
-723,094	326,643	-0,077	-0,108
-722,079	-53,291	-0,099	-0,033
-721,064	800,000	0,041	-0,114
-720,050	-133,388	-0,204	-0,018
-719,035	34,969	-0,042	-0,027
-718,021	109,250	-0,006	-0,005
-717,006	153,112	-0,043	-0,043
-715,991	-200,000	-0,138	0,000
-714,977	21,533	-0,229	0,135
-713,962	-180,734	-0,067	-0,001
-712,948	339,982	0,046	-0,066
-711,933	-183,085	0,128	-0,002
-710,918	-83,793	-0,106	-0,024
-709,904	-200,000	-0,013	-0,143
-708,889	-2,976	-0,156	-0,079
-707,875	-18,896	0,086	0,039
-706,860	261,278	-0,038	0,047
-705,845	-14,116	0,195	-0,091
-704,831	-109,909	0,042	0,006
-703,816	800,000	0,055	-0,145
-702,802	-179,498	-0,154	-0,002
-701,787	311,984	0,049	-0,067
-700,772	-200,000	0,017	-0,079
-699,758	35,910	0,076	-0,048
-698,743	403,600	-0,043	-0,066
-697,729	800,000	-0,050	0,151
-696,714	413,626	-0,036	0,056
-695,699	119,289	-0,029	-0,026
-694,685	107,143	-0,100	-0,087
-693,670	800,000	-0,078	-0,169
-692,656	-0,897	-0,056	-0,029
-691,641	800,000	-0,045	0,144
-690,627	-121,777	0,060	0,007
-689,612	-200,000	0,029	-0,120
-688,597	376,590	-0,101	-0,150
-687,583	56,602	-0,109	-0,077
-686,568	-200,000	-0,012	-0,225
-685,554	24,218	0,076	-0,046
-684,539	-78,193	0,060	0,015
-683,524	-6,694	0,094	0,046
-682,510	-105,689	-0,045	0,007
-681,495	800,000	-0,024	-0,054
-680,481	34,966	0,108	0,068
-679,466	-200,000	-0,001	-0,022
-678,451	251,706	-0,067	-0,084
-677,437	-200,000	-0,008	-0,148
-676,422	59,026	0,061	0,043
-675,408	-200,000	0,009	0,052
-674,393	-128,649	-0,030	0,003
-673,378	183,903	-0,067	-0,072
-672,364	-146,493	-0,130	0,008
-671,349	800,000	0,012	0,035
-670,335	130,827	0,059	0,055
-669,320	-31,490	-0,078	0,032
-668,305	-86,263	0,098	0,022
-667,291	-64,980	0,084	-0,025
-666,276	-115,915	-0,087	0,012
-665,262	684,257	0,054	-0,103
-664,247	143,429	-0,120	-0,116
-663,232	-200,000	-0,000	-0,124
-662,218	-200,000	-0,012	-0,094
-661,203	-200,000	0,002	0,065
-660,189	-200,000	-0,016	0,080
-659,174	-7,709	-0,024	0,012
-658,159	-168,972	0,032	0,001
-657,145	296,531	-0,045	-0,059
-656,130	800,000	0,059	-0,185
-655,116	314,916	-0,106	-0,145
-654,101	-143,021	0,095	0,007
-653,086	-200,000	0,035	-0,149
-652,072	-20,629	-0,104	-0,046
-651,057	-104,195	-0,103	-0,017
-650,043	45,471	0,146	-0,097
-649,028	-155,076	-0,072	-0,003
-648,014	75,322	0,088	0,067
-646,999	169,542	-0,115	-0,120
-645,984	-200,000	-0,006	-0,034
-644,970	-71,922	-0,038	-0,010
-643,955	30,644	0,095	0,059
-642,941	-200,000	-0,032	-0,245
-641,926	800,000	-0,074	-0,233
-640,911	800,000	0,060	0,128
-639,897	345,329	0,051	0,072
-638,882	800,000	0,024	0,059
-637,868	-200,000	0,033	-0,159
-636,853	800,000	-0,078	-0,215
-635,838	430,729	0,032	-0,051
-634,824	-200,000	0,032	-0,121
-633,809	8,383	0,045	-0,024
-632,795	-200,000	-0,002	-0,031
-631,780	-200,000	-0,019	0,147
-630,765	113,100	-0,116	-0,102
-629,751	25,117	-0,040	0,024
-628,736	-64,074	-0,114	-0,033
-627,722	-200,000	0,025	-0,098
-626,707	-87,953	0,055	-0,012
-625,692	122,939	0,077	-0,070
-624,678	16,704	-0,024	0,014
-623,663	75,335	-0,021	0,016
-622,649	-200,000	-0,045	-0,194
-621,634	-58,671	-0,201	-0,063
-620,619	80,984	-0,057	-0,045
-619,605	-200,000	-0,010	0,134
-618,590	800,000	0,030	0,066
-617,576	-200,000	-0,031	-0,168
-616,561	548,348	-0,058	0,101
-615,546	-39,426	-0,075	-0,029
-614,532	411,203	-0,035	-0,053
-613,517	187,389	-0,052	-0,056
-612,503	50,739	0,012	-0,008
-611,488	60,556	0,085	0,061
-610,474	665,442	-0,081	-0,152
-609,459	800,000	-0,048	0,130
-608,444	-68,907	-0,087	-0,024
-607,430	-200,000	0,001	-0,066
-606,415	-42,337	-0,049	0,018
-605,401	-35,236	-0,167	0,066
-604,386	164,006	0,085	0,086
-603,371	-200,000	-0,008	0,028
-602,357	-200,000	0,025	0,095
-601,342	385,383	-0,007	-0,010
-600,328	339,888	-0,018	0,026
-599,313	611,269	0,028	0,051
-598,298	-200,000	-0,005	-0,021
-597,284	123,891	0,094	-0,086
-596,269	-5,429	0,113	0,056
-595,255	116,208	-0,087	0,077
-594,240	-200,000	0,005	-0,089
-593,225	39,350	0,044	-0,028
-592,211	797,355	-0,032	-0,065
-591,196	800,000	-0,027	-0,069
-590,182	-117,868	-0,121	0,016
-589,167	712,812	0,029	0,055
-588,152	-200,000	-0,010	-0,048
-587,138	671,359	0,010	-0,020
-586,123	320,034	-0,046	-0,063
-585,109	-200,000	-0,021	-0,072
-584,094	-200,000	-0,006	0,054
-583,079	-200,000	0,007	-0,024
-582,065	-200,000	-0,021	-0,163
-581,050	0,423	0,094	0,048
-580,036	241,126	-0,015	0,018
-579,021	-200,000	0,014	-0,095
-578,006	480,237	-0,022	0,035
-576,992	-200,000	-0,042	0,186
-575,977	61,214	0,046	0,033
-574,963	800,000	-0,011	-0,033
-573,948	-86,089	0,102	-0,023
-572,934	56,883	0,110	0,077
-571,919	-80,996	-0,100	-0,024
-570,904	45,039	-0,027	0,018
-569,890	-200,000	-0,042	-0,155
-568,875	-133,618	0,120	-0,011
-567,861	-95,673	0,076	-0,015
-566,846	96,048	0,101	0,083
-565,831	-200,000	0,004	0,047
-564,817	533,931	-0,050	-0,086
-563,802	81,114	-0,139	-0,108
-562,788	30,143	0,020	-0,012
-561,773	-50,668	0,232	-0,079
-560,758	-62,809	0,047	0,014
-559,744	-53,870	0,086	0,028
-558,729	-57,655	-0,092	0,029
-557,715	57,094	-0,142	0,100
-556,700	800,000	-0,051	-0,113
-555,685	-200,000	0,010	-0,038
-554,671	50,961	0,013	-0,009
-553,656	9,832	-0,042	-0,023
-552,642	280,198	0,088	0,114
-551,627	595,953	-0,086	0,155
-550,612	-87,830	-0,194	-0,042
-549,598	-200,000	0,014	-0,074
-548,583	118,372	-0,077	-0,069
-547,569	5,508	-0,035	-0,019
-546,554	800,000	-0,059	0,120
-545,539	-130,983	0,155	0,015
-544,525	152,188	0,027	0,026
-543,510	-25,889	0,138	0,059
-542,496	205,306	0,019	0,021
-541,481	-200,000	0,019	-0,075
-540,466	-181,714	-0,070	0,001
-539,452	85,206	-0,026	0,021
-538,437	-200,000	0,011	-0,076
-537,423	-119,660	-0,098	-0,012
-536,408	-200,000	0,032	-0,117
-535,393	495,345	0,040	-0,067
-534,379	-200,000	-0,053	-0,176
-533,364	43,395	0,084	0,056
-532,350	487,755	-0,080	0,132
-531,335	59,782	0,056	0,040
-530,321	-89,293	0,126	-0,027
-529,306	-200,000	-0,033	0,114
-528,291	800,000	-0,060	0,122
-527,277	-14,471	0,109	-0,050
-526,262	800,000	0,073	-0,201
-525,248	17,014	0,070	-0,040
-524,233	-77,542	-0,076	0,019
-523,218	70,994	0,098	-0,073
-522,204	63,140	-0,085	-0,061
-521,189	800,000	0,043	-0,125
-520,175	-200,000	0,032	-0,112
-519,160	103,728	0,095	0,081
-518,145	694,003	0,023	0,043
-517,131	207,791	0,073	0,083
-516,116	800,000	0,035	0,099
-515,102	-200,000	0,015	-0,049
-514,087	-152,247	-0,158	0,008
-513,072	-44,944	0,085	-0,030
-512,058	570,658	0,033	0,058
-511,043	-82,574	0,092	-0,021
-510,029	-84,285	-0,110	-0,025
-509,014	-200,000	0,017	-0,073
-507,999	800,000	0,062	0,141
-506,985	28,573	-0,140	0,085
-505,970	-127,945	-0,131	-0,013
-504,956	-21,567	-0,095	0,042
-503,941	-126,938	-0,035	-0,004
-502,926	269,281	-0,025	-0,032
-501,912	274,004	0,129	0,165
-500,897	411,669	-0,037	-0,057
-499,883	-200,000	-0,021	0,145
-498,868	800,000	-0,029	-0,084
-497,853	142,412	-0,036	0,034
-496,839	31,858	0,107	-0,067
-495,824	-54,005	0,091	0,030
-494,810	191,604	-0,148	0,160
-493,795	-172,358	-0,044	-0,001
-492,781	-200,000	0,001	0,096
-491,766	39,875	-0,129	-0,083
-490,751	20,999	-0,067	-0,039
-489,737	-91,002	0,060	0,012
-488,722	-161,977	0,136	0,005
-487,708	173,623	0,085	0,089
-486,693	-200,000	0,009	-0,070
-485,678	272,525	-0,070	-0,090
-484,664	-134,843	0,102	0,009
-483,649	25,985	-0,047	0,028
-482,635	-39,921	-0,062	-0,023
-481,620	131,413	-0,030	-0,028
-480,605	-113,159	0,074	-0,010
-479,591	-71,828	-0,074	0,020
-478,576	-200,000	0,014	-0,136
-477,562	25,296	0,006	-0,004
-476,547	-62,872	-0,047	-0,014
-475,532	-200,000	-0,013	-0,224
-474,518	15,991	0,074	0,042
-473,503	-71,390	0,093	0,025
-472,489	241,453	0,072	-0,087
-471,474	232,758	-0,063	0,074
-470,459	299,257	-0,043	-0,057
-469,445	50,776	-0,158	-0,107
-468,430	342,928	-0,064	-0,090
-467,416	454,702	-0,038	0,060
-466,401	-200,000	-0,002	0,040
-465,386	800,000	0,023	-0,069
-464,372	207,473	-0,033	0,038
-463,357	77,363	0,091	-0,069
-462,343	-200,000	-0,007	-0,048
-461,328	274,317	0,003	-0,003
-460,313	-177,901	0,020	0,000
-459,299	-78,200	0,048	0,012
-458,284	-128,508	-0,068	-0,007
-457,270	-64,942	0,039	0,011
-456,255	800,000	0,057	-0,133
-455,241	-38,498	0,077	-0,029
-454,226	171,893	0,016	-0,016
-453,211	800,000	0,071	-0,177
-452,197	56,845	0,035	0,024
-451,182	271,360	0,085	0,108
-450,168	-97,209	0,044	-0,008
-449,153	-43,931	-0,104	-0,038
-448,138	-200,000	0,004	-0,014
-447,124	-200,000	0,026	-0,108
-446,109	331,247	0,033	0,047
-445,095	-16,394	0,083	-0,038
-444,080	-39,217	0,105	-0,040
-443,065	376,952	-0,083	-0,122
-442,051	800,000	-0,025	-0,053
-441,036	742,074	-0,039	-0,076
-440,022	-122,543	-0,108	0,012
-439,007	341,213	-0,051	0,072
-437,992	-200,000	0,018	0,082
-436,978	800,000	-0,045	0,131
-435,963	-72,919	-0,009	0,002
-434,949	18,585	0,107	0,061
-433,934	-40,981	-0,089	-0,033
-432,919	-158,817	0,064	0,003
-431,905	-200,000	-0,022	-0,082
-430,890	-70,933	0,069	-0,018
-429,876	-91,826	-0,040	-0,008
-428,861	-200,000	0,015	0,130
-427,846	-12,269	-0,064	-0,030
-426,832	-125,536	-0,016	0,002
-425,817	-104,118	-0,083	-0,014
-424,803	-200,000	-0,041	0,137
-423,788	140,270	0,065	0,062
-422,773	522,380	0,155	0,263
-421,759	-200,000	-0,048	0,215
-420,744	-38,188	0,137	0,052
-419,730	326,941	-0,028	-0,039
-418,715	-77,484	-0,069	-0,017
-417,701	-60,354	0,057	0,017
-416,686	-200,000	0,011	0,037
-415,671	800,000	0,024	0,058
-414,657	306,467	0,035	0,047
-413,642	315,477	-0,105	0,142
-412,628	-200,000	-0,017	-0,061
-411,613	215,899	-0,056	0,064
-410,598	561,811	0,045	-0,079
-409,584	-200,000	-0,017	0,094
-408,569	-21,528	0,121	-0,053
-407,555	0,044	-0,025	0,013
-406,540	330,095	0,067	0,093
-405,525	-200,000	0,039	0,128
-404,511	442,666	0,041	-0,065
-403,496	-14,326	-0,021	-0,010
-402,482	45,201	0,053	-0,035
-401,467	800,000	0,005	-0,014
-400,452	-200,000	-0,007	0,130
-399,438	800,000	0,031	0,092
-398,423	800,000	-0,005	-0,013
-397,409	169,608	-0,066	-0,068
-396,394	800,000	0,027	-0,068
-395,379	-200,000	0,004	0,092
-394,365	-52,543	0,051	-0,017
-393,350	-70,664	-0,056	-0,015
-392,336	-94,969	0,145	0,028
-391,321	-3,450	0,020	0,010
-390,306	-1,503	-0,061	-0,031
-389,292	111,038	-0,098	-0,084
-388,277	-200,000	-0,055	-0,219
-387,263	-200,000	-0,001	0,067
-386,248	-6,000	0,053	0,026
-385,233	-4,163	0,061	-0,030
-384,219	-112,939	-0,032	-0,005
-383,204	-71,783	0,048	-0,013
-382,190	315,445	-0,063	-0,085
-381,175	800,000	-0,011	0,031
-380,160	93,928	-0,016	0,013
-379,146	-200,000	0,016	0,078
-378,131	-200,000	-0,013	0,060
-377,117	710,769	0,082	-0,157
-376,102	55,590	-0,032	0,023
-375,088	-96,889	-0,098	0,018
-374,073	-45,122	0,039	0,014
-373,058	347,257	-0,041	0,058
-372,044	-104,154	0,150	0,025
-371,029	800,000	-0,030	0,063
-370,015	199,246	0,121	0,133
-369,000	-40,499	-0,182	-0,067
-367,985	7,310	0,132	-0,071
-366,971	-40,464	0,063	-0,024
-365,956	404,963	0,052	-0,079
-364,942	-200,000	-0,009	0,106
-363,927	-200,000	0,021	0,155
-362,912	193,442	0,046	0,050
-361,898	4,762	0,053	-0,028
-360,883	-115,182	-0,080	0,011
-359,869	-51,016	-0,043	0,014
-358,854	706,520	0,044	-0,084
-357,839	426,118	0,075	-0,116
-356,825	433,132	-0,079	0,123
-355,810	88,542	-0,055	-0,043
-354,796	800,000	0,075	0,166
-353,781	800,000	-0,069	-0,212
-352,766	-99,386	-0,147	0,026
-351,752	314,077	-0,046	0,062
-350,737	-200,000	0,001	0,056
-349,723	556,537	-0,036	0,063
-348,708	800,000	-0,031	0,096
-347,693	22,035	0,100	0,058
-346,679	141,661	0,058	-0,055
-345,664	-61,981	0,081	-0,024
-344,650	-8,716	0,169	-0,081
-343,635	-200,000	0,003	-0,011
-342,620	800,000	-0,033	0,072
-341,606	800,000	-0,024	0,050
-340,591	528,822	0,040	0,068
-339,577	337,670	0,061	-0,086
-338,562	606,704	-0,028	-0,050
-337,548	77,606	0,037	0,028
-336,533	800,000	0,015	0,042
-335,518	733,628	-0,059	0,114
-334,504	-200,000	0,015	0,061
-333,489	-88,604	-0,191	0,040
-332,475	-200,000	-0,017	-0,072
-331,460	-63,958	-0,089	0,026
-330,445	-200,000	-0,017	0,137
-329,431	800,000	-0,027	0,059
-328,416	545,772	0,040	0,069
-327,402	32,829	-0,057	-0,036
-326,387	50,032	0,011	0,008
-325,372	-75,116	-0,055	-0,014
-324,358	-200,000	-0,013	-0,196
-323,343	800,000	0,057	-0,144
-322,329	800,000	0,067	0,165
-321,314	800,000	0,054	0,143
-320,299	85,389	0,136	0,107
-319,285	177,283	0,005	-0,005
-318,270	-66,523	-0,031	-0,009
-317,256	-10,249	0,022	-0,010
-316,241	-69,918	-0,043	0,012
-315,226	59,313	0,064	-0,045
-314,212	-8,641	0,071	0,034
-313,197	357,520	0,031	0,045
-312,183	35,938	0,024	-0,015
-311,168	800,000	-0,028	-0,064
-310,153	86,100	-0,087	-0,068
-309,139	-19,052	0,123	-0,054
-308,124	71,000	0,043	0,032
-307,110	-200,000	0,013	0,121
-306,095	-200,000	0,012	0,096
-305,080	-83,458	-0,014	0,003
-304,066	15,328	-0,038	-0,021
-303,051	640,845	-0,099	-0,181
-302,037	28,190	-0,088	-0,053
-301,022	54,508	0,064	-0,044
-300,008	539,807	-0,037	0,063
-298,993	-200,000	0,009	0,068
-297,978	800,000	0,028	0,057
-296,964	265,041	-0,073	0,091
-295,949	-32,848	-0,060	-0,024
-294,935	619,404	0,046	0,084
-293,920	-200,000	-0,009	0,065
-292,905	-200,000	0,019	0,090
-291,891	350,799	-0,075	0,106
-290,876	44,366	0,144	0,095
-289,862	-29,419	0,031	0,013
-288,847	800,000	-0,064	-0,144
-287,832	-89,994	0,065	-0,013
-286,818	-200,000	-0,034	-0,139
-285,803	211,061	0,078	0,088
-284,789	138,449	-0,043	0,040
-283,774	49,302	0,090	-0,061
-282,759	-200,000	-0,008	-0,025
-281,745	-200,000	0,049	-0,176
-280,730	-88,188	-0,102	-0,022
-279,716	-199,361	0,028	-0,000
-278,701	-140,096	-0,035	-0,003
-277,686	-200,000	-0,031	0,111
-276,672	312,536	0,053	0,071
-275,657	-200,000	0,002	0,026
-274,643	-143,265	0,083	-0,006
-273,628	66,320	0,064	-0,047
-272,613	-200,000	0,006	0,041
-271,599	40,818	0,060	0,039
-270,584	-200,000	0,034	0,171
-269,570	425,964	0,066	0,102
-268,555	-200,000	0,014	0,063
-267,540	71,680	0,063	-0,047
-266,526	800,000	-0,053	-0,107
-265,511	-142,443	-0,133	0,009
-264,497	800,000	0,025	-0,066
-263,482	185,548	0,069	0,074
-262,467	800,000	0,036	-0,096
-261,453	800,000	0,036	0,112
-260,438	-21,556	-0,019	-0,008
-259,424	93,180	0,047	-0,038
-258,409	434,774	-0,035	0,055
-257,395	14,945	0,107	0,060
-256,380	39,178	0,088	-0,056
-255,365	8,468	-0,040	-0,021
-254,351	-200,000	-0,012	-0,047
-253,336	3,920	-0,133	-0,069
-252,322	-115,583	-0,196	-0,026
-251,307	-200,000	0,001	0,006
-250,292	800,000	-0,042	0,091
-249,278	-200,000	-0,000	0,016
-248,263	-42,025	0,061	0,022
-247,249	21,833	-0,070	0,041
-246,234	124,472	-0,052	0,047
-245,219	-124,885	-0,229	0,025
-244,205	-200,000	0,019	-0,190
-243,190	-18,620	-0,073	0,032
-242,176	-102,074	0,111	0,019
-241,161	800,000	0,033	0,070
-240,146	-2,772	0,063	-0,031
-239,132	-200,000	0,010	-0,062
-238,117	35,100	-0,107	0,067
-237,103	-200,000	0,013	0,063
-236,088	-30,792	-0,129	-0,052
-235,073	-7,265	0,193	0,093
-234,059	190,867	-0,071	0,076
-233,044	-130,597	0,050	0,005
-232,030	-89,207	-0,092	-0,019
-231,015	-61,234	-0,088	-0,026
-230,000	800,000	-0,007	-0,021
-228,986	800,000	-0,071	-0,203
-227,971	-37,674	0,065	-0,025
-226,957	599,076	-0,071	0,126
-225,942	256,676	-0,070	0,086
-224,927	-200,000	0,022	-0,151
-223,913	96,173	-0,071	-0,058
-222,898	-92,551	-0,160	-0,032
-221,884	380,582	0,038	0,056
-220,869	-200,000	0,029	0,097
-219,855	258,849	-0,105	-0,129
-218,840	141,177	0,081	-0,076
-217,825	428,973	0,009	0,015
-216,811	670,053	-0,052	-0,096
-215,796	-46,949	-0,032	-0,011
-214,782	47,834	-0,113	0,075
-213,767	36,345	0,042	-0,027
-212,752	-146,734	0,203	0,012
-211,738	-200,000	0,013	0,043
-210,723	149,783	0,085	-0,083
-209,709	-200,000	-0,018	-0,072
-208,694	181,914	0,038	-0,040
-207,679	163,593	0,081	-0,082
-206,665	-200,000	0,006	0,036
-205,650	800,000	0,043	0,114
-204,636	201,600	-0,082	0,090
-203,621	-200,000	-0,021	0,096
-202,606	363,711	-0,075	-0,108
-201,592	411,864	0,122	-0,186
-200,577	-98,883	0,012	0,002
-199,563	-200,000	0,011	-0,091
-198,548	-58,416	0,080	0,025
-197,533	1,436	0,101	0,052
-196,519	84,193	0,087	-0,067
-195,504	-200,000	-0,057	0,237
-194,490	424,748	-0,096	0,148
-193,475	-109,721	-0,048	0,007
-192,460	83,949	0,135	-0,105
-191,446	176,779	0,146	0,151
-190,431	797,211	0,023	0,045
-189,417	-200,000	0,028	-0,120
-188,402	-87,445	-0,119	0,025
-187,387	-184,539	-0,143	0,002
-186,373	9,429	0,092	-0,049
-185,358	121,420	0,031	-0,027
-184,344	-200,000	0,002	-0,012
-183,329	287,350	0,099	0,127
-182,315	-200,000	0,024	-0,106
-181,300	-200,000	-0,018	-0,083
-180,285	-200,000	-0,045	-0,181
-179,271	-103,586	-0,132	0,022
-178,256	76,185	-0,073	-0,055
-177,242	-200,000	0,005	-0,036
-176,227	800,000	0,040	0,114
-175,212	800,000	-0,044	0,118
-174,198	78,224	0,070	0,053
-173,183	597,422	-0,042	0,075
-172,169	-37,828	-0,013	0,005
-171,154	-118,224	-0,091	-0,011
-170,139	85,510	0,152	0,119
-169,125	12,442	0,095	0,052
-168,110	48,814	-0,101	0,067
-167,096	-70,511	-0,172	0,046
-166,081	431,761	0,037	-0,058
-165,066	233,712	-0,049	-0,058
-164,052	-9,814	0,107	-0,050
-163,037	-77,818	0,040	0,010
-162,023	27,204	-0,074	0,044
-161,008	-10,648	-0,103	-0,048
-159,993	-58,758	0,083	0,025
-158,979	-36,116	-0,077	-0,029
-157,964	-200,000	0,004	0,159
-156,950	232,330	0,037	-0,043
-155,935	-200,000	-0,006	-0,069
-154,920	-200,000	-0,001	-0,051
-153,906	-200,000	0,002	-0,073
-152,891	800,000	-0,020	0,063
-151,877	276,477	-0,046	-0,058
-150,862	89,195	-0,065	-0,052
-149,847	493,284	-0,111	-0,182
-148,833	-143,406	0,044	-0,003
-147,818	133,173	0,039	0,035
-146,804	31,257	-0,019	-0,012
-145,789	-200,000	-0,009	0,122
-144,775	2,082	0,036	-0,019
-143,760	90,778	0,006	0,005
-142,745	43,571	-0,123	-0,080
-141,731	-72,559	-0,059	-0,015
-140,716	-66,578	-0,061	-0,017
-139,702	455,052	0,066	-0,105
-138,687	-126,883	0,085	0,009
-137,672	47,864	0,075	0,049
-136,658	215,010	-0,094	-0,106
-135,643	-64,682	-0,073	-0,021
-134,629	-101,275	0,084	-0,014
-133,614	236,624	0,033	-0,039
-132,599	-167,227	0,068	0,002
-131,585	214,433	-0,119	-0,134
-130,570	154,230	-0,039	-0,038
-129,556	800,000	-0,040	-0,102
-128,541	738,183	0,070	-0,133
-127,526	800,000	-0,046	0,118
-126,512	225,144	-0,042	-0,048
-125,497	800,000	0,028	-0,065
-124,483	-200,000	-0,001	0,006
-123,468	-34,018	-0,063	-0,025
-122,453	-83,515	0,189	-0,043
-121,439	-133,569	-0,012	-0,001
-120,424	-189,257	0,028	-0,000
-119,410	333,726	0,066	0,091
-118,395	269,968	-0,044	-0,055
-117,380	-200,000	0,004	0,033
-116,366	-106,475	-0,160	-0,025
-115,351	-15,746	0,051	-0,023
-114,337	201,400	-0,129	-0,141
-113,322	379,510	-0,051	-0,074
-112,307	-105,052	0,029	0,005
-111,293	800,000	0,084	0,184
-110,278	-9,967	0,022	-0,010
-109,264	-200,000	-0,001	0,070
-108,249	-82,814	-0,012	-0,003
-107,234	66,819	-0,016	-0,012
-106,220	-58,098	-0,050	0,015
-105,205	-66,274	0,063	0,018
-104,191	-200,000	0,012	0,070
-103,176	-200,000	-0,004	0,264
-102,162	-200,000	0,023	-0,118
-101,147	375,788	0,017	0,025
-100,132	-50,069	-0,137	-0,046
-99,118	288,774	0,081	-0,104
-98,103	174,929	0,074	-0,077
-97,089	-200,000	0,022	0,136
-96,074	800,000	0,029	-0,066
-95,059	-26,658	-0,134	0,055
-94,045	-63,574	0,051	0,015
-93,030	-71,324	-0,141	-0,037
-92,016	89,598	0,084	-0,067
-91,001	-39,029	-0,045	-0,017
-89,986	-200,000	-0,023	-0,103
-88,972	87,632	0,106	0,083
-87,957	148,594	-0,056	0,054
-86,943	528,852	-0,071	-0,120
-85,928	2,517	-0,154	-0,079
-84,913	800,000	-0,024	0,047
-83,899	800,000	-0,040	0,091
-82,884	471,553	0,062	0,099
-81,870	-54,434	-0,043	-0,014
-80,855	800,000	0,043	-0,117
-79,840	-200,000	-0,044	-0,150
-78,826	-155,884	-0,278	0,012
-77,811	800,000	-0,072	-0,146
-76,797	-131,341	0,085	-0,008
-75,782	85,654	-0,063	-0,049
-74,767	4,129	0,068	-0,035
-73,753	-200,000	0,007	0,159
-72,738	80,709	-0,061	-0,047
-71,724	450,638	-0,052	0,081
-70,709	-200,000	-0,007	0,050
-69,694	69,545	-0,113	-0,082
-68,680	189,477	0,016	0,017
-67,665	764,870	-0,010	0,019
-66,651	-50,750	-0,057	-0,019
-65,636	800,000	0,016	-0,035
-64,622	-200,000	0,001	-0,066
-63,607	150,269	-0,142	-0,137
-62,592	284,768	-0,074	-0,094
-61,578	-200,000	0,009	0,030
-60,563	211,975	-0,018	0,020
-59,549	800,000	-0,058	0,128
-58,534	-96,616	-1,470	-0,272
-57,519	326,677	-1,600	-2,180
-56,505	-200,000	-0,485	-4,419
-55,490	65,331	0,851	0,610
-54,476	800,000	4,798	11,321
-53,461	-200,000	17,644	279,973
-52,446	800,000	720,313	2215,383
-51,432	558,445	1634,391	2806,173
-50,417	80,930	1657,531	1266,551
-49,403	23,829	1531,769	892,509
-48,388	17,806	1455,531	819,050
-47,373	18,274	1444,865	815,261
-46,359	17,861	1435,411	807,928
-45,344	16,105	1430,894	797,012
-44,330	16,023	1428,835	795,440
-43,315	16,065	1427,101	794,645
-42,300	16,056	1425,548	793,707
-41,286	16,088	1424,359	793,161
-40,271	16,095	1423,047	792,433
-39,257	16,061	1421,849	791,576
-38,242	16,118	1420,332	790,967
-37,227	16,131	1419,130	790,328
-36,213	16,103	1417,989	789,532
-35,198	16,109	1416,624	788,766
-34,184	16,099	1415,733	788,194
-33,169	16,019	1414,705	787,214
-32,154	16,124	1413,594	787,055
-31,140	16,137	1412,146	786,282
-30,125	16,160	1410,910	785,669
-29,111	16,136	1409,800	784,905
-28,096	16,096	1408,822	784,145
-27,082	16,037	1407,702	783,214
-26,067	16,022	1406,579	782,489
-25,052	16,032	1405,357	781,823
-24,038	16,029	1404,601	781,359
-23,023	16,016	1403,531	780,670
-22,009	15,970	1402,412	779,802
-20,994	15,945	1401,618	779,217
-19,979	15,929	1400,825	778,669
-18,965	15,940	1399,706	778,066
-17,950	15,919	1398,597	777,322
-16,936	15,942	1397,883	777,002
-15,921	15,903	1396,490	776,015
-14,906	15,905	1395,718	775,564
-13,892	15,976	1394,448	775,159
-12,877	15,880	1393,850	774,347
-11,863	15,943	1392,796	774,026
-10,848	15,920	1392,089	773,493
-9,833	15,917	1390,918	772,797
-8,819	15,816	1390,169	771,888
-7,804	15,837	1388,946	771,272
-6,790	15,812	1388,017	770,609
-5,775	15,846	1387,131	770,248
-4,760	15,821	1386,311	769,643
-3,746	15,807	1385,704	769,212
-2,731	15,800	1384,639	768,558
-1,717	15,763	1383,703	767,839
-0,702	15,791	1381,807	766,886
0,313	19,603	1302,730	740,564
1,327	36,026	706,483	439,652
2,342	55,509	125,186	85,722
3,356	4,527	16,505	8,550
4,371	1,144	3,112	1,577
5,386	-32,989	0,529	0,207
6,400	-104,472	0,141	-0,023
7,415	230,778	-0,148	-0,172
8,429	395,086	-0,192	-0,284
9,444	-38,583	-0,427	-0,159
10,459	269,104	-0,183	-0,228
11,473	-26,784	-0,252	-0,104
12,488	-61,456	-0,365	-0,108
13,502	42,084	-0,416	-0,267
14,517	-26,645	-0,303	-0,125
15,531	272,127	-0,300	-0,375
16,546	95,807	-0,313	-0,253
17,561	122,641	-0,386	-0,342
18,575	175,773	-0,130	-0,134
19,590	245,604	-0,285	-0,339
20,604	-1,625	-0,431	-0,214
21,619	170,544	-0,385	-0,390
22,634	109,591	-0,419	-0,355
23,648	12,392	-0,519	-0,282
24,663	22,346	-0,448	-0,258
25,677	58,471	-0,194	-0,134
26,692	30,181	-0,406	-0,245
27,707	200,490	-0,287	-0,313
28,721	201,880	-0,338	-0,369
29,736	116,595	-0,431	-0,374
30,750	40,990	-0,503	-0,320
31,765	53,236	-0,512	-0,346
32,780	70,171	-0,408	-0,297
33,794	85,505	-0,311	-0,241
34,809	5,045	-0,415	-0,215
35,823	152,551	-0,266	-0,256
36,838	135,275	-0,365	-0,335
37,853	8,495	-0,386	-0,204
38,867	40,802	-0,379	-0,241
39,882	26,019	-0,378	-0,222
40,896	132,885	-0,259	-0,236
41,911	64,502	-0,372	-0,264
42,926	145,875	-0,284	-0,269
43,940	56,769	-0,330	-0,226
44,955	43,839	-0,404	-0,260
45,969	47,966	-0,278	-0,183
46,984	-5,558	-0,347	-0,167
47,999	143,393	-0,304	-0,286
49,013	8,590	-0,278	-0,147
50,028	63,239	-0,319	-0,225
51,042	167,626	-0,312	-0,313
52,057	21,601	-0,403	-0,231
53,071	-19,041	-0,363	-0,158
54,086	79,422	-0,317	-0,239
55,101	-60,331	-0,367	-0,109
56,115	-17,212	-0,255	-0,113
57,130	239,795	-0,248	-0,291
58,144	248,927	-0,296	-0,354
59,159	36,914	-0,373	-0,232
60,174	-59,604	-0,464	-0,139
61,188	-31,678	-0,315	-0,124
62,203	149,297	-0,213	-0,203
63,217	-96,866	-0,344	-0,063
64,232	46,352	-0,254	-0,166
65,247	271,183	-0,282	-0,350
66,261	61,000	-0,289	-0,202
67,276	50,202	-0,371	-0,247
68,290	120,857	-0,271	-0,237
69,305	155,999	-0,168	-0,163
70,320	63,961	-0,338	-0,239
71,334	-42,766	-0,257	-0,091
72,349	73,196	-0,459	-0,337
73,363	95,414	-0,275	-0,220
74,378	26,882	-0,309	-0,182
75,393	87,381	-0,346	-0,270
76,407	-24,874	-0,442	-0,184
77,422	117,125	-0,230	-0,199
78,436	23,051	-0,323	-0,186
79,451	89,858	-0,284	-0,223
80,466	70,379	-0,290	-0,210
81,480	157,110	-0,356	-0,346
82,495	84,720	-0,297	-0,228
83,509	17,813	-0,191	-0,107
84,524	77,590	-0,224	-0,167
85,539	115,176	-0,194	-0,166
86,553	-7,171	-0,283	-0,135
87,568	109,787	-0,323	-0,272
88,582	-24,318	-0,342	-0,143
89,597	32,215	-0,324	-0,196
90,611	207,445	-0,229	-0,252
91,626	225,395	-0,238	-0,271
92,641	52,832	-0,248	-0,167
93,655	-60,227	-0,327	-0,097
94,670	54,125	-0,346	-0,233
95,684	-13,075	-0,261	-0,119
96,699	111,054	-0,205	-0,174
97,714	29,845	-0,362	-0,216
98,728	83,699	-0,207	-0,159
99,743	-115,988	-0,174	0,023
100,757	-23,510	-0,283	-0,119
101,772	16,856	-0,250	-0,139
102,787	59,670	-0,337	-0,233
103,801	25,418	-0,251	-0,146
104,816	-11,568	-0,300	-0,138
105,830	37,685	-0,328	-0,204
106,845	60,327	-0,351	-0,244
107,860	1,301	-0,345	-0,173
108,874	29,460	-0,283	-0,168
109,889	-51,835	-0,236	-0,077
110,903	49,862	-0,319	-0,211
111,918	54,461	-0,196	-0,132
112,933	-16,464	-0,230	-0,102
113,947	-107,181	-0,324	-0,050
114,962	-16,559	-0,315	-0,139
115,976	16,784	-0,237	-0,131
116,991	250,809	-0,196	-0,234
118,006	110,143	-0,254	-0,214
119,020	23,221	-0,182	-0,105
120,035	69,115	-0,319	-0,230
121,049	47,387	-0,133	-0,087
122,064	-143,300	-0,232	0,015
123,079	-71,864	-0,351	-0,091
124,093	-9,869	-0,175	-0,082
125,108	427,699	-0,189	-0,286
126,122	88,825	-0,343	-0,267
127,137	-55,225	-0,269	-0,084
128,151	175,078	-0,204	-0,207
129,166	-115,829	-0,119	-0,015
130,181	45,754	-0,328	-0,212
131,195	56,175	-0,219	-0,149
132,210	-37,079	-0,227	-0,085
133,224	34,181	-0,236	-0,144
134,239	143,565	-0,194	-0,181
135,254	-86,684	-0,206	-0,044
136,268	-34,501	-0,243	-0,093
137,283	800,000	-0,105	-0,231
138,297	510,834	-0,159	-0,260
139,312	170,220	-0,306	-0,307
140,327	67,086	-0,274	-0,195
141,341	67,305	-0,372	-0,265
142,356	-120,289	-0,213	0,025
143,370	10,373	-0,241	-0,128
144,385	236,857	-0,146	-0,169
145,400	19,138	-0,292	-0,163
146,414	66,865	-0,292	-0,207
147,429	-0,279	-0,289	-0,143
148,443	-55,190	-0,349	-0,109
149,458	301,027	-0,165	-0,214
150,473	-26,535	-0,315	-0,128
151,487	7,242	-0,162	-0,084
152,502	181,439	-0,250	-0,258
153,516	48,448	-0,397	-0,259
154,531	110,690	-0,266	-0,224
155,546	309,860	-0,111	-0,146
156,560	-56,573	-0,192	-0,059
157,575	88,426	-0,204	-0,158
158,589	-129,202	-0,245	-0,024
159,604	198,355	-0,271	-0,290
160,619	438,216	-0,236	-0,361
161,633	372,874	-0,218	-0,310
162,648	207,818	-0,154	-0,168
163,662	-182,263	-0,194	0,002
164,677	160,189	-0,244	-0,238
165,692	116,544	-0,373	-0,320
166,706	-1,497	-0,343	-0,168
167,721	7,094	-0,244	-0,126
168,735	88,651	-0,203	-0,158
169,750	16,088	-0,152	-0,084
170,764	44,058	-0,229	-0,146
171,779	800,000	-0,078	-0,234
172,794	-11,204	-0,264	-0,121
173,808	-61,393	-0,240	-0,070
174,823	-92,046	-0,241	-0,047
175,837	94,618	-0,334	-0,265
176,852	32,661	-0,241	-0,145
177,867	28,408	-0,254	-0,149
178,881	-32,539	-0,228	-0,088
179,896	38,425	-0,220	-0,137
180,910	130,415	-0,135	-0,120
181,925	232,195	-0,164	-0,187
182,940	112,328	-0,235	-0,198
183,954	210,338	-0,243	-0,266
184,969	-50,436	-0,178	-0,058
185,983	800,000	-0,102	-0,203
186,998	91,602	-0,154	-0,121
188,013	-8,038	-0,306	-0,143
189,027	64,481	-0,246	-0,172
190,042	33,704	-0,271	-0,164
191,056	141,129	-0,227	-0,209
192,071	90,771	-0,287	-0,224
193,086	5,742	-0,217	-0,111
194,100	-148,904	-0,088	0,005
195,115	8,192	-0,241	-0,126
196,129	750,692	-0,084	-0,159
197,144	33,360	-0,213	-0,128
198,159	194,820	-0,207	-0,219
199,173	-87,768	-0,255	-0,053
200,188	-144,426	-0,130	0,008
201,202	260,106	-0,121	-0,146
202,217	-59,591	-0,206	-0,061
203,232	101,166	-0,210	-0,170
204,246	211,800	-0,195	-0,214
205,261	-47,768	-0,204	-0,068
206,275	171,193	-0,231	-0,231
207,290	191,717	-0,116	-0,122
208,304	47,027	-0,156	-0,101
209,319	-15,011	-0,171	-0,076
210,334	128,440	-0,140	-0,124
211,348	27,436	-0,215	-0,125
212,363	-79,396	-0,206	-0,048
213,377	-29,680	-0,174	-0,069
214,392	270,916	-0,085	-0,104
215,407	-46,594	-0,229	0,078
216,421	247,406	-0,207	-0,244
217,436	263,714	-0,161	-0,195
218,450	-31,705	-0,266	-0,103
219,465	-42,221	-0,263	-0,093
220,480	146,637	-0,217	-0,203
221,494	300,907	-0,133	-0,171
222,509	-125,761	-0,075	-0,008
223,523	-144,113	-0,164	0,010
224,538	-6,538	-0,243	-0,115
225,553	197,354	-0,110	-0,116
226,567	362,714	-0,258	-0,361
227,582	242,382	-0,158	-0,184
228,596	118,414	-0,124	-0,106
229,611	-91,155	-0,103	0,020
230,626	-172,101	-0,331	-0,007
231,640	7,772	-0,241	-0,125
232,655	398,787	-0,148	-0,216
233,669	14,867	-0,134	-0,073
234,684	368,225	-0,179	-0,252
235,699	-200,000	-0,122	0,000
236,713	-42,540	-0,129	-0,045
237,728	-72,130	-0,218	-0,056
238,742	800,000	-0,111	-0,235
239,757	41,571	-0,187	-0,117
240,772	15,878	-0,267	-0,146
241,786	679,306	-0,094	-0,170
242,801	-92,575	-0,156	0,030
243,815	57,263	-0,133	-0,090
244,830	-18,108	-0,107	0,046
245,844	306,301	-0,126	-0,162
246,859	-11,567	-0,231	-0,105
247,874	-69,426	-0,192	-0,051
248,888	9,458	-0,160	-0,083
249,903	-88,156	-0,235	-0,048
250,917	-112,469	-0,191	-0,026
251,932	-106,553	-0,096	-0,015
252,947	10,378	-0,185	-0,097
253,961	-86,210	-0,203	-0,043
254,976	638,721	-0,132	-0,233
255,990	194,878	-0,161	-0,170
257,005	329,399	-0,158	-0,210
258,020	222,313	-0,085	-0,095
259,034	178,128	-0,112	-0,114
260,049	-114,655	-0,178	-0,023
261,063	76,886	-0,237	-0,174
262,078	146,168	-0,271	-0,252
263,093	-67,546	-0,145	-0,039
264,107	738,815	-0,138	-0,257
265,122	200,681	-0,144	-0,154
266,136	140,999	-0,157	-0,144
267,151	-56,560	-0,254	-0,078
268,166	56,870	-0,154	-0,104
269,180	-69,958	-0,192	-0,050
270,195	235,669	-0,166	-0,190
271,209	371,867	-0,150	-0,211
272,224	20,886	-0,225	-0,126
273,239	198,828	-0,127	-0,134
274,253	-31,653	-0,248	-0,096
275,268	-138,297	-0,201	-0,015
276,282	-39,532	-0,244	-0,088
277,297	12,171	-0,155	-0,082
278,312	-200,000	-0,019	-0,207
279,326	-200,000	-0,028	-0,113
280,341	-200,000	-0,014	-0,090
281,355	473,632	-0,053	-0,083
282,370	-22,939	-0,239	-0,099
283,384	216,150	-0,117	-0,129
284,399	663,642	-0,130	-0,232
285,414	-14,235	-0,241	-0,107
286,428	800,000	-0,055	-0,117
287,443	-19,161	-0,198	-0,084
288,457	-140,690	-0,114	0,008
289,472	800,000	-0,069	-0,140
290,487	-19,456	-0,231	-0,098
291,501	-40,436	-0,338	-0,121
292,516	146,231	-0,115	-0,107
293,530	43,197	-0,094	-0,059
294,545	-200,000	0,011	-0,076
295,560	-150,118	-0,142	-0,007
296,574	36,072	-0,129	-0,078
297,589	401,562	-0,140	-0,203
298,603	215,851	-0,185	-0,203
299,618	60,374	-0,210	-0,143
300,633	-177,847	-0,234	0,004
301,647	-117,053	-0,149	-0,018
302,662	-161,370	-0,136	-0,005
303,676	-56,861	-0,201	0,061
304,691	121,746	-0,173	-0,148
305,706	74,986	-0,207	-0,150
306,720	2,963	-0,181	-0,090
307,735	716,979	-0,056	-0,103
308,749	39,983	-0,100	-0,062
309,764	193,535	-0,093	-0,097
310,779	-136,920	-0,165	-0,013
311,793	407,392	-0,077	-0,113
312,808	-74,614	-0,068	0,017
313,822	95,269	-0,191	-0,150
314,837	117,969	-0,078	-0,066
315,852	-96,605	-0,037	-0,007
316,866	-75,557	-0,123	0,030
317,881	105,257	-0,170	-0,138
318,895	51,438	-0,250	-0,164
319,910	800,000	-0,093	-0,274
320,925	257,944	-0,124	-0,147
321,939	601,708	-0,111	-0,191
322,954	86,234	-0,154	-0,117
323,968	293,895	0,029	-0,036
324,983	-72,096	-0,066	0,017
325,997	277,532	-0,189	-0,232
327,012	482,330	-0,110	-0,173
328,027	-67,199	-0,212	-0,057
329,041	527,303	-0,101	-0,165
330,056	-52,637	-0,119	0,038
331,070	800,000	0,023	-0,062
332,085	-50,930	-0,115	-0,037
333,100	-54,029	-0,134	0,042
334,114	14,664	-0,200	-0,107
335,129	-149,101	-0,159	-0,009
336,143	800,000	0,052	0,126
337,158	-127,488	-0,103	-0,010
338,173	385,164	-0,030	0,042
339,187	-92,111	-0,198	0,038
340,202	800,000	-0,104	-0,216
341,216	-84,987	-0,112	0,024
342,231	333,758	-0,158	-0,210
343,246	55,040	-0,214	-0,142
344,260	118,895	-0,087	0,074
345,275	416,878	-0,151	-0,223
346,289	-120,571	-0,206	-0,024
347,304	749,788	-0,043	-0,081
348,319	-49,524	-0,178	-0,058
349,333	800,000	-0,139	-0,285
350,348	-200,000	-0,060	-0,196
351,362	203,107	-0,170	-0,181
352,377	-47,316	-0,156	-0,052
353,392	42,036	-0,087	-0,054
354,406	192,058	-0,134	-0,139
355,421	208,359	1313,822	1412,472
356,435	160,318	1474,471	1412,996
