DTS Sentinel unit serial number:	SN410029Multiplexer serial number:	ORYXHardware model number:	OX2-SRSoftware version number:	ORYX F/W v4,00 Oryx Data Collector v3.7.2.0data status	okinstallation	B3 Nyhavnadifferential loss correction	single-endedforward channel	channel 1reverse channel	N/Adate	2023/12/04time	01:42:30forward acquisition time	300,00reverse acquisition time	0,00gamma	499,1914k internal	0,3204k external	0,3204temperature offset calibration	1,0000default loss term (dB/km)	0,3820temperature slope calibration	1,0000multiplexer offset coefficient	1,0000multiplexer slope coefficient	1,0000fibre end	0,00T internal ref (°C)	12,41T ext. ref 1 (°C)	-2,84T ext. ref 2 (°C)	-2,87length (m)	temperature (°C)	Stokes	anti-Stokes-744,400	579,814	-0,157	-0,280
-743,385	-200,000	0,054	0,235
-742,371	140,106	-0,132	-0,126
-741,356	-200,000	0,105	0,361
-740,342	768,394	-0,089	-0,176
-739,327	-200,000	-0,071	0,232
-738,312	-20,610	-0,253	-0,113
-737,298	-200,000	0,045	0,286
-736,283	24,579	-0,303	-0,182
-735,269	-200,000	0,082	0,312
-734,254	359,723	-0,199	-0,290
-733,239	96,612	-0,165	0,137
-732,225	356,438	-0,116	-0,168
-731,210	26,207	0,092	0,055
-730,196	-149,144	-0,115	0,007
-729,181	42,715	-0,049	0,032
-728,167	-163,727	-0,067	0,002
-727,152	-200,000	0,008	-0,114
-726,137	-200,000	-0,006	-0,026
-725,123	4,760	-0,169	-0,090
-724,108	477,020	-0,060	-0,098
-723,094	-200,000	-0,037	-0,224
-722,079	35,094	-0,103	-0,066
-721,064	-153,924	-0,064	-0,003
-720,050	128,611	-0,095	0,088
-719,035	420,465	0,081	-0,127
-718,021	-200,000	0,002	0,087
-717,006	41,693	-0,094	0,062
-715,991	-200,000	0,024	-0,078
-714,977	-200,000	0,012	-0,158
-713,962	210,787	-0,063	-0,072
-712,948	10,299	-0,082	-0,045
-711,933	10,939	0,061	0,034
-710,918	800,000	-0,013	-0,040
-709,904	500,128	0,013	-0,021
-708,889	-83,630	-0,169	-0,039
-707,875	-200,000	0,015	0,121
-706,860	356,096	-0,035	0,051
-705,845	-76,931	0,146	-0,037
-704,831	-130,372	0,051	-0,005
-703,816	-44,412	-0,120	0,043
-702,802	-30,273	-0,134	-0,055
-701,787	-200,000	0,017	-0,085
-700,772	800,000	0,015	-0,035
-699,758	-200,000	0,020	-0,147
-698,743	-200,000	-0,061	-0,207
-697,729	800,000	-0,029	0,064
-696,714	-21,716	0,056	-0,025
-695,699	3,238	-0,117	-0,062
-694,685	-67,877	-0,159	-0,045
-693,670	356,271	-0,031	0,045
-692,656	-122,043	0,031	-0,004
-691,641	81,179	-0,100	-0,078
-690,627	-200,000	-0,033	0,183
-689,612	349,315	0,032	-0,046
-688,597	96,466	-0,032	0,026
-687,583	25,243	-0,156	-0,094
-686,568	389,978	-0,125	0,189
-685,554	-200,000	0,003	-0,097
-684,539	-162,234	-0,036	0,001
-683,524	200,045	-0,069	-0,077
-682,510	4,519	0,070	0,037
-681,495	-200,000	0,014	-0,113
-680,481	800,000	0,007	-0,017
-679,466	-200,000	-0,019	-0,148
-678,451	-38,101	-0,049	0,019
-677,437	553,503	0,079	0,138
-676,422	60,095	-0,085	0,061
-675,408	-74,114	0,148	-0,039
-674,393	-16,320	0,077	0,035
-673,378	-200,000	-0,000	-0,141
-672,364	-63,149	-0,081	-0,024
-671,349	-137,153	-0,110	-0,009
-670,335	26,276	-0,064	-0,039
-669,320	48,190	0,116	0,079
-668,305	258,080	-0,115	0,144
-667,291	-127,192	-0,144	-0,015
-666,276	43,169	-0,059	0,039
-665,262	157,483	-0,014	-0,014
-664,247	-53,484	-0,115	-0,038
-663,232	-90,048	-0,028	-0,006
-662,218	-200,000	0,009	0,133
-661,203	-200,000	0,024	-0,123
-660,189	-172,769	0,097	0,002
-659,174	188,371	-0,069	-0,074
-658,159	555,714	-0,059	0,103
-657,145	445,460	-0,062	-0,100
-656,130	-185,730	0,040	0,000
-655,116	236,983	-0,019	-0,023
-654,101	-33,883	0,135	0,054
-653,086	271,899	-0,051	0,065
-652,072	-12,643	-0,061	0,029
-651,057	-200,000	-0,008	-0,061
-650,043	574,743	-0,032	-0,056
-649,028	508,603	0,066	0,111
-648,014	127,504	-0,029	0,026
-646,999	-200,000	-0,012	0,115
-645,984	92,952	0,025	0,020
-644,970	171,312	-0,097	-0,101
-643,955	-200,000	-0,010	-0,208
-642,941	-118,201	-0,198	-0,025
-641,926	-200,000	0,001	0,036
-640,911	-200,000	-0,021	0,102
-639,897	30,556	0,009	0,006
-638,882	569,607	0,030	0,053
-637,868	-122,030	-0,064	0,008
-636,853	800,000	-0,099	-0,244
-635,838	-41,911	-0,043	0,016
-634,824	-61,767	0,068	0,020
-633,809	589,322	0,032	-0,057
-632,795	5,084	-0,066	0,035
-631,780	234,383	-0,033	-0,039
-630,765	-200,000	0,011	0,050
-629,751	-200,000	-0,033	-0,146
-628,736	69,934	-0,112	0,083
-627,722	115,805	-0,180	-0,160
-626,707	28,591	0,050	-0,030
-625,692	194,828	-0,061	0,067
-624,678	77,600	-0,090	-0,069
-623,663	-200,000	0,002	0,058
-622,649	448,462	-0,124	-0,199
-621,634	42,287	0,041	-0,027
-620,619	-106,180	-0,068	0,011
-619,605	288,174	-0,075	-0,099
-618,590	-30,561	0,085	0,035
-617,576	-200,000	-0,022	-0,092
-616,561	107,898	0,099	0,085
-615,546	-15,305	-0,030	-0,014
-614,532	800,000	-0,029	-0,086
-613,517	26,958	-0,070	0,043
-612,503	75,907	0,097	-0,074
-611,488	-54,496	-0,071	0,023
-610,474	-17,592	0,128	0,058
-609,459	800,000	-0,036	0,091
-608,444	-200,000	-0,002	-0,047
-607,430	9,358	-0,091	-0,049
-606,415	206,170	-0,067	-0,076
-605,401	782,798	-0,073	0,146
-604,386	198,971	-0,051	0,056
-603,371	82,730	-0,067	0,052
-602,357	373,488	-0,018	0,027
-601,342	213,140	-0,053	0,060
-600,328	61,085	-0,158	-0,113
-599,313	-113,980	-0,086	0,012
-598,298	-88,210	0,132	0,028
-597,284	25,828	-0,022	0,013
-596,269	800,000	-0,022	-0,048
-595,255	-141,509	0,087	-0,006
-594,240	-0,921	-0,110	0,056
-593,225	702,777	-0,060	0,114
-592,211	-200,000	-0,038	0,148
-591,196	-107,110	-0,084	-0,013
-590,182	509,350	0,056	0,094
-589,167	-131,024	-0,095	0,009
-588,152	-81,293	0,062	0,015
-587,138	14,302	-0,056	0,031
-586,123	-113,829	-0,084	0,012
-585,109	373,103	0,023	-0,034
-584,094	800,000	-0,042	0,105
-583,079	-18,690	0,049	0,022
-582,065	-200,000	-0,005	0,048
-581,050	-59,883	-0,137	-0,042
-580,036	518,985	-0,041	-0,069
-579,021	661,480	0,063	-0,117
-578,006	-105,895	-0,066	0,011
-576,992	-200,000	-0,005	-0,135
-575,977	-200,000	0,007	-0,142
-574,963	800,000	0,030	-0,076
-573,948	-200,000	-0,014	0,093
-572,934	800,000	0,032	-0,075
-571,919	91,598	-0,060	-0,048
-570,904	277,104	0,118	-0,152
-569,890	-100,573	-0,123	0,022
-568,875	800,000	0,062	-0,130
-567,861	267,719	-0,051	0,065
-566,846	488,862	0,065	0,108
-565,831	-3,949	-0,053	0,026
-564,817	-135,769	-0,083	0,007
-563,802	-200,000	0,025	-0,113
-562,788	10,762	-0,115	0,063
-561,773	2,845	-0,083	-0,043
-560,758	-74,928	-0,026	0,007
-559,744	-85,920	0,123	0,027
-558,729	152,755	-0,098	0,097
-557,715	-86,980	-0,171	0,037
-556,700	-21,253	0,107	-0,047
-555,685	-53,738	-0,120	-0,039
-554,671	-96,053	0,089	0,017
-553,656	-200,000	0,001	-0,058
-552,642	-65,729	0,142	-0,041
-551,627	-200,000	-0,051	0,164
-550,612	121,302	-0,066	0,059
-549,598	-53,009	-0,090	-0,030
-548,583	-160,907	-0,107	0,004
-547,569	800,000	0,081	0,164
-546,554	29,654	0,151	-0,092
-545,539	30,483	0,152	-0,094
-544,525	-12,390	0,059	-0,028
-543,510	73,511	-0,141	-0,106
-542,496	-130,029	0,050	0,005
-541,481	144,328	-0,170	-0,163
-540,466	732,426	-0,025	-0,048
-539,452	800,000	-0,057	0,148
-538,437	107,535	0,051	0,043
-537,423	-200,000	-0,022	0,085
-536,408	-36,457	-0,052	-0,020
-535,393	-68,072	-0,091	-0,026
-534,379	-110,405	-0,041	0,006
-533,364	53,691	0,027	-0,019
-532,350	-132,414	-0,088	0,008
-531,335	-200,000	0,006	-0,093
-530,321	800,000	-0,030	-0,085
-529,306	-200,000	0,011	0,060
-528,291	-25,685	-0,049	-0,021
-527,277	-200,000	-0,021	-0,090
-526,262	314,027	-0,074	-0,100
-525,248	217,734	-0,039	-0,045
-524,233	442,227	0,023	0,036
-523,218	27,886	-0,029	-0,018
-522,204	-95,876	-0,109	0,021
-521,189	-50,908	-0,056	-0,019
-520,175	-200,000	0,026	-0,140
-519,160	190,377	-0,036	-0,039
-518,145	-58,316	0,093	0,029
-517,131	59,534	0,082	0,058
-516,116	-173,850	0,057	-0,001
-515,102	-90,679	-0,154	0,032
-514,087	-200,000	0,003	-0,038
-513,072	-81,743	0,013	-0,003
-512,058	9,759	0,061	0,033
-511,043	-118,974	0,057	0,007
-510,029	-13,403	0,073	0,034
-509,014	-118,029	0,042	0,005
-507,999	782,113	-0,015	0,030
-506,985	44,325	-0,046	-0,030
-505,970	699,569	-0,042	0,079
-504,956	160,156	0,026	-0,026
-503,941	156,965	0,044	0,044
-502,926	-200,000	0,016	0,072
-501,912	800,000	0,023	0,056
-500,897	216,283	0,091	-0,104
-499,883	128,961	0,144	0,132
-498,868	-122,181	-0,098	-0,011
-497,853	-61,875	-0,104	-0,031
-496,839	-176,250	-0,031	-0,001
-495,824	257,984	-0,028	-0,035
-494,810	733,375	0,023	-0,045
-493,795	26,597	-0,070	-0,042
-492,781	800,000	-0,017	-0,040
-491,766	767,345	-0,024	-0,047
-490,751	-124,291	-0,174	-0,019
-489,737	-14,509	0,077	-0,035
-488,722	-105,696	0,104	-0,017
-487,708	-138,687	0,122	0,009
-486,693	450,384	0,057	-0,091
-485,678	-124,800	-0,067	-0,007
-484,664	-200,000	0,020	-0,088
-483,649	-34,502	-0,087	0,034
-482,635	800,000	0,022	0,057
-481,620	-161,294	0,106	-0,004
-480,605	-40,253	0,141	0,053
-479,591	60,750	-0,026	-0,018
-478,576	104,679	-0,022	0,019
-477,562	368,540	0,031	-0,045
-476,547	697,345	0,101	-0,191
-475,532	252,926	0,081	-0,100
-474,518	-11,512	0,143	0,067
-473,503	-101,560	0,064	-0,011
-472,489	-134,757	-0,087	-0,007
-471,474	95,403	-0,085	0,070
-470,459	-200,000	-0,011	-0,083
-469,445	611,648	0,030	-0,053
-468,430	-110,888	-0,025	-0,004
-467,416	54,870	-0,092	-0,064
-466,401	-105,716	-0,083	-0,013
-465,386	-120,492	-0,045	-0,005
-464,372	-200,000	-0,015	0,092
-463,357	117,647	-0,073	-0,065
-462,343	-139,343	-0,153	0,012
-461,328	-57,639	-0,079	0,025
-460,313	289,071	0,080	0,104
-459,299	-200,000	0,035	0,138
-458,284	-37,861	0,054	0,020
-457,270	64,782	0,027	0,019
-456,255	401,475	-0,020	-0,031
-455,241	800,000	0,031	-0,075
-454,226	173,333	-0,066	-0,068
-453,211	140,038	-0,065	0,061
-452,197	6,783	-0,032	-0,017
-451,182	800,000	-0,024	-0,051
-450,168	4,737	-0,047	-0,025
-449,153	33,336	-0,013	-0,008
-448,138	135,214	0,029	-0,027
-447,124	800,000	-0,001	0,004
-446,109	239,703	-0,038	-0,046
-445,095	47,007	0,100	0,067
-444,080	-34,348	0,150	0,059
-443,065	-200,000	0,007	0,041
-442,051	105,682	0,033	-0,028
-441,036	534,480	-0,025	-0,042
-440,022	463,699	0,074	-0,119
-439,007	-95,251	0,037	-0,007
-437,992	371,934	0,056	0,081
-436,978	-200,000	0,022	0,096
-435,963	460,524	0,100	-0,160
-434,949	-200,000	0,020	-0,170
-433,934	100,904	0,062	0,051
-432,919	-200,000	-0,004	0,058
-431,905	247,357	-0,014	0,016
-430,890	-200,000	0,015	0,141
-429,876	140,797	-0,006	0,006
-428,861	-105,895	0,087	0,014
-427,846	-65,444	0,041	0,012
-426,832	-200,000	-0,022	-0,116
-425,817	449,765	-0,052	-0,083
-424,803	-200,000	0,011	0,145
-423,788	800,000	0,032	0,073
-422,773	-200,000	0,027	0,191
-421,759	-51,170	0,196	0,066
-420,744	-200,000	0,008	-0,192
-419,730	72,661	-0,154	-0,115
-418,715	800,000	-0,061	-0,126
-417,701	800,000	0,037	0,108
-416,686	-87,155	-0,162	-0,035
-415,671	800,000	0,050	0,131
-414,657	15,491	0,095	0,053
-413,642	295,561	0,039	0,052
-412,628	800,000	-0,024	0,073
-411,613	76,107	0,014	-0,010
-410,598	24,026	0,074	0,044
-409,584	19,015	0,111	-0,064
-408,569	-10,507	-0,134	0,063
-407,555	800,000	0,049	0,108
-406,540	-130,061	0,101	-0,010
-405,525	472,221	-0,022	-0,036
-404,511	-200,000	-0,027	-0,158
-403,496	-200,000	0,026	-0,084
-402,482	-157,526	-0,064	-0,003
-401,467	-200,000	0,012	0,057
-400,452	689,111	0,020	-0,037
-399,438	-136,748	-0,026	0,002
-398,423	-200,000	0,003	-0,022
-397,409	-47,644	0,053	-0,018
-396,394	123,409	0,054	-0,048
-395,379	30,599	-0,079	-0,048
-394,365	444,417	0,070	0,111
-393,350	-200,000	0,000	-0,005
-392,336	364,371	-0,083	0,120
-391,321	71,346	0,041	-0,030
-390,306	50,245	0,015	-0,010
-389,292	800,000	-0,048	0,152
-388,277	-98,534	-0,082	0,015
-387,263	376,389	0,025	-0,036
-386,248	-200,000	0,003	-0,133
-385,233	-74,666	0,143	-0,037
-384,219	737,407	0,017	-0,034
-383,204	-200,000	-0,015	-0,090
-382,190	-48,932	0,165	-0,056
-381,175	-200,000	0,018	-0,101
-380,160	83,299	0,068	-0,053
-379,146	34,218	0,089	-0,056
-378,131	206,881	0,079	0,088
-377,117	38,269	-0,045	-0,029
-376,102	-65,053	-0,031	-0,009
-375,088	28,549	0,026	0,015
-374,073	392,031	-0,008	0,012
-373,058	-200,000	0,011	0,061
-372,044	-125,177	0,076	0,008
-371,029	235,046	0,102	0,121
-370,015	171,597	-0,081	-0,083
-369,000	-35,842	0,058	-0,022
-367,985	446,001	-0,101	-0,159
-366,971	-200,000	0,026	-0,146
-365,956	143,273	-0,061	-0,058
-364,942	-10,906	0,139	0,066
-363,927	125,351	0,079	-0,071
-362,912	-200,000	0,018	0,103
-361,898	-200,000	0,012	-0,064
-360,883	-19,915	0,033	-0,015
-359,869	-61,888	-0,052	-0,016
-358,854	-174,108	-0,120	0,002
-357,839	448,009	0,094	0,149
-356,825	-134,880	-0,036	0,003
-355,810	36,821	-0,081	0,051
-354,796	-200,000	0,007	-0,041
-353,781	-2,278	-0,094	0,047
-352,766	27,500	-0,080	-0,048
-351,752	274,791	0,076	-0,096
-350,737	-82,356	-0,096	-0,022
-349,723	391,093	-0,031	-0,046
-348,708	-200,000	-0,009	0,100
-347,693	-27,520	-0,076	0,032
-346,679	-200,000	-0,018	-0,093
-345,664	800,000	0,047	-0,103
-344,650	-35,808	0,142	-0,055
-343,635	-82,478	0,106	0,024
-342,620	49,385	0,044	-0,029
-341,606	-200,000	0,000	0,155
-340,591	-200,000	-0,026	0,120
-339,577	-156,939	0,060	0,003
-338,562	800,000	-0,047	-0,125
-337,548	-200,000	-0,011	0,044
-336,533	-145,429	0,041	-0,003
-335,518	800,000	0,055	0,140
-334,504	-152,205	0,109	-0,006
-333,489	800,000	0,068	0,186
-332,475	162,208	-0,090	-0,091
-331,460	-166,314	-0,025	0,001
-330,445	571,006	0,067	-0,117
-329,431	-7,455	0,054	0,026
-328,416	18,222	0,116	-0,066
-327,402	-170,160	-0,021	0,001
-326,387	800,000	0,045	0,132
-325,372	181,152	-0,104	-0,109
-324,358	441,415	-0,038	0,059
-323,343	-75,304	-0,107	0,027
-322,329	43,476	0,060	0,039
-321,314	70,858	-0,044	0,032
-320,299	-179,558	0,048	0,001
-319,285	9,767	-0,107	-0,058
-318,270	800,000	0,016	-0,042
-317,256	800,000	0,025	-0,054
-316,241	572,251	0,007	-0,013
-315,226	174,359	0,048	0,050
-314,212	45,784	0,045	0,030
-313,197	800,000	-0,020	-0,056
-312,183	265,663	-0,076	-0,095
-311,168	27,194	-0,033	0,020
-310,153	800,000	-0,072	-0,224
-309,139	-29,698	0,060	0,024
-308,124	-146,162	-0,091	-0,006
-307,110	143,483	0,039	-0,037
-306,095	41,544	-0,050	0,032
-305,080	-46,621	0,102	0,036
-304,066	-92,072	-0,011	0,002
-303,051	-200,000	0,019	-0,092
-302,037	-200,000	-0,023	-0,109
-301,022	-38,608	0,076	-0,029
-300,008	103,954	0,071	0,060
-298,993	539,806	0,014	-0,025
-297,978	-200,000	-0,002	-0,047
-296,964	75,128	0,032	-0,024
-295,949	249,620	0,010	-0,012
-294,935	-200,000	0,011	-0,041
-293,920	800,000	0,089	-0,186
-292,905	526,044	0,033	0,056
-291,891	-200,000	0,009	0,084
-290,876	11,733	0,040	0,022
-289,862	-200,000	-0,011	0,060
-288,847	-200,000	-0,002	-0,030
-287,832	-40,583	-0,084	0,031
-286,818	800,000	-0,013	-0,028
-285,803	35,520	0,101	0,063
-284,789	-200,000	0,037	-0,166
-283,774	-137,743	-0,041	-0,003
-282,759	-200,000	0,016	0,064
-281,745	-200,000	-0,001	-0,132
-280,730	-150,896	-0,087	0,005
-279,716	-61,180	-0,072	-0,022
-278,701	241,303	0,050	0,060
-277,686	800,000	-0,065	0,158
-276,672	-200,000	0,002	0,133
-275,657	52,347	-0,028	-0,019
-274,643	-137,175	-0,046	-0,004
-273,628	-12,204	-0,090	-0,042
-272,613	-89,352	0,163	-0,034
-271,599	371,506	0,059	0,086
-270,584	42,990	-0,075	-0,049
-269,570	-70,941	-0,031	-0,008
-268,555	800,000	-0,022	0,059
-267,540	-88,130	0,039	-0,008
-266,526	352,423	-0,018	-0,025
-265,511	-26,274	-0,109	-0,045
-264,497	-200,000	0,050	0,217
-263,482	-57,508	0,143	0,044
-262,467	318,786	-0,018	0,024
-261,453	-129,772	0,042	0,004
-260,438	-23,361	0,101	-0,043
-259,424	315,588	0,072	-0,097
-258,409	412,710	0,062	-0,094
-257,395	-200,000	-0,040	0,156
-256,380	269,734	0,045	0,057
-255,365	60,737	0,153	-0,108
-254,351	800,000	0,065	-0,193
-253,336	-184,514	-0,098	-0,001
-252,322	-200,000	0,003	-0,018
-251,307	800,000	-0,024	0,049
-250,292	-80,499	0,061	-0,014
-249,278	129,844	0,103	0,094
-248,263	-200,000	-0,023	0,163
-247,249	-63,221	-0,043	0,013
-246,234	-60,780	0,075	0,023
-245,219	800,000	0,009	0,022
-244,205	-200,000	-0,008	0,094
-243,190	-174,579	0,056	-0,001
-242,176	-39,784	-0,018	-0,007
-241,161	-14,665	0,118	-0,054
-240,146	-200,000	-0,004	0,073
-239,132	-200,000	0,054	0,190
-238,117	435,178	-0,057	-0,088
-237,103	297,974	0,022	-0,030
-236,088	-87,054	0,036	0,008
-235,073	-149,755	0,118	-0,007
-234,059	-28,123	-0,160	0,066
-233,044	-200,000	-0,029	0,111
-232,030	38,182	-0,131	-0,083
-231,015	-29,429	-0,100	0,040
-230,000	357,675	-0,025	0,035
-228,986	468,939	-0,041	0,066
-227,971	-3,323	0,093	0,046
-226,957	38,679	0,111	0,070
-225,942	-200,000	-0,007	-0,111
-224,927	272,059	0,040	0,050
-223,913	138,871	-0,054	-0,051
-222,898	-57,255	-0,201	-0,063
-221,884	100,610	0,094	0,078
-220,869	722,958	0,023	0,044
-219,855	-15,379	0,097	0,044
-218,840	-200,000	0,033	0,129
-217,825	42,601	0,066	0,043
-216,811	105,960	0,032	0,027
-215,796	-200,000	-0,010	0,101
-214,782	-17,836	-0,035	-0,015
-213,767	800,000	-0,028	-0,060
-212,752	-104,578	-0,147	0,024
-211,738	-200,000	-0,003	0,051
-210,723	771,788	-0,018	0,036
-209,709	-6,537	0,060	0,029
-208,694	-81,429	-0,083	0,019
-207,679	47,665	0,098	0,065
-206,665	502,488	-0,032	-0,052
-205,650	57,920	0,098	0,068
-204,636	74,393	0,067	-0,050
-203,621	-200,000	0,021	0,128
-202,606	397,181	-0,063	-0,094
-201,592	-200,000	0,004	-0,059
-200,577	50,612	-0,115	-0,077
-199,563	479,129	0,029	-0,046
-198,548	-44,028	0,100	0,035
-197,533	-47,793	-0,224	0,077
-196,519	95,969	0,140	-0,114
-195,504	-97,042	0,017	-0,003
-194,490	-182,358	-0,082	0,001
-193,475	199,251	-0,032	-0,035
-192,460	-162,612	0,106	0,004
-191,446	800,000	-0,037	0,081
-190,431	126,966	0,087	-0,078
-189,417	-200,000	-0,031	0,121
-188,402	-200,000	-0,045	0,147
-187,387	-200,000	0,005	-0,064
-186,373	-200,000	-0,019	-0,072
-185,358	-200,000	0,002	0,020
-184,344	33,630	0,129	0,079
-183,329	-113,955	0,074	-0,010
-182,315	116,132	-0,127	0,110
-181,300	-53,738	0,115	-0,037
-180,285	-142,180	-0,128	-0,009
-179,271	129,871	-0,095	-0,087
-178,256	677,226	0,043	-0,079
-177,242	-200,000	-0,016	0,134
-176,227	-200,000	-0,016	0,052
-175,212	364,176	0,014	0,020
-174,198	-200,000	-0,009	0,078
-173,183	653,619	0,034	0,062
-172,169	300,610	-0,064	0,084
-171,154	800,000	0,022	-0,058
-170,139	-200,000	-0,002	0,082
-169,125	-133,765	0,087	-0,008
-168,110	135,320	0,102	0,094
-167,096	-94,923	0,096	0,018
-166,081	154,440	0,082	0,080
-165,066	154,753	-0,084	-0,082
-164,052	800,000	0,018	-0,035
-163,037	-200,000	0,011	0,101
-162,023	-200,000	0,020	0,256
-161,008	-200,000	-0,002	0,107
-159,993	-200,000	0,012	-0,043
-158,979	110,216	-0,043	0,036
-157,964	-152,660	0,089	-0,004
-156,950	-200,000	0,001	-0,096
-155,935	-103,965	0,107	-0,018
-154,920	-167,826	0,150	-0,004
-153,906	800,000	0,020	-0,043
-152,891	3,164	-0,178	0,092
-151,877	-38,055	-0,064	0,024
-150,862	800,000	0,039	-0,079
-149,847	103,782	-0,045	0,038
-148,833	-55,490	-0,055	-0,017
-147,818	146,659	0,079	0,075
-146,804	706,040	0,033	0,063
-145,789	-71,128	-0,141	0,037
-144,775	-200,000	0,012	0,065
-143,760	-200,000	0,022	0,089
-142,745	-200,000	-0,023	-0,133
-141,731	800,000	0,002	-0,006
-140,716	250,648	0,063	0,076
-139,702	48,481	0,114	-0,076
-138,687	800,000	-0,040	-0,117
-137,672	14,439	-0,096	-0,053
-136,658	751,375	-0,078	-0,150
-135,643	250,779	-0,040	0,049
-134,629	-200,000	0,022	-0,198
-133,614	406,586	0,092	-0,138
-132,599	800,000	0,077	0,151
-131,585	53,792	-0,095	-0,065
-130,570	-200,000	0,002	-0,067
-129,556	260,680	-0,068	-0,084
-128,541	7,743	0,106	0,056
-127,526	708,688	0,049	-0,093
-126,512	111,255	0,041	0,035
-125,497	444,345	-0,038	0,059
-124,483	-101,257	-0,085	0,015
-123,468	167,912	0,040	0,041
-122,453	61,754	-0,088	-0,062
-121,439	174,883	-0,049	-0,050
-120,424	-200,000	0,011	-0,038
-119,410	37,676	-0,039	0,024
-118,395	800,000	-0,046	0,136
-117,380	36,181	0,035	-0,022
-116,366	20,179	-0,091	0,052
-115,351	-200,000	-0,037	0,353
-114,337	-23,197	-0,047	0,020
-113,322	707,871	0,027	0,051
-112,307	-107,059	-0,032	0,005
-111,293	-200,000	-0,003	0,133
-110,278	749,134	0,054	0,103
-109,264	130,124	-0,132	0,120
-108,249	164,735	0,057	-0,057
-107,234	800,000	-0,012	0,034
-106,220	454,147	-0,005	-0,008
-105,205	-85,417	-0,093	-0,020
-104,191	459,849	-0,030	0,047
-103,176	114,486	0,034	0,030
-102,162	163,494	-0,048	-0,048
-101,147	-200,000	0,008	-0,046
-100,132	476,645	-0,043	-0,070
-99,118	-200,000	-0,037	-0,170
-98,103	104,009	-0,074	0,062
-97,089	800,000	-0,034	0,079
-96,074	37,344	0,061	-0,038
-95,059	-77,301	-0,014	-0,003
-94,045	-200,000	0,017	0,063
-93,030	281,217	-0,066	-0,084
-92,016	95,699	-0,063	-0,051
-91,001	-66,707	0,117	-0,033
-89,986	-69,852	0,036	-0,010
-88,972	-92,794	-0,010	-0,002
-87,957	-61,271	-0,036	-0,011
-86,943	-62,390	-0,099	-0,029
-85,928	112,572	0,067	-0,057
-84,913	322,843	-0,084	-0,113
-83,899	800,000	-0,037	-0,091
-82,884	-200,000	0,013	-0,056
-81,870	-90,645	0,098	-0,020
-80,855	52,111	-0,014	0,010
-79,840	-200,000	0,009	0,033
-78,826	-52,170	-0,079	-0,026
-77,811	-200,000	0,009	-0,030
-76,797	305,186	0,037	0,049
-75,782	-164,473	0,028	-0,001
-74,767	-28,673	-0,067	0,027
-73,753	73,604	-0,070	0,052
-72,738	-200,000	0,032	0,104
-71,724	800,000	-0,039	-0,096
-70,709	-113,661	0,113	0,015
-69,694	423,341	-0,057	-0,087
-68,680	-61,391	0,028	0,008
-67,665	69,625	0,109	-0,079
-66,651	-200,000	-0,002	-0,024
-65,636	-31,408	-0,040	0,016
-64,622	441,520	-0,030	0,047
-63,607	-51,003	-0,252	-0,083
-62,592	-200,000	-0,002	0,024
-61,578	-133,442	-0,101	-0,009
-60,563	-200,000	0,023	0,138
-59,549	-8,405	-0,069	-0,033
-58,534	-4,371	-1,829	-0,892
-57,519	453,143	-1,273	-1,999
-56,505	-200,000	-0,488	-4,510
-55,490	354,400	0,915	1,290
-54,476	800,000	4,916	11,215
-53,461	-200,000	20,075	325,083
-52,446	800,000	750,780	2318,071
-51,432	553,337	1662,040	2836,518
-50,417	75,657	1671,999	1247,777
-49,403	20,278	1544,983	880,044
-48,388	14,234	1467,524	806,509
-47,373	18,256	1457,433	820,365
-46,359	16,362	1447,239	805,519
-45,344	12,563	1442,394	784,593
-44,330	12,430	1440,636	782,967
-43,315	12,459	1438,894	782,132
-42,300	12,452	1437,237	781,165
-41,286	12,476	1436,021	780,586
-40,271	12,433	1434,740	779,657
-39,257	12,433	1433,194	778,783
-38,242	12,468	1432,345	778,459
-37,227	12,499	1430,742	777,702
-36,213	12,516	1429,537	777,101
-35,198	12,469	1428,446	776,253
-34,184	12,557	1427,498	776,122
-33,169	12,459	1426,060	774,845
-32,154	12,536	1424,934	774,571
-31,140	12,552	1423,557	773,867
-30,125	12,523	1422,556	773,154
-29,111	12,510	1421,354	772,407
-28,096	12,522	1420,237	771,827
-27,082	12,461	1419,196	770,944
-26,067	12,472	1418,115	770,377
-25,052	12,454	1417,044	769,680
-24,038	12,433	1416,041	769,005
-23,023	12,436	1415,011	768,429
-22,009	12,438	1413,933	767,824
-20,994	12,434	1413,222	767,388
-19,979	12,373	1412,354	766,599
-18,965	12,413	1411,165	766,111
-17,950	12,437	1410,303	765,726
-16,936	12,387	1409,456	765,000
-15,921	12,330	1408,537	764,206
-14,906	12,305	1407,594	763,548
-13,892	12,384	1406,547	763,317
-12,877	12,330	1405,810	762,633
-11,863	12,361	1404,916	762,265
-10,848	12,340	1403,882	761,576
-9,833	12,328	1403,106	761,066
-8,819	12,267	1402,240	760,282
-7,804	12,230	1401,418	759,635
-6,790	12,229	1400,591	759,153
-5,775	12,278	1399,148	758,569
-4,760	12,237	1398,309	757,894
-3,746	12,264	1397,279	757,427
-2,731	12,222	1396,523	756,796
-1,717	12,199	1395,597	756,155
-0,702	12,188	1393,827	755,116
0,313	16,123	1309,002	727,338
1,327	32,189	700,815	426,377
2,342	49,555	122,445	81,340
3,356	0,703	16,557	8,346
4,371	3,495	3,264	1,676
5,386	-18,324	0,601	0,264
6,400	133,607	0,220	0,201
7,415	-92,166	-0,269	-0,053
8,429	73,553	-0,318	-0,235
9,444	20,676	-0,393	-0,224
10,459	49,874	-0,356	-0,237
11,473	212,303	-0,272	-0,303
12,488	21,002	-0,227	-0,130
13,502	-25,237	-0,323	-0,135
14,517	89,796	-0,255	-0,201
15,531	35,664	-0,467	-0,289
16,546	34,214	-0,344	-0,211
17,561	173,847	-0,307	-0,313
18,575	16,412	-0,221	-0,123
19,590	433,621	-0,127	-0,195
20,604	1,434	-0,274	-0,139
21,619	36,216	-0,358	-0,222
22,634	72,054	-0,450	-0,330
23,648	75,112	-0,364	-0,270
24,663	122,201	-0,360	-0,317
25,677	-6,225	-0,394	-0,189
26,692	146,213	-0,245	-0,232
27,707	51,813	-0,323	-0,217
28,721	182,769	-0,317	-0,330
29,736	148,115	-0,449	-0,427
30,750	39,004	-0,494	-0,310
31,765	16,109	-0,304	-0,168
32,780	35,767	-0,357	-0,221
33,794	-4,120	-0,285	-0,139
34,809	91,000	-0,317	-0,250
35,823	6,703	-0,453	-0,237
36,838	28,712	-0,391	-0,233
37,853	318,426	-0,318	-0,425
38,867	131,660	-0,394	-0,357
39,882	154,130	-0,390	-0,377
40,896	89,863	-0,275	-0,217
41,911	141,791	-0,455	-0,425
42,926	5,429	-0,403	-0,209
43,940	-2,924	-0,415	-0,203
44,955	55,998	-0,376	-0,257
45,969	187,946	-0,318	-0,335
46,984	228,161	-0,274	-0,314
47,999	6,283	-0,245	-0,127
49,013	-4,988	-0,257	-0,124
50,028	226,233	-0,236	-0,270
51,042	59,752	-0,346	-0,240
52,057	107,447	-0,324	-0,271
53,071	495,742	-0,157	-0,255
54,086	82,136	-0,253	-0,193
55,101	140,771	-0,323	-0,301
56,115	89,766	-0,309	-0,242
57,130	59,503	-0,299	-0,207
58,144	-22,669	-0,434	-0,184
59,159	-14,660	-0,333	-0,150
60,174	43,323	-0,340	-0,218
61,188	67,639	-0,336	-0,241
62,203	-69,034	-0,349	-0,094
63,217	-19,513	-0,260	-0,113
64,232	126,406	-0,354	-0,315
65,247	163,994	-0,277	-0,274
66,261	236,471	-0,265	-0,309
67,276	-43,819	-0,417	-0,147
68,290	-56,519	-0,308	-0,095
69,305	400,717	-0,210	-0,310
70,320	154,758	-0,343	-0,332
71,334	5,204	-0,280	-0,145
72,349	76,197	-0,289	-0,215
73,363	114,534	-0,256	-0,219
74,378	53,913	-0,329	-0,222
75,393	50,748	-0,311	-0,206
76,407	34,237	-0,339	-0,207
77,422	248,878	-0,173	-0,206
78,436	-51,014	-0,208	-0,068
79,451	144,327	-0,281	-0,264
80,466	19,060	-0,435	-0,244
81,480	-72,795	-0,410	-0,105
82,495	109,186	-0,242	-0,203
83,509	-64,244	-0,304	-0,086
84,524	21,042	-0,218	-0,124
85,539	2,120	-0,272	-0,138
86,553	189,728	-0,159	-0,167
87,568	-22,718	-0,317	-0,134
88,582	-4,760	-0,437	-0,210
89,597	239,289	-0,198	-0,232
90,611	187,140	-0,256	-0,268
91,626	116,139	-0,226	-0,194
92,641	112,911	-0,240	-0,204
93,655	-15,098	-0,333	-0,149
94,670	-41,255	-0,302	-0,109
95,684	-84,376	-0,282	-0,062
96,699	184,291	-0,313	-0,325
97,714	243,658	-0,268	-0,316
98,728	58,189	-0,177	-0,121
99,743	-125,533	-0,337	-0,035
100,757	-49,511	-0,320	-0,106
101,772	24,205	-0,304	-0,175
102,787	46,183	-0,345	-0,223
103,801	21,233	-0,386	-0,219
104,816	101,051	-0,300	-0,244
105,830	-23,479	-0,326	-0,137
106,845	-23,680	-0,260	-0,109
107,860	89,015	-0,245	-0,191
108,874	170,984	-0,275	-0,277
109,889	144,722	-0,263	-0,246
110,903	40,354	-0,254	-0,160
111,918	80,971	-0,314	-0,237
112,933	54,584	-0,256	-0,172
113,947	84,529	-0,213	-0,163
114,962	61,088	-0,242	-0,168
115,976	180,648	-0,285	-0,293
116,991	-7,815	-0,240	-0,113
118,006	37,505	-0,328	-0,203
119,020	-2,033	-0,245	-0,120
120,035	-133,666	-0,296	-0,026
121,049	800,000	-0,080	-0,175
122,064	240,244	-0,264	-0,309
123,079	119,502	-0,224	-0,194
124,093	-5,055	-0,256	-0,123
125,108	355,070	-0,109	-0,153
126,122	40,735	-0,329	-0,207
127,137	528,763	-0,104	-0,173
128,151	7,640	-0,223	-0,117
129,166	-21,734	-0,248	-0,105
130,181	351,503	-0,251	-0,348
131,195	202,023	-0,350	-0,378
132,210	143,419	-0,456	-0,425
133,224	42,678	-0,355	-0,225
134,239	251,483	-0,100	-0,119
135,254	-1,422	-0,289	-0,142
136,268	80,300	-0,171	-0,128
137,283	97,722	-0,252	-0,202
138,297	276,423	-0,219	-0,273
139,312	138,561	-0,246	-0,225
140,327	177,567	-0,159	-0,162
141,341	21,464	-0,188	-0,107
142,356	91,245	-0,322	-0,252
143,370	-36,299	-0,248	-0,093
144,385	-17,688	-0,304	-0,133
145,400	251,889	-0,295	-0,352
146,414	153,103	-0,288	-0,275
147,429	203,656	-0,331	-0,358
148,443	125,596	-0,150	-0,132
149,458	54,716	-0,200	-0,135
150,473	410,961	-0,179	-0,265
151,487	50,608	-0,222	-0,146
152,502	351,730	-0,284	-0,394
153,516	158,239	-0,262	-0,254
154,531	227,839	-0,208	-0,236
155,546	225,883	-0,222	-0,251
156,560	-108,250	-0,271	-0,040
157,575	-95,761	-0,272	-0,050
158,589	28,687	-0,250	-0,147
159,604	-31,203	-0,318	-0,124
160,619	8,380	-0,284	-0,148
161,633	10,778	-0,273	-0,145
162,648	258,247	-0,171	-0,205
163,662	9,060	-0,191	-0,100
164,677	160,466	-0,112	-0,109
165,692	331,391	-0,245	-0,330
166,706	117,655	-0,240	-0,206
167,721	-57,925	-0,301	-0,091
168,735	253,430	-0,192	-0,229
169,750	396,178	-0,202	-0,295
170,764	431,078	-0,197	-0,299
171,779	98,146	-0,136	-0,109
172,794	-82,589	-0,180	-0,040
173,808	-108,532	-0,323	-0,048
174,823	142,327	-0,227	-0,210
175,837	41,065	-0,336	-0,211
176,852	68,569	-0,180	-0,128
177,867	170,260	-0,261	-0,261
178,881	198,226	-0,144	-0,153
179,896	66,149	-0,153	-0,108
180,910	214,203	-0,219	-0,241
181,925	800,000	-0,156	-0,327
182,940	590,422	-0,177	-0,305
183,954	209,587	-0,107	-0,117
184,969	0,462	-0,250	-0,124
185,983	57,970	-0,196	-0,133
186,998	6,537	-0,238	-0,123
188,013	-59,081	-0,103	-0,031
189,027	-8,487	-0,207	-0,097
190,042	59,144	-0,327	-0,223
191,056	458,649	-0,172	-0,267
192,071	211,814	-0,125	-0,137
193,086	800,000	-0,041	-0,097
194,100	129,692	-0,199	-0,177
195,115	-6,032	-0,212	-0,100
196,129	60,850	-0,238	-0,164
197,144	155,083	-0,269	-0,257
198,159	-200,000	-0,090	-0,308
199,173	538,835	-0,109	-0,181
200,188	91,706	-0,120	-0,094
201,202	53,410	-0,255	-0,169
202,217	800,000	-0,108	-0,296
203,232	-22,109	-0,356	-0,149
204,246	-3,899	-0,426	-0,204
205,261	2,017	-0,310	-0,155
206,275	35,785	-0,259	-0,158
207,290	11,759	-0,153	-0,081
208,304	346,188	-0,104	-0,143
209,319	800,000	-0,022	-0,052
210,334	5,403	-0,253	-0,129
211,348	-7,564	-0,157	-0,074
212,363	142,057	-0,195	-0,179
213,377	354,950	-0,185	-0,256
214,392	50,874	-0,325	-0,213
215,407	-71,541	-0,227	-0,059
216,421	-54,203	-0,150	-0,047
217,436	268,490	-0,135	-0,164
218,450	55,510	-0,205	-0,137
219,465	11,015	-0,312	-0,165
220,480	-31,630	-0,320	-0,124
221,494	107,994	-0,160	-0,132
222,509	-28,254	-0,197	-0,078
223,523	513,176	-0,122	-0,198
224,538	-89,008	-0,183	-0,037
225,553	18,425	-0,169	-0,094
226,567	290,972	-0,131	-0,166
227,582	313,229	-0,130	-0,170
228,596	97,068	-0,150	-0,119
229,611	14,153	-0,165	-0,089
230,626	-150,568	-0,207	0,011
231,640	101,552	-0,293	-0,236
232,655	350,519	-0,190	-0,261
233,669	98,333	-0,249	-0,198
234,684	26,173	-0,123	-0,071
235,699	-163,899	-0,340	0,011
236,713	717,884	-0,101	-0,186
237,728	200,503	-0,170	-0,181
238,742	-65,267	-0,180	-0,050
239,757	-95,743	-0,268	-0,049
240,772	3,007	-0,291	-0,146
241,786	-200,000	-0,012	-0,219
242,801	9,242	-0,133	-0,070
243,815	-200,000	-0,040	-0,150
244,830	-81,311	-0,098	-0,022
245,844	1,010	-0,213	-0,105
246,859	0,982	-0,288	-0,142
247,874	-70,567	-0,173	-0,045
248,888	-143,785	-0,238	0,015
249,903	295,647	-0,201	-0,256
250,917	-166,582	-0,188	-0,005
251,932	51,969	-0,095	0,063
252,947	378,778	-0,115	-0,163
253,961	265,815	-0,188	-0,228
254,976	-30,145	-0,424	-0,166
255,990	52,667	-0,245	-0,162
257,005	-105,043	-0,219	-0,034
258,020	-200,000	-0,031	-0,138
259,034	93,404	-0,124	-0,097
260,049	800,000	-0,064	-0,184
261,063	578,813	-0,142	-0,241
262,078	521,457	-0,165	-0,268
263,093	31,585	-0,250	-0,148
264,107	41,807	-0,162	-0,102
265,122	543,320	-0,148	-0,244
266,136	77,635	-0,077	-0,057
267,151	330,711	-0,115	-0,153
268,166	-171,730	-0,242	0,005
269,180	38,830	-0,247	-0,152
270,195	176,049	-0,228	-0,228
271,209	800,000	-0,037	-0,098
272,224	382,092	-0,110	-0,156
273,239	67,786	-0,163	-0,115
274,253	-200,000	-0,005	-0,223
275,268	249,816	-0,196	-0,229
276,282	177,459	-0,212	-0,214
277,297	157,690	-0,118	-0,113
278,312	208,299	-0,224	-0,242
279,326	135,313	-0,192	-0,172
280,341	50,966	-0,181	-0,118
281,355	-10,048	-0,106	-0,048
282,370	65,655	-0,184	-0,129
283,384	250,598	-0,171	-0,201
284,399	48,058	-0,199	-0,128
285,414	46,523	-0,336	-0,215
286,428	-23,257	-0,180	-0,074
287,443	96,479	-0,150	-0,118
288,457	108,827	-0,187	-0,154
289,472	-27,922	-0,195	-0,077
290,487	568,406	-0,131	-0,221
291,501	-5,837	-0,209	-0,098
292,516	114,027	-0,076	-0,064
293,530	354,123	-0,085	-0,117
294,545	112,484	-0,126	-0,105
295,560	64,192	-0,159	-0,110
296,574	-96,776	-0,171	-0,031
297,589	45,872	-0,188	-0,119
298,603	2,959	-0,171	-0,085
299,618	294,563	-0,075	-0,094
300,633	145,429	-0,044	0,041
301,647	-57,264	-0,197	-0,059
302,662	-200,000	-0,039	-0,127
303,676	87,059	-0,173	-0,132
304,691	6,316	-0,130	-0,066
305,706	201,790	-0,207	-0,219
306,720	-200,000	-0,030	-0,236
307,735	113,719	-0,212	-0,177
308,749	-200,000	-0,013	-0,057
309,764	-31,555	-0,135	-0,052
310,779	-41,842	-0,257	-0,090
311,793	41,104	-0,204	-0,127
312,808	-9,717	-0,175	-0,080
313,822	595,153	-0,146	-0,250
314,837	800,000	-0,066	-0,184
315,852	-145,013	-0,049	-0,003
316,866	675,797	-0,042	-0,076
317,881	367,628	-0,104	-0,144
318,895	800,000	-0,062	-0,140
319,910	195,542	-0,110	-0,115
320,925	65,516	-0,222	-0,154
321,939	126,203	-0,209	-0,182
322,954	19,073	-0,144	-0,079
323,968	-200,000	-0,002	-0,017
324,983	-200,000	0,003	-0,116
325,997	143,209	-0,141	-0,129
327,012	76,757	-0,223	-0,162
328,027	51,652	-0,169	-0,110
329,041	-200,000	-0,021	-0,084
330,056	-35,273	-0,245	-0,091
331,070	-151,675	-0,167	0,008
332,085	135,150	-0,103	-0,092
333,100	-200,000	-0,012	-0,062
334,114	139,386	-0,146	-0,132
335,129	289,555	-0,227	-0,283
336,143	135,356	-0,208	-0,186
337,158	20,057	-0,094	-0,052
338,173	-95,183	-0,040	-0,007
339,187	-16,496	-0,119	-0,052
340,202	-0,418	-0,131	-0,064
341,216	-101,585	-0,296	-0,049
342,231	224,483	-0,132	-0,147
343,246	200,707	-0,197	-0,208
344,260	36,217	-0,133	-0,080
345,275	-46,068	-0,067	0,022
346,289	-200,000	-0,019	-0,080
347,304	112,291	-0,111	-0,092
348,319	137,657	-0,233	-0,209
349,333	-3,012	-0,158	-0,075
350,348	60,546	-0,197	-0,133
351,362	-92,173	-0,177	0,034
352,377	-88,910	-0,089	-0,018
353,392	690,621	-0,101	-0,182
354,406	800,000	-0,074	-0,144
355,421	208,178	1316,681	1411,728
356,435	160,174	1477,619	1412,203
