DTS Sentinel unit serial number:	SN410029Multiplexer serial number:	ORYXHardware model number:	OX2-SRSoftware version number:	ORYX F/W v4,00 Oryx Data Collector v3.7.2.0data status	okinstallation	B3 Nyhavnadifferential loss correction	single-endedforward channel	channel 1reverse channel	N/Adate	2023/12/04time	20:37:30forward acquisition time	300,00reverse acquisition time	0,00gamma	499,1914k internal	0,3200k external	0,3200temperature offset calibration	1,0000default loss term (dB/km)	0,3820temperature slope calibration	1,0000multiplexer offset coefficient	1,0000multiplexer slope coefficient	1,0000fibre end	0,00T internal ref (°C)	14,45T ext. ref 1 (°C)	-0,41T ext. ref 2 (°C)	-0,44length (m)	temperature (°C)	Stokes	anti-Stokes-744,400	242,481	-0,180	-0,220
-743,385	800,000	0,117	0,291
-742,371	194,453	-0,174	-0,192
-741,356	-200,000	0,056	0,235
-740,342	800,000	-0,135	-0,273
-739,327	-200,000	-0,022	0,330
-738,312	765,944	-0,179	-0,356
-737,298	-200,000	0,030	0,318
-736,283	318,040	-0,138	-0,190
-735,269	800,000	0,045	0,131
-734,254	85,360	-0,247	-0,197
-733,239	47,818	-0,226	0,153
-732,225	199,707	-0,133	-0,148
-731,210	132,722	0,127	0,119
-730,196	-46,175	-0,050	-0,018
-729,181	-200,000	-0,009	0,107
-728,167	466,364	-0,023	0,037
-727,152	-193,318	-0,130	0,001
-726,137	-71,589	-0,168	-0,045
-725,123	-200,000	-0,032	-0,176
-724,108	800,000	-0,037	-0,111
-723,094	-200,000	-0,015	-0,075
-722,079	201,138	0,064	-0,072
-721,064	53,159	-0,062	-0,043
-720,050	-80,960	0,072	0,017
-719,035	-59,208	0,008	-0,002
-718,021	357,815	-0,076	-0,110
-717,006	-200,000	-0,024	-0,080
-715,991	-34,321	-0,105	-0,042
-714,977	-20,669	-0,060	0,027
-713,962	-38,051	-0,037	-0,014
-712,948	-200,000	0,022	0,167
-711,933	177,058	-0,065	-0,068
-710,918	-5,290	0,186	-0,093
-709,904	-153,220	-0,095	-0,005
-708,889	-200,000	-0,008	0,074
-707,875	203,245	-0,102	0,115
-706,860	757,087	-0,086	-0,170
-705,845	126,308	0,032	0,030
-704,831	216,925	0,042	0,049
-703,816	356,991	-0,046	-0,067
-702,802	25,878	-0,057	0,035
-701,787	-200,000	-0,026	-0,098
-700,772	180,747	-0,062	-0,067
-699,758	-200,000	0,000	-0,060
-698,743	600,689	0,024	-0,043
-697,729	-200,000	0,010	0,075
-696,714	71,122	0,146	0,110
-695,699	728,399	-0,011	0,021
-694,685	-200,000	0,027	0,140
-693,670	-10,627	-0,094	-0,045
-692,656	-200,000	-0,003	-0,038
-691,641	-41,001	0,063	0,023
-690,627	325,510	0,055	0,077
-689,612	-200,000	-0,014	0,076
-688,597	183,026	0,055	-0,059
-687,583	-200,000	0,007	-0,050
-686,568	46,850	-0,115	-0,078
-685,554	308,068	-0,134	-0,182
-684,539	-38,979	0,112	0,043
-683,524	18,791	0,139	-0,080
-682,510	-200,000	-0,030	-0,131
-681,495	189,273	-0,035	0,038
-680,481	56,115	-0,137	-0,096
-679,466	237,262	-0,024	-0,029
-678,451	-200,000	0,021	-0,079
-677,437	147,357	0,031	-0,030
-676,422	-116,928	0,089	0,012
-675,408	-56,324	0,078	-0,025
-674,393	-200,000	0,001	0,054
-673,378	21,414	0,023	-0,014
-672,364	31,059	0,079	-0,049
-671,349	-61,826	-0,140	-0,042
-670,335	-200,000	0,018	-0,107
-669,320	-55,488	0,106	-0,034
-668,305	-28,850	0,043	-0,018
-667,291	-187,130	-0,076	-0,001
-666,276	309,973	-0,040	0,055
-665,262	800,000	0,043	-0,135
-664,247	-88,926	-0,108	0,023
-663,232	530,869	0,039	0,067
-662,218	417,550	0,050	0,078
-661,203	800,000	0,022	0,047
-660,189	-200,000	-0,029	0,127
-659,174	118,091	-0,081	0,072
-658,159	308,023	0,030	0,041
-657,145	-65,823	-0,051	-0,015
-656,130	-53,434	-0,140	-0,046
-655,116	-70,183	0,096	0,026
-654,101	231,928	0,055	0,065
-653,086	118,768	-0,088	0,079
-652,072	35,281	-0,077	-0,049
-651,057	-200,000	-0,004	-0,092
-650,043	353,409	0,026	-0,037
-649,028	-121,629	-0,018	-0,002
-648,014	-41,237	-0,135	-0,050
-646,999	59,011	0,050	-0,036
-645,984	35,956	0,090	-0,057
-644,970	-200,000	-0,054	-0,187
-643,955	192,086	0,040	0,044
-642,941	270,989	0,005	0,007
-641,926	23,008	-0,057	-0,034
-640,911	612,362	0,076	-0,138
-639,897	106,890	-0,110	0,095
-638,882	-200,000	0,011	0,045
-637,868	695,536	-0,029	-0,056
-636,853	-200,000	0,003	-0,032
-635,838	-200,000	0,006	-0,032
-634,824	-200,000	0,006	-0,048
-633,809	291,014	0,018	-0,023
-632,795	800,000	0,015	0,041
-631,780	54,645	-0,054	0,038
-630,765	276,648	-0,088	0,114
-629,751	-99,282	0,066	-0,012
-628,736	116,450	-0,037	-0,032
-627,722	-69,730	0,085	0,023
-626,707	-123,278	0,065	0,007
-625,692	-125,596	0,184	0,020
-624,678	225,324	-0,012	-0,015
-623,663	18,103	-0,110	-0,063
-622,649	-200,000	0,001	-0,079
-621,634	800,000	-0,039	0,098
-620,619	390,177	0,026	-0,039
-619,605	773,217	-0,055	-0,110
-618,590	130,973	0,009	0,009
-617,576	-88,314	0,138	0,030
-616,561	-68,198	-0,182	0,051
-615,546	800,000	-0,032	0,100
-614,532	194,102	-0,067	-0,074
-613,517	-48,519	-0,081	-0,028
-612,503	-200,000	-0,013	-0,056
-611,488	-61,182	0,027	-0,008
-610,474	40,578	0,027	0,018
-609,459	-200,000	-0,011	0,071
-608,444	800,000	0,041	-0,101
-607,430	188,149	-0,055	-0,060
-606,415	-200,000	-0,007	0,049
-605,401	19,308	0,043	-0,025
-604,386	800,000	-0,027	0,076
-603,371	84,369	-0,039	0,031
-602,357	-24,581	0,070	0,030
-601,342	154,734	-0,062	0,061
-600,328	-15,233	0,073	-0,034
-599,313	-50,790	-0,189	-0,064
-598,298	222,030	0,049	0,057
-597,284	-47,156	-0,053	0,019
-596,269	-200,000	0,001	0,033
-595,255	123,273	-0,024	-0,022
-594,240	2,105	-0,137	0,071
-593,225	800,000	-0,021	-0,065
-592,211	-124,217	-0,019	0,002
-591,196	800,000	-0,039	0,080
-590,182	-14,337	-0,063	-0,029
-589,167	54,978	-0,047	-0,033
-588,152	-200,000	-0,004	0,080
-587,138	-200,000	-0,023	0,145
-586,123	-112,855	0,097	0,014
-585,109	-77,386	-0,079	-0,020
-584,094	-200,000	0,022	-0,177
-583,079	-200,000	-0,047	-0,170
-582,065	606,377	-0,037	0,067
-581,050	-137,060	0,133	-0,011
-580,036	800,000	-0,044	-0,133
-579,021	204,170	0,047	0,053
-578,006	268,630	-0,083	-0,105
-576,992	800,000	0,011	-0,034
-575,977	800,000	-0,023	0,049
-574,963	-59,350	0,135	0,042
-573,948	800,000	-0,045	-0,120
-572,934	-200,000	0,005	-0,063
-571,919	-200,000	-0,009	-0,053
-570,904	248,506	0,087	-0,106
-569,890	-200,000	-0,013	-0,046
-568,875	-56,532	0,041	-0,013
-567,861	-200,000	-0,056	-0,220
-566,846	-128,456	0,164	-0,017
-565,831	723,662	-0,043	0,082
-564,817	800,000	0,034	-0,075
-563,802	267,669	-0,096	-0,122
-562,788	-172,315	0,089	-0,002
-561,773	11,414	0,065	-0,036
-560,758	-107,409	-0,127	0,020
-559,744	498,468	-0,099	0,165
-558,729	-47,583	-0,180	-0,063
-557,715	186,133	0,044	-0,047
-556,700	-200,000	-0,028	-0,102
-555,685	-200,000	-0,008	-0,045
-554,671	-124,098	-0,066	-0,007
-553,656	-200,000	0,004	0,067
-552,642	800,000	0,084	0,191
-551,627	-200,000	0,012	0,053
-550,612	-75,696	0,099	0,025
-549,598	-67,898	-0,136	-0,038
-548,583	-200,000	-0,040	-0,240
-547,569	800,000	-0,015	0,036
-546,554	800,000	0,047	0,105
-545,539	-67,886	0,169	0,047
-544,525	-150,244	-0,109	-0,006
-543,510	-200,000	0,002	-0,123
-542,496	800,000	-0,051	-0,125
-541,481	0,477	-0,091	-0,047
-540,466	-49,884	-0,083	0,028
-539,452	51,725	-0,069	-0,047
-538,437	75,349	0,036	0,027
-537,423	597,372	0,025	0,045
-536,408	56,562	-0,108	0,076
-535,393	-143,631	-0,063	0,004
-534,379	-100,824	0,127	0,022
-533,364	-155,779	-0,107	-0,005
-532,350	-39,561	0,090	-0,034
-531,335	800,000	-0,072	0,145
-530,321	-194,991	0,052	-0,000
-529,306	-55,825	0,099	-0,032
-528,291	196,167	-0,131	0,144
-527,277	138,849	0,027	0,026
-526,262	518,264	0,012	0,021
-525,248	-200,000	0,001	0,118
-524,233	-18,800	-0,049	0,022
-523,218	497,026	0,105	0,175
-522,204	-200,000	-0,011	0,038
-521,189	-200,000	-0,013	0,114
-520,175	3,216	0,032	-0,017
-519,160	485,429	0,074	-0,122
-518,145	81,152	0,076	0,059
-517,131	-200,000	-0,019	0,068
-516,116	-78,698	0,073	-0,018
-515,102	-14,899	-0,072	-0,033
-514,087	57,802	0,062	-0,043
-513,072	800,000	-0,037	-0,090
-512,058	502,244	-0,020	0,033
-511,043	-200,000	0,011	-0,073
-510,029	237,687	-0,151	-0,181
-509,014	-115,616	0,020	-0,003
-507,999	331,321	0,060	-0,083
-506,985	-149,711	-0,067	-0,004
-505,970	446,822	0,012	0,019
-504,956	-200,000	-0,015	0,058
-503,941	643,344	0,023	-0,042
-502,926	66,703	-0,027	0,020
-501,912	-79,236	0,040	-0,010
-500,897	-30,398	-0,073	0,030
-499,883	-79,213	0,239	-0,058
-498,868	800,000	0,017	-0,036
-497,853	363,832	-0,092	-0,134
-496,839	721,922	-0,088	0,170
-495,824	67,966	0,052	-0,038
-494,810	-3,513	0,083	0,042
-493,795	-150,273	0,074	-0,004
-492,781	461,999	-0,010	-0,016
-491,766	124,334	-0,047	-0,043
-490,751	388,249	0,081	0,121
-489,737	332,901	-0,098	-0,137
-488,722	5,995	0,058	-0,031
-487,708	-7,663	-0,227	0,110
-486,693	230,668	0,082	-0,096
-485,678	-200,000	-0,002	-0,012
-484,664	85,970	-0,113	-0,089
-483,649	0,051	0,003	-0,001
-482,635	-98,516	-0,040	-0,007
-481,620	800,000	-0,019	-0,042
-480,605	-69,690	-0,021	-0,006
-479,591	-200,000	-0,027	0,107
-478,576	221,145	-0,082	0,095
-477,562	112,878	0,046	0,040
-476,547	83,145	0,075	-0,059
-475,532	-200,000	-0,010	-0,041
-474,518	-95,205	-0,019	-0,004
-473,503	44,763	0,095	0,063
-472,489	46,267	0,041	0,028
-471,474	457,773	-0,010	0,016
-470,459	-66,322	0,117	0,033
-469,445	-200,000	-0,060	-0,201
-468,430	162,643	0,040	0,041
-467,416	800,000	0,016	0,037
-466,401	-44,743	0,139	0,050
-465,386	-62,327	-0,171	0,051
-464,372	118,279	-0,028	0,025
-463,357	-200,000	-0,004	0,021
-462,343	89,129	0,101	0,081
-461,328	800,000	0,033	-0,070
-460,313	800,000	-0,013	0,036
-459,299	-44,395	-0,189	0,068
-458,284	131,809	0,020	0,019
-457,270	-200,000	0,004	0,040
-456,255	-117,561	-0,147	0,019
-455,241	768,973	-0,073	-0,145
-454,226	-200,000	0,025	-0,095
-453,211	38,826	-0,145	-0,093
-452,197	131,904	0,097	-0,090
-451,182	-200,000	0,030	0,108
-450,168	800,000	-0,050	0,104
-449,153	800,000	0,051	0,130
-448,138	-200,000	-0,032	-0,113
-447,124	-98,259	-0,182	-0,033
-446,109	23,865	-0,122	-0,072
-445,095	38,590	-0,031	-0,020
-444,080	800,000	0,019	0,044
-443,065	242,686	-0,036	-0,043
-442,051	223,933	0,088	-0,102
-441,036	153,397	0,035	-0,035
-440,022	800,000	0,014	-0,043
-439,007	-200,000	-0,035	-0,122
-437,992	147,742	-0,085	-0,082
-436,978	-200,000	-0,002	0,068
-435,963	-112,992	0,188	0,026
-434,949	706,454	-0,008	0,014
-433,934	-79,345	-0,177	0,043
-432,919	800,000	-0,032	0,093
-431,905	-10,133	-0,058	-0,028
-430,890	41,653	0,038	0,025
-429,876	800,000	0,025	0,077
-428,861	-121,900	0,106	-0,012
-427,846	-200,000	-0,017	0,065
-426,832	127,951	-0,088	-0,080
-425,817	-132,353	-0,134	0,012
-424,803	300,523	-0,033	-0,043
-423,788	143,479	-0,105	0,100
-422,773	-8,432	-0,010	-0,005
-421,759	-135,920	-0,050	-0,004
-420,744	-128,085	0,046	0,005
-419,730	178,065	-0,074	0,077
-418,715	341,713	0,032	-0,045
-417,701	-171,493	-0,117	0,003
-416,686	-3,146	0,181	0,090
-415,671	800,000	-0,021	0,044
-414,657	-200,000	-0,000	0,040
-413,642	419,825	-0,025	0,039
-412,628	800,000	-0,030	-0,080
-411,613	800,000	0,015	-0,044
-410,598	61,892	-0,038	-0,027
-409,584	-98,884	0,110	0,020
-408,569	-98,153	-0,043	0,008
-407,555	299,051	0,079	-0,105
-406,540	400,129	0,056	-0,084
-405,525	327,049	-0,009	0,012
-404,511	13,862	-0,039	-0,022
-403,496	-63,930	0,100	0,029
-402,482	-151,494	-0,108	0,006
-401,467	-200,000	0,005	0,098
-400,452	286,748	0,096	0,125
-399,438	-75,086	0,077	-0,020
-398,423	6,254	-0,071	0,038
-397,409	57,153	-0,112	-0,078
-396,394	228,610	0,057	0,067
-395,379	210,079	-0,036	-0,041
-394,365	259,511	-0,057	0,071
-393,350	-65,597	0,073	-0,021
-392,336	-146,867	-0,029	-0,002
-391,321	45,355	0,100	-0,066
-390,306	253,866	-0,015	-0,019
-389,292	7,598	0,100	0,053
-388,277	0,594	0,069	-0,035
-387,263	800,000	-0,009	-0,022
-386,248	134,797	0,035	0,033
-385,233	-45,668	0,131	0,046
-384,219	54,781	-0,034	-0,023
-383,204	-111,383	0,144	0,021
-382,190	179,876	-0,130	0,137
-381,175	-200,000	-0,002	0,075
-380,160	-200,000	-0,002	0,117
-379,146	-179,706	0,027	-0,000
-378,131	206,358	-0,065	0,073
-377,117	-123,394	0,058	-0,007
-376,102	800,000	0,023	-0,062
-375,088	-6,048	-0,137	-0,067
-374,073	55,505	0,054	-0,037
-373,058	-200,000	-0,021	-0,096
-372,044	800,000	0,023	0,062
-371,029	372,399	0,020	0,029
-370,015	-96,539	0,061	-0,012
-369,000	-40,595	0,056	0,021
-367,985	-126,639	-0,055	0,006
-366,971	83,228	-0,014	0,011
-365,956	-63,492	0,085	-0,025
-364,942	-56,572	-0,074	0,023
-363,927	-59,027	-0,095	0,029
-362,912	800,000	0,047	-0,128
-361,898	102,753	-0,096	-0,081
-360,883	372,937	-0,085	-0,124
-359,869	800,000	0,060	-0,132
-358,854	-7,429	0,074	0,036
-357,839	-107,018	-0,078	-0,012
-356,825	266,573	0,039	0,049
-355,810	-200,000	0,027	-0,130
-354,796	-29,370	0,030	-0,012
-353,781	469,604	-0,057	-0,091
-352,766	-122,327	-0,063	-0,007
-351,752	-167,884	-0,092	0,003
-350,737	-116,608	0,142	0,018
-349,723	-200,000	-0,038	0,123
-348,708	533,393	-0,037	0,063
-347,693	183,661	-0,059	-0,063
-346,679	522,536	-0,087	-0,148
-345,664	-30,807	-0,048	-0,019
-344,650	769,230	-0,006	0,012
-343,635	-162,522	0,173	0,006
-342,620	800,000	0,055	0,173
-341,606	142,326	0,068	0,065
-340,591	151,107	-0,047	-0,046
-339,577	-200,000	0,024	-0,158
-338,562	-200,000	-0,038	-0,171
-337,548	7,454	0,096	-0,051
-336,533	13,313	-0,054	-0,030
-335,518	-1,802	-0,059	0,030
-334,504	-92,107	0,134	-0,027
-333,489	246,900	0,058	-0,070
-332,475	800,000	0,037	0,092
-331,460	45,775	0,047	0,031
-330,445	401,801	0,031	-0,047
-329,431	-1,371	0,142	0,072
-328,416	-116,173	0,070	-0,009
-327,402	617,157	-0,034	0,061
-326,387	218,683	0,064	-0,073
-325,372	-8,304	0,093	0,045
-324,358	800,000	-0,061	-0,162
-323,343	35,823	0,161	0,101
-322,329	-200,000	0,002	0,011
-321,314	272,667	0,033	-0,042
-320,299	-200,000	0,012	0,064
-319,285	-106,211	0,089	0,014
-318,270	43,119	-0,029	0,019
-317,256	-178,982	-0,161	0,003
-316,241	-200,000	0,010	0,059
-315,226	419,817	0,074	0,113
-314,212	-93,728	0,188	0,037
-313,197	-53,735	-0,082	-0,027
-312,183	-8,720	-0,129	0,062
-311,168	216,439	-0,067	0,076
-310,153	101,955	0,084	-0,071
-309,139	-200,000	0,015	-0,246
-308,124	250,092	0,043	-0,053
-307,110	800,000	-0,040	-0,096
-306,095	47,405	0,022	0,015
-305,080	102,545	-0,099	0,083
-304,066	-157,377	0,039	0,002
-303,051	329,556	-0,071	0,098
-302,037	-200,000	-0,054	0,000
-301,022	295,974	0,040	-0,053
-300,008	800,000	-0,026	0,064
-298,993	800,000	0,038	0,109
-297,978	-88,389	-0,126	0,027
-296,964	550,042	0,035	-0,060
-295,949	116,500	-0,063	0,056
-294,935	64,682	-0,028	-0,020
-293,920	-200,000	-0,020	-0,161
-292,905	800,000	0,038	0,082
-291,891	116,752	0,100	-0,087
-290,876	551,311	-0,064	0,110
-289,862	-91,946	0,050	-0,010
-288,847	13,459	-0,023	-0,013
-287,832	245,798	-0,095	0,115
-286,818	-38,314	0,069	-0,026
-285,803	25,031	0,032	0,019
-284,789	-36,304	-0,107	-0,041
-283,774	-106,094	0,073	-0,012
-282,759	-200,000	0,026	0,092
-281,745	4,888	-0,052	-0,027
-280,730	800,000	0,032	-0,093
-279,716	-53,009	0,068	0,022
-278,701	-200,000	-0,034	-0,121
-277,686	-200,000	0,024	0,146
-276,672	387,256	-0,093	0,137
-275,657	253,949	0,028	0,034
-274,643	-56,306	-0,103	-0,032
-273,628	-200,000	-0,012	-0,094
-272,613	800,000	0,015	-0,036
-271,599	-200,000	-0,061	-0,210
-270,584	-42,358	-0,019	0,007
-269,570	-110,192	0,132	-0,019
-268,555	-200,000	0,017	-0,060
-267,540	-168,146	0,107	-0,003
-266,526	-200,000	-0,024	0,096
-265,511	-27,289	0,015	0,006
-264,497	-102,929	0,102	-0,017
-263,482	-200,000	0,003	0,136
-262,467	327,952	0,085	0,116
-261,453	269,729	-0,050	-0,062
-260,438	-73,411	0,039	-0,010
-259,424	-200,000	-0,002	0,028
-258,409	-24,231	0,052	-0,022
-257,395	800,000	0,008	0,018
-256,380	-47,142	0,160	0,055
-255,365	49,144	-0,075	0,050
-254,351	-58,475	-0,096	0,029
-253,336	-21,888	0,060	-0,026
-252,322	-101,070	-0,066	0,011
-251,307	-200,000	-0,018	0,109
-250,292	43,864	0,121	0,079
-249,278	68,036	0,077	0,056
-248,263	-200,000	0,019	-0,111
-247,249	-200,000	-0,011	0,039
-246,234	-77,512	-0,199	0,049
-245,219	-6,544	-0,063	-0,030
-244,205	40,730	-0,071	-0,045
-243,190	110,650	-0,087	0,075
-242,176	-58,128	0,020	-0,006
-241,161	-200,000	0,000	-0,009
-240,146	-200,000	0,026	0,102
-239,132	247,644	0,028	0,033
-238,117	-28,533	0,092	0,038
-237,103	-85,376	-0,047	-0,010
-236,088	763,445	0,017	-0,033
-235,073	99,197	0,006	0,005
-234,059	20,049	0,053	-0,031
-233,044	-200,000	-0,014	0,050
-232,030	-58,034	0,067	-0,021
-231,015	-128,797	-0,170	0,017
-230,000	-34,868	0,093	-0,036
-228,986	29,467	0,082	-0,050
-227,971	135,579	-0,033	-0,031
-226,957	-200,000	0,010	0,099
-225,942	-63,822	-0,084	-0,024
-224,927	-200,000	0,006	-0,047
-223,913	800,000	0,017	0,041
-222,898	800,000	0,019	0,049
-221,884	-200,000	-0,029	0,124
-220,869	-17,584	-0,018	0,008
-219,855	-81,230	0,126	0,029
-218,840	114,712	0,045	0,039
-217,825	453,845	0,033	-0,053
-216,811	96,969	-0,108	-0,089
-215,796	-93,601	0,021	-0,004
-214,782	-11,078	-0,156	0,073
-213,767	-200,000	0,022	0,113
-212,752	260,984	0,066	0,082
-211,738	-118,961	0,118	0,015
-210,723	179,003	-0,069	0,072
-209,709	422,659	-0,075	0,115
-208,694	-200,000	0,014	-0,058
-207,679	-38,831	-0,069	0,026
-206,665	264,887	0,146	0,182
-205,650	-200,000	0,000	-0,069
-204,636	328,343	0,060	0,083
-203,621	800,000	0,030	0,063
-202,606	44,884	-0,101	-0,066
-201,592	590,023	0,044	0,077
-200,577	-101,867	0,042	0,007
-199,563	295,552	0,035	0,046
-198,548	-200,000	-0,017	-0,059
-197,533	-200,000	-0,006	0,059
-196,519	-12,909	-0,080	0,037
-195,504	-200,000	-0,002	-0,049
-194,490	800,000	-0,015	-0,034
-193,475	337,684	-0,060	-0,083
-192,460	-35,753	0,143	-0,055
-191,446	-92,124	-0,023	-0,005
-190,431	-200,000	0,025	-0,089
-189,417	-131,019	0,032	0,003
-188,402	-200,000	-0,015	0,120
-187,387	-164,932	-0,095	0,003
-186,373	-200,000	0,001	-0,055
-185,358	-13,874	0,081	-0,037
-184,344	16,222	-0,073	0,041
-183,329	-49,335	0,104	0,035
-182,315	800,000	0,038	0,081
-181,300	800,000	0,018	-0,041
-180,285	501,723	0,034	-0,055
-179,271	85,397	0,086	-0,067
-178,256	800,000	0,053	-0,109
-177,242	-3,484	0,085	-0,042
-176,227	800,000	0,055	-0,135
-175,212	-25,708	0,050	-0,021
-174,198	3,415	-0,073	0,038
-173,183	94,452	-0,012	0,010
-172,169	800,000	-0,013	-0,038
-171,154	-149,524	-0,167	0,009
-170,139	355,310	0,020	0,028
-169,125	-200,000	0,022	0,080
-168,110	299,256	0,055	0,072
-167,096	232,446	0,032	0,037
-166,081	127,692	-0,082	0,074
-165,066	-200,000	-0,027	-0,165
-164,052	52,302	0,095	0,065
-163,037	-19,990	0,044	0,019
-162,023	86,655	-0,086	-0,067
-161,008	800,000	0,035	0,079
-159,993	73,009	0,150	0,111
-158,979	-174,099	-0,040	-0,001
-157,964	193,516	0,055	-0,060
-156,950	800,000	0,033	-0,072
-155,935	35,950	-0,030	-0,019
-154,920	45,010	0,207	0,135
-153,906	78,918	-0,041	0,031
-152,891	-200,000	0,025	0,144
-151,877	154,866	-0,058	-0,057
-150,862	-69,773	-0,132	-0,036
-149,847	-100,599	-0,145	-0,025
-148,833	218,397	-0,059	-0,067
-147,818	240,817	0,123	0,147
-146,804	-110,252	0,147	0,022
-145,789	-34,634	-0,097	-0,038
-144,775	89,590	0,029	-0,023
-143,760	93,160	0,036	-0,029
-142,745	155,404	0,015	-0,015
-141,731	754,026	-0,073	-0,141
-140,716	-200,000	-0,009	-0,060
-139,702	-22,006	0,072	0,031
-138,687	-200,000	0,008	0,058
-137,672	273,933	-0,060	0,075
-136,658	-200,000	-0,056	-0,179
-135,643	253,571	-0,064	-0,077
-134,629	628,377	-0,036	-0,066
-133,614	800,000	-0,050	0,127
-132,599	343,370	0,061	0,085
-131,585	130,023	-0,079	0,072
-130,570	-125,419	-0,104	0,011
-129,556	-200,000	-0,008	0,075
-128,541	256,239	0,057	-0,069
-127,526	8,463	-0,044	0,023
-126,512	-68,193	-0,052	0,014
-125,497	270,680	0,093	-0,117
-124,483	800,000	0,025	-0,051
-123,468	-200,000	0,022	0,092
-122,453	-200,000	0,002	-0,034
-121,439	723,242	-0,048	-0,091
-120,424	-200,000	0,007	-0,125
-119,410	554,816	0,062	0,106
-118,395	240,419	0,056	0,067
-117,380	141,481	-0,071	-0,066
-116,366	209,497	-0,054	-0,060
-115,351	800,000	-0,028	-0,071
-114,337	-71,940	-0,071	0,019
-113,322	-25,808	-0,094	0,039
-112,307	-148,064	0,091	-0,005
-111,293	-200,000	0,011	-0,044
-110,278	270,887	0,079	0,099
-109,264	135,618	-0,025	0,023
-108,249	-31,431	-0,143	-0,057
-107,234	800,000	0,014	0,041
-106,220	-133,591	-0,155	-0,014
-105,205	650,817	0,055	0,101
-104,191	-121,392	-0,052	-0,006
-103,176	800,000	0,068	0,159
-102,162	-11,516	-0,197	-0,091
-101,147	314,784	0,031	0,041
-100,132	187,049	-0,052	-0,055
-99,118	-25,057	0,062	0,026
-98,103	107,140	0,053	-0,045
-97,089	22,126	-0,062	0,036
-96,074	146,626	-0,060	-0,057
-95,059	-200,000	-0,032	0,180
-94,045	605,752	-0,038	0,068
-93,030	130,815	-0,032	-0,029
-92,016	-46,297	-0,096	0,033
-91,001	156,322	0,099	0,097
-89,986	-200,000	0,013	0,053
-88,972	-200,000	-0,044	0,180
-87,957	-1,981	0,078	0,039
-86,943	800,000	0,011	0,027
-85,928	-200,000	-0,016	0,059
-84,913	638,212	-0,090	-0,163
-83,899	-150,630	0,080	-0,004
-82,884	302,087	0,038	0,050
-81,870	800,000	-0,004	-0,008
-80,855	558,802	-0,044	-0,075
-79,840	800,000	-0,020	0,058
-78,826	12,373	-0,099	0,054
-77,811	255,244	-0,013	0,016
-76,797	356,874	-0,064	0,090
-75,782	350,052	0,021	0,029
-74,767	9,752	0,175	-0,094
-73,753	558,972	0,028	-0,049
-72,738	443,315	-0,072	0,112
-71,724	800,000	-0,044	-0,100
-70,709	168,397	-0,086	-0,087
-69,694	131,640	-0,073	-0,067
-68,680	-100,777	0,110	-0,019
-67,665	-70,051	0,191	-0,051
-66,651	109,185	0,116	0,098
-65,636	23,722	-0,089	-0,052
-64,622	-29,995	-0,067	0,027
-63,607	98,376	-0,107	-0,087
-62,592	-200,000	0,038	-0,148
-61,578	-51,955	0,117	0,038
-60,563	-200,000	0,047	0,179
-59,549	475,803	-0,047	0,075
-58,534	-23,399	-1,419	-0,601
-57,519	304,570	-1,439	-1,896
-56,505	-200,000	-0,645	-4,616
-55,490	232,147	0,919	1,070
-54,476	800,000	5,033	11,250
-53,461	-200,000	18,677	297,769
-52,446	800,000	732,056	2261,226
-51,432	559,648	1648,750	2830,325
-50,417	78,872	1668,586	1263,212
-49,403	22,389	1541,547	889,947
-48,388	16,326	1464,521	816,061
-47,373	17,801	1454,622	817,629
-46,359	17,024	1444,772	808,337
-45,344	14,568	1440,069	793,929
-44,330	14,484	1438,274	792,509
-43,315	14,490	1436,751	791,664
-42,300	14,510	1434,955	790,737
-41,286	14,542	1433,683	790,157
-40,271	14,493	1432,394	789,185
-39,257	14,517	1431,161	788,588
-38,242	14,573	1429,801	788,074
-37,227	14,540	1428,732	787,297
-36,213	14,554	1427,286	786,533
-35,198	14,533	1426,352	785,890
-34,184	14,545	1425,391	785,384
-33,169	14,543	1423,959	784,556
-32,154	14,601	1422,811	784,164
-31,140	14,571	1421,520	783,280
-30,125	14,621	1420,384	782,861
-29,111	14,597	1419,329	782,133
-28,096	14,521	1418,347	781,204
-27,082	14,490	1417,177	780,381
-26,067	14,501	1416,259	779,897
-25,052	14,489	1415,142	779,198
-24,038	14,437	1414,190	778,397
-23,023	14,436	1413,187	777,807
-22,009	14,471	1412,111	777,350
-20,994	14,444	1411,268	776,728
-19,979	14,457	1410,292	776,223
-18,965	14,392	1409,333	775,357
-17,950	14,431	1408,371	774,982
-16,936	14,432	1407,515	774,486
-15,921	14,391	1406,165	773,517
-14,906	14,352	1405,514	772,950
-13,892	14,365	1404,604	772,479
-12,877	14,368	1403,770	772,002
-11,863	14,397	1402,641	771,483
-10,848	14,348	1401,856	770,793
-9,833	14,326	1401,068	770,229
-8,819	14,260	1400,135	769,379
-7,804	14,248	1399,169	768,760
-6,790	14,275	1398,166	768,303
-5,775	14,305	1397,040	767,793
-4,760	14,249	1396,254	767,074
-3,746	14,238	1395,518	766,589
-2,731	14,301	1394,461	766,267
-1,717	14,276	1393,561	765,627
-0,702	14,302	1391,756	764,724
0,313	18,123	1310,424	737,743
1,327	34,553	706,191	435,630
2,342	53,074	124,162	83,974
3,356	2,047	16,696	8,502
4,371	11,142	3,160	1,705
5,386	51,355	0,314	0,210
6,400	-200,000	0,039	0,147
7,415	800,000	-0,102	-0,287
8,429	187,834	-0,223	-0,236
9,444	56,703	-0,389	-0,267
10,459	141,914	-0,241	-0,226
11,473	197,758	-0,244	-0,264
12,488	80,439	-0,263	-0,200
13,502	72,883	-0,382	-0,281
14,517	-59,407	-0,336	-0,101
15,531	159,490	-0,310	-0,305
16,546	236,254	-0,264	-0,309
17,561	269,822	-0,351	-0,437
18,575	-6,137	-0,248	-0,119
19,590	-15,118	-0,310	-0,140
20,604	23,284	-0,183	-0,106
21,619	59,058	-0,450	-0,312
22,634	38,431	-0,518	-0,326
23,648	0,385	-0,467	-0,235
24,663	5,345	-0,358	-0,186
25,677	-12,618	-0,345	-0,158
26,692	68,212	-0,277	-0,200
27,707	-18,625	-0,409	-0,180
28,721	-30,858	-0,499	-0,198
29,736	140,565	-0,317	-0,296
30,750	120,491	-0,382	-0,335
31,765	163,737	-0,315	-0,313
32,780	269,072	-0,289	-0,359
33,794	60,920	-0,457	-0,320
34,809	98,928	-0,363	-0,295
35,823	55,194	-0,405	-0,276
36,838	118,599	-0,359	-0,312
37,853	-13,169	-0,488	-0,223
38,867	152,013	-0,336	-0,324
39,882	94,930	-0,334	-0,268
40,896	73,924	-0,238	-0,176
41,911	251,797	-0,232	-0,279
42,926	66,948	-0,448	-0,321
43,940	142,193	-0,352	-0,330
44,955	268,912	-0,288	-0,357
45,969	-27,079	-0,274	-0,112
46,984	70,086	-0,221	-0,160
47,999	-11,864	-0,374	-0,172
49,013	137,842	-0,206	-0,190
50,028	151,394	-0,208	-0,199
51,042	102,055	-0,278	-0,229
52,057	14,220	-0,368	-0,202
53,071	90,866	-0,414	-0,327
54,086	294,678	-0,234	-0,302
55,101	146,173	-0,201	-0,190
56,115	95,436	-0,290	-0,232
57,130	77,413	-0,320	-0,240
58,144	86,143	-0,331	-0,257
59,159	234,861	-0,220	-0,256
60,174	224,518	-0,256	-0,291
61,188	73,217	-0,401	-0,295
62,203	224,570	-0,317	-0,361
63,217	49,832	-0,221	-0,147
64,232	6,018	-0,439	-0,228
65,247	139,055	-0,255	-0,236
66,261	111,427	-0,386	-0,327
67,276	231,595	-0,318	-0,368
68,290	84,925	-0,344	-0,265
69,305	46,978	-0,297	-0,194
70,320	86,148	-0,300	-0,232
71,334	136,160	-0,348	-0,319
72,349	38,870	-0,341	-0,214
73,363	-59,783	-0,317	-0,095
74,378	125,301	-0,286	-0,254
75,393	225,991	-0,239	-0,273
76,407	69,220	-0,323	-0,233
77,422	-45,711	-0,335	-0,116
78,436	-15,821	-0,366	-0,163
79,451	154,817	-0,262	-0,254
80,466	-44,712	-0,351	-0,122
81,480	193,842	-0,274	-0,292
82,495	106,086	-0,335	-0,279
83,509	232,667	-0,193	-0,224
84,524	800,000	-0,104	-0,222
85,539	2,928	-0,329	-0,167
86,553	-61,937	-0,395	-0,115
87,568	309,126	-0,279	-0,367
88,582	67,683	-0,291	-0,209
89,597	-32,942	-0,334	-0,129
90,611	47,398	-0,206	-0,135
91,626	405,057	-0,090	-0,134
92,641	-0,027	-0,248	-0,124
93,655	48,092	-0,332	-0,218
94,670	71,283	-0,283	-0,206
95,684	12,828	-0,365	-0,197
96,699	182,952	-0,225	-0,234
97,714	36,684	-0,218	-0,135
98,728	-79,683	-0,333	-0,078
99,743	38,524	-0,266	-0,166
100,757	272,566	-0,215	-0,267
101,772	61,341	-0,199	-0,138
102,787	164,518	-0,289	-0,286
103,801	-51,048	-0,356	-0,116
104,816	259,332	-0,195	-0,237
105,830	58,124	-0,217	-0,149
106,845	281,951	-0,178	-0,224
107,860	67,868	-0,233	-0,167
108,874	66,470	-0,352	-0,251
109,889	-16,658	-0,306	-0,135
110,903	132,003	-0,295	-0,267
111,918	194,061	-0,233	-0,247
112,933	-55,205	-0,381	-0,119
113,947	24,775	-0,216	-0,125
114,962	45,349	-0,247	-0,159
115,976	7,427	-0,205	-0,107
116,991	112,995	-0,227	-0,193
118,006	148,271	-0,206	-0,194
119,020	48,361	-0,198	-0,130
120,035	252,371	-0,239	-0,286
121,049	205,492	-0,184	-0,201
122,064	23,022	-0,284	-0,163
123,079	-33,229	-0,244	-0,094
124,093	23,744	-0,356	-0,205
125,108	361,912	-0,181	-0,255
126,122	50,715	-0,290	-0,192
127,137	70,213	-0,211	-0,152
128,151	250,998	-0,138	-0,164
129,166	15,132	-0,254	-0,139
130,181	124,545	-0,225	-0,198
131,195	596,754	-0,143	-0,249
132,210	22,743	-0,317	-0,181
133,224	12,046	-0,348	-0,187
134,239	-46,567	-0,281	-0,096
135,254	243,418	-0,168	-0,197
136,268	107,340	-0,204	-0,169
137,283	154,677	-0,241	-0,232
138,297	275,444	-0,152	-0,189
139,312	-45,918	-0,251	-0,086
140,327	13,506	-0,233	-0,126
141,341	148,520	-0,252	-0,238
142,356	800,000	-0,105	-0,258
143,370	386,514	-0,150	-0,217
144,385	30,801	-0,294	-0,175
145,400	246,210	-0,244	-0,288
146,414	61,666	-0,362	-0,251
147,429	55,413	-0,338	-0,228
148,443	47,251	-0,335	-0,217
149,458	-20,968	-0,281	-0,120
150,473	-27,182	-0,315	-0,128
151,487	81,713	-0,166	-0,125
152,502	800,000	-0,103	-0,255
153,516	-7,747	-0,324	-0,152
154,531	216,818	-0,212	-0,236
155,546	95,077	-0,217	-0,172
156,560	-182,367	-0,310	0,004
157,575	4,056	-0,200	-0,102
158,589	230,313	-0,177	-0,202
159,604	115,642	-0,320	-0,273
160,619	227,519	-0,200	-0,227
161,633	45,763	-0,143	-0,092
162,648	93,416	-0,200	-0,157
163,662	1,853	-0,245	-0,123
164,677	100,872	-0,173	-0,140
165,692	65,583	-0,262	-0,185
166,706	206,210	-0,202	-0,219
167,721	11,813	-0,401	-0,214
168,735	-197,460	-0,390	0,002
169,750	-120,999	-0,268	-0,031
170,764	-97,179	-0,200	0,036
171,779	-85,609	-0,097	-0,021
172,794	73,612	-0,244	-0,178
173,808	101,747	-0,245	-0,199
174,823	-62,193	-0,277	-0,080
175,837	288,653	-0,175	-0,222
176,852	110,856	-0,171	-0,144
177,867	177,525	-0,201	-0,205
178,881	179,111	-0,134	-0,137
179,896	3,743	-0,167	-0,085
180,910	353,931	-0,119	-0,165
181,925	264,394	-0,180	-0,219
182,940	147,298	-0,220	-0,206
183,954	72,298	-0,247	-0,179
184,969	388,292	-0,126	-0,182
185,983	107,988	-0,208	-0,172
186,998	21,970	-0,280	-0,158
188,013	78,331	-0,033	0,024
189,027	800,000	-0,071	-0,145
190,042	239,977	-0,227	-0,263
191,056	59,481	-0,318	-0,218
192,071	-200,000	-0,083	-0,333
193,086	174,519	-0,117	-0,118
194,100	-114,891	-0,113	-0,015
195,115	63,328	-0,244	-0,170
196,129	-84,190	-0,237	-0,052
197,144	-59,949	-0,169	-0,050
198,159	79,306	-0,205	-0,152
199,173	335,757	-0,062	-0,084
200,188	88,031	-0,200	-0,154
201,202	-10,372	-0,246	-0,113
202,217	-65,220	-0,253	-0,070
203,232	18,701	-0,259	-0,144
204,246	137,679	-0,307	-0,279
205,261	158,259	-0,191	-0,184
206,275	34,871	-0,178	-0,108
207,290	166,194	-0,156	-0,154
208,304	417,090	-0,165	-0,246
209,319	34,501	-0,197	-0,120
210,334	560,572	-0,072	-0,121
211,348	-38,659	-0,148	-0,054
212,363	319,373	-0,217	-0,287
213,377	-123,737	-0,272	-0,030
214,392	-39,865	-0,133	-0,048
215,407	-140,118	-0,058	-0,004
216,421	282,765	-0,158	-0,198
217,436	39,517	-0,268	-0,166
218,450	-10,705	-0,223	-0,102
219,465	333,935	-0,123	-0,166
220,480	316,432	-0,130	-0,170
221,494	93,779	-0,140	-0,110
222,509	674,311	-0,106	-0,191
223,523	-0,816	-0,107	-0,053
224,538	125,337	-0,167	-0,146
225,553	108,488	-0,178	-0,148
226,567	133,188	-0,262	-0,235
227,582	-14,623	-0,289	-0,128
228,596	680,428	-0,152	-0,277
229,611	212,018	-0,054	-0,059
230,626	267,575	-0,106	-0,129
231,640	12,717	-0,214	-0,114
232,655	345,008	-0,155	-0,212
233,669	333,437	-0,190	-0,256
234,684	158,908	-0,162	-0,156
235,699	800,000	-0,096	-0,212
236,713	24,544	-0,159	-0,091
237,728	-124,913	-0,155	0,016
238,742	-14,202	-0,196	-0,087
239,757	-17,186	-0,217	-0,094
240,772	30,266	-0,266	-0,157
241,786	39,032	-0,203	-0,126
242,801	214,927	-0,141	-0,155
243,815	-48,421	-0,269	-0,089
244,830	448,462	-0,117	-0,178
245,844	148,197	-0,153	-0,144
246,859	664,906	-0,146	-0,263
247,874	159,957	-0,228	-0,220
248,888	-15,078	-0,176	-0,078
249,903	-12,588	-0,148	-0,067
250,917	800,000	-0,072	-0,150
251,932	800,000	-0,051	-0,098
252,947	-128,631	-0,174	0,017
253,961	20,133	-0,222	-0,124
254,976	-23,235	-0,195	-0,081
255,990	-3,170	-0,212	-0,102
257,005	-67,561	-0,277	-0,075
258,020	168,560	-0,152	-0,150
259,034	-19,162	-0,199	-0,085
260,049	659,181	-0,117	-0,210
261,063	127,517	-0,116	-0,102
262,078	800,000	-0,128	-0,245
263,093	89,955	-0,137	-0,105
264,107	47,419	-0,182	-0,117
265,122	177,006	-0,194	-0,195
266,136	195,024	-0,083	-0,087
267,151	-93,226	-0,147	-0,028
268,166	-60,681	-0,201	-0,059
269,180	514,406	-0,126	-0,203
270,195	-36,742	-0,208	-0,077
271,209	-3,013	-0,153	-0,074
272,224	61,908	-0,145	-0,100
273,239	29,964	-0,138	-0,081
274,253	86,692	-0,156	-0,119
275,268	182,949	-0,129	-0,132
276,282	63,696	-0,222	-0,154
277,297	-60,129	-0,303	-0,089
278,312	193,403	-0,168	-0,176
279,326	-82,750	-0,311	0,069
280,341	-110,509	-0,072	-0,010
281,355	-27,480	-0,134	-0,053
282,370	-107,473	-0,171	-0,026
283,384	207,605	-0,167	-0,181
284,399	-76,552	-0,273	-0,066
285,414	112,565	-0,236	-0,197
286,428	4,830	-0,216	-0,109
287,443	-2,354	-0,209	-0,101
288,457	-168,878	-0,165	-0,004
289,472	800,000	-0,059	-0,113
290,487	669,754	-0,052	-0,093
291,501	78,193	-0,178	-0,131
292,516	-67,008	-0,139	-0,038
293,530	800,000	-0,059	-0,126
294,545	-120,943	-0,194	0,022
295,560	207,199	-0,076	-0,082
296,574	-200,000	-0,013	-0,145
297,589	573,220	-0,158	-0,266
298,603	46,002	-0,251	-0,160
299,618	-62,601	-0,145	-0,041
300,633	791,454	0,004	-0,008
301,647	-0,588	-0,120	-0,058
302,662	-64,348	-0,071	-0,020
303,676	800,000	-0,079	-0,153
304,691	800,000	-0,055	-0,151
305,706	-110,781	-0,122	-0,017
306,720	95,510	-0,273	-0,215
307,735	800,000	-0,079	-0,169
308,749	657,766	-0,077	-0,138
309,764	800,000	-0,077	-0,158
310,779	-34,963	-0,174	-0,065
311,793	587,918	-0,121	-0,205
312,808	-200,000	-0,042	-0,160
313,822	26,838	-0,199	-0,115
314,837	126,133	-0,150	-0,131
315,852	613,628	-0,131	-0,227
316,866	62,559	-0,160	-0,110
317,881	-200,000	-0,059	-0,206
318,895	365,493	-0,071	-0,098
319,910	-200,000	0,022	-0,177
320,925	23,675	-0,296	-0,167
321,939	260,831	-0,122	-0,145
322,954	-200,000	0,038	-0,148
323,968	800,000	-0,066	-0,193
324,983	-69,474	-0,318	-0,083
325,997	202,009	-0,169	-0,180
327,012	539,436	-0,067	-0,109
328,027	-16,171	-0,220	-0,096
329,041	249,276	-0,152	-0,178
330,056	800,000	-0,058	-0,137
331,070	-56,957	-0,079	-0,024
332,085	238,316	-0,134	-0,153
333,100	200,849	-0,095	-0,100
334,114	-19,281	-0,231	-0,098
335,129	55,817	-0,320	-0,213
336,143	225,455	-0,236	-0,263
337,158	-200,000	-0,024	-0,195
338,173	79,355	-0,145	-0,107
339,187	-49,898	-0,141	-0,046
340,202	51,091	-0,107	-0,070
341,216	157,351	-0,131	-0,125
342,231	699,240	-0,165	-0,300
343,246	800,000	-0,089	-0,180
344,260	83,918	-0,069	-0,051
345,275	-28,299	-0,188	-0,074
346,289	-47,493	-0,022	0,007
347,304	-200,000	0,022	-0,141
348,319	162,671	-0,157	-0,152
349,333	469,957	-0,096	-0,149
350,348	-57,739	-0,136	-0,041
351,362	9,539	-0,174	-0,090
352,377	1,385	-0,164	-0,081
353,392	39,722	-0,091	-0,056
354,406	55,032	-0,144	-0,095
355,421	208,321	1317,409	1414,732
356,435	160,280	1478,480	1415,215
