DTS Sentinel unit serial number:	SN410029Multiplexer serial number:	ORYXHardware model number:	OX2-SRSoftware version number:	ORYX F/W v4,00 Oryx Data Collector v3.7.2.0data status	okinstallation	B3 Nyhavnadifferential loss correction	single-endedforward channel	channel 1reverse channel	N/Adate	2023/12/02time	10:57:30forward acquisition time	300,00reverse acquisition time	0,00gamma	499,1914k internal	0,3197k external	0,3197temperature offset calibration	1,0000default loss term (dB/km)	0,3820temperature slope calibration	1,0000multiplexer offset coefficient	1,0000multiplexer slope coefficient	1,0000fibre end	0,00T internal ref (°C)	14,27T ext. ref 1 (°C)	-1,31T ext. ref 2 (°C)	-1,34length (m)	temperature (°C)	Stokes	anti-Stokes-744,400	161,668	-0,187	-0,191
-743,385	-200,000	-0,024	0,150
-742,371	100,134	-0,148	-0,125
-741,356	-200,000	0,018	0,511
-740,342	41,572	-0,208	-0,137
-739,327	-200,000	-0,028	0,327
-738,312	247,538	-0,130	-0,161
-737,298	-200,000	0,001	0,200
-736,283	167,713	-0,294	-0,305
-735,269	-200,000	0,070	0,407
-734,254	93,622	-0,273	-0,225
-733,239	173,787	-0,131	0,138
-732,225	190,134	-0,224	-0,245
-731,210	-200,000	0,008	0,028
-730,196	-118,062	0,058	0,007
-729,181	-200,000	0,013	0,085
-728,167	-54,339	0,089	-0,029
-727,152	-42,752	-0,051	-0,019
-726,137	549,070	-0,010	0,018
-725,123	65,314	0,153	-0,113
-724,108	32,830	-0,133	-0,083
-723,094	-200,000	-0,000	-0,005
-722,079	-200,000	0,000	0,049
-721,064	104,313	0,077	-0,066
-720,050	-132,228	-0,056	0,005
-719,035	-126,354	-0,143	0,015
-718,021	-200,000	0,007	-0,108
-717,006	-107,209	0,042	0,007
-715,991	75,662	-0,074	-0,056
-714,977	-120,318	0,028	-0,003
-713,962	-2,103	0,096	-0,049
-712,948	170,889	-0,024	-0,025
-711,933	-189,606	-0,172	-0,001
-710,918	-77,255	-0,131	-0,033
-709,904	60,734	-0,040	0,029
-708,889	-99,717	-0,090	-0,016
-707,875	-74,741	-0,086	0,022
-706,860	-200,000	-0,020	0,082
-705,845	-133,063	0,160	0,015
-704,831	109,163	0,045	-0,039
-703,816	-37,321	0,099	-0,038
-702,802	-85,074	0,032	-0,007
-701,787	800,000	-0,033	-0,083
-700,772	-200,000	-0,011	-0,040
-699,758	529,476	0,040	-0,068
-698,743	-200,000	-0,003	-0,078
-697,729	800,000	-0,049	0,107
-696,714	203,224	-0,054	0,061
-695,699	315,628	0,010	0,013
-694,685	-2,649	-0,064	-0,033
-693,670	56,470	0,041	0,029
-692,656	467,349	-0,088	-0,144
-691,641	638,390	-0,012	0,021
-690,627	-60,056	0,082	0,025
-689,612	-87,230	-0,059	0,013
-688,597	452,613	-0,046	-0,074
-687,583	-6,447	-0,162	-0,080
-686,568	311,034	0,017	0,023
-685,554	-32,331	-0,081	-0,033
-684,539	800,000	0,017	-0,049
-683,524	188,584	0,117	0,127
-682,510	-72,433	0,058	-0,016
-681,495	576,068	-0,106	-0,188
-680,481	154,390	-0,122	-0,122
-679,466	800,000	-0,036	-0,099
-678,451	-81,979	0,184	0,043
-677,437	800,000	0,020	-0,043
-676,422	-200,000	-0,008	-0,134
-675,408	43,005	-0,069	-0,045
-674,393	-200,000	-0,148	-0,000
-673,378	96,630	-0,036	-0,030
-672,364	257,673	-0,097	-0,122
-671,349	323,235	-0,113	-0,157
-670,335	112,649	0,040	-0,035
-669,320	382,289	0,106	0,159
-668,305	180,499	0,148	0,158
-667,291	-171,917	-0,219	-0,005
-666,276	-200,000	-0,025	-0,141
-665,262	-110,572	-0,126	-0,019
-664,247	-95,248	-0,072	0,014
-663,232	-76,797	-0,121	-0,030
-662,218	171,423	0,030	-0,031
-661,203	134,563	0,106	0,100
-660,189	489,456	-0,103	-0,171
-659,174	-80,368	0,059	0,014
-658,159	323,908	-0,098	0,136
-657,145	-200,000	0,012	-0,132
-656,130	-110,921	-0,015	-0,002
-655,116	-103,511	-0,054	-0,009
-654,101	-200,000	0,008	-0,057
-653,086	-132,394	-0,101	-0,009
-652,072	73,471	-0,028	-0,021
-651,057	-38,999	0,130	-0,049
-650,043	-64,108	0,005	0,001
-649,028	323,968	-0,076	0,105
-648,014	-200,000	0,020	0,161
-646,999	-88,917	-0,170	-0,036
-645,984	175,674	-0,056	-0,059
-644,970	-103,539	0,079	-0,013
-643,955	374,068	-0,043	-0,064
-642,941	-200,000	-0,015	-0,076
-641,926	800,000	-0,026	-0,054
-640,911	489,455	-0,058	0,097
-639,897	-200,000	-0,004	0,032
-638,882	168,935	-0,067	0,069
-637,868	-94,655	-0,120	0,023
-636,853	377,033	-0,041	-0,060
-635,838	-59,844	-0,067	0,021
-634,824	216,766	0,136	-0,157
-633,809	553,231	0,053	0,092
-632,795	-26,333	0,128	-0,054
-631,780	-69,706	-0,097	0,027
-630,765	73,129	-0,069	-0,052
-629,751	231,883	-0,090	-0,107
-628,736	800,000	0,043	-0,098
-627,722	-153,706	0,101	-0,005
-626,707	140,064	-0,035	0,034
-625,692	800,000	-0,024	0,055
-624,678	0,890	0,108	0,056
-623,663	443,410	-0,051	0,081
-622,649	-200,000	-0,009	-0,045
-621,634	-46,046	-0,077	-0,027
-620,619	800,000	-0,008	-0,018
-619,605	-200,000	0,013	-0,052
-618,590	-200,000	0,002	0,051
-617,576	-58,318	0,183	0,057
-616,561	75,564	0,041	-0,031
-615,546	-22,921	0,029	-0,013
-614,532	211,573	0,048	-0,055
-613,517	-62,525	-0,104	-0,031
-612,503	-200,000	0,011	-0,044
-611,488	17,670	0,074	0,042
-610,474	381,608	0,071	0,106
-609,459	-54,439	-0,088	-0,029
-608,444	509,122	0,026	0,043
-607,430	527,617	-0,042	0,072
-606,415	332,748	-0,067	-0,094
-605,401	-200,000	0,007	0,033
-604,386	24,024	-0,098	0,058
-603,371	-76,426	0,052	0,013
-602,357	-5,674	-0,043	-0,021
-601,342	-4,209	-0,094	0,047
-600,328	-66,701	-0,136	-0,039
-599,313	-161,640	0,093	0,003
-598,298	-153,215	0,069	-0,003
-597,284	-200,000	0,034	-0,125
-596,269	226,235	0,014	0,017
-595,255	-19,968	-0,100	0,044
-594,240	-200,000	0,013	0,082
-593,225	-119,052	-0,079	-0,010
-592,211	800,000	-0,003	0,009
-591,196	800,000	-0,015	0,047
-590,182	-200,000	-0,013	-0,191
-589,167	-62,636	0,225	-0,067
-588,152	396,310	0,070	-0,106
-587,138	466,952	-0,019	-0,032
-586,123	800,000	0,022	0,061
-585,109	63,528	-0,117	0,085
-584,094	-70,651	-0,091	-0,025
-583,079	3,453	-0,030	-0,016
-582,065	800,000	0,033	-0,091
-581,050	-200,000	0,051	0,225
-580,036	-200,000	0,004	0,087
-579,021	-155,832	-0,115	0,005
-578,006	-161,385	0,044	0,002
-576,992	68,010	-0,085	0,063
-575,977	-96,397	0,058	-0,011
-574,963	88,764	0,107	0,086
-573,948	17,588	0,084	0,048
-572,934	317,113	-0,058	-0,079
-571,919	70,042	0,008	0,006
-570,904	176,473	-0,116	0,122
-569,890	650,076	-0,062	0,115
-568,875	185,240	-0,096	0,103
-567,861	800,000	0,046	0,103
-566,846	147,447	0,064	-0,062
-565,831	-200,000	-0,010	0,089
-564,817	7,419	-0,107	-0,058
-563,802	420,964	0,023	-0,036
-562,788	280,850	0,092	-0,119
-561,773	537,150	-0,112	-0,193
-560,758	-96,024	0,152	-0,029
-559,744	13,750	-0,037	0,021
-558,729	-52,485	0,207	-0,069
-557,715	525,259	0,015	0,026
-556,700	800,000	-0,063	-0,161
-555,685	738,176	0,007	-0,014
-554,671	-91,582	0,071	0,015
-553,656	-131,554	0,082	-0,008
-552,642	200,802	-0,118	-0,131
-551,627	-54,841	-0,096	-0,031
-550,612	-200,000	-0,011	0,050
-549,598	-200,000	-0,011	-0,148
-548,583	349,928	-0,054	-0,078
-547,569	286,217	0,023	0,030
-546,554	-200,000	-0,007	0,024
-545,539	-200,000	-0,053	0,205
-544,525	-200,000	-0,011	-0,052
-543,510	152,939	-0,059	0,058
-542,496	-33,079	-0,122	0,049
-541,481	70,606	-0,085	0,064
-540,466	6,956	0,042	0,023
-539,452	138,635	-0,034	-0,033
-538,437	93,994	-0,057	-0,047
-537,423	-200,000	0,005	-0,041
-536,408	800,000	0,068	-0,182
-535,393	-89,673	0,066	0,014
-534,379	-44,820	-0,064	-0,023
-533,364	95,546	-0,073	-0,060
-532,350	203,681	0,127	-0,142
-531,335	167,036	0,055	0,057
-530,321	800,000	0,030	-0,088
-529,306	-200,000	-0,010	0,051
-528,291	-200,000	0,008	-0,044
-527,277	-11,189	0,085	-0,040
-526,262	-157,022	0,115	0,005
-525,248	-200,000	0,076	0,000
-524,233	-90,622	0,068	0,014
-523,218	-200,000	0,043	0,206
-522,204	800,000	-0,014	0,038
-521,189	-130,313	-0,087	0,008
-520,175	-200,000	0,012	-0,071
-519,160	800,000	-0,039	-0,104
-518,145	-33,098	-0,037	-0,015
-517,131	800,000	-0,012	0,038
-516,116	37,207	-0,048	0,031
-515,102	14,534	-0,119	-0,067
-514,087	113,725	0,030	-0,026
-513,072	421,223	0,039	-0,060
-512,058	13,707	-0,070	0,039
-511,043	717,077	0,049	0,095
-510,029	226,494	0,019	-0,022
-509,014	-32,657	0,111	0,044
-507,999	-144,060	0,074	-0,005
-506,985	49,406	-0,067	0,045
-505,970	800,000	-0,033	0,068
-504,956	-200,000	0,038	-0,149
-503,941	-200,000	0,025	-0,140
-502,926	-200,000	0,009	-0,065
-501,912	192,240	-0,081	0,088
-500,897	-200,000	-0,012	-0,074
-499,883	-200,000	0,017	-0,055
-498,868	-70,865	0,175	-0,047
-497,853	-58,612	-0,126	-0,039
-496,839	-79,930	0,146	-0,035
-495,824	-10,333	-0,064	0,030
-494,810	181,978	0,048	-0,051
-493,795	475,651	0,087	0,142
-492,781	-128,469	0,055	-0,006
-491,766	-200,000	-0,000	0,008
-490,751	-200,000	0,011	0,036
-489,737	800,000	0,030	0,085
-488,722	687,495	-0,014	-0,026
-487,708	-200,000	-0,016	0,145
-486,693	-30,283	-0,067	0,027
-485,678	-121,371	-0,240	0,028
-484,664	-60,582	0,104	-0,032
-483,649	30,907	0,080	0,049
-482,635	-200,000	-0,006	-0,038
-481,620	469,004	-0,078	-0,126
-480,605	800,000	0,023	0,071
-479,591	-200,000	-0,015	0,115
-478,576	-200,000	-0,010	-0,031
-477,562	372,840	-0,076	-0,111
-476,547	-87,114	-0,111	-0,024
-475,532	453,206	0,009	0,014
-474,518	800,000	0,025	-0,077
-473,503	127,424	0,079	0,073
-472,489	24,911	0,077	0,046
-471,474	-126,065	-0,103	-0,011
-470,459	236,758	-0,102	0,122
-469,445	-14,777	-0,052	-0,024
-468,430	442,290	-0,051	-0,081
-467,416	1,622	0,072	-0,037
-466,401	-32,057	-0,010	0,004
-465,386	123,633	0,022	0,020
-464,372	-200,000	-0,008	0,041
-463,357	250,941	-0,090	-0,110
-462,343	12,759	-0,116	-0,064
-461,328	-83,030	0,023	0,005
-460,313	-145,872	0,077	-0,005
-459,299	-82,311	0,068	-0,016
-458,284	202,885	0,074	-0,083
-457,270	345,278	-0,056	-0,079
-456,255	66,477	0,072	0,052
-455,241	341,836	-0,048	-0,068
-454,226	-104,944	-0,046	-0,008
-453,211	800,000	-0,018	0,052
-452,197	750,970	-0,003	0,007
-451,182	-51,190	0,095	-0,032
-450,168	-200,000	0,012	0,078
-449,153	800,000	0,020	-0,057
-448,138	-200,000	-0,025	-0,083
-447,124	-62,226	0,035	-0,011
-446,109	88,472	-0,050	0,040
-445,095	-45,607	0,105	0,037
-444,080	9,465	0,029	-0,016
-443,065	-9,000	0,104	-0,050
-442,051	-133,856	-0,119	-0,010
-441,036	-200,000	-0,004	-0,083
-440,022	172,647	-0,067	0,069
-439,007	-200,000	-0,001	0,033
-437,992	800,000	-0,017	0,036
-436,978	138,602	-0,067	0,063
-435,963	133,476	0,026	-0,024
-434,949	-2,373	-0,068	0,034
-433,934	669,861	0,043	-0,081
-432,919	-200,000	0,059	-0,210
-431,905	-105,968	-0,035	-0,006
-430,890	122,704	0,044	0,039
-429,876	800,000	0,040	0,124
-428,861	800,000	-0,032	0,079
-427,846	-200,000	-0,020	0,080
-426,832	800,000	0,081	-0,217
-425,817	-200,000	0,002	0,036
-424,803	138,033	-0,020	-0,019
-423,788	-200,000	0,012	-0,053
-422,773	-200,000	0,004	0,016
-421,759	-72,896	-0,036	-0,010
-420,744	-200,000	0,042	0,161
-419,730	-104,487	-0,062	0,010
-418,715	88,005	-0,002	-0,001
-417,701	-200,000	0,034	-0,148
-416,686	-200,000	-0,006	0,153
-415,671	166,226	-0,050	-0,051
-414,657	-194,034	0,051	-0,000
-413,642	108,380	0,038	0,032
-412,628	109,203	0,099	-0,085
-411,613	-189,217	-0,026	-0,000
-410,598	101,578	-0,126	-0,105
-409,584	-50,598	-0,091	-0,031
-408,569	268,273	-0,018	-0,022
-407,555	-177,820	0,096	0,002
-406,540	-200,000	-0,007	-0,146
-405,525	-200,000	-0,008	0,057
-404,511	-166,016	0,136	-0,004
-403,496	98,721	0,070	-0,058
-402,482	482,571	0,048	0,079
-401,467	800,000	-0,021	-0,049
-400,452	190,672	0,102	0,110
-399,438	286,914	0,096	0,124
-398,423	266,103	0,059	0,075
-397,409	-13,524	-0,051	-0,024
-396,394	10,337	-0,072	0,039
-395,379	678,661	-0,014	0,027
-394,365	166,440	0,037	0,038
-393,350	-89,090	0,142	0,030
-392,336	-141,997	-0,111	-0,008
-391,321	800,000	-0,009	-0,027
-390,306	29,683	-0,147	-0,090
-389,292	-42,758	-0,048	0,017
-388,277	-117,516	-0,092	-0,012
-387,263	9,735	-0,076	-0,041
-386,248	-147,748	0,105	-0,006
-385,233	178,309	-0,098	0,103
-384,219	-200,000	0,020	-0,063
-383,204	800,000	-0,019	0,040
-382,190	-200,000	-0,005	-0,113
-381,175	160,648	-0,065	-0,065
-380,160	800,000	0,043	0,132
-379,146	-108,730	0,043	0,007
-378,131	165,063	-0,038	0,038
-377,117	715,277	0,059	0,112
-376,102	-200,000	0,008	-0,053
-375,088	-163,129	-0,048	0,002
-374,073	-200,000	0,009	-0,073
-373,058	727,385	-0,059	0,113
-372,044	-49,793	0,139	0,047
-371,029	-200,000	0,008	-0,040
-370,015	-10,006	-0,135	-0,064
-369,000	70,905	0,124	-0,092
-367,985	52,374	-0,099	-0,068
-366,971	-118,556	-0,023	0,003
-365,956	-200,000	-0,008	0,032
-364,942	-194,530	-0,039	0,000
-363,927	47,354	0,131	0,087
-362,912	113,961	0,067	0,059
-361,898	800,000	-0,041	-0,121
-360,883	-200,000	0,010	0,041
-359,869	-200,000	-0,017	0,107
-358,854	-169,664	0,055	0,001
-357,839	800,000	-0,026	-0,075
-356,825	179,467	-0,014	-0,015
-355,810	-171,372	0,077	-0,002
-354,796	-82,413	-0,085	0,020
-353,781	-75,186	0,199	-0,051
-352,766	-113,149	-0,083	0,012
-351,752	24,653	0,095	-0,056
-350,737	-135,719	-0,101	0,008
-349,723	26,001	0,033	0,020
-348,708	800,000	-0,025	0,061
-347,693	236,695	0,055	0,065
-346,679	-200,000	0,004	-0,035
-345,664	738,775	0,052	0,100
-344,650	-81,439	-0,069	-0,016
-343,635	-200,000	-0,026	-0,161
-342,620	13,922	-0,057	-0,032
-341,606	78,656	-0,054	0,041
-340,591	-200,000	-0,024	-0,090
-339,577	76,455	-0,059	0,045
-338,562	366,943	0,079	-0,115
-337,548	-126,771	-0,107	0,011
-336,533	800,000	-0,055	0,162
-335,518	-139,979	0,021	0,002
-334,504	611,938	0,043	0,078
-333,489	-200,000	0,003	0,081
-332,475	557,344	-0,043	-0,074
-331,460	83,179	-0,065	-0,051
-330,445	233,720	0,031	-0,037
-329,431	-200,000	0,008	0,095
-328,416	-26,506	0,070	-0,029
-327,402	800,000	-0,032	-0,080
-326,387	-200,000	-0,027	0,115
-325,372	-38,464	0,056	-0,021
-324,358	-200,000	-0,012	-0,066
-323,343	-84,184	0,031	0,007
-322,329	800,000	0,048	-0,106
-321,314	-200,000	-0,016	0,114
-320,299	-11,381	0,126	0,059
-319,285	-200,000	-0,004	0,040
-318,270	-200,000	-0,003	0,045
-317,256	341,216	-0,079	-0,111
-316,241	-200,000	0,016	-0,133
-315,226	193,940	-0,060	0,066
-314,212	-44,705	-0,141	0,050
-313,197	26,795	0,088	0,052
-312,183	336,234	-0,072	0,100
-311,168	-200,000	0,024	0,096
-310,153	-32,502	-0,087	0,034
-309,139	800,000	-0,023	-0,064
-308,124	-200,000	0,007	-0,137
-307,110	19,968	0,128	0,073
-306,095	-200,000	0,005	0,086
-305,080	106,213	0,136	0,115
-304,066	611,673	0,035	0,063
-303,051	-72,285	-0,075	-0,020
-302,037	131,802	-0,145	-0,134
-301,022	-103,770	0,146	-0,024
-300,008	-200,000	0,019	-0,090
-298,993	524,441	-0,028	0,047
-297,978	13,132	-0,072	0,040
-296,964	-200,000	-0,002	-0,055
-295,949	-128,904	0,066	-0,007
-294,935	555,604	0,014	-0,025
-293,920	-47,972	-0,155	-0,053
-292,905	800,000	0,051	-0,124
-291,891	44,337	0,132	0,087
-290,876	521,280	-0,015	0,026
-289,862	-200,000	0,004	-0,046
-288,847	-98,270	-0,060	-0,011
-287,832	-200,000	-0,002	-0,012
-286,818	310,080	-0,013	0,017
-285,803	404,678	0,039	0,059
-284,789	178,042	0,165	-0,172
-283,774	155,616	0,043	-0,043
-282,759	10,167	0,023	0,012
-281,745	-200,000	-0,002	-0,094
-280,730	-43,640	-0,130	0,047
-279,716	-11,609	0,076	-0,036
-278,701	-168,175	-0,225	-0,006
-277,686	303,661	0,039	-0,052
-276,672	-200,000	-0,011	-0,172
-275,657	129,078	0,064	-0,058
-274,643	-46,207	-0,075	0,026
-273,628	31,263	0,036	-0,022
-272,613	165,117	-0,057	-0,057
-271,599	415,569	-0,071	-0,109
-270,584	800,000	0,017	0,035
-269,570	203,328	0,103	0,114
-268,555	8,589	0,100	0,054
-267,540	76,665	-0,084	0,064
-266,526	365,881	-0,087	0,126
-265,511	273,998	-0,103	-0,131
-264,497	65,111	0,066	-0,047
-263,482	171,319	0,042	-0,043
-262,467	427,225	0,044	0,068
-261,453	-200,000	0,004	0,120
-260,438	-200,000	0,000	-0,049
-259,424	24,776	-0,048	-0,028
-258,409	-69,662	-0,121	-0,033
-257,395	-200,000	0,024	0,090
-256,380	158,521	0,036	0,035
-255,365	-200,000	-0,007	-0,129
-254,351	-200,000	0,015	-0,100
-253,336	-200,000	0,001	0,025
-252,322	526,920	-0,022	-0,037
-251,307	294,118	-0,054	-0,071
-250,292	42,569	0,058	0,038
-249,278	417,248	0,053	0,081
-248,263	82,966	-0,045	0,035
-247,249	147,415	-0,092	-0,089
-246,234	-200,000	-0,010	-0,119
-245,219	-200,000	-0,005	0,073
-244,205	106,730	0,071	-0,061
-243,190	93,148	0,053	0,043
-242,176	47,383	0,051	-0,034
-241,161	-98,004	0,009	-0,002
-240,146	-184,081	-0,049	0,001
-239,132	-200,000	-0,027	0,089
-238,117	211,912	0,056	-0,063
-237,103	-169,156	-0,054	-0,001
-236,088	-200,000	-0,003	0,109
-235,073	27,905	0,042	0,025
-234,059	-200,000	-0,009	-0,034
-233,044	-143,196	0,112	0,008
-232,030	800,000	-0,048	0,104
-231,015	283,419	-0,146	-0,187
-230,000	-200,000	-0,019	-0,087
-228,986	-164,571	0,136	0,004
-227,971	-26,518	0,037	-0,015
-226,957	249,278	0,065	0,079
-225,942	800,000	0,058	0,139
-224,927	-200,000	-0,013	0,179
-223,913	98,315	0,097	0,079
-222,898	-200,000	-0,007	-0,091
-221,884	373,875	0,074	0,108
-220,869	174,155	0,079	-0,081
-219,855	-200,000	0,005	0,086
-218,840	-67,336	0,079	-0,022
-217,825	800,000	0,058	-0,117
-216,811	257,981	-0,100	0,123
-215,796	800,000	-0,036	-0,114
-214,782	45,582	0,026	-0,017
-213,767	12,910	0,088	0,049
-212,752	1,272	0,077	0,039
-211,738	-200,000	0,030	-0,112
-210,723	-99,744	-0,054	0,010
-209,709	-200,000	0,010	0,100
-208,694	-200,000	-0,001	-0,104
-207,679	398,695	-0,094	-0,141
-206,665	-92,583	-0,082	-0,016
-205,650	-200,000	0,012	0,172
-204,636	800,000	-0,069	0,158
-203,621	-187,483	0,090	-0,001
-202,606	38,882	-0,158	0,101
-201,592	-200,000	0,008	-0,032
-200,577	-29,787	0,071	0,029
-199,563	180,711	0,017	0,018
-198,548	-95,800	0,123	0,023
-197,533	166,945	-0,150	0,152
-196,519	-200,000	0,001	-0,091
-195,504	250,936	0,018	-0,022
-194,490	-0,923	-0,051	-0,026
-193,475	181,295	0,070	-0,074
-192,460	-200,000	-0,005	0,034
-191,446	1,101	-0,097	0,049
-190,431	193,143	0,087	0,094
-189,417	335,947	0,043	0,059
-188,402	-200,000	-0,007	0,115
-187,387	-59,918	-0,058	-0,017
-186,373	203,006	-0,039	-0,043
-185,358	-0,308	-0,173	0,087
-184,344	-68,020	-0,095	-0,026
-183,329	-152,856	0,063	-0,003
-182,315	-200,000	-0,018	0,124
-181,300	-135,705	-0,066	-0,005
-180,285	-200,000	-0,007	-0,059
-179,271	-200,000	-0,000	-0,018
-178,256	800,000	-0,020	-0,044
-177,242	-200,000	0,012	0,062
-176,227	-112,621	0,101	0,014
-175,212	-200,000	-0,003	0,024
-174,198	-200,000	0,018	0,073
-173,183	-14,429	-0,196	0,090
-172,169	-17,358	0,127	-0,057
-171,154	800,000	-0,057	-0,159
-170,139	800,000	0,024	-0,056
-169,125	800,000	0,036	0,072
-168,110	228,479	0,095	0,110
-167,096	-138,959	0,163	-0,012
-166,081	227,468	0,034	0,039
-165,066	89,018	-0,025	-0,020
-164,052	800,000	0,036	0,079
-163,037	-68,937	0,126	0,034
-162,023	-110,637	0,062	-0,009
-161,008	124,213	-0,059	0,053
-159,993	800,000	-0,020	0,047
-158,979	800,000	0,019	0,060
-157,964	-200,000	-0,003	-0,225
-156,950	131,445	0,027	0,025
-155,935	-19,276	-0,036	-0,016
-154,920	133,032	0,161	0,148
-153,906	-200,000	0,006	0,129
-152,891	-1,246	-0,066	-0,033
-151,877	-57,971	-0,101	-0,031
-150,862	556,728	-0,090	-0,155
-149,847	-191,327	-0,061	0,000
-148,833	387,179	0,032	-0,048
-147,818	-200,000	0,046	-0,145
-146,804	-76,517	0,105	0,026
-145,789	-92,303	0,080	0,016
-144,775	-200,000	0,004	0,092
-143,760	-200,000	-0,001	-0,173
-142,745	206,102	-0,064	-0,071
-141,731	63,677	0,064	0,046
-140,716	533,431	0,030	-0,050
-139,702	20,584	-0,049	-0,028
-138,687	23,496	-0,042	-0,025
-137,672	-200,000	0,021	-0,117
-136,658	146,581	0,054	-0,052
-135,643	99,036	-0,106	0,087
-134,629	800,000	-0,076	-0,195
-133,614	268,300	0,034	0,043
-132,599	660,762	-0,040	0,074
-131,585	50,126	0,109	0,073
-130,570	-115,809	-0,105	-0,014
-129,556	112,941	0,105	-0,090
-128,541	65,509	-0,079	-0,057
-127,526	-180,787	-0,046	-0,001
-126,512	139,833	0,110	-0,103
-125,497	800,000	0,015	0,045
-124,483	-29,964	0,066	0,027
-123,468	124,986	-0,037	0,034
-122,453	84,097	-0,032	-0,024
-121,439	-103,014	0,113	0,019
-120,424	-40,708	0,031	-0,011
-119,410	0,196	-0,122	0,062
-118,395	-200,000	-0,013	-0,055
-117,380	153,439	-0,066	0,064
-116,366	800,000	-0,012	-0,030
-115,351	38,355	-0,161	-0,102
-114,337	-18,297	0,098	0,043
-113,322	-133,320	0,105	0,009
-112,307	-200,000	-0,006	-0,089
-111,293	-200,000	-0,007	-0,092
-110,278	-200,000	0,010	0,049
-109,264	-80,231	0,034	0,008
-108,249	-44,829	-0,058	0,021
-107,234	-200,000	-0,013	-0,105
-106,220	125,473	0,099	-0,089
-105,205	-200,000	-0,015	0,066
-104,191	-17,625	0,025	-0,011
-103,176	-167,278	0,069	-0,002
-102,162	-160,416	0,113	0,004
-101,147	64,627	-0,029	0,021
-100,132	-84,304	-0,068	0,015
-99,118	-177,664	0,039	-0,001
-98,103	29,948	-0,022	0,013
-97,089	-46,256	-0,053	0,019
-96,074	447,328	0,066	0,104
-95,059	12,231	0,046	0,025
-94,045	-137,681	-0,090	-0,007
-93,030	-89,162	0,077	-0,016
-92,016	-65,434	-0,076	-0,022
-91,001	211,670	0,054	0,060
-89,986	337,143	0,045	-0,062
-88,972	-200,000	-0,032	0,130
-87,957	-200,000	0,017	-0,055
-86,943	66,815	-0,140	0,101
-85,928	-169,332	-0,153	0,004
-84,913	329,786	-0,031	-0,043
-83,899	-200,000	0,048	0,178
-82,884	-200,000	0,024	-0,154
-81,870	-52,687	0,114	-0,037
-80,855	800,000	-0,060	0,147
-79,840	-200,000	-0,001	-0,006
-78,826	-158,004	-0,150	-0,006
-77,811	800,000	0,052	0,102
-76,797	75,208	-0,068	0,051
-75,782	-200,000	0,014	0,062
-74,767	-95,425	-0,064	-0,012
-73,753	-35,306	0,054	0,021
-72,738	75,067	-0,149	0,112
-71,724	-200,000	-0,025	-0,207
-70,709	-100,258	-0,158	-0,028
-69,694	79,400	-0,094	0,071
-68,680	-200,000	-0,002	-0,138
-67,665	4,795	0,070	-0,037
-66,651	-147,155	-0,169	0,010
-65,636	-46,187	-0,029	-0,010
-64,622	-200,000	0,049	-0,230
-63,607	-86,881	-0,052	0,011
-62,592	800,000	0,074	-0,162
-61,578	346,816	0,035	0,049
-60,563	-200,000	-0,000	0,081
-59,549	-200,000	-0,045	0,188
-58,534	-28,995	-1,519	-0,616
-57,519	396,710	-1,443	-2,144
-56,505	-200,000	-0,677	-4,631
-55,490	185,096	0,946	0,996
-54,476	800,000	4,858	11,268
-53,461	-200,000	18,692	301,268
-52,446	800,000	735,829	2278,145
-51,432	563,159	1651,615	2845,161
-50,417	78,693	1668,534	1263,495
-49,403	22,210	1541,489	889,872
-48,388	16,177	1464,244	815,975
-47,373	17,814	1454,504	818,422
-46,359	16,988	1444,646	808,886
-45,344	14,408	1439,947	793,870
-44,330	14,289	1438,321	792,373
-43,315	14,309	1436,500	791,432
-42,300	14,345	1434,776	790,623
-41,286	14,366	1433,589	790,037
-40,271	14,381	1432,176	789,298
-39,257	14,334	1430,986	788,387
-38,242	14,399	1429,644	787,928
-37,227	14,366	1428,528	787,123
-36,213	14,358	1427,281	786,367
-35,198	14,367	1426,030	785,690
-34,184	14,424	1425,209	785,479
-33,169	14,345	1423,930	784,369
-32,154	14,370	1422,839	783,855
-31,140	14,399	1421,297	783,112
-30,125	14,385	1420,481	782,564
-29,111	14,430	1418,944	781,896
-28,096	14,347	1418,144	781,037
-27,082	14,294	1417,020	780,137
-26,067	14,283	1415,929	779,450
-25,052	14,312	1414,752	778,907
-24,038	14,273	1414,019	778,293
-23,023	14,319	1412,789	777,800
-22,009	14,299	1411,783	777,121
-20,994	14,270	1411,080	776,569
-19,979	14,234	1410,156	775,858
-18,965	14,261	1408,948	775,289
-17,950	14,246	1408,058	774,698
-16,936	14,232	1407,229	774,148
-15,921	14,204	1406,025	773,324
-14,906	14,207	1405,455	772,994
-13,892	14,241	1404,277	772,473
-12,877	14,206	1403,649	771,934
-11,863	14,222	1402,558	771,375
-10,848	14,177	1401,810	770,723
-9,833	14,149	1400,723	769,966
-8,819	14,097	1400,077	769,340
-7,804	14,089	1398,832	768,588
-6,790	14,128	1397,902	768,229
-5,775	14,121	1396,770	767,541
-4,760	14,095	1395,889	766,908
-3,746	14,103	1395,005	766,427
-2,731	14,079	1394,355	765,931
-1,717	14,089	1393,425	765,436
-0,702	14,063	1391,750	764,362
0,313	17,967	1309,761	737,409
1,327	34,453	705,226	435,229
2,342	52,724	123,822	83,689
3,356	2,841	16,652	8,532
4,371	3,926	3,127	1,613
5,386	-91,342	0,421	0,085
6,400	520,616	0,083	0,138
7,415	28,663	-0,292	-0,175
8,429	87,824	-0,218	-0,171
9,444	272,111	-0,243	-0,304
10,459	246,214	-0,291	-0,348
11,473	59,824	-0,239	-0,167
12,488	82,475	-0,262	-0,201
13,502	184,149	-0,270	-0,284
14,517	0,904	-0,490	-0,248
15,531	166,978	-0,339	-0,340
16,546	133,444	-0,248	-0,227
17,561	63,662	-0,329	-0,234
18,575	104,365	-0,196	-0,163
19,590	-35,445	-0,210	-0,080
20,604	-116,374	-0,223	0,029
21,619	228,215	-0,377	-0,434
22,634	269,286	-0,423	-0,526
23,648	216,350	-0,340	-0,382
24,663	79,123	-0,469	-0,355
25,677	142,085	-0,247	-0,231
26,692	166,442	-0,392	-0,393
27,707	179,139	-0,181	-0,187
28,721	22,441	-0,357	-0,206
29,736	160,508	-0,297	-0,293
30,750	49,037	-0,428	-0,284
31,765	88,304	-0,167	-0,131
32,780	19,676	-0,325	-0,185
33,794	68,014	-0,426	-0,308
34,809	-25,741	-0,355	-0,147
35,823	-53,960	-0,336	-0,107
36,838	99,935	-0,462	-0,378
37,853	150,000	-0,261	-0,250
38,867	15,229	-0,335	-0,185
39,882	120,076	-0,347	-0,304
40,896	30,331	-0,335	-0,202
41,911	-40,574	-0,447	-0,163
42,926	-81,006	-0,270	-0,063
43,940	-19,294	-0,366	-0,160
44,955	83,945	-0,395	-0,304
45,969	189,125	-0,232	-0,246
46,984	3,320	-0,460	-0,235
47,999	284,601	-0,189	-0,240
49,013	-13,905	-0,329	-0,149
50,028	196,607	-0,238	-0,257
51,042	33,063	-0,404	-0,247
52,057	-4,314	-0,475	-0,231
53,071	34,625	-0,387	-0,238
54,086	-12,880	-0,250	-0,114
55,101	9,659	-0,382	-0,204
56,115	21,639	-0,190	-0,109
57,130	52,679	-0,299	-0,201
58,144	124,946	-0,217	-0,193
59,159	30,377	-0,338	-0,203
60,174	193,740	-0,304	-0,325
61,188	69,333	-0,348	-0,252
62,203	154,478	-0,234	-0,226
63,217	45,431	-0,345	-0,224
64,232	88,967	-0,289	-0,227
65,247	233,725	-0,215	-0,249
66,261	-17,782	-0,367	-0,162
67,276	-64,453	-0,363	-0,103
68,290	153,320	-0,253	-0,244
69,305	141,055	-0,286	-0,267
70,320	624,972	-0,120	-0,213
71,334	144,461	-0,362	-0,341
72,349	137,170	-0,276	-0,254
73,363	40,191	-0,346	-0,219
74,378	69,738	-0,350	-0,253
75,393	98,337	-0,323	-0,262
76,407	35,831	-0,343	-0,212
77,422	281,246	-0,177	-0,224
78,436	93,002	-0,371	-0,295
79,451	-58,397	-0,383	-0,116
80,466	121,253	-0,344	-0,301
81,480	14,857	-0,285	-0,156
82,495	13,124	-0,346	-0,188
83,509	10,226	-0,370	-0,197
84,524	-131,864	-0,240	-0,022
85,539	-184,453	-0,271	0,003
86,553	-85,466	-0,331	-0,072
87,568	246,131	-0,262	-0,311
88,582	-0,422	-0,290	-0,144
89,597	118,224	-0,245	-0,212
90,611	83,306	-0,296	-0,227
91,626	800,000	-0,072	-0,200
92,641	188,801	-0,249	-0,263
93,655	138,121	-0,247	-0,228
94,670	330,456	-0,280	-0,380
95,684	240,484	-0,245	-0,288
96,699	145,649	-0,288	-0,271
97,714	112,023	-0,232	-0,197
98,728	88,906	-0,270	-0,211
99,743	57,494	-0,307	-0,210
100,757	-55,957	-0,184	-0,057
101,772	139,018	-0,208	-0,192
102,787	-17,704	-0,374	-0,164
103,801	-130,483	-0,324	-0,030
104,816	21,926	-0,278	-0,159
105,830	-89,405	-0,273	-0,056
106,845	57,474	-0,354	-0,242
107,860	133,217	-0,261	-0,236
108,874	28,696	-0,345	-0,204
109,889	170,805	-0,320	-0,322
110,903	184,003	-0,240	-0,249
111,918	-49,535	-0,289	-0,096
112,933	43,635	-0,310	-0,199
113,947	106,434	-0,171	-0,142
114,962	148,233	-0,185	-0,175
115,976	244,589	-0,194	-0,229
116,991	83,550	-0,334	-0,255
118,006	89,298	-0,158	-0,123
119,020	122,950	-0,250	-0,219
120,035	-73,306	-0,220	-0,056
121,049	6,026	-0,196	-0,102
122,064	-57,606	-0,180	-0,055
123,079	96,797	-0,128	-0,102
124,093	-159,357	-0,278	-0,011
125,108	125,082	-0,255	-0,225
126,122	53,842	-0,238	-0,160
127,137	43,171	-0,261	-0,166
128,151	13,491	-0,252	-0,137
129,166	68,201	-0,206	-0,147
130,181	109,561	-0,211	-0,177
131,195	115,343	-0,137	-0,117
132,210	120,138	-0,263	-0,229
133,224	-17,902	-0,313	-0,137
134,239	-163,678	-0,284	0,009
135,254	-2,565	-0,379	-0,185
136,268	340,490	-0,191	-0,262
137,283	65,657	-0,225	-0,159
138,297	257,092	-0,258	-0,311
139,312	59,264	-0,382	-0,263
140,327	285,586	-0,169	-0,214
141,341	-99,649	-0,179	-0,031
142,356	-84,042	-0,250	-0,055
143,370	93,121	-0,237	-0,187
144,385	82,812	-0,304	-0,231
145,400	-10,072	-0,235	-0,109
146,414	197,961	-0,226	-0,242
147,429	181,406	-0,248	-0,255
148,443	305,686	-0,196	-0,256
149,458	-95,487	-0,255	-0,047
150,473	-25,377	-0,242	-0,099
151,487	476,658	-0,161	-0,255
152,502	330,376	-0,202	-0,272
153,516	93,007	-0,337	-0,266
154,531	212,972	-0,318	-0,352
155,546	199,581	-0,262	-0,281
156,560	74,649	-0,145	-0,107
157,575	-53,625	-0,228	-0,072
158,589	-120,221	-0,267	-0,031
159,604	-6,717	-0,271	-0,128
160,619	52,246	-0,131	-0,087
161,633	88,847	-0,370	-0,288
162,648	138,773	-0,332	-0,304
163,662	28,521	-0,270	-0,159
164,677	-101,449	-0,158	0,027
165,692	2,957	-0,285	-0,144
166,706	13,222	-0,255	-0,137
167,721	140,220	-0,136	-0,125
168,735	37,088	-0,155	-0,096
169,750	87,462	-0,227	-0,176
170,764	265,231	-0,150	-0,182
171,779	179,128	-0,135	-0,138
172,794	-17,943	-0,265	-0,116
173,808	-27,649	-0,239	-0,097
174,823	249,009	-0,189	-0,224
175,837	443,286	-0,269	-0,413
176,852	173,659	-0,155	-0,157
177,867	98,136	-0,256	-0,205
178,881	-43,706	-0,216	-0,076
179,896	252,083	-0,134	-0,160
180,910	-80,327	-0,297	-0,069
181,925	85,811	-0,320	-0,245
182,940	181,811	-0,270	-0,278
183,954	159,936	-0,218	-0,212
184,969	-103,449	-0,340	-0,055
185,983	-88,320	-0,216	-0,045
186,998	175,525	-0,192	-0,194
188,013	-31,528	-0,237	-0,092
189,027	60,700	-0,255	-0,176
190,042	29,339	-0,317	-0,187
191,056	-55,089	-0,265	-0,083
192,071	-82,673	-0,284	-0,064
193,086	76,282	-0,183	-0,135
194,100	8,413	-0,142	-0,074
195,115	240,208	-0,072	-0,083
196,129	82,217	-0,162	-0,122
197,144	59,512	-0,247	-0,169
198,159	405,382	-0,186	-0,274
199,173	210,778	-0,215	-0,235
200,188	-45,226	-0,190	-0,065
201,202	-54,134	-0,261	-0,082
202,217	92,903	-0,148	-0,116
203,232	800,000	-0,140	-0,276
204,246	-118,153	-0,239	-0,029
205,261	7,322	-0,223	-0,116
206,275	122,059	-0,155	-0,135
207,290	-93,239	-0,180	-0,035
208,304	800,000	-0,116	-0,278
209,319	7,238	-0,284	-0,147
210,334	-41,916	-0,316	-0,112
211,348	334,073	-0,113	-0,152
212,363	306,433	-0,122	-0,158
213,377	-93,241	-0,293	-0,056
214,392	-114,305	-0,118	0,016
215,407	-5,739	-0,162	-0,077
216,421	137,288	-0,103	-0,094
217,436	719,086	-0,138	-0,256
218,450	7,223	-0,163	-0,084
219,465	27,992	-0,317	-0,185
220,480	21,037	-0,292	-0,164
221,494	-200,000	-0,035	-0,148
222,509	800,000	-0,097	-0,208
223,523	-4,001	-0,236	-0,113
224,538	5,225	-0,282	-0,144
225,553	54,563	-0,169	-0,113
226,567	291,984	-0,228	-0,290
227,582	392,606	-0,169	-0,245
228,596	368,629	-0,179	-0,252
229,611	800,000	-0,048	-0,101
230,626	156,596	-0,120	-0,115
231,640	72,119	-0,154	-0,111
232,655	62,624	-0,225	-0,156
233,669	319,883	-0,152	-0,200
234,684	185,797	-0,122	-0,126
235,699	-200,000	-0,046	-0,199
236,713	723,312	-0,087	-0,161
237,728	800,000	-0,058	-0,136
238,742	391,248	-0,139	-0,201
239,757	155,973	-0,242	-0,231
240,772	352,218	-0,263	-0,363
241,786	60,863	-0,174	-0,120
242,801	-1,351	-0,193	-0,094
243,815	800,000	-0,103	-0,211
244,830	106,550	-0,173	-0,143
245,844	33,898	-0,231	-0,139
246,859	262,634	-0,200	-0,242
247,874	28,937	-0,296	-0,174
248,888	-139,110	-0,236	0,017
249,903	-170,843	-0,237	-0,006
250,917	70,490	-0,118	-0,084
251,932	3,618	-0,246	-0,124
252,947	191,128	-0,081	-0,085
253,961	800,000	-0,060	-0,175
254,976	471,859	-0,129	-0,201
255,990	108,210	-0,195	-0,161
257,005	572,394	-0,087	-0,147
258,020	-132,309	-0,179	-0,016
259,034	-129,008	-0,158	-0,015
260,049	51,390	-0,120	-0,079
261,063	-137,147	-0,163	-0,013
262,078	212,342	-0,188	-0,205
263,093	-200,000	-0,096	-0,294
264,107	14,347	-0,193	-0,104
265,122	800,000	-0,025	-0,066
266,136	-137,899	-0,290	-0,022
267,151	47,227	-0,188	-0,121
268,166	220,628	-0,170	-0,190
269,180	-200,000	-0,024	-0,132
270,195	183,263	-0,158	-0,162
271,209	-97,535	-0,168	-0,030
272,224	-200,000	-0,052	-0,175
273,239	46,269	-0,151	-0,097
274,253	-200,000	-0,018	-0,145
275,268	88,429	-0,177	-0,136
276,282	800,000	-0,099	-0,193
277,297	-57,549	-0,227	-0,068
278,312	65,477	-0,236	-0,165
279,326	72,562	-0,225	-0,162
280,341	188,287	-0,134	-0,139
281,355	-2,861	-0,121	0,058
282,370	259,989	-0,081	-0,097
283,384	721,282	-0,104	-0,192
284,399	67,906	-0,199	-0,140
285,414	-48,216	-0,173	-0,057
286,428	-38,163	-0,212	-0,077
287,443	-84,782	-0,100	0,022
288,457	-85,201	-0,032	0,007
289,472	117,137	-0,171	-0,145
290,487	385,598	-0,066	-0,095
291,501	782,443	-0,117	-0,222
292,516	1,620	-0,229	-0,113
293,530	-132,250	-0,243	-0,021
294,545	450,973	-0,073	-0,112
295,560	-165,683	-0,224	-0,007
296,574	130,880	-0,216	-0,191
297,589	152,831	-0,076	-0,072
298,603	109,921	-0,109	-0,090
299,618	-100,581	-0,063	-0,011
300,633	-200,000	-0,052	-0,252
301,647	61,002	-0,199	-0,136
302,662	13,531	-0,220	-0,117
303,676	223,650	-0,095	0,106
304,691	-26,291	-0,098	-0,040
305,706	-15,726	-0,142	-0,062
306,720	3,472	-0,234	-0,117
307,735	62,368	-0,111	-0,076
308,749	149,053	-0,130	-0,121
309,764	-98,515	-0,144	0,025
310,779	-12,711	-0,107	-0,048
311,793	-14,531	-0,174	-0,077
312,808	375,997	-0,104	-0,147
313,822	157,065	-0,179	-0,171
314,837	397,129	-0,148	-0,214
315,852	-115,444	-0,125	-0,016
316,866	334,559	-0,125	-0,168
317,881	-140,311	-0,245	-0,017
318,895	-38,878	-0,258	-0,093
319,910	271,871	-0,113	-0,137
320,925	22,128	-0,226	-0,127
321,939	-104,765	-0,109	-0,017
322,954	1,801	-0,090	-0,045
323,968	-31,181	-0,117	-0,045
324,983	-118,776	-0,126	-0,015
325,997	41,873	-0,190	-0,119
327,012	622,582	-0,084	-0,146
328,027	708,252	-0,158	-0,289
329,041	-148,697	-0,200	-0,011
330,056	252,563	-0,122	-0,144
331,070	579,845	-0,074	-0,125
332,085	-118,946	-0,242	-0,029
333,100	-127,565	-0,150	0,015
334,114	41,805	-0,141	-0,088
335,129	130,794	-0,195	-0,172
336,143	102,997	-0,236	-0,190
337,158	-11,150	-0,132	-0,060
338,173	699,009	-0,083	-0,150
339,187	656,617	-0,082	-0,146
340,202	-146,439	-0,080	-0,005
341,216	-76,557	-0,155	-0,037
342,231	625,541	-0,126	-0,219
343,246	166,245	-0,212	-0,207
344,260	-70,939	-0,071	0,018
345,275	-165,993	-0,199	0,006
346,289	-177,774	-0,095	0,002
347,304	-14,581	-0,038	-0,017
348,319	-200,000	0,027	-0,117
349,333	388,726	-0,118	-0,168
350,348	164,565	-0,092	-0,089
351,362	-101,320	-0,194	-0,032
352,377	269,142	-0,117	-0,141
353,392	-68,322	-0,192	-0,051
354,406	150,868	-0,193	-0,181
355,421	208,572	1311,986	1411,048
356,435	160,487	1472,403	1411,547
