DTS Sentinel unit serial number:	SN410029Multiplexer serial number:	ORYXHardware model number:	OX2-SRSoftware version number:	ORYX F/W v4,00 Oryx Data Collector v3.7.2.0data status	okinstallation	B3 Nyhavnadifferential loss correction	single-endedforward channel	channel 1reverse channel	N/Adate	2023/12/03time	18:47:30forward acquisition time	300,00reverse acquisition time	0,00gamma	499,1914k internal	0,3198k external	0,3198temperature offset calibration	1,0000default loss term (dB/km)	0,3820temperature slope calibration	1,0000multiplexer offset coefficient	1,0000multiplexer slope coefficient	1,0000fibre end	0,00T internal ref (°C)	14,47T ext. ref 1 (°C)	-0,87T ext. ref 2 (°C)	-0,90length (m)	temperature (°C)	Stokes	anti-Stokes-744,400	161,293	-0,226	-0,230
-743,385	-200,000	0,033	0,171
-742,371	-11,132	-0,290	-0,138
-741,356	395,784	0,138	0,210
-740,342	81,200	-0,182	-0,143
-739,327	800,000	0,061	0,193
-738,312	405,288	-0,182	-0,280
-737,298	-200,000	-0,016	0,136
-736,283	230,461	-0,266	-0,317
-735,269	-200,000	0,066	0,269
-734,254	126,505	-0,224	-0,206
-733,239	50,422	-0,110	0,076
-732,225	-168,676	-0,099	0,003
-731,210	-200,000	0,031	0,165
-730,196	-200,000	-0,000	0,010
-729,181	-200,000	0,026	-0,119
-728,167	-82,474	0,085	-0,020
-727,152	-22,157	-0,122	-0,054
-726,137	568,158	-0,042	0,074
-725,123	122,221	-0,049	-0,045
-724,108	789,104	-0,090	-0,181
-723,094	-48,276	-0,156	-0,054
-722,079	5,805	0,040	-0,022
-721,064	152,075	0,116	-0,115
-720,050	800,000	0,028	-0,066
-719,035	133,869	-0,155	0,146
-718,021	50,679	-0,019	0,013
-717,006	-200,000	0,023	-0,113
-715,991	129,161	-0,184	-0,171
-714,977	800,000	0,035	-0,104
-713,962	-81,920	-0,045	0,011
-712,948	-200,000	0,004	0,046
-711,933	-111,058	-0,193	-0,028
-710,918	41,561	0,110	-0,072
-709,904	291,085	-0,089	0,118
-708,889	133,620	-0,154	-0,145
-707,875	-46,356	-0,122	-0,043
-706,860	-200,000	0,010	-0,062
-705,845	-78,774	0,107	-0,026
-704,831	-200,000	0,024	0,188
-703,816	-200,000	-0,023	0,170
-702,802	104,699	-0,017	0,015
-701,787	74,623	0,110	-0,084
-700,772	185,038	0,034	-0,037
-699,758	797,672	0,047	0,095
-698,743	-61,210	0,146	0,044
-697,729	69,841	0,031	-0,023
-696,714	167,906	0,080	0,083
-695,699	-11,717	0,112	0,053
-694,685	63,770	0,088	-0,064
-693,670	-68,482	0,072	0,020
-692,656	-200,000	0,002	-0,064
-691,641	-102,364	0,070	-0,012
-690,627	182,946	0,018	0,020
-689,612	-200,000	-0,024	-0,141
-688,597	17,358	0,081	-0,046
-687,583	800,000	0,044	-0,126
-686,568	-120,540	-0,066	0,008
-685,554	-200,000	-0,013	-0,093
-684,539	-200,000	0,021	-0,085
-683,524	-200,000	-0,015	0,179
-682,510	-200,000	0,157	0,000
-681,495	-54,232	-0,248	-0,081
-680,481	-174,891	-0,078	-0,002
-679,466	198,027	-0,079	-0,087
-678,451	-200,000	0,009	-0,074
-677,437	242,520	0,097	-0,118
-676,422	-66,238	-0,134	-0,038
-675,408	-125,204	-0,215	-0,024
-674,393	800,000	0,020	-0,062
-673,378	6,865	-0,097	-0,052
-672,364	800,000	-0,031	-0,095
-671,349	-127,810	-0,053	-0,006
-670,335	-161,625	-0,091	0,003
-669,320	-105,899	-0,117	-0,019
-668,305	-200,000	0,017	0,118
-667,291	12,442	0,019	-0,010
-666,276	170,257	-0,234	-0,243
-665,262	-5,550	-0,149	-0,074
-664,247	592,013	-0,008	-0,014
-663,232	82,814	-0,053	-0,042
-662,218	147,289	0,080	-0,078
-661,203	800,000	-0,015	0,034
-660,189	-17,408	0,090	-0,041
-659,174	800,000	-0,030	0,062
-658,159	246,056	0,052	-0,063
-657,145	12,484	0,054	-0,030
-656,130	-200,000	-0,004	0,121
-655,116	184,340	-0,040	0,043
-654,101	-56,927	0,099	-0,031
-653,086	-200,000	-0,019	0,126
-652,072	-200,000	-0,003	0,101
-651,057	-84,666	0,048	0,011
-650,043	96,868	-0,101	-0,084
-649,028	800,000	0,053	-0,121
-648,014	-34,380	0,072	0,029
-646,999	-5,246	-0,011	-0,006
-645,984	-35,703	-0,068	0,027
-644,970	54,518	-0,041	-0,029
-643,955	-200,000	-0,039	-0,133
-642,941	-14,655	0,071	-0,033
-641,926	219,502	-0,142	-0,165
-640,911	204,408	-0,086	0,097
-639,897	-12,183	-0,035	0,016
-638,882	68,105	0,136	0,101
-637,868	44,536	0,047	-0,031
-636,853	521,457	-0,095	-0,163
-635,838	-69,519	0,037	0,010
-634,824	52,745	-0,107	0,074
-633,809	725,123	0,051	0,098
-632,795	-200,000	0,026	-0,123
-631,780	126,936	0,033	0,030
-630,765	-200,000	-0,038	-0,121
-629,751	-0,028	0,032	-0,017
-628,736	375,831	-0,024	-0,035
-627,722	-200,000	-0,008	0,064
-626,707	-123,719	-0,073	-0,008
-625,692	-30,169	-0,024	0,010
-624,678	127,314	0,203	-0,187
-623,663	-200,000	-0,002	-0,037
-622,649	800,000	-0,044	-0,102
-621,634	122,691	-0,021	-0,019
-620,619	800,000	-0,043	-0,093
-619,605	-87,074	-0,036	-0,008
-618,590	91,535	0,038	0,031
-617,576	-101,738	0,072	0,012
-616,561	-15,377	0,087	-0,040
-615,546	107,814	-0,129	0,111
-614,532	130,769	-0,052	-0,048
-613,517	-6,460	-0,143	-0,070
-612,503	800,000	0,038	-0,102
-611,488	-200,000	-0,011	0,102
-610,474	-135,625	0,126	-0,011
-609,459	-39,637	0,018	0,007
-608,444	-19,178	-0,039	0,017
-607,430	-200,000	-0,001	-0,112
-606,415	302,942	-0,106	-0,143
-605,401	290,239	-0,065	0,086
-604,386	-5,037	0,062	-0,031
-603,371	-200,000	-0,009	-0,069
-602,357	283,531	-0,040	0,053
-601,342	185,879	-0,103	0,111
-600,328	-200,000	-0,025	-0,112
-599,313	31,944	-0,048	-0,030
-598,298	98,319	0,081	-0,068
-597,284	-49,180	0,033	0,011
-596,269	80,237	-0,105	-0,082
-595,255	800,000	-0,013	0,033
-594,240	740,525	-0,032	0,063
-593,225	594,491	-0,067	0,120
-592,211	-177,197	-0,104	0,002
-591,196	-200,000	-0,011	0,069
-590,182	74,213	-0,049	0,037
-589,167	2,205	0,127	0,066
-588,152	-200,000	-0,029	0,124
-587,138	-0,419	0,117	-0,060
-586,123	-200,000	-0,019	-0,097
-585,109	308,306	-0,070	-0,094
-584,094	-112,106	-0,001	0,000
-583,079	800,000	0,027	0,056
-582,065	-199,718	-0,208	0,001
-581,050	365,307	-0,036	0,052
-580,036	-54,469	-0,078	0,025
-579,021	-200,000	-0,047	-0,174
-578,006	-200,000	-0,014	0,074
-576,992	-75,780	-0,169	-0,043
-575,977	763,622	-0,059	-0,116
-574,963	26,712	-0,021	-0,013
-573,948	597,474	0,054	-0,098
-572,934	93,064	-0,095	0,078
-571,919	305,801	-0,127	-0,171
-570,904	36,282	-0,042	-0,027
-569,890	65,397	-0,029	0,021
-568,875	37,238	-0,055	-0,035
-567,861	-112,519	0,111	-0,016
-566,846	56,097	-0,078	0,055
-565,831	-139,312	0,022	0,002
-564,817	715,159	-0,012	-0,024
-563,802	-20,918	0,103	-0,046
-562,788	-171,166	-0,048	0,001
-561,773	-188,227	-0,071	0,001
-560,758	-45,883	0,103	0,037
-559,744	-61,863	0,127	-0,038
-558,729	-29,441	-0,085	0,035
-557,715	-42,175	-0,057	-0,021
-556,700	-97,683	-0,118	-0,022
-555,685	10,589	-0,074	-0,041
-554,671	335,584	0,027	0,038
-553,656	66,906	0,059	0,044
-552,642	-49,676	0,043	-0,015
-551,627	-18,893	0,063	-0,028
-550,612	800,000	0,019	0,047
-549,598	-200,000	-0,108	0,000
-548,583	469,800	0,080	0,131
-547,569	130,584	-0,063	-0,058
-546,554	-172,455	-0,045	-0,001
-545,539	800,000	0,014	-0,042
-544,525	-200,000	0,048	-0,165
-543,510	646,440	0,063	-0,116
-542,496	-200,000	-0,001	-0,060
-541,481	-200,000	-0,025	-0,172
-540,466	-200,000	-0,014	-0,069
-539,452	97,206	0,015	0,013
-538,437	65,317	0,086	0,062
-537,423	506,288	-0,114	-0,192
-536,408	800,000	0,050	0,134
-535,393	-10,206	-0,124	-0,059
-534,379	90,815	-0,188	-0,152
-533,364	144,564	0,077	-0,074
-532,350	48,712	0,068	0,046
-531,335	150,837	-0,055	0,054
-530,321	291,758	0,073	0,096
-529,306	-47,111	-0,059	-0,021
-528,291	42,287	-0,157	-0,103
-527,277	800,000	-0,048	-0,124
-526,262	800,000	0,037	0,087
-525,248	-200,000	0,022	-0,079
-524,233	-144,338	0,099	-0,007
-523,218	-200,000	-0,037	-0,176
-522,204	-30,919	0,070	0,029
-521,189	-116,653	-0,050	-0,007
-520,175	800,000	-0,014	-0,037
-519,160	260,923	0,027	-0,033
-518,145	-107,730	0,134	0,021
-517,131	186,917	-0,052	0,056
-516,116	800,000	0,035	0,104
-515,102	492,806	0,087	0,145
-514,087	293,153	-0,027	-0,035
-513,072	-200,000	-0,009	0,104
-512,058	800,000	-0,022	0,062
-511,043	-71,710	0,010	-0,003
-510,029	31,617	0,083	0,052
-509,014	165,356	-0,016	0,016
-507,999	570,515	0,065	0,114
-506,985	57,037	-0,098	0,069
-505,970	-67,939	0,052	-0,015
-504,956	800,000	-0,012	0,034
-503,941	-200,000	-0,013	-0,137
-502,926	-22,338	0,021	-0,009
-501,912	-200,000	-0,012	0,079
-500,897	800,000	-0,024	0,075
-499,883	-186,046	0,056	-0,001
-498,868	132,620	0,084	-0,078
-497,853	174,129	0,049	-0,051
-496,839	-82,717	0,098	0,023
-495,824	-15,906	-0,039	-0,018
-494,810	-200,000	0,005	-0,023
-493,795	0,867	0,070	0,036
-492,781	168,077	0,084	0,086
-491,766	-178,812	-0,031	0,000
-490,751	8,314	-0,108	-0,058
-489,737	108,132	-0,049	0,042
-488,722	-66,138	0,110	0,031
-487,708	-169,738	0,100	0,003
-486,693	-200,000	0,007	-0,107
-485,678	-155,119	0,060	0,003
-484,664	292,985	0,068	-0,089
-483,649	800,000	-0,072	-0,181
-482,635	-200,000	0,015	-0,085
-481,620	179,874	0,040	-0,043
-480,605	800,000	0,024	0,073
-479,591	-97,864	0,049	-0,009
-478,576	-75,452	0,043	-0,011
-477,562	-46,628	-0,034	0,012
-476,547	800,000	-0,007	0,016
-475,532	582,945	-0,049	-0,087
-474,518	525,818	-0,053	-0,090
-473,503	273,710	-0,021	0,027
-472,489	150,851	-0,081	0,079
-471,474	-120,908	0,117	0,014
-470,459	-4,529	-0,087	-0,043
-469,445	-70,000	-0,057	0,016
-468,430	100,531	0,036	-0,030
-467,416	-200,000	0,001	0,060
-466,401	-200,000	0,008	0,077
-465,386	-200,000	-0,024	0,105
-464,372	-200,000	-0,003	0,044
-463,357	88,484	-0,076	-0,061
-462,343	136,382	0,025	0,024
-461,328	800,000	-0,043	0,115
-460,313	-200,000	0,013	-0,044
-459,299	-200,000	-0,011	-0,118
-458,284	-44,334	-0,148	0,053
-457,270	353,362	-0,086	0,124
-456,255	-19,367	-0,052	-0,023
-455,241	-200,000	0,007	0,072
-454,226	435,272	-0,087	-0,136
-453,211	16,397	0,040	0,023
-452,197	777,655	0,019	0,038
-451,182	-88,582	-0,052	-0,011
-450,168	-0,697	-0,065	-0,033
-449,153	122,737	0,093	-0,084
-448,138	-200,000	-0,032	-0,138
-447,124	55,207	-0,048	-0,033
-446,109	-97,192	-0,085	-0,016
-445,095	147,783	-0,067	0,065
-444,080	84,558	0,021	-0,016
-443,065	-133,596	0,117	-0,010
-442,051	800,000	-0,039	-0,100
-441,036	800,000	-0,057	-0,179
-440,022	598,941	0,053	-0,096
-439,007	-200,000	0,024	-0,085
-437,992	-200,000	0,018	0,196
-436,978	6,819	0,121	0,065
-435,963	177,659	-0,030	0,032
-434,949	-200,000	-0,010	0,034
-433,934	454,652	-0,088	-0,141
-432,919	800,000	-0,018	0,038
-431,905	-17,051	0,040	0,018
-430,890	-200,000	0,012	-0,093
-429,876	626,002	0,035	0,065
-428,861	-82,336	-0,073	-0,017
-427,846	255,844	0,037	-0,046
-426,832	-57,294	-0,044	0,014
-425,817	-200,000	0,001	-0,128
-424,803	316,897	-0,058	0,079
-423,788	-200,000	-0,002	0,071
-422,773	800,000	0,055	0,154
-421,759	800,000	-0,020	0,040
-420,744	185,766	-0,087	0,093
-419,730	185,793	0,065	-0,070
-418,715	-63,749	-0,038	-0,011
-417,701	-108,944	-0,043	0,007
-416,686	34,048	0,059	0,037
-415,671	-136,631	-0,066	-0,005
-414,657	131,063	0,148	-0,137
-413,642	275,961	0,090	-0,115
-412,628	197,687	0,087	0,095
-411,613	-200,000	0,003	0,045
-410,598	800,000	0,030	-0,085
-409,584	-200,000	-0,003	-0,060
-408,569	-119,333	0,210	-0,026
-407,555	172,878	0,075	0,077
-406,540	54,465	0,114	-0,079
-405,525	36,266	0,142	-0,090
-404,511	-200,000	0,022	-0,081
-403,496	-200,000	0,026	-0,139
-402,482	-61,056	-0,094	-0,028
-401,467	189,343	0,096	0,103
-400,452	-23,587	-0,088	-0,038
-399,438	-200,000	-0,005	0,025
-398,423	-140,191	-0,053	-0,004
-397,409	-200,000	-0,001	-0,124
-396,394	11,905	-0,072	-0,039
-395,379	-200,000	0,027	0,158
-394,365	154,385	0,083	0,082
-393,350	-200,000	0,007	0,054
-392,336	209,605	0,066	-0,074
-391,321	3,419	0,043	-0,023
-390,306	348,767	0,024	-0,034
-389,292	-152,311	-0,098	-0,005
-388,277	552,067	0,092	0,159
-387,263	-68,926	0,055	0,015
-386,248	167,859	0,067	0,068
-385,233	800,000	-0,049	0,124
-384,219	-83,959	-0,193	0,044
-383,204	-22,647	-0,099	-0,043
-382,190	800,000	0,054	-0,122
-381,175	-200,000	-0,003	-0,021
-380,160	108,673	-0,033	-0,028
-379,146	-200,000	-0,008	0,033
-378,131	-87,722	0,077	0,016
-377,117	-200,000	-0,012	0,071
-376,102	800,000	0,029	-0,062
-375,088	452,698	0,010	0,015
-374,073	-200,000	-0,027	0,183
-373,058	-200,000	-0,001	-0,023
-372,044	255,745	0,058	0,071
-371,029	-200,000	-0,011	0,149
-370,015	-51,019	0,020	0,007
-369,000	112,535	0,068	-0,059
-367,985	-200,000	-0,015	-0,177
-366,971	-200,000	0,003	-0,097
-365,956	400,808	0,094	-0,142
-364,942	800,000	0,039	-0,109
-363,927	-50,299	-0,078	-0,026
-362,912	104,250	-0,086	0,073
-361,898	233,591	-0,038	0,045
-360,883	-123,078	-0,026	0,003
-359,869	-126,131	0,151	0,016
-358,854	-105,814	0,045	0,007
-357,839	327,668	-0,022	0,031
-356,825	-200,000	-0,010	0,090
-355,810	-68,439	-0,147	0,041
-354,796	800,000	-0,023	-0,073
-353,781	800,000	-0,021	-0,056
-352,766	-37,974	0,040	0,015
-351,752	-64,252	0,105	0,031
-350,737	150,703	0,134	0,130
-349,723	-118,177	-0,053	0,007
-348,708	-200,000	-0,008	0,124
-347,693	-200,000	0,022	0,074
-346,679	-12,711	-0,132	0,061
-345,664	2,438	-0,044	-0,023
-344,650	-200,000	0,033	0,112
-343,635	95,986	-0,086	-0,070
-342,620	105,073	-0,123	0,104
-341,606	82,248	-0,028	0,022
-340,591	-42,141	-0,160	-0,058
-339,577	-110,253	-0,177	0,026
-338,562	-200,000	-0,003	0,016
-337,548	-93,316	0,076	-0,015
-336,533	-111,150	-0,100	-0,014
-335,518	43,923	0,041	-0,027
-334,504	-41,486	0,055	-0,020
-333,489	-200,000	0,001	0,057
-332,475	-131,141	-0,101	-0,010
-331,460	596,549	0,021	-0,038
-330,445	-62,147	0,135	-0,040
-329,431	173,163	-0,096	0,099
-328,416	-200,000	-0,022	0,079
-327,402	-37,104	-0,069	0,026
-326,387	-49,508	-0,160	-0,054
-325,372	-43,156	0,126	-0,045
-324,358	800,000	0,054	-0,111
-323,343	-85,308	-0,122	0,027
-322,329	450,986	0,028	0,045
-321,314	362,745	0,023	0,034
-320,299	-39,589	-0,177	-0,066
-319,285	255,565	0,032	-0,039
-318,270	-77,227	0,078	0,019
-317,256	-36,535	-0,022	0,008
-316,241	175,506	0,022	-0,023
-315,226	485,327	-0,055	0,090
-314,212	-18,068	0,054	0,024
-313,197	-186,072	0,226	-0,002
-312,183	800,000	0,024	-0,054
-311,168	-200,000	-0,002	-0,019
-310,153	800,000	-0,069	-0,149
-309,139	800,000	-0,046	-0,121
-308,124	-38,601	-0,118	0,044
-307,110	-200,000	0,005	-0,103
-306,095	-125,995	0,115	0,012
-305,080	-187,282	0,156	0,001
-304,066	-115,093	0,092	-0,012
-303,051	-182,225	-0,127	-0,002
-302,037	-200,000	0,014	0,076
-301,022	-200,000	-0,031	0,142
-300,008	800,000	0,044	0,136
-298,993	3,949	0,085	-0,044
-297,978	800,000	-0,077	0,183
-296,964	550,357	-0,011	-0,018
-295,949	80,689	0,056	0,043
-294,935	-9,814	-0,098	-0,046
-293,920	-200,000	0,015	0,062
-292,905	84,233	0,071	-0,055
-291,891	-21,876	0,087	0,038
-290,876	-198,513	0,045	0,000
-289,862	23,230	0,071	0,041
-288,847	800,000	-0,099	-0,232
-287,832	30,009	-0,160	0,098
-286,818	-50,371	-0,099	0,033
-285,803	306,021	0,044	-0,058
-284,789	505,372	0,024	0,040
-283,774	148,641	0,088	0,085
-282,759	52,517	-0,083	-0,056
-281,745	-30,734	-0,064	-0,026
-280,730	800,000	-0,036	-0,094
-279,716	-78,806	-0,031	-0,008
-278,701	717,983	-0,022	0,043
-277,686	190,024	0,116	0,125
-276,672	263,527	0,027	-0,034
-275,657	596,037	-0,019	0,034
-274,643	228,813	-0,064	0,074
-273,628	225,064	-0,061	0,071
-272,613	125,867	0,119	0,107
-271,599	12,832	0,183	0,101
-270,584	263,070	0,117	0,145
-269,570	524,943	0,037	0,063
-268,555	800,000	0,022	0,057
-267,540	-200,000	0,013	0,063
-266,526	5,181	-0,063	-0,033
-265,511	800,000	0,017	-0,044
-264,497	451,973	0,055	0,087
-263,482	-34,823	0,095	0,037
-262,467	35,380	0,041	0,025
-261,453	-200,000	0,018	0,070
-260,438	177,884	0,049	-0,051
-259,424	-68,461	-0,121	-0,033
-258,409	-15,020	-0,079	-0,036
-257,395	-200,000	-0,006	-0,118
-256,380	-200,000	0,000	0,019
-255,365	-200,000	-0,012	0,138
-254,351	800,000	0,036	-0,088
-253,336	55,587	0,073	0,050
-252,322	98,134	-0,040	-0,033
-251,307	4,173	0,032	0,017
-250,292	6,830	-0,133	0,071
-249,278	-52,935	-0,041	-0,013
-248,263	405,774	0,026	-0,039
-247,249	-56,746	0,040	0,013
-246,234	-105,124	0,024	-0,004
-245,219	-200,000	-0,012	-0,052
-244,205	756,753	0,110	-0,214
-243,190	558,798	0,052	0,090
-242,176	-91,038	-0,066	-0,013
-241,161	93,069	0,032	-0,026
-240,146	-45,365	0,128	-0,045
-239,132	-33,584	0,043	-0,017
-238,117	406,026	0,070	-0,106
-237,103	-168,211	-0,059	0,002
-236,088	-23,395	0,097	0,041
-235,073	261,768	0,075	0,093
-234,059	519,851	-0,039	0,066
-233,044	-94,823	0,155	-0,030
-232,030	25,577	-0,091	-0,054
-231,015	180,935	0,028	0,029
-230,000	-200,000	0,000	-0,029
-228,986	-200,000	-0,026	-0,130
-227,971	-64,708	-0,047	0,013
-226,957	-200,000	0,006	0,135
-225,942	-30,824	0,073	0,029
-224,927	201,096	0,098	0,107
-223,913	27,320	0,035	0,021
-222,898	-44,446	-0,099	-0,035
-221,884	-82,746	-0,070	-0,016
-220,869	-200,000	0,006	-0,039
-219,855	-96,155	0,140	0,026
-218,840	539,479	0,078	-0,133
-217,825	800,000	0,019	-0,042
-216,811	-73,649	-0,115	0,030
-215,796	55,455	0,046	-0,032
-214,782	-200,000	0,003	0,021
-213,767	229,294	0,056	0,065
-212,752	-67,145	0,081	0,023
-211,738	565,924	0,066	0,115
-210,723	-3,535	0,138	-0,068
-209,709	339,408	0,078	0,108
-208,694	-101,222	-0,049	0,009
-207,679	203,140	-0,042	-0,047
-206,665	-200,000	-0,006	0,159
-205,650	-200,000	-0,023	0,175
-204,636	800,000	0,047	0,127
-203,621	-121,389	-0,125	-0,015
-202,606	800,000	-0,047	0,126
-201,592	-200,000	-0,021	-0,123
-200,577	40,930	-0,142	0,091
-199,563	-200,000	0,002	0,096
-198,548	-200,000	0,017	0,141
-197,533	283,348	0,071	0,091
-196,519	-49,427	0,154	-0,052
-195,504	5,217	-0,039	-0,020
-194,490	158,883	-0,036	0,035
-193,475	732,241	-0,041	-0,079
-192,460	424,479	-0,041	0,063
-191,446	50,958	-0,034	0,023
-190,431	-200,000	-0,024	0,134
-189,417	469,132	0,041	0,066
-188,402	-172,544	-0,142	0,003
-187,387	14,072	0,075	-0,041
-186,373	601,109	0,016	0,029
-185,358	-200,000	-0,001	-0,046
-184,344	-163,935	0,146	-0,005
-183,329	19,444	0,061	-0,035
-182,315	-200,000	0,017	0,126
-181,300	467,496	-0,040	-0,064
-180,285	-82,288	0,156	-0,036
-179,271	13,686	-0,133	-0,073
-178,256	800,000	0,037	-0,079
-177,242	-110,293	0,152	0,022
-176,227	800,000	0,026	-0,054
-175,212	-68,169	-0,070	0,019
-174,198	-200,000	-0,027	0,108
-173,183	800,000	-0,029	-0,063
-172,169	800,000	0,062	-0,130
-171,154	66,877	0,076	0,055
-170,139	250,662	0,089	0,108
-169,125	157,914	0,046	0,045
-168,110	582,511	-0,067	0,118
-167,096	391,849	-0,037	0,055
-166,081	70,902	0,075	-0,055
-165,066	-77,436	-0,058	0,014
-164,052	90,893	0,025	0,020
-163,037	-72,321	-0,032	-0,008
-162,023	-200,000	-0,042	0,179
-161,008	-29,753	0,162	-0,066
-159,993	157,209	0,052	0,051
-158,979	-112,118	-0,096	-0,014
-157,964	-15,657	0,039	0,017
-156,950	-30,385	-0,128	-0,052
-155,935	-40,122	-0,019	-0,007
-154,920	800,000	0,048	-0,104
-153,906	209,476	-0,077	0,086
-152,891	-12,395	-0,143	0,066
-151,877	-200,000	-0,019	-0,071
-150,862	800,000	-0,023	-0,066
-149,847	800,000	-0,042	-0,090
-148,833	-200,000	0,001	-0,027
-147,818	193,907	0,047	0,050
-146,804	800,000	0,075	0,161
-145,789	-200,000	0,024	0,115
-144,775	-26,188	-0,037	0,015
-143,760	216,264	0,025	-0,029
-142,745	-200,000	0,017	-0,084
-141,731	-200,000	-0,025	-0,084
-140,716	800,000	0,025	-0,050
-139,702	203,161	0,014	0,015
-138,687	-200,000	-0,028	-0,123
-137,672	385,888	-0,019	0,028
-136,658	800,000	-0,030	0,080
-135,643	344,914	-0,081	-0,114
-134,629	800,000	-0,052	-0,137
-133,614	-200,000	-0,013	0,136
-132,599	68,734	-0,126	0,092
-131,585	207,597	0,054	-0,060
-130,570	69,161	-0,133	-0,097
-129,556	-164,704	-0,133	0,004
-128,541	260,299	-0,105	-0,129
-127,526	-103,920	0,151	-0,025
-126,512	18,146	0,033	-0,019
-125,497	-200,000	0,027	0,092
-124,483	800,000	-0,057	0,136
-123,468	-98,486	-0,199	0,036
-122,453	-95,868	-0,106	-0,020
-121,439	-200,000	0,007	0,052
-120,424	459,191	0,010	-0,015
-119,410	11,056	-0,084	-0,045
-118,395	276,513	0,116	0,147
-117,380	-200,000	0,026	0,104
-116,366	136,182	0,022	-0,020
-115,351	323,897	-0,061	-0,083
-114,337	28,117	-0,051	0,031
-113,322	-200,000	-0,027	0,143
-112,307	-127,989	0,068	0,007
-111,293	-200,000	0,002	-0,043
-110,278	-200,000	0,011	-0,055
-109,264	143,392	-0,062	0,059
-108,249	-29,490	0,068	0,027
-107,234	-77,278	-0,058	-0,014
-106,220	128,595	-0,061	-0,055
-105,205	800,000	0,050	-0,129
-104,191	-188,349	0,203	-0,002
-103,176	496,942	0,096	-0,158
-102,162	198,826	0,030	-0,032
-101,147	-29,904	0,010	0,004
-100,132	299,719	-0,071	0,094
-99,118	-200,000	-0,025	-0,200
-98,103	-200,000	0,004	0,143
-97,089	255,390	0,038	0,046
-96,074	360,228	0,120	-0,171
-95,059	505,815	-0,041	0,068
-94,045	-65,974	0,122	-0,034
-93,030	-200,000	0,004	-0,028
-92,016	-200,000	-0,014	-0,078
-91,001	800,000	0,030	-0,081
-89,986	800,000	-0,034	-0,102
-88,972	-200,000	0,117	0,000
-87,957	23,572	0,089	-0,052
-86,943	-20,594	0,028	-0,012
-85,928	654,412	-0,082	-0,150
-84,913	16,604	0,055	0,031
-83,899	800,000	-0,023	-0,050
-82,884	-106,127	0,144	0,023
-81,870	-200,000	0,028	-0,096
-80,855	-42,665	-0,009	-0,003
-79,840	-200,000	-0,003	0,010
-78,826	-200,000	-0,005	0,060
-77,811	-200,000	-0,021	-0,125
-76,797	40,456	0,037	-0,023
-75,782	-200,000	0,023	0,164
-74,767	-0,599	0,043	-0,022
-73,753	288,037	-0,076	0,097
-72,738	14,392	0,036	0,020
-71,724	4,165	-0,102	-0,053
-70,709	231,853	0,041	-0,047
-69,694	-200,000	-0,027	0,102
-68,680	795,471	-0,054	0,106
-67,665	92,529	0,140	0,112
-66,651	4,737	-0,187	0,097
-65,636	800,000	0,048	0,108
-64,622	222,598	-0,065	0,074
-63,607	-21,725	-0,101	-0,043
-62,592	-200,000	0,014	-0,159
-61,578	-200,000	0,022	-0,072
-60,563	-200,000	0,008	-0,046
-59,549	65,559	0,098	0,070
-58,534	-48,892	-1,698	-0,574
-57,519	444,060	-1,361	-2,123
-56,505	-200,000	-0,587	-4,516
-55,490	165,865	0,977	0,981
-54,476	800,000	4,639	11,088
-53,461	-200,000	18,565	298,384
-52,446	800,000	732,301	2262,537
-51,432	560,041	1648,757	2833,151
-50,417	78,827	1668,064	1263,484
-49,403	22,339	1541,320	890,197
-48,388	16,318	1464,420	816,545
-47,373	17,838	1454,199	818,148
-46,359	17,042	1444,591	808,895
-45,344	14,613	1439,829	794,575
-44,330	14,553	1437,757	793,116
-43,315	14,540	1436,047	792,080
-42,300	14,548	1434,395	791,175
-41,286	14,611	1433,510	790,952
-40,271	14,556	1432,130	789,898
-39,257	14,558	1430,777	789,130
-38,242	14,568	1429,633	788,517
-37,227	14,596	1428,422	787,952
-36,213	14,576	1427,120	787,106
-35,198	14,542	1425,720	786,142
-34,184	14,586	1424,993	785,918
-33,169	14,557	1423,488	784,921
-32,154	14,534	1422,653	784,320
-31,140	14,597	1421,136	783,751
-30,125	14,598	1420,247	783,234
-29,111	14,574	1418,993	782,399
-28,096	14,540	1417,860	781,582
-27,082	14,523	1416,869	780,922
-26,067	14,490	1415,870	780,185
-25,052	14,521	1414,759	779,690
-24,038	14,454	1413,724	778,775
-23,023	14,508	1412,594	778,373
-22,009	14,496	1411,718	777,804
-20,994	14,425	1410,961	777,024
-19,979	14,482	1410,019	776,740
-18,965	14,428	1408,860	775,818
-17,950	14,426	1408,059	775,335
-16,936	14,453	1407,050	774,875
-15,921	14,359	1406,113	773,889
-14,906	14,410	1405,064	773,521
-13,892	14,424	1404,184	773,073
-12,877	14,394	1403,302	772,416
-11,863	14,416	1402,276	771,921
-10,848	14,417	1401,524	771,484
-9,833	14,359	1400,611	770,680
-8,819	14,327	1399,851	770,082
-7,804	14,328	1398,735	769,443
-6,790	14,371	1397,514	768,939
-5,775	14,351	1396,599	768,310
-4,760	14,299	1395,742	767,567
-3,746	14,274	1395,171	767,109
-2,731	14,313	1394,113	766,679
-1,717	14,296	1393,189	766,062
-0,702	14,279	1391,560	765,055
0,313	18,091	1309,888	737,824
1,327	34,513	705,875	435,652
2,342	52,621	124,369	83,996
3,356	2,559	16,592	8,483
4,371	-0,015	3,179	1,598
5,386	-34,188	0,494	0,191
6,400	800,000	-0,062	0,126
7,415	-84,312	-0,258	-0,057
8,429	173,749	-0,274	-0,281
9,444	9,131	-0,217	-0,116
10,459	-143,833	-0,429	-0,028
11,473	78,554	-0,277	-0,209
12,488	-119,990	-0,306	-0,037
13,502	38,761	-0,187	-0,118
14,517	-32,313	-0,266	-0,104
15,531	-11,173	-0,273	-0,127
16,546	223,268	-0,325	-0,371
17,561	191,086	-0,355	-0,378
18,575	-105,240	-0,290	0,046
19,590	-8,327	-0,163	-0,077
20,604	-12,264	-0,259	-0,119
21,619	158,491	-0,389	-0,382
22,634	151,269	-0,424	-0,408
23,648	41,439	-0,298	-0,190
24,663	55,722	-0,448	-0,306
25,677	91,451	-0,375	-0,298
26,692	54,501	-0,359	-0,244
27,707	49,605	-0,376	-0,250
28,721	-1,355	-0,403	-0,200
29,736	187,286	-0,337	-0,355
30,750	131,919	-0,391	-0,356
31,765	120,231	-0,340	-0,298
32,780	-14,869	-0,376	-0,170
33,794	199,764	-0,321	-0,348
34,809	64,026	-0,408	-0,289
35,823	36,592	-0,330	-0,205
36,838	152,306	-0,349	-0,337
37,853	23,053	-0,411	-0,237
38,867	152,203	-0,259	-0,250
39,882	22,491	-0,381	-0,220
40,896	800,000	-0,138	-0,376
41,911	67,203	-0,349	-0,251
42,926	0,872	-0,302	-0,152
43,940	77,650	-0,434	-0,326
44,955	-64,629	-0,333	-0,095
45,969	91,970	-0,448	-0,355
46,984	-66,100	-0,376	-0,105
47,999	61,256	-0,328	-0,229
49,013	-49,995	-0,364	-0,121
50,028	42,139	-0,356	-0,228
51,042	50,417	-0,366	-0,244
52,057	288,078	-0,265	-0,338
53,071	150,512	-0,356	-0,341
54,086	76,020	-0,149	-0,111
55,101	109,161	-0,245	-0,207
56,115	197,604	-0,249	-0,268
57,130	-46,415	-0,368	-0,126
58,144	-6,925	-0,509	-0,243
59,159	24,562	-0,369	-0,214
60,174	281,366	-0,293	-0,371
61,188	21,738	-0,439	-0,251
62,203	87,020	-0,316	-0,246
63,217	44,100	-0,340	-0,219
64,232	188,721	-0,198	-0,209
65,247	-85,432	-0,490	-0,107
66,261	157,498	-0,316	-0,308
67,276	-31,964	-0,369	-0,145
68,290	-31,874	-0,518	-0,203
69,305	149,706	-0,247	-0,236
70,320	-111,997	-0,306	-0,043
71,334	45,010	-0,230	-0,149
72,349	154,417	-0,281	-0,271
73,363	132,634	-0,353	-0,321
74,378	64,768	-0,335	-0,238
75,393	-2,499	-0,310	-0,152
76,407	8,855	-0,387	-0,205
77,422	32,826	-0,282	-0,171
78,436	-83,412	-0,323	-0,072
79,451	-20,939	-0,309	-0,133
80,466	80,257	-0,325	-0,246
81,480	28,560	-0,436	-0,259
82,495	100,358	-0,205	-0,167
83,509	83,293	-0,262	-0,200
84,524	-4,708	-0,338	-0,163
85,539	208,763	-0,272	-0,300
86,553	-75,251	-0,380	-0,095
87,568	-36,356	-0,248	-0,094
88,582	156,458	-0,266	-0,258
89,597	-17,428	-0,316	-0,139
90,611	144,443	-0,196	-0,184
91,626	62,132	-0,319	-0,223
92,641	0,534	-0,237	-0,119
93,655	113,077	-0,187	-0,159
94,670	51,239	-0,301	-0,201
95,684	292,265	-0,224	-0,287
96,699	163,700	-0,243	-0,240
97,714	130,295	-0,244	-0,219
98,728	467,598	-0,132	-0,208
99,743	123,390	-0,182	-0,160
100,757	97,660	-0,337	-0,272
101,772	58,520	-0,377	-0,259
102,787	100,702	-0,282	-0,230
103,801	-24,103	-0,268	-0,112
104,816	91,023	-0,259	-0,204
105,830	-122,481	-0,275	-0,031
106,845	-87,387	-0,280	-0,059
107,860	111,020	-0,242	-0,204
108,874	129,630	-0,291	-0,261
109,889	3,979	-0,334	-0,171
110,903	224,552	-0,202	-0,230
111,918	104,694	-0,204	-0,169
112,933	145,640	-0,195	-0,184
113,947	41,486	-0,203	-0,128
114,962	300,181	-0,145	-0,189
115,976	325,950	-0,172	-0,232
116,991	166,369	-0,250	-0,249
118,006	145,069	-0,148	-0,139
119,020	163,851	-0,228	-0,225
120,035	29,373	-0,199	-0,118
121,049	-67,279	-0,384	-0,105
122,064	203,092	-0,234	-0,254
123,079	-1,845	-0,234	-0,115
124,093	448,250	-0,240	-0,372
125,108	20,609	-0,320	-0,181
126,122	126,096	-0,231	-0,204
127,137	800,000	-0,032	-0,073
128,151	453,071	-0,161	-0,250
129,166	128,080	-0,154	-0,137
130,181	97,420	-0,332	-0,267
131,195	-23,545	-0,406	-0,170
132,210	340,263	-0,195	-0,268
133,224	-41,063	-0,322	-0,116
134,239	584,564	-0,194	-0,335
135,254	136,306	-0,197	-0,180
136,268	5,752	-0,294	-0,152
137,283	268,892	-0,211	-0,260
138,297	294,504	-0,190	-0,244
139,312	748,780	-0,143	-0,271
140,327	71,433	-0,214	-0,155
141,341	132,161	-0,243	-0,219
142,356	-21,263	-0,243	-0,104
143,370	-4,455	-0,254	-0,122
144,385	19,878	-0,307	-0,172
145,400	137,441	-0,249	-0,228
146,414	6,081	-0,350	-0,181
147,429	156,966	-0,266	-0,258
148,443	16,721	-0,234	-0,129
149,458	-59,562	-0,251	-0,075
150,473	85,659	-0,285	-0,219
151,487	-94,058	-0,247	-0,047
152,502	67,475	-0,294	-0,210
153,516	21,853	-0,313	-0,178
154,531	77,073	-0,267	-0,198
155,546	-158,694	-0,284	-0,011
156,560	26,699	-0,242	-0,141
157,575	76,418	-0,160	-0,118
158,589	-15,830	-0,271	-0,120
159,604	432,265	-0,168	-0,255
160,619	18,898	-0,277	-0,155
161,633	50,135	-0,202	-0,133
162,648	61,880	-0,293	-0,204
163,662	13,114	-0,256	-0,138
164,677	74,582	-0,242	-0,178
165,692	-5,718	-0,314	-0,149
166,706	220,486	-0,201	-0,225
167,721	-82,807	-0,234	-0,052
168,735	200,479	-0,269	-0,289
169,750	86,806	-0,269	-0,207
170,764	-92,621	-0,194	-0,038
171,779	46,446	-0,241	-0,156
172,794	-16,014	-0,264	-0,117
173,808	274,798	-0,160	-0,198
174,823	11,234	-0,153	-0,081
175,837	383,756	-0,166	-0,239
176,852	-58,943	-0,247	-0,074
177,867	-18,673	-0,147	-0,063
178,881	58,889	-0,185	-0,126
179,896	119,979	-0,150	-0,130
180,910	320,036	-0,144	-0,191
181,925	-4,548	-0,260	-0,125
182,940	44,217	-0,150	-0,095
183,954	-106,303	-0,240	-0,037
184,969	51,214	-0,146	-0,096
185,983	34,770	-0,191	-0,116
186,998	-119,785	-0,305	0,036
188,013	101,567	-0,230	-0,187
189,027	7,080	-0,293	-0,152
190,042	-200,000	-0,079	-0,292
191,056	-2,818	-0,257	-0,125
192,071	121,882	-0,200	-0,174
193,086	91,028	-0,165	-0,129
194,100	68,373	-0,207	-0,147
195,115	89,574	-0,165	-0,128
196,129	257,746	-0,216	-0,260
197,144	194,872	-0,255	-0,270
198,159	90,052	-0,239	-0,186
199,173	13,078	-0,195	-0,105
200,188	-101,659	-0,221	-0,037
201,202	162,732	-0,111	-0,108
202,217	150,339	-0,178	-0,168
203,232	32,217	-0,272	-0,163
204,246	285,649	-0,224	-0,282
205,261	54,789	-0,245	-0,165
206,275	800,000	-0,103	-0,232
207,290	-143,876	-0,097	0,006
208,304	258,994	-0,070	-0,084
209,319	555,409	-0,141	-0,237
210,334	264,134	-0,164	-0,199
211,348	-200,000	-0,067	-0,211
212,363	357,945	-0,207	-0,288
213,377	59,445	-0,184	-0,126
214,392	252,491	-0,131	-0,156
215,407	80,290	-0,143	-0,107
216,421	-122,486	-0,123	-0,014
217,436	218,924	-0,189	-0,210
218,450	185,427	-0,227	-0,234
219,465	90,616	-0,142	-0,111
220,480	152,119	-0,208	-0,197
221,494	56,240	-0,188	-0,127
222,509	208,842	-0,153	-0,167
223,523	-160,154	-0,211	-0,008
224,538	537,835	-0,108	-0,178
225,553	183,615	-0,149	-0,153
226,567	216,129	-0,179	-0,198
227,582	195,960	-0,201	-0,212
228,596	800,000	-0,107	-0,215
229,611	-115,297	-0,176	-0,023
230,626	678,045	-0,110	-0,199
231,640	16,574	-0,147	-0,080
232,655	443,477	-0,155	-0,236
233,669	426,151	-0,137	-0,206
234,684	-123,758	-0,171	-0,019
235,699	800,000	-0,090	-0,201
236,713	-51,167	-0,257	-0,083
237,728	-81,444	-0,220	-0,050
238,742	143,426	-0,183	-0,169
239,757	-107,938	-0,291	-0,043
240,772	80,152	-0,264	-0,197
241,786	33,183	-0,183	-0,110
242,801	125,999	-0,093	-0,082
243,815	-112,230	-0,152	-0,021
244,830	135,120	-0,099	-0,089
245,844	-102,865	-0,172	-0,028
246,859	265,844	-0,136	-0,165
247,874	108,185	-0,198	-0,164
248,888	3,278	-0,199	-0,100
249,903	111,820	-0,181	-0,151
250,917	800,000	-0,101	-0,195
251,932	-132,859	-0,137	-0,012
252,947	5,239	-0,170	-0,087
253,961	217,435	-0,178	-0,196
254,976	207,324	-0,185	-0,200
255,990	175,786	-0,205	-0,207
257,005	214,221	-0,124	-0,136
258,020	367,463	-0,121	-0,170
259,034	-155,220	-0,157	-0,007
260,049	-4,470	-0,188	-0,090
261,063	576,365	-0,157	-0,267
262,078	-60,267	-0,119	-0,035
263,093	82,273	-0,222	-0,167
264,107	800,000	-0,068	-0,151
265,122	125,093	-0,222	-0,194
266,136	44,226	-0,111	-0,070
267,151	-200,000	-0,031	-0,324
268,166	-15,253	-0,220	-0,097
269,180	112,470	-0,202	-0,169
270,195	105,269	-0,135	-0,110
271,209	43,492	-0,176	-0,111
272,224	-92,348	-0,322	-0,062
273,239	82,202	-0,163	-0,122
274,253	125,945	-0,192	-0,168
275,268	-93,537	-0,130	-0,025
276,282	199,792	-0,195	-0,207
277,297	701,677	-0,140	-0,257
278,312	99,971	-0,193	-0,154
279,326	25,236	-0,243	-0,139
280,341	-57,446	-0,238	-0,072
281,355	-13,753	-0,151	-0,067
282,370	-185,961	-0,226	0,002
283,384	595,987	-0,089	-0,154
284,399	94,861	-0,217	-0,171
285,414	472,072	-0,092	-0,144
286,428	-200,000	-0,072	-0,225
287,443	8,489	-0,219	-0,114
288,457	8,484	-0,118	0,061
289,472	166,950	-0,103	-0,101
290,487	240,335	-0,184	-0,213
291,501	252,500	-0,130	-0,154
292,516	44,591	-0,121	-0,077
293,530	579,188	-0,116	-0,198
294,545	103,758	-0,025	-0,020
295,560	-142,581	-0,064	-0,004
296,574	35,407	-0,182	-0,110
297,589	280,773	-0,116	-0,144
298,603	7,017	-0,260	-0,133
299,618	-170,783	-0,170	0,004
300,633	800,000	-0,071	-0,174
301,647	-200,000	0,026	-0,089
302,662	612,259	-0,081	-0,140
303,676	29,597	-0,101	-0,059
304,691	185,322	-0,123	-0,126
305,706	296,251	-0,120	-0,152
306,720	-200,000	0,028	-0,123
307,735	-200,000	-0,038	-0,140
308,749	596,772	-0,063	-0,108
309,764	258,395	-0,109	0,130
310,779	-27,351	-0,185	-0,074
311,793	-65,210	-0,121	-0,033
312,808	18,333	-0,163	-0,089
313,822	-94,188	-0,143	-0,027
314,837	-155,246	-0,194	-0,009
315,852	-45,617	-0,073	0,025
316,866	-91,890	-0,172	-0,033
317,881	-109,242	-0,207	-0,030
318,895	-138,582	-0,309	0,023
319,910	53,927	-0,190	-0,125
320,925	102,743	-0,087	-0,070
321,939	-151,416	-0,085	0,004
322,954	-200,000	0,001	-0,219
323,968	-200,000	-0,004	0,064
324,983	243,770	-0,129	-0,150
325,997	-79,362	-0,221	0,051
327,012	10,977	-0,208	0,109
328,027	9,530	-0,145	-0,075
329,041	117,510	-0,046	-0,039
330,056	234,424	-0,071	-0,080
331,070	-200,000	-0,053	-0,207
332,085	-163,576	-0,184	-0,006
333,100	267,348	-0,079	-0,095
334,114	556,877	-0,100	-0,166
335,129	459,119	-0,114	-0,175
336,143	-200,000	-0,017	-0,202
337,158	198,970	-0,081	-0,086
338,173	525,933	-0,111	-0,180
339,187	387,762	-0,080	-0,113
340,202	-73,218	-0,237	0,059
341,216	-90,913	-0,194	-0,038
342,231	55,678	-0,193	-0,128
343,246	177,023	-0,156	-0,156
344,260	-82,157	-0,180	-0,040
345,275	-200,000	-0,014	-0,068
346,289	800,000	-0,057	-0,130
347,304	112,304	-0,117	-0,097
348,319	255,017	-0,089	-0,105
349,333	55,529	-0,168	-0,112
350,348	177,448	-0,219	-0,219
351,362	-186,186	-0,076	0,001
352,377	34,476	-0,044	-0,026
353,392	-31,809	-0,109	-0,042
354,406	-200,000	-0,032	-0,188
355,421	208,836	1316,031	1415,826
356,435	160,703	1476,927	1416,322
