DTS Sentinel unit serial number:	SN410029Multiplexer serial number:	ORYXHardware model number:	OX2-SRSoftware version number:	ORYX F/W v4,00 Oryx Data Collector v3.7.2.0data status	okinstallation	B3 Nyhavnadifferential loss correction	single-endedforward channel	channel 1reverse channel	N/Adate	2023/12/03time	22:27:30forward acquisition time	300,00reverse acquisition time	0,00gamma	499,1914k internal	0,3201k external	0,3201temperature offset calibration	1,0000default loss term (dB/km)	0,3820temperature slope calibration	1,0000multiplexer offset coefficient	1,0000multiplexer slope coefficient	1,0000fibre end	0,00T internal ref (°C)	13,23T ext. ref 1 (°C)	-2,14T ext. ref 2 (°C)	-2,18length (m)	temperature (°C)	Stokes	anti-Stokes-744,400	67,676	-0,250	-0,186
-743,385	-200,000	0,089	0,306
-742,371	507,572	-0,153	-0,259
-741,356	800,000	0,100	0,308
-740,342	800,000	-0,095	-0,238
-739,327	800,000	0,160	0,365
-738,312	425,806	-0,091	-0,142
-737,298	800,000	-0,080	0,247
-736,283	439,157	-0,114	-0,181
-735,269	800,000	0,112	0,237
-734,254	7,023	-0,282	-0,153
-733,239	272,752	-0,093	0,120
-732,225	268,691	-0,145	-0,186
-731,210	548,243	-0,084	0,147
-730,196	800,000	-0,045	0,099
-729,181	-200,000	-0,003	-0,024
-728,167	-40,640	-0,103	0,039
-727,152	-200,000	0,003	0,122
-726,137	-200,000	0,006	0,066
-725,123	-142,898	-0,082	-0,006
-724,108	224,764	-0,042	0,050
-723,094	17,202	-0,035	-0,020
-722,079	-149,047	0,013	0,001
-721,064	630,578	-0,051	-0,093
-720,050	-200,000	0,019	-0,095
-719,035	-199,795	-0,058	-0,000
-718,021	-28,353	-0,081	-0,034
-717,006	-200,000	-0,001	-0,021
-715,991	133,468	0,006	-0,006
-714,977	-102,252	-0,067	-0,012
-713,962	800,000	-0,027	0,065
-712,948	64,179	-0,111	0,081
-711,933	800,000	-0,034	0,100
-710,918	-110,154	0,021	-0,003
-709,904	196,162	-0,021	0,023
-708,889	-34,226	-0,050	-0,020
-707,875	-132,200	0,070	-0,006
-706,860	-71,576	0,093	-0,025
-705,845	-75,975	0,113	0,029
-704,831	626,835	-0,045	0,082
-703,816	-32,726	-0,029	0,012
-702,802	221,077	-0,039	0,046
-701,787	-23,159	-0,065	-0,028
-700,772	332,805	-0,062	0,087
-699,758	2,958	0,024	0,012
-698,743	-200,000	0,005	0,020
-697,729	75,072	-0,049	0,038
-696,714	44,856	0,143	0,095
-695,699	168,601	-0,166	-0,172
-694,685	161,125	-0,006	0,006
-693,670	-131,651	-0,174	-0,016
-692,656	800,000	-0,053	-0,112
-691,641	-104,044	0,141	0,024
-690,627	-200,000	0,008	0,094
-689,612	275,456	-0,124	-0,160
-688,597	740,047	-0,061	-0,119
-687,583	417,368	-0,023	0,036
-686,568	399,401	-0,068	0,104
-685,554	156,125	0,031	-0,031
-684,539	-68,274	0,070	0,020
-683,524	47,920	0,137	0,092
-682,510	119,716	-0,051	0,045
-681,495	-145,356	-0,037	-0,002
-680,481	-200,000	0,007	-0,155
-679,466	800,000	-0,053	-0,134
-678,451	-200,000	0,005	-0,074
-677,437	226,204	0,101	0,119
-676,422	-200,000	0,014	0,094
-675,408	9,272	-0,022	-0,012
-674,393	-88,173	0,071	-0,015
-673,378	-49,217	-0,183	-0,063
-672,364	124,535	-0,122	0,111
-671,349	571,305	0,022	0,038
-670,335	-117,709	0,133	0,017
-669,320	28,324	0,094	0,058
-668,305	532,746	0,035	0,060
-667,291	-47,046	-0,033	0,012
-666,276	50,720	-0,105	-0,072
-665,262	3,050	0,133	-0,070
-664,247	-200,000	-0,016	0,064
-663,232	-45,184	-0,195	-0,070
-662,218	49,543	-0,048	0,032
-661,203	4,076	0,060	0,032
-660,189	800,000	0,012	-0,031
-659,174	800,000	0,028	-0,083
-658,159	-133,514	0,070	-0,006
-657,145	187,317	-0,018	-0,019
-656,130	-142,123	-0,044	0,003
-655,116	800,000	-0,021	-0,054
-654,101	78,354	-0,086	-0,067
-653,086	-99,742	-0,135	0,024
-652,072	-178,738	-0,113	-0,002
-651,057	213,134	0,038	-0,044
-650,043	800,000	0,032	-0,080
-649,028	-42,597	-0,075	0,028
-648,014	800,000	-0,032	-0,082
-646,999	-68,205	0,092	-0,026
-645,984	-108,260	-0,092	0,014
-644,970	611,408	-0,059	-0,108
-643,955	-34,579	-0,103	-0,041
-642,941	-200,000	0,003	-0,040
-641,926	168,141	-0,003	0,003
-640,911	-54,948	0,056	-0,018
-639,897	-200,000	-0,002	-0,030
-638,882	-200,000	0,009	0,051
-637,868	79,970	-0,040	0,031
-636,853	330,646	-0,040	-0,056
-635,838	64,092	0,036	-0,026
-634,824	-200,000	-0,008	0,060
-633,809	145,170	-0,086	0,083
-632,795	195,710	-0,068	-0,075
-631,780	90,299	-0,076	0,062
-630,765	124,682	-0,070	0,064
-629,751	-98,970	-0,068	-0,012
-628,736	-200,000	-0,025	-0,083
-627,722	98,901	-0,099	0,083
-626,707	-86,736	0,158	-0,035
-625,692	-107,183	-0,066	-0,010
-624,678	-82,144	0,077	0,018
-623,663	745,449	-0,056	-0,110
-622,649	-87,311	0,083	-0,018
-621,634	57,391	-0,160	-0,113
-620,619	352,369	-0,046	0,067
-619,605	-14,496	0,010	0,005
-618,590	447,375	-0,040	0,064
-617,576	-200,000	-0,002	0,028
-616,561	-200,000	-0,006	0,148
-615,546	28,734	-0,065	0,040
-614,532	-128,874	-0,130	-0,013
-613,517	-200,000	-0,021	-0,071
-612,503	-160,482	-0,102	0,004
-611,488	-95,271	0,110	-0,021
-610,474	-18,500	-0,070	0,031
-609,459	-58,529	-0,017	0,005
-608,444	17,254	-0,047	-0,027
-607,430	-200,000	-0,038	-0,133
-606,415	666,705	-0,095	-0,178
-605,401	-200,000	-0,025	-0,161
-604,386	800,000	0,046	0,114
-603,371	-77,743	0,207	0,051
-602,357	-200,000	0,006	0,021
-601,342	-200,000	-0,022	-0,105
-600,328	800,000	0,069	-0,202
-599,313	-38,913	-0,166	-0,063
-598,298	-195,863	0,066	-0,000
-597,284	-200,000	0,001	-0,013
-596,269	61,003	-0,163	0,117
-595,255	-34,200	-0,051	0,020
-594,240	136,597	0,067	-0,063
-593,225	377,849	-0,086	-0,128
-592,211	-200,000	0,002	0,023
-591,196	52,826	0,079	0,054
-590,182	271,859	0,073	0,093
-589,167	800,000	-0,017	0,041
-588,152	111,026	-0,080	-0,069
-587,138	-200,000	0,013	-0,062
-586,123	-200,000	-0,027	-0,089
-585,109	-200,000	0,011	0,212
-584,094	-200,000	-0,023	0,104
-583,079	-82,261	0,026	-0,006
-582,065	-61,708	0,019	-0,006
-581,050	-200,000	-0,006	0,044
-580,036	800,000	-0,026	0,071
-579,021	-77,596	-0,119	-0,030
-578,006	7,081	-0,195	-0,105
-576,992	217,603	0,018	-0,020
-575,977	186,892	0,116	-0,125
-574,963	-200,000	0,004	0,056
-573,948	242,723	-0,100	0,122
-572,934	173,260	0,056	0,059
-571,919	142,036	-0,090	-0,086
-570,904	-56,628	-0,047	0,015
-569,890	-200,000	0,028	-0,114
-568,875	645,127	0,081	-0,150
-567,861	-42,743	0,167	0,061
-566,846	-29,818	0,089	0,036
-565,831	-103,656	-0,134	-0,022
-564,817	96,347	-0,053	0,044
-563,802	-200,000	-0,007	-0,167
-562,788	-30,439	0,058	-0,024
-561,773	800,000	-0,051	0,113
-560,758	97,209	0,174	0,144
-559,744	-22,072	-0,098	0,043
-558,729	-59,239	0,172	0,053
-557,715	-20,263	-0,103	0,045
-556,700	444,240	-0,027	0,043
-555,685	-176,306	-0,153	-0,003
-554,671	354,687	0,026	0,037
-553,656	-12,806	0,060	0,028
-552,642	800,000	-0,048	0,103
-551,627	193,178	-0,103	-0,113
-550,612	-133,488	-0,110	-0,010
-549,598	-200,000	-0,013	0,142
-548,583	800,000	0,025	0,059
-547,569	562,847	-0,047	-0,083
-546,554	164,482	0,053	-0,054
-545,539	-200,000	-0,015	0,118
-544,525	79,021	0,137	0,106
-543,510	-200,000	0,012	-0,045
-542,496	570,308	-0,008	-0,013
-541,481	103,405	0,121	-0,102
-540,466	-200,000	0,006	0,066
-539,452	-198,117	-0,054	-0,000
-538,437	-67,835	0,179	-0,050
-537,423	223,968	0,084	-0,098
-536,408	-200,000	0,004	0,192
-535,393	-99,243	-0,185	-0,033
-534,379	800,000	-0,100	-0,218
-533,364	800,000	-0,016	-0,035
-532,350	-192,532	0,035	0,000
-531,335	502,910	0,101	0,169
-530,321	370,198	-0,041	0,060
-529,306	-143,831	0,195	-0,013
-528,291	-200,000	-0,013	-0,078
-527,277	383,741	-0,098	-0,146
-526,262	800,000	0,021	0,059
-525,248	69,498	0,123	0,091
-524,233	447,900	0,070	-0,112
-523,218	800,000	0,028	0,085
-522,204	166,440	-0,041	-0,042
-521,189	49,153	0,120	-0,081
-520,175	-76,107	-0,092	-0,023
-519,160	374,691	-0,030	-0,045
-518,145	143,124	-0,046	-0,045
-517,131	800,000	-0,034	-0,074
-516,116	-79,505	0,036	-0,009
-515,102	800,000	-0,050	-0,104
-514,087	-17,485	0,068	-0,031
-513,072	-200,000	0,000	-0,061
-512,058	-200,000	0,005	-0,110
-511,043	40,743	0,059	0,038
-510,029	-200,000	0,002	0,014
-509,014	-200,000	0,000	0,102
-507,999	-128,112	-0,092	-0,009
-506,985	72,242	0,027	0,020
-505,970	371,980	-0,050	-0,074
-504,956	-62,794	-0,095	-0,028
-503,941	-200,000	0,008	0,064
-502,926	263,166	-0,026	-0,033
-501,912	65,377	-0,053	-0,039
-500,897	-200,000	-0,034	0,175
-499,883	30,886	0,006	0,004
-498,868	-37,484	-0,155	-0,059
-497,853	-102,746	-0,182	0,031
-496,839	-1,114	0,023	0,012
-495,824	-200,000	-0,016	0,141
-494,810	-200,000	-0,005	0,124
-493,795	262,176	0,031	-0,039
-492,781	-200,000	0,028	-0,089
-491,766	118,832	-0,061	0,054
-490,751	-128,498	-0,049	0,005
-489,737	-96,781	-0,055	-0,010
-488,722	117,789	0,030	-0,027
-487,708	536,349	-0,034	0,058
-486,693	285,107	-0,056	-0,073
-485,678	-200,000	-0,020	-0,190
-484,664	-91,627	-0,126	-0,026
-483,649	786,525	-0,033	-0,066
-482,635	-112,554	-0,054	-0,008
-481,620	800,000	-0,036	-0,098
-480,605	-200,000	0,022	0,122
-479,591	296,462	0,106	0,140
-478,576	61,138	-0,144	0,103
-477,562	448,056	0,059	-0,094
-476,547	44,262	0,020	-0,013
-475,532	-22,065	0,038	0,017
-474,518	-200,000	-0,023	0,086
-473,503	185,962	0,090	0,096
-472,489	800,000	-0,036	-0,080
-471,474	30,761	-0,138	0,085
-470,459	480,782	0,026	0,043
-469,445	120,061	-0,093	-0,083
-468,430	-200,000	0,001	-0,172
-467,416	-200,000	-0,018	0,084
-466,401	374,332	0,044	0,065
-465,386	362,574	0,099	0,143
-464,372	110,150	0,054	0,046
-463,357	-79,574	0,064	0,015
-462,343	54,704	-0,080	-0,055
-461,328	-49,551	-0,049	0,017
-460,313	-200,000	-0,003	0,010
-459,299	193,023	-0,085	0,093
-458,284	42,684	0,056	-0,037
-457,270	413,453	-0,008	0,013
-456,255	-57,932	-0,092	0,029
-455,241	-79,755	0,093	-0,022
-454,226	585,397	-0,042	0,075
-453,211	-200,000	-0,004	-0,108
-452,197	92,315	0,075	0,061
-451,182	41,562	0,045	-0,029
-450,168	225,389	-0,056	-0,066
-449,153	-75,475	-0,119	0,030
-448,138	304,286	0,030	0,040
-447,124	48,640	0,065	-0,044
-446,109	420,993	-0,083	0,128
-445,095	-200,000	0,011	0,070
-444,080	242,583	-0,071	0,086
-443,065	-200,000	0,020	-0,131
-442,051	80,475	0,103	-0,080
-441,036	-86,098	-0,038	0,008
-440,022	39,176	-0,076	0,048
-439,007	-76,716	0,109	-0,027
-437,992	-21,667	0,081	-0,035
-436,978	18,960	0,052	0,030
-435,963	58,342	0,035	-0,025
-434,949	-55,136	-0,029	-0,009
-433,934	800,000	0,001	0,004
-432,919	219,993	0,057	0,066
-431,905	121,083	0,021	0,019
-430,890	-200,000	0,027	0,137
-429,876	800,000	0,055	0,138
-428,861	35,399	0,031	-0,020
-427,846	113,903	-0,066	0,058
-426,832	18,553	0,024	-0,014
-425,817	800,000	-0,045	-0,108
-424,803	-32,447	0,048	-0,019
-423,788	-10,300	0,068	0,032
-422,773	152,158	0,128	-0,125
-421,759	182,216	0,046	0,049
-420,744	-200,000	0,000	-0,129
-419,730	-200,000	-0,001	0,079
-418,715	108,802	-0,065	-0,056
-417,701	-200,000	-0,014	-0,091
-416,686	-61,814	-0,051	-0,015
-415,671	-50,334	0,102	-0,034
-414,657	-112,150	0,052	-0,007
-413,642	-39,104	-0,062	0,023
-412,628	326,455	-0,026	0,036
-411,613	108,411	-0,055	0,047
-410,598	-200,000	0,004	-0,097
-409,584	-127,804	-0,085	-0,009
-408,569	-23,739	0,190	0,081
-407,555	-169,344	0,112	0,003
-406,540	322,426	-0,063	0,087
-405,525	-65,179	-0,104	0,030
-404,511	800,000	-0,039	-0,077
-403,496	110,001	-0,034	-0,029
-402,482	800,000	-0,026	0,067
-401,467	-10,417	0,157	0,075
-400,452	424,354	-0,011	0,018
-399,438	166,699	-0,090	0,092
-398,423	-200,000	0,023	-0,153
-397,409	-98,699	0,084	-0,015
-396,394	184,731	-0,031	0,033
-395,379	163,581	0,078	0,078
-394,365	367,235	-0,066	0,096
-393,350	103,444	0,043	0,036
-392,336	-200,000	-0,006	-0,038
-391,321	48,076	0,104	0,070
-390,306	322,930	-0,087	-0,119
-389,292	374,816	-0,045	-0,065
-388,277	-200,000	0,016	0,052
-387,263	800,000	-0,029	0,082
-386,248	-200,000	0,028	0,127
-385,233	-110,053	-0,120	-0,018
-384,219	75,942	0,052	0,039
-383,204	800,000	0,048	-0,130
-382,190	748,947	0,029	0,057
-381,175	-197,491	0,023	0,000
-380,160	514,714	0,045	-0,076
-379,146	84,845	0,077	-0,061
-378,131	800,000	0,062	-0,125
-377,117	199,032	0,037	0,041
-376,102	-165,496	0,021	-0,001
-375,088	571,444	-0,079	0,138
-374,073	-0,561	-0,064	-0,033
-373,058	714,991	0,040	0,076
-372,044	-200,000	0,027	0,121
-371,029	800,000	0,032	0,070
-370,015	295,778	-0,075	0,099
-369,000	167,440	-0,053	0,054
-367,985	403,106	0,063	0,096
-366,971	306,766	0,134	-0,179
-365,956	800,000	0,022	0,049
-364,942	691,773	0,046	0,086
-363,927	38,540	0,032	-0,021
-362,912	-119,556	0,077	0,009
-361,898	33,366	-0,018	0,011
-360,883	162,307	-0,072	-0,072
-359,869	404,694	0,029	0,044
-358,854	158,740	0,071	0,070
-357,839	-118,428	0,035	-0,004
-356,825	-25,617	-0,028	-0,012
-355,810	-200,000	-0,025	0,167
-354,796	-142,518	0,059	0,004
-353,781	800,000	0,019	0,045
-352,766	112,884	-0,098	-0,085
-351,752	-42,401	0,184	0,067
-350,737	-52,810	0,150	-0,049
-349,723	-69,896	0,137	-0,037
-348,708	-118,001	-0,066	-0,008
-347,693	140,542	0,029	0,028
-346,679	257,743	-0,105	-0,130
-345,664	35,249	0,068	0,042
-344,650	181,673	-0,062	-0,065
-343,635	529,834	0,052	0,089
-342,620	-116,543	0,066	-0,009
-341,606	800,000	0,035	0,088
-340,591	400,344	-0,024	-0,036
-339,577	-200,000	-0,010	-0,148
-338,562	254,025	0,061	0,075
-337,548	-200,000	0,001	0,115
-336,533	-200,000	0,014	0,059
-335,518	-15,673	0,141	-0,064
-334,504	-14,143	-0,045	0,021
-333,489	-42,925	-0,060	0,022
-332,475	142,885	0,019	-0,018
-331,460	800,000	0,017	-0,040
-330,445	88,619	0,054	-0,043
-329,431	455,976	0,065	0,103
-328,416	-5,581	0,073	0,036
-327,402	11,659	-0,029	-0,016
-326,387	8,668	0,113	-0,061
-325,372	-200,000	-0,029	-0,092
-324,358	459,933	-0,073	-0,117
-323,343	-200,000	-0,004	-0,151
-322,329	-200,000	-0,019	0,092
-321,314	617,033	0,062	0,112
-320,299	-200,000	0,003	-0,016
-319,285	35,871	0,054	0,034
-318,270	-111,840	0,066	-0,009
-317,256	-192,708	0,052	0,000
-316,241	586,149	0,094	-0,165
-315,226	35,778	-0,113	-0,071
-314,212	-200,000	0,028	0,117
-313,197	97,501	0,045	-0,037
-312,183	-67,080	-0,081	0,023
-311,168	800,000	-0,018	-0,055
-310,153	800,000	-0,044	0,103
-309,139	410,884	0,080	-0,122
-308,124	-73,747	-0,074	-0,019
-307,110	211,034	0,041	0,046
-306,095	-71,782	0,177	0,047
-305,080	-63,435	-0,065	0,019
-304,066	-34,985	0,063	-0,025
-303,051	-22,485	-0,210	-0,090
-302,037	-200,000	-0,003	-0,105
-301,022	-200,000	0,009	-0,038
-300,008	194,951	0,090	0,098
-298,993	-111,665	0,051	0,007
-297,978	56,668	-0,065	-0,045
-296,964	-62,623	-0,166	-0,049
-295,949	429,465	0,063	-0,098
-294,935	800,000	-0,016	-0,044
-293,920	-200,000	-0,021	-0,067
-292,905	371,528	-0,025	-0,036
-291,891	-200,000	-0,018	-0,062
-290,876	52,095	-0,106	-0,072
-289,862	-146,044	-0,181	0,011
-288,847	800,000	0,028	-0,075
-287,832	32,723	0,111	-0,068
-286,818	747,504	0,058	0,113
-285,803	-200,000	0,011	-0,069
-284,789	146,273	0,010	0,009
-283,774	127,275	0,054	0,049
-282,759	800,000	-0,059	-0,171
-281,745	800,000	-0,043	-0,136
-280,730	-177,974	-0,038	-0,001
-279,716	-4,286	-0,033	0,016
-278,701	-29,928	0,129	0,052
-277,686	88,042	0,099	0,078
-276,672	-200,000	0,012	0,085
-275,657	175,702	0,062	0,065
-274,643	-146,825	-0,142	-0,009
-273,628	39,123	0,119	0,076
-272,613	-34,609	0,131	-0,051
-271,599	-92,109	-0,059	0,012
-270,584	-17,572	0,046	-0,021
-269,570	-200,000	-0,016	0,096
-268,555	215,661	-0,107	0,121
-267,540	-200,000	0,017	-0,099
-266,526	370,234	0,010	0,014
-265,511	59,058	0,062	-0,044
-264,497	-70,754	0,117	-0,031
-263,482	649,863	0,038	0,070
-262,467	-112,472	0,077	0,011
-261,453	-27,299	-0,064	0,027
-260,438	183,350	-0,109	-0,116
-259,424	800,000	-0,036	-0,082
-258,409	91,120	-0,109	0,088
-257,395	-200,000	0,003	-0,087
-256,380	-200,000	0,036	-0,179
-255,365	118,640	0,057	0,050
-254,351	-200,000	-0,013	0,061
-253,336	-200,000	0,018	-0,065
-252,322	-35,394	-0,066	0,026
-251,307	-129,149	-0,060	0,006
-250,292	800,000	0,035	-0,106
-249,278	-39,043	-0,051	-0,019
-248,263	-110,730	0,016	0,002
-247,249	353,405	-0,053	-0,076
-246,234	481,605	-0,031	-0,051
-245,219	-200,000	-0,042	-0,209
-244,205	-115,732	-0,096	-0,013
-243,190	357,573	0,064	-0,092
-242,176	800,000	0,026	0,056
-241,161	-33,158	0,058	-0,023
-240,146	-39,703	0,081	0,030
-239,132	800,000	-0,004	-0,012
-238,117	83,001	-0,164	-0,127
-237,103	800,000	-0,020	-0,052
-236,088	-200,000	0,031	0,124
-235,073	-113,163	0,096	0,013
-234,059	-93,062	-0,082	-0,016
-233,044	-115,387	0,027	0,004
-232,030	153,686	0,066	0,064
-231,015	-25,052	-0,122	-0,052
-230,000	103,094	0,065	-0,055
-228,986	-200,000	0,019	0,104
-227,971	800,000	0,012	0,036
-226,957	-200,000	-0,034	0,158
-225,942	187,274	0,100	0,106
-224,927	-200,000	0,000	0,051
-223,913	75,622	-0,094	0,071
-222,898	-117,932	0,119	0,015
-221,884	-133,318	-0,112	-0,010
-220,869	38,559	-0,070	-0,044
-219,855	-200,000	0,005	0,065
-218,840	19,757	-0,031	0,018
-217,825	104,693	-0,041	0,035
-216,811	800,000	-0,049	-0,119
-215,796	-200,000	0,029	0,000
-214,782	106,338	-0,115	0,097
-213,767	279,606	-0,089	0,114
-212,752	800,000	0,022	0,062
-211,738	59,850	-0,047	0,033
-210,723	178,547	0,125	0,131
-209,709	20,971	-0,073	0,042
-208,694	134,284	-0,037	-0,034
-207,679	-63,413	-0,020	0,006
-206,665	-200,000	0,016	0,053
-205,650	800,000	-0,032	-0,076
-204,636	-78,231	0,058	-0,014
-203,621	-200,000	-0,015	0,055
-202,606	-170,712	-0,018	0,000
-201,592	800,000	-0,069	-0,160
-200,577	-55,365	0,103	0,033
-199,563	47,200	0,035	-0,023
-198,548	800,000	0,043	0,132
-197,533	-5,755	0,052	0,025
-196,519	388,944	0,058	-0,087
-195,504	-81,886	0,076	-0,018
-194,490	-200,000	-0,013	0,068
-193,475	402,385	-0,056	0,085
-192,460	-116,036	0,080	-0,010
-191,446	-108,193	0,104	-0,016
-190,431	600,252	-0,069	-0,123
-189,417	-111,931	0,043	0,006
-188,402	3,884	0,015	0,008
-187,387	-200,000	0,033	-0,150
-186,373	-200,000	-0,006	-0,057
-185,358	800,000	0,011	0,024
-184,344	-40,362	0,153	0,056
-183,329	-117,891	-0,123	0,016
-182,315	70,278	0,085	0,062
-181,300	800,000	-0,026	0,068
-180,285	-200,000	0,019	0,100
-179,271	196,170	-0,051	-0,055
-178,256	230,580	-0,050	-0,058
-177,242	-96,380	0,051	-0,010
-176,227	251,399	-0,010	0,013
-175,212	152,834	0,063	0,061
-174,198	-200,000	0,020	0,076
-173,183	174,847	-0,013	0,014
-172,169	-115,601	-0,171	-0,023
-171,154	-200,000	-0,006	-0,046
-170,139	-138,950	0,070	-0,005
-169,125	-200,000	0,004	-0,071
-168,110	-200,000	-0,002	0,129
-167,096	388,064	0,084	-0,124
-166,081	-14,494	-0,041	0,019
-165,066	-200,000	0,034	0,132
-164,052	508,129	-0,030	-0,050
-163,037	-200,000	0,032	0,132
-162,023	-149,322	0,041	0,002
-161,008	-200,000	0,004	0,059
-159,993	115,940	0,118	0,103
-158,979	211,944	0,046	-0,052
-157,964	91,908	-0,089	-0,071
-156,950	424,100	-0,094	-0,144
-155,935	800,000	0,025	-0,072
-154,920	130,274	0,068	0,062
-153,906	30,080	0,054	-0,033
-152,891	-64,384	0,093	0,027
-151,877	-200,000	0,013	-0,108
-150,862	800,000	0,017	0,052
-149,847	44,831	-0,039	0,026
-148,833	3,821	-0,051	-0,026
-147,818	-200,000	-0,031	0,162
-146,804	-103,708	-0,108	-0,018
-145,789	-200,000	0,003	0,032
-144,775	81,108	-0,085	0,065
-143,760	591,394	-0,030	-0,053
-142,745	312,079	-0,129	-0,173
-141,731	-42,593	-0,070	0,025
-140,716	-79,349	-0,091	0,022
-139,702	-161,040	0,115	0,004
-138,687	-95,001	-0,147	-0,028
-137,672	-177,971	-0,156	0,003
-136,658	151,516	-0,191	-0,185
-135,643	800,000	-0,020	-0,041
-134,629	-200,000	0,013	-0,084
-133,614	-81,023	0,094	-0,022
-132,599	209,796	0,085	0,094
-131,585	-200,000	0,020	0,088
-130,570	800,000	-0,051	-0,115
-129,556	-22,642	0,017	-0,007
-128,541	114,643	-0,048	0,042
-127,526	-40,389	0,142	0,052
-126,512	1,754	0,102	-0,052
-125,497	121,678	0,038	-0,034
-124,483	27,526	-0,118	-0,070
-123,468	601,630	-0,047	-0,083
-122,453	-200,000	-0,017	-0,095
-121,439	53,579	0,085	-0,058
-120,424	66,445	-0,169	0,122
-119,410	-200,000	-0,016	-0,080
-118,395	-200,000	-0,000	-0,039
-117,380	36,641	-0,242	0,151
-116,366	207,837	0,085	0,094
-115,351	12,175	0,012	-0,006
-114,337	-200,000	0,002	0,044
-113,322	-112,343	-0,053	0,007
-112,307	800,000	0,023	-0,058
-111,293	800,000	0,012	0,032
-110,278	-85,376	0,108	0,024
-109,264	82,888	-0,046	-0,036
-108,249	27,839	-0,065	0,039
-107,234	-200,000	0,056	0,186
-106,220	-200,000	0,007	-0,218
-105,205	712,818	0,022	0,042
-104,191	-190,602	-0,188	-0,001
-103,176	-200,000	0,006	0,102
-102,162	-107,779	-0,050	-0,008
-101,147	61,599	0,049	-0,034
-100,132	-200,000	-0,023	0,085
-99,118	800,000	-0,015	0,032
-98,103	-147,936	0,030	-0,002
-97,089	-41,006	0,082	-0,030
-96,074	800,000	0,039	0,107
-95,059	-21,230	0,144	0,062
-94,045	-132,702	-0,118	-0,011
-93,030	41,340	-0,054	0,035
-92,016	-200,000	0,007	-0,171
-91,001	-200,000	-0,006	0,146
-89,986	800,000	0,037	0,114
-88,972	-200,000	-0,000	0,033
-87,957	-114,333	-0,067	-0,009
-86,943	-200,000	-0,000	0,151
-85,928	465,197	-0,061	-0,097
-84,913	-200,000	-0,043	0,207
-83,899	464,438	0,068	-0,109
-82,884	-1,886	0,096	-0,048
-81,870	800,000	0,017	0,052
-80,855	-100,086	0,035	-0,006
-79,840	-200,000	0,002	-0,093
-78,826	800,000	-0,029	-0,065
-77,811	-200,000	0,000	-0,004
-76,797	-200,000	0,024	-0,163
-75,782	284,363	-0,036	0,046
-74,767	800,000	-0,023	0,055
-73,753	800,000	0,019	-0,041
-72,738	800,000	-0,013	0,029
-71,724	800,000	-0,037	-0,078
-70,709	-200,000	-0,035	0,110
-69,694	39,182	-0,053	-0,033
-68,680	72,087	0,027	0,020
-67,665	-21,648	0,054	-0,023
-66,651	-200,000	-0,003	0,067
-65,636	153,215	-0,030	-0,029
-64,622	-200,000	0,005	0,051
-63,607	-200,000	0,000	-0,095
-62,592	7,134	-0,017	0,009
-61,578	1,145	-0,093	-0,047
-60,563	118,162	0,094	0,082
-59,549	-80,732	-0,021	-0,005
-58,534	-22,666	-1,665	-0,709
-57,519	387,449	-1,392	-2,044
-56,505	-200,000	-0,533	-4,495
-55,490	293,797	0,983	1,274
-54,476	800,000	4,904	11,205
-53,461	-200,000	19,394	322,556
-52,446	-200,000	742,888	2336,115
-51,432	570,806	1656,991	2866,911
-50,417	78,044	1671,867	1261,385
-49,403	21,182	1544,989	885,720
-48,388	15,103	1467,421	811,660
-47,373	18,067	1457,726	820,605
-46,359	16,671	1447,686	808,218
-45,344	13,351	1442,900	789,594
-44,330	13,282	1440,861	788,120
-43,315	13,298	1439,102	787,202
-42,300	13,257	1437,640	786,173
-41,286	13,277	1436,398	785,559
-40,271	13,260	1434,946	784,653
-39,257	13,255	1433,708	783,921
-38,242	13,303	1432,442	783,425
-37,227	13,329	1431,118	782,795
-36,213	13,328	1429,844	782,061
-35,198	13,296	1428,557	781,174
-34,184	13,396	1427,604	781,100
-33,169	13,292	1426,468	779,950
-32,154	13,357	1425,384	779,634
-31,140	13,344	1424,013	778,794
-30,125	13,322	1422,962	778,084
-29,111	13,308	1421,739	777,317
-28,096	13,316	1420,897	776,864
-27,082	13,290	1419,516	775,955
-26,067	13,224	1418,616	775,120
-25,052	13,257	1417,348	774,555
-24,038	13,251	1416,338	773,944
-23,023	13,249	1415,454	773,420
-22,009	13,253	1414,396	772,831
-20,994	13,223	1413,440	772,134
-19,979	13,230	1412,515	771,634
-18,965	13,212	1411,594	771,013
-17,950	13,247	1410,628	770,621
-16,936	13,219	1409,753	769,981
-15,921	13,180	1408,582	769,128
-14,906	13,131	1407,833	768,460
-13,892	13,169	1406,888	768,089
-12,877	13,161	1406,040	767,561
-11,863	13,198	1404,963	767,112
-10,848	13,144	1404,065	766,341
-9,833	13,120	1403,451	765,863
-8,819	13,115	1402,545	765,315
-7,804	13,055	1401,743	764,568
-6,790	13,038	1400,693	763,886
-5,775	13,092	1399,378	763,388
-4,760	13,054	1398,542	762,726
-3,746	13,124	1397,452	762,428
-2,731	13,099	1396,586	761,809
-1,717	12,987	1396,062	760,973
-0,702	13,033	1394,106	760,087
0,313	16,983	1310,508	732,786
1,327	33,486	702,993	431,187
2,342	51,348	123,159	82,615
3,356	2,401	16,649	8,497
4,371	-0,069	3,272	1,642
5,386	-16,302	0,434	0,194
6,400	352,954	0,216	0,303
7,415	-141,754	-0,264	-0,018
8,429	-89,283	-0,421	-0,087
9,444	89,612	-0,256	-0,202
10,459	-0,627	-0,320	-0,160
11,473	107,649	-0,232	-0,195
12,488	21,247	-0,216	-0,124
13,502	12,694	-0,266	-0,145
14,517	-23,193	-0,301	-0,128
15,531	142,362	-0,335	-0,314
16,546	49,439	-0,370	-0,246
17,561	-26,106	-0,516	-0,213
18,575	-41,002	-0,184	-0,067
19,590	800,000	-0,164	-0,413
20,604	-19,181	-0,317	-0,138
21,619	110,988	-0,440	-0,374
22,634	150,563	-0,534	-0,513
23,648	183,900	-0,388	-0,405
24,663	43,425	-0,344	-0,221
25,677	13,427	-0,368	-0,201
26,692	-17,871	-0,447	-0,197
27,707	92,355	-0,348	-0,277
28,721	140,197	-0,329	-0,307
29,736	42,044	-0,394	-0,252
30,750	-15,245	-0,549	-0,247
31,765	165,008	-0,322	-0,322
32,780	33,050	-0,290	-0,177
33,794	146,306	-0,366	-0,347
34,809	-82,440	-0,440	-0,100
35,823	172,198	-0,295	-0,300
36,838	57,476	-0,463	-0,319
37,853	37,326	-0,422	-0,263
38,867	-86,762	-0,413	-0,088
39,882	268,785	-0,216	-0,268
40,896	4,754	-0,325	-0,168
41,911	114,470	-0,221	-0,190
42,926	213,550	-0,271	-0,303
43,940	48,443	-0,368	-0,243
44,955	50,098	-0,420	-0,279
45,969	90,241	-0,491	-0,387
46,984	31,943	-0,277	-0,168
47,999	161,172	-0,250	-0,246
49,013	21,132	-0,238	-0,136
50,028	439,874	-0,223	-0,345
51,042	191,356	-0,280	-0,298
52,057	37,031	-0,346	-0,215
53,071	23,513	-0,415	-0,240
54,086	94,422	-0,254	-0,203
55,101	49,773	-0,461	-0,306
56,115	35,206	-0,356	-0,219
57,130	-27,233	-0,292	-0,119
58,144	-72,752	-0,296	-0,076
59,159	51,235	-0,425	-0,283
60,174	-40,058	-0,411	-0,150
61,188	162,428	-0,372	-0,367
62,203	202,651	-0,246	-0,268
63,217	-47,338	-0,246	-0,084
64,232	-10,328	-0,389	-0,181
65,247	36,257	-0,420	-0,260
66,261	800,000	-0,168	-0,384
67,276	-26,423	-0,344	-0,141
68,290	23,322	-0,471	-0,272
69,305	41,307	-0,331	-0,210
70,320	46,330	-0,293	-0,191
71,334	-79,134	-0,303	0,072
72,349	-28,658	-0,263	-0,106
73,363	-10,726	-0,443	-0,205
74,378	19,750	-0,349	-0,197
75,393	22,018	-0,229	-0,131
76,407	33,243	-0,323	-0,196
77,422	88,411	-0,391	-0,305
78,436	8,066	-0,394	-0,207
79,451	30,591	-0,348	-0,209
80,466	-0,310	-0,396	-0,197
81,480	-51,424	-0,412	-0,135
82,495	2,060	-0,234	-0,118
83,509	85,288	-0,242	-0,187
84,524	-25,884	-0,340	-0,140
85,539	147,863	-0,266	-0,252
86,553	-85,046	-0,361	-0,079
87,568	-2,044	-0,300	-0,147
88,582	87,866	-0,288	-0,224
89,597	-30,221	-0,359	-0,142
90,611	35,716	-0,276	-0,170
91,626	-24,085	-0,255	-0,107
92,641	-46,495	-0,228	-0,078
93,655	-52,274	-0,325	-0,105
94,670	284,540	-0,164	-0,207
95,684	106,099	-0,244	-0,203
96,699	16,765	-0,437	-0,242
97,714	2,447	-0,246	-0,125
98,728	-24,875	-0,232	-0,096
99,743	45,765	-0,281	-0,182
100,757	-4,832	-0,399	-0,192
101,772	159,207	-0,261	-0,255
102,787	-90,027	-0,443	-0,090
103,801	-89,684	-0,315	-0,064
104,816	-104,791	-0,269	-0,043
105,830	119,949	-0,200	-0,174
106,845	9,226	-0,265	-0,140
107,860	46,531	-0,289	-0,188
108,874	105,168	-0,174	-0,144
109,889	-151,825	-0,457	-0,023
110,903	-2,652	-0,323	-0,158
111,918	48,356	-0,298	-0,195
112,933	-48,690	-0,273	-0,091
113,947	-19,177	-0,222	-0,096
114,962	-1,277	-0,322	-0,159
115,976	-151,183	-0,381	0,020
116,991	-115,624	-0,411	-0,053
118,006	-1,782	-0,376	-0,185
119,020	44,108	-0,323	-0,207
120,035	175,327	-0,191	-0,194
121,049	-32,255	-0,119	-0,046
122,064	87,522	-0,237	-0,184
123,079	33,089	-0,293	-0,177
124,093	-92,509	-0,244	-0,048
125,108	-94,531	-0,254	-0,048
126,122	-27,085	-0,261	-0,106
127,137	1,551	-0,211	-0,106
128,151	29,756	-0,152	-0,090
129,166	88,021	-0,140	-0,108
130,181	-154,248	-0,293	-0,014
131,195	51,801	-0,298	-0,198
132,210	209,442	-0,288	-0,316
133,224	258,457	-0,237	-0,286
134,239	55,934	-0,201	-0,136
135,254	-2,027	-0,222	-0,109
136,268	215,057	-0,150	-0,167
137,283	298,162	-0,175	-0,225
138,297	-3,433	-0,293	-0,142
139,312	75,233	-0,227	-0,167
140,327	-113,665	-0,335	-0,045
141,341	-25,203	-0,200	-0,082
142,356	94,228	-0,254	-0,202
143,370	87,320	-0,206	-0,159
144,385	-56,069	-0,311	-0,096
145,400	-7,426	-0,285	-0,134
146,414	442,512	-0,220	-0,338
147,429	89,471	-0,277	-0,215
148,443	46,140	-0,277	-0,179
149,458	-78,550	-0,265	-0,063
150,473	9,512	-0,229	-0,121
151,487	106,163	-0,246	-0,203
152,502	-106,637	-0,228	0,035
153,516	-78,390	-0,120	-0,028
154,531	62,752	-0,282	-0,197
155,546	413,392	-0,154	-0,230
156,560	-39,818	-0,202	-0,073
157,575	-1,073	-0,204	-0,100
158,589	-14,195	-0,156	-0,070
159,604	110,594	-0,199	-0,167
160,619	-1,640	-0,223	-0,109
161,633	-87,400	-0,378	-0,079
162,648	107,048	-0,269	-0,223
163,662	6,741	-0,294	-0,152
164,677	27,919	-0,295	-0,173
165,692	-108,404	-0,224	-0,033
166,706	800,000	-0,034	-0,077
167,721	-74,071	-0,303	-0,076
168,735	151,764	-0,216	-0,205
169,750	35,209	-0,238	-0,145
170,764	-147,597	-0,142	0,008
171,779	172,358	-0,231	-0,232
172,794	-30,456	-0,247	-0,097
173,808	-39,746	-0,224	-0,081
174,823	29,864	-0,244	-0,145
175,837	55,509	-0,294	-0,198
176,852	15,054	-0,297	-0,162
177,867	-35,954	-0,234	-0,088
178,881	76,629	-0,130	-0,096
179,896	-25,975	-0,294	-0,120
180,910	176,633	-0,193	-0,196
181,925	96,980	-0,320	-0,255
182,940	151,167	-0,220	-0,209
183,954	128,771	-0,280	-0,248
184,969	144,582	-0,252	-0,234
185,983	145,828	-0,098	-0,091
186,998	-101,751	-0,304	0,051
188,013	-141,910	-0,129	0,009
189,027	273,556	-0,196	-0,242
190,042	17,290	-0,249	-0,137
191,056	743,921	-0,070	-0,131
192,071	-20,271	-0,318	-0,136
193,086	-77,161	-0,142	-0,034
194,100	29,240	-0,208	-0,122
195,115	7,528	-0,295	-0,153
196,129	-133,174	-0,345	-0,030
197,144	169,438	-0,215	-0,214
198,159	221,847	-0,179	-0,200
199,173	120,581	-0,134	-0,116
200,188	100,501	-0,184	-0,149
201,202	-85,822	-0,193	0,041
202,217	413,583	-0,192	-0,286
203,232	800,000	-0,147	-0,325
204,246	274,762	-0,208	-0,256
205,261	35,288	-0,159	-0,097
206,275	141,344	-0,232	-0,214
207,290	800,000	-0,092	-0,181
208,304	244,464	-0,133	-0,156
209,319	19,307	-0,240	-0,134
210,334	202,154	-0,248	-0,266
211,348	-56,562	-0,160	-0,049
212,363	390,240	-0,137	-0,198
213,377	800,000	-0,123	-0,287
214,392	-41,028	-0,150	-0,054
215,407	36,358	-0,217	-0,133
216,421	-139,855	-0,162	-0,012
217,436	74,491	-0,212	-0,155
218,450	800,000	-0,110	-0,260
219,465	79,968	-0,173	-0,129
220,480	800,000	-0,082	-0,180
221,494	8,222	-0,191	-0,099
222,509	-60,407	-0,192	-0,056
223,523	199,030	-0,225	-0,239
224,538	257,229	-0,229	-0,274
225,553	217,904	-0,178	-0,198
226,567	656,985	-0,148	-0,266
227,582	111,113	-0,162	-0,135
228,596	154,813	-0,164	-0,157
229,611	-79,199	-0,127	-0,030
230,626	800,000	-0,073	-0,142
231,640	-115,675	-0,185	-0,024
232,655	-59,406	-0,168	-0,050
233,669	76,893	-0,228	-0,167
234,684	17,219	-0,305	-0,167
235,699	-21,269	-0,345	-0,146
236,713	45,115	-0,197	-0,125
237,728	-93,385	-0,205	-0,039
238,742	231,290	-0,229	-0,260
239,757	-45,789	-0,219	-0,075
240,772	-34,568	-0,273	-0,103
241,786	67,912	-0,226	-0,160
242,801	333,784	-0,171	-0,230
243,815	770,186	-0,065	-0,123
244,830	-37,911	-0,251	-0,092
245,844	-17,744	-0,207	-0,090
246,859	100,216	-0,194	-0,155
247,874	591,755	-0,108	-0,185
248,888	225,802	-0,196	-0,221
249,903	-89,621	-0,191	-0,039
250,917	3,628	-0,184	-0,093
251,932	-80,500	-0,152	-0,035
252,947	800,000	-0,065	-0,195
253,961	65,242	-0,206	-0,144
254,976	41,789	-0,323	-0,202
255,990	0,941	-0,237	-0,117
257,005	770,386	-0,075	-0,143
258,020	-118,200	-0,151	-0,018
259,034	673,853	-0,133	-0,240
260,049	88,998	-0,084	-0,064
261,063	-10,748	-0,198	-0,090
262,078	-100,868	-0,144	0,024
263,093	72,726	-0,192	-0,139
264,107	478,732	-0,090	-0,141
265,122	-23,350	-0,172	-0,071
266,136	7,551	-0,202	-0,104
267,151	29,656	-0,189	-0,111
268,166	162,088	-0,205	-0,199
269,180	800,000	-0,111	-0,214
270,195	33,115	-0,166	-0,099
271,209	38,753	-0,209	-0,129
272,224	19,415	-0,183	-0,101
273,239	184,244	-0,183	-0,187
274,253	-129,949	-0,114	0,011
275,268	-36,785	-0,219	-0,081
276,282	800,000	-0,108	-0,249
277,297	269,177	-0,141	-0,171
278,312	-42,073	-0,203	-0,071
279,326	-77,333	-0,259	-0,062
280,341	315,051	-0,150	-0,196
281,355	352,131	-0,127	-0,174
282,370	-62,216	-0,160	-0,046
283,384	800,000	-0,131	-0,275
284,399	115,789	-0,189	-0,160
285,414	-52,778	-0,160	-0,051
286,428	-17,885	-0,111	-0,048
287,443	130,983	-0,147	-0,130
288,457	-200,000	-0,007	-0,037
289,472	131,967	-0,200	-0,178
290,487	157,630	-0,124	-0,119
291,501	-83,260	-0,225	-0,050
292,516	26,833	-0,192	-0,111
293,530	82,216	-0,256	-0,191
294,545	35,569	-0,098	-0,060
295,560	308,533	-0,102	-0,132
296,574	-110,821	-0,260	-0,037
297,589	169,060	-0,193	-0,190
298,603	800,000	-0,081	-0,180
299,618	800,000	-0,127	-0,287
300,633	140,611	-0,169	-0,154
301,647	800,000	-0,116	-0,245
302,662	175,023	-0,091	-0,091
303,676	-12,819	-0,124	-0,055
304,691	788,340	-0,052	-0,098
305,706	336,879	-0,101	-0,136
306,720	-127,088	-0,223	0,022
307,735	127,287	-0,146	-0,127
308,749	292,559	-0,066	-0,084
309,764	-57,880	-0,248	-0,074
310,779	-142,321	-0,172	0,012
311,793	-107,167	-0,190	-0,028
312,808	486,292	-0,150	-0,237
313,822	195,911	-0,205	-0,215
314,837	634,264	-0,082	-0,143
315,852	172,632	-0,193	-0,191
316,866	-40,500	-0,085	0,030
317,881	-157,602	-0,200	-0,008
318,895	-29,657	-0,215	-0,084
319,910	-5,771	-0,216	-0,101
320,925	800,000	-0,093	-0,209
321,939	-200,000	-0,063	-0,282
322,954	64,000	-0,099	0,069
323,968	-134,923	-0,111	0,009
324,983	-62,476	-0,172	-0,049
325,997	800,000	-0,109	-0,254
327,012	220,662	-0,196	-0,217
328,027	47,072	-0,179	-0,114
329,041	-200,000	-0,015	-0,128
330,056	78,179	-0,040	0,029
331,070	-1,456	-0,191	0,092
332,085	-99,527	-0,076	-0,013
333,100	-139,600	-0,124	0,009
334,114	72,259	-0,196	-0,140
335,129	48,153	-0,211	-0,135
336,143	43,729	-0,079	-0,050
337,158	468,092	-0,087	-0,134
338,173	-61,975	-0,091	0,026
339,187	-95,736	-0,204	0,037
340,202	140,096	-0,081	-0,074
341,216	-187,278	-0,072	-0,001
342,231	353,154	-0,148	-0,202
343,246	55,340	-0,148	-0,098
344,260	62,826	-0,204	-0,140
345,275	101,907	-0,063	-0,050
346,289	66,263	-0,064	-0,044
347,304	-71,335	-0,033	0,008
348,319	148,265	-0,167	-0,154
349,333	-62,851	-0,352	-0,099
350,348	257,927	-0,108	-0,128
351,362	398,959	-0,093	-0,134
352,377	437,967	-0,068	-0,102
353,392	257,416	-0,054	-0,064
354,406	722,257	-0,001	0,002
355,421	208,196	1314,423	1411,052
356,435	160,187	1475,087	1411,523
