DTS Sentinel unit serial number:	SN410029Multiplexer serial number:	ORYXHardware model number:	OX2-SRSoftware version number:	ORYX F/W v4,00 Oryx Data Collector v3.7.2.0data status	okinstallation	B3 Nyhavnadifferential loss correction	single-endedforward channel	channel 1reverse channel	N/Adate	2023/12/02time	23:47:30forward acquisition time	300,00reverse acquisition time	0,00gamma	499,1914k internal	0,3201k external	0,3201temperature offset calibration	1,0000default loss term (dB/km)	0,3820temperature slope calibration	1,0000multiplexer offset coefficient	1,0000multiplexer slope coefficient	1,0000fibre end	0,00T internal ref (°C)	13,25T ext. ref 1 (°C)	-1,70T ext. ref 2 (°C)	-1,72length (m)	temperature (°C)	Stokes	anti-Stokes-744,400	446,103	-0,265	-0,425
-743,385	-200,000	-0,033	0,427
-742,371	29,577	-0,192	-0,119
-741,356	-200,000	-0,006	0,362
-740,342	184,016	-0,186	-0,200
-739,327	-200,000	-0,038	0,223
-738,312	113,236	-0,227	-0,200
-737,298	-200,000	-0,113	0,384
-736,283	85,033	-0,359	-0,286
-735,269	-200,000	0,060	0,223
-734,254	119,314	-0,203	-0,183
-733,239	-40,849	-0,154	0,058
-732,225	800,000	-0,116	-0,239
-731,210	276,638	-0,093	0,120
-730,196	800,000	0,033	0,105
-729,181	-200,000	-0,015	0,160
-728,167	800,000	0,029	0,062
-727,152	2,788	0,108	0,057
-726,137	-75,521	-0,131	-0,034
-725,123	205,573	0,100	0,113
-724,108	140,279	0,055	-0,053
-723,094	-200,000	-0,020	-0,092
-722,079	-99,319	-0,280	0,051
-721,064	1,487	-0,022	-0,011
-720,050	-200,000	0,009	-0,069
-719,035	-200,000	-0,002	-0,084
-718,021	800,000	0,032	-0,065
-717,006	-132,696	-0,182	0,017
-715,991	36,369	-0,103	-0,066
-714,977	-200,000	-0,002	-0,137
-713,962	159,364	-0,069	-0,070
-712,948	-87,513	0,107	0,023
-711,933	-89,334	-0,042	0,009
-710,918	120,885	-0,114	0,103
-709,904	265,424	0,059	-0,075
-708,889	-200,000	0,017	-0,169
-707,875	78,251	0,098	-0,076
-706,860	159,524	-0,037	0,037
-705,845	-0,969	0,022	0,011
-704,831	-64,638	0,037	0,011
-703,816	-78,127	0,061	-0,015
-702,802	-200,000	-0,027	-0,151
-701,787	-83,033	0,069	-0,016
-700,772	18,647	-0,091	0,053
-699,758	-200,000	0,039	-0,126
-698,743	-200,000	-0,013	0,172
-697,729	42,366	-0,013	-0,008
-696,714	-200,000	-0,004	0,088
-695,699	76,518	0,139	-0,107
-694,685	455,999	-0,064	-0,103
-693,670	-64,685	-0,133	0,039
-692,656	-6,248	0,056	0,028
-691,641	800,000	-0,015	0,033
-690,627	-200,000	0,011	-0,071
-689,612	-200,000	-0,023	0,154
-688,597	800,000	-0,053	-0,130
-687,583	68,666	-0,062	0,046
-686,568	-156,191	-0,107	-0,005
-685,554	527,120	-0,054	-0,092
-684,539	178,167	-0,056	0,059
-683,524	423,878	-0,033	-0,052
-682,510	-200,000	0,002	0,086
-681,495	-200,000	0,002	-0,012
-680,481	-200,000	-0,122	-0,000
-679,466	800,000	-0,069	-0,171
-678,451	492,003	-0,018	-0,030
-677,437	-148,819	0,130	-0,008
-676,422	-74,429	0,076	-0,020
-675,408	-69,332	-0,098	0,027
-674,393	146,317	-0,105	0,102
-673,378	-120,077	-0,151	-0,019
-672,364	109,405	-0,145	-0,126
-671,349	800,000	-0,032	0,096
-670,335	356,617	-0,081	0,117
-669,320	134,925	0,111	0,104
-668,305	22,768	-0,074	0,044
-667,291	-200,000	0,016	-0,066
-666,276	-25,691	-0,172	0,073
-665,262	61,672	-0,110	0,079
-664,247	152,853	-0,093	-0,092
-663,232	94,842	0,066	-0,054
-662,218	15,403	0,044	0,025
-661,203	800,000	0,031	-0,096
-660,189	407,101	0,041	-0,063
-659,174	180,140	-0,043	-0,045
-658,159	-156,738	-0,122	-0,005
-657,145	800,000	0,057	-0,126
-656,130	246,426	0,041	0,051
-655,116	800,000	0,044	-0,107
-654,101	487,504	0,037	0,061
-653,086	-200,000	-0,008	0,069
-652,072	-51,494	0,034	-0,012
-651,057	180,153	-0,117	-0,125
-650,043	-53,920	-0,071	-0,023
-649,028	-106,324	-0,058	0,009
-648,014	45,570	0,115	0,077
-646,999	800,000	-0,033	-0,079
-645,984	-200,000	0,009	0,032
-644,970	144,861	-0,062	-0,060
-643,955	508,942	0,049	-0,083
-642,941	800,000	-0,016	0,049
-641,926	162,892	0,054	0,055
-640,911	421,469	0,057	0,088
-639,897	77,518	0,038	0,029
-638,882	-200,000	0,003	0,037
-637,868	-49,040	-0,154	-0,053
-636,853	-200,000	-0,007	-0,178
-635,838	-30,492	-0,090	-0,037
-634,824	33,426	0,089	-0,056
-633,809	32,762	0,029	0,018
-632,795	-24,722	-0,088	0,038
-631,780	-200,000	0,005	0,053
-630,765	-16,274	-0,005	0,002
-629,751	-76,686	-0,091	0,023
-628,736	451,311	-0,043	-0,069
-627,722	800,000	-0,065	0,138
-626,707	580,367	0,014	-0,025
-625,692	800,000	0,056	0,120
-624,678	303,848	0,117	-0,158
-623,663	190,939	0,049	-0,054
-622,649	-40,567	-0,155	0,058
-621,634	-200,000	-0,027	-0,156
-620,619	800,000	0,007	0,016
-619,605	585,246	0,058	-0,104
-618,590	181,780	0,063	0,067
-617,576	-161,705	-0,085	-0,003
-616,561	220,591	-0,070	-0,081
-615,546	-200,000	0,001	-0,067
-614,532	-200,000	0,000	-0,129
-613,517	458,966	-0,023	0,038
-612,503	478,834	0,062	-0,102
-611,488	-83,434	0,029	-0,007
-610,474	800,000	-0,034	-0,089
-609,459	140,565	0,093	-0,089
-608,444	-14,776	-0,020	0,009
-607,430	-105,950	-0,069	-0,011
-606,415	800,000	-0,091	-0,193
-605,401	-200,000	0,012	-0,052
-604,386	-200,000	-0,009	-0,038
-603,371	-30,370	0,084	0,034
-602,357	-71,553	0,075	-0,020
-601,342	-200,000	-0,029	0,160
-600,328	158,613	-0,182	-0,183
-599,313	-72,017	-0,135	-0,036
-598,298	394,899	0,026	0,039
-597,284	-200,000	0,037	0,162
-596,269	-200,000	-0,001	0,087
-595,255	146,160	0,011	-0,011
-594,240	-200,000	-0,023	-0,085
-593,225	23,977	0,050	-0,030
-592,211	-200,000	-0,038	-0,214
-591,196	-200,000	0,033	0,000
-590,182	-41,924	0,052	-0,019
-589,167	-170,793	-0,051	0,001
-588,152	800,000	0,022	0,055
-587,138	-200,000	0,010	-0,062
-586,123	86,609	-0,093	0,074
-585,109	-99,345	-0,052	0,009
-584,094	-69,065	0,069	0,019
-583,079	800,000	-0,071	0,153
-582,065	187,985	-0,060	-0,065
-581,050	-64,091	0,050	-0,015
-580,036	-200,000	0,026	0,120
-579,021	-200,000	-0,020	-0,161
-578,006	33,862	-0,105	-0,066
-576,992	-200,000	-0,020	-0,072
-575,977	-200,000	-0,008	-0,046
-574,963	-76,463	0,084	0,021
-573,948	342,073	-0,010	0,015
-572,934	800,000	0,002	0,005
-571,919	6,057	-0,071	0,038
-570,904	-24,530	-0,118	-0,050
-569,890	6,045	0,042	-0,022
-568,875	-121,492	0,126	0,015
-567,861	-82,301	0,054	-0,013
-566,846	-200,000	-0,019	0,066
-565,831	-16,551	-0,029	0,013
-564,817	-200,000	-0,018	0,075
-563,802	336,643	-0,090	-0,126
-562,788	-200,000	0,014	0,191
-561,773	171,652	-0,021	-0,021
-560,758	-67,663	-0,091	-0,026
-559,744	318,145	0,045	0,062
-558,729	39,867	0,072	-0,047
-557,715	52,424	-0,080	-0,055
-556,700	83,714	-0,098	0,077
-555,685	800,000	-0,031	-0,069
-554,671	800,000	-0,029	0,088
-553,656	132,697	-0,097	0,090
-552,642	58,765	-0,076	-0,054
-551,627	-200,000	0,007	0,022
-550,612	362,313	0,032	-0,047
-549,598	32,189	-0,166	-0,103
-548,583	182,455	0,038	0,041
-547,569	193,292	-0,064	0,070
-546,554	44,213	0,015	0,010
-545,539	47,524	-0,076	0,051
-544,525	-200,000	-0,005	0,042
-543,510	13,960	0,113	-0,063
-542,496	-119,177	0,042	0,005
-541,481	32,337	-0,086	0,053
-540,466	219,000	0,072	-0,083
-539,452	-19,134	-0,010	0,004
-538,437	-200,000	0,006	0,023
-537,423	-200,000	0,002	0,022
-536,408	785,582	0,021	-0,042
-535,393	-114,524	-0,105	0,014
-534,379	-69,044	0,096	-0,027
-533,364	107,056	-0,032	-0,028
-532,350	768,959	-0,018	-0,036
-531,335	-200,000	0,033	0,123
-530,321	98,811	0,140	-0,116
-529,306	129,995	-0,120	-0,111
-528,291	26,520	0,124	-0,074
-527,277	-200,000	-0,027	-0,130
-526,262	323,210	-0,108	-0,148
-525,248	-12,137	0,149	-0,070
-524,233	-200,000	0,012	0,041
-523,218	453,513	-0,025	-0,040
-522,204	159,071	-0,069	-0,069
-521,189	-138,149	-0,187	0,015
-520,175	-147,372	-0,096	-0,006
-519,160	800,000	0,038	-0,108
-518,145	237,737	0,070	0,084
-517,131	800,000	-0,031	0,071
-516,116	687,928	0,035	0,066
-515,102	-166,187	-0,064	-0,002
-514,087	225,848	0,029	-0,034
-513,072	-200,000	0,012	-0,117
-512,058	-40,864	-0,060	-0,022
-511,043	456,635	0,047	-0,075
-510,029	-78,829	0,085	0,021
-509,014	-200,000	0,020	0,084
-507,999	800,000	-0,036	0,115
-506,985	-46,858	0,045	0,016
-505,970	730,520	-0,031	0,060
-504,956	683,474	0,035	0,067
-503,941	-200,000	-0,026	-0,209
-502,926	-157,037	-0,053	0,002
-501,912	800,000	-0,019	0,049
-500,897	22,007	0,065	0,038
-499,883	312,474	-0,057	0,077
-498,868	129,419	-0,153	-0,141
-497,853	438,626	-0,059	-0,093
-496,839	30,027	0,053	0,033
-495,824	-200,000	-0,004	-0,023
-494,810	124,425	0,098	0,089
-493,795	445,578	0,076	0,121
-492,781	118,469	-0,027	-0,024
-491,766	-200,000	-0,023	0,094
-490,751	-200,000	0,022	-0,187
-489,737	-200,000	-0,028	-0,098
-488,722	-109,790	0,150	0,022
-487,708	-200,000	0,018	0,064
-486,693	493,055	0,059	-0,097
-485,678	-161,779	-0,104	0,004
-484,664	800,000	-0,038	-0,084
-483,649	-200,000	0,020	-0,074
-482,635	175,013	-0,057	0,059
-481,620	800,000	0,025	0,075
-480,605	170,354	0,085	0,088
-479,591	800,000	0,015	-0,044
-478,576	11,948	0,057	-0,032
-477,562	82,266	-0,196	0,153
-476,547	382,434	-0,054	0,079
-475,532	696,024	0,033	0,063
-474,518	-200,000	-0,001	-0,055
-473,503	295,534	-0,074	0,098
-472,489	-200,000	-0,012	0,125
-471,474	330,556	0,103	0,142
-470,459	-12,177	-0,054	-0,025
-469,445	-200,000	-0,016	-0,110
-468,430	-27,821	0,063	-0,026
-467,416	469,714	-0,062	-0,100
-466,401	800,000	0,050	-0,108
-465,386	-200,000	0,014	0,054
-464,372	-200,000	-0,009	-0,065
-463,357	-124,542	0,050	-0,006
-462,343	22,359	-0,069	0,040
-461,328	-7,686	-0,061	-0,029
-460,313	-112,061	-0,067	-0,010
-459,299	-169,284	0,123	0,003
-458,284	246,823	0,061	0,075
-457,270	800,000	0,051	-0,156
-456,255	171,206	-0,076	0,078
-455,241	436,974	-0,030	0,047
-454,226	243,430	-0,118	-0,143
-453,211	195,163	0,101	-0,110
-452,197	-162,313	-0,061	-0,002
-451,182	800,000	0,011	-0,022
-450,168	53,406	-0,102	-0,070
-449,153	-70,152	-0,047	-0,013
-448,138	-200,000	-0,010	-0,055
-447,124	-20,889	-0,086	0,038
-446,109	108,955	0,050	0,043
-445,095	800,000	0,032	0,070
-444,080	-190,365	0,159	0,001
-443,065	-200,000	-0,024	0,088
-442,051	-200,000	-0,009	0,087
-441,036	154,878	-0,105	-0,104
-440,022	7,122	-0,025	-0,013
-439,007	65,699	-0,093	0,068
-437,992	20,448	0,171	0,099
-436,978	-59,809	0,167	0,051
-435,963	-135,661	-0,052	-0,004
-434,949	191,650	0,034	0,036
-433,934	-6,564	-0,084	-0,041
-432,919	601,141	-0,064	0,114
-431,905	-62,912	-0,070	0,021
-430,890	-113,676	-0,070	-0,010
-429,876	-200,000	-0,021	0,230
-428,861	-196,123	-0,122	-0,001
-427,846	-200,000	-0,087	0,000
-426,832	800,000	-0,049	-0,135
-425,817	11,850	0,069	-0,038
-424,803	-88,805	0,132	0,028
-423,788	-75,144	0,130	0,033
-422,773	-95,578	-0,009	-0,002
-421,759	800,000	0,020	-0,061
-420,744	674,484	-0,012	-0,023
-419,730	-200,000	0,011	-0,088
-418,715	21,002	-0,150	-0,087
-417,701	398,446	0,069	-0,103
-416,686	-200,000	-0,001	0,067
-415,671	162,506	0,091	0,091
-414,657	622,964	-0,051	-0,093
-413,642	-102,449	0,120	-0,020
-412,628	418,159	-0,055	-0,084
-411,613	49,102	-0,017	-0,012
-410,598	465,317	-0,056	-0,091
-409,584	415,060	0,069	0,105
-408,569	519,558	0,063	0,107
-407,555	-134,837	-0,105	0,009
-406,540	-110,112	0,043	-0,006
-405,525	-54,129	0,086	-0,028
-404,511	-33,682	-0,126	-0,050
-403,496	75,258	-0,068	0,052
-402,482	54,304	0,139	0,096
-401,467	59,140	0,088	0,062
-400,452	-200,000	-0,017	-0,087
-399,438	-200,000	0,025	0,097
-398,423	-65,645	-0,080	0,023
-397,409	198,358	0,072	-0,079
-396,394	254,357	-0,139	-0,171
-395,379	54,838	0,023	0,016
-394,365	130,629	-0,031	0,029
-393,350	-137,524	-0,057	0,005
-392,336	-43,693	0,094	0,034
-391,321	347,728	-0,045	-0,064
-390,306	-200,000	0,015	-0,110
-389,292	193,618	-0,092	0,100
-388,277	184,000	0,062	-0,066
-387,263	800,000	0,028	0,071
-386,248	66,583	0,100	-0,073
-385,233	407,799	0,068	0,104
-384,219	121,977	0,027	0,024
-383,204	117,437	-0,139	-0,123
-382,190	121,595	-0,111	-0,099
-381,175	4,212	0,039	-0,020
-380,160	-200,000	0,017	0,131
-379,146	-70,842	0,164	-0,044
-378,131	110,647	0,052	0,045
-377,117	-23,673	-0,174	0,074
-376,102	800,000	0,028	-0,085
-375,088	800,000	-0,043	-0,108
-374,073	30,413	0,044	0,027
-373,058	-7,402	-0,089	-0,043
-372,044	800,000	0,025	-0,074
-371,029	60,114	0,143	-0,101
-370,015	-200,000	-0,049	0,161
-369,000	-200,000	0,004	-0,112
-367,985	34,558	-0,050	-0,031
-366,971	26,890	0,179	-0,107
-365,956	627,994	0,098	0,179
-364,942	800,000	0,013	-0,038
-363,927	182,692	0,046	0,049
-362,912	36,069	0,042	0,026
-361,898	10,467	-0,143	-0,078
-360,883	190,552	0,118	-0,127
-359,869	-61,844	-0,094	-0,028
-358,854	159,119	-0,025	-0,024
-357,839	208,664	0,110	0,124
-356,825	-50,938	0,038	0,013
-355,810	-54,154	0,127	-0,041
-354,796	-200,000	-0,008	-0,103
-353,781	-200,000	-0,018	0,112
-352,766	-200,000	0,016	-0,071
-351,752	437,264	-0,046	-0,072
-350,737	800,000	0,042	0,109
-349,723	306,035	0,044	0,058
-348,708	-200,000	0,011	0,043
-347,693	119,927	-0,079	-0,070
-346,679	-69,381	0,079	-0,022
-345,664	-120,197	-0,101	0,012
-344,650	36,193	-0,055	0,035
-343,635	800,000	0,016	-0,046
-342,620	-200,000	-0,001	0,132
-341,606	-122,911	-0,046	-0,005
-340,591	800,000	0,023	-0,056
-339,577	800,000	-0,044	-0,102
-338,562	788,420	-0,070	-0,138
-337,548	298,258	0,063	0,083
-336,533	391,405	-0,072	0,108
-335,518	298,700	-0,054	0,071
-334,504	-25,064	-0,111	0,047
-333,489	157,187	0,126	-0,125
-332,475	-61,019	-0,106	-0,032
-331,460	18,054	0,054	-0,031
-330,445	75,775	-0,042	0,031
-329,431	-200,000	0,003	-0,037
-328,416	542,044	0,120	0,205
-327,402	800,000	-0,028	-0,073
-326,387	538,277	0,066	-0,113
-325,372	395,051	-0,043	-0,064
-324,358	245,267	0,073	-0,088
-323,343	272,706	0,049	0,062
-322,329	95,760	-0,125	0,102
-321,314	-200,000	0,093	-0,000
-320,299	-75,484	0,064	0,016
-319,285	-55,083	-0,049	-0,016
-318,270	-200,000	-0,037	-0,128
-317,256	137,825	0,127	-0,119
-316,241	-200,000	0,022	-0,128
-315,226	54,593	-0,067	-0,046
-314,212	-200,000	0,014	0,075
-313,197	-200,000	-0,004	0,068
-312,183	-160,576	0,056	0,002
-311,168	-172,779	-0,082	-0,002
-310,153	29,127	-0,107	0,064
-309,139	-137,156	-0,014	0,001
-308,124	119,506	-0,018	-0,016
-307,110	90,658	0,124	0,099
-306,095	249,598	0,080	0,098
-305,080	-58,300	-0,024	0,007
-304,066	-77,643	0,059	0,014
-303,051	-200,000	-0,015	-0,163
-302,037	230,882	0,053	-0,062
-301,022	596,676	0,045	-0,081
-300,008	-99,051	-0,069	0,012
-298,993	-87,336	0,040	0,009
-297,978	-34,930	0,235	0,091
-296,964	800,000	-0,074	-0,164
-295,949	-200,000	-0,005	-0,174
-294,935	102,943	-0,127	-0,106
-293,920	49,322	0,081	0,054
-292,905	-110,951	0,099	0,014
-291,891	659,432	-0,087	0,161
-290,876	62,343	-0,037	0,027
-289,862	182,817	-0,038	0,041
-288,847	-200,000	-0,002	0,009
-287,832	178,433	-0,149	-0,156
-286,818	365,631	-0,074	-0,106
-285,803	-200,000	0,001	-0,005
-284,789	-141,925	0,164	0,011
-283,774	42,942	0,064	0,041
-282,759	-109,859	0,113	0,017
-281,745	-47,441	-0,023	-0,008
-280,730	-200,000	0,023	-0,227
-279,716	-173,096	0,064	-0,001
-278,701	-56,033	0,091	-0,029
-277,686	316,820	0,062	0,084
-276,672	-30,843	0,103	0,041
-275,657	-177,197	-0,058	0,001
-274,643	-200,000	-0,006	-0,062
-273,628	-17,483	-0,127	0,057
-272,613	-66,154	0,079	0,022
-271,599	86,671	-0,113	-0,089
-270,584	-200,000	0,023	0,073
-269,570	62,467	0,137	0,098
-268,555	800,000	-0,051	0,118
-267,540	641,303	0,033	0,060
-266,526	-200,000	0,021	-0,102
-265,511	-30,753	0,126	0,050
-264,497	-200,000	0,045	0,159
-263,482	143,248	-0,015	-0,014
-262,467	-200,000	0,011	0,078
-261,453	163,865	-0,075	0,075
-260,438	-17,140	0,039	-0,018
-259,424	-116,466	0,061	0,008
-258,409	455,344	-0,077	0,122
-257,395	-200,000	0,045	0,195
-256,380	94,548	0,124	-0,101
-255,365	-200,000	-0,027	0,084
-254,351	-109,508	0,076	0,011
-253,336	-200,000	-0,004	-0,017
-252,322	-200,000	-0,019	-0,190
-251,307	-155,459	0,054	-0,002
-250,292	800,000	0,017	0,036
-249,278	14,937	0,119	0,066
-248,263	197,459	0,111	0,121
-247,249	-15,993	-0,017	-0,008
-246,234	-200,000	-0,007	-0,056
-245,219	-27,773	-0,094	0,039
-244,205	-14,441	-0,078	-0,036
-243,190	800,000	0,022	-0,058
-242,176	704,899	0,050	-0,094
-241,161	261,671	0,067	0,084
-240,146	580,059	-0,075	0,132
-239,132	-144,269	0,068	0,004
-238,117	-200,000	0,020	-0,087
-237,103	-200,000	0,003	-0,055
-236,088	-138,266	0,041	-0,003
-235,073	135,321	-0,048	0,044
-234,059	-200,000	0,013	0,088
-233,044	-86,341	-0,098	-0,021
-232,030	-51,062	0,040	-0,013
-231,015	7,455	0,095	-0,050
-230,000	218,001	-0,036	0,042
-228,986	-53,467	0,106	-0,034
-227,971	58,308	0,017	0,012
-226,957	-200,000	0,045	0,203
-225,942	-200,000	0,012	0,171
-224,927	65,960	-0,026	-0,018
-223,913	800,000	0,012	0,028
-222,898	-150,913	-0,027	0,001
-221,884	148,851	0,027	0,026
-220,869	-30,721	0,101	0,040
-219,855	-33,804	0,055	0,022
-218,840	198,343	-0,062	0,068
-217,825	-120,320	0,050	0,006
-216,811	41,424	-0,093	0,060
-215,796	-45,906	0,068	-0,024
-214,782	800,000	-0,043	-0,110
-213,767	21,132	-0,047	-0,027
-212,752	800,000	0,054	0,122
-211,738	27,012	-0,125	-0,074
-210,723	85,509	0,063	0,049
-209,709	800,000	-0,047	0,094
-208,694	800,000	-0,042	0,107
-207,679	125,133	0,011	0,009
-206,665	-92,046	0,097	0,019
-205,650	800,000	-0,035	0,095
-204,636	526,168	0,002	0,004
-203,621	67,121	0,026	-0,019
-202,606	-200,000	-0,000	0,002
-201,592	58,112	-0,074	0,051
-200,577	-200,000	-0,026	-0,093
-199,563	300,482	0,076	0,101
-198,548	31,663	0,090	0,055
-197,533	183,476	0,053	0,055
-196,519	800,000	0,070	0,172
-195,504	-200,000	0,023	-0,119
-194,490	800,000	0,022	-0,045
-193,475	-45,649	0,153	-0,054
-192,460	60,908	-0,050	-0,035
-191,446	230,282	-0,067	0,078
-190,431	-200,000	0,009	0,152
-189,417	-200,000	-0,012	0,181
-188,402	-200,000	0,016	0,074
-187,387	-112,488	-0,080	-0,011
-186,373	107,673	0,023	0,020
-185,358	156,239	0,067	-0,066
-184,344	-56,990	-0,100	-0,031
-183,329	19,595	0,010	0,005
-182,315	61,638	-0,055	-0,039
-181,300	287,114	-0,079	0,102
-180,285	40,036	-0,039	0,025
-179,271	16,684	0,024	-0,014
-178,256	-1,504	0,019	0,010
-177,242	-104,512	-0,135	-0,022
-176,227	-1,612	0,137	0,068
-175,212	800,000	0,060	0,122
-174,198	105,346	-0,059	0,049
-173,183	137,830	-0,096	-0,089
-172,169	99,315	-0,121	-0,100
-171,154	149,517	-0,021	0,020
-170,139	77,117	0,035	0,026
-169,125	187,438	0,038	0,041
-168,110	-92,655	0,073	0,014
-167,096	-65,525	-0,151	0,043
-166,081	-200,000	0,005	0,028
-165,066	21,106	-0,076	-0,044
-164,052	380,159	0,046	-0,067
-163,037	681,335	0,030	-0,055
-162,023	-200,000	0,002	0,096
-161,008	-200,000	0,012	0,060
-159,993	-200,000	0,038	0,135
-158,979	334,887	-0,040	0,056
-157,964	160,987	-0,039	0,038
-156,950	-153,966	-0,110	0,005
-155,935	-149,447	0,049	0,003
-154,920	491,539	-0,009	-0,015
-153,906	800,000	-0,029	0,084
-152,891	800,000	0,035	-0,092
-151,877	-83,263	-0,087	0,020
-150,862	800,000	-0,033	-0,095
-149,847	136,539	-0,063	0,058
-148,833	580,980	0,069	-0,121
-147,818	190,806	-0,039	-0,042
-146,804	-17,839	-0,100	-0,044
-145,789	335,302	0,063	0,087
-144,775	-23,886	-0,165	0,070
-143,760	-96,775	-0,088	0,016
-142,745	320,837	-0,070	-0,095
-141,731	148,287	0,041	0,039
-140,716	106,087	-0,100	0,084
-139,702	128,640	0,107	-0,097
-138,687	-99,395	-0,155	-0,027
-137,672	42,874	0,107	-0,069
-136,658	-200,000	0,024	-0,104
-135,643	-200,000	-0,008	0,048
-134,629	100,411	-0,132	0,109
-133,614	-200,000	-0,009	-0,122
-132,599	172,593	0,089	-0,091
-131,585	-200,000	-0,005	-0,053
-130,570	-200,000	0,004	-0,032
-129,556	224,012	0,131	-0,150
-128,541	-200,000	0,030	-0,107
-127,526	-200,000	-0,001	0,053
-126,512	46,220	-0,042	-0,027
-125,497	-9,749	-0,076	0,036
-124,483	272,969	0,049	-0,061
-123,468	-103,432	0,120	0,020
-122,453	61,370	0,032	-0,022
-121,439	284,555	-0,097	-0,124
-120,424	800,000	-0,015	0,046
-119,410	-25,110	0,088	-0,037
-118,395	-80,912	0,086	-0,020
-117,380	324,059	0,054	0,074
-116,366	-152,468	0,033	0,002
-115,351	-53,439	-0,090	0,029
-114,337	-70,317	-0,074	-0,020
-113,322	123,759	-0,129	-0,115
-112,307	-200,000	0,001	-0,185
-111,293	-200,000	-0,021	0,098
-110,278	49,316	0,106	0,071
-109,264	362,044	0,081	0,116
-108,249	-42,962	-0,080	-0,029
-107,234	54,891	-0,070	-0,048
-106,220	277,843	-0,017	-0,022
-105,205	30,352	0,181	-0,109
-104,191	800,000	0,030	-0,084
-103,176	800,000	-0,043	0,115
-102,162	-5,534	-0,063	0,031
-101,147	-102,752	-0,034	0,006
-100,132	800,000	-0,069	-0,192
-99,118	-164,447	-0,045	0,001
-98,103	800,000	0,028	0,073
-97,089	800,000	0,041	-0,093
-96,074	-12,292	0,059	0,027
-95,059	-118,765	-0,142	-0,018
-94,045	-200,000	-0,017	-0,086
-93,030	411,035	-0,018	-0,027
-92,016	-33,571	-0,031	0,012
-91,001	19,730	-0,042	-0,024
-89,986	-162,555	-0,046	0,002
-88,972	-6,872	0,158	0,076
-87,957	9,001	0,075	-0,040
-86,943	-200,000	-0,010	0,109
-85,928	25,735	0,104	-0,061
-84,913	141,498	-0,079	-0,074
-83,899	705,606	-0,038	-0,072
-82,884	800,000	0,006	0,014
-81,870	-31,072	-0,135	0,054
-80,855	800,000	0,089	0,261
-79,840	380,180	0,030	0,043
-78,826	254,713	0,047	-0,057
-77,811	-131,448	-0,116	-0,011
-76,797	-200,000	0,032	0,107
-75,782	-5,568	0,167	0,081
-74,767	499,521	-0,104	0,171
-73,753	459,621	-0,046	0,074
-72,738	-165,016	-0,055	-0,002
-71,724	-95,682	-0,083	-0,016
-70,709	-200,000	0,006	-0,092
-69,694	69,764	0,045	-0,033
-68,680	-58,162	-0,065	0,020
-67,665	800,000	0,038	0,116
-66,651	89,391	0,095	0,075
-65,636	212,411	-0,019	0,021
-64,622	800,000	0,017	0,034
-63,607	581,760	-0,057	-0,100
-62,592	-100,393	-0,118	0,021
-61,578	381,643	-0,117	-0,171
-60,563	800,000	0,034	-0,075
-59,549	-200,000	0,011	0,142
-58,534	-10,759	-1,520	-0,709
-57,519	420,705	-1,308	-1,992
-56,505	-200,000	-0,647	-4,392
-55,490	207,107	0,930	1,029
-54,476	800,000	5,014	11,458
-53,461	-200,000	19,191	320,226
-52,446	-200,000	740,750	2333,906
-51,432	573,424	1655,556	2869,227
-50,417	78,216	1671,085	1261,478
-49,403	21,244	1543,989	885,326
-48,388	15,096	1466,396	810,936
-47,373	17,957	1456,668	819,351
-46,359	16,635	1446,628	807,332
-45,344	13,387	1441,813	789,050
-44,330	13,262	1440,120	787,494
-43,315	13,298	1438,248	786,613
-42,300	13,328	1436,410	785,720
-41,286	13,354	1435,124	785,107
-40,271	13,283	1433,979	784,113
-39,257	13,304	1432,580	783,415
-38,242	13,390	1431,211	783,048
-37,227	13,319	1430,347	782,203
-36,213	13,337	1428,917	781,476
-35,198	13,334	1427,716	780,777
-34,184	13,411	1426,597	780,496
-33,169	13,294	1425,485	779,303
-32,154	13,342	1424,443	778,929
-31,140	13,350	1422,944	778,118
-30,125	13,407	1421,965	777,822
-29,111	13,396	1420,766	777,080
-28,096	13,339	1419,781	776,244
-27,082	13,302	1418,658	775,425
-26,067	13,275	1417,437	774,599
-25,052	13,317	1416,399	774,199
-24,038	13,277	1415,448	773,458
-23,023	13,251	1414,513	772,795
-22,009	13,274	1413,388	772,258
-20,994	13,270	1412,552	771,752
-19,979	13,249	1411,451	771,020
-18,965	13,193	1410,788	770,365
-17,950	13,237	1409,681	769,939
-16,936	13,258	1408,719	769,479
-15,921	13,222	1407,580	768,658
-14,906	13,188	1406,963	768,130
-13,892	13,166	1406,074	767,512
-12,877	13,164	1405,099	766,939
-11,863	13,178	1404,242	766,510
-10,848	13,186	1403,302	766,001
-9,833	13,133	1402,447	765,257
-8,819	13,092	1401,467	764,500
-7,804	13,096	1400,753	764,101
-6,790	13,118	1399,523	763,504
-5,775	13,089	1398,601	762,833
-4,760	13,105	1397,574	762,317
-3,746	13,066	1396,820	761,695
-2,731	13,071	1395,909	761,193
-1,717	13,043	1395,095	760,587
-0,702	13,078	1393,172	759,670
0,313	16,934	1310,211	732,295
1,327	33,346	703,892	431,351
2,342	51,174	123,423	82,711
3,356	1,594	16,666	8,459
4,371	10,837	3,197	1,722
5,386	52,742	0,496	0,335
6,400	-200,000	0,029	0,224
7,415	-38,199	-0,155	-0,058
8,429	15,244	-0,262	-0,145
9,444	-60,334	-0,314	-0,094
10,459	37,446	-0,310	-0,194
11,473	204,541	-0,311	-0,341
12,488	-61,955	-0,266	-0,078
13,502	-11,078	-0,319	-0,148
14,517	-3,576	-0,320	-0,157
15,531	-26,612	-0,405	-0,167
16,546	-141,977	-0,424	0,029
17,561	159,331	-0,306	-0,301
18,575	-71,981	-0,191	0,050
19,590	-40,869	-0,374	-0,136
20,604	80,673	-0,211	-0,160
21,619	120,432	-0,410	-0,359
22,634	87,685	-0,438	-0,343
23,648	50,452	-0,316	-0,211
24,663	9,448	-0,442	-0,235
25,677	101,182	-0,361	-0,297
26,692	128,059	-0,292	-0,262
27,707	8,527	-0,339	-0,180
28,721	4,202	-0,411	-0,212
29,736	35,666	-0,348	-0,215
30,750	86,702	-0,431	-0,336
31,765	12,449	-0,422	-0,229
32,780	10,079	-0,370	-0,198
33,794	-11,323	-0,327	-0,152
34,809	-41,853	-0,395	-0,142
35,823	-0,772	-0,344	-0,171
36,838	85,564	-0,412	-0,319
37,853	-41,921	-0,350	-0,126
38,867	137,323	-0,307	-0,283
39,882	119,560	-0,233	-0,203
40,896	123,155	-0,332	-0,293
41,911	-66,804	-0,365	-0,101
42,926	24,877	-0,433	-0,252
43,940	141,102	-0,334	-0,312
44,955	-70,443	-0,444	-0,118
45,969	2,418	-0,484	-0,246
46,984	118,060	-0,260	-0,226
47,999	139,380	-0,264	-0,244
49,013	-25,880	-0,322	-0,133
50,028	0,919	-0,499	-0,251
51,042	84,265	-0,324	-0,249
52,057	157,082	-0,289	-0,282
53,071	230,888	-0,252	-0,291
54,086	95,790	-0,283	-0,227
55,101	67,422	-0,301	-0,216
56,115	-44,498	-0,353	-0,124
57,130	-25,570	-0,410	-0,170
58,144	132,644	-0,324	-0,294
59,159	7,385	-0,345	-0,181
60,174	157,198	-0,306	-0,299
61,188	-13,788	-0,314	-0,142
62,203	-103,782	-0,333	-0,054
63,217	198,000	-0,293	-0,315
64,232	-13,422	-0,361	-0,164
65,247	85,477	-0,305	-0,235
66,261	119,151	-0,342	-0,298
67,276	-10,299	-0,329	-0,153
68,290	-125,462	-0,435	-0,046
69,305	-29,877	-0,330	-0,132
70,320	34,969	-0,331	-0,204
71,334	-19,558	-0,390	-0,169
72,349	-6,078	-0,371	-0,178
73,363	-25,087	-0,332	-0,138
74,378	-82,594	-0,226	-0,051
75,393	108,380	-0,288	-0,242
76,407	158,913	-0,290	-0,284
77,422	-33,555	-0,386	-0,149
78,436	-75,222	-0,375	-0,093
79,451	37,666	-0,295	-0,184
80,466	47,533	-0,309	-0,202
81,480	117,867	-0,355	-0,307
82,495	125,439	-0,298	-0,264
83,509	255,871	-0,206	-0,249
84,524	-25,669	-0,230	-0,095
85,539	68,588	-0,285	-0,205
86,553	12,398	-0,385	-0,208
87,568	-46,858	-0,314	-0,107
88,582	81,815	-0,269	-0,204
89,597	84,658	-0,347	-0,267
90,611	104,459	-0,247	-0,204
91,626	-57,943	-0,333	-0,101
92,641	-20,741	-0,353	-0,151
93,655	-35,327	-0,347	-0,132
94,670	51,096	-0,317	-0,211
95,684	129,291	-0,201	-0,180
96,699	4,061	-0,291	-0,149
97,714	31,366	-0,233	-0,140
98,728	163,984	-0,270	-0,267
99,743	135,250	-0,224	-0,204
100,757	800,000	-0,115	-0,236
101,772	-57,640	-0,390	-0,119
102,787	81,332	-0,257	-0,195
103,801	37,654	-0,401	-0,249
104,816	-109,547	-0,275	-0,040
105,830	-14,830	-0,281	-0,126
106,845	148,120	-0,252	-0,238
107,860	-35,462	-0,207	-0,078
108,874	165,896	-0,287	-0,285
109,889	162,220	-0,284	-0,279
110,903	1,117	-0,328	-0,165
111,918	16,959	-0,405	-0,224
112,933	97,629	-0,277	-0,223
113,947	-31,143	-0,236	-0,093
114,962	-29,031	-0,153	-0,061
115,976	191,843	-0,191	-0,202
116,991	10,098	-0,284	-0,151
118,006	-41,148	-0,389	-0,140
119,020	-57,826	-0,342	-0,104
120,035	487,440	-0,193	-0,310
121,049	-75,641	-0,310	-0,076
122,064	-43,943	-0,295	-0,103
123,079	-87,706	-0,278	-0,058
124,093	23,401	-0,347	-0,199
125,108	32,023	-0,219	-0,132
126,122	800,000	-0,065	-0,151
127,137	89,948	-0,297	-0,232
128,151	32,388	-0,250	-0,151
129,166	-142,379	-0,227	0,015
130,181	17,178	-0,214	-0,118
131,195	-33,085	-0,321	-0,124
132,210	-78,971	-0,278	-0,066
133,224	2,366	-0,246	-0,124
134,239	266,672	-0,184	-0,225
135,254	4,914	-0,244	-0,125
136,268	143,884	-0,190	-0,177
137,283	-57,346	-0,210	-0,064
138,297	-57,865	-0,272	-0,083
139,312	84,440	-0,307	-0,234
140,327	-15,404	-0,295	-0,131
141,341	13,741	-0,263	-0,143
142,356	-119,880	-0,317	0,038
143,370	-29,051	-0,336	-0,134
144,385	-45,020	-0,206	-0,071
145,400	-72,539	-0,326	-0,084
146,414	40,108	-0,269	-0,169
147,429	-21,495	-0,219	-0,093
148,443	130,863	-0,320	-0,287
149,458	-54,804	-0,241	-0,076
150,473	-13,674	-0,213	-0,096
151,487	13,416	-0,272	-0,147
152,502	-90,557	-0,346	-0,069
153,516	71,773	-0,255	-0,185
154,531	36,250	-0,260	-0,160
155,546	135,794	-0,263	-0,239
156,560	-66,556	-0,213	-0,058
157,575	-155,618	-0,170	-0,008
158,589	-25,235	-0,270	-0,111
159,604	88,914	-0,227	-0,176
160,619	343,117	-0,167	-0,228
161,633	39,089	-0,319	-0,198
162,648	56,611	-0,316	-0,214
163,662	-19,930	-0,280	-0,120
164,677	-95,004	-0,185	-0,035
165,692	70,987	-0,210	-0,152
166,706	-99,323	-0,300	-0,052
167,721	-50,872	-0,148	-0,048
168,735	-77,639	-0,195	-0,047
169,750	87,995	-0,270	-0,209
170,764	215,523	-0,133	-0,148
171,779	800,000	-0,113	-0,222
172,794	44,875	-0,216	-0,139
173,808	25,366	-0,282	-0,163
174,823	-24,235	-0,274	-0,113
175,837	80,419	-0,246	-0,184
176,852	-56,366	-0,298	-0,092
177,867	117,079	-0,267	-0,229
178,881	-158,573	-0,272	0,011
179,896	36,341	-0,201	-0,123
180,910	196,294	-0,235	-0,249
181,925	268,772	-0,154	-0,188
182,940	54,601	-0,160	-0,107
183,954	44,519	-0,178	-0,113
184,969	171,550	-0,134	-0,134
185,983	-97,831	-0,131	-0,023
186,998	89,326	-0,078	-0,061
188,013	-6,663	-0,242	-0,114
189,027	95,979	-0,226	-0,180
190,042	117,414	-0,259	-0,222
191,056	120,192	-0,161	-0,139
192,071	12,197	-0,251	-0,134
193,086	-17,910	-0,111	-0,048
194,100	-101,037	-0,114	0,019
195,115	51,016	-0,207	-0,137
196,129	800,000	-0,097	-0,196
197,144	45,291	-0,193	-0,123
198,159	41,209	-0,145	-0,091
199,173	85,612	-0,201	-0,153
200,188	85,392	-0,107	-0,081
201,202	56,252	-0,168	-0,113
202,217	-46,745	-0,157	-0,053
203,232	394,201	-0,129	-0,188
204,246	191,453	-0,175	-0,184
205,261	483,990	-0,127	-0,201
206,275	-25,895	-0,136	-0,055
207,290	681,481	-0,130	-0,237
208,304	-45,274	-0,149	-0,051
209,319	44,259	-0,204	-0,130
210,334	-158,965	-0,319	0,012
211,348	280,462	-0,074	-0,092
212,363	-46,426	-0,261	-0,088
213,377	-83,953	-0,204	0,045
214,392	143,435	-0,136	-0,126
215,407	-27,736	-0,214	-0,086
216,421	38,765	-0,173	-0,107
217,436	79,732	-0,277	-0,207
218,450	86,076	-0,318	-0,243
219,465	107,163	-0,196	-0,162
220,480	262,379	-0,121	-0,146
221,494	308,068	-0,118	-0,153
222,509	13,527	-0,144	-0,077
223,523	69,821	-0,187	-0,134
224,538	800,000	-0,039	-0,102
225,553	72,735	-0,237	-0,171
226,567	-112,873	-0,156	-0,021
227,582	176,543	-0,152	-0,153
228,596	447,935	-0,082	-0,125
229,611	335,384	-0,119	-0,160
230,626	-148,682	-0,194	0,011
231,640	320,930	-0,162	-0,213
232,655	68,039	-0,184	-0,131
233,669	299,085	-0,092	-0,118
234,684	137,090	-0,254	-0,230
235,699	261,730	-0,133	-0,159
236,713	125,848	-0,079	-0,069
237,728	42,003	-0,170	-0,107
238,742	305,277	-0,145	-0,187
239,757	163,107	-0,116	-0,113
240,772	301,535	-0,169	-0,217
241,786	102,869	-0,167	-0,135
242,801	115,663	-0,164	-0,139
243,815	800,000	-0,084	-0,178
244,830	63,459	-0,181	-0,126
245,844	0,564	-0,210	-0,104
246,859	8,273	-0,165	-0,086
247,874	-1,259	-0,319	-0,156
248,888	-91,258	-0,172	-0,034
249,903	110,439	-0,135	-0,112
250,917	-146,629	-0,153	0,009
251,932	-63,392	-0,197	-0,056
252,947	-200,000	0,010	-0,039
253,961	-112,448	-0,276	-0,038
254,976	52,975	-0,166	-0,110
255,990	165,910	-0,215	-0,211
257,005	-135,769	-0,250	-0,020
258,020	666,707	-0,101	-0,181
259,034	5,627	-0,063	-0,032
260,049	-39,043	-0,195	0,071
261,063	197,544	-0,128	-0,135
262,078	-200,000	-0,047	-0,235
263,093	318,617	-0,091	-0,119
264,107	62,125	-0,166	-0,115
265,122	-98,680	-0,129	-0,023
266,136	201,814	-0,100	-0,107
267,151	-98,257	-0,212	-0,037
268,166	353,481	-0,065	-0,090
269,180	83,248	-0,173	-0,130
270,195	94,030	-0,196	-0,154
271,209	800,000	-0,051	-0,117
272,224	-150,863	-0,159	-0,008
273,239	299,759	-0,102	-0,130
274,253	95,440	-0,261	-0,206
275,268	-158,546	-0,164	-0,006
276,282	-65,252	-0,310	-0,086
277,297	583,268	-0,155	-0,264
278,312	-23,930	-0,153	-0,063
279,326	-135,696	-0,088	-0,007
280,341	-145,275	-0,114	-0,007
281,355	740,634	-0,058	-0,109
282,370	-52,591	-0,199	-0,063
283,384	281,850	-0,159	-0,197
284,399	313,179	-0,153	-0,198
285,414	-90,291	-0,256	-0,051
286,428	83,850	-0,185	-0,139
287,443	-37,818	-0,175	-0,064
288,457	-99,011	-0,122	-0,021
289,472	-54,380	-0,096	0,030
290,487	183,633	-0,144	-0,147
291,501	-37,216	-0,270	-0,099
292,516	1,110	-0,257	-0,127
293,530	10,696	-0,224	-0,118
294,545	58,567	-0,124	-0,084
295,560	0,551	-0,136	0,067
296,574	17,754	-0,258	-0,141
297,589	93,683	-0,212	-0,165
298,603	199,672	-0,196	-0,207
299,618	455,196	-0,062	-0,095
300,633	244,527	-0,146	-0,170
301,647	22,430	-0,178	-0,100
302,662	3,610	-0,206	-0,103
303,676	-27,902	-0,092	-0,037
304,691	225,512	-0,144	-0,161
305,706	-34,029	-0,218	-0,082
306,720	574,848	-0,147	-0,249
307,735	-15,076	-0,195	-0,085
308,749	232,917	-0,101	-0,115
309,764	283,971	-0,032	0,039
310,779	55,903	-0,237	-0,158
311,793	800,000	-0,119	-0,265
312,808	205,749	-0,156	-0,167
313,822	-159,874	-0,176	-0,007
314,837	-31,539	-0,148	0,057
315,852	341,111	-0,184	-0,248
316,866	1,583	-0,202	-0,100
317,881	36,741	-0,079	0,048
318,895	-16,339	-0,238	-0,104
319,910	42,588	-0,284	-0,178
320,925	31,525	-0,234	-0,138
321,939	119,390	-0,153	-0,130
322,954	-59,023	-0,120	-0,035
323,968	-110,904	-0,043	-0,006
324,983	-92,638	-0,038	-0,007
325,997	76,381	-0,183	-0,133
327,012	244,198	-0,098	-0,113
328,027	332,648	-0,146	-0,194
329,041	800,000	-0,088	-0,206
330,056	323,847	-0,128	-0,169
331,070	258,974	-0,053	-0,063
332,085	218,892	-0,070	-0,077
333,100	-23,931	-0,118	-0,048
334,114	235,539	-0,186	-0,211
335,129	223,715	-0,165	-0,183
336,143	56,412	-0,234	-0,156
337,158	208,549	-0,140	-0,151
338,173	120,589	-0,037	-0,032
339,187	82,315	-0,189	-0,140
340,202	262,699	-0,116	-0,138
341,216	-78,445	-0,231	-0,054
342,231	-200,000	-0,014	-0,200
343,246	794,190	-0,116	-0,220
344,260	-119,774	-0,093	-0,011
345,275	220,114	-0,077	0,085
346,289	78,084	-0,031	-0,023
347,304	-130,150	-0,124	0,011
348,319	-78,202	-0,248	-0,058
349,333	146,636	-0,133	-0,123
350,348	316,381	-0,031	-0,041
351,362	8,521	-0,177	-0,091
352,377	291,652	-0,035	0,044
353,392	360,655	-0,124	0,171
354,406	-148,317	-0,238	0,013
355,421	211,812	1310,283	1417,306
356,435	163,108	1470,485	1417,796
