DTS Sentinel unit serial number:	SN410029Multiplexer serial number:	ORYXHardware model number:	OX2-SRSoftware version number:	ORYX F/W v4,00 Oryx Data Collector v3.7.2.0data status	okinstallation	B3 Nyhavnadifferential loss correction	single-endedforward channel	channel 1reverse channel	N/Adate	2023/12/04time	10:02:30forward acquisition time	300,00reverse acquisition time	0,00gamma	499,1914k internal	0,3203k external	0,3203temperature offset calibration	1,0000default loss term (dB/km)	0,3820temperature slope calibration	1,0000multiplexer offset coefficient	1,0000multiplexer slope coefficient	1,0000fibre end	0,00T internal ref (°C)	13,39T ext. ref 1 (°C)	-1,03T ext. ref 2 (°C)	-1,07length (m)	temperature (°C)	Stokes	anti-Stokes-744,400	393,293	-0,189	-0,287
-743,385	570,149	-0,105	0,187
-742,371	92,306	-0,176	-0,144
-741,356	-200,000	0,058	0,277
-740,342	73,871	-0,207	-0,158
-739,327	-200,000	-0,009	0,298
-738,312	123,985	-0,229	-0,209
-737,298	-200,000	-0,007	0,269
-736,283	-200,000	-0,059	-0,214
-735,269	-200,000	0,075	0,300
-734,254	260,961	-0,228	-0,287
-733,239	144,809	-0,197	0,191
-732,225	-200,000	-0,055	-0,236
-731,210	-200,000	-0,022	0,099
-730,196	73,560	0,054	-0,041
-729,181	-200,000	0,009	-0,057
-728,167	-85,591	-0,059	0,013
-727,152	11,750	0,176	0,098
-726,137	345,775	0,028	0,040
-725,123	153,189	0,088	-0,088
-724,108	-200,000	0,013	-0,062
-723,094	-200,000	-0,014	-0,187
-722,079	-29,453	-0,184	-0,076
-721,064	77,064	0,076	0,059
-720,050	-83,607	0,028	-0,007
-719,035	-107,651	0,084	0,013
-718,021	-101,668	-0,178	0,031
-717,006	-37,240	-0,068	-0,026
-715,991	-7,111	-0,211	-0,104
-714,977	-9,659	-0,149	-0,072
-713,962	-144,708	-0,063	-0,004
-712,948	326,748	-0,039	-0,055
-711,933	94,583	0,110	-0,090
-710,918	-200,000	-0,005	0,020
-709,904	-200,000	-0,044	-0,165
-708,889	-14,538	0,092	0,043
-707,875	53,158	-0,036	0,025
-706,860	-200,000	-0,008	-0,120
-705,845	-155,507	0,029	0,001
-704,831	190,995	0,042	0,046
-703,816	-200,000	-0,025	0,084
-702,802	265,277	-0,006	0,008
-701,787	206,061	-0,042	-0,048
-700,772	-23,334	-0,051	0,022
-699,758	89,229	-0,049	0,040
-698,743	209,399	0,104	0,119
-697,729	129,145	0,065	0,060
-696,714	30,439	0,126	-0,078
-695,699	-23,846	0,095	0,041
-694,685	-70,837	-0,144	-0,039
-693,670	763,646	-0,039	-0,078
-692,656	74,074	-0,080	0,061
-691,641	-200,000	0,034	0,112
-690,627	800,000	0,064	0,190
-689,612	-156,981	0,116	-0,005
-688,597	-200,000	-0,017	-0,064
-687,583	413,410	-0,045	-0,069
-686,568	119,145	-0,079	0,071
-685,554	-200,000	-0,012	-0,049
-684,539	54,204	0,078	0,054
-683,524	-92,051	-0,084	0,017
-682,510	-148,048	0,075	0,004
-681,495	177,581	-0,073	-0,077
-680,481	749,844	-0,052	-0,102
-679,466	-200,000	-0,013	-0,137
-678,451	-63,796	0,052	-0,015
-677,437	395,589	-0,038	-0,058
-676,422	-68,781	-0,025	-0,007
-675,408	-18,022	-0,082	-0,037
-674,393	-146,366	-0,112	-0,007
-673,378	-73,956	-0,181	0,047
-672,364	-13,768	-0,104	0,049
-671,349	-42,139	-0,056	0,021
-670,335	-200,000	0,028	0,111
-669,320	-24,745	0,053	0,023
-668,305	405,585	0,096	0,147
-667,291	22,305	0,050	0,029
-666,276	800,000	-0,064	-0,147
-665,262	-200,000	-0,020	-0,169
-664,247	-200,000	0,015	-0,122
-663,232	-134,184	0,050	-0,004
-662,218	23,124	-0,047	-0,028
-661,203	-200,000	-0,003	0,109
-660,189	-68,886	-0,178	0,049
-659,174	587,128	-0,018	0,032
-658,159	800,000	-0,010	-0,025
-657,145	241,847	-0,082	0,100
-656,130	-47,059	-0,122	0,043
-655,116	800,000	0,048	0,131
-654,101	-26,214	-0,052	0,022
-653,086	-200,000	-0,006	0,042
-652,072	-4,569	-0,081	-0,040
-651,057	237,224	-0,143	-0,173
-650,043	217,638	-0,038	-0,044
-649,028	358,820	-0,027	-0,040
-648,014	-52,248	-0,085	0,028
-646,999	289,931	0,033	0,043
-645,984	509,256	0,028	0,047
-644,970	-126,150	-0,065	0,007
-643,955	-200,000	0,001	0,015
-642,941	-200,000	-0,002	0,039
-641,926	-200,000	0,021	-0,128
-640,911	800,000	0,044	-0,113
-639,897	265,899	0,127	-0,161
-638,882	-27,240	0,047	0,020
-637,868	-61,516	0,068	0,020
-636,853	106,109	-0,023	-0,020
-635,838	-150,893	0,108	-0,006
-634,824	-24,055	-0,172	0,074
-633,809	95,282	0,040	0,033
-632,795	800,000	0,022	0,067
-631,780	366,677	-0,041	0,060
-630,765	800,000	0,036	0,096
-629,751	800,000	-0,060	-0,144
-628,736	-16,371	-0,028	0,013
-627,722	-86,895	0,137	-0,030
-626,707	205,000	0,099	-0,111
-625,692	439,039	-0,063	0,100
-624,678	-23,515	-0,078	-0,034
-623,663	800,000	-0,031	-0,092
-622,649	47,136	-0,025	0,017
-621,634	-200,000	0,003	-0,125
-620,619	194,613	0,118	-0,130
-619,605	-200,000	-0,013	-0,155
-618,590	-200,000	0,002	-0,028
-617,576	-148,536	0,051	0,003
-616,561	-200,000	-0,009	-0,058
-615,546	-200,000	-0,028	-0,130
-614,532	-98,225	-0,061	0,011
-613,517	-107,685	-0,103	-0,016
-612,503	780,242	0,028	-0,055
-611,488	246,832	0,055	0,068
-610,474	-100,920	0,063	-0,011
-609,459	-148,981	-0,029	0,002
-608,444	-84,992	-0,075	-0,017
-607,430	93,093	-0,048	-0,039
-606,415	-61,828	-0,213	-0,064
-605,401	-200,000	-0,005	-0,121
-604,386	172,251	-0,028	0,030
-603,371	-200,000	0,004	0,028
-602,357	-34,999	-0,045	-0,018
-601,342	-111,536	0,051	0,007
-600,328	128,079	-0,052	-0,048
-599,313	-200,000	0,002	-0,082
-598,298	-200,000	0,004	-0,044
-597,284	800,000	-0,006	0,016
-596,269	-84,349	0,106	0,024
-595,255	-200,000	0,001	0,011
-594,240	-200,000	0,015	0,055
-593,225	-125,977	-0,095	0,010
-592,211	-49,781	0,149	-0,051
-591,196	-200,000	-0,027	0,091
-590,182	800,000	-0,015	-0,042
-589,167	76,605	0,068	0,052
-588,152	494,687	0,045	-0,074
-587,138	636,965	0,053	0,097
-586,123	800,000	-0,019	-0,050
-585,109	-200,000	-0,007	-0,039
-584,094	17,774	-0,075	-0,043
-583,079	-200,000	0,000	0,049
-582,065	-200,000	0,003	0,050
-581,050	33,307	0,025	-0,015
-580,036	-62,333	-0,140	-0,042
-579,021	323,965	-0,029	0,040
-578,006	-200,000	-0,000	-0,093
-576,992	-200,000	0,000	0,042
-575,977	-200,000	-0,025	0,089
-574,963	-200,000	-0,019	0,121
-573,948	800,000	0,071	0,146
-572,934	-200,000	-0,024	0,093
-571,919	800,000	-0,037	0,078
-570,904	-28,598	-0,062	-0,026
-569,890	106,782	-0,052	0,045
-568,875	800,000	-0,009	0,025
-567,861	5,953	-0,098	-0,052
-566,846	432,977	0,035	0,055
-565,831	-122,532	0,006	-0,001
-564,817	56,635	0,129	0,091
-563,802	505,540	-0,035	-0,060
-562,788	-78,377	-0,134	-0,033
-561,773	800,000	0,046	-0,097
-560,758	139,419	0,080	0,076
-559,744	555,248	0,080	0,140
-558,729	718,822	0,038	-0,073
-557,715	800,000	0,069	-0,161
-556,700	-200,000	-0,050	-0,182
-555,685	-200,000	0,016	-0,095
-554,671	-104,035	-0,031	0,005
-553,656	-31,308	0,077	-0,031
-552,642	-145,517	-0,072	-0,005
-551,627	266,349	-0,047	0,060
-550,612	-200,000	-0,015	-0,103
-549,598	229,386	0,087	-0,102
-548,583	800,000	0,029	0,090
-547,569	736,499	0,044	0,085
-546,554	800,000	0,037	-0,096
-545,539	-18,155	-0,221	0,099
-544,525	44,866	-0,044	0,029
-543,510	-200,000	0,038	0,158
-542,496	-200,000	-0,006	0,066
-541,481	-186,712	-0,069	0,001
-540,466	788,330	-0,013	0,026
-539,452	-200,000	-0,022	-0,097
-538,437	300,107	0,085	0,113
-537,423	-105,802	0,045	-0,007
-536,408	-32,343	0,057	-0,023
-535,393	-200,000	0,004	-0,107
-534,379	-140,758	0,056	0,004
-533,364	800,000	-0,052	-0,139
-532,350	149,983	-0,062	0,061
-531,335	-113,609	0,108	0,015
-530,321	800,000	-0,058	-0,153
-529,306	-142,687	0,098	-0,007
-528,291	-105,843	-0,040	0,006
-527,277	204,496	-0,044	-0,050
-526,262	-200,000	-0,013	-0,068
-525,248	800,000	-0,047	0,143
-524,233	66,241	0,112	-0,082
-523,218	-93,686	0,071	0,014
-522,204	-54,699	-0,019	0,006
-521,189	-40,028	-0,094	0,035
-520,175	453,778	0,061	-0,098
-519,160	130,556	0,096	-0,089
-518,145	162,029	-0,032	-0,032
-517,131	-200,000	0,006	-0,038
-516,116	-200,000	-0,006	0,095
-515,102	163,767	-0,049	0,050
-514,087	119,204	-0,103	-0,092
-513,072	800,000	-0,037	-0,105
-512,058	800,000	-0,043	-0,098
-511,043	59,391	-0,027	-0,019
-510,029	-200,000	0,003	-0,159
-509,014	20,412	-0,140	0,081
-507,999	800,000	0,012	0,035
-506,985	550,754	0,082	-0,143
-505,970	800,000	0,034	-0,086
-504,956	800,000	0,031	0,092
-503,941	-200,000	0,004	0,074
-502,926	-78,232	0,175	0,043
-501,912	-19,790	0,090	-0,040
-500,897	800,000	0,023	0,048
-499,883	-18,560	0,044	-0,020
-498,868	-57,092	-0,136	-0,043
-497,853	-200,000	-0,006	-0,139
-496,839	-116,629	0,061	-0,008
-495,824	-115,266	-0,174	0,023
-494,810	49,224	0,074	0,050
-493,795	269,162	0,054	0,068
-492,781	-125,451	0,085	-0,009
-491,766	-189,978	-0,127	0,001
-490,751	292,684	-0,094	0,124
-489,737	80,315	0,147	-0,114
-488,722	-200,000	-0,004	0,177
-487,708	117,497	0,064	0,057
-486,693	178,776	0,027	-0,029
-485,678	155,004	0,093	-0,092
-484,664	-129,419	-0,098	-0,010
-483,649	-200,000	0,026	0,104
-482,635	-122,345	-0,119	0,014
-481,620	800,000	0,019	-0,050
-480,605	800,000	0,023	-0,060
-479,591	-200,000	0,005	-0,068
-478,576	800,000	0,012	0,029
-477,562	19,754	-0,048	0,028
-476,547	-200,000	0,004	0,014
-475,532	-200,000	-0,027	0,000
-474,518	114,296	0,080	-0,070
-473,503	-200,000	-0,018	-0,066
-472,489	-77,478	0,092	0,023
-471,474	-52,460	-0,124	0,041
-470,459	157,703	0,126	-0,125
-469,445	-45,830	-0,051	0,018
-468,430	76,169	0,024	-0,018
-467,416	-0,909	0,111	-0,056
-466,401	63,464	0,066	-0,047
-465,386	697,885	-0,063	0,120
-464,372	-200,000	0,027	0,140
-463,357	-74,838	0,065	0,017
-462,343	-200,000	0,014	0,046
-461,328	800,000	0,054	0,131
-460,313	121,613	0,135	0,121
-459,299	-99,940	-0,088	0,016
-458,284	261,879	0,075	-0,094
-457,270	395,722	-0,015	-0,022
-456,255	102,896	0,120	-0,101
-455,241	-101,792	-0,063	-0,011
-454,226	-200,000	-0,015	-0,106
-453,211	-200,000	-0,043	0,000
-452,197	800,000	-0,027	0,064
-451,182	-83,174	-0,055	-0,013
-450,168	267,805	0,043	0,055
-449,153	-73,409	0,025	0,006
-448,138	-200,000	-0,008	-0,079
-447,124	-200,000	-0,010	0,045
-446,109	453,149	0,027	-0,043
-445,095	-97,330	0,134	0,025
-444,080	-200,000	-0,014	0,092
-443,065	1,571	0,120	-0,062
-442,051	-200,000	-0,000	0,069
-441,036	70,005	0,181	0,134
-440,022	-32,381	0,077	0,031
-439,007	-200,000	0,000	-0,080
-437,992	-110,826	0,164	0,024
-436,978	-200,000	-0,032	0,124
-435,963	-40,263	0,050	-0,019
-434,949	368,093	0,044	-0,064
-433,934	-200,000	0,013	-0,050
-432,919	-103,961	0,087	0,014
-431,905	418,934	-0,029	-0,045
-430,890	263,286	0,128	-0,160
-429,876	-46,796	0,140	0,049
-428,861	410,772	0,064	-0,097
-427,846	-200,000	-0,016	-0,079
-426,832	210,341	-0,081	-0,092
-425,817	21,587	-0,078	0,045
-424,803	-200,000	0,019	0,085
-423,788	-200,000	0,006	-0,033
-422,773	800,000	0,079	-0,164
-421,759	800,000	0,046	0,143
-420,744	-8,209	-0,103	0,050
-419,730	23,179	0,075	-0,044
-418,715	555,801	-0,043	0,075
-417,701	40,615	0,107	0,069
-416,686	-64,603	-0,083	0,024
-415,671	-79,487	0,023	0,006
-414,657	-52,907	0,081	-0,027
-413,642	800,000	0,039	-0,114
-412,628	-200,000	0,003	0,072
-411,613	226,760	0,098	0,114
-410,598	-145,206	0,073	0,005
-409,584	268,219	-0,017	0,022
-408,569	-99,391	0,115	0,021
-407,555	94,345	0,085	0,069
-406,540	-138,180	0,082	0,006
-405,525	162,611	-0,070	0,070
-404,511	14,527	-0,029	0,016
-403,496	800,000	0,025	-0,056
-402,482	223,313	-0,031	-0,035
-401,467	800,000	-0,023	0,064
-400,452	184,378	0,100	0,107
-399,438	362,948	0,080	0,116
-398,423	-136,731	-0,161	0,013
-397,409	-64,117	-0,044	-0,013
-396,394	-179,849	0,095	0,001
-395,379	-145,070	-0,053	-0,003
-394,365	-200,000	0,021	0,068
-393,350	800,000	0,037	0,111
-392,336	-200,000	0,031	0,128
-391,321	-93,011	-0,068	0,013
-390,306	145,007	0,049	-0,047
-389,292	-200,000	-0,008	-0,127
-388,277	349,484	-0,068	0,096
-387,263	-200,000	0,026	0,203
-386,248	800,000	0,033	0,081
-385,233	149,968	-0,079	-0,077
-384,219	515,641	0,084	0,141
-383,204	-105,248	-0,025	-0,004
-382,190	308,722	-0,090	-0,121
-381,175	800,000	-0,071	0,151
-380,160	270,300	0,063	-0,080
-379,146	-155,031	0,076	-0,004
-378,131	67,856	0,016	-0,012
-377,117	71,867	-0,074	-0,055
-376,102	45,568	0,055	-0,036
-375,088	401,823	-0,021	0,031
-374,073	-69,487	0,062	-0,017
-373,058	119,122	-0,039	-0,034
-372,044	-200,000	0,017	0,059
-371,029	415,642	0,003	0,004
-370,015	170,088	-0,072	-0,074
-369,000	-200,000	-0,015	-0,050
-367,985	267,308	0,065	-0,081
-366,971	0,287	-0,072	-0,037
-365,956	-173,830	-0,084	0,002
-364,942	800,000	-0,014	0,036
-363,927	-88,048	0,123	0,026
-362,912	-119,784	0,037	-0,004
-361,898	-65,906	-0,101	0,029
-360,883	-200,000	-0,034	-0,150
-359,869	-125,333	0,107	0,012
-358,854	-167,031	-0,097	-0,003
-357,839	-34,664	-0,032	0,013
-356,825	66,351	-0,044	0,032
-355,810	-200,000	0,032	0,124
-354,796	-187,070	0,109	-0,001
-353,781	72,196	-0,094	-0,070
-352,766	709,357	-0,024	-0,045
-351,752	800,000	-0,065	-0,159
-350,737	199,620	0,034	-0,037
-349,723	800,000	-0,012	-0,031
-348,708	454,596	-0,066	-0,105
-347,693	-161,844	0,087	-0,003
-346,679	-200,000	0,029	-0,124
-345,664	106,178	0,101	-0,085
-344,650	800,000	-0,006	0,019
-343,635	79,448	-0,054	0,041
-342,620	-22,127	0,065	-0,028
-341,606	9,627	0,084	0,045
-340,591	-200,000	-0,042	-0,137
-339,577	-200,000	-0,032	0,214
-338,562	-105,883	-0,057	-0,009
-337,548	112,517	0,117	0,101
-336,533	800,000	0,061	0,134
-335,518	-200,000	-0,014	0,169
-334,504	152,403	-0,044	0,043
-333,489	-4,488	0,129	-0,064
-332,475	-92,780	-0,138	-0,027
-331,460	75,381	-0,058	0,044
-330,445	-200,000	0,014	-0,088
-329,431	82,233	-0,069	-0,053
-328,416	800,000	0,031	0,095
-327,402	800,000	0,075	0,150
-326,387	-12,648	-0,107	0,050
-325,372	800,000	0,058	-0,130
-324,358	323,727	-0,148	-0,202
-323,343	494,382	-0,025	0,041
-322,329	79,326	0,026	0,020
-321,314	-31,540	0,078	0,031
-320,299	279,207	0,076	0,097
-319,285	800,000	0,018	0,050
-318,270	-38,240	0,053	0,020
-317,256	-144,448	0,081	0,005
-316,241	-200,000	0,013	0,098
-315,226	-97,742	0,039	-0,007
-314,212	-5,169	0,036	0,018
-313,197	68,072	0,081	-0,059
-312,183	-200,000	0,028	0,095
-311,168	-111,578	-0,075	0,011
-310,153	-200,000	-0,030	-0,111
-309,139	-200,000	0,004	-0,103
-308,124	-200,000	0,012	-0,091
-307,110	700,054	-0,008	-0,014
-306,095	167,532	-0,099	-0,101
-305,080	-44,428	0,033	0,012
-304,066	150,470	-0,068	0,066
-303,051	800,000	-0,061	-0,170
-302,037	-200,000	0,016	0,055
-301,022	-42,328	-0,065	-0,024
-300,008	-170,464	0,112	0,003
-298,993	1,300	0,043	-0,022
-297,978	273,086	0,053	0,067
-296,964	331,284	-0,104	0,144
-295,949	-31,035	0,088	0,035
-294,935	-76,851	-0,141	-0,035
-293,920	-105,244	-0,063	-0,010
-292,905	46,152	0,058	-0,039
-291,891	-103,457	0,088	0,015
-290,876	30,123	0,001	0,001
-289,862	-200,000	-0,015	0,057
-288,847	-200,000	-0,033	-0,149
-287,832	287,557	-0,045	-0,058
-286,818	607,853	-0,070	-0,125
-285,803	800,000	0,038	0,095
-284,789	-200,000	-0,007	0,032
-283,774	171,998	0,076	0,078
-282,759	-111,592	-0,075	0,011
-281,745	5,946	-0,119	-0,063
-280,730	141,861	-0,113	-0,107
-279,716	-134,521	-0,128	0,011
-278,701	-146,621	-0,125	-0,008
-277,686	564,199	-0,108	0,187
-276,672	23,681	-0,057	-0,034
-275,657	172,100	0,021	-0,022
-274,643	-146,912	-0,033	0,002
-273,628	-200,000	0,016	-0,106
-272,613	-200,000	-0,003	-0,050
-271,599	-78,641	-0,035	0,008
-270,584	458,594	0,058	0,093
-269,570	-99,979	-0,060	-0,011
-268,555	1,667	-0,140	-0,072
-267,540	604,250	0,074	-0,133
-266,526	-96,814	-0,023	-0,004
-265,511	-200,000	-0,010	-0,061
-264,497	98,433	0,042	0,035
-263,482	-200,000	-0,009	-0,033
-262,467	-200,000	-0,027	0,084
-261,453	-200,000	0,012	-0,045
-260,438	-9,558	0,049	-0,023
-259,424	-108,349	0,023	-0,004
-258,409	-200,000	-0,024	0,120
-257,395	422,700	-0,127	0,196
-256,380	29,270	-0,094	0,057
-255,365	171,311	0,064	-0,065
-254,351	800,000	0,038	-0,113
-253,336	-143,759	0,094	-0,006
-252,322	-200,000	-0,047	-0,174
-251,307	661,623	-0,084	-0,154
-250,292	-200,000	-0,002	0,245
-249,278	-69,192	-0,122	0,033
-248,263	18,220	-0,115	0,065
-247,249	324,608	0,013	-0,017
-246,234	-200,000	-0,005	0,141
-245,219	225,880	-0,021	-0,024
-244,205	25,537	0,023	-0,014
-243,190	800,000	-0,032	-0,098
-242,176	316,384	0,042	0,056
-241,161	551,413	-0,084	0,144
-240,146	800,000	0,052	0,156
-239,132	-73,637	-0,104	-0,027
-238,117	-40,579	-0,029	0,011
-237,103	-14,949	-0,124	-0,057
-236,088	229,649	-0,118	-0,137
-235,073	-200,000	-0,020	-0,064
-234,059	-200,000	-0,005	0,157
-233,044	275,450	0,092	-0,116
-232,030	439,234	0,039	0,060
-231,015	800,000	-0,021	-0,055
-230,000	337,085	-0,062	0,086
-228,986	219,443	-0,048	-0,055
-227,971	16,848	0,130	-0,073
-226,957	188,096	0,034	0,037
-225,942	14,532	0,071	-0,040
-224,927	1,682	0,039	0,020
-223,913	40,393	-0,099	-0,063
-222,898	90,805	-0,082	-0,066
-221,884	800,000	-0,068	0,176
-220,869	674,496	0,021	0,038
-219,855	-62,177	-0,107	0,032
-218,840	-200,000	-0,007	0,051
-217,825	-200,000	0,001	0,107
-216,811	360,395	-0,103	-0,147
-215,796	-200,000	-0,001	0,006
-214,782	-200,000	0,000	0,040
-213,767	800,000	0,008	-0,018
-212,752	-123,408	0,042	-0,005
-211,738	-69,781	0,141	0,038
-210,723	766,580	-0,010	0,019
-209,709	217,524	-0,065	0,074
-208,694	1,494	0,020	-0,010
-207,679	178,509	0,081	-0,084
-206,665	-149,601	0,132	0,007
-205,650	-200,000	-0,027	-0,088
-204,636	800,000	0,029	0,067
-203,621	-200,000	0,001	-0,069
-202,606	5,284	-0,019	0,010
-201,592	97,782	-0,125	-0,102
-200,577	81,245	-0,236	-0,181
-199,563	143,019	0,175	0,165
-198,548	-66,082	0,042	0,012
-197,533	-200,000	0,018	0,083
-196,519	353,646	-0,067	0,095
-195,504	800,000	-0,031	-0,084
-194,490	164,828	0,073	-0,073
-193,475	-91,710	-0,173	0,035
-192,460	800,000	-0,006	-0,017
-191,446	797,278	0,010	-0,019
-190,431	341,943	0,077	0,107
-189,417	-183,670	0,043	-0,001
-188,402	300,117	-0,101	0,133
-187,387	24,379	-0,108	-0,064
-186,373	-97,566	0,210	-0,038
-185,358	-200,000	-0,015	0,088
-184,344	800,000	-0,024	0,072
-183,329	-142,196	0,069	0,005
-182,315	8,007	0,043	0,023
-181,300	-142,561	0,073	0,005
-180,285	419,380	-0,056	0,085
-179,271	-133,581	-0,096	-0,008
-178,256	-200,000	0,005	-0,058
-177,242	103,026	-0,068	0,057
-176,227	-30,077	-0,062	0,025
-175,212	-11,732	0,087	-0,041
-174,198	-68,649	-0,039	-0,011
-173,183	-26,486	-0,062	0,026
-172,169	-13,398	-0,149	-0,068
-171,154	-200,000	0,031	0,120
-170,139	633,184	-0,050	0,090
-169,125	-156,908	0,028	0,001
-168,110	124,709	0,079	0,071
-167,096	-48,579	-0,077	0,026
-166,081	276,391	0,062	0,078
-165,066	75,645	-0,128	-0,096
-164,052	4,715	0,091	0,047
-163,037	-84,524	-0,084	0,019
-162,023	305,369	0,032	0,042
-161,008	112,658	0,065	-0,056
-159,993	-86,839	0,015	0,003
-158,979	-127,089	-0,068	-0,007
-157,964	700,587	0,061	0,114
-156,950	187,513	-0,042	-0,045
-155,935	-200,000	0,008	0,053
-154,920	-200,000	0,012	-0,065
-153,906	800,000	-0,011	0,030
-152,891	232,222	-0,074	0,087
-151,877	800,000	-0,041	-0,092
-150,862	-200,000	-0,013	0,086
-149,847	-164,670	-0,002	0,000
-148,833	-200,000	-0,012	-0,205
-147,818	800,000	0,007	0,019
-146,804	-69,581	0,125	0,034
-145,789	-115,752	0,049	0,006
-144,775	-40,351	-0,169	0,062
-143,760	-92,284	-0,032	-0,006
-142,745	800,000	-0,054	-0,147
-141,731	204,923	-0,037	0,041
-140,716	371,380	-0,038	0,055
-139,702	800,000	0,050	0,116
-138,687	10,157	-0,036	0,020
-137,672	-200,000	-0,018	-0,090
-136,658	-182,487	0,125	-0,002
-135,643	-200,000	-0,019	-0,059
-134,629	-200,000	-0,022	0,086
-133,614	800,000	-0,021	0,042
-132,599	157,507	0,058	0,057
-131,585	624,949	-0,027	-0,049
-130,570	-5,612	-0,062	-0,030
-129,556	257,836	0,036	-0,044
-128,541	105,381	0,017	-0,014
-127,526	-166,758	0,159	0,005
-126,512	-68,226	-0,091	0,025
-125,497	800,000	0,027	0,057
-124,483	-21,045	0,106	0,046
-123,468	-200,000	0,007	-0,043
-122,453	119,243	-0,061	0,054
-121,439	416,336	0,053	-0,080
-120,424	87,950	-0,063	0,050
-119,410	604,934	-0,068	-0,121
-118,395	-200,000	-0,028	0,138
-117,380	-47,055	0,061	-0,021
-116,366	-18,348	0,061	0,027
-115,351	106,484	0,046	-0,039
-114,337	-136,934	0,017	-0,001
-113,322	173,996	-0,127	0,130
-112,307	-200,000	0,007	-0,106
-111,293	-200,000	-0,013	0,122
-110,278	800,000	-0,012	-0,030
-109,264	-200,000	0,018	0,102
-108,249	800,000	-0,012	0,024
-107,234	602,036	-0,073	-0,129
-106,220	117,098	-0,193	-0,169
-105,205	800,000	0,024	-0,056
-104,191	-200,000	0,003	0,112
-103,176	800,000	-0,030	-0,063
-102,162	800,000	-0,041	-0,090
-101,147	-66,598	-0,149	0,042
-100,132	-200,000	0,009	-0,031
-99,118	24,937	0,030	-0,018
-98,103	-200,000	0,007	-0,075
-97,089	-200,000	0,019	0,142
-96,074	430,794	-0,083	0,128
-95,059	-200,000	-0,020	0,064
-94,045	83,429	-0,043	-0,034
-93,030	800,000	0,056	-0,114
-92,016	-200,000	-0,043	-0,198
-91,001	110,381	-0,069	0,059
-89,986	-200,000	-0,009	0,038
-88,972	68,383	0,034	-0,025
-87,957	-200,000	-0,000	0,093
-86,943	-61,726	0,043	0,013
-85,928	133,232	-0,078	-0,072
-84,913	-149,938	-0,047	-0,003
-83,899	89,173	-0,040	0,031
-82,884	287,500	-0,042	-0,054
-81,870	-31,284	-0,070	-0,028
-80,855	0,107	0,082	-0,041
-79,840	162,335	-0,105	-0,104
-78,826	800,000	-0,085	-0,217
-77,811	-57,180	-0,125	-0,039
-76,797	-200,000	-0,004	0,057
-75,782	-191,023	0,057	-0,000
-74,767	-119,806	0,072	0,009
-73,753	-200,000	-0,012	0,050
-72,738	800,000	0,014	-0,028
-71,724	43,197	-0,077	0,050
-70,709	234,000	-0,068	0,079
-69,694	-200,000	0,014	0,110
-68,680	95,465	-0,110	0,089
-67,665	495,125	-0,030	0,049
-66,651	-24,157	0,151	-0,064
-65,636	-200,000	0,009	0,066
-64,622	-171,730	-0,060	-0,001
-63,607	101,317	-0,062	-0,051
-62,592	11,650	0,083	-0,045
-61,578	145,804	-0,005	0,005
-60,563	-24,368	0,058	0,024
-59,549	-96,867	-0,113	0,021
-58,534	-27,495	-1,610	-0,659
-57,519	470,920	-1,261	-2,014
-56,505	-200,000	-0,611	-4,361
-55,490	405,350	0,858	1,284
-54,476	800,000	4,809	10,982
-53,461	-200,000	19,180	318,422
-52,446	-200,000	739,400	2333,641
-51,432	575,643	1654,853	2870,823
-50,417	78,600	1670,719	1262,453
-49,403	21,418	1543,882	885,654
-48,388	15,261	1466,486	811,330
-47,373	17,856	1456,553	818,340
-46,359	16,672	1446,345	806,897
-45,344	13,533	1441,804	789,303
-44,330	13,449	1439,868	787,811
-43,315	13,400	1438,139	786,600
-42,300	13,443	1436,781	786,031
-41,286	13,500	1435,221	785,417
-40,271	13,428	1433,994	784,373
-39,257	13,445	1432,594	783,658
-38,242	13,453	1431,560	783,095
-37,227	13,521	1430,178	782,633
-36,213	13,550	1428,795	781,982
-35,198	13,469	1427,686	780,960
-34,184	13,511	1426,793	780,641
-33,169	13,476	1425,384	779,675
-32,154	13,514	1424,356	779,262
-31,140	13,512	1423,181	778,575
-30,125	13,512	1422,153	777,983
-29,111	13,498	1420,990	777,251
-28,096	13,477	1419,807	776,474
-27,082	13,426	1418,794	775,649
-26,067	13,420	1417,561	774,915
-25,052	13,399	1416,614	774,267
-24,038	13,393	1415,491	773,596
-23,023	13,438	1414,465	773,214
-22,009	13,390	1413,559	772,466
-20,994	13,383	1412,584	771,865
-19,979	13,393	1411,733	771,421
-18,965	13,351	1410,820	770,692
-17,950	13,323	1409,979	770,071
-16,936	13,378	1408,789	769,649
-15,921	13,287	1407,853	768,680
-14,906	13,333	1407,087	768,449
-13,892	13,368	1405,842	767,899
-12,877	13,339	1405,272	767,425
-11,863	13,349	1404,142	766,821
-10,848	13,343	1403,231	766,265
-9,833	13,280	1402,526	765,555
-8,819	13,300	1401,637	765,134
-7,804	13,226	1400,721	764,260
-6,790	13,228	1399,822	763,750
-5,775	13,248	1398,519	763,101
-4,760	13,285	1397,595	762,736
-3,746	13,279	1396,676	762,176
-2,731	13,240	1395,919	761,555
-1,717	13,244	1394,952	761,013
-0,702	13,234	1392,988	759,868
0,313	17,084	1310,171	732,515
1,327	33,299	703,897	431,006
2,342	51,188	123,391	82,649
3,356	-0,883	16,687	8,326
4,371	-3,639	3,164	1,549
5,386	9,398	0,606	0,323
6,400	2,851	0,084	0,043
7,415	399,531	-0,195	-0,290
8,429	55,469	-0,368	-0,251
9,444	-1,931	-0,302	-0,150
10,459	-17,379	-0,323	-0,143
11,473	32,218	-0,383	-0,233
12,488	-71,819	-0,278	-0,073
13,502	127,043	-0,240	-0,215
14,517	123,711	-0,270	-0,239
15,531	125,055	-0,294	-0,261
16,546	33,022	-0,423	-0,258
17,561	62,427	-0,339	-0,238
18,575	150,470	-0,163	-0,156
19,590	143,570	-0,279	-0,263
20,604	272,755	-0,195	-0,243
21,619	78,954	-0,463	-0,350
22,634	138,479	-0,389	-0,360
23,648	269,382	-0,302	-0,375
24,663	128,612	-0,354	-0,319
25,677	41,252	-0,363	-0,231
26,692	17,605	-0,427	-0,239
27,707	338,152	-0,200	-0,276
28,721	188,028	-0,298	-0,315
29,736	48,145	-0,398	-0,262
30,750	88,082	-0,406	-0,318
31,765	79,164	-0,453	-0,342
32,780	121,027	-0,353	-0,310
33,794	214,961	-0,295	-0,331
34,809	45,794	-0,431	-0,281
35,823	59,989	-0,294	-0,205
36,838	14,453	-0,440	-0,242
37,853	150,244	-0,413	-0,396
38,867	224,175	-0,306	-0,348
39,882	58,728	-0,303	-0,209
40,896	87,781	-0,397	-0,310
41,911	-44,336	-0,363	-0,127
42,926	348,829	-0,276	-0,385
43,940	159,809	-0,284	-0,279
44,955	22,287	-0,419	-0,241
45,969	24,312	-0,303	-0,176
46,984	17,450	-0,264	-0,147
47,999	-50,978	-0,307	-0,101
49,013	39,380	-0,416	-0,262
50,028	-21,135	-0,388	-0,166
51,042	75,103	-0,326	-0,242
52,057	109,052	-0,276	-0,232
53,071	-88,956	-0,384	-0,079
54,086	93,824	-0,307	-0,245
55,101	665,527	-0,171	-0,312
56,115	63,137	-0,397	-0,279
57,130	65,001	-0,316	-0,224
58,144	22,890	-0,494	-0,284
59,159	27,626	-0,212	-0,125
60,174	120,744	-0,374	-0,327
61,188	44,558	-0,425	-0,274
62,203	-41,072	-0,335	-0,121
63,217	21,762	-0,332	-0,189
64,232	-9,447	-0,331	-0,155
65,247	22,192	-0,330	-0,189
66,261	721,199	-0,198	-0,373
67,276	110,814	-0,413	-0,349
68,290	69,544	-0,306	-0,221
69,305	65,608	-0,322	-0,229
70,320	78,135	-0,223	-0,167
71,334	-25,074	-0,261	-0,108
72,349	36,888	-0,399	-0,247
73,363	175,618	-0,305	-0,311
74,378	-67,544	-0,321	-0,088
75,393	23,471	-0,279	-0,161
76,407	65,122	-0,203	-0,144
77,422	-24,556	-0,418	-0,174
78,436	6,319	-0,379	-0,197
79,451	78,609	-0,396	-0,297
80,466	-64,842	-0,325	-0,092
81,480	118,552	-0,342	-0,296
82,495	144,844	-0,351	-0,329
83,509	-94,134	-0,401	-0,077
84,524	123,955	-0,181	-0,160
85,539	31,318	-0,323	-0,194
86,553	-53,482	-0,279	-0,089
87,568	71,746	-0,293	-0,213
88,582	52,080	-0,477	-0,318
89,597	94,367	-0,212	-0,169
90,611	-45,652	-0,275	-0,095
91,626	-26,805	-0,274	-0,112
92,641	-118,483	-0,269	-0,033
93,655	-24,447	-0,286	-0,119
94,670	-61,562	-0,291	-0,085
95,684	800,000	-0,139	-0,426
96,699	40,155	-0,318	-0,200
97,714	43,800	-0,370	-0,237
98,728	436,234	-0,154	-0,236
99,743	-63,856	-0,302	-0,086
100,757	-87,712	-0,288	-0,060
101,772	123,264	-0,330	-0,290
102,787	-73,129	-0,253	-0,064
103,801	184,794	-0,172	-0,179
104,816	117,619	-0,214	-0,185
105,830	243,641	-0,184	-0,216
106,845	13,666	-0,248	-0,134
107,860	37,584	-0,187	-0,116
108,874	383,494	-0,203	-0,294
109,889	-0,219	-0,353	-0,175
110,903	12,042	-0,248	-0,133
111,918	-68,277	-0,232	-0,063
112,933	49,231	-0,256	-0,169
113,947	29,989	-0,248	-0,147
114,962	-58,430	-0,254	-0,077
115,976	33,973	-0,317	-0,193
116,991	68,476	-0,321	-0,230
118,006	-63,941	-0,320	-0,091
119,020	-68,684	-0,308	-0,083
120,035	-81,334	-0,294	-0,067
121,049	118,709	-0,223	-0,192
122,064	81,766	-0,180	-0,137
123,079	107,610	-0,163	-0,135
124,093	73,162	-0,330	-0,241
125,108	409,330	-0,192	-0,285
126,122	74,354	-0,216	-0,158
127,137	-20,345	-0,370	-0,158
128,151	-82,946	-0,283	-0,063
129,166	156,047	-0,116	-0,112
130,181	-20,377	-0,272	-0,116
131,195	142,525	-0,209	-0,194
132,210	232,345	-0,225	-0,258
133,224	139,055	-0,229	-0,211
134,239	23,850	-0,259	-0,149
135,254	800,000	-0,090	-0,277
136,268	25,684	-0,233	-0,135
137,283	117,870	-0,181	-0,156
138,297	191,400	-0,306	-0,322
139,312	192,085	-0,227	-0,239
140,327	-88,136	-0,323	-0,067
141,341	800,000	-0,116	-0,285
142,356	156,749	-0,200	-0,194
143,370	-26,302	-0,217	-0,089
144,385	238,205	-0,267	-0,310
145,400	-27,854	-0,202	-0,081
146,414	84,492	-0,303	-0,231
147,429	81,148	-0,306	-0,230
148,443	-26,857	-0,250	-0,102
149,458	65,030	-0,143	-0,101
150,473	149,510	-0,227	-0,215
151,487	-200,000	-0,042	-0,160
152,502	-42,530	-0,362	-0,128
153,516	222,516	-0,161	-0,181
154,531	72,419	-0,274	-0,199
155,546	-102,351	-0,183	0,030
156,560	-101,704	-0,308	-0,052
157,575	800,000	-0,092	-0,183
158,589	108,160	-0,137	-0,114
159,604	162,380	-0,244	-0,239
160,619	144,258	-0,241	-0,225
161,633	2,522	-0,225	-0,113
162,648	148,829	-0,211	-0,199
163,662	800,000	-0,083	-0,218
164,677	313,541	-0,105	-0,138
165,692	30,076	-0,186	-0,110
166,706	12,024	-0,239	-0,128
167,721	71,605	-0,266	-0,192
168,735	143,576	-0,306	-0,284
169,750	25,244	-0,239	-0,138
170,764	354,010	-0,178	-0,247
171,779	103,549	-0,169	-0,138
172,794	283,554	-0,135	-0,169
173,808	102,645	-0,278	-0,227
174,823	31,523	-0,265	-0,158
175,837	3,010	-0,260	-0,131
176,852	104,894	-0,274	-0,225
177,867	42,634	-0,153	-0,097
178,881	473,598	-0,110	-0,173
179,896	17,163	-0,228	-0,126
180,910	-8,143	-0,260	-0,121
181,925	-1,522	-0,220	-0,108
182,940	120,207	-0,266	-0,230
183,954	280,377	-0,178	-0,221
184,969	38,430	-0,293	-0,182
185,983	384,523	-0,163	-0,234
186,998	-26,412	-0,228	-0,093
188,013	-200,000	-0,080	-0,249
189,027	78,589	-0,180	-0,134
190,042	271,612	-0,119	-0,147
191,056	-29,204	-0,309	-0,123
192,071	21,960	-0,192	-0,108
193,086	179,286	-0,185	-0,188
194,100	-20,399	-0,211	-0,090
195,115	-80,332	-0,140	0,032
196,129	115,626	-0,196	-0,167
197,144	141,105	-0,229	-0,211
198,159	-80,472	-0,166	-0,038
199,173	156,954	-0,194	-0,186
200,188	408,949	-0,147	-0,217
201,202	-76,731	-0,102	-0,025
202,217	72,696	-0,152	-0,110
203,232	82,262	-0,198	-0,149
204,246	-48,533	-0,286	-0,095
205,261	122,688	-0,282	-0,245
206,275	800,000	-0,059	-0,145
207,290	-75,818	-0,191	-0,047
208,304	-69,805	-0,262	-0,069
209,319	-126,241	-0,190	-0,020
210,334	-27,462	-0,147	-0,059
211,348	201,163	-0,236	-0,252
212,363	54,122	-0,249	-0,166
213,377	316,226	-0,134	-0,176
214,392	381,963	-0,087	-0,125
215,407	183,901	-0,080	-0,082
216,421	53,621	-0,084	-0,056
217,436	264,408	-0,155	-0,187
218,450	167,617	-0,294	-0,290
219,465	460,512	-0,176	-0,273
220,480	123,476	-0,159	-0,139
221,494	197,275	-0,145	-0,154
222,509	308,094	-0,085	-0,111
223,523	10,092	-0,210	-0,110
224,538	84,043	-0,171	-0,129
225,553	205,083	-0,172	-0,185
226,567	207,198	-0,229	-0,248
227,582	142,054	-0,210	-0,193
228,596	112,596	-0,049	-0,041
229,611	-200,000	-0,005	-0,186
230,626	-4,399	-0,275	-0,131
231,640	620,320	-0,109	-0,191
232,655	375,177	-0,158	-0,224
233,669	-138,103	-0,303	-0,023
234,684	100,792	-0,207	-0,167
235,699	-200,000	-0,031	-0,119
236,713	176,648	-0,169	0,170
237,728	45,966	-0,052	-0,033
238,742	-115,152	-0,172	-0,022
239,757	63,138	-0,224	-0,155
240,772	18,038	-0,260	-0,143
241,786	100,072	-0,249	-0,200
242,801	-137,781	-0,218	0,017
243,815	-59,790	-0,134	-0,039
244,830	208,273	-0,082	-0,089
245,844	229,443	-0,105	-0,119
246,859	318,276	-0,096	-0,127
247,874	-62,192	-0,276	-0,079
248,888	566,752	-0,189	-0,318
249,903	800,000	-0,083	-0,226
250,917	-200,000	-0,015	-0,083
251,932	114,957	-0,194	-0,164
252,947	-132,814	-0,197	-0,017
253,961	101,372	-0,159	-0,128
254,976	-88,927	-0,178	-0,036
255,990	-198,237	-0,267	-0,001
257,005	644,857	-0,086	-0,152
258,020	-146,675	-0,122	0,007
259,034	131,160	-0,156	-0,138
260,049	800,000	-0,030	-0,088
261,063	586,954	-0,088	-0,150
262,078	147,179	-0,204	-0,190
263,093	800,000	-0,105	-0,213
264,107	380,959	-0,070	-0,099
265,122	-92,917	-0,238	-0,045
266,136	-4,038	-0,152	-0,072
267,151	56,818	-0,133	-0,089
268,166	270,581	-0,116	-0,142
269,180	98,668	-0,197	-0,157
270,195	225,732	-0,109	-0,123
271,209	52,919	-0,263	-0,173
272,224	374,406	-0,150	-0,212
273,239	-104,619	-0,118	-0,019
274,253	242,671	-0,050	-0,058
275,268	800,000	-0,014	-0,033
276,282	432,354	-0,094	-0,142
277,297	31,021	-0,170	-0,100
278,312	101,955	-0,237	-0,191
279,326	-200,000	-0,038	-0,195
280,341	137,512	-0,056	-0,051
281,355	-168,622	-0,325	0,008
282,370	24,499	-0,193	-0,110
283,384	-122,578	-0,216	-0,024
284,399	124,400	-0,138	-0,120
285,414	60,760	-0,114	-0,078
286,428	-27,322	-0,118	-0,047
287,443	31,423	-0,117	0,069
288,457	-58,160	-0,177	-0,053
289,472	-86,347	-0,162	-0,034
290,487	89,292	-0,192	-0,148
291,501	111,309	-0,149	-0,123
292,516	-200,000	-0,023	-0,171
293,530	9,526	-0,228	-0,119
294,545	-90,075	-0,196	-0,039
295,560	-87,683	-0,177	-0,036
296,574	-73,897	-0,049	-0,012
297,589	-101,511	-0,189	-0,031
298,603	339,825	-0,109	-0,146
299,618	232,378	-0,187	-0,211
300,633	84,606	-0,130	-0,098
301,647	-47,951	-0,065	-0,022
302,662	211,549	-0,061	0,066
303,676	-113,744	-0,152	0,020
304,691	800,000	-0,072	-0,208
305,706	-200,000	-0,077	-0,240
306,720	267,204	-0,175	-0,212
307,735	302,241	-0,141	-0,180
308,749	-3,801	-0,172	-0,082
309,764	-59,685	-0,042	-0,012
310,779	151,772	-0,159	-0,149
311,793	492,648	-0,097	-0,153
312,808	140,513	-0,192	-0,174
313,822	-32,047	-0,038	-0,014
314,837	18,817	-0,142	0,078
315,852	-37,647	-0,151	-0,055
316,866	-85,959	-0,158	0,033
317,881	-200,000	-0,027	-0,092
318,895	24,338	-0,184	-0,104
319,910	-2,458	-0,109	-0,052
320,925	546,190	-0,072	-0,118
321,939	235,729	-0,169	-0,193
322,954	412,465	-0,113	-0,165
323,968	-137,453	-0,183	-0,014
324,983	-127,405	-0,101	-0,010
325,997	800,000	-0,047	-0,113
327,012	-34,184	-0,121	-0,046
328,027	110,321	-0,203	-0,168
329,041	29,237	-0,156	-0,091
330,056	656,011	0,012	0,021
331,070	-126,861	-0,103	0,010
332,085	191,474	-0,121	-0,125
333,100	-5,169	-0,192	-0,090
334,114	-126,867	-0,105	-0,010
335,129	-101,694	-0,227	-0,037
336,143	-24,270	-0,134	-0,055
337,158	375,113	-0,086	-0,121
338,173	96,591	-0,114	-0,090
339,187	65,562	-0,149	-0,103
340,202	-113,300	-0,069	-0,009
341,216	-26,491	-0,161	-0,065
342,231	-85,577	-0,136	-0,029
343,246	105,069	-0,047	-0,038
344,260	248,486	-0,082	-0,095
345,275	27,240	-0,198	-0,114
346,289	-97,888	-0,094	0,016
347,304	386,595	-0,130	-0,185
348,319	73,164	-0,217	-0,156
349,333	195,585	-0,145	-0,151
350,348	520,455	-0,164	-0,264
351,362	68,775	-0,115	-0,081
352,377	-125,555	-0,212	-0,022
353,392	-19,704	-0,168	-0,071
354,406	-200,000	-0,003	0,048
355,421	207,481	1316,163	1409,733
356,435	159,610	1477,047	1410,220
