DTS Sentinel unit serial number:	SN410029Multiplexer serial number:	ORYXHardware model number:	OX2-SRSoftware version number:	ORYX F/W v4,00 Oryx Data Collector v3.7.2.0data status	okinstallation	B3 Nyhavnadifferential loss correction	single-endedforward channel	channel 1reverse channel	N/Adate	2023/12/04time	00:52:30forward acquisition time	300,00reverse acquisition time	0,00gamma	499,1914k internal	0,3203k external	0,3203temperature offset calibration	1,0000default loss term (dB/km)	0,3820temperature slope calibration	1,0000multiplexer offset coefficient	1,0000multiplexer slope coefficient	1,0000fibre end	0,00T internal ref (°C)	12,58T ext. ref 1 (°C)	-2,66T ext. ref 2 (°C)	-2,71length (m)	temperature (°C)	Stokes	anti-Stokes-744,400	126,426	-0,206	-0,189
-743,385	-200,000	-0,005	0,097
-742,371	800,000	-0,059	-0,124
-741,356	157,442	0,204	0,205
-740,342	488,254	-0,146	-0,243
-739,327	-200,000	0,078	0,346
-738,312	55,296	-0,243	-0,171
-737,298	800,000	0,073	0,227
-736,283	117,436	-0,180	-0,161
-735,269	-200,000	-0,034	0,250
-734,254	-26,863	-0,339	-0,143
-733,239	136,327	-0,191	0,181
-732,225	575,194	-0,114	-0,203
-731,210	-45,888	0,200	0,071
-730,196	539,682	-0,031	0,054
-729,181	-200,000	-0,002	-0,089
-728,167	444,661	0,056	0,089
-727,152	327,650	-0,023	-0,033
-726,137	-111,181	-0,095	0,014
-725,123	-124,621	0,007	0,001
-724,108	-18,239	0,018	-0,008
-723,094	800,000	-0,041	-0,104
-722,079	800,000	-0,052	-0,165
-721,064	-200,000	-0,007	-0,043
-720,050	800,000	-0,012	-0,031
-719,035	800,000	-0,067	0,169
-718,021	-200,000	0,023	0,106
-717,006	309,662	-0,126	-0,171
-715,991	-30,704	-0,150	-0,061
-714,977	68,790	-0,071	-0,053
-713,962	-200,000	-0,005	-0,035
-712,948	-41,162	0,090	-0,033
-711,933	155,784	0,032	-0,032
-710,918	267,049	0,064	-0,082
-709,904	-200,000	-0,017	-0,093
-708,889	391,526	-0,047	-0,071
-707,875	-50,292	-0,118	-0,040
-706,860	237,347	-0,086	-0,104
-705,845	-54,083	0,082	-0,027
-704,831	19,772	0,208	0,121
-703,816	-48,688	-0,110	-0,038
-702,802	-0,328	-0,059	0,031
-701,787	123,036	-0,093	0,084
-700,772	44,264	-0,131	-0,087
-699,758	-200,000	-0,010	0,044
-698,743	-200,000	0,013	-0,060
-697,729	85,455	0,055	0,044
-696,714	267,146	0,077	0,098
-695,699	36,367	0,040	0,025
-694,685	744,253	-0,044	-0,087
-693,670	-68,685	0,062	0,017
-692,656	-6,509	-0,148	0,073
-691,641	-28,061	0,018	-0,007
-690,627	514,794	0,066	0,113
-689,612	436,363	-0,040	0,064
-688,597	114,765	-0,042	0,037
-687,583	183,363	-0,065	0,070
-686,568	128,034	-0,072	-0,066
-685,554	145,388	0,127	-0,124
-684,539	680,361	-0,006	-0,012
-683,524	352,896	0,024	-0,035
-682,510	-17,424	-0,036	0,016
-681,495	-116,143	-0,059	0,008
-680,481	-161,710	0,126	-0,005
-679,466	-200,000	0,002	0,007
-678,451	781,100	-0,097	0,192
-677,437	-200,000	0,004	-0,079
-676,422	38,152	-0,067	0,043
-675,408	365,360	0,082	-0,120
-674,393	52,686	0,115	0,079
-673,378	-63,555	-0,054	0,016
-672,364	-200,000	-0,034	-0,117
-671,349	800,000	-0,073	-0,157
-670,335	110,142	0,052	-0,045
-669,320	-38,140	0,020	0,008
-668,305	685,673	0,024	0,045
-667,291	454,264	-0,097	0,156
-666,276	-200,000	0,018	-0,057
-665,262	800,000	-0,010	-0,032
-664,247	126,372	0,057	-0,052
-663,232	659,442	0,045	-0,083
-662,218	-178,856	0,083	-0,001
-661,203	800,000	-0,078	0,161
-660,189	-200,000	0,001	-0,123
-659,174	-83,936	-0,087	0,020
-658,159	-44,362	-0,033	-0,012
-657,145	93,986	-0,158	-0,129
-656,130	93,296	0,081	-0,066
-655,116	70,796	-0,115	-0,086
-654,101	800,000	-0,013	0,031
-653,086	-0,132	-0,062	0,032
-652,072	32,365	-0,020	-0,012
-651,057	764,370	-0,043	-0,086
-650,043	800,000	-0,047	-0,099
-649,028	-56,234	0,108	-0,035
-648,014	-100,452	0,116	-0,021
-646,999	223,337	-0,023	-0,027
-645,984	-68,681	-0,108	0,030
-644,970	133,407	-0,146	-0,137
-643,955	-200,000	0,004	-0,079
-642,941	27,225	-0,129	0,078
-641,926	256,530	0,069	-0,086
-640,911	-200,000	0,007	-0,131
-639,897	-51,204	-0,052	-0,018
-638,882	300,882	-0,036	0,048
-637,868	-14,377	-0,156	0,073
-636,853	98,764	0,015	-0,012
-635,838	800,000	-0,056	-0,126
-634,824	542,300	-0,006	-0,011
-633,809	62,209	0,126	0,091
-632,795	-128,866	0,025	-0,002
-631,780	83,852	-0,086	-0,068
-630,765	-94,541	-0,084	-0,016
-629,751	224,469	-0,034	-0,040
-628,736	309,496	-0,145	-0,196
-627,722	-74,536	-0,284	-0,074
-626,707	50,199	0,141	0,096
-625,692	88,170	0,009	-0,007
-624,678	-102,471	0,125	-0,021
-623,663	-200,000	0,009	0,113
-622,649	-200,000	-0,000	-0,028
-621,634	-21,356	0,022	0,010
-620,619	100,360	-0,048	-0,040
-619,605	241,399	-0,020	0,024
-618,590	-200,000	-0,018	0,152
-617,576	261,814	-0,095	0,119
-616,561	-35,334	0,106	0,041
-615,546	-200,000	-0,010	-0,055
-614,532	-200,000	-0,009	-0,078
-613,517	-124,776	0,015	0,002
-612,503	800,000	0,013	0,029
-611,488	-76,933	-0,069	-0,017
-610,474	369,711	-0,054	0,080
-609,459	65,049	-0,095	0,069
-608,444	600,945	0,038	-0,068
-607,430	221,192	-0,058	-0,068
-606,415	123,811	-0,072	-0,065
-605,401	248,680	0,118	0,144
-604,386	-177,664	-0,107	-0,002
-603,371	-200,000	0,015	0,087
-602,357	96,116	0,099	-0,082
-601,342	800,000	0,047	0,104
-600,328	724,641	0,024	-0,046
-599,313	37,829	-0,119	-0,076
-598,298	800,000	0,040	0,112
-597,284	356,187	-0,058	0,084
-596,269	-72,893	-0,164	0,043
-595,255	-200,000	0,014	0,082
-594,240	-200,000	0,042	0,163
-593,225	-200,000	0,003	-0,034
-592,211	-200,000	0,012	-0,117
-591,196	105,565	-0,047	-0,041
-590,182	-0,023	0,077	-0,039
-589,167	93,921	0,084	0,069
-588,152	14,106	-0,055	-0,031
-587,138	421,203	0,008	-0,012
-586,123	800,000	-0,047	-0,142
-585,109	345,109	0,028	0,040
-584,094	800,000	0,018	-0,036
-583,079	-33,677	0,098	0,039
-582,065	-162,817	0,150	-0,005
-581,050	-64,496	0,044	-0,013
-580,036	134,869	0,083	-0,078
-579,021	13,033	0,127	-0,071
-578,006	-105,117	-0,125	-0,020
-576,992	104,777	-0,107	0,091
-575,977	745,480	0,024	-0,047
-574,963	-16,854	0,112	0,051
-573,948	143,676	-0,130	0,125
-572,934	252,157	0,096	0,119
-571,919	251,467	-0,034	-0,042
-570,904	148,205	0,042	-0,041
-569,890	28,231	0,026	-0,016
-568,875	187,932	-0,051	0,056
-567,861	-165,417	0,108	0,003
-566,846	26,635	0,164	0,099
-565,831	-159,760	0,191	0,007
-564,817	-62,013	-0,081	-0,024
-563,802	-99,721	-0,262	-0,047
-562,788	-38,220	0,080	0,030
-561,773	-62,003	-0,004	-0,001
-560,758	-44,369	0,057	0,021
-559,744	800,000	0,029	0,090
-558,729	-63,985	-0,057	-0,017
-557,715	770,223	0,023	0,045
-556,700	-147,981	-0,071	0,004
-555,685	-27,342	-0,197	-0,082
-554,671	-62,571	0,124	0,037
-553,656	232,435	0,055	0,065
-552,642	-45,156	0,239	0,085
-551,627	-200,000	-0,022	-0,120
-550,612	308,603	-0,124	-0,168
-549,598	-200,000	-0,001	-0,012
-548,583	121,036	-0,042	0,038
-547,569	38,505	-0,028	-0,018
-546,554	164,900	0,018	-0,018
-545,539	-39,545	0,063	-0,024
-544,525	-200,000	0,039	-0,175
-543,510	-200,000	-0,022	0,106
-542,496	-200,000	0,006	-0,036
-541,481	48,080	-0,070	-0,047
-540,466	245,207	0,035	-0,042
-539,452	189,422	0,122	0,132
-538,437	800,000	0,010	-0,024
-537,423	122,849	-0,051	-0,046
-536,408	800,000	0,015	0,034
-535,393	562,254	0,055	0,096
-534,379	131,939	-0,086	-0,080
-533,364	-63,662	-0,117	0,034
-532,350	-27,591	0,146	-0,061
-531,335	428,622	0,082	0,128
-530,321	77,447	-0,114	-0,087
-529,306	67,495	0,099	-0,073
-528,291	-200,000	0,004	0,101
-527,277	141,159	-0,043	-0,041
-526,262	800,000	-0,047	0,110
-525,248	-200,000	0,005	0,025
-524,233	133,204	-0,023	-0,021
-523,218	521,724	-0,091	0,155
-522,204	388,075	0,068	-0,101
-521,189	-97,362	-0,141	0,026
-520,175	124,024	0,067	-0,061
-519,160	-200,000	-0,010	0,055
-518,145	112,628	-0,050	-0,044
-517,131	800,000	0,076	-0,156
-516,116	-53,251	0,064	0,021
-515,102	218,603	0,104	0,120
-514,087	-200,000	0,025	-0,109
-513,072	800,000	-0,042	-0,121
-512,058	-157,218	-0,132	-0,006
-511,043	-22,531	0,201	0,087
-510,029	80,414	0,095	0,074
-509,014	-26,870	-0,049	0,020
-507,999	56,556	-0,205	0,144
-506,985	-200,000	0,024	0,181
-505,970	-196,211	-0,058	0,000
-504,956	-100,545	-0,130	0,023
-503,941	800,000	0,028	0,087
-502,926	-111,786	0,055	0,008
-501,912	800,000	-0,049	0,150
-500,897	-200,000	0,005	-0,022
-499,883	-200,000	0,013	0,102
-498,868	-56,746	0,089	-0,028
-497,853	-58,635	-0,066	-0,020
-496,839	-91,211	-0,066	-0,013
-495,824	800,000	0,044	0,096
-494,810	4,361	-0,060	-0,031
-493,795	-19,060	-0,071	0,032
-492,781	-42,683	-0,057	-0,021
-491,766	-200,000	-0,010	-0,050
-490,751	-152,144	0,023	-0,001
-489,737	3,170	-0,123	0,064
-488,722	145,353	-0,102	0,098
-487,708	126,342	0,052	-0,047
-486,693	-200,000	0,004	-0,063
-485,678	-200,000	0,002	0,101
-484,664	800,000	-0,027	-0,084
-483,649	-7,994	-0,034	0,017
-482,635	-16,990	0,053	0,024
-481,620	288,551	-0,028	0,036
-480,605	423,938	0,102	0,158
-479,591	88,320	0,048	0,038
-478,576	-125,111	0,056	-0,006
-477,562	-120,942	-0,151	0,018
-476,547	800,000	-0,068	-0,182
-475,532	-36,382	-0,017	0,007
-474,518	-64,001	0,077	0,022
-473,503	-1,955	-0,167	-0,084
-472,489	-200,000	0,015	0,088
-471,474	-108,392	0,054	0,008
-470,459	494,235	0,031	-0,051
-469,445	800,000	-0,022	-0,068
-468,430	662,941	-0,016	0,030
-467,416	-200,000	-0,021	0,086
-466,401	118,543	-0,055	-0,049
-465,386	299,354	0,075	-0,100
-464,372	-200,000	0,025	0,143
-463,357	140,822	0,017	-0,016
-462,343	800,000	-0,027	0,069
-461,328	46,863	0,166	0,111
-460,313	277,834	0,112	0,143
-459,299	-200,000	0,011	0,109
-458,284	459,749	0,072	0,116
-457,270	-57,681	-0,037	0,012
-456,255	-200,000	-0,026	-0,086
-455,241	-200,000	-0,013	-0,086
-454,226	261,756	0,056	-0,070
-453,211	-200,000	-0,011	-0,063
-452,197	-200,000	-0,003	-0,030
-451,182	-200,000	-0,003	0,059
-450,168	-168,502	0,173	-0,005
-449,153	-200,000	0,002	-0,063
-448,138	-200,000	0,018	-0,071
-447,124	800,000	0,013	-0,036
-446,109	800,000	0,043	-0,099
-445,095	800,000	-0,045	0,106
-444,080	800,000	0,042	-0,096
-443,065	-200,000	-0,018	0,081
-442,051	-200,000	-0,007	-0,124
-441,036	3,660	-0,116	-0,061
-440,022	-200,000	-0,035	-0,113
-439,007	112,143	0,049	-0,042
-437,992	134,665	-0,161	0,151
-436,978	-83,472	-0,124	0,028
-435,963	-78,522	0,047	0,011
-434,949	-15,237	0,023	0,011
-433,934	-37,885	0,101	0,038
-432,919	-200,000	-0,005	0,067
-431,905	800,000	0,047	-0,138
-430,890	318,033	0,036	0,048
-429,876	-200,000	0,020	0,137
-428,861	33,916	-0,113	0,070
-427,846	215,481	0,050	-0,057
-426,832	522,033	0,034	-0,058
-425,817	29,978	-0,088	-0,054
-424,803	155,174	0,069	0,068
-423,788	-118,558	-0,056	0,007
-422,773	193,404	0,071	0,077
-421,759	-200,000	-0,038	0,262
-420,744	-34,833	0,162	-0,063
-419,730	331,943	-0,094	-0,131
-418,715	229,445	-0,080	-0,094
-417,701	800,000	-0,062	-0,159
-416,686	-200,000	-0,007	0,104
-415,671	-152,302	0,176	-0,009
-414,657	-131,759	0,243	-0,023
-413,642	-200,000	-0,005	-0,107
-412,628	800,000	-0,038	-0,082
-411,613	-109,508	-0,108	-0,016
-410,598	800,000	0,061	-0,151
-409,584	293,088	-0,093	0,122
-408,569	-95,088	-0,045	-0,009
-407,555	185,213	0,069	-0,074
-406,540	45,809	-0,084	0,056
-405,525	800,000	-0,056	-0,131
-404,511	38,426	-0,039	-0,025
-403,496	800,000	0,022	-0,062
-402,482	-200,000	0,040	0,189
-401,467	-200,000	-0,004	0,108
-400,452	800,000	0,022	0,059
-399,438	116,555	0,108	0,095
-398,423	800,000	0,074	-0,150
-397,409	-183,843	-0,082	0,001
-396,394	-157,336	0,085	0,004
-395,379	0,370	0,233	0,119
-394,365	-44,496	0,049	0,017
-393,350	-48,203	0,125	-0,043
-392,336	-200,000	0,016	-0,059
-391,321	-118,208	0,050	0,006
-390,306	258,540	0,026	-0,032
-389,292	101,652	-0,099	-0,083
-388,277	271,977	-0,044	-0,056
-387,263	-140,406	0,139	-0,010
-386,248	-200,000	-0,005	-0,041
-385,233	800,000	-0,037	-0,086
-384,219	-200,000	0,015	-0,066
-383,204	224,847	0,036	-0,042
-382,190	11,018	0,074	0,040
-381,175	-83,868	0,098	0,022
-380,160	-200,000	-0,008	0,133
-379,146	-36,788	0,045	-0,017
-378,131	-200,000	0,020	0,093
-377,117	-144,700	0,153	0,010
-376,102	61,103	-0,142	-0,101
-375,088	-200,000	-0,022	-0,118
-374,073	428,437	-0,015	-0,023
-373,058	-140,762	0,145	-0,011
-372,044	78,036	-0,094	0,071
-371,029	377,790	0,037	-0,054
-370,015	530,568	0,020	-0,034
-369,000	800,000	-0,011	0,031
-367,985	59,067	-0,111	-0,078
-366,971	576,949	-0,061	0,107
-365,956	-200,000	-0,030	0,102
-364,942	108,017	0,082	0,070
-363,927	-200,000	0,002	0,073
-362,912	-200,000	0,031	-0,128
-361,898	361,462	0,047	0,068
-360,883	69,537	0,147	0,108
-359,869	46,025	0,019	0,013
-358,854	-100,970	-0,051	0,009
-357,839	800,000	0,043	0,119
-356,825	800,000	0,066	0,172
-355,810	260,989	-0,057	0,070
-354,796	109,929	0,109	-0,094
-353,781	-0,077	-0,069	-0,035
-352,766	-200,000	0,024	-0,101
-351,752	-200,000	0,021	-0,088
-350,737	-200,000	0,024	0,128
-349,723	800,000	-0,030	-0,075
-348,708	-40,307	0,181	0,067
-347,693	308,285	0,046	-0,062
-346,679	-101,998	-0,099	-0,017
-345,664	37,027	-0,052	-0,033
-344,650	-68,621	-0,135	0,037
-343,635	-200,000	0,029	0,141
-342,620	95,256	0,149	0,121
-341,606	-127,175	0,063	0,007
-340,591	800,000	0,037	-0,096
-339,577	-200,000	0,054	0,172
-338,562	-158,404	0,026	-0,001
-337,548	-200,000	0,012	-0,129
-336,533	147,882	-0,100	-0,096
-335,518	-160,221	0,130	0,005
-334,504	-57,337	0,087	0,027
-333,489	800,000	-0,034	-0,069
-332,475	60,548	-0,112	-0,079
-331,460	-200,000	-0,015	-0,089
-330,445	-200,000	0,019	-0,124
-329,431	-200,000	-0,036	0,140
-328,416	103,376	-0,027	0,023
-327,402	9,225	0,111	0,060
-326,387	64,052	0,037	0,026
-325,372	-144,098	0,043	-0,003
-324,358	800,000	-0,060	-0,125
-323,343	-97,853	0,066	0,012
-322,329	-200,000	0,009	0,071
-321,314	142,209	0,103	0,098
-320,299	-59,318	-0,041	0,012
-319,285	-48,448	0,075	0,026
-318,270	-115,437	-0,159	-0,021
-317,256	362,304	-0,041	-0,059
-316,241	266,603	-0,067	0,084
-315,226	-200,000	-0,006	0,021
-314,212	-200,000	-0,022	0,098
-313,197	-150,733	0,112	-0,006
-312,183	-4,590	0,076	0,038
-311,168	-40,905	0,066	-0,024
-310,153	236,046	-0,049	-0,058
-309,139	-200,000	-0,009	-0,099
-308,124	-146,916	-0,063	0,004
-307,110	208,081	0,045	0,050
-306,095	-200,000	-0,031	0,122
-305,080	-59,225	-0,105	-0,032
-304,066	-200,000	0,014	0,075
-303,051	769,367	-0,028	0,054
-302,037	715,876	-0,018	-0,033
-301,022	85,518	0,130	-0,102
-300,008	566,830	-0,026	0,045
-298,993	-200,000	-0,019	-0,071
-297,978	-65,350	0,137	-0,039
-296,964	800,000	0,061	-0,156
-295,949	-200,000	0,007	-0,030
-294,935	800,000	0,018	-0,056
-293,920	8,660	-0,010	0,005
-292,905	2,011	-0,060	0,031
-291,891	246,405	0,098	0,118
-290,876	-83,848	-0,074	-0,017
-289,862	22,949	0,144	-0,084
-288,847	71,209	-0,018	0,013
-287,832	-200,000	-0,032	0,140
-286,818	137,154	-0,075	-0,070
-285,803	-157,977	-0,039	-0,002
-284,789	-46,764	0,108	0,038
-283,774	-67,047	-0,022	-0,006
-282,759	9,961	-0,143	-0,077
-281,745	-84,410	-0,043	0,010
-280,730	-122,750	-0,097	0,011
-279,716	800,000	-0,011	-0,033
-278,701	281,234	0,063	0,081
-277,686	-78,175	0,128	-0,031
-276,672	-200,000	0,004	0,021
-275,657	13,261	-0,134	-0,074
-274,643	-27,422	0,055	-0,023
-273,628	-61,523	-0,148	-0,044
-272,613	13,105	-0,074	0,041
-271,599	90,234	0,032	0,025
-270,584	142,456	0,082	0,078
-269,570	-130,079	-0,061	-0,006
-268,555	800,000	-0,039	-0,093
-267,540	145,348	-0,107	-0,103
-266,526	-3,142	0,052	0,026
-265,511	3,994	0,058	0,030
-264,497	303,199	0,093	-0,123
-263,482	-200,000	-0,005	-0,075
-262,467	-153,412	0,105	-0,005
-261,453	-91,977	-0,149	-0,030
-260,438	-200,000	0,025	-0,096
-259,424	-200,000	0,047	-0,189
-258,409	123,841	0,057	-0,051
-257,395	37,978	0,060	0,038
-256,380	667,195	-0,039	0,073
-255,365	27,413	0,025	-0,015
-254,351	188,692	0,064	0,068
-253,336	228,770	-0,037	0,043
-252,322	800,000	-0,014	-0,033
-251,307	137,080	-0,040	-0,038
-250,292	-200,000	0,018	-0,146
-249,278	0,390	-0,056	0,029
-248,263	646,009	0,038	-0,069
-247,249	57,851	0,091	-0,063
-246,234	58,283	-0,041	-0,029
-245,219	7,733	0,063	0,033
-244,205	-200,000	-0,020	-0,081
-243,190	-55,433	-0,137	0,043
-242,176	44,395	0,159	-0,104
-241,161	-200,000	-0,009	0,029
-240,146	258,224	-0,012	-0,015
-239,132	663,415	0,020	0,037
-238,117	201,150	-0,106	-0,117
-237,103	800,000	-0,033	-0,080
-236,088	78,258	-0,077	-0,059
-235,073	-61,331	0,088	-0,026
-234,059	415,050	-0,012	0,018
-233,044	88,916	-0,171	0,136
-232,030	-34,489	-0,161	0,062
-231,015	378,133	0,044	-0,064
-230,000	370,643	-0,018	0,026
-228,986	164,239	0,055	-0,055
-227,971	82,350	0,072	0,056
-226,957	25,563	0,092	-0,055
-225,942	800,000	0,013	-0,032
-224,927	-82,502	-0,124	-0,029
-223,913	-200,000	-0,007	0,087
-222,898	-138,273	0,033	-0,003
-221,884	-200,000	-0,025	-0,098
-220,869	425,873	-0,017	0,026
-219,855	-105,383	-0,087	0,014
-218,840	21,165	-0,093	-0,054
-217,825	-200,000	-0,004	-0,054
-216,811	61,809	-0,077	0,054
-215,796	280,171	-0,125	-0,160
-214,782	255,225	-0,017	-0,021
-213,767	800,000	-0,017	0,035
-212,752	-101,617	0,090	0,015
-211,738	800,000	-0,027	-0,060
-210,723	-159,224	-0,132	0,005
-209,709	85,452	0,034	0,027
-208,694	195,960	-0,079	0,086
-207,679	395,936	0,058	0,086
-206,665	-27,464	-0,064	-0,026
-205,650	-200,000	-0,005	-0,099
-204,636	-168,411	-0,045	0,001
-203,621	-200,000	-0,015	0,071
-202,606	-200,000	-0,020	0,098
-201,592	-129,383	-0,166	0,016
-200,577	244,000	-0,060	-0,072
-199,563	-200,000	-0,009	0,068
-198,548	321,518	0,048	0,065
-197,533	800,000	-0,010	-0,032
-196,519	800,000	0,064	-0,134
-195,504	46,405	-0,170	-0,112
-194,490	-79,104	0,028	0,007
-193,475	7,010	-0,071	0,037
-192,460	110,517	-0,061	-0,052
-191,446	80,359	0,082	-0,063
-190,431	-200,000	-0,015	0,060
-189,417	-200,000	0,005	0,032
-188,402	235,937	0,016	-0,019
-187,387	800,000	0,040	0,093
-186,373	189,717	-0,062	0,066
-185,358	-57,699	0,062	-0,019
-184,344	800,000	0,080	0,251
-183,329	-200,000	0,022	0,073
-182,315	-29,765	0,184	-0,074
-181,300	-75,296	-0,010	0,002
-180,285	-140,470	-0,058	0,004
-179,271	-39,816	0,091	0,034
-178,256	800,000	0,030	0,063
-177,242	457,146	0,025	-0,040
-176,227	-14,568	-0,029	-0,013
-175,212	-200,000	-0,012	-0,038
-174,198	185,773	-0,092	0,097
-173,183	367,530	0,057	-0,082
-172,169	-200,000	-0,014	0,076
-171,154	52,000	0,101	-0,068
-170,139	218,843	-0,062	-0,070
-169,125	-63,930	-0,054	-0,016
-168,110	800,000	0,025	0,073
-167,096	-200,000	0,020	0,062
-166,081	-200,000	-0,007	-0,033
-165,066	-98,869	-0,087	0,016
-164,052	-200,000	-0,005	-0,019
-163,037	52,556	-0,046	-0,031
-162,023	128,002	-0,014	0,012
-161,008	-200,000	0,014	-0,047
-159,993	439,476	-0,076	0,119
-158,979	-186,188	-0,036	-0,000
-157,964	-79,040	-0,118	-0,028
-156,950	33,880	-0,070	-0,043
-155,935	-27,853	-0,056	-0,023
-154,920	-200,000	0,017	-0,057
-153,906	800,000	-0,026	0,063
-152,891	71,206	0,101	0,074
-151,877	40,952	-0,083	0,053
-150,862	36,383	0,092	-0,057
-149,847	417,338	-0,035	-0,054
-148,833	-200,000	0,019	0,118
-147,818	52,543	0,054	-0,037
-146,804	-200,000	-0,014	0,046
-145,789	-142,237	0,073	-0,005
-144,775	-200,000	0,020	-0,082
-143,760	-159,358	-0,067	0,003
-142,745	-200,000	-0,003	0,072
-141,731	423,117	-0,025	-0,039
-140,716	197,010	0,120	-0,130
-139,702	800,000	0,022	-0,051
-138,687	47,902	0,101	-0,067
-137,672	15,742	-0,084	0,047
-136,658	-82,077	0,053	0,012
-135,643	-200,000	-0,007	-0,155
-134,629	259,310	0,068	-0,083
-133,614	415,432	-0,050	-0,075
-132,599	800,000	0,023	0,065
-131,585	-116,861	0,080	0,010
-130,570	800,000	0,023	-0,065
-129,556	71,650	-0,051	0,038
-128,541	800,000	-0,048	-0,117
-127,526	39,511	0,106	-0,067
-126,512	563,043	0,034	-0,058
-125,497	-200,000	0,030	0,100
-124,483	-56,312	-0,079	0,025
-123,468	571,176	-0,047	0,081
-122,453	-200,000	0,059	0,000
-121,439	-44,016	0,103	0,036
-120,424	-45,419	-0,047	-0,016
-119,410	-126,334	-0,126	-0,013
-118,395	17,258	0,061	-0,034
-117,380	800,000	-0,006	0,014
-116,366	-200,000	0,001	-0,031
-115,351	316,992	-0,086	-0,116
-114,337	800,000	-0,041	-0,112
-113,322	800,000	0,059	-0,146
-112,307	-200,000	-0,003	-0,062
-111,293	130,966	0,101	0,092
-110,278	-200,000	-0,034	0,112
-109,264	64,290	-0,087	0,062
-108,249	49,660	0,132	0,088
-107,234	47,637	-0,189	-0,125
-106,220	800,000	0,053	-0,107
-105,205	-92,933	0,120	0,024
-104,191	351,795	0,074	0,104
-103,176	32,504	-0,027	-0,017
-102,162	-80,817	-0,169	-0,039
-101,147	800,000	0,023	-0,050
-100,132	800,000	0,052	-0,121
-99,118	74,252	-0,122	-0,091
-98,103	-200,000	0,009	0,065
-97,089	107,679	0,029	-0,024
-96,074	-128,215	0,030	0,003
-95,059	-200,000	0,016	0,083
-94,045	424,978	-0,035	-0,053
-93,030	800,000	0,018	-0,037
-92,016	280,287	-0,087	-0,110
-91,001	-200,000	-0,005	-0,138
-89,986	-200,000	-0,005	-0,132
-88,972	183,024	0,037	0,039
-87,957	-200,000	0,010	0,210
-86,943	-200,000	-0,029	-0,108
-85,928	-200,000	-0,005	-0,034
-84,913	163,814	-0,059	0,059
-83,899	495,790	-0,041	-0,067
-82,884	800,000	0,025	-0,074
-81,870	-72,062	0,066	-0,017
-80,855	-200,000	0,009	0,080
-79,840	-17,357	0,016	-0,007
-78,826	-200,000	0,010	0,034
-77,811	800,000	0,021	-0,063
-76,797	3,959	-0,103	-0,053
-75,782	-78,546	-0,100	0,024
-74,767	-118,142	0,215	0,027
-73,753	183,465	0,078	0,082
-72,738	83,217	0,090	0,069
-71,724	247,020	-0,109	-0,130
-70,709	243,229	-0,103	-0,122
-69,694	7,526	-0,115	-0,061
-68,680	-113,666	-0,072	0,010
-67,665	-48,012	0,108	-0,037
-66,651	-200,000	0,037	-0,146
-65,636	800,000	-0,028	-0,068
-64,622	-200,000	-0,039	0,144
-63,607	118,611	-0,065	-0,057
-62,592	381,004	-0,029	-0,042
-61,578	-109,089	0,090	0,013
-60,563	800,000	-0,024	-0,067
-59,549	-200,000	-0,003	0,185
-58,534	-13,821	-1,753	-0,799
-57,519	363,402	-1,462	-2,085
-56,505	-200,000	-0,553	-4,641
-55,490	229,209	1,041	1,204
-54,476	800,000	5,095	11,480
-53,461	-200,000	19,944	325,750
-52,446	800,000	748,361	2325,154
-51,432	558,615	1660,235	2845,137
-50,417	76,255	1671,546	1250,857
-49,403	20,496	1544,539	881,155
-48,388	14,421	1467,340	807,555
-47,373	18,219	1457,372	820,390
-46,359	16,451	1446,773	805,916
-45,344	12,679	1442,347	785,350
-44,330	12,579	1440,439	783,801
-43,315	12,593	1438,852	782,973
-42,300	12,690	1436,825	782,304
-41,286	12,650	1435,708	781,472
-40,271	12,601	1434,570	780,587
-39,257	12,624	1433,251	779,952
-38,242	12,718	1431,846	779,601
-37,227	12,668	1430,731	778,728
-36,213	12,700	1429,211	778,020
-35,198	12,707	1428,088	777,414
-34,184	12,758	1427,159	777,118
-33,169	12,659	1425,775	775,863
-32,154	12,686	1424,743	775,397
-31,140	12,694	1423,476	774,716
-30,125	12,711	1422,225	774,085
-29,111	12,698	1421,216	773,446
-28,096	12,668	1420,269	772,757
-27,082	12,639	1419,034	771,914
-26,067	12,642	1418,090	771,389
-25,052	12,625	1416,881	770,617
-24,038	12,572	1415,800	769,752
-23,023	12,594	1415,044	769,411
-22,009	12,596	1413,965	768,803
-20,994	12,572	1413,023	768,149
-19,979	12,558	1412,237	767,626
-18,965	12,589	1411,201	767,176
-17,950	12,542	1410,204	766,386
-16,936	12,536	1409,388	765,884
-15,921	12,529	1408,256	765,205
-14,906	12,510	1407,408	764,622
-13,892	12,524	1406,489	764,160
-12,877	12,504	1405,598	763,554
-11,863	12,503	1404,563	762,955
-10,848	12,460	1404,078	762,462
-9,833	12,419	1403,072	761,695
-8,819	12,393	1402,171	761,051
-7,804	12,412	1401,444	760,715
-6,790	12,370	1400,450	759,950
-5,775	12,410	1398,969	759,303
-4,760	12,430	1398,023	758,851
-3,746	12,413	1397,170	758,281
-2,731	12,405	1396,200	757,689
-1,717	12,369	1395,606	757,165
-0,702	12,353	1393,793	756,078
0,313	16,331	1309,448	728,701
1,327	32,775	701,070	427,995
2,342	50,644	122,346	81,721
3,356	1,055	16,549	8,363
4,371	-2,237	3,260	1,611
5,386	-36,333	0,546	0,207
6,400	299,874	0,137	0,179
7,415	45,767	-0,317	-0,207
8,429	79,739	-0,200	-0,151
9,444	83,454	-0,316	-0,243
10,459	165,169	-0,220	-0,219
11,473	-40,153	-0,293	-0,107
12,488	-8,089	-0,288	-0,136
13,502	54,469	-0,235	-0,160
14,517	98,879	-0,316	-0,257
15,531	21,708	-0,421	-0,241
16,546	-57,902	-0,321	-0,098
17,561	44,979	-0,457	-0,297
18,575	301,509	-0,162	-0,212
19,590	243,769	-0,172	-0,204
20,604	-56,965	-0,357	-0,110
21,619	-55,285	-0,431	-0,136
22,634	161,159	-0,370	-0,365
23,648	231,441	-0,366	-0,424
24,663	104,975	-0,471	-0,392
25,677	482,862	-0,215	-0,346
26,692	12,266	-0,357	-0,194
27,707	265,368	-0,216	-0,267
28,721	128,201	-0,318	-0,285
29,736	35,628	-0,479	-0,296
30,750	7,272	-0,522	-0,274
31,765	135,031	-0,255	-0,233
32,780	163,732	-0,206	-0,204
33,794	4,129	-0,414	-0,213
34,809	157,988	-0,393	-0,384
35,823	61,819	-0,445	-0,312
36,838	185,980	-0,319	-0,335
37,853	111,636	-0,341	-0,290
38,867	162,469	-0,314	-0,311
39,882	315,409	-0,215	-0,286
40,896	159,263	-0,342	-0,335
41,911	73,304	-0,326	-0,240
42,926	115,332	-0,329	-0,283
43,940	-36,446	-0,428	-0,161
44,955	69,757	-0,389	-0,282
45,969	-20,727	-0,301	-0,130
46,984	63,852	-0,354	-0,250
47,999	310,377	-0,244	-0,322
49,013	54,766	-0,267	-0,181
50,028	-1,948	-0,233	-0,115
51,042	8,142	-0,339	-0,178
52,057	346,508	-0,228	-0,317
53,071	-85,221	-0,383	-0,084
54,086	42,709	-0,311	-0,199
55,101	6,935	-0,389	-0,203
56,115	146,127	-0,318	-0,300
57,130	62,155	-0,385	-0,270
58,144	15,945	-0,475	-0,262
59,159	142,484	-0,379	-0,354
60,174	102,264	-0,343	-0,282
61,188	57,625	-0,371	-0,255
62,203	253,535	-0,278	-0,334
63,217	-30,666	-0,299	-0,118
64,232	74,271	-0,341	-0,252
65,247	102,675	-0,378	-0,311
66,261	104,910	-0,295	-0,244
67,276	49,916	-0,321	-0,213
68,290	93,362	-0,315	-0,250
69,305	69,890	-0,241	-0,175
70,320	181,063	-0,201	-0,207
71,334	-63,662	-0,369	-0,105
72,349	-29,026	-0,305	-0,123
73,363	194,670	-0,322	-0,343
74,378	800,000	-0,161	-0,351
75,393	-77,864	-0,356	-0,086
76,407	106,846	-0,275	-0,229
77,422	137,214	-0,180	-0,165
78,436	133,699	-0,188	-0,171
79,451	319,483	-0,215	-0,287
80,466	173,867	-0,273	-0,277
81,480	-24,959	-0,415	-0,172
82,495	8,395	-0,305	-0,161
83,509	360,380	-0,191	-0,269
84,524	-42,938	-0,287	-0,102
85,539	-8,250	-0,260	-0,122
86,553	-25,677	-0,318	-0,131
87,568	19,616	-0,309	-0,174
88,582	98,401	-0,252	-0,204
89,597	208,505	-0,276	-0,303
90,611	23,966	-0,349	-0,201
91,626	36,496	-0,276	-0,170
92,641	-24,186	-0,248	-0,103
93,655	19,925	-0,299	-0,169
94,670	-25,680	-0,300	-0,123
95,684	-1,618	-0,233	-0,115
96,699	-18,389	-0,339	-0,148
97,714	46,061	-0,258	-0,167
98,728	-161,981	-0,157	0,005
99,743	-46,199	-0,248	-0,085
100,757	-70,016	-0,299	-0,079
101,772	-31,907	-0,345	-0,135
102,787	87,722	-0,263	-0,204
103,801	25,767	-0,248	-0,144
104,816	67,068	-0,246	-0,176
105,830	142,075	-0,225	-0,209
106,845	35,787	-0,294	-0,181
107,860	-28,567	-0,298	-0,120
108,874	431,772	-0,154	-0,234
109,889	-0,512	-0,334	-0,166
110,903	317,304	-0,214	-0,283
111,918	247,548	-0,244	-0,289
112,933	147,644	-0,168	-0,159
113,947	-0,654	-0,257	-0,127
114,962	61,340	-0,215	-0,149
115,976	-123,009	-0,292	0,033
116,991	25,759	-0,380	-0,221
118,006	-17,639	-0,373	-0,163
119,020	243,238	-0,226	-0,265
120,035	94,296	-0,240	-0,191
121,049	-15,933	-0,131	-0,058
122,064	-83,110	-0,125	-0,028
123,079	-55,129	-0,277	-0,087
124,093	41,727	-0,211	-0,134
125,108	747,309	-0,115	-0,217
126,122	41,881	-0,304	-0,193
127,137	-10,659	-0,320	-0,148
128,151	150,314	-0,269	-0,255
129,166	90,722	-0,172	-0,135
130,181	33,606	-0,388	-0,236
131,195	-3,516	-0,330	-0,160
132,210	428,393	-0,183	-0,278
133,224	160,261	-0,253	-0,247
134,239	63,528	-0,356	-0,249
135,254	-27,746	-0,161	-0,065
136,268	-93,549	-0,288	-0,055
137,283	133,029	-0,341	-0,307
138,297	19,973	-0,231	-0,130
139,312	180,348	-0,335	-0,344
140,327	100,851	-0,277	-0,225
141,341	16,978	-0,309	-0,170
142,356	-47,374	-0,205	-0,069
143,370	8,191	-0,208	-0,109
144,385	4,978	-0,310	-0,159
145,400	2,450	-0,348	-0,175
146,414	-29,780	-0,286	-0,113
147,429	103,104	-0,270	-0,221
148,443	137,020	-0,270	-0,246
149,458	-200,000	-0,061	-0,227
150,473	530,023	-0,168	-0,278
151,487	320,268	-0,138	-0,183
152,502	13,973	-0,321	-0,174
153,516	122,190	-0,233	-0,203
154,531	620,107	-0,150	-0,264
155,546	-101,570	-0,354	-0,059
156,560	58,080	-0,177	-0,121
157,575	131,450	-0,241	-0,216
158,589	95,911	-0,312	-0,249
159,604	89,251	-0,245	-0,190
160,619	100,502	-0,288	-0,233
161,633	27,622	-0,217	-0,127
162,648	423,103	-0,131	-0,197
163,662	50,124	-0,084	-0,055
164,677	128,928	-0,158	-0,140
165,692	22,762	-0,245	-0,140
166,706	31,476	-0,310	-0,185
167,721	45,181	-0,304	-0,195
168,735	29,360	-0,358	-0,211
169,750	30,254	-0,151	-0,090
170,764	46,300	-0,205	-0,132
171,779	99,101	-0,188	-0,151
172,794	70,391	-0,228	-0,164
173,808	63,151	-0,247	-0,172
174,823	200,447	-0,215	-0,231
175,837	191,176	-0,187	-0,196
176,852	-129,051	-0,236	-0,023
177,867	-99,552	-0,286	-0,050
178,881	137,794	-0,184	-0,168
179,896	67,056	-0,202	-0,143
180,910	161,398	-0,258	-0,251
181,925	287,310	-0,201	-0,253
182,940	315,545	-0,163	-0,215
183,954	114,642	-0,258	-0,218
184,969	-98,765	-0,207	-0,036
185,983	-94,916	-0,214	-0,040
186,998	-19,450	-0,149	-0,064
188,013	343,220	-0,214	-0,292
189,027	-13,221	-0,170	-0,076
190,042	43,938	-0,310	-0,197
191,056	42,899	-0,274	-0,173
192,071	172,724	-0,294	-0,295
193,086	104,794	-0,223	-0,183
194,100	-16,783	-0,123	0,054
195,115	-3,862	-0,135	-0,065
196,129	103,128	-0,219	-0,179
197,144	21,070	-0,259	-0,145
198,159	58,584	-0,337	-0,229
199,173	-56,735	-0,277	-0,085
200,188	99,965	-0,095	-0,077
201,202	68,437	-0,178	-0,127
202,217	55,070	-0,261	-0,175
203,232	187,357	-0,182	-0,189
204,246	194,856	-0,248	-0,262
205,261	241,921	-0,194	-0,225
206,275	20,586	-0,170	-0,095
207,290	434,965	-0,141	-0,214
208,304	-64,520	-0,200	-0,056
209,319	-200,000	-0,032	-0,140
210,334	15,228	-0,215	-0,116
211,348	41,759	-0,267	-0,168
212,363	-10,751	-0,295	-0,135
213,377	109,029	-0,201	-0,167
214,392	231,768	-0,154	-0,175
215,407	138,174	-0,144	-0,131
216,421	-42,346	-0,237	-0,083
217,436	223,931	-0,118	-0,132
218,450	-82,253	-0,171	-0,038
219,465	-118,830	-0,159	-0,019
220,480	-200,000	-0,028	-0,224
221,494	-112,129	-0,179	-0,025
222,509	271,544	-0,164	-0,200
223,523	76,295	-0,131	-0,096
224,538	225,916	-0,102	-0,115
225,553	664,538	-0,149	-0,269
226,567	327,809	-0,163	-0,218
227,582	-138,272	-0,202	0,015
228,596	178,386	-0,087	-0,088
229,611	773,406	-0,061	-0,115
230,626	120,571	-0,164	-0,142
231,640	96,080	-0,033	0,026
232,655	233,610	-0,123	-0,140
233,669	230,970	-0,152	-0,173
234,684	83,896	-0,149	-0,112
235,699	-200,000	-0,024	-0,137
236,713	118,837	-0,175	-0,150
237,728	-104,032	-0,176	-0,028
238,742	-6,231	-0,316	-0,149
239,757	-45,583	-0,181	-0,062
240,772	83,190	-0,227	-0,171
241,786	219,147	-0,265	-0,293
242,801	800,000	-0,104	-0,222
243,815	287,743	-0,213	-0,267
244,830	206,087	-0,144	-0,156
245,844	-59,602	-0,181	-0,053
246,859	-200,000	0,011	-0,048
247,874	95,744	-0,194	-0,153
248,888	689,533	-0,146	-0,265
249,903	-200,000	-0,063	-0,217
250,917	451,691	-0,067	-0,102
251,932	91,044	-0,082	-0,064
252,947	-0,928	-0,149	-0,073
253,961	89,475	-0,167	-0,129
254,976	61,801	-0,167	-0,115
255,990	-200,000	-0,055	-0,172
257,005	-42,209	-0,176	-0,062
258,020	-140,351	-0,175	-0,012
259,034	37,633	-0,164	-0,101
260,049	280,012	-0,041	-0,051
261,063	150,999	-0,207	-0,195
262,078	31,398	-0,281	-0,167
263,093	84,127	-0,181	-0,137
264,107	173,952	-0,165	-0,165
265,122	382,863	-0,084	-0,120
266,136	432,846	-0,066	-0,099
267,151	-37,767	-0,121	-0,044
268,166	111,113	-0,161	-0,134
269,180	-43,016	-0,269	-0,094
270,195	-200,000	-0,289	-0,000
271,209	140,917	-0,141	-0,129
272,224	-89,010	-0,075	-0,015
273,239	101,497	-0,197	-0,158
274,253	-114,711	-0,153	-0,020
275,268	448,628	-0,195	-0,297
276,282	176,245	-0,171	-0,172
277,297	551,624	-0,088	-0,147
278,312	738,560	-0,181	-0,337
279,326	29,777	-0,088	-0,052
280,341	-3,885	-0,063	-0,030
281,355	1,777	-0,258	-0,128
282,370	142,597	-0,213	-0,196
283,384	-13,334	-0,127	-0,057
284,399	-200,000	-0,025	-0,138
285,414	-47,546	-0,136	0,045
286,428	242,636	-0,072	-0,083
287,443	-3,920	-0,210	-0,100
288,457	-127,688	-0,190	0,019
289,472	95,250	-0,170	-0,133
290,487	59,870	-0,199	-0,135
291,501	18,487	-0,228	-0,125
292,516	51,034	-0,126	-0,082
293,530	34,507	-0,181	-0,109
294,545	-200,000	-0,006	-0,111
295,560	56,504	-0,139	0,093
296,574	-3,433	-0,054	-0,026
297,589	-200,000	-0,003	-0,089
298,603	-6,010	-0,189	-0,089
299,618	140,008	-0,185	-0,168
300,633	-200,000	-0,068	-0,231
301,647	-94,350	-0,094	0,018
302,662	2,988	-0,077	-0,038
303,676	1,656	-0,138	-0,068
304,691	51,091	-0,206	-0,134
305,706	83,248	-0,258	-0,193
306,720	579,359	-0,117	-0,199
307,735	66,529	-0,204	-0,143
308,749	223,215	-0,081	-0,090
309,764	176,304	-0,086	-0,086
310,779	800,000	-0,109	-0,216
311,793	-164,743	-0,232	-0,007
312,808	40,196	-0,063	-0,039
313,822	561,858	-0,076	-0,127
314,837	-3,885	-0,192	-0,091
315,852	356,160	-0,122	-0,167
316,866	-145,988	-0,079	-0,005
317,881	273,982	-0,085	-0,103
318,895	528,784	-0,075	-0,122
319,910	800,000	-0,109	-0,224
320,925	-200,000	-0,053	-0,205
321,939	23,489	-0,144	-0,081
322,954	226,246	-0,051	-0,057
323,968	436,924	0,032	-0,049
324,983	-65,266	-0,143	-0,039
325,997	580,464	-0,106	-0,179
327,012	341,870	-0,092	-0,124
328,027	274,360	-0,111	-0,135
329,041	142,986	-0,162	-0,148
330,056	-91,239	-0,156	-0,030
331,070	-172,733	-0,108	0,002
332,085	-17,640	-0,092	0,039
333,100	-86,194	-0,138	-0,029
334,114	-83,240	-0,185	-0,040
335,129	58,230	-0,162	-0,109
336,143	77,669	-0,139	-0,102
337,158	-26,790	-0,224	-0,090
338,173	-200,000	0,000	-0,001
339,187	-133,962	-0,076	0,006
340,202	392,859	-0,086	-0,123
341,216	-53,519	-0,137	-0,043
342,231	25,402	-0,231	-0,132
343,246	35,934	-0,190	-0,114
344,260	-1,868	-0,204	-0,098
345,275	41,100	-0,133	-0,082
346,289	-74,251	0,056	-0,014
347,304	800,000	-0,032	-0,075
348,319	-105,893	-0,271	-0,042
349,333	-80,872	-0,244	-0,055
350,348	-200,000	0,000	-0,008
351,362	126,694	-0,199	-0,173
352,377	79,448	-0,156	-0,115
353,392	31,408	-0,198	-0,116
354,406	-117,774	-0,279	-0,034
355,421	207,766	1314,494	1408,537
356,435	159,828	1475,201	1409,001
