DTS Sentinel unit serial number:	SN410029Multiplexer serial number:	ORYXHardware model number:	OX2-SRSoftware version number:	ORYX F/W v4,00 Oryx Data Collector v3.7.2.0data status	okinstallation	B3 Nyhavnadifferential loss correction	single-endedforward channel	channel 1reverse channel	N/Adate	2023/11/30time	11:27:30forward acquisition time	300,00reverse acquisition time	0,00gamma	499,1914k internal	0,3211k external	0,3211temperature offset calibration	1,0000default loss term (dB/km)	0,3820temperature slope calibration	1,0000multiplexer offset coefficient	1,0000multiplexer slope coefficient	1,0000fibre end	0,00T internal ref (°C)	9,44T ext. ref 1 (°C)	-5,73T ext. ref 2 (°C)	-5,83length (m)	temperature (°C)	Stokes	anti-Stokes-744,400	338,544	-0,163	-0,231
-743,385	800,000	-0,087	0,189
-742,371	-200,000	0,007	-0,256
-741,356	-200,000	-0,021	0,231
-740,342	1,802	-0,200	-0,104
-739,327	800,000	-0,093	0,264
-738,312	62,373	-0,102	-0,074
-737,298	366,742	0,079	0,116
-736,283	522,197	-0,263	-0,449
-735,269	-200,000	-0,047	0,334
-734,254	524,456	-0,159	-0,272
-733,239	-87,112	-0,190	0,042
-732,225	800,000	-0,055	-0,129
-731,210	88,720	0,097	0,078
-730,196	110,906	-0,086	-0,075
-729,181	780,932	0,003	0,007
-728,167	-136,771	0,183	0,015
-727,152	271,964	0,071	-0,090
-726,137	-40,176	0,110	-0,041
-725,123	172,965	-0,061	-0,063
-724,108	413,718	-0,059	-0,091
-723,094	-101,280	0,126	-0,022
-722,079	-101,561	-0,188	0,033
-721,064	173,935	-0,009	0,009
-720,050	-200,000	0,007	0,104
-719,035	72,912	-0,095	0,072
-718,021	423,247	0,049	-0,076
-717,006	-60,157	-0,149	-0,046
-715,991	127,270	-0,059	-0,054
-714,977	-40,230	-0,145	-0,055
-713,962	145,048	-0,064	0,062
-712,948	-200,000	-0,002	-0,156
-711,933	-68,391	0,142	0,040
-710,918	-31,442	-0,167	0,068
-709,904	199,650	-0,156	-0,173
-708,889	460,308	-0,043	-0,070
-707,875	-101,323	0,072	-0,013
-706,860	-124,969	-0,169	-0,019
-705,845	-31,317	-0,153	0,062
-704,831	800,000	0,012	0,026
-703,816	381,243	-0,135	0,201
-702,802	800,000	-0,040	0,094
-701,787	275,184	-0,038	-0,048
-700,772	283,122	-0,051	-0,067
-699,758	552,729	0,045	0,079
-698,743	-200,000	-0,002	0,148
-697,729	-122,887	0,057	0,007
-696,714	-200,000	-0,007	0,045
-695,699	215,068	-0,075	0,086
-694,685	-200,000	-0,003	0,039
-693,670	-187,305	-0,039	0,000
-692,656	58,008	-0,191	-0,135
-691,641	-192,439	-0,073	0,000
-690,627	146,475	0,019	-0,019
-689,612	187,900	0,039	0,042
-688,597	25,040	-0,100	-0,060
-687,583	20,948	-0,146	-0,085
-686,568	-83,201	-0,150	0,035
-685,554	145,416	0,023	-0,022
-684,539	-148,058	-0,049	0,003
-683,524	742,812	0,042	-0,081
-682,510	231,794	-0,023	0,027
-681,495	23,236	0,175	-0,104
-680,481	-155,296	0,019	-0,001
-679,466	-152,211	-0,058	0,003
-678,451	-55,235	-0,188	0,061
-677,437	29,655	0,071	-0,044
-676,422	132,836	0,008	-0,007
-675,408	-7,938	-0,174	0,085
-674,393	800,000	0,043	-0,091
-673,378	75,761	-0,057	0,043
-672,364	675,042	-0,004	-0,007
-671,349	115,987	-0,048	-0,043
-670,335	256,469	0,063	-0,079
-669,320	-200,000	0,005	0,092
-668,305	800,000	0,026	-0,075
-667,291	148,563	-0,081	-0,079
-666,276	27,454	-0,062	0,037
-665,262	-200,000	-0,005	-0,095
-664,247	-194,253	0,035	0,000
-663,232	-75,532	-0,065	-0,016
-662,218	-196,327	0,087	0,000
-661,203	-45,616	0,113	-0,040
-660,189	-200,000	0,019	-0,094
-659,174	341,880	0,024	0,034
-658,159	-200,000	-0,001	-0,015
-657,145	142,882	0,090	-0,087
-656,130	10,882	-0,088	0,048
-655,116	122,852	0,155	-0,141
-654,101	-200,000	0,013	0,213
-653,086	327,656	0,054	-0,074
-652,072	-200,000	0,010	-0,115
-651,057	-200,000	0,012	-0,153
-650,043	293,616	-0,023	0,030
-649,028	-200,000	0,004	-0,114
-648,014	89,273	-0,012	0,010
-646,999	-16,128	-0,044	-0,020
-645,984	-128,164	-0,170	0,017
-644,970	-119,259	-0,191	-0,024
-643,955	-59,721	-0,024	0,007
-642,941	-118,982	0,039	-0,005
-641,926	-200,000	-0,010	0,081
-640,911	-200,000	0,070	0,300
-639,897	-200,000	0,019	-0,090
-638,882	291,810	-0,047	-0,062
-637,868	88,697	0,004	-0,003
-636,853	800,000	-0,047	-0,145
-635,838	800,000	0,038	-0,119
-634,824	82,411	-0,087	-0,068
-633,809	454,876	0,065	-0,105
-632,795	-200,000	-0,012	-0,066
-631,780	-200,000	0,006	0,044
-630,765	800,000	0,014	-0,031
-629,751	-200,000	-0,011	-0,076
-628,736	84,593	-0,114	-0,090
-627,722	23,765	0,167	0,099
-626,707	-200,000	-0,007	-0,030
-625,692	369,411	-0,036	0,053
-624,678	-200,000	-0,034	0,158
-623,663	565,762	0,085	-0,150
-622,649	256,467	-0,004	0,005
-621,634	-200,000	0,011	-0,122
-620,619	1,750	-0,078	-0,040
-619,605	-83,322	0,030	0,007
-618,590	493,534	0,063	0,105
-617,576	-200,000	-0,033	0,142
-616,561	-126,297	-0,160	0,017
-615,546	725,218	0,017	-0,034
-614,532	-180,256	-0,077	-0,001
-613,517	800,000	0,019	0,060
-612,503	66,247	0,106	-0,078
-611,488	149,879	-0,090	-0,088
-610,474	-70,653	-0,042	0,011
-609,459	-200,000	-0,008	-0,039
-608,444	105,640	-0,049	-0,042
-607,430	-200,000	-0,014	-0,111
-606,415	-170,829	-0,113	0,003
-605,401	466,148	-0,017	0,028
-604,386	10,056	-0,073	-0,040
-603,371	-64,658	-0,124	0,036
-602,357	463,364	0,076	0,122
-601,342	37,418	0,048	0,031
-600,328	-112,737	-0,253	0,036
-599,313	-116,623	0,037	0,005
-598,298	-200,000	0,007	0,042
-597,284	42,204	-0,137	0,089
-596,269	-200,000	-0,015	-0,059
-595,255	308,711	0,041	0,055
-594,240	9,997	-0,040	0,022
-593,225	-200,000	0,021	-0,075
-592,211	-200,000	0,021	-0,139
-591,196	70,297	-0,002	0,001
-590,182	800,000	0,017	0,044
-589,167	204,389	-0,057	-0,063
-588,152	144,754	0,121	0,117
-587,138	-88,016	-0,104	0,022
-586,123	-200,000	-0,006	-0,134
-585,109	-139,963	0,061	-0,005
-584,094	366,321	-0,050	0,073
-583,079	-200,000	-0,010	-0,053
-582,065	51,920	0,037	0,026
-581,050	190,745	0,085	0,093
-580,036	-52,534	0,076	0,025
-579,021	800,000	-0,008	0,017
-578,006	-47,531	-0,135	-0,047
-576,992	-73,881	-0,074	0,019
-575,977	-16,303	-0,116	-0,053
-574,963	-200,000	0,003	-0,057
-573,948	67,679	0,050	0,037
-572,934	-200,000	0,012	0,089
-571,919	-2,438	-0,060	-0,030
-570,904	-200,000	-0,039	0,127
-569,890	213,531	-0,024	-0,028
-568,875	191,533	-0,045	0,049
-567,861	-102,918	-0,052	0,009
-566,846	490,684	-0,051	0,084
-565,831	-200,000	-0,005	-0,057
-564,817	-86,891	-0,080	-0,018
-563,802	-200,000	-0,004	-0,030
-562,788	-195,357	-0,101	0,001
-561,773	293,176	-0,061	-0,080
-560,758	136,244	0,023	0,022
-559,744	62,636	0,084	-0,060
-558,729	-200,000	-0,013	0,083
-557,715	85,369	-0,023	0,018
-556,700	15,995	-0,120	-0,068
-555,685	-29,487	0,073	-0,030
-554,671	-200,000	-0,006	0,028
-553,656	-200,000	0,016	-0,091
-552,642	-200,000	-0,002	-0,022
-551,627	374,609	0,081	0,119
-550,612	800,000	-0,042	-0,125
-549,598	-200,000	0,005	-0,110
-548,583	32,367	0,055	-0,034
-547,569	800,000	-0,041	0,114
-546,554	-200,000	0,021	0,085
-545,539	-142,664	-0,035	0,002
-544,525	555,316	0,055	-0,096
-543,510	44,395	0,038	-0,025
-542,496	-6,328	-0,060	0,030
-541,481	800,000	0,053	-0,116
-540,466	-104,657	-0,048	0,008
-539,452	38,278	0,101	0,065
-538,437	-7,485	-0,022	0,011
-537,423	-50,588	-0,053	0,018
-536,408	-200,000	-0,011	0,080
-535,393	357,907	0,084	-0,121
-534,379	401,107	-0,058	-0,088
-533,364	-59,929	0,170	-0,052
-532,350	-61,460	-0,016	-0,005
-531,335	626,258	0,064	0,116
-530,321	34,674	0,048	-0,030
-529,306	-78,617	-0,138	0,034
-528,291	32,396	0,138	-0,086
-527,277	-200,000	-0,001	-0,106
-526,262	4,770	-0,031	-0,016
-525,248	54,233	-0,022	0,015
-524,233	20,741	0,204	-0,118
-523,218	98,039	-0,118	0,098
-522,204	-124,577	0,101	0,011
-521,189	800,000	-0,053	-0,115
-520,175	324,999	0,036	-0,050
-519,160	-108,613	0,022	-0,003
-518,145	134,363	-0,081	0,076
-517,131	-200,000	0,015	0,101
-516,116	27,411	-0,090	0,054
-515,102	124,301	0,054	-0,049
-514,087	55,024	0,107	-0,074
-513,072	-154,068	-0,125	0,006
-512,058	-200,000	-0,009	-0,186
-511,043	8,298	0,159	-0,086
-510,029	2,600	0,097	-0,051
-509,014	270,411	-0,027	-0,034
-507,999	800,000	0,068	0,158
-506,985	43,275	-0,074	0,049
-505,970	439,821	-0,054	-0,085
-504,956	-4,058	0,126	-0,063
-503,941	363,691	0,040	-0,059
-502,926	86,269	-0,031	0,024
-501,912	725,725	0,033	0,063
-500,897	17,247	0,064	0,037
-499,883	-143,388	-0,043	0,003
-498,868	-200,000	0,015	0,091
-497,853	-10,697	-0,054	-0,025
-496,839	-200,000	-0,009	-0,036
-495,824	800,000	0,014	-0,041
-494,810	-47,091	-0,094	0,033
-493,795	-138,852	0,109	-0,008
-492,781	-93,413	0,102	-0,020
-491,766	-200,000	-0,019	0,078
-490,751	30,454	-0,040	0,024
-489,737	580,721	-0,006	-0,011
-488,722	-135,236	0,107	0,009
-487,708	-200,000	0,014	0,108
-486,693	115,512	-0,045	0,040
-485,678	-96,190	0,127	-0,024
-484,664	-63,719	-0,062	-0,018
-483,649	-85,363	-0,044	-0,010
-482,635	-200,000	-0,030	-0,144
-481,620	800,000	-0,040	-0,096
-480,605	-173,382	0,033	0,001
-479,591	800,000	0,005	0,014
-478,576	-200,000	-0,019	0,065
-477,562	-200,000	0,014	-0,105
-476,547	621,506	0,017	-0,030
-475,532	800,000	0,010	-0,031
-474,518	-21,573	0,123	0,054
-473,503	103,194	0,090	0,075
-472,489	25,216	-0,036	0,021
-471,474	-137,858	0,080	0,006
-470,459	800,000	-0,043	-0,099
-469,445	249,337	0,055	-0,067
-468,430	-200,000	0,035	-0,152
-467,416	153,184	0,043	0,042
-466,401	800,000	-0,007	0,020
-465,386	-200,000	0,003	-0,017
-464,372	642,333	0,070	0,129
-463,357	-150,467	0,036	0,002
-462,343	-62,610	-0,104	-0,031
-461,328	-91,702	-0,077	-0,016
-460,313	-16,956	0,141	0,063
-459,299	-200,000	-0,019	-0,118
-458,284	-101,741	0,088	-0,015
-457,270	-25,978	0,053	0,022
-456,255	800,000	0,032	-0,070
-455,241	373,384	-0,028	0,040
-454,226	80,067	0,046	-0,036
-453,211	2,321	0,156	0,081
-452,197	-200,000	0,001	0,065
-451,182	-130,718	0,080	0,008
-450,168	-90,073	0,127	-0,026
-449,153	-200,000	0,003	-0,087
-448,138	561,488	-0,079	-0,138
-447,124	25,295	-0,035	0,021
-446,109	283,018	-0,058	-0,075
-445,095	-70,678	0,105	-0,028
-444,080	-84,473	0,018	0,004
-443,065	-200,000	-0,008	0,103
-442,051	-200,000	0,005	-0,035
-441,036	312,241	-0,090	-0,121
-440,022	-200,000	-0,010	0,078
-439,007	-200,000	-0,020	-0,076
-437,992	-78,541	0,108	-0,026
-436,978	637,658	0,054	-0,099
-435,963	-199,558	0,133	0,000
-434,949	-42,816	-0,073	-0,026
-433,934	-56,944	-0,218	0,069
-432,919	164,510	-0,131	-0,133
-431,905	-114,719	0,112	-0,015
-430,890	-200,000	0,004	0,017
-429,876	86,952	0,059	0,046
-428,861	3,240	-0,128	-0,067
-427,846	-28,391	0,083	-0,034
-426,832	-72,697	0,035	-0,009
-425,817	-200,000	0,055	-0,178
-424,803	-51,820	-0,120	0,040
-423,788	134,558	0,108	-0,100
-422,773	800,000	-0,013	0,027
-421,759	-200,000	0,004	0,078
-420,744	190,636	-0,059	-0,063
-419,730	744,052	-0,038	-0,074
-418,715	152,087	0,004	-0,004
-417,701	198,927	0,087	-0,095
-416,686	-200,000	0,008	-0,101
-415,671	-200,000	-0,003	0,091
-414,657	-88,100	0,072	0,015
-413,642	-45,785	-0,185	0,065
-412,628	-79,509	0,136	0,033
-411,613	51,362	-0,121	-0,082
-410,598	-50,622	-0,101	-0,034
-409,584	-134,808	-0,135	0,012
-408,569	61,387	0,132	0,094
-407,555	-200,000	0,010	0,114
-406,540	185,003	-0,043	-0,046
-405,525	-149,292	-0,057	-0,003
-404,511	-200,000	0,018	-0,158
-403,496	-10,436	-0,072	0,034
-402,482	189,992	-0,046	-0,050
-401,467	72,627	0,057	-0,043
-400,452	130,007	0,028	0,026
-399,438	-58,790	0,142	0,044
-398,423	-200,000	0,044	-0,145
-397,409	-200,000	0,013	-0,072
-396,394	84,566	0,028	0,022
-395,379	1,742	-0,216	0,111
-394,365	588,791	0,017	-0,030
-393,350	-200,000	-0,009	-0,082
-392,336	800,000	0,074	0,148
-391,321	-200,000	-0,033	0,143
-390,306	-126,561	-0,041	-0,004
-389,292	184,003	-0,098	-0,103
-388,277	169,699	0,137	0,140
-387,263	45,231	-0,065	0,043
-386,248	5,763	0,100	-0,053
-385,233	37,243	0,125	0,079
-384,219	-16,263	-0,026	-0,012
-383,204	-200,000	0,044	-0,179
-382,190	157,482	-0,109	-0,107
-381,175	134,476	-0,082	-0,076
-380,160	-200,000	-0,030	0,095
-379,146	26,382	0,076	-0,046
-378,131	-200,000	-0,014	0,143
-377,117	800,000	0,060	0,132
-376,102	-178,744	-0,107	0,002
-375,088	190,803	-0,015	0,016
-374,073	-200,000	-0,012	0,000
-373,058	-120,198	0,120	-0,015
-372,044	-200,000	0,013	0,072
-371,029	159,757	-0,032	-0,032
-370,015	71,967	0,068	-0,051
-369,000	14,798	-0,147	0,082
-367,985	234,402	-0,052	0,061
-366,971	-200,000	0,006	0,180
-365,956	-29,845	0,063	-0,025
-364,942	-200,000	0,040	-0,132
-363,927	78,868	-0,077	0,059
-362,912	-200,000	-0,014	-0,157
-361,898	510,406	-0,052	-0,087
-360,883	790,426	0,019	-0,037
-359,869	66,975	0,055	0,040
-358,854	12,100	0,057	0,031
-357,839	800,000	-0,044	-0,130
-356,825	-200,000	0,010	-0,051
-355,810	800,000	0,032	0,075
-354,796	288,227	-0,044	0,057
-353,781	-200,000	-0,008	0,065
-352,766	-200,000	0,028	-0,110
-351,752	562,701	0,102	-0,177
-350,737	25,703	0,049	0,029
-349,723	-97,974	0,107	-0,020
-348,708	-164,832	0,043	-0,001
-347,693	-194,882	0,104	-0,001
-346,679	339,162	-0,024	-0,034
-345,664	800,000	0,017	0,044
-344,650	-176,673	-0,093	0,002
-343,635	-68,856	0,062	-0,017
-342,620	-121,446	0,054	-0,006
-341,606	800,000	0,034	0,089
-340,591	168,596	-0,046	0,047
-339,577	-48,004	-0,086	-0,029
-338,562	-40,225	0,075	0,028
-337,548	-200,000	0,006	0,100
-336,533	-148,505	0,161	-0,009
-335,518	-76,009	0,089	0,022
-334,504	800,000	-0,013	0,041
-333,489	-121,468	-0,111	0,013
-332,475	-40,138	0,062	-0,023
-331,460	800,000	-0,065	-0,132
-330,445	800,000	0,011	0,032
-329,431	-157,395	0,251	-0,011
-328,416	-46,853	0,040	0,014
-327,402	800,000	0,022	-0,055
-326,387	-29,519	-0,123	-0,050
-325,372	130,340	0,049	-0,045
-324,358	-200,000	0,002	-0,044
-323,343	9,986	-0,033	0,018
-322,329	-33,892	0,053	0,021
-321,314	-200,000	0,021	0,104
-320,299	-118,729	-0,093	0,012
-319,285	800,000	-0,009	-0,020
-318,270	800,000	0,025	0,057
-317,256	123,744	-0,082	0,074
-316,241	521,931	-0,047	-0,078
-315,226	40,534	-0,058	0,037
-314,212	-200,000	0,054	0,279
-313,197	681,693	0,035	0,065
-312,183	57,985	0,092	0,064
-311,168	162,839	-0,060	0,060
-310,153	-83,023	0,120	0,027
-309,139	41,408	-0,131	-0,084
-308,124	-174,525	0,166	-0,003
-307,110	250,118	0,018	0,021
-306,095	70,242	-0,047	-0,034
-305,080	420,468	-0,085	0,131
-304,066	190,811	-0,050	-0,054
-303,051	800,000	0,015	-0,032
-302,037	4,608	-0,070	0,037
-301,022	13,072	-0,075	0,041
-300,008	-200,000	0,048	0,166
-298,993	111,522	0,026	0,023
-297,978	-200,000	0,037	0,138
-296,964	-12,301	0,049	0,023
-295,949	203,230	-0,093	-0,103
-294,935	-110,054	-0,048	-0,007
-293,920	-200,000	0,011	-0,048
-292,905	-200,000	0,012	0,039
-291,891	-200,000	0,022	0,202
-290,876	-183,076	0,060	0,001
-289,862	-53,049	0,173	-0,056
-288,847	800,000	-0,007	0,017
-287,832	349,252	-0,020	0,028
-286,818	-99,838	-0,100	0,018
-285,803	-200,000	-0,004	0,128
-284,789	63,507	-0,082	-0,059
-283,774	-200,000	0,004	0,068
-282,759	185,619	-0,042	0,044
-281,745	-200,000	0,052	-0,164
-280,730	112,248	-0,097	-0,083
-279,716	-200,000	0,003	-0,038
-278,701	200,877	0,022	0,024
-277,686	800,000	0,090	-0,182
-276,672	25,268	0,067	0,040
-275,657	800,000	0,029	-0,081
-274,643	162,291	-0,072	-0,072
-273,628	800,000	-0,037	0,116
-272,613	-61,214	-0,110	0,033
-271,599	-200,000	0,024	0,105
-270,584	-200,000	-0,020	0,152
-269,570	197,624	-0,064	0,070
-268,555	-200,000	-0,008	-0,070
-267,540	800,000	-0,040	0,105
-266,526	456,224	-0,084	-0,133
-265,511	800,000	0,056	-0,175
-264,497	522,089	0,014	-0,024
-263,482	800,000	0,048	-0,095
-262,467	-95,280	0,056	-0,011
-261,453	-200,000	0,007	-0,069
-260,438	-118,379	-0,073	-0,009
-259,424	-104,258	-0,058	0,009
-258,409	-89,098	-0,058	-0,012
-257,395	-200,000	-0,001	-0,087
-256,380	-71,315	0,105	0,028
-255,365	-200,000	-0,001	0,109
-254,351	-70,532	-0,135	0,036
-253,336	-101,426	0,034	0,006
-252,322	417,589	-0,090	0,138
-251,307	92,069	-0,133	0,107
-250,292	-2,797	-0,044	-0,022
-249,278	-200,000	-0,022	0,145
-248,263	-2,212	0,133	0,066
-247,249	164,459	0,103	0,104
-246,234	-200,000	0,021	-0,155
-245,219	12,099	-0,100	0,054
-244,205	-200,000	-0,037	0,125
-243,190	96,267	0,070	0,057
-242,176	459,612	0,039	0,062
-241,161	-200,000	-0,009	0,030
-240,146	-84,299	0,236	-0,053
-239,132	-76,352	0,058	0,014
-238,117	-200,000	-0,049	-0,165
-237,103	-200,000	0,000	0,105
-236,088	-200,000	-0,002	0,018
-235,073	-200,000	0,003	0,076
-234,059	95,367	0,145	-0,117
-233,044	287,107	0,052	0,067
-232,030	138,088	-0,103	-0,096
-231,015	24,375	0,111	-0,065
-230,000	29,390	-0,083	-0,050
-228,986	-200,000	0,042	-0,172
-227,971	800,000	0,017	-0,038
-226,957	-95,441	-0,033	-0,006
-225,942	79,794	0,123	0,094
-224,927	-91,214	0,056	-0,011
-223,913	-200,000	0,026	0,115
-222,898	120,011	0,042	-0,037
-221,884	-200,000	0,021	-0,105
-220,869	302,571	-0,106	-0,140
-219,855	-200,000	-0,013	0,055
-218,840	-200,000	0,001	0,048
-217,825	-75,223	-0,158	0,040
-216,811	800,000	0,019	-0,048
-215,796	-200,000	-0,029	0,093
-214,782	4,268	-0,117	-0,061
-213,767	4,878	0,033	0,017
-212,752	-200,000	0,014	-0,046
-211,738	62,934	0,110	0,078
-210,723	-177,559	-0,086	0,001
-209,709	-60,186	0,118	0,035
-208,694	-200,000	0,015	-0,076
-207,679	-111,154	-0,187	0,027
-206,665	-200,000	-0,018	0,143
-205,650	321,644	-0,042	-0,057
-204,636	-86,115	-0,043	-0,009
-203,621	85,842	0,046	0,036
-202,606	-200,000	0,002	-0,029
-201,592	800,000	0,037	-0,076
-200,577	-125,150	-0,128	0,014
-199,563	18,687	-0,090	-0,051
-198,548	677,382	-0,007	-0,012
-197,533	196,187	0,046	0,050
-196,519	-200,000	-0,018	0,096
-195,504	84,540	0,081	0,063
-194,490	-130,182	0,110	0,011
-193,475	312,961	0,043	-0,058
-192,460	-127,283	0,072	0,007
-191,446	182,842	0,072	-0,075
-190,431	-200,000	-0,012	0,172
-189,417	205,768	-0,059	0,065
-188,402	-99,071	-0,079	-0,014
-187,387	800,000	0,025	0,060
-186,373	-200,000	0,015	-0,089
-185,358	71,153	-0,027	0,020
-184,344	202,459	0,051	0,056
-183,329	-200,000	-0,004	-0,026
-182,315	-58,674	0,079	-0,024
-181,300	-7,478	0,166	-0,080
-180,285	800,000	-0,041	0,084
-179,271	-6,589	-0,083	-0,040
-178,256	54,029	0,055	0,038
-177,242	64,377	0,080	0,057
-176,227	-200,000	-0,002	0,013
-175,212	-200,000	-0,030	0,117
-174,198	-87,662	-0,036	0,008
-173,183	-39,707	-0,078	0,029
-172,169	-200,000	0,012	-0,065
-171,154	498,542	0,049	0,081
-170,139	-108,554	0,087	0,013
-169,125	-70,974	-0,219	0,058
-168,110	800,000	0,026	0,072
-167,096	696,804	-0,058	0,108
-166,081	800,000	-0,013	-0,033
-165,066	-200,000	0,000	-0,026
-164,052	64,786	-0,137	0,098
-163,037	329,043	-0,056	0,077
-162,023	-27,328	-0,047	-0,019
-161,008	57,183	0,111	0,077
-159,993	-103,084	-0,124	0,021
-158,979	-200,000	-0,035	0,158
-157,964	92,177	0,019	-0,015
-156,950	9,721	-0,116	0,062
-155,935	-47,882	-0,041	-0,014
-154,920	-43,558	0,070	-0,025
-153,906	-4,801	0,045	-0,022
-152,891	531,509	0,003	-0,005
-151,877	-99,428	0,004	-0,001
-150,862	800,000	-0,048	-0,151
-149,847	-123,673	-0,050	0,006
-148,833	-22,863	-0,072	0,031
-147,818	1,294	0,064	0,033
-146,804	-200,000	0,003	0,136
-145,789	102,606	-0,056	-0,046
-144,775	-60,428	0,159	0,047
-143,760	-38,369	-0,081	-0,030
-142,745	-200,000	-0,003	-0,087
-141,731	266,092	0,044	0,055
-140,716	59,101	0,071	0,049
-139,702	179,123	0,124	-0,129
-138,687	-200,000	-0,013	-0,070
-137,672	800,000	0,023	0,050
-136,658	-200,000	0,000	-0,067
-135,643	-64,894	-0,080	-0,023
-134,629	-200,000	-0,002	-0,161
-133,614	46,067	0,066	-0,043
-132,599	-62,592	0,086	0,025
-131,585	-103,452	0,070	0,011
-130,570	39,904	-0,036	0,023
-129,556	-200,000	-0,035	-0,183
-128,541	-200,000	0,003	-0,134
-127,526	206,371	-0,047	-0,052
-126,512	-89,335	0,094	0,019
-125,497	77,816	0,063	0,047
-124,483	-111,154	-0,145	-0,021
-123,468	800,000	-0,019	0,055
-122,453	-65,201	-0,075	0,021
-121,439	-200,000	-0,001	-0,138
-120,424	-104,484	-0,050	-0,008
-119,410	-58,967	-0,216	0,066
-118,395	7,439	0,035	0,018
-117,380	800,000	0,010	-0,021
-116,366	-200,000	0,018	0,179
-115,351	-70,249	-0,072	0,019
-114,337	9,979	-0,056	-0,030
-113,322	-138,681	-0,107	-0,008
-112,307	-88,827	0,067	0,014
-111,293	-87,539	0,101	-0,021
-110,278	454,533	0,044	-0,069
-109,264	194,193	-0,104	-0,112
-108,249	10,422	0,038	-0,021
-107,234	-38,007	-0,083	0,031
-106,220	-75,311	0,027	0,007
-105,205	-186,874	-0,085	-0,001
-104,191	-200,000	0,001	0,136
-103,176	154,096	0,113	0,109
-102,162	800,000	0,038	0,085
-101,147	-38,403	-0,005	0,002
-100,132	-200,000	-0,021	-0,204
-99,118	572,009	-0,039	-0,068
-98,103	-88,096	-0,081	0,017
-97,089	800,000	-0,035	-0,088
-96,074	634,679	-0,003	-0,005
-95,059	-25,367	0,108	-0,045
-94,045	573,487	0,057	-0,098
-93,030	-149,633	-0,088	-0,005
-92,016	16,387	-0,119	-0,066
-91,001	-200,000	0,028	-0,211
-89,986	800,000	0,019	-0,055
-88,972	800,000	0,085	0,186
-87,957	397,880	0,091	-0,135
-86,943	16,414	-0,164	0,091
-85,928	62,053	-0,081	-0,057
-84,913	800,000	-0,026	-0,054
-83,899	6,963	-0,085	-0,045
-82,884	59,732	-0,056	-0,039
-81,870	-48,573	0,180	0,061
-80,855	-37,741	0,119	-0,045
-79,840	106,149	0,077	-0,065
-78,826	-200,000	-0,007	-0,257
-77,811	-55,086	-0,128	-0,041
-76,797	323,425	-0,025	0,034
-75,782	275,679	0,093	0,116
-74,767	208,127	0,029	0,032
-73,753	-200,000	0,015	0,059
-72,738	-200,000	-0,018	0,153
-71,724	377,831	-0,074	-0,107
-70,709	76,275	-0,040	-0,030
-69,694	159,246	-0,026	0,025
-68,680	46,435	0,042	0,028
-67,665	53,901	0,071	0,048
-66,651	800,000	0,025	0,053
-65,636	391,437	-0,061	0,090
-64,622	153,263	-0,050	-0,048
-63,607	-200,000	0,017	-0,062
-62,592	-200,000	-0,011	-0,130
-61,578	-200,000	-0,020	0,096
-60,563	-134,104	0,131	0,011
-59,549	-1,319	0,063	-0,031
-58,534	40,658	-2,077	-1,319
-57,519	558,026	-1,198	-2,047
-56,505	-200,000	-0,399	-4,330
-55,490	659,822	0,893	1,629
-54,476	800,000	5,145	11,193
-53,461	-200,000	21,863	343,978
-52,446	800,000	763,315	2336,788
-51,432	544,411	1661,668	2811,390
-50,417	71,240	1657,923	1212,246
-49,403	17,255	1531,353	855,189
-48,388	11,300	1455,320	783,969
-47,373	19,360	1446,970	818,056
-46,359	14,740	1435,992	789,889
-45,344	9,569	1431,809	762,971
-44,330	9,519	1430,215	761,854
-43,315	9,501	1428,474	760,808
-42,300	9,507	1426,510	759,762
-41,286	9,581	1425,236	759,402
-40,271	9,523	1423,994	758,438
-39,257	9,470	1422,945	757,595
-38,242	9,540	1421,774	757,275
-37,227	9,513	1420,821	756,610
-36,213	9,530	1419,382	755,893
-35,198	9,524	1418,373	755,297
-34,184	9,555	1417,329	754,858
-33,169	9,445	1415,959	753,579
-32,154	9,541	1414,792	753,379
-31,140	9,490	1413,788	752,577
-30,125	9,551	1412,601	752,201
-29,111	9,538	1411,432	751,490
-28,096	9,528	1410,220	750,766
-27,082	9,506	1408,907	749,936
-26,067	9,466	1408,102	749,288
-25,052	9,508	1406,852	748,789
-24,038	9,528	1405,906	748,352
-23,023	9,466	1405,253	747,685
-22,009	9,513	1403,822	747,114
-20,994	9,478	1403,000	746,480
-19,979	9,480	1401,840	745,845
-18,965	9,477	1401,079	745,394
-17,950	9,410	1400,457	744,722
-16,936	9,395	1399,437	744,081
-15,921	9,378	1398,293	743,365
-14,906	9,404	1397,457	743,012
-13,892	9,456	1396,317	742,618
-12,877	9,419	1395,818	742,151
-11,863	9,332	1394,971	741,269
-10,848	9,365	1393,807	740,773
-9,833	9,318	1393,069	740,135
-8,819	9,255	1392,253	739,379
-7,804	9,278	1391,201	738,898
-6,790	9,269	1390,005	738,192
-5,775	9,291	1389,269	737,872
-4,760	9,333	1388,227	737,482
-3,746	9,300	1387,187	736,749
-2,731	9,310	1386,395	736,344
-1,717	9,293	1385,491	735,756
-0,702	9,274	1383,948	734,820
0,313	13,423	1295,941	706,998
1,327	29,539	686,723	411,010
2,342	46,300	118,670	77,438
3,356	1,083	16,509	8,325
4,371	6,760	3,598	1,882
5,386	25,788	1,182	0,693
6,400	-200,000	0,191	0,723
7,415	-31,707	-0,134	-0,053
8,429	149,926	-0,177	-0,169
9,444	167,322	-0,285	-0,285
10,459	213,350	-0,190	-0,212
11,473	76,239	-0,261	-0,195
12,488	-177,995	-0,294	-0,005
13,502	12,528	-0,446	-0,242
14,517	-58,306	-0,342	-0,104
15,531	118,128	-0,322	-0,280
16,546	83,834	-0,327	-0,252
17,561	154,067	-0,376	-0,363
18,575	4,482	-0,051	-0,026
19,590	81,922	-0,153	-0,117
20,604	-150,026	-0,358	-0,019
21,619	181,142	-0,341	-0,353
22,634	113,806	-0,461	-0,394
23,648	82,038	-0,399	-0,304
24,663	178,143	-0,297	-0,305
25,677	173,302	-0,251	-0,255
26,692	38,710	-0,383	-0,240
27,707	157,848	-0,273	-0,266
28,721	73,223	-0,459	-0,338
29,736	177,434	-0,284	-0,291
30,750	-29,854	-0,458	-0,183
31,765	299,888	-0,363	-0,472
32,780	88,222	-0,312	-0,243
33,794	123,838	-0,295	-0,261
34,809	-45,258	-0,398	-0,138
35,823	27,741	-0,435	-0,257
36,838	166,903	-0,368	-0,367
37,853	80,179	-0,230	-0,174
38,867	136,722	-0,489	-0,449
39,882	118,384	-0,294	-0,255
40,896	-2,197	-0,389	-0,191
41,911	135,512	-0,283	-0,259
42,926	21,466	-0,387	-0,221
43,940	86,080	-0,333	-0,257
44,955	28,900	-0,403	-0,240
45,969	205,222	-0,269	-0,294
46,984	136,593	-0,407	-0,374
47,999	35,395	-0,339	-0,209
49,013	60,862	-0,324	-0,225
50,028	104,685	-0,316	-0,262
51,042	135,012	-0,288	-0,263
52,057	42,511	-0,284	-0,181
53,071	55,989	-0,290	-0,197
54,086	141,144	-0,251	-0,233
55,101	-39,423	-0,322	-0,118
56,115	690,684	-0,184	-0,340
57,130	-66,877	-0,373	-0,103
58,144	-26,055	-0,387	-0,159
59,159	63,819	-0,362	-0,255
60,174	179,617	-0,284	-0,292
61,188	90,771	-0,377	-0,296
62,203	-7,720	-0,396	-0,187
63,217	22,364	-0,296	-0,169
64,232	-3,984	-0,364	-0,177
65,247	274,631	-0,189	-0,236
66,261	-0,716	-0,452	-0,224
67,276	24,239	-0,381	-0,220
68,290	-12,592	-0,424	-0,193
69,305	-42,886	-0,402	-0,142
70,320	95,116	-0,314	-0,250
71,334	-33,016	-0,357	-0,138
72,349	716,702	-0,230	-0,430
73,363	13,792	-0,308	-0,167
74,378	-1,522	-0,456	-0,224
75,393	-21,083	-0,423	-0,181
76,407	158,712	-0,220	-0,214
77,422	117,680	-0,198	-0,171
78,436	22,891	-0,304	-0,174
79,451	43,604	-0,278	-0,178
80,466	-8,753	-0,285	-0,134
81,480	36,402	-0,353	-0,218
82,495	406,084	-0,238	-0,353
83,509	56,131	-0,348	-0,236
84,524	34,832	-0,279	-0,171
85,539	205,934	-0,223	-0,243
86,553	167,554	-0,274	-0,273
87,568	129,474	-0,243	-0,218
88,582	-6,648	-0,285	-0,135
89,597	205,709	-0,296	-0,322
90,611	-49,068	-0,226	-0,075
91,626	-6,293	-0,250	-0,119
92,641	-200,000	-0,286	-0,000
93,655	-1,412	-0,272	-0,134
94,670	168,395	-0,288	-0,287
95,684	36,858	-0,293	-0,181
96,699	62,757	-0,271	-0,189
97,714	57,419	-0,327	-0,223
98,728	6,028	-0,249	-0,129
99,743	8,984	-0,237	-0,125
100,757	219,812	-0,286	-0,321
101,772	243,143	-0,272	-0,319
102,787	155,875	-0,270	-0,261
103,801	144,553	-0,253	-0,236
104,816	175,244	-0,211	-0,214
105,830	246,585	-0,166	-0,196
106,845	548,181	-0,125	-0,209
107,860	193,602	-0,177	-0,187
108,874	478,229	-0,172	-0,273
109,889	373,140	-0,226	-0,322
110,903	170,540	-0,248	-0,249
111,918	107,988	-0,245	-0,204
112,933	52,904	-0,231	-0,154
113,947	165,286	-0,173	-0,171
114,962	-7,793	-0,301	-0,141
115,976	170,621	-0,248	-0,249
116,991	171,922	-0,134	-0,134
118,006	101,947	-0,223	-0,181
119,020	593,131	-0,160	-0,277
120,035	-21,758	-0,313	-0,132
121,049	-14,658	-0,168	-0,075
122,064	11,093	-0,265	-0,141
123,079	98,293	-0,288	-0,231
124,093	-18,242	-0,373	-0,162
125,108	221,372	-0,257	-0,289
126,122	88,148	-0,163	-0,126
127,137	92,190	-0,175	-0,138
128,151	67,275	-0,262	-0,186
129,166	255,495	-0,150	-0,179
130,181	57,129	-0,267	-0,181
131,195	240,189	-0,203	-0,236
132,210	140,475	-0,228	-0,210
133,224	575,936	-0,166	-0,284
134,239	21,677	-0,202	-0,114
135,254	-19,315	-0,146	-0,063
136,268	128,314	-0,301	-0,268
137,283	-44,109	-0,238	-0,083
138,297	41,529	-0,231	-0,145
139,312	-51,827	-0,348	-0,112
140,327	85,408	-0,200	-0,153
141,341	85,552	-0,147	-0,113
142,356	42,709	-0,308	-0,195
143,370	796,445	-0,092	-0,178
144,385	60,999	-0,243	-0,168
145,400	800,000	-0,180	-0,356
146,414	325,232	-0,184	-0,246
147,429	25,710	-0,321	-0,186
148,443	85,999	-0,300	-0,230
149,458	150,086	-0,250	-0,236
150,473	385,306	-0,169	-0,243
151,487	355,693	-0,207	-0,287
152,502	69,405	-0,261	-0,187
153,516	63,860	-0,071	-0,049
154,531	10,318	-0,259	-0,137
155,546	7,724	-0,352	-0,183
156,560	190,565	-0,190	-0,199
157,575	-8,205	-0,234	-0,109
158,589	-69,106	-0,351	-0,093
159,604	-200,000	-0,028	-0,093
160,619	129,963	-0,268	-0,238
161,633	13,611	-0,240	-0,129
162,648	-137,491	-0,232	0,018
163,662	-5,299	-0,196	-0,093
164,677	36,644	-0,160	-0,098
165,692	187,285	-0,168	-0,175
166,706	137,666	-0,210	-0,191
167,721	87,111	-0,287	-0,221
168,735	208,642	-0,150	-0,163
169,750	29,277	-0,235	-0,139
170,764	79,802	-0,263	-0,196
171,779	-126,604	-0,243	0,025
172,794	-47,944	-0,177	-0,059
173,808	800,000	-0,065	-0,166
174,823	224,657	-0,211	-0,237
175,837	210,188	-0,212	-0,232
176,852	70,410	-0,271	-0,194
177,867	0,152	-0,130	-0,064
178,881	55,585	-0,181	-0,122
179,896	492,822	-0,155	-0,247
180,910	292,770	-0,212	-0,269
181,925	-129,332	-0,388	-0,037
182,940	1,749	-0,302	-0,151
183,954	97,440	-0,181	-0,144
184,969	101,470	-0,195	-0,157
185,983	657,111	-0,150	-0,269
186,998	-6,439	-0,108	-0,051
188,013	678,228	-0,109	-0,198
189,027	185,532	-0,313	-0,323
190,042	-200,000	-0,075	-0,313
191,056	142,050	-0,285	-0,262
192,071	131,595	-0,263	-0,235
193,086	800,000	-0,079	-0,187
194,100	-124,705	-0,127	0,013
195,115	245,575	-0,100	-0,117
196,129	300,080	-0,207	-0,265
197,144	122,866	-0,235	-0,204
198,159	308,556	-0,179	-0,232
199,173	-126,705	-0,254	-0,026
200,188	175,611	-0,134	-0,134
201,202	98,652	-0,131	-0,105
202,217	-53,214	-0,107	-0,034
203,232	-32,327	-0,230	-0,088
204,246	-23,775	-0,274	-0,113
205,261	406,545	-0,144	-0,211
206,275	800,000	-0,132	-0,253
207,290	-24,017	-0,280	-0,115
208,304	-75,611	-0,195	-0,048
209,319	311,203	-0,198	-0,258
210,334	143,575	-0,168	-0,155
211,348	485,668	-0,139	-0,220
212,363	66,662	-0,173	-0,122
213,377	17,617	-0,130	-0,071
214,392	-48,360	-0,290	-0,096
215,407	-141,441	-0,189	-0,013
216,421	48,558	-0,178	-0,116
217,436	-109,400	-0,173	-0,025
218,450	7,493	-0,219	-0,113
219,465	110,318	-0,188	-0,156
220,480	800,000	-0,076	-0,160
221,494	467,689	-0,083	-0,130
222,509	-200,000	-0,055	-0,174
223,523	800,000	-0,077	-0,175
224,538	800,000	-0,077	-0,173
225,553	800,000	-0,153	-0,365
226,567	255,421	-0,269	-0,319
227,582	-117,708	-0,253	-0,031
228,596	181,866	-0,218	-0,222
229,611	184,233	-0,224	-0,230
230,626	800,000	-0,077	-0,225
231,640	-9,159	-0,115	-0,053
232,655	77,462	-0,189	-0,139
233,669	574,377	-0,178	-0,302
234,684	53,839	-0,249	-0,165
235,699	661,894	-0,165	-0,295
236,713	76,214	-0,090	-0,066
237,728	57,224	-0,139	0,094
238,742	47,209	-0,304	-0,195
239,757	17,111	-0,271	-0,148
240,772	70,062	-0,245	-0,175
241,786	800,000	-0,115	-0,250
242,801	190,016	-0,149	-0,154
243,815	68,726	-0,244	-0,173
244,830	94,737	-0,126	-0,099
245,844	-34,417	-0,272	-0,102
246,859	70,896	-0,189	-0,135
247,874	59,431	-0,240	-0,163
248,888	730,759	-0,148	-0,274
249,903	208,899	-0,131	-0,142
250,917	-135,175	-0,151	-0,012
251,932	-90,963	-0,115	-0,023
252,947	-200,000	-0,056	-0,213
253,961	70,611	-0,165	-0,118
254,976	256,721	-0,190	-0,226
255,990	-81,515	-0,209	-0,047
257,005	129,465	-0,106	-0,093
258,020	-101,948	-0,180	0,030
259,034	-149,491	-0,089	-0,005
260,049	-67,753	-0,170	-0,046
261,063	368,496	-0,140	-0,196
262,078	191,720	-0,215	-0,224
263,093	-87,824	-0,183	-0,038
264,107	-129,641	-0,157	0,015
265,122	30,449	-0,199	-0,117
266,136	219,343	-0,097	-0,107
267,151	49,394	-0,164	-0,106
268,166	184,231	-0,254	-0,259
269,180	800,000	-0,031	-0,081
270,195	106,731	-0,256	-0,209
271,209	151,165	-0,156	-0,147
272,224	800,000	-0,063	-0,120
273,239	121,703	-0,112	-0,096
274,253	-89,571	-0,133	-0,027
275,268	99,426	-0,214	-0,171
276,282	458,650	-0,130	-0,199
277,297	522,686	-0,139	-0,226
278,312	-156,271	-0,057	-0,002
279,326	-73,067	-0,125	-0,031
280,341	-200,000	-0,016	-0,099
281,355	-30,030	-0,178	-0,069
282,370	12,297	-0,237	-0,125
283,384	263,520	-0,212	-0,254
284,399	303,894	-0,159	-0,203
285,414	-200,000	-0,033	-0,193
286,428	149,711	-0,076	-0,071
287,443	217,433	-0,145	-0,159
288,457	286,011	-0,053	-0,066
289,472	800,000	-0,067	-0,192
290,487	-5,169	-0,241	-0,114
291,501	285,639	-0,156	-0,194
292,516	-0,172	-0,191	-0,093
293,530	560,669	-0,101	-0,169
294,545	-95,462	-0,235	-0,043
295,560	-8,974	-0,225	-0,103
296,574	-4,335	-0,163	0,077
297,589	-0,697	-0,172	-0,084
298,603	533,703	-0,159	-0,259
299,618	124,145	-0,225	-0,194
300,633	800,000	-0,068	-0,156
301,647	-144,236	-0,037	0,002
302,662	81,820	-0,121	-0,090
303,676	-112,586	-0,129	-0,017
304,691	184,404	-0,116	-0,118
305,706	211,422	-0,060	-0,065
306,720	219,591	-0,115	-0,127
307,735	296,212	-0,129	-0,163
308,749	142,724	-0,112	-0,102
309,764	293,786	-0,145	-0,182
310,779	-64,937	-0,120	-0,033
311,793	769,914	-0,032	-0,061
312,808	89,552	-0,155	-0,119
313,822	-200,000	-0,012	-0,040
314,837	800,000	-0,099	-0,193
315,852	66,525	-0,093	-0,065
316,866	29,317	-0,041	-0,024
317,881	800,000	-0,064	-0,177
318,895	173,240	-0,133	-0,132
319,910	800,000	-0,116	-0,253
320,925	17,499	-0,142	-0,077
321,939	-17,828	-0,211	-0,090
322,954	21,983	-0,246	-0,137
323,968	-200,000	-0,010	-0,157
324,983	74,691	-0,133	-0,096
325,997	800,000	-0,020	-0,045
327,012	29,819	-0,209	-0,122
328,027	81,401	-0,222	-0,164
329,041	343,598	-0,146	-0,197
330,056	-200,000	0,003	-0,055
331,070	800,000	-0,050	-0,105
332,085	261,126	-0,063	-0,075
333,100	-29,140	-0,245	-0,096
334,114	60,276	-0,208	-0,141
335,129	164,133	-0,223	-0,215
336,143	763,748	-0,090	-0,168
337,158	-162,216	-0,195	-0,007
338,173	198,304	-0,108	-0,113
339,187	-200,000	-0,015	-0,172
340,202	-200,000	-0,018	-0,153
341,216	73,203	-0,248	-0,177
342,231	117,532	-0,104	-0,088
343,246	-30,858	-0,170	-0,065
344,260	194,750	-0,087	-0,090
345,275	-90,657	-0,099	-0,019
346,289	-44,184	-0,212	-0,072
347,304	534,095	-0,078	-0,127
348,319	-19,102	-0,224	-0,095
349,333	-2,513	-0,162	-0,077
350,348	800,000	-0,054	-0,142
351,362	-200,000	0,010	-0,108
352,377	800,000	-0,051	-0,106
353,392	-118,738	-0,141	0,017
354,406	59,825	-0,239	-0,161
355,421	206,871	1309,794	1397,475
356,435	159,107	1469,909	1397,933
