DTS Sentinel unit serial number:	SN410029Multiplexer serial number:	ORYXHardware model number:	OX2-SRSoftware version number:	ORYX F/W v4,00 Oryx Data Collector v3.7.2.0data status	okinstallation	B3 Nyhavnadifferential loss correction	single-endedforward channel	channel 1reverse channel	N/Adate	2023/11/29time	14:37:30forward acquisition time	300,00reverse acquisition time	0,00gamma	499,1914k internal	0,3211k external	0,3211temperature offset calibration	1,0000default loss term (dB/km)	0,3820temperature slope calibration	1,0000multiplexer offset coefficient	1,0000multiplexer slope coefficient	1,0000fibre end	0,00T internal ref (°C)	10,98T ext. ref 1 (°C)	-3,20T ext. ref 2 (°C)	-3,31length (m)	temperature (°C)	Stokes	anti-Stokes-744,400	105,783	-0,251	-0,215
-743,385	-200,000	-0,029	0,295
-742,371	619,325	-0,130	-0,238
-741,356	-200,000	0,022	0,215
-740,342	512,173	-0,074	-0,125
-739,327	-200,000	0,040	0,244
-738,312	551,718	-0,129	-0,225
-737,298	800,000	0,119	0,249
-736,283	167,769	-0,282	-0,291
-735,269	-200,000	-0,018	0,317
-734,254	218,333	-0,106	-0,123
-733,239	-119,444	-0,134	-0,017
-732,225	800,000	-0,085	-0,244
-731,210	1,453	0,202	0,105
-730,196	-200,000	-0,026	-0,108
-729,181	12,065	-0,033	-0,018
-728,167	-200,000	-0,001	-0,119
-727,152	-57,913	-0,126	-0,040
-726,137	35,505	-0,084	-0,053
-725,123	-167,514	-0,062	-0,002
-724,108	-96,128	-0,107	0,020
-723,094	-58,304	0,056	-0,017
-722,079	-69,252	-0,147	-0,041
-721,064	85,610	-0,156	-0,124
-720,050	-120,660	0,176	-0,021
-719,035	213,004	-0,053	-0,060
-718,021	143,473	0,041	0,039
-717,006	800,000	-0,068	-0,159
-715,991	118,978	-0,171	-0,153
-714,977	24,071	-0,117	-0,070
-713,962	800,000	-0,018	-0,045
-712,948	32,209	-0,100	-0,062
-711,933	-14,585	0,036	-0,017
-710,918	298,960	-0,063	-0,085
-709,904	346,614	-0,056	-0,080
-708,889	800,000	0,046	-0,118
-707,875	-50,135	-0,072	0,025
-706,860	-52,954	0,170	-0,056
-705,845	-200,000	-0,013	-0,093
-704,831	522,515	-0,057	0,097
-703,816	-200,000	-0,038	0,132
-702,802	120,807	0,015	0,014
-701,787	304,869	-0,086	-0,117
-700,772	-59,127	0,020	-0,006
-699,758	-68,236	0,020	-0,006
-698,743	-39,537	0,111	-0,042
-697,729	718,332	-0,029	0,055
-696,714	800,000	-0,058	0,144
-695,699	-20,034	0,109	0,048
-694,685	800,000	-0,038	-0,080
-693,670	-200,000	0,001	-0,075
-692,656	-167,674	0,053	0,001
-691,641	800,000	-0,087	-0,183
-690,627	-192,331	0,150	-0,001
-689,612	-2,276	-0,089	-0,045
-688,597	-147,235	0,025	-0,002
-687,583	264,089	-0,036	-0,046
-686,568	-17,879	-0,114	-0,052
-685,554	-200,000	0,013	-0,100
-684,539	-109,042	0,101	-0,015
-683,524	130,225	-0,043	0,040
-682,510	-200,000	-0,004	0,072
-681,495	-152,729	-0,087	0,004
-680,481	295,262	0,042	0,056
-679,466	-118,653	-0,066	0,008
-678,451	-137,179	0,099	-0,008
-677,437	-200,000	-0,000	-0,039
-676,422	-200,000	-0,017	0,061
-675,408	-120,566	0,075	0,009
-674,393	-10,368	-0,048	0,023
-673,378	144,466	-0,094	-0,091
-672,364	-173,323	-0,036	-0,001
-671,349	416,517	-0,021	0,032
-670,335	-71,391	-0,087	-0,023
-669,320	240,972	0,070	0,085
-668,305	800,000	-0,043	0,104
-667,291	-169,294	0,051	-0,001
-666,276	257,809	-0,064	-0,079
-665,262	166,657	-0,045	0,046
-664,247	478,780	-0,103	-0,169
-663,232	557,666	0,024	0,043
-662,218	800,000	0,031	-0,082
-661,203	-59,709	-0,060	0,019
-660,189	103,655	-0,080	0,068
-659,174	-118,754	-0,112	0,014
-658,159	330,938	0,076	0,106
-657,145	-200,000	-0,041	-0,149
-656,130	168,550	0,066	-0,068
-655,116	-200,000	-0,031	-0,166
-654,101	-31,994	0,083	-0,033
-653,086	-57,426	-0,018	-0,006
-652,072	130,240	-0,147	0,136
-651,057	508,168	-0,068	-0,114
-650,043	276,330	0,022	-0,028
-649,028	413,210	-0,064	-0,099
-648,014	-200,000	0,022	0,132
-646,999	150,653	0,074	0,072
-645,984	-13,816	-0,087	-0,040
-644,970	-200,000	0,027	-0,126
-643,955	518,420	-0,031	-0,053
-642,941	-82,577	-0,038	-0,009
-641,926	800,000	0,028	-0,066
-640,911	-80,860	-0,102	0,024
-639,897	451,675	-0,019	-0,030
-638,882	-137,200	-0,046	-0,004
-637,868	-97,133	-0,059	0,011
-636,853	49,868	-0,210	-0,142
-635,838	-58,040	-0,110	0,034
-634,824	-117,147	-0,107	-0,014
-633,809	289,995	0,032	0,042
-632,795	296,755	0,078	0,104
-631,780	399,477	0,026	-0,039
-630,765	35,736	-0,107	0,068
-629,751	-43,165	-0,161	-0,058
-628,736	-98,221	0,092	-0,017
-627,722	62,060	0,037	0,027
-626,707	800,000	-0,038	0,105
-625,692	43,755	0,150	0,099
-624,678	-200,000	-0,030	0,205
-623,663	-200,000	0,010	-0,034
-622,649	18,784	-0,243	-0,140
-621,634	-102,220	-0,033	0,006
-620,619	316,313	-0,146	-0,199
-619,605	-200,000	-0,008	-0,054
-618,590	-200,000	-0,026	0,108
-617,576	208,330	-0,035	0,040
-616,561	-200,000	-0,001	0,078
-615,546	-101,756	0,126	-0,022
-614,532	800,000	-0,024	-0,071
-613,517	-133,632	0,097	0,009
-612,503	800,000	-0,022	0,058
-611,488	-3,679	0,028	-0,014
-610,474	-131,309	-0,112	0,011
-609,459	-6,514	-0,120	-0,059
-608,444	137,311	-0,008	0,008
-607,430	-200,000	0,002	-0,037
-606,415	64,200	-0,190	-0,137
-605,401	-0,353	-0,041	-0,021
-604,386	-51,898	-0,036	0,012
-603,371	24,102	-0,031	0,018
-602,357	-131,101	0,077	-0,007
-601,342	-45,308	-0,155	0,055
-600,328	173,196	-0,050	0,052
-599,313	-157,097	-0,081	-0,003
-598,298	146,810	-0,066	-0,064
-597,284	-126,130	0,184	-0,020
-596,269	-200,000	-0,021	0,166
-595,255	-200,000	0,002	-0,095
-594,240	498,619	-0,109	-0,182
-593,225	-200,000	-0,025	-0,104
-592,211	74,750	-0,038	0,028
-591,196	800,000	0,078	-0,198
-590,182	244,261	0,099	-0,120
-589,167	-106,678	0,058	0,009
-588,152	-200,000	-0,004	0,016
-587,138	777,183	0,008	0,016
-586,123	-20,805	-0,110	0,049
-585,109	-115,150	-0,148	0,020
-584,094	93,778	0,065	-0,053
-583,079	100,070	-0,134	0,112
-582,065	-200,000	-0,024	-0,081
-581,050	-200,000	-0,002	-0,120
-580,036	-200,000	-0,012	-0,158
-579,021	800,000	-0,028	-0,056
-578,006	-200,000	-0,050	-0,166
-576,992	721,516	-0,083	0,161
-575,977	354,062	0,039	0,057
-574,963	608,607	0,021	0,039
-573,948	159,307	0,073	0,073
-572,934	800,000	0,013	0,029
-571,919	-122,189	0,115	-0,013
-570,904	437,278	-0,089	-0,140
-569,890	-200,000	0,015	-0,103
-568,875	-60,524	0,104	0,032
-567,861	234,213	0,069	0,081
-566,846	-200,000	0,007	0,061
-565,831	800,000	-0,016	0,049
-564,817	-200,000	0,021	-0,099
-563,802	-147,411	-0,071	0,004
-562,788	-200,000	0,019	-0,103
-561,773	-200,000	-0,005	-0,034
-560,758	94,569	0,088	-0,072
-559,744	84,386	-0,056	0,044
-558,729	-200,000	-0,026	0,104
-557,715	-113,608	0,102	0,014
-556,700	65,601	-0,129	-0,094
-555,685	-200,000	-0,021	0,162
-554,671	800,000	0,064	-0,141
-553,656	-98,009	0,092	-0,017
-552,642	800,000	-0,017	0,050
-551,627	-200,000	0,020	0,156
-550,612	73,348	0,048	0,036
-549,598	-138,045	0,106	-0,008
-548,583	-92,514	-0,054	-0,011
-547,569	180,224	-0,037	-0,039
-546,554	142,670	0,039	0,038
-545,539	92,574	0,051	0,041
-544,525	800,000	0,040	0,122
-543,510	-200,000	-0,006	-0,148
-542,496	-20,487	-0,089	-0,039
-541,481	337,702	-0,021	0,030
-540,466	-68,258	-0,177	-0,049
-539,452	32,829	0,097	-0,060
-538,437	-87,810	-0,006	-0,001
-537,423	-200,000	-0,009	0,043
-536,408	-109,133	-0,035	-0,005
-535,393	-31,004	0,040	-0,016
-534,379	335,990	-0,039	-0,054
-533,364	-200,000	-0,009	-0,065
-532,350	-200,000	0,012	0,157
-531,335	82,578	0,069	0,054
-530,321	-104,708	-0,109	0,018
-529,306	-200,000	-0,021	-0,137
-528,291	55,551	-0,084	-0,058
-527,277	165,479	-0,052	-0,053
-526,262	313,157	0,067	-0,091
-525,248	121,328	0,112	-0,100
-524,233	800,000	0,017	0,044
-523,218	7,286	-0,054	0,029
-522,204	-134,667	0,130	-0,011
-521,189	-200,000	0,012	-0,086
-520,175	-200,000	-0,010	-0,055
-519,160	-59,852	0,148	-0,045
-518,145	-200,000	-0,005	0,091
-517,131	72,698	-0,234	0,175
-516,116	197,726	0,037	0,041
-515,102	-200,000	0,003	-0,091
-514,087	-200,000	-0,005	0,034
-513,072	-12,284	0,086	0,040
-512,058	116,485	-0,054	-0,048
-511,043	364,088	0,013	0,019
-510,029	800,000	-0,057	0,179
-509,014	-75,552	0,069	-0,017
-507,999	552,126	0,039	0,068
-506,985	121,503	0,028	-0,025
-505,970	387,527	0,067	-0,100
-504,956	-110,178	-0,123	-0,018
-503,941	52,898	-0,046	0,032
-502,926	163,847	0,039	-0,040
-501,912	-200,000	-0,017	0,181
-500,897	-200,000	0,014	-0,054
-499,883	419,493	-0,134	-0,206
-498,868	12,159	-0,080	-0,044
-497,853	154,667	-0,080	0,078
-496,839	-200,000	0,006	0,128
-495,824	33,297	-0,088	0,055
-494,810	90,551	0,096	0,077
-493,795	-35,050	0,075	0,029
-492,781	130,434	-0,067	0,061
-491,766	-27,286	-0,112	-0,047
-490,751	-96,238	-0,033	0,006
-489,737	-113,021	-0,053	-0,007
-488,722	800,000	-0,030	0,088
-487,708	-200,000	-0,004	-0,043
-486,693	-48,318	0,057	0,020
-485,678	36,190	0,121	0,077
-484,664	-133,384	-0,156	0,014
-483,649	23,382	0,106	0,062
-482,635	148,700	0,090	-0,087
-481,620	99,883	0,059	-0,049
-480,605	341,441	-0,016	0,022
-479,591	-200,000	-0,024	0,100
-478,576	800,000	-0,086	0,177
-477,562	46,696	-0,070	-0,047
-476,547	-14,783	0,036	0,017
-475,532	-0,991	-0,074	-0,037
-474,518	224,005	0,049	0,057
-473,503	248,050	0,025	-0,030
-472,489	292,331	-0,059	-0,077
-471,474	3,435	-0,104	0,054
-470,459	-200,000	0,014	-0,058
-469,445	-36,460	0,018	-0,007
-468,430	-200,000	-0,001	-0,052
-467,416	-20,315	0,156	0,069
-466,401	-72,759	0,103	0,027
-465,386	-200,000	-0,001	0,080
-464,372	-87,364	0,041	0,009
-463,357	-200,000	0,016	-0,160
-462,343	186,305	-0,021	-0,022
-461,328	60,094	-0,116	-0,082
-460,313	287,383	0,064	-0,083
-459,299	-52,399	-0,198	0,065
-458,284	180,303	-0,064	-0,067
-457,270	337,761	-0,070	0,097
-456,255	520,471	-0,052	0,088
-455,241	98,757	-0,050	0,041
-454,226	51,393	-0,107	-0,073
-453,211	6,455	0,080	-0,042
-452,197	51,138	-0,059	0,040
-451,182	503,678	-0,062	0,103
-450,168	800,000	-0,005	0,014
-449,153	-15,724	0,084	0,038
-448,138	-200,000	0,018	-0,073
-447,124	-5,311	-0,016	-0,008
-446,109	-200,000	-0,011	-0,097
-445,095	800,000	-0,026	-0,058
-444,080	800,000	0,040	0,111
-443,065	226,345	0,055	0,063
-442,051	-118,734	-0,044	-0,005
-441,036	-200,000	0,003	-0,027
-440,022	771,673	0,056	-0,109
-439,007	-39,830	0,012	-0,004
-437,992	-200,000	0,009	0,145
-436,978	225,700	0,071	0,083
-435,963	-176,937	0,045	-0,001
-434,949	33,671	0,119	-0,074
-433,934	105,189	-0,107	-0,090
-432,919	-200,000	0,005	-0,048
-431,905	289,562	-0,098	0,128
-430,890	-200,000	-0,026	-0,120
-429,876	-0,950	0,037	-0,019
-428,861	-36,731	0,093	-0,036
-427,846	726,026	0,088	-0,169
-426,832	-200,000	0,031	-0,116
-425,817	251,015	-0,080	-0,098
-424,803	277,902	-0,072	0,092
-423,788	800,000	0,035	0,082
-422,773	378,991	0,003	0,004
-421,759	-46,943	0,062	-0,021
-420,744	-200,000	0,002	0,066
-419,730	-105,420	0,133	0,021
-418,715	800,000	-0,083	-0,212
-417,701	800,000	-0,066	-0,156
-416,686	800,000	-0,034	-0,075
-415,671	800,000	-0,029	-0,090
-414,657	114,318	0,091	0,080
-413,642	-27,069	0,089	0,037
-412,628	-200,000	0,023	0,078
-411,613	517,137	-0,070	-0,117
-410,598	-18,940	-0,047	-0,021
-409,584	32,255	-0,042	0,026
-408,569	-19,157	0,086	0,038
-407,555	800,000	0,036	0,092
-406,540	-122,924	0,014	-0,002
-405,525	-162,659	-0,102	0,004
-404,511	-134,104	-0,094	0,008
-403,496	-99,215	-0,082	-0,015
-402,482	-125,866	0,044	-0,005
-401,467	-126,217	0,129	-0,014
-400,452	-200,000	-0,033	0,118
-399,438	-94,436	0,053	0,010
-398,423	-149,571	-0,103	-0,006
-397,409	-103,949	0,104	-0,017
-396,394	-70,070	-0,074	-0,020
-395,379	112,976	-0,053	0,046
-394,365	-60,397	-0,075	-0,023
-393,350	-200,000	0,000	-0,054
-392,336	16,433	0,074	0,042
-391,321	-200,000	0,032	0,104
-390,306	-15,961	0,070	0,032
-389,292	-200,000	0,022	-0,080
-388,277	352,924	-0,020	-0,028
-387,263	-200,000	-0,006	-0,097
-386,248	800,000	-0,004	-0,010
-385,233	522,153	0,045	-0,076
-384,219	534,417	-0,098	-0,166
-383,204	107,568	0,042	-0,036
-382,190	800,000	-0,007	-0,021
-381,175	-24,092	0,065	-0,028
-380,160	-139,965	0,174	0,013
-379,146	-119,745	0,027	0,003
-378,131	82,115	-0,096	0,075
-377,117	-78,155	-0,115	-0,028
-376,102	674,433	-0,064	0,119
-375,088	-200,000	-0,004	0,050
-374,073	127,290	0,107	-0,097
-373,058	40,620	0,170	0,109
-372,044	-19,322	0,059	-0,026
-371,029	191,659	0,025	-0,027
-370,015	-143,345	-0,080	0,005
-369,000	34,728	-0,089	-0,056
-367,985	-66,276	0,161	0,045
-366,971	16,653	0,104	-0,058
-365,956	-200,000	0,026	0,217
-364,942	-200,000	-0,020	0,117
-363,927	165,793	0,099	-0,100
-362,912	413,449	-0,115	-0,175
-361,898	-200,000	0,005	0,045
-360,883	-200,000	0,029	-0,150
-359,869	-120,314	-0,070	-0,008
-358,854	171,158	0,031	-0,032
-357,839	384,257	0,052	0,077
-356,825	131,729	0,059	0,054
-355,810	-200,000	0,008	0,047
-354,796	178,204	-0,093	-0,097
-353,781	130,720	-0,046	0,042
-352,766	-200,000	-0,007	0,040
-351,752	800,000	-0,035	-0,075
-350,737	-6,096	0,077	0,037
-349,723	225,350	0,047	0,054
-348,708	-200,000	0,011	0,133
-347,693	800,000	0,036	-0,105
-346,679	-47,725	-0,110	0,038
-345,664	-162,585	-0,138	-0,005
-344,650	-112,661	0,033	-0,005
-343,635	-200,000	-0,006	-0,052
-342,620	13,586	-0,086	-0,047
-341,606	151,484	0,073	-0,071
-340,591	-72,893	-0,077	0,020
-339,577	-200,000	-0,031	-0,187
-338,562	-200,000	-0,043	-0,148
-337,548	96,486	0,081	0,066
-336,533	495,992	0,033	0,055
-335,518	117,210	0,083	0,073
-334,504	16,339	0,126	-0,071
-333,489	-200,000	-0,017	-0,055
-332,475	800,000	0,036	-0,104
-331,460	-11,029	0,089	-0,042
-330,445	-200,000	0,003	0,075
-329,431	-200,000	-0,014	0,070
-328,416	-40,461	0,088	-0,032
-327,402	-200,000	0,052	0,183
-326,387	-200,000	0,016	0,143
-325,372	-200,000	-0,005	-0,081
-324,358	-200,000	-0,009	-0,087
-323,343	-200,000	-0,014	-0,086
-322,329	-20,576	0,032	0,014
-321,314	800,000	-0,065	-0,137
-320,299	800,000	-0,039	0,080
-319,285	510,569	0,032	0,052
-318,270	-200,000	0,014	-0,086
-317,256	-18,913	0,098	-0,043
-316,241	456,439	-0,081	-0,128
-315,226	161,533	0,095	-0,095
-314,212	189,974	0,109	0,116
-313,197	27,816	0,041	0,024
-312,183	117,839	0,070	-0,061
-311,168	-124,110	0,110	-0,012
-310,153	-81,887	-0,103	0,024
-309,139	65,478	0,083	0,060
-308,124	-117,015	0,062	0,008
-307,110	-39,083	0,035	-0,013
-306,095	-200,000	-0,030	0,108
-305,080	22,053	0,073	0,042
-304,066	-37,812	-0,035	0,013
-303,051	800,000	-0,018	-0,039
-302,037	-170,396	-0,059	-0,001
-301,022	800,000	0,052	-0,132
-300,008	-62,871	-0,090	0,026
-298,993	-66,450	0,057	-0,016
-297,978	17,988	-0,033	-0,019
-296,964	255,190	0,079	0,097
-295,949	-200,000	-0,051	0,211
-294,935	-71,120	-0,174	-0,046
-293,920	-100,266	-0,093	0,016
-292,905	-98,687	0,035	0,006
-291,891	288,645	0,067	-0,086
-290,876	-180,227	0,098	-0,001
-289,862	-200,000	0,009	0,064
-288,847	132,913	-0,030	0,028
-287,832	218,721	-0,034	0,039
-286,818	128,209	-0,141	-0,128
-285,803	-175,508	-0,139	-0,003
-284,789	800,000	-0,013	-0,041
-283,774	-17,759	-0,085	-0,038
-282,759	-200,000	0,001	-0,111
-281,745	-56,872	-0,131	-0,041
-280,730	190,620	-0,088	0,095
-279,716	792,628	0,063	-0,124
-278,701	22,158	0,079	-0,046
-277,686	-200,000	0,017	0,129
-276,672	-200,000	0,010	0,095
-275,657	-200,000	-0,000	0,072
-274,643	800,000	0,049	-0,139
-273,628	800,000	-0,022	-0,045
-272,613	510,899	0,035	-0,058
-271,599	-200,000	-0,038	0,135
-270,584	800,000	0,086	0,211
-269,570	-42,224	-0,022	0,008
-268,555	800,000	-0,067	0,194
-267,540	103,483	-0,041	0,034
-266,526	800,000	-0,026	-0,079
-265,511	-171,279	0,123	0,003
-264,497	-200,000	0,013	0,149
-263,482	62,976	0,027	-0,019
-262,467	800,000	0,046	0,094
-261,453	50,989	0,048	-0,032
-260,438	-93,091	0,169	-0,033
-259,424	-33,139	-0,253	-0,099
-258,409	800,000	-0,020	0,052
-257,395	-127,314	0,071	0,007
-256,380	-27,051	-0,104	0,043
-255,365	-3,807	0,051	-0,025
-254,351	44,744	0,135	-0,088
-253,336	800,000	-0,047	-0,131
-252,322	98,859	-0,064	0,052
-251,307	-200,000	0,027	0,128
-250,292	-166,134	0,110	-0,003
-249,278	-200,000	0,040	0,242
-248,263	-200,000	-0,011	0,144
-247,249	173,675	-0,033	-0,034
-246,234	-168,457	-0,080	0,002
-245,219	33,611	-0,086	-0,053
-244,205	441,679	0,067	0,105
-243,190	-98,318	0,124	0,022
-242,176	-139,660	-0,126	0,009
-241,161	241,783	-0,028	0,034
-240,146	800,000	0,060	0,173
-239,132	-86,279	0,061	-0,013
-238,117	61,892	-0,104	-0,073
-237,103	-130,436	0,075	-0,007
-236,088	-181,373	-0,034	-0,000
-235,073	-200,000	0,003	0,173
-234,059	-200,000	-0,002	0,052
-233,044	608,107	-0,039	0,069
-232,030	-127,385	0,075	0,008
-231,015	71,636	0,076	-0,056
-230,000	800,000	-0,064	0,164
-228,986	271,058	-0,044	0,055
-227,971	460,767	0,051	-0,080
-226,957	-200,000	0,004	0,019
-225,942	175,239	0,096	0,099
-224,927	-200,000	0,014	0,047
-223,913	-51,300	-0,150	-0,049
-222,898	800,000	0,018	0,049
-221,884	-200,000	0,008	-0,040
-220,869	-34,999	0,168	-0,065
-219,855	800,000	0,049	0,106
-218,840	-200,000	0,002	0,040
-217,825	-200,000	-0,006	-0,121
-216,811	800,000	0,022	0,044
-215,796	140,993	-0,093	-0,087
-214,782	336,021	0,040	0,055
-213,767	103,806	0,055	0,046
-212,752	-135,558	0,124	-0,010
-211,738	-200,000	-0,003	-0,041
-210,723	-200,000	-0,007	0,035
-209,709	800,000	-0,036	-0,100
-208,694	-200,000	-0,014	-0,182
-207,679	-200,000	-0,001	0,083
-206,665	-200,000	0,004	0,084
-205,650	-60,441	0,073	-0,022
-204,636	230,742	0,027	-0,032
-203,621	-168,762	-0,079	-0,002
-202,606	800,000	0,052	-0,149
-201,592	-200,000	-0,005	0,078
-200,577	116,210	-0,025	0,022
-199,563	116,208	0,102	0,088
-198,548	84,304	0,084	0,065
-197,533	-200,000	-0,010	0,074
-196,519	800,000	0,025	0,069
-195,504	-200,000	-0,012	-0,051
-194,490	74,975	0,077	0,058
-193,475	224,719	0,051	-0,059
-192,460	326,805	-0,048	0,066
-191,446	-44,429	0,128	-0,045
-190,431	-46,356	0,048	-0,017
-189,417	405,266	-0,047	-0,071
-188,402	-62,532	0,090	-0,026
-187,387	-200,000	0,004	-0,092
-186,373	-86,763	-0,065	0,014
-185,358	-200,000	-0,035	0,153
-184,344	-163,192	0,048	0,002
-183,329	-81,384	-0,100	0,023
-182,315	-200,000	0,001	0,068
-181,300	800,000	-0,010	-0,029
-180,285	-197,912	-0,165	-0,001
-179,271	24,961	0,075	-0,044
-178,256	-200,000	0,012	-0,128
-177,242	-200,000	-0,000	0,003
-176,227	-200,000	0,033	0,223
-175,212	4,165	-0,044	0,023
-174,198	285,993	0,025	0,032
-173,183	-17,906	-0,052	-0,023
-172,169	-50,121	0,009	0,003
-171,154	-96,516	0,122	-0,023
-170,139	622,651	0,043	0,078
-169,125	-200,000	-0,006	0,091
-168,110	50,301	0,125	0,083
-167,096	-7,210	0,098	-0,047
-166,081	-200,000	-0,003	-0,120
-165,066	5,927	-0,117	-0,061
-164,052	6,425	-0,031	0,016
-163,037	178,120	0,026	-0,027
-162,023	-59,369	0,111	-0,034
-161,008	-200,000	0,015	0,074
-159,993	170,544	0,081	0,082
-158,979	-200,000	-0,016	-0,141
-157,964	-103,176	0,112	0,019
-156,950	-200,000	0,010	-0,097
-155,935	170,908	0,103	0,105
-154,920	-49,580	0,086	-0,029
-153,906	-125,274	0,018	-0,002
-152,891	-110,024	-0,135	0,020
-151,877	-68,223	-0,077	0,021
-150,862	-86,183	0,065	0,014
-149,847	800,000	-0,053	0,106
-148,833	800,000	0,053	0,110
-147,818	-3,004	-0,027	0,013
-146,804	-200,000	0,027	0,142
-145,789	779,085	-0,061	-0,119
-144,775	132,821	-0,077	-0,070
-143,760	-104,691	-0,121	0,020
-142,745	381,653	0,081	-0,118
-141,731	-200,000	0,003	0,041
-140,716	-64,121	0,026	-0,007
-139,702	-110,746	0,126	-0,018
-138,687	-2,878	0,064	-0,032
-137,672	-22,214	-0,175	0,075
-136,658	-21,183	-0,133	0,057
-135,643	274,455	0,014	-0,017
-134,629	800,000	0,004	0,009
-133,614	12,666	0,137	0,075
-132,599	-149,289	-0,053	-0,003
-131,585	-200,000	0,001	-0,064
-130,570	5,405	0,114	-0,059
-129,556	-184,766	-0,076	0,001
-128,541	-200,000	0,030	-0,120
-127,526	460,719	0,067	-0,106
-126,512	7,126	0,114	-0,060
-125,497	348,812	0,118	0,166
-124,483	-169,332	-0,160	0,004
-123,468	-15,437	-0,091	0,041
-122,453	5,225	-0,012	0,006
-121,439	-18,614	0,021	0,009
-120,424	-151,081	-0,103	0,005
-119,410	206,042	0,049	0,054
-118,395	-200,000	-0,022	-0,149
-117,380	-21,791	0,120	0,051
-116,366	122,485	-0,105	0,093
-115,351	-58,142	0,079	-0,024
-114,337	-181,273	-0,152	-0,002
-113,322	-16,112	-0,118	-0,053
-112,307	-200,000	0,001	-0,044
-111,293	800,000	-0,030	0,078
-110,278	-163,920	0,133	0,004
-109,264	-140,484	0,079	0,006
-108,249	-21,669	-0,064	0,028
-107,234	70,085	-0,030	0,022
-106,220	-200,000	-0,029	-0,113
-105,205	-200,000	-0,021	-0,103
-104,191	-48,216	-0,057	-0,019
-103,176	743,529	0,047	-0,089
-102,162	478,073	-0,062	0,099
-101,147	133,543	0,054	-0,049
-100,132	54,509	-0,148	-0,101
-99,118	254,544	0,087	-0,106
-98,103	-170,678	0,046	-0,001
-97,089	800,000	0,058	0,169
-96,074	595,535	0,076	0,133
-95,059	464,804	0,033	-0,053
-94,045	-200,000	0,001	0,135
-93,030	-200,000	0,004	-0,015
-92,016	297,904	-0,085	-0,111
-91,001	-119,858	-0,089	-0,011
-89,986	-39,202	0,166	0,061
-88,972	24,848	-0,087	0,051
-87,957	110,014	0,077	0,065
-86,943	-31,377	0,069	-0,027
-85,928	120,102	-0,035	0,031
-84,913	-31,469	-0,021	-0,008
-83,899	-200,000	0,008	0,095
-82,884	109,821	0,059	0,050
-81,870	-141,163	0,196	0,014
-80,855	313,237	0,022	-0,029
-79,840	-50,982	0,004	0,001
-78,826	35,471	0,092	0,057
-77,811	800,000	-0,028	0,056
-76,797	800,000	0,017	-0,037
-75,782	-27,698	0,099	-0,040
-74,767	800,000	0,035	-0,073
-73,753	-14,218	-0,128	0,058
-72,738	-200,000	0,040	-0,187
-71,724	75,757	0,112	-0,084
-70,709	53,095	0,025	-0,017
-69,694	-200,000	-0,001	-0,091
-68,680	130,760	-0,010	0,009
-67,665	532,491	-0,063	-0,106
-66,651	800,000	-0,029	0,075
-65,636	592,106	0,039	0,068
-64,622	800,000	0,047	-0,130
-63,607	-200,000	-0,018	-0,090
-62,592	800,000	-0,018	0,039
-61,578	154,338	0,140	-0,136
-60,563	63,656	-0,056	-0,039
-59,549	-28,767	-0,008	-0,003
-58,534	45,894	-1,779	-1,160
-57,519	377,307	-1,414	-2,045
-56,505	-200,000	-0,364	-4,368
-55,490	320,563	0,829	1,114
-54,476	800,000	5,121	11,500
-53,461	-200,000	20,675	327,514
-52,446	800,000	755,635	2317,706
-51,432	551,168	1660,905	2824,006
-50,417	73,690	1663,233	1228,558
-49,403	18,852	1536,494	866,102
-48,388	12,814	1459,404	793,454
-47,373	18,878	1450,134	817,486
-46,359	15,919	1439,255	797,247
-45,344	11,098	1435,184	772,015
-44,330	11,030	1433,200	770,592
-43,315	10,993	1431,468	769,455
-42,300	10,973	1429,672	768,363
-41,286	11,072	1428,327	768,081
-40,271	11,003	1426,983	767,001
-39,257	11,032	1425,729	766,431
-38,242	11,074	1424,669	766,032
-37,227	11,049	1423,651	765,333
-36,213	11,034	1422,574	764,654
-35,198	11,079	1421,373	764,193
-34,184	11,089	1420,375	763,670
-33,169	11,023	1419,024	762,603
-32,154	11,104	1417,979	762,391
-31,140	11,077	1416,786	761,597
-30,125	11,109	1415,677	761,120
-29,111	11,081	1414,870	760,523
-28,096	11,107	1413,293	759,766
-27,082	11,013	1412,143	758,677
-26,067	11,015	1411,233	758,170
-25,052	11,022	1410,275	757,656
-24,038	11,047	1409,054	757,088
-23,023	11,021	1408,163	756,458
-22,009	10,981	1407,041	755,635
-20,994	10,950	1406,263	755,043
-19,979	10,962	1405,187	754,492
-18,965	10,956	1404,322	753,970
-17,950	10,944	1403,437	753,409
-16,936	10,964	1402,623	753,035
-15,921	10,924	1401,542	752,241
-14,906	10,915	1400,720	751,726
-13,892	10,944	1399,507	751,181
-12,877	10,948	1398,783	750,781
-11,863	10,926	1397,928	750,190
-10,848	10,878	1397,269	749,585
-9,833	10,889	1396,234	749,049
-8,819	10,822	1395,522	748,330
-7,804	10,836	1394,363	747,740
-6,790	10,827	1393,571	747,245
-5,775	10,865	1392,389	746,759
-4,760	10,845	1391,521	746,171
-3,746	10,828	1390,542	745,539
-2,731	10,839	1389,638	745,075
-1,717	10,843	1388,855	744,642
-0,702	10,825	1386,980	743,523
0,313	14,837	1300,963	715,784
1,327	31,191	693,013	418,476
2,342	48,196	120,129	79,111
3,356	-0,633	16,444	8,198
4,371	5,504	3,377	1,753
5,386	-10,413	0,802	0,374
6,400	800,000	0,168	0,409
7,415	-132,554	-0,165	-0,015
8,429	52,659	-0,345	-0,232
9,444	94,209	-0,359	-0,287
10,459	256,488	-0,211	-0,255
11,473	-56,377	-0,279	-0,087
12,488	-82,188	-0,404	-0,092
13,502	-36,804	-0,363	-0,137
14,517	113,526	-0,378	-0,324
15,531	54,810	-0,326	-0,221
16,546	0,902	-0,333	-0,167
17,561	-18,612	-0,380	-0,166
18,575	-45,552	-0,184	0,064
19,590	69,339	-0,208	-0,151
20,604	144,250	-0,117	-0,110
21,619	92,400	-0,410	-0,325
22,634	3,152	-0,562	-0,287
23,648	28,941	-0,471	-0,280
24,663	144,731	-0,360	-0,339
25,677	69,012	-0,374	-0,270
26,692	153,334	-0,345	-0,332
27,707	430,357	-0,281	-0,429
28,721	115,615	-0,385	-0,331
29,736	29,086	-0,442	-0,263
30,750	92,920	-0,379	-0,301
31,765	136,820	-0,430	-0,395
32,780	24,397	-0,369	-0,214
33,794	130,902	-0,302	-0,272
34,809	357,557	-0,244	-0,343
35,823	54,559	-0,311	-0,210
36,838	96,091	-0,348	-0,279
37,853	38,854	-0,453	-0,284
38,867	158,169	-0,388	-0,379
39,882	80,209	-0,291	-0,220
40,896	61,225	-0,290	-0,202
41,911	166,888	-0,148	-0,148
42,926	-26,685	-0,316	-0,129
43,940	48,113	-0,411	-0,270
44,955	411,600	-0,315	-0,471
45,969	42,198	-0,367	-0,234
46,984	-18,579	-0,392	-0,171
47,999	2,911	-0,309	-0,157
49,013	180,222	-0,278	-0,287
50,028	34,564	-0,301	-0,184
51,042	13,073	-0,252	-0,136
52,057	351,956	-0,276	-0,386
53,071	247,328	-0,271	-0,322
54,086	38,590	-0,370	-0,231
55,101	70,629	-0,327	-0,237
56,115	153,950	-0,373	-0,359
57,130	93,623	-0,428	-0,340
58,144	-75,626	-0,318	-0,079
59,159	33,037	-0,424	-0,257
60,174	52,031	-0,348	-0,232
61,188	111,610	-0,296	-0,250
62,203	740,007	-0,219	-0,415
63,217	126,968	-0,388	-0,345
64,232	23,330	-0,390	-0,224
65,247	50,579	-0,337	-0,223
66,261	-15,961	-0,439	-0,195
67,276	287,269	-0,344	-0,437
68,290	88,146	-0,370	-0,288
69,305	26,511	-0,313	-0,183
70,320	151,457	-0,192	-0,183
71,334	151,860	-0,306	-0,292
72,349	23,031	-0,370	-0,212
73,363	71,026	-0,248	-0,180
74,378	20,271	-0,356	-0,201
75,393	222,366	-0,269	-0,304
76,407	12,829	-0,275	-0,148
77,422	-121,643	-0,247	-0,028
78,436	-93,692	-0,378	-0,072
79,451	140,230	-0,156	-0,144
80,466	348,095	-0,229	-0,317
81,480	-71,920	-0,430	-0,111
82,495	47,379	-0,303	-0,197
83,509	111,927	-0,258	-0,218
84,524	11,198	-0,196	-0,105
85,539	-47,992	-0,405	-0,136
86,553	77,595	-0,240	-0,178
87,568	55,793	-0,399	-0,270
88,582	134,142	-0,187	-0,170
89,597	88,503	-0,349	-0,271
90,611	151,619	-0,188	-0,180
91,626	133,604	-0,252	-0,228
92,641	-111,559	-0,273	-0,038
93,655	37,725	-0,271	-0,168
94,670	720,058	-0,170	-0,318
95,684	-8,448	-0,347	-0,162
96,699	82,355	-0,303	-0,230
97,714	215,153	-0,178	-0,198
98,728	-93,571	-0,183	-0,035
99,743	60,053	-0,317	-0,219
100,757	65,337	-0,350	-0,247
101,772	358,795	-0,172	-0,241
102,787	111,648	-0,299	-0,252
103,801	97,137	-0,320	-0,256
104,816	31,003	-0,260	-0,155
105,830	113,700	-0,233	-0,198
106,845	-100,481	-0,247	-0,042
107,860	19,547	-0,268	-0,150
108,874	20,254	-0,421	-0,237
109,889	-118,199	-0,283	-0,035
110,903	17,967	-0,265	-0,147
111,918	89,644	-0,331	-0,258
112,933	-110,127	-0,154	0,022
113,947	328,263	-0,189	-0,254
114,962	24,923	-0,216	-0,125
115,976	2,201	-0,315	-0,158
116,991	36,024	-0,264	-0,162
118,006	110,080	-0,220	-0,184
119,020	243,602	-0,232	-0,272
120,035	-5,948	-0,321	-0,153
121,049	10,066	-0,220	-0,116
122,064	-14,034	-0,220	-0,099
123,079	1,931	-0,265	-0,133
124,093	239,465	-0,215	-0,250
125,108	277,924	-0,202	-0,251
126,122	-7,324	-0,238	-0,112
127,137	18,556	-0,200	-0,111
128,151	-147,004	-0,175	-0,010
129,166	31,690	-0,280	-0,167
130,181	79,109	-0,252	-0,188
131,195	148,502	-0,288	-0,271
132,210	60,004	-0,285	-0,196
133,224	-72,185	-0,300	-0,077
134,239	143,050	-0,236	-0,219
135,254	-74,287	-0,185	-0,046
136,268	-62,241	-0,207	-0,060
137,283	87,061	-0,189	-0,145
138,297	358,724	-0,228	-0,318
139,312	14,814	-0,316	-0,171
140,327	152,336	-0,253	-0,241
141,341	59,274	-0,255	-0,174
142,356	-59,140	-0,299	-0,089
143,370	52,226	-0,292	-0,194
144,385	86,269	-0,240	-0,184
145,400	32,155	-0,321	-0,192
146,414	-4,892	-0,384	-0,183
147,429	541,523	-0,143	-0,238
148,443	239,309	-0,113	-0,131
149,458	612,175	-0,124	-0,216
150,473	9,910	-0,254	-0,134
151,487	70,324	-0,146	-0,105
152,502	253,411	-0,137	-0,164
153,516	54,250	-0,179	-0,120
154,531	-53,549	-0,263	-0,083
155,546	-18,824	-0,225	-0,097
156,560	-168,783	-0,163	0,004
157,575	210,209	-0,081	-0,088
158,589	75,933	-0,231	-0,170
159,604	-112,046	-0,193	-0,027
160,619	2,547	-0,429	-0,215
161,633	226,848	-0,148	-0,168
162,648	800,000	-0,126	-0,260
163,662	95,330	-0,113	-0,089
164,677	-46,235	-0,045	-0,015
165,692	-66,759	-0,316	-0,086
166,706	93,144	-0,126	0,099
167,721	117,443	-0,192	-0,164
168,735	274,320	-0,126	-0,155
169,750	73,821	-0,225	-0,164
170,764	800,000	-0,073	-0,173
171,779	110,236	-0,237	-0,197
172,794	82,820	-0,188	-0,142
173,808	-75,529	-0,211	-0,052
174,823	338,872	-0,178	-0,241
175,837	127,243	-0,263	-0,232
176,852	186,413	-0,137	-0,142
177,867	125,980	-0,122	-0,107
178,881	800,000	-0,078	-0,174
179,896	249,273	-0,097	-0,115
180,910	92,199	-0,257	-0,201
181,925	800,000	-0,101	-0,265
182,940	83,260	-0,254	-0,192
183,954	43,864	-0,258	-0,163
184,969	721,585	-0,132	-0,244
185,983	83,120	-0,182	-0,137
186,998	151,934	-0,154	-0,145
188,013	100,594	-0,194	-0,156
189,027	-4,149	-0,317	-0,152
190,042	-65,705	-0,328	-0,091
191,056	141,341	-0,161	-0,148
192,071	42,972	-0,099	-0,063
193,086	162,655	-0,150	-0,146
194,100	116,383	-0,202	-0,172
195,115	-40,964	-0,174	-0,062
196,129	-32,042	-0,215	-0,083
197,144	-33,114	-0,156	-0,060
198,159	57,166	-0,286	-0,193
199,173	40,297	-0,219	-0,136
200,188	-13,426	-0,118	-0,053
201,202	-131,675	-0,091	-0,008
202,217	-121,602	-0,260	-0,030
203,232	-139,337	-0,230	-0,017
204,246	-6,054	-0,203	-0,096
205,261	800,000	-0,097	-0,262
206,275	214,330	-0,131	-0,144
207,290	800,000	-0,109	-0,209
208,304	-81,012	-0,201	-0,046
209,319	-21,606	-0,241	-0,101
210,334	13,764	-0,249	-0,134
211,348	374,386	-0,141	-0,200
212,363	7,957	-0,277	-0,143
213,377	99,226	-0,137	-0,109
214,392	337,748	-0,105	-0,142
215,407	7,841	-0,238	-0,123
216,421	113,592	-0,150	-0,126
217,436	89,855	-0,166	-0,128
218,450	23,168	-0,302	-0,171
219,465	83,374	-0,196	-0,148
220,480	-142,002	-0,183	-0,012
221,494	312,130	-0,194	-0,252
222,509	136,426	-0,121	-0,109
223,523	-61,301	-0,348	-0,101
224,538	6,685	-0,208	-0,106
225,553	52,590	-0,300	-0,198
226,567	178,890	-0,276	-0,279
227,582	197,795	-0,225	-0,238
228,596	162,763	-0,087	-0,085
229,611	212,885	-0,179	-0,195
230,626	-2,379	-0,159	-0,077
231,640	-5,544	-0,281	-0,133
232,655	38,644	-0,120	-0,074
233,669	115,160	-0,230	-0,194
234,684	800,000	-0,030	-0,092
235,699	-9,688	-0,209	-0,096
236,713	112,804	-0,103	-0,087
237,728	13,604	-0,105	-0,056
238,742	92,271	-0,279	-0,217
239,757	152,090	-0,145	-0,137
240,772	-136,808	-0,147	0,012
241,786	-19,470	-0,239	-0,102
242,801	800,000	-0,079	-0,177
243,815	-101,844	-0,081	-0,013
244,830	220,841	-0,100	-0,111
245,844	337,684	-0,144	-0,194
246,859	155,599	-0,171	-0,163
247,874	225,558	-0,220	-0,246
248,888	580,438	-0,183	-0,310
249,903	-40,114	-0,101	-0,036
250,917	-100,133	-0,218	0,037
251,932	508,865	-0,066	-0,106
252,947	149,911	-0,138	-0,129
253,961	234,712	-0,218	-0,249
254,976	623,115	-0,071	-0,124
255,990	124,736	-0,123	-0,106
257,005	-110,833	-0,156	0,022
258,020	-41,322	-0,044	0,016
259,034	800,000	-0,087	-0,185
260,049	-48,052	-0,165	-0,055
261,063	172,295	-0,192	-0,190
262,078	-5,793	-0,280	-0,132
263,093	800,000	-0,055	-0,114
264,107	-200,000	-0,022	-0,138
265,122	-65,780	-0,189	-0,052
266,136	-70,409	-0,214	-0,055
267,151	76,467	-0,193	-0,141
268,166	121,454	-0,107	-0,092
269,180	-14,109	-0,254	-0,113
270,195	99,927	-0,130	-0,104
271,209	-200,000	-0,000	-0,086
272,224	-60,463	-0,160	-0,047
273,239	-28,424	-0,114	-0,045
274,253	472,240	-0,118	-0,184
275,268	301,249	-0,128	-0,163
276,282	364,399	-0,092	-0,128
277,297	-180,682	-0,159	-0,002
278,312	-90,344	-0,199	-0,039
279,326	-200,000	-0,058	-0,181
280,341	10,493	-0,141	-0,074
281,355	392,602	-0,061	-0,088
282,370	227,373	-0,168	-0,188
283,384	94,707	-0,130	-0,102
284,399	566,840	-0,118	-0,198
285,414	462,776	-0,144	-0,221
286,428	-11,040	-0,049	-0,022
287,443	800,000	-0,084	-0,174
288,457	85,213	-0,177	-0,134
289,472	256,262	-0,121	-0,143
290,487	-105,204	-0,180	-0,028
291,501	238,440	-0,236	-0,270
292,516	455,169	-0,131	-0,200
293,530	443,468	-0,137	-0,207
294,545	4,390	-0,146	-0,073
295,560	-200,000	-0,061	-0,253
296,574	181,730	-0,007	0,007
297,589	35,023	-0,206	-0,123
298,603	59,562	-0,231	-0,156
299,618	364,257	-0,163	-0,226
300,633	-181,052	-0,102	0,001
301,647	800,000	-0,086	-0,182
302,662	800,000	-0,078	-0,197
303,676	800,000	-0,046	-0,116
304,691	522,012	-0,084	-0,136
305,706	-200,000	-0,024	-0,096
306,720	321,164	-0,165	-0,216
307,735	207,444	-0,173	-0,186
308,749	-42,280	-0,265	-0,092
309,764	154,650	-0,077	-0,073
310,779	470,709	-0,140	-0,217
311,793	118,308	-0,171	-0,145
312,808	101,966	-0,224	-0,179
313,822	8,504	-0,264	-0,136
314,837	150,124	-0,144	-0,134
315,852	30,143	-0,100	-0,059
316,866	54,441	-0,148	-0,098
317,881	102,081	-0,121	-0,097
318,895	182,666	-0,128	-0,130
319,910	37,160	-0,171	-0,104
320,925	321,870	-0,134	-0,176
321,939	180,202	-0,066	-0,066
322,954	6,198	-0,129	-0,065
323,968	12,660	-0,174	-0,092
324,983	-200,000	-0,036	-0,166
325,997	800,000	-0,078	-0,159
327,012	78,494	-0,153	-0,112
328,027	-200,000	-0,073	-0,249
329,041	114,087	-0,165	-0,137
330,056	800,000	0,022	0,055
331,070	-200,000	-0,049	-0,149
332,085	-200,000	-0,023	-0,115
333,100	-131,569	-0,069	0,006
334,114	94,729	-0,075	-0,059
335,129	597,000	-0,122	-0,208
336,143	118,995	-0,091	-0,077
337,158	0,183	-0,149	-0,072
338,173	-28,934	-0,103	-0,040
339,187	308,510	-0,049	-0,063
340,202	-200,000	-0,033	-0,109
341,216	120,057	-0,148	-0,125
342,231	140,918	-0,078	-0,070
343,246	23,005	-0,142	-0,080
344,260	107,046	-0,138	-0,112
345,275	684,185	-0,078	-0,140
346,289	-200,000	0,012	-0,109
347,304	89,250	-0,063	-0,048
348,319	800,000	-0,042	0,080
349,333	-167,636	-0,181	0,005
350,348	-0,090	-0,120	-0,058
351,362	7,382	-0,221	-0,113
352,377	-200,000	0,003	-0,129
353,392	-200,000	-0,012	-0,067
354,406	168,433	-0,157	-0,153
355,421	208,949	1306,509	1400,137
356,435	160,800	1466,231	1400,639
