DTS Sentinel unit serial number:	SN410029Multiplexer serial number:	ORYXHardware model number:	OX2-SRSoftware version number:	ORYX F/W v4,00 Oryx Data Collector v3.7.2.0data status	okinstallation	B3 Nyhavnadifferential loss correction	single-endedforward channel	channel 1reverse channel	N/Adate	2023/12/03time	21:07:30forward acquisition time	300,00reverse acquisition time	0,00gamma	499,1914k internal	0,3199k external	0,3199temperature offset calibration	1,0000default loss term (dB/km)	0,3820temperature slope calibration	1,0000multiplexer offset coefficient	1,0000multiplexer slope coefficient	1,0000fibre end	0,00T internal ref (°C)	13,72T ext. ref 1 (°C)	-1,75T ext. ref 2 (°C)	-1,77length (m)	temperature (°C)	Stokes	anti-Stokes-744,400	478,229	-0,170	-0,282
-743,385	-200,000	0,133	0,458
-742,371	-200,000	-0,089	-0,288
-741,356	-200,000	0,044	0,338
-740,342	800,000	-0,132	-0,278
-739,327	800,000	-0,097	0,268
-738,312	800,000	-0,153	-0,329
-737,298	-200,000	-0,004	0,270
-736,283	-34,924	-0,295	-0,117
-735,269	-200,000	0,074	0,356
-734,254	800,000	-0,130	-0,339
-733,239	-41,695	-0,172	0,064
-732,225	-200,000	-0,032	-0,117
-731,210	-92,092	0,137	0,028
-730,196	-200,000	-0,021	-0,108
-729,181	86,221	-0,113	-0,090
-728,167	800,000	0,064	-0,145
-727,152	699,109	0,010	0,020
-726,137	268,151	-0,085	-0,109
-725,123	-2,602	-0,055	0,028
-724,108	305,474	-0,116	-0,157
-723,094	118,001	-0,065	-0,058
-722,079	-200,000	-0,038	-0,180
-721,064	-28,441	-0,195	-0,081
-720,050	800,000	0,035	-0,101
-719,035	304,667	-0,102	-0,138
-718,021	800,000	0,048	-0,098
-717,006	631,751	-0,067	-0,125
-715,991	-177,273	-0,076	0,001
-714,977	75,615	-0,056	-0,043
-713,962	123,795	-0,047	-0,043
-712,948	-191,491	0,163	-0,001
-711,933	800,000	0,004	-0,008
-710,918	800,000	-0,051	0,142
-709,904	29,319	-0,076	-0,047
-708,889	780,138	-0,068	-0,135
-707,875	800,000	0,023	-0,063
-706,860	-132,636	0,040	-0,004
-705,845	229,992	0,047	-0,056
-704,831	45,077	0,064	0,043
-703,816	-118,440	-0,046	-0,006
-702,802	355,261	0,032	-0,047
-701,787	-51,343	0,041	-0,014
-700,772	-121,474	0,033	0,004
-699,758	45,990	-0,107	-0,072
-698,743	800,000	0,022	0,064
-697,729	555,080	0,067	0,118
-696,714	339,995	-0,034	-0,048
-695,699	134,242	-0,087	-0,082
-694,685	583,655	0,011	0,020
-693,670	-135,804	0,073	0,006
-692,656	-200,000	0,015	0,097
-691,641	205,111	-0,093	-0,105
-690,627	-44,810	-0,076	-0,028
-689,612	-200,000	0,039	-0,131
-688,597	2,761	-0,089	0,047
-687,583	-51,229	-0,197	-0,066
-686,568	-68,328	0,031	0,009
-685,554	-90,053	0,133	-0,028
-684,539	-167,272	-0,123	-0,004
-683,524	80,559	0,032	-0,025
-682,510	-63,860	-0,073	-0,022
-681,495	-68,001	-0,128	-0,036
-680,481	-200,000	-0,005	-0,137
-679,466	-200,000	-0,027	-0,089
-678,451	35,196	-0,088	0,056
-677,437	107,163	0,038	0,033
-676,422	-200,000	-0,004	-0,089
-675,408	-200,000	-0,010	0,059
-674,393	140,097	-0,043	0,041
-673,378	-200,000	0,003	0,056
-672,364	-56,696	-0,097	-0,031
-671,349	-200,000	0,004	0,022
-670,335	21,229	0,083	-0,049
-669,320	-200,000	-0,003	0,036
-668,305	93,763	-0,046	-0,038
-667,291	322,731	0,009	0,013
-666,276	75,445	-0,085	-0,065
-665,262	-200,000	0,019	-0,114
-664,247	-108,066	-0,068	0,011
-663,232	304,974	0,064	-0,087
-662,218	-97,245	0,124	0,023
-661,203	-55,612	-0,109	-0,035
-660,189	537,658	-0,057	-0,099
-659,174	84,186	-0,097	-0,077
-658,159	589,376	0,035	0,063
-657,145	-200,000	-0,034	-0,119
-656,130	-44,037	-0,140	-0,051
-655,116	178,051	0,053	0,056
-654,101	-64,945	-0,138	0,040
-653,086	32,944	-0,058	-0,036
-652,072	800,000	0,018	-0,053
-651,057	37,125	-0,181	-0,116
-650,043	178,540	-0,088	0,094
-649,028	62,508	-0,107	-0,078
-648,014	535,368	0,038	0,066
-646,999	320,574	-0,063	-0,087
-645,984	-185,420	-0,132	0,001
-644,970	-200,000	0,001	0,124
-643,955	-200,000	-0,030	-0,188
-642,941	-134,983	-0,037	-0,003
-641,926	-200,000	0,028	-0,179
-640,911	-200,000	0,027	0,167
-639,897	706,429	-0,069	-0,132
-638,882	-146,279	-0,028	0,002
-637,868	-200,000	0,013	-0,118
-636,853	-200,000	-0,027	-0,164
-635,838	335,482	0,027	-0,039
-634,824	88,468	-0,097	-0,078
-633,809	-3,743	0,087	-0,043
-632,795	-200,000	-0,009	0,083
-631,780	-33,827	-0,112	0,045
-630,765	-34,663	0,081	-0,032
-629,751	-131,785	0,177	-0,017
-628,736	-5,227	-0,055	0,027
-627,722	524,812	0,037	-0,063
-626,707	-22,247	-0,145	0,064
-625,692	-9,554	0,068	-0,033
-624,678	127,678	-0,046	0,043
-623,663	32,112	0,093	-0,058
-622,649	210,844	0,031	0,035
-621,634	-36,105	-0,064	-0,025
-620,619	797,096	-0,006	0,011
-619,605	-200,000	-0,006	-0,129
-618,590	-200,000	-0,024	0,120
-617,576	-78,884	0,119	-0,029
-616,561	9,828	-0,107	-0,058
-615,546	82,335	0,058	0,046
-614,532	396,526	-0,049	-0,074
-613,517	-200,000	0,004	-0,023
-612,503	62,210	0,017	0,012
-611,488	6,781	-0,082	-0,044
-610,474	-135,666	0,165	0,014
-609,459	215,764	-0,031	0,035
-608,444	800,000	0,037	-0,080
-607,430	-200,000	-0,006	-0,097
-606,415	21,037	-0,137	-0,080
-605,401	107,780	-0,040	0,034
-604,386	-163,326	0,120	-0,004
-603,371	100,944	0,105	0,088
-602,357	-200,000	-0,016	0,052
-601,342	-74,872	-0,118	-0,031
-600,328	129,628	-0,077	0,071
-599,313	-83,393	0,016	-0,004
-598,298	-200,000	-0,002	0,041
-597,284	239,976	0,023	-0,028
-596,269	-113,225	0,065	0,009
-595,255	161,766	-0,080	0,081
-594,240	-79,890	-0,115	0,028
-593,225	741,762	-0,033	-0,065
-592,211	-143,681	-0,110	-0,007
-591,196	88,005	-0,039	-0,031
-590,182	-13,763	0,133	0,062
-589,167	-200,000	-0,005	0,168
-588,152	64,763	0,070	0,051
-587,138	0,929	-0,050	0,026
-586,123	-200,000	0,000	-0,112
-585,109	240,318	-0,093	-0,113
-584,094	154,570	0,033	-0,033
-583,079	53,650	0,105	-0,073
-582,065	-75,921	0,015	0,004
-581,050	-200,000	-0,004	-0,049
-580,036	-200,000	-0,005	0,031
-579,021	233,835	0,061	-0,073
-578,006	135,287	0,087	-0,082
-576,992	-93,122	-0,059	-0,012
-575,977	119,795	0,127	0,114
-574,963	294,275	0,042	-0,055
-573,948	-19,687	0,067	0,030
-572,934	740,149	-0,009	0,017
-571,919	11,142	-0,045	-0,025
-570,904	-91,926	-0,183	0,037
-569,890	-61,872	-0,043	-0,013
-568,875	778,682	-0,059	0,117
-567,861	-30,940	0,167	-0,068
-566,846	-92,344	0,130	-0,026
-565,831	-47,273	-0,088	0,031
-564,817	-200,000	-0,009	-0,089
-563,802	23,733	0,078	-0,046
-562,788	753,907	-0,064	-0,127
-561,773	662,214	0,027	0,051
-560,758	800,000	0,018	0,048
-559,744	-200,000	-0,008	-0,045
-558,729	80,373	-0,136	0,105
-557,715	-200,000	-0,000	0,104
-556,700	-200,000	-0,002	-0,035
-555,685	236,693	-0,073	0,088
-554,671	13,315	-0,089	0,050
-553,656	-127,445	0,047	-0,005
-552,642	65,993	0,098	0,072
-551,627	-114,202	-0,061	-0,008
-550,612	111,311	0,090	0,078
-549,598	201,618	-0,012	0,014
-548,583	-200,000	-0,010	-0,160
-547,569	-47,829	-0,134	-0,047
-546,554	0,278	-0,116	0,060
-545,539	-37,480	0,045	0,017
-544,525	-159,967	-0,076	0,003
-543,510	-200,000	0,007	0,037
-542,496	-122,260	-0,066	-0,008
-541,481	4,536	0,155	-0,082
-540,466	424,694	0,047	0,073
-539,452	-110,674	-0,095	0,014
-538,437	-200,000	0,021	0,118
-537,423	13,011	-0,051	0,029
-536,408	-200,000	0,077	0,000
-535,393	289,876	0,093	-0,122
-534,379	309,408	-0,090	-0,122
-533,364	158,872	-0,091	-0,092
-532,350	77,971	0,106	-0,081
-531,335	33,895	0,063	0,040
-530,321	115,609	-0,061	0,054
-529,306	-200,000	-0,008	0,063
-528,291	-32,942	0,025	0,010
-527,277	399,997	0,088	-0,133
-526,262	-142,498	-0,092	0,006
-525,248	322,492	0,066	0,091
-524,233	214,743	0,020	-0,023
-523,218	-200,000	-0,033	-0,138
-522,204	58,817	-0,109	0,077
-521,189	248,278	0,038	0,047
-520,175	613,823	0,017	-0,032
-519,160	-15,320	-0,073	-0,033
-518,145	800,000	-0,022	-0,046
-517,131	800,000	0,025	-0,061
-516,116	-117,744	-0,084	0,011
-515,102	-29,288	0,037	-0,015
-514,087	-200,000	0,006	-0,022
-513,072	75,016	-0,146	-0,111
-512,058	800,000	-0,034	0,071
-511,043	-200,000	0,011	0,091
-510,029	212,638	0,024	0,027
-509,014	-53,110	0,052	-0,017
-507,999	800,000	0,021	-0,059
-506,985	-126,251	0,040	0,004
-505,970	298,842	-0,135	-0,180
-504,956	-200,000	-0,015	-0,177
-503,941	-35,847	-0,108	0,042
-502,926	11,060	0,095	0,052
-501,912	-29,440	0,072	-0,030
-500,897	354,526	-0,032	0,046
-499,883	-44,725	-0,040	-0,014
-498,868	179,947	-0,064	0,067
-497,853	-87,464	-0,149	0,032
-496,839	-123,426	0,076	-0,009
-495,824	-63,525	0,107	-0,031
-494,810	-200,000	-0,013	0,108
-493,795	-200,000	0,016	0,088
-492,781	34,084	0,083	0,052
-491,766	200,492	-0,071	0,079
-490,751	-200,000	0,016	0,086
-489,737	800,000	0,033	0,084
-488,722	120,310	-0,050	-0,045
-487,708	76,478	0,128	0,098
-486,693	85,024	0,040	-0,032
-485,678	497,115	0,095	0,158
-484,664	-200,000	0,014	-0,103
-483,649	-98,150	-0,091	-0,017
-482,635	-114,531	0,156	-0,021
-481,620	0,259	0,051	0,026
-480,605	70,644	-0,083	0,062
-479,591	200,025	-0,030	0,034
-478,576	-200,000	0,006	-0,054
-477,562	-106,027	-0,151	-0,024
-476,547	106,847	-0,115	-0,099
-475,532	-76,425	0,023	0,006
-474,518	121,650	-0,071	0,064
-473,503	-22,325	-0,121	0,053
-472,489	-200,000	-0,003	0,094
-471,474	328,669	0,029	-0,041
-470,459	-67,382	-0,089	-0,025
-469,445	8,824	0,083	-0,045
-468,430	800,000	0,031	0,073
-467,416	-50,068	0,088	-0,030
-466,401	-160,679	-0,154	-0,006
-465,386	26,268	0,132	-0,079
-464,372	462,701	0,081	0,130
-463,357	58,968	0,062	-0,044
-462,343	79,207	-0,067	-0,052
-461,328	-137,714	0,023	-0,002
-460,313	-130,689	0,017	0,002
-459,299	128,390	0,102	0,093
-458,284	-189,453	-0,111	0,001
-457,270	-56,622	-0,028	-0,009
-456,255	-9,395	0,013	-0,006
-455,241	-20,425	-0,074	-0,033
-454,226	-90,427	-0,138	-0,028
-453,211	174,988	-0,075	-0,078
-452,197	-16,395	0,153	0,069
-451,182	617,977	0,103	0,186
-450,168	-101,336	-0,067	-0,012
-449,153	800,000	-0,039	-0,099
-448,138	-200,000	-0,010	-0,194
-447,124	-99,906	0,020	0,004
-446,109	71,518	-0,096	-0,072
-445,095	800,000	-0,061	-0,127
-444,080	20,570	0,062	-0,036
-443,065	-200,000	-0,004	0,140
-442,051	-48,561	-0,099	-0,034
-441,036	-41,131	-0,051	-0,019
-440,022	294,193	-0,023	-0,031
-439,007	401,172	0,040	-0,061
-437,992	-190,533	0,049	0,000
-436,978	150,395	0,073	0,071
-435,963	-93,203	0,049	0,010
-434,949	323,698	0,068	0,093
-433,934	-50,634	-0,091	0,030
-432,919	334,250	0,046	-0,064
-431,905	-34,804	0,068	0,027
-430,890	509,072	0,066	0,110
-429,876	-200,000	0,002	0,057
-428,861	-77,208	0,067	-0,017
-427,846	-30,030	0,054	-0,022
-426,832	77,087	-0,138	-0,105
-425,817	31,500	-0,084	-0,052
-424,803	-200,000	-0,025	-0,112
-423,788	394,389	0,020	-0,031
-422,773	800,000	0,075	0,165
-421,759	-22,773	0,069	-0,030
-420,744	401,207	0,060	0,091
-419,730	183,823	-0,039	-0,041
-418,715	-11,790	-0,042	0,020
-417,701	132,950	-0,071	0,066
-416,686	800,000	0,045	0,107
-415,671	-200,000	0,017	0,062
-414,657	800,000	0,044	0,137
-413,642	800,000	-0,007	-0,019
-412,628	-200,000	-0,016	-0,126
-411,613	-22,978	-0,060	-0,026
-410,598	300,213	0,038	0,050
-409,584	-200,000	-0,022	0,071
-408,569	-4,315	0,050	-0,025
-407,555	-200,000	0,016	-0,127
-406,540	800,000	0,040	0,118
-405,525	-94,403	-0,035	0,007
-404,511	800,000	-0,011	-0,025
-403,496	514,346	-0,046	-0,078
-402,482	22,708	0,068	0,040
-401,467	-172,498	-0,017	-0,000
-400,452	-128,194	0,037	-0,004
-399,438	243,866	0,032	0,038
-398,423	489,222	-0,038	0,062
-397,409	39,928	-0,099	0,064
-396,394	-147,572	-0,124	0,007
-395,379	-40,007	0,156	0,058
-394,365	-76,047	0,033	0,008
-393,350	800,000	0,009	0,021
-392,336	64,344	0,167	0,121
-391,321	178,873	-0,090	0,094
-390,306	-200,000	-0,029	-0,123
-389,292	139,030	0,054	0,051
-388,277	622,631	0,083	0,150
-387,263	-200,000	0,029	0,143
-386,248	800,000	-0,023	0,059
-385,233	-101,536	0,106	0,018
-384,219	39,767	0,102	0,066
-383,204	14,667	0,045	0,025
-382,190	90,045	-0,093	-0,074
-381,175	-50,964	0,093	-0,031
-380,160	-92,070	-0,066	-0,013
-379,146	-200,000	0,005	-0,132
-378,131	286,197	0,042	-0,054
-377,117	128,970	0,066	-0,061
-376,102	800,000	-0,010	0,029
-375,088	359,974	-0,096	0,137
-374,073	-26,894	0,024	-0,010
-373,058	-93,857	0,051	0,010
-372,044	553,473	0,065	0,112
-371,029	-88,462	0,153	-0,032
-370,015	-70,438	-0,015	-0,004
-369,000	196,904	-0,064	-0,070
-367,985	800,000	0,009	-0,024
-366,971	-13,099	0,061	-0,028
-365,956	-200,000	-0,020	0,068
-364,942	136,726	-0,041	-0,038
-363,927	-200,000	0,011	0,045
-362,912	-174,036	0,050	-0,001
-361,898	-200,000	-0,000	-0,017
-360,883	-200,000	-0,038	0,132
-359,869	-200,000	0,014	-0,046
-358,854	439,803	0,051	-0,081
-357,839	-200,000	0,008	0,072
-356,825	132,892	0,161	0,149
-355,810	-176,709	0,116	0,002
-354,796	93,317	-0,067	-0,054
-353,781	32,518	-0,103	-0,064
-352,766	32,205	-0,177	0,109
-351,752	-48,507	0,037	0,013
-350,737	45,152	0,050	-0,033
-349,723	800,000	0,032	0,096
-348,708	614,095	0,034	-0,061
-347,693	-68,751	0,062	-0,017
-346,679	25,535	-0,139	0,082
-345,664	92,763	-0,069	-0,056
-344,650	166,811	-0,100	0,102
-343,635	24,402	0,098	0,058
-342,620	793,706	0,036	-0,071
-341,606	800,000	-0,036	0,082
-340,591	-200,000	0,022	-0,094
-339,577	490,139	-0,031	-0,052
-338,562	135,443	0,073	0,068
-337,548	-133,992	-0,087	-0,008
-336,533	758,690	0,014	0,027
-335,518	90,936	0,119	0,096
-334,504	412,861	-0,077	0,118
-333,489	4,103	0,076	-0,040
-332,475	592,051	0,034	-0,060
-331,460	-87,368	-0,139	-0,030
-330,445	9,877	0,059	-0,032
-329,431	53,989	0,112	-0,077
-328,416	-54,693	-0,026	0,008
-327,402	800,000	-0,031	0,095
-326,387	800,000	-0,027	-0,056
-325,372	-200,000	-0,033	-0,143
-324,358	-94,861	-0,052	-0,010
-323,343	502,724	-0,087	0,144
-322,329	13,645	0,046	0,026
-321,314	512,609	0,045	-0,076
-320,299	145,003	0,159	0,152
-319,285	-83,605	0,164	0,037
-318,270	-135,119	-0,058	-0,005
-317,256	201,984	0,069	-0,076
-316,241	-144,667	0,066	0,004
-315,226	610,661	0,100	0,180
-314,212	548,421	-0,017	0,029
-313,197	210,975	0,049	0,055
-312,183	-47,547	-0,109	-0,038
-311,168	-200,000	-0,003	-0,023
-310,153	89,493	-0,010	0,008
-309,139	-200,000	-0,012	0,094
-308,124	169,529	0,099	0,102
-307,110	-91,952	0,057	0,011
-306,095	-12,285	0,007	0,003
-305,080	-78,680	0,114	0,028
-304,066	-78,769	0,076	-0,019
-303,051	-200,000	-0,006	-0,055
-302,037	-84,640	-0,097	0,022
-301,022	-156,882	-0,059	-0,003
-300,008	-86,946	0,128	-0,028
-298,993	-200,000	0,006	0,044
-297,978	-163,298	-0,073	-0,002
-296,964	567,386	-0,036	0,062
-295,949	-28,801	0,032	-0,013
-294,935	-158,653	-0,112	-0,005
-293,920	-200,000	-0,001	0,121
-292,905	28,772	0,025	-0,015
-291,891	5,059	0,073	-0,038
-290,876	202,774	0,095	0,105
-289,862	-80,129	-0,064	-0,015
-288,847	680,623	-0,104	-0,195
-287,832	49,937	-0,083	0,056
-286,818	42,960	-0,160	0,104
-285,803	41,745	0,057	0,037
-284,789	-97,117	-0,035	0,006
-283,774	316,097	-0,041	0,055
-282,759	149,085	-0,081	-0,078
-281,745	-166,807	-0,077	-0,002
-280,730	276,695	-0,039	-0,050
-279,716	-200,000	0,026	-0,140
-278,701	31,402	-0,063	0,039
-277,686	196,656	0,099	-0,108
-276,672	-46,051	0,052	-0,018
-275,657	50,015	-0,034	0,023
-274,643	117,968	0,038	0,033
-273,628	-88,756	-0,016	0,003
-272,613	-200,000	-0,026	-0,143
-271,599	39,361	0,123	-0,079
-270,584	800,000	-0,035	0,072
-269,570	-75,880	-0,075	0,019
-268,555	-165,067	0,068	-0,002
-267,540	800,000	0,041	-0,096
-266,526	-45,494	-0,246	0,087
-265,511	800,000	-0,045	-0,137
-264,497	800,000	0,013	-0,026
-263,482	-200,000	-0,011	0,050
-262,467	93,555	0,073	-0,059
-261,453	-143,693	0,038	-0,003
-260,438	-200,000	-0,017	0,057
-259,424	-200,000	0,018	-0,064
-258,409	-57,253	-0,089	0,028
-257,395	-200,000	0,008	-0,030
-256,380	-51,446	0,047	0,015
-255,365	-73,746	0,059	0,015
-254,351	32,112	-0,140	-0,086
-253,336	-200,000	0,080	-0,000
-252,322	156,359	0,066	0,065
-251,307	292,774	-0,035	0,046
-250,292	-109,020	-0,171	-0,026
-249,278	100,260	0,120	-0,100
-248,263	77,126	-0,016	0,012
-247,249	-19,706	0,101	-0,045
-246,234	57,767	-0,025	-0,017
-245,219	-37,944	-0,056	0,021
-244,205	-47,411	-0,113	-0,039
-243,190	169,536	-0,063	0,065
-242,176	124,290	-0,078	-0,070
-241,161	-200,000	0,011	0,047
-240,146	-36,482	0,154	0,059
-239,132	-200,000	-0,005	-0,019
-238,117	73,333	-0,067	-0,050
-237,103	-72,396	-0,092	0,024
-236,088	-6,620	-0,053	-0,026
-235,073	800,000	0,048	0,100
-234,059	-17,596	0,154	0,069
-233,044	-200,000	-0,014	0,103
-232,030	-200,000	-0,032	0,129
-231,015	89,093	-0,068	-0,054
-230,000	329,315	-0,054	-0,074
-228,986	800,000	-0,061	-0,123
-227,971	275,965	0,028	-0,036
-226,957	-200,000	-0,004	0,054
-225,942	-41,636	-0,108	0,039
-224,927	308,553	0,072	-0,096
-223,913	800,000	-0,039	-0,079
-222,898	10,202	-0,043	0,023
-221,884	-22,663	-0,080	-0,034
-220,869	-84,150	-0,061	-0,014
-219,855	98,075	0,110	-0,090
-218,840	272,471	0,083	0,105
-217,825	37,678	0,135	-0,086
-216,811	69,206	0,077	0,057
-215,796	51,638	-0,099	-0,067
-214,782	113,688	-0,031	0,027
-213,767	-200,000	-0,007	-0,028
-212,752	213,013	-0,091	0,102
-211,738	-200,000	0,019	0,162
-210,723	-3,114	-0,056	0,028
-209,709	166,430	0,078	-0,079
-208,694	48,045	-0,087	0,058
-207,679	32,435	-0,049	-0,030
-206,665	-134,787	0,136	0,012
-205,650	-143,458	-0,099	-0,007
-204,636	4,923	0,090	0,047
-203,621	86,884	0,051	0,040
-202,606	-101,466	-0,102	0,018
-201,592	75,935	-0,075	0,056
-200,577	-66,002	0,024	-0,007
-199,563	-200,000	0,024	0,269
-198,548	-66,888	0,147	0,041
-197,533	-200,000	-0,006	-0,084
-196,519	45,203	0,148	0,097
-195,504	-200,000	0,000	-0,047
-194,490	-200,000	0,048	-0,224
-193,475	-57,656	0,102	-0,032
-192,460	-64,756	-0,193	0,055
-191,446	275,856	0,051	-0,065
-190,431	-200,000	-0,004	0,058
-189,417	800,000	-0,035	-0,098
-188,402	25,412	0,115	-0,068
-187,387	800,000	-0,039	-0,098
-186,373	-200,000	-0,030	-0,159
-185,358	766,935	0,063	-0,123
-184,344	800,000	-0,008	0,021
-183,329	-98,636	0,082	0,015
-182,315	-40,830	0,048	-0,018
-181,300	-127,998	0,121	0,012
-180,285	280,266	-0,062	-0,080
-179,271	391,369	0,022	0,033
-178,256	800,000	0,072	-0,166
-177,242	-200,000	0,022	-0,072
-176,227	-81,496	-0,122	0,028
-175,212	142,924	0,060	0,057
-174,198	48,231	-0,141	-0,094
-173,183	16,735	-0,114	0,064
-172,169	277,712	-0,027	-0,034
-171,154	-106,548	0,057	-0,009
-170,139	182,889	-0,040	0,042
-169,125	78,703	0,048	0,037
-168,110	-2,512	0,059	0,029
-167,096	451,812	-0,028	0,044
-166,081	-200,000	0,005	-0,080
-165,066	611,883	-0,037	-0,067
-164,052	240,686	0,013	-0,016
-163,037	800,000	-0,024	-0,049
-162,023	35,391	0,074	0,046
-161,008	161,806	0,155	0,154
-159,993	-135,068	-0,139	-0,012
-158,979	800,000	-0,073	-0,155
-157,964	281,015	0,057	0,073
-156,950	-200,000	0,012	-0,040
-155,935	362,609	0,053	-0,075
-154,920	-144,469	0,138	-0,009
-153,906	-46,602	-0,052	-0,018
-152,891	-7,304	-0,116	0,056
-151,877	800,000	0,028	-0,070
-150,862	82,991	-0,153	-0,118
-149,847	800,000	-0,018	-0,049
-148,833	-200,000	0,011	-0,110
-147,818	-136,574	-0,074	-0,006
-146,804	-200,000	-0,003	0,017
-145,789	800,000	-0,036	-0,100
-144,775	-200,000	-0,017	0,064
-143,760	72,985	-0,074	0,055
-142,745	190,907	-0,088	0,094
-141,731	0,277	0,119	0,060
-140,716	-200,000	0,002	-0,074
-139,702	92,698	-0,078	-0,062
-138,687	135,878	0,092	-0,085
-137,672	800,000	-0,033	-0,076
-136,658	800,000	-0,051	-0,120
-135,643	262,387	0,154	-0,191
-134,629	34,135	0,081	0,050
-133,614	-33,323	0,059	0,023
-132,599	-58,539	0,048	-0,015
-131,585	800,000	-0,037	-0,110
-130,570	0,513	0,049	0,025
-129,556	-147,465	-0,142	-0,008
-128,541	200,030	-0,088	0,096
-127,526	-200,000	0,004	-0,125
-126,512	-108,854	-0,197	0,030
-125,497	-137,446	0,137	-0,011
-124,483	-103,557	-0,156	0,026
-123,468	80,013	0,094	0,072
-122,453	-61,571	-0,166	-0,049
-121,439	800,000	-0,022	0,059
-120,424	164,010	-0,019	0,019
-119,410	-87,097	0,120	-0,026
-118,395	-143,849	0,174	0,011
-117,380	-200,000	-0,006	0,070
-116,366	-58,100	-0,044	0,014
-115,351	15,677	-0,082	0,046
-114,337	356,777	-0,010	-0,014
-113,322	599,701	0,085	-0,150
-112,307	267,896	0,056	0,070
-111,293	-119,257	0,009	-0,001
-110,278	800,000	0,013	-0,029
-109,264	-200,000	-0,003	-0,138
-108,249	-8,047	0,015	0,007
-107,234	109,703	0,006	-0,005
-106,220	-200,000	0,025	-0,130
-105,205	-75,246	0,092	0,023
-104,191	-200,000	-0,025	0,081
-103,176	151,643	-0,080	0,078
-102,162	43,658	-0,084	-0,054
-101,147	800,000	0,023	-0,050
-100,132	321,727	-0,044	-0,059
-99,118	49,771	-0,085	-0,057
-98,103	170,769	0,054	-0,055
-97,089	726,537	0,064	-0,121
-96,074	184,096	0,032	0,034
-95,059	-200,000	0,032	0,104
-94,045	152,676	-0,071	0,069
-93,030	-157,180	-0,126	-0,005
-92,016	5,596	-0,087	-0,046
-91,001	170,096	-0,034	0,034
-89,986	236,023	-0,021	-0,024
-88,972	-200,000	0,006	0,099
-87,957	-200,000	-0,008	-0,051
-86,943	-200,000	0,028	-0,102
-85,928	338,144	0,030	-0,042
-84,913	256,123	-0,042	-0,051
-83,899	478,824	-0,077	0,124
-82,884	328,572	0,023	0,031
-81,870	-21,318	0,130	0,056
-80,855	-200,000	0,026	0,084
-79,840	-92,551	0,086	0,017
-78,826	800,000	0,021	-0,063
-77,811	36,360	-0,115	-0,072
-76,797	274,641	0,071	-0,089
-75,782	-58,531	-0,061	-0,019
-74,767	-6,388	0,061	0,029
-73,753	800,000	-0,012	0,030
-72,738	-148,398	0,035	-0,002
-71,724	188,374	-0,100	-0,106
-70,709	245,202	0,071	0,085
-69,694	161,481	-0,040	0,040
-68,680	800,000	0,033	-0,080
-67,665	137,065	0,077	-0,071
-66,651	723,498	0,019	-0,036
-65,636	-200,000	-0,038	0,123
-64,622	-58,953	-0,167	-0,051
-63,607	-50,299	-0,129	-0,043
-62,592	800,000	0,030	0,082
-61,578	-200,000	-0,005	-0,190
-60,563	-57,512	-0,040	0,012
-59,549	3,573	-0,030	0,016
-58,534	-33,716	-1,605	-0,624
-57,519	396,550	-1,407	-2,089
-56,505	-200,000	-0,512	-4,544
-55,490	230,417	1,058	1,228
-54,476	800,000	4,894	11,124
-53,461	-200,000	19,023	315,996
-52,446	-200,000	740,106	2331,555
-51,432	575,204	1656,058	2875,365
-50,417	78,897	1671,497	1266,015
-49,403	21,721	1544,326	888,480
-48,388	15,615	1466,675	814,103
-47,373	17,864	1457,036	819,597
-46,359	16,779	1446,925	808,666
-45,344	13,851	1442,258	791,991
-44,330	13,756	1440,400	790,487
-43,315	13,777	1438,471	789,496
-42,300	13,783	1437,072	788,728
-41,286	13,844	1435,493	788,120
-40,271	13,788	1434,225	787,127
-39,257	13,732	1433,131	786,225
-38,242	13,788	1431,823	785,744
-37,227	13,810	1430,680	785,189
-36,213	13,823	1429,334	784,482
-35,198	13,789	1428,314	783,729
-34,184	13,870	1427,120	783,426
-33,169	13,772	1425,914	782,269
-32,154	13,855	1424,807	782,024
-31,140	13,851	1423,581	781,301
-30,125	13,856	1422,429	780,662
-29,111	13,824	1421,459	779,948
-28,096	13,782	1420,260	779,060
-27,082	13,761	1419,000	778,242
-26,067	13,759	1417,975	777,638
-25,052	13,753	1416,895	776,987
-24,038	13,713	1416,018	776,284
-23,023	13,719	1415,008	775,728
-22,009	13,739	1413,933	775,204
-20,994	13,731	1413,157	774,712
-19,979	13,672	1412,261	773,909
-18,965	13,650	1411,506	773,364
-17,950	13,729	1410,312	773,047
-16,936	13,696	1409,282	772,299
-15,921	13,647	1408,398	771,555
-14,906	13,662	1407,338	771,014
-13,892	13,648	1406,535	770,476
-12,877	13,681	1405,560	770,065
-11,863	13,656	1404,616	769,402
-10,848	13,676	1403,675	768,947
-9,833	13,651	1402,755	768,300
-8,819	13,576	1402,143	767,582
-7,804	13,570	1401,022	766,912
-6,790	13,582	1399,801	766,269
-5,775	13,561	1398,912	765,655
-4,760	13,584	1398,018	765,241
-3,746	13,580	1397,077	764,678
-2,731	13,577	1396,309	764,210
-1,717	13,541	1395,435	763,536
-0,702	13,519	1393,744	762,479
0,313	17,228	1311,208	734,569
1,327	33,289	705,029	432,175
2,342	50,842	123,663	82,791
3,356	3,811	16,647	8,579
4,371	-1,294	3,253	1,620
5,386	-111,458	0,621	0,089
6,400	-200,000	0,002	0,290
7,415	-88,013	-0,241	-0,051
8,429	35,708	-0,296	-0,184
9,444	21,023	-0,360	-0,206
10,459	130,115	-0,284	-0,257
11,473	64,094	-0,333	-0,236
12,488	-20,009	-0,320	-0,139
13,502	-73,737	-0,443	-0,113
14,517	271,105	-0,216	-0,270
15,531	236,103	-0,292	-0,342
16,546	67,951	-0,377	-0,272
17,561	79,913	-0,379	-0,288
18,575	-31,855	-0,242	-0,095
19,590	767,308	-0,104	-0,202
20,604	52,083	-0,247	-0,166
21,619	76,879	-0,359	-0,269
22,634	58,960	-0,559	-0,388
23,648	133,680	-0,338	-0,309
24,663	32,181	-0,517	-0,315
25,677	33,625	-0,283	-0,173
26,692	74,910	-0,317	-0,235
27,707	6,470	-0,421	-0,220
28,721	111,104	-0,390	-0,332
29,736	79,270	-0,386	-0,292
30,750	359,107	-0,248	-0,351
31,765	99,856	-0,388	-0,317
32,780	135,632	-0,236	-0,217
33,794	6,930	-0,321	-0,168
34,809	48,166	-0,322	-0,212
35,823	14,600	-0,422	-0,232
36,838	80,440	-0,370	-0,281
37,853	45,202	-0,472	-0,306
38,867	64,520	-0,345	-0,245
39,882	123,072	-0,392	-0,347
40,896	195,169	-0,300	-0,321
41,911	229,842	-0,233	-0,269
42,926	66,538	-0,288	-0,206
43,940	5,786	-0,398	-0,207
44,955	208,271	-0,275	-0,304
45,969	250,934	-0,254	-0,305
46,984	8,526	-0,352	-0,186
47,999	50,832	-0,303	-0,202
49,013	-13,466	-0,355	-0,162
50,028	1,126	-0,267	-0,135
51,042	170,571	-0,289	-0,292
52,057	-21,570	-0,383	-0,164
53,071	17,593	-0,371	-0,208
54,086	20,630	-0,265	-0,151
55,101	118,658	-0,218	-0,189
56,115	102,598	-0,333	-0,274
57,130	191,908	-0,219	-0,233
58,144	37,375	-0,406	-0,253
59,159	56,013	-0,375	-0,256
60,174	139,787	-0,296	-0,275
61,188	94,572	-0,336	-0,268
62,203	86,660	-0,352	-0,273
63,217	78,563	-0,237	-0,178
64,232	-6,992	-0,357	-0,170
65,247	20,948	-0,314	-0,179
66,261	-22,508	-0,396	-0,168
67,276	-33,043	-0,523	-0,203
68,290	41,179	-0,322	-0,205
69,305	-20,650	-0,397	-0,171
70,320	7,067	-0,260	-0,136
71,334	571,342	-0,166	-0,285
72,349	64,711	-0,209	-0,148
73,363	-9,088	-0,313	-0,147
74,378	2,012	-0,399	-0,202
75,393	90,623	-0,199	-0,157
76,407	3,760	-0,389	-0,199
77,422	56,310	-0,343	-0,234
78,436	27,992	-0,315	-0,186
79,451	205,443	-0,263	-0,288
80,466	57,205	-0,370	-0,253
81,480	79,154	-0,253	-0,190
82,495	-14,061	-0,376	-0,170
83,509	-49,101	-0,391	-0,131
84,524	-80,704	-0,301	-0,070
85,539	-39,098	-0,439	-0,161
86,553	264,184	-0,244	-0,299
87,568	112,898	-0,332	-0,283
88,582	170,614	-0,226	-0,227
89,597	39,289	-0,241	-0,151
90,611	63,678	-0,371	-0,261
91,626	227,428	-0,235	-0,268
92,641	65,455	-0,313	-0,222
93,655	77,974	-0,291	-0,218
94,670	176,296	-0,293	-0,299
95,684	83,377	-0,225	-0,172
96,699	-63,411	-0,273	-0,078
97,714	241,098	-0,167	-0,196
98,728	70,999	-0,335	-0,243
99,743	241,694	-0,302	-0,354
100,757	-3,455	-0,267	-0,130
101,772	231,829	-0,232	-0,268
102,787	76,974	-0,306	-0,228
103,801	65,787	-0,307	-0,218
104,816	59,395	-0,127	-0,088
105,830	290,285	-0,223	-0,285
106,845	82,220	-0,062	-0,047
107,860	157,133	-0,272	-0,264
108,874	86,076	-0,314	-0,242
109,889	-15,399	-0,308	-0,137
110,903	40,833	-0,326	-0,206
111,918	160,040	-0,153	-0,150
112,933	58,184	-0,301	-0,206
113,947	16,881	-0,309	-0,171
114,962	101,584	-0,222	-0,182
115,976	12,246	-0,204	-0,110
116,991	118,304	-0,268	-0,231
118,006	115,205	-0,212	-0,181
119,020	82,290	-0,317	-0,241
120,035	491,432	-0,123	-0,198
121,049	-7,017	-0,207	-0,098
122,064	-57,839	-0,241	-0,073
123,079	-10,786	-0,304	-0,140
124,093	-28,005	-0,302	-0,122
125,108	78,429	-0,163	-0,122
126,122	-10,033	-0,345	-0,160
127,137	56,667	-0,257	-0,175
128,151	-56,034	-0,195	-0,060
129,166	75,049	-0,288	-0,213
130,181	409,292	-0,122	-0,182
131,195	54,549	-0,336	-0,226
132,210	127,255	-0,382	-0,339
133,224	-59,917	-0,360	-0,107
134,239	-84,710	-0,285	-0,062
135,254	-198,370	-0,214	-0,001
136,268	9,241	-0,220	-0,116
137,283	27,329	-0,185	-0,108
138,297	42,389	-0,287	-0,182
139,312	112,750	-0,272	-0,230
140,327	155,882	-0,267	-0,258
141,341	-6,628	-0,234	-0,111
142,356	-156,281	-0,217	-0,009
143,370	-25,019	-0,228	-0,094
144,385	327,168	-0,183	-0,246
145,400	51,937	-0,187	-0,124
146,414	178,196	-0,256	-0,262
147,429	146,157	-0,327	-0,306
148,443	60,580	-0,346	-0,239
149,458	-103,391	-0,131	-0,021
150,473	-52,022	-0,158	-0,051
151,487	28,284	-0,270	-0,159
152,502	800,000	-0,106	-0,209
153,516	159,463	-0,219	-0,213
154,531	261,980	-0,220	-0,266
155,546	184,346	-0,161	-0,167
156,560	149,745	-0,179	-0,170
157,575	800,000	-0,086	-0,218
158,589	111,924	-0,137	-0,115
159,604	151,966	-0,274	-0,261
160,619	203,824	-0,225	-0,243
161,633	39,154	-0,386	-0,241
162,648	-160,769	-0,201	0,007
163,662	-91,170	-0,262	-0,052
164,677	-100,589	-0,171	-0,029
165,692	-45,847	-0,108	0,037
166,706	-45,510	-0,182	-0,063
167,721	-77,348	-0,204	-0,049
168,735	360,498	-0,235	-0,329
169,750	96,781	-0,228	-0,182
170,764	-200,000	-0,046	-0,226
171,779	537,269	-0,045	-0,075
172,794	241,033	-0,271	-0,316
173,808	115,725	-0,283	-0,241
174,823	57,654	-0,185	-0,126
175,837	192,310	-0,272	-0,287
176,852	134,315	-0,238	-0,215
177,867	53,628	-0,140	-0,094
178,881	140,660	-0,187	-0,172
179,896	194,949	-0,186	-0,197
180,910	348,848	-0,195	-0,268
181,925	800,000	-0,095	-0,197
182,940	-77,384	-0,299	-0,072
183,954	-94,834	-0,329	-0,062
184,969	180,099	-0,133	-0,136
185,983	-156,554	-0,224	0,010
186,998	69,769	-0,253	-0,182
188,013	-84,213	-0,206	-0,045
189,027	174,603	-0,149	-0,151
190,042	53,205	-0,142	0,095
191,056	415,623	-0,128	-0,191
192,071	-13,519	-0,214	-0,096
193,086	-111,372	-0,127	0,018
194,100	-154,951	-0,093	-0,004
195,115	-16,739	-0,201	-0,088
196,129	-88,887	-0,270	-0,055
197,144	45,079	-0,306	-0,196
198,159	720,849	-0,107	-0,199
199,173	-200,000	-0,043	-0,225
200,188	800,000	-0,126	-0,268
201,202	-31,152	-0,186	0,073
202,217	54,378	-0,227	-0,152
203,232	113,607	-0,270	-0,228
204,246	-53,435	-0,278	-0,088
205,261	-80,523	-0,280	-0,064
206,275	2,583	-0,232	-0,116
207,290	-1,753	-0,124	-0,061
208,304	69,223	-0,278	-0,199
209,319	-4,040	-0,271	-0,130
210,334	-52,475	-0,170	-0,054
211,348	-177,763	-0,227	0,004
212,363	54,075	-0,245	-0,164
213,377	-77,330	-0,248	-0,060
214,392	800,000	-0,079	-0,183
215,407	228,219	-0,205	-0,233
216,421	36,425	-0,260	-0,159
217,436	-97,240	-0,228	-0,041
218,450	13,834	-0,291	-0,157
219,465	12,591	-0,310	-0,166
220,480	-115,073	-0,288	-0,038
221,494	-111,725	-0,185	-0,026
222,509	-108,360	-0,257	0,038
223,523	-200,000	-0,012	-0,157
224,538	-136,163	-0,160	-0,013
225,553	4,413	-0,290	-0,147
226,567	13,003	-0,259	-0,138
227,582	102,303	-0,142	-0,115
228,596	503,220	-0,152	-0,245
229,611	-147,645	-0,234	-0,013
230,626	98,100	-0,189	-0,151
231,640	-142,988	-0,104	-0,007
232,655	106,512	-0,202	-0,166
233,669	-62,665	-0,234	-0,067
234,684	-3,642	-0,188	-0,090
235,699	61,400	-0,256	-0,177
236,713	-200,000	-0,013	-0,236
237,728	-34,124	-0,162	-0,061
238,742	249,664	-0,084	-0,100
239,757	-33,680	-0,333	-0,127
240,772	-51,687	-0,248	-0,080
241,786	157,597	-0,234	-0,225
242,801	344,255	-0,115	-0,156
243,815	-99,216	-0,166	-0,029
244,830	178,968	-0,154	-0,157
245,844	348,151	-0,122	-0,167
246,859	194,549	-0,249	-0,262
247,874	237,616	-0,191	-0,219
248,888	152,939	-0,181	-0,171
249,903	535,149	-0,118	-0,194
250,917	-51,660	-0,132	-0,042
251,932	-10,679	-0,214	-0,098
252,947	-27,030	-0,218	-0,088
253,961	411,365	-0,177	-0,261
254,976	303,513	-0,190	-0,244
255,990	275,073	-0,235	-0,289
257,005	-55,343	-0,019	-0,006
258,020	103,513	-0,083	-0,067
259,034	-98,448	-0,144	-0,025
260,049	-155,570	-0,061	-0,003
261,063	128,702	-0,297	-0,262
262,078	46,952	-0,200	-0,129
263,093	221,143	-0,123	-0,137
264,107	-52,641	-0,242	-0,077
265,122	-200,000	-0,040	-0,169
266,136	-26,424	-0,147	-0,059
267,151	344,395	-0,081	-0,110
268,166	19,056	-0,177	-0,098
269,180	-9,404	-0,180	-0,083
270,195	-21,351	-0,213	-0,089
271,209	10,036	-0,180	-0,094
272,224	164,587	-0,176	-0,172
273,239	-2,331	-0,040	-0,019
274,253	-52,819	-0,064	-0,020
275,268	252,214	-0,103	-0,122
276,282	195,621	-0,149	-0,157
277,297	135,244	-0,118	-0,106
278,312	488,459	-0,104	-0,164
279,326	-109,676	-0,178	-0,026
280,341	40,082	-0,193	-0,120
281,355	447,304	-0,115	-0,175
282,370	235,728	-0,069	-0,079
283,384	120,788	-0,206	-0,177
284,399	590,950	-0,138	-0,237
285,414	135,509	-0,150	-0,135
286,428	67,225	-0,176	-0,124
287,443	463,591	-0,121	-0,187
288,457	-13,912	-0,131	-0,058
289,472	-142,691	-0,247	-0,016
290,487	-110,726	-0,161	-0,023
291,501	-62,991	-0,211	-0,060
292,516	258,155	-0,110	-0,130
293,530	-38,166	-0,214	-0,078
294,545	289,149	-0,107	-0,134
295,560	116,468	-0,112	-0,095
296,574	0,240	-0,103	-0,050
297,589	-112,091	-0,118	-0,016
298,603	-22,133	-0,197	-0,082
299,618	238,882	-0,152	-0,174
300,633	223,828	-0,158	-0,177
301,647	800,000	-0,046	-0,118
302,662	162,352	-0,095	-0,092
303,676	329,841	-0,111	-0,148
304,691	-117,203	-0,066	0,008
305,706	-73,857	-0,209	-0,052
306,720	85,414	-0,145	-0,110
307,735	28,188	-0,269	-0,156
308,749	20,348	-0,090	-0,050
309,764	18,041	-0,076	-0,041
310,779	74,805	-0,229	-0,166
311,793	192,484	-0,125	-0,130
312,808	16,797	-0,075	-0,041
313,822	-72,152	-0,280	-0,071
314,837	778,256	-0,159	-0,302
315,852	-14,933	-0,070	-0,031
316,866	161,002	-0,092	-0,088
317,881	-95,383	-0,182	-0,033
318,895	122,814	-0,189	-0,163
319,910	604,434	-0,063	-0,108
320,925	285,733	-0,143	-0,178
321,939	-85,856	-0,244	-0,052
322,954	271,726	-0,105	-0,127
323,968	-2,836	-0,124	-0,059
324,983	-72,259	-0,247	-0,062
325,997	439,505	-0,068	-0,103
327,012	491,051	-0,093	-0,147
328,027	-200,000	-0,019	-0,085
329,041	-22,700	-0,220	-0,091
330,056	-200,000	0,003	-0,185
331,070	97,576	-0,204	-0,161
332,085	37,846	-0,095	-0,058
333,100	89,690	-0,115	0,088
334,114	800,000	-0,082	-0,190
335,129	3,894	-0,134	-0,067
336,143	-48,647	-0,099	-0,032
337,158	30,886	-0,155	-0,091
338,173	-150,149	-0,160	-0,008
339,187	-200,000	0,001	-0,157
340,202	-200,000	-0,000	-0,202
341,216	472,322	-0,153	-0,238
342,231	544,180	-0,107	-0,176
343,246	-13,692	-0,158	-0,070
344,260	96,353	-0,103	-0,081
345,275	-200,000	0,009	-0,044
346,289	-79,861	-0,091	0,021
347,304	-85,709	-0,184	-0,039
348,319	-90,019	-0,201	-0,040
349,333	729,412	-0,073	-0,134
350,348	171,638	-0,182	-0,180
351,362	278,547	-0,135	-0,165
352,377	52,061	-0,187	-0,122
353,392	34,225	-0,151	-0,090
354,406	200,546	-0,143	-0,152
355,421	208,364	1315,450	1413,288
356,435	160,322	1476,273	1413,788
