DTS Sentinel unit serial number:	SN410029Multiplexer serial number:	ORYXHardware model number:	OX2-SRSoftware version number:	ORYX F/W v4,00 Oryx Data Collector v3.7.2.0data status	okinstallation	B3 Nyhavnadifferential loss correction	single-endedforward channel	channel 1reverse channel	N/Adate	2023/12/05time	01:12:30forward acquisition time	300,00reverse acquisition time	0,00gamma	499,1914k internal	0,3201k external	0,3201temperature offset calibration	1,0000default loss term (dB/km)	0,3820temperature slope calibration	1,0000multiplexer offset coefficient	1,0000multiplexer slope coefficient	1,0000fibre end	0,00T internal ref (°C)	13,81T ext. ref 1 (°C)	-1,03T ext. ref 2 (°C)	-1,06length (m)	temperature (°C)	Stokes	anti-Stokes-744,400	667,559	-0,123	-0,233
-743,385	-200,000	0,022	0,339
-742,371	580,730	-0,141	-0,253
-741,356	800,000	0,155	0,406
-740,342	54,133	-0,121	-0,084
-739,327	-200,000	0,046	0,227
-738,312	142,190	-0,235	-0,227
-737,298	-200,000	-0,097	0,407
-736,283	800,000	-0,092	-0,262
-735,269	-200,000	0,052	0,299
-734,254	403,111	-0,203	-0,312
-733,239	103,247	-0,163	0,139
-732,225	800,000	-0,129	-0,301
-731,210	-39,656	0,126	0,048
-730,196	-59,898	-0,063	-0,019
-729,181	26,968	-0,085	-0,052
-728,167	-200,000	0,003	-0,026
-727,152	373,990	-0,067	0,099
-726,137	378,386	-0,089	-0,133
-725,123	-57,407	0,046	-0,015
-724,108	-52,598	-0,109	-0,037
-723,094	-200,000	-0,032	-0,165
-722,079	408,843	0,042	0,065
-721,064	111,991	0,031	0,027
-720,050	52,434	-0,049	-0,034
-719,035	-200,000	-0,054	-0,173
-718,021	261,706	-0,148	-0,187
-717,006	262,792	-0,083	-0,105
-715,991	46,058	-0,179	-0,120
-714,977	140,047	-0,050	-0,048
-713,962	21,931	0,052	-0,031
-712,948	36,157	0,120	0,077
-711,933	-132,563	-0,078	-0,007
-710,918	151,954	0,069	-0,069
-709,904	-169,728	-0,065	-0,002
-708,889	244,443	0,042	-0,051
-707,875	-44,203	-0,106	-0,038
-706,860	13,699	0,029	-0,016
-705,845	-29,402	-0,032	-0,013
-704,831	-35,213	-0,058	-0,023
-703,816	-200,000	0,006	-0,042
-702,802	118,788	0,037	-0,034
-701,787	800,000	-0,027	-0,079
-700,772	-98,652	-0,091	0,017
-699,758	368,678	-0,026	0,039
-698,743	165,501	-0,117	-0,121
-697,729	44,148	-0,087	-0,058
-696,714	-40,067	0,108	-0,041
-695,699	220,194	0,106	-0,123
-694,685	284,041	-0,030	-0,039
-693,670	139,866	0,035	-0,033
-692,656	156,408	0,017	-0,017
-691,641	75,960	0,082	0,063
-690,627	348,151	-0,065	0,093
-689,612	31,748	-0,043	-0,027
-688,597	50,846	-0,055	0,038
-687,583	5,101	0,103	0,055
-686,568	146,891	0,044	-0,043
-685,554	232,972	-0,077	0,092
-684,539	-125,224	0,098	-0,011
-683,524	521,047	-0,047	0,080
-682,510	592,470	-0,031	-0,055
-681,495	384,039	-0,059	0,088
-680,481	-46,243	-0,008	-0,003
-679,466	-200,000	-0,011	-0,084
-678,451	-200,000	-0,012	-0,058
-677,437	-11,616	0,070	-0,033
-676,422	-96,747	0,010	-0,002
-675,408	93,286	0,105	0,086
-674,393	191,776	-0,070	0,077
-673,378	220,019	0,036	-0,042
-672,364	-200,000	-0,038	-0,159
-671,349	227,783	0,046	-0,054
-670,335	800,000	-0,037	0,115
-669,320	-135,409	0,061	-0,005
-668,305	8,136	0,089	0,048
-667,291	16,241	0,094	-0,053
-666,276	-137,007	-0,117	0,010
-665,262	-51,735	-0,071	0,024
-664,247	800,000	-0,020	-0,059
-663,232	-200,000	-0,013	-0,098
-662,218	50,655	0,015	0,010
-661,203	-200,000	0,003	0,049
-660,189	-46,627	-0,106	0,038
-659,174	-25,270	-0,058	0,025
-658,159	-200,000	0,003	-0,068
-657,145	800,000	-0,074	0,170
-656,130	-200,000	-0,005	0,023
-655,116	38,772	0,070	-0,045
-654,101	635,843	-0,051	-0,095
-653,086	97,069	-0,032	0,027
-652,072	-200,000	-0,002	-0,033
-651,057	800,000	-0,079	-0,162
-650,043	569,316	-0,039	-0,069
-649,028	-200,000	0,017	0,062
-648,014	800,000	0,041	0,088
-646,999	-5,306	-0,073	-0,036
-645,984	-122,408	-0,103	0,012
-644,970	-200,000	-0,000	0,060
-643,955	-24,620	-0,065	-0,028
-642,941	194,470	0,063	-0,069
-641,926	64,012	-0,045	-0,033
-640,911	-53,983	-0,112	-0,037
-639,897	-37,301	-0,063	0,024
-638,882	-119,274	-0,103	-0,013
-637,868	-139,004	0,032	-0,002
-636,853	-123,322	-0,176	-0,020
-635,838	-200,000	0,017	-0,079
-634,824	-200,000	0,009	0,051
-633,809	8,949	0,066	-0,036
-632,795	-198,739	-0,093	-0,000
-631,780	-200,000	-0,009	-0,180
-630,765	775,656	0,041	-0,081
-629,751	5,657	-0,023	-0,012
-628,736	371,737	-0,096	-0,142
-627,722	800,000	-0,049	-0,106
-626,707	800,000	-0,028	0,071
-625,692	-34,575	-0,104	-0,041
-624,678	19,385	-0,049	0,029
-623,663	800,000	0,057	0,133
-622,649	331,083	-0,047	-0,066
-621,634	-200,000	0,002	-0,132
-620,619	244,469	-0,062	-0,076
-619,605	510,368	-0,046	-0,077
-618,590	-42,804	0,093	0,034
-617,576	-200,000	0,022	-0,104
-616,561	-126,866	-0,127	0,013
-615,546	70,993	-0,065	0,049
-614,532	54,215	0,056	0,039
-613,517	-200,000	-0,120	0,000
-612,503	-105,505	0,063	-0,010
-611,488	-168,432	0,034	-0,001
-610,474	84,063	0,064	-0,051
-609,459	-126,668	0,069	-0,007
-608,444	-32,931	-0,083	0,033
-607,430	126,322	-0,099	-0,090
-606,415	-34,500	0,086	0,034
-605,401	800,000	0,010	0,021
-604,386	-35,444	-0,013	0,005
-603,371	-200,000	-0,017	0,085
-602,357	150,596	0,147	0,144
-601,342	-118,709	-0,091	-0,012
-600,328	102,425	-0,133	-0,112
-599,313	-200,000	-0,001	-0,047
-598,298	-165,070	-0,153	0,005
-597,284	800,000	0,070	0,150
-596,269	686,026	0,044	0,084
-595,255	-19,028	0,045	0,020
-594,240	129,636	-0,115	-0,107
-593,225	111,767	-0,067	0,059
-592,211	242,701	-0,022	-0,026
-591,196	800,000	-0,026	-0,058
-590,182	691,035	0,053	0,100
-589,167	31,545	0,052	-0,032
-588,152	800,000	-0,018	-0,038
-587,138	-109,356	-0,124	-0,019
-586,123	800,000	-0,032	-0,082
-585,109	-174,568	0,046	-0,001
-584,094	146,469	-0,065	0,063
-583,079	125,715	0,068	0,062
-582,065	-200,000	0,008	-0,049
-581,050	-71,036	-0,101	0,027
-580,036	413,023	0,094	0,145
-579,021	83,806	-0,060	-0,047
-578,006	-200,000	-0,019	-0,180
-576,992	161,311	-0,112	-0,114
-575,977	-115,279	-0,036	-0,005
-574,963	73,129	-0,154	0,116
-573,948	-200,000	-0,012	-0,051
-572,934	-200,000	0,030	-0,146
-571,919	-178,725	-0,143	-0,002
-570,904	-139,400	-0,162	0,012
-569,890	-200,000	-0,003	-0,037
-568,875	281,637	0,075	0,098
-567,861	87,157	0,125	-0,100
-566,846	-200,000	-0,019	0,063
-565,831	-200,000	0,011	0,055
-564,817	-93,973	0,119	0,023
-563,802	-122,354	-0,069	-0,008
-562,788	-37,933	-0,077	-0,029
-561,773	3,941	-0,055	-0,029
-560,758	800,000	-0,037	0,107
-559,744	-200,000	-0,016	-0,066
-558,729	-200,000	-0,022	-0,105
-557,715	-200,000	-0,047	-0,159
-556,700	36,605	-0,078	0,049
-555,685	-200,000	-0,027	-0,198
-554,671	21,443	0,040	-0,023
-553,656	395,008	0,101	-0,152
-552,642	800,000	-0,036	0,073
-551,627	-200,000	0,014	-0,150
-550,612	-66,770	0,102	0,029
-549,598	800,000	0,038	-0,096
-548,583	-82,187	-0,158	-0,037
-547,569	1,277	0,152	-0,078
-546,554	-4,919	0,153	0,076
-545,539	-200,000	-0,023	0,165
-544,525	243,435	0,091	0,110
-543,510	-166,167	-0,070	-0,002
-542,496	-129,963	0,090	0,009
-541,481	800,000	0,063	-0,151
-540,466	-200,000	0,024	-0,126
-539,452	0,661	0,079	-0,041
-538,437	-200,000	-0,000	-0,061
-537,423	-200,000	0,008	-0,105
-536,408	49,205	-0,046	-0,031
-535,393	-85,820	-0,062	-0,014
-534,379	198,709	-0,078	0,086
-533,364	-24,921	-0,020	-0,008
-532,350	-41,003	0,035	-0,013
-531,335	361,775	-0,041	0,059
-530,321	-200,000	0,001	0,088
-529,306	65,631	-0,070	-0,051
-528,291	-200,000	0,014	0,063
-527,277	-140,129	0,115	0,009
-526,262	-200,000	0,003	0,032
-525,248	774,471	-0,066	0,131
-524,233	-200,000	-0,002	0,115
-523,218	-200,000	-0,006	0,078
-522,204	209,808	0,030	-0,035
-521,189	-3,547	-0,020	-0,010
-520,175	-133,648	0,146	0,013
-519,160	-12,507	-0,087	-0,041
-518,145	-200,000	0,004	-0,081
-517,131	800,000	0,072	-0,183
-516,116	282,180	-0,020	-0,026
-515,102	250,341	0,108	-0,133
-514,087	-132,185	0,019	-0,002
-513,072	412,645	-0,054	-0,084
-512,058	-116,392	-0,188	0,025
-511,043	-110,479	0,104	0,015
-510,029	-86,583	0,156	-0,034
-509,014	-200,000	-0,004	-0,088
-507,999	-200,000	0,007	0,068
-506,985	800,000	0,048	-0,097
-505,970	800,000	0,030	-0,065
-504,956	-200,000	0,017	-0,063
-503,941	414,412	0,070	0,108
-502,926	-71,228	0,088	0,024
-501,912	72,797	0,121	0,091
-500,897	500,816	0,055	0,092
-499,883	-200,000	0,006	-0,107
-498,868	-27,963	-0,037	-0,015
-497,853	-200,000	-0,007	-0,081
-496,839	800,000	0,046	-0,098
-495,824	800,000	-0,027	0,060
-494,810	-5,482	0,095	0,047
-493,795	-200,000	0,015	0,047
-492,781	-160,245	-0,160	0,006
-491,766	780,127	0,005	0,011
-490,751	-132,630	0,127	-0,012
-489,737	191,278	0,062	-0,068
-488,722	645,205	0,090	0,166
-487,708	16,491	0,089	0,050
-486,693	-200,000	-0,006	0,078
-485,678	-123,557	-0,030	-0,003
-484,664	447,941	-0,045	-0,071
-483,649	79,284	0,009	-0,007
-482,635	-200,000	0,035	-0,115
-481,620	171,544	0,107	0,110
-480,605	-16,646	0,095	-0,043
-479,591	666,183	-0,016	-0,031
-478,576	-200,000	-0,027	-0,156
-477,562	148,263	-0,172	-0,167
-476,547	-2,153	0,123	-0,062
-475,532	-92,568	0,054	0,011
-474,518	-31,066	0,155	-0,063
-473,503	345,387	-0,014	0,019
-472,489	25,583	0,043	-0,026
-471,474	383,581	-0,054	-0,081
-470,459	-200,000	0,012	-0,062
-469,445	800,000	0,047	-0,148
-468,430	-200,000	-0,010	-0,145
-467,416	-105,441	0,055	-0,009
-466,401	-7,326	0,023	0,011
-465,386	-200,000	0,019	-0,062
-464,372	313,549	-0,034	0,046
-463,357	800,000	-0,012	-0,029
-462,343	589,382	-0,032	0,058
-461,328	-68,051	0,068	0,019
-460,313	800,000	0,024	0,058
-459,299	576,501	-0,090	0,158
-458,284	133,229	0,147	0,137
-457,270	-200,000	-0,012	-0,083
-456,255	-200,000	-0,003	0,010
-455,241	95,582	-0,063	-0,052
-454,226	194,094	-0,049	-0,054
-453,211	-200,000	0,008	0,073
-452,197	-200,000	-0,006	0,033
-451,182	107,648	-0,028	0,024
-450,168	-200,000	0,003	-0,061
-449,153	161,466	0,099	0,100
-448,138	-172,309	-0,088	-0,002
-447,124	40,065	0,084	-0,054
-446,109	800,000	0,008	-0,021
-445,095	-200,000	-0,027	-0,115
-444,080	100,161	0,078	0,065
-443,065	800,000	0,066	0,141
-442,051	-200,000	-0,011	0,040
-441,036	74,251	-0,095	-0,071
-440,022	406,902	0,055	0,083
-439,007	311,518	-0,126	0,170
-437,992	-129,053	0,108	0,011
-436,978	-84,624	0,073	0,016
-435,963	20,579	0,019	-0,011
-434,949	104,497	-0,141	0,120
-433,934	654,556	0,059	-0,109
-432,919	54,456	-0,072	0,050
-431,905	99,620	0,071	0,059
-430,890	66,171	0,083	0,061
-429,876	-200,000	-0,025	0,127
-428,861	-81,723	0,151	0,035
-427,846	-200,000	0,022	-0,111
-426,832	25,433	-0,090	0,054
-425,817	496,030	-0,039	-0,065
-424,803	145,140	-0,091	-0,087
-423,788	-44,549	0,096	-0,034
-422,773	-19,575	-0,060	-0,027
-421,759	77,630	0,108	0,082
-420,744	-200,000	-0,027	0,171
-419,730	-136,415	-0,121	0,010
-418,715	-200,000	0,001	0,077
-417,701	800,000	-0,047	-0,097
-416,686	52,655	0,023	0,016
-415,671	236,420	-0,025	-0,029
-414,657	-200,000	0,007	-0,072
-413,642	95,538	0,102	0,084
-412,628	-99,103	-0,065	0,012
-411,613	732,291	-0,057	-0,110
-410,598	-0,582	-0,152	0,077
-409,584	212,636	-0,053	0,060
-408,569	-200,000	0,006	0,025
-407,555	800,000	-0,016	0,041
-406,540	-126,382	-0,047	-0,005
-405,525	424,560	-0,004	-0,006
-404,511	800,000	-0,057	-0,124
-403,496	-200,000	-0,021	0,112
-402,482	800,000	0,051	0,108
-401,467	19,064	0,032	-0,019
-400,452	-68,438	-0,161	0,045
-399,438	-200,000	-0,021	0,137
-398,423	-64,750	0,065	-0,019
-397,409	-94,131	-0,042	-0,008
-396,394	-200,000	0,002	-0,011
-395,379	760,835	0,093	0,182
-394,365	-200,000	0,029	-0,113
-393,350	78,481	0,010	0,008
-392,336	144,309	0,098	0,094
-391,321	203,812	-0,101	0,112
-390,306	-200,000	-0,047	-0,211
-389,292	64,289	0,052	-0,038
-388,277	-200,000	0,028	-0,215
-387,263	24,463	-0,049	-0,029
-386,248	328,792	-0,023	-0,032
-385,233	-96,227	-0,033	0,006
-384,219	242,156	0,084	-0,101
-383,204	54,213	-0,133	-0,092
-382,190	-20,522	0,099	-0,043
-381,175	55,850	0,164	-0,114
-380,160	-200,000	-0,019	0,159
-379,146	-31,946	0,116	-0,046
-378,131	134,072	0,077	-0,072
-377,117	-34,043	-0,142	0,056
-376,102	181,384	-0,046	-0,049
-375,088	26,352	0,035	0,021
-374,073	629,726	-0,086	-0,156
-373,058	-66,548	0,102	0,029
-372,044	-87,451	0,032	-0,007
-371,029	281,093	-0,118	0,152
-370,015	188,120	0,188	-0,202
-369,000	-200,000	-0,001	-0,032
-367,985	160,480	0,050	-0,050
-366,971	52,130	0,085	0,058
-365,956	-140,088	-0,028	0,002
-364,942	-29,115	0,056	0,023
-363,927	-200,000	0,134	-0,000
-362,912	800,000	-0,089	-0,214
-361,898	-200,000	0,004	-0,215
-360,883	-99,558	-0,056	-0,010
-359,869	-200,000	-0,017	-0,180
-358,854	-200,000	0,002	0,032
-357,839	67,247	0,104	-0,076
-356,825	627,078	-0,022	0,040
-355,810	44,398	-0,130	-0,086
-354,796	800,000	-0,040	-0,084
-353,781	310,861	-0,067	-0,090
-352,766	-200,000	-0,006	-0,106
-351,752	-11,908	0,077	-0,036
-350,737	-200,000	-0,015	0,066
-349,723	-79,061	0,108	-0,026
-348,708	-48,627	-0,089	0,030
-347,693	128,251	-0,064	-0,058
-346,679	-39,137	-0,110	0,041
-345,664	-97,572	0,066	0,012
-344,650	-7,918	-0,039	0,019
-343,635	736,698	0,030	-0,058
-342,620	-26,229	-0,047	0,020
-341,606	-200,000	-0,004	0,096
-340,591	-71,845	0,044	-0,012
-339,577	-200,000	0,013	0,087
-338,562	-93,793	-0,033	-0,007
-337,548	282,039	-0,088	0,113
-336,533	-158,335	-0,099	-0,004
-335,518	800,000	-0,055	0,110
-334,504	100,369	0,079	0,066
-333,489	-82,331	0,119	-0,027
-332,475	156,253	0,091	-0,090
-331,460	15,829	-0,124	-0,069
-330,445	-61,923	-0,153	-0,045
-329,431	-21,492	0,130	0,057
-328,416	-118,058	0,084	0,011
-327,402	422,228	0,032	-0,050
-326,387	-14,272	0,010	-0,005
-325,372	800,000	-0,042	-0,103
-324,358	800,000	0,051	-0,129
-323,343	800,000	-0,029	0,077
-322,329	-200,000	-0,016	-0,135
-321,314	-77,223	-0,012	0,003
-320,299	-200,000	-0,010	-0,045
-319,285	94,562	0,129	-0,105
-318,270	374,893	0,035	0,051
-317,256	800,000	-0,023	-0,069
-316,241	147,624	-0,119	0,114
-315,226	-200,000	0,002	0,008
-314,212	-40,957	0,152	0,056
-313,197	-200,000	0,009	0,036
-312,183	0,656	-0,067	0,034
-311,168	185,563	-0,102	-0,108
-310,153	161,358	0,017	-0,017
-309,139	-200,000	-0,040	-0,152
-308,124	-200,000	0,003	0,070
-307,110	-67,367	-0,075	0,021
-306,095	-68,308	0,064	0,018
-305,080	-44,338	0,069	0,025
-304,066	-132,979	0,049	0,004
-303,051	-56,501	-0,180	-0,057
-302,037	800,000	0,055	0,166
-301,022	125,007	0,038	-0,034
-300,008	7,177	0,036	-0,019
-298,993	371,057	0,036	0,053
-297,978	-200,000	-0,008	-0,038
-296,964	-180,250	-0,047	0,001
-295,949	-115,727	-0,048	0,006
-294,935	-135,679	0,198	0,017
-293,920	-123,882	-0,146	0,016
-292,905	705,594	-0,066	0,125
-291,891	-62,281	-0,092	0,027
-290,876	128,981	0,100	0,091
-289,862	21,453	-0,131	-0,076
-288,847	298,825	-0,017	0,022
-287,832	124,133	-0,043	0,038
-286,818	109,664	0,055	-0,047
-285,803	800,000	0,056	0,146
-284,789	353,693	-0,035	0,049
-283,774	800,000	-0,017	0,054
-282,759	800,000	-0,049	-0,128
-281,745	198,243	-0,057	0,063
-280,730	618,552	0,068	0,122
-279,716	-107,145	0,088	0,014
-278,701	96,523	0,040	0,033
-277,686	-174,643	-0,139	0,003
-276,672	-200,000	-0,009	0,106
-275,657	140,455	0,070	-0,066
-274,643	-175,405	-0,030	0,001
-273,628	-108,996	-0,082	0,012
-272,613	-200,000	-0,026	-0,196
-271,599	57,411	-0,019	0,013
-270,584	164,824	0,103	0,104
-269,570	-27,119	0,026	0,011
-268,555	124,215	-0,029	0,026
-267,540	18,198	-0,013	0,007
-266,526	-150,212	0,066	0,004
-265,511	-200,000	-0,002	-0,100
-264,497	-96,678	0,159	0,030
-263,482	328,862	0,102	0,141
-262,467	-200,000	-0,028	-0,117
-261,453	-91,403	-0,204	0,041
-260,438	-86,784	0,088	-0,019
-259,424	11,177	-0,039	0,021
-258,409	-200,000	-0,010	0,043
-257,395	151,714	-0,041	0,040
-256,380	-171,819	0,060	-0,001
-255,365	716,309	0,040	0,075
-254,351	-200,000	0,018	0,107
-253,336	176,477	-0,076	0,079
-252,322	-200,000	0,002	-0,013
-251,307	-117,415	0,123	0,016
-250,292	-200,000	0,009	0,056
-249,278	80,943	0,032	0,025
-248,263	-171,817	0,102	-0,002
-247,249	173,825	-0,037	-0,038
-246,234	157,210	0,093	0,092
-245,219	10,066	-0,079	-0,042
-244,205	-200,000	-0,029	0,171
-243,190	-98,684	0,067	-0,012
-242,176	-32,204	0,120	0,048
-241,161	641,919	-0,035	0,063
-240,146	80,649	0,043	-0,033
-239,132	140,701	0,093	0,088
-238,117	-200,000	-0,008	0,030
-237,103	123,469	-0,036	0,032
-236,088	-200,000	-0,021	-0,117
-235,073	-159,843	-0,038	0,001
-234,059	-66,706	0,036	-0,010
-233,044	-200,000	-0,030	0,154
-232,030	-200,000	0,026	0,106
-231,015	578,905	0,036	-0,063
-230,000	-200,000	-0,003	-0,062
-228,986	67,554	-0,073	0,053
-227,971	794,868	-0,051	-0,100
-226,957	166,995	0,073	0,074
-225,942	-75,487	-0,098	0,025
-224,927	440,943	-0,035	0,055
-223,913	800,000	-0,028	-0,087
-222,898	-76,882	-0,084	0,021
-221,884	-84,540	-0,068	0,015
-220,869	-200,000	0,016	0,153
-219,855	11,655	0,179	0,098
-218,840	228,526	-0,028	-0,033
-217,825	194,155	0,086	-0,093
-216,811	264,549	0,047	-0,059
-215,796	135,723	0,050	-0,047
-214,782	-200,000	0,001	-0,041
-213,767	-44,644	-0,126	0,045
-212,752	18,246	0,121	0,069
-211,738	-22,893	-0,070	0,030
-210,723	185,458	0,079	0,084
-209,709	157,383	-0,106	-0,104
-208,694	30,834	-0,070	-0,043
-207,679	-200,000	0,018	-0,088
-206,665	-17,517	0,105	-0,047
-205,650	-69,342	-0,072	-0,020
-204,636	334,208	0,041	-0,057
-203,621	800,000	0,043	0,108
-202,606	-200,000	-0,007	-0,076
-201,592	666,581	-0,037	0,069
-200,577	19,239	0,056	0,032
-199,563	475,630	0,107	0,173
-198,548	-55,457	0,034	-0,011
-197,533	541,383	0,008	0,014
-196,519	800,000	-0,040	0,090
-195,504	-200,000	-0,011	0,038
-194,490	-42,353	-0,032	-0,012
-193,475	321,656	-0,048	-0,065
-192,460	-200,000	0,035	-0,158
-191,446	800,000	0,057	0,115
-190,431	-31,561	0,070	0,028
-189,417	800,000	-0,033	0,071
-188,402	800,000	0,047	0,105
-187,387	-84,565	-0,154	-0,034
-186,373	655,802	0,016	0,030
-185,358	19,586	0,097	-0,055
-184,344	800,000	-0,056	0,120
-183,329	49,035	-0,014	-0,010
-182,315	240,482	-0,009	-0,011
-181,300	545,118	-0,023	0,040
-180,285	-118,191	-0,005	-0,001
-179,271	800,000	-0,028	-0,080
-178,256	121,630	-0,078	0,069
-177,242	134,582	0,111	0,103
-176,227	226,808	-0,013	0,015
-175,212	29,889	-0,113	0,068
-174,198	137,712	0,107	0,100
-173,183	-125,874	-0,044	-0,005
-172,169	800,000	-0,014	-0,034
-171,154	678,554	0,050	0,094
-170,139	-165,795	0,134	-0,004
-169,125	-114,469	0,008	-0,001
-168,110	-200,000	0,018	0,218
-167,096	314,401	0,067	0,090
-166,081	-200,000	0,004	-0,050
-165,066	214,141	-0,053	-0,060
-164,052	800,000	-0,031	0,094
-163,037	3,876	0,179	0,093
-162,023	-200,000	-0,012	-0,043
-161,008	800,000	0,013	0,027
-159,993	0,516	0,017	0,009
-158,979	337,905	-0,067	0,092
-157,964	4,707	0,129	-0,067
-156,950	217,596	-0,176	0,200
-155,935	367,413	-0,076	0,110
-154,920	311,478	-0,032	-0,043
-153,906	-200,000	0,007	0,093
-152,891	50,763	-0,131	0,088
-151,877	-130,557	0,150	0,014
-150,862	-200,000	0,005	-0,020
-149,847	-200,000	-0,036	-0,120
-148,833	800,000	0,044	-0,118
-147,818	800,000	-0,056	0,158
-146,804	-55,574	0,136	-0,043
-145,789	-132,691	-0,084	0,008
-144,775	-96,687	0,102	0,019
-143,760	272,034	-0,064	-0,080
-142,745	800,000	0,042	0,089
-141,731	404,651	0,085	-0,128
-140,716	70,445	0,022	-0,016
-139,702	33,286	0,095	0,058
-138,687	-151,384	0,076	-0,004
-137,672	-31,665	0,092	0,037
-136,658	-37,992	-0,250	-0,094
-135,643	-74,338	0,112	-0,028
-134,629	-97,866	0,174	-0,032
-133,614	-200,000	-0,013	-0,123
-132,599	-200,000	-0,006	-0,036
-131,585	800,000	-0,024	0,048
-130,570	380,771	-0,035	0,050
-129,556	283,272	0,071	-0,090
-128,541	-123,139	0,082	-0,009
-127,526	800,000	-0,030	0,070
-126,512	461,090	0,006	-0,010
-125,497	-200,000	-0,008	-0,078
-124,483	-200,000	-0,007	0,114
-123,468	186,773	-0,032	-0,034
-122,453	-97,243	-0,064	-0,012
-121,439	800,000	0,032	0,086
-120,424	-200,000	0,009	0,116
-119,410	160,085	-0,068	0,067
-118,395	55,945	0,053	0,036
-117,380	-166,828	0,148	-0,004
-116,366	211,967	-0,048	0,054
-115,351	800,000	0,014	0,041
-114,337	36,939	-0,128	-0,080
-113,322	-71,051	0,081	-0,022
-112,307	-200,000	-0,006	-0,054
-111,293	-200,000	-0,014	-0,111
-110,278	75,483	0,102	-0,077
-109,264	-117,930	0,137	0,017
-108,249	-200,000	0,002	-0,016
-107,234	-23,163	-0,037	0,016
-106,220	-11,695	0,059	-0,027
-105,205	549,381	0,022	-0,038
-104,191	128,518	0,084	-0,076
-103,176	218,022	0,074	0,084
-102,162	-200,000	0,007	0,156
-101,147	-10,940	0,055	0,026
-100,132	-104,251	-0,180	0,029
-99,118	79,750	-0,107	0,082
-98,103	-200,000	-0,049	0,171
-97,089	129,069	0,038	0,035
-96,074	95,360	-0,040	-0,032
-95,059	636,420	-0,027	-0,048
-94,045	-200,000	0,005	-0,031
-93,030	-200,000	-0,006	-0,089
-92,016	80,171	-0,038	-0,029
-91,001	-86,281	0,171	-0,037
-89,986	182,383	0,036	-0,038
-88,972	20,016	0,075	0,043
-87,957	-174,943	0,081	-0,002
-86,943	-157,126	0,190	-0,008
-85,928	-104,989	-0,054	0,009
-84,913	19,307	-0,124	0,071
-83,899	444,384	0,133	-0,208
-82,884	244,032	-0,086	0,103
-81,870	251,269	0,042	0,051
-80,855	486,808	0,071	-0,115
-79,840	100,479	-0,070	0,058
-78,826	-200,000	-0,013	-0,058
-77,811	-75,305	-0,046	-0,012
-76,797	74,078	0,063	0,047
-75,782	800,000	0,012	0,030
-74,767	4,010	0,057	-0,029
-73,753	-58,337	-0,008	0,002
-72,738	-105,371	-0,076	-0,012
-71,724	13,289	-0,112	0,061
-70,709	532,791	-0,065	0,109
-69,694	10,669	-0,059	-0,032
-68,680	95,264	0,097	-0,078
-67,665	800,000	0,030	0,062
-66,651	800,000	0,049	0,102
-65,636	38,943	0,042	-0,026
-64,622	-200,000	-0,002	0,149
-63,607	-200,000	-0,024	0,090
-62,592	-200,000	-0,037	-0,164
-61,578	800,000	-0,024	0,076
-60,563	-200,000	0,031	-0,102
-59,549	-132,984	-0,060	-0,005
-58,534	-26,668	-1,704	-0,703
-57,519	407,634	-1,339	-2,011
-56,505	-200,000	-0,625	-4,633
-55,490	153,821	1,014	0,984
-54,476	800,000	5,032	11,447
-53,461	-200,000	18,976	313,981
-52,446	-200,000	738,952	2326,253
-51,432	575,649	1655,346	2873,736
-50,417	79,191	1671,785	1267,168
-49,403	21,797	1544,582	888,621
-48,388	15,680	1466,985	814,230
-47,373	17,859	1457,307	819,361
-46,359	16,829	1447,206	808,705
-45,344	13,954	1442,581	792,314
-44,330	13,868	1440,656	790,813
-43,315	13,854	1438,847	789,722
-42,300	13,835	1437,282	788,738
-41,286	13,888	1435,840	788,170
-40,271	13,869	1434,742	787,447
-39,257	13,898	1433,366	786,795
-38,242	13,864	1432,288	786,011
-37,227	13,911	1430,977	785,485
-36,213	13,933	1429,425	784,705
-35,198	13,938	1428,540	784,213
-34,184	13,967	1427,498	783,745
-33,169	13,847	1426,256	782,467
-32,154	13,881	1425,284	782,061
-31,140	13,954	1423,621	781,466
-30,125	13,913	1422,749	780,759
-29,111	13,919	1421,507	780,077
-28,096	13,870	1420,400	779,209
-27,082	13,857	1419,562	778,654
-26,067	13,837	1418,452	777,921
-25,052	13,847	1417,198	777,250
-24,038	13,812	1416,279	776,548
-23,023	13,786	1415,498	775,970
-22,009	13,832	1414,170	775,425
-20,994	13,798	1413,498	774,866
-19,979	13,840	1412,408	774,434
-18,965	13,777	1411,570	773,648
-17,950	13,779	1410,631	773,111
-16,936	13,777	1409,526	772,468
-15,921	13,740	1408,558	771,732
-14,906	13,762	1407,580	771,271
-13,892	13,773	1406,634	770,771
-12,877	13,737	1405,893	770,169
-11,863	13,766	1404,920	769,739
-10,848	13,724	1404,124	769,078
-9,833	13,704	1403,363	768,536
-8,819	13,707	1402,138	767,850
-7,804	13,619	1401,589	767,108
-6,790	13,676	1400,253	766,612
-5,775	13,611	1399,420	765,824
-4,760	13,647	1398,330	765,363
-3,746	13,662	1397,362	764,872
-2,731	13,632	1396,619	764,296
-1,717	13,653	1395,594	763,802
-0,702	13,628	1393,946	762,756
0,313	17,349	1311,579	734,977
1,327	33,496	705,707	432,874
2,342	51,091	124,025	83,095
3,356	2,081	16,791	8,551
4,371	20,552	3,205	1,829
5,386	5,459	0,547	0,285
6,400	-200,000	0,014	0,201
7,415	-40,193	-0,228	-0,084
8,429	110,028	-0,233	-0,198
9,444	-31,203	-0,409	-0,162
10,459	17,067	-0,374	-0,209
11,473	106,177	-0,322	-0,269
12,488	20,238	-0,227	-0,129
13,502	-29,239	-0,316	-0,127
14,517	74,977	-0,414	-0,308
15,531	227,118	-0,318	-0,365
16,546	316,410	-0,284	-0,380
17,561	668,863	-0,253	-0,465
18,575	-134,296	-0,207	-0,018
19,590	192,346	-0,198	-0,211
20,604	-99,986	-0,242	-0,042
21,619	207,964	-0,338	-0,374
22,634	457,129	-0,287	-0,452
23,648	47,628	-0,467	-0,307
24,663	55,131	-0,290	-0,198
25,677	95,560	-0,385	-0,310
26,692	38,161	-0,337	-0,211
27,707	188,151	-0,276	-0,292
28,721	-3,299	-0,354	-0,173
29,736	378,474	-0,205	-0,298
30,750	63,909	-0,475	-0,336
31,765	84,378	-0,451	-0,348
32,780	189,436	-0,407	-0,431
33,794	18,278	-0,358	-0,201
34,809	85,755	-0,402	-0,311
35,823	33,872	-0,292	-0,179
36,838	119,425	-0,331	-0,289
37,853	91,800	-0,345	-0,274
38,867	302,423	-0,307	-0,402
39,882	158,004	-0,247	-0,242
40,896	-20,954	-0,332	-0,143
41,911	44,128	-0,322	-0,208
42,926	91,042	-0,278	-0,220
43,940	44,214	-0,422	-0,273
44,955	250,285	-0,309	-0,371
45,969	484,088	-0,225	-0,362
46,984	140,956	-0,233	-0,218
47,999	57,487	-0,325	-0,224
49,013	75,658	-0,380	-0,283
50,028	91,996	-0,340	-0,269
51,042	-44,002	-0,451	-0,159
52,057	74,395	-0,322	-0,238
53,071	56,022	-0,362	-0,247
54,086	92,060	-0,278	-0,221
55,101	71,595	-0,323	-0,236
56,115	0,049	-0,355	-0,178
57,130	15,985	-0,289	-0,160
58,144	186,343	-0,233	-0,245
59,159	194,107	-0,266	-0,284
60,174	37,779	-0,430	-0,268
61,188	125,079	-0,308	-0,273
62,203	-14,066	-0,462	-0,209
63,217	-46,953	-0,273	-0,093
64,232	576,042	-0,156	-0,270
65,247	-63,769	-0,449	-0,129
66,261	-44,503	-0,362	-0,127
67,276	-28,150	-0,475	-0,192
68,290	307,114	-0,222	-0,291
69,305	279,578	-0,209	-0,263
70,320	150,985	-0,240	-0,230
71,334	38,530	-0,224	-0,140
72,349	-72,084	-0,453	-0,117
73,363	25,161	-0,335	-0,195
74,378	-137,619	-0,322	-0,025
75,393	43,703	-0,100	-0,064
76,407	47,167	-0,260	-0,170
77,422	-14,381	-0,339	-0,153
78,436	138,463	-0,239	-0,220
79,451	92,599	-0,298	-0,236
80,466	6,888	-0,363	-0,190
81,480	26,450	-0,363	-0,213
82,495	78,332	-0,238	-0,179
83,509	8,110	-0,409	-0,215
84,524	0,973	-0,376	-0,189
85,539	-67,424	-0,405	-0,111
86,553	5,464	-0,317	-0,164
87,568	-0,620	-0,243	-0,120
88,582	108,796	-0,296	-0,249
89,597	-103,111	-0,170	0,028
90,611	15,606	-0,336	-0,185
91,626	105,237	-0,242	-0,201
92,641	-72,411	-0,320	-0,083
93,655	59,712	-0,257	-0,177
94,670	-12,645	-0,233	-0,106
95,684	-14,911	-0,350	-0,157
96,699	54,612	-0,268	-0,181
97,714	-13,006	-0,189	-0,086
98,728	34,650	-0,244	-0,149
99,743	-67,840	-0,298	-0,081
100,757	-58,814	-0,328	-0,099
101,772	-147,176	-0,263	-0,015
102,787	12,614	-0,397	-0,214
103,801	34,013	-0,252	-0,154
104,816	90,180	-0,238	-0,186
105,830	113,282	-0,286	-0,244
106,845	-8,644	-0,371	-0,174
107,860	-15,622	-0,246	-0,110
108,874	6,111	-0,353	-0,183
109,889	112,046	-0,298	-0,252
110,903	-40,705	-0,283	-0,102
111,918	168,064	-0,227	-0,226
112,933	-13,378	-0,220	-0,100
113,947	75,222	-0,289	-0,213
114,962	-60,877	-0,239	-0,070
115,976	-135,710	-0,268	-0,022
116,991	26,540	-0,244	-0,142
118,006	-119,747	-0,162	-0,019
119,020	134,608	-0,252	-0,229
120,035	-1,375	-0,260	-0,128
121,049	-102,980	-0,226	-0,037
122,064	133,465	-0,118	-0,107
123,079	203,771	-0,125	-0,135
124,093	99,339	-0,251	-0,203
125,108	-118,423	-0,308	-0,038
126,122	9,944	-0,203	-0,108
127,137	94,649	-0,199	-0,158
128,151	186,545	-0,153	-0,159
129,166	68,564	-0,172	-0,123
130,181	-62,905	-0,308	-0,088
131,195	92,744	-0,264	-0,208
132,210	182,385	-0,204	-0,211
133,224	-42,501	-0,257	-0,091
134,239	145,530	-0,133	-0,125
135,254	258,636	-0,158	-0,191
136,268	9,048	-0,305	-0,161
137,283	-44,331	-0,366	-0,127
138,297	280,790	-0,182	-0,229
139,312	95,224	-0,196	-0,156
140,327	69,696	-0,277	-0,199
141,341	-200,000	-0,051	-0,199
142,356	64,518	-0,204	-0,144
143,370	-31,026	-0,304	-0,119
144,385	96,022	-0,281	-0,224
145,400	69,919	-0,244	-0,176
146,414	52,460	-0,184	-0,123
147,429	178,918	-0,227	-0,232
148,443	396,074	-0,143	-0,210
149,458	41,072	-0,247	-0,156
150,473	119,619	-0,248	-0,214
151,487	800,000	-0,132	-0,282
152,502	109,648	-0,208	-0,174
153,516	800,000	-0,088	-0,207
154,531	161,745	-0,289	-0,283
155,546	159,057	-0,192	-0,187
156,560	-34,059	-0,288	-0,110
157,575	54,959	-0,128	-0,086
158,589	-25,846	-0,315	-0,129
159,604	800,000	-0,169	-0,329
160,619	110,898	-0,248	-0,208
161,633	308,206	-0,234	-0,306
162,648	27,752	-0,248	-0,145
163,662	17,174	-0,380	-0,210
164,677	206,924	-0,221	-0,241
165,692	20,006	-0,228	-0,128
166,706	-44,881	-0,273	-0,094
167,721	384,968	-0,164	-0,236
168,735	114,373	-0,243	-0,206
169,750	132,857	-0,251	-0,226
170,764	661,913	-0,139	-0,250
171,779	51,938	-0,234	-0,155
172,794	-81,286	-0,183	-0,042
173,808	200,881	-0,151	-0,162
174,823	-18,686	-0,240	-0,104
175,837	-27,766	-0,149	-0,060
176,852	-61,746	-0,223	-0,065
177,867	-117,471	-0,222	-0,028
178,881	90,222	-0,169	-0,132
179,896	10,887	-0,331	-0,176
180,910	128,769	-0,218	-0,194
181,925	-49,295	-0,251	-0,083
182,940	75,719	-0,285	-0,210
183,954	-48,662	-0,296	-0,099
184,969	-49,955	-0,218	-0,072
185,983	62,064	-0,146	-0,101
186,998	-200,000	-0,035	-0,306
188,013	-15,936	-0,235	-0,104
189,027	94,513	-0,228	-0,180
190,042	800,000	-0,160	-0,326
191,056	-21,878	-0,274	-0,115
192,071	-161,882	-0,148	0,005
193,086	-131,798	-0,289	-0,026
194,100	214,080	-0,187	-0,206
195,115	230,257	-0,103	-0,117
196,129	-66,498	-0,188	-0,052
197,144	100,087	-0,195	-0,157
198,159	235,109	-0,202	-0,232
199,173	209,404	-0,195	-0,212
200,188	-130,424	-0,070	0,007
201,202	111,163	-0,069	-0,058
202,217	-90,201	-0,238	-0,048
203,232	59,294	-0,259	-0,177
204,246	85,943	-0,175	-0,133
205,261	78,385	-0,270	-0,200
206,275	11,943	-0,293	-0,156
207,290	-127,820	-0,175	0,017
208,304	-85,866	-0,142	-0,030
209,319	782,073	-0,120	-0,229
210,334	50,687	-0,171	-0,112
211,348	166,623	-0,159	-0,156
212,363	227,647	-0,217	-0,246
213,377	-69,255	-0,201	-0,053
214,392	171,721	-0,059	-0,059
215,407	-66,575	-0,250	-0,068
216,421	-8,275	-0,201	0,094
217,436	12,325	-0,209	-0,111
218,450	219,852	-0,171	-0,191
219,465	-200,000	-0,261	0,001
220,480	331,090	-0,201	-0,270
221,494	800,000	-0,100	-0,226
222,509	9,944	-0,176	-0,093
223,523	663,406	-0,057	-0,102
224,538	-144,769	-0,202	-0,013
225,553	222,145	-0,114	-0,128
226,567	-45,473	-0,257	-0,088
227,582	-8,278	-0,223	-0,104
228,596	112,486	-0,212	-0,178
229,611	134,415	-0,203	-0,182
230,626	-183,842	-0,221	0,003
231,640	-47,653	-0,162	-0,054
232,655	561,039	-0,111	-0,186
233,669	16,101	-0,153	-0,083
234,684	800,000	-0,099	-0,214
235,699	138,508	-0,162	-0,148
236,713	-81,103	-0,144	-0,033
237,728	800,000	-0,097	-0,196
238,742	-82,646	-0,230	-0,051
239,757	69,332	-0,236	-0,168
240,772	-23,646	-0,202	-0,083
241,786	13,682	-0,227	-0,122
242,801	-8,119	-0,198	-0,092
243,815	-19,483	-0,238	-0,102
244,830	-35,621	-0,226	-0,085
245,844	-200,000	-0,052	-0,163
246,859	800,000	-0,112	-0,233
247,874	126,495	-0,152	-0,133
248,888	23,268	-0,041	-0,023
249,903	122,738	-0,146	-0,126
250,917	800,000	-0,093	-0,243
251,932	90,112	-0,191	-0,148
252,947	489,133	-0,182	-0,288
253,961	317,556	-0,185	-0,243
254,976	204,493	-0,172	-0,185
255,990	-53,220	-0,180	-0,057
257,005	-78,317	-0,209	-0,049
258,020	92,999	-0,157	-0,123
259,034	356,590	-0,163	-0,226
260,049	-113,900	-0,170	0,023
261,063	114,169	-0,264	-0,222
262,078	603,503	-0,137	-0,237
263,093	66,425	-0,153	-0,107
264,107	-118,822	-0,155	0,019
265,122	-34,048	-0,095	0,036
266,136	-62,406	-0,166	-0,048
267,151	50,884	-0,149	-0,098
268,166	41,989	-0,150	-0,094
269,180	800,000	-0,122	-0,281
270,195	48,001	-0,142	-0,091
271,209	-13,075	-0,297	-0,133
272,224	22,948	-0,214	-0,121
273,239	-128,193	-0,215	-0,021
274,253	105,621	-0,124	-0,101
275,268	299,858	-0,157	-0,201
276,282	-15,446	-0,144	-0,063
277,297	234,007	-0,099	-0,113
278,312	128,332	-0,184	-0,162
279,326	481,108	-0,019	-0,031
280,341	425,875	-0,076	-0,113
281,355	121,951	-0,093	-0,080
282,370	30,719	-0,107	-0,063
283,384	19,071	-0,153	-0,085
284,399	-26,652	-0,176	-0,071
285,414	269,489	-0,134	-0,163
286,428	-151,352	-0,214	-0,011
287,443	14,303	-0,025	-0,014
288,457	800,000	0,053	-0,109
289,472	-47,420	-0,076	0,026
290,487	101,851	-0,192	-0,154
291,501	-10,215	-0,237	-0,108
292,516	-200,000	-0,053	-0,205
293,530	-19,354	-0,043	-0,018
294,545	604,645	-0,104	-0,179
295,560	-95,317	-0,279	-0,051
296,574	54,556	-0,131	-0,087
297,589	115,263	-0,189	-0,159
298,603	167,405	-0,148	-0,145
299,618	2,755	-0,184	-0,092
300,633	-104,692	-0,103	0,016
301,647	800,000	-0,081	-0,203
302,662	171,925	-0,095	-0,094
303,676	800,000	-0,076	-0,173
304,691	292,942	-0,119	-0,150
305,706	391,702	-0,062	-0,090
306,720	-200,000	0,018	-0,063
307,735	800,000	-0,089	-0,192
308,749	9,444	-0,264	-0,137
309,764	293,503	-0,058	-0,073
310,779	-200,000	-0,027	-0,149
311,793	95,089	-0,079	-0,062
312,808	73,998	-0,176	-0,127
313,822	18,251	-0,206	-0,113
314,837	-26,212	-0,077	-0,031
315,852	-200,000	-0,012	-0,125
316,866	-90,298	-0,178	0,035
317,881	231,654	-0,053	-0,060
318,895	-189,015	-0,179	-0,001
319,910	29,296	-0,153	-0,089
320,925	166,085	-0,067	-0,065
321,939	-86,761	-0,116	0,024
322,954	18,336	-0,090	0,049
323,968	155,820	-0,098	-0,093
324,983	-159,976	-0,229	-0,008
325,997	-64,810	-0,228	-0,063
327,012	-93,908	-0,138	-0,026
328,027	-161,569	-0,052	-0,002
329,041	-200,000	-0,022	-0,168
330,056	-75,986	-0,066	-0,016
331,070	106,220	-0,093	-0,076
332,085	-97,780	-0,227	0,040
333,100	108,936	-0,227	-0,186
334,114	-32,811	-0,226	-0,086
335,129	306,288	-0,081	-0,104
336,143	18,848	-0,140	-0,077
337,158	-200,000	-0,043	-0,174
338,173	-46,283	-0,106	-0,035
339,187	45,477	-0,069	0,044
340,202	-200,000	-0,049	-0,181
341,216	37,997	-0,244	-0,149
342,231	-200,000	-0,081	-0,264
343,246	190,487	-0,192	-0,199
344,260	177,614	-0,180	-0,180
345,275	-200,000	-0,003	-0,035
346,289	102,645	-0,074	-0,060
347,304	62,649	-0,254	-0,174
348,319	306,083	-0,077	-0,099
349,333	398,828	-0,108	-0,156
350,348	211,532	-0,181	-0,195
351,362	-10,573	-0,158	-0,071
352,377	447,682	-0,140	-0,212
353,392	-200,000	-0,024	-0,148
354,406	74,806	-0,165	-0,119
355,421	208,118	1314,648	1411,052
356,435	160,120	1475,372	1411,538
