DTS Sentinel unit serial number:	SN410029Multiplexer serial number:	ORYXHardware model number:	OX2-SRSoftware version number:	ORYX F/W v4,00 Oryx Data Collector v3.7.2.0data status	okinstallation	B3 Nyhavnadifferential loss correction	single-endedforward channel	channel 1reverse channel	N/Adate	2023/12/03time	18:02:30forward acquisition time	300,00reverse acquisition time	0,00gamma	499,1914k internal	0,3198k external	0,3198temperature offset calibration	1,0000default loss term (dB/km)	0,3820temperature slope calibration	1,0000multiplexer offset coefficient	1,0000multiplexer slope coefficient	1,0000fibre end	0,00T internal ref (°C)	14,69T ext. ref 1 (°C)	-0,67T ext. ref 2 (°C)	-0,68length (m)	temperature (°C)	Stokes	anti-Stokes-744,400	275,248	-0,191	-0,247
-743,385	-200,000	0,089	0,368
-742,371	800,000	-0,061	-0,131
-741,356	800,000	0,065	0,202
-740,342	308,167	-0,208	-0,283
-739,327	-200,000	-0,016	0,353
-738,312	7,001	-0,283	-0,153
-737,298	800,000	-0,099	0,212
-736,283	93,596	-0,190	-0,156
-735,269	800,000	0,147	0,360
-734,254	64,055	-0,170	-0,125
-733,239	59,479	-0,187	0,134
-732,225	800,000	-0,083	-0,241
-731,210	110,962	0,109	0,095
-730,196	-200,000	-0,017	0,118
-729,181	-68,703	-0,102	0,028
-728,167	72,757	-0,084	-0,064
-727,152	-117,387	0,134	0,017
-726,137	199,789	-0,025	-0,027
-725,123	104,337	-0,056	-0,048
-724,108	-123,546	-0,117	-0,013
-723,094	78,437	0,046	-0,036
-722,079	644,297	-0,052	-0,097
-721,064	-65,160	-0,108	0,031
-720,050	125,770	-0,111	0,102
-719,035	598,743	-0,051	0,092
-718,021	130,345	0,074	0,069
-717,006	-200,000	-0,004	-0,131
-715,991	747,353	-0,058	0,115
-714,977	800,000	0,015	0,032
-713,962	85,394	-0,203	-0,162
-712,948	-200,000	-0,012	0,060
-711,933	320,950	0,075	0,103
-710,918	746,717	-0,043	-0,084
-709,904	-65,371	0,136	-0,039
-708,889	-98,774	-0,008	0,001
-707,875	-96,922	-0,180	0,034
-706,860	247,026	0,033	0,040
-705,845	-27,298	-0,138	0,058
-704,831	-141,506	0,022	-0,002
-703,816	-100,328	0,192	0,034
-702,802	-106,370	-0,064	-0,010
-701,787	213,680	-0,056	-0,064
-700,772	407,038	0,044	-0,068
-699,758	-200,000	-0,010	-0,038
-698,743	-67,176	0,123	-0,035
-697,729	-85,580	0,183	-0,041
-696,714	-145,298	-0,079	0,005
-695,699	-59,121	0,077	-0,024
-694,685	-125,362	0,043	-0,005
-693,670	-68,554	0,110	0,031
-692,656	73,169	0,027	-0,020
-691,641	563,073	-0,057	0,100
-690,627	-200,000	0,007	0,117
-689,612	35,480	0,060	0,038
-688,597	-200,000	-0,018	0,094
-687,583	176,213	-0,104	-0,110
-686,568	-86,105	-0,197	0,044
-685,554	-86,570	-0,087	-0,019
-684,539	30,130	-0,102	-0,063
-683,524	51,029	0,034	0,023
-682,510	-52,415	-0,087	-0,029
-681,495	-143,308	-0,097	-0,007
-680,481	-200,000	-0,005	0,145
-679,466	-88,292	-0,012	0,003
-678,451	58,739	0,028	-0,020
-677,437	-200,000	0,002	-0,101
-676,422	-200,000	-0,018	-0,060
-675,408	1,479	0,162	-0,084
-674,393	441,959	0,066	0,105
-673,378	319,291	-0,040	0,055
-672,364	800,000	0,033	-0,106
-671,349	-200,000	0,002	-0,112
-670,335	382,567	-0,034	0,050
-669,320	-200,000	0,004	0,134
-668,305	-200,000	-0,007	0,119
-667,291	55,399	0,015	-0,011
-666,276	-53,614	0,070	-0,023
-665,262	170,973	-0,057	-0,059
-664,247	800,000	0,033	-0,078
-663,232	-200,000	-0,004	0,075
-662,218	-167,761	0,102	-0,003
-661,203	-123,577	0,177	0,020
-660,189	33,994	0,064	0,041
-659,174	55,240	0,030	0,021
-658,159	18,116	-0,126	-0,073
-657,145	55,061	0,105	0,073
-656,130	-92,423	0,076	-0,015
-655,116	22,434	0,075	0,044
-654,101	522,236	-0,036	-0,062
-653,086	292,354	-0,082	0,109
-652,072	-87,118	-0,113	0,025
-651,057	800,000	0,017	0,040
-650,043	-18,928	0,117	-0,053
-649,028	-200,000	-0,002	0,062
-648,014	578,044	-0,048	0,085
-646,999	800,000	-0,018	0,040
-645,984	-102,247	0,109	-0,019
-644,970	241,018	-0,036	-0,044
-643,955	800,000	-0,019	0,040
-642,941	-200,000	-0,009	-0,116
-641,926	-200,000	0,003	0,120
-640,911	654,806	-0,040	0,074
-639,897	191,477	0,013	-0,014
-638,882	-121,533	-0,084	-0,010
-637,868	-200,000	-0,010	0,062
-636,853	686,355	-0,049	-0,092
-635,838	800,000	0,069	-0,144
-634,824	321,054	-0,104	-0,143
-633,809	-200,000	-0,020	0,077
-632,795	-55,227	0,037	-0,012
-631,780	58,167	0,035	0,025
-630,765	800,000	-0,035	-0,085
-629,751	-103,638	-0,143	-0,024
-628,736	17,521	0,062	-0,036
-627,722	800,000	-0,028	-0,069
-626,707	302,098	0,058	0,077
-625,692	670,635	-0,040	0,076
-624,678	-200,000	-0,033	-0,109
-623,663	344,990	0,074	0,106
-622,649	-200,000	-0,027	-0,170
-621,634	518,621	-0,023	0,039
-620,619	-112,048	0,107	0,015
-619,605	-105,122	-0,077	0,013
-618,590	96,365	0,046	0,039
-617,576	-65,751	0,087	0,025
-616,561	-69,296	-0,044	0,012
-615,546	150,902	-0,090	0,089
-614,532	616,940	0,025	-0,046
-613,517	477,866	0,046	-0,075
-612,503	-200,000	-0,006	-0,229
-611,488	465,730	-0,024	-0,039
-610,474	800,000	0,020	-0,047
-609,459	56,488	-0,042	0,029
-608,444	382,651	0,091	-0,135
-607,430	800,000	-0,045	-0,137
-606,415	800,000	0,031	-0,080
-605,401	-200,000	-0,019	-0,068
-604,386	284,071	0,065	0,085
-603,371	800,000	-0,045	-0,111
-602,357	396,752	-0,031	0,047
-601,342	62,729	-0,053	-0,038
-600,328	-200,000	0,012	-0,061
-599,313	800,000	-0,041	-0,104
-598,298	224,358	-0,061	-0,071
-597,284	-143,044	-0,057	0,004
-596,269	578,447	-0,035	0,061
-595,255	-120,530	-0,113	-0,014
-594,240	-200,000	-0,038	-0,162
-593,225	-11,745	0,064	-0,030
-592,211	-2,442	-0,112	0,057
-591,196	-76,129	0,065	0,016
-590,182	-58,077	0,097	-0,030
-589,167	-200,000	0,000	0,003
-588,152	-152,969	0,042	0,002
-587,138	141,417	-0,021	-0,020
-586,123	225,979	-0,080	-0,094
-585,109	800,000	-0,027	-0,056
-584,094	228,615	-0,076	-0,090
-583,079	-200,000	0,000	-0,023
-582,065	-97,885	-0,012	0,002
-581,050	-200,000	0,035	-0,136
-580,036	190,617	-0,014	-0,016
-579,021	-39,423	-0,093	0,035
-578,006	-46,735	-0,208	-0,073
-576,992	-145,087	0,136	-0,009
-575,977	213,547	-0,088	0,100
-574,963	-61,613	0,118	0,035
-573,948	68,925	0,054	0,040
-572,934	-57,172	-0,154	0,049
-571,919	-111,895	0,068	0,010
-570,904	107,561	-0,023	-0,019
-569,890	-200,000	-0,001	-0,132
-568,875	682,794	0,057	-0,108
-567,861	-166,858	0,091	0,003
-566,846	221,550	-0,075	-0,087
-565,831	-200,000	-0,006	0,035
-564,817	-52,151	0,034	-0,012
-563,802	-200,000	0,071	-0,230
-562,788	-200,000	-0,015	-0,114
-561,773	-200,000	0,010	-0,105
-560,758	11,464	-0,014	-0,008
-559,744	72,060	0,019	-0,015
-558,729	-128,147	-0,086	-0,009
-557,715	-30,571	-0,200	-0,082
-556,700	-200,000	0,023	-0,100
-555,685	-200,000	0,022	-0,139
-554,671	-134,101	-0,117	-0,010
-553,656	800,000	0,033	-0,082
-552,642	226,959	-0,098	0,115
-551,627	-200,000	-0,037	-0,132
-550,612	-121,188	-0,026	-0,003
-549,598	263,108	-0,103	-0,130
-548,583	466,780	-0,051	-0,083
-547,569	529,544	-0,035	0,060
-546,554	-200,000	-0,004	0,046
-545,539	-200,000	-0,001	-0,013
-544,525	-9,232	0,035	-0,017
-543,510	-200,000	0,017	-0,075
-542,496	800,000	-0,036	-0,113
-541,481	492,311	0,014	0,023
-540,466	249,731	-0,074	0,091
-539,452	120,062	-0,069	-0,062
-538,437	-200,000	-0,008	-0,049
-537,423	119,015	0,030	0,027
-536,408	-200,000	-0,005	0,127
-535,393	418,123	-0,070	-0,108
-534,379	189,839	-0,034	-0,037
-533,364	556,249	0,060	-0,104
-532,350	800,000	-0,013	-0,036
-531,335	-200,000	0,044	0,182
-530,321	88,346	0,091	0,073
-529,306	800,000	0,026	0,076
-528,291	232,696	0,047	0,055
-527,277	-200,000	-0,003	0,056
-526,262	-5,935	0,064	-0,032
-525,248	227,727	-0,075	0,088
-524,233	213,712	-0,039	0,045
-523,218	294,813	0,028	0,037
-522,204	-200,000	-0,012	-0,054
-521,189	-200,000	0,005	-0,079
-520,175	19,368	-0,029	-0,017
-519,160	40,332	0,047	-0,030
-518,145	774,380	-0,054	0,106
-517,131	800,000	0,082	0,170
-516,116	-62,677	0,172	0,051
-515,102	27,028	0,031	-0,019
-514,087	33,275	-0,053	-0,033
-513,072	-19,986	-0,060	-0,027
-512,058	-28,559	-0,032	-0,013
-511,043	55,951	0,087	0,061
-510,029	-130,180	0,037	0,004
-509,014	736,392	0,057	-0,110
-507,999	175,257	0,052	0,054
-506,985	13,471	0,134	0,075
-505,970	800,000	-0,076	-0,175
-504,956	280,260	-0,038	-0,049
-503,941	31,614	0,069	0,043
-502,926	174,772	-0,060	-0,063
-501,912	224,227	0,018	0,020
-500,897	-200,000	0,025	0,193
-499,883	-98,285	-0,188	0,034
-498,868	343,277	-0,048	0,068
-497,853	123,133	-0,040	0,036
-496,839	-155,527	0,086	-0,004
-495,824	800,000	-0,027	0,054
-494,810	324,404	0,050	0,069
-493,795	303,412	0,056	-0,075
-492,781	800,000	-0,016	0,042
-491,766	681,315	0,050	-0,094
-490,751	64,805	-0,040	-0,029
-489,737	10,129	-0,109	-0,059
-488,722	800,000	-0,030	0,067
-487,708	168,967	-0,037	-0,038
-486,693	429,382	0,045	-0,070
-485,678	-9,457	0,123	-0,059
-484,664	151,444	-0,031	0,031
-483,649	-108,100	-0,139	-0,022
-482,635	722,171	0,059	0,114
-481,620	189,768	0,093	0,101
-480,605	736,933	-0,012	-0,024
-479,591	-6,848	-0,066	-0,032
-478,576	-36,396	0,069	0,027
-477,562	35,387	-0,104	-0,066
-476,547	94,990	-0,043	-0,035
-475,532	800,000	-0,020	-0,039
-474,518	28,327	0,058	0,035
-473,503	-70,929	-0,152	-0,041
-472,489	-200,000	0,010	0,077
-471,474	424,938	0,069	0,107
-470,459	346,461	0,023	-0,033
-469,445	36,799	-0,180	-0,114
-468,430	288,024	0,076	-0,099
-467,416	31,682	-0,039	0,024
-466,401	127,867	0,050	-0,046
-465,386	2,093	0,139	0,072
-464,372	170,997	0,030	-0,031
-463,357	-133,289	-0,127	0,011
-462,343	130,788	0,086	-0,080
-461,328	-200,000	-0,019	0,062
-460,313	-200,000	0,008	0,047
-459,299	800,000	-0,056	0,121
-458,284	111,050	0,077	0,067
-457,270	800,000	0,065	0,142
-456,255	-153,345	-0,062	-0,003
-455,241	86,440	-0,080	-0,064
-454,226	-200,000	-0,003	-0,060
-453,211	-33,428	0,139	-0,055
-452,197	800,000	0,013	0,033
-451,182	9,709	0,084	0,046
-450,168	-1,797	-0,082	-0,041
-449,153	128,952	-0,097	0,089
-448,138	-84,265	-0,112	0,025
-447,124	-200,000	-0,045	-0,211
-446,109	31,615	-0,059	-0,036
-445,095	448,977	0,084	-0,134
-444,080	800,000	0,025	0,068
-443,065	69,422	0,090	-0,067
-442,051	58,380	-0,081	-0,057
-441,036	-111,155	-0,074	-0,011
-440,022	154,644	-0,089	-0,088
-439,007	224,689	-0,161	-0,187
-437,992	-161,480	-0,010	-0,000
-436,978	146,617	-0,036	-0,035
-435,963	544,360	-0,040	-0,069
-434,949	48,536	0,127	-0,086
-433,934	372,580	-0,036	-0,053
-432,919	292,638	-0,071	0,093
-431,905	-200,000	-0,001	-0,009
-430,890	-200,000	-0,021	0,104
-429,876	-191,993	0,104	0,001
-428,861	314,089	0,035	-0,048
-427,846	211,050	0,041	-0,046
-426,832	-63,543	0,187	0,055
-425,817	13,792	-0,127	-0,071
-424,803	-114,343	0,086	-0,012
-423,788	143,786	0,057	0,055
-422,773	166,960	0,057	0,058
-421,759	800,000	0,024	0,063
-420,744	87,436	0,069	0,055
-419,730	-200,000	0,039	-0,144
-418,715	456,167	-0,113	-0,181
-417,701	9,453	-0,164	-0,089
-416,686	255,807	0,074	0,091
-415,671	410,754	0,066	-0,101
-414,657	-192,202	-0,024	-0,000
-413,642	-200,000	0,053	0,169
-412,628	800,000	-0,029	0,092
-411,613	-31,365	0,042	-0,017
-410,598	26,677	-0,047	0,028
-409,584	75,221	-0,112	0,085
-408,569	59,529	0,103	0,073
-407,555	-200,000	-0,021	0,176
-406,540	-52,634	-0,082	0,027
-405,525	58,091	0,072	0,050
-404,511	-72,990	0,072	-0,019
-403,496	596,812	-0,014	-0,025
-402,482	800,000	0,040	-0,093
-401,467	18,594	0,023	-0,013
-400,452	-157,386	0,174	-0,007
-399,438	800,000	-0,059	0,158
-398,423	-200,000	-0,016	-0,157
-397,409	-40,221	0,049	0,018
-396,394	-75,798	-0,053	-0,013
-395,379	-147,508	0,064	-0,004
-394,365	384,241	0,050	0,075
-393,350	80,684	-0,043	0,033
-392,336	-138,116	0,102	0,008
-391,321	800,000	0,035	0,070
-390,306	289,881	0,050	-0,066
-389,292	112,276	0,101	0,087
-388,277	-200,000	-0,024	-0,110
-387,263	87,879	-0,097	-0,077
-386,248	40,027	0,111	-0,071
-385,233	223,407	0,058	-0,068
-384,219	-200,000	-0,016	0,173
-383,204	166,991	-0,110	0,112
-382,190	243,040	-0,056	-0,068
-381,175	-174,756	0,035	-0,001
-380,160	470,857	-0,011	0,018
-379,146	-200,000	0,029	0,120
-378,131	156,092	0,010	-0,010
-377,117	-200,000	0,012	-0,077
-376,102	429,926	-0,060	0,093
-375,088	800,000	-0,069	-0,180
-374,073	-9,959	-0,052	-0,025
-373,058	-26,558	-0,030	-0,012
-372,044	-62,260	0,116	0,034
-371,029	101,642	-0,098	0,082
-370,015	-57,548	0,059	-0,019
-369,000	800,000	0,027	-0,066
-367,985	-33,010	-0,095	-0,038
-366,971	377,812	0,073	-0,107
-365,956	-17,035	0,159	-0,072
-364,942	800,000	0,053	0,106
-363,927	181,895	0,051	0,054
-362,912	-124,745	-0,142	-0,016
-361,898	50,400	-0,096	-0,065
-360,883	-200,000	0,018	-0,059
-359,869	-200,000	-0,013	0,219
-358,854	389,161	-0,055	0,082
-357,839	-200,000	0,001	-0,040
-356,825	125,545	0,108	0,098
-355,810	-89,716	0,115	-0,024
-354,796	800,000	-0,026	-0,059
-353,781	-111,518	0,100	0,014
-352,766	-200,000	-0,017	-0,122
-351,752	800,000	0,035	-0,077
-350,737	102,141	0,095	0,079
-349,723	112,179	0,093	0,081
-348,708	-200,000	0,048	0,157
-347,693	-173,291	-0,058	0,001
-346,679	-200,000	0,022	-0,130
-345,664	19,578	-0,030	-0,017
-344,650	800,000	0,036	-0,093
-343,635	58,362	0,117	0,082
-342,620	-200,000	-0,002	0,043
-341,606	-121,589	0,069	-0,008
-340,591	105,171	-0,093	-0,079
-339,577	311,765	-0,068	-0,092
-338,562	460,591	-0,019	0,030
-337,548	-200,000	-0,031	-0,235
-336,533	207,761	0,157	0,176
-335,518	-44,803	-0,076	0,027
-334,504	-200,000	0,018	0,070
-333,489	371,545	0,054	-0,079
-332,475	-156,888	-0,111	-0,005
-331,460	57,277	-0,127	0,089
-330,445	59,923	-0,046	0,033
-329,431	142,698	0,113	0,107
-328,416	38,064	0,127	-0,081
-327,402	67,976	0,070	0,052
-326,387	56,927	0,159	0,111
-325,372	42,133	-0,020	-0,013
-324,358	230,563	0,032	0,038
-323,343	800,000	0,021	0,051
-322,329	-200,000	-0,014	-0,054
-321,314	-33,889	-0,068	0,027
-320,299	-200,000	0,034	-0,113
-319,285	-102,340	-0,113	0,019
-318,270	-200,000	-0,012	-0,127
-317,256	-200,000	-0,011	0,036
-316,241	-200,000	0,011	-0,043
-315,226	800,000	0,017	0,055
-314,212	-72,446	0,105	-0,028
-313,197	-200,000	0,007	0,065
-312,183	800,000	-0,041	0,106
-311,168	800,000	-0,040	0,117
-310,153	-0,268	-0,032	-0,016
-309,139	130,494	0,010	-0,009
-308,124	-200,000	0,012	0,112
-307,110	350,555	0,088	0,125
-306,095	-76,785	0,088	0,022
-305,080	800,000	-0,045	0,104
-304,066	234,893	-0,092	0,109
-303,051	-200,000	0,013	-0,058
-302,037	-121,980	0,105	-0,012
-301,022	226,773	0,023	0,027
-300,008	-200,000	0,043	0,142
-298,993	-109,794	0,145	0,022
-297,978	749,626	0,043	-0,083
-296,964	-12,010	-0,184	0,086
-295,949	50,837	-0,051	0,035
-294,935	-23,320	-0,063	-0,027
-293,920	743,140	-0,038	0,074
-292,905	75,273	0,087	-0,065
-291,891	800,000	0,020	0,042
-290,876	800,000	0,087	0,194
-289,862	130,398	-0,084	-0,077
-288,847	-172,000	-0,050	-0,001
-287,832	634,813	-0,041	-0,074
-286,818	-156,922	-0,069	0,003
-285,803	-138,276	-0,048	-0,004
-284,789	-200,000	-0,024	0,089
-283,774	-200,000	-0,004	0,054
-282,759	-83,093	0,043	-0,010
-281,745	1,399	0,021	-0,011
-280,730	158,783	0,067	0,067
-279,716	327,430	-0,082	0,112
-278,701	87,486	0,068	-0,053
-277,686	9,723	0,076	0,041
-276,672	800,000	-0,038	-0,109
-275,657	59,288	0,056	-0,040
-274,643	-81,729	-0,030	0,007
-273,628	-69,746	-0,055	0,015
-272,613	-84,531	0,175	0,039
-271,599	-122,142	-0,070	0,008
-270,584	-97,791	0,096	0,018
-269,570	-200,000	-0,024	0,227
-268,555	-200,000	-0,010	0,048
-267,540	-200,000	-0,007	0,064
-266,526	308,336	-0,078	-0,104
-265,511	94,983	-0,070	-0,057
-264,497	800,000	-0,033	0,096
-263,482	-200,000	0,000	-0,013
-262,467	-200,000	0,020	0,091
-261,453	-0,731	0,042	0,021
-260,438	-200,000	0,015	-0,079
-259,424	272,685	-0,078	-0,098
-258,409	800,000	-0,028	0,057
-257,395	-130,088	0,140	0,013
-256,380	-200,000	0,008	0,079
-255,365	-200,000	0,046	0,154
-254,351	-29,061	-0,066	0,027
-253,336	-96,220	0,010	-0,002
-252,322	-16,100	-0,040	-0,018
-251,307	-136,697	0,142	0,012
-250,292	722,190	0,066	-0,126
-249,278	165,307	0,057	0,058
-248,263	-26,872	0,059	0,024
-247,249	-66,951	-0,076	-0,021
-246,234	191,394	-0,045	-0,049
-245,219	-200,000	0,011	0,046
-244,205	-200,000	-0,022	0,089
-243,190	1,680	0,097	0,050
-242,176	-76,874	0,029	0,007
-241,161	-30,755	-0,079	0,032
-240,146	206,513	-0,013	-0,015
-239,132	800,000	0,019	0,042
-238,117	360,579	-0,048	-0,069
-237,103	-122,002	-0,112	-0,013
-236,088	296,584	0,078	-0,102
-235,073	-93,134	-0,103	-0,020
-234,059	258,247	0,104	0,128
-233,044	443,426	-0,048	-0,075
-232,030	34,546	-0,014	0,009
-231,015	800,000	-0,009	-0,023
-230,000	558,892	0,060	-0,104
-228,986	-75,926	0,070	-0,018
-227,971	-200,000	0,027	0,160
-226,957	36,480	0,073	-0,046
-225,942	-107,471	0,085	0,013
-224,927	584,918	-0,068	0,120
-223,913	3,291	-0,041	-0,021
-222,898	66,389	-0,102	0,074
-221,884	85,581	-0,098	-0,077
-220,869	-200,000	0,031	0,103
-219,855	122,250	-0,031	0,027
-218,840	-200,000	0,019	0,095
-217,825	-56,498	-0,185	-0,058
-216,811	135,271	-0,122	0,114
-215,796	-16,803	0,130	-0,058
-214,782	800,000	-0,041	0,112
-213,767	-200,000	-0,012	0,055
-212,752	800,000	-0,040	0,109
-211,738	-108,963	0,121	0,018
-210,723	705,213	0,048	0,091
-209,709	310,955	-0,024	-0,033
-208,694	474,294	0,020	-0,032
-207,679	-200,000	-0,030	0,125
-206,665	404,083	-0,017	0,026
-205,650	-157,488	0,032	0,001
-204,636	800,000	0,024	0,057
-203,621	305,902	-0,049	-0,065
-202,606	-19,643	-0,171	0,075
-201,592	-200,000	-0,008	0,051
-200,577	-55,504	0,036	-0,011
-199,563	-200,000	-0,003	0,027
-198,548	62,056	-0,084	0,059
-197,533	36,308	0,077	-0,048
-196,519	38,971	-0,080	-0,051
-195,504	113,430	-0,063	-0,055
-194,490	-200,000	-0,004	-0,022
-193,475	198,430	-0,035	-0,039
-192,460	174,928	0,064	0,066
-191,446	455,359	-0,079	0,125
-190,431	-200,000	0,005	-0,073
-189,417	-200,000	-0,009	0,095
-188,402	123,052	-0,044	-0,039
-187,387	-42,723	-0,118	-0,043
-186,373	-96,586	0,119	-0,022
-185,358	363,792	-0,029	-0,041
-184,344	169,746	0,099	0,101
-183,329	20,629	0,142	0,081
-182,315	-200,000	-0,014	-0,060
-181,300	92,395	0,086	0,069
-180,285	151,214	0,096	-0,093
-179,271	-200,000	0,024	0,102
-178,256	10,510	0,030	0,016
-177,242	800,000	-0,028	0,073
-176,227	214,942	0,076	0,086
-175,212	-46,449	-0,060	0,021
-174,198	25,901	0,048	0,029
-173,183	800,000	-0,025	-0,064
-172,169	297,266	-0,073	-0,096
-171,154	800,000	0,070	-0,185
-170,139	160,999	-0,074	-0,073
-169,125	-49,522	0,170	-0,057
-168,110	-200,000	-0,018	0,110
-167,096	6,762	0,015	0,008
-166,081	259,112	-0,060	0,074
-165,066	-35,376	0,119	-0,046
-164,052	467,032	-0,031	-0,049
-163,037	107,253	-0,040	-0,034
-162,023	-200,000	-0,011	-0,094
-161,008	-94,990	0,097	0,019
-159,993	61,408	0,078	0,055
-158,979	-58,505	-0,178	0,055
-157,964	-200,000	-0,008	0,050
-156,950	800,000	0,045	-0,113
-155,935	670,368	0,025	0,047
-154,920	-171,142	-0,053	-0,001
-153,906	-143,698	0,048	-0,003
-152,891	265,248	-0,041	0,051
-151,877	-115,029	-0,147	-0,020
-150,862	-78,891	-0,078	-0,019
-149,847	559,311	-0,082	0,142
-148,833	637,945	-0,034	-0,062
-147,818	-200,000	-0,009	0,067
-146,804	83,301	-0,060	0,046
-145,789	800,000	-0,076	0,156
-144,775	113,672	-0,107	-0,093
-143,760	696,408	-0,032	-0,060
-142,745	253,262	-0,067	-0,082
-141,731	800,000	-0,029	0,077
-140,716	-77,605	-0,061	-0,015
-139,702	800,000	0,022	0,047
-138,687	-200,000	0,012	0,144
-137,672	-200,000	-0,006	0,031
-136,658	-34,145	-0,069	0,027
-135,643	50,208	0,086	0,058
-134,629	-200,000	-0,018	0,106
-133,614	177,520	-0,049	0,051
-132,599	62,027	-0,037	0,026
-131,585	-200,000	0,013	0,075
-130,570	-82,824	0,083	-0,019
-129,556	-35,111	-0,097	0,038
-128,541	-200,000	-0,009	0,039
-127,526	-73,970	-0,060	0,015
-126,512	-200,000	0,003	-0,015
-125,497	411,396	0,029	0,044
-124,483	800,000	0,013	-0,031
-123,468	435,135	-0,057	0,088
-122,453	603,201	-0,050	-0,088
-121,439	18,230	0,071	0,040
-120,424	-200,000	-0,027	-0,231
-119,410	-16,925	0,052	-0,023
-118,395	-200,000	0,005	0,084
-117,380	127,622	-0,082	0,074
-116,366	129,480	-0,065	-0,059
-115,351	181,048	0,065	-0,068
-114,337	71,857	-0,035	0,026
-113,322	800,000	-0,032	0,072
-112,307	-200,000	0,013	0,142
-111,293	-200,000	0,018	0,081
-110,278	315,139	0,090	0,121
-109,264	28,939	-0,076	0,046
-108,249	800,000	0,023	0,058
-107,234	377,786	0,086	0,126
-106,220	27,908	-0,089	0,053
-105,205	161,148	0,093	0,092
-104,191	-120,899	0,079	0,009
-103,176	-143,621	0,183	-0,012
-102,162	-80,204	-0,146	0,034
-101,147	323,431	0,049	0,067
-100,132	646,547	0,018	-0,033
-99,118	33,505	0,084	-0,051
-98,103	370,257	0,062	0,090
-97,089	800,000	-0,092	0,184
-96,074	-200,000	0,045	0,168
-95,059	220,154	-0,088	0,100
-94,045	-96,877	0,060	-0,011
-93,030	39,955	-0,084	-0,053
-92,016	-200,000	-0,011	-0,042
-91,001	-200,000	-0,007	0,048
-89,986	223,960	0,055	0,063
-88,972	323,970	-0,065	0,089
-87,957	34,340	-0,029	-0,018
-86,943	471,628	0,073	0,117
-85,928	-200,000	-0,005	0,091
-84,913	-200,000	0,010	-0,065
-83,899	-5,790	-0,060	0,029
-82,884	-200,000	0,005	0,108
-81,870	-107,700	-0,084	-0,013
-80,855	800,000	-0,023	0,062
-79,840	-150,764	0,091	0,005
-78,826	235,717	-0,012	0,014
-77,811	800,000	-0,037	-0,087
-76,797	-111,360	0,114	0,016
-75,782	800,000	-0,039	0,087
-74,767	44,161	0,138	0,089
-73,753	-12,865	0,059	-0,027
-72,738	-58,369	-0,177	0,054
-71,724	2,904	-0,079	-0,041
-70,709	-138,823	-0,101	0,008
-69,694	305,852	-0,082	-0,108
-68,680	25,382	0,091	0,054
-67,665	-200,000	0,024	0,095
-66,651	-92,131	0,089	0,018
-65,636	800,000	0,026	0,056
-64,622	67,921	-0,173	-0,125
-63,607	800,000	-0,050	-0,102
-62,592	-58,299	-0,106	-0,033
-61,578	800,000	0,021	-0,055
-60,563	-188,701	0,096	-0,001
-59,549	-200,000	0,009	0,044
-58,534	-73,451	-1,528	-0,393
-57,519	300,713	-1,571	-2,059
-56,505	-200,000	-0,464	-4,482
-55,490	159,164	1,169	1,153
-54,476	800,000	4,677	11,046
-53,461	-200,000	18,250	292,827
-52,446	800,000	729,592	2246,955
-51,432	558,774	1645,940	2825,749
-50,417	79,049	1666,731	1263,612
-49,403	22,543	1540,108	890,536
-48,388	16,562	1463,453	817,199
-47,373	17,826	1453,141	817,503
-46,359	17,139	1443,596	808,810
-45,344	14,858	1438,771	795,170
-44,330	14,759	1437,048	793,714
-43,315	14,761	1435,366	792,763
-42,300	14,799	1433,814	792,054
-41,286	14,782	1432,544	791,239
-40,271	14,789	1431,111	790,454
-39,257	14,761	1429,971	789,656
-38,242	14,811	1428,634	789,128
-37,227	14,805	1427,183	788,264
-36,213	14,767	1426,195	787,509
-35,198	14,801	1424,812	786,873
-34,184	14,829	1424,152	786,609
-33,169	14,786	1422,712	785,579
-32,154	14,790	1421,732	785,025
-31,140	14,811	1420,385	784,351
-30,125	14,810	1419,200	783,659
-29,111	14,848	1418,039	783,167
-28,096	14,796	1417,184	782,420
-27,082	14,712	1415,909	781,290
-26,067	14,744	1414,844	780,823
-25,052	14,705	1413,889	780,078
-24,038	14,692	1412,965	779,479
-23,023	14,702	1411,857	778,881
-22,009	14,726	1410,794	778,380
-20,994	14,680	1409,863	777,619
-19,979	14,649	1409,055	776,997
-18,965	14,667	1408,020	776,480
-17,950	14,609	1407,238	775,746
-16,936	14,686	1406,011	775,396
-15,921	14,631	1404,884	774,490
-14,906	14,631	1404,211	774,089
-13,892	14,669	1403,175	773,662
-12,877	14,628	1402,308	772,964
-11,863	14,667	1401,168	772,485
-10,848	14,623	1400,674	771,979
-9,833	14,596	1399,642	771,252
-8,819	14,564	1398,765	770,592
-7,804	14,497	1398,032	769,846
-6,790	14,519	1396,833	769,257
-5,775	14,512	1395,686	768,562
-4,760	14,542	1394,786	768,174
-3,746	14,559	1394,104	767,846
-2,731	14,528	1393,172	767,159
-1,717	14,510	1392,491	766,670
-0,702	14,525	1390,529	765,627
0,313	18,242	1309,329	738,171
1,327	34,532	706,373	436,007
2,342	53,079	124,475	84,249
3,356	2,922	16,612	8,514
4,371	13,016	3,177	1,735
5,386	31,854	0,617	0,375
6,400	-200,000	-0,007	0,080
7,415	675,036	-0,189	-0,349
8,429	-13,126	-0,441	-0,202
9,444	189,710	-0,372	-0,395
10,459	-58,272	-0,215	-0,066
11,473	279,674	-0,211	-0,267
12,488	-15,299	-0,277	-0,125
13,502	2,325	-0,161	-0,082
14,517	-18,333	-0,435	-0,191
15,531	92,082	-0,316	-0,251
16,546	241,031	-0,176	-0,208
17,561	134,086	-0,422	-0,386
18,575	-21,278	-0,325	-0,140
19,590	261,397	-0,208	-0,256
20,604	153,346	-0,216	-0,209
21,619	255,952	-0,293	-0,355
22,634	121,805	-0,452	-0,399
23,648	96,142	-0,429	-0,346
24,663	40,759	-0,343	-0,218
25,677	176,804	-0,268	-0,276
26,692	800,000	-0,118	-0,358
27,707	-71,820	-0,367	-0,096
28,721	185,951	-0,344	-0,362
29,736	11,187	-0,374	-0,202
30,750	91,625	-0,333	-0,265
31,765	1,920	-0,409	-0,208
32,780	18,070	-0,347	-0,195
33,794	70,466	-0,308	-0,225
34,809	21,628	-0,398	-0,228
35,823	223,479	-0,290	-0,331
36,838	160,873	-0,350	-0,346
37,853	230,147	-0,367	-0,425
38,867	122,529	-0,335	-0,295
39,882	116,001	-0,277	-0,240
40,896	75,181	-0,406	-0,302
41,911	87,865	-0,285	-0,223
42,926	47,068	-0,290	-0,190
43,940	121,622	-0,372	-0,327
44,955	66,578	-0,456	-0,327
45,969	62,657	-0,323	-0,228
46,984	29,091	-0,368	-0,220
47,999	28,637	-0,373	-0,222
49,013	177,056	-0,247	-0,253
50,028	172,600	-0,233	-0,237
51,042	244,875	-0,250	-0,297
52,057	50,566	-0,351	-0,234
53,071	129,471	-0,278	-0,251
54,086	37,840	-0,351	-0,219
55,101	-1,317	-0,280	-0,139
56,115	-29,747	-0,409	-0,164
57,130	265,773	-0,253	-0,312
58,144	-43,040	-0,277	-0,098
59,159	147,571	-0,321	-0,305
60,174	97,664	-0,347	-0,281
61,188	73,105	-0,281	-0,207
62,203	32,931	-0,218	-0,133
63,217	-62,113	-0,262	-0,077
64,232	3,642	-0,431	-0,221
65,247	81,348	-0,267	-0,203
66,261	102,129	-0,303	-0,249
67,276	189,668	-0,362	-0,383
68,290	83,784	-0,427	-0,328
69,305	29,314	-0,407	-0,243
70,320	-9,527	-0,389	-0,182
71,334	-37,680	-0,364	-0,136
72,349	194,602	-0,274	-0,293
73,363	3,904	-0,432	-0,221
74,378	87,697	-0,384	-0,299
75,393	161,591	-0,233	-0,230
76,407	115,022	-0,207	-0,178
77,422	44,090	-0,277	-0,179
78,436	-118,228	-0,246	-0,031
79,451	-18,427	-0,285	-0,125
80,466	18,097	-0,383	-0,214
81,480	-118,387	-0,492	-0,061
82,495	145,132	-0,358	-0,337
83,509	92,251	-0,375	-0,297
84,524	689,635	-0,206	-0,380
85,539	-81,833	-0,225	-0,051
86,553	-27,592	-0,139	-0,057
87,568	78,869	-0,319	-0,240
88,582	148,006	-0,232	-0,220
89,597	-3,112	-0,315	-0,154
90,611	41,239	-0,268	-0,170
91,626	333,561	-0,243	-0,331
92,641	185,628	-0,209	-0,218
93,655	148,149	-0,307	-0,291
94,670	20,391	-0,296	-0,168
95,684	46,728	-0,333	-0,217
96,699	75,306	-0,297	-0,220
97,714	-38,536	-0,299	-0,110
98,728	18,880	-0,227	-0,127
99,743	186,695	-0,196	-0,206
100,757	-89,312	-0,255	-0,052
101,772	-15,020	-0,221	-0,099
102,787	140,351	-0,296	-0,274
103,801	219,258	-0,286	-0,322
104,816	111,428	-0,289	-0,245
105,830	68,998	-0,194	-0,139
106,845	14,770	-0,235	-0,129
107,860	147,881	-0,285	-0,270
108,874	-106,165	-0,354	-0,055
109,889	85,803	-0,203	-0,156
110,903	181,559	-0,248	-0,256
111,918	546,076	-0,154	-0,259
112,933	67,454	-0,179	-0,128
113,947	166,504	-0,181	-0,180
114,962	-70,692	-0,149	-0,039
115,976	43,812	-0,363	-0,233
116,991	3,473	-0,300	-0,153
118,006	456,817	-0,183	-0,285
119,020	-11,722	-0,219	-0,101
120,035	800,000	-0,087	-0,174
121,049	-133,701	-0,161	-0,014
122,064	52,577	-0,208	-0,139
123,079	-42,550	-0,298	-0,106
124,093	-12,021	-0,342	-0,156
125,108	253,762	-0,235	-0,282
126,122	97,573	-0,187	-0,151
127,137	93,608	-0,238	-0,189
128,151	64,500	-0,241	-0,170
129,166	112,898	-0,271	-0,230
130,181	119,471	-0,296	-0,257
131,195	114,288	-0,273	-0,232
132,210	63,199	-0,207	-0,145
133,224	-50,015	-0,294	-0,097
134,239	87,153	-0,228	-0,176
135,254	117,597	-0,304	-0,262
136,268	60,849	-0,305	-0,212
137,283	-87,255	-0,167	-0,035
138,297	-36,246	-0,276	-0,104
139,312	30,044	-0,348	-0,207
140,327	44,014	-0,408	-0,261
141,341	95,786	-0,226	-0,180
142,356	25,814	-0,258	-0,150
143,370	67,547	-0,210	-0,150
144,385	35,936	-0,335	-0,206
145,400	8,405	-0,171	-0,090
146,414	143,000	-0,236	-0,220
147,429	53,216	-0,269	-0,180
148,443	29,197	-0,387	-0,229
149,458	35,620	-0,183	-0,112
150,473	480,415	-0,073	-0,117
151,487	44,613	-0,315	-0,202
152,502	58,432	-0,328	-0,224
153,516	110,473	-0,211	-0,178
154,531	86,429	-0,147	-0,113
155,546	393,301	-0,141	-0,205
156,560	236,771	-0,114	-0,132
157,575	204,385	-0,209	-0,227
158,589	156,220	-0,233	-0,225
159,604	70,981	-0,279	-0,201
160,619	-41,153	-0,225	-0,081
161,633	800,000	-0,128	-0,377
162,648	56,696	-0,247	-0,167
163,662	296,038	-0,247	-0,317
164,677	386,545	-0,135	-0,195
165,692	92,014	-0,314	-0,247
166,706	224,991	-0,109	-0,123
167,721	102,178	-0,211	-0,172
168,735	659,542	-0,152	-0,274
169,750	12,942	-0,288	-0,155
170,764	204,993	-0,127	-0,138
171,779	-200,000	0,019	-0,157
172,794	-101,968	-0,167	-0,028
173,808	-148,269	-0,440	-0,025
174,823	-60,927	-0,316	-0,093
175,837	92,743	-0,195	-0,154
176,852	227,850	-0,214	-0,243
177,867	492,791	-0,093	-0,150
178,881	129,974	-0,032	-0,028
179,896	97,125	-0,133	-0,106
180,910	47,413	-0,257	-0,167
181,925	-48,272	-0,303	-0,101
182,940	135,995	-0,196	-0,178
183,954	42,899	-0,222	-0,141
184,969	800,000	-0,046	-0,108
185,983	-200,000	-0,002	-0,159
186,998	237,099	-0,143	-0,166
188,013	191,167	-0,161	-0,169
189,027	264,364	-0,236	-0,287
190,042	152,353	-0,235	-0,223
191,056	117,850	-0,274	-0,235
192,071	185,474	-0,261	-0,270
193,086	-39,408	-0,227	-0,082
194,100	-200,000	-0,039	-0,141
195,115	-200,000	0,005	-0,144
196,129	541,343	-0,192	-0,320
197,144	266,716	-0,194	-0,236
198,159	29,127	-0,197	-0,116
199,173	-26,584	-0,110	-0,045
200,188	96,350	-0,188	-0,149
201,202	69,321	-0,290	-0,208
202,217	88,629	-0,167	-0,129
203,232	-4,880	-0,236	-0,113
204,246	-83,575	-0,196	-0,043
205,261	26,415	-0,227	-0,131
206,275	70,612	-0,157	-0,113
207,290	285,961	-0,127	-0,159
208,304	-200,000	-0,053	-0,203
209,319	162,960	-0,086	-0,085
210,334	-168,507	-0,222	0,006
211,348	360,392	-0,156	-0,217
212,363	202,283	-0,083	-0,090
213,377	241,807	-0,199	-0,231
214,392	800,000	-0,063	-0,178
215,407	30,804	-0,257	-0,153
216,421	118,098	-0,171	-0,147
217,436	19,615	-0,241	-0,134
218,450	153,526	-0,224	-0,214
219,465	66,164	-0,265	-0,187
220,480	304,338	-0,140	-0,181
221,494	304,498	-0,072	-0,093
222,509	71,750	-0,066	-0,048
223,523	-200,000	-0,032	-0,132
224,538	-139,064	-0,262	-0,019
225,553	98,739	-0,232	-0,186
226,567	-14,459	-0,342	-0,152
227,582	-13,962	-0,126	-0,056
228,596	86,598	-0,079	-0,060
229,611	58,257	-0,221	-0,150
230,626	163,862	-0,092	-0,090
231,640	800,000	-0,083	-0,176
232,655	108,652	-0,220	-0,182
233,669	-78,568	-0,270	-0,064
234,684	368,629	-0,153	-0,215
235,699	209,050	-0,063	-0,069
236,713	374,952	-0,144	-0,205
237,728	233,907	-0,136	-0,156
238,742	175,743	-0,135	-0,136
239,757	229,187	-0,173	-0,196
240,772	56,673	-0,143	-0,097
241,786	-18,933	-0,240	-0,103
242,801	-200,000	0,010	-0,239
243,815	-145,496	-0,152	-0,009
244,830	529,765	-0,082	-0,134
245,844	179,247	-0,072	-0,073
246,859	-33,318	-0,198	-0,076
247,874	12,372	-0,321	-0,171
248,888	106,747	-0,280	-0,230
249,903	-125,833	-0,163	0,017
250,917	0,938	-0,075	-0,037
251,932	207,952	-0,066	-0,071
252,947	553,388	-0,089	-0,149
253,961	323,683	-0,088	-0,116
254,976	-15,881	-0,151	-0,066
255,990	425,364	-0,134	-0,200
257,005	225,695	-0,095	-0,107
258,020	56,983	-0,170	-0,115
259,034	77,837	-0,108	-0,080
260,049	358,468	-0,136	-0,188
261,063	800,000	-0,041	-0,118
262,078	224,842	-0,159	-0,178
263,093	-101,786	-0,201	-0,033
264,107	89,354	-0,133	-0,102
265,122	57,749	-0,188	-0,127
266,136	263,085	-0,078	-0,094
267,151	145,631	-0,185	-0,172
268,166	97,686	-0,150	-0,119
269,180	-4,585	-0,214	-0,102
270,195	800,000	-0,063	-0,147
271,209	-54,014	-0,196	-0,061
272,224	113,454	-0,088	-0,073
273,239	800,000	-0,065	-0,162
274,253	800,000	-0,063	-0,144
275,268	4,855	-0,211	-0,107
276,282	8,944	-0,153	-0,079
277,297	524,571	-0,110	-0,179
278,312	-60,858	-0,165	-0,048
279,326	-174,267	-0,135	-0,003
280,341	683,392	-0,090	-0,162
281,355	-109,983	-0,126	-0,018
282,370	100,268	-0,149	-0,119
283,384	-20,427	-0,273	-0,115
284,399	-200,000	-0,060	-0,216
285,414	408,287	-0,163	-0,239
286,428	309,178	-0,132	-0,170
287,443	249,392	-0,127	-0,149
288,457	-200,000	-0,005	0,075
289,472	19,621	-0,149	-0,083
290,487	-108,384	-0,235	0,035
291,501	458,119	-0,173	-0,267
292,516	-85,868	-0,142	-0,030
293,530	-96,962	-0,152	-0,027
294,545	-48,646	-0,216	-0,071
295,560	-135,567	-0,062	-0,005
296,574	58,101	-0,142	-0,096
297,589	779,327	-0,101	-0,191
298,603	309,510	-0,171	-0,221
299,618	-48,450	-0,193	-0,064
300,633	-73,021	-0,213	-0,054
301,647	-97,403	-0,200	-0,036
302,662	129,558	-0,154	0,136
303,676	-101,716	-0,053	-0,009
304,691	-200,000	-0,057	-0,176
305,706	153,019	-0,153	-0,144
306,720	24,471	-0,266	-0,151
307,735	800,000	-0,020	-0,055
308,749	-118,233	-0,098	-0,012
309,764	33,124	-0,064	-0,038
310,779	-127,089	-0,182	-0,018
311,793	-200,000	-0,000	-0,116
312,808	800,000	-0,096	-0,183
313,822	26,492	-0,116	-0,067
314,837	-63,208	-0,081	0,023
315,852	-16,317	-0,128	-0,056
316,866	-65,371	-0,047	0,013
317,881	96,517	-0,072	-0,057
318,895	-24,092	-0,173	-0,071
319,910	800,000	-0,039	-0,080
320,925	-63,387	-0,293	-0,082
321,939	-75,887	-0,192	-0,046
322,954	-58,684	-0,066	-0,019
323,968	-20,253	-0,139	-0,059
324,983	-200,000	-0,014	-0,100
325,997	487,683	-0,121	-0,190
327,012	168,022	-0,229	-0,224
328,027	-14,609	-0,171	-0,075
329,041	-49,548	-0,052	-0,017
330,056	-30,045	-0,154	0,060
331,070	10,504	-0,121	-0,063
332,085	-69,430	-0,114	0,030
333,100	-0,700	-0,207	0,100
334,114	-18,486	-0,142	0,061
335,129	258,988	-0,211	-0,251
336,143	0,619	-0,080	-0,039
337,158	41,198	-0,137	-0,085
338,173	-200,000	-0,029	-0,091
339,187	-35,949	-0,073	-0,027
340,202	-54,379	-0,151	-0,047
341,216	-57,194	-0,157	-0,047
342,231	384,609	-0,133	-0,188
343,246	200,219	-0,129	-0,136
344,260	-200,000	-0,029	-0,119
345,275	-125,676	-0,104	-0,011
346,289	-56,006	-0,100	-0,030
347,304	158,307	-0,072	-0,069
348,319	800,000	-0,054	-0,132
349,333	800,000	-0,047	-0,118
350,348	130,753	-0,107	-0,094
351,362	67,383	-0,119	-0,083
352,377	-84,221	-0,183	-0,040
353,392	127,166	-0,130	-0,113
354,406	-200,000	-0,016	0,069
355,421	209,891	1315,215	1418,161
356,435	161,562	1476,001	1418,666
