DTS Sentinel unit serial number:	SN410029Multiplexer serial number:	ORYXHardware model number:	OX2-SRSoftware version number:	ORYX F/W v4,00 Oryx Data Collector v3.7.2.0data status	okinstallation	B3 Nyhavnadifferential loss correction	single-endedforward channel	channel 1reverse channel	N/Adate	2023/12/04time	11:22:30forward acquisition time	300,00reverse acquisition time	0,00gamma	499,1914k internal	0,3202k external	0,3202temperature offset calibration	1,0000default loss term (dB/km)	0,3820temperature slope calibration	1,0000multiplexer offset coefficient	1,0000multiplexer slope coefficient	1,0000fibre end	0,00T internal ref (°C)	13,96T ext. ref 1 (°C)	-0,33T ext. ref 2 (°C)	-0,34length (m)	temperature (°C)	Stokes	anti-Stokes-744,400	286,955	-0,094	-0,124
-743,385	-200,000	-0,003	0,183
-742,371	118,086	-0,107	-0,096
-741,356	-200,000	-0,012	0,351
-740,342	80,712	-0,228	-0,179
-739,327	800,000	-0,094	0,197
-738,312	-200,000	-0,013	-0,250
-737,298	-200,000	0,004	0,327
-736,283	186,965	-0,262	-0,284
-735,269	800,000	0,101	0,259
-734,254	261,956	-0,141	-0,179
-733,239	-0,977	-0,196	0,100
-732,225	-200,000	-0,001	-0,171
-731,210	-54,843	0,190	0,062
-730,196	-200,000	-0,009	-0,200
-729,181	82,317	-0,061	-0,048
-728,167	800,000	-0,008	-0,021
-727,152	86,572	0,085	-0,068
-726,137	407,365	-0,101	-0,155
-725,123	800,000	-0,088	-0,199
-724,108	131,181	-0,128	-0,120
-723,094	-200,000	-0,019	-0,062
-722,079	-113,743	0,068	0,010
-721,064	-15,887	0,072	0,033
-720,050	423,760	-0,033	-0,051
-719,035	-122,334	0,073	-0,009
-718,021	-87,208	-0,155	-0,034
-717,006	306,384	-0,050	-0,067
-715,991	-200,000	-0,047	-0,166
-714,977	800,000	-0,059	-0,171
-713,962	11,996	0,152	0,085
-712,948	-200,000	-0,002	0,013
-711,933	-30,927	0,192	0,078
-710,918	3,880	-0,128	0,068
-709,904	66,393	-0,096	0,071
-708,889	-200,000	0,032	-0,139
-707,875	800,000	-0,024	-0,053
-706,860	-118,672	0,095	0,012
-705,845	13,962	-0,163	0,092
-704,831	-200,000	-0,001	0,046
-703,816	-99,709	0,064	0,012
-702,802	80,110	-0,050	-0,039
-701,787	-200,000	0,015	-0,147
-700,772	602,292	-0,116	-0,210
-699,758	-200,000	-0,014	-0,111
-698,743	551,027	0,074	0,129
-697,729	-200,000	0,001	0,039
-696,714	349,963	0,023	0,034
-695,699	-105,875	-0,119	-0,019
-694,685	67,695	-0,101	-0,075
-693,670	-100,066	-0,137	-0,025
-692,656	-200,000	-0,006	0,035
-691,641	29,762	0,049	0,030
-690,627	-84,323	0,152	0,035
-689,612	399,080	-0,028	-0,042
-688,597	37,811	0,044	-0,028
-687,583	429,506	-0,078	-0,122
-686,568	-200,000	-0,007	0,027
-685,554	-200,000	-0,007	-0,220
-684,539	93,426	0,082	-0,068
-683,524	-29,633	-0,046	0,019
-682,510	74,853	0,039	0,030
-681,495	168,475	-0,031	0,033
-680,481	233,621	0,096	-0,115
-679,466	-200,000	0,004	-0,088
-678,451	-200,000	-0,014	-0,047
-677,437	-1,649	-0,099	-0,050
-676,422	133,580	0,058	-0,054
-675,408	-113,459	-0,125	0,017
-674,393	631,079	0,035	0,065
-673,378	317,543	-0,090	0,124
-672,364	318,726	-0,047	-0,064
-671,349	176,666	-0,064	-0,068
-670,335	484,241	-0,067	0,110
-669,320	154,301	-0,026	0,026
-668,305	271,082	-0,084	0,107
-667,291	-200,000	-0,023	0,093
-666,276	746,518	0,024	0,046
-665,262	800,000	0,053	-0,116
-664,247	371,131	-0,062	-0,092
-663,232	800,000	0,032	0,091
-662,218	-200,000	0,011	-0,063
-661,203	135,411	0,100	0,094
-660,189	159,115	0,061	0,062
-659,174	-119,685	-0,123	0,015
-658,159	-90,635	-0,091	0,019
-657,145	81,475	0,067	-0,052
-656,130	28,496	-0,044	0,027
-655,116	800,000	-0,022	0,069
-654,101	-4,447	-0,073	0,036
-653,086	-9,574	0,049	-0,024
-652,072	-200,000	0,002	-0,090
-651,057	-200,000	-0,070	-0,248
-650,043	310,073	-0,072	0,097
-649,028	771,472	-0,033	0,066
-648,014	386,179	0,015	-0,023
-646,999	30,029	-0,059	0,037
-645,984	-200,000	-0,014	-0,108
-644,970	800,000	-0,010	-0,032
-643,955	355,394	-0,041	-0,059
-642,941	800,000	-0,020	-0,060
-641,926	-34,722	-0,107	0,042
-640,911	-12,928	-0,034	-0,016
-639,897	-200,000	0,018	0,167
-638,882	-200,000	0,050	0,160
-637,868	18,376	0,059	-0,034
-636,853	115,500	-0,142	-0,125
-635,838	-200,000	-0,010	-0,085
-634,824	800,000	0,017	0,044
-633,809	-200,000	-0,011	0,052
-632,795	800,000	0,017	0,038
-631,780	800,000	-0,048	0,141
-630,765	200,975	-0,048	0,053
-629,751	-200,000	-0,007	-0,101
-628,736	87,164	-0,015	0,012
-627,722	-52,201	-0,069	-0,023
-626,707	261,721	-0,023	0,029
-625,692	134,146	-0,096	0,090
-624,678	216,297	-0,038	0,044
-623,663	-32,535	-0,103	-0,041
-622,649	800,000	0,051	-0,129
-621,634	-138,221	-0,145	-0,011
-620,619	94,713	-0,110	-0,091
-619,605	800,000	-0,040	0,088
-618,590	448,501	0,072	0,116
-617,576	-167,576	-0,068	0,002
-616,561	-103,200	0,098	0,017
-615,546	-38,841	-0,052	0,020
-614,532	11,529	-0,093	0,051
-613,517	800,000	0,025	-0,073
-612,503	-176,634	0,012	0,000
-611,488	800,000	0,017	0,039
-610,474	14,066	0,123	0,069
-609,459	-47,709	-0,097	-0,034
-608,444	226,648	0,096	-0,113
-607,430	24,276	-0,135	0,080
-606,415	154,992	0,040	0,039
-605,401	800,000	-0,038	-0,120
-604,386	9,523	0,075	-0,041
-603,371	800,000	0,003	0,008
-602,357	-72,994	-0,163	0,043
-601,342	-200,000	-0,004	0,054
-600,328	-69,244	-0,058	-0,016
-599,313	-200,000	0,009	-0,216
-598,298	800,000	-0,008	-0,017
-597,284	-200,000	0,046	0,173
-596,269	26,086	-0,056	0,033
-595,255	-74,390	0,110	-0,029
-594,240	158,349	0,032	-0,033
-593,225	800,000	-0,009	-0,028
-592,211	-18,835	0,035	-0,016
-591,196	-43,224	-0,049	-0,018
-590,182	117,168	-0,053	-0,047
-589,167	674,481	-0,014	0,026
-588,152	-200,000	-0,009	-0,077
-587,138	-3,656	-0,191	0,096
-586,123	-61,124	-0,089	0,027
-585,109	-200,000	0,006	-0,162
-584,094	50,420	-0,030	-0,020
-583,079	50,080	-0,121	0,082
-582,065	-200,000	0,029	0,114
-581,050	-200,000	0,006	0,018
-580,036	153,698	0,089	0,088
-579,021	-128,996	-0,169	0,017
-578,006	-200,000	-0,001	-0,033
-576,992	800,000	0,018	0,047
-575,977	-119,976	-0,098	0,012
-574,963	800,000	0,046	-0,114
-573,948	-200,000	-0,001	0,073
-572,934	800,000	0,030	-0,084
-571,919	175,531	0,059	-0,061
-570,904	36,049	0,062	-0,040
-569,890	-62,528	0,088	0,026
-568,875	-24,558	-0,052	0,022
-567,861	99,491	-0,082	-0,068
-566,846	476,392	0,038	0,062
-565,831	800,000	0,020	0,059
-564,817	97,417	-0,076	-0,063
-563,802	-175,935	-0,196	0,004
-562,788	800,000	-0,045	-0,138
-561,773	-200,000	-0,003	0,037
-560,758	652,467	-0,035	0,065
-559,744	-130,308	0,194	0,019
-558,729	-200,000	-0,014	-0,050
-557,715	71,123	-0,138	-0,103
-556,700	-200,000	0,008	-0,129
-555,685	10,095	-0,072	-0,040
-554,671	-87,625	-0,008	-0,002
-553,656	18,226	-0,096	0,055
-552,642	-200,000	-0,010	-0,048
-551,627	-200,000	-0,013	0,139
-550,612	117,562	0,125	-0,111
-549,598	361,254	-0,048	-0,070
-548,583	-200,000	0,010	-0,097
-547,569	-200,000	0,000	-0,047
-546,554	800,000	0,050	0,110
-545,539	488,399	0,121	0,199
-544,525	-141,223	0,073	0,005
-543,510	-200,000	0,016	-0,076
-542,496	190,908	-0,114	-0,124
-541,481	-200,000	-0,029	-0,137
-540,466	66,414	-0,042	-0,031
-539,452	78,403	-0,033	-0,026
-538,437	220,277	0,077	-0,090
-537,423	31,170	0,053	-0,033
-536,408	-75,530	0,105	0,027
-535,393	100,510	-0,082	-0,068
-534,379	800,000	-0,065	-0,151
-533,364	602,888	-0,097	-0,175
-532,350	-85,466	0,078	-0,017
-531,335	-200,000	0,007	-0,060
-530,321	214,357	0,098	-0,112
-529,306	-77,037	0,062	0,015
-528,291	800,000	-0,025	-0,077
-527,277	800,000	0,056	-0,157
-526,262	177,842	0,044	-0,046
-525,248	-20,309	0,043	-0,019
-524,233	331,940	0,036	0,051
-523,218	-133,138	-0,062	-0,006
-522,204	-200,000	-0,004	-0,072
-521,189	800,000	-0,032	-0,064
-520,175	796,801	-0,039	-0,078
-519,160	-61,985	0,031	0,009
-518,145	97,810	-0,068	0,056
-517,131	-88,016	-0,079	0,017
-516,116	-39,052	0,100	0,038
-515,102	318,088	0,033	0,045
-514,087	-51,299	0,119	-0,040
-513,072	183,918	0,066	0,071
-512,058	-69,776	-0,098	0,027
-511,043	-175,860	-0,109	-0,002
-510,029	-200,000	-0,001	0,067
-509,014	-200,000	0,061	0,207
-507,999	-200,000	-0,034	0,215
-506,985	-200,000	0,002	-0,147
-505,970	728,121	0,037	-0,071
-504,956	800,000	0,034	0,098
-503,941	237,844	-0,079	0,095
-502,926	800,000	0,026	-0,064
-501,912	-24,783	0,067	0,028
-500,897	800,000	0,010	0,020
-499,883	-200,000	-0,010	0,100
-498,868	-29,960	-0,118	0,048
-497,853	-122,283	0,041	-0,005
-496,839	-200,000	-0,023	-0,121
-495,824	343,352	0,019	0,028
-494,810	229,553	0,061	-0,072
-493,795	-200,000	0,030	-0,128
-492,781	110,532	-0,052	-0,045
-491,766	2,854	-0,102	-0,053
-490,751	800,000	-0,064	-0,140
-489,737	800,000	-0,018	-0,040
-488,722	-48,405	0,104	-0,036
-487,708	-25,283	0,065	0,028
-486,693	367,910	-0,034	0,050
-485,678	-200,000	-0,017	0,059
-484,664	800,000	-0,025	-0,066
-483,649	603,673	-0,071	0,127
-482,635	131,512	-0,018	-0,016
-481,620	7,111	0,082	0,044
-480,605	-200,000	0,004	-0,013
-479,591	800,000	-0,007	0,022
-478,576	-93,296	0,146	0,029
-477,562	451,970	-0,075	-0,119
-476,547	-136,421	0,207	-0,017
-475,532	695,238	0,012	0,023
-474,518	-170,396	-0,083	0,002
-473,503	-200,000	0,006	0,079
-472,489	142,350	0,089	0,085
-471,474	129,305	-0,037	-0,034
-470,459	-103,913	-0,040	0,007
-469,445	506,952	-0,023	-0,039
-468,430	-28,160	-0,063	-0,026
-467,416	89,699	-0,135	-0,109
-466,401	-127,584	0,065	0,007
-465,386	-190,675	0,089	-0,001
-464,372	800,000	-0,043	-0,125
-463,357	800,000	0,006	-0,020
-462,343	-132,011	0,116	0,011
-461,328	-179,386	0,015	-0,000
-460,313	-200,000	-0,005	0,037
-459,299	-137,597	0,083	-0,007
-458,284	0,472	0,090	0,046
-457,270	800,000	0,059	0,128
-456,255	114,541	-0,012	-0,011
-455,241	-37,581	-0,123	0,047
-454,226	800,000	-0,055	-0,137
-453,211	800,000	0,011	0,027
-452,197	-200,000	-0,011	0,050
-451,182	-200,000	-0,008	0,100
-450,168	-200,000	0,017	0,101
-449,153	-200,000	0,007	0,057
-448,138	-200,000	-0,011	-0,082
-447,124	113,104	-0,054	-0,047
-446,109	384,795	0,044	0,065
-445,095	59,881	-0,055	-0,039
-444,080	-68,595	0,114	0,031
-443,065	-64,539	0,043	0,012
-442,051	334,942	-0,049	-0,068
-441,036	154,410	-0,075	0,074
-440,022	-31,271	-0,195	0,079
-439,007	-193,265	0,155	0,001
-437,992	-200,000	-0,017	0,064
-436,978	-200,000	0,009	0,075
-435,963	158,596	-0,059	0,059
-434,949	16,760	0,088	-0,050
-433,934	-93,577	-0,129	-0,025
-432,919	494,456	0,010	0,016
-431,905	96,546	-0,030	0,025
-430,890	-200,000	-0,099	0,000
-429,876	-200,000	-0,019	0,065
-428,861	-200,000	-0,003	0,065
-427,846	176,885	-0,040	-0,042
-426,832	800,000	0,015	0,048
-425,817	-58,159	-0,165	-0,051
-424,803	8,061	0,024	-0,013
-423,788	133,938	0,092	0,086
-422,773	-3,133	0,029	0,014
-421,759	-200,000	0,015	0,302
-420,744	80,650	0,091	-0,071
-419,730	262,649	-0,008	0,010
-418,715	554,916	0,039	-0,067
-417,701	-200,000	0,012	0,054
-416,686	800,000	0,026	0,066
-415,671	-26,013	-0,086	0,036
-414,657	-166,138	0,022	-0,001
-413,642	-200,000	0,004	-0,027
-412,628	-191,276	-0,134	0,001
-411,613	-200,000	-0,011	-0,094
-410,598	404,507	0,074	-0,112
-409,584	-151,197	-0,043	0,002
-408,569	-200,000	0,006	0,158
-407,555	269,628	0,051	-0,064
-406,540	800,000	-0,048	-0,148
-405,525	-32,033	-0,056	0,023
-404,511	55,702	-0,072	-0,050
-403,496	800,000	0,086	-0,265
-402,482	65,447	0,047	0,034
-401,467	800,000	0,057	0,164
-400,452	800,000	0,016	0,034
-399,438	306,532	-0,065	0,087
-398,423	-200,000	-0,010	0,096
-397,409	-132,708	0,068	0,006
-396,394	-105,357	-0,029	0,005
-395,379	-40,040	0,041	-0,015
-394,365	-200,000	0,013	-0,135
-393,350	534,119	0,119	0,204
-392,336	-55,843	-0,056	0,018
-391,321	-90,218	-0,032	0,007
-390,306	-200,000	0,011	-0,100
-389,292	478,833	-0,024	-0,040
-388,277	-73,471	-0,059	0,015
-387,263	-200,000	0,021	-0,095
-386,248	-133,101	0,062	0,006
-385,233	-123,827	0,045	-0,005
-384,219	-200,000	-0,053	0,182
-383,204	-78,256	0,065	0,016
-382,190	-168,437	-0,043	0,001
-381,175	800,000	-0,010	-0,030
-380,160	800,000	-0,060	0,133
-379,146	-74,042	-0,033	-0,009
-378,131	-14,788	0,019	-0,009
-377,117	-64,116	0,071	-0,021
-376,102	-200,000	0,012	-0,097
-375,088	652,851	-0,034	0,062
-374,073	-77,572	0,022	0,005
-373,058	800,000	-0,026	0,053
-372,044	56,217	0,134	-0,093
-371,029	180,313	0,044	-0,046
-370,015	2,615	-0,036	0,019
-369,000	53,638	-0,048	-0,033
-367,985	782,306	0,039	0,077
-366,971	-86,867	-0,077	0,017
-365,956	-200,000	0,017	-0,071
-364,942	800,000	0,025	0,050
-363,927	-111,386	0,128	0,018
-362,912	36,166	-0,066	-0,041
-361,898	187,629	-0,054	-0,058
-360,883	169,949	-0,094	-0,097
-359,869	-200,000	0,031	-0,107
-358,854	480,922	0,015	0,025
-357,839	124,784	0,006	0,005
-356,825	-48,305	0,044	0,015
-355,810	-200,000	0,006	0,095
-354,796	-200,000	-0,022	-0,084
-353,781	43,201	0,040	0,026
-352,766	-78,898	-0,119	-0,029
-351,752	345,516	0,019	0,026
-350,737	-41,654	0,070	0,026
-349,723	165,841	-0,062	0,063
-348,708	-200,000	-0,003	-0,016
-347,693	-200,000	0,005	-0,133
-346,679	800,000	0,022	-0,051
-345,664	-76,872	-0,114	0,028
-344,650	6,027	0,128	0,068
-343,635	54,525	-0,115	-0,079
-342,620	-200,000	0,035	0,162
-341,606	-48,409	0,055	-0,019
-340,591	-200,000	0,004	0,102
-339,577	-37,266	0,178	-0,068
-338,562	204,925	0,010	-0,011
-337,548	800,000	0,028	-0,084
-336,533	-200,000	0,008	-0,076
-335,518	-115,345	0,200	0,027
-334,504	-93,440	0,097	-0,019
-333,489	155,881	0,117	0,116
-332,475	-137,831	-0,071	0,006
-331,460	111,726	-0,125	-0,108
-330,445	-200,000	0,023	-0,142
-329,431	43,043	0,101	0,066
-328,416	800,000	-0,050	0,118
-327,402	-200,000	0,033	0,116
-326,387	-200,000	-0,004	-0,068
-325,372	69,781	0,072	-0,053
-324,358	-26,792	0,092	-0,038
-323,343	-200,000	-0,009	-0,047
-322,329	259,337	0,087	0,107
-321,314	-200,000	-0,008	0,044
-320,299	-200,000	0,032	0,190
-319,285	800,000	-0,033	0,070
-318,270	-200,000	0,004	-0,022
-317,256	-29,121	-0,109	-0,044
-316,241	-19,063	0,092	0,041
-315,226	383,372	-0,011	0,016
-314,212	104,803	0,082	0,069
-313,197	-169,838	0,121	-0,003
-312,183	556,179	-0,097	-0,168
-311,168	134,864	-0,131	-0,122
-310,153	800,000	-0,039	0,103
-309,139	800,000	0,043	0,125
-308,124	34,024	0,070	0,044
-307,110	99,573	-0,093	-0,077
-306,095	114,626	-0,116	0,101
-305,080	-85,076	0,153	0,034
-304,066	800,000	-0,027	-0,066
-303,051	-166,831	0,027	-0,001
-302,037	285,798	0,088	-0,113
-301,022	-157,758	-0,060	-0,003
-300,008	800,000	-0,018	0,057
-298,993	800,000	0,025	0,051
-297,978	-200,000	-0,023	0,080
-296,964	-84,783	-0,108	0,024
-295,949	65,945	-0,079	-0,057
-294,935	-200,000	0,005	-0,086
-293,920	-53,239	0,086	0,028
-292,905	136,242	0,080	0,074
-291,891	-29,632	0,080	0,033
-290,876	-163,117	0,077	-0,003
-289,862	7,043	0,053	0,028
-288,847	525,554	0,059	0,100
-287,832	110,898	-0,045	-0,038
-286,818	-200,000	-0,032	-0,117
-285,803	154,435	0,051	-0,050
-284,789	147,195	0,098	-0,094
-283,774	800,000	0,069	0,148
-282,759	66,591	-0,119	0,086
-281,745	184,049	-0,076	-0,080
-280,730	-116,626	-0,214	0,028
-279,716	166,416	0,121	-0,122
-278,701	-5,206	0,058	0,028
-277,686	97,636	-0,041	0,034
-276,672	7,391	-0,067	0,036
-275,657	-108,331	-0,149	0,023
-274,643	-8,429	-0,179	-0,086
-273,628	-200,000	0,013	-0,091
-272,613	25,133	0,069	-0,041
-271,599	-200,000	0,016	0,094
-270,584	-98,336	0,182	-0,033
-269,570	62,800	0,090	0,064
-268,555	-200,000	-0,009	0,139
-267,540	86,913	-0,097	-0,077
-266,526	96,414	-0,082	-0,067
-265,511	177,048	-0,030	-0,031
-264,497	-15,438	0,099	0,045
-263,482	-125,557	-0,084	-0,009
-262,467	800,000	0,075	0,155
-261,453	800,000	-0,020	0,050
-260,438	-200,000	0,003	0,027
-259,424	-200,000	-0,006	-0,055
-258,409	-200,000	-0,010	-0,085
-257,395	-200,000	0,031	-0,143
-256,380	245,770	-0,122	0,147
-255,365	680,671	0,026	-0,049
-254,351	47,659	0,137	-0,091
-253,336	128,421	-0,091	-0,083
-252,322	-200,000	0,015	-0,091
-251,307	-28,574	-0,064	-0,026
-250,292	37,730	-0,023	-0,015
-249,278	196,978	0,144	0,156
-248,263	153,398	-0,066	0,064
-247,249	-114,692	-0,077	0,010
-246,234	513,302	0,016	-0,026
-245,219	-155,458	0,055	-0,002
-244,205	217,083	-0,096	-0,109
-243,190	-92,243	-0,131	0,026
-242,176	46,593	0,047	0,031
-241,161	608,515	0,081	0,145
-240,146	-200,000	0,005	0,129
-239,132	431,451	-0,033	-0,051
-238,117	91,635	-0,077	-0,062
-237,103	800,000	0,031	0,094
-236,088	-200,000	-0,007	0,050
-235,073	-77,495	0,076	-0,019
-234,059	676,985	0,069	0,129
-233,044	35,798	-0,070	0,044
-232,030	800,000	0,030	0,076
-231,015	800,000	-0,063	-0,132
-230,000	194,821	-0,097	0,105
-228,986	-200,000	-0,008	0,068
-227,971	220,653	0,046	0,053
-226,957	27,679	0,128	-0,077
-225,942	-200,000	-0,004	0,184
-224,927	-200,000	0,005	-0,080
-223,913	48,748	-0,067	-0,045
-222,898	800,000	-0,054	-0,107
-221,884	-95,090	0,060	-0,011
-220,869	800,000	-0,060	0,157
-219,855	-200,000	-0,035	0,113
-218,840	-103,179	0,071	0,012
-217,825	-200,000	-0,005	0,076
-216,811	55,477	0,095	0,065
-215,796	800,000	-0,064	-0,155
-214,782	138,015	-0,056	-0,052
-213,767	-33,747	0,085	0,033
-212,752	34,729	0,113	-0,071
-211,738	130,858	0,043	0,039
-210,723	-149,856	0,026	0,001
-209,709	86,991	-0,085	-0,067
-208,694	454,761	-0,030	0,047
-207,679	435,433	0,070	-0,109
-206,665	800,000	0,022	-0,062
-205,650	800,000	0,038	0,101
-204,636	800,000	0,010	-0,021
-203,621	800,000	0,026	0,079
-202,606	-82,103	0,026	0,006
-201,592	-200,000	0,005	-0,153
-200,577	800,000	-0,022	-0,068
-199,563	-200,000	0,015	-0,076
-198,548	800,000	0,033	0,093
-197,533	85,011	-0,028	-0,022
-196,519	-70,324	-0,055	0,015
-195,504	454,515	-0,035	-0,056
-194,490	800,000	0,026	0,059
-193,475	800,000	0,019	0,040
-192,460	213,782	-0,076	0,086
-191,446	-34,136	0,098	0,038
-190,431	-81,345	0,038	-0,009
-189,417	-52,836	0,119	0,039
-188,402	280,803	-0,085	-0,108
-187,387	-200,000	0,009	-0,111
-186,373	800,000	0,032	-0,096
-185,358	146,937	0,136	-0,130
-184,344	800,000	0,035	0,085
-183,329	800,000	0,014	0,042
-182,315	279,167	-0,122	0,155
-181,300	-200,000	-0,011	0,070
-180,285	-70,359	-0,048	-0,013
-179,271	800,000	0,032	-0,093
-178,256	-97,498	0,129	-0,024
-177,242	800,000	0,043	0,110
-176,227	800,000	0,035	0,102
-175,212	599,872	-0,084	0,149
-174,198	-89,219	0,036	0,007
-173,183	461,716	0,064	-0,101
-172,169	-51,665	-0,127	-0,042
-171,154	5,731	0,086	0,045
-170,139	-67,282	0,157	-0,044
-169,125	-125,573	-0,089	0,009
-168,110	150,338	0,028	0,027
-167,096	213,464	-0,072	-0,081
-166,081	800,000	-0,090	-0,179
-165,066	-70,079	-0,051	0,014
-164,052	-56,507	0,053	0,017
-163,037	-200,000	0,041	0,145
-162,023	87,747	0,137	0,108
-161,008	148,871	0,088	0,084
-159,993	-200,000	0,016	-0,144
-158,979	124,953	0,047	-0,042
-157,964	-47,182	-0,109	-0,038
-156,950	-200,000	-0,003	-0,044
-155,935	-5,280	0,097	-0,047
-154,920	-32,823	0,063	-0,025
-153,906	170,740	0,058	-0,059
-152,891	800,000	-0,020	-0,059
-151,877	-26,438	-0,110	-0,045
-150,862	-200,000	-0,014	-0,159
-149,847	-8,939	-0,107	-0,051
-148,833	-153,492	0,134	-0,006
-147,818	-200,000	0,006	-0,032
-146,804	88,052	0,014	0,011
-145,789	118,465	-0,060	-0,053
-144,775	-25,366	-0,183	0,077
-143,760	157,678	-0,028	0,028
-142,745	200,380	0,083	-0,091
-141,731	303,579	-0,074	-0,098
-140,716	-39,204	0,049	0,018
-139,702	-66,816	0,038	0,010
-138,687	177,937	0,005	0,005
-137,672	-61,925	-0,075	-0,022
-136,658	-6,206	-0,062	-0,030
-135,643	24,934	-0,074	0,043
-134,629	133,040	-0,061	0,056
-133,614	-57,730	0,072	0,022
-132,599	-25,681	0,019	-0,008
-131,585	-93,324	0,048	0,009
-130,570	-49,555	-0,112	-0,038
-129,556	425,013	0,071	-0,108
-128,541	-190,490	-0,171	0,001
-127,526	-62,458	0,079	-0,023
-126,512	644,066	-0,046	0,084
-125,497	215,694	-0,043	0,048
-124,483	-55,494	0,054	0,017
-123,468	-200,000	-0,001	-0,019
-122,453	-31,162	-0,102	0,041
-121,439	-180,462	0,022	-0,000
-120,424	800,000	-0,038	-0,087
-119,410	64,320	0,026	0,019
-118,395	-41,969	0,067	0,024
-117,380	-200,000	-0,003	-0,024
-116,366	283,852	-0,037	-0,047
-115,351	-12,660	0,058	0,027
-114,337	88,153	-0,023	0,018
-113,322	34,219	-0,161	-0,099
-112,307	-157,039	0,049	-0,002
-111,293	8,010	0,034	0,018
-110,278	-46,559	-0,136	0,047
-109,264	-20,828	0,137	0,059
-108,249	69,014	-0,071	-0,052
-107,234	0,209	0,064	-0,033
-106,220	-136,719	-0,044	0,004
-105,205	80,184	-0,108	0,082
-104,191	-200,000	-0,002	0,098
-103,176	-200,000	0,016	-0,062
-102,162	-51,033	0,067	0,022
-101,147	249,632	-0,029	0,036
-100,132	37,443	-0,089	-0,056
-99,118	-132,120	0,063	0,006
-98,103	123,126	-0,010	0,009
-97,089	-200,000	-0,006	0,164
-96,074	102,672	0,085	-0,070
-95,059	377,073	0,070	0,101
-94,045	-129,621	0,105	0,010
-93,030	-200,000	-0,006	-0,191
-92,016	276,925	-0,077	-0,097
-91,001	-112,640	-0,022	0,003
-89,986	283,182	-0,044	-0,056
-88,972	-56,899	0,160	0,050
-87,957	432,026	-0,044	-0,068
-86,943	-200,000	0,035	-0,133
-85,928	72,236	0,046	-0,034
-84,913	-27,700	-0,129	-0,053
-83,899	16,460	0,113	-0,063
-82,884	361,166	0,047	-0,067
-81,870	-86,129	-0,076	0,017
-80,855	-200,000	0,036	0,137
-79,840	800,000	-0,019	0,059
-78,826	800,000	-0,009	-0,025
-77,811	-200,000	-0,019	0,100
-76,797	-200,000	-0,019	-0,093
-75,782	114,857	0,097	0,084
-74,767	-200,000	0,025	-0,123
-73,753	222,947	-0,057	-0,065
-72,738	118,063	-0,022	0,019
-71,724	292,919	-0,026	0,034
-70,709	103,401	0,045	0,037
-69,694	-200,000	-0,020	-0,142
-68,680	-200,000	0,006	0,030
-67,665	-53,505	0,124	0,040
-66,651	340,387	-0,043	0,060
-65,636	600,072	-0,030	-0,053
-64,622	42,301	0,109	0,070
-63,607	671,003	-0,055	0,102
-62,592	360,211	-0,077	0,109
-61,578	101,835	0,032	-0,026
-60,563	248,163	-0,028	0,034
-59,549	-82,280	-0,092	0,021
-58,534	-28,671	-1,544	-0,626
-57,519	467,310	-1,340	-2,134
-56,505	-200,000	-0,638	-4,442
-55,490	286,720	0,930	1,192
-54,476	800,000	4,847	10,991
-53,461	-200,000	18,882	306,977
-52,446	800,000	737,300	2298,020
-51,432	568,197	1652,994	2853,276
-50,417	78,803	1670,003	1263,194
-49,403	21,937	1542,525	887,693
-48,388	15,861	1465,360	813,790
-47,373	17,740	1455,492	817,344
-46,359	16,830	1445,630	807,416
-45,344	14,076	1441,093	791,674
-44,330	14,005	1439,089	790,199
-43,315	14,038	1437,414	789,408
-42,300	14,035	1435,768	788,460
-41,286	14,055	1434,404	787,772
-40,271	14,018	1433,173	786,889
-39,257	13,998	1432,198	786,226
-38,242	14,042	1430,740	785,603
-37,227	14,082	1429,488	785,077
-36,213	14,041	1428,117	784,098
-35,198	14,062	1427,052	783,583
-34,184	14,091	1426,173	783,204
-33,169	14,008	1424,755	782,004
-32,154	14,101	1423,605	781,780
-31,140	14,108	1422,346	781,091
-30,125	14,077	1421,262	780,319
-29,111	14,095	1420,152	779,762
-28,096	14,044	1419,129	778,930
-27,082	14,001	1418,032	778,095
-26,067	13,979	1416,931	777,357
-25,052	13,976	1415,808	776,694
-24,038	13,997	1414,848	776,235
-23,023	13,978	1413,887	775,587
-22,009	13,971	1412,796	774,928
-20,994	13,953	1411,917	774,329
-19,979	13,954	1411,106	773,858
-18,965	13,890	1410,384	773,132
-17,950	13,922	1409,320	772,669
-16,936	13,924	1408,461	772,177
-15,921	13,905	1407,163	771,343
-14,906	13,908	1406,218	770,809
-13,892	13,914	1405,404	770,359
-12,877	13,911	1404,558	769,851
-11,863	13,931	1403,391	769,275
-10,848	13,894	1402,860	768,781
-9,833	13,873	1401,781	768,060
-8,819	13,776	1400,999	767,152
-7,804	13,848	1399,962	766,890
-6,790	13,827	1398,738	766,091
-5,775	13,786	1397,751	765,330
-4,760	13,765	1397,080	764,832
-3,746	13,789	1396,170	764,418
-2,731	13,796	1395,220	763,900
-1,717	13,819	1394,559	763,613
-0,702	13,816	1392,852	762,636
0,313	17,667	1310,695	735,482
1,327	34,161	705,590	434,105
2,342	52,729	123,970	83,660
3,356	2,626	16,715	8,539
4,371	4,787	3,252	1,685
5,386	88,828	0,428	0,336
6,400	800,000	-0,059	0,143
7,415	200,769	-0,286	-0,311
8,429	39,876	-0,292	-0,185
9,444	13,058	-0,428	-0,233
10,459	44,699	-0,301	-0,196
11,473	-23,476	-0,352	-0,149
12,488	-73,098	-0,341	-0,088
13,502	247,672	-0,302	-0,361
14,517	-130,628	-0,346	-0,033
15,531	177,369	-0,343	-0,354
16,546	163,996	-0,406	-0,404
17,561	337,224	-0,271	-0,373
18,575	428,998	-0,141	-0,217
19,590	235,280	-0,283	-0,331
20,604	-77,105	-0,245	-0,060
21,619	361,104	-0,301	-0,428
22,634	87,033	-0,384	-0,299
23,648	113,748	-0,434	-0,372
24,663	45,788	-0,341	-0,222
25,677	36,388	-0,398	-0,247
26,692	9,265	-0,337	-0,179
27,707	97,338	-0,348	-0,282
28,721	-17,180	-0,395	-0,175
29,736	72,097	-0,313	-0,230
30,750	-13,323	-0,573	-0,261
31,765	163,503	-0,364	-0,361
32,780	26,586	-0,525	-0,309
33,794	1,050	-0,378	-0,191
34,809	-8,094	-0,404	-0,191
35,823	222,815	-0,207	-0,235
36,838	40,239	-0,424	-0,268
37,853	142,933	-0,330	-0,310
38,867	264,741	-0,263	-0,324
39,882	2,860	-0,382	-0,195
40,896	11,129	-0,432	-0,232
41,911	13,945	-0,349	-0,191
42,926	125,666	-0,436	-0,388
43,940	198,909	-0,286	-0,309
44,955	39,508	-0,404	-0,255
45,969	434,129	-0,250	-0,383
46,984	203,145	-0,285	-0,311
47,999	64,292	-0,300	-0,213
49,013	-14,589	-0,465	-0,210
50,028	100,664	-0,270	-0,221
51,042	201,223	-0,366	-0,397
52,057	-61,312	-0,373	-0,110
53,071	14,467	-0,383	-0,210
54,086	63,592	-0,281	-0,198
55,101	135,643	-0,200	-0,183
56,115	144,492	-0,208	-0,196
57,130	116,783	-0,293	-0,253
58,144	17,057	-0,280	-0,156
59,159	204,116	-0,419	-0,458
60,174	98,364	-0,313	-0,254
61,188	-12,356	-0,387	-0,177
62,203	83,834	-0,354	-0,272
63,217	-200,000	-0,085	-0,287
64,232	38,407	-0,305	-0,191
65,247	-130,118	-0,450	-0,043
66,261	77,197	-0,304	-0,227
67,276	52,012	-0,271	-0,182
68,290	-121,054	-0,316	0,037
69,305	-162,999	-0,401	0,013
70,320	-25,769	-0,382	-0,158
71,334	124,913	-0,285	-0,252
72,349	40,643	-0,307	-0,194
73,363	69,217	-0,228	-0,164
74,378	209,447	-0,241	-0,266
75,393	37,760	-0,340	-0,212
76,407	-47,637	-0,409	-0,139
77,422	-40,057	-0,378	-0,138
78,436	74,079	-0,394	-0,290
79,451	5,106	-0,268	-0,138
80,466	200,172	-0,286	-0,309
81,480	146,719	-0,338	-0,319
82,495	173,716	-0,238	-0,241
83,509	190,010	-0,249	-0,263
84,524	-16,163	-0,261	-0,116
85,539	54,109	-0,221	-0,149
86,553	123,350	-0,168	-0,148
87,568	83,121	-0,239	-0,182
88,582	94,749	-0,327	-0,261
89,597	74,982	-0,328	-0,242
90,611	-15,876	-0,255	-0,113
91,626	-29,759	-0,363	-0,145
92,641	-89,684	-0,249	-0,051
93,655	-86,841	-0,272	-0,058
94,670	34,767	-0,265	-0,162
95,684	-12,807	-0,351	-0,160
96,699	82,343	-0,197	-0,149
97,714	-31,643	-0,487	-0,191
98,728	-141,676	-0,222	0,015
99,743	5,373	-0,272	-0,140
100,757	14,878	-0,324	-0,177
101,772	-33,763	-0,270	-0,104
102,787	291,011	-0,277	-0,354
103,801	115,227	-0,278	-0,238
104,816	155,049	-0,257	-0,247
105,830	213,844	-0,223	-0,248
106,845	92,616	-0,184	-0,145
107,860	-97,070	-0,213	-0,039
108,874	180,377	-0,088	-0,091
109,889	259,590	-0,321	-0,388
110,903	262,021	-0,230	-0,280
111,918	147,312	-0,268	-0,252
112,933	230,686	-0,244	-0,280
113,947	-80,690	-0,208	-0,048
114,962	45,068	-0,253	-0,163
115,976	96,813	-0,309	-0,247
116,991	-53,768	-0,313	-0,099
118,006	95,916	-0,311	-0,249
119,020	-21,492	-0,383	-0,163
120,035	36,513	-0,243	-0,150
121,049	-101,010	-0,193	-0,033
122,064	-2,182	-0,351	-0,172
123,079	517,121	-0,117	-0,192
124,093	194,485	-0,286	-0,304
125,108	-27,910	-0,222	-0,090
126,122	291,891	-0,135	-0,172
127,137	-118,225	-0,194	-0,024
128,151	54,190	-0,318	-0,214
129,166	14,521	-0,078	-0,043
130,181	-99,733	-0,257	-0,045
131,195	-129,456	-0,216	-0,021
132,210	-83,601	-0,315	-0,070
133,224	243,015	-0,263	-0,309
134,239	-94,184	-0,286	-0,054
135,254	126,968	-0,155	-0,137
136,268	192,389	-0,185	-0,195
137,283	236,563	-0,126	-0,146
138,297	46,825	-0,294	-0,190
139,312	180,544	-0,217	-0,223
140,327	393,462	-0,176	-0,257
141,341	-56,317	-0,236	-0,073
142,356	43,901	-0,171	-0,109
143,370	35,674	-0,265	-0,162
144,385	121,794	-0,232	-0,202
145,400	160,561	-0,337	-0,329
146,414	9,106	-0,211	-0,111
147,429	64,272	-0,253	-0,177
148,443	121,473	-0,249	-0,217
149,458	46,027	-0,228	-0,147
150,473	183,746	-0,161	-0,167
151,487	86,140	-0,254	-0,195
152,502	-31,606	-0,327	-0,128
153,516	144,713	-0,273	-0,254
154,531	118,675	-0,239	-0,206
155,546	180,245	-0,113	-0,115
156,560	253,450	-0,181	-0,216
157,575	260,468	-0,141	-0,170
158,589	72,311	-0,250	-0,182
159,604	-2,822	-0,280	-0,136
160,619	95,799	-0,398	-0,317
161,633	149,088	-0,251	-0,237
162,648	116,033	-0,233	-0,199
163,662	-12,364	-0,173	-0,079
164,677	173,411	-0,168	-0,170
165,692	242,044	-0,193	-0,226
166,706	105,036	-0,159	-0,131
167,721	136,773	-0,258	-0,235
168,735	-15,599	-0,224	-0,099
169,750	150,342	-0,222	-0,211
170,764	386,749	-0,147	-0,212
171,779	305,565	-0,175	-0,227
172,794	85,867	-0,160	-0,122
173,808	-65,072	-0,324	-0,091
174,823	41,079	-0,197	-0,124
175,837	-17,894	-0,204	-0,089
176,852	-71,439	-0,166	-0,043
177,867	23,227	-0,234	-0,133
178,881	65,467	-0,172	-0,121
179,896	8,832	-0,270	-0,141
180,910	57,661	-0,316	-0,215
181,925	163,952	-0,232	-0,228
182,940	41,457	-0,219	-0,138
183,954	287,934	-0,265	-0,334
184,969	546,031	-0,149	-0,250
185,983	-74,149	-0,187	-0,047
186,998	156,277	-0,245	-0,235
188,013	80,732	-0,172	-0,129
189,027	12,732	-0,263	-0,141
190,042	459,917	-0,185	-0,288
191,056	117,491	-0,254	-0,217
192,071	-200,000	-0,031	-0,173
193,086	72,581	-0,252	-0,183
194,100	114,546	-0,086	-0,073
195,115	64,746	-0,289	-0,202
196,129	71,146	-0,200	-0,144
197,144	104,406	-0,193	-0,158
198,159	85,387	-0,234	-0,178
199,173	238,285	-0,202	-0,234
200,188	627,902	-0,144	-0,254
201,202	-79,682	-0,365	-0,085
202,217	-200,000	-0,044	-0,174
203,232	240,523	-0,197	-0,229
204,246	-8,072	-0,266	-0,124
205,261	20,573	-0,362	-0,203
206,275	96,278	-0,188	-0,149
207,290	98,664	-0,237	-0,190
208,304	304,785	-0,205	-0,265
209,319	-110,699	-0,244	0,035
210,334	115,637	-0,296	-0,251
211,348	416,138	-0,112	-0,167
212,363	800,000	-0,106	-0,222
213,377	253,591	-0,168	-0,200
214,392	363,246	-0,075	-0,104
215,407	179,115	-0,190	-0,193
216,421	-8,353	-0,232	-0,108
217,436	800,000	-0,043	-0,098
218,450	110,639	-0,166	-0,139
219,465	800,000	-0,145	-0,305
220,480	86,333	-0,237	-0,181
221,494	164,886	-0,129	-0,126
222,509	34,458	-0,324	-0,196
223,523	269,276	-0,133	-0,162
224,538	239,859	-0,216	-0,250
225,553	98,584	-0,117	-0,094
226,567	89,178	-0,203	-0,157
227,582	118,031	-0,260	-0,222
228,596	-80,755	-0,178	-0,041
229,611	-39,804	-0,267	-0,096
230,626	-200,000	-0,049	-0,154
231,640	-143,283	-0,183	-0,012
232,655	-10,027	-0,250	-0,115
233,669	590,551	-0,190	-0,326
234,684	63,843	-0,213	-0,148
235,699	-200,000	-0,031	-0,229
236,713	6,648	-0,248	-0,128
237,728	-89,530	-0,095	0,019
238,742	-114,516	-0,285	-0,037
239,757	-86,559	-0,179	-0,038
240,772	5,449	-0,278	-0,142
241,786	302,761	-0,073	-0,093
242,801	36,333	-0,196	-0,120
243,815	30,304	-0,161	-0,095
244,830	156,002	-0,034	-0,032
245,844	-147,833	-0,180	0,010
246,859	800,000	-0,128	-0,249
247,874	205,572	-0,208	-0,224
248,888	163,882	-0,206	-0,201
249,903	148,202	-0,180	-0,168
250,917	61,432	-0,211	-0,145
251,932	179,982	-0,137	-0,139
252,947	-47,266	-0,093	-0,031
253,961	-200,000	-0,216	-0,000
254,976	39,003	-0,221	-0,137
255,990	349,389	-0,251	-0,343
257,005	-15,019	-0,242	-0,107
258,020	-16,151	-0,169	-0,074
259,034	407,321	-0,103	-0,151
260,049	108,279	-0,251	-0,207
261,063	106,004	-0,219	-0,179
262,078	206,727	-0,127	-0,137
263,093	193,605	-0,101	-0,106
264,107	110,562	-0,123	-0,103
265,122	124,957	-0,177	-0,154
266,136	800,000	-0,054	-0,125
267,151	198,917	-0,119	-0,126
268,166	-94,024	-0,225	-0,042
269,180	56,496	-0,204	-0,137
270,195	59,001	-0,128	-0,087
271,209	283,106	-0,154	-0,192
272,224	-125,237	-0,111	0,012
273,239	341,792	-0,128	-0,173
274,253	57,633	-0,148	-0,100
275,268	15,438	-0,171	-0,092
276,282	137,576	-0,178	-0,161
277,297	412,699	-0,114	-0,168
278,312	413,638	-0,107	-0,157
279,326	-143,853	-0,125	-0,008
280,341	-137,680	-0,169	-0,013
281,355	200,269	-0,186	-0,198
282,370	273,966	-0,155	-0,189
283,384	148,444	-0,190	-0,177
284,399	396,140	-0,184	-0,265
285,414	-200,000	-0,040	-0,227
286,428	400,955	-0,123	-0,179
287,443	43,387	-0,127	0,080
288,457	-155,022	-0,204	0,009
289,472	451,703	-0,137	-0,210
290,487	141,630	-0,143	-0,130
291,501	-96,226	-0,256	-0,046
292,516	-62,939	-0,201	-0,057
293,530	60,794	-0,149	-0,102
294,545	-97,749	-0,190	0,034
295,560	-27,888	-0,098	-0,039
296,574	21,942	-0,228	-0,128
297,589	49,798	-0,214	-0,139
298,603	319,335	-0,119	-0,156
299,618	67,394	-0,174	-0,122
300,633	185,798	-0,156	-0,159
301,647	237,083	0,055	-0,063
302,662	-93,467	-0,159	-0,030
303,676	83,809	-0,173	-0,130
304,691	28,988	-0,280	-0,163
305,706	-200,000	-0,032	-0,173
306,720	57,252	-0,112	-0,075
307,735	234,703	-0,065	-0,074
308,749	-138,804	-0,250	0,018
309,764	-42,106	-0,180	-0,063
310,779	-200,000	0,009	-0,058
311,793	331,632	0,107	-0,143
312,808	658,430	-0,136	-0,243
313,822	800,000	-0,062	-0,124
314,837	-34,460	-0,113	-0,042
315,852	0,104	-0,141	-0,069
316,866	800,000	-0,067	-0,147
317,881	-152,048	-0,088	-0,004
318,895	59,704	-0,164	-0,111
319,910	186,098	-0,112	-0,115
320,925	528,301	-0,086	-0,139
321,939	-0,335	-0,139	-0,068
322,954	159,628	-0,099	-0,095
323,968	800,000	-0,039	-0,108
324,983	164,787	-0,119	-0,116
325,997	353,761	-0,167	-0,228
327,012	273,294	-0,212	-0,258
328,027	35,860	-0,159	-0,096
329,041	680,015	-0,100	-0,180
330,056	242,769	-0,125	-0,144
331,070	318,967	-0,063	-0,082
332,085	118,380	-0,074	-0,063
333,100	483,474	-0,035	-0,054
334,114	-53,632	-0,219	0,068
335,129	63,904	-0,144	-0,099
336,143	295,397	-0,085	-0,107
337,158	800,000	0,091	-0,184
338,173	539,028	-0,012	0,020
339,187	-135,932	-0,096	-0,008
340,202	348,484	-0,091	-0,124
341,216	324,070	-0,084	-0,110
342,231	-83,043	-0,192	-0,042
343,246	186,135	-0,128	-0,131
344,260	221,288	-0,078	-0,086
345,275	282,759	-0,055	0,068
346,289	6,483	-0,050	-0,025
347,304	152,622	-0,107	-0,101
348,319	127,898	-0,125	-0,109
349,333	167,274	-0,156	-0,152
350,348	137,208	-0,130	-0,116
351,362	-200,000	-0,016	-0,080
352,377	270,181	0,034	0,041
353,392	-134,645	-0,104	-0,009
354,406	-200,000	0,002	-0,114
355,421	208,355	1316,793	1413,348
356,435	160,316	1477,762	1413,835
