DTS Sentinel unit serial number:	SN410029Multiplexer serial number:	ORYXHardware model number:	OX2-SRSoftware version number:	ORYX F/W v4,00 Oryx Data Collector v3.7.2.0data status	okinstallation	B3 Nyhavnadifferential loss correction	single-endedforward channel	channel 1reverse channel	N/Adate	2023/12/01time	06:52:30forward acquisition time	300,00reverse acquisition time	0,00gamma	499,1914k internal	0,3213k external	0,3213temperature offset calibration	1,0000default loss term (dB/km)	0,3820temperature slope calibration	1,0000multiplexer offset coefficient	1,0000multiplexer slope coefficient	1,0000fibre end	0,00T internal ref (°C)	7,87T ext. ref 1 (°C)	-6,38T ext. ref 2 (°C)	-6,55length (m)	temperature (°C)	Stokes	anti-Stokes-744,400	201,758	-0,108	-0,121
-743,385	800,000	-0,094	0,279
-742,371	120,278	-0,165	-0,149
-741,356	800,000	-0,109	0,329
-740,342	74,368	-0,166	-0,127
-739,327	-200,000	-0,044	0,179
-738,312	293,029	-0,221	-0,293
-737,298	800,000	0,085	0,221
-736,283	196,422	-0,240	-0,265
-735,269	-200,000	-0,036	0,216
-734,254	140,198	-0,173	-0,165
-733,239	667,367	-0,058	0,110
-732,225	-30,035	-0,168	-0,069
-731,210	99,233	-0,050	0,042
-730,196	-112,525	-0,068	0,010
-729,181	-107,386	-0,119	-0,019
-728,167	-117,440	0,102	0,013
-727,152	283,914	0,014	0,018
-726,137	321,858	0,016	-0,021
-725,123	-6,634	-0,097	-0,047
-724,108	-26,452	-0,073	-0,031
-723,094	311,731	-0,105	0,144
-722,079	800,000	-0,021	-0,060
-721,064	800,000	-0,008	0,024
-720,050	-82,518	0,046	-0,011
-719,035	82,367	-0,050	-0,040
-718,021	-56,174	-0,233	-0,074
-717,006	26,562	-0,137	-0,083
-715,991	54,904	-0,044	0,031
-714,977	-119,508	-0,069	-0,009
-713,962	-87,532	-0,047	-0,010
-712,948	24,061	-0,101	0,060
-711,933	-68,004	0,140	0,039
-710,918	-52,280	-0,049	-0,016
-709,904	-35,832	-0,094	-0,037
-708,889	-200,000	-0,003	-0,088
-707,875	-74,991	-0,084	-0,022
-706,860	636,461	0,042	0,077
-705,845	-200,000	-0,006	0,105
-704,831	19,170	0,085	0,049
-703,816	800,000	0,028	-0,064
-702,802	295,303	-0,069	0,091
-701,787	-200,000	0,010	-0,103
-700,772	-200,000	-0,023	-0,094
-699,758	800,000	-0,043	-0,097
-698,743	-20,739	-0,125	-0,055
-697,729	180,949	0,095	0,101
-696,714	-200,000	-0,018	-0,077
-695,699	-200,000	-0,015	-0,091
-694,685	23,975	0,113	0,067
-693,670	800,000	-0,040	-0,100
-692,656	157,870	0,101	0,102
-691,641	107,419	-0,085	-0,073
-690,627	-200,000	0,009	0,188
-689,612	441,050	0,071	-0,112
-688,597	-200,000	0,017	-0,082
-687,583	-200,000	-0,007	-0,023
-686,568	-43,159	-0,095	0,034
-685,554	-200,000	-0,026	-0,201
-684,539	422,806	0,057	-0,088
-683,524	-135,915	0,070	-0,006
-682,510	25,801	0,070	-0,042
-681,495	-27,425	0,068	0,028
-680,481	800,000	-0,031	0,091
-679,466	800,000	-0,073	-0,184
-678,451	800,000	-0,019	-0,051
-677,437	-200,000	0,002	-0,068
-676,422	-200,000	0,003	-0,054
-675,408	800,000	0,034	-0,079
-674,393	-104,275	-0,107	0,018
-673,378	669,721	0,069	-0,130
-672,364	637,900	0,038	-0,070
-671,349	423,853	0,097	-0,151
-670,335	-70,176	-0,102	-0,028
-669,320	800,000	-0,068	-0,205
-668,305	-200,000	0,008	-0,127
-667,291	-123,125	-0,083	-0,009
-666,276	614,506	-0,095	-0,173
-665,262	84,737	0,025	0,020
-664,247	-200,000	0,011	0,059
-663,232	800,000	-0,017	-0,034
-662,218	221,902	-0,038	0,044
-661,203	-200,000	0,004	-0,018
-660,189	-200,000	0,022	-0,152
-659,174	147,008	-0,072	0,070
-658,159	-200,000	-0,002	-0,029
-657,145	687,062	-0,084	-0,159
-656,130	-4,023	0,154	0,077
-655,116	-200,000	0,009	-0,049
-654,101	-76,784	-0,017	0,004
-653,086	-9,369	0,117	0,056
-652,072	140,699	0,061	-0,058
-651,057	-200,000	-0,019	-0,185
-650,043	7,305	0,042	-0,022
-649,028	52,986	-0,078	0,054
-648,014	-6,987	-0,074	-0,036
-646,999	-200,000	-0,010	-0,046
-645,984	206,751	-0,021	0,024
-644,970	-69,586	0,056	-0,015
-643,955	126,759	-0,047	-0,043
-642,941	-60,620	-0,125	0,038
-641,926	-194,178	0,147	-0,001
-640,911	-47,204	-0,081	-0,028
-639,897	82,666	0,110	-0,086
-638,882	335,540	-0,037	0,052
-637,868	455,753	-0,061	0,098
-636,853	-122,261	0,111	0,013
-635,838	800,000	-0,041	-0,093
-634,824	-10,292	0,041	-0,020
-633,809	-34,082	-0,163	0,064
-632,795	-200,000	-0,041	0,255
-631,780	-41,047	0,153	0,057
-630,765	-90,101	-0,164	0,034
-629,751	-200,000	0,015	-0,050
-628,736	513,426	-0,110	-0,185
-627,722	46,523	-0,042	-0,028
-626,707	667,460	0,036	-0,067
-625,692	-137,902	-0,087	0,007
-624,678	5,973	-0,033	0,017
-623,663	9,229	0,074	-0,040
-622,649	71,470	-0,012	0,009
-621,634	-200,000	-0,004	-0,057
-620,619	-200,000	0,002	0,039
-619,605	-19,542	-0,037	-0,016
-618,590	-80,239	-0,105	0,025
-617,576	-195,190	0,086	0,000
-616,561	-84,370	-0,127	0,029
-615,546	800,000	0,037	0,090
-614,532	245,273	-0,087	-0,106
-613,517	-200,000	0,021	-0,082
-612,503	-37,293	-0,158	0,061
-611,488	-84,444	0,035	0,008
-610,474	-177,469	-0,191	0,003
-609,459	50,269	-0,087	0,059
-608,444	-200,000	-0,021	0,093
-607,430	17,761	-0,143	0,082
-606,415	-200,000	0,016	-0,146
-605,401	456,152	0,007	0,012
-604,386	121,243	0,040	0,036
-603,371	800,000	0,046	0,129
-602,357	419,790	0,056	0,087
-601,342	800,000	-0,050	-0,117
-600,328	800,000	-0,040	-0,100
-599,313	43,518	-0,029	-0,019
-598,298	-96,545	0,097	0,018
-597,284	800,000	0,025	0,060
-596,269	179,644	-0,062	0,065
-595,255	115,757	0,182	0,160
-594,240	404,421	-0,109	-0,165
-593,225	-150,677	-0,074	0,004
-592,211	800,000	-0,038	-0,114
-591,196	158,809	0,096	-0,096
-590,182	-66,094	0,122	-0,035
-589,167	-200,000	0,022	0,071
-588,152	-200,000	0,005	0,069
-587,138	-104,653	-0,043	-0,007
-586,123	-200,000	-0,008	-0,157
-585,109	-40,473	-0,094	-0,035
-584,094	-82,607	0,119	-0,028
-583,079	22,786	0,129	-0,076
-582,065	-101,526	0,111	0,019
-581,050	132,010	-0,079	0,073
-580,036	-200,000	-0,018	-0,114
-579,021	162,960	-0,041	-0,041
-578,006	448,494	0,037	0,059
-576,992	800,000	0,076	-0,221
-575,977	-200,000	-0,006	0,106
-574,963	-200,000	-0,021	-0,079
-573,948	-110,529	-0,086	0,013
-572,934	179,021	0,070	0,073
-571,919	-200,000	-0,001	0,081
-570,904	262,513	-0,053	-0,066
-569,890	-200,000	0,000	0,020
-568,875	-46,008	-0,120	-0,042
-567,861	800,000	0,060	0,156
-566,846	-200,000	-0,002	-0,087
-565,831	800,000	0,017	-0,051
-564,817	106,434	-0,072	-0,062
-563,802	-184,699	0,081	-0,001
-562,788	800,000	-0,042	-0,097
-561,773	-200,000	0,043	-0,160
-560,758	-109,143	-0,033	0,005
-559,744	800,000	0,014	0,029
-558,729	-5,557	-0,097	0,048
-557,715	800,000	-0,060	0,120
-556,700	800,000	-0,034	0,067
-555,685	702,226	0,019	-0,036
-554,671	152,013	0,178	0,175
-553,656	-200,000	-0,015	0,198
-552,642	23,905	0,165	0,098
-551,627	-200,000	0,049	-0,176
-550,612	800,000	0,033	0,073
-549,598	800,000	-0,029	-0,072
-548,583	210,766	-0,074	-0,084
-547,569	-132,610	-0,129	0,012
-546,554	-200,000	-0,104	-0,000
-545,539	-200,000	0,015	0,069
-544,525	800,000	0,029	-0,085
-543,510	-20,768	-0,120	-0,053
-542,496	800,000	0,035	-0,106
-541,481	157,132	0,108	-0,107
-540,466	160,025	0,066	0,066
-539,452	163,903	0,049	-0,050
-538,437	-14,767	0,063	-0,029
-537,423	-70,594	-0,123	0,033
-536,408	800,000	0,053	-0,119
-535,393	4,823	-0,022	0,011
-534,379	800,000	0,029	-0,088
-533,364	143,152	0,080	-0,076
-532,350	7,143	-0,122	-0,065
-531,335	14,287	0,078	0,043
-530,321	-200,000	-0,011	-0,061
-529,306	409,779	0,028	-0,042
-528,291	202,375	0,059	0,066
-527,277	92,612	0,063	-0,051
-526,262	-200,000	-0,006	-0,079
-525,248	83,692	-0,092	0,072
-524,233	-133,404	0,006	-0,001
-523,218	209,684	0,074	-0,084
-522,204	-66,599	-0,122	-0,035
-521,189	410,080	-0,024	0,036
-520,175	-6,777	-0,294	0,143
-519,160	-78,037	0,058	0,014
-518,145	-38,107	0,103	0,039
-517,131	29,516	0,100	0,061
-516,116	177,385	-0,091	-0,095
-515,102	-200,000	-0,016	0,067
-514,087	800,000	0,019	-0,059
-513,072	242,437	0,035	-0,042
-512,058	-31,790	-0,126	-0,051
-511,043	-87,664	-0,071	-0,015
-510,029	55,889	0,146	0,102
-509,014	0,413	0,060	0,031
-507,999	380,021	0,022	0,032
-506,985	-89,902	0,169	0,035
-505,970	-37,412	-0,075	-0,029
-504,956	-200,000	-0,026	-0,112
-503,941	-1,651	0,039	-0,020
-502,926	-135,741	0,062	-0,005
-501,912	-200,000	0,002	0,066
-500,897	-200,000	-0,010	0,042
-499,883	-76,727	-0,207	0,052
-498,868	-200,000	0,014	-0,124
-497,853	110,401	0,020	-0,017
-496,839	800,000	0,033	0,093
-495,824	180,945	-0,131	0,138
-494,810	17,697	0,128	0,073
-493,795	-116,577	-0,084	0,011
-492,781	-200,000	-0,004	-0,046
-491,766	-200,000	-0,007	0,107
-490,751	784,466	-0,005	0,010
-489,737	-73,017	0,137	0,036
-488,722	779,144	-0,034	0,067
-487,708	800,000	-0,021	0,048
-486,693	148,153	-0,061	0,059
-485,678	-200,000	0,005	0,019
-484,664	-5,355	-0,163	0,080
-483,649	407,555	-0,048	-0,073
-482,635	92,466	0,128	-0,104
-481,620	-83,445	0,107	-0,024
-480,605	172,693	-0,042	-0,044
-479,591	67,563	-0,069	0,050
-478,576	126,497	-0,081	0,073
-477,562	800,000	-0,043	-0,128
-476,547	-103,737	-0,107	-0,018
-475,532	133,243	0,079	0,073
-474,518	-200,000	0,009	0,045
-473,503	205,692	-0,026	-0,030
-472,489	-79,139	-0,163	0,039
-471,474	-115,200	-0,114	-0,015
-470,459	167,716	0,112	-0,114
-469,445	-23,463	-0,127	-0,054
-468,430	-128,266	0,084	-0,008
-467,416	-200,000	0,015	0,071
-466,401	800,000	0,028	0,085
-465,386	65,884	0,115	-0,083
-464,372	48,780	0,185	0,124
-463,357	329,199	-0,023	0,032
-462,343	150,742	-0,101	-0,099
-461,328	57,745	-0,046	-0,032
-460,313	291,257	0,027	-0,035
-459,299	794,248	-0,086	0,170
-458,284	-20,784	0,053	-0,023
-457,270	79,703	0,075	0,058
-456,255	513,519	-0,069	-0,115
-455,241	-200,000	-0,007	0,067
-454,226	-3,729	-0,031	0,015
-453,211	-200,000	-0,014	0,057
-452,197	-7,461	0,098	0,047
-451,182	-69,877	0,090	0,024
-450,168	-5,944	-0,029	0,014
-449,153	-31,312	0,087	-0,035
-448,138	-85,218	-0,080	-0,018
-447,124	-54,090	0,119	-0,038
-446,109	800,000	-0,024	-0,068
-445,095	800,000	-0,047	0,099
-444,080	203,213	0,022	-0,024
-443,065	-200,000	0,022	0,078
-442,051	800,000	0,043	-0,120
-441,036	800,000	-0,046	-0,143
-440,022	232,354	-0,079	-0,092
-439,007	176,939	0,120	0,125
-437,992	624,226	-0,052	0,094
-436,978	156,442	0,102	0,101
-435,963	178,135	0,045	0,047
-434,949	-185,037	-0,087	-0,001
-433,934	6,621	0,085	-0,045
-432,919	34,072	0,094	-0,059
-431,905	125,698	0,046	0,042
-430,890	657,303	-0,077	0,142
-429,876	800,000	0,024	0,076
-428,861	764,596	-0,044	-0,085
-427,846	-200,000	0,022	0,160
-426,832	191,704	0,030	-0,032
-425,817	597,755	0,097	-0,172
-424,803	800,000	-0,031	-0,097
-423,788	-200,000	0,000	0,081
-422,773	-33,101	0,161	-0,064
-421,759	-200,000	0,020	-0,064
-420,744	800,000	-0,017	-0,036
-419,730	208,998	0,037	-0,042
-418,715	-200,000	0,001	-0,017
-417,701	237,316	-0,051	0,060
-416,686	0,274	-0,050	-0,026
-415,671	-200,000	-0,004	0,048
-414,657	-200,000	-0,003	-0,139
-413,642	-103,107	-0,121	0,020
-412,628	4,475	0,026	-0,013
-411,613	9,490	-0,079	-0,043
-410,598	739,535	-0,056	-0,108
-409,584	331,423	0,047	0,064
-408,569	-200,000	0,015	0,107
-407,555	800,000	0,054	-0,110
-406,540	-200,000	0,004	0,017
-405,525	-67,969	-0,099	-0,027
-404,511	-194,620	-0,103	0,001
-403,496	282,125	-0,021	0,027
-402,482	-200,000	0,010	0,037
-401,467	-89,549	-0,053	-0,011
-400,452	-200,000	0,030	0,110
-399,438	-200,000	0,020	-0,068
-398,423	626,864	0,055	-0,100
-397,409	363,653	-0,061	-0,087
-396,394	85,822	-0,027	-0,022
-395,379	193,981	-0,104	0,113
-394,365	270,326	-0,030	-0,038
-393,350	538,418	-0,086	0,147
-392,336	800,000	0,014	-0,043
-391,321	159,798	-0,050	0,050
-390,306	-200,000	0,032	-0,149
-389,292	37,678	-0,101	-0,064
-388,277	-70,649	-0,123	-0,033
-387,263	101,969	0,080	0,067
-386,248	30,030	0,035	-0,021
-385,233	294,228	0,034	-0,044
-384,219	427,196	-0,011	-0,017
-383,204	-86,399	-0,100	0,022
-382,190	-107,364	0,170	-0,026
-381,175	-106,139	0,031	0,005
-380,160	26,232	-0,036	0,021
-379,146	-50,492	-0,128	0,043
-378,131	39,291	-0,006	0,004
-377,117	-200,000	0,001	0,083
-376,102	-200,000	0,021	-0,206
-375,088	452,023	0,012	-0,019
-374,073	800,000	-0,023	-0,061
-373,058	-117,524	0,166	-0,021
-372,044	-18,565	0,029	-0,013
-371,029	-200,000	0,011	0,042
-370,015	-200,000	0,051	0,173
-369,000	-200,000	0,012	0,057
-367,985	-92,291	-0,103	-0,020
-366,971	-6,442	0,006	-0,003
-365,956	341,198	0,059	0,083
-364,942	-113,512	0,043	0,006
-363,927	189,379	0,086	0,092
-362,912	29,505	-0,105	0,064
-361,898	-200,000	0,014	-0,090
-360,883	-200,000	0,001	-0,141
-359,869	-75,855	0,094	-0,024
-358,854	41,040	-0,042	-0,027
-357,839	35,200	-0,016	0,010
-356,825	55,687	0,020	0,014
-355,810	482,566	0,108	0,175
-354,796	800,000	0,065	0,138
-353,781	136,032	0,111	-0,103
-352,766	-44,471	-0,131	-0,046
-351,752	82,475	-0,087	0,067
-350,737	169,189	0,044	-0,045
-349,723	271,978	0,066	0,084
-348,708	-68,471	-0,132	0,036
-347,693	800,000	-0,019	0,058
-346,679	-9,012	-0,110	0,053
-345,664	147,030	0,019	-0,018
-344,650	91,251	0,050	0,040
-343,635	-129,351	0,075	-0,007
-342,620	342,591	0,119	-0,166
-341,606	112,650	0,064	0,056
-340,591	629,268	0,026	-0,047
-339,577	-149,947	0,118	-0,006
-338,562	-200,000	-0,004	-0,038
-337,548	-200,000	-0,006	-0,122
-336,533	10,805	0,125	0,068
-335,518	64,438	0,089	0,064
-334,504	-200,000	0,022	-0,092
-333,489	83,454	-0,083	0,064
-332,475	-71,842	-0,055	0,014
-331,460	-200,000	-0,060	-0,211
-330,445	-146,912	-0,108	-0,007
-329,431	800,000	0,069	0,140
-328,416	219,558	0,112	0,128
-327,402	9,309	0,042	-0,022
-326,387	-105,614	-0,116	-0,019
-325,372	543,205	-0,041	-0,070
-324,358	-200,000	-0,043	-0,144
-323,343	-200,000	0,004	0,059
-322,329	-200,000	0,022	0,079
-321,314	52,344	0,038	-0,026
-320,299	-69,230	-0,114	-0,031
-319,285	259,940	-0,045	0,056
-318,270	193,080	0,027	-0,029
-317,256	14,886	-0,134	0,075
-316,241	-37,355	0,022	0,008
-315,226	-200,000	-0,007	-0,075
-314,212	19,388	0,146	0,083
-313,197	313,857	-0,061	-0,082
-312,183	800,000	-0,050	-0,147
-311,168	-149,661	-0,096	0,005
-310,153	-200,000	0,006	-0,086
-309,139	257,493	-0,045	-0,056
-308,124	-67,031	0,033	-0,009
-307,110	-3,650	0,033	-0,016
-306,095	-65,079	-0,022	-0,006
-305,080	8,332	-0,122	0,065
-304,066	163,285	-0,067	-0,067
-303,051	82,844	-0,114	0,088
-302,037	-200,000	0,015	-0,062
-301,022	-200,000	0,005	-0,072
-300,008	-200,000	0,018	-0,134
-298,993	103,607	0,072	-0,060
-297,978	-200,000	0,029	0,118
-296,964	-200,000	-0,000	0,046
-295,949	800,000	-0,009	0,021
-294,935	800,000	0,038	-0,093
-293,920	-200,000	-0,008	-0,138
-292,905	-93,475	0,087	-0,017
-291,891	297,207	0,109	-0,143
-290,876	-119,970	-0,063	0,008
-289,862	800,000	-0,014	0,037
-288,847	-14,407	-0,026	-0,012
-287,832	-94,104	0,089	0,017
-286,818	-200,000	0,026	-0,123
-285,803	800,000	-0,030	0,082
-284,789	-200,000	-0,040	0,170
-283,774	-43,249	0,040	0,014
-282,759	-200,000	0,003	-0,056
-281,745	263,454	0,078	0,097
-280,730	800,000	0,033	-0,084
-279,716	-200,000	0,016	-0,166
-278,701	-10,226	0,009	-0,004
-277,686	800,000	0,061	0,185
-276,672	800,000	0,030	0,064
-275,657	800,000	-0,050	0,101
-274,643	-34,585	-0,089	0,035
-273,628	126,985	-0,074	-0,066
-272,613	-200,000	0,048	-0,153
-271,599	59,684	-0,148	0,104
-270,584	800,000	0,052	0,145
-269,570	-200,000	-0,006	0,088
-268,555	780,452	0,053	0,104
-267,540	-20,423	0,082	-0,036
-266,526	-144,314	-0,088	0,006
-265,511	166,575	0,058	-0,059
-264,497	170,924	-0,083	-0,084
-263,482	800,000	-0,046	-0,114
-262,467	366,281	0,074	0,106
-261,453	800,000	0,034	0,090
-260,438	154,331	-0,065	0,063
-259,424	800,000	-0,034	-0,090
-258,409	-22,541	0,073	0,031
-257,395	800,000	0,048	-0,151
-256,380	177,713	-0,022	-0,022
-255,365	-144,202	0,067	0,004
-254,351	-200,000	0,025	-0,101
-253,336	800,000	-0,026	-0,062
-252,322	-50,887	-0,174	-0,058
-251,307	-200,000	-0,003	0,037
-250,292	-200,000	0,069	0,000
-249,278	109,696	0,025	-0,021
-248,263	800,000	0,021	-0,063
-247,249	-68,807	0,121	-0,033
-246,234	794,369	-0,026	0,052
-245,219	-14,261	-0,004	-0,002
-244,205	-200,000	-0,024	-0,124
-243,190	143,873	0,015	0,014
-242,176	427,675	-0,016	0,025
-241,161	-27,865	0,086	0,035
-240,146	-200,000	-0,019	0,165
-239,132	203,988	-0,090	0,100
-238,117	32,715	0,024	-0,015
-237,103	55,000	0,084	0,058
-236,088	-27,679	-0,045	0,018
-235,073	-76,355	0,114	-0,028
-234,059	-200,000	0,047	0,151
-233,044	215,344	-0,083	0,094
-232,030	-96,760	0,067	0,012
-231,015	-200,000	-0,057	0,000
-230,000	-200,000	-0,027	-0,102
-228,986	-200,000	0,001	-0,027
-227,971	800,000	-0,037	0,095
-226,957	176,471	-0,109	0,112
-225,942	-58,195	0,064	-0,020
-224,927	-200,000	-0,013	0,121
-223,913	437,729	0,043	0,067
-222,898	-145,798	-0,025	0,002
-221,884	-20,923	-0,066	-0,029
-220,869	-200,000	-0,003	0,122
-219,855	733,317	0,014	-0,026
-218,840	-120,193	-0,109	0,013
-217,825	-200,000	0,003	0,048
-216,811	-135,704	-0,094	0,008
-215,796	-130,541	-0,048	0,005
-214,782	132,689	0,063	-0,058
-213,767	-101,807	0,084	-0,014
-212,752	753,411	0,118	0,226
-211,738	-27,053	-0,093	0,038
-210,723	800,000	-0,058	-0,115
-209,709	-27,720	0,083	0,034
-208,694	-200,000	0,010	-0,055
-207,679	408,347	0,059	0,088
-206,665	264,899	0,042	-0,051
-205,650	69,148	-0,050	-0,037
-204,636	290,692	0,069	0,090
-203,621	-16,411	-0,164	0,074
-202,606	248,649	0,077	0,093
-201,592	143,355	-0,064	-0,060
-200,577	-200,000	0,028	-0,148
-199,563	-85,573	0,039	-0,009
-198,548	800,000	0,049	0,133
-197,533	-38,280	0,085	0,032
-196,519	-1,986	-0,040	-0,020
-195,504	800,000	-0,017	-0,035
-194,490	800,000	-0,054	-0,162
-193,475	-200,000	0,030	-0,103
-192,460	178,733	-0,082	0,085
-191,446	176,171	0,072	0,074
-190,431	136,358	0,107	0,099
-189,417	800,000	-0,057	0,123
-188,402	78,711	-0,099	-0,075
-187,387	-142,167	0,162	-0,011
-186,373	270,971	0,074	-0,092
-185,358	800,000	0,018	-0,036
-184,344	86,066	0,099	-0,077
-183,329	253,135	-0,038	0,046
-182,315	-43,528	0,119	0,042
-181,300	800,000	0,024	0,070
-180,285	763,424	0,021	-0,040
-179,271	-32,674	0,109	-0,043
-178,256	31,449	-0,103	-0,062
-177,242	800,000	-0,042	-0,123
-176,227	-7,486	0,090	-0,043
-175,212	-154,593	0,087	0,004
-174,198	-141,142	-0,087	-0,006
-173,183	-149,666	-0,134	0,007
-172,169	-75,448	-0,036	-0,009
-171,154	301,794	0,062	-0,082
-170,139	-164,169	0,066	0,002
-169,125	109,600	0,139	0,118
-168,110	-200,000	-0,025	0,137
-167,096	52,299	-0,090	0,061
-166,081	699,054	-0,028	-0,052
-165,066	257,060	-0,052	-0,064
-164,052	266,998	0,080	0,099
-163,037	244,760	0,051	0,060
-162,023	35,688	0,108	0,067
-161,008	-200,000	-0,024	0,099
-159,993	-200,000	-0,023	-0,091
-158,979	246,516	0,074	-0,089
-157,964	202,058	0,078	-0,086
-156,950	783,800	-0,048	0,094
-155,935	800,000	0,025	0,066
-154,920	-200,000	0,039	-0,140
-153,906	-144,278	0,119	0,008
-152,891	-64,193	-0,075	0,021
-151,877	-200,000	-0,011	-0,066
-150,862	-200,000	-0,012	-0,200
-149,847	800,000	-0,030	-0,065
-148,833	-102,658	0,128	-0,021
-147,818	86,927	-0,117	0,092
-146,804	-200,000	0,023	0,093
-145,789	-200,000	-0,017	0,065
-144,775	501,533	0,059	0,097
-143,760	800,000	-0,054	-0,106
-142,745	134,520	0,069	-0,063
-141,731	-4,814	0,050	0,024
-140,716	24,415	0,113	0,066
-139,702	220,554	-0,050	0,057
-138,687	-200,000	-0,011	0,076
-137,672	384,955	-0,021	-0,030
-136,658	-133,278	0,041	-0,004
-135,643	-200,000	0,007	-0,052
-134,629	-25,445	-0,115	-0,048
-133,614	125,541	-0,083	-0,074
-132,599	164,900	0,078	0,078
-131,585	-200,000	0,015	0,083
-130,570	800,000	0,021	0,053
-129,556	52,461	-0,095	0,064
-128,541	-200,000	-0,003	0,011
-127,526	360,930	0,009	-0,013
-126,512	397,588	0,048	-0,071
-125,497	-97,080	0,061	0,011
-124,483	-19,155	0,075	0,033
-123,468	-58,000	0,076	-0,023
-122,453	25,308	-0,041	-0,024
-121,439	8,603	-0,090	0,048
-120,424	-86,535	-0,074	0,016
-119,410	365,099	0,008	-0,012
-118,395	-200,000	-0,007	0,037
-117,380	-200,000	-0,015	0,063
-116,366	800,000	-0,070	-0,145
-115,351	-200,000	-0,051	-0,197
-114,337	-21,230	-0,023	0,010
-113,322	-43,740	-0,188	-0,067
-112,307	703,169	0,057	-0,106
-111,293	454,968	0,042	0,066
-110,278	-147,554	-0,054	0,003
-109,264	800,000	0,005	0,012
-108,249	-200,000	0,020	-0,096
-107,234	669,208	-0,053	-0,098
-106,220	-93,550	-0,021	0,004
-105,205	55,300	0,125	-0,085
-104,191	-104,627	0,133	0,021
-103,176	167,359	-0,027	-0,027
-102,162	800,000	-0,032	-0,099
-101,147	800,000	0,017	0,043
-100,132	328,387	-0,026	0,035
-99,118	-42,488	-0,120	-0,043
-98,103	460,882	0,074	0,118
-97,089	369,543	-0,019	0,027
-96,074	-200,000	0,000	-0,060
-95,059	371,387	0,061	0,088
-94,045	490,272	0,066	-0,107
-93,030	-200,000	-0,007	0,065
-92,016	198,898	-0,065	0,070
-91,001	244,141	0,039	-0,046
-89,986	93,443	0,079	-0,063
-88,972	233,344	0,096	0,112
-87,957	800,000	-0,037	0,104
-86,943	-2,310	-0,070	0,035
-85,928	-96,099	-0,049	0,009
-84,913	402,600	0,036	-0,053
-83,899	177,625	-0,027	-0,028
-82,884	-200,000	0,002	-0,034
-81,870	-67,582	0,138	0,038
-80,855	-29,759	0,079	0,032
-79,840	149,502	0,087	-0,083
-78,826	-200,000	0,013	-0,042
-77,811	-96,643	-0,132	-0,024
-76,797	-200,000	0,005	0,041
-75,782	33,297	0,017	0,011
-74,767	53,217	0,103	0,070
-73,753	257,499	-0,038	0,047
-72,738	18,460	0,023	0,013
-71,724	-200,000	-0,024	0,115
-70,709	446,772	-0,022	-0,035
-69,694	118,705	0,073	-0,064
-68,680	-200,000	0,005	0,129
-67,665	-176,755	0,081	0,001
-66,651	615,838	0,039	0,069
-65,636	-200,000	0,037	0,118
-64,622	69,600	0,013	0,010
-63,607	-171,646	-0,138	0,003
-62,592	-134,677	0,063	0,005
-61,578	472,076	0,042	0,066
-60,563	-103,387	-0,028	0,005
-59,549	-200,000	0,015	-0,068
-58,534	63,596	-2,147	-1,518
-57,519	425,642	-1,139	-1,736
-56,505	-200,000	-0,411	-4,705
-55,490	491,488	0,993	1,610
-54,476	800,000	5,270	11,507
-53,461	-200,000	22,563	347,292
-52,446	800,000	757,598	2290,549
-51,432	532,538	1642,997	2753,010
-50,417	67,656	1641,859	1181,528
-49,403	15,516	1519,269	839,124
-48,388	9,736	1445,235	770,490
-47,373	19,238	1438,357	812,052
-46,359	13,256	1426,644	777,191
-45,344	8,009	1422,689	750,206
-44,330	7,956	1420,768	748,910
-43,315	7,923	1419,026	747,807
-42,300	7,972	1417,038	746,963
-41,286	8,003	1415,849	746,450
-40,271	7,952	1414,663	745,556
-39,257	7,945	1413,649	744,959
-38,242	7,966	1412,261	744,298
-37,227	7,948	1411,173	743,609
-36,213	7,967	1410,076	743,089
-35,198	7,965	1408,496	742,219
-34,184	7,967	1407,935	741,905
-33,169	7,924	1406,440	740,886
-32,154	7,976	1405,491	740,600
-31,140	7,959	1404,341	739,886
-30,125	7,943	1403,302	739,232
-29,111	7,965	1401,979	738,607
-28,096	7,939	1400,923	737,900
-27,082	7,931	1399,476	737,072
-26,067	7,911	1398,642	736,510
-25,052	7,929	1397,446	735,938
-24,038	7,895	1396,637	735,323
-23,023	7,888	1395,772	734,806
-22,009	7,883	1394,672	734,174
-20,994	7,894	1393,621	733,643
-19,979	7,890	1392,443	732,974
-18,965	7,824	1391,698	732,248
-17,950	7,815	1390,942	731,779
-16,936	7,789	1390,046	731,160
-15,921	7,762	1389,073	730,496
-14,906	7,818	1388,090	730,205
-13,892	7,843	1386,913	729,672
-12,877	7,820	1386,272	729,200
-11,863	7,807	1385,537	728,728
-10,848	7,785	1384,498	728,050
-9,833	7,734	1383,832	727,433
-8,819	7,710	1382,801	726,754
-7,804	7,708	1381,785	726,184
-6,790	7,724	1380,808	725,715
-5,775	7,750	1379,851	725,299
-4,760	7,712	1379,002	724,652
-3,746	7,746	1377,862	724,179
-2,731	7,759	1377,073	723,795
-1,717	7,724	1376,249	723,171
-0,702	7,683	1374,692	722,138
0,313	11,747	1284,738	693,262
1,327	27,488	676,765	400,245
2,342	42,185	116,253	74,279
3,356	-2,014	16,594	8,190
4,371	0,668	3,838	1,929
5,386	3,056	1,245	0,636
6,400	800,000	0,276	0,694
7,415	57,837	-0,150	-0,103
8,429	2,647	-0,288	-0,147
9,444	-12,374	-0,259	-0,119
10,459	291,426	-0,255	-0,328
11,473	-5,084	-0,301	-0,146
12,488	73,531	-0,284	-0,209
13,502	-7,328	-0,309	-0,147
14,517	-169,250	-0,261	-0,007
15,531	131,552	-0,254	-0,230
16,546	99,207	-0,349	-0,284
17,561	253,293	-0,238	-0,287
18,575	-22,244	-0,191	-0,081
19,590	328,923	-0,185	-0,251
20,604	284,993	-0,239	-0,304
21,619	119,681	-0,344	-0,300
22,634	117,665	-0,392	-0,340
23,648	147,243	-0,453	-0,429
24,663	114,936	-0,356	-0,306
25,677	127,228	-0,213	-0,190
26,692	184,335	-0,226	-0,235
27,707	-25,420	-0,331	-0,137
28,721	37,133	-0,362	-0,225
29,736	138,036	-0,371	-0,342
30,750	135,906	-0,297	-0,272
31,765	56,996	-0,389	-0,266
32,780	36,176	-0,449	-0,278
33,794	2,633	-0,403	-0,205
34,809	208,471	-0,268	-0,295
35,823	93,801	-0,294	-0,234
36,838	96,187	-0,311	-0,250
37,853	185,027	-0,452	-0,471
38,867	65,097	-0,260	-0,184
39,882	338,874	-0,205	-0,282
40,896	160,608	-0,328	-0,322
41,911	-49,748	-0,345	-0,115
42,926	65,053	-0,336	-0,238
43,940	64,917	-0,433	-0,306
44,955	-27,936	-0,504	-0,204
45,969	68,403	-0,312	-0,225
46,984	12,612	-0,266	-0,144
47,999	323,276	-0,242	-0,324
49,013	-6,227	-0,333	-0,159
50,028	-5,032	-0,386	-0,186
51,042	-22,219	-0,401	-0,170
52,057	29,543	-0,372	-0,222
53,071	102,343	-0,236	-0,193
54,086	9,545	-0,312	-0,165
55,101	-36,786	-0,251	-0,094
56,115	-89,869	-0,345	-0,070
57,130	90,226	-0,353	-0,276
58,144	206,635	-0,351	-0,384
59,159	-23,693	-0,499	-0,209
60,174	-11,173	-0,425	-0,196
61,188	29,015	-0,273	-0,162
62,203	182,762	-0,351	-0,364
63,217	-68,753	-0,271	-0,073
64,232	12,357	-0,281	-0,151
65,247	-39,809	-0,345	-0,126
66,261	274,045	-0,299	-0,372
67,276	-54,143	-0,310	-0,098
68,290	151,028	-0,277	-0,264
69,305	-26,345	-0,247	-0,101
70,320	-18,354	-0,166	-0,072
71,334	96,320	-0,254	-0,204
72,349	102,328	-0,354	-0,290
73,363	82,837	-0,290	-0,220
74,378	56,182	-0,289	-0,196
75,393	81,737	-0,206	-0,156
76,407	-87,297	-0,439	-0,092
77,422	6,660	-0,180	-0,094
78,436	-42,372	-0,292	-0,104
79,451	16,444	-0,206	-0,114
80,466	2,951	-0,403	-0,204
81,480	575,942	-0,188	-0,323
82,495	-11,897	-0,337	-0,154
83,509	-2,271	-0,239	-0,117
84,524	12,490	-0,296	-0,159
85,539	186,710	-0,189	-0,197
86,553	-53,157	-0,180	-0,057
87,568	279,452	-0,251	-0,314
88,582	-27,838	-0,457	-0,185
89,597	197,507	-0,238	-0,254
90,611	46,534	-0,355	-0,230
91,626	506,663	-0,156	-0,254
92,641	-59,984	-0,293	-0,087
93,655	55,265	-0,272	-0,183
94,670	166,548	-0,314	-0,311
95,684	-73,995	-0,334	-0,084
96,699	94,995	-0,229	-0,182
97,714	8,178	-0,314	-0,164
98,728	36,947	-0,283	-0,175
99,743	106,411	-0,178	-0,147
100,757	108,807	-0,293	-0,244
101,772	175,136	-0,152	-0,154
102,787	3,707	-0,258	-0,131
103,801	83,637	-0,303	-0,230
104,816	127,077	-0,250	-0,221
105,830	-24,190	-0,253	-0,105
106,845	-32,120	-0,206	-0,080
107,860	-19,736	-0,259	-0,111
108,874	16,952	-0,270	-0,149
109,889	70,317	-0,237	-0,171
110,903	181,741	-0,190	-0,195
111,918	26,478	-0,266	-0,155
112,933	253,942	-0,146	-0,174
113,947	372,550	-0,134	-0,190
114,962	-44,508	-0,276	-0,096
115,976	-83,021	-0,433	-0,096
116,991	55,953	-0,286	-0,193
118,006	116,653	-0,239	-0,204
119,020	305,279	-0,182	-0,237
120,035	161,480	-0,236	-0,231
121,049	91,526	-0,223	-0,175
122,064	141,093	-0,199	-0,184
123,079	127,157	-0,215	-0,190
124,093	704,980	-0,142	-0,262
125,108	67,888	-0,316	-0,225
126,122	21,803	-0,193	-0,109
127,137	-21,370	-0,235	-0,099
128,151	-89,024	-0,212	-0,043
129,166	-40,461	-0,212	-0,076
130,181	131,626	-0,168	-0,151
131,195	-59,093	-0,248	-0,074
132,210	0,423	-0,388	-0,192
133,224	132,762	-0,300	-0,270
134,239	-19,771	-0,249	-0,107
135,254	-11,100	-0,174	-0,080
136,268	741,635	-0,103	-0,195
137,283	241,588	-0,230	-0,268
138,297	110,541	-0,267	-0,224
139,312	84,701	-0,268	-0,204
140,327	62,992	-0,322	-0,224
141,341	8,662	-0,227	-0,119
142,356	155,370	-0,170	-0,163
143,370	67,264	-0,156	-0,111
144,385	46,730	-0,315	-0,203
145,400	-27,789	-0,431	-0,173
146,414	7,333	-0,347	-0,180
147,429	64,336	-0,168	-0,118
148,443	275,655	-0,176	-0,218
149,458	137,925	-0,191	-0,174
150,473	-30,750	-0,253	-0,099
151,487	-2,287	-0,280	-0,136
152,502	-94,285	-0,342	-0,065
153,516	223,323	-0,151	-0,170
154,531	86,977	-0,234	-0,179
155,546	-9,038	-0,258	-0,120
156,560	-6,475	-0,206	-0,097
157,575	165,579	-0,122	-0,120
158,589	151,545	-0,217	-0,205
159,604	53,890	-0,266	-0,177
160,619	100,461	-0,219	-0,176
161,633	146,864	-0,288	-0,269
162,648	371,075	-0,212	-0,300
163,662	152,792	-0,206	-0,196
164,677	153,225	-0,197	-0,188
165,692	156,557	-0,298	-0,286
166,706	125,977	-0,143	-0,126
167,721	315,141	-0,143	-0,188
168,735	175,160	-0,196	-0,198
169,750	4,302	-0,263	-0,133
170,764	314,218	-0,120	-0,158
171,779	-31,784	-0,243	-0,094
172,794	80,569	-0,196	-0,146
173,808	90,006	-0,185	-0,143
174,823	-165,393	-0,208	-0,006
175,837	141,071	-0,159	-0,146
176,852	13,282	-0,244	-0,131
177,867	-51,574	-0,178	-0,057
178,881	129,197	-0,192	-0,170
179,896	146,872	-0,183	-0,171
180,910	-68,876	-0,277	-0,074
181,925	483,457	-0,177	-0,280
182,940	280,824	-0,247	-0,308
183,954	127,101	-0,200	-0,176
184,969	9,332	-0,219	-0,114
185,983	95,737	-0,259	-0,205
186,998	64,457	-0,333	-0,232
188,013	21,843	-0,221	-0,124
189,027	-15,847	-0,193	-0,085
190,042	-34,407	-0,265	-0,100
191,056	157,172	-0,294	-0,282
192,071	291,554	-0,144	-0,182
193,086	170,111	-0,219	-0,218
194,100	75,185	-0,110	-0,080
195,115	73,908	-0,150	-0,109
196,129	265,078	-0,180	-0,217
197,144	179,214	-0,380	-0,385
198,159	377,670	-0,188	-0,267
199,173	49,755	-0,178	-0,116
200,188	431,628	-0,120	-0,180
201,202	-39,221	-0,268	-0,097
202,217	8,990	-0,162	-0,084
203,232	490,114	-0,144	-0,229
204,246	-11,008	-0,131	-0,059
205,261	-96,078	-0,288	-0,053
206,275	678,319	-0,080	-0,144
207,290	-146,215	-0,228	-0,014
208,304	138,638	-0,138	0,125
209,319	-80,739	-0,201	0,046
210,334	74,807	-0,216	-0,157
211,348	173,650	-0,208	-0,208
212,363	-68,447	-0,147	-0,039
213,377	32,459	-0,241	-0,144
214,392	-200,000	-0,034	-0,241
215,407	549,798	-0,107	-0,179
216,421	48,725	-0,214	-0,139
217,436	-87,005	-0,185	-0,039
218,450	199,557	-0,089	-0,094
219,465	-108,328	-0,289	-0,043
220,480	800,000	-0,117	-0,332
221,494	-120,261	-0,201	0,023
222,509	-200,000	-0,196	-0,000
223,523	-119,891	-0,193	-0,023
224,538	-110,470	-0,175	-0,025
225,553	151,512	-0,213	-0,201
226,567	20,375	-0,268	-0,149
227,582	376,041	-0,148	-0,209
228,596	60,410	-0,162	-0,111
229,611	194,693	-0,177	-0,186
230,626	-200,000	-0,061	-0,214
231,640	89,338	-0,220	-0,169
232,655	176,248	-0,229	-0,230
233,669	44,538	-0,207	-0,131
234,684	-59,238	-0,210	-0,062
235,699	-85,765	-0,280	-0,059
236,713	399,387	-0,026	-0,038
237,728	58,753	-0,218	-0,147
238,742	800,000	-0,060	-0,165
239,757	120,071	-0,155	-0,133
240,772	-33,377	-0,240	-0,091
241,786	800,000	-0,112	-0,239
242,801	257,469	-0,233	-0,277
243,815	-76,842	-0,252	-0,060
244,830	-40,210	-0,169	-0,060
245,844	552,582	-0,113	-0,188
246,859	-150,936	-0,166	-0,009
247,874	-49,108	-0,278	-0,091
248,888	-68,240	-0,151	-0,040
249,903	25,430	-0,250	-0,143
250,917	157,618	-0,124	-0,119
251,932	57,557	-0,134	-0,090
252,947	7,599	-0,127	-0,065
253,961	220,956	-0,239	-0,265
254,976	-200,000	-0,031	-0,325
255,990	49,295	-0,226	-0,146
257,005	49,481	-0,107	-0,069
258,020	11,355	-0,186	-0,098
259,034	116,903	-0,175	-0,148
260,049	-200,000	-0,026	-0,114
261,063	-19,073	-0,209	-0,089
262,078	-8,151	-0,190	0,088
263,093	367,476	-0,081	-0,114
264,107	254,657	-0,208	-0,246
265,122	39,009	-0,127	-0,078
266,136	499,897	-0,043	-0,069
267,151	62,326	-0,200	-0,137
268,166	622,421	-0,134	-0,233
269,180	-109,755	-0,278	-0,040
270,195	457,629	-0,158	-0,243
271,209	68,422	-0,225	-0,159
272,224	800,000	-0,055	-0,132
273,239	-123,661	-0,142	0,015
274,253	-90,261	-0,251	-0,050
275,268	-102,291	-0,008	0,001
276,282	119,457	-0,136	-0,116
277,297	146,953	-0,191	-0,177
278,312	221,167	-0,103	-0,114
279,326	-83,250	-0,171	-0,038
280,341	432,987	-0,118	-0,176
281,355	-1,980	-0,111	0,053
282,370	-32,161	-0,132	-0,050
283,384	-102,916	-0,236	-0,038
284,399	59,494	-0,173	-0,117
285,414	86,972	-0,188	-0,143
286,428	95,324	-0,182	-0,143
287,443	-33,625	-0,110	-0,041
288,457	800,000	-0,022	0,042
289,472	36,619	-0,157	-0,095
290,487	108,595	-0,139	-0,114
291,501	-43,747	-0,140	-0,048
292,516	388,279	-0,144	-0,206
293,530	19,703	-0,074	0,041
294,545	163,249	-0,163	-0,158
295,560	272,773	-0,070	-0,085
296,574	126,139	-0,042	-0,036
297,589	473,160	-0,103	-0,160
298,603	673,948	-0,105	-0,187
299,618	800,000	-0,057	-0,171
300,633	-112,278	-0,194	-0,026
301,647	124,110	-0,084	-0,072
302,662	-29,156	-0,128	-0,050
303,676	629,274	-0,014	-0,025
304,691	171,873	-0,110	-0,108
305,706	-28,747	-0,136	-0,054
306,720	175,616	-0,210	-0,209
307,735	86,927	-0,162	-0,123
308,749	-200,000	0,032	-0,211
309,764	-200,000	-0,013	-0,085
310,779	-72,205	-0,123	-0,031
311,793	37,464	-0,109	-0,066
312,808	111,587	-0,131	-0,108
313,822	-30,849	-0,190	-0,073
314,837	-51,356	-0,223	-0,071
315,852	800,000	-0,034	0,094
316,866	-12,956	-0,037	-0,017
317,881	-200,000	-0,033	-0,141
318,895	119,669	-0,251	-0,213
319,910	233,284	-0,146	-0,165
320,925	-65,696	-0,189	-0,051
321,939	242,043	-0,108	-0,124
322,954	-159,732	0,025	0,001
323,968	23,829	-0,125	-0,070
324,983	-79,019	-0,109	-0,025
325,997	78,286	-0,103	-0,076
327,012	337,774	-0,134	-0,179
328,027	-137,883	-0,193	0,015
329,041	479,490	-0,091	-0,142
330,056	82,573	-0,154	-0,114
331,070	275,408	-0,094	-0,115
332,085	232,774	-0,096	-0,108
333,100	-159,041	-0,226	-0,009
334,114	-179,131	-0,201	-0,003
335,129	51,161	-0,220	-0,143
336,143	221,722	-0,162	-0,178
337,158	-200,000	-0,044	-0,162
338,173	-200,000	-0,038	-0,183
339,187	-160,500	-0,230	0,008
340,202	647,914	-0,078	-0,138
341,216	-93,697	-0,167	-0,031
342,231	266,455	-0,224	-0,268
343,246	3,344	-0,150	-0,075
344,260	22,140	-0,095	-0,053
345,275	800,000	-0,010	-0,028
346,289	800,000	-0,044	-0,117
347,304	215,501	-0,102	-0,111
348,319	-35,285	-0,079	-0,029
349,333	-47,211	-0,168	-0,056
350,348	54,034	-0,137	-0,090
351,362	-200,000	0,037	-0,176
352,377	194,005	-0,137	-0,142
353,392	-200,000	-0,028	-0,097
354,406	325,131	-0,140	-0,184
355,421	208,862	1308,782	1401,444
356,435	160,727	1468,725	1401,881
