DTS Sentinel unit serial number:	SN410029Multiplexer serial number:	ORYXHardware model number:	OX2-SRSoftware version number:	ORYX F/W v4,00 Oryx Data Collector v3.7.2.0data status	okinstallation	B3 Nyhavnadifferential loss correction	single-endedforward channel	channel 1reverse channel	N/Adate	2023/11/29time	06:42:30forward acquisition time	300,00reverse acquisition time	0,00gamma	499,1914k internal	0,3212k external	0,3212temperature offset calibration	1,0000default loss term (dB/km)	0,3820temperature slope calibration	1,0000multiplexer offset coefficient	1,0000multiplexer slope coefficient	1,0000fibre end	0,00T internal ref (°C)	8,94T ext. ref 1 (°C)	-6,39T ext. ref 2 (°C)	-6,48length (m)	temperature (°C)	Stokes	anti-Stokes-744,400	231,438	-0,192	-0,229
-743,385	800,000	-0,081	0,257
-742,371	800,000	-0,081	-0,236
-741,356	-200,000	0,018	0,195
-740,342	800,000	-0,112	-0,251
-739,327	-200,000	-0,007	0,116
-738,312	174,874	-0,210	-0,221
-737,298	-200,000	-0,022	0,189
-736,283	-200,000	-0,083	-0,357
-735,269	-200,000	0,005	0,255
-734,254	342,622	-0,153	-0,218
-733,239	-35,182	-0,305	0,120
-732,225	326,432	-0,162	-0,226
-731,210	116,614	0,114	0,101
-730,196	-141,436	-0,150	-0,011
-729,181	7,198	0,101	0,055
-728,167	800,000	0,030	-0,065
-727,152	800,000	0,038	-0,115
-726,137	5,135	-0,067	-0,036
-725,123	583,928	0,035	0,062
-724,108	-14,245	-0,141	0,065
-723,094	513,325	-0,042	-0,071
-722,079	354,076	-0,081	-0,117
-721,064	238,862	-0,081	0,097
-720,050	50,067	-0,121	-0,083
-719,035	-133,740	-0,071	0,006
-718,021	137,946	-0,042	-0,039
-717,006	-200,000	0,003	0,054
-715,991	800,000	-0,045	-0,094
-714,977	77,591	-0,053	-0,041
-713,962	105,712	-0,066	-0,056
-712,948	69,997	0,120	-0,089
-711,933	299,987	0,056	-0,074
-710,918	161,828	-0,024	-0,024
-709,904	-45,055	-0,049	-0,018
-708,889	131,639	-0,076	0,071
-707,875	192,846	-0,039	-0,043
-706,860	-200,000	0,005	-0,032
-705,845	800,000	0,025	-0,073
-704,831	-75,756	0,157	-0,040
-703,816	800,000	0,026	-0,072
-702,802	-200,000	-0,005	0,048
-701,787	-200,000	-0,010	0,120
-700,772	332,927	-0,056	-0,079
-699,758	-200,000	0,008	-0,040
-698,743	24,717	-0,104	0,062
-697,729	800,000	0,028	-0,078
-696,714	283,914	-0,034	0,044
-695,699	-26,632	-0,054	0,023
-694,685	158,033	-0,065	-0,065
-693,670	800,000	0,070	-0,189
-692,656	-200,000	-0,027	0,109
-691,641	800,000	0,035	0,087
-690,627	-134,059	0,062	0,005
-689,612	-200,000	-0,003	0,165
-688,597	88,466	0,019	0,015
-687,583	169,126	-0,100	-0,103
-686,568	500,620	-0,035	0,059
-685,554	-200,000	0,001	0,070
-684,539	63,129	0,138	0,100
-683,524	800,000	-0,069	0,168
-682,510	-26,005	0,126	0,054
-681,495	-200,000	-0,012	-0,051
-680,481	395,206	-0,056	0,085
-679,466	-200,000	0,006	-0,127
-678,451	-200,000	0,010	-0,196
-677,437	438,440	-0,058	-0,092
-676,422	800,000	0,033	0,068
-675,408	-6,203	-0,083	-0,041
-674,393	-151,201	-0,088	-0,005
-673,378	-66,849	-0,088	0,025
-672,364	37,239	0,039	-0,025
-671,349	197,256	-0,114	-0,126
-670,335	370,757	-0,050	-0,073
-669,320	409,845	0,053	0,081
-668,305	-36,108	-0,129	0,050
-667,291	153,038	0,111	-0,110
-666,276	-200,000	-0,014	-0,121
-665,262	138,431	-0,134	-0,127
-664,247	-200,000	-0,003	-0,155
-663,232	102,933	0,074	-0,062
-662,218	237,978	-0,028	-0,034
-661,203	325,047	-0,018	-0,025
-660,189	800,000	0,016	0,049
-659,174	-56,933	-0,133	0,042
-658,159	34,067	-0,021	0,013
-657,145	-200,000	0,007	-0,048
-656,130	-97,231	0,141	0,026
-655,116	1,329	0,122	0,063
-654,101	-88,398	0,209	-0,045
-653,086	800,000	-0,029	-0,079
-652,072	24,506	-0,030	-0,018
-651,057	-10,570	-0,046	0,022
-650,043	-107,001	-0,037	-0,006
-649,028	-200,000	0,004	-0,116
-648,014	800,000	0,047	-0,120
-646,999	543,039	-0,048	-0,082
-645,984	256,576	-0,054	0,068
-644,970	-59,133	-0,164	0,051
-643,955	19,719	-0,090	0,052
-642,941	671,173	-0,014	0,026
-641,926	800,000	-0,020	0,057
-640,911	31,884	-0,207	-0,129
-639,897	-30,772	-0,084	0,034
-638,882	-200,000	-0,011	0,044
-637,868	-124,437	-0,127	0,014
-636,853	193,749	-0,040	-0,043
-635,838	-200,000	-0,010	-0,047
-634,824	128,548	0,076	0,070
-633,809	-36,932	0,072	0,028
-632,795	-200,000	0,009	0,071
-631,780	-114,246	0,042	0,006
-630,765	-18,064	0,025	-0,011
-629,751	-78,220	-0,127	-0,031
-628,736	-65,075	0,083	-0,024
-627,722	800,000	-0,063	-0,136
-626,707	132,687	0,109	0,102
-625,692	674,291	0,043	0,080
-624,678	142,565	0,040	-0,038
-623,663	-39,793	-0,121	-0,045
-622,649	615,849	-0,077	-0,140
-621,634	-71,377	-0,060	-0,016
-620,619	-109,044	-0,076	-0,012
-619,605	2,260	0,074	0,039
-618,590	509,198	0,056	0,094
-617,576	-200,000	-0,013	-0,066
-616,561	-102,347	-0,086	-0,015
-615,546	-52,068	-0,066	0,022
-614,532	-200,000	0,022	-0,107
-613,517	800,000	-0,045	-0,101
-612,503	-15,492	-0,086	0,040
-611,488	-78,786	0,035	0,008
-610,474	613,058	0,004	-0,008
-609,459	-98,500	0,158	0,029
-608,444	269,024	0,030	0,038
-607,430	800,000	0,030	-0,077
-606,415	-200,000	-0,021	0,082
-605,401	7,714	0,050	-0,027
-604,386	50,062	0,130	-0,088
-603,371	228,202	-0,139	0,164
-602,357	2,758	-0,145	0,075
-601,342	-30,351	-0,107	0,044
-600,328	145,001	0,055	-0,053
-599,313	800,000	-0,060	-0,161
-598,298	-103,344	0,142	0,024
-597,284	800,000	-0,028	0,084
-596,269	-200,000	0,032	0,141
-595,255	299,824	-0,065	0,087
-594,240	800,000	0,024	0,062
-593,225	240,570	-0,052	-0,063
-592,211	21,716	-0,118	-0,069
-591,196	21,876	-0,138	-0,081
-590,182	-200,000	0,005	0,047
-589,167	142,499	0,066	0,063
-588,152	-200,000	0,022	0,222
-587,138	-26,001	-0,089	-0,038
-586,123	52,713	-0,104	0,072
-585,109	-200,000	-0,030	-0,113
-584,094	67,341	0,038	-0,028
-583,079	114,713	0,045	-0,040
-582,065	-200,000	0,009	-0,089
-581,050	800,000	-0,029	0,082
-580,036	800,000	0,069	-0,138
-579,021	139,209	-0,070	-0,066
-578,006	40,211	-0,094	-0,061
-576,992	-200,000	-0,032	-0,173
-575,977	-200,000	0,051	0,219
-574,963	84,521	0,006	0,004
-573,948	-96,517	-0,164	0,031
-572,934	334,225	0,104	0,145
-571,919	64,840	-0,074	-0,054
-570,904	-91,189	-0,095	-0,019
-569,890	-46,145	0,083	0,029
-568,875	399,869	-0,059	0,089
-567,861	371,021	0,093	0,137
-566,846	35,557	-0,026	-0,017
-565,831	-200,000	0,027	-0,116
-564,817	546,543	-0,053	0,091
-563,802	-200,000	-0,017	-0,204
-562,788	800,000	-0,031	-0,079
-561,773	276,197	0,092	-0,118
-560,758	-85,008	0,051	-0,011
-559,744	-23,438	-0,018	-0,008
-558,729	-200,000	0,003	-0,051
-557,715	202,567	-0,065	-0,072
-556,700	-200,000	0,000	-0,122
-555,685	800,000	-0,050	-0,102
-554,671	800,000	-0,019	-0,050
-553,656	335,615	0,034	0,048
-552,642	800,000	0,026	0,062
-551,627	-200,000	-0,020	0,129
-550,612	-200,000	0,000	0,043
-549,598	65,789	-0,085	-0,062
-548,583	-95,830	-0,099	0,019
-547,569	-161,582	0,120	-0,004
-546,554	109,682	0,097	0,083
-545,539	115,442	0,008	0,007
-544,525	800,000	0,044	-0,102
-543,510	561,876	-0,041	0,071
-542,496	-51,890	-0,085	0,028
-541,481	172,155	0,064	-0,066
-540,466	-200,000	0,019	0,100
-539,452	800,000	-0,066	0,190
-538,437	201,055	-0,052	-0,058
-537,423	554,069	0,034	0,059
-536,408	-200,000	-0,026	0,107
-535,393	267,824	-0,087	-0,110
-534,379	-200,000	0,040	-0,191
-533,364	95,316	-0,160	-0,131
-532,350	785,276	-0,039	-0,078
-531,335	-39,515	0,173	-0,065
-530,321	289,066	-0,092	0,120
-529,306	-37,109	0,126	-0,048
-528,291	33,217	-0,109	-0,068
-527,277	341,220	-0,103	-0,146
-526,262	-200,000	0,001	0,040
-525,248	-163,242	-0,077	-0,003
-524,233	-159,526	0,018	-0,001
-523,218	186,051	0,048	-0,051
-522,204	-51,932	0,037	0,012
-521,189	84,369	-0,097	-0,076
-520,175	-200,000	-0,005	-0,052
-519,160	800,000	0,015	-0,041
-518,145	65,646	0,171	0,124
-517,131	166,351	-0,083	-0,085
-516,116	-200,000	0,001	-0,117
-515,102	-200,000	-0,029	0,124
-514,087	53,714	0,034	0,024
-513,072	-200,000	-0,050	0,170
-512,058	53,361	-0,074	-0,051
-511,043	-200,000	-0,010	0,170
-510,029	-22,889	0,034	0,015
-509,014	-132,656	0,061	-0,006
-507,999	369,589	-0,005	0,007
-506,985	-200,000	-0,018	-0,075
-505,970	246,616	-0,123	-0,150
-504,956	419,109	-0,037	-0,057
-503,941	51,444	-0,072	-0,049
-502,926	-65,805	0,175	0,050
-501,912	-200,000	0,004	-0,013
-500,897	-200,000	0,008	-0,097
-499,883	-200,000	-0,010	0,034
-498,868	-48,548	-0,142	0,049
-497,853	800,000	0,055	-0,150
-496,839	313,999	0,012	0,016
-495,824	-200,000	-0,011	-0,040
-494,810	9,624	-0,079	0,043
-493,795	49,449	0,125	0,085
-492,781	-77,960	-0,025	-0,006
-491,766	-141,909	0,031	0,002
-490,751	800,000	-0,035	-0,097
-489,737	-175,330	0,093	0,002
-488,722	205,180	0,017	0,019
-487,708	132,520	0,115	0,107
-486,693	800,000	-0,049	-0,104
-485,678	184,290	0,060	-0,064
-484,664	9,477	0,043	-0,023
-483,649	43,293	-0,181	0,119
-482,635	64,625	-0,023	0,017
-481,620	-53,989	0,081	-0,026
-480,605	57,784	0,086	-0,060
-479,591	496,585	0,055	0,091
-478,576	224,954	-0,007	-0,008
-477,562	-20,341	-0,131	-0,058
-476,547	-200,000	-0,011	-0,115
-475,532	8,633	-0,061	0,033
-474,518	-200,000	0,024	-0,083
-473,503	-200,000	0,003	0,023
-472,489	121,016	-0,048	-0,043
-471,474	-200,000	0,007	0,031
-470,459	-200,000	0,016	-0,146
-469,445	-42,720	-0,087	-0,031
-468,430	-200,000	-0,028	-0,161
-467,416	345,802	-0,027	-0,038
-466,401	-109,399	-0,073	-0,011
-465,386	229,356	0,155	0,181
-464,372	597,152	-0,044	0,078
-463,357	11,532	0,074	-0,041
-462,343	435,029	-0,036	-0,057
-461,328	-41,107	0,096	0,035
-460,313	179,318	0,096	0,101
-459,299	-200,000	-0,020	-0,065
-458,284	394,839	-0,072	0,108
-457,270	-71,916	0,052	0,014
-456,255	-200,000	-0,024	-0,105
-455,241	-200,000	0,016	-0,077
-454,226	-71,261	0,093	-0,025
-453,211	23,751	0,136	0,080
-452,197	-104,712	-0,184	-0,030
-451,182	23,615	0,156	0,092
-450,168	-200,000	0,018	-0,134
-449,153	107,481	-0,063	-0,054
-448,138	20,449	-0,086	-0,050
-447,124	-23,904	0,043	0,018
-446,109	800,000	-0,015	0,043
-445,095	-3,970	0,321	0,159
-444,080	-122,046	-0,086	0,010
-443,065	35,926	0,043	-0,027
-442,051	800,000	-0,026	0,056
-441,036	-80,029	-0,069	-0,016
-440,022	177,949	-0,085	0,089
-439,007	640,836	0,033	0,060
-437,992	-72,226	0,060	-0,016
-436,978	-71,304	-0,035	-0,009
-435,963	10,054	-0,031	-0,017
-434,949	-200,000	-0,028	-0,132
-433,934	326,592	-0,055	-0,075
-432,919	-105,292	-0,053	0,009
-431,905	-200,000	0,012	-0,042
-430,890	613,022	0,038	0,068
-429,876	-200,000	0,023	0,107
-428,861	412,969	-0,038	0,059
-427,846	-63,276	0,100	0,029
-426,832	-200,000	0,006	-0,065
-425,817	-170,576	0,092	0,002
-424,803	119,617	0,122	0,108
-423,788	-89,644	0,147	-0,031
-422,773	800,000	-0,055	-0,114
-421,759	-64,897	-0,147	0,042
-420,744	800,000	0,050	-0,151
-419,730	800,000	0,035	-0,092
-418,715	69,591	-0,131	0,097
-417,701	121,418	-0,039	-0,035
-416,686	-200,000	0,002	0,159
-415,671	-24,231	-0,093	-0,040
-414,657	86,052	0,142	0,112
-413,642	-119,504	-0,156	-0,019
-412,628	-200,000	-0,002	-0,076
-411,613	800,000	-0,047	-0,117
-410,598	170,334	-0,079	0,081
-409,584	53,667	0,084	-0,058
-408,569	-106,144	0,080	-0,013
-407,555	-200,000	0,004	-0,050
-406,540	800,000	0,040	0,079
-405,525	-128,214	-0,035	0,004
-404,511	-58,874	0,225	-0,069
-403,496	-8,006	-0,059	-0,029
-402,482	241,272	-0,038	0,046
-401,467	97,794	0,053	-0,044
-400,452	501,197	0,047	0,078
-399,438	-121,084	0,184	0,022
-398,423	155,061	-0,094	-0,093
-397,409	54,645	-0,022	-0,015
-396,394	-9,042	-0,202	-0,096
-395,379	-7,319	0,060	-0,029
-394,365	-200,000	0,005	-0,106
-393,350	-200,000	0,023	0,078
-392,336	-200,000	0,007	-0,065
-391,321	-20,965	0,057	0,025
-390,306	240,615	-0,142	-0,170
-389,292	-200,000	0,033	-0,105
-388,277	800,000	-0,019	-0,054
-387,263	-200,000	-0,034	-0,128
-386,248	177,860	0,049	0,051
-385,233	-200,000	-0,007	0,101
-384,219	-85,077	-0,157	0,035
-383,204	164,419	-0,071	-0,071
-382,190	800,000	0,011	-0,030
-381,175	-200,000	-0,008	-0,080
-380,160	202,638	0,130	0,144
-379,146	136,212	0,026	-0,024
-378,131	-200,000	-0,012	0,081
-377,117	111,827	-0,081	0,070
-376,102	62,759	0,048	-0,034
-375,088	716,880	0,034	-0,064
-374,073	223,808	0,050	-0,058
-373,058	505,723	-0,020	-0,033
-372,044	136,871	0,069	0,064
-371,029	279,871	0,148	0,189
-370,015	-54,837	0,197	0,063
-369,000	26,608	-0,125	-0,074
-367,985	-20,458	-0,107	-0,047
-366,971	-110,384	-0,055	0,008
-365,956	152,718	-0,031	0,030
-364,942	800,000	-0,010	0,019
-363,927	-200,000	0,017	0,086
-362,912	-49,773	-0,139	0,047
-361,898	-101,107	0,018	0,003
-360,883	167,035	-0,122	0,123
-359,869	-49,576	0,128	0,043
-358,854	800,000	-0,053	0,149
-357,839	-200,000	0,011	-0,074
-356,825	-85,861	-0,062	-0,014
-355,810	-200,000	-0,010	0,032
-354,796	24,915	-0,069	-0,041
-353,781	596,301	-0,052	0,092
-352,766	-39,799	-0,081	0,030
-351,752	-80,340	0,160	-0,038
-350,737	-21,200	-0,065	-0,028
-349,723	-145,080	0,031	-0,002
-348,708	-200,000	0,014	0,153
-347,693	734,771	0,024	-0,047
-346,679	-134,934	-0,028	0,002
-345,664	-200,000	0,001	0,020
-344,650	-200,000	-0,012	0,091
-343,635	800,000	0,038	0,092
-342,620	-168,794	-0,020	0,001
-341,606	-200,000	0,023	0,112
-340,591	-200,000	-0,001	0,022
-339,577	195,124	-0,054	-0,058
-338,562	-200,000	-0,026	-0,097
-337,548	800,000	-0,019	0,061
-336,533	112,514	0,079	0,069
-335,518	-200,000	-0,018	0,137
-334,504	212,301	-0,088	0,099
-333,489	-200,000	0,015	0,081
-332,475	170,356	0,063	-0,064
-331,460	-200,000	0,040	-0,167
-330,445	124,480	-0,170	-0,153
-329,431	4,384	0,161	-0,084
-328,416	-18,621	0,049	0,022
-327,402	111,500	0,060	0,051
-326,387	800,000	0,038	0,081
-325,372	-101,636	-0,147	0,025
-324,358	-200,000	-0,001	-0,008
-323,343	453,372	0,030	-0,048
-322,329	185,090	-0,015	0,016
-321,314	2,522	-0,021	0,011
-320,299	106,907	-0,055	0,046
-319,285	206,255	0,090	-0,100
-318,270	800,000	-0,014	-0,031
-317,256	143,840	-0,140	-0,133
-316,241	-200,000	0,011	0,140
-315,226	-200,000	0,000	-0,029
-314,212	-163,995	0,187	-0,006
-313,197	-200,000	0,005	0,102
-312,183	-24,760	0,150	-0,063
-311,168	75,417	-0,063	0,047
-310,153	-38,031	-0,078	0,029
-309,139	103,975	-0,094	-0,078
-308,124	316,659	-0,085	-0,115
-307,110	-200,000	0,003	0,154
-306,095	73,947	0,081	0,061
-305,080	-200,000	0,012	-0,058
-304,066	-200,000	-0,035	0,186
-303,051	197,970	-0,018	0,020
-302,037	-14,248	0,057	-0,026
-301,022	70,233	0,040	0,029
-300,008	220,630	0,037	0,042
-298,993	34,669	0,106	0,066
-297,978	308,503	-0,031	0,041
-296,964	6,354	0,036	0,019
-295,949	-129,149	-0,066	-0,006
-294,935	-39,289	0,063	0,023
-293,920	-137,638	0,109	0,009
-292,905	-30,832	-0,051	-0,021
-291,891	14,401	0,077	0,043
-290,876	-155,159	0,020	0,001
-289,862	-95,500	0,035	-0,007
-288,847	-200,000	0,018	0,066
-287,832	-175,502	-0,024	-0,000
-286,818	447,522	-0,044	-0,069
-285,803	-113,064	0,026	0,004
-284,789	6,809	-0,037	-0,020
-283,774	-200,000	0,023	0,075
-282,759	-200,000	-0,008	-0,060
-281,745	800,000	0,025	0,066
-280,730	5,135	-0,144	-0,075
-279,716	-10,574	0,065	0,031
-278,701	430,945	0,064	-0,100
-277,686	9,336	0,089	-0,048
-276,672	150,664	-0,026	-0,025
-275,657	-111,179	0,067	0,010
-274,643	-200,000	-0,015	0,065
-273,628	-80,507	0,061	-0,014
-272,613	400,402	0,028	-0,042
-271,599	139,016	0,139	0,130
-270,584	122,208	-0,043	0,039
-269,570	-44,409	0,098	0,035
-268,555	800,000	-0,050	0,114
-267,540	698,828	-0,055	0,104
-266,526	-65,592	-0,157	-0,045
-265,511	-106,748	0,115	-0,018
-264,497	-178,298	-0,016	-0,000
-263,482	-15,279	0,099	-0,045
-262,467	8,132	-0,050	0,026
-261,453	-142,232	-0,061	-0,004
-260,438	800,000	-0,049	0,118
-259,424	-134,497	-0,074	-0,006
-258,409	-182,288	-0,163	0,002
-257,395	104,229	0,052	-0,043
-256,380	407,065	-0,061	0,092
-255,365	145,296	0,081	0,077
-254,351	-200,000	0,027	0,111
-253,336	-100,044	0,042	0,007
-252,322	800,000	-0,062	-0,123
-251,307	800,000	0,043	-0,119
-250,292	130,504	0,034	0,031
-249,278	-105,256	0,054	0,009
-248,263	-146,605	-0,049	0,003
-247,249	-61,109	0,066	0,020
-246,234	800,000	0,030	0,065
-245,219	-200,000	-0,001	-0,164
-244,205	56,560	0,060	0,042
-243,190	487,881	0,024	-0,039
-242,176	-63,223	0,097	-0,028
-241,161	324,779	0,053	0,073
-240,146	-90,100	0,082	0,017
-239,132	747,983	-0,072	-0,138
-238,117	56,190	-0,062	0,043
-237,103	537,238	0,070	-0,119
-236,088	-200,000	0,013	-0,114
-235,073	-86,141	0,090	0,020
-234,059	368,257	0,049	-0,071
-233,044	103,007	-0,033	0,027
-232,030	-32,035	-0,147	-0,058
-231,015	658,186	0,018	0,034
-230,000	131,452	0,088	-0,080
-228,986	-200,000	-0,012	-0,062
-227,971	150,428	0,063	-0,061
-226,957	-200,000	-0,010	0,060
-225,942	641,177	-0,037	0,066
-224,927	22,628	-0,090	0,052
-223,913	86,523	-0,035	-0,027
-222,898	-55,900	-0,024	0,008
-221,884	25,792	-0,163	-0,096
-220,869	-69,418	0,037	-0,010
-219,855	800,000	-0,022	-0,045
-218,840	34,893	0,095	0,059
-217,825	-200,000	-0,011	-0,046
-216,811	35,387	0,046	0,028
-215,796	-200,000	-0,022	-0,082
-214,782	12,563	-0,079	-0,043
-213,767	-161,993	0,060	-0,002
-212,752	-200,000	-0,003	0,045
-211,738	800,000	-0,040	0,095
-210,723	-200,000	0,035	0,139
-209,709	-7,000	-0,177	-0,085
-208,694	369,947	-0,036	0,052
-207,679	-200,000	-0,002	-0,019
-206,665	31,248	-0,017	0,010
-205,650	-83,266	0,136	0,031
-204,636	137,813	-0,028	0,026
-203,621	800,000	-0,017	0,045
-202,606	-200,000	0,006	0,038
-201,592	-14,758	0,075	-0,034
-200,577	116,699	-0,067	-0,059
-199,563	-200,000	-0,008	-0,133
-198,548	209,020	0,106	0,118
-197,533	800,000	-0,011	0,028
-196,519	638,427	0,053	-0,095
-195,504	-76,689	-0,089	-0,022
-194,490	86,596	0,025	-0,019
-193,475	-51,336	-0,074	-0,024
-192,460	-127,206	0,031	0,003
-191,446	53,304	-0,057	0,039
-190,431	100,752	0,129	0,106
-189,417	-93,157	0,256	-0,050
-188,402	15,282	-0,126	-0,070
-187,387	42,179	0,069	-0,044
-186,373	800,000	0,029	-0,078
-185,358	53,942	0,141	-0,096
-184,344	-200,000	-0,023	0,105
-183,329	-161,406	0,074	0,003
-182,315	800,000	0,084	0,263
-181,300	-87,087	-0,102	-0,022
-180,285	-74,422	0,096	0,024
-179,271	-4,205	0,054	-0,027
-178,256	15,782	0,047	0,026
-177,242	446,867	-0,023	-0,035
-176,227	215,626	0,086	0,097
-175,212	-110,365	0,086	-0,013
-174,198	2,694	-0,039	0,020
-173,183	-9,371	0,105	-0,049
-172,169	106,926	-0,036	-0,031
-171,154	294,465	0,122	0,159
-170,139	405,431	0,061	0,091
-169,125	107,445	0,114	0,096
-168,110	-94,065	0,065	0,013
-167,096	204,897	0,066	0,073
-166,081	-99,305	-0,092	-0,016
-165,066	-200,000	0,014	-0,130
-164,052	-36,979	-0,064	0,024
-163,037	-200,000	0,027	0,108
-162,023	82,879	0,086	-0,067
-161,008	230,862	-0,059	0,068
-159,993	38,918	0,016	0,010
-158,979	-22,829	-0,111	0,047
-157,964	415,341	0,059	-0,089
-156,950	-28,071	-0,005	-0,002
-155,935	62,217	-0,139	-0,098
-154,920	-200,000	0,025	0,151
-153,906	209,797	0,078	0,087
-152,891	69,724	-0,030	-0,022
-151,877	-100,620	-0,191	0,033
-150,862	-102,580	-0,061	0,010
-149,847	-71,309	-0,101	-0,027
-148,833	-99,672	-0,045	0,008
-147,818	-72,538	0,109	0,028
-146,804	-200,000	-0,015	0,091
-145,789	-9,748	0,020	-0,009
-144,775	265,844	-0,023	0,029
-143,760	-0,993	0,149	0,074
-142,745	285,299	-0,069	-0,088
-141,731	183,883	-0,090	-0,094
-140,716	-138,585	0,081	0,006
-139,702	800,000	-0,065	0,178
-138,687	-89,222	0,062	-0,013
-137,672	-200,000	-0,001	-0,007
-136,658	145,318	-0,101	-0,096
-135,643	195,499	0,128	-0,138
-134,629	-19,374	-0,089	0,039
-133,614	15,017	0,061	0,034
-132,599	31,626	0,015	-0,009
-131,585	800,000	-0,023	0,059
-130,570	-46,776	0,152	0,052
-129,556	117,379	-0,046	-0,040
-128,541	-200,000	0,003	-0,093
-127,526	-200,000	-0,001	0,093
-126,512	357,491	-0,006	-0,009
-125,497	-53,989	0,151	0,048
-124,483	376,684	-0,034	-0,049
-123,468	444,575	0,038	-0,060
-122,453	-141,206	-0,057	-0,004
-121,439	-137,876	-0,183	0,014
-120,424	21,628	-0,083	0,048
-119,410	-126,358	0,107	-0,011
-118,395	-200,000	0,018	0,147
-117,380	-200,000	0,005	-0,033
-116,366	93,767	0,071	0,057
-115,351	-189,006	0,076	0,001
-114,337	99,696	-0,164	0,134
-113,322	630,685	0,034	0,060
-112,307	652,917	0,081	0,147
-111,293	800,000	-0,017	0,038
-110,278	191,213	0,047	-0,050
-109,264	-129,690	0,051	-0,005
-108,249	-200,000	0,003	-0,087
-107,234	158,398	-0,027	-0,026
-106,220	79,808	0,044	-0,034
-105,205	-66,515	0,125	-0,035
-104,191	-200,000	0,001	0,017
-103,176	-139,709	-0,075	-0,006
-102,162	-200,000	-0,016	-0,071
-101,147	-200,000	0,002	-0,177
-100,132	145,671	-0,105	-0,099
-99,118	262,343	0,080	0,098
-98,103	229,229	0,065	0,075
-97,089	313,306	-0,096	-0,128
-96,074	56,964	-0,099	0,068
-95,059	601,781	-0,018	0,031
-94,045	-121,937	-0,109	-0,013
-93,030	-136,908	-0,034	0,003
-92,016	-154,353	-0,147	-0,007
-91,001	0,978	0,032	-0,016
-89,986	-200,000	-0,015	0,143
-88,972	-77,839	0,086	0,021
-87,957	-200,000	-0,019	0,130
-86,943	-200,000	-0,004	0,030
-85,928	800,000	0,054	0,119
-84,913	800,000	0,032	-0,080
-83,899	598,626	0,043	-0,075
-82,884	221,951	0,043	-0,049
-81,870	670,723	0,037	0,067
-80,855	-16,418	-0,069	0,031
-79,840	-200,000	-0,011	-0,082
-78,826	-200,000	0,002	-0,080
-77,811	-27,028	-0,012	-0,005
-76,797	-69,458	0,133	-0,036
-75,782	800,000	-0,028	0,070
-74,767	-13,366	0,037	-0,017
-73,753	128,572	-0,060	0,054
-72,738	-200,000	-0,014	0,085
-71,724	61,201	0,026	0,018
-70,709	207,710	-0,031	0,035
-69,694	134,329	0,041	-0,038
-68,680	-200,000	-0,016	0,103
-67,665	-94,260	0,143	0,027
-66,651	47,181	0,119	0,078
-65,636	-131,409	0,018	0,002
-64,622	-90,141	0,103	0,021
-63,607	-6,302	-0,168	-0,081
-62,592	-200,000	0,046	-0,165
-61,578	359,484	0,061	-0,086
-60,563	800,000	0,006	0,019
-59,549	800,000	-0,025	0,051
-58,534	56,429	-2,242	-1,536
-57,519	651,280	-1,074	-1,950
-56,505	-200,000	-0,225	-4,291
-55,490	485,520	1,022	1,650
-54,476	800,000	5,164	11,370
-53,461	-200,000	21,925	337,810
-52,446	800,000	759,121	2296,447
-51,432	532,612	1652,976	2771,185
-50,417	69,198	1650,338	1196,050
-49,403	16,540	1525,228	847,977
-48,388	10,780	1449,729	778,283
-47,373	18,997	1441,831	813,245
-46,359	14,090	1430,625	783,683
-45,344	9,065	1426,527	757,598
-44,330	9,033	1424,442	756,306
-43,315	9,001	1422,861	755,288
-42,300	9,002	1421,163	754,359
-41,286	9,055	1419,959	753,942
-40,271	8,999	1418,586	752,918
-39,257	8,993	1417,475	752,269
-38,242	9,037	1416,276	751,811
-37,227	9,014	1415,380	751,196
-36,213	9,008	1414,058	750,439
-35,198	9,064	1412,790	749,999
-34,184	9,046	1411,708	749,310
-33,169	8,956	1410,609	748,274
-32,154	9,023	1409,602	748,024
-31,140	9,029	1408,169	747,264
-30,125	9,075	1406,831	746,739
-29,111	9,019	1405,871	745,938
-28,096	9,017	1404,736	745,298
-27,082	8,965	1403,551	744,396
-26,067	8,934	1402,521	743,676
-25,052	9,023	1401,299	743,412
-24,038	9,003	1400,521	742,875
-23,023	8,962	1399,627	742,182
-22,009	8,967	1398,627	741,645
-20,994	8,937	1397,463	740,860
-19,979	8,919	1396,594	740,288
-18,965	8,945	1395,462	739,776
-17,950	8,889	1394,739	739,105
-16,936	8,905	1393,946	738,727
-15,921	8,860	1392,832	737,900
-14,906	8,874	1391,972	737,481
-13,892	8,916	1390,938	737,100
-12,877	8,927	1390,133	736,691
-11,863	8,869	1389,525	736,074
-10,848	8,875	1388,370	735,460
-9,833	8,795	1387,694	734,703
-8,819	8,788	1386,682	734,106
-7,804	8,775	1385,676	733,487
-6,790	8,800	1384,644	733,024
-5,775	8,794	1383,694	732,467
-4,760	8,833	1382,549	732,008
-3,746	8,823	1381,778	731,526
-2,731	8,826	1380,866	731,027
-1,717	8,816	1380,109	730,552
-0,702	8,799	1378,408	729,543
0,313	12,814	1289,828	700,902
1,327	28,681	681,801	406,068
2,342	44,521	117,355	75,896
3,356	1,717	16,301	8,253
4,371	-2,422	3,700	1,822
5,386	-30,135	1,201	0,479
6,400	782,085	0,287	0,556
7,415	101,667	-0,139	-0,114
8,429	71,368	-0,331	-0,242
9,444	32,694	-0,259	-0,158
10,459	46,072	-0,254	-0,165
11,473	-47,208	-0,348	-0,119
12,488	68,499	-0,247	-0,178
13,502	-51,512	-0,348	-0,114
14,517	150,050	-0,235	-0,224
15,531	127,931	-0,290	-0,260
16,546	156,100	-0,244	-0,237
17,561	227,461	-0,362	-0,415
18,575	-125,337	-0,326	-0,035
19,590	-100,557	-0,228	-0,039
20,604	-64,037	-0,383	-0,109
21,619	35,507	-0,441	-0,272
22,634	153,521	-0,386	-0,372
23,648	28,397	-0,359	-0,213
24,663	385,890	-0,281	-0,410
25,677	1,509	-0,335	-0,169
26,692	-9,844	-0,346	-0,161
27,707	-29,572	-0,303	-0,121
28,721	266,592	-0,337	-0,415
29,736	137,856	-0,396	-0,365
30,750	113,499	-0,305	-0,261
31,765	-51,412	-0,497	-0,162
32,780	23,299	-0,328	-0,189
33,794	70,164	-0,271	-0,197
34,809	121,655	-0,304	-0,267
35,823	104,753	-0,348	-0,288
36,838	106,949	-0,358	-0,299
37,853	159,031	-0,362	-0,354
38,867	67,502	-0,395	-0,283
39,882	49,530	-0,421	-0,278
40,896	94,992	-0,302	-0,242
41,911	152,292	-0,314	-0,301
42,926	65,278	-0,376	-0,266
43,940	23,764	-0,377	-0,218
44,955	87,712	-0,413	-0,321
45,969	38,385	-0,391	-0,244
46,984	85,978	-0,359	-0,277
47,999	182,471	-0,262	-0,272
49,013	51,851	-0,325	-0,217
50,028	-18,394	-0,496	-0,216
51,042	15,477	-0,289	-0,159
52,057	-23,314	-0,493	-0,207
53,071	277,988	-0,262	-0,328
54,086	110,986	-0,287	-0,243
55,101	19,323	-0,262	-0,147
56,115	112,924	-0,239	-0,204
57,130	-15,263	-0,292	-0,130
58,144	-24,968	-0,305	-0,126
59,159	57,980	-0,344	-0,236
60,174	206,851	-0,331	-0,362
61,188	109,955	-0,349	-0,294
62,203	-91,113	-0,441	-0,088
63,217	-28,775	-0,358	-0,144
64,232	24,499	-0,359	-0,208
65,247	115,739	-0,228	-0,196
66,261	-56,510	-0,425	-0,131
67,276	52,009	-0,456	-0,304
68,290	93,787	-0,306	-0,243
69,305	-18,867	-0,267	-0,116
70,320	22,523	-0,277	-0,158
71,334	-19,412	-0,377	-0,163
72,349	247,831	-0,262	-0,311
73,363	-22,313	-0,419	-0,177
74,378	92,846	-0,293	-0,232
75,393	-93,191	-0,315	-0,061
76,407	7,589	-0,269	-0,140
77,422	27,019	-0,233	-0,136
78,436	-37,947	-0,212	-0,079
79,451	2,944	-0,369	-0,187
80,466	73,403	-0,324	-0,237
81,480	159,627	-0,254	-0,248
82,495	18,155	-0,387	-0,215
83,509	215,334	-0,228	-0,254
84,524	7,695	-0,284	-0,148
85,539	-30,280	-0,389	-0,154
86,553	15,792	-0,370	-0,203
87,568	20,909	-0,286	-0,162
88,582	101,341	-0,405	-0,330
89,597	48,270	-0,272	-0,178
90,611	-49,740	-0,292	-0,096
91,626	29,543	-0,201	-0,119
92,641	-154,983	-0,317	0,014
93,655	308,021	-0,188	-0,245
94,670	112,125	-0,351	-0,297
95,684	-24,367	-0,357	-0,148
96,699	83,682	-0,242	-0,184
97,714	397,954	-0,164	-0,241
98,728	-15,672	-0,343	-0,152
99,743	260,720	-0,202	-0,245
100,757	17,231	-0,267	-0,148
101,772	-19,303	-0,353	-0,152
102,787	33,024	-0,407	-0,246
103,801	183,500	-0,208	-0,216
104,816	-14,194	-0,277	-0,124
105,830	40,396	-0,285	-0,179
106,845	236,907	-0,297	-0,345
107,860	745,685	-0,166	-0,313
108,874	-7,927	-0,365	-0,171
109,889	14,646	-0,372	-0,203
110,903	86,855	-0,249	-0,192
111,918	-16,098	-0,360	-0,159
112,933	43,144	-0,219	-0,139
113,947	-84,952	-0,258	-0,056
114,962	372,812	-0,136	-0,193
115,976	-33,098	-0,308	-0,119
116,991	-25,850	-0,244	-0,100
118,006	58,687	-0,319	-0,218
119,020	208,176	-0,181	-0,198
120,035	115,031	-0,154	-0,131
121,049	180,944	-0,109	-0,111
122,064	89,918	-0,239	-0,187
123,079	93,503	-0,230	-0,181
124,093	-14,488	-0,266	-0,119
125,108	77,955	-0,251	-0,187
126,122	501,894	-0,065	-0,105
127,137	-21,021	-0,313	-0,133
128,151	-94,490	-0,246	-0,046
129,166	-36,261	-0,268	-0,100
130,181	134,659	-0,281	-0,254
131,195	184,110	-0,229	-0,237
132,210	57,990	-0,301	-0,205
133,224	21,722	-0,258	-0,146
134,239	398,338	-0,183	-0,267
135,254	132,027	-0,182	-0,163
136,268	-72,074	-0,233	-0,060
137,283	-30,840	-0,264	-0,103
138,297	-42,641	-0,400	-0,141
139,312	56,343	-0,347	-0,235
140,327	-19,145	-0,298	-0,128
141,341	-71,834	-0,378	-0,097
142,356	322,736	-0,094	-0,125
143,370	247,492	-0,165	-0,194
144,385	-78,404	-0,212	-0,050
145,400	60,955	-0,258	-0,178
146,414	253,856	-0,234	-0,279
147,429	-17,711	-0,407	-0,177
148,443	265,372	-0,158	-0,193
149,458	72,259	-0,169	-0,122
150,473	77,733	-0,325	-0,241
151,487	40,003	-0,201	-0,125
152,502	22,980	-0,220	-0,125
153,516	-37,132	-0,329	-0,122
154,531	125,759	-0,234	-0,205
155,546	180,123	-0,139	-0,142
156,560	-200,000	-0,038	-0,206
157,575	188,320	-0,161	-0,168
158,589	-79,030	-0,101	0,024
159,604	79,417	-0,177	-0,132
160,619	213,340	-0,182	-0,200
161,633	5,522	-0,302	-0,155
162,648	38,809	-0,257	-0,159
163,662	3,043	-0,298	-0,150
164,677	76,919	-0,196	-0,145
165,692	125,305	-0,201	-0,177
166,706	774,845	-0,137	-0,261
167,721	234,818	-0,257	-0,295
168,735	800,000	-0,078	-0,208
169,750	-28,922	-0,217	-0,086
170,764	-66,711	-0,278	-0,076
171,779	-122,289	-0,131	-0,015
172,794	276,847	-0,224	-0,277
173,808	-7,747	-0,200	-0,093
174,823	-33,801	-0,323	-0,123
175,837	-16,681	-0,244	-0,107
176,852	155,029	-0,260	-0,249
177,867	598,576	-0,156	-0,269
178,881	-18,051	-0,113	-0,049
179,896	203,583	-0,142	-0,153
180,910	60,579	-0,291	-0,200
181,925	145,564	-0,241	-0,224
182,940	173,998	-0,257	-0,258
183,954	119,484	-0,279	-0,240
184,969	58,610	-0,159	-0,108
185,983	582,235	-0,148	-0,253
186,998	5,034	-0,209	-0,106
188,013	42,143	-0,205	-0,129
189,027	45,368	-0,178	-0,113
190,042	245,863	-0,218	-0,255
191,056	34,902	-0,198	-0,120
192,071	-200,000	-0,063	-0,267
193,086	70,341	-0,227	-0,162
194,100	763,111	-0,118	-0,223
195,115	262,355	-0,175	-0,211
196,129	-139,979	-0,246	-0,018
197,144	95,738	-0,209	-0,165
198,159	95,292	-0,092	-0,073
199,173	122,531	-0,245	-0,212
200,188	-200,000	-0,027	-0,163
201,202	800,000	-0,048	-0,139
202,217	-90,218	-0,215	-0,043
203,232	68,837	-0,306	-0,217
204,246	1,151	-0,217	-0,107
205,261	206,696	-0,099	-0,107
206,275	30,110	-0,272	-0,160
207,290	-200,000	-0,029	-0,127
208,304	-23,701	-0,260	-0,108
209,319	290,181	-0,068	-0,086
210,334	-103,219	-0,278	-0,045
211,348	520,848	-0,170	-0,277
212,363	231,532	-0,290	-0,330
213,377	25,038	-0,203	-0,116
214,392	-5,187	-0,141	-0,067
215,407	-29,259	-0,310	-0,122
216,421	-113,238	-0,229	-0,031
217,436	59,020	-0,236	-0,161
218,450	-36,130	-0,222	-0,083
219,465	44,397	-0,249	-0,158
220,480	-200,000	-0,054	-0,170
221,494	-34,414	-0,247	-0,093
222,509	345,826	-0,090	-0,122
223,523	137,420	-0,202	-0,183
224,538	2,878	-0,193	-0,096
225,553	336,790	-0,143	-0,193
226,567	51,824	-0,152	-0,100
227,582	-50,030	-0,195	-0,063
228,596	308,686	-0,053	-0,068
229,611	-133,126	-0,094	-0,008
230,626	-200,000	0,012	-0,143
231,640	-121,441	-0,186	-0,021
232,655	97,142	-0,252	-0,200
233,669	-50,081	-0,268	-0,087
234,684	-100,200	-0,245	-0,042
235,699	67,217	-0,219	-0,154
236,713	92,601	-0,102	-0,079
237,728	91,562	-0,155	-0,120
238,742	309,981	-0,186	-0,241
239,757	-105,783	-0,154	-0,024
240,772	26,217	-0,251	-0,145
241,786	-45,888	-0,186	-0,063
242,801	800,000	-0,049	-0,102
243,815	169,494	-0,197	-0,194
244,830	723,159	-0,048	-0,088
245,844	-138,733	-0,189	0,014
246,859	-56,603	-0,181	-0,055
247,874	399,690	-0,156	-0,227
248,888	-100,962	-0,225	-0,038
249,903	146,563	-0,182	-0,169
250,917	-200,000	-0,073	-0,293
251,932	75,451	-0,131	-0,095
252,947	-55,327	-0,209	-0,064
253,961	161,442	-0,139	-0,134
254,976	342,305	-0,128	-0,174
255,990	25,783	-0,077	-0,044
257,005	293,251	-0,107	-0,135
258,020	732,097	-0,096	-0,177
259,034	-57,412	-0,188	0,057
260,049	375,948	-0,100	-0,141
261,063	163,394	-0,242	-0,234
262,078	238,858	-0,198	-0,228
263,093	207,952	-0,202	-0,218
264,107	800,000	-0,071	-0,181
265,122	84,890	-0,205	-0,154
266,136	-95,306	-0,171	-0,031
267,151	140,223	-0,145	-0,132
268,166	29,857	-0,297	-0,174
269,180	-61,418	-0,180	0,052
270,195	-86,211	-0,193	-0,041
271,209	14,587	-0,212	-0,114
272,224	267,541	-0,197	-0,238
273,239	-200,000	-0,028	-0,152
274,253	166,056	-0,209	-0,204
275,268	178,199	-0,143	-0,143
276,282	105,911	-0,190	-0,155
277,297	109,638	-0,151	-0,124
278,312	-18,618	-0,290	-0,124
279,326	117,755	-0,158	-0,133
280,341	-9,176	-0,205	-0,094
281,355	-59,045	-0,064	-0,019
282,370	129,854	-0,111	-0,098
283,384	520,274	-0,068	-0,110
284,399	31,970	-0,220	-0,130
285,414	800,000	-0,104	-0,211
286,428	-71,460	-0,222	-0,057
287,443	141,664	-0,083	0,076
288,457	-200,000	-0,005	-0,093
289,472	276,458	-0,115	-0,141
290,487	800,000	-0,042	-0,125
291,501	-27,135	-0,247	-0,098
292,516	-200,000	0,019	-0,168
293,530	4,657	-0,087	-0,044
294,545	105,886	-0,090	-0,073
295,560	115,602	-0,137	-0,115
296,574	7,306	-0,162	-0,083
297,589	-0,162	-0,143	-0,070
298,603	800,000	-0,032	-0,081
299,618	-11,519	-0,176	-0,079
300,633	127,030	-0,097	-0,085
301,647	176,934	-0,184	-0,184
302,662	77,027	-0,144	-0,105
303,676	232,751	-0,136	-0,153
304,691	800,000	-0,097	-0,282
305,706	4,690	-0,196	-0,099
306,720	454,215	-0,147	-0,224
307,735	43,021	-0,057	0,035
308,749	101,019	-0,179	-0,143
309,764	35,615	-0,105	-0,063
310,779	245,155	-0,141	-0,163
311,793	32,297	0,051	-0,030
312,808	48,941	-0,199	-0,128
313,822	-47,503	-0,036	-0,012
314,837	-53,396	-0,065	-0,020
315,852	-16,125	-0,125	-0,054
316,866	577,675	-0,029	-0,049
317,881	-73,335	-0,192	-0,048
318,895	800,000	-0,038	-0,073
319,910	-4,366	-0,171	-0,081
320,925	4,233	-0,143	-0,072
321,939	91,008	-0,092	-0,070
322,954	-90,661	-0,041	-0,008
323,968	408,274	-0,106	-0,154
324,983	800,000	-0,058	-0,125
325,997	2,319	-0,144	-0,071
327,012	36,039	-0,216	-0,130
328,027	-119,183	-0,163	0,019
329,041	341,462	-0,101	-0,135
330,056	470,803	-0,043	-0,066
331,070	-140,808	-0,138	-0,010
332,085	393,389	-0,184	-0,263
333,100	-27,434	-0,192	-0,076
334,114	-32,880	-0,095	-0,036
335,129	-9,933	-0,247	-0,112
336,143	40,756	-0,185	-0,114
337,158	-200,000	0,017	-0,075
338,173	25,079	-0,114	-0,064
339,187	15,474	-0,070	0,038
340,202	67,336	-0,177	-0,124
341,216	284,438	-0,144	-0,178
342,231	158,582	-0,158	-0,150
343,246	682,112	-0,117	-0,210
344,260	490,948	0,038	-0,059
345,275	-200,000	-0,002	0,009
346,289	-200,000	-0,013	-0,102
347,304	217,693	0,056	-0,061
348,319	-37,610	-0,174	-0,063
349,333	800,000	-0,110	-0,263
350,348	-137,338	-0,194	0,015
351,362	8,456	-0,095	-0,049
352,377	648,840	-0,026	-0,046
353,392	140,534	-0,129	-0,117
354,406	800,000	-0,026	-0,071
355,421	207,810	1306,727	1396,732
356,435	159,886	1466,419	1397,211
