DTS Sentinel unit serial number:	SN410029Multiplexer serial number:	ORYXHardware model number:	OX2-SRSoftware version number:	ORYX F/W v4,00 Oryx Data Collector v3.7.2.0data status	okinstallation	B3 Nyhavnadifferential loss correction	single-endedforward channel	channel 1reverse channel	N/Adate	2023/12/01time	08:52:30forward acquisition time	300,00reverse acquisition time	0,00gamma	499,1914k internal	0,3213k external	0,3213temperature offset calibration	1,0000default loss term (dB/km)	0,3820temperature slope calibration	1,0000multiplexer offset coefficient	1,0000multiplexer slope coefficient	1,0000fibre end	0,00T internal ref (°C)	7,97T ext. ref 1 (°C)	-6,38T ext. ref 2 (°C)	-6,53length (m)	temperature (°C)	Stokes	anti-Stokes-744,400	171,484	-0,244	-0,254
-743,385	628,764	-0,068	0,126
-742,371	442,510	-0,125	-0,199
-741,356	-200,000	0,017	0,387
-740,342	260,585	-0,191	-0,240
-739,327	800,000	-0,103	0,234
-738,312	215,589	-0,189	-0,218
-737,298	-200,000	-0,031	0,162
-736,283	800,000	-0,065	-0,187
-735,269	-200,000	0,019	0,306
-734,254	121,089	-0,242	-0,219
-733,239	-54,504	-0,270	0,088
-732,225	510,281	-0,129	-0,218
-731,210	184,486	0,123	0,132
-730,196	106,150	-0,040	-0,034
-729,181	376,600	0,055	-0,082
-728,167	30,658	0,017	-0,010
-727,152	-64,206	-0,166	0,049
-726,137	-40,591	0,056	-0,021
-725,123	-200,000	-0,011	0,119
-724,108	-200,000	-0,008	-0,073
-723,094	-76,361	-0,137	-0,035
-722,079	649,367	-0,105	-0,195
-721,064	181,658	-0,048	0,051
-720,050	800,000	-0,072	0,171
-719,035	800,000	-0,054	0,113
-718,021	-200,000	-0,095	0,000
-717,006	48,651	-0,079	-0,053
-715,991	349,385	0,033	0,047
-714,977	147,156	-0,032	-0,031
-713,962	800,000	-0,025	-0,055
-712,948	168,155	-0,099	-0,102
-711,933	-162,817	0,060	-0,002
-710,918	327,846	0,067	-0,094
-709,904	-2,219	-0,055	-0,028
-708,889	-30,842	-0,063	0,026
-707,875	648,869	0,035	-0,064
-706,860	146,174	0,086	-0,084
-705,845	187,334	0,060	-0,065
-704,831	800,000	-0,031	0,067
-703,816	-44,668	0,039	-0,014
-702,802	-98,504	-0,067	-0,012
-701,787	226,662	0,073	-0,086
-700,772	-70,739	-0,113	-0,031
-699,758	116,563	0,050	0,044
-698,743	-200,000	0,044	0,000
-697,729	800,000	0,025	0,069
-696,714	453,956	-0,039	-0,063
-695,699	-200,000	-0,073	0,000
-694,685	-5,506	-0,011	0,005
-693,670	-200,000	-0,006	0,044
-692,656	42,981	-0,075	0,049
-691,641	-70,496	0,044	0,012
-690,627	-99,981	0,063	-0,011
-689,612	-103,738	-0,174	-0,029
-688,597	727,304	-0,045	-0,088
-687,583	-9,419	-0,044	-0,021
-686,568	-136,139	-0,105	0,009
-685,554	2,254	-0,030	0,016
-684,539	-120,004	-0,108	0,013
-683,524	21,433	0,096	0,056
-682,510	800,000	0,029	0,083
-681,495	130,973	0,018	-0,017
-680,481	-115,665	-0,059	0,008
-679,466	7,092	-0,071	-0,038
-678,451	38,367	-0,130	0,084
-677,437	800,000	-0,028	-0,061
-676,422	-72,088	-0,112	0,030
-675,408	-53,780	0,115	0,038
-674,393	800,000	0,032	-0,097
-673,378	77,508	-0,058	0,044
-672,364	138,770	-0,166	0,157
-671,349	93,218	-0,064	0,052
-670,335	-129,973	0,052	0,005
-669,320	591,539	-0,024	0,044
-668,305	-200,000	0,000	0,104
-667,291	388,772	0,004	-0,006
-666,276	800,000	-0,079	-0,169
-665,262	-200,000	0,010	-0,048
-664,247	800,000	-0,029	-0,088
-663,232	430,022	0,063	-0,099
-662,218	-172,771	-0,074	0,002
-661,203	-200,000	-0,028	0,096
-660,189	-120,992	0,087	0,010
-659,174	344,003	-0,091	-0,129
-658,159	121,734	0,051	-0,046
-657,145	90,426	-0,129	-0,104
-656,130	72,397	-0,033	0,025
-655,116	185,028	0,068	0,073
-654,101	-126,963	-0,100	0,010
-653,086	24,485	0,061	-0,036
-652,072	-129,677	-0,120	0,012
-651,057	-200,000	0,024	-0,111
-650,043	-97,107	-0,143	0,027
-649,028	-32,804	-0,101	0,040
-648,014	30,010	0,155	-0,095
-646,999	353,425	0,050	0,072
-645,984	-200,000	0,031	-0,134
-644,970	800,000	0,018	0,042
-643,955	-189,080	-0,024	-0,000
-642,941	-200,000	0,001	0,009
-641,926	7,580	0,150	0,081
-640,911	148,066	-0,055	0,053
-639,897	264,362	0,019	-0,024
-638,882	-200,000	-0,019	0,120
-637,868	-54,782	0,024	0,008
-636,853	161,150	-0,048	-0,048
-635,838	324,251	-0,041	-0,057
-634,824	70,337	-0,060	0,044
-633,809	-63,487	-0,095	-0,028
-632,795	426,455	0,057	0,090
-631,780	1,447	0,124	0,064
-630,765	244,796	-0,078	0,095
-629,751	-1,008	-0,125	-0,064
-628,736	32,577	-0,105	-0,065
-627,722	189,464	0,083	-0,089
-626,707	309,558	0,091	-0,124
-625,692	-164,180	-0,175	-0,006
-624,678	186,679	0,091	0,098
-623,663	52,154	-0,053	-0,036
-622,649	-200,000	-0,003	-0,060
-621,634	-200,000	-0,006	-0,096
-620,619	196,494	-0,041	-0,045
-619,605	800,000	-0,029	-0,090
-618,590	-98,223	-0,057	0,010
-617,576	240,719	0,098	0,118
-616,561	800,000	0,041	0,126
-615,546	-64,863	0,109	-0,032
-614,532	-200,000	0,028	-0,099
-613,517	-53,269	0,169	0,055
-612,503	-115,173	-0,101	0,014
-611,488	-200,000	-0,004	-0,154
-610,474	486,934	-0,074	0,121
-609,459	-200,000	0,016	-0,056
-608,444	160,075	-0,122	-0,122
-607,430	607,000	0,076	-0,137
-606,415	-108,583	-0,226	-0,035
-605,401	38,612	-0,077	-0,049
-604,386	-104,608	-0,028	-0,005
-603,371	-200,000	0,016	0,060
-602,357	302,801	0,027	-0,036
-601,342	36,221	0,041	-0,026
-600,328	293,597	0,046	-0,061
-599,313	139,038	0,013	0,013
-598,298	197,911	-0,036	0,039
-597,284	-200,000	0,041	0,143
-596,269	83,066	0,092	0,072
-595,255	800,000	0,026	0,067
-594,240	-15,971	-0,148	-0,068
-593,225	-97,736	0,104	0,019
-592,211	80,831	-0,127	0,098
-591,196	289,905	0,030	0,040
-590,182	-200,000	0,021	0,067
-589,167	264,039	0,048	0,061
-588,152	800,000	-0,028	-0,056
-587,138	-28,263	-0,094	-0,039
-586,123	-156,788	-0,090	-0,004
-585,109	82,869	0,052	-0,041
-584,094	-6,891	-0,095	-0,046
-583,079	118,195	0,057	-0,050
-582,065	-50,910	-0,079	0,026
-581,050	161,137	-0,041	0,042
-580,036	-125,647	0,195	-0,021
-579,021	-108,425	-0,027	0,004
-578,006	364,387	-0,057	-0,083
-576,992	128,039	-0,085	-0,078
-575,977	800,000	0,035	-0,103
-574,963	-200,000	-0,002	0,049
-573,948	174,259	0,049	0,051
-572,934	-200,000	0,013	0,043
-571,919	263,664	-0,091	-0,115
-570,904	-89,001	-0,127	0,027
-569,890	800,000	-0,100	-0,239
-568,875	800,000	-0,033	-0,075
-567,861	-200,000	-0,034	0,164
-566,846	84,810	0,054	-0,042
-565,831	622,462	-0,042	-0,076
-564,817	800,000	0,027	0,055
-563,802	-5,684	-0,106	-0,052
-562,788	211,226	-0,146	-0,165
-561,773	351,690	0,006	-0,009
-560,758	-171,189	-0,087	0,002
-559,744	-102,330	-0,069	0,012
-558,729	-48,492	0,114	0,039
-557,715	78,338	0,016	-0,012
-556,700	800,000	-0,065	-0,167
-555,685	-59,171	-0,185	-0,057
-554,671	-126,109	-0,151	-0,016
-553,656	-84,666	0,086	-0,019
-552,642	712,920	-0,021	0,040
-551,627	-101,082	0,132	-0,023
-550,612	-189,852	-0,080	-0,001
-549,598	-200,000	0,000	0,035
-548,583	133,442	0,083	-0,077
-547,569	-200,000	-0,019	-0,107
-546,554	67,458	0,101	-0,074
-545,539	372,919	0,022	-0,033
-544,525	800,000	-0,030	-0,061
-543,510	-179,877	-0,035	0,001
-542,496	-72,980	-0,102	-0,027
-541,481	800,000	-0,047	-0,118
-540,466	20,060	0,018	0,011
-539,452	-74,120	0,142	0,037
-538,437	800,000	-0,013	-0,032
-537,423	257,414	0,069	-0,086
-536,408	-200,000	0,007	-0,092
-535,393	-200,000	0,011	0,111
-534,379	800,000	-0,025	-0,069
-533,364	33,824	0,101	-0,063
-532,350	-200,000	0,005	-0,108
-531,335	800,000	0,100	0,261
-530,321	-200,000	-0,015	0,081
-529,306	36,996	0,042	0,027
-528,291	-200,000	0,009	-0,178
-527,277	-200,000	-0,004	-0,065
-526,262	30,356	0,070	0,043
-525,248	-180,341	-0,030	-0,000
-524,233	800,000	0,016	0,041
-523,218	170,024	-0,038	0,039
-522,204	-141,584	-0,073	0,005
-521,189	-111,560	-0,275	0,040
-520,175	-68,585	-0,052	-0,014
-519,160	800,000	-0,015	0,035
-518,145	-82,589	0,201	-0,046
-517,131	339,373	-0,051	-0,072
-516,116	93,975	-0,014	0,011
-515,102	800,000	-0,039	0,094
-514,087	8,693	-0,018	0,010
-513,072	97,426	0,113	-0,093
-512,058	535,821	-0,044	-0,075
-511,043	-200,000	-0,033	0,165
-510,029	-200,000	0,025	0,237
-509,014	5,314	0,105	-0,055
-507,999	-200,000	-0,012	0,038
-506,985	-200,000	-0,003	0,101
-505,970	-200,000	-0,014	-0,141
-504,956	73,010	-0,067	0,050
-503,941	-3,990	0,054	-0,027
-502,926	-3,646	0,085	0,042
-501,912	-200,000	-0,034	0,148
-500,897	55,058	-0,076	0,053
-499,883	-200,000	0,037	-0,116
-498,868	800,000	0,045	-0,092
-497,853	-20,744	0,087	-0,038
-496,839	359,238	-0,011	-0,016
-495,824	-36,989	0,052	-0,020
-494,810	800,000	-0,027	-0,064
-493,795	61,020	0,039	0,028
-492,781	-61,422	-0,148	0,044
-491,766	-98,959	-0,050	0,009
-490,751	-200,000	-0,020	-0,065
-489,737	106,618	0,020	0,017
-488,722	-200,000	-0,020	0,065
-487,708	499,059	-0,027	0,046
-486,693	-111,401	0,108	-0,016
-485,678	121,228	-0,066	0,059
-484,664	137,157	0,017	-0,016
-483,649	16,781	0,083	-0,047
-482,635	51,331	0,069	0,047
-481,620	-129,251	0,082	0,008
-480,605	-114,719	0,057	0,008
-479,591	-8,450	-0,106	-0,051
-478,576	192,124	-0,080	-0,086
-477,562	126,546	-0,121	-0,110
-476,547	-131,546	0,014	-0,001
-475,532	10,551	-0,116	0,063
-474,518	163,023	-0,039	0,040
-473,503	57,097	0,139	-0,097
-472,489	-200,000	0,008	0,071
-471,474	-12,479	-0,109	-0,051
-470,459	133,266	0,069	-0,064
-469,445	731,977	-0,016	-0,031
-468,430	-107,900	-0,129	-0,020
-467,416	-123,519	-0,071	0,008
-466,401	-157,429	0,227	-0,010
-465,386	293,601	0,022	0,029
-464,372	-200,000	0,000	0,069
-463,357	-47,779	0,145	0,050
-462,343	800,000	-0,074	-0,164
-461,328	-200,000	0,005	0,040
-460,313	-183,464	0,099	-0,001
-459,299	292,929	0,010	0,013
-458,284	17,267	-0,138	0,078
-457,270	-88,264	0,102	-0,022
-456,255	-200,000	0,018	0,129
-455,241	-200,000	-0,000	-0,134
-454,226	-200,000	0,011	-0,071
-453,211	-137,092	0,095	0,008
-452,197	107,480	0,075	-0,064
-451,182	-200,000	0,000	0,201
-450,168	800,000	-0,068	0,171
-449,153	166,267	-0,075	0,076
-448,138	664,689	-0,091	-0,170
-447,124	-97,961	0,033	0,006
-446,109	30,615	0,065	-0,040
-445,095	-102,708	0,151	0,026
-444,080	-200,000	0,015	-0,057
-443,065	-200,000	-0,024	0,088
-442,051	291,663	0,067	0,087
-441,036	-200,000	0,007	-0,113
-440,022	257,028	-0,095	-0,117
-439,007	47,562	0,071	0,047
-437,992	-88,351	-0,087	0,019
-436,978	-200,000	-0,055	0,229
-435,963	-200,000	0,008	0,176
-434,949	800,000	0,035	0,079
-433,934	47,317	0,031	-0,021
-432,919	-92,387	-0,147	0,029
-431,905	-170,970	0,114	-0,003
-430,890	118,821	0,077	-0,068
-429,876	198,068	0,128	0,141
-428,861	18,409	-0,038	0,021
-427,846	-85,576	0,091	-0,020
-426,832	800,000	0,009	0,027
-425,817	-200,000	-0,010	-0,066
-424,803	-43,896	-0,119	0,043
-423,788	61,555	0,085	-0,061
-422,773	800,000	0,036	-0,083
-421,759	83,501	0,108	-0,084
-420,744	-37,253	-0,033	-0,013
-419,730	111,096	0,025	-0,022
-418,715	-20,578	-0,092	-0,040
-417,701	-200,000	0,025	-0,095
-416,686	30,862	0,072	0,044
-415,671	202,665	-0,042	0,046
-414,657	-200,000	-0,035	0,159
-413,642	-156,601	0,086	0,004
-412,628	800,000	0,019	0,046
-411,613	106,294	-0,106	-0,090
-410,598	-139,538	0,098	0,007
-409,584	-200,000	0,021	0,073
-408,569	-38,630	0,035	0,013
-407,555	-94,060	0,127	-0,025
-406,540	205,845	0,025	-0,028
-405,525	-200,000	-0,016	0,164
-404,511	612,113	-0,018	-0,032
-403,496	-42,145	-0,064	0,023
-402,482	-200,000	-0,015	-0,063
-401,467	-121,375	0,078	-0,009
-400,452	0,155	0,090	0,046
-399,438	39,154	-0,034	-0,022
-398,423	-91,326	-0,122	0,025
-397,409	37,749	-0,149	-0,095
-396,394	749,911	-0,032	0,062
-395,379	800,000	-0,025	-0,071
-394,365	-70,329	0,042	0,011
-393,350	17,659	0,050	0,029
-392,336	378,447	0,019	0,028
-391,321	-200,000	0,013	-0,087
-390,306	-200,000	0,001	-0,044
-389,292	629,238	0,009	-0,016
-388,277	-153,324	0,110	-0,005
-387,263	-38,438	-0,095	-0,036
-386,248	515,004	-0,020	0,034
-385,233	12,564	0,102	0,056
-384,219	-27,211	0,052	-0,022
-383,204	800,000	-0,041	-0,085
-382,190	-57,381	-0,099	-0,031
-381,175	12,612	0,066	-0,036
-380,160	32,621	0,073	0,045
-379,146	773,694	-0,010	-0,019
-378,131	-46,392	0,119	-0,042
-377,117	-200,000	-0,002	0,167
-376,102	-55,529	-0,082	-0,026
-375,088	36,996	0,042	-0,026
-374,073	325,063	0,034	0,047
-373,058	-6,953	-0,019	-0,009
-372,044	55,875	-0,031	0,022
-371,029	-200,000	0,025	0,079
-370,015	364,164	-0,056	0,081
-369,000	-157,765	-0,083	-0,003
-367,985	363,339	-0,097	-0,140
-366,971	-36,135	0,028	0,011
-365,956	800,000	-0,046	0,109
-364,942	19,407	0,120	0,069
-363,927	93,124	-0,022	-0,018
-362,912	142,943	0,080	0,076
-361,898	468,439	-0,046	0,073
-360,883	100,438	0,106	-0,088
-359,869	-80,410	0,066	-0,016
-358,854	93,124	-0,038	0,031
-357,839	376,646	0,086	0,126
-356,825	-181,781	-0,145	0,002
-355,810	-106,901	-0,135	0,021
-354,796	-200,000	0,000	0,013
-353,781	391,749	-0,048	-0,072
-352,766	-70,531	-0,038	-0,010
-351,752	-70,951	0,099	0,026
-350,737	106,132	0,051	0,043
-349,723	121,057	0,134	0,119
-348,708	780,708	0,068	-0,134
-347,693	-200,000	-0,009	0,064
-346,679	218,588	0,019	-0,022
-345,664	-66,698	-0,092	0,026
-344,650	-200,000	0,004	-0,087
-343,635	-200,000	0,048	0,164
-342,620	-200,000	-0,003	0,049
-341,606	-200,000	-0,004	0,037
-340,591	-122,318	0,101	-0,012
-339,577	-200,000	-0,007	-0,134
-338,562	-200,000	0,000	-0,101
-337,548	-39,914	-0,086	-0,032
-336,533	414,179	0,052	0,080
-335,518	-200,000	0,007	-0,072
-334,504	492,427	-0,018	-0,030
-333,489	800,000	-0,047	0,145
-332,475	-200,000	0,028	-0,111
-331,460	305,162	0,096	-0,127
-330,445	105,329	-0,078	-0,065
-329,431	-41,908	-0,087	0,032
-328,416	-110,649	-0,056	-0,008
-327,402	113,553	-0,118	0,102
-326,387	148,368	-0,076	0,074
-325,372	-200,000	-0,024	-0,110
-324,358	106,583	-0,061	-0,052
-323,343	800,000	-0,011	-0,030
-322,329	-100,161	0,154	0,027
-321,314	352,406	0,018	0,026
-320,299	76,866	0,087	0,066
-319,285	800,000	-0,025	-0,066
-318,270	-114,570	0,040	0,005
-317,256	800,000	0,050	-0,124
-316,241	-200,000	-0,008	-0,037
-315,226	136,902	0,095	0,089
-314,212	-119,775	-0,094	0,011
-313,197	-35,497	0,098	0,038
-312,183	-200,000	-0,009	-0,036
-311,168	104,185	-0,037	-0,031
-310,153	141,799	-0,072	-0,068
-309,139	79,980	-0,056	0,043
-308,124	-90,343	-0,032	0,007
-307,110	-66,629	0,111	0,031
-306,095	800,000	0,037	0,095
-305,080	219,270	0,041	0,047
-304,066	-200,000	0,017	0,097
-303,051	-200,000	0,022	-0,075
-302,037	194,197	-0,071	0,077
-301,022	205,721	-0,101	0,112
-300,008	-200,000	0,000	0,010
-298,993	18,334	0,110	0,062
-297,978	96,599	0,076	-0,062
-296,964	-57,312	0,086	-0,027
-295,949	-200,000	0,035	-0,142
-294,935	-3,301	-0,045	-0,022
-293,920	296,555	-0,039	-0,051
-292,905	147,599	0,080	-0,077
-291,891	331,974	0,036	0,050
-290,876	-119,693	0,022	-0,003
-289,862	-200,000	-0,006	0,036
-288,847	262,403	-0,009	-0,012
-287,832	-200,000	0,001	-0,129
-286,818	-200,000	-0,028	-0,095
-285,803	-200,000	0,007	0,035
-284,789	770,337	0,075	0,146
-283,774	-74,175	0,049	-0,013
-282,759	-200,000	0,026	-0,102
-281,745	73,934	0,088	0,066
-280,730	-200,000	-0,011	-0,070
-279,716	-99,191	-0,135	-0,024
-278,701	-92,738	0,189	0,037
-277,686	187,507	-0,038	0,040
-276,672	-155,907	0,082	-0,004
-275,657	128,235	0,030	0,027
-274,643	-200,000	0,006	-0,147
-273,628	-200,000	-0,003	-0,044
-272,613	200,453	0,055	-0,060
-271,599	-155,740	-0,113	0,005
-270,584	-200,000	-0,052	0,169
-269,570	149,140	0,194	0,187
-268,555	800,000	0,020	0,044
-267,540	166,125	-0,093	0,094
-266,526	-127,384	-0,178	-0,018
-265,511	133,572	-0,062	-0,057
-264,497	10,791	-0,070	-0,038
-263,482	12,179	-0,084	0,046
-262,467	800,000	0,060	0,163
-261,453	714,061	-0,006	-0,011
-260,438	732,161	-0,017	-0,032
-259,424	800,000	-0,038	-0,099
-258,409	170,740	0,073	-0,074
-257,395	47,433	0,048	-0,032
-256,380	-200,000	-0,018	0,091
-255,365	800,000	-0,047	0,101
-254,351	772,568	0,037	0,073
-253,336	180,833	-0,122	-0,128
-252,322	-76,543	-0,084	-0,021
-251,307	800,000	0,024	-0,063
-250,292	-200,000	0,015	0,115
-249,278	115,713	0,068	0,059
-248,263	-82,692	0,089	0,020
-247,249	-200,000	-0,008	-0,053
-246,234	682,913	-0,011	0,021
-245,219	51,137	-0,110	0,074
-244,205	-147,355	-0,075	0,004
-243,190	-95,698	-0,126	-0,024
-242,176	-200,000	0,005	-0,044
-241,161	-15,079	0,069	-0,031
-240,146	125,342	-0,087	0,078
-239,132	-200,000	-0,015	0,052
-238,117	83,871	-0,071	-0,055
-237,103	178,195	0,080	-0,083
-236,088	-200,000	-0,008	-0,036
-235,073	133,696	0,046	-0,042
-234,059	-26,961	0,049	0,020
-233,044	-56,232	0,042	-0,013
-232,030	-200,000	0,016	-0,102
-231,015	289,614	-0,053	-0,068
-230,000	-10,308	-0,201	-0,094
-228,986	-200,000	0,036	0,117
-227,971	-200,000	0,013	-0,052
-226,957	-153,344	0,100	0,005
-225,942	800,000	-0,043	0,118
-224,927	-200,000	0,008	-0,061
-223,913	-200,000	-0,012	-0,079
-222,898	-6,476	0,109	-0,053
-221,884	-200,000	0,003	0,053
-220,869	-170,874	-0,045	0,001
-219,855	433,625	0,044	0,068
-218,840	109,078	-0,034	-0,029
-217,825	376,724	0,035	0,051
-216,811	-154,159	0,075	0,004
-215,796	800,000	-0,066	-0,174
-214,782	750,103	-0,071	-0,136
-213,767	56,127	0,101	0,069
-212,752	-97,060	0,121	0,022
-211,738	800,000	-0,025	0,053
-210,723	-200,000	0,030	0,101
-209,709	-200,000	0,021	-0,131
-208,694	-200,000	0,015	-0,113
-207,679	-200,000	0,003	-0,094
-206,665	96,243	-0,073	0,059
-205,650	800,000	-0,024	0,048
-204,636	-200,000	0,014	0,067
-203,621	-100,773	-0,042	-0,007
-202,606	-30,538	0,112	0,045
-201,592	147,783	-0,043	0,041
-200,577	-200,000	-0,014	-0,046
-199,563	800,000	-0,079	0,175
-198,548	800,000	0,041	0,121
-197,533	-200,000	0,001	0,073
-196,519	137,438	-0,048	-0,045
-195,504	800,000	-0,020	-0,042
-194,490	244,340	-0,080	-0,095
-193,475	636,404	-0,043	0,077
-192,460	800,000	0,014	0,042
-191,446	29,054	0,061	0,037
-190,431	443,058	0,096	0,149
-189,417	-200,000	-0,002	0,171
-188,402	-39,218	0,065	0,024
-187,387	-26,621	-0,126	-0,052
-186,373	800,000	0,061	-0,184
-185,358	800,000	-0,043	0,100
-184,344	47,655	0,072	0,048
-183,329	800,000	0,070	-0,161
-182,315	800,000	0,029	0,089
-181,300	-200,000	0,000	-0,030
-180,285	110,205	0,091	0,077
-179,271	24,347	-0,093	-0,054
-178,256	78,367	0,103	0,078
-177,242	800,000	-0,067	0,149
-176,227	-25,187	0,138	0,058
-175,212	10,936	-0,063	-0,034
-174,198	800,000	-0,056	-0,120
-173,183	-0,714	-0,064	0,032
-172,169	-41,767	-0,043	0,015
-171,154	-171,718	-0,076	0,002
-170,139	21,475	-0,075	0,043
-169,125	87,616	0,034	-0,027
-168,110	-67,435	-0,048	-0,013
-167,096	-148,808	-0,060	0,003
-166,081	-200,000	0,056	0,191
-165,066	221,584	-0,106	-0,121
-164,052	-25,236	-0,046	0,019
-163,037	12,408	-0,137	0,075
-162,023	800,000	0,008	0,019
-161,008	-200,000	0,033	-0,197
-159,993	-122,732	-0,064	-0,007
-158,979	-69,997	0,089	-0,024
-157,964	-200,000	-0,021	-0,080
-156,950	-171,890	-0,100	-0,002
-155,935	-142,262	0,089	-0,006
-154,920	800,000	0,056	0,174
-153,906	800,000	0,027	0,079
-152,891	-81,806	0,169	0,039
-151,877	-43,496	0,060	-0,021
-150,862	-200,000	0,016	-0,083
-149,847	800,000	0,029	0,086
-148,833	800,000	-0,033	0,089
-147,818	89,101	0,039	0,031
-146,804	-103,429	-0,095	0,016
-145,789	134,060	-0,130	-0,120
-144,775	402,534	-0,080	-0,120
-143,760	308,709	-0,132	-0,174
-142,745	800,000	-0,052	0,128
-141,731	-17,026	0,094	-0,042
-140,716	-200,000	0,013	0,117
-139,702	800,000	0,051	0,110
-138,687	-200,000	-0,028	0,095
-137,672	800,000	-0,047	0,119
-136,658	-171,640	0,057	0,001
-135,643	-128,531	0,205	-0,020
-134,629	-200,000	0,006	-0,091
-133,614	-200,000	0,031	-0,131
-132,599	800,000	-0,029	0,088
-131,585	493,149	0,016	0,026
-130,570	27,784	-0,042	0,025
-129,556	-200,000	0,012	-0,052
-128,541	144,975	0,143	-0,135
-127,526	286,327	0,045	0,058
-126,512	31,232	-0,068	-0,041
-125,497	800,000	0,083	0,183
-124,483	-200,000	-0,018	0,084
-123,468	167,399	-0,042	-0,042
-122,453	482,693	0,015	0,025
-121,439	-200,000	-0,008	0,133
-120,424	-76,840	-0,084	-0,021
-119,410	8,178	0,014	0,007
-118,395	48,383	0,101	0,067
-117,380	261,266	-0,056	0,069
-116,366	252,977	-0,040	0,049
-115,351	-200,000	-0,002	-0,038
-114,337	797,997	-0,042	-0,082
-113,322	168,819	0,025	-0,025
-112,307	166,328	-0,066	-0,067
-111,293	-200,000	0,022	0,082
-110,278	179,139	0,063	0,065
-109,264	0,359	-0,083	0,042
-108,249	274,274	-0,088	0,110
-107,234	73,186	-0,033	-0,025
-106,220	125,165	-0,072	-0,064
-105,205	800,000	-0,025	0,062
-104,191	-200,000	0,008	0,029
-103,176	83,285	0,022	0,017
-102,162	67,535	0,140	0,101
-101,147	154,166	-0,046	-0,045
-100,132	19,487	0,125	-0,071
-99,118	-61,077	-0,038	-0,011
-98,103	-94,546	0,030	0,006
-97,089	115,921	0,147	0,127
-96,074	5,204	-0,052	-0,027
-95,059	-200,000	-0,019	0,065
-94,045	800,000	-0,033	-0,067
-93,030	5,210	-0,145	-0,076
-92,016	434,184	-0,075	-0,116
-91,001	329,347	0,027	0,036
-89,986	-200,000	0,034	0,126
-88,972	800,000	0,026	0,063
-87,957	-67,280	0,092	-0,025
-86,943	800,000	0,049	0,107
-85,928	143,708	0,024	-0,022
-84,913	-22,572	-0,109	-0,046
-83,899	-26,594	-0,081	-0,033
-82,884	759,069	-0,011	0,021
-81,870	-172,812	-0,016	0,000
-80,855	224,859	0,026	-0,030
-79,840	800,000	-0,043	0,096
-78,826	479,847	-0,060	-0,096
-77,811	38,844	0,024	-0,015
-76,797	17,375	-0,078	-0,044
-75,782	-83,473	0,099	0,022
-74,767	-35,330	-0,060	0,023
-73,753	186,483	-0,117	-0,123
-72,738	53,708	-0,045	-0,030
-71,724	222,247	0,013	0,015
-70,709	33,346	-0,125	-0,076
-69,694	-200,000	0,016	-0,060
-68,680	95,235	0,071	-0,057
-67,665	146,706	0,077	0,073
-66,651	-25,483	-0,141	-0,058
-65,636	93,000	0,067	-0,054
-64,622	800,000	-0,071	-0,147
-63,607	43,940	0,055	-0,036
-62,592	-200,000	0,085	-0,000
-61,578	-200,000	-0,014	-0,120
-60,563	-100,238	-0,108	-0,019
-59,549	-53,005	-0,138	0,044
-58,534	46,352	-2,233	-1,458
-57,519	556,865	-1,028	-1,755
-56,505	-200,000	-0,310	-4,450
-55,490	601,572	1,059	1,865
-54,476	800,000	5,242	11,470
-53,461	-200,000	22,621	349,180
-52,446	800,000	758,116	2294,564
-51,432	532,733	1644,183	2755,948
-50,417	67,780	1642,749	1183,026
-49,403	15,639	1520,086	840,359
-48,388	9,810	1446,122	771,468
-47,373	19,427	1439,072	813,511
-46,359	13,344	1427,508	778,233
-45,344	8,137	1423,586	751,431
-44,330	8,102	1421,359	750,058
-43,315	8,082	1419,611	749,013
-42,300	8,059	1417,996	748,023
-41,286	8,075	1416,733	747,403
-40,271	8,060	1415,566	746,686
-39,257	8,062	1414,276	745,986
-38,242	8,090	1412,913	745,369
-37,227	8,085	1412,026	744,846
-36,213	8,063	1410,755	744,044
-35,198	8,068	1409,457	743,355
-34,184	8,086	1408,768	743,043
-33,169	8,008	1407,196	741,821
-32,154	8,041	1406,435	741,545
-31,140	8,071	1405,170	740,990
-30,125	8,102	1403,762	740,361
-29,111	8,047	1402,679	739,505
-28,096	8,034	1401,542	738,814
-27,082	8,010	1400,353	738,047
-26,067	7,949	1399,362	737,211
-25,052	8,010	1398,185	736,845
-24,038	7,995	1397,305	736,283
-23,023	7,976	1396,581	735,784
-22,009	7,959	1395,505	735,108
-20,994	7,977	1394,365	734,560
-19,979	7,980	1393,310	733,994
-18,965	7,886	1392,517	733,108
-17,950	7,929	1391,420	732,700
-16,936	7,934	1390,621	732,275
-15,921	7,899	1389,661	731,579
-14,906	7,932	1388,792	731,246
-13,892	7,949	1387,653	730,695
-12,877	7,922	1387,078	730,239
-11,863	7,914	1386,074	729,643
-10,848	7,884	1385,297	729,066
-9,833	7,842	1384,416	728,382
-8,819	7,829	1383,460	727,788
-7,804	7,852	1382,405	727,310
-6,790	7,866	1381,626	726,937
-5,775	7,822	1380,547	726,140
-4,760	7,811	1379,615	725,567
-3,746	7,837	1378,623	725,137
-2,731	7,854	1377,709	724,707
-1,717	7,827	1376,828	724,089
-0,702	7,828	1375,093	723,153
0,313	11,787	1285,126	693,778
1,327	27,434	676,793	400,219
2,342	42,540	116,395	74,516
3,356	-0,184	16,615	8,304
4,371	4,046	3,844	1,975
5,386	10,604	1,482	0,794
6,400	800,000	0,254	0,763
7,415	51,271	-0,101	-0,068
8,429	-0,290	-0,359	-0,179
9,444	-75,728	-0,352	-0,087
10,459	109,798	-0,153	-0,129
11,473	239,703	-0,251	-0,295
12,488	39,491	-0,236	-0,149
13,502	26,802	-0,250	-0,147
14,517	19,726	-0,407	-0,230
15,531	7,403	-0,402	-0,211
16,546	-31,847	-0,365	-0,143
17,561	136,369	-0,265	-0,243
18,575	238,362	-0,090	-0,105
19,590	106,505	-0,267	-0,223
20,604	29,069	-0,293	-0,175
21,619	41,146	-0,443	-0,281
22,634	-21,264	-0,498	-0,213
23,648	76,765	-0,392	-0,293
24,663	-13,836	-0,372	-0,169
25,677	108,502	-0,256	-0,215
26,692	-41,532	-0,454	-0,164
27,707	87,418	-0,355	-0,276
28,721	192,560	-0,320	-0,340
29,736	-28,052	-0,442	-0,179
30,750	103,451	-0,424	-0,350
31,765	142,314	-0,331	-0,309
32,780	212,819	-0,271	-0,301
33,794	68,811	-0,343	-0,248
34,809	168,189	-0,240	-0,240
35,823	139,490	-0,323	-0,299
36,838	-41,461	-0,431	-0,155
37,853	58,382	-0,415	-0,286
38,867	-13,015	-0,382	-0,174
39,882	0,430	-0,273	-0,137
40,896	132,176	-0,346	-0,313
41,911	30,391	-0,407	-0,244
42,926	172,680	-0,258	-0,261
43,940	-37,771	-0,326	-0,121
44,955	114,901	-0,310	-0,265
45,969	146,050	-0,344	-0,324
46,984	-51,088	-0,318	-0,104
47,999	85,768	-0,213	-0,164
49,013	-53,185	-0,222	-0,071
50,028	37,124	-0,315	-0,195
51,042	103,850	-0,334	-0,276
52,057	-28,393	-0,379	-0,153
53,071	46,172	-0,310	-0,201
54,086	-25,864	-0,370	-0,152
55,101	47,523	-0,258	-0,169
56,115	57,994	-0,249	-0,171
57,130	88,263	-0,373	-0,290
58,144	274,784	-0,301	-0,375
59,159	1,718	-0,392	-0,197
60,174	131,765	-0,395	-0,356
61,188	178,872	-0,232	-0,238
62,203	-41,133	-0,331	-0,119
63,217	35,234	-0,255	-0,156
64,232	-102,242	-0,373	-0,062
65,247	453,603	-0,216	-0,336
66,261	170,296	-0,316	-0,318
67,276	424,826	-0,206	-0,312
68,290	91,949	-0,250	-0,197
69,305	153,619	-0,284	-0,273
70,320	-10,547	-0,256	-0,118
71,334	-34,234	-0,327	-0,125
72,349	-46,173	-0,343	-0,118
73,363	37,893	-0,231	-0,144
74,378	-80,613	-0,438	-0,101
75,393	114,199	-0,251	-0,214
76,407	140,552	-0,303	-0,280
77,422	259,641	-0,194	-0,235
78,436	-48,633	-0,329	-0,110
79,451	-55,642	-0,370	-0,115
80,466	-74,494	-0,410	-0,103
81,480	59,808	-0,277	-0,191
82,495	-78,940	-0,435	-0,103
83,509	272,265	-0,194	-0,240
84,524	-65,680	-0,296	-0,082
85,539	-34,121	-0,272	-0,104
86,553	119,940	-0,271	-0,235
87,568	37,208	-0,369	-0,228
88,582	-51,590	-0,369	-0,120
89,597	-11,792	-0,286	-0,131
90,611	54,938	-0,234	-0,158
91,626	44,132	-0,252	-0,161
92,641	-86,750	-0,352	-0,075
93,655	9,431	-0,334	-0,176
94,670	-29,222	-0,268	-0,107
95,684	-85,738	-0,391	-0,084
96,699	301,718	-0,190	-0,246
97,714	379,712	-0,162	-0,233
98,728	91,851	-0,137	-0,108
99,743	-42,083	-0,309	-0,110
100,757	1,633	-0,237	-0,119
101,772	148,035	-0,253	-0,238
102,787	300,125	-0,226	-0,292
103,801	0,939	-0,306	-0,153
104,816	159,846	-0,138	-0,134
105,830	15,575	-0,127	-0,069
106,845	-77,077	-0,350	-0,085
107,860	-35,424	-0,193	-0,073
108,874	270,473	-0,217	-0,267
109,889	79,475	-0,237	-0,177
110,903	31,617	-0,291	-0,175
111,918	40,915	-0,278	-0,175
112,933	92,459	-0,193	-0,152
113,947	-61,708	-0,285	-0,083
114,962	-103,989	-0,202	-0,032
115,976	36,811	-0,282	-0,174
116,991	2,496	-0,268	-0,135
118,006	133,933	-0,226	-0,204
119,020	207,920	-0,150	-0,164
120,035	605,761	-0,198	-0,345
121,049	4,547	-0,246	-0,125
122,064	246,076	-0,126	-0,148
123,079	-46,251	-0,339	-0,116
124,093	2,979	-0,330	-0,167
125,108	107,385	-0,245	-0,203
126,122	44,574	-0,326	-0,209
127,137	-56,111	-0,285	-0,088
128,151	100,612	-0,236	-0,191
129,166	138,968	-0,219	-0,201
130,181	136,142	-0,250	-0,227
131,195	48,667	-0,268	-0,175
132,210	-45,191	-0,310	-0,107
133,224	420,925	-0,207	-0,310
134,239	-19,924	-0,285	-0,122
135,254	68,001	-0,285	-0,203
136,268	62,320	-0,269	-0,187
137,283	41,686	-0,297	-0,187
138,297	489,336	-0,186	-0,297
139,312	367,925	-0,233	-0,329
140,327	57,415	-0,312	-0,212
141,341	419,786	-0,125	-0,187
142,356	-53,775	-0,273	-0,086
143,370	-59,343	-0,144	-0,043
144,385	-18,830	-0,251	-0,108
145,400	-71,702	-0,373	-0,096
146,414	417,083	-0,171	-0,254
147,429	231,350	-0,177	-0,202
148,443	362,564	-0,165	-0,231
149,458	55,828	-0,176	-0,118
150,473	-39,381	-0,236	-0,086
151,487	-130,816	-0,267	-0,025
152,502	54,349	-0,197	-0,131
153,516	130,144	-0,310	-0,276
154,531	73,415	-0,258	-0,188
155,546	43,667	-0,251	-0,160
156,560	-74,663	-0,270	-0,067
157,575	-37,338	-0,306	0,113
158,589	37,499	-0,179	-0,110
159,604	3,951	-0,341	-0,173
160,619	133,045	-0,245	-0,220
161,633	114,587	-0,290	-0,245
162,648	119,445	-0,141	-0,121
163,662	47,551	-0,165	-0,106
164,677	113,321	-0,272	-0,229
165,692	-0,633	-0,226	-0,111
166,706	66,536	-0,238	-0,168
167,721	103,487	-0,251	-0,205
168,735	65,123	-0,324	-0,227
169,750	-42,435	-0,191	-0,067
170,764	35,215	-0,189	-0,115
171,779	-20,725	-0,085	-0,036
172,794	131,683	-0,161	-0,144
173,808	-48,690	-0,242	-0,080
174,823	83,994	-0,239	-0,181
175,837	166,878	-0,193	-0,191
176,852	-11,555	-0,291	-0,132
177,867	-20,884	-0,229	-0,097
178,881	77,975	-0,267	-0,197
179,896	159,338	-0,139	-0,134
180,910	199,026	-0,140	-0,149
181,925	455,686	-0,107	-0,165
182,940	800,000	-0,207	-0,414
183,954	36,629	-0,286	-0,175
184,969	414,879	-0,120	-0,178
185,983	800,000	-0,122	-0,316
186,998	643,017	-0,115	-0,204
188,013	-84,031	-0,331	-0,072
189,027	144,464	-0,281	-0,261
190,042	-69,771	-0,182	-0,048
191,056	-62,926	-0,315	-0,090
192,071	133,228	-0,207	-0,186
193,086	0,925	-0,092	0,046
194,100	226,520	-0,119	-0,134
195,115	195,774	-0,149	-0,157
196,129	37,799	-0,195	-0,120
197,144	-62,657	-0,274	-0,078
198,159	208,987	-0,177	-0,193
199,173	555,218	-0,112	-0,187
200,188	116,296	-0,214	-0,182
201,202	-118,424	-0,214	-0,026
202,217	-99,011	-0,226	-0,039
203,232	10,862	-0,176	-0,093
204,246	270,208	-0,215	-0,262
205,261	-156,441	-0,308	0,013
206,275	-200,000	0,020	-0,123
207,290	130,455	-0,110	-0,097
208,304	135,780	-0,220	-0,199
209,319	417,987	-0,169	-0,251
210,334	-57,493	-0,243	-0,073
211,348	121,848	-0,208	-0,180
212,363	705,310	-0,074	-0,136
213,377	80,413	-0,255	-0,190
214,392	219,811	-0,074	0,082
215,407	339,113	-0,092	-0,125
216,421	336,336	-0,172	-0,231
217,436	223,296	-0,130	-0,145
218,450	102,136	-0,132	-0,107
219,465	170,729	-0,122	-0,121
220,480	229,726	-0,124	-0,140
221,494	-25,643	-0,131	0,053
222,509	-46,860	-0,143	0,048
223,523	58,022	-0,219	-0,148
224,538	775,038	-0,104	-0,197
225,553	39,616	-0,150	-0,093
226,567	-16,541	-0,196	-0,085
227,582	48,299	-0,124	-0,080
228,596	-18,304	-0,296	-0,127
229,611	258,731	-0,214	-0,255
230,626	-152,632	-0,141	0,007
231,640	-184,619	-0,228	0,002
232,655	54,732	-0,216	-0,144
233,669	273,816	-0,271	-0,332
234,684	800,000	-0,097	-0,196
235,699	49,958	-0,190	-0,123
236,713	352,780	-0,055	-0,076
237,728	39,217	-0,193	-0,119
238,742	241,743	-0,131	-0,152
239,757	148,532	-0,139	-0,130
240,772	478,511	-0,104	-0,163
241,786	176,149	-0,120	-0,120
242,801	800,000	-0,040	-0,100
243,815	334,314	-0,164	-0,219
244,830	61,184	-0,217	-0,149
245,844	415,173	-0,167	-0,246
246,859	-86,812	-0,235	-0,049
247,874	-42,015	-0,164	-0,057
248,888	137,934	-0,155	-0,140
249,903	26,688	-0,218	-0,126
250,917	129,022	-0,213	-0,188
251,932	221,223	-0,148	-0,164
252,947	178,418	-0,140	-0,141
253,961	-69,176	-0,217	-0,057
254,976	-28,541	-0,285	-0,113
255,990	189,560	-0,168	-0,174
257,005	170,436	-0,256	-0,253
258,020	-26,584	-0,204	-0,082
259,034	-33,367	-0,188	-0,071
260,049	-169,740	-0,253	-0,006
261,063	-151,075	-0,142	0,007
262,078	150,737	-0,148	-0,138
263,093	-89,259	-0,176	-0,035
264,107	-115,242	-0,189	-0,024
265,122	248,607	-0,046	-0,053
266,136	37,318	-0,088	0,054
267,151	-17,985	-0,157	-0,067
268,166	-5,683	-0,224	-0,105
269,180	71,703	-0,174	-0,125
270,195	-200,000	-0,054	-0,227
271,209	193,344	-0,158	-0,165
272,224	152,668	-0,104	-0,098
273,239	-58,801	-0,173	-0,051
274,253	-52,666	-0,245	-0,077
275,268	-68,931	-0,207	-0,055
276,282	143,936	-0,180	-0,165
277,297	461,205	-0,047	-0,073
278,312	-52,025	-0,245	-0,078
279,326	-60,435	-0,176	-0,051
280,341	718,097	-0,031	-0,056
281,355	-158,137	-0,216	0,009
282,370	66,504	-0,147	-0,103
283,384	-17,780	-0,199	-0,086
284,399	79,335	-0,162	-0,119
285,414	-26,728	-0,254	-0,102
286,428	693,088	-0,070	-0,127
287,443	-60,026	-0,174	-0,051
288,457	-161,998	-0,204	-0,007
289,472	16,542	-0,050	0,027
290,487	30,755	-0,178	-0,105
291,501	205,583	-0,198	-0,211
292,516	-98,338	-0,102	-0,018
293,530	85,022	-0,171	-0,129
294,545	30,232	-0,102	-0,060
295,560	113,145	-0,131	-0,109
296,574	-7,417	-0,152	-0,070
297,589	-75,428	-0,141	0,034
298,603	10,741	-0,139	-0,072
299,618	-148,102	-0,193	-0,011
300,633	-179,454	-0,250	-0,004
301,647	-26,396	-0,065	-0,026
302,662	-132,581	-0,244	-0,021
303,676	353,719	-0,137	-0,187
304,691	199,608	-0,136	-0,144
305,706	41,121	-0,269	-0,167
306,720	430,714	-0,068	-0,101
307,735	-11,040	-0,115	-0,052
308,749	40,221	-0,139	-0,086
309,764	325,946	-0,147	-0,194
310,779	-88,833	-0,185	-0,037
311,793	-22,077	-0,102	-0,042
312,808	33,178	-0,149	-0,088
313,822	-83,202	-0,270	-0,059
314,837	254,877	-0,093	-0,110
315,852	-84,284	-0,153	-0,033
316,866	222,607	-0,044	-0,049
317,881	-160,251	-0,164	0,006
318,895	800,000	-0,085	-0,176
319,910	363,867	-0,133	-0,183
320,925	83,574	-0,200	-0,150
321,939	47,712	-0,102	-0,065
322,954	24,120	-0,090	-0,051
323,968	-94,969	-0,162	-0,030
324,983	95,762	-0,102	-0,080
325,997	-21,538	-0,277	-0,115
327,012	247,211	-0,250	-0,290
328,027	335,034	-0,038	-0,051
329,041	54,528	-0,074	0,049
330,056	800,000	-0,040	-0,093
331,070	358,667	-0,085	-0,116
332,085	-32,088	-0,064	0,024
333,100	171,712	-0,178	-0,175
334,114	9,475	-0,148	-0,077
335,129	800,000	-0,069	-0,168
336,143	433,574	-0,081	-0,121
337,158	-117,268	-0,202	-0,025
338,173	-114,426	-0,130	0,017
339,187	-147,104	-0,188	-0,011
340,202	48,922	-0,150	-0,096
341,216	338,374	-0,192	-0,257
342,231	556,625	-0,118	-0,195
343,246	183,302	-0,067	-0,068
344,260	197,584	-0,144	-0,150
345,275	-66,365	-0,130	-0,035
346,289	339,467	-0,099	-0,133
347,304	140,494	-0,133	-0,120
348,319	-200,000	-0,026	-0,138
349,333	224,692	-0,100	-0,111
350,348	21,420	-0,129	0,072
351,362	241,038	-0,067	-0,077
352,377	27,656	-0,114	-0,065
353,392	-94,853	-0,119	0,022
354,406	-59,305	-0,110	-0,032
355,421	207,911	1311,089	1401,315
356,435	159,959	1471,303	1401,751
