DTS Sentinel unit serial number:	SN410029Multiplexer serial number:	ORYXHardware model number:	OX2-SRSoftware version number:	ORYX F/W v4,00 Oryx Data Collector v3.7.2.0data status	okinstallation	B3 Nyhavnadifferential loss correction	single-endedforward channel	channel 1reverse channel	N/Adate	2023/12/01time	03:47:30forward acquisition time	300,00reverse acquisition time	0,00gamma	499,1914k internal	0,3212k external	0,3212temperature offset calibration	1,0000default loss term (dB/km)	0,3820temperature slope calibration	1,0000multiplexer offset coefficient	1,0000multiplexer slope coefficient	1,0000fibre end	0,00T internal ref (°C)	8,22T ext. ref 1 (°C)	-7,03T ext. ref 2 (°C)	-7,16length (m)	temperature (°C)	Stokes	anti-Stokes-744,400	0,439	-0,229	-0,118
-743,385	-200,000	0,012	0,103
-742,371	245,326	-0,132	-0,162
-741,356	800,000	0,077	0,227
-740,342	86,728	-0,207	-0,165
-739,327	-200,000	-0,029	0,125
-738,312	278,828	-0,196	-0,254
-737,298	486,170	-0,105	0,175
-736,283	116,046	-0,170	-0,151
-735,269	-200,000	0,068	0,353
-734,254	34,439	-0,234	-0,148
-733,239	-11,566	-0,179	0,085
-732,225	231,916	-0,123	-0,147
-731,210	712,825	0,029	0,055
-730,196	-103,673	-0,177	-0,030
-729,181	44,706	-0,056	-0,037
-728,167	687,041	-0,065	-0,123
-727,152	-22,729	-0,062	0,027
-726,137	-200,000	0,030	-0,103
-725,123	10,298	-0,177	-0,098
-724,108	117,976	-0,091	-0,082
-723,094	-200,000	-0,029	-0,170
-722,079	800,000	-0,068	-0,138
-721,064	-200,000	0,027	-0,095
-720,050	-37,772	-0,108	-0,041
-719,035	481,933	0,058	0,097
-718,021	-11,044	-0,047	0,022
-717,006	-200,000	-0,013	-0,148
-715,991	-110,424	-0,040	0,006
-714,977	140,542	-0,055	-0,053
-713,962	-200,000	-0,004	-0,058
-712,948	146,862	0,022	-0,022
-711,933	36,328	0,092	0,059
-710,918	-200,000	0,019	0,135
-709,904	69,953	-0,096	0,072
-708,889	98,609	0,051	-0,043
-707,875	800,000	-0,064	0,171
-706,860	800,000	-0,036	0,074
-705,845	-54,192	0,050	0,016
-704,831	-200,000	0,015	-0,057
-703,816	-200,000	-0,016	0,165
-702,802	-33,686	-0,050	-0,020
-701,787	800,000	-0,032	-0,087
-700,772	85,296	0,079	-0,063
-699,758	93,393	-0,049	-0,040
-698,743	98,136	0,077	0,064
-697,729	-200,000	-0,002	0,216
-696,714	-200,000	0,017	0,083
-695,699	-32,364	-0,058	0,023
-694,685	-200,000	-0,007	-0,093
-693,670	199,991	-0,056	-0,062
-692,656	-200,000	-0,001	-0,006
-691,641	800,000	0,046	0,101
-690,627	303,832	-0,057	-0,077
-689,612	-78,247	-0,070	0,017
-688,597	800,000	-0,063	0,196
-687,583	123,613	-0,021	-0,019
-686,568	-118,799	-0,039	0,005
-685,554	-166,436	-0,064	-0,002
-684,539	263,193	0,077	-0,096
-683,524	108,880	-0,041	0,035
-682,510	114,757	-0,115	0,101
-681,495	-154,095	-0,098	-0,005
-680,481	65,904	-0,102	-0,075
-679,466	-163,247	-0,201	0,007
-678,451	530,145	0,028	-0,047
-677,437	-200,000	0,015	0,142
-676,422	-200,000	0,020	-0,107
-675,408	104,025	-0,055	0,047
-674,393	439,607	0,084	-0,134
-673,378	-79,386	-0,102	-0,025
-672,364	-45,125	-0,048	-0,017
-671,349	363,167	-0,025	-0,036
-670,335	800,000	0,058	0,137
-669,320	270,874	-0,104	-0,132
-668,305	226,100	0,025	-0,030
-667,291	-200,000	-0,005	0,130
-666,276	-200,000	0,011	-0,176
-665,262	103,963	-0,132	-0,112
-664,247	581,650	-0,073	-0,129
-663,232	120,402	-0,074	-0,066
-662,218	191,548	0,035	-0,038
-661,203	-62,324	-0,153	-0,046
-660,189	35,722	-0,083	0,053
-659,174	-163,141	-0,084	0,003
-658,159	139,086	-0,090	-0,085
-657,145	800,000	-0,024	-0,064
-656,130	679,993	-0,062	-0,117
-655,116	-160,157	0,099	0,004
-654,101	432,361	-0,054	0,084
-653,086	173,751	0,127	0,132
-652,072	225,725	-0,085	-0,100
-651,057	100,310	-0,111	-0,093
-650,043	120,495	-0,099	-0,089
-649,028	741,987	0,063	-0,122
-648,014	800,000	-0,012	0,026
-646,999	800,000	0,044	-0,134
-645,984	180,391	0,072	0,076
-644,970	-31,908	-0,088	-0,036
-643,955	-21,800	0,060	-0,026
-642,941	47,556	0,077	0,052
-641,926	74,687	-0,134	-0,102
-640,911	-43,742	0,111	0,040
-639,897	63,165	0,090	-0,065
-638,882	800,000	-0,020	0,053
-637,868	33,894	-0,148	0,093
-636,853	800,000	-0,034	-0,077
-635,838	800,000	0,015	-0,046
-634,824	-11,405	-0,064	-0,030
-633,809	156,727	0,032	0,032
-632,795	162,761	-0,139	0,141
-631,780	248,884	-0,054	0,066
-630,765	259,747	0,064	-0,080
-629,751	419,466	-0,018	-0,029
-628,736	800,000	-0,045	-0,108
-627,722	-200,000	-0,024	-0,079
-626,707	-200,000	0,003	0,013
-625,692	261,098	0,101	-0,127
-624,678	-200,000	0,001	0,103
-623,663	17,183	0,065	-0,037
-622,649	-60,613	0,049	-0,015
-621,634	180,040	-0,141	-0,150
-620,619	-47,590	-0,140	-0,049
-619,605	62,106	0,119	0,086
-618,590	-133,056	0,032	-0,003
-617,576	687,825	-0,019	-0,036
-616,561	-59,538	-0,114	0,035
-615,546	-200,000	0,020	-0,176
-614,532	-66,326	-0,168	-0,048
-613,517	-200,000	-0,014	-0,061
-612,503	-200,000	0,014	0,137
-611,488	-27,609	0,068	0,028
-610,474	-200,000	0,002	0,045
-609,459	10,685	0,089	-0,049
-608,444	-14,823	-0,076	0,035
-607,430	458,576	0,061	-0,098
-606,415	800,000	0,048	-0,129
-605,401	800,000	0,068	-0,148
-604,386	-40,380	0,051	-0,019
-603,371	587,999	0,074	0,131
-602,357	800,000	-0,026	0,052
-601,342	-78,871	-0,042	-0,010
-600,328	-200,000	0,005	-0,051
-599,313	179,431	0,035	0,037
-598,298	-200,000	-0,003	-0,161
-597,284	800,000	0,014	-0,035
-596,269	-200,000	0,007	-0,049
-595,255	-200,000	0,035	0,145
-594,240	325,339	-0,085	0,118
-593,225	15,178	-0,056	-0,032
-592,211	116,213	-0,047	-0,042
-591,196	-22,952	0,113	-0,049
-590,182	-43,127	0,039	-0,014
-589,167	-52,239	0,057	-0,019
-588,152	800,000	-0,053	0,134
-587,138	109,616	0,066	-0,057
-586,123	-102,223	-0,104	-0,018
-585,109	41,416	0,048	0,031
-584,094	662,275	0,033	0,061
-583,079	145,653	0,111	-0,107
-582,065	-200,000	-0,019	0,079
-581,050	800,000	-0,029	0,080
-580,036	31,911	-0,027	-0,017
-579,021	-200,000	-0,060	0,000
-578,006	224,999	-0,119	-0,139
-576,992	234,302	0,017	0,021
-575,977	-200,000	0,017	0,088
-574,963	-44,338	0,048	0,017
-573,948	274,303	-0,040	-0,052
-572,934	-200,000	0,018	-0,067
-571,919	18,911	-0,106	-0,061
-570,904	-200,000	0,001	-0,041
-569,890	-115,075	-0,121	0,016
-568,875	-200,000	-0,045	0,177
-567,861	-101,232	0,214	-0,037
-566,846	567,756	0,049	0,086
-565,831	49,076	-0,038	0,026
-564,817	800,000	-0,017	0,039
-563,802	183,358	-0,095	-0,101
-562,788	511,224	-0,076	0,127
-561,773	111,749	-0,043	0,037
-560,758	-137,282	-0,120	0,010
-559,744	98,478	0,066	0,054
-558,729	-200,000	0,002	-0,030
-557,715	-200,000	-0,020	0,080
-556,700	800,000	-0,045	-0,094
-555,685	-20,773	-0,072	-0,032
-554,671	497,060	0,056	0,093
-553,656	93,473	0,074	-0,060
-552,642	-200,000	0,030	-0,140
-551,627	-156,924	-0,106	0,005
-550,612	-200,000	0,009	-0,102
-549,598	-200,000	-0,011	-0,166
-548,583	-73,390	-0,088	0,023
-547,569	800,000	0,006	0,016
-546,554	137,971	0,057	-0,054
-545,539	384,847	-0,033	-0,049
-544,525	239,736	0,035	-0,043
-543,510	-139,212	-0,114	0,009
-542,496	-44,832	-0,082	0,029
-541,481	640,942	-0,025	-0,047
-540,466	-164,383	0,117	0,004
-539,452	-69,730	0,096	-0,026
-538,437	-200,000	0,006	-0,030
-537,423	67,200	0,069	0,050
-536,408	45,628	0,026	-0,017
-535,393	-174,986	0,118	0,002
-534,379	-200,000	0,012	-0,091
-533,364	189,429	0,100	0,108
-532,350	-200,000	-0,034	-0,112
-531,335	153,954	0,061	-0,060
-530,321	-46,610	0,057	0,020
-529,306	34,498	0,116	0,073
-528,291	231,990	-0,136	-0,160
-527,277	-174,092	0,098	-0,002
-526,262	-200,000	-0,011	-0,064
-525,248	427,097	0,060	0,094
-524,233	-200,000	-0,023	0,109
-523,218	800,000	0,041	-0,085
-522,204	-94,749	0,096	-0,018
-521,189	-65,018	-0,180	-0,052
-520,175	-200,000	0,013	-0,140
-519,160	-200,000	0,001	-0,074
-518,145	-200,000	0,021	0,206
-517,131	-200,000	0,027	0,096
-516,116	368,776	-0,022	-0,032
-515,102	210,677	0,081	-0,091
-514,087	9,434	-0,091	-0,049
-513,072	24,284	-0,084	0,050
-512,058	-67,928	-0,081	0,023
-511,043	512,836	0,107	0,181
-510,029	48,431	0,048	0,032
-509,014	-148,799	0,095	-0,005
-507,999	800,000	0,033	0,069
-506,985	16,412	0,110	-0,062
-505,970	176,058	-0,029	-0,030
-504,956	56,328	-0,082	-0,057
-503,941	-62,304	0,089	0,027
-502,926	-200,000	0,008	-0,052
-501,912	-200,000	-0,028	-0,128
-500,897	-66,831	-0,027	-0,008
-499,883	430,467	0,039	-0,061
-498,868	95,041	0,048	0,039
-497,853	13,932	-0,122	0,068
-496,839	-148,585	0,121	0,007
-495,824	-113,583	0,055	-0,008
-494,810	84,491	-0,029	0,023
-493,795	-200,000	0,010	0,066
-492,781	202,990	-0,081	0,090
-491,766	-200,000	0,003	0,095
-490,751	-200,000	-0,026	-0,087
-489,737	-13,267	0,060	0,028
-488,722	87,700	-0,108	-0,086
-487,708	147,182	0,085	0,082
-486,693	216,710	-0,036	-0,041
-485,678	252,956	0,067	-0,082
-484,664	426,583	-0,130	0,202
-483,649	-30,407	0,128	-0,052
-482,635	-22,656	-0,125	-0,054
-481,620	-200,000	0,024	0,080
-480,605	212,375	0,059	0,067
-479,591	163,983	0,036	-0,036
-478,576	144,443	-0,034	-0,033
-477,562	38,667	-0,056	0,036
-476,547	-157,159	-0,110	-0,005
-475,532	638,188	-0,051	-0,093
-474,518	-195,762	0,034	-0,000
-473,503	-200,000	-0,005	0,041
-472,489	-11,631	0,050	0,024
-471,474	-127,748	0,034	0,003
-470,459	120,344	-0,084	0,075
-469,445	-200,000	0,002	0,012
-468,430	197,337	0,050	-0,055
-467,416	663,893	0,029	-0,054
-466,401	67,892	-0,040	0,030
-465,386	-136,743	0,119	0,010
-464,372	97,133	0,050	0,041
-463,357	-63,784	0,113	0,033
-462,343	61,279	0,149	-0,106
-461,328	261,788	-0,020	0,025
-460,313	-23,830	0,140	0,060
-459,299	-200,000	-0,008	-0,045
-458,284	41,826	0,060	-0,039
-457,270	-200,000	-0,019	0,101
-456,255	-200,000	-0,025	-0,083
-455,241	748,364	0,101	-0,195
-454,226	141,695	-0,119	0,113
-453,211	-184,944	-0,119	-0,001
-452,197	-81,724	0,096	0,022
-451,182	800,000	0,039	0,103
-450,168	800,000	0,072	0,179
-449,153	-200,000	0,016	0,137
-448,138	-165,659	-0,080	-0,002
-447,124	-64,388	-0,118	0,034
-446,109	-200,000	-0,011	-0,057
-445,095	-153,089	0,107	-0,005
-444,080	13,497	0,034	-0,019
-443,065	800,000	0,079	0,206
-442,051	65,720	-0,044	0,032
-441,036	800,000	-0,047	0,144
-440,022	113,585	-0,081	-0,071
-439,007	-200,000	-0,021	-0,087
-437,992	148,419	0,103	0,100
-436,978	139,075	-0,105	-0,099
-435,963	-96,626	-0,054	0,010
-434,949	95,539	-0,030	-0,025
-433,934	325,159	-0,092	-0,126
-432,919	-71,151	0,144	-0,038
-431,905	96,404	-0,063	0,052
-430,890	72,131	0,021	0,016
-429,876	-200,000	-0,004	0,038
-428,861	199,865	-0,014	0,016
-427,846	189,392	0,059	-0,063
-426,832	800,000	0,071	-0,156
-425,817	188,013	-0,033	0,036
-424,803	-91,432	-0,011	-0,002
-423,788	276,860	0,022	0,028
-422,773	-200,000	0,018	0,098
-421,759	-152,956	0,057	0,003
-420,744	-150,235	-0,105	-0,006
-419,730	-200,000	-0,021	-0,098
-418,715	605,518	0,064	-0,115
-417,701	0,295	-0,110	-0,056
-416,686	227,567	-0,091	0,107
-415,671	85,634	-0,083	0,065
-414,657	10,879	0,142	-0,077
-413,642	10,523	0,044	0,024
-412,628	-200,000	-0,030	0,200
-411,613	-200,000	0,001	-0,082
-410,598	-130,469	0,041	-0,004
-409,584	354,179	-0,093	0,133
-408,569	56,005	0,139	0,097
-407,555	-95,415	0,026	-0,005
-406,540	-64,745	-0,079	0,023
-405,525	-123,948	0,133	-0,015
-404,511	661,171	-0,012	-0,022
-403,496	32,783	0,037	0,023
-402,482	239,555	-0,030	-0,035
-401,467	-134,060	0,246	-0,021
-400,452	-0,808	0,030	-0,015
-399,438	800,000	0,073	0,174
-398,423	60,214	-0,191	0,135
-397,409	-200,000	0,035	0,109
-396,394	353,742	0,055	-0,079
-395,379	330,581	0,014	-0,019
-394,365	-200,000	0,007	-0,056
-393,350	305,293	0,058	-0,077
-392,336	306,553	0,058	0,078
-391,321	-200,000	-0,042	-0,133
-390,306	800,000	-0,027	-0,077
-389,292	800,000	-0,020	-0,047
-388,277	-200,000	0,004	0,156
-387,263	10,777	0,062	-0,034
-386,248	-200,000	-0,002	-0,041
-385,233	-200,000	-0,001	0,215
-384,219	58,556	0,049	-0,034
-383,204	-200,000	0,001	-0,105
-382,190	800,000	-0,043	-0,112
-381,175	-200,000	-0,023	0,093
-380,160	-200,000	-0,015	0,081
-379,146	7,682	0,048	0,026
-378,131	439,564	0,022	-0,034
-377,117	-83,534	0,070	-0,016
-376,102	266,264	0,066	0,082
-375,088	60,379	0,092	-0,065
-374,073	41,200	0,020	-0,013
-373,058	-130,282	0,049	0,005
-372,044	-200,000	-0,008	0,174
-371,029	-200,000	-0,009	-0,125
-370,015	-18,752	0,094	0,042
-369,000	-107,717	-0,095	-0,015
-367,985	62,614	-0,015	-0,011
-366,971	45,031	-0,069	0,046
-365,956	310,295	0,075	-0,101
-364,942	81,061	0,026	0,020
-363,927	-200,000	0,000	0,056
-362,912	800,000	-0,031	0,071
-361,898	112,704	-0,058	-0,051
-360,883	-6,153	-0,130	-0,063
-359,869	365,948	-0,084	0,121
-358,854	-200,000	0,011	0,236
-357,839	-200,000	0,017	0,131
-356,825	666,704	0,071	0,131
-355,810	-164,797	-0,073	-0,002
-354,796	31,217	-0,035	0,021
-353,781	-68,806	-0,082	0,023
-352,766	644,949	-0,030	0,054
-351,752	-17,668	-0,059	0,027
-350,737	-33,918	0,169	-0,066
-349,723	-200,000	-0,009	0,084
-348,708	-110,351	0,030	-0,004
-347,693	-200,000	0,039	-0,125
-346,679	800,000	-0,016	-0,044
-345,664	-83,737	0,074	-0,017
-344,650	378,161	-0,060	-0,088
-343,635	-36,980	0,107	0,041
-342,620	96,090	0,034	-0,027
-341,606	137,139	-0,107	-0,100
-340,591	-200,000	-0,041	0,140
-339,577	-200,000	0,010	-0,034
-338,562	-200,000	-0,008	0,052
-337,548	188,343	-0,093	-0,100
-336,533	-57,653	0,106	-0,033
-335,518	-200,000	-0,004	-0,018
-334,504	579,168	0,029	0,051
-333,489	19,065	-0,136	-0,078
-332,475	60,842	-0,024	0,017
-331,460	287,908	-0,016	-0,020
-330,445	59,628	0,057	-0,040
-329,431	-5,394	0,019	-0,009
-328,416	12,311	0,177	0,097
-327,402	279,699	-0,054	0,070
-326,387	-9,295	-0,183	0,087
-325,372	-120,478	-0,117	-0,014
-324,358	800,000	0,049	-0,099
-323,343	93,691	0,080	0,065
-322,329	-200,000	-0,013	-0,044
-321,314	-66,161	0,107	0,030
-320,299	-43,382	-0,057	0,020
-319,285	-200,000	-0,015	-0,059
-318,270	365,784	-0,064	0,092
-317,256	-137,396	-0,132	-0,010
-316,241	800,000	-0,022	0,061
-315,226	233,818	-0,048	-0,056
-314,212	-64,481	0,081	0,023
-313,197	-119,484	0,133	0,016
-312,183	22,485	-0,070	0,041
-311,168	-200,000	0,006	-0,068
-310,153	134,839	-0,096	-0,089
-309,139	-40,833	-0,020	-0,007
-308,124	18,242	-0,021	-0,012
-307,110	-200,000	0,025	0,148
-306,095	-65,144	-0,120	0,034
-305,080	173,548	-0,085	-0,087
-304,066	-200,000	-0,012	-0,045
-303,051	91,197	-0,110	-0,088
-302,037	-200,000	0,040	-0,132
-301,022	333,990	0,047	0,065
-300,008	-200,000	0,025	0,134
-298,993	800,000	0,085	0,178
-297,978	-200,000	-0,017	-0,082
-296,964	164,960	-0,092	0,093
-295,949	-75,899	-0,052	-0,013
-294,935	-27,382	-0,098	-0,041
-293,920	-64,630	0,030	0,008
-292,905	464,064	0,090	-0,143
-291,891	800,000	-0,048	-0,103
-290,876	177,428	-0,039	-0,040
-289,862	800,000	0,054	-0,143
-288,847	800,000	0,033	-0,098
-287,832	-52,623	0,022	0,007
-286,818	800,000	0,044	-0,108
-285,803	103,687	-0,090	0,075
-284,789	-68,922	0,105	0,029
-283,774	-200,000	0,026	0,185
-282,759	-200,000	0,018	0,086
-281,745	65,791	0,114	-0,082
-280,730	-19,944	-0,129	0,056
-279,716	102,270	0,085	-0,071
-278,701	-147,281	-0,037	-0,002
-277,686	-148,918	-0,026	0,001
-276,672	-200,000	-0,004	0,032
-275,657	124,683	-0,044	-0,039
-274,643	175,386	0,015	-0,016
-273,628	60,721	-0,048	0,034
-272,613	277,303	0,035	-0,044
-271,599	-56,482	-0,047	0,015
-270,584	-200,000	0,006	0,115
-269,570	-30,341	0,081	0,032
-268,555	-163,342	0,087	0,003
-267,540	800,000	0,017	0,044
-266,526	-186,161	-0,212	0,002
-265,511	-79,228	0,042	0,010
-264,497	-85,709	0,076	0,017
-263,482	347,769	0,081	0,114
-262,467	-50,654	0,012	-0,004
-261,453	-131,378	0,053	0,005
-260,438	423,945	-0,036	-0,055
-259,424	-200,000	-0,019	-0,067
-258,409	-200,000	-0,008	-0,133
-257,395	-60,660	0,073	-0,022
-256,380	800,000	-0,021	-0,063
-255,365	44,435	-0,054	0,035
-254,351	133,629	0,016	0,015
-253,336	426,845	-0,042	-0,065
-252,322	-68,962	0,078	0,021
-251,307	-59,639	0,028	-0,008
-250,292	257,956	-0,034	0,042
-249,278	-23,819	-0,139	-0,059
-248,263	800,000	0,018	-0,043
-247,249	150,274	-0,035	-0,034
-246,234	68,159	0,067	0,049
-245,219	-85,000	-0,063	-0,014
-244,205	-148,059	-0,143	0,008
-243,190	-130,469	0,217	-0,021
-242,176	-48,028	0,060	0,021
-241,161	20,110	0,081	0,046
-240,146	-200,000	0,002	-0,068
-239,132	-200,000	0,012	0,061
-238,117	-200,000	0,015	-0,097
-237,103	-200,000	-0,004	-0,073
-236,088	-138,934	0,074	-0,006
-235,073	-13,265	-0,119	-0,055
-234,059	402,593	0,073	0,109
-233,044	-60,534	-0,039	0,012
-232,030	654,417	-0,026	0,048
-231,015	-200,000	0,019	-0,061
-230,000	-59,425	-0,060	-0,018
-228,986	800,000	0,037	-0,079
-227,971	800,000	-0,067	0,167
-226,957	446,347	-0,040	0,063
-225,942	122,668	0,050	0,044
-224,927	-116,144	0,124	-0,016
-223,913	362,059	-0,050	-0,072
-222,898	-43,827	-0,041	0,015
-221,884	404,626	-0,059	0,088
-220,869	1,959	0,119	-0,061
-219,855	408,840	-0,040	-0,061
-218,840	67,894	0,030	0,022
-217,825	57,766	-0,045	-0,031
-216,811	244,318	0,094	-0,112
-215,796	5,826	-0,041	-0,021
-214,782	-173,247	0,079	0,002
-213,767	586,188	-0,041	0,071
-212,752	-200,000	0,027	0,089
-211,738	-200,000	-0,049	0,188
-210,723	-5,340	0,075	0,036
-209,709	-73,965	-0,100	0,025
-208,694	466,278	0,060	-0,096
-207,679	-158,587	-0,156	-0,006
-206,665	-200,000	0,011	-0,094
-205,650	198,722	-0,069	0,075
-204,636	-63,661	0,150	0,043
-203,621	-4,376	-0,060	-0,029
-202,606	-74,450	0,150	0,038
-201,592	800,000	0,015	-0,030
-200,577	-75,208	-0,078	-0,020
-199,563	-200,000	-0,003	0,017
-198,548	229,874	0,105	0,121
-197,533	-200,000	0,028	0,124
-196,519	-200,000	-0,003	-0,067
-195,504	-79,000	-0,013	0,003
-194,490	36,345	-0,035	0,022
-193,475	127,877	0,057	0,051
-192,460	800,000	0,037	-0,111
-191,446	-200,000	0,009	-0,044
-190,431	93,354	0,040	0,032
-189,417	255,787	-0,035	0,043
-188,402	-106,412	0,262	0,041
-187,387	708,364	-0,041	-0,078
-186,373	-66,337	-0,085	-0,024
-185,358	-139,503	-0,108	0,008
-184,344	800,000	0,028	-0,084
-183,329	-200,000	0,007	-0,119
-182,315	800,000	-0,027	-0,085
-181,300	-47,357	0,059	0,020
-180,285	-145,858	-0,146	-0,009
-179,271	65,885	-0,053	-0,038
-178,256	-200,000	0,034	-0,204
-177,242	-27,810	0,062	0,025
-176,227	248,072	-0,078	0,094
-175,212	56,737	-0,075	0,051
-174,198	-152,643	-0,175	-0,009
-173,183	4,134	0,062	-0,032
-172,169	275,724	-0,040	0,051
-171,154	277,713	0,043	0,054
-170,139	-22,638	-0,211	-0,090
-169,125	428,068	0,079	-0,121
-168,110	144,780	-0,180	0,171
-167,096	-200,000	-0,005	-0,100
-166,081	-200,000	-0,006	0,024
-165,066	259,448	-0,042	-0,052
-164,052	800,000	-0,024	-0,047
-163,037	26,351	0,070	-0,041
-162,023	219,565	0,018	0,021
-161,008	-57,270	0,072	-0,022
-159,993	136,971	-0,018	0,017
-158,979	-90,006	-0,127	0,026
-157,964	53,086	-0,084	-0,057
-156,950	-200,000	-0,035	0,211
-155,935	725,490	-0,054	0,103
-154,920	281,353	-0,087	0,111
-153,906	800,000	-0,030	0,075
-152,891	163,077	-0,084	-0,084
-151,877	-99,629	0,103	-0,018
-150,862	-200,000	-0,019	0,072
-149,847	-200,000	0,034	-0,126
-148,833	-200,000	-0,014	-0,093
-147,818	-200,000	-0,007	0,132
-146,804	416,963	-0,042	-0,064
-145,789	2,906	-0,037	-0,019
-144,775	-145,901	-0,132	0,008
-143,760	58,569	-0,117	-0,081
-142,745	123,634	0,019	-0,017
-141,731	-0,368	-0,046	0,023
-140,716	800,000	-0,067	-0,154
-139,702	41,803	0,040	-0,026
-138,687	-200,000	-0,001	-0,067
-137,672	-167,323	0,110	-0,003
-136,658	448,572	-0,037	-0,059
-135,643	800,000	-0,027	-0,068
-134,629	317,579	-0,068	0,091
-133,614	372,746	0,027	0,039
-132,599	-200,000	0,015	0,052
-131,585	143,772	-0,020	0,019
-130,570	347,125	-0,038	0,053
-129,556	14,264	-0,069	0,038
-128,541	-55,454	-0,168	-0,053
-127,526	180,320	-0,080	-0,083
-126,512	-95,216	-0,129	0,024
-125,497	336,330	0,111	0,153
-124,483	-200,000	-0,030	0,193
-123,468	70,206	-0,070	0,051
-122,453	-200,000	-0,037	0,142
-121,439	274,299	-0,050	-0,062
-120,424	748,015	0,070	-0,134
-119,410	-70,539	0,138	-0,037
-118,395	-200,000	-0,002	0,098
-117,380	44,118	0,086	-0,056
-116,366	66,211	-0,118	-0,085
-115,351	306,560	-0,011	-0,014
-114,337	183,409	-0,011	-0,011
-113,322	-200,000	0,005	0,027
-112,307	800,000	0,075	-0,149
-111,293	327,728	0,042	-0,057
-110,278	361,758	-0,050	0,071
-109,264	-200,000	0,020	-0,066
-108,249	43,453	-0,062	-0,040
-107,234	-60,046	-0,118	0,035
-106,220	-200,000	0,004	0,032
-105,205	-33,273	-0,145	-0,057
-104,191	-14,624	0,098	0,044
-103,176	-165,192	0,115	-0,004
-102,162	800,000	-0,043	-0,096
-101,147	588,738	0,040	-0,069
-100,132	405,751	-0,053	-0,080
-99,118	-200,000	-0,009	0,096
-98,103	800,000	0,024	0,069
-97,089	-200,000	-0,005	-0,066
-96,074	-200,000	0,133	-0,000
-95,059	-175,081	0,076	-0,001
-94,045	-77,777	-0,035	-0,008
-93,030	660,163	0,051	-0,094
-92,016	800,000	-0,022	0,055
-91,001	800,000	-0,050	0,115
-89,986	-200,000	-0,007	-0,052
-88,972	201,491	0,058	-0,063
-87,957	131,129	0,045	0,041
-86,943	-200,000	0,024	0,119
-85,928	241,251	-0,078	-0,092
-84,913	82,857	0,035	-0,027
-83,899	4,759	0,124	0,064
-82,884	-35,189	0,071	-0,027
-81,870	-200,000	-0,021	0,079
-80,855	-200,000	-0,002	0,091
-79,840	-200,000	0,031	-0,102
-78,826	800,000	-0,025	-0,062
-77,811	-3,568	-0,157	0,077
-76,797	-200,000	0,018	0,113
-75,782	605,377	0,061	-0,108
-74,767	-200,000	-0,013	0,122
-73,753	100,153	-0,158	-0,130
-72,738	65,970	0,023	0,016
-71,724	-200,000	0,011	-0,119
-70,709	-178,210	0,116	0,002
-69,694	305,847	-0,068	-0,089
-68,680	-200,000	-0,015	-0,099
-67,665	305,418	0,106	-0,140
-66,651	-200,000	-0,015	0,120
-65,636	-75,817	-0,094	-0,023
-64,622	-200,000	0,036	-0,154
-63,607	331,907	-0,069	0,094
-62,592	-37,700	-0,110	-0,041
-61,578	800,000	-0,016	-0,036
-60,563	-80,076	-0,082	0,019
-59,549	218,323	-0,100	0,113
-58,534	72,175	-2,131	-1,564
-57,519	412,700	-1,185	-1,783
-56,505	-200,000	-0,445	-4,508
-55,490	570,406	0,863	1,488
-54,476	800,000	5,404	11,764
-53,461	-200,000	22,368	345,909
-52,446	800,000	757,080	2299,823
-51,432	536,247	1645,080	2765,288
-50,417	68,456	1644,068	1187,590
-49,403	15,916	1521,033	842,397
-48,388	10,101	1446,645	773,262
-47,373	19,193	1439,285	812,640
-46,359	13,530	1427,979	779,483
-45,344	8,394	1423,864	752,908
-44,330	8,382	1421,833	751,745
-43,315	8,286	1420,204	750,400
-42,300	8,280	1418,431	749,405
-41,286	8,324	1417,082	748,873
-40,271	8,299	1415,932	748,115
-39,257	8,317	1414,666	747,502
-38,242	8,337	1413,437	746,917
-37,227	8,334	1412,364	746,308
-36,213	8,339	1411,032	745,598
-35,198	8,344	1409,887	744,984
-34,184	8,325	1408,994	744,398
-33,169	8,288	1407,611	743,462
-32,154	8,285	1406,834	743,008
-31,140	8,267	1405,630	742,257
-30,125	8,350	1404,080	741,800
-29,111	8,304	1403,048	741,007
-28,096	8,315	1402,018	740,486
-27,082	8,270	1400,742	739,576
-26,067	8,250	1399,582	738,837
-25,052	8,242	1398,652	738,283
-24,038	8,260	1397,765	737,865
-23,023	8,252	1396,647	737,210
-22,009	8,251	1395,778	736,719
-20,994	8,226	1394,825	736,070
-19,979	8,240	1393,564	735,440
-18,965	8,201	1392,775	734,815
-17,950	8,146	1392,115	734,182
-16,936	8,173	1391,143	733,765
-15,921	8,141	1390,049	733,010
-14,906	8,147	1389,046	732,479
-13,892	8,223	1387,928	732,215
-12,877	8,216	1387,226	731,783
-11,863	8,167	1386,655	731,226
-10,848	8,186	1385,670	730,765
-9,833	8,101	1384,804	729,886
-8,819	8,077	1383,813	729,226
-7,804	8,050	1383,001	728,643
-6,790	8,099	1381,963	728,293
-5,775	8,064	1381,015	727,605
-4,760	8,051	1380,023	726,991
-3,746	8,099	1379,021	726,654
-2,731	8,106	1378,106	726,180
-1,717	8,104	1377,232	725,677
-0,702	8,070	1375,396	724,528
0,313	12,120	1286,239	695,904
1,327	28,053	678,253	402,514
2,342	43,408	116,797	75,110
3,356	0,817	16,479	8,293
4,371	-9,861	3,795	1,773
5,386	8,699	1,211	0,641
6,400	800,000	0,294	0,744
7,415	-74,938	-0,232	-0,058
8,429	120,298	-0,282	-0,246
9,444	186,296	-0,234	-0,245
10,459	63,590	-0,306	-0,216
11,473	-4,896	-0,293	-0,142
12,488	40,111	-0,209	-0,132
13,502	-25,411	-0,342	-0,142
14,517	-181,528	-0,295	-0,004
15,531	88,397	-0,323	-0,252
16,546	20,455	-0,350	-0,199
17,561	123,804	-0,397	-0,351
18,575	68,449	-0,105	-0,076
19,590	2,446	-0,357	-0,181
20,604	-22,922	-0,242	-0,102
21,619	82,964	-0,470	-0,359
22,634	103,283	-0,387	-0,319
23,648	33,760	-0,407	-0,248
24,663	14,044	-0,401	-0,219
25,677	196,326	-0,254	-0,272
26,692	337,934	-0,276	-0,379
27,707	193,503	-0,298	-0,318
28,721	90,038	-0,337	-0,264
29,736	64,019	-0,408	-0,288
30,750	204,513	-0,343	-0,375
31,765	284,041	-0,391	-0,496
32,780	133,793	-0,239	-0,217
33,794	27,636	-0,375	-0,221
34,809	49,157	-0,318	-0,210
35,823	260,852	-0,274	-0,334
36,838	52,088	-0,412	-0,276
37,853	129,078	-0,296	-0,266
38,867	-71,970	-0,340	-0,088
39,882	65,177	-0,297	-0,211
40,896	128,569	-0,268	-0,240
41,911	-51,071	-0,423	-0,138
42,926	-7,558	-0,324	-0,153
43,940	131,708	-0,318	-0,287
44,955	34,245	-0,335	-0,205
45,969	37,978	-0,378	-0,236
46,984	-29,746	-0,263	-0,105
47,999	-39,642	-0,453	-0,165
49,013	320,797	-0,173	-0,232
50,028	26,602	-0,369	-0,216
51,042	-38,130	-0,371	-0,137
52,057	-15,997	-0,578	-0,257
53,071	119,615	-0,338	-0,294
54,086	120,402	-0,324	-0,282
55,101	188,068	-0,200	-0,210
56,115	-37,238	-0,372	-0,139
57,130	180,473	-0,348	-0,359
58,144	-15,198	-0,389	-0,174
59,159	87,720	-0,411	-0,319
60,174	3,237	-0,515	-0,262
61,188	-4,514	-0,477	-0,230
62,203	176,249	-0,193	-0,197
63,217	-105,853	-0,331	-0,052
64,232	293,214	-0,213	-0,273
65,247	140,390	-0,180	-0,167
66,261	27,215	-0,378	-0,222
67,276	-35,751	-0,506	-0,191
68,290	81,964	-0,307	-0,233
69,305	39,015	-0,284	-0,177
70,320	83,079	-0,318	-0,242
71,334	-58,355	-0,197	-0,060
72,349	-61,542	-0,407	-0,119
73,363	-57,319	-0,427	-0,131
74,378	27,990	-0,215	-0,127
75,393	244,874	-0,136	-0,160
76,407	200,080	-0,214	-0,230
77,422	36,025	-0,344	-0,211
78,436	-93,165	-0,308	-0,060
79,451	-63,300	-0,280	-0,080
80,466	-32,047	-0,274	-0,107
81,480	81,179	-0,315	-0,238
82,495	-9,808	-0,423	-0,196
83,509	21,947	-0,296	-0,168
84,524	-73,948	-0,335	-0,084
85,539	-144,031	-0,206	-0,013
86,553	4,623	-0,289	-0,148
87,568	73,419	-0,311	-0,227
88,582	82,755	-0,245	-0,186
89,597	93,128	-0,336	-0,266
90,611	-30,568	-0,174	-0,068
91,626	-83,717	-0,238	-0,053
92,641	-24,944	-0,265	-0,109
93,655	100,572	-0,250	-0,203
94,670	67,295	-0,253	-0,181
95,684	92,580	-0,325	-0,256
96,699	195,594	-0,285	-0,303
97,714	220,802	-0,251	-0,283
98,728	-23,093	-0,198	-0,083
99,743	306,622	-0,145	-0,190
100,757	53,881	-0,274	-0,184
101,772	45,384	-0,163	-0,105
102,787	78,983	-0,316	-0,236
103,801	800,000	-0,080	-0,175
104,816	-7,914	-0,324	-0,152
105,830	162,551	-0,276	-0,271
106,845	-21,472	-0,205	-0,087
107,860	-196,332	-0,199	-0,001
108,874	-45,120	-0,404	-0,140
109,889	201,283	-0,247	-0,266
110,903	84,144	-0,271	-0,206
111,918	486,938	-0,150	-0,240
112,933	489,551	-0,171	-0,274
113,947	-20,028	-0,329	-0,141
114,962	-127,888	-0,264	-0,026
115,976	158,136	-0,225	-0,218
116,991	533,613	-0,173	-0,286
118,006	6,635	-0,451	-0,234
119,020	-200,000	-0,084	-0,262
120,035	143,656	-0,225	-0,210
121,049	317,233	-0,144	-0,190
122,064	-6,161	-0,168	-0,080
123,079	-137,720	-0,147	-0,011
124,093	26,865	-0,299	-0,175
125,108	-77,405	-0,402	-0,097
126,122	-26,511	-0,252	-0,103
127,137	47,432	-0,321	-0,208
128,151	268,586	-0,215	-0,264
129,166	192,291	-0,229	-0,241
130,181	-11,008	-0,278	-0,127
131,195	-37,385	-0,325	-0,120
132,210	-31,439	-0,276	-0,108
133,224	70,740	-0,232	-0,167
134,239	75,343	-0,207	-0,152
135,254	86,116	-0,237	-0,182
136,268	-50,833	-0,206	0,067
137,283	-69,747	-0,342	-0,090
138,297	8,511	-0,290	-0,151
139,312	-15,155	-0,211	-0,094
140,327	126,162	-0,174	-0,153
141,341	407,477	-0,168	-0,248
142,356	-75,465	-0,225	-0,055
143,370	-97,108	-0,190	-0,034
144,385	67,412	-0,217	-0,154
145,400	82,699	-0,272	-0,206
146,414	92,226	-0,336	-0,264
147,429	-20,655	-0,187	-0,080
148,443	-24,368	-0,304	-0,126
149,458	121,409	-0,272	-0,236
150,473	-18,088	-0,186	-0,081
151,487	-3,875	-0,391	-0,188
152,502	785,582	-0,120	-0,230
153,516	114,652	-0,206	-0,175
154,531	419,008	-0,159	-0,238
155,546	82,030	-0,298	-0,224
156,560	-49,850	-0,208	-0,068
157,575	-133,000	-0,231	-0,020
158,589	-52,032	-0,368	-0,118
159,604	-2,251	-0,302	-0,147
160,619	-135,076	-0,228	-0,019
161,633	-5,844	-0,188	-0,089
162,648	118,734	-0,251	-0,216
163,662	-65,547	-0,177	-0,049
164,677	-18,557	-0,196	-0,085
165,692	-119,431	-0,331	-0,039
166,706	-41,787	-0,243	-0,086
167,721	14,040	-0,229	-0,123
168,735	114,139	-0,164	-0,138
169,750	36,117	-0,220	-0,135
170,764	-77,888	-0,080	-0,019
171,779	-74,956	-0,219	-0,054
172,794	109,298	-0,141	-0,117
173,808	81,490	-0,213	-0,159
174,823	-14,618	-0,237	-0,106
175,837	71,952	-0,237	-0,171
176,852	45,546	-0,126	-0,081
177,867	800,000	-0,066	-0,158
178,881	286,331	-0,149	-0,187
179,896	70,293	-0,197	-0,141
180,910	1,049	-0,224	-0,111
181,925	69,974	-0,208	-0,149
182,940	183,416	-0,212	-0,218
183,954	75,095	-0,250	-0,183
184,969	54,650	-0,322	-0,215
185,983	79,373	-0,129	-0,096
186,998	122,738	-0,245	-0,212
188,013	137,237	-0,128	-0,116
189,027	196,107	-0,182	-0,192
190,042	-11,709	-0,322	-0,146
191,056	133,559	-0,139	-0,125
192,071	90,578	-0,144	-0,112
193,086	-55,340	-0,118	0,036
194,100	-5,951	-0,215	-0,102
195,115	94,775	-0,285	-0,225
196,129	-115,924	-0,238	-0,030
197,144	-37,084	-0,163	-0,060
198,159	40,908	-0,201	-0,125
199,173	116,331	-0,096	-0,081
200,188	157,183	-0,240	-0,230
201,202	-3,198	-0,054	-0,026
202,217	148,478	-0,221	-0,207
203,232	101,548	-0,139	-0,112
204,246	374,313	-0,207	-0,292
205,261	181,165	-0,231	-0,235
206,275	74,711	-0,163	-0,118
207,290	302,645	-0,166	-0,213
208,304	5,816	-0,150	-0,076
209,319	161,886	-0,196	-0,190
210,334	271,791	-0,159	-0,195
211,348	553,320	-0,174	-0,291
212,363	588,612	-0,160	-0,274
213,377	-86,395	-0,266	-0,056
214,392	-28,494	-0,169	-0,067
215,407	26,373	-0,184	-0,106
216,421	-85,360	-0,204	-0,044
217,436	-93,301	-0,244	0,046
218,450	154,527	-0,211	-0,200
219,465	242,533	-0,248	-0,287
220,480	161,310	-0,163	-0,158
221,494	130,675	-0,183	-0,162
222,509	-124,197	-0,151	-0,016
223,523	-51,744	-0,099	-0,032
224,538	-200,000	-0,002	-0,102
225,553	-62,416	-0,219	-0,063
226,567	-55,627	-0,185	0,057
227,582	190,224	-0,236	-0,245
228,596	76,201	-0,129	-0,094
229,611	19,653	-0,183	-0,102
230,626	147,287	-0,184	-0,171
231,640	171,413	-0,152	-0,151
232,655	56,312	-0,277	-0,185
233,669	27,302	-0,111	-0,064
234,684	-10,212	-0,249	-0,114
235,699	262,430	-0,137	-0,165
236,713	-48,040	-0,256	-0,085
237,728	-79,805	-0,073	0,017
238,742	3,998	-0,136	-0,068
239,757	543,230	-0,135	-0,223
240,772	-141,609	-0,155	-0,011
241,786	286,493	-0,124	-0,155
242,801	98,166	-0,158	-0,126
243,815	800,000	-0,036	-0,083
244,830	-6,626	-0,144	-0,068
245,844	800,000	-0,090	-0,188
246,859	-6,658	-0,267	-0,125
247,874	430,601	-0,131	-0,196
248,888	579,372	-0,159	-0,270
249,903	48,099	-0,154	-0,099
250,917	30,575	-0,129	-0,076
251,932	299,932	-0,112	-0,143
252,947	-200,000	-0,025	-0,140
253,961	90,733	-0,169	-0,131
254,976	56,117	-0,251	-0,168
255,990	713,103	-0,105	-0,193
257,005	198,525	-0,187	-0,198
258,020	-130,781	-0,127	0,012
259,034	131,140	-0,121	-0,107
260,049	51,311	-0,291	-0,190
261,063	-27,758	-0,250	-0,099
262,078	163,381	-0,170	-0,165
263,093	-56,507	-0,268	-0,082
264,107	412,282	-0,157	-0,230
265,122	76,229	-0,253	-0,184
266,136	-132,873	-0,140	-0,012
267,151	102,079	-0,147	-0,118
268,166	-35,786	-0,174	-0,064
269,180	50,231	-0,123	-0,080
270,195	31,560	-0,215	-0,127
271,209	459,873	-0,217	-0,334
272,224	-200,000	0,000	-0,100
273,239	10,986	-0,192	-0,101
274,253	-30,128	-0,207	-0,081
275,268	90,602	-0,181	-0,139
276,282	459,623	-0,109	-0,167
277,297	340,026	-0,177	-0,238
278,312	153,691	-0,148	-0,139
279,326	173,249	-0,093	-0,093
280,341	69,819	-0,113	0,080
281,355	-22,645	-0,094	-0,039
282,370	-57,237	-0,083	-0,025
283,384	-136,720	-0,168	0,013
284,399	-72,218	-0,197	-0,050
285,414	78,634	-0,207	-0,152
286,428	158,403	-0,233	-0,222
287,443	114,309	-0,068	-0,057
288,457	729,009	-0,072	-0,132
289,472	-57,110	-0,200	-0,060
290,487	129,771	-0,241	-0,211
291,501	62,898	-0,225	-0,154
292,516	-100,744	-0,281	-0,047
293,530	194,064	-0,143	-0,149
294,545	41,364	-0,091	-0,056
295,560	-46,137	-0,106	-0,036
296,574	261,866	-0,115	-0,137
297,589	-200,000	-0,040	-0,201
298,603	800,000	-0,018	0,044
299,618	6,215	-0,104	-0,053
300,633	16,782	-0,124	-0,067
301,647	-17,874	-0,194	0,083
302,662	173,147	-0,165	-0,164
303,676	226,379	-0,108	-0,121
304,691	-157,371	-0,166	0,007
305,706	472,533	-0,155	-0,241
306,720	800,000	-0,046	-0,105
307,735	-2,224	-0,132	-0,063
308,749	24,112	-0,213	-0,120
309,764	-69,314	-0,136	-0,036
310,779	8,828	-0,205	-0,106
311,793	-88,776	-0,245	-0,049
312,808	35,779	-0,157	-0,095
313,822	24,673	-0,191	-0,108
314,837	135,803	-0,142	-0,127
315,852	86,775	-0,152	-0,115
316,866	4,386	-0,119	0,060
317,881	-154,771	-0,162	0,007
318,895	-154,078	-0,185	-0,008
319,910	-29,977	-0,233	-0,090
320,925	103,372	-0,230	-0,185
321,939	350,959	-0,132	-0,180
322,954	191,169	0,047	0,049
323,968	233,372	-0,122	-0,137
324,983	-51,240	-0,171	0,055
325,997	286,249	-0,108	-0,134
327,012	205,983	-0,260	-0,277
328,027	-41,592	-0,170	-0,059
329,041	800,000	-0,057	-0,135
330,056	221,454	-0,084	-0,093
331,070	42,403	-0,066	-0,041
332,085	-22,766	-0,161	0,066
333,100	-125,790	-0,115	0,012
334,114	-43,088	-0,260	-0,090
335,129	800,000	-0,129	-0,254
336,143	-160,163	-0,163	-0,006
337,158	121,905	-0,068	-0,058
338,173	6,339	-0,125	0,063
339,187	-42,357	-0,166	-0,058
340,202	55,329	-0,114	-0,075
341,216	174,017	-0,218	-0,216
342,231	-17,091	-0,162	-0,070
343,246	80,890	-0,208	-0,154
344,260	-170,488	-0,240	0,006
345,275	-200,000	-0,027	-0,130
346,289	-112,477	-0,076	0,010
347,304	309,457	-0,050	-0,064
348,319	46,329	-0,169	-0,107
349,333	184,077	-0,143	-0,145
350,348	271,428	-0,126	-0,152
351,362	-64,117	-0,114	-0,032
352,377	536,738	0,012	0,019
353,392	358,626	-0,025	-0,035
354,406	-124,123	-0,158	0,017
355,421	205,672	1311,642	1395,327
356,435	158,138	1471,941	1395,759
