DTS Sentinel unit serial number:	SN410029Multiplexer serial number:	ORYXHardware model number:	OX2-SRSoftware version number:	ORYX F/W v4,00 Oryx Data Collector v3.7.2.0data status	okinstallation	B3 Nyhavnadifferential loss correction	single-endedforward channel	channel 1reverse channel	N/Adate	2023/12/04time	02:42:30forward acquisition time	300,00reverse acquisition time	0,00gamma	499,1914k internal	0,3205k external	0,3205temperature offset calibration	1,0000default loss term (dB/km)	0,3820temperature slope calibration	1,0000multiplexer offset coefficient	1,0000multiplexer slope coefficient	1,0000fibre end	0,00T internal ref (°C)	12,25T ext. ref 1 (°C)	-2,93T ext. ref 2 (°C)	-2,95length (m)	temperature (°C)	Stokes	anti-Stokes-744,400	132,094	-0,249	-0,233
-743,385	800,000	-0,123	0,373
-742,371	26,744	-0,211	-0,128
-741,356	568,732	0,144	0,256
-740,342	184,972	-0,217	-0,234
-739,327	-200,000	0,066	0,309
-738,312	640,718	-0,128	-0,238
-737,298	-200,000	-0,034	0,354
-736,283	36,015	-0,275	-0,176
-735,269	-200,000	-0,026	0,400
-734,254	800,000	-0,079	-0,222
-733,239	16,168	-0,395	0,226
-732,225	800,000	-0,066	-0,149
-731,210	168,682	0,164	0,170
-730,196	43,629	-0,094	-0,062
-729,181	-41,569	0,052	0,019
-728,167	598,383	-0,016	0,028
-727,152	247,806	-0,054	-0,067
-726,137	-169,528	-0,080	-0,002
-725,123	-115,534	-0,037	0,005
-724,108	17,537	-0,100	-0,058
-723,094	-180,298	-0,053	-0,001
-722,079	-200,000	0,009	-0,031
-721,064	-104,408	-0,112	-0,019
-720,050	60,039	0,082	0,059
-719,035	-39,885	-0,035	-0,013
-718,021	42,855	0,086	0,057
-717,006	-149,861	0,032	0,002
-715,991	-5,211	-0,110	-0,055
-714,977	800,000	-0,028	-0,077
-713,962	-200,000	-0,021	0,082
-712,948	573,013	0,068	0,121
-711,933	-119,496	0,059	-0,007
-710,918	311,344	-0,069	-0,094
-709,904	163,548	0,016	-0,016
-708,889	-200,000	-0,006	-0,099
-707,875	-125,067	-0,062	-0,007
-706,860	-86,421	-0,101	0,022
-705,845	21,997	-0,053	-0,031
-704,831	4,281	0,075	-0,040
-703,816	434,499	-0,061	-0,097
-702,802	-97,521	-0,060	0,011
-701,787	-200,000	-0,012	-0,108
-700,772	-200,000	0,013	-0,073
-699,758	800,000	0,062	0,149
-698,743	-48,683	-0,069	-0,024
-697,729	-200,000	-0,006	0,069
-696,714	-200,000	0,033	0,187
-695,699	-200,000	0,005	-0,106
-694,685	-8,163	0,161	0,078
-693,670	-153,951	-0,171	-0,008
-692,656	-200,000	-0,001	-0,090
-691,641	34,718	0,038	-0,024
-690,627	-200,000	-0,024	0,106
-689,612	-200,000	-0,004	0,057
-688,597	-87,223	-0,249	-0,054
-687,583	-143,654	0,173	0,012
-686,568	-85,730	-0,073	0,016
-685,554	-10,890	-0,146	0,070
-684,539	800,000	-0,052	0,118
-683,524	800,000	-0,038	0,102
-682,510	215,434	0,068	0,078
-681,495	517,776	-0,082	0,139
-680,481	115,778	-0,104	-0,092
-679,466	-200,000	0,011	-0,137
-678,451	-72,245	0,107	-0,028
-677,437	-200,000	-0,005	0,061
-676,422	-200,000	-0,008	0,029
-675,408	-200,000	-0,014	0,147
-674,393	-5,118	-0,085	-0,042
-673,378	55,470	0,100	-0,070
-672,364	575,110	0,032	-0,058
-671,349	-123,871	-0,133	0,015
-670,335	-200,000	0,012	0,070
-669,320	-61,751	0,134	0,040
-668,305	335,278	-0,004	-0,006
-667,291	71,731	-0,050	-0,037
-666,276	192,338	-0,083	0,090
-665,262	-200,000	0,010	0,049
-664,247	-31,098	-0,106	0,043
-663,232	174,318	-0,065	0,068
-662,218	800,000	0,017	0,035
-661,203	-200,000	0,008	0,044
-660,189	-200,000	-0,024	0,107
-659,174	74,410	0,138	-0,105
-658,159	-200,000	-0,013	0,091
-657,145	-122,757	-0,080	-0,009
-656,130	-200,000	-0,006	-0,065
-655,116	-80,378	0,145	-0,035
-654,101	-36,480	-0,120	-0,047
-653,086	257,684	0,022	-0,027
-652,072	45,721	-0,130	-0,087
-651,057	579,182	-0,043	-0,077
-650,043	-37,751	-0,091	-0,035
-649,028	-200,000	-0,021	0,082
-648,014	800,000	0,028	-0,064
-646,999	-100,069	-0,063	0,011
-645,984	-177,464	0,095	-0,002
-644,970	-21,571	-0,117	-0,051
-643,955	-200,000	-0,018	-0,145
-642,941	233,235	-0,055	-0,065
-641,926	-163,469	-0,052	-0,002
-640,911	-141,644	0,066	0,005
-639,897	-200,000	-0,006	0,133
-638,882	536,743	-0,055	0,094
-637,868	375,212	0,035	0,051
-636,853	203,133	0,007	0,008
-635,838	-200,000	0,028	-0,117
-634,824	-200,000	0,014	-0,153
-633,809	78,781	0,085	0,066
-632,795	32,726	0,075	-0,047
-631,780	51,325	0,077	0,053
-630,765	-33,061	-0,049	0,020
-629,751	800,000	-0,037	-0,100
-628,736	800,000	-0,057	-0,172
-627,722	68,566	-0,054	0,040
-626,707	800,000	-0,043	-0,094
-625,692	204,589	-0,072	-0,080
-624,678	800,000	-0,005	-0,014
-623,663	800,000	-0,027	-0,065
-622,649	-200,000	0,020	-0,075
-621,634	800,000	-0,032	-0,080
-620,619	-81,968	0,199	0,047
-619,605	-81,161	-0,141	-0,033
-618,590	-46,275	0,097	-0,034
-617,576	352,065	-0,112	0,160
-616,561	-200,000	0,022	0,110
-615,546	-149,596	-0,074	-0,004
-614,532	13,904	-0,056	0,031
-613,517	-200,000	0,015	-0,085
-612,503	-37,187	-0,091	-0,035
-611,488	333,809	0,057	-0,081
-610,474	49,539	0,024	-0,016
-609,459	143,856	0,072	-0,069
-608,444	305,259	-0,087	-0,117
-607,430	-200,000	-0,030	-0,101
-606,415	107,638	-0,132	-0,114
-605,401	-200,000	-0,001	0,049
-604,386	331,257	0,085	0,119
-603,371	-200,000	-0,005	0,035
-602,357	-200,000	0,018	0,116
-601,342	-21,656	0,075	-0,033
-600,328	-200,000	0,007	0,023
-599,313	-200,000	0,003	-0,058
-598,298	416,433	-0,040	-0,062
-597,284	211,171	0,086	-0,098
-596,269	-200,000	-0,001	0,118
-595,255	-33,101	-0,105	-0,042
-594,240	-200,000	-0,049	-0,213
-593,225	-200,000	0,011	-0,068
-592,211	-2,151	-0,064	-0,032
-591,196	800,000	0,007	0,014
-590,182	-200,000	0,007	-0,064
-589,167	79,069	0,108	-0,084
-588,152	-5,178	0,134	-0,066
-587,138	-18,020	-0,129	-0,058
-586,123	-96,527	-0,096	0,018
-585,109	-96,188	0,036	-0,007
-584,094	-46,295	-0,085	-0,030
-583,079	131,538	0,072	0,067
-582,065	800,000	-0,056	-0,129
-581,050	-3,368	-0,106	-0,053
-580,036	82,621	0,117	-0,091
-579,021	-200,000	-0,010	-0,187
-578,006	800,000	-0,020	0,048
-576,992	-96,751	0,079	0,015
-575,977	119,323	0,046	0,041
-574,963	293,310	-0,093	0,123
-573,948	173,749	-0,033	0,034
-572,934	-39,592	0,083	-0,031
-571,919	134,556	0,028	0,026
-570,904	-59,225	-0,082	-0,025
-569,890	125,609	0,027	-0,024
-568,875	97,739	-0,034	-0,028
-567,861	-84,049	0,066	-0,015
-566,846	-177,320	0,042	0,001
-565,831	52,255	0,001	-0,000
-564,817	561,849	0,058	-0,102
-563,802	-87,435	-0,115	0,025
-562,788	-200,000	0,005	0,107
-561,773	800,000	0,057	-0,153
-560,758	740,978	0,050	0,098
-559,744	-169,467	-0,105	-0,003
-558,729	451,651	0,086	-0,137
-557,715	-182,736	0,103	-0,001
-556,700	-200,000	0,001	-0,051
-555,685	181,654	-0,040	-0,043
-554,671	-138,183	-0,056	0,004
-553,656	-169,542	-0,092	0,002
-552,642	-200,000	0,008	0,070
-551,627	157,260	0,070	0,070
-550,612	285,843	0,041	-0,054
-549,598	-24,476	-0,096	0,041
-548,583	-55,585	0,070	0,022
-547,569	-200,000	-0,054	0,200
-546,554	139,662	-0,014	-0,013
-545,539	495,457	0,098	0,163
-544,525	-200,000	-0,008	-0,155
-543,510	10,046	-0,017	-0,009
-542,496	-150,105	-0,092	0,005
-541,481	-125,803	-0,107	0,012
-540,466	-135,023	0,065	0,006
-539,452	800,000	-0,046	0,137
-538,437	-200,000	-0,002	0,134
-537,423	-99,772	-0,058	-0,010
-536,408	-200,000	-0,022	-0,095
-535,393	75,655	-0,094	0,072
-534,379	212,717	0,038	0,044
-533,364	28,502	-0,135	-0,082
-532,350	-19,826	-0,124	0,055
-531,335	727,674	0,046	0,089
-530,321	-200,000	-0,011	0,072
-529,306	800,000	0,040	0,101
-528,291	65,033	-0,055	0,040
-527,277	-200,000	0,003	-0,029
-526,262	-167,649	0,140	-0,004
-525,248	36,426	0,076	-0,048
-524,233	-67,936	-0,080	-0,022
-523,218	-200,000	0,022	0,176
-522,204	-52,796	-0,114	0,038
-521,189	-94,815	0,106	0,020
-520,175	800,000	-0,049	-0,153
-519,160	429,286	0,062	-0,097
-518,145	800,000	0,005	0,016
-517,131	-200,000	-0,000	0,125
-516,116	217,754	0,047	0,054
-515,102	150,696	-0,076	-0,074
-514,087	109,735	-0,109	-0,094
-513,072	-200,000	0,010	-0,037
-512,058	-75,377	0,045	-0,011
-511,043	-200,000	-0,004	0,014
-510,029	-70,335	0,164	-0,045
-509,014	3,623	-0,052	0,027
-507,999	177,690	-0,102	-0,107
-506,985	800,000	0,059	0,120
-505,970	-200,000	0,005	-0,071
-504,956	34,921	-0,137	-0,086
-503,941	-200,000	-0,031	-0,118
-502,926	574,786	0,082	-0,145
-501,912	-130,450	-0,067	-0,006
-500,897	-87,075	-0,131	0,028
-499,883	-55,190	0,163	0,053
-498,868	308,062	0,073	0,098
-497,853	-200,000	0,002	-0,149
-496,839	-200,000	0,017	0,092
-495,824	288,602	0,028	0,037
-494,810	467,484	-0,086	-0,139
-493,795	800,000	0,069	0,138
-492,781	28,889	-0,104	-0,063
-491,766	-62,418	-0,120	0,036
-490,751	673,864	-0,046	-0,087
-489,737	40,972	0,057	0,037
-488,722	349,454	0,082	0,117
-487,708	169,855	0,041	-0,042
-486,693	800,000	0,020	-0,059
-485,678	-11,467	-0,081	-0,038
-484,664	-200,000	0,012	-0,072
-483,649	-200,000	0,002	-0,028
-482,635	-19,205	0,136	-0,061
-481,620	65,784	0,023	0,017
-480,605	36,180	-0,044	-0,028
-479,591	15,842	0,022	0,012
-478,576	46,892	-0,043	0,029
-477,562	729,765	0,047	-0,090
-476,547	278,638	-0,092	-0,118
-475,532	800,000	-0,045	0,125
-474,518	219,611	0,028	0,032
-473,503	-66,971	-0,118	0,033
-472,489	-200,000	-0,000	0,041
-471,474	800,000	0,024	-0,074
-470,459	17,815	-0,062	0,036
-469,445	266,372	-0,101	-0,127
-468,430	-155,435	0,011	0,001
-467,416	-200,000	-0,001	-0,025
-466,401	-3,315	0,182	-0,091
-465,386	-124,622	0,033	0,004
-464,372	-23,817	-0,103	-0,044
-463,357	-94,687	-0,023	0,005
-462,343	-42,406	0,117	-0,043
-461,328	-200,000	-0,020	0,082
-460,313	44,573	0,013	-0,008
-459,299	-50,897	0,045	0,015
-458,284	-53,022	-0,033	-0,011
-457,270	395,719	-0,050	0,074
-456,255	66,030	-0,016	-0,012
-455,241	85,536	0,056	0,044
-454,226	-65,737	-0,065	-0,018
-453,211	188,517	0,042	0,045
-452,197	360,081	-0,029	-0,042
-451,182	143,734	-0,039	-0,037
-450,168	169,422	-0,029	-0,030
-449,153	239,290	-0,062	-0,075
-448,138	800,000	0,029	-0,068
-447,124	242,666	-0,036	0,043
-446,109	339,062	0,090	-0,126
-445,095	800,000	0,021	0,049
-444,080	15,227	-0,069	-0,039
-443,065	-31,316	-0,037	-0,015
-442,051	255,440	0,054	-0,067
-441,036	800,000	0,032	-0,077
-440,022	-200,000	-0,028	-0,097
-439,007	800,000	-0,026	0,070
-437,992	184,081	0,073	0,077
-436,978	403,357	0,080	0,121
-435,963	47,914	0,044	-0,030
-434,949	283,068	0,050	-0,064
-433,934	-200,000	-0,016	-0,103
-432,919	-200,000	-0,028	-0,102
-431,905	333,122	0,077	-0,106
-430,890	-183,764	-0,120	-0,001
-429,876	-33,256	0,033	0,013
-428,861	-11,317	0,072	-0,034
-427,846	313,677	0,091	0,124
-426,832	-30,855	-0,089	-0,036
-425,817	324,155	-0,078	-0,107
-424,803	-81,212	0,142	-0,033
-423,788	-200,000	0,026	-0,139
-422,773	318,753	-0,062	0,084
-421,759	73,952	0,139	0,105
-420,744	325,026	-0,021	-0,029
-419,730	-122,140	-0,077	-0,009
-418,715	-23,558	-0,088	0,038
-417,701	800,000	0,034	0,071
-416,686	-16,140	-0,081	-0,037
-415,671	13,802	0,037	0,021
-414,657	800,000	0,046	0,098
-413,642	-200,000	-0,003	0,084
-412,628	125,464	0,157	-0,142
-411,613	-54,331	-0,074	0,024
-410,598	151,370	-0,060	0,059
-409,584	-200,000	0,008	-0,183
-408,569	0,456	0,179	-0,091
-407,555	752,426	-0,036	0,070
-406,540	-0,921	0,020	0,010
-405,525	-99,215	0,190	-0,034
-404,511	-114,047	-0,111	-0,015
-403,496	241,242	-0,027	-0,033
-402,482	-22,357	-0,028	0,012
-401,467	67,048	0,133	-0,097
-400,452	800,000	0,034	0,100
-399,438	-200,000	0,001	0,244
-398,423	90,465	-0,155	0,124
-397,409	-66,740	-0,051	0,014
-396,394	618,238	-0,048	-0,086
-395,379	19,428	-0,042	-0,024
-394,365	800,000	-0,065	0,157
-393,350	179,629	0,087	0,092
-392,336	-200,000	-0,001	0,029
-391,321	-200,000	-0,000	-0,044
-390,306	-118,463	0,068	0,009
-389,292	75,725	-0,020	-0,015
-388,277	-200,000	0,049	-0,191
-387,263	-200,000	0,012	0,060
-386,248	-80,160	0,141	0,034
-385,233	41,231	0,091	0,059
-384,219	47,729	-0,067	-0,045
-383,204	-155,057	-0,152	0,007
-382,190	18,255	0,105	0,060
-381,175	300,741	-0,049	-0,065
-380,160	-200,000	-0,034	0,116
-379,146	-200,000	0,009	0,130
-378,131	-99,639	0,056	-0,010
-377,117	-165,568	-0,042	0,001
-376,102	70,658	0,035	-0,026
-375,088	57,049	-0,092	-0,064
-374,073	-200,000	-0,006	0,068
-373,058	25,365	0,048	0,029
-372,044	260,699	0,082	0,102
-371,029	-200,000	0,002	0,036
-370,015	-13,961	0,152	-0,070
-369,000	800,000	-0,047	0,105
-367,985	324,934	-0,127	-0,175
-366,971	148,115	-0,198	-0,191
-365,956	-30,353	0,117	0,047
-364,942	742,339	-0,061	0,119
-363,927	-200,000	0,017	0,086
-362,912	-172,757	-0,093	0,002
-361,898	-180,131	-0,115	0,002
-360,883	116,635	-0,081	-0,071
-359,869	-200,000	0,014	-0,080
-358,854	-7,281	-0,067	-0,032
-357,839	-21,230	0,113	-0,049
-356,825	800,000	0,017	-0,036
-355,810	-200,000	-0,029	-0,147
-354,796	-100,065	-0,024	0,004
-353,781	149,529	-0,075	0,072
-352,766	197,669	-0,102	0,112
-351,752	717,350	0,040	0,076
-350,737	267,369	0,034	-0,043
-349,723	516,293	-0,109	0,182
-348,708	107,685	0,058	0,050
-347,693	64,747	-0,030	-0,021
-346,679	254,133	0,015	-0,018
-345,664	-128,288	-0,076	0,008
-344,650	143,860	0,056	-0,053
-343,635	94,749	-0,108	-0,087
-342,620	-200,000	0,028	0,134
-341,606	-99,474	0,134	-0,024
-340,591	-194,245	0,099	-0,001
-339,577	-200,000	0,026	-0,122
-338,562	-11,014	0,170	-0,080
-337,548	-42,139	0,072	-0,026
-336,533	512,029	-0,027	-0,045
-335,518	211,951	-0,045	-0,051
-334,504	388,852	0,041	0,061
-333,489	8,117	-0,074	-0,039
-332,475	-98,675	-0,149	-0,027
-331,460	-51,246	0,033	-0,011
-330,445	-103,800	0,114	0,019
-329,431	11,760	0,082	0,045
-328,416	315,760	-0,003	0,005
-327,402	-44,910	0,084	0,030
-326,387	146,542	-0,084	-0,081
-325,372	-3,819	-0,119	0,059
-324,358	-33,790	-0,173	-0,068
-323,343	302,044	0,038	0,050
-322,329	-200,000	0,016	0,078
-321,314	-86,767	0,080	-0,017
-320,299	-90,808	0,135	0,028
-319,285	-200,000	0,012	0,133
-318,270	800,000	-0,044	0,127
-317,256	-58,996	-0,047	-0,014
-316,241	435,402	0,022	0,035
-315,226	-165,111	0,046	-0,001
-314,212	-65,511	0,044	0,012
-313,197	225,094	0,118	0,137
-312,183	180,064	-0,059	-0,061
-311,168	800,000	-0,059	0,139
-310,153	-94,651	-0,129	-0,025
-309,139	-150,828	-0,046	0,002
-308,124	-200,000	-0,000	0,080
-307,110	800,000	0,018	0,054
-306,095	-39,388	0,203	0,076
-305,080	800,000	-0,053	0,130
-304,066	-189,078	-0,132	-0,001
-303,051	-40,337	-0,122	-0,045
-302,037	24,298	0,151	0,089
-301,022	182,192	0,067	-0,070
-300,008	-115,513	0,137	0,018
-298,993	-166,494	-0,036	0,001
-297,978	-89,404	0,111	-0,023
-296,964	800,000	0,047	-0,099
-295,949	-94,625	-0,122	-0,024
-294,935	65,277	0,079	-0,057
-293,920	101,823	0,103	0,086
-292,905	-200,000	-0,041	0,195
-291,891	-200,000	-0,013	0,078
-290,876	-187,501	-0,131	-0,001
-289,862	334,812	0,031	-0,043
-288,847	800,000	0,063	-0,128
-287,832	-99,807	-0,026	-0,005
-286,818	160,338	0,164	-0,164
-285,803	-26,152	-0,067	-0,028
-284,789	345,540	-0,022	0,030
-283,774	-32,411	-0,048	0,019
-282,759	-200,000	0,009	-0,059
-281,745	-158,839	-0,011	-0,000
-280,730	-83,437	-0,096	-0,022
-279,716	91,316	0,068	0,055
-278,701	-59,898	0,122	0,037
-277,686	800,000	0,074	0,154
-276,672	569,970	0,090	0,158
-275,657	167,670	-0,045	-0,046
-274,643	-200,000	-0,008	0,031
-273,628	-200,000	0,033	-0,210
-272,613	-200,000	-0,026	0,091
-271,599	-31,924	0,038	-0,015
-270,584	800,000	0,039	-0,079
-269,570	40,314	-0,066	0,043
-268,555	149,439	-0,027	-0,026
-267,540	103,190	-0,073	-0,061
-266,526	-200,000	0,018	-0,115
-265,511	324,547	-0,077	0,105
-264,497	-131,490	0,060	0,006
-263,482	-200,000	0,004	-0,072
-262,467	-200,000	-0,007	-0,032
-261,453	-200,000	-0,010	-0,066
-260,438	800,000	-0,077	0,162
-259,424	107,450	-0,028	-0,023
-258,409	125,303	0,068	0,061
-257,395	164,418	-0,036	0,037
-256,380	-200,000	0,041	0,137
-255,365	-15,490	0,191	0,087
-254,351	18,943	-0,128	0,073
-253,336	-121,260	-0,078	-0,009
-252,322	296,765	-0,067	-0,088
-251,307	-96,226	-0,119	-0,022
-250,292	211,933	0,086	0,096
-249,278	1,124	0,113	-0,057
-248,263	-65,020	0,063	0,018
-247,249	52,509	0,087	-0,059
-246,234	140,333	-0,067	0,063
-245,219	-200,000	0,003	0,031
-244,205	15,032	0,128	-0,071
-243,190	-200,000	-0,018	0,061
-242,176	10,399	-0,055	0,030
-241,161	-155,668	0,210	-0,009
-240,146	-200,000	0,005	0,016
-239,132	77,513	0,104	-0,079
-238,117	157,109	0,079	0,078
-237,103	124,939	-0,089	-0,080
-236,088	-189,223	-0,043	-0,000
-235,073	-200,000	0,027	0,118
-234,059	-200,000	-0,004	0,197
-233,044	-166,237	0,169	-0,005
-232,030	-67,541	-0,167	-0,046
-231,015	-41,784	0,042	0,015
-230,000	-71,511	0,108	-0,029
-228,986	429,559	0,070	-0,108
-227,971	-200,000	-0,017	0,090
-226,957	181,446	-0,053	0,056
-225,942	-200,000	0,008	-0,033
-224,927	800,000	0,032	0,071
-223,913	285,307	-0,041	-0,053
-222,898	119,937	-0,075	-0,066
-221,884	126,388	-0,141	-0,127
-220,869	-70,812	0,118	0,031
-219,855	93,266	0,086	0,069
-218,840	288,813	0,071	-0,092
-217,825	196,086	0,075	-0,082
-216,811	254,824	0,060	0,073
-215,796	-200,000	0,011	0,037
-214,782	-57,126	0,110	0,034
-213,767	-103,808	0,121	-0,020
-212,752	11,521	-0,147	0,080
-211,738	-200,000	0,012	0,159
-210,723	-200,000	0,011	-0,056
-209,709	-200,000	0,014	-0,188
-208,694	475,580	0,064	-0,104
-207,679	37,410	-0,113	0,071
-206,665	-11,662	-0,078	-0,036
-205,650	800,000	0,054	0,138
-204,636	-200,000	0,005	0,118
-203,621	-190,857	-0,078	-0,001
-202,606	222,465	0,014	-0,016
-201,592	-200,000	-0,018	0,087
-200,577	701,828	0,075	-0,141
-199,563	-90,135	0,041	-0,008
-198,548	800,000	0,057	0,113
-197,533	95,539	-0,087	0,070
-196,519	-200,000	0,012	0,042
-195,504	-114,805	-0,065	-0,009
-194,490	800,000	-0,076	-0,184
-193,475	-127,026	0,121	-0,012
-192,460	121,255	0,057	0,050
-191,446	32,975	-0,062	0,038
-190,431	-200,000	-0,021	0,094
-189,417	58,733	-0,044	0,031
-188,402	332,393	0,051	-0,070
-187,387	136,165	-0,089	-0,083
-186,373	103,407	-0,084	-0,070
-185,358	135,670	0,096	-0,089
-184,344	-200,000	0,016	0,072
-183,329	362,922	0,041	0,059
-182,315	53,903	-0,200	0,136
-181,300	43,946	-0,145	0,094
-180,285	-140,337	-0,187	0,014
-179,271	-200,000	-0,008	-0,069
-178,256	48,675	0,083	0,055
-177,242	-110,596	-0,083	-0,012
-176,227	-200,000	0,004	0,105
-175,212	-200,000	-0,071	0,237
-174,198	-34,141	0,019	0,007
-173,183	303,698	0,041	0,054
-172,169	-200,000	-0,011	-0,090
-171,154	10,373	-0,051	0,027
-170,139	7,261	0,041	0,021
-169,125	101,470	-0,078	0,065
-168,110	-162,236	-0,074	0,003
-167,096	9,977	0,047	-0,026
-166,081	-200,000	0,011	0,045
-165,066	-83,790	-0,056	0,013
-164,052	-148,632	-0,059	0,003
-163,037	800,000	-0,035	0,106
-162,023	143,387	0,086	0,081
-161,008	-55,500	0,049	0,016
-159,993	309,789	0,071	0,094
-158,979	-200,000	0,039	-0,190
-157,964	-200,000	0,008	0,058
-156,950	800,000	-0,027	0,059
-155,935	-200,000	-0,001	0,096
-154,920	65,396	0,080	-0,058
-153,906	1,482	-0,076	0,039
-152,891	75,108	0,106	-0,079
-151,877	-11,636	-0,179	0,083
-150,862	141,193	0,055	-0,052
-149,847	-200,000	-0,002	-0,055
-148,833	-51,647	-0,109	-0,036
-147,818	-3,054	-0,048	-0,023
-146,804	78,746	0,112	0,085
-145,789	-200,000	-0,005	0,030
-144,775	-147,939	-0,179	-0,010
-143,760	-48,780	-0,126	-0,043
-142,745	401,475	-0,088	-0,132
-141,731	306,034	-0,043	0,057
-140,716	-53,536	0,108	0,035
-139,702	564,023	0,026	0,046
-138,687	559,566	-0,046	0,079
-137,672	149,223	-0,047	0,045
-136,658	-200,000	0,000	0,049
-135,643	47,402	-0,104	0,068
-134,629	-101,944	-0,077	0,013
-133,614	800,000	0,072	0,166
-132,599	-200,000	-0,007	0,075
-131,585	-59,707	0,119	0,036
-130,570	-200,000	0,017	0,077
-129,556	5,363	-0,027	0,014
-128,541	-33,253	0,036	-0,014
-127,526	-200,000	-0,011	-0,177
-126,512	71,431	0,055	-0,041
-125,497	287,679	0,046	0,060
-124,483	-200,000	0,024	0,143
-123,468	-57,115	-0,083	0,026
-122,453	-128,170	-0,010	-0,001
-121,439	800,000	-0,038	-0,088
-120,424	-200,000	0,006	-0,197
-119,410	800,000	0,044	-0,092
-118,395	-182,636	-0,100	0,001
-117,380	-61,453	0,187	0,055
-116,366	-54,342	0,086	-0,027
-115,351	25,874	-0,040	0,024
-114,337	546,652	0,046	-0,078
-113,322	239,856	0,038	-0,045
-112,307	-200,000	0,039	-0,121
-111,293	-25,385	0,029	0,012
-110,278	800,000	0,030	-0,066
-109,264	-200,000	-0,006	0,089
-108,249	37,702	-0,093	0,058
-107,234	271,307	0,083	0,104
-106,220	570,190	0,061	-0,105
-105,205	530,486	0,044	-0,073
-104,191	158,145	0,126	0,123
-103,176	800,000	-0,009	-0,025
-102,162	800,000	-0,017	-0,041
-101,147	-13,552	0,079	-0,036
-100,132	-200,000	-0,003	0,180
-99,118	-105,824	-0,147	-0,023
-98,103	-200,000	0,009	-0,066
-97,089	-200,000	0,019	0,065
-96,074	128,826	0,036	-0,032
-95,059	-200,000	-0,003	0,102
-94,045	-200,000	0,022	0,111
-93,030	-200,000	-0,020	0,130
-92,016	-200,000	0,013	0,109
-91,001	-95,752	-0,184	0,035
-89,986	-200,000	0,018	0,117
-88,972	-200,000	0,003	-0,032
-87,957	65,560	0,109	0,078
-86,943	-200,000	-0,016	-0,146
-85,928	27,680	-0,088	0,052
-84,913	-106,985	0,088	-0,014
-83,899	800,000	0,018	0,043
-82,884	89,235	-0,087	-0,068
-81,870	76,020	0,061	0,045
-80,855	109,170	-0,072	0,061
-79,840	-9,836	0,042	-0,020
-78,826	800,000	0,014	0,041
-77,811	-144,248	-0,128	-0,008
-76,797	36,043	0,106	-0,066
-75,782	800,000	-0,038	0,113
-74,767	623,484	0,052	-0,093
-73,753	-131,780	0,137	0,012
-72,738	-179,232	-0,128	-0,002
-71,724	-52,857	-0,087	0,028
-70,709	-200,000	0,019	0,074
-69,694	800,000	0,050	-0,112
-68,680	800,000	-0,033	-0,073
-67,665	-200,000	0,006	0,049
-66,651	172,254	0,058	0,059
-65,636	82,414	0,085	0,065
-64,622	21,633	-0,044	-0,025
-63,607	800,000	-0,020	-0,045
-62,592	-63,107	-0,108	0,031
-61,578	-200,000	0,003	0,041
-60,563	117,844	0,047	0,041
-59,549	413,202	-0,130	0,196
-58,534	-8,237	-1,836	-0,871
-57,519	391,871	-1,302	-1,920
-56,505	-200,000	-0,518	-4,681
-55,490	304,479	1,048	1,379
-54,476	800,000	4,994	11,329
-53,461	-200,000	20,091	323,897
-52,446	800,000	752,181	2312,772
-51,432	549,653	1663,599	2831,090
-50,417	75,176	1672,009	1245,134
-49,403	20,092	1544,866	878,900
-48,388	14,115	1467,240	805,655
-47,373	18,305	1457,587	820,570
-46,359	16,336	1447,029	805,159
-45,344	12,383	1442,230	783,525
-44,330	12,304	1440,646	782,255
-43,315	12,276	1438,816	781,098
-42,300	12,294	1437,150	780,248
-41,286	12,295	1435,905	779,544
-40,271	12,264	1434,573	778,643
-39,257	12,276	1433,329	777,994
-38,242	12,319	1432,087	777,492
-37,227	12,317	1430,994	776,861
-36,213	12,342	1429,526	776,148
-35,198	12,336	1428,379	775,469
-34,184	12,391	1427,434	775,185
-33,169	12,338	1425,946	774,097
-32,154	12,363	1424,894	773,611
-31,140	12,337	1423,743	772,833
-30,125	12,363	1422,759	772,394
-29,111	12,350	1421,519	771,625
-28,096	12,345	1420,166	770,836
-27,082	12,281	1419,154	769,955
-26,067	12,281	1418,186	769,399
-25,052	12,303	1417,179	768,930
-24,038	12,264	1416,125	768,140
-23,023	12,244	1415,196	767,514
-22,009	12,317	1413,885	767,113
-20,994	12,275	1413,255	766,546
-19,979	12,253	1412,147	765,811
-18,965	12,228	1411,268	765,188
-17,950	12,272	1410,356	764,867
-16,936	12,186	1409,697	764,077
-15,921	12,161	1408,451	763,253
-14,906	12,204	1407,418	762,866
-13,892	12,205	1406,620	762,406
-12,877	12,157	1405,779	761,699
-11,863	12,169	1404,909	761,250
-10,848	12,170	1403,866	760,660
-9,833	12,128	1403,001	759,965
-8,819	12,132	1402,140	759,488
-7,804	12,044	1401,555	758,729
-6,790	12,097	1400,264	758,247
-5,775	12,096	1399,313	757,698
-4,760	12,125	1398,212	757,208
-3,746	12,104	1397,354	756,613
-2,731	12,047	1396,718	755,976
-1,717	12,062	1395,671	755,447
-0,702	12,118	1393,871	754,702
0,313	16,001	1309,061	726,734
1,327	32,182	700,062	425,841
2,342	50,262	121,934	81,262
3,356	0,928	16,556	8,357
4,371	-6,330	3,237	1,555
5,386	5,733	0,569	0,296
6,400	-200,000	0,022	0,316
7,415	285,269	-0,160	-0,204
8,429	29,365	-0,268	-0,161
9,444	-17,767	-0,420	-0,185
10,459	-110,418	-0,188	0,027
11,473	6,074	-0,269	-0,140
12,488	140,958	-0,218	-0,204
13,502	39,347	-0,438	-0,277
14,517	177,853	-0,221	-0,228
15,531	33,120	-0,345	-0,210
16,546	132,188	-0,323	-0,293
17,561	132,381	-0,345	-0,314
18,575	603,998	-0,138	-0,243
19,590	376,035	-0,068	-0,099
20,604	12,900	-0,323	-0,176
21,619	51,339	-0,472	-0,315
22,634	0,776	-0,500	-0,252
23,648	97,252	-0,377	-0,305
24,663	57,590	-0,355	-0,244
25,677	235,716	-0,294	-0,343
26,692	-35,985	-0,276	-0,105
27,707	29,664	-0,352	-0,211
28,721	1,769	-0,455	-0,230
29,736	117,262	-0,390	-0,338
30,750	257,234	-0,415	-0,504
31,765	0,109	-0,330	-0,165
32,780	134,376	-0,333	-0,304
33,794	229,834	-0,392	-0,453
34,809	172,680	-0,325	-0,330
35,823	0,137	-0,433	-0,217
36,838	22,249	-0,314	-0,180
37,853	-48,294	-0,339	-0,115
38,867	-46,314	-0,403	-0,139
39,882	111,223	-0,387	-0,328
40,896	198,061	-0,223	-0,240
41,911	310,881	-0,240	-0,317
42,926	-22,019	-0,337	-0,143
43,940	63,644	-0,309	-0,218
44,955	46,456	-0,389	-0,254
45,969	187,154	-0,323	-0,339
46,984	21,266	-0,312	-0,178
47,999	43,686	-0,251	-0,162
49,013	98,856	-0,419	-0,340
50,028	-44,268	-0,260	-0,091
51,042	46,419	-0,381	-0,248
52,057	116,741	-0,357	-0,309
53,071	52,296	-0,407	-0,273
54,086	22,829	-0,348	-0,200
55,101	78,995	-0,338	-0,254
56,115	-69,158	-0,427	-0,115
57,130	39,723	-0,353	-0,222
58,144	-38,514	-0,436	-0,161
59,159	-31,869	-0,444	-0,174
60,174	54,666	-0,415	-0,281
61,188	170,783	-0,269	-0,271
62,203	14,240	-0,439	-0,240
63,217	23,149	-0,379	-0,218
64,232	122,368	-0,184	-0,161
65,247	-5,072	-0,384	-0,185
66,261	81,434	-0,392	-0,298
67,276	57,179	-0,315	-0,215
68,290	78,878	-0,314	-0,236
69,305	252,335	-0,289	-0,347
70,320	94,550	-0,273	-0,217
71,334	46,420	-0,254	-0,165
72,349	171,315	-0,288	-0,290
73,363	41,043	-0,257	-0,162
74,378	0,342	-0,372	-0,186
75,393	89,208	-0,262	-0,205
76,407	12,162	-0,306	-0,165
77,422	-85,604	-0,284	-0,062
78,436	-16,528	-0,358	-0,159
79,451	-29,605	-0,308	-0,123
80,466	-67,199	-0,292	-0,080
81,480	-1,445	-0,266	-0,131
82,495	17,968	-0,318	-0,177
83,509	44,924	-0,375	-0,242
84,524	166,946	-0,101	-0,100
85,539	69,028	-0,319	-0,229
86,553	-100,323	-0,273	-0,047
87,568	-43,619	-0,324	-0,114
88,582	-4,251	-0,330	-0,160
89,597	161,953	-0,360	-0,354
90,611	36,207	-0,289	-0,178
91,626	229,693	-0,174	-0,199
92,641	-68,253	-0,349	-0,095
93,655	67,423	-0,289	-0,207
94,670	385,428	-0,157	-0,227
95,684	62,825	-0,257	-0,180
96,699	712,396	-0,172	-0,321
97,714	187,852	-0,258	-0,270
98,728	-183,970	-0,271	0,003
99,743	-0,989	-0,357	-0,176
100,757	-29,640	-0,349	-0,139
101,772	-13,323	-0,281	-0,127
102,787	66,358	-0,210	-0,149
103,801	93,722	-0,238	-0,189
104,816	25,545	-0,333	-0,194
105,830	30,607	-0,256	-0,153
106,845	220,833	-0,135	-0,152
107,860	74,307	-0,260	-0,191
108,874	84,779	-0,206	-0,158
109,889	18,767	-0,314	-0,175
110,903	-102,267	-0,227	-0,038
111,918	104,585	-0,218	-0,180
112,933	-0,473	-0,173	-0,086
113,947	-30,506	-0,215	-0,085
114,962	-101,834	-0,419	-0,070
115,976	83,751	-0,254	-0,194
116,991	-2,551	-0,233	-0,114
118,006	24,176	-0,282	-0,162
119,020	185,068	-0,218	-0,227
120,035	-43,601	-0,205	-0,072
121,049	506,790	-0,060	-0,097
122,064	-35,366	-0,230	-0,087
123,079	182,183	-0,210	-0,217
124,093	36,661	-0,244	-0,151
125,108	268,817	-0,230	-0,282
126,122	-89,403	-0,371	-0,076
127,137	-136,062	-0,386	-0,031
128,151	-81,696	-0,180	-0,041
129,166	-57,115	-0,211	-0,065
130,181	407,274	-0,176	-0,261
131,195	800,000	-0,154	-0,317
132,210	41,648	-0,355	-0,225
133,224	-139,426	-0,142	-0,011
134,239	15,965	-0,225	-0,123
135,254	-73,604	-0,292	-0,074
136,268	72,316	-0,323	-0,235
137,283	37,003	-0,251	-0,155
138,297	267,333	-0,142	-0,174
139,312	-19,915	-0,275	-0,118
140,327	388,365	-0,234	-0,338
141,341	123,716	-0,275	-0,241
142,356	49,473	-0,179	-0,117
143,370	-118,144	-0,306	-0,038
144,385	523,855	-0,109	-0,179
145,400	-40,486	-0,395	-0,142
146,414	146,382	-0,292	-0,274
147,429	68,742	-0,361	-0,258
148,443	32,166	-0,192	-0,115
149,458	-55,003	-0,206	-0,064
150,473	-32,846	-0,094	-0,036
151,487	69,152	-0,189	-0,135
152,502	-5,691	-0,281	-0,134
153,516	183,101	-0,220	-0,226
154,531	336,496	-0,176	-0,239
155,546	2,731	-0,190	-0,096
156,560	173,203	-0,277	-0,278
157,575	-136,187	-0,230	-0,018
158,589	-66,072	-0,415	-0,115
159,604	205,133	-0,174	-0,189
160,619	800,000	-0,204	-0,410
161,633	625,585	-0,143	-0,253
162,648	800,000	-0,116	-0,328
163,662	-41,895	-0,282	-0,100
164,677	335,811	-0,172	-0,232
165,692	25,064	-0,222	-0,128
166,706	190,457	-0,093	-0,098
167,721	-41,144	-0,358	-0,128
168,735	326,015	-0,142	-0,190
169,750	142,109	-0,245	-0,227
170,764	-81,354	-0,405	-0,092
171,779	183,698	-0,065	-0,067
172,794	40,455	-0,290	-0,182
173,808	-44,494	-0,246	-0,085
174,823	145,165	-0,289	-0,269
175,837	33,516	-0,203	-0,122
176,852	106,858	-0,233	-0,193
177,867	-27,240	-0,102	-0,041
178,881	85,320	-0,230	-0,176
179,896	18,611	-0,213	-0,118
180,910	-157,174	-0,255	-0,011
181,925	60,548	-0,312	-0,215
182,940	192,934	-0,185	-0,195
183,954	-89,638	-0,258	-0,052
184,969	-31,693	-0,102	-0,040
185,983	93,347	-0,188	-0,148
186,998	313,287	-0,172	-0,226
188,013	23,101	-0,306	-0,174
189,027	-2,513	-0,241	-0,117
190,042	121,879	-0,265	-0,230
191,056	-2,160	-0,282	-0,137
192,071	68,027	-0,244	-0,173
193,086	61,771	-0,176	-0,122
194,100	126,111	-0,150	-0,132
195,115	800,000	-0,107	-0,252
196,129	290,919	-0,170	-0,215
197,144	86,696	-0,309	-0,236
198,159	351,578	-0,177	-0,244
199,173	-54,174	-0,186	-0,058
200,188	-169,590	-0,112	0,003
201,202	17,070	-0,250	-0,137
202,217	322,579	-0,194	-0,257
203,232	56,421	-0,146	-0,098
204,246	-126,605	-0,322	-0,033
205,261	28,925	-0,215	-0,126
206,275	-200,000	-0,037	-0,308
207,290	502,567	-0,032	-0,052
208,304	28,697	-0,163	-0,096
209,319	382,441	-0,089	-0,127
210,334	118,137	-0,254	-0,217
211,348	708,235	-0,162	-0,299
212,363	800,000	-0,100	-0,208
213,377	-94,243	-0,197	0,037
214,392	71,506	-0,243	-0,175
215,407	-67,413	-0,061	0,016
216,421	31,381	-0,256	-0,152
217,436	85,483	-0,185	-0,141
218,450	-8,268	-0,256	-0,119
219,465	-200,000	-0,050	-0,163
220,480	70,387	-0,186	-0,133
221,494	-82,309	-0,177	-0,040
222,509	121,538	-0,203	-0,175
223,523	-8,663	-0,261	-0,121
224,538	95,984	-0,169	-0,134
225,553	152,683	-0,190	-0,180
226,567	-25,030	-0,291	-0,119
227,582	114,700	-0,191	-0,162
228,596	-65,305	-0,284	-0,079
229,611	139,248	-0,028	0,025
230,626	-46,916	-0,082	-0,028
231,640	-69,415	-0,134	-0,035
232,655	-55,890	-0,191	-0,059
233,669	-126,173	-0,132	-0,014
234,684	18,087	-0,121	-0,067
235,699	146,984	-0,237	-0,221
236,713	-79,982	-0,184	0,042
237,728	800,000	-0,098	-0,226
238,742	366,536	-0,143	-0,201
239,757	-71,342	-0,202	-0,052
240,772	68,151	-0,239	-0,169
241,786	123,414	-0,120	-0,104
242,801	-144,181	-0,173	0,011
243,815	118,082	-0,180	-0,153
244,830	462,046	-0,172	-0,267
245,844	61,103	-0,210	-0,144
246,859	227,988	-0,176	-0,198
247,874	800,000	-0,102	-0,213
248,888	215,384	-0,199	-0,219
249,903	-54,129	-0,193	-0,060
250,917	384,218	-0,109	-0,155
251,932	101,557	-0,191	-0,154
252,947	-47,609	-0,030	-0,010
253,961	126,273	-0,230	-0,201
254,976	112,823	-0,176	-0,147
255,990	800,000	-0,085	-0,242
257,005	30,237	-0,158	-0,093
258,020	502,781	-0,135	-0,217
259,034	63,902	-0,100	-0,069
260,049	-87,756	-0,243	-0,050
261,063	178,349	-0,097	-0,098
262,078	327,751	-0,167	-0,222
263,093	191,083	-0,145	-0,151
264,107	22,318	-0,185	-0,104
265,122	-48,242	-0,149	-0,049
266,136	-155,228	-0,278	0,012
267,151	-45,647	-0,237	0,081
268,166	-143,920	-0,273	0,017
269,180	67,148	-0,186	-0,131
270,195	-144,795	-0,288	-0,018
271,209	-111,713	-0,138	-0,019
272,224	59,761	-0,162	-0,110
273,239	38,365	-0,218	-0,134
274,253	-82,834	-0,247	-0,055
275,268	-55,819	-0,105	-0,032
276,282	22,912	-0,155	-0,087
277,297	101,552	-0,176	-0,141
278,312	405,760	-0,133	-0,195
279,326	205,353	-0,104	-0,111
280,341	310,092	-0,140	-0,181
281,355	-76,881	-0,152	-0,036
282,370	275,769	-0,133	-0,163
283,384	-93,895	-0,193	-0,036
284,399	161,675	-0,205	-0,198
285,414	800,000	-0,077	-0,165
286,428	106,872	-0,201	-0,164
287,443	-200,000	-0,020	-0,172
288,457	69,630	-0,146	-0,104
289,472	127,174	-0,113	-0,099
290,487	-31,435	-0,333	-0,129
291,501	62,379	-0,185	-0,127
292,516	35,550	-0,197	-0,119
293,530	125,840	-0,191	-0,166
294,545	190,842	-0,181	-0,187
295,560	-62,147	-0,154	-0,044
296,574	622,243	-0,122	-0,213
297,589	-121,102	-0,146	-0,017
298,603	83,398	-0,092	-0,069
299,618	796,981	-0,094	-0,180
300,633	-94,000	-0,279	-0,052
301,647	68,303	-0,264	-0,186
302,662	-111,546	-0,123	0,017
303,676	-200,000	-0,053	-0,184
304,691	-124,482	-0,108	0,011
305,706	-200,000	-0,063	-0,213
306,720	277,643	-0,165	-0,203
307,735	409,639	-0,130	-0,190
308,749	29,507	-0,147	-0,086
309,764	204,843	-0,143	-0,153
310,779	68,857	-0,133	-0,094
311,793	361,078	-0,048	-0,067
312,808	346,627	-0,125	-0,170
313,822	138,538	-0,145	-0,131
314,837	-1,940	-0,189	-0,091
315,852	104,328	-0,121	-0,098
316,866	-75,648	-0,104	0,025
317,881	314,326	-0,047	-0,061
318,895	-119,007	-0,179	0,021
319,910	24,508	-0,208	-0,118
320,925	-18,742	-0,078	-0,033
321,939	190,494	-0,095	-0,098
322,954	-200,000	-0,057	-0,189
323,968	-200,000	-0,026	-0,092
324,983	-195,000	-0,145	0,001
325,997	293,146	-0,098	-0,124
327,012	-16,778	-0,220	-0,095
328,027	-47,868	-0,151	-0,050
329,041	145,592	-0,206	-0,189
330,056	477,446	-0,121	-0,189
331,070	-11,558	-0,109	0,049
332,085	-133,727	-0,227	0,019
333,100	-159,266	-0,228	0,009
334,114	138,305	-0,128	-0,115
335,129	70,433	-0,163	-0,115
336,143	-46,928	-0,248	-0,083
337,158	-93,317	-0,097	0,018
338,173	-5,732	-0,158	-0,074
339,187	-200,000	-0,007	-0,062
340,202	657,632	-0,117	-0,208
341,216	-57,806	-0,069	-0,020
342,231	106,167	-0,276	-0,224
343,246	420,864	-0,139	-0,205
344,260	-87,767	-0,258	-0,053
345,275	120,571	-0,117	-0,100
346,289	-200,000	-0,009	0,176
347,304	-4,215	-0,165	-0,078
348,319	-200,000	-0,031	-0,182
349,333	800,000	-0,102	-0,199
350,348	452,433	-0,148	-0,226
351,362	21,103	-0,249	-0,138
352,377	-93,069	-0,115	-0,022
353,392	-200,000	0,003	-0,149
354,406	66,631	-0,154	-0,107
355,421	209,873	1313,644	1413,399
356,435	161,544	1474,230	1413,880
