DTS Sentinel unit serial number:	SN410029Multiplexer serial number:	ORYXHardware model number:	OX2-SRSoftware version number:	ORYX F/W v4,00 Oryx Data Collector v3.7.2.0data status	okinstallation	B3 Nyhavnadifferential loss correction	single-endedforward channel	channel 1reverse channel	N/Adate	2023/11/29time	07:17:30forward acquisition time	300,00reverse acquisition time	0,00gamma	499,1914k internal	0,3211k external	0,3211temperature offset calibration	1,0000default loss term (dB/km)	0,3820temperature slope calibration	1,0000multiplexer offset coefficient	1,0000multiplexer slope coefficient	1,0000fibre end	0,00T internal ref (°C)	8,91T ext. ref 1 (°C)	-6,43T ext. ref 2 (°C)	-6,53length (m)	temperature (°C)	Stokes	anti-Stokes-744,400	330,236	-0,166	-0,233
-743,385	745,924	-0,107	0,209
-742,371	800,000	-0,060	-0,130
-741,356	-200,000	0,074	0,320
-740,342	-1,130	-0,239	-0,122
-739,327	-200,000	-0,022	0,292
-738,312	126,493	-0,264	-0,242
-737,298	800,000	-0,024	0,064
-736,283	489,581	-0,198	-0,329
-735,269	-200,000	-0,044	0,302
-734,254	-200,000	-0,046	-0,187
-733,239	-95,740	-0,215	-0,041
-732,225	-200,000	-0,029	-0,171
-731,210	8,248	-0,039	-0,021
-730,196	326,034	-0,022	-0,030
-729,181	-200,000	-0,020	0,102
-728,167	-80,182	-0,163	0,039
-727,152	-94,842	-0,070	-0,014
-726,137	-106,412	0,044	-0,007
-725,123	-51,698	-0,106	0,035
-724,108	-43,361	-0,054	-0,020
-723,094	613,582	-0,037	-0,067
-722,079	-200,000	0,003	-0,011
-721,064	-200,000	-0,023	-0,182
-720,050	253,266	0,051	0,063
-719,035	-72,960	-0,055	0,014
-718,021	-200,000	-0,045	0,272
-717,006	800,000	0,036	-0,100
-715,991	134,193	-0,047	-0,045
-714,977	-200,000	-0,002	-0,156
-713,962	-161,171	-0,066	-0,002
-712,948	117,351	-0,095	-0,085
-711,933	58,864	-0,066	0,047
-710,918	231,459	0,066	-0,078
-709,904	266,301	-0,042	-0,054
-708,889	-200,000	-0,034	-0,155
-707,875	621,091	0,084	-0,153
-706,860	319,154	-0,034	-0,046
-705,845	-200,000	-0,005	-0,040
-704,831	40,156	-0,091	-0,059
-703,816	190,095	0,069	0,075
-702,802	280,173	0,052	-0,067
-701,787	-200,000	0,004	-0,108
-700,772	85,612	-0,135	-0,107
-699,758	629,587	-0,057	-0,105
-698,743	251,491	-0,039	0,048
-697,729	-102,775	0,090	0,015
-696,714	-200,000	0,022	0,117
-695,699	800,000	-0,025	-0,053
-694,685	800,000	0,028	-0,063
-693,670	555,861	-0,057	-0,100
-692,656	800,000	0,055	0,139
-691,641	2,679	0,081	0,042
-690,627	-200,000	0,062	0,000
-689,612	197,851	-0,054	0,060
-688,597	-24,494	-0,114	-0,049
-687,583	-200,000	0,019	0,077
-686,568	-200,000	-0,009	-0,109
-685,554	-200,000	-0,033	-0,141
-684,539	-200,000	0,018	0,070
-683,524	-130,449	0,034	0,003
-682,510	185,283	-0,013	0,013
-681,495	800,000	0,044	-0,118
-680,481	-135,895	-0,170	0,014
-679,466	-200,000	-0,018	-0,125
-678,451	-200,000	0,024	-0,084
-677,437	72,212	-0,035	0,026
-676,422	71,112	0,124	0,093
-675,408	597,127	-0,067	-0,120
-674,393	205,590	-0,075	0,084
-673,378	-17,710	-0,135	-0,061
-672,364	0,353	0,110	-0,057
-671,349	-37,789	-0,074	-0,028
-670,335	426,847	0,048	0,075
-669,320	-106,802	0,064	0,010
-668,305	-200,000	0,003	0,043
-667,291	65,065	-0,045	-0,033
-666,276	-5,525	-0,068	-0,034
-665,262	620,966	-0,030	0,054
-664,247	130,424	-0,055	-0,051
-663,232	-106,962	0,111	-0,018
-662,218	-15,911	0,107	0,049
-661,203	90,181	-0,057	0,046
-660,189	-132,273	-0,165	0,015
-659,174	335,649	0,064	0,090
-658,159	257,368	-0,074	-0,092
-657,145	-200,000	0,005	0,016
-656,130	132,384	-0,048	-0,045
-655,116	800,000	0,069	0,187
-654,101	800,000	-0,072	-0,186
-653,086	638,836	-0,071	-0,130
-652,072	-125,576	-0,043	-0,005
-651,057	574,348	0,029	-0,051
-650,043	-90,160	0,037	-0,008
-649,028	463,285	0,063	-0,103
-648,014	-180,873	-0,111	0,002
-646,999	-89,395	0,039	-0,008
-645,984	74,596	0,102	0,078
-644,970	800,000	-0,030	0,082
-643,955	199,298	0,018	-0,020
-642,941	120,176	-0,102	-0,091
-641,926	800,000	0,023	-0,062
-640,911	800,000	-0,051	0,156
-639,897	800,000	-0,015	0,047
-638,882	384,506	0,009	-0,013
-637,868	-160,924	0,066	0,002
-636,853	800,000	0,029	0,087
-635,838	-63,585	-0,123	-0,036
-634,824	-200,000	-0,018	-0,111
-633,809	-7,395	-0,064	-0,031
-632,795	-91,330	-0,118	0,024
-631,780	-6,077	0,101	0,050
-630,765	643,217	0,019	-0,036
-629,751	-200,000	0,008	-0,109
-628,736	-200,000	0,001	-0,109
-627,722	-59,495	0,115	0,035
-626,707	800,000	0,051	0,127
-625,692	-173,290	0,084	0,002
-624,678	-53,703	-0,054	-0,018
-623,663	-200,000	0,034	-0,181
-622,649	-200,000	-0,001	-0,133
-621,634	-200,000	0,005	-0,038
-620,619	540,751	0,030	-0,052
-619,605	477,104	-0,029	-0,047
-618,590	-200,000	0,005	0,073
-617,576	-200,000	-0,044	0,183
-616,561	-138,327	-0,120	-0,009
-615,546	21,857	0,107	-0,063
-614,532	-200,000	0,022	-0,137
-613,517	-7,565	-0,130	-0,063
-612,503	-88,084	0,134	-0,029
-611,488	178,531	0,018	-0,019
-610,474	-45,056	-0,099	0,035
-609,459	706,769	0,054	0,103
-608,444	-66,670	-0,086	-0,024
-607,430	-200,000	-0,004	0,036
-606,415	203,085	-0,109	-0,122
-605,401	324,570	0,048	0,066
-604,386	132,404	-0,040	0,037
-603,371	-160,524	0,056	0,002
-602,357	-200,000	-0,007	0,214
-601,342	-200,000	0,014	-0,085
-600,328	287,089	-0,089	-0,116
-599,313	-200,000	-0,003	0,019
-598,298	287,715	0,040	-0,052
-597,284	-200,000	-0,048	0,190
-596,269	79,686	0,144	0,111
-595,255	-200,000	-0,023	0,113
-594,240	92,586	-0,015	0,012
-593,225	285,212	-0,102	-0,133
-592,211	84,504	-0,036	0,029
-591,196	-200,000	-0,001	0,064
-590,182	84,990	-0,080	0,063
-589,167	172,304	0,042	0,044
-588,152	68,011	-0,012	0,009
-587,138	312,488	-0,043	-0,059
-586,123	237,775	-0,087	0,105
-585,109	800,000	-0,043	0,093
-584,094	207,726	-0,096	0,108
-583,079	-200,000	0,025	0,089
-582,065	-200,000	0,020	0,077
-581,050	-200,000	0,021	0,133
-580,036	-36,085	0,020	0,008
-579,021	800,000	-0,051	-0,113
-578,006	-200,000	-0,023	-0,161
-576,992	-200,000	0,048	0,185
-575,977	651,306	0,008	-0,016
-574,963	253,458	-0,055	-0,067
-573,948	-107,864	0,057	-0,009
-572,934	436,298	0,041	0,064
-571,919	526,311	-0,059	-0,100
-570,904	-71,184	0,031	-0,008
-569,890	31,380	-0,101	-0,062
-568,875	-68,782	0,063	0,017
-567,861	126,248	-0,055	0,050
-566,846	576,488	0,013	0,022
-565,831	492,761	-0,008	0,014
-564,817	-200,000	0,010	-0,147
-563,802	153,940	0,034	-0,034
-562,788	800,000	-0,038	-0,083
-561,773	-9,435	0,115	-0,055
-560,758	-200,000	0,008	0,101
-559,744	421,857	0,049	0,076
-558,729	338,299	0,039	0,055
-557,715	-200,000	-0,034	-0,155
-556,700	-200,000	0,029	-0,136
-555,685	460,090	0,046	-0,074
-554,671	800,000	-0,011	-0,033
-553,656	-200,000	0,018	-0,092
-552,642	-166,777	-0,010	0,000
-551,627	233,158	-0,138	0,164
-550,612	-200,000	-0,047	-0,233
-549,598	707,417	0,029	0,056
-548,583	-41,800	0,040	-0,015
-547,569	-200,000	0,017	-0,092
-546,554	437,591	0,041	0,064
-545,539	-200,000	-0,033	0,128
-544,525	-22,822	-0,036	0,015
-543,510	-39,456	-0,059	0,022
-542,496	-200,000	0,020	-0,175
-541,481	800,000	0,073	-0,166
-540,466	593,037	-0,078	-0,138
-539,452	29,181	-0,157	-0,096
-538,437	164,115	0,044	0,045
-537,423	800,000	-0,037	0,094
-536,408	-153,328	-0,113	-0,006
-535,393	-50,325	-0,107	0,036
-534,379	133,139	-0,102	-0,095
-533,364	212,121	-0,083	-0,094
-532,350	97,211	0,076	-0,062
-531,335	-200,000	-0,002	0,010
-530,321	149,339	0,080	0,078
-529,306	72,306	-0,032	-0,024
-528,291	-179,298	-0,051	-0,001
-527,277	98,128	-0,175	0,144
-526,262	74,952	0,078	0,059
-525,248	192,440	0,133	-0,144
-524,233	51,837	-0,079	0,054
-523,218	-66,791	0,017	-0,005
-522,204	201,715	-0,124	0,138
-521,189	800,000	-0,053	-0,131
-520,175	-200,000	0,019	-0,102
-519,160	800,000	-0,029	-0,064
-518,145	159,919	0,074	-0,074
-517,131	236,826	0,112	0,134
-516,116	800,000	0,054	0,111
-515,102	-130,008	0,049	0,005
-514,087	248,193	0,026	0,032
-513,072	38,714	-0,073	-0,047
-512,058	200,589	0,074	-0,082
-511,043	-200,000	0,008	0,033
-510,029	-200,000	-0,003	0,082
-509,014	-200,000	-0,010	0,054
-507,999	472,597	-0,056	0,092
-506,985	271,247	-0,029	0,037
-505,970	800,000	-0,032	-0,094
-504,956	-200,000	0,025	-0,085
-503,941	800,000	-0,054	-0,109
-502,926	267,034	0,054	0,068
-501,912	232,540	0,094	0,112
-500,897	72,466	-0,027	-0,020
-499,883	-23,403	0,086	0,037
-498,868	639,785	0,045	-0,082
-497,853	-200,000	0,023	-0,103
-496,839	-71,109	0,150	0,040
-495,824	134,008	-0,016	0,015
-494,810	315,397	0,036	0,049
-493,795	87,065	0,071	0,056
-492,781	-200,000	-0,001	0,045
-491,766	-11,259	-0,113	-0,053
-490,751	-35,374	0,048	-0,019
-489,737	-181,243	-0,099	0,001
-488,722	379,130	-0,041	0,061
-487,708	6,511	-0,042	-0,022
-486,693	-200,000	-0,016	0,119
-485,678	53,816	-0,084	-0,058
-484,664	800,000	0,012	-0,026
-483,649	-93,688	-0,078	0,015
-482,635	-1,429	0,078	-0,040
-481,620	-200,000	0,004	-0,041
-480,605	259,943	0,030	0,038
-479,591	346,332	0,051	-0,072
-478,576	64,416	0,042	0,031
-477,562	633,874	0,029	-0,052
-476,547	-200,000	-0,011	-0,057
-475,532	-200,000	0,038	0,165
-474,518	-200,000	-0,070	0,245
-473,503	-41,530	0,065	0,024
-472,489	-200,000	-0,039	-0,196
-471,474	-83,776	-0,041	0,009
-470,459	559,745	0,040	-0,069
-469,445	470,397	0,085	-0,137
-468,430	-200,000	-0,013	-0,074
-467,416	449,963	0,066	0,105
-466,401	129,214	0,095	-0,087
-465,386	800,000	0,011	0,027
-464,372	-200,000	-0,001	-0,076
-463,357	116,843	-0,081	0,071
-462,343	258,151	-0,053	0,065
-461,328	131,809	0,096	-0,089
-460,313	-200,000	-0,008	0,106
-459,299	167,948	0,100	-0,102
-458,284	433,093	-0,033	0,051
-457,270	800,000	0,024	0,061
-456,255	29,346	-0,116	0,070
-455,241	-26,361	0,075	-0,031
-454,226	-57,671	-0,129	0,040
-453,211	-142,224	0,078	0,005
-452,197	-200,000	-0,025	0,113
-451,182	800,000	0,038	0,117
-450,168	-200,000	0,013	0,081
-449,153	186,613	-0,067	0,072
-448,138	173,862	-0,121	-0,125
-447,124	-135,496	-0,053	0,005
-446,109	-124,483	0,024	-0,003
-445,095	-52,923	-0,140	-0,046
-444,080	-155,575	0,184	0,008
-443,065	800,000	0,070	0,189
-442,051	10,761	0,044	-0,024
-441,036	73,224	-0,051	-0,038
-440,022	36,761	0,144	0,091
-439,007	-200,000	0,010	-0,093
-437,992	-200,000	0,000	0,050
-436,978	176,583	-0,076	0,079
-435,963	106,153	0,085	0,072
-434,949	-29,444	-0,159	-0,065
-433,934	565,630	-0,067	0,117
-432,919	192,675	-0,082	0,088
-431,905	800,000	-0,072	0,176
-430,890	-200,000	0,029	-0,198
-429,876	410,915	-0,050	0,076
-428,861	37,292	0,030	0,019
-427,846	785,824	-0,022	-0,043
-426,832	423,991	0,048	0,075
-425,817	-86,902	0,144	-0,031
-424,803	-79,882	-0,056	0,013
-423,788	-55,280	0,067	0,021
-422,773	800,000	-0,100	0,237
-421,759	223,159	0,073	-0,084
-420,744	-200,000	-0,023	-0,077
-419,730	371,342	-0,088	-0,128
-418,715	133,273	0,103	0,096
-417,701	800,000	-0,028	-0,057
-416,686	182,357	0,061	0,064
-415,671	35,986	0,113	-0,071
-414,657	-131,995	-0,121	0,011
-413,642	800,000	0,022	0,054
-412,628	-200,000	-0,016	-0,056
-411,613	140,068	0,075	-0,071
-410,598	3,073	-0,119	-0,061
-409,584	536,645	0,068	0,116
-408,569	-98,614	0,091	-0,016
-407,555	-74,410	-0,043	0,011
-406,540	-200,000	-0,006	-0,046
-405,525	39,928	-0,125	0,080
-404,511	-62,274	0,107	-0,032
-403,496	-119,840	-0,080	0,010
-402,482	-200,000	-0,031	0,097
-401,467	-200,000	0,001	0,008
-400,452	-172,578	0,150	0,003
-399,438	-200,000	0,017	0,077
-398,423	35,426	-0,161	0,101
-397,409	-200,000	-0,008	-0,064
-396,394	518,063	-0,058	-0,098
-395,379	-200,000	0,009	0,090
-394,365	118,500	0,156	-0,138
-393,350	326,294	0,096	0,131
-392,336	800,000	-0,034	0,091
-391,321	-109,953	0,124	-0,018
-390,306	264,191	-0,015	-0,018
-389,292	397,555	-0,057	-0,085
-388,277	-57,627	-0,069	0,021
-387,263	37,418	0,093	0,059
-386,248	-200,000	0,003	0,030
-385,233	5,970	-0,087	-0,046
-384,219	171,786	0,034	0,035
-383,204	443,877	-0,015	-0,024
-382,190	-200,000	-0,004	0,034
-381,175	-129,559	-0,121	-0,012
-380,160	689,562	0,040	0,074
-379,146	-20,409	0,055	0,024
-378,131	-129,831	-0,025	0,002
-377,117	-55,882	0,115	-0,036
-376,102	-200,000	0,000	-0,051
-375,088	-34,030	-0,025	0,010
-374,073	114,326	-0,108	-0,094
-373,058	-115,410	0,083	0,011
-372,044	45,632	0,056	0,037
-371,029	-200,000	-0,008	0,027
-370,015	-200,000	0,019	-0,063
-369,000	800,000	-0,034	-0,096
-367,985	238,063	-0,012	0,014
-366,971	570,137	0,065	-0,113
-365,956	77,605	0,055	-0,042
-364,942	138,706	0,016	-0,015
-363,927	76,668	0,014	0,011
-362,912	503,706	-0,042	0,069
-361,898	-108,991	-0,156	-0,023
-360,883	-200,000	-0,010	-0,094
-359,869	-200,000	-0,008	-0,051
-358,854	800,000	-0,016	0,033
-357,839	610,427	-0,081	0,145
-356,825	-200,000	0,033	0,108
-355,810	-200,000	-0,027	0,099
-354,796	685,278	0,021	-0,039
-353,781	-40,449	0,144	-0,053
-352,766	-200,000	-0,004	-0,106
-351,752	65,770	-0,076	-0,055
-350,737	524,195	0,074	0,125
-349,723	52,149	0,014	-0,010
-348,708	72,528	-0,107	0,080
-347,693	-99,903	-0,047	0,008
-346,679	128,991	0,024	0,022
-345,664	31,298	-0,157	-0,096
-344,650	-67,908	0,128	-0,035
-343,635	-0,150	0,109	-0,055
-342,620	-141,354	0,017	0,001
-341,606	-200,000	0,010	0,170
-340,591	-20,134	0,116	-0,051
-339,577	-200,000	0,004	0,045
-338,562	7,775	0,031	-0,016
-337,548	-200,000	0,004	0,109
-336,533	-91,128	0,056	-0,011
-335,518	-126,604	0,065	0,007
-334,504	800,000	0,031	0,089
-333,489	-200,000	-0,001	-0,125
-332,475	-138,238	-0,181	0,014
-331,460	-39,060	0,145	-0,054
-330,445	-62,895	-0,027	-0,008
-329,431	34,944	0,096	-0,060
-328,416	32,132	0,239	0,147
-327,402	800,000	-0,016	0,033
-326,387	179,848	0,021	-0,022
-325,372	-38,002	-0,133	-0,050
-324,358	-59,158	-0,065	0,020
-323,343	-114,116	0,063	0,009
-322,329	502,941	-0,053	0,088
-321,314	639,139	-0,061	0,112
-320,299	-61,284	0,099	0,030
-319,285	186,942	-0,068	-0,073
-318,270	491,136	0,035	-0,057
-317,256	137,803	-0,044	-0,041
-316,241	-200,000	-0,001	0,034
-315,226	-126,032	0,146	-0,015
-314,212	-200,000	0,012	-0,089
-313,197	147,362	-0,028	0,027
-312,183	-117,524	-0,027	0,003
-311,168	-109,922	-0,071	0,010
-310,153	138,935	0,026	0,024
-309,139	204,034	-0,064	0,071
-308,124	-200,000	0,004	0,078
-307,110	-200,000	-0,014	0,044
-306,095	-77,229	0,107	-0,026
-305,080	-68,951	-0,060	-0,016
-304,066	-200,000	-0,028	-0,182
-303,051	-200,000	-0,035	-0,130
-302,037	-200,000	0,016	-0,108
-301,022	30,583	-0,092	-0,056
-300,008	194,515	0,144	0,155
-298,993	-55,622	0,084	-0,027
-297,978	-200,000	0,001	-0,070
-296,964	45,789	0,020	0,013
-295,949	194,674	-0,063	0,068
-294,935	-31,854	0,069	-0,027
-293,920	244,378	-0,050	-0,060
-292,905	390,975	-0,028	0,041
-291,891	604,230	0,045	0,079
-290,876	-94,537	0,079	-0,015
-289,862	191,611	-0,022	0,023
-288,847	-73,426	-0,087	0,023
-287,832	-99,391	-0,049	-0,009
-286,818	176,558	-0,017	0,018
-285,803	-153,529	0,104	-0,005
-284,789	-52,191	0,087	-0,028
-283,774	-200,000	-0,011	-0,196
-282,759	-6,246	-0,139	-0,068
-281,745	-200,000	-0,005	-0,119
-280,730	444,845	-0,045	-0,070
-279,716	800,000	-0,034	-0,075
-278,701	-102,143	0,030	0,005
-277,686	-200,000	0,001	-0,034
-276,672	-200,000	0,019	0,086
-275,657	800,000	0,026	-0,071
-274,643	800,000	-0,057	-0,153
-273,628	-74,157	-0,127	0,032
-272,613	-200,000	0,008	-0,028
-271,599	0,149	0,095	0,048
-270,584	800,000	0,018	-0,048
-269,570	800,000	0,035	0,092
-268,555	-200,000	0,021	0,112
-267,540	35,520	-0,094	-0,059
-266,526	672,148	-0,059	-0,110
-265,511	-35,632	0,066	-0,025
-264,497	436,934	0,046	0,072
-263,482	77,745	0,022	0,017
-262,467	8,165	0,115	0,061
-261,453	-87,822	0,136	0,029
-260,438	163,274	-0,104	0,104
-259,424	-200,000	-0,006	-0,070
-258,409	-200,000	0,007	0,107
-257,395	152,813	-0,008	-0,007
-256,380	198,118	0,026	-0,028
-255,365	-165,903	0,096	-0,003
-254,351	800,000	-0,011	-0,030
-253,336	-9,093	-0,099	-0,047
-252,322	800,000	0,019	-0,052
-251,307	-200,000	-0,014	-0,153
-250,292	54,304	-0,068	-0,046
-249,278	574,607	0,071	0,123
-248,263	800,000	0,065	0,150
-247,249	215,847	-0,072	0,082
-246,234	-179,642	-0,038	-0,001
-245,219	282,299	0,085	-0,109
-244,205	-47,402	-0,071	-0,025
-243,190	-139,238	0,095	0,007
-242,176	633,443	0,074	0,134
-241,161	-200,000	0,004	0,124
-240,146	-0,097	0,103	0,052
-239,132	-200,000	-0,034	-0,122
-238,117	434,647	-0,070	-0,108
-237,103	780,139	0,057	-0,111
-236,088	800,000	-0,023	-0,070
-235,073	800,000	0,035	0,084
-234,059	-200,000	-0,005	0,046
-233,044	800,000	0,038	-0,105
-232,030	373,661	-0,074	0,108
-231,015	76,757	-0,065	0,049
-230,000	22,289	-0,095	-0,055
-228,986	404,038	-0,039	-0,058
-227,971	-200,000	-0,025	0,151
-226,957	79,338	0,109	0,083
-225,942	800,000	-0,029	-0,076
-224,927	-200,000	0,011	0,077
-223,913	-200,000	0,015	0,057
-222,898	-200,000	-0,020	0,182
-221,884	631,299	-0,056	0,101
-220,869	525,233	0,054	-0,091
-219,855	-200,000	0,023	0,076
-218,840	-99,116	0,094	0,017
-217,825	800,000	-0,048	-0,100
-216,811	160,280	-0,050	0,050
-215,796	-200,000	0,022	-0,138
-214,782	-89,805	-0,136	-0,028
-213,767	800,000	0,026	-0,075
-212,752	800,000	-0,019	0,054
-211,738	-200,000	0,011	-0,039
-210,723	491,457	0,041	0,066
-209,709	-12,274	0,018	-0,008
-208,694	106,206	-0,085	-0,071
-207,679	135,287	0,094	-0,087
-206,665	-82,626	0,027	0,006
-205,650	319,680	0,025	-0,034
-204,636	32,845	-0,050	-0,031
-203,621	-200,000	0,009	-0,071
-202,606	-92,398	-0,145	-0,029
-201,592	-200,000	0,013	0,084
-200,577	1,343	-0,088	-0,045
-199,563	49,416	-0,039	0,026
-198,548	-66,021	0,123	0,035
-197,533	232,633	0,050	0,058
-196,519	-62,510	-0,058	-0,017
-195,504	-200,000	0,038	-0,151
-194,490	69,295	-0,044	-0,032
-193,475	-152,429	-0,104	-0,005
-192,460	-10,497	-0,037	0,017
-191,446	-112,818	0,137	0,019
-190,431	211,623	0,049	0,055
-189,417	335,294	-0,084	-0,116
-188,402	-200,000	0,002	0,009
-187,387	-200,000	-0,023	-0,090
-186,373	-135,040	-0,169	0,014
-185,358	-200,000	0,005	0,079
-184,344	-200,000	0,002	-0,071
-183,329	135,370	0,094	0,087
-182,315	-113,752	-0,100	-0,014
-181,300	800,000	-0,013	0,031
-180,285	172,903	0,082	-0,084
-179,271	-44,495	-0,026	-0,009
-178,256	-200,000	0,002	0,038
-177,242	-10,894	0,065	-0,030
-176,227	82,558	-0,047	0,036
-175,212	800,000	0,012	0,034
-174,198	203,512	-0,019	0,020
-173,183	532,228	-0,051	0,087
-172,169	-200,000	-0,011	-0,180
-171,154	-40,621	-0,067	0,024
-170,139	-84,179	0,040	-0,009
-169,125	37,993	0,058	-0,036
-168,110	800,000	-0,027	0,065
-167,096	91,796	-0,017	-0,013
-166,081	800,000	-0,016	0,034
-165,066	645,589	-0,034	-0,062
-164,052	-200,000	0,001	0,088
-163,037	7,997	0,037	0,019
-162,023	-57,919	0,073	0,023
-161,008	304,032	0,059	-0,078
-159,993	100,014	-0,014	-0,012
-158,979	18,407	0,083	-0,047
-157,964	68,208	0,015	0,011
-156,950	-125,385	0,103	0,011
-155,935	569,918	-0,055	-0,095
-154,920	800,000	0,061	0,147
-153,906	-134,935	-0,032	0,003
-152,891	-200,000	-0,002	-0,063
-151,877	-200,000	-0,000	0,087
-150,862	-41,623	-0,124	-0,045
-149,847	380,194	-0,013	-0,019
-148,833	45,627	-0,115	-0,075
-147,818	-200,000	0,008	-0,054
-146,804	252,117	0,095	0,115
-145,789	-95,990	0,061	0,011
-144,775	284,239	-0,058	0,074
-143,760	420,332	-0,109	-0,166
-142,745	-86,106	-0,095	-0,021
-141,731	-96,966	0,199	-0,037
-140,716	5,449	0,134	0,070
-139,702	32,660	0,069	0,042
-138,687	-200,000	-0,035	0,123
-137,672	800,000	-0,018	0,044
-136,658	-64,459	0,032	-0,009
-135,643	-157,628	-0,165	0,007
-134,629	356,742	0,031	0,044
-133,614	19,351	0,132	0,075
-132,599	279,357	-0,049	-0,062
-131,585	-200,000	0,027	0,170
-130,570	-95,326	-0,146	-0,027
-129,556	332,143	0,046	0,062
-128,541	-21,071	-0,078	0,033
-127,526	-200,000	0,016	0,059
-126,512	-59,965	0,134	-0,040
-125,497	8,604	-0,031	-0,016
-124,483	-137,495	-0,069	0,005
-123,468	-140,813	0,073	-0,005
-122,453	576,982	-0,051	0,089
-121,439	57,061	0,104	0,072
-120,424	202,945	-0,019	0,021
-119,410	-200,000	0,005	0,038
-118,395	-200,000	0,008	0,097
-117,380	-99,271	0,055	-0,010
-116,366	-200,000	0,011	0,037
-115,351	-27,728	-0,045	0,019
-114,337	583,170	0,046	0,081
-113,322	-200,000	-0,030	-0,138
-112,307	-129,418	0,070	0,007
-111,293	293,824	-0,030	0,038
-110,278	-18,369	-0,145	0,064
-109,264	567,156	-0,039	-0,068
-108,249	56,876	0,046	-0,031
-107,234	-36,035	-0,163	-0,062
-106,220	-14,233	-0,052	0,024
-105,205	106,658	-0,014	-0,012
-104,191	63,205	0,071	0,050
-103,176	165,331	-0,149	0,149
-102,162	-59,838	0,166	0,050
-101,147	-14,485	-0,050	0,023
-100,132	-37,028	-0,054	0,020
-99,118	48,060	0,020	0,013
-98,103	72,199	-0,092	-0,068
-97,089	-8,573	-0,033	-0,015
-96,074	-1,189	-0,009	-0,004
-95,059	-165,419	-0,019	0,001
-94,045	2,187	0,086	-0,044
-93,030	630,355	-0,101	-0,181
-92,016	38,230	-0,025	-0,016
-91,001	51,271	0,141	0,094
-89,986	94,902	-0,021	-0,017
-88,972	-200,000	0,004	-0,159
-87,957	-200,000	0,036	-0,132
-86,943	-58,327	0,096	0,029
-85,928	183,114	0,083	-0,087
-84,913	16,629	-0,132	-0,074
-83,899	-133,672	0,144	0,012
-82,884	800,000	-0,044	0,097
-81,870	800,000	0,019	0,044
-80,855	800,000	0,024	0,059
-79,840	134,780	-0,051	-0,046
-78,826	37,286	0,055	-0,034
-77,811	-200,000	-0,018	-0,067
-76,797	-18,937	-0,073	0,032
-75,782	-86,334	0,029	-0,006
-74,767	800,000	-0,023	0,045
-73,753	-200,000	-0,021	-0,072
-72,738	119,950	0,123	0,107
-71,724	-50,957	-0,139	0,046
-70,709	-39,423	-0,076	-0,028
-69,694	149,401	-0,052	-0,049
-68,680	-200,000	0,001	0,028
-67,665	-67,044	0,059	-0,016
-66,651	-200,000	-0,032	0,166
-65,636	-37,974	-0,071	0,026
-64,622	363,637	0,089	-0,126
-63,607	-15,609	0,022	-0,010
-62,592	-200,000	-0,015	-0,055
-61,578	-13,196	-0,011	0,005
-60,563	-200,000	-0,020	0,122
-59,549	707,330	0,017	0,032
-58,534	48,959	-2,042	-1,351
-57,519	502,105	-1,212	-1,983
-56,505	-200,000	-0,457	-4,416
-55,490	712,528	0,815	1,531
-54,476	800,000	5,214	11,369
-53,461	-200,000	21,851	336,698
-52,446	800,000	758,446	2293,309
-51,432	532,839	1651,958	2770,295
-50,417	69,119	1649,898	1195,473
-49,403	16,541	1524,847	847,873
-48,388	10,742	1449,330	777,976
-47,373	18,987	1441,505	813,116
-46,359	14,065	1430,439	783,554
-45,344	9,052	1426,100	757,400
-44,330	8,987	1424,407	756,160
-43,315	8,908	1422,583	754,788
-42,300	8,985	1420,689	754,117
-41,286	9,025	1419,498	753,645
-40,271	8,996	1418,099	752,736
-39,257	8,916	1417,192	751,848
-38,242	9,041	1415,955	751,748
-37,227	8,990	1414,826	750,880
-36,213	8,997	1413,600	750,231
-35,198	9,009	1412,472	749,660
-34,184	9,033	1411,469	749,213
-33,169	8,931	1410,241	748,051
-32,154	8,938	1409,394	747,603
-31,140	9,013	1407,835	747,102
-30,125	9,035	1406,683	746,564
-29,111	8,965	1405,636	745,649
-28,096	8,989	1404,321	745,036
-27,082	8,913	1403,059	743,982
-26,067	8,900	1402,203	743,435
-25,052	8,933	1401,118	742,985
-24,038	8,961	1400,094	742,546
-23,023	8,934	1399,271	741,951
-22,009	8,931	1398,118	741,295
-20,994	8,932	1396,928	740,641
-19,979	8,945	1396,069	740,215
-18,965	8,903	1395,168	739,517
-17,950	8,890	1394,294	738,960
-16,936	8,836	1393,409	738,213
-15,921	8,837	1392,539	737,727
-14,906	8,861	1391,596	737,312
-13,892	8,877	1390,496	736,772
-12,877	8,863	1389,908	736,365
-11,863	8,901	1389,126	736,099
-10,848	8,828	1388,176	735,229
-9,833	8,830	1387,211	734,696
-8,819	8,758	1386,296	733,851
-7,804	8,742	1385,475	733,314
-6,790	8,766	1384,320	732,784
-5,775	8,756	1383,273	732,157
-4,760	8,756	1382,437	731,684
-3,746	8,815	1381,369	731,360
-2,731	8,779	1380,478	730,696
-1,717	8,749	1379,688	730,108
-0,702	8,717	1378,192	729,142
0,313	12,758	1289,683	700,671
1,327	28,761	681,710	406,240
2,342	45,011	117,314	76,063
3,356	-2,434	16,646	8,197
4,371	-4,770	3,731	1,808
5,386	-1,148	1,197	0,594
6,400	-200,000	0,180	0,623
7,415	-121,922	-0,299	0,034
8,429	-133,039	-0,176	-0,016
9,444	18,218	-0,344	-0,193
10,459	400,884	-0,226	-0,336
11,473	28,249	-0,328	-0,195
12,488	-22,668	-0,363	-0,154
13,502	-46,179	-0,296	-0,102
14,517	-113,117	-0,259	-0,036
15,531	54,188	-0,343	-0,232
16,546	-9,203	-0,422	-0,198
17,561	60,441	-0,443	-0,308
18,575	108,412	-0,129	-0,108
19,590	105,604	-0,215	-0,179
20,604	-22,446	-0,313	-0,133
21,619	64,420	-0,440	-0,312
22,634	99,230	-0,363	-0,295
23,648	235,061	-0,267	-0,311
24,663	17,256	-0,387	-0,215
25,677	78,488	-0,331	-0,249
26,692	292,792	-0,206	-0,265
27,707	163,855	-0,288	-0,286
28,721	64,147	-0,367	-0,260
29,736	-46,100	-0,475	-0,164
30,750	144,727	-0,414	-0,389
31,765	10,908	-0,332	-0,178
32,780	-5,619	-0,350	-0,168
33,794	67,486	-0,226	-0,162
34,809	0,503	-0,380	-0,190
35,823	104,301	-0,393	-0,325
36,838	178,317	-0,308	-0,317
37,853	50,799	-0,411	-0,273
38,867	239,731	-0,356	-0,417
39,882	80,351	-0,315	-0,238
40,896	-14,179	-0,425	-0,192
41,911	-93,118	-0,342	-0,066
42,926	-177,231	-0,365	-0,006
43,940	21,370	-0,382	-0,218
44,955	40,795	-0,410	-0,259
45,969	67,659	-0,323	-0,231
46,984	36,424	-0,364	-0,225
47,999	87,343	-0,297	-0,230
49,013	-23,728	-0,328	-0,138
50,028	-92,792	-0,297	-0,058
51,042	54,652	-0,328	-0,222
52,057	39,451	-0,454	-0,285
53,071	29,081	-0,269	-0,160
54,086	114,827	-0,348	-0,298
55,101	35,701	-0,282	-0,174
56,115	171,213	-0,175	-0,177
57,130	189,872	-0,355	-0,374
58,144	-61,346	-0,367	-0,108
59,159	260,612	-0,287	-0,349
60,174	216,811	-0,263	-0,294
61,188	800,000	-0,134	-0,345
62,203	80,881	-0,310	-0,234
63,217	-10,242	-0,358	-0,166
64,232	7,430	-0,342	-0,179
65,247	-40,227	-0,369	-0,134
66,261	46,607	-0,350	-0,228
67,276	51,272	-0,361	-0,240
68,290	34,302	-0,365	-0,223
69,305	302,101	-0,195	-0,253
70,320	90,186	-0,240	-0,188
71,334	127,337	-0,254	-0,226
72,349	-12,814	-0,357	-0,163
73,363	163,804	-0,238	-0,235
74,378	79,904	-0,264	-0,199
75,393	76,470	-0,324	-0,240
76,407	-11,056	-0,198	-0,091
77,422	-2,634	-0,286	-0,140
78,436	164,939	-0,256	-0,254
79,451	-10,229	-0,275	-0,127
80,466	91,058	-0,311	-0,244
81,480	184,461	-0,288	-0,299
82,495	-50,262	-0,396	-0,130
83,509	52,269	-0,290	-0,194
84,524	93,973	-0,216	-0,172
85,539	192,581	-0,176	-0,187
86,553	30,265	-0,313	-0,187
87,568	-6,999	-0,388	-0,184
88,582	-28,957	-0,261	-0,104
89,597	188,285	-0,232	-0,243
90,611	100,131	-0,169	-0,137
91,626	80,154	-0,243	-0,183
92,641	103,897	-0,223	-0,183
93,655	-186,723	-0,345	-0,003
94,670	-111,549	-0,315	-0,044
95,684	126,515	-0,199	-0,177
96,699	58,101	-0,253	-0,173
97,714	146,786	-0,362	-0,341
98,728	450,543	-0,122	-0,189
99,743	-38,606	-0,358	-0,131
100,757	119,679	-0,265	-0,230
101,772	-8,102	-0,317	-0,149
102,787	60,003	-0,308	-0,213
103,801	769,612	-0,114	-0,217
104,816	84,129	-0,255	-0,195
105,830	191,288	-0,159	-0,167
106,845	23,085	-0,257	-0,147
107,860	-81,343	-0,304	-0,069
108,874	150,775	-0,221	-0,210
109,889	58,527	-0,289	-0,198
110,903	94,167	-0,333	-0,264
111,918	-61,645	-0,373	-0,109
112,933	37,641	-0,271	-0,168
113,947	4,620	-0,274	-0,140
114,962	-6,401	-0,327	-0,155
115,976	200,073	-0,269	-0,289
116,991	-182,276	-0,309	-0,004
118,006	22,401	-0,284	-0,161
119,020	28,248	-0,288	-0,169
120,035	140,413	-0,332	-0,306
121,049	-20,027	-0,255	-0,109
122,064	-65,037	-0,243	-0,068
123,079	-154,579	-0,376	-0,017
124,093	71,228	-0,342	-0,247
125,108	55,131	-0,301	-0,203
126,122	8,515	-0,291	-0,152
127,137	-156,995	-0,235	-0,010
128,151	196,556	-0,164	-0,174
129,166	2,554	-0,224	-0,113
130,181	-12,378	-0,140	-0,064
131,195	78,235	-0,301	-0,224
132,210	27,156	-0,348	-0,203
133,224	-23,671	-0,240	-0,100
134,239	249,555	-0,206	-0,244
135,254	8,858	-0,170	-0,089
136,268	59,047	-0,239	-0,163
137,283	319,269	-0,185	-0,245
138,297	114,875	-0,247	-0,210
139,312	58,518	-0,177	-0,121
140,327	79,285	-0,298	-0,222
141,341	21,760	-0,326	-0,184
142,356	351,775	-0,113	-0,157
143,370	-32,715	-0,228	-0,088
144,385	171,085	-0,208	-0,208
145,400	202,679	-0,163	-0,176
146,414	207,587	-0,180	-0,196
147,429	180,791	-0,313	-0,320
148,443	-72,997	-0,315	-0,080
149,458	90,022	-0,111	-0,086
150,473	-104,224	-0,158	-0,025
151,487	34,555	-0,192	-0,116
152,502	-41,484	-0,311	-0,111
153,516	26,717	-0,276	-0,161
154,531	49,345	-0,370	-0,242
155,546	174,767	-0,295	-0,297
156,560	-64,365	-0,205	-0,058
157,575	281,387	-0,101	-0,127
158,589	139,687	-0,172	-0,157
159,604	-63,550	-0,240	-0,068
160,619	-75,769	-0,229	-0,056
161,633	36,429	-0,413	-0,253
162,648	319,878	-0,184	-0,244
163,662	145,098	-0,134	-0,124
164,677	800,000	-0,079	-0,169
165,692	119,006	-0,161	-0,138
166,706	251,563	-0,325	-0,386
167,721	-134,478	-0,294	-0,025
168,735	357,742	-0,199	-0,277
169,750	800,000	-0,120	-0,248
170,764	22,355	-0,157	-0,089
171,779	-22,930	-0,203	-0,085
172,794	-64,170	-0,207	-0,058
173,808	-37,420	-0,253	-0,093
174,823	78,241	-0,256	-0,190
175,837	-30,003	-0,251	-0,099
176,852	-38,438	-0,286	-0,104
177,867	250,667	-0,229	-0,271
178,881	109,580	-0,239	-0,199
179,896	233,632	-0,102	-0,117
180,910	166,150	-0,222	-0,219
181,925	174,917	-0,237	-0,238
182,940	108,771	-0,148	-0,123
183,954	-3,968	-0,246	-0,118
184,969	-125,016	-0,170	0,018
185,983	-3,673	-0,218	-0,105
186,998	139,708	-0,211	-0,193
188,013	800,000	-0,072	-0,212
189,027	98,435	-0,219	-0,175
190,042	64,380	-0,188	-0,131
191,056	-128,566	-0,220	-0,021
192,071	36,944	-0,206	-0,126
193,086	-38,351	-0,190	-0,069
194,100	40,956	-0,138	-0,086
195,115	-90,567	-0,244	-0,049
196,129	117,509	-0,209	-0,178
197,144	16,620	-0,263	-0,144
198,159	73,187	-0,352	-0,255
199,173	-36,606	-0,359	-0,133
200,188	68,798	-0,198	-0,141
201,202	31,481	-0,200	-0,119
202,217	1,659	-0,192	-0,095
203,232	-190,672	-0,219	-0,002
204,246	378,119	-0,193	-0,275
205,261	27,539	-0,218	-0,127
206,275	143,440	-0,155	-0,143
207,290	206,589	-0,138	-0,150
208,304	-10,588	-0,168	-0,077
209,319	-154,397	-0,313	-0,014
210,334	-77,625	-0,139	-0,033
211,348	31,060	-0,243	-0,144
212,363	650,332	-0,095	-0,168
213,377	144,602	-0,184	-0,170
214,392	-200,000	-0,017	-0,057
215,407	114,061	-0,179	-0,151
216,421	252,255	-0,124	-0,146
217,436	-48,453	-0,140	-0,046
218,450	-97,109	-0,283	-0,051
219,465	152,339	-0,171	-0,161
220,480	-174,101	-0,168	0,003
221,494	214,211	-0,143	-0,157
222,509	211,256	-0,102	-0,111
223,523	10,327	-0,220	-0,115
224,538	102,137	-0,162	-0,131
225,553	51,409	-0,216	-0,142
226,567	57,412	-0,222	-0,149
227,582	260,748	-0,207	-0,248
228,596	374,444	-0,088	-0,124
229,611	96,957	-0,152	-0,121
230,626	-106,668	-0,217	-0,033
231,640	344,095	-0,149	-0,203
232,655	35,768	-0,267	-0,162
233,669	135,837	-0,262	-0,236
234,684	12,809	-0,265	-0,141
235,699	27,249	-0,222	-0,128
236,713	58,965	-0,153	-0,104
237,728	105,245	-0,094	-0,076
238,742	109,333	-0,246	-0,204
239,757	239,420	-0,171	-0,197
240,772	-200,000	-0,019	-0,217
241,786	46,942	-0,174	-0,112
242,801	159,998	-0,129	-0,125
243,815	-70,798	-0,117	-0,030
244,830	463,342	-0,093	-0,144
245,844	-0,327	-0,109	-0,053
246,859	164,969	-0,117	-0,114
247,874	-34,432	-0,298	-0,112
248,888	-32,459	-0,258	-0,099
249,903	225,778	-0,239	-0,268
250,917	234,400	-0,149	-0,170
251,932	221,899	-0,184	-0,204
252,947	103,185	-0,174	-0,140
253,961	241,563	-0,168	-0,194
254,976	-7,725	-0,091	-0,042
255,990	-118,375	-0,113	-0,014
257,005	-200,000	-0,064	-0,258
258,020	175,720	-0,162	-0,162
259,034	-200,000	-0,057	-0,190
260,049	-69,083	-0,308	-0,081
261,063	192,652	-0,117	-0,122
262,078	204,654	-0,152	-0,163
263,093	-200,000	-0,063	-0,200
264,107	744,990	-0,094	-0,176
265,122	70,839	-0,124	-0,088
266,136	-143,424	-0,113	-0,007
267,151	53,828	-0,219	-0,145
268,166	441,016	-0,135	-0,204
269,180	73,126	-0,215	-0,155
270,195	518,766	-0,051	-0,083
271,209	219,470	-0,207	-0,228
272,224	800,000	-0,074	-0,183
273,239	43,581	-0,175	-0,110
274,253	-88,570	-0,196	-0,040
275,268	-30,726	-0,254	-0,099
276,282	23,526	-0,213	-0,120
277,297	62,812	-0,149	-0,102
278,312	-200,000	-0,006	-0,134
279,326	-79,862	-0,159	-0,037
280,341	-113,038	-0,271	-0,036
281,355	-16,465	-0,110	0,048
282,370	358,382	-0,112	-0,154
283,384	196,942	-0,169	-0,177
284,399	-140,359	-0,184	-0,013
285,414	109,031	-0,122	-0,100
286,428	-40,357	-0,143	-0,051
287,443	-123,337	-0,170	0,018
288,457	240,412	-0,143	-0,165
289,472	530,041	-0,117	-0,191
290,487	89,226	-0,142	-0,109
291,501	167,053	-0,056	-0,055
292,516	-92,946	-0,258	-0,049
293,530	782,439	-0,033	-0,062
294,545	89,314	-0,096	-0,073
295,560	25,279	-0,127	-0,072
296,574	638,112	-0,113	-0,198
297,589	35,257	-0,134	-0,080
298,603	-200,000	-0,010	-0,063
299,618	-200,000	-0,008	-0,201
300,633	-123,281	-0,112	-0,012
301,647	2,200	0,056	0,028
302,662	-0,280	-0,171	-0,083
303,676	136,708	-0,099	-0,089
304,691	23,819	-0,148	0,084
305,706	37,333	-0,107	-0,065
306,720	800,000	-0,078	-0,158
307,735	-109,753	-0,215	0,031
308,749	-25,561	0,034	-0,014
309,764	800,000	-0,025	-0,051
310,779	104,528	-0,151	-0,122
311,793	-80,288	-0,135	-0,031
312,808	65,574	-0,139	-0,096
313,822	-200,000	-0,041	-0,176
314,837	196,657	-0,162	-0,170
315,852	800,000	-0,025	-0,052
316,866	800,000	-0,033	-0,070
317,881	-111,227	-0,165	0,023
318,895	111,699	-0,035	-0,029
319,910	800,000	-0,102	-0,236
320,925	774,677	-0,078	-0,146
321,939	107,048	-0,114	0,093
322,954	178,504	-0,119	-0,119
323,968	37,878	0,022	-0,014
324,983	-110,177	-0,087	-0,012
325,997	132,783	-0,152	-0,134
327,012	145,883	-0,190	-0,175
328,027	293,855	-0,177	-0,222
329,041	-97,073	-0,126	-0,022
330,056	70,007	-0,126	-0,089
331,070	100,114	-0,124	-0,098
332,085	5,485	-0,131	-0,066
333,100	314,976	-0,077	-0,099
334,114	-0,710	-0,145	-0,070
335,129	291,102	-0,121	-0,151
336,143	381,649	-0,064	-0,090
337,158	6,488	-0,102	0,052
338,173	61,009	-0,122	-0,083
339,187	228,868	-0,045	-0,051
340,202	112,687	-0,120	-0,099
341,216	117,145	-0,076	-0,064
342,231	260,430	-0,191	-0,226
343,246	165,414	-0,178	-0,173
344,260	511,086	-0,101	-0,162
345,275	339,700	-0,004	0,006
346,289	800,000	-0,034	-0,078
347,304	247,618	-0,118	-0,136
348,319	-95,114	-0,087	-0,016
349,333	328,530	-0,120	-0,158
350,348	22,515	-0,201	-0,112
351,362	12,862	-0,086	-0,045
352,377	34,128	-0,058	0,035
353,392	-95,185	-0,131	0,024
354,406	398,532	-0,102	-0,146
355,421	207,662	1307,197	1396,956
356,435	159,757	1466,968	1397,422
