DTS Sentinel unit serial number:	SN410029Multiplexer serial number:	ORYXHardware model number:	OX2-SRSoftware version number:	ORYX F/W v4,00 Oryx Data Collector v3.7.2.0data status	okinstallation	B3 Nyhavnadifferential loss correction	single-endedforward channel	channel 1reverse channel	N/Adate	2023/11/29time	14:27:30forward acquisition time	300,00reverse acquisition time	0,00gamma	499,1914k internal	0,3211k external	0,3211temperature offset calibration	1,0000default loss term (dB/km)	0,3820temperature slope calibration	1,0000multiplexer offset coefficient	1,0000multiplexer slope coefficient	1,0000fibre end	0,00T internal ref (°C)	10,89T ext. ref 1 (°C)	-3,20T ext. ref 2 (°C)	-3,32length (m)	temperature (°C)	Stokes	anti-Stokes-744,400	-200,000	-0,017	-0,230
-743,385	-200,000	-0,017	0,268
-742,371	105,532	-0,136	-0,116
-741,356	800,000	-0,123	0,320
-740,342	137,432	-0,282	-0,268
-739,327	-200,000	0,049	0,177
-738,312	161,575	-0,133	-0,135
-737,298	-200,000	0,034	0,400
-736,283	199,949	-0,268	-0,299
-735,269	-200,000	-0,015	0,327
-734,254	699,453	-0,165	-0,316
-733,239	444,396	-0,153	0,245
-732,225	-9,033	-0,139	-0,067
-731,210	-200,000	-0,016	0,095
-730,196	-1,162	-0,078	-0,040
-729,181	282,935	-0,013	-0,017
-728,167	800,000	0,026	0,079
-727,152	-200,000	0,022	0,089
-726,137	118,753	0,045	-0,040
-725,123	367,203	-0,033	-0,049
-724,108	195,287	-0,114	-0,126
-723,094	-200,000	0,025	-0,233
-722,079	31,422	-0,050	0,031
-721,064	609,569	0,052	0,094
-720,050	-200,000	0,023	-0,100
-719,035	-96,931	-0,110	-0,021
-718,021	466,828	-0,054	-0,088
-717,006	-200,000	-0,010	-0,043
-715,991	800,000	0,052	-0,124
-714,977	23,838	-0,195	-0,116
-713,962	329,764	-0,045	-0,063
-712,948	800,000	-0,028	-0,082
-711,933	68,821	0,037	-0,027
-710,918	352,221	0,018	-0,026
-709,904	162,681	-0,093	-0,095
-708,889	-200,000	0,023	-0,096
-707,875	800,000	0,040	-0,124
-706,860	800,000	0,037	0,100
-705,845	393,381	-0,045	-0,068
-704,831	-25,919	-0,048	0,020
-703,816	172,505	0,107	0,111
-702,802	121,083	-0,042	0,038
-701,787	200,663	0,042	-0,046
-700,772	-200,000	-0,016	-0,092
-699,758	434,386	0,094	-0,148
-698,743	-200,000	0,004	-0,085
-697,729	800,000	0,048	0,104
-696,714	203,507	0,089	0,100
-695,699	800,000	0,026	0,073
-694,685	-69,998	-0,079	0,022
-693,670	-200,000	-0,015	0,085
-692,656	-200,000	-0,006	-0,098
-691,641	411,418	-0,057	0,087
-690,627	-59,356	0,112	0,035
-689,612	800,000	0,068	0,148
-688,597	347,761	-0,064	-0,092
-687,583	-200,000	0,004	-0,139
-686,568	-200,000	0,018	-0,109
-685,554	800,000	-0,042	-0,108
-684,539	-100,779	-0,163	-0,029
-683,524	-20,571	-0,083	0,037
-682,510	-200,000	0,021	0,082
-681,495	800,000	-0,032	0,075
-680,481	-46,416	-0,097	-0,034
-679,466	800,000	-0,027	-0,083
-678,451	-116,022	0,047	0,006
-677,437	435,710	-0,046	0,073
-676,422	761,426	0,088	-0,174
-675,408	-200,000	0,024	0,132
-674,393	800,000	-0,032	0,091
-673,378	43,193	-0,047	-0,031
-672,364	-200,000	0,060	-0,191
-671,349	-200,000	-0,011	0,080
-670,335	-200,000	-0,002	0,036
-669,320	-200,000	0,009	0,051
-668,305	314,001	-0,014	-0,020
-667,291	-200,000	-0,002	-0,065
-666,276	-200,000	-0,028	-0,143
-665,262	26,845	-0,113	-0,068
-664,247	800,000	-0,022	-0,070
-663,232	-59,237	-0,217	-0,067
-662,218	267,262	0,081	0,103
-661,203	-175,135	-0,080	-0,002
-660,189	6,484	0,090	-0,048
-659,174	-200,000	0,012	-0,137
-658,159	-102,164	-0,207	0,036
-657,145	800,000	0,060	-0,163
-656,130	644,238	0,049	0,091
-655,116	-200,000	-0,018	-0,063
-654,101	-91,011	0,097	-0,020
-653,086	-51,208	0,013	-0,004
-652,072	198,625	0,039	-0,043
-651,057	-200,000	-0,002	0,016
-650,043	428,275	0,020	0,031
-649,028	70,989	0,071	-0,053
-648,014	161,301	-0,047	0,047
-646,999	-200,000	-0,002	-0,063
-645,984	152,485	-0,069	0,068
-644,970	-162,365	-0,143	0,005
-643,955	127,104	-0,071	-0,065
-642,941	-72,006	-0,055	0,015
-641,926	-200,000	-0,002	-0,048
-640,911	-200,000	-0,007	0,027
-639,897	95,913	-0,075	0,062
-638,882	392,195	0,002	-0,002
-637,868	-22,889	-0,098	-0,043
-636,853	-139,701	-0,212	-0,016
-635,838	-200,000	-0,034	-0,138
-634,824	-200,000	-0,006	0,089
-633,809	-200,000	0,018	0,060
-632,795	-2,204	0,085	0,043
-631,780	16,283	0,111	-0,063
-630,765	-200,000	0,004	0,027
-629,751	54,432	-0,038	0,026
-628,736	-103,983	-0,060	-0,010
-627,722	-200,000	0,033	-0,213
-626,707	-200,000	-0,023	-0,104
-625,692	-96,363	0,118	0,022
-624,678	-12,630	-0,099	-0,046
-623,663	-40,565	0,097	0,036
-622,649	65,850	-0,045	-0,033
-621,634	62,687	-0,179	0,129
-620,619	-106,421	-0,096	-0,015
-619,605	317,098	0,017	0,023
-618,590	81,928	0,034	0,027
-617,576	800,000	0,018	0,055
-616,561	412,756	-0,032	0,049
-615,546	38,519	-0,168	-0,108
-614,532	800,000	-0,077	-0,159
-613,517	-200,000	0,022	0,081
-612,503	133,835	-0,051	0,048
-611,488	-29,619	0,116	0,048
-610,474	800,000	0,029	-0,075
-609,459	36,285	-0,105	-0,067
-608,444	-200,000	0,014	0,075
-607,430	-200,000	-0,022	0,145
-606,415	78,589	0,100	-0,077
-605,401	800,000	-0,048	0,150
-604,386	-29,712	0,079	0,032
-603,371	800,000	0,038	-0,081
-602,357	-84,432	0,138	-0,031
-601,342	-150,672	-0,167	-0,009
-600,328	41,392	-0,134	0,087
-599,313	375,204	-0,059	-0,087
-598,298	22,230	-0,023	0,014
-597,284	-200,000	0,003	-0,080
-596,269	-200,000	-0,029	-0,176
-595,255	-200,000	0,003	0,145
-594,240	-200,000	0,011	0,065
-593,225	130,975	-0,131	-0,121
-592,211	-137,595	-0,196	-0,016
-591,196	-200,000	-0,002	-0,073
-590,182	-200,000	-0,006	-0,065
-589,167	-29,605	-0,137	0,056
-588,152	179,553	0,041	0,043
-587,138	62,162	0,073	-0,052
-586,123	19,819	-0,121	-0,070
-585,109	-86,515	0,065	0,014
-584,094	-76,117	-0,143	0,036
-583,079	-72,615	0,199	0,053
-582,065	-166,649	-0,065	0,002
-581,050	800,000	0,030	-0,083
-580,036	-81,427	-0,052	-0,012
-579,021	27,037	0,093	-0,056
-578,006	134,135	-0,043	-0,040
-576,992	1,910	0,129	-0,067
-575,977	-52,394	-0,122	-0,040
-574,963	145,180	-0,055	0,053
-573,948	-110,899	-0,018	-0,003
-572,934	118,018	-0,125	-0,111
-571,919	-0,828	-0,052	-0,026
-570,904	109,417	-0,040	0,035
-569,890	-2,865	-0,120	0,060
-568,875	-200,000	0,013	-0,130
-567,861	54,978	0,164	0,114
-566,846	-93,777	0,114	-0,022
-565,831	-55,185	-0,032	0,010
-564,817	16,954	-0,075	0,043
-563,802	-94,525	-0,029	-0,006
-562,788	-200,000	0,012	-0,107
-561,773	412,769	-0,030	0,047
-560,758	153,795	0,091	0,090
-559,744	-42,717	0,017	0,006
-558,729	61,383	-0,055	0,039
-557,715	-80,598	-0,156	0,037
-556,700	800,000	-0,098	-0,257
-555,685	390,936	-0,050	-0,076
-554,671	-31,887	0,049	0,020
-553,656	-134,813	0,086	0,007
-552,642	-200,000	0,022	0,092
-551,627	-79,697	0,111	-0,027
-550,612	-98,932	-0,072	-0,013
-549,598	175,395	-0,031	-0,033
-548,583	-69,075	-0,052	0,014
-547,569	55,272	0,032	-0,022
-546,554	-200,000	-0,013	0,054
-545,539	90,904	0,079	0,064
-544,525	800,000	0,021	-0,058
-543,510	-200,000	0,013	-0,140
-542,496	-200,000	-0,012	0,041
-541,481	673,294	-0,029	-0,055
-540,466	-99,868	-0,062	-0,011
-539,452	-54,755	-0,073	0,024
-538,437	-200,000	0,017	0,133
-537,423	436,868	0,010	-0,015
-536,408	-200,000	0,044	0,184
-535,393	-200,000	0,013	0,051
-534,379	254,966	0,060	0,074
-533,364	217,328	-0,056	0,065
-532,350	272,730	0,074	0,094
-531,335	-105,200	0,073	0,012
-530,321	-117,991	-0,118	-0,015
-529,306	-200,000	-0,014	-0,117
-528,291	-58,804	0,131	0,040
-527,277	-105,900	-0,076	-0,012
-526,262	800,000	-0,048	-0,112
-525,248	-200,000	-0,006	-0,110
-524,233	-87,316	0,177	0,038
-523,218	-89,529	-0,106	0,022
-522,204	674,061	0,039	-0,073
-521,189	-17,942	-0,017	-0,008
-520,175	-200,000	0,019	-0,064
-519,160	35,963	-0,168	-0,106
-518,145	-167,952	-0,166	-0,005
-517,131	-108,876	-0,024	0,004
-516,116	267,182	-0,028	-0,035
-515,102	-60,343	0,091	0,028
-514,087	-103,749	0,043	-0,007
-513,072	409,611	0,058	-0,089
-512,058	-200,000	0,006	-0,205
-511,043	66,314	0,125	-0,091
-510,029	-20,050	-0,034	0,015
-509,014	357,568	0,052	0,075
-507,999	221,248	-0,068	0,078
-506,985	249,748	-0,068	-0,083
-505,970	800,000	0,003	-0,009
-504,956	-3,370	-0,102	-0,051
-503,941	-63,338	0,194	0,057
-502,926	111,822	-0,022	0,019
-501,912	40,645	-0,107	0,069
-500,897	-32,873	-0,096	0,038
-499,883	22,624	0,162	0,095
-498,868	800,000	-0,063	0,161
-497,853	-200,000	0,005	-0,042
-496,839	47,509	0,086	0,058
-495,824	0,210	0,035	0,018
-494,810	-140,705	0,023	-0,002
-493,795	-84,961	0,114	0,025
-492,781	285,775	0,023	0,029
-491,766	-58,971	-0,055	-0,017
-490,751	64,830	0,019	-0,014
-489,737	398,130	-0,053	-0,079
-488,722	-17,726	0,138	-0,062
-487,708	-200,000	0,009	-0,153
-486,693	-140,664	0,113	-0,008
-485,678	-102,959	-0,091	-0,015
-484,664	-75,158	0,029	0,007
-483,649	79,189	-0,087	-0,067
-482,635	-47,444	0,121	-0,042
-481,620	-9,638	0,056	0,027
-480,605	-4,265	0,100	-0,050
-479,591	147,665	0,039	0,038
-478,576	800,000	-0,061	0,160
-477,562	-125,042	0,058	-0,006
-476,547	-13,844	0,082	-0,038
-475,532	800,000	0,042	0,123
-474,518	678,890	0,061	0,115
-473,503	122,458	-0,008	0,007
-472,489	-83,123	-0,049	-0,011
-471,474	157,276	0,090	0,089
-470,459	-119,219	0,029	0,004
-469,445	179,114	-0,079	0,083
-468,430	-65,075	-0,064	-0,018
-467,416	-64,255	-0,044	-0,013
-466,401	-200,000	0,023	0,138
-465,386	-138,724	0,059	0,005
-464,372	-122,938	0,067	0,008
-463,357	52,930	-0,106	-0,072
-462,343	-200,000	0,014	-0,116
-461,328	800,000	-0,048	-0,124
-460,313	-200,000	0,004	0,124
-459,299	282,399	0,041	-0,053
-458,284	127,101	0,076	0,069
-457,270	-128,936	-0,146	0,015
-456,255	-31,932	-0,140	-0,056
-455,241	-50,636	-0,025	-0,008
-454,226	-48,130	-0,055	0,019
-453,211	-47,535	0,056	-0,019
-452,197	-200,000	-0,008	0,172
-451,182	-200,000	0,019	0,071
-450,168	-200,000	-0,013	0,055
-449,153	-44,798	0,034	0,012
-448,138	-200,000	0,013	-0,044
-447,124	556,470	0,050	-0,087
-446,109	3,128	0,032	-0,017
-445,095	-122,809	-0,069	-0,008
-444,080	-200,000	-0,024	0,149
-443,065	-36,337	0,150	0,058
-442,051	18,196	-0,198	-0,113
-441,036	643,806	0,040	0,073
-440,022	419,807	0,073	-0,113
-439,007	-40,171	0,219	0,081
-437,992	165,329	-0,088	0,089
-436,978	524,746	-0,004	0,006
-435,963	5,387	0,146	0,077
-434,949	-78,860	0,161	0,039
-433,934	-200,000	-0,015	-0,177
-432,919	-175,488	-0,048	0,001
-431,905	-13,112	0,027	-0,013
-430,890	-33,882	-0,038	-0,015
-429,876	116,532	0,064	0,056
-428,861	327,895	0,078	0,107
-427,846	-84,446	0,101	-0,023
-426,832	20,690	-0,028	-0,016
-425,817	638,487	-0,034	0,062
-424,803	800,000	-0,079	-0,171
-423,788	-31,609	-0,065	-0,026
-422,773	147,556	0,083	-0,080
-421,759	-8,789	0,026	-0,012
-420,744	-106,559	0,128	0,020
-419,730	-111,139	-0,154	-0,022
-418,715	-50,120	0,022	0,007
-417,701	-200,000	-0,006	-0,072
-416,686	800,000	0,018	0,035
-415,671	800,000	0,060	0,143
-414,657	-50,632	-0,140	-0,047
-413,642	-200,000	-0,004	0,191
-412,628	-174,311	-0,019	0,000
-411,613	571,432	-0,064	-0,112
-410,598	-74,611	0,075	0,019
-409,584	-13,522	0,068	0,032
-408,569	-30,083	0,149	0,060
-407,555	91,187	0,018	-0,014
-406,540	564,619	0,050	-0,086
-405,525	-16,087	-0,116	-0,053
-404,511	268,414	0,072	0,091
-403,496	-163,901	-0,117	-0,004
-402,482	800,000	-0,060	-0,123
-401,467	-200,000	-0,005	0,116
-400,452	316,697	0,116	0,157
-399,438	339,224	0,049	0,069
-398,423	654,908	0,058	-0,107
-397,409	-200,000	0,003	-0,011
-396,394	-76,033	-0,091	-0,023
-395,379	243,609	0,081	0,098
-394,365	306,956	-0,101	-0,135
-393,350	70,349	0,106	-0,078
-392,336	-200,000	0,005	0,024
-391,321	800,000	0,013	0,033
-390,306	34,589	-0,099	0,062
-389,292	144,095	-0,048	-0,046
-388,277	479,795	-0,026	0,042
-387,263	-92,726	0,084	-0,017
-386,248	325,312	0,089	0,122
-385,233	348,575	0,036	0,051
-384,219	-40,601	-0,032	-0,012
-383,204	372,558	-0,073	0,106
-382,190	-91,904	-0,109	0,022
-381,175	-200,000	0,001	-0,152
-380,160	156,699	-0,057	0,056
-379,146	345,837	0,048	0,068
-378,131	62,694	-0,016	-0,011
-377,117	-200,000	0,049	-0,158
-376,102	-91,763	-0,061	0,012
-375,088	-200,000	-0,032	-0,122
-374,073	-84,722	0,042	0,009
-373,058	-25,940	0,083	-0,035
-372,044	278,959	0,045	-0,058
-371,029	91,222	0,073	0,059
-370,015	-54,895	-0,059	-0,019
-369,000	-175,723	-0,089	0,002
-367,985	-69,109	0,020	0,005
-366,971	705,014	-0,057	-0,108
-365,956	-200,000	-0,004	-0,071
-364,942	-200,000	-0,009	0,112
-363,927	-200,000	0,010	0,131
-362,912	-200,000	-0,005	0,153
-361,898	158,015	0,020	-0,020
-360,883	-200,000	-0,036	-0,163
-359,869	372,953	0,101	0,147
-358,854	181,830	0,079	0,083
-357,839	212,328	-0,039	-0,044
-356,825	-85,010	0,096	-0,021
-355,810	38,275	-0,097	0,062
-354,796	-200,000	0,003	0,044
-353,781	-59,773	0,105	-0,032
-352,766	103,666	-0,078	-0,065
-351,752	194,258	0,065	0,070
-350,737	-123,938	0,162	-0,018
-349,723	-110,854	0,049	0,007
-348,708	64,442	-0,051	0,037
-347,693	576,971	-0,092	-0,161
-346,679	-200,000	-0,019	-0,121
-345,664	-200,000	-0,018	-0,175
-344,650	-113,235	0,128	0,018
-343,635	-150,896	-0,056	-0,003
-342,620	-151,727	0,085	-0,004
-341,606	-200,000	-0,015	0,063
-340,591	274,981	-0,050	0,063
-339,577	-200,000	0,009	-0,112
-338,562	800,000	-0,095	-0,208
-337,548	-78,534	-0,088	-0,021
-336,533	65,651	0,124	0,089
-335,518	388,136	-0,035	-0,052
-334,504	744,527	0,049	0,094
-333,489	-125,380	0,029	0,003
-332,475	800,000	0,031	-0,080
-331,460	-108,926	-0,019	0,003
-330,445	-1,076	-0,059	-0,030
-329,431	800,000	-0,032	0,089
-328,416	-100,044	0,127	0,022
-327,402	388,378	0,053	-0,078
-326,387	32,275	0,063	0,039
-325,372	294,644	-0,126	-0,164
-324,358	295,562	-0,052	-0,068
-323,343	597,338	0,030	-0,054
-322,329	-200,000	-0,006	-0,035
-321,314	428,995	0,018	-0,028
-320,299	-200,000	0,017	-0,081
-319,285	78,356	-0,039	-0,029
-318,270	-200,000	-0,007	0,030
-317,256	-60,719	0,053	0,016
-316,241	205,379	-0,054	0,060
-315,226	-70,398	-0,097	-0,026
-314,212	32,037	0,107	-0,065
-313,197	22,966	0,061	-0,035
-312,183	700,033	-0,016	-0,030
-311,168	-192,162	-0,008	0,000
-310,153	800,000	-0,046	-0,126
-309,139	50,383	-0,118	-0,079
-308,124	-7,607	-0,172	-0,083
-307,110	799,485	0,054	0,106
-306,095	800,000	0,048	0,102
-305,080	800,000	-0,008	-0,020
-304,066	143,695	0,138	-0,131
-303,051	590,935	0,003	0,005
-302,037	121,883	0,033	0,029
-301,022	19,903	0,118	0,068
-300,008	554,212	0,049	0,084
-298,993	73,468	-0,093	0,070
-297,978	206,184	0,057	0,063
-296,964	-200,000	0,000	-0,008
-295,949	305,506	-0,040	0,053
-294,935	189,430	-0,037	0,040
-293,920	-95,476	-0,068	0,013
-292,905	-26,385	0,139	0,058
-291,891	-200,000	0,004	0,164
-290,876	-132,211	0,078	-0,007
-289,862	251,766	0,053	0,065
-288,847	-200,000	-0,022	-0,077
-287,832	-155,672	-0,076	0,003
-286,818	161,541	0,028	-0,028
-285,803	-67,478	0,055	0,015
-284,789	-200,000	0,012	-0,054
-283,774	68,461	0,129	-0,094
-282,759	24,281	0,056	-0,033
-281,745	-200,000	0,013	-0,087
-280,730	800,000	0,033	-0,092
-279,716	-140,124	0,124	-0,009
-278,701	-141,770	0,073	-0,005
-277,686	-200,000	-0,019	-0,130
-276,672	508,899	-0,059	-0,098
-275,657	-200,000	0,013	0,122
-274,643	-49,694	0,080	-0,027
-273,628	42,648	-0,213	-0,138
-272,613	-6,198	0,129	0,062
-271,599	443,218	0,050	0,078
-270,584	-80,295	0,082	-0,019
-269,570	234,328	0,044	0,052
-268,555	358,857	-0,017	-0,024
-267,540	150,034	0,107	-0,103
-266,526	-63,761	-0,094	0,027
-265,511	800,000	0,034	-0,087
-264,497	-20,812	0,108	0,047
-263,482	166,423	0,097	-0,097
-262,467	-106,860	-0,117	-0,018
-261,453	218,663	0,074	0,085
-260,438	-200,000	0,015	-0,115
-259,424	371,658	0,030	-0,044
-258,409	205,716	-0,095	0,105
-257,395	36,347	0,059	-0,037
-256,380	-200,000	0,001	0,153
-255,365	-144,425	0,099	0,006
-254,351	76,901	-0,075	0,057
-253,336	495,626	0,048	-0,079
-252,322	-107,237	-0,306	-0,047
-251,307	109,379	-0,095	-0,081
-250,292	-200,000	0,005	-0,083
-249,278	-99,820	0,253	0,045
-248,263	-37,751	0,053	-0,020
-247,249	-200,000	-0,009	-0,084
-246,234	-200,000	-0,010	0,065
-245,219	800,000	-0,031	-0,061
-244,205	123,266	0,058	-0,052
-243,190	-20,604	-0,092	0,040
-242,176	323,368	-0,149	0,203
-241,161	355,635	0,080	0,114
-240,146	428,495	0,089	0,137
-239,132	-200,000	-0,001	0,059
-238,117	-200,000	0,027	-0,125
-237,103	800,000	0,041	-0,090
-236,088	-57,542	-0,165	0,051
-235,073	800,000	-0,043	0,093
-234,059	-200,000	0,012	0,048
-233,044	-113,673	-0,097	0,013
-232,030	800,000	0,068	0,147
-231,015	781,655	-0,022	-0,042
-230,000	-46,496	-0,037	0,013
-228,986	70,274	-0,104	0,076
-227,971	275,397	0,088	-0,112
-226,957	293,010	0,086	-0,111
-225,942	-200,000	0,028	-0,100
-224,927	113,114	0,065	0,056
-223,913	-200,000	0,014	-0,081
-222,898	767,285	0,040	0,078
-221,884	-13,992	-0,094	0,043
-220,869	-200,000	-0,029	-0,153
-219,855	-200,000	0,019	0,104
-218,840	-200,000	-0,023	0,183
-217,825	800,000	-0,055	0,161
-216,811	93,943	-0,083	-0,067
-215,796	-200,000	-0,008	-0,036
-214,782	-200,000	0,004	0,024
-213,767	800,000	-0,040	-0,093
-212,752	40,681	-0,059	-0,038
-211,738	800,000	0,051	0,123
-210,723	-92,891	0,076	-0,015
-209,709	577,683	-0,024	0,041
-208,694	223,011	-0,060	-0,068
-207,679	-62,640	0,085	0,025
-206,665	-97,274	0,147	0,027
-205,650	-8,436	-0,101	0,048
-204,636	800,000	-0,028	-0,065
-203,621	800,000	-0,057	0,141
-202,606	295,874	-0,048	0,062
-201,592	402,906	-0,057	-0,085
-200,577	-114,211	-0,097	0,013
-199,563	126,003	-0,029	-0,026
-198,548	35,359	0,043	-0,027
-197,533	-45,342	-0,053	-0,018
-196,519	-90,064	-0,066	-0,014
-195,504	3,863	-0,026	0,014
-194,490	800,000	0,008	-0,021
-193,475	-200,000	0,011	-0,141
-192,460	800,000	-0,041	0,106
-191,446	-158,342	0,079	-0,003
-190,431	-110,722	0,115	0,017
-189,417	265,863	0,123	0,153
-188,402	-40,356	-0,065	0,024
-187,387	334,343	-0,093	-0,128
-186,373	45,707	-0,060	-0,039
-185,358	800,000	-0,041	-0,098
-184,344	-120,442	-0,049	0,006
-183,329	-128,333	0,121	-0,012
-182,315	7,058	-0,072	0,038
-181,300	524,069	-0,069	-0,115
-180,285	-126,876	-0,077	0,008
-179,271	-200,000	0,006	0,022
-178,256	-200,000	-0,013	-0,050
-177,242	402,853	-0,034	0,051
-176,227	220,191	0,091	0,103
-175,212	-168,274	0,095	-0,003
-174,198	-29,525	-0,146	0,059
-173,183	-135,432	0,064	-0,005
-172,169	-148,867	-0,139	-0,008
-171,154	567,848	0,031	-0,054
-170,139	-200,000	0,044	0,164
-169,125	-200,000	0,016	0,243
-168,110	50,362	0,045	-0,030
-167,096	10,787	-0,063	0,034
-166,081	-55,553	-0,080	0,025
-165,066	-143,965	-0,024	0,002
-164,052	87,697	0,090	-0,070
-163,037	800,000	0,024	0,062
-162,023	610,228	0,100	0,178
-161,008	-200,000	-0,000	-0,009
-159,993	-20,651	0,118	-0,051
-158,979	-17,942	0,143	0,063
-157,964	161,748	-0,018	0,018
-156,950	-141,851	-0,209	-0,015
-155,935	559,937	0,110	0,190
-154,920	157,917	0,079	0,078
-153,906	-200,000	-0,007	0,063
-152,891	-200,000	-0,003	-0,030
-151,877	-103,649	-0,071	0,012
-150,862	74,843	0,082	-0,061
-149,847	39,529	-0,152	-0,096
-148,833	-200,000	0,002	0,084
-147,818	343,933	0,086	0,120
-146,804	800,000	-0,009	-0,019
-145,789	-200,000	0,012	0,173
-144,775	297,755	-0,066	0,085
-143,760	196,978	-0,062	-0,067
-142,745	697,098	0,030	-0,057
-141,731	380,237	-0,057	0,083
-140,716	252,522	0,072	0,087
-139,702	-200,000	-0,000	0,066
-138,687	800,000	-0,028	0,082
-137,672	-200,000	0,014	0,072
-136,658	38,588	-0,028	0,018
-135,643	411,377	-0,047	-0,071
-134,629	61,823	-0,094	-0,066
-133,614	89,206	-0,031	-0,024
-132,599	71,329	-0,011	-0,008
-131,585	45,258	-0,077	-0,050
-130,570	-81,092	-0,123	-0,029
-129,556	-200,000	0,006	-0,101
-128,541	-31,174	-0,061	-0,024
-127,526	-200,000	0,005	0,021
-126,512	-124,483	0,076	0,008
-125,497	-200,000	-0,002	0,089
-124,483	83,266	0,054	-0,042
-123,468	197,048	0,064	-0,070
-122,453	-134,273	-0,148	-0,013
-121,439	800,000	-0,097	-0,193
-120,424	800,000	-0,065	-0,176
-119,410	76,253	0,087	0,065
-118,395	-74,771	-0,062	0,016
-117,380	800,000	-0,024	0,061
-116,366	-200,000	-0,008	0,048
-115,351	800,000	-0,027	0,074
-114,337	-105,340	-0,222	-0,035
-113,322	-25,405	0,062	0,026
-112,307	800,000	-0,009	-0,029
-111,293	-188,827	0,070	-0,001
-110,278	-200,000	0,003	0,071
-109,264	-200,000	-0,011	0,087
-108,249	270,281	-0,120	-0,150
-107,234	300,417	-0,041	0,054
-106,220	-25,359	-0,086	-0,036
-105,205	200,117	-0,062	0,067
-104,191	-200,000	0,003	0,018
-103,176	450,297	0,011	0,017
-102,162	427,725	0,038	0,059
-101,147	178,498	0,158	-0,163
-100,132	-25,937	-0,151	-0,063
-99,118	-200,000	-0,006	0,045
-98,103	261,770	-0,075	0,092
-97,089	487,630	-0,050	0,080
-96,074	439,150	-0,076	0,118
-95,059	30,585	-0,095	0,057
-94,045	-200,000	-0,008	-0,115
-93,030	268,665	-0,085	-0,105
-92,016	474,169	-0,021	-0,034
-91,001	-200,000	0,026	-0,093
-89,986	-128,151	0,059	-0,006
-88,972	515,347	0,024	0,040
-87,957	541,645	0,033	-0,057
-86,943	97,275	-0,024	0,019
-85,928	61,291	-0,045	-0,031
-84,913	800,000	0,059	-0,119
-83,899	-200,000	0,019	-0,075
-82,884	-200,000	0,012	-0,054
-81,870	73,170	0,056	0,041
-80,855	-23,209	0,076	0,032
-79,840	800,000	-0,017	0,038
-78,826	-92,230	-0,009	0,002
-77,811	62,988	-0,124	-0,088
-76,797	-200,000	-0,009	-0,061
-75,782	-200,000	-0,006	-0,031
-74,767	24,049	0,213	0,124
-73,753	800,000	-0,061	0,143
-72,738	14,637	-0,102	0,056
-71,724	263,758	-0,065	0,081
-70,709	-44,243	0,015	-0,005
-69,694	-200,000	-0,006	0,021
-68,680	99,201	0,124	0,101
-67,665	58,295	0,003	0,002
-66,651	-200,000	-0,006	-0,042
-65,636	800,000	0,052	-0,119
-64,622	-200,000	-0,033	-0,174
-63,607	-200,000	0,002	-0,113
-62,592	96,061	0,137	0,111
-61,578	-200,000	-0,031	0,129
-60,563	44,607	-0,098	-0,063
-59,549	-93,345	0,134	0,026
-58,534	24,526	-1,925	-1,121
-57,519	575,600	-1,218	-2,107
-56,505	-200,000	-0,290	-4,409
-55,490	387,873	0,946	1,385
-54,476	800,000	5,037	11,594
-53,461	-200,000	20,793	328,176
-52,446	800,000	756,667	2319,775
-51,432	550,424	1661,389	2823,527
-50,417	73,502	1663,230	1227,707
-49,403	18,769	1536,552	865,791
-48,388	12,752	1459,170	793,092
-47,373	18,945	1449,881	817,733
-46,359	15,838	1439,240	796,921
-45,344	10,995	1435,387	771,696
-44,330	10,946	1433,111	770,212
-43,315	10,947	1431,284	769,205
-42,300	10,942	1429,472	768,173
-41,286	10,956	1428,299	767,582
-40,271	10,912	1427,187	766,744
-39,257	10,897	1425,767	765,879
-38,242	10,948	1424,766	765,552
-37,227	10,963	1423,521	764,922
-36,213	10,922	1422,502	764,153
-35,198	10,974	1421,297	763,720
-34,184	10,966	1420,403	763,170
-33,169	10,907	1419,056	762,140
-32,154	11,022	1417,853	762,003
-31,140	10,975	1416,793	761,182
-30,125	11,063	1415,706	760,981
-29,111	11,044	1414,402	760,161
-28,096	11,030	1413,199	759,422
-27,082	10,910	1412,150	758,263
-26,067	10,906	1411,111	757,655
-25,052	10,951	1410,042	757,264
-24,038	10,954	1409,012	756,696
-23,023	10,907	1408,173	755,995
-22,009	10,966	1406,894	755,553
-20,994	10,909	1406,054	754,808
-19,979	10,858	1405,385	754,178
-18,965	10,896	1404,085	753,627
-17,950	10,894	1403,160	753,092
-16,936	10,875	1402,491	752,616
-15,921	10,817	1401,533	751,801
-14,906	10,823	1400,486	751,238
-13,892	10,865	1399,481	750,862
-12,877	10,827	1398,852	750,321
-11,863	10,817	1397,986	749,778
-10,848	10,812	1397,006	749,202
-9,833	10,759	1396,235	748,512
-8,819	10,745	1395,555	748,054
-7,804	10,719	1394,686	747,440
-6,790	10,740	1393,575	746,910
-5,775	10,768	1392,281	746,316
-4,760	10,741	1391,359	745,666
-3,746	10,746	1390,642	745,278
-2,731	10,726	1389,900	744,758
-1,717	10,704	1389,034	744,164
-0,702	10,731	1386,933	743,129
0,313	14,783	1300,918	715,588
1,327	31,137	692,803	418,264
2,342	47,919	120,345	79,153
3,356	0,616	16,391	8,240
4,371	-6,281	3,451	1,655
5,386	-12,389	1,025	0,471
6,400	-200,000	0,056	0,385
7,415	-10,199	-0,201	-0,094
8,429	4,044	-0,273	-0,140
9,444	5,217	-0,352	-0,182
10,459	-36,318	-0,309	-0,117
11,473	-38,105	-0,400	-0,149
12,488	74,991	-0,309	-0,229
13,502	20,296	-0,371	-0,211
14,517	100,749	-0,320	-0,261
15,531	44,012	-0,286	-0,184
16,546	45,775	-0,297	-0,193
17,561	82,945	-0,398	-0,304
18,575	-21,622	-0,318	-0,136
19,590	52,284	-0,286	-0,192
20,604	168,706	-0,188	-0,188
21,619	113,988	-0,383	-0,328
22,634	13,276	-0,439	-0,239
23,648	241,708	-0,382	-0,451
24,663	130,291	-0,409	-0,368
25,677	167,532	-0,298	-0,298
26,692	204,929	-0,310	-0,339
27,707	74,758	-0,392	-0,290
28,721	-9,055	-0,358	-0,168
29,736	-62,537	-0,388	-0,113
30,750	123,752	-0,402	-0,355
31,765	109,604	-0,263	-0,222
32,780	159,852	-0,276	-0,270
33,794	53,594	-0,349	-0,235
34,809	-52,144	-0,437	-0,142
35,823	39,427	-0,490	-0,308
36,838	51,832	-0,464	-0,310
37,853	-11,765	-0,312	-0,143
38,867	-10,541	-0,440	-0,204
39,882	-75,814	-0,310	-0,077
40,896	-36,794	-0,375	-0,141
41,911	-53,612	-0,375	-0,120
42,926	38,560	-0,247	-0,154
43,940	44,575	-0,317	-0,204
44,955	94,735	-0,387	-0,309
45,969	298,828	-0,241	-0,312
46,984	-43,270	-0,264	-0,093
47,999	182,345	-0,316	-0,328
49,013	-25,494	-0,301	-0,125
50,028	61,961	-0,335	-0,234
51,042	302,170	-0,291	-0,378
52,057	108,898	-0,315	-0,265
53,071	82,597	-0,290	-0,221
54,086	48,229	-0,215	-0,141
55,101	8,473	-0,435	-0,229
56,115	45,866	-0,348	-0,226
57,130	6,237	-0,362	-0,188
58,144	71,276	-0,309	-0,225
59,159	42,685	-0,375	-0,239
60,174	-28,666	-0,382	-0,154
61,188	24,189	-0,323	-0,186
62,203	15,079	-0,381	-0,209
63,217	89,724	-0,278	-0,218
64,232	41,904	-0,302	-0,192
65,247	60,871	-0,196	-0,136
66,261	144,973	-0,252	-0,237
67,276	37,952	-0,430	-0,268
68,290	44,552	-0,368	-0,237
69,305	-21,731	-0,350	-0,149
70,320	97,631	-0,196	-0,158
71,334	103,268	-0,334	-0,275
72,349	33,020	-0,296	-0,179
73,363	-171,799	-0,339	0,008
74,378	-5,293	-0,476	-0,228
75,393	-2,602	-0,270	-0,132
76,407	-6,705	-0,335	-0,159
77,422	-42,434	-0,325	-0,115
78,436	-0,490	-0,354	-0,175
79,451	0,979	-0,314	-0,157
80,466	120,858	-0,231	-0,201
81,480	179,468	-0,174	-0,179
82,495	30,487	-0,169	-0,101
83,509	191,378	-0,276	-0,291
84,524	236,011	-0,153	-0,177
85,539	71,082	-0,282	-0,205
86,553	211,500	-0,210	-0,232
87,568	-152,516	-0,367	0,018
88,582	-40,004	-0,203	-0,074
89,597	119,866	-0,256	-0,222
90,611	-12,496	-0,156	-0,071
91,626	199,421	-0,203	-0,218
92,641	800,000	-0,098	-0,249
93,655	29,603	-0,189	-0,112
94,670	-58,419	-0,275	-0,083
95,684	166,729	-0,269	-0,267
96,699	17,944	-0,330	-0,183
97,714	33,001	-0,351	-0,212
98,728	-73,770	-0,218	-0,055
99,743	800,000	-0,054	-0,154
100,757	23,047	-0,183	-0,105
101,772	137,314	-0,306	-0,280
102,787	-54,992	-0,330	-0,103
103,801	-105,492	-0,283	-0,044
104,816	277,895	-0,190	-0,237
105,830	121,010	-0,205	-0,178
106,845	32,357	-0,230	-0,139
107,860	55,606	-0,231	-0,156
108,874	199,721	-0,238	-0,256
109,889	-12,989	-0,361	-0,163
110,903	67,157	-0,236	-0,168
111,918	195,029	-0,311	-0,330
112,933	119,364	-0,187	-0,162
113,947	200,052	-0,142	-0,152
114,962	-70,704	-0,227	-0,060
115,976	84,883	-0,275	-0,210
116,991	83,641	-0,306	-0,232
118,006	150,251	-0,277	-0,263
119,020	49,301	-0,233	-0,153
120,035	221,733	-0,172	-0,194
121,049	5,098	-0,236	-0,121
122,064	-154,196	-0,386	0,018
123,079	78,153	-0,281	-0,209
124,093	134,995	-0,257	-0,233
125,108	30,206	-0,308	-0,183
126,122	-117,595	-0,394	-0,049
127,137	-15,477	-0,254	-0,113
128,151	23,244	-0,169	-0,096
129,166	67,030	-0,277	-0,197
130,181	164,275	-0,168	-0,165
131,195	-30,446	-0,347	-0,136
132,210	-31,285	-0,247	-0,096
133,224	26,238	-0,319	-0,186
134,239	77,592	-0,248	-0,184
135,254	-103,318	-0,273	0,044
136,268	242,164	-0,139	-0,162
137,283	-87,909	-0,295	0,061
138,297	3,342	-0,334	-0,169
139,312	-34,082	-0,356	-0,136
140,327	407,834	-0,153	-0,226
141,341	17,329	-0,208	-0,115
142,356	7,629	-0,149	-0,078
143,370	-121,898	-0,208	-0,024
144,385	97,263	-0,365	-0,291
145,400	-167,578	-0,228	-0,006
146,414	-14,558	-0,263	-0,117
147,429	800,000	-0,154	-0,302
148,443	16,488	-0,264	-0,145
149,458	-57,391	-0,195	-0,059
150,473	391,508	-0,169	-0,245
151,487	144,514	-0,217	-0,202
152,502	-112,965	-0,355	-0,048
153,516	129,668	-0,291	-0,259
154,531	41,152	-0,309	-0,194
155,546	597,413	-0,123	-0,213
156,560	-9,169	-0,314	-0,145
157,575	286,522	-0,142	-0,178
158,589	800,000	-0,109	-0,223
159,604	286,506	-0,208	-0,261
160,619	-117,659	-0,323	-0,040
161,633	160,889	-0,193	-0,188
162,648	-2,287	-0,282	-0,137
163,662	-98,501	-0,278	-0,049
164,677	92,038	-0,093	-0,073
165,692	206,621	-0,282	-0,305
166,706	80,326	-0,230	-0,172
167,721	450,330	-0,095	-0,146
168,735	92,075	-0,194	-0,152
169,750	-116,588	-0,261	-0,033
170,764	-77,108	-0,219	-0,053
171,779	19,331	-0,252	-0,140
172,794	29,557	-0,188	-0,111
173,808	143,708	-0,232	-0,215
174,823	323,177	-0,102	-0,135
175,837	497,167	-0,189	-0,303
176,852	219,516	-0,189	-0,210
177,867	-38,992	-0,196	-0,071
178,881	72,116	-0,114	-0,082
179,896	800,000	-0,147	-0,302
180,910	14,950	-0,243	-0,131
181,925	141,703	-0,280	-0,258
182,940	477,426	-0,174	-0,274
183,954	133,765	-0,266	-0,239
184,969	-94,192	-0,227	-0,043
185,983	69,961	-0,165	-0,118
186,998	435,831	-0,179	-0,271
188,013	263,635	-0,164	-0,198
189,027	229,432	-0,252	-0,286
190,042	-80,913	-0,188	-0,043
191,056	27,787	-0,187	-0,109
192,071	77,821	-0,210	-0,155
193,086	-4,179	-0,163	-0,078
194,100	184,865	-0,088	-0,091
195,115	274,264	-0,168	-0,206
196,129	19,090	-0,265	-0,147
197,144	-121,988	-0,161	-0,018
198,159	524,010	-0,152	-0,248
199,173	256,524	-0,157	-0,188
200,188	61,304	-0,140	-0,097
201,202	6,834	-0,226	-0,116
202,217	224,844	-0,201	-0,225
203,232	-200,000	-0,080	-0,279
204,246	126,206	-0,253	-0,222
205,261	71,816	-0,255	-0,184
206,275	61,508	-0,225	-0,155
207,290	230,563	-0,154	-0,175
208,304	110,214	-0,157	-0,131
209,319	-6,647	-0,202	-0,095
210,334	250,232	-0,216	-0,255
211,348	412,194	-0,048	-0,070
212,363	109,451	-0,338	-0,281
213,377	-64,746	-0,303	-0,084
214,392	190,121	-0,173	-0,180
215,407	-200,000	-0,003	-0,183
216,421	389,312	-0,067	-0,096
217,436	130,057	-0,209	-0,185
218,450	181,258	-0,183	-0,187
219,465	800,000	-0,045	-0,094
220,480	800,000	-0,072	-0,207
221,494	-179,389	-0,192	-0,003
222,509	3,480	-0,149	0,075
223,523	-135,309	-0,100	-0,008
224,538	-53,370	-0,134	-0,042
225,553	35,681	-0,277	-0,168
226,567	482,739	-0,226	-0,356
227,582	-15,039	-0,194	-0,086
228,596	800,000	-0,032	-0,085
229,611	-161,925	-0,068	-0,002
230,626	800,000	-0,066	-0,156
231,640	545,587	-0,088	-0,146
232,655	53,287	-0,151	-0,100
233,669	-124,235	-0,294	-0,031
234,684	800,000	-0,072	-0,186
235,699	158,858	-0,200	-0,192
236,713	74,500	-0,175	0,127
237,728	53,013	-0,248	-0,163
238,742	216,612	-0,276	-0,304
239,757	100,026	-0,259	-0,207
240,772	800,000	-0,075	-0,149
241,786	265,019	-0,216	-0,261
242,801	109,761	-0,159	-0,132
243,815	-118,428	-0,177	-0,021
244,830	-108,941	-0,111	-0,016
245,844	342,412	-0,103	-0,140
246,859	542,776	-0,161	-0,266
247,874	361,619	-0,169	-0,234
248,888	272,050	-0,174	-0,212
249,903	-200,000	-0,037	-0,121
250,917	44,640	-0,185	-0,117
251,932	-33,452	-0,089	-0,034
252,947	102,014	-0,210	-0,169
253,961	800,000	-0,148	-0,285
254,976	410,594	-0,155	-0,227
255,990	146,161	-0,115	-0,107
257,005	-190,315	-0,110	0,001
258,020	-129,490	-0,204	-0,019
259,034	365,642	-0,142	-0,198
260,049	800,000	-0,051	-0,134
261,063	98,041	-0,188	-0,149
262,078	166,107	-0,161	-0,158
263,093	35,793	-0,169	-0,102
264,107	471,264	-0,147	-0,228
265,122	719,499	-0,104	-0,192
266,136	245,765	-0,058	-0,067
267,151	-28,375	-0,182	0,072
268,166	482,628	-0,087	-0,137
269,180	38,608	-0,204	-0,125
270,195	-102,618	-0,181	0,029
271,209	59,703	-0,219	-0,149
272,224	253,398	-0,084	-0,099
273,239	-82,103	-0,176	-0,039
274,253	-82,718	-0,178	-0,039
275,268	-76,567	-0,132	-0,032
276,282	589,642	-0,073	-0,124
277,297	173,927	-0,115	-0,115
278,312	174,247	-0,237	-0,236
279,326	-13,939	-0,201	-0,089
280,341	-25,419	-0,123	-0,050
281,355	-21,958	-0,293	-0,122
282,370	508,947	-0,152	-0,244
283,384	183,946	-0,136	-0,139
284,399	-40,650	-0,189	-0,067
285,414	409,469	-0,114	-0,167
286,428	5,439	0,027	-0,013
287,443	38,546	-0,237	-0,145
288,457	533,032	-0,073	-0,119
289,472	-49,029	-0,187	-0,061
290,487	-85,092	-0,142	-0,030
291,501	-39,874	-0,143	-0,051
292,516	418,411	-0,086	-0,126
293,530	-90,455	-0,130	0,026
294,545	61,456	-0,187	-0,128
295,560	211,124	-0,068	-0,073
296,574	525,609	-0,099	-0,161
297,589	-20,154	-0,195	-0,082
298,603	274,443	-0,128	-0,156
299,618	303,742	-0,151	-0,192
300,633	3,461	-0,125	-0,063
301,647	180,488	0,067	-0,068
302,662	126,544	-0,117	-0,102
303,676	-71,959	-0,127	-0,032
304,691	109,437	-0,199	-0,164
305,706	118,606	-0,185	-0,157
306,720	113,278	-0,091	-0,076
307,735	800,000	-0,094	-0,202
308,749	-200,000	-0,021	-0,172
309,764	-36,585	-0,193	-0,071
310,779	-87,849	-0,166	0,034
311,793	200,747	-0,131	-0,138
312,808	800,000	-0,087	-0,173
313,822	-17,334	-0,277	-0,119
314,837	396,870	-0,134	-0,193
315,852	305,298	-0,172	-0,220
316,866	-84,832	-0,186	0,040
317,881	-200,000	-0,042	-0,148
318,895	800,000	-0,062	-0,174
319,910	18,092	-0,089	-0,049
320,925	-200,000	-0,046	-0,142
321,939	534,329	-0,149	-0,244
322,954	193,813	-0,157	-0,163
323,968	101,918	-0,102	-0,082
324,983	-54,533	-0,055	-0,017
325,997	22,867	-0,147	-0,082
327,012	287,247	-0,120	-0,149
328,027	297,325	-0,170	-0,214
329,041	112,879	-0,082	-0,068
330,056	-141,436	-0,129	-0,009
331,070	-200,000	0,001	-0,049
332,085	13,330	-0,161	-0,085
333,100	-101,667	-0,100	-0,016
334,114	-200,000	-0,019	-0,067
335,129	204,268	-0,180	-0,191
336,143	165,321	-0,102	-0,099
337,158	238,324	-0,135	-0,154
338,173	-200,000	-0,079	0,000
339,187	-56,420	-0,040	0,012
340,202	-77,059	-0,136	-0,032
341,216	409,877	-0,128	-0,186
342,231	-200,000	-0,006	-0,085
343,246	287,019	-0,108	-0,134
344,260	346,994	-0,133	-0,180
345,275	-200,000	0,021	0,072
346,289	69,304	-0,130	-0,092
347,304	413,893	-0,115	-0,168
348,319	371,420	-0,204	-0,284
349,333	16,091	-0,111	-0,060
350,348	333,673	-0,146	-0,194
351,362	170,528	-0,144	-0,142
352,377	-25,668	-0,198	0,079
353,392	74,952	-0,142	-0,102
354,406	-147,058	-0,202	0,012
355,421	209,220	1306,887	1401,477
356,435	161,017	1466,652	1401,965
