DTS Sentinel unit serial number:	SN410029Multiplexer serial number:	ORYXHardware model number:	OX2-SRSoftware version number:	ORYX F/W v4,00 Oryx Data Collector v3.7.2.0data status	okinstallation	B3 Nyhavnadifferential loss correction	single-endedforward channel	channel 1reverse channel	N/Adate	2023/12/01time	04:02:30forward acquisition time	300,00reverse acquisition time	0,00gamma	499,1914k internal	0,3212k external	0,3212temperature offset calibration	1,0000default loss term (dB/km)	0,3820temperature slope calibration	1,0000multiplexer offset coefficient	1,0000multiplexer slope coefficient	1,0000fibre end	0,00T internal ref (°C)	8,16T ext. ref 1 (°C)	-6,92T ext. ref 2 (°C)	-7,06length (m)	temperature (°C)	Stokes	anti-Stokes-744,400	800,000	-0,070	-0,209
-743,385	800,000	-0,079	0,214
-742,371	375,251	-0,170	-0,252
-741,356	800,000	-0,105	0,257
-740,342	53,161	-0,185	-0,128
-739,327	-200,000	-0,073	0,454
-738,312	181,455	-0,126	-0,134
-737,298	429,141	-0,127	0,200
-736,283	-200,000	-0,021	-0,209
-735,269	-200,000	0,046	0,290
-734,254	366,698	-0,143	-0,209
-733,239	34,182	-0,212	0,134
-732,225	794,795	-0,090	-0,180
-731,210	39,642	0,172	0,111
-730,196	139,414	-0,017	0,016
-729,181	63,760	-0,034	-0,025
-728,167	-151,800	-0,046	0,002
-727,152	279,000	-0,022	0,029
-726,137	-73,432	-0,116	-0,031
-725,123	131,133	0,043	0,040
-724,108	-50,158	-0,113	-0,038
-723,094	-200,000	0,038	-0,143
-722,079	-200,000	-0,016	-0,214
-721,064	-50,283	-0,055	0,019
-720,050	184,862	-0,069	0,074
-719,035	-169,315	-0,092	0,002
-718,021	429,129	-0,061	-0,096
-717,006	800,000	-0,066	0,181
-715,991	204,686	-0,065	-0,073
-714,977	-6,648	0,028	-0,014
-713,962	-140,028	-0,020	0,002
-712,948	-200,000	0,034	-0,109
-711,933	254,537	0,086	0,107
-710,918	800,000	0,029	-0,085
-709,904	118,346	-0,076	0,068
-708,889	800,000	-0,068	-0,185
-707,875	-200,000	0,006	-0,044
-706,860	29,650	-0,125	-0,077
-705,845	-174,694	0,120	0,002
-704,831	34,316	-0,109	-0,069
-703,816	800,000	-0,015	0,032
-702,802	-200,000	-0,047	-0,186
-701,787	-200,000	-0,039	-0,164
-700,772	-101,761	-0,069	0,012
-699,758	432,048	0,064	-0,101
-698,743	42,695	0,056	-0,037
-697,729	272,721	0,011	-0,014
-696,714	800,000	0,093	-0,222
-695,699	800,000	0,039	-0,082
-694,685	530,413	-0,019	-0,032
-693,670	-200,000	-0,006	-0,079
-692,656	242,108	0,076	-0,092
-691,641	800,000	-0,036	-0,114
-690,627	-200,000	0,005	0,031
-689,612	17,080	0,064	0,037
-688,597	-200,000	-0,021	0,112
-687,583	-200,000	-0,032	-0,168
-686,568	-200,000	0,048	-0,174
-685,554	50,050	-0,042	-0,029
-684,539	-41,696	-0,034	-0,012
-683,524	-200,000	-0,020	0,128
-682,510	50,587	0,114	0,078
-681,495	-200,000	-0,001	-0,082
-680,481	-200,000	0,019	-0,131
-679,466	-200,000	-0,030	-0,211
-678,451	-142,592	-0,085	-0,006
-677,437	-200,000	-0,019	-0,079
-676,422	179,604	-0,018	-0,019
-675,408	4,692	-0,103	-0,055
-674,393	-93,449	0,072	0,014
-673,378	234,668	-0,069	-0,082
-672,364	-200,000	0,018	-0,117
-671,349	-200,000	-0,031	-0,192
-670,335	-57,438	0,098	-0,031
-669,320	-135,831	0,113	0,010
-668,305	-101,990	-0,180	0,031
-667,291	-200,000	-0,012	0,054
-666,276	31,477	-0,044	0,028
-665,262	-200,000	-0,018	-0,059
-664,247	198,007	0,043	-0,048
-663,232	-150,876	0,147	0,008
-662,218	800,000	0,064	-0,138
-661,203	187,143	-0,038	0,041
-660,189	-200,000	0,021	-0,159
-659,174	-102,207	0,064	0,011
-658,159	116,784	-0,124	-0,110
-657,145	-200,000	0,004	-0,069
-656,130	152,289	0,137	0,135
-655,116	137,222	0,092	-0,087
-654,101	261,156	0,010	-0,013
-653,086	800,000	-0,067	0,190
-652,072	226,967	-0,080	-0,094
-651,057	-124,890	-0,062	-0,007
-650,043	800,000	0,107	-0,219
-649,028	-200,000	-0,012	-0,097
-648,014	590,194	0,097	0,173
-646,999	-200,000	0,007	0,118
-645,984	-96,710	-0,127	0,024
-644,970	-122,670	-0,092	-0,011
-643,955	56,454	0,067	-0,047
-642,941	-200,000	-0,004	0,013
-641,926	502,478	0,028	-0,047
-640,911	-200,000	-0,018	-0,133
-639,897	-148,408	0,069	0,004
-638,882	2,348	0,081	0,042
-637,868	490,248	0,026	-0,043
-636,853	800,000	0,028	-0,059
-635,838	4,061	-0,135	-0,071
-634,824	-200,000	-0,009	-0,080
-633,809	132,765	-0,028	-0,026
-632,795	-36,520	0,079	0,031
-631,780	-200,000	-0,001	0,076
-630,765	800,000	-0,062	0,129
-629,751	164,469	-0,095	-0,097
-628,736	800,000	-0,064	0,141
-627,722	-64,462	0,038	0,011
-626,707	-200,000	0,005	0,016
-625,692	4,361	0,048	0,025
-624,678	299,332	0,081	0,107
-623,663	-200,000	0,023	0,087
-622,649	-120,727	-0,141	0,017
-621,634	401,391	-0,008	0,013
-620,619	312,398	-0,092	0,125
-619,605	136,504	0,041	0,038
-618,590	-200,000	-0,018	0,075
-617,576	170,702	-0,052	0,054
-616,561	800,000	-0,019	0,042
-615,546	231,140	-0,018	-0,021
-614,532	71,029	-0,028	-0,021
-613,517	653,343	0,038	0,071
-612,503	73,563	-0,074	-0,056
-611,488	221,814	0,056	-0,065
-610,474	267,046	-0,058	0,074
-609,459	-200,000	0,004	0,016
-608,444	-200,000	0,018	-0,114
-607,430	-65,911	0,034	-0,010
-606,415	643,355	0,009	-0,016
-605,401	47,775	0,014	-0,009
-604,386	800,000	0,012	-0,037
-603,371	362,795	-0,055	0,080
-602,357	-200,000	0,018	0,137
-601,342	-90,021	-0,083	-0,017
-600,328	-200,000	0,002	0,065
-599,313	80,807	-0,112	-0,087
-598,298	-200,000	0,005	0,058
-597,284	-54,197	-0,153	0,050
-596,269	-118,523	0,145	-0,018
-595,255	-151,702	-0,143	0,007
-594,240	15,290	0,055	-0,031
-593,225	800,000	0,019	0,052
-592,211	17,001	-0,014	-0,008
-591,196	-125,987	-0,081	-0,009
-590,182	-77,347	-0,083	0,021
-589,167	85,792	0,026	0,021
-588,152	31,180	-0,057	0,035
-587,138	800,000	-0,011	0,030
-586,123	-97,822	-0,136	-0,025
-585,109	-200,000	-0,034	-0,108
-584,094	32,380	-0,037	-0,023
-583,079	189,274	0,026	-0,028
-582,065	-75,618	0,123	0,031
-581,050	-86,708	0,096	-0,021
-580,036	-200,000	-0,001	-0,192
-579,021	-34,645	-0,021	-0,008
-578,006	-143,495	0,020	-0,001
-576,992	-68,741	-0,007	-0,002
-575,977	262,310	-0,058	-0,072
-574,963	-200,000	0,003	-0,162
-573,948	-200,000	-0,025	0,131
-572,934	-109,210	-0,036	-0,005
-571,919	-200,000	-0,001	0,066
-570,904	800,000	-0,023	0,061
-569,890	-200,000	0,033	-0,205
-568,875	-186,485	0,067	0,001
-567,861	133,032	0,101	-0,094
-566,846	286,560	-0,020	-0,026
-565,831	-200,000	-0,016	0,062
-564,817	146,242	-0,057	0,055
-563,802	-200,000	0,012	-0,152
-562,788	-77,452	-0,033	-0,008
-561,773	136,564	-0,042	0,039
-560,758	-12,181	0,098	0,046
-559,744	328,908	-0,050	-0,069
-558,729	-113,994	0,139	0,019
-557,715	-200,000	0,027	-0,109
-556,700	149,382	0,030	0,029
-555,685	399,232	0,032	0,048
-554,671	-27,082	-0,031	-0,013
-553,656	-165,399	0,062	-0,002
-552,642	206,976	-0,087	0,098
-551,627	800,000	-0,042	0,102
-550,612	502,136	0,051	-0,085
-549,598	-53,732	-0,041	0,013
-548,583	302,568	-0,104	-0,139
-547,569	-200,000	0,021	0,127
-546,554	-63,582	-0,138	-0,040
-545,539	-116,566	0,109	0,014
-544,525	-132,849	-0,109	0,010
-543,510	-200,000	-0,001	0,041
-542,496	70,582	0,053	-0,039
-541,481	-200,000	0,004	-0,090
-540,466	800,000	0,047	-0,096
-539,452	83,192	-0,056	0,044
-538,437	-131,976	-0,027	0,003
-537,423	287,509	0,031	0,041
-536,408	-131,842	-0,154	0,014
-535,393	-200,000	-0,012	0,073
-534,379	800,000	-0,019	-0,049
-533,364	800,000	-0,049	-0,100
-532,350	389,048	-0,039	-0,059
-531,335	-56,638	0,128	-0,041
-530,321	-200,000	0,033	0,153
-529,306	-200,000	-0,007	0,098
-528,291	-50,609	-0,174	-0,059
-527,277	-45,879	0,173	-0,061
-526,262	124,071	-0,099	-0,090
-525,248	120,836	0,086	-0,077
-524,233	-143,953	0,034	0,002
-523,218	-200,000	-0,006	-0,056
-522,204	-200,000	0,004	0,045
-521,189	-40,528	-0,012	-0,005
-520,175	800,000	0,030	-0,070
-519,160	-115,684	-0,053	-0,007
-518,145	-26,610	0,062	-0,026
-517,131	-91,441	-0,143	-0,029
-516,116	-200,000	0,014	0,086
-515,102	743,119	0,037	-0,072
-514,087	58,296	0,078	0,055
-513,072	117,776	-0,094	-0,083
-512,058	-155,614	-0,114	-0,005
-511,043	-200,000	0,010	-0,043
-510,029	-200,000	-0,004	-0,072
-509,014	-35,111	0,056	-0,022
-507,999	-144,859	0,179	0,012
-506,985	-9,199	-0,043	-0,020
-505,970	-200,000	-0,001	0,012
-504,956	91,831	0,035	0,029
-503,941	106,500	0,084	0,072
-502,926	-200,000	-0,015	0,057
-501,912	283,782	0,029	-0,037
-500,897	-200,000	0,010	-0,033
-499,883	-200,000	0,004	-0,054
-498,868	44,064	0,025	-0,016
-497,853	-187,688	-0,092	-0,001
-496,839	14,832	-0,050	0,028
-495,824	756,487	-0,081	0,159
-494,810	533,614	0,068	0,116
-493,795	-169,598	-0,067	-0,002
-492,781	-45,922	-0,044	0,016
-491,766	100,808	0,053	0,045
-490,751	-200,000	-0,029	0,102
-489,737	800,000	0,038	-0,093
-488,722	-200,000	0,002	0,030
-487,708	436,444	0,071	0,111
-486,693	-200,000	0,028	0,162
-485,678	-200,000	0,013	-0,070
-484,664	-200,000	0,000	-0,105
-483,649	314,300	0,071	-0,096
-482,635	-200,000	-0,027	-0,100
-481,620	-200,000	0,002	0,057
-480,605	800,000	-0,071	0,166
-479,591	163,783	0,072	0,073
-478,576	-14,947	0,043	-0,020
-477,562	-200,000	-0,047	-0,207
-476,547	331,774	0,045	-0,062
-475,532	-79,779	-0,092	-0,022
-474,518	-200,000	0,027	-0,091
-473,503	-200,000	0,031	0,118
-472,489	239,711	0,007	-0,008
-471,474	-19,548	0,084	0,037
-470,459	-43,548	-0,027	-0,010
-469,445	-200,000	0,013	-0,045
-468,430	-187,139	-0,025	0,000
-467,416	-70,491	0,081	-0,022
-466,401	-96,924	0,140	-0,026
-465,386	147,888	0,089	0,086
-464,372	-200,000	-0,045	-0,166
-463,357	14,508	0,106	-0,059
-462,343	800,000	-0,080	-0,242
-461,328	-127,426	0,032	-0,003
-460,313	-175,810	-0,117	0,002
-459,299	-96,040	0,106	-0,020
-458,284	-200,000	-0,004	0,041
-457,270	-56,338	-0,052	-0,017
-456,255	194,338	-0,029	-0,031
-455,241	162,240	-0,060	-0,060
-454,226	-34,424	0,050	0,019
-453,211	89,515	-0,020	-0,016
-452,197	-149,384	0,133	0,007
-451,182	-200,000	0,009	0,046
-450,168	-67,794	-0,058	-0,016
-449,153	40,903	0,064	0,041
-448,138	800,000	0,051	-0,127
-447,124	-121,639	0,084	-0,010
-446,109	-200,000	0,004	-0,042
-445,095	514,723	0,083	0,139
-444,080	347,401	-0,051	0,073
-443,065	264,986	0,095	-0,119
-442,051	-147,253	-0,184	0,011
-441,036	800,000	0,048	0,104
-440,022	-29,092	-0,129	-0,053
-439,007	800,000	0,019	0,048
-437,992	-36,064	0,057	-0,022
-436,978	72,174	0,146	0,109
-435,963	-54,795	-0,087	0,028
-434,949	800,000	-0,040	0,106
-433,934	-158,311	0,071	-0,003
-432,919	406,002	-0,014	-0,022
-431,905	-101,247	-0,139	-0,024
-430,890	-110,876	0,266	-0,039
-429,876	-200,000	-0,014	0,057
-428,861	49,188	-0,070	0,047
-427,846	800,000	-0,047	-0,117
-426,832	-200,000	-0,002	-0,076
-425,817	-200,000	0,010	0,084
-424,803	-200,000	0,018	0,086
-423,788	416,997	0,065	0,100
-422,773	-200,000	0,027	-0,111
-421,759	-145,481	-0,061	-0,004
-420,744	-90,772	0,171	0,035
-419,730	-200,000	0,021	-0,152
-418,715	800,000	-0,006	-0,017
-417,701	-200,000	0,034	-0,159
-416,686	800,000	-0,013	0,035
-415,671	-166,669	0,096	-0,003
-414,657	715,301	0,014	0,027
-413,642	351,823	0,005	-0,008
-412,628	37,580	-0,068	-0,043
-411,613	-70,954	0,024	0,006
-410,598	-153,753	-0,056	0,003
-409,584	-200,000	0,002	-0,070
-408,569	-90,781	0,118	0,024
-407,555	50,559	0,019	0,013
-406,540	183,990	0,041	0,044
-405,525	800,000	0,013	0,037
-404,511	243,137	-0,055	-0,067
-403,496	800,000	0,036	0,086
-402,482	-111,114	0,138	-0,020
-401,467	466,582	-0,040	0,065
-400,452	183,577	0,070	0,074
-399,438	800,000	-0,046	-0,100
-398,423	18,202	-0,044	-0,025
-397,409	131,655	0,071	-0,065
-396,394	8,344	0,070	-0,037
-395,379	47,991	-0,058	0,039
-394,365	159,583	0,136	0,136
-393,350	-74,518	-0,078	-0,020
-392,336	548,370	0,030	0,052
-391,321	-200,000	0,029	-0,124
-390,306	-200,000	-0,007	-0,221
-389,292	11,349	-0,085	-0,046
-388,277	127,945	0,094	-0,086
-387,263	-200,000	0,002	0,029
-386,248	-96,472	-0,040	-0,007
-385,233	70,219	0,010	0,007
-384,219	-23,354	0,057	-0,024
-383,204	26,818	0,040	-0,024
-382,190	484,198	-0,029	0,047
-381,175	-200,000	0,003	0,070
-380,160	800,000	-0,017	-0,053
-379,146	161,070	0,039	0,039
-378,131	172,384	-0,037	-0,039
-377,117	-74,459	-0,021	-0,005
-376,102	269,482	-0,044	0,056
-375,088	-200,000	0,005	-0,052
-374,073	-185,476	0,012	0,000
-373,058	-54,874	0,127	0,041
-372,044	-80,120	0,095	-0,023
-371,029	-59,943	0,060	-0,018
-370,015	436,258	0,044	0,068
-369,000	433,816	0,024	-0,037
-367,985	-103,143	-0,037	0,006
-366,971	-200,000	-0,141	0,000
-365,956	-200,000	-0,012	-0,114
-364,942	800,000	0,095	0,195
-363,927	760,418	0,105	0,204
-362,912	800,000	0,019	-0,046
-361,898	127,356	-0,089	-0,081
-360,883	-79,287	-0,072	-0,017
-359,869	629,718	0,098	-0,178
-358,854	-116,859	0,068	0,009
-357,839	-6,263	-0,118	0,057
-356,825	-200,000	0,018	-0,086
-355,810	224,272	-0,065	-0,075
-354,796	399,137	0,054	-0,081
-353,781	11,209	-0,076	-0,041
-352,766	-34,196	-0,078	-0,030
-351,752	178,841	-0,013	0,014
-350,737	-81,232	-0,021	0,005
-349,723	-31,342	0,089	0,036
-348,708	-98,504	0,054	-0,010
-347,693	-154,956	-0,122	0,006
-346,679	-1,326	-0,097	-0,049
-345,664	-166,268	-0,023	0,001
-344,650	151,850	-0,040	-0,039
-343,635	-90,826	-0,063	0,013
-342,620	-200,000	-0,004	-0,019
-341,606	-144,131	0,107	0,007
-340,591	-41,410	0,026	0,010
-339,577	-56,739	-0,111	-0,035
-338,562	423,817	-0,098	0,151
-337,548	-62,125	0,030	-0,009
-336,533	-62,926	0,172	-0,050
-335,518	36,586	0,032	-0,020
-334,504	-200,000	-0,006	0,022
-333,489	-88,538	0,030	-0,006
-332,475	-200,000	-0,013	0,106
-331,460	391,968	-0,023	-0,035
-330,445	800,000	-0,018	0,042
-329,431	-127,812	0,006	-0,001
-328,416	10,107	0,068	-0,037
-327,402	176,873	0,098	0,102
-326,387	-22,301	-0,266	0,115
-325,372	195,810	0,031	-0,034
-324,358	-107,407	-0,061	-0,009
-323,343	313,832	0,082	-0,111
-322,329	-5,675	-0,021	-0,010
-321,314	800,000	-0,040	-0,124
-320,299	-4,537	0,041	0,020
-319,285	350,854	0,023	-0,033
-318,270	-114,223	-0,001	0,000
-317,256	-200,000	0,021	-0,095
-316,241	69,400	0,065	-0,048
-315,226	-200,000	0,009	0,039
-314,212	800,000	0,022	-0,058
-313,197	326,710	0,051	0,070
-312,183	-130,960	0,020	0,002
-311,168	-72,935	-0,097	0,025
-310,153	-62,295	0,048	0,014
-309,139	450,282	0,039	0,062
-308,124	307,849	0,087	0,116
-307,110	2,809	-0,041	-0,021
-306,095	-200,000	0,002	0,115
-305,080	41,136	-0,106	-0,068
-304,066	800,000	0,036	-0,105
-303,051	-20,584	-0,190	-0,083
-302,037	-200,000	-0,016	0,064
-301,022	497,012	0,033	-0,054
-300,008	-200,000	0,005	-0,078
-298,993	-200,000	0,022	0,215
-297,978	-20,772	-0,064	0,028
-296,964	-200,000	-0,032	0,114
-295,949	-200,000	0,005	-0,205
-294,935	778,281	0,041	-0,080
-293,920	47,472	0,048	0,032
-292,905	17,340	0,067	0,038
-291,891	-200,000	0,019	0,106
-290,876	387,232	0,074	0,109
-289,862	-200,000	-0,028	0,103
-288,847	73,576	-0,028	-0,021
-287,832	-200,000	-0,002	0,033
-286,818	-140,552	0,228	-0,017
-285,803	-200,000	0,042	-0,142
-284,789	-64,994	0,052	0,015
-283,774	31,193	-0,111	-0,068
-282,759	58,570	-0,075	-0,052
-281,745	800,000	0,010	-0,024
-280,730	-200,000	-0,009	-0,103
-279,716	75,061	-0,113	0,085
-278,701	-80,966	-0,034	0,008
-277,686	446,414	-0,041	0,064
-276,672	-69,463	0,025	0,007
-275,657	-200,000	0,007	0,050
-274,643	3,994	0,018	0,009
-273,628	166,596	0,125	-0,126
-272,613	800,000	0,033	-0,091
-271,599	800,000	-0,060	-0,146
-270,584	-200,000	-0,021	-0,117
-269,570	-124,718	0,004	-0,000
-268,555	133,509	-0,031	-0,029
-267,540	800,000	0,067	0,134
-266,526	-115,236	-0,111	-0,015
-265,511	-11,523	0,070	-0,033
-264,497	221,222	0,106	0,122
-263,482	-109,745	0,047	-0,007
-262,467	-32,370	-0,089	-0,035
-261,453	517,052	-0,014	0,023
-260,438	-200,000	-0,012	-0,055
-259,424	800,000	-0,014	-0,034
-258,409	-4,965	-0,084	0,041
-257,395	408,273	-0,035	0,052
-256,380	81,008	0,112	0,086
-255,365	79,737	0,034	0,026
-254,351	-200,000	0,018	0,140
-253,336	-200,000	0,020	-0,079
-252,322	-6,091	-0,179	-0,086
-251,307	752,124	0,032	0,061
-250,292	41,569	-0,118	-0,076
-249,278	-139,511	-0,018	0,001
-248,263	-84,424	0,072	-0,016
-247,249	82,893	0,043	0,033
-246,234	-125,432	0,037	-0,004
-245,219	-54,990	0,049	-0,016
-244,205	-58,892	-0,046	-0,014
-243,190	-149,002	0,131	0,007
-242,176	-200,000	-0,020	0,110
-241,161	112,384	0,064	-0,055
-240,146	800,000	0,036	0,090
-239,132	13,933	-0,048	-0,027
-238,117	800,000	-0,038	-0,117
-237,103	-200,000	0,000	-0,090
-236,088	670,355	-0,052	-0,096
-235,073	267,870	0,038	0,048
-234,059	-33,735	-0,068	0,026
-233,044	-200,000	-0,002	0,152
-232,030	-61,993	-0,080	-0,024
-231,015	108,739	-0,086	-0,073
-230,000	163,621	-0,013	-0,013
-228,986	-200,000	0,010	0,082
-227,971	-4,739	0,032	0,015
-226,957	-175,904	0,089	0,002
-225,942	-22,613	0,098	-0,042
-224,927	514,189	-0,089	0,148
-223,913	762,103	-0,031	0,060
-222,898	-58,625	-0,066	-0,020
-221,884	-90,343	-0,086	-0,017
-220,869	9,020	0,123	0,066
-219,855	-116,971	0,051	0,007
-218,840	-23,396	0,111	0,047
-217,825	116,370	0,092	0,080
-216,811	-200,000	0,003	0,085
-215,796	371,619	-0,066	-0,095
-214,782	-96,357	-0,003	-0,001
-213,767	-200,000	-0,029	0,104
-212,752	-98,322	0,075	0,014
-211,738	15,710	0,064	-0,036
-210,723	-200,000	-0,023	-0,184
-209,709	-200,000	0,004	-0,134
-208,694	53,179	-0,113	-0,077
-207,679	-200,000	-0,014	0,092
-206,665	-109,105	0,053	-0,008
-205,650	-44,790	0,047	0,016
-204,636	-1,147	0,032	0,016
-203,621	-200,000	-0,012	0,074
-202,606	327,714	0,121	-0,166
-201,592	-20,134	-0,129	0,056
-200,577	800,000	-0,008	-0,026
-199,563	229,574	0,032	-0,037
-198,548	108,380	0,153	0,130
-197,533	-48,648	-0,030	0,010
-196,519	324,563	0,090	0,122
-195,504	292,301	0,017	-0,022
-194,490	-200,000	-0,004	-0,037
-193,475	-200,000	0,006	-0,143
-192,460	-200,000	-0,003	0,036
-191,446	-200,000	-0,022	0,082
-190,431	-200,000	-0,019	0,104
-189,417	45,459	-0,097	-0,063
-188,402	-200,000	-0,014	-0,106
-187,387	-177,582	0,072	0,001
-186,373	411,080	-0,073	-0,109
-185,358	-200,000	-0,009	-0,058
-184,344	-12,672	-0,151	0,070
-183,329	-31,559	0,072	0,029
-182,315	-200,000	-0,015	-0,058
-181,300	393,874	-0,034	-0,050
-180,285	-200,000	-0,001	0,014
-179,271	-5,971	-0,155	-0,075
-178,256	144,964	-0,068	0,064
-177,242	630,987	0,010	0,018
-176,227	-200,000	0,004	0,019
-175,212	800,000	-0,072	0,175
-174,198	-172,032	-0,042	-0,001
-173,183	-200,000	0,014	0,069
-172,169	4,030	0,077	0,040
-171,154	255,969	-0,087	0,106
-170,139	-38,571	-0,065	0,024
-169,125	369,325	-0,071	0,101
-168,110	-200,000	-0,023	0,114
-167,096	683,297	-0,083	0,154
-166,081	-114,993	-0,125	-0,017
-165,066	100,310	0,062	-0,051
-164,052	-62,957	-0,144	0,042
-163,037	527,530	-0,005	-0,009
-162,023	-33,475	0,115	0,045
-161,008	-96,159	-0,176	0,033
-159,993	157,069	-0,062	0,061
-158,979	158,640	-0,062	-0,061
-157,964	800,000	0,027	0,060
-156,950	-132,020	-0,113	-0,010
-155,935	103,601	0,089	0,074
-154,920	91,280	0,164	0,130
-153,906	-133,512	0,062	0,005
-152,891	-111,879	-0,028	0,004
-151,877	94,695	-0,044	0,036
-150,862	-200,000	-0,023	-0,097
-149,847	575,778	0,062	-0,107
-148,833	616,247	0,028	-0,050
-147,818	800,000	0,005	-0,010
-146,804	800,000	-0,014	0,039
-145,789	477,212	-0,071	0,114
-144,775	-200,000	0,009	0,036
-143,760	-33,099	0,154	-0,060
-142,745	175,771	-0,077	-0,079
-141,731	5,090	0,052	0,027
-140,716	-200,000	-0,009	0,081
-139,702	800,000	-0,026	0,065
-138,687	-174,582	0,108	-0,002
-137,672	61,404	-0,030	0,021
-136,658	203,596	-0,036	0,040
-135,643	181,494	0,047	-0,049
-134,629	800,000	-0,036	0,096
-133,614	-66,467	0,086	0,024
-132,599	-168,527	0,078	0,002
-131,585	5,523	-0,085	0,044
-130,570	-27,905	-0,076	-0,031
-129,556	-188,985	-0,212	0,002
-128,541	-96,239	0,062	0,011
-127,526	-90,512	-0,040	0,008
-126,512	48,704	-0,060	-0,040
-125,497	-200,000	-0,005	0,128
-124,483	128,411	-0,029	-0,027
-123,468	-86,408	-0,092	-0,020
-122,453	122,379	-0,163	0,144
-121,439	-200,000	-0,010	0,045
-120,424	-49,111	-0,065	-0,022
-119,410	318,558	-0,080	-0,107
-118,395	-33,487	0,084	0,033
-117,380	181,914	0,073	0,076
-116,366	426,993	-0,030	0,046
-115,351	647,651	0,047	-0,085
-114,337	498,849	-0,127	-0,207
-113,322	-200,000	0,015	-0,112
-112,307	508,195	-0,026	0,043
-111,293	333,831	0,051	-0,070
-110,278	-200,000	0,050	0,230
-109,264	-158,542	0,150	-0,006
-108,249	9,485	0,041	-0,022
-107,234	89,516	0,058	-0,046
-106,220	-200,000	0,011	-0,069
-105,205	800,000	-0,032	0,077
-104,191	-10,802	0,100	0,047
-103,176	-82,233	0,068	0,016
-102,162	-200,000	-0,030	0,150
-101,147	-65,202	-0,066	-0,019
-100,132	-87,337	-0,129	0,027
-99,118	337,299	0,090	-0,124
-98,103	121,333	0,043	-0,038
-97,089	220,302	0,067	-0,076
-96,074	-79,353	-0,120	0,029
-95,059	-110,058	0,076	0,011
-94,045	23,134	-0,191	-0,110
-93,030	800,000	0,028	-0,070
-92,016	19,425	0,074	-0,042
-91,001	800,000	-0,017	0,041
-89,986	82,277	-0,064	0,049
-88,972	-151,176	0,131	0,007
-87,957	720,724	0,057	0,107
-86,943	335,749	0,031	0,042
-85,928	-200,000	0,029	0,107
-84,913	-71,171	-0,216	-0,057
-83,899	369,353	0,041	-0,059
-82,884	-43,911	0,115	-0,040
-81,870	-200,000	-0,004	0,083
-80,855	-200,000	0,026	-0,146
-79,840	800,000	-0,017	-0,047
-78,826	-19,111	-0,106	0,046
-77,811	-118,739	-0,122	0,015
-76,797	-87,043	-0,047	0,010
-75,782	-200,000	0,026	0,139
-74,767	-200,000	-0,004	0,102
-73,753	-76,306	-0,073	-0,018
-72,738	-2,305	-0,143	-0,070
-71,724	49,582	0,050	-0,033
-70,709	-200,000	0,013	-0,082
-69,694	-200,000	-0,004	-0,041
-68,680	357,643	0,016	-0,023
-67,665	-200,000	-0,012	-0,092
-66,651	-104,123	0,194	-0,032
-65,636	800,000	0,120	0,243
-64,622	556,737	-0,053	0,090
-63,607	-85,361	0,055	0,012
-62,592	-191,017	-0,094	0,001
-61,578	-38,782	0,075	0,028
-60,563	24,391	-0,067	-0,039
-59,549	-24,201	0,110	-0,046
-58,534	64,355	-2,201	-1,562
-57,519	621,466	-1,015	-1,809
-56,505	-200,000	-0,431	-4,608
-55,490	507,019	0,967	1,589
-54,476	800,000	5,394	11,770
-53,461	-200,000	22,253	346,469
-52,446	800,000	757,270	2298,617
-51,432	535,395	1644,568	2762,784
-50,417	68,365	1643,032	1186,447
-49,403	15,806	1520,486	841,590
-48,388	10,020	1446,225	772,693
-47,373	19,220	1438,894	812,592
-46,359	13,487	1427,274	778,940
-45,344	8,378	1423,257	752,550
-44,330	8,257	1421,386	750,958
-43,315	8,242	1419,697	749,966
-42,300	8,261	1417,877	749,064
-41,286	8,309	1416,530	748,550
-40,271	8,237	1415,387	747,578
-39,257	8,233	1414,320	746,966
-38,242	8,308	1412,888	746,533
-37,227	8,252	1412,040	745,792
-36,213	8,308	1410,396	745,158
-35,198	8,296	1409,268	744,475
-34,184	8,287	1408,563	744,030
-33,169	8,190	1407,405	742,934
-32,154	8,246	1406,324	742,595
-31,140	8,235	1405,035	741,835
-30,125	8,268	1403,840	741,330
-29,111	8,255	1402,559	740,565
-28,096	8,227	1401,582	739,886
-27,082	8,173	1400,431	738,997
-26,067	8,133	1399,341	738,208
-25,052	8,210	1398,082	737,873
-24,038	8,195	1397,316	737,369
-23,023	8,157	1396,498	736,733
-22,009	8,202	1395,256	736,255
-20,994	8,187	1394,277	735,639
-19,979	8,140	1393,282	734,870
-18,965	8,139	1392,553	734,450
-17,950	8,093	1391,643	733,727
-16,936	8,095	1390,463	733,085
-15,921	8,041	1389,622	732,364
-14,906	8,095	1388,605	732,048
-13,892	8,176	1387,564	731,846
-12,877	8,132	1386,940	731,283
-11,863	8,159	1385,987	730,875
-10,848	8,089	1385,306	730,166
-9,833	8,063	1384,488	729,587
-8,819	7,998	1383,681	728,833
-7,804	7,973	1382,718	728,179
-6,790	7,974	1381,619	727,576
-5,775	8,025	1380,472	727,178
-4,760	8,032	1379,471	726,655
-3,746	8,044	1378,452	726,146
-2,731	8,049	1377,675	725,727
-1,717	7,982	1376,908	724,988
-0,702	8,016	1375,064	724,147
0,313	12,012	1285,625	695,148
1,327	27,897	677,441	401,709
2,342	43,616	116,345	74,901
3,356	2,340	16,504	8,390
4,371	9,366	3,886	2,066
5,386	-8,821	1,389	0,654
6,400	800,000	0,330	0,707
7,415	-96,092	-0,202	-0,038
8,429	-85,172	-0,208	-0,045
9,444	80,182	-0,319	-0,242
10,459	99,607	-0,300	-0,244
11,473	141,612	-0,214	-0,200
12,488	34,206	-0,243	-0,149
13,502	-101,400	-0,350	-0,059
14,517	109,970	-0,408	-0,345
15,531	-51,855	-0,398	-0,130
16,546	54,840	-0,385	-0,261
17,561	81,824	-0,405	-0,309
18,575	-82,252	-0,153	-0,035
19,590	370,625	-0,172	-0,247
20,604	-91,275	-0,222	-0,044
21,619	117,457	-0,389	-0,337
22,634	74,152	-0,415	-0,307
23,648	49,944	-0,549	-0,364
24,663	50,876	-0,431	-0,287
25,677	102,783	-0,376	-0,309
26,692	63,213	-0,317	-0,223
27,707	68,035	-0,351	-0,252
28,721	68,066	-0,410	-0,295
29,736	89,803	-0,383	-0,300
30,750	44,599	-0,434	-0,280
31,765	101,750	-0,426	-0,349
32,780	95,728	-0,310	-0,249
33,794	-16,513	-0,246	-0,109
34,809	84,009	-0,344	-0,264
35,823	11,342	-0,416	-0,223
36,838	312,768	-0,311	-0,411
37,853	392,146	-0,298	-0,437
38,867	554,043	-0,312	-0,530
39,882	-58,515	-0,254	-0,077
40,896	80,013	-0,322	-0,243
41,911	-69,851	-0,376	-0,100
42,926	42,694	-0,336	-0,215
43,940	215,510	-0,316	-0,353
44,955	190,222	-0,344	-0,363
45,969	154,447	-0,400	-0,386
46,984	-21,293	-0,336	-0,144
47,999	12,414	-0,450	-0,243
49,013	38,131	-0,296	-0,184
50,028	86,695	-0,351	-0,272
51,042	94,617	-0,289	-0,231
52,057	306,066	-0,275	-0,360
53,071	191,562	-0,265	-0,281
54,086	4,349	-0,373	-0,191
55,101	-16,043	-0,362	-0,161
56,115	205,192	-0,296	-0,323
57,130	65,280	-0,325	-0,230
58,144	18,844	-0,436	-0,244
59,159	-7,121	-0,461	-0,219
60,174	429,276	-0,241	-0,367
61,188	1,455	-0,303	-0,152
62,203	19,417	-0,441	-0,248
63,217	147,970	-0,245	-0,232
64,232	135,653	-0,326	-0,298
65,247	8,720	-0,283	-0,149
66,261	92,906	-0,355	-0,281
67,276	155,634	-0,386	-0,373
68,290	35,215	-0,337	-0,207
69,305	74,077	-0,304	-0,224
70,320	175,923	-0,227	-0,231
71,334	142,893	-0,303	-0,282
72,349	12,463	-0,241	-0,130
73,363	-110,996	-0,369	-0,053
74,378	246,676	-0,286	-0,338
75,393	-17,610	-0,309	-0,136
76,407	153,190	-0,169	-0,163
77,422	43,841	-0,344	-0,220
78,436	-11,866	-0,262	-0,120
79,451	1,901	-0,284	-0,143
80,466	19,639	-0,316	-0,178
81,480	64,720	-0,306	-0,216
82,495	28,243	-0,338	-0,199
83,509	97,480	-0,257	-0,206
84,524	-1,517	-0,268	-0,132
85,539	79,229	-0,267	-0,200
86,553	62,795	-0,233	-0,163
87,568	0,817	-0,275	-0,137
88,582	188,276	-0,200	-0,209
89,597	61,116	-0,241	-0,167
90,611	415,995	-0,220	-0,329
91,626	102,375	-0,263	-0,215
92,641	-84,663	-0,315	-0,069
93,655	-9,075	-0,348	-0,162
94,670	25,221	-0,353	-0,204
95,684	-200,000	-0,072	-0,228
96,699	304,151	-0,180	-0,234
97,714	7,326	-0,343	-0,179
98,728	246,757	-0,134	-0,158
99,743	-158,054	-0,228	0,009
100,757	30,487	-0,279	-0,166
101,772	-105,802	-0,242	-0,038
102,787	-14,674	-0,385	-0,172
103,801	246,833	-0,260	-0,307
104,816	-43,526	-0,305	-0,107
105,830	-65,504	-0,309	-0,086
106,845	-58,797	-0,252	-0,076
107,860	-141,460	-0,280	-0,020
108,874	77,408	-0,408	-0,303
109,889	43,510	-0,299	-0,190
110,903	6,274	-0,269	-0,139
111,918	105,953	-0,187	-0,155
112,933	116,066	-0,155	-0,133
113,947	-93,110	-0,193	-0,037
114,962	-25,876	-0,294	-0,121
115,976	-120,189	-0,236	0,028
116,991	-65,274	-0,275	-0,077
118,006	-21,959	-0,233	-0,098
119,020	152,035	-0,143	-0,136
120,035	217,522	-0,193	-0,215
121,049	-70,204	-0,182	-0,048
122,064	-1,382	-0,253	-0,124
123,079	71,023	-0,229	-0,165
124,093	295,265	-0,180	-0,230
125,108	102,943	-0,254	-0,208
126,122	423,220	-0,194	-0,292
127,137	5,998	-0,286	-0,147
128,151	-51,126	-0,225	-0,073
129,166	209,510	-0,113	-0,124
130,181	137,621	-0,256	-0,234
131,195	-120,015	-0,330	-0,039
132,210	213,334	-0,130	-0,143
133,224	28,941	-0,297	-0,175
134,239	-58,204	-0,253	-0,076
135,254	117,265	-0,288	-0,247
136,268	59,718	-0,195	-0,134
137,283	144,260	-0,241	-0,225
138,297	155,092	-0,199	-0,191
139,312	67,858	-0,290	-0,206
140,327	800,000	-0,135	-0,327
141,341	108,014	-0,216	-0,179
142,356	243,869	-0,145	-0,170
143,370	-29,226	-0,281	-0,112
144,385	381,476	-0,221	-0,316
145,400	118,066	-0,369	-0,317
146,414	350,560	-0,268	-0,370
147,429	-40,080	-0,298	-0,108
148,443	118,574	-0,238	-0,205
149,458	599,540	-0,118	-0,205
150,473	-15,499	-0,196	-0,087
151,487	-59,166	-0,185	-0,055
152,502	188,862	-0,273	-0,284
153,516	44,692	-0,257	-0,164
154,531	54,753	-0,322	-0,216
155,546	251,670	-0,147	-0,175
156,560	30,203	-0,217	-0,128
157,575	783,679	-0,116	-0,222
158,589	41,644	-0,235	-0,148
159,604	87,145	-0,352	-0,271
160,619	369,138	-0,158	-0,224
161,633	58,283	-0,306	-0,208
162,648	-16,752	-0,341	-0,149
163,662	14,500	-0,131	-0,071
164,677	63,569	-0,290	-0,202
165,692	-134,582	-0,232	-0,019
166,706	119,476	-0,178	-0,153
167,721	-133,725	-0,343	-0,029
168,735	-140,553	-0,401	-0,028
169,750	225,824	-0,161	-0,181
170,764	117,773	-0,217	-0,185
171,779	-200,000	-0,007	-0,209
172,794	506,715	-0,100	-0,161
173,808	295,922	-0,159	-0,203
174,823	490,889	-0,098	-0,157
175,837	-25,053	-0,253	-0,104
176,852	-14,002	-0,203	-0,091
177,867	145,664	-0,194	-0,180
178,881	573,987	-0,105	-0,178
179,896	27,006	-0,257	-0,149
180,910	187,368	-0,155	-0,161
181,925	-35,423	-0,324	-0,122
182,940	320,220	-0,133	-0,176
183,954	-52,691	-0,292	-0,093
184,969	-10,420	-0,127	-0,058
185,983	90,486	-0,152	-0,118
186,998	-66,817	-0,199	-0,054
188,013	26,094	-0,301	-0,174
189,027	197,918	-0,229	-0,243
190,042	80,585	-0,158	-0,118
191,056	80,041	-0,217	-0,162
192,071	-5,489	-0,135	-0,064
193,086	111,685	-0,149	-0,125
194,100	-27,864	-0,200	-0,080
195,115	76,571	-0,146	-0,107
196,129	35,146	-0,247	-0,150
197,144	118,206	-0,180	-0,154
198,159	768,846	-0,093	-0,176
199,173	62,090	-0,276	-0,190
200,188	274,100	-0,106	-0,130
201,202	-27,049	-0,269	-0,108
202,217	216,690	-0,126	-0,139
203,232	-19,104	-0,150	-0,064
204,246	669,696	-0,174	-0,314
205,261	47,485	-0,153	-0,099
206,275	83,836	-0,283	-0,214
207,290	108,268	-0,248	-0,204
208,304	-120,016	-0,208	-0,024
209,319	71,802	-0,265	-0,191
210,334	-180,394	-0,347	0,005
211,348	28,256	-0,322	-0,188
212,363	800,000	-0,083	-0,209
213,377	721,142	-0,128	-0,237
214,392	212,181	-0,101	-0,110
215,407	-54,572	-0,194	-0,060
216,421	15,734	-0,151	-0,082
217,436	20,346	-0,175	-0,097
218,450	-29,644	-0,208	-0,082
219,465	101,379	-0,269	-0,217
220,480	265,865	-0,097	-0,117
221,494	-20,724	-0,263	-0,111
222,509	169,011	-0,093	-0,092
223,523	800,000	-0,055	-0,137
224,538	92,203	-0,199	-0,155
225,553	69,476	-0,212	-0,150
226,567	392,407	-0,245	-0,353
227,582	185,299	-0,137	-0,141
228,596	-2,420	-0,179	0,086
229,611	27,031	-0,137	-0,079
230,626	79,496	-0,130	-0,096
231,640	-100,622	-0,222	-0,038
232,655	62,517	-0,116	-0,080
233,669	261,006	-0,221	-0,264
234,684	59,070	-0,156	-0,106
235,699	27,886	-0,173	-0,100
236,713	-200,000	-0,026	-0,100
237,728	130,549	-0,156	-0,138
238,742	605,965	-0,125	-0,216
239,757	-32,201	-0,267	-0,103
240,772	-32,714	-0,244	-0,093
241,786	221,911	-0,125	-0,139
242,801	-91,783	-0,184	-0,036
243,815	-124,138	-0,180	-0,019
244,830	-81,509	-0,210	-0,047
245,844	11,510	-0,166	0,088
246,859	800,000	-0,117	-0,235
247,874	-31,171	-0,254	-0,098
248,888	49,939	-0,345	-0,224
249,903	-200,000	-0,074	-0,322
250,917	13,817	-0,125	-0,067
251,932	-100,916	-0,212	-0,036
252,947	-86,123	-0,294	-0,062
253,961	78,742	-0,198	-0,146
254,976	-156,768	-0,209	-0,009
255,990	5,644	-0,138	-0,070
257,005	-200,000	-0,016	-0,110
258,020	-15,996	-0,145	-0,063
259,034	-66,571	-0,214	-0,058
260,049	-200,000	-0,015	-0,112
261,063	47,626	-0,259	-0,166
262,078	328,999	-0,206	-0,273
263,093	48,509	-0,142	-0,092
264,107	336,318	-0,099	-0,132
265,122	51,892	-0,077	-0,050
266,136	-158,279	-0,186	-0,007
267,151	24,596	-0,195	-0,111
268,166	-75,544	-0,211	-0,051
269,180	50,269	-0,198	-0,129
270,195	133,682	-0,202	-0,180
271,209	-132,369	-0,128	0,011
272,224	-29,354	-0,173	-0,068
273,239	69,462	-0,038	0,027
274,253	126,163	-0,077	-0,067
275,268	-49,004	-0,207	-0,068
276,282	800,000	-0,059	-0,136
277,297	-5,034	-0,177	0,084
278,312	524,273	-0,131	-0,213
279,326	800,000	-0,132	-0,256
280,341	-150,233	-0,190	0,010
281,355	244,975	-0,167	-0,194
282,370	120,860	-0,143	-0,122
283,384	12,655	-0,275	-0,146
284,399	-84,509	-0,208	-0,045
285,414	0,863	-0,269	-0,132
286,428	-200,000	-0,002	-0,084
287,443	126,049	-0,132	-0,115
288,457	69,182	-0,180	-0,127
289,472	-50,721	-0,255	-0,082
290,487	316,205	-0,151	-0,197
291,501	36,405	-0,124	-0,075
292,516	20,780	-0,181	-0,100
293,530	-49,439	-0,137	0,045
294,545	-136,236	-0,173	-0,014
295,560	800,000	-0,040	0,091
296,574	119,668	-0,157	-0,134
297,589	89,142	-0,131	-0,101
298,603	151,386	-0,110	0,103
299,618	-34,330	-0,173	-0,065
300,633	136,974	-0,156	-0,140
301,647	71,780	-0,092	-0,066
302,662	63,618	-0,039	-0,027
303,676	-100,216	-0,123	-0,021
304,691	108,186	-0,136	0,111
305,706	104,648	-0,162	-0,131
306,720	311,398	-0,161	-0,208
307,735	186,894	-0,170	-0,174
308,749	-200,000	-0,038	-0,128
309,764	182,845	-0,121	-0,123
310,779	15,160	-0,068	0,036
311,793	800,000	-0,094	-0,220
312,808	108,046	-0,206	-0,168
313,822	-137,755	-0,274	-0,021
314,837	-125,478	-0,045	-0,005
315,852	7,893	-0,197	-0,101
316,866	-200,000	-0,054	-0,183
317,881	135,775	-0,083	0,074
318,895	103,412	-0,245	-0,197
319,910	-31,696	-0,176	-0,067
320,925	-100,143	-0,140	-0,024
321,939	117,904	-0,147	-0,124
322,954	754,076	-0,072	-0,134
323,968	800,000	-0,033	0,072
324,983	3,705	-0,206	-0,103
325,997	20,245	-0,104	-0,057
327,012	95,889	-0,123	-0,096
328,027	65,087	-0,173	-0,119
329,041	470,121	-0,098	-0,151
330,056	26,928	-0,145	-0,083
331,070	-21,500	-0,169	-0,070
332,085	89,409	-0,077	-0,059
333,100	177,609	-0,081	-0,081
334,114	17,293	-0,185	-0,100
335,129	-90,766	-0,238	-0,047
336,143	224,845	-0,139	-0,154
337,158	800,000	-0,067	-0,173
338,173	518,540	-0,065	-0,105
339,187	283,870	-0,139	-0,172
340,202	115,880	-0,135	-0,113
341,216	-200,000	-0,010	-0,257
342,231	-25,020	-0,221	-0,089
343,246	200,778	-0,098	-0,104
344,260	216,660	-0,074	-0,081
345,275	52,042	-0,048	0,031
346,289	-200,000	-0,001	0,022
347,304	28,051	-0,165	-0,095
348,319	701,593	-0,093	-0,168
349,333	-30,774	-0,247	-0,095
350,348	-58,787	-0,213	-0,063
351,362	167,027	-0,126	-0,123
352,377	196,307	-0,096	-0,100
353,392	-200,000	0,046	-0,213
354,406	-200,000	-0,049	-0,161
355,421	206,085	1311,538	1396,549
356,435	158,480	1471,806	1396,991
