DTS Sentinel unit serial number:	SN410029Multiplexer serial number:	ORYXHardware model number:	OX2-SRSoftware version number:	ORYX F/W v4,00 Oryx Data Collector v3.7.2.0data status	okinstallation	B3 Nyhavnadifferential loss correction	single-endedforward channel	channel 1reverse channel	N/Adate	2023/12/03time	06:12:30forward acquisition time	300,00reverse acquisition time	0,00gamma	499,1914k internal	0,3201k external	0,3201temperature offset calibration	1,0000default loss term (dB/km)	0,3820temperature slope calibration	1,0000multiplexer offset coefficient	1,0000multiplexer slope coefficient	1,0000fibre end	0,00T internal ref (°C)	13,31T ext. ref 1 (°C)	-1,71T ext. ref 2 (°C)	-1,72length (m)	temperature (°C)	Stokes	anti-Stokes-744,400	206,770	-0,240	-0,272
-743,385	-200,000	-0,091	0,294
-742,371	229,197	-0,162	-0,193
-741,356	800,000	-0,095	0,209
-740,342	111,061	-0,132	-0,115
-739,327	-200,000	-0,039	0,273
-738,312	626,136	-0,149	-0,275
-737,298	531,395	-0,144	0,248
-736,283	-200,000	-0,078	-0,267
-735,269	-200,000	-0,022	0,308
-734,254	273,186	-0,199	-0,256
-733,239	23,641	-0,111	0,066
-732,225	639,784	-0,139	-0,259
-731,210	7,400	0,069	0,038
-730,196	8,954	-0,105	-0,057
-729,181	-200,000	0,006	-0,127
-728,167	70,881	0,023	-0,018
-727,152	758,386	-0,033	-0,064
-726,137	185,054	-0,036	-0,039
-725,123	-0,461	-0,139	0,071
-724,108	800,000	-0,054	-0,115
-723,094	664,842	-0,012	-0,022
-722,079	-67,106	-0,033	-0,009
-721,064	-200,000	-0,011	-0,093
-720,050	-200,000	-0,006	-0,065
-719,035	-179,587	0,114	0,002
-718,021	-200,000	-0,013	-0,044
-717,006	-200,000	-0,012	-0,147
-715,991	14,334	-0,121	-0,069
-714,977	22,705	-0,160	-0,095
-713,962	339,660	-0,038	0,055
-712,948	477,811	0,123	-0,203
-711,933	-200,000	0,019	-0,071
-710,918	-107,539	-0,110	0,017
-709,904	-1,469	-0,072	0,037
-708,889	622,861	-0,043	-0,079
-707,875	52,856	-0,026	-0,018
-706,860	-121,954	0,093	0,011
-705,845	126,340	0,123	-0,113
-704,831	400,740	-0,023	-0,036
-703,816	-200,000	-0,027	0,134
-702,802	73,875	-0,077	-0,059
-701,787	-200,000	0,016	-0,198
-700,772	-110,165	-0,085	-0,013
-699,758	389,167	-0,077	0,116
-698,743	-200,000	-0,001	0,159
-697,729	334,356	0,016	-0,023
-696,714	-40,767	-0,116	0,043
-695,699	-123,456	0,105	0,012
-694,685	33,684	-0,122	-0,077
-693,670	504,367	0,037	-0,062
-692,656	149,504	0,059	0,058
-691,641	-200,000	-0,002	0,119
-690,627	-85,313	0,036	0,008
-689,612	-200,000	0,011	0,107
-688,597	367,875	-0,064	-0,094
-687,583	-200,000	-0,026	-0,094
-686,568	-7,596	-0,085	-0,042
-685,554	-42,032	-0,033	0,012
-684,539	98,569	-0,004	0,003
-683,524	800,000	-0,032	-0,089
-682,510	560,812	-0,049	-0,085
-681,495	409,657	0,090	-0,138
-680,481	-200,000	0,017	-0,122
-679,466	383,965	-0,064	-0,096
-678,451	104,833	0,032	-0,027
-677,437	-200,000	-0,011	-0,094
-676,422	-200,000	0,004	0,085
-675,408	90,020	-0,027	-0,022
-674,393	-130,684	-0,018	0,002
-673,378	23,865	0,130	-0,078
-672,364	800,000	-0,043	-0,107
-671,349	-46,812	-0,042	0,015
-670,335	-63,092	-0,097	-0,029
-669,320	-200,000	0,005	0,047
-668,305	-137,246	0,085	0,007
-667,291	-200,000	-0,008	-0,078
-666,276	800,000	-0,029	-0,067
-665,262	-200,000	-0,011	-0,083
-664,247	108,372	0,025	-0,021
-663,232	-200,000	-0,018	-0,113
-662,218	283,768	0,064	0,083
-661,203	207,914	0,024	0,027
-660,189	-72,058	-0,143	-0,038
-659,174	-200,000	-0,000	0,113
-658,159	82,729	-0,062	-0,049
-657,145	800,000	-0,029	-0,092
-656,130	800,000	0,026	-0,084
-655,116	-83,779	0,055	-0,013
-654,101	-200,000	0,003	0,087
-653,086	-50,196	-0,026	-0,009
-652,072	-200,000	0,029	-0,100
-651,057	-200,000	-0,023	-0,247
-650,043	-81,292	-0,042	-0,010
-649,028	54,183	-0,018	0,012
-648,014	420,575	-0,085	0,132
-646,999	237,340	0,029	0,035
-645,984	320,359	-0,036	-0,050
-644,970	549,335	-0,006	0,011
-643,955	-200,000	-0,026	-0,120
-642,941	243,352	0,040	-0,049
-641,926	-140,785	0,080	-0,006
-640,911	5,966	-0,072	0,038
-639,897	59,667	0,030	0,022
-638,882	-44,649	0,081	0,029
-637,868	66,355	-0,156	0,115
-636,853	61,732	-0,073	0,053
-635,838	333,935	-0,066	-0,093
-634,824	800,000	-0,019	-0,051
-633,809	-33,742	-0,092	-0,036
-632,795	298,643	0,129	0,172
-631,780	-200,000	-0,018	-0,091
-630,765	-135,857	-0,094	-0,008
-629,751	-170,328	0,045	0,001
-628,736	-69,383	-0,077	0,021
-627,722	-200,000	0,031	-0,119
-626,707	-200,000	-0,013	0,044
-625,692	12,772	0,064	0,036
-624,678	520,229	0,079	0,135
-623,663	-21,908	-0,090	-0,040
-622,649	147,453	-0,046	0,044
-621,634	-200,000	0,005	-0,047
-620,619	11,003	-0,101	-0,055
-619,605	-91,734	0,057	0,012
-618,590	-72,070	-0,094	0,025
-617,576	-26,507	-0,100	-0,042
-616,561	-104,943	0,146	-0,024
-615,546	773,754	0,021	0,042
-614,532	800,000	-0,046	-0,093
-613,517	-97,646	-0,051	-0,009
-612,503	-22,543	-0,074	0,032
-611,488	-200,000	-0,019	0,100
-610,474	800,000	0,058	-0,151
-609,459	800,000	-0,036	0,091
-608,444	-200,000	0,007	0,066
-607,430	-53,223	-0,073	-0,024
-606,415	-200,000	-0,014	0,059
-605,401	365,394	-0,019	0,027
-604,386	-65,050	0,055	0,016
-603,371	-200,000	-0,009	0,067
-602,357	49,641	-0,141	0,096
-601,342	-200,000	-0,009	-0,062
-600,328	800,000	-0,037	-0,098
-599,313	800,000	0,023	-0,061
-598,298	159,448	-0,040	0,040
-597,284	3,286	0,118	-0,062
-596,269	109,325	0,071	-0,062
-595,255	-108,993	-0,057	-0,009
-594,240	38,608	-0,178	-0,115
-593,225	-178,017	-0,137	0,002
-592,211	-200,000	-0,029	-0,127
-591,196	358,207	0,036	-0,052
-590,182	-121,011	-0,080	0,010
-589,167	-200,000	-0,005	0,050
-588,152	82,944	-0,103	0,081
-587,138	-23,760	-0,051	-0,022
-586,123	-200,000	-0,037	-0,174
-585,109	800,000	-0,028	-0,063
-584,094	21,239	0,084	0,049
-583,079	46,093	0,059	-0,040
-582,065	-169,914	0,109	-0,003
-581,050	-200,000	-0,004	-0,049
-580,036	800,000	0,014	-0,034
-579,021	44,503	-0,086	-0,057
-578,006	-41,735	-0,045	-0,017
-576,992	85,776	-0,073	-0,058
-575,977	222,814	0,103	0,120
-574,963	168,453	-0,143	0,147
-573,948	-200,000	0,016	-0,089
-572,934	800,000	-0,041	-0,089
-571,919	29,070	-0,069	-0,042
-570,904	-200,000	0,042	-0,170
-569,890	-165,133	-0,084	-0,003
-568,875	-34,039	0,109	-0,043
-567,861	-63,212	0,117	-0,035
-566,846	-62,370	0,057	-0,017
-565,831	-200,000	0,020	0,071
-564,817	-161,385	0,060	0,002
-563,802	74,911	0,049	0,037
-562,788	800,000	-0,029	-0,065
-561,773	800,000	-0,061	0,136
-560,758	325,736	0,108	0,149
-559,744	-200,000	0,001	-0,069
-558,729	-159,740	0,107	-0,004
-557,715	800,000	-0,061	0,129
-556,700	-15,636	-0,136	0,062
-555,685	-88,718	-0,163	0,035
-554,671	-157,969	0,015	-0,001
-553,656	127,650	0,088	-0,081
-552,642	800,000	-0,016	0,052
-551,627	375,150	0,051	-0,076
-550,612	-200,000	0,011	-0,115
-549,598	-200,000	0,030	0,115
-548,583	-61,931	-0,034	-0,010
-547,569	-200,000	0,022	0,100
-546,554	178,351	0,105	0,110
-545,539	-55,294	0,031	0,010
-544,525	-153,384	-0,071	0,003
-543,510	-110,926	-0,084	0,012
-542,496	-102,514	-0,177	0,030
-541,481	-200,000	-0,016	-0,090
-540,466	29,496	0,067	0,041
-539,452	-51,291	-0,142	-0,048
-538,437	-200,000	0,056	0,202
-537,423	-168,584	0,159	0,004
-536,408	-90,791	-0,190	-0,039
-535,393	-200,000	-0,005	0,129
-534,379	800,000	0,044	-0,101
-533,364	-30,153	0,028	0,011
-532,350	-200,000	-0,019	0,204
-531,335	131,660	-0,010	0,009
-530,321	800,000	0,047	0,117
-529,306	800,000	-0,034	0,084
-528,291	155,294	-0,047	-0,047
-527,277	-105,596	-0,127	-0,021
-526,262	-104,224	-0,036	-0,006
-525,248	393,523	-0,086	-0,130
-524,233	-2,539	0,056	0,028
-523,218	-200,000	-0,011	-0,039
-522,204	533,211	-0,039	0,067
-521,189	-200,000	0,010	0,045
-520,175	-33,216	-0,068	-0,027
-519,160	16,923	0,030	-0,017
-518,145	-200,000	0,020	-0,079
-517,131	-51,662	0,150	0,050
-516,116	800,000	-0,023	0,069
-515,102	58,778	-0,149	-0,106
-514,087	-14,481	0,161	0,075
-513,072	-200,000	-0,001	-0,081
-512,058	-122,237	-0,151	0,018
-511,043	-200,000	0,004	-0,042
-510,029	20,168	0,097	0,056
-509,014	-200,000	-0,010	0,211
-507,999	310,908	0,019	-0,026
-506,985	-200,000	0,002	-0,045
-505,970	430,829	-0,038	-0,060
-504,956	-179,658	0,060	-0,001
-503,941	-200,000	-0,009	0,081
-502,926	-200,000	-0,021	0,263
-501,912	-61,386	0,015	-0,004
-500,897	26,861	0,049	0,030
-499,883	-76,010	-0,086	-0,022
-498,868	-61,808	-0,020	0,006
-497,853	-60,082	-0,094	-0,029
-496,839	3,482	0,187	-0,098
-495,824	800,000	-0,010	0,026
-494,810	800,000	0,025	0,077
-493,795	800,000	0,092	0,189
-492,781	-32,710	0,030	-0,012
-491,766	451,162	-0,110	-0,175
-490,751	800,000	-0,034	-0,073
-489,737	-200,000	-0,012	-0,097
-488,722	75,037	0,125	0,095
-487,708	-200,000	0,039	0,127
-486,693	800,000	-0,041	-0,089
-485,678	-165,613	-0,108	-0,003
-484,664	174,860	-0,124	-0,129
-483,649	80,752	-0,036	0,028
-482,635	-26,027	-0,014	-0,006
-481,620	322,813	0,043	0,059
-480,605	-9,760	0,034	-0,016
-479,591	134,198	-0,112	0,104
-478,576	-34,871	0,057	0,022
-477,562	800,000	-0,021	-0,045
-476,547	656,299	-0,053	-0,099
-475,532	-200,000	-0,009	-0,040
-474,518	68,800	-0,105	0,078
-473,503	-116,553	-0,020	0,003
-472,489	109,980	0,088	0,076
-471,474	-200,000	-0,013	-0,121
-470,459	94,064	0,124	-0,101
-469,445	-181,748	0,117	-0,002
-468,430	98,341	-0,073	-0,060
-467,416	61,896	-0,141	-0,101
-466,401	-95,782	0,066	0,013
-465,386	-200,000	-0,008	0,098
-464,372	-64,027	0,148	-0,043
-463,357	791,679	0,046	0,090
-462,343	454,602	0,078	-0,124
-461,328	118,509	-0,136	-0,120
-460,313	96,975	0,116	0,096
-459,299	682,436	0,058	0,109
-458,284	221,146	0,051	0,059
-457,270	-49,059	0,059	0,020
-456,255	-115,472	-0,077	-0,010
-455,241	-200,000	-0,024	-0,135
-454,226	92,125	-0,131	-0,106
-453,211	-200,000	-0,021	0,127
-452,197	-200,000	0,006	-0,093
-451,182	252,648	0,028	-0,034
-450,168	453,507	0,058	-0,093
-449,153	-200,000	-0,002	-0,088
-448,138	-71,705	-0,146	0,039
-447,124	515,787	-0,018	-0,031
-446,109	-200,000	0,010	0,057
-445,095	-200,000	-0,018	0,108
-444,080	-200,000	0,027	0,127
-443,065	3,291	0,124	0,065
-442,051	-71,551	-0,095	-0,025
-441,036	-128,349	-0,042	-0,004
-440,022	-10,014	-0,036	-0,017
-439,007	-200,000	0,006	0,068
-437,992	112,957	0,151	0,131
-436,978	-200,000	-0,005	-0,035
-435,963	32,452	0,118	-0,073
-434,949	-45,543	0,097	0,034
-433,934	-200,000	-0,007	-0,115
-432,919	-200,000	-0,016	-0,080
-431,905	129,521	-0,094	-0,087
-430,890	63,379	0,135	0,097
-429,876	80,114	0,103	0,080
-428,861	-12,906	-0,101	0,047
-427,846	-46,775	-0,072	-0,025
-426,832	-200,000	0,024	-0,120
-425,817	-165,274	-0,040	-0,001
-424,803	81,365	-0,079	-0,062
-423,788	331,351	-0,021	0,029
-422,773	-101,936	0,126	-0,022
-421,759	57,834	-0,042	0,029
-420,744	-93,178	0,074	-0,015
-419,730	-131,826	-0,105	-0,010
-418,715	-200,000	-0,021	0,100
-417,701	-200,000	0,005	-0,069
-416,686	351,118	-0,031	0,044
-415,671	2,223	0,115	0,060
-414,657	452,995	-0,049	0,078
-413,642	-200,000	0,001	-0,100
-412,628	-200,000	0,036	0,135
-411,613	-128,580	0,040	0,004
-410,598	800,000	-0,076	-0,206
-409,584	12,944	0,104	-0,057
-408,569	68,209	-0,107	0,079
-407,555	149,299	0,107	0,104
-406,540	180,189	0,079	0,083
-405,525	194,039	-0,040	0,043
-404,511	21,393	-0,055	-0,032
-403,496	-28,236	0,017	-0,007
-402,482	-200,000	0,009	-0,065
-401,467	37,283	0,041	0,026
-400,452	194,226	-0,011	0,011
-399,438	800,000	0,019	-0,059
-398,423	-154,627	-0,183	-0,009
-397,409	-23,484	-0,140	-0,060
-396,394	800,000	0,059	-0,168
-395,379	800,000	-0,027	0,074
-394,365	205,664	0,075	0,084
-393,350	292,917	-0,035	-0,046
-392,336	-75,647	0,077	-0,019
-391,321	800,000	0,009	-0,020
-390,306	800,000	-0,030	0,066
-389,292	-29,562	0,031	-0,012
-388,277	-78,241	-0,036	0,009
-387,263	-135,747	0,087	-0,007
-386,248	-110,782	0,023	-0,003
-385,233	590,624	0,085	0,152
-384,219	-167,645	-0,179	0,005
-383,204	485,817	0,069	-0,113
-382,190	-15,204	-0,078	0,036
-381,175	-200,000	0,016	0,087
-380,160	-200,000	0,002	0,026
-379,146	-32,806	0,070	-0,028
-378,131	800,000	-0,050	-0,118
-377,117	344,813	-0,040	-0,057
-376,102	-105,500	-0,044	0,007
-375,088	-62,716	-0,025	-0,007
-374,073	-200,000	0,047	-0,151
-373,058	152,223	0,099	0,097
-372,044	800,000	-0,031	0,073
-371,029	6,430	0,089	-0,047
-370,015	800,000	0,014	0,039
-369,000	-66,009	-0,213	-0,061
-367,985	107,602	0,092	0,078
-366,971	-0,905	0,122	-0,061
-365,956	-200,000	0,042	-0,173
-364,942	-74,243	0,059	-0,015
-363,927	-200,000	0,023	-0,136
-362,912	-14,277	-0,015	0,007
-361,898	-200,000	-0,010	0,060
-360,883	428,847	-0,034	-0,054
-359,869	-124,054	-0,068	0,008
-358,854	773,374	-0,036	0,071
-357,839	-128,616	0,097	-0,010
-356,825	-42,869	0,129	0,047
-355,810	800,000	0,043	0,110
-354,796	38,553	-0,055	-0,035
-353,781	281,431	-0,046	-0,059
-352,766	-200,000	-0,027	-0,091
-351,752	308,246	-0,051	-0,068
-350,737	-99,884	0,052	-0,009
-349,723	-75,212	0,208	0,053
-348,708	800,000	-0,055	-0,129
-347,693	-200,000	-0,012	0,100
-346,679	800,000	0,062	-0,125
-345,664	311,888	-0,054	-0,073
-344,650	-200,000	-0,010	-0,055
-343,635	-200,000	0,013	0,116
-342,620	-74,022	-0,095	0,025
-341,606	-108,880	0,149	0,022
-340,591	-98,719	0,051	-0,009
-339,577	-200,000	0,029	-0,154
-338,562	-200,000	0,005	-0,120
-337,548	-156,900	-0,144	-0,006
-336,533	800,000	-0,043	-0,096
-335,518	-31,795	0,037	0,015
-334,504	-200,000	-0,002	0,101
-333,489	-35,511	0,162	0,063
-332,475	-138,858	-0,067	0,005
-331,460	663,193	0,042	-0,078
-330,445	800,000	-0,027	-0,058
-329,431	157,779	0,094	0,094
-328,416	800,000	0,069	0,142
-327,402	389,324	-0,020	-0,029
-326,387	42,473	-0,113	0,073
-325,372	800,000	-0,035	-0,107
-324,358	682,868	0,037	-0,070
-323,343	800,000	-0,024	-0,056
-322,329	-12,152	-0,067	0,031
-321,314	32,413	0,128	0,079
-320,299	-200,000	0,021	0,138
-319,285	113,017	0,060	0,052
-318,270	-116,471	0,093	0,012
-317,256	-200,000	0,003	-0,052
-316,241	800,000	0,022	-0,050
-315,226	800,000	0,038	0,085
-314,212	800,000	-0,020	0,056
-313,197	-200,000	-0,012	0,112
-312,183	-75,904	0,063	0,016
-311,168	-68,084	-0,124	0,034
-310,153	219,425	-0,087	0,100
-309,139	164,688	0,038	-0,038
-308,124	-200,000	0,018	-0,080
-307,110	263,247	0,077	0,096
-306,095	-28,177	0,116	-0,048
-305,080	-160,512	-0,128	-0,005
-304,066	-102,522	0,097	0,016
-303,051	62,250	-0,042	0,030
-302,037	131,198	0,056	-0,052
-301,022	-64,144	-0,084	-0,024
-300,008	800,000	-0,035	0,084
-298,993	-186,503	0,105	-0,001
-297,978	800,000	0,026	-0,075
-296,964	-40,297	-0,100	0,037
-295,949	315,267	0,060	0,082
-294,935	800,000	-0,036	-0,112
-293,920	469,340	-0,012	0,020
-292,905	-200,000	-0,003	-0,020
-291,891	781,159	0,017	0,034
-290,876	800,000	-0,030	-0,064
-289,862	460,199	0,108	-0,173
-288,847	-200,000	-0,031	-0,138
-287,832	-119,433	-0,015	0,002
-286,818	-200,000	0,009	-0,074
-285,803	800,000	-0,015	-0,035
-284,789	-155,712	0,107	0,005
-283,774	176,445	-0,137	0,143
-282,759	348,728	-0,073	-0,103
-281,745	-200,000	-0,013	-0,051
-280,730	-68,135	0,090	-0,025
-279,716	-32,144	-0,087	-0,035
-278,701	710,999	-0,034	-0,064
-277,686	-200,000	-0,009	0,034
-276,672	-200,000	-0,003	0,010
-275,657	-200,000	0,007	-0,058
-274,643	-200,000	-0,031	-0,138
-273,628	-200,000	-0,010	0,099
-272,613	-42,040	0,011	-0,004
-271,599	800,000	-0,030	0,088
-270,584	-200,000	-0,021	0,148
-269,570	158,374	-0,079	0,079
-268,555	1,146	0,171	-0,087
-267,540	-200,000	0,018	-0,122
-266,526	-200,000	-0,006	-0,050
-265,511	-41,042	-0,157	-0,058
-264,497	-129,557	-0,076	-0,007
-263,482	108,451	0,028	0,024
-262,467	-200,000	-0,020	0,108
-261,453	400,861	-0,027	0,041
-260,438	-200,000	0,012	-0,119
-259,424	-138,769	-0,105	0,008
-258,409	81,279	0,009	-0,007
-257,395	151,241	-0,082	0,079
-256,380	-200,000	0,014	0,102
-255,365	465,495	0,032	-0,051
-254,351	386,210	0,038	-0,056
-253,336	145,472	-0,126	-0,121
-252,322	321,876	-0,036	-0,050
-251,307	-165,245	0,131	-0,004
-250,292	-107,419	0,076	-0,012
-249,278	-71,304	0,146	0,039
-248,263	800,000	0,014	-0,035
-247,249	800,000	0,053	-0,118
-246,234	-0,164	0,040	0,020
-245,219	211,051	0,020	-0,022
-244,205	-39,063	0,095	0,036
-243,190	-200,000	0,016	0,139
-242,176	-52,648	0,038	-0,012
-241,161	50,014	0,122	0,082
-240,146	-8,453	0,033	0,016
-239,132	316,494	-0,032	0,043
-238,117	315,621	-0,032	0,043
-237,103	-121,779	-0,049	-0,006
-236,088	41,104	0,048	-0,031
-235,073	174,304	0,104	0,108
-234,059	800,000	0,002	-0,005
-233,044	-20,173	0,029	0,012
-232,030	-200,000	0,012	0,051
-231,015	-79,361	-0,138	-0,033
-230,000	-200,000	0,002	-0,039
-228,986	84,513	-0,118	-0,092
-227,971	53,921	-0,028	-0,019
-226,957	55,883	0,132	0,091
-225,942	124,657	0,028	-0,025
-224,927	-117,819	0,078	-0,010
-223,913	800,000	-0,037	-0,113
-222,898	361,067	0,049	0,071
-221,884	-200,000	0,020	0,137
-220,869	-140,755	-0,105	0,008
-219,855	440,051	-0,073	0,113
-218,840	31,847	0,080	0,049
-217,825	-54,248	-0,143	0,046
-216,811	-10,719	-0,092	0,043
-215,796	-71,910	0,114	0,030
-214,782	-60,899	0,051	0,015
-213,767	148,080	0,050	-0,048
-212,752	-200,000	-0,044	0,213
-211,738	316,172	0,043	0,058
-210,723	-200,000	-0,001	-0,041
-209,709	-200,000	-0,000	-0,023
-208,694	-200,000	-0,031	-0,154
-207,679	800,000	-0,051	-0,104
-206,665	-200,000	0,009	-0,066
-205,650	252,299	-0,082	0,100
-204,636	800,000	-0,049	0,141
-203,621	800,000	0,082	0,229
-202,606	-39,645	0,047	0,017
-201,592	-159,168	0,070	-0,003
-200,577	98,723	-0,105	-0,086
-199,563	753,456	0,031	-0,059
-198,548	800,000	-0,031	0,090
-197,533	148,655	0,043	0,042
-196,519	-200,000	0,006	0,031
-195,504	-200,000	-0,025	0,151
-194,490	800,000	-0,043	0,102
-193,475	53,307	0,083	0,057
-192,460	800,000	0,063	-0,136
-191,446	-110,734	0,150	-0,022
-190,431	-200,000	-0,043	0,149
-189,417	426,040	-0,074	0,113
-188,402	2,560	-0,094	0,048
-187,387	-37,640	-0,079	-0,030
-186,373	-54,516	0,065	0,021
-185,358	800,000	0,029	-0,089
-184,344	27,882	0,099	0,059
-183,329	-200,000	0,047	0,161
-182,315	800,000	-0,065	-0,137
-181,300	115,742	0,011	-0,010
-180,285	390,852	-0,062	-0,092
-179,271	-99,668	0,085	0,015
-178,256	-200,000	-0,013	-0,064
-177,242	-47,867	0,155	-0,053
-176,227	800,000	0,057	-0,116
-175,212	507,701	0,044	0,072
-174,198	616,199	0,047	0,085
-173,183	687,835	0,034	-0,063
-172,169	-135,051	-0,043	-0,004
-171,154	540,785	0,047	0,080
-170,139	-85,996	0,108	-0,024
-169,125	-20,513	-0,052	0,022
-168,110	800,000	-0,018	-0,046
-167,096	800,000	0,011	-0,030
-166,081	-200,000	0,025	-0,109
-165,066	-200,000	-0,010	-0,037
-164,052	-200,000	0,050	0,000
-163,037	-200,000	0,003	-0,118
-162,023	-200,000	0,001	-0,018
-161,008	176,195	0,061	0,064
-159,993	-83,471	-0,028	-0,006
-158,979	358,307	0,076	-0,108
-157,964	140,182	-0,022	-0,020
-156,950	353,826	0,049	-0,069
-155,935	-34,951	-0,085	-0,033
-154,920	-200,000	0,009	-0,133
-153,906	163,765	-0,065	0,065
-152,891	-110,353	-0,069	-0,010
-151,877	-129,010	-0,147	-0,014
-150,862	-150,067	-0,231	0,013
-149,847	118,446	-0,012	0,010
-148,833	-161,936	-0,152	-0,005
-147,818	800,000	0,038	-0,096
-146,804	270,485	0,023	-0,029
-145,789	108,811	0,133	0,113
-144,775	-4,291	0,084	0,041
-143,760	800,000	0,031	0,089
-142,745	-50,373	0,076	-0,025
-141,731	-33,963	0,206	0,080
-140,716	-123,529	0,128	-0,014
-139,702	750,304	0,066	0,127
-138,687	-200,000	-0,024	-0,091
-137,672	-200,000	-0,038	-0,119
-136,658	-200,000	-0,008	-0,028
-135,643	144,345	-0,051	-0,049
-134,629	800,000	-0,056	-0,116
-133,614	484,805	0,051	0,082
-132,599	800,000	-0,051	0,122
-131,585	-77,676	-0,070	0,017
-130,570	53,801	0,144	-0,098
-129,556	213,607	-0,066	0,074
-128,541	-47,574	-0,024	-0,008
-127,526	181,787	0,116	0,121
-126,512	-83,634	-0,058	-0,013
-125,497	-161,220	0,085	0,003
-124,483	505,162	-0,034	-0,056
-123,468	-4,870	0,113	-0,055
-122,453	800,000	-0,043	-0,106
-121,439	-200,000	0,006	-0,060
-120,424	-200,000	-0,006	-0,097
-119,410	383,519	0,044	-0,064
-118,395	47,518	0,123	-0,081
-117,380	775,532	0,021	0,042
-116,366	338,481	0,048	-0,067
-115,351	800,000	0,044	-0,094
-114,337	-200,000	0,002	-0,075
-113,322	54,514	-0,053	0,036
-112,307	162,970	-0,052	0,052
-111,293	414,403	0,027	0,041
-110,278	-20,881	-0,054	-0,024
-109,264	-49,004	0,076	-0,026
-108,249	114,259	-0,030	0,026
-107,234	180,703	-0,125	-0,131
-106,220	193,990	0,072	-0,077
-105,205	-200,000	0,002	0,020
-104,191	-58,223	0,088	-0,027
-103,176	-200,000	0,010	0,132
-102,162	-151,977	0,107	0,005
-101,147	403,040	-0,109	-0,164
-100,132	68,358	-0,044	-0,032
-99,118	-40,912	-0,135	-0,049
-98,103	-176,185	-0,105	-0,002
-97,089	227,048	0,049	-0,057
-96,074	191,938	0,045	-0,048
-95,059	-200,000	0,011	0,060
-94,045	28,872	-0,098	0,059
-93,030	724,019	0,048	-0,091
-92,016	-200,000	0,010	-0,250
-91,001	800,000	-0,035	0,081
-89,986	800,000	0,092	0,184
-88,972	800,000	-0,069	0,185
-87,957	-200,000	0,022	0,112
-86,943	26,306	0,065	0,039
-85,928	-133,510	-0,100	0,009
-84,913	470,993	-0,079	-0,127
-83,899	-200,000	-0,001	-0,139
-82,884	-136,892	0,126	-0,010
-81,870	-200,000	-0,005	0,088
-80,855	-104,875	0,064	0,010
-79,840	-200,000	0,006	0,126
-78,826	-200,000	0,011	-0,054
-77,811	-33,919	0,048	0,019
-76,797	-149,545	-0,160	-0,009
-75,782	194,529	0,164	0,176
-74,767	177,087	0,052	-0,053
-73,753	198,650	-0,064	0,069
-72,738	261,670	-0,058	-0,071
-71,724	-188,485	-0,142	0,001
-70,709	43,519	-0,112	-0,072
-69,694	37,175	-0,086	0,054
-68,680	-200,000	-0,014	0,099
-67,665	201,097	-0,030	0,033
-66,651	132,822	-0,055	0,050
-65,636	-200,000	-0,000	-0,145
-64,622	800,000	0,014	-0,042
-63,607	-200,000	-0,039	0,122
-62,592	125,664	0,035	-0,032
-61,578	-200,000	0,016	-0,133
-60,563	800,000	-0,006	0,014
-59,549	4,222	-0,153	0,079
-58,534	-23,735	-1,638	-0,692
-57,519	521,756	-1,312	-2,188
-56,505	-200,000	-0,541	-4,482
-55,490	205,439	0,888	0,978
-54,476	800,000	4,987	11,448
-53,461	-200,000	19,277	319,679
-52,446	-200,000	740,656	2333,833
-51,432	573,301	1655,727	2869,061
-50,417	78,279	1670,890	1261,558
-49,403	21,290	1544,067	885,537
-48,388	15,162	1466,417	811,204
-47,373	17,941	1456,712	819,236
-46,359	16,646	1446,467	807,230
-45,344	13,437	1441,774	789,210
-44,330	13,363	1440,148	787,933
-43,315	13,395	1438,328	787,059
-42,300	13,396	1436,418	785,987
-41,286	13,389	1435,408	785,369
-40,271	13,310	1434,008	784,196
-39,257	13,350	1432,711	783,645
-38,242	13,417	1431,365	783,199
-37,227	13,421	1430,146	782,521
-36,213	13,425	1428,767	781,752
-35,198	13,390	1427,689	780,966
-34,184	13,403	1426,849	780,537
-33,169	13,399	1425,352	779,670
-32,154	13,409	1424,165	779,038
-31,140	13,407	1422,966	778,342
-30,125	13,440	1422,030	777,955
-29,111	13,401	1420,889	777,113
-28,096	13,395	1419,804	776,460
-27,082	13,341	1418,637	775,536
-26,067	13,321	1417,491	774,784
-25,052	13,364	1416,578	774,456
-24,038	13,354	1415,486	773,786
-23,023	13,289	1414,377	772,843
-22,009	13,290	1413,516	772,346
-20,994	13,226	1412,816	771,630
-19,979	13,291	1411,771	771,333
-18,965	13,250	1410,909	770,639
-17,950	13,305	1409,722	770,222
-16,936	13,290	1408,741	769,583
-15,921	13,229	1407,599	768,643
-14,906	13,221	1406,882	768,183
-13,892	13,253	1405,991	767,818
-12,877	13,309	1404,922	767,465
-11,863	13,254	1404,224	766,796
-10,848	13,255	1403,183	766,198
-9,833	13,192	1402,479	765,493
-8,819	13,184	1401,488	764,886
-7,804	13,168	1400,564	764,273
-6,790	13,159	1399,628	763,693
-5,775	13,147	1398,657	763,075
-4,760	13,162	1397,601	762,540
-3,746	13,159	1396,582	761,940
-2,731	13,104	1395,956	761,313
-1,717	13,100	1395,100	760,795
-0,702	13,127	1393,013	759,755
0,313	16,958	1310,081	732,269
1,327	33,268	703,735	431,043
2,342	51,233	123,129	82,531
3,356	1,427	16,690	8,461
4,371	10,782	3,180	1,712
5,386	-43,303	0,471	0,168
6,400	-200,000	0,023	0,152
7,415	-76,617	-0,229	-0,056
8,429	415,450	-0,229	-0,347
9,444	129,534	-0,321	-0,290
10,459	-31,131	-0,388	-0,154
11,473	263,745	-0,133	-0,164
12,488	169,431	-0,192	-0,194
13,502	55,045	-0,297	-0,202
14,517	270,451	-0,271	-0,338
15,531	112,270	-0,264	-0,225
16,546	-61,727	-0,330	-0,097
17,561	192,003	-0,302	-0,322
18,575	-84,970	-0,265	-0,058
19,590	62,264	-0,247	-0,174
20,604	-38,460	-0,206	-0,076
21,619	74,584	-0,511	-0,379
22,634	-10,482	-0,416	-0,194
23,648	46,552	-0,451	-0,295
24,663	49,990	-0,377	-0,251
25,677	57,860	-0,379	-0,261
26,692	-9,893	-0,372	-0,174
27,707	-4,913	-0,391	-0,190
28,721	-4,177	-0,324	-0,158
29,736	180,012	-0,289	-0,300
30,750	100,073	-0,396	-0,324
31,765	64,662	-0,404	-0,287
32,780	157,193	-0,423	-0,413
33,794	15,411	-0,429	-0,237
34,809	193,908	-0,321	-0,343
35,823	7,059	-0,429	-0,225
36,838	32,302	-0,390	-0,237
37,853	20,582	-0,371	-0,211
38,867	24,923	-0,421	-0,245
39,882	17,803	-0,386	-0,216
40,896	310,021	-0,179	-0,236
41,911	101,477	-0,347	-0,285
42,926	148,755	-0,342	-0,326
43,940	61,754	-0,395	-0,277
44,955	-46,873	-0,453	-0,155
45,969	55,306	-0,376	-0,256
46,984	187,573	-0,267	-0,281
47,999	-90,063	-0,266	-0,054
49,013	35,168	-0,318	-0,196
50,028	33,154	-0,340	-0,207
51,042	192,306	-0,331	-0,352
52,057	17,201	-0,311	-0,173
53,071	153,257	-0,244	-0,235
54,086	43,331	-0,330	-0,212
55,101	45,365	-0,371	-0,240
56,115	13,736	-0,386	-0,210
57,130	55,933	-0,473	-0,322
58,144	30,542	-0,339	-0,204
59,159	150,472	-0,401	-0,384
60,174	149,612	-0,426	-0,407
61,188	288,923	-0,238	-0,304
62,203	42,522	-0,285	-0,182
63,217	146,175	-0,286	-0,270
64,232	250,132	-0,173	-0,207
65,247	105,648	-0,418	-0,347
66,261	59,746	-0,275	-0,191
67,276	17,457	-0,331	-0,185
68,290	74,963	-0,372	-0,275
69,305	66,851	-0,428	-0,306
70,320	67,230	-0,310	-0,222
71,334	32,892	-0,385	-0,234
72,349	8,951	-0,401	-0,212
73,363	-20,777	-0,273	-0,117
74,378	-24,393	-0,352	-0,147
75,393	50,582	-0,277	-0,184
76,407	-94,786	-0,261	-0,049
77,422	72,023	-0,219	-0,160
78,436	-19,128	-0,362	-0,158
79,451	-5,318	-0,283	-0,136
80,466	204,813	-0,250	-0,273
81,480	226,032	-0,303	-0,345
82,495	-31,854	-0,285	-0,112
83,509	268,350	-0,223	-0,275
84,524	-83,351	-0,255	-0,057
85,539	-45,023	-0,187	-0,065
86,553	76,600	-0,295	-0,219
87,568	11,443	-0,350	-0,188
88,582	43,329	-0,291	-0,186
89,597	468,680	-0,184	-0,290
90,611	-33,975	-0,447	-0,172
91,626	29,221	-0,123	-0,073
92,641	39,118	-0,258	-0,162
93,655	-9,340	-0,489	-0,228
94,670	95,535	-0,273	-0,218
95,684	55,984	-0,315	-0,214
96,699	331,582	-0,262	-0,355
97,714	-50,053	-0,215	-0,071
98,728	-30,913	-0,422	-0,166
99,743	105,281	-0,242	-0,200
100,757	-21,459	-0,279	-0,119
101,772	10,810	-0,337	-0,180
102,787	4,130	-0,285	-0,146
103,801	126,291	-0,309	-0,274
104,816	-45,986	-0,250	-0,086
105,830	114,574	-0,200	-0,171
106,845	-54,524	-0,345	-0,109
107,860	113,435	-0,278	-0,237
108,874	-11,051	-0,196	-0,090
109,889	38,724	-0,346	-0,216
110,903	73,730	-0,253	-0,186
111,918	96,506	-0,156	-0,125
112,933	200,942	-0,259	-0,279
113,947	14,181	-0,232	-0,126
114,962	45,719	-0,318	-0,205
115,976	-60,283	-0,290	-0,086
116,991	16,457	-0,360	-0,199
118,006	158,434	-0,191	-0,186
119,020	-65,239	-0,224	-0,063
120,035	220,854	-0,211	-0,238
121,049	139,141	-0,206	-0,190
122,064	-74,164	-0,250	-0,063
123,079	75,002	-0,142	-0,104
124,093	156,284	-0,228	-0,221
125,108	-92,911	-0,249	-0,048
126,122	84,292	-0,235	-0,180
127,137	41,915	-0,207	-0,131
128,151	-1,645	-0,333	-0,164
129,166	77,217	-0,265	-0,197
130,181	-200,000	-0,109	-0,353
131,195	98,668	-0,202	-0,163
132,210	70,344	-0,220	-0,159
133,224	149,053	-0,154	-0,145
134,239	800,000	-0,130	-0,298
135,254	98,834	-0,161	-0,130
136,268	-25,041	-0,190	-0,078
137,283	152,123	-0,108	-0,103
138,297	22,373	-0,198	-0,113
139,312	100,243	-0,363	-0,294
140,327	-168,313	-0,211	0,006
141,341	-7,677	-0,207	-0,097
142,356	5,998	-0,232	-0,120
143,370	26,890	-0,203	-0,119
144,385	31,796	-0,294	-0,176
145,400	-17,334	-0,345	-0,151
146,414	57,202	-0,287	-0,196
147,429	-43,023	-0,311	-0,110
148,443	194,115	-0,217	-0,230
149,458	294,991	-0,223	-0,285
150,473	69,323	-0,241	-0,173
151,487	-122,360	-0,242	-0,027
152,502	-5,741	-0,346	-0,165
153,516	-45,864	-0,448	-0,154
154,531	166,069	-0,238	-0,235
155,546	108,770	-0,309	-0,257
156,560	676,190	-0,074	-0,135
157,575	-127,336	-0,196	-0,020
158,589	-18,237	-0,241	-0,105
159,604	32,157	-0,170	-0,102
160,619	108,290	-0,238	-0,198
161,633	111,176	-0,287	-0,241
162,648	211,502	-0,250	-0,275
163,662	262,861	-0,192	-0,232
164,677	-1,745	-0,099	-0,049
165,692	-77,824	-0,224	-0,054
166,706	311,647	-0,166	-0,217
167,721	7,216	-0,308	-0,160
168,735	379,806	-0,189	-0,270
169,750	-104,527	-0,324	-0,052
170,764	605,044	-0,197	-0,343
171,779	-4,234	-0,209	-0,101
172,794	203,208	-0,258	-0,278
173,808	47,826	-0,316	-0,206
174,823	98,312	-0,288	-0,231
175,837	57,294	-0,171	-0,116
176,852	20,154	-0,167	-0,094
177,867	468,841	-0,112	-0,175
178,881	-16,980	-0,274	-0,120
179,896	31,468	-0,275	-0,164
180,910	63,843	-0,344	-0,241
181,925	-34,392	-0,153	-0,058
182,940	93,995	-0,228	-0,180
183,954	59,936	-0,181	-0,124
184,969	34,044	-0,232	-0,140
185,983	74,045	-0,239	-0,175
186,998	148,930	-0,130	-0,122
188,013	0,773	-0,208	-0,103
189,027	-11,121	-0,226	-0,103
190,042	100,780	-0,177	-0,143
191,056	158,888	-0,218	-0,211
192,071	139,559	-0,150	-0,137
193,086	-149,074	-0,166	-0,009
194,100	-21,164	-0,143	-0,061
195,115	800,000	-0,065	-0,180
196,129	182,981	-0,272	-0,280
197,144	95,597	-0,226	-0,179
198,159	101,216	-0,356	-0,288
199,173	370,285	-0,167	-0,237
200,188	800,000	-0,146	-0,361
201,202	23,930	-0,175	-0,100
202,217	800,000	-0,077	-0,151
203,232	5,085	-0,183	-0,093
204,246	286,207	-0,194	-0,243
205,261	13,501	-0,309	-0,166
206,275	392,601	-0,168	-0,243
207,290	89,467	-0,198	-0,154
208,304	292,394	-0,078	-0,099
209,319	38,074	-0,288	-0,178
210,334	172,591	-0,191	-0,191
211,348	115,783	-0,156	-0,133
212,363	63,347	-0,254	-0,177
213,377	800,000	-0,083	-0,174
214,392	135,749	-0,112	-0,101
215,407	-200,000	0,005	-0,116
216,421	268,000	-0,124	-0,151
217,436	6,723	-0,366	-0,189
218,450	10,640	-0,330	-0,174
219,465	259,366	-0,179	-0,215
220,480	349,542	-0,118	-0,162
221,494	-78,162	-0,158	-0,038
222,509	49,281	-0,237	-0,154
223,523	203,037	-0,157	-0,168
224,538	800,000	-0,080	-0,197
225,553	800,000	-0,114	-0,227
226,567	-14,251	-0,272	-0,121
227,582	42,660	-0,126	0,079
228,596	56,323	-0,231	-0,155
229,611	352,156	-0,158	-0,218
230,626	139,638	-0,244	-0,223
231,640	54,344	-0,263	-0,175
232,655	105,521	-0,191	-0,157
233,669	-114,484	-0,168	-0,022
234,684	69,862	-0,130	-0,093
235,699	17,829	-0,225	-0,124
236,713	-44,375	-0,182	-0,063
237,728	104,411	-0,116	-0,094
238,742	-139,528	-0,244	-0,018
239,757	207,365	-0,100	-0,108
240,772	-30,513	-0,262	-0,102
241,786	800,000	-0,116	-0,264
242,801	154,306	-0,090	-0,086
243,815	489,564	-0,125	-0,199
244,830	-6,915	-0,190	-0,089
245,844	229,689	-0,114	-0,129
246,859	234,782	-0,070	-0,080
247,874	46,706	-0,316	-0,203
248,888	-9,194	-0,175	-0,081
249,903	-114,994	-0,231	-0,030
250,917	431,230	-0,051	-0,076
251,932	-14,403	-0,216	-0,096
252,947	406,457	-0,105	-0,154
253,961	22,257	-0,198	-0,112
254,976	43,031	-0,116	-0,073
255,990	88,642	-0,149	-0,114
257,005	800,000	-0,124	-0,323
258,020	0,624	-0,178	-0,088
259,034	242,678	-0,204	-0,236
260,049	-101,276	-0,282	-0,047
261,063	-200,000	-0,209	0,000
262,078	113,510	-0,285	-0,239
263,093	-111,456	-0,171	-0,024
264,107	310,274	-0,126	-0,163
265,122	71,721	-0,171	-0,123
266,136	4,331	-0,244	-0,123
267,151	82,916	-0,229	-0,172
268,166	-200,000	-0,036	-0,188
269,180	2,652	-0,166	-0,083
270,195	57,435	-0,186	-0,125
271,209	35,151	-0,302	-0,182
272,224	417,436	-0,087	-0,129
273,239	138,703	-0,083	-0,076
274,253	-79,493	-0,182	-0,042
275,268	-5,698	-0,128	-0,060
276,282	65,600	-0,245	-0,171
277,297	-90,555	-0,120	-0,024
278,312	-102,150	-0,094	-0,015
279,326	-82,909	-0,272	-0,060
280,341	-115,401	-0,249	-0,032
281,355	325,368	-0,093	-0,123
282,370	-34,642	-0,205	-0,077
283,384	25,841	-0,174	-0,100
284,399	0,587	-0,263	-0,130
285,414	47,679	-0,282	-0,181
286,428	-15,269	-0,279	-0,123
287,443	37,284	-0,188	-0,115
288,457	-95,012	-0,142	-0,026
289,472	800,000	-0,077	-0,182
290,487	800,000	-0,113	-0,249
291,501	-40,643	-0,261	-0,093
292,516	57,649	-0,234	-0,157
293,530	-38,779	-0,118	-0,043
294,545	-200,000	-0,084	-0,284
295,560	-200,000	-0,030	-0,137
296,574	262,259	-0,130	-0,156
297,589	800,000	-0,102	-0,252
298,603	-96,716	-0,235	-0,042
299,618	24,432	-0,111	-0,063
300,633	-136,947	-0,161	-0,013
301,647	-52,338	-0,166	-0,053
302,662	-65,524	-0,151	0,042
303,676	-11,840	-0,184	-0,083
304,691	122,255	-0,131	-0,113
305,706	646,967	-0,121	-0,214
306,720	-187,138	-0,253	-0,002
307,735	-117,943	-0,247	-0,030
308,749	-153,471	-0,164	-0,008
309,764	-94,028	-0,051	0,010
310,779	-102,576	-0,113	0,018
311,793	247,558	-0,149	-0,174
312,808	-41,521	-0,171	-0,060
313,822	59,344	-0,133	-0,090
314,837	-24,744	-0,194	-0,079
315,852	-121,744	-0,213	-0,024
316,866	346,212	-0,098	-0,133
317,881	-77,897	-0,163	-0,038
318,895	-156,239	-0,123	0,005
319,910	196,413	-0,140	-0,147
320,925	-33,822	-0,084	-0,032
321,939	-22,434	-0,156	-0,065
322,954	131,867	-0,240	-0,213
323,968	-85,321	-0,200	-0,043
324,983	308,044	-0,114	-0,147
325,997	-56,680	-0,208	-0,063
327,012	-200,000	-0,054	-0,196
328,027	125,537	-0,178	-0,154
329,041	381,778	-0,112	-0,159
330,056	-95,991	-0,175	-0,032
331,070	190,413	-0,168	-0,173
332,085	94,829	-0,104	-0,081
333,100	218,350	-0,079	-0,087
334,114	240,646	-0,179	-0,205
335,129	633,905	-0,151	-0,264
336,143	195,398	-0,115	-0,120
337,158	56,478	-0,099	-0,066
338,173	-65,284	-0,239	-0,066
339,187	354,757	-0,107	-0,146
340,202	25,384	-0,180	-0,102
341,216	-102,862	-0,123	0,020
342,231	585,395	-0,069	-0,118
343,246	800,000	-0,058	-0,144
344,260	-65,572	-0,185	-0,051
345,275	150,766	-0,140	-0,131
346,289	53,638	-0,168	-0,110
347,304	159,885	-0,177	-0,170
348,319	163,004	-0,201	-0,194
349,333	226,489	-0,150	-0,167
350,348	102,882	-0,209	-0,168
351,362	109,142	-0,112	-0,092
352,377	-122,605	-0,178	-0,020
353,392	-72,392	0,071	-0,018
354,406	0,805	-0,153	-0,075
355,421	209,789	1313,243	1414,288
356,435	161,477	1473,784	1414,782
