DTS Sentinel unit serial number:	SN410029Multiplexer serial number:	ORYXHardware model number:	OX2-SRSoftware version number:	ORYX F/W v4,00 Oryx Data Collector v3.7.2.0data status	okinstallation	B3 Nyhavnadifferential loss correction	single-endedforward channel	channel 1reverse channel	N/Adate	2023/11/29time	21:17:30forward acquisition time	300,00reverse acquisition time	0,00gamma	499,1914k internal	0,3210k external	0,3210temperature offset calibration	1,0000default loss term (dB/km)	0,3820temperature slope calibration	1,0000multiplexer offset coefficient	1,0000multiplexer slope coefficient	1,0000fibre end	0,00T internal ref (°C)	10,81T ext. ref 1 (°C)	-4,35T ext. ref 2 (°C)	-4,42length (m)	temperature (°C)	Stokes	anti-Stokes-744,400	142,335	-0,169	-0,163
-743,385	-200,000	-0,034	0,453
-742,371	136,342	-0,184	-0,174
-741,356	-200,000	0,050	0,309
-740,342	584,983	-0,192	-0,343
-739,327	799,288	-0,168	0,339
-738,312	791,620	-0,086	-0,173
-737,298	-200,000	-0,018	0,277
-736,283	167,086	-0,198	-0,204
-735,269	-200,000	0,030	0,245
-734,254	95,069	-0,293	-0,241
-733,239	800,000	0,022	-0,066
-732,225	220,687	-0,177	-0,206
-731,210	-70,243	0,043	-0,012
-730,196	-81,399	0,099	-0,024
-729,181	800,000	-0,066	-0,158
-728,167	800,000	0,053	0,143
-727,152	-200,000	-0,022	0,099
-726,137	269,798	0,032	-0,041
-725,123	-87,266	-0,157	-0,034
-724,108	-200,000	-0,047	-0,153
-723,094	107,088	0,103	0,089
-722,079	-124,620	-0,153	-0,017
-721,064	90,788	-0,076	-0,062
-720,050	7,872	0,041	-0,022
-719,035	-122,501	0,044	0,005
-718,021	-18,520	-0,065	0,029
-717,006	-8,162	0,077	0,037
-715,991	-200,000	-0,009	-0,178
-714,977	-200,000	0,006	0,057
-713,962	259,796	0,026	0,032
-712,948	-4,821	0,134	0,067
-711,933	147,146	-0,060	0,059
-710,918	56,967	-0,153	0,108
-709,904	-71,255	-0,068	0,018
-708,889	214,139	-0,061	-0,070
-707,875	-106,226	0,122	0,020
-706,860	-115,761	0,084	-0,011
-705,845	-100,270	-0,065	0,012
-704,831	-34,324	-0,040	-0,016
-703,816	424,685	-0,083	0,130
-702,802	-158,280	0,049	-0,002
-701,787	41,027	-0,038	0,024
-700,772	3,111	-0,077	0,041
-699,758	-179,232	-0,138	-0,002
-698,743	378,629	0,093	0,138
-697,729	-114,624	0,087	0,012
-696,714	-161,876	0,086	-0,003
-695,699	-59,870	0,132	0,041
-694,685	340,505	0,016	-0,023
-693,670	71,224	-0,135	-0,101
-692,656	800,000	0,032	-0,065
-691,641	139,230	-0,045	0,043
-690,627	9,561	0,024	-0,013
-689,612	-200,000	-0,007	0,038
-688,597	538,896	0,061	-0,105
-687,583	-52,246	0,052	0,017
-686,568	-125,009	-0,107	0,012
-685,554	557,457	0,067	0,117
-684,539	-3,731	0,080	-0,040
-683,524	-200,000	0,017	0,153
-682,510	171,533	-0,032	-0,033
-681,495	-200,000	0,009	-0,052
-680,481	800,000	0,036	-0,102
-679,466	498,898	-0,057	0,095
-678,451	-200,000	0,011	-0,117
-677,437	-200,000	0,003	0,064
-676,422	800,000	-0,065	0,156
-675,408	176,983	0,146	0,154
-674,393	800,000	-0,042	-0,105
-673,378	-154,669	-0,037	-0,002
-672,364	142,267	-0,059	0,057
-671,349	59,755	-0,073	-0,052
-670,335	100,449	0,087	-0,073
-669,320	800,000	-0,026	-0,066
-668,305	800,000	-0,062	-0,142
-667,291	800,000	0,044	-0,103
-666,276	211,679	-0,067	-0,076
-665,262	-153,443	-0,061	0,003
-664,247	-200,000	0,020	-0,129
-663,232	10,120	0,078	-0,043
-662,218	729,236	-0,055	0,108
-661,203	350,436	-0,032	-0,046
-660,189	-124,579	-0,140	0,016
-659,174	-168,553	-0,148	0,004
-658,159	-69,829	0,046	-0,013
-657,145	-200,000	-0,007	-0,096
-656,130	-200,000	0,012	0,074
-655,116	74,772	-0,066	0,050
-654,101	396,853	0,110	0,166
-653,086	-200,000	-0,002	0,043
-652,072	800,000	0,043	-0,097
-651,057	-120,572	-0,160	0,019
-650,043	-161,467	0,106	-0,004
-649,028	-2,040	-0,099	0,050
-648,014	673,141	-0,010	-0,020
-646,999	-200,000	-0,016	-0,059
-645,984	-200,000	-0,006	-0,036
-644,970	39,161	-0,040	-0,026
-643,955	800,000	0,025	-0,080
-642,941	-38,594	0,101	-0,038
-641,926	-150,888	-0,134	-0,007
-640,911	-85,805	0,204	-0,045
-639,897	800,000	0,092	0,187
-638,882	361,702	0,050	-0,073
-637,868	-200,000	0,018	0,077
-636,853	-200,000	0,011	0,140
-635,838	-71,987	-0,050	0,013
-634,824	336,633	-0,041	0,058
-633,809	-200,000	-0,003	0,073
-632,795	586,315	0,032	0,058
-631,780	18,317	0,098	0,056
-630,765	800,000	0,063	0,201
-629,751	-24,775	-0,026	0,011
-628,736	334,218	-0,086	-0,120
-627,722	382,515	0,062	-0,092
-626,707	-119,138	0,144	0,018
-625,692	22,462	-0,029	0,017
-624,678	-159,520	0,102	-0,004
-623,663	175,482	-0,041	0,043
-622,649	31,210	-0,170	-0,105
-621,634	164,881	0,124	-0,127
-620,619	44,203	0,027	0,018
-619,605	100,649	0,038	0,032
-618,590	0,933	-0,095	-0,049
-617,576	-64,605	-0,089	-0,026
-616,561	35,527	0,022	0,014
-615,546	388,011	-0,108	-0,161
-614,532	-200,000	0,006	-0,055
-613,517	-200,000	0,037	-0,181
-612,503	-200,000	-0,021	-0,091
-611,488	41,137	-0,100	0,065
-610,474	-119,477	0,081	-0,010
-609,459	-139,201	-0,087	-0,007
-608,444	-154,802	-0,034	0,002
-607,430	-200,000	-0,009	-0,099
-606,415	0,677	-0,069	-0,035
-605,401	-47,836	0,134	0,047
-604,386	-62,013	0,025	-0,007
-603,371	-200,000	-0,010	0,056
-602,357	800,000	0,029	0,068
-601,342	107,182	0,037	-0,032
-600,328	-145,657	0,056	-0,004
-599,313	800,000	0,052	-0,115
-598,298	-200,000	0,009	-0,109
-597,284	-48,083	-0,092	0,032
-596,269	-200,000	0,058	0,225
-595,255	-200,000	-0,025	0,157
-594,240	12,083	-0,109	-0,060
-593,225	-200,000	0,009	-0,048
-592,211	66,231	-0,096	-0,070
-591,196	213,814	-0,018	-0,021
-590,182	106,748	-0,124	-0,106
-589,167	-30,172	0,075	-0,031
-588,152	58,846	0,107	-0,075
-587,138	483,830	-0,049	0,081
-586,123	33,147	-0,070	-0,043
-585,109	168,467	0,061	-0,063
-584,094	639,664	0,013	-0,024
-583,079	20,438	-0,082	-0,048
-582,065	152,437	0,061	0,060
-581,050	83,178	-0,070	0,055
-580,036	88,731	-0,127	-0,102
-579,021	-146,554	-0,085	-0,005
-578,006	-200,000	-0,004	-0,147
-576,992	78,949	-0,044	0,034
-575,977	-200,000	0,014	-0,065
-574,963	-37,287	-0,089	0,034
-573,948	121,045	0,038	0,034
-572,934	-100,786	-0,021	0,004
-571,919	-82,434	-0,029	0,007
-570,904	190,120	-0,050	-0,055
-569,890	433,881	0,013	0,020
-568,875	189,372	0,058	-0,063
-567,861	337,804	0,016	-0,022
-566,846	-49,413	0,103	0,035
-565,831	-48,820	-0,037	-0,013
-564,817	238,378	-0,123	-0,148
-563,802	800,000	-0,043	0,107
-562,788	800,000	-0,031	-0,079
-561,773	-200,000	0,022	0,124
-560,758	-131,373	-0,066	-0,006
-559,744	-200,000	-0,016	0,065
-558,729	74,222	-0,083	0,063
-557,715	341,905	-0,070	0,099
-556,700	-200,000	-0,062	-0,198
-555,685	800,000	-0,056	-0,170
-554,671	-101,562	-0,063	-0,011
-553,656	-44,983	0,125	-0,045
-552,642	733,662	-0,018	0,035
-551,627	800,000	0,025	-0,077
-550,612	-200,000	-0,022	-0,103
-549,598	800,000	-0,011	0,026
-548,583	-161,213	-0,145	0,005
-547,569	214,574	0,091	0,104
-546,554	49,277	0,134	0,091
-545,539	-107,754	-0,077	-0,012
-544,525	-39,142	-0,103	-0,039
-543,510	30,207	-0,136	0,083
-542,496	184,953	-0,047	-0,050
-541,481	-200,000	0,001	-0,042
-540,466	-0,447	0,135	-0,069
-539,452	-200,000	0,002	0,026
-538,437	461,386	-0,044	-0,071
-537,423	11,333	-0,077	-0,042
-536,408	-113,477	-0,063	0,009
-535,393	102,806	-0,115	-0,097
-534,379	468,524	0,072	0,117
-533,364	-200,000	-0,014	-0,060
-532,350	-83,409	0,117	0,027
-531,335	-200,000	0,031	0,141
-530,321	80,224	0,029	0,022
-529,306	-28,056	0,031	0,013
-528,291	800,000	0,044	0,110
-527,277	-40,342	-0,150	0,056
-526,262	520,694	0,012	0,020
-525,248	800,000	-0,039	0,105
-524,233	-34,213	-0,032	-0,013
-523,218	-77,056	-0,108	0,027
-522,204	-200,000	0,025	0,089
-521,189	-200,000	-0,065	0,225
-520,175	86,129	-0,134	-0,106
-519,160	-89,291	0,038	0,008
-518,145	4,738	0,218	0,115
-517,131	222,929	0,095	0,110
-516,116	25,696	-0,051	-0,030
-515,102	156,716	0,043	0,043
-514,087	57,447	0,066	-0,046
-513,072	211,499	-0,054	-0,061
-512,058	30,905	0,075	-0,046
-511,043	-147,556	0,023	0,001
-510,029	-29,246	0,043	-0,018
-509,014	800,000	-0,016	-0,047
-507,999	-134,379	-0,042	-0,004
-506,985	-85,697	-0,039	0,009
-505,970	-78,031	0,056	0,014
-504,956	170,444	-0,186	0,192
-503,941	-61,655	-0,098	-0,029
-502,926	81,760	0,022	-0,017
-501,912	-93,147	-0,074	-0,015
-500,897	380,106	-0,034	0,050
-499,883	-200,000	0,019	-0,119
-498,868	36,812	-0,038	-0,024
-497,853	800,000	0,022	-0,060
-496,839	800,000	-0,021	-0,042
-495,824	800,000	-0,011	-0,030
-494,810	156,689	0,038	0,038
-493,795	280,985	0,028	0,036
-492,781	-174,734	-0,191	-0,004
-491,766	-200,000	-0,021	-0,119
-490,751	-183,454	0,152	-0,002
-489,737	442,728	0,031	-0,049
-488,722	-25,092	-0,043	-0,018
-487,708	352,777	0,057	0,081
-486,693	7,856	0,051	-0,028
-485,678	162,486	-0,017	0,017
-484,664	-200,000	0,018	0,151
-483,649	800,000	0,041	0,110
-482,635	159,175	-0,085	0,084
-481,620	-113,343	-0,019	0,003
-480,605	-42,590	0,213	0,077
-479,591	513,341	0,124	0,208
-478,576	27,249	-0,023	0,014
-477,562	-65,026	0,097	-0,028
-476,547	445,433	0,062	-0,098
-475,532	-200,000	0,028	-0,142
-474,518	672,062	0,063	0,118
-473,503	-135,344	-0,055	0,005
-472,489	-65,191	0,118	0,034
-471,474	208,947	0,011	0,012
-470,459	20,738	0,091	0,053
-469,445	737,348	-0,047	0,090
-468,430	167,059	0,110	-0,112
-467,416	-200,000	-0,003	-0,023
-466,401	-139,448	0,040	0,003
-465,386	-200,000	0,015	0,054
-464,372	110,088	-0,103	0,089
-463,357	800,000	0,034	-0,070
-462,343	502,437	-0,113	-0,188
-461,328	17,882	0,069	-0,039
-460,313	67,240	-0,026	-0,019
-459,299	-146,921	0,025	0,002
-458,284	-133,550	0,123	-0,011
-457,270	-200,000	0,035	0,112
-456,255	8,814	-0,079	-0,043
-455,241	800,000	0,013	-0,027
-454,226	800,000	-0,024	-0,062
-453,211	-200,000	0,023	-0,147
-452,197	130,750	-0,100	0,092
-451,182	-90,671	0,094	0,019
-450,168	227,115	0,111	0,130
-449,153	155,912	-0,027	0,027
-448,138	580,010	-0,050	-0,089
-447,124	90,231	-0,050	0,040
-446,109	800,000	-0,009	-0,020
-445,095	-72,960	0,162	0,042
-444,080	800,000	0,050	0,108
-443,065	194,469	0,055	0,060
-442,051	-200,000	-0,003	-0,011
-441,036	-7,963	-0,070	0,034
-440,022	-154,601	-0,058	-0,003
-439,007	34,162	0,055	0,034
-437,992	-200,000	-0,030	0,000
-436,978	-122,904	-0,105	0,012
-435,963	-200,000	0,022	-0,139
-434,949	620,280	-0,045	0,082
-433,934	202,948	0,060	-0,067
-432,919	-26,226	-0,152	-0,064
-431,905	-7,622	-0,102	-0,049
-430,890	-119,370	0,101	0,012
-429,876	-200,000	0,010	0,063
-428,861	-200,000	-0,017	0,082
-427,846	-59,397	-0,046	0,014
-426,832	-200,000	0,002	-0,089
-425,817	-160,465	0,026	-0,001
-424,803	311,580	-0,080	-0,108
-423,788	-200,000	0,008	0,044
-422,773	-200,000	0,001	-0,043
-421,759	-200,000	0,016	0,076
-420,744	-131,785	0,090	-0,008
-419,730	800,000	0,072	-0,193
-418,715	358,431	-0,052	-0,074
-417,701	-91,864	0,063	0,013
-416,686	70,809	0,111	-0,082
-415,671	203,751	-0,136	0,151
-414,657	-112,468	0,043	-0,006
-413,642	235,772	-0,051	-0,060
-412,628	155,044	-0,050	0,049
-411,613	314,066	0,087	-0,117
-410,598	61,772	-0,070	-0,050
-409,584	-46,029	-0,010	-0,003
-408,569	-81,499	0,104	0,024
-407,555	163,934	-0,018	-0,019
-406,540	-170,546	0,139	0,003
-405,525	800,000	0,026	-0,063
-404,511	-104,609	-0,195	-0,032
-403,496	63,321	-0,071	-0,051
-402,482	-0,457	-0,126	-0,064
-401,467	-101,124	0,071	-0,012
-400,452	27,261	0,079	0,047
-399,438	-200,000	0,001	0,014
-398,423	800,000	0,046	0,116
-397,409	-137,062	-0,110	0,009
-396,394	-11,232	0,074	-0,035
-395,379	33,007	-0,070	0,043
-394,365	15,631	-0,044	0,025
-393,350	-200,000	-0,000	-0,106
-392,336	225,161	0,105	0,122
-391,321	800,000	0,016	-0,032
-390,306	800,000	-0,040	-0,120
-389,292	-57,063	-0,066	-0,021
-388,277	374,365	0,044	0,064
-387,263	800,000	0,065	0,136
-386,248	-200,000	-0,004	0,082
-385,233	-9,757	0,065	0,031
-384,219	271,402	0,024	0,030
-383,204	492,394	0,096	-0,159
-382,190	800,000	-0,079	0,156
-381,175	-200,000	-0,002	-0,095
-380,160	-32,401	0,083	-0,033
-379,146	-34,355	0,155	0,060
-378,131	-91,536	0,188	0,038
-377,117	58,599	0,070	0,049
-376,102	44,435	-0,053	0,034
-375,088	-96,079	-0,039	-0,007
-374,073	156,738	0,063	0,062
-373,058	-200,000	-0,025	0,124
-372,044	331,928	0,083	0,115
-371,029	-200,000	0,016	0,053
-370,015	-200,000	-0,006	-0,106
-369,000	-3,779	-0,069	0,034
-367,985	32,874	0,115	0,071
-366,971	238,149	-0,048	-0,057
-365,956	800,000	0,039	-0,080
-364,942	-200,000	-0,033	0,138
-363,927	194,925	-0,089	-0,096
-362,912	-105,961	0,073	-0,012
-361,898	-200,000	-0,048	-0,230
-360,883	-200,000	0,002	-0,063
-359,869	-22,082	-0,081	-0,035
-358,854	-93,099	-0,085	-0,017
-357,839	150,519	0,087	-0,084
-356,825	34,978	0,031	0,020
-355,810	82,241	0,043	0,034
-354,796	800,000	-0,053	0,156
-353,781	118,516	-0,050	0,044
-352,766	800,000	-0,073	-0,156
-351,752	312,875	0,067	0,090
-350,737	-150,649	-0,073	-0,004
-349,723	-42,707	0,058	-0,021
-348,708	419,974	0,034	0,052
-347,693	73,242	-0,066	-0,049
-346,679	-118,997	-0,176	-0,022
-345,664	-200,000	-0,018	-0,073
-344,650	118,101	-0,066	0,059
-343,635	-14,895	-0,145	0,066
-342,620	-200,000	-0,017	0,074
-341,606	-61,152	0,064	0,019
-340,591	-200,000	0,005	-0,036
-339,577	800,000	-0,027	-0,083
-338,562	800,000	0,029	-0,080
-337,548	398,228	-0,018	0,027
-336,533	-126,923	0,123	0,013
-335,518	460,674	0,028	0,045
-334,504	-112,703	-0,065	0,009
-333,489	338,223	-0,029	-0,040
-332,475	25,397	0,108	-0,064
-331,460	-200,000	0,025	-0,089
-330,445	800,000	0,037	0,079
-329,431	-200,000	-0,009	0,049
-328,416	-200,000	0,011	-0,036
-327,402	-22,563	0,063	-0,027
-326,387	-200,000	-0,015	-0,057
-325,372	-146,550	-0,080	0,005
-324,358	-200,000	0,049	-0,159
-323,343	13,747	-0,082	0,045
-322,329	-200,000	0,004	-0,068
-321,314	282,382	0,044	-0,056
-320,299	302,665	0,043	-0,056
-319,285	-200,000	0,010	-0,045
-318,270	498,296	0,077	0,126
-317,256	-48,452	-0,074	0,025
-316,241	380,230	0,070	-0,103
-315,226	800,000	-0,042	-0,084
-314,212	-104,625	0,018	-0,003
-313,197	348,774	0,020	-0,029
-312,183	800,000	0,069	-0,162
-311,168	-8,548	-0,092	0,044
-310,153	247,086	0,049	-0,059
-309,139	132,229	-0,060	-0,055
-308,124	-200,000	-0,006	-0,095
-307,110	484,714	-0,031	0,051
-306,095	-200,000	-0,001	-0,059
-305,080	-64,698	0,068	-0,020
-304,066	46,281	0,111	-0,073
-303,051	800,000	-0,108	-0,215
-302,037	368,160	0,066	-0,096
-301,022	380,600	0,050	-0,073
-300,008	-200,000	0,003	-0,103
-298,993	-200,000	0,003	0,039
-297,978	-142,746	-0,040	-0,003
-296,964	202,935	0,064	-0,070
-295,949	-24,819	-0,106	-0,045
-294,935	-200,000	-0,023	-0,135
-293,920	333,857	-0,047	0,065
-292,905	286,317	-0,025	0,033
-291,891	-200,000	-0,020	0,125
-290,876	-116,874	0,065	0,008
-289,862	-200,000	0,003	0,159
-288,847	-200,000	0,008	0,039
-287,832	-200,000	0,006	-0,068
-286,818	-123,094	-0,157	0,018
-285,803	114,209	-0,030	-0,026
-284,789	208,299	0,040	0,045
-283,774	-70,824	0,052	0,014
-282,759	-77,999	-0,136	0,033
-281,745	94,977	-0,105	0,085
-280,730	150,274	-0,125	0,121
-279,716	-67,206	0,115	0,032
-278,701	-69,337	0,121	0,033
-277,686	800,000	0,071	0,180
-276,672	-181,775	-0,103	-0,001
-275,657	80,548	-0,025	-0,019
-274,643	106,065	0,097	-0,082
-273,628	-200,000	-0,021	0,076
-272,613	535,956	0,064	0,108
-271,599	-200,000	-0,012	0,117
-270,584	-200,000	0,005	0,039
-269,570	-104,077	0,099	0,016
-268,555	-200,000	0,054	0,268
-267,540	-163,116	-0,167	-0,006
-266,526	547,733	-0,031	0,052
-265,511	222,448	-0,027	-0,031
-264,497	6,657	-0,036	0,019
-263,482	266,012	-0,020	-0,025
-262,467	800,000	0,024	0,055
-261,453	84,581	-0,026	-0,020
-260,438	161,942	0,013	-0,013
-259,424	-200,000	0,005	0,053
-258,409	-200,000	0,044	-0,176
-257,395	-63,968	0,037	-0,011
-256,380	351,520	0,073	0,103
-255,365	-188,415	-0,026	-0,000
-254,351	800,000	0,050	0,156
-253,336	500,572	-0,073	-0,120
-252,322	-200,000	-0,044	-0,151
-251,307	-200,000	0,005	0,049
-250,292	664,126	0,073	0,135
-249,278	-1,616	0,035	-0,018
-248,263	719,431	0,046	0,087
-247,249	-84,639	-0,088	0,020
-246,234	194,044	-0,063	-0,067
-245,219	24,416	-0,036	-0,021
-244,205	-200,000	-0,011	0,097
-243,190	-54,854	-0,172	-0,055
-242,176	123,559	0,072	0,064
-241,161	800,000	0,022	0,063
-240,146	800,000	-0,025	0,072
-239,132	800,000	0,030	0,074
-238,117	-200,000	-0,012	0,198
-237,103	800,000	-0,020	-0,042
-236,088	117,449	-0,133	-0,116
-235,073	545,407	-0,045	0,077
-234,059	28,786	0,191	0,115
-233,044	-107,557	-0,090	-0,014
-232,030	652,020	0,070	0,129
-231,015	-54,019	-0,012	0,004
-230,000	4,600	0,081	-0,042
-228,986	608,911	0,026	0,046
-227,971	-161,418	-0,058	0,002
-226,957	268,535	0,032	0,040
-225,942	-22,565	0,029	-0,012
-224,927	-127,557	0,065	0,007
-223,913	-103,721	-0,155	-0,026
-222,898	0,786	-0,090	0,046
-221,884	-98,477	0,029	0,005
-220,869	206,279	0,099	0,109
-219,855	-200,000	0,000	0,162
-218,840	-200,000	0,011	0,044
-217,825	136,173	0,073	-0,067
-216,811	-162,025	-0,019	-0,001
-215,796	-43,842	-0,088	0,031
-214,782	800,000	0,029	-0,080
-213,767	-120,494	0,042	-0,005
-212,752	800,000	-0,026	-0,054
-211,738	-116,217	0,079	0,010
-210,723	152,004	-0,034	0,033
-209,709	97,136	0,047	-0,038
-208,694	370,440	-0,018	0,026
-207,679	270,347	0,047	0,059
-206,665	-200,000	0,026	-0,117
-205,650	-74,350	-0,100	-0,025
-204,636	232,289	0,050	0,059
-203,621	95,198	0,034	-0,028
-202,606	-83,320	-0,049	-0,011
-201,592	344,989	-0,052	-0,073
-200,577	-200,000	0,003	-0,093
-199,563	94,978	0,017	0,014
-198,548	373,348	0,020	-0,029
-197,533	247,876	0,068	0,082
-196,519	-200,000	0,006	-0,023
-195,504	-103,643	-0,036	-0,006
-194,490	-99,668	-0,044	0,008
-193,475	800,000	-0,040	-0,081
-192,460	800,000	-0,059	-0,135
-191,446	149,941	0,062	-0,060
-190,431	800,000	0,064	0,140
-189,417	800,000	0,023	0,056
-188,402	800,000	0,057	0,125
-187,387	-99,895	-0,077	0,014
-186,373	214,054	0,079	0,089
-185,358	0,648	0,076	0,038
-184,344	538,007	0,053	-0,090
-183,329	-107,262	0,109	0,017
-182,315	-105,127	0,118	-0,019
-181,300	-200,000	-0,004	0,014
-180,285	-167,176	0,065	-0,002
-179,271	-200,000	0,006	-0,052
-178,256	59,355	-0,085	-0,059
-177,242	185,266	0,085	-0,090
-176,227	-67,202	0,191	-0,053
-175,212	800,000	-0,041	-0,082
-174,198	120,773	-0,164	-0,145
-173,183	158,621	-0,051	0,050
-172,169	-200,000	-0,021	-0,152
-171,154	196,029	-0,052	-0,056
-170,139	-200,000	-0,001	-0,012
-169,125	-111,394	0,092	-0,013
-168,110	-200,000	0,004	0,016
-167,096	363,352	-0,043	0,062
-166,081	17,889	0,115	0,065
-165,066	-184,946	-0,136	-0,001
-164,052	-77,457	-0,062	-0,015
-163,037	-137,298	0,113	-0,009
-162,023	-98,133	0,128	0,023
-161,008	-59,199	-0,115	-0,035
-159,993	-200,000	-0,007	0,030
-158,979	-81,715	-0,102	0,024
-157,964	-118,587	0,090	-0,011
-156,950	40,365	-0,102	-0,065
-155,935	77,876	0,072	-0,054
-154,920	-200,000	0,000	-0,038
-153,906	800,000	0,070	0,183
-152,891	-0,365	-0,148	0,074
-151,877	40,216	0,060	-0,038
-150,862	-200,000	0,032	-0,154
-149,847	-200,000	0,016	0,080
-148,833	-146,440	0,088	-0,005
-147,818	90,332	-0,088	0,070
-146,804	643,511	-0,106	0,192
-145,789	303,127	0,045	0,059
-144,775	401,585	-0,041	0,062
-143,760	-60,373	-0,063	0,019
-142,745	-200,000	-0,003	0,046
-141,731	142,580	0,089	0,084
-140,716	543,887	0,049	0,084
-139,702	-53,190	-0,080	-0,026
-138,687	-200,000	-0,009	-0,036
-137,672	-200,000	-0,004	-0,034
-136,658	800,000	-0,054	-0,133
-135,643	325,143	-0,050	-0,068
-134,629	31,502	-0,082	0,050
-133,614	-69,079	-0,021	0,006
-132,599	-117,183	0,096	-0,012
-131,585	800,000	0,025	0,078
-130,570	800,000	-0,019	-0,040
-129,556	-69,288	-0,010	-0,003
-128,541	-162,258	-0,102	-0,004
-127,526	-200,000	-0,001	-0,146
-126,512	-200,000	0,000	-0,067
-125,497	-154,319	0,042	-0,002
-124,483	800,000	-0,023	0,054
-123,468	-119,511	-0,160	-0,019
-122,453	407,959	0,013	-0,019
-121,439	-14,890	-0,090	0,041
-120,424	515,460	-0,035	-0,058
-119,410	365,273	0,108	-0,154
-118,395	7,256	0,095	-0,050
-117,380	27,366	0,046	0,027
-116,366	-200,000	-0,058	0,222
-115,351	-152,212	-0,064	0,003
-114,337	-200,000	-0,030	-0,158
-113,322	-110,768	-0,040	-0,006
-112,307	800,000	-0,061	0,138
-111,293	13,464	-0,050	0,028
-110,278	200,450	-0,063	0,069
-109,264	-124,392	0,086	0,009
-108,249	446,448	0,031	-0,049
-107,234	419,341	-0,077	-0,117
-106,220	-79,848	-0,165	0,039
-105,205	-200,000	0,003	0,042
-104,191	-19,006	0,062	-0,027
-103,176	95,367	0,046	0,037
-102,162	333,350	-0,029	0,040
-101,147	800,000	-0,023	-0,051
-100,132	-133,825	0,064	-0,006
-99,118	-200,000	-0,012	-0,092
-98,103	121,431	0,038	-0,034
-97,089	277,618	0,058	0,073
-96,074	17,862	-0,108	-0,061
-95,059	800,000	0,053	0,106
-94,045	623,529	-0,038	0,068
-93,030	-200,000	-0,020	-0,139
-92,016	239,929	0,122	-0,143
-91,001	-200,000	0,003	-0,078
-89,986	-200,000	-0,004	0,052
-88,972	800,000	-0,057	0,139
-87,957	800,000	0,090	0,179
-86,943	75,902	0,109	0,081
-85,928	-75,006	-0,144	-0,036
-84,913	162,345	-0,023	0,023
-83,899	464,337	0,074	-0,117
-82,884	69,482	-0,072	0,052
-81,870	800,000	0,041	0,097
-80,855	-200,000	0,008	0,109
-79,840	-200,000	0,090	0,380
-78,826	307,665	-0,040	0,053
-77,811	216,190	-0,134	0,151
-76,797	-200,000	-0,033	0,131
-75,782	800,000	0,040	0,107
-74,767	-41,492	-0,097	0,035
-73,753	-200,000	-0,026	0,108
-72,738	-1,787	0,127	-0,063
-71,724	-24,899	0,067	0,028
-70,709	129,531	-0,045	-0,041
-69,694	-200,000	-0,002	0,084
-68,680	800,000	0,036	0,073
-67,665	-64,612	0,018	0,005
-66,651	195,117	0,136	0,146
-65,636	194,348	-0,041	0,044
-64,622	-17,214	-0,084	-0,037
-63,607	279,655	-0,025	0,032
-62,592	-200,000	0,006	-0,073
-61,578	-200,000	0,025	-0,120
-60,563	-200,000	-0,009	0,158
-59,549	586,705	-0,041	0,072
-58,534	21,103	-2,033	-1,162
-57,519	395,306	-1,309	-1,934
-56,505	-200,000	-0,320	-4,554
-55,490	579,092	0,909	1,577
-54,476	800,000	5,023	11,178
-53,461	-200,000	21,018	329,736
-52,446	800,000	757,810	2324,517
-51,432	549,892	1662,531	2825,591
-50,417	73,359	1663,840	1227,959
-49,403	18,644	1537,193	865,896
-48,388	12,661	1459,973	793,434
-47,373	18,994	1450,832	818,858
-46,359	15,762	1440,311	797,499
-45,344	10,925	1435,954	772,002
-44,330	10,823	1434,149	770,516
-43,315	10,866	1432,032	769,555
-42,300	10,865	1430,438	768,661
-41,286	10,881	1429,059	767,965
-40,271	10,836	1427,896	767,097
-39,257	10,835	1426,631	766,383
-38,242	10,868	1425,527	765,917
-37,227	10,853	1424,540	765,286
-36,213	10,870	1423,263	764,647
-35,198	10,895	1421,926	764,017
-34,184	10,937	1420,909	763,639
-33,169	10,875	1419,870	762,759
-32,154	10,914	1418,693	762,278
-31,140	10,941	1417,455	761,710
-30,125	10,972	1416,434	761,277
-29,111	10,918	1415,391	760,430
-28,096	10,920	1414,283	759,818
-27,082	10,863	1412,950	758,805
-26,067	10,886	1411,916	758,324
-25,052	10,887	1410,816	757,711
-24,038	10,852	1409,917	757,033
-23,023	10,807	1409,056	756,328
-22,009	10,870	1407,742	755,890
-20,994	10,831	1406,735	755,136
-19,979	10,809	1406,129	754,678
-18,965	10,773	1405,114	753,937
-17,950	10,795	1404,023	753,420
-16,936	10,741	1403,408	752,810
-15,921	10,762	1402,121	752,189
-14,906	10,756	1401,189	751,628
-13,892	10,770	1400,195	751,131
-12,877	10,757	1399,656	750,754
-11,863	10,732	1398,709	750,099
-10,848	10,707	1398,000	749,573
-9,833	10,733	1396,926	749,089
-8,819	10,668	1396,009	748,267
-7,804	10,658	1395,314	747,818
-6,790	10,626	1394,168	747,025
-5,775	10,674	1393,137	746,666
-4,760	10,661	1392,193	746,069
-3,746	10,632	1391,379	745,469
-2,731	10,663	1390,363	745,037
-1,717	10,623	1389,727	744,481
-0,702	10,637	1387,692	743,429
0,313	14,665	1301,276	715,587
1,327	30,892	692,444	417,677
2,342	47,990	120,081	79,041
3,356	1,382	16,500	8,341
4,371	4,195	3,424	1,763
5,386	13,750	0,795	0,435
6,400	-200,000	0,091	0,474
7,415	19,498	-0,265	-0,150
8,429	121,775	-0,236	-0,208
9,444	69,768	-0,246	-0,179
10,459	-40,404	-0,337	-0,123
11,473	140,436	-0,236	-0,220
12,488	168,511	-0,256	-0,258
13,502	231,845	-0,371	-0,429
14,517	0,826	-0,347	-0,175
15,531	47,530	-0,269	-0,176
16,546	565,731	-0,207	-0,355
17,561	50,856	-0,453	-0,302
18,575	-32,153	-0,158	-0,062
19,590	15,719	-0,283	-0,156
20,604	-85,735	-0,227	-0,049
21,619	146,426	-0,394	-0,373
22,634	46,588	-0,482	-0,315
23,648	224,248	-0,298	-0,340
24,663	-21,502	-0,427	-0,182
25,677	314,687	-0,316	-0,420
26,692	76,050	-0,489	-0,364
27,707	267,057	-0,201	-0,248
28,721	79,998	-0,362	-0,274
29,736	182,105	-0,261	-0,271
30,750	90,181	-0,472	-0,371
31,765	33,201	-0,315	-0,192
32,780	151,228	-0,253	-0,243
33,794	161,013	-0,237	-0,233
34,809	72,287	-0,376	-0,275
35,823	326,959	-0,210	-0,284
36,838	99,748	-0,342	-0,278
37,853	-2,889	-0,399	-0,196
38,867	502,245	-0,196	-0,319
39,882	194,371	-0,329	-0,351
40,896	54,928	-0,343	-0,233
41,911	27,289	-0,346	-0,204
42,926	38,641	-0,318	-0,199
43,940	10,218	-0,369	-0,197
44,955	49,460	-0,333	-0,220
45,969	235,450	-0,346	-0,403
46,984	47,854	-0,345	-0,226
47,999	-41,074	-0,233	-0,084
49,013	98,619	-0,214	-0,173
50,028	10,657	-0,395	-0,211
51,042	-41,357	-0,511	-0,184
52,057	-17,286	-0,287	-0,127
53,071	-14,086	-0,380	-0,172
54,086	-1,040	-0,318	-0,157
55,101	36,520	-0,229	-0,142
56,115	-5,123	-0,318	-0,153
57,130	286,291	-0,226	-0,287
58,144	102,511	-0,317	-0,260
59,159	79,991	-0,344	-0,259
60,174	95,601	-0,486	-0,389
61,188	84,006	-0,291	-0,223
62,203	30,337	-0,382	-0,228
63,217	36,607	-0,339	-0,210
64,232	25,379	-0,166	-0,097
65,247	5,014	-0,384	-0,198
66,261	96,792	-0,322	-0,259
67,276	118,027	-0,346	-0,299
68,290	132,290	-0,298	-0,269
69,305	363,950	-0,171	-0,242
70,320	262,004	-0,281	-0,343
71,334	68,901	-0,369	-0,265
72,349	-11,496	-0,368	-0,169
73,363	47,340	-0,293	-0,191
74,378	154,029	-0,316	-0,304
75,393	7,456	-0,480	-0,251
76,407	-10,897	-0,202	-0,093
77,422	-59,386	-0,426	-0,128
78,436	-59,136	-0,257	-0,077
79,451	-19,506	-0,353	-0,153
80,466	-37,118	-0,390	-0,146
81,480	45,121	-0,346	-0,223
82,495	-0,775	-0,411	-0,203
83,509	56,992	-0,215	-0,147
84,524	112,347	-0,305	-0,258
85,539	-52,749	-0,270	-0,087
86,553	68,147	-0,263	-0,188
87,568	-22,350	-0,318	-0,135
88,582	-78,005	-0,363	-0,087
89,597	-34,873	-0,356	-0,135
90,611	157,997	-0,272	-0,264
91,626	-47,769	-0,170	-0,057
92,641	-82,133	-0,291	-0,066
93,655	27,823	-0,339	-0,199
94,670	-36,910	-0,277	-0,104
95,684	281,758	-0,239	-0,300
96,699	108,617	-0,368	-0,308
97,714	219,563	-0,153	-0,171
98,728	8,285	-0,250	-0,131
99,743	-24,987	-0,303	-0,125
100,757	-101,816	-0,214	-0,036
101,772	112,920	-0,276	-0,234
102,787	23,287	-0,347	-0,199
103,801	36,920	-0,290	-0,179
104,816	280,314	-0,223	-0,279
105,830	435,451	-0,138	-0,210
106,845	25,601	-0,219	-0,127
107,860	-59,749	-0,255	-0,076
108,874	13,796	-0,297	-0,161
109,889	-83,202	-0,400	-0,089
110,903	-76,061	-0,303	-0,074
111,918	-30,078	-0,186	-0,074
112,933	586,355	-0,152	-0,263
113,947	225,698	-0,113	-0,128
114,962	116,218	-0,172	-0,147
115,976	-43,618	-0,246	-0,086
116,991	-70,210	-0,410	-0,108
118,006	239,415	-0,240	-0,279
119,020	-13,757	-0,275	-0,124
120,035	-68,035	-0,248	-0,067
121,049	50,482	-0,231	-0,152
122,064	-8,061	-0,267	-0,125
123,079	84,105	-0,362	-0,276
124,093	269,406	-0,272	-0,334
125,108	-24,203	-0,355	-0,147
126,122	77,498	-0,213	-0,158
127,137	101,160	-0,294	-0,239
128,151	-40,374	-0,158	-0,057
129,166	-81,707	-0,324	-0,074
130,181	-74,151	-0,319	-0,080
131,195	-97,428	-0,223	-0,040
132,210	-134,309	-0,385	-0,033
133,224	33,684	-0,270	-0,163
134,239	-118,608	-0,293	0,036
135,254	221,830	-0,145	-0,163
136,268	-66,440	-0,175	-0,048
137,283	133,021	-0,264	-0,238
138,297	99,247	-0,251	-0,202
139,312	-81,860	-0,237	-0,054
140,327	41,958	-0,279	-0,176
141,341	187,677	-0,146	-0,152
142,356	282,561	-0,179	-0,224
143,370	-123,544	-0,373	-0,041
144,385	-16,579	-0,283	-0,125
145,400	156,177	-0,137	-0,132
146,414	68,867	-0,199	-0,142
147,429	2,293	-0,221	-0,111
148,443	-51,043	-0,308	-0,100
149,458	36,685	-0,161	-0,099
150,473	-97,888	-0,203	-0,036
151,487	-37,345	-0,189	-0,070
152,502	-65,644	-0,375	-0,104
153,516	53,869	-0,315	-0,210
154,531	29,015	-0,271	-0,160
155,546	96,926	-0,247	-0,197
156,560	129,431	-0,310	-0,276
157,575	800,000	-0,091	-0,276
158,589	48,530	-0,228	-0,148
159,604	452,708	-0,175	-0,271
160,619	256,141	-0,237	-0,284
161,633	79,724	-0,222	-0,165
162,648	39,680	-0,232	-0,145
163,662	31,991	-0,270	-0,162
164,677	338,460	-0,176	-0,239
165,692	337,321	-0,113	-0,153
166,706	-88,378	-0,258	-0,053
167,721	45,125	-0,280	-0,179
168,735	53,514	-0,258	-0,172
169,750	-3,076	-0,277	-0,134
170,764	416,466	-0,126	-0,188
171,779	35,212	-0,205	-0,125
172,794	298,002	-0,216	-0,277
173,808	-1,329	-0,226	-0,111
174,823	88,638	-0,228	-0,176
175,837	34,184	-0,184	-0,112
176,852	24,658	-0,244	-0,140
177,867	50,315	-0,204	-0,134
178,881	-135,631	-0,303	-0,025
179,896	-90,528	-0,113	-0,023
180,910	4,141	-0,204	-0,103
181,925	34,360	-0,257	-0,155
182,940	485,863	-0,163	-0,259
183,954	564,155	-0,184	-0,310
184,969	223,190	-0,190	-0,213
185,983	26,398	-0,236	-0,137
186,998	-122,861	-0,299	-0,033
188,013	-41,579	-0,265	-0,094
189,027	-5,741	-0,186	-0,088
190,042	60,935	-0,240	-0,165
191,056	5,182	-0,249	-0,127
192,071	67,032	-0,281	-0,198
193,086	-87,410	-0,262	-0,055
194,100	128,455	-0,243	-0,215
195,115	-122,956	-0,200	-0,022
196,129	64,679	-0,235	-0,164
197,144	-103,082	-0,193	-0,031
198,159	172,268	-0,196	-0,195
199,173	-42,049	-0,219	-0,077
200,188	-43,559	-0,210	-0,073
201,202	267,124	-0,146	-0,178
202,217	71,917	-0,120	-0,086
203,232	-1,271	-0,249	-0,122
204,246	-49,295	-0,221	-0,073
205,261	800,000	-0,091	-0,268
206,275	303,215	-0,102	-0,131
207,290	85,191	-0,125	-0,095
208,304	246,838	-0,186	-0,218
209,319	5,914	-0,226	-0,116
210,334	175,316	-0,112	-0,112
211,348	58,955	-0,250	-0,170
212,363	75,128	-0,211	-0,154
213,377	56,644	-0,248	-0,167
214,392	631,555	-0,045	-0,079
215,407	226,202	-0,198	-0,222
216,421	71,770	-0,166	-0,119
217,436	289,351	-0,202	-0,255
218,450	800,000	-0,112	-0,269
219,465	-20,557	-0,236	-0,100
220,480	-68,677	-0,288	-0,077
221,494	360,062	-0,132	-0,183
222,509	264,757	-0,071	-0,086
223,523	162,533	-0,210	-0,204
224,538	231,175	-0,169	-0,192
225,553	-38,213	-0,209	-0,076
226,567	185,261	-0,162	-0,166
227,582	290,402	-0,119	-0,150
228,596	121,365	-0,172	-0,148
229,611	32,854	-0,140	-0,084
230,626	800,000	-0,115	-0,242
231,640	26,150	-0,161	-0,093
232,655	-200,000	-0,006	-0,183
233,669	49,163	-0,293	-0,190
234,684	-108,755	-0,205	-0,030
235,699	54,313	-0,111	-0,074
236,713	-167,270	-0,041	0,001
237,728	107,248	-0,164	-0,135
238,742	308,351	-0,161	-0,208
239,757	82,094	-0,232	-0,173
240,772	101,787	-0,131	-0,105
241,786	6,155	-0,234	-0,119
242,801	156,672	-0,097	-0,092
243,815	560,076	-0,118	-0,198
244,830	-5,610	-0,234	-0,110
245,844	282,849	-0,107	-0,133
246,859	58,210	-0,233	-0,157
247,874	285,883	-0,173	-0,216
248,888	76,144	-0,204	-0,149
249,903	13,072	-0,155	-0,083
250,917	34,195	-0,052	-0,031
251,932	-124,708	-0,223	-0,024
252,947	-75,299	-0,130	-0,032
253,961	283,447	-0,151	-0,187
254,976	-200,000	-0,036	-0,144
255,990	489,767	-0,110	-0,174
257,005	412,974	-0,112	-0,165
258,020	-7,822	-0,059	-0,027
259,034	381,407	-0,132	-0,188
260,049	800,000	-0,049	-0,140
261,063	-9,119	-0,200	-0,092
262,078	354,202	-0,088	-0,121
263,093	97,762	-0,154	-0,122
264,107	-70,192	-0,173	-0,045
265,122	349,955	-0,121	-0,165
266,136	-134,162	-0,154	0,013
267,151	-200,000	-0,026	0,086
268,166	-0,451	-0,156	-0,076
269,180	800,000	-0,062	-0,181
270,195	105,773	-0,165	-0,134
271,209	800,000	-0,082	-0,195
272,224	133,607	-0,220	-0,196
273,239	187,123	-0,112	-0,115
274,253	136,720	-0,066	-0,059
275,268	41,385	-0,182	-0,113
276,282	730,432	-0,102	-0,188
277,297	800,000	-0,117	-0,266
278,312	-200,000	0,012	-0,187
279,326	20,674	-0,252	-0,140
280,341	194,835	-0,136	-0,142
281,355	-148,779	-0,155	-0,009
282,370	300,739	-0,161	-0,205
283,384	96,067	-0,170	-0,134
284,399	32,190	-0,237	-0,140
285,414	-11,276	-0,192	-0,087
286,428	1,634	-0,160	-0,079
287,443	-86,796	-0,093	-0,019
288,457	75,142	-0,210	-0,152
289,472	774,823	-0,078	-0,146
290,487	61,590	-0,218	-0,149
291,501	-80,282	-0,266	-0,061
292,516	-85,432	-0,112	-0,024
293,530	187,637	-0,131	-0,135
294,545	-91,275	-0,135	-0,026
295,560	484,365	-0,095	-0,149
296,574	14,567	-0,119	-0,064
297,589	-158,278	-0,132	0,005
298,603	-105,513	-0,181	-0,028
299,618	-49,609	-0,172	-0,056
300,633	-149,605	-0,170	-0,009
301,647	-162,190	-0,092	-0,003
302,662	800,000	-0,068	-0,133
303,676	108,660	-0,057	-0,047
304,691	-9,359	-0,145	-0,066
305,706	87,560	-0,096	-0,073
306,720	-169,146	-0,125	0,003
307,735	207,510	-0,207	-0,222
308,749	260,968	-0,095	-0,113
309,764	800,000	-0,090	-0,201
310,779	-134,965	-0,176	-0,014
311,793	21,943	-0,155	-0,086
312,808	-151,253	-0,201	0,010
313,822	127,202	-0,050	0,043
314,837	200,585	-0,024	-0,025
315,852	101,545	-0,131	0,105
316,866	-163,799	-0,161	-0,005
317,881	119,231	-0,059	-0,050
318,895	278,184	-0,166	-0,203
319,910	-48,157	-0,044	-0,014
320,925	49,106	-0,162	-0,104
321,939	-200,000	0,029	-0,178
322,954	322,730	-0,031	-0,040
323,968	173,283	-0,059	-0,058
324,983	-68,722	-0,110	-0,029
325,997	114,967	-0,079	-0,066
327,012	-100,809	-0,154	-0,026
328,027	102,604	-0,100	-0,080
329,041	-200,000	-0,021	-0,305
330,056	398,194	-0,057	-0,082
331,070	-86,435	-0,107	0,022
332,085	39,110	-0,123	-0,075
333,100	197,307	-0,219	-0,229
334,114	11,258	-0,177	-0,093
335,129	25,927	-0,113	-0,065
336,143	30,424	-0,178	-0,104
337,158	629,723	-0,123	-0,214
338,173	-20,904	-0,098	0,041
339,187	99,426	-0,107	-0,085
340,202	800,000	-0,076	-0,214
341,216	47,106	-0,195	-0,124
342,231	413,946	-0,152	-0,223
343,246	-110,708	-0,165	-0,023
344,260	234,897	-0,132	-0,149
345,275	-41,250	-0,138	-0,048
346,289	-27,634	-0,110	-0,043
347,304	-55,410	-0,125	-0,038
348,319	-200,000	-0,004	-0,063
349,333	4,775	-0,179	-0,090
350,348	149,046	-0,172	-0,159
351,362	383,815	-0,160	-0,226
352,377	-16,269	-0,116	0,050
353,392	-126,512	-0,072	-0,007
354,406	-152,484	-0,071	-0,003
355,421	208,152	1308,176	1400,251
356,435	160,152	1468,084	1400,727
