DTS Sentinel unit serial number:	SN410029Multiplexer serial number:	ORYXHardware model number:	OX2-SRSoftware version number:	ORYX F/W v4,00 Oryx Data Collector v3.7.2.0data status	okinstallation	B3 Nyhavnadifferential loss correction	single-endedforward channel	channel 1reverse channel	N/Adate	2023/12/04time	23:27:30forward acquisition time	300,00reverse acquisition time	0,00gamma	499,1914k internal	0,3200k external	0,3200temperature offset calibration	1,0000default loss term (dB/km)	0,3820temperature slope calibration	1,0000multiplexer offset coefficient	1,0000multiplexer slope coefficient	1,0000fibre end	0,00T internal ref (°C)	14,19T ext. ref 1 (°C)	-1,15T ext. ref 2 (°C)	-1,16length (m)	temperature (°C)	Stokes	anti-Stokes-744,400	484,108	-0,208	-0,345
-743,385	-200,000	0,049	0,190
-742,371	571,574	-0,163	-0,291
-741,356	-200,000	0,017	0,311
-740,342	1,826	-0,175	-0,091
-739,327	-200,000	0,013	0,325
-738,312	206,408	-0,259	-0,294
-737,298	-200,000	-0,030	0,202
-736,283	117,717	-0,262	-0,235
-735,269	400,277	0,088	0,135
-734,254	13,952	-0,231	-0,131
-733,239	6,748	-0,197	0,106
-732,225	105,302	-0,138	-0,119
-731,210	-75,707	-0,069	-0,018
-730,196	-200,000	-0,069	-0,232
-729,181	-39,273	0,040	0,015
-728,167	800,000	-0,028	-0,072
-727,152	100,103	-0,046	-0,039
-726,137	-200,000	-0,003	0,010
-725,123	-30,759	-0,084	0,034
-724,108	132,965	-0,147	-0,138
-723,094	32,607	-0,160	0,101
-722,079	800,000	-0,064	-0,194
-721,064	800,000	0,035	-0,082
-720,050	-200,000	0,007	-0,031
-719,035	-200,000	0,003	0,095
-718,021	50,377	-0,099	-0,068
-717,006	-90,459	0,042	-0,009
-715,991	457,905	-0,032	0,052
-714,977	-200,000	-0,002	-0,046
-713,962	309,912	-0,005	0,006
-712,948	-200,000	0,001	0,026
-711,933	-183,660	-0,091	0,001
-710,918	334,512	-0,076	0,107
-709,904	-200,000	0,004	-0,106
-708,889	-141,494	-0,078	0,006
-707,875	438,541	-0,139	-0,221
-706,860	-200,000	0,003	-0,047
-705,845	25,976	-0,042	0,025
-704,831	-49,098	-0,061	0,021
-703,816	-200,000	-0,004	-0,081
-702,802	641,565	0,049	-0,092
-701,787	800,000	-0,057	-0,141
-700,772	800,000	-0,016	-0,037
-699,758	-200,000	0,020	-0,111
-698,743	-165,363	0,028	-0,001
-697,729	51,476	-0,096	0,066
-696,714	-19,628	-0,114	0,051
-695,699	126,373	0,036	0,034
-694,685	119,084	-0,070	0,063
-693,670	485,935	-0,066	-0,109
-692,656	-32,999	0,068	-0,027
-691,641	0,618	-0,021	-0,011
-690,627	121,967	0,025	-0,023
-689,612	-15,377	-0,061	0,028
-688,597	800,000	0,076	0,217
-687,583	567,211	-0,117	-0,207
-686,568	800,000	-0,044	-0,135
-685,554	-15,240	-0,108	-0,050
-684,539	800,000	-0,022	-0,047
-683,524	-110,125	0,116	-0,017
-682,510	-200,000	-0,014	0,070
-681,495	-200,000	-0,003	-0,090
-680,481	800,000	-0,033	0,074
-679,466	-123,963	-0,135	0,015
-678,451	-124,593	0,100	-0,011
-677,437	251,637	0,067	-0,083
-676,422	-200,000	0,012	-0,224
-675,408	159,939	0,029	-0,030
-674,393	-200,000	0,018	-0,118
-673,378	0,344	-0,046	0,024
-672,364	348,925	-0,074	0,106
-671,349	800,000	-0,061	-0,137
-670,335	-82,089	0,084	-0,020
-669,320	41,503	0,024	0,015
-668,305	559,028	-0,029	0,051
-667,291	75,893	-0,077	0,059
-666,276	-29,353	-0,100	0,041
-665,262	-200,000	0,020	-0,142
-664,247	-200,000	-0,024	0,110
-663,232	800,000	-0,013	0,030
-662,218	119,169	-0,035	-0,031
-661,203	-200,000	-0,021	0,105
-660,189	479,493	0,036	-0,060
-659,174	800,000	-0,040	-0,111
-658,159	105,108	-0,076	-0,065
-657,145	28,670	-0,014	-0,009
-656,130	-27,928	0,107	-0,045
-655,116	-200,000	-0,002	0,145
-654,101	112,896	-0,114	0,100
-653,086	-13,625	-0,032	0,015
-652,072	-200,000	0,020	0,071
-651,057	74,770	-0,115	-0,088
-650,043	-169,813	-0,093	-0,002
-649,028	369,196	0,046	0,067
-648,014	-200,000	-0,001	-0,025
-646,999	105,502	0,100	-0,085
-645,984	-145,160	-0,195	0,013
-644,970	800,000	-0,078	0,186
-643,955	-76,136	-0,114	0,029
-642,941	105,803	-0,115	0,099
-641,926	-152,700	0,183	-0,009
-640,911	62,232	-0,054	-0,039
-639,897	248,562	0,059	0,073
-638,882	-200,000	-0,004	-0,066
-637,868	-200,000	0,010	-0,084
-636,853	-200,000	-0,002	-0,031
-635,838	-106,902	-0,060	-0,010
-634,824	-39,107	0,175	-0,066
-633,809	191,776	-0,047	0,052
-632,795	218,755	0,028	-0,032
-631,780	-105,663	-0,118	-0,019
-630,765	-76,033	-0,094	0,024
-629,751	-23,796	-0,118	0,051
-628,736	-200,000	-0,008	-0,044
-627,722	562,563	-0,030	-0,053
-626,707	-200,000	0,002	-0,052
-625,692	-47,840	0,054	0,019
-624,678	-200,000	-0,024	0,111
-623,663	540,207	0,078	0,135
-622,649	800,000	-0,011	-0,024
-621,634	800,000	-0,029	0,081
-620,619	-41,166	0,110	0,041
-619,605	704,065	-0,115	-0,221
-618,590	-31,105	0,104	0,042
-617,576	800,000	-0,061	0,143
-616,561	-77,316	-0,074	0,019
-615,546	-200,000	-0,005	0,113
-614,532	-41,511	-0,067	-0,025
-613,517	-200,000	-0,039	-0,131
-612,503	78,000	-0,141	0,109
-611,488	-4,012	0,082	-0,041
-610,474	236,279	0,046	0,055
-609,459	-79,890	-0,089	0,021
-608,444	208,947	0,048	0,054
-607,430	-67,571	-0,081	0,023
-606,415	92,408	-0,057	-0,046
-605,401	-115,769	-0,012	-0,002
-604,386	30,981	0,106	-0,066
-603,371	-49,727	-0,148	-0,051
-602,357	-61,471	-0,129	-0,039
-601,342	800,000	-0,037	0,101
-600,328	-153,522	-0,169	0,008
-599,313	-200,000	0,034	-0,146
-598,298	294,490	-0,095	0,126
-597,284	800,000	-0,030	0,076
-596,269	-161,765	-0,122	-0,004
-595,255	301,814	0,049	-0,065
-594,240	-200,000	0,021	0,082
-593,225	-71,941	-0,105	-0,028
-592,211	72,312	-0,034	-0,025
-591,196	800,000	0,061	0,141
-590,182	-105,826	-0,111	0,018
-589,167	800,000	-0,055	0,137
-588,152	-123,110	-0,180	0,021
-587,138	5,881	0,047	0,025
-586,123	-200,000	-0,001	-0,138
-585,109	800,000	-0,025	-0,070
-584,094	800,000	0,036	-0,078
-583,079	-200,000	-0,007	-0,080
-582,065	162,381	0,145	0,147
-581,050	-61,291	-0,059	-0,018
-580,036	-83,813	-0,027	0,006
-579,021	800,000	-0,061	-0,184
-578,006	800,000	-0,010	-0,028
-576,992	-133,409	-0,137	0,012
-575,977	435,006	0,036	-0,057
-574,963	-164,117	0,076	0,002
-573,948	-200,000	0,003	0,080
-572,934	-123,981	0,100	-0,011
-571,919	800,000	0,053	-0,153
-570,904	627,782	-0,045	-0,082
-569,890	106,508	-0,088	0,075
-568,875	800,000	0,028	0,064
-567,861	800,000	-0,049	0,100
-566,846	570,932	0,042	-0,075
-565,831	92,917	-0,069	0,056
-564,817	206,020	-0,057	0,064
-563,802	164,019	-0,155	-0,158
-562,788	71,588	-0,038	-0,028
-561,773	-80,777	-0,056	-0,013
-560,758	-64,086	0,042	-0,012
-559,744	-200,000	0,003	-0,062
-558,729	201,069	0,032	0,035
-557,715	-116,555	-0,144	-0,019
-556,700	800,000	-0,059	-0,173
-555,685	-200,000	0,005	0,036
-554,671	-7,549	0,094	-0,046
-553,656	-197,093	-0,066	-0,000
-552,642	-95,309	0,052	0,010
-551,627	168,206	0,092	0,095
-550,612	-140,742	0,110	-0,008
-549,598	-200,000	0,025	-0,110
-548,583	-200,000	-0,011	-0,066
-547,569	-92,221	0,035	-0,007
-546,554	161,858	-0,081	-0,082
-545,539	188,601	-0,038	-0,041
-544,525	303,714	-0,087	0,117
-543,510	-200,000	-0,018	-0,188
-542,496	333,207	-0,064	0,090
-541,481	-200,000	-0,008	-0,086
-540,466	562,536	0,028	0,050
-539,452	-139,775	0,025	0,002
-538,437	-68,235	0,146	0,041
-537,423	-47,827	-0,101	0,035
-536,408	-36,778	-0,074	0,029
-535,393	190,848	0,063	0,069
-534,379	78,444	-0,060	0,046
-533,364	89,842	-0,065	0,052
-532,350	405,897	0,101	0,154
-531,335	-200,000	-0,005	0,136
-530,321	218,251	0,095	0,110
-529,306	-200,000	0,012	-0,170
-528,291	-200,000	-0,019	-0,123
-527,277	-145,442	-0,070	0,004
-526,262	-124,223	0,122	-0,014
-525,248	800,000	0,051	-0,150
-524,233	800,000	0,010	0,032
-523,218	472,029	0,071	-0,116
-522,204	677,991	0,056	-0,105
-521,189	-200,000	-0,025	-0,141
-520,175	-200,000	-0,003	-0,157
-519,160	603,999	0,030	0,054
-518,145	91,122	0,053	-0,043
-517,131	-200,000	-0,012	-0,075
-516,116	128,881	0,070	-0,064
-515,102	-200,000	-0,002	0,043
-514,087	-55,640	-0,072	-0,023
-513,072	47,178	-0,077	-0,051
-512,058	-200,000	0,006	-0,138
-511,043	-38,779	0,006	0,002
-510,029	-144,458	0,077	0,005
-509,014	-200,000	0,003	0,134
-507,999	-200,000	-0,029	0,113
-506,985	-200,000	0,044	-0,154
-505,970	69,158	-0,018	-0,013
-504,956	87,212	0,036	0,029
-503,941	-127,830	0,059	0,006
-502,926	178,774	-0,093	0,098
-501,912	46,612	-0,073	0,048
-500,897	17,427	0,142	-0,081
-499,883	-200,000	0,023	0,114
-498,868	55,767	-0,039	-0,027
-497,853	-158,570	0,135	-0,006
-496,839	254,857	0,034	-0,043
-495,824	24,181	0,079	-0,047
-494,810	194,864	-0,046	0,051
-493,795	57,973	0,062	0,044
-492,781	67,533	-0,028	-0,020
-491,766	-115,168	0,142	-0,019
-490,751	800,000	-0,040	-0,114
-489,737	-17,003	0,156	0,071
-488,722	-26,569	-0,097	0,041
-487,708	800,000	-0,028	-0,063
-486,693	-129,442	0,031	0,003
-485,678	621,154	0,042	-0,076
-484,664	-200,000	-0,035	-0,130
-483,649	-10,313	-0,054	-0,026
-482,635	93,201	0,066	0,054
-481,620	-200,000	-0,010	0,107
-480,605	800,000	0,014	0,032
-479,591	44,806	-0,044	0,029
-478,576	99,430	-0,076	0,064
-477,562	-200,000	-0,024	-0,116
-476,547	224,794	0,108	-0,126
-475,532	50,218	0,030	0,020
-474,518	-102,230	0,038	-0,007
-473,503	1,551	-0,052	-0,027
-472,489	-200,000	0,013	0,071
-471,474	-11,145	0,111	-0,053
-470,459	99,219	0,060	-0,050
-469,445	85,258	-0,089	-0,070
-468,430	-146,344	0,078	-0,005
-467,416	-200,000	0,013	0,082
-466,401	20,190	0,106	0,061
-465,386	-34,489	-0,081	0,032
-464,372	439,084	0,089	0,141
-463,357	450,149	0,013	0,021
-462,343	-3,587	-0,121	0,060
-461,328	800,000	-0,077	0,177
-460,313	55,246	0,069	-0,048
-459,299	-200,000	0,000	-0,129
-458,284	189,206	0,072	0,078
-457,270	-132,545	-0,004	-0,000
-456,255	-200,000	-0,007	0,115
-455,241	797,150	0,038	-0,076
-454,226	-103,832	-0,140	0,023
-453,211	-23,236	-0,106	0,046
-452,197	132,559	0,108	0,101
-451,182	-89,391	-0,049	0,010
-450,168	197,099	0,057	0,062
-449,153	-106,333	-0,077	0,012
-448,138	261,179	0,077	0,096
-447,124	396,652	0,034	-0,052
-446,109	-128,119	0,053	0,005
-445,095	39,143	-0,132	0,085
-444,080	134,556	0,107	0,100
-443,065	800,000	-0,026	0,066
-442,051	-61,519	-0,086	0,026
-441,036	-63,596	-0,063	0,018
-440,022	-133,608	-0,098	0,009
-439,007	55,757	-0,104	-0,073
-437,992	-174,304	0,070	0,001
-436,978	75,206	0,064	-0,049
-435,963	134,938	0,053	0,049
-434,949	-200,000	0,007	-0,080
-433,934	4,202	-0,105	-0,055
-432,919	800,000	0,052	0,118
-431,905	-80,838	0,076	0,018
-430,890	168,719	-0,042	-0,043
-429,876	-200,000	0,046	0,174
-428,861	800,000	0,024	-0,075
-427,846	-52,851	-0,075	0,025
-426,832	-200,000	-0,037	0,125
-425,817	-79,296	-0,018	0,004
-424,803	540,930	0,086	-0,148
-423,788	575,449	-0,002	0,003
-422,773	-157,379	-0,068	0,003
-421,759	-200,000	0,006	-0,025
-420,744	763,609	-0,049	-0,097
-419,730	800,000	-0,036	-0,094
-418,715	33,429	-0,066	0,041
-417,701	-39,704	-0,139	-0,052
-416,686	563,580	-0,033	0,058
-415,671	-200,000	-0,011	0,041
-414,657	51,179	0,056	-0,038
-413,642	283,215	-0,065	0,084
-412,628	800,000	0,032	0,090
-411,613	-56,137	-0,070	-0,022
-410,598	219,922	0,065	-0,075
-409,584	-114,238	-0,112	-0,015
-408,569	800,000	0,037	-0,086
-407,555	73,529	0,116	0,087
-406,540	17,370	-0,135	0,077
-405,525	-9,762	-0,105	-0,050
-404,511	-200,000	0,026	-0,095
-403,496	455,429	0,024	-0,039
-402,482	800,000	0,044	-0,130
-401,467	-21,139	0,058	-0,025
-400,452	-200,000	-0,009	-0,114
-399,438	-149,859	0,156	-0,009
-398,423	-200,000	0,037	-0,139
-397,409	51,947	-0,011	0,007
-396,394	166,379	-0,023	-0,024
-395,379	-200,000	0,019	0,100
-394,365	27,429	0,159	0,096
-393,350	267,810	0,047	0,060
-392,336	-200,000	0,005	0,019
-391,321	532,076	-0,020	-0,034
-390,306	-27,227	-0,084	-0,035
-389,292	-162,459	0,078	0,003
-388,277	97,363	-0,138	0,113
-387,263	-42,605	0,017	0,006
-386,248	-200,000	-0,031	0,135
-385,233	-145,870	0,072	-0,005
-384,219	-22,116	0,165	0,072
-383,204	-105,884	0,061	-0,010
-382,190	800,000	-0,034	-0,092
-381,175	678,660	-0,080	-0,151
-380,160	238,860	0,093	-0,111
-379,146	800,000	0,044	0,090
-378,131	55,337	0,054	-0,037
-377,117	-76,162	0,054	-0,014
-376,102	528,894	0,049	0,083
-375,088	-171,299	-0,088	0,002
-374,073	-200,000	0,047	-0,170
-373,058	264,243	0,099	0,124
-372,044	800,000	-0,027	0,074
-371,029	133,786	0,028	0,026
-370,015	-186,027	0,094	0,001
-369,000	407,723	-0,062	-0,095
-367,985	74,850	0,010	-0,008
-366,971	-144,067	-0,179	-0,012
-365,956	-200,000	-0,013	0,063
-364,942	-75,543	0,143	-0,036
-363,927	-200,000	-0,010	-0,143
-362,912	-200,000	0,002	0,077
-361,898	165,332	-0,014	0,014
-360,883	-200,000	0,004	-0,045
-359,869	-17,066	0,106	-0,048
-358,854	33,614	0,102	-0,063
-357,839	-200,000	0,004	0,059
-356,825	-102,316	0,118	-0,020
-355,810	105,770	0,155	0,131
-354,796	236,046	0,068	-0,080
-353,781	-116,942	-0,047	0,006
-352,766	-82,859	0,110	-0,025
-351,752	800,000	0,019	0,042
-350,737	-0,982	0,180	0,091
-349,723	186,312	0,053	0,057
-348,708	-97,327	0,146	0,027
-347,693	469,241	-0,020	0,032
-346,679	-0,893	-0,087	0,044
-345,664	108,008	-0,035	-0,030
-344,650	344,066	-0,080	-0,113
-343,635	800,000	-0,022	-0,065
-342,620	267,121	0,042	0,053
-341,606	16,519	0,066	-0,037
-340,591	-110,208	-0,075	-0,011
-339,577	-74,275	-0,108	0,028
-338,562	31,380	-0,084	0,052
-337,548	203,593	0,048	0,054
-336,533	800,000	0,048	0,132
-335,518	572,221	-0,028	0,050
-334,504	-62,520	-0,153	-0,045
-333,489	-200,000	-0,017	0,107
-332,475	-63,477	-0,072	0,021
-331,460	-200,000	-0,046	-0,181
-330,445	33,603	0,100	-0,062
-329,431	-200,000	-0,015	0,048
-328,416	800,000	-0,027	-0,080
-327,402	-25,319	-0,055	-0,023
-326,387	800,000	0,020	0,050
-325,372	800,000	0,033	-0,087
-324,358	7,953	-0,035	0,019
-323,343	120,502	0,090	0,080
-322,329	800,000	0,038	0,094
-321,314	-200,000	-0,018	-0,085
-320,299	-14,790	0,045	0,020
-319,285	13,595	0,061	0,034
-318,270	-200,000	-0,030	0,100
-317,256	391,090	0,063	-0,094
-316,241	55,163	-0,088	-0,060
-315,226	-152,662	-0,013	0,001
-314,212	144,016	0,077	0,073
-313,197	-90,332	0,132	0,027
-312,183	-50,165	0,039	-0,013
-311,168	754,495	0,068	0,132
-310,153	800,000	0,028	0,060
-309,139	-121,932	-0,097	0,011
-308,124	158,777	0,043	0,043
-307,110	-116,959	0,063	0,008
-306,095	-129,112	-0,132	0,013
-305,080	-200,000	0,010	0,120
-304,066	155,433	0,123	-0,121
-303,051	-200,000	-0,041	-0,142
-302,037	-91,756	0,055	0,011
-301,022	47,933	0,132	0,088
-300,008	479,798	0,096	0,156
-298,993	338,301	-0,083	0,116
-297,978	530,769	-0,011	0,019
-296,964	279,964	-0,040	-0,052
-295,949	-200,000	-0,005	-0,199
-294,935	-143,884	0,109	0,007
-293,920	257,659	-0,038	0,046
-292,905	-200,000	0,008	0,058
-291,891	-91,276	0,112	0,023
-290,876	-200,000	0,022	0,094
-289,862	-116,549	-0,161	0,021
-288,847	-200,000	-0,033	-0,126
-287,832	-38,751	0,039	0,015
-286,818	541,043	0,028	-0,047
-285,803	785,970	-0,038	0,075
-284,789	419,854	0,060	0,092
-283,774	800,000	-0,025	-0,054
-282,759	155,285	-0,062	-0,061
-281,745	800,000	-0,033	-0,084
-280,730	146,680	-0,088	0,085
-279,716	-91,803	-0,081	-0,016
-278,701	59,068	0,028	-0,020
-277,686	-200,000	-0,005	0,091
-276,672	252,000	0,070	0,086
-275,657	35,665	-0,025	-0,016
-274,643	112,808	-0,163	-0,141
-273,628	367,686	0,095	-0,138
-272,613	800,000	0,016	-0,040
-271,599	50,489	-0,119	0,080
-270,584	-94,745	0,065	-0,013
-269,570	800,000	-0,053	0,127
-268,555	268,265	0,095	0,119
-267,540	44,446	-0,027	-0,017
-266,526	-126,999	-0,068	0,007
-265,511	-103,394	0,010	-0,002
-264,497	38,614	0,003	0,002
-263,482	-200,000	-0,004	0,025
-262,467	800,000	-0,041	0,121
-261,453	-200,000	0,019	-0,115
-260,438	60,095	0,015	0,011
-259,424	778,475	-0,084	-0,164
-258,409	-200,000	0,013	0,046
-257,395	276,092	0,022	0,028
-256,380	377,501	0,042	0,062
-255,365	28,749	-0,084	-0,051
-254,351	-128,680	-0,031	0,003
-253,336	179,347	-0,012	-0,013
-252,322	-200,000	-0,027	-0,136
-251,307	106,612	0,049	-0,042
-250,292	397,658	0,067	-0,101
-249,278	6,087	0,148	-0,078
-248,263	-200,000	0,013	0,048
-247,249	800,000	0,020	0,052
-246,234	-200,000	-0,010	0,090
-245,219	-64,402	-0,035	0,010
-244,205	-74,930	-0,068	0,017
-243,190	-57,928	0,177	0,055
-242,176	-200,000	0,020	0,192
-241,161	83,669	0,108	-0,084
-240,146	-13,506	-0,073	0,034
-239,132	364,229	0,014	-0,021
-238,117	-36,703	-0,073	-0,028
-237,103	-200,000	0,011	-0,128
-236,088	-200,000	-0,007	0,036
-235,073	-200,000	0,005	0,077
-234,059	58,523	0,057	-0,040
-233,044	-18,889	0,081	0,036
-232,030	298,881	0,050	0,066
-231,015	263,043	0,051	-0,063
-230,000	-61,514	-0,073	0,022
-228,986	-88,034	-0,058	-0,012
-227,971	482,001	-0,054	-0,088
-226,957	-52,838	0,079	0,026
-225,942	-135,456	0,082	0,007
-224,927	-200,000	-0,008	-0,061
-223,913	-200,000	-0,000	0,018
-222,898	80,614	0,048	0,037
-221,884	52,946	-0,122	-0,083
-220,869	30,020	0,053	-0,032
-219,855	-105,165	-0,043	-0,007
-218,840	-102,104	0,059	0,010
-217,825	-90,695	-0,150	-0,031
-216,811	-4,371	0,050	0,024
-215,796	-65,019	-0,137	-0,039
-214,782	800,000	0,089	-0,208
-213,767	-200,000	-0,001	-0,128
-212,752	-131,641	-0,093	0,009
-211,738	393,191	-0,084	0,125
-210,723	451,347	0,032	0,050
-209,709	-153,030	-0,123	0,006
-208,694	-200,000	-0,016	-0,053
-207,679	-200,000	-0,022	-0,150
-206,665	663,794	-0,066	-0,122
-205,650	63,555	0,096	0,069
-204,636	-75,724	0,156	0,039
-203,621	201,119	0,072	-0,079
-202,606	-64,624	-0,043	0,012
-201,592	-200,000	-0,039	-0,193
-200,577	539,556	-0,077	0,130
-199,563	49,462	0,074	-0,050
-198,548	64,355	-0,047	-0,034
-197,533	-200,000	0,011	-0,075
-196,519	-184,035	-0,081	-0,001
-195,504	-200,000	0,017	-0,057
-194,490	141,907	-0,085	-0,080
-193,475	800,000	0,060	0,157
-192,460	202,539	-0,016	-0,018
-191,446	-115,595	0,077	-0,010
-190,431	-200,000	0,008	0,059
-189,417	-139,770	0,039	-0,003
-188,402	-110,356	-0,068	-0,010
-187,387	-200,000	0,001	0,029
-186,373	-200,000	-0,016	-0,105
-185,358	800,000	0,005	0,013
-184,344	-88,405	0,164	0,034
-183,329	-200,000	-0,006	0,031
-182,315	183,264	-0,026	0,028
-181,300	800,000	-0,042	-0,087
-180,285	-200,000	-0,006	0,072
-179,271	-75,226	-0,044	0,011
-178,256	104,748	-0,158	-0,132
-177,242	-139,636	-0,014	-0,001
-176,227	547,577	-0,049	0,084
-175,212	-30,670	0,071	0,028
-174,198	409,738	-0,018	0,027
-173,183	800,000	-0,049	0,152
-172,169	-200,000	0,056	0,199
-171,154	-96,144	-0,066	0,012
-170,139	16,739	-0,174	-0,098
-169,125	-6,523	0,207	0,100
-168,110	291,897	-0,050	-0,065
-167,096	-113,248	0,073	0,010
-166,081	-200,000	-0,056	-0,175
-165,066	-107,865	0,060	-0,009
-164,052	800,000	-0,015	-0,031
-163,037	-88,450	-0,146	-0,031
-162,023	61,455	0,146	0,103
-161,008	-48,694	0,080	0,027
-159,993	-93,734	-0,045	-0,009
-158,979	716,150	0,035	-0,066
-157,964	221,342	0,145	-0,166
-156,950	331,943	-0,080	-0,110
-155,935	789,705	0,011	0,022
-154,920	-200,000	0,015	0,207
-153,906	-200,000	0,023	0,174
-152,891	-200,000	0,027	0,104
-151,877	242,290	0,068	0,081
-150,862	-133,157	0,060	0,005
-149,847	278,367	-0,012	0,015
-148,833	184,656	-0,055	-0,058
-147,818	-200,000	-0,010	0,060
-146,804	108,133	-0,049	-0,041
-145,789	-141,895	0,133	0,009
-144,775	800,000	0,007	0,015
-143,760	-69,439	0,040	-0,011
-142,745	36,917	-0,125	0,079
-141,731	38,235	0,019	-0,012
-140,716	-1,819	-0,041	0,021
-139,702	-200,000	0,017	0,056
-138,687	-54,143	0,061	-0,020
-137,672	548,469	-0,067	0,114
-136,658	88,163	-0,026	-0,021
-135,643	-200,000	0,016	-0,099
-134,629	800,000	-0,064	-0,150
-133,614	4,269	0,060	0,031
-132,599	-31,830	-0,204	0,081
-131,585	138,378	0,056	0,053
-130,570	-156,866	-0,088	-0,004
-129,556	-200,000	-0,013	-0,090
-128,541	330,366	0,080	-0,110
-127,526	-146,312	-0,084	-0,005
-126,512	-20,489	-0,105	0,045
-125,497	-55,604	0,091	0,029
-124,483	-50,979	-0,084	0,028
-123,468	-95,097	-0,048	0,009
-122,453	-200,000	0,001	-0,061
-121,439	55,819	-0,084	-0,057
-120,424	164,423	0,065	0,066
-119,410	-96,560	0,041	0,008
-118,395	-132,278	0,110	0,010
-117,380	-200,000	-0,019	0,077
-116,366	97,856	-0,087	0,071
-115,351	-32,393	0,023	-0,009
-114,337	107,988	0,065	0,055
-113,322	-200,000	0,001	-0,117
-112,307	-109,677	-0,097	0,014
-111,293	-15,757	0,095	0,043
-110,278	-200,000	0,000	0,102
-109,264	6,600	-0,097	0,051
-108,249	-165,632	-0,104	0,003
-107,234	-200,000	0,005	0,069
-106,220	-110,465	-0,124	0,018
-105,205	-102,799	0,030	-0,005
-104,191	241,563	0,058	0,068
-103,176	-59,471	0,029	-0,009
-102,162	623,061	0,040	-0,072
-101,147	-200,000	0,004	-0,093
-100,132	139,181	0,122	-0,113
-99,118	44,127	-0,104	-0,068
-98,103	725,516	-0,018	-0,033
-97,089	79,080	0,074	-0,056
-96,074	456,905	0,024	-0,039
-95,059	0,277	-0,071	-0,036
-94,045	441,905	0,013	0,021
-93,030	331,133	0,063	-0,087
-92,016	-200,000	-0,007	-0,071
-91,001	130,069	0,051	0,046
-89,986	-122,551	-0,016	0,002
-88,972	606,164	0,049	-0,087
-87,957	-200,000	0,022	0,161
-86,943	129,688	-0,050	-0,045
-85,928	-200,000	-0,007	-0,063
-84,913	-66,448	0,048	0,013
-83,899	-90,058	-0,078	0,016
-82,884	84,063	0,094	-0,073
-81,870	149,995	-0,086	0,083
-80,855	167,641	-0,022	0,022
-79,840	-139,498	0,114	0,009
-78,826	145,759	-0,122	-0,116
-77,811	304,982	-0,077	0,102
-76,797	40,984	0,096	0,061
-75,782	-166,369	0,166	0,005
-74,767	-55,405	-0,035	0,011
-73,753	-200,000	-0,031	0,159
-72,738	30,060	-0,040	0,024
-71,724	59,192	0,086	-0,060
-70,709	-63,984	-0,158	-0,045
-69,694	-150,031	0,086	-0,005
-68,680	-76,676	0,052	-0,013
-67,665	596,121	0,051	-0,089
-66,651	800,000	-0,052	-0,140
-65,636	-111,244	0,078	-0,011
-64,622	428,861	-0,036	0,055
-63,607	-200,000	-0,004	-0,041
-62,592	-148,687	-0,054	0,003
-61,578	800,000	0,042	0,089
-60,563	20,605	-0,060	-0,034
-59,549	237,199	-0,056	-0,066
-58,534	-6,453	-1,610	-0,775
-57,519	428,038	-1,298	-1,991
-56,505	-200,000	-0,521	-4,595
-55,490	199,027	0,986	1,071
-54,476	800,000	4,887	11,331
-53,461	-200,000	18,724	304,432
-52,446	800,000	735,832	2289,344
-51,432	566,357	1652,116	2850,269
-50,417	78,947	1669,842	1264,787
-49,403	22,141	1542,714	889,533
-48,388	16,039	1465,848	815,558
-47,373	17,743	1455,884	818,213
-46,359	16,915	1445,971	808,643
-45,344	14,317	1441,283	793,548
-44,330	14,238	1439,421	792,115
-43,315	14,246	1437,787	791,223
-42,300	14,229	1436,039	790,145
-41,286	14,281	1434,949	789,765
-40,271	14,239	1433,702	788,845
-39,257	14,256	1432,346	788,150
-38,242	14,284	1431,067	787,549
-37,227	14,323	1429,817	787,014
-36,213	14,327	1428,660	786,367
-35,198	14,310	1427,385	785,550
-34,184	14,341	1426,441	785,149
-33,169	14,232	1425,168	783,901
-32,154	14,301	1424,058	783,585
-31,140	14,270	1422,641	782,628
-30,125	14,352	1421,617	782,418
-29,111	14,324	1420,317	781,542
-28,096	14,253	1419,329	780,630
-27,082	14,249	1418,440	780,094
-26,067	14,226	1417,303	779,329
-25,052	14,209	1416,290	778,660
-24,038	14,214	1415,148	778,023
-23,023	14,229	1414,266	777,579
-22,009	14,167	1413,410	776,785
-20,994	14,194	1412,417	776,339
-19,979	14,155	1411,562	775,652
-18,965	14,136	1410,419	774,905
-17,950	14,140	1409,532	774,409
-16,936	14,157	1408,499	773,889
-15,921	14,108	1407,534	773,098
-14,906	14,095	1406,631	772,510
-13,892	14,141	1405,664	772,162
-12,877	14,075	1404,951	771,431
-11,863	14,152	1403,815	771,139
-10,848	14,110	1403,129	770,533
-9,833	14,095	1402,138	769,888
-8,819	14,016	1401,391	769,083
-7,804	14,029	1400,231	768,473
-6,790	14,026	1399,230	767,878
-5,775	14,011	1398,248	767,243
-4,760	14,032	1397,237	766,753
-3,746	14,012	1396,428	766,188
-2,731	14,011	1395,641	765,718
-1,717	13,996	1394,885	765,205
-0,702	13,990	1392,940	764,081
0,313	17,808	1310,898	736,780
1,327	34,032	706,140	434,486
2,342	52,298	124,189	83,703
3,356	4,062	16,769	8,654
4,371	1,615	3,167	1,608
5,386	3,073	0,532	0,273
6,400	-200,000	0,026	0,089
7,415	-49,906	-0,184	-0,061
8,429	116,641	-0,309	-0,269
9,444	-28,600	-0,329	-0,133
10,459	6,266	-0,318	-0,166
11,473	-44,445	-0,352	-0,124
12,488	34,942	-0,262	-0,162
13,502	247,396	-0,273	-0,327
14,517	56,373	-0,435	-0,299
15,531	63,030	-0,336	-0,238
16,546	82,170	-0,393	-0,301
17,561	349,782	-0,296	-0,415
18,575	83,671	-0,126	-0,097
19,590	77,189	-0,264	-0,198
20,604	-85,032	-0,288	-0,063
21,619	24,186	-0,424	-0,247
22,634	654,933	-0,325	-0,592
23,648	142,477	-0,392	-0,368
24,663	271,570	-0,370	-0,461
25,677	-10,720	-0,541	-0,252
26,692	-64,232	-0,466	-0,133
27,707	15,918	-0,424	-0,235
28,721	49,954	-0,332	-0,220
29,736	25,912	-0,468	-0,275
30,750	101,340	-0,387	-0,318
31,765	208,223	-0,336	-0,372
32,780	40,918	-0,419	-0,266
33,794	60,450	-0,257	-0,179
34,809	31,062	-0,260	-0,157
35,823	28,380	-0,391	-0,233
36,838	155,570	-0,321	-0,312
37,853	25,909	-0,412	-0,242
38,867	-14,922	-0,490	-0,221
39,882	-2,921	-0,220	-0,108
40,896	13,018	-0,271	-0,147
41,911	108,700	-0,322	-0,271
42,926	3,287	-0,402	-0,205
43,940	58,866	-0,423	-0,293
44,955	134,151	-0,265	-0,242
45,969	44,140	-0,456	-0,294
46,984	173,780	-0,277	-0,282
47,999	47,600	-0,348	-0,228
49,013	277,184	-0,217	-0,273
50,028	-97,633	-0,256	0,046
51,042	56,993	-0,315	-0,216
52,057	101,447	-0,352	-0,289
53,071	74,826	-0,415	-0,308
54,086	130,673	-0,333	-0,301
55,101	124,038	-0,289	-0,255
56,115	191,092	-0,278	-0,295
57,130	0,060	-0,403	-0,201
58,144	9,229	-0,372	-0,198
59,159	43,896	-0,345	-0,222
60,174	-33,597	-0,394	-0,152
61,188	230,381	-0,297	-0,342
62,203	51,939	-0,368	-0,246
63,217	-60,958	-0,257	-0,076
64,232	71,100	-0,252	-0,184
65,247	80,463	-0,264	-0,200
66,261	95,904	-0,322	-0,259
67,276	800,000	-0,177	-0,400
68,290	110,429	-0,314	-0,266
69,305	98,331	-0,254	-0,206
70,320	65,846	-0,390	-0,278
71,334	167,225	-0,287	-0,286
72,349	101,517	-0,337	-0,276
73,363	602,724	-0,170	-0,299
74,378	134,791	-0,276	-0,252
75,393	57,522	-0,263	-0,180
76,407	1,236	-0,349	-0,176
77,422	84,557	-0,202	-0,155
78,436	-19,834	-0,319	-0,138
79,451	29,439	-0,294	-0,175
80,466	-38,096	-0,322	-0,120
81,480	240,135	-0,317	-0,372
82,495	766,072	-0,186	-0,357
83,509	624,723	-0,176	-0,312
84,524	63,039	-0,272	-0,191
85,539	61,856	-0,243	-0,170
86,553	-7,987	-0,338	-0,159
87,568	319,032	-0,200	-0,267
88,582	72,711	-0,367	-0,269
89,597	18,518	-0,384	-0,215
90,611	48,886	-0,289	-0,190
91,626	185,171	-0,224	-0,233
92,641	40,242	-0,224	-0,141
93,655	10,128	-0,342	-0,182
94,670	13,466	-0,304	-0,165
95,684	137,296	-0,393	-0,361
96,699	181,852	-0,302	-0,313
97,714	44,470	-0,274	-0,177
98,728	196,387	-0,218	-0,233
99,743	13,607	-0,270	-0,147
100,757	-4,247	-0,218	-0,105
101,772	90,849	-0,249	-0,196
102,787	-2,190	-0,308	-0,151
103,801	157,167	-0,291	-0,283
104,816	105,249	-0,133	-0,110
105,830	-46,131	-0,307	-0,105
106,845	-9,468	-0,237	-0,110
107,860	-103,405	-0,372	-0,061
108,874	-28,449	-0,180	-0,072
109,889	87,561	-0,258	-0,200
110,903	665,165	-0,199	-0,361
111,918	218,002	-0,280	-0,313
112,933	24,827	-0,227	-0,131
113,947	-78,753	-0,214	-0,051
114,962	-33,694	-0,300	-0,115
115,976	-17,983	-0,265	-0,116
116,991	228,024	-0,258	-0,295
118,006	44,872	-0,363	-0,234
119,020	-41,639	-0,287	-0,103
120,035	-43,802	-0,164	-0,058
121,049	-80,494	-0,274	-0,063
122,064	149,813	-0,111	-0,106
123,079	-193,644	-0,260	0,002
124,093	-16,947	-0,374	-0,165
125,108	34,395	-0,419	-0,255
126,122	302,891	-0,183	-0,238
127,137	800,000	-0,127	-0,279
128,151	117,201	-0,200	-0,172
129,166	400,912	-0,224	-0,330
130,181	-96,897	-0,408	-0,074
131,195	389,488	-0,208	-0,302
132,210	66,436	-0,335	-0,238
133,224	-123,141	-0,270	-0,030
134,239	144,347	-0,263	-0,246
135,254	20,607	-0,251	-0,142
136,268	89,494	-0,238	-0,186
137,283	142,140	-0,205	-0,190
138,297	-52,028	-0,292	-0,094
139,312	53,356	-0,360	-0,241
140,327	126,375	-0,163	-0,144
141,341	-6,984	-0,269	-0,127
142,356	195,151	-0,125	-0,133
143,370	95,870	-0,240	-0,191
144,385	70,320	-0,225	-0,163
145,400	36,725	-0,211	-0,130
146,414	505,343	-0,173	-0,281
147,429	136,188	-0,250	-0,228
148,443	141,293	-0,217	-0,200
149,458	118,203	-0,307	-0,265
150,473	47,119	-0,119	-0,077
151,487	74,352	-0,188	-0,138
152,502	-28,111	-0,283	-0,114
153,516	72,752	-0,241	-0,175
154,531	55,378	-0,233	-0,157
155,546	222,542	-0,261	-0,294
156,560	-14,713	-0,325	-0,145
157,575	-15,720	-0,208	-0,092
158,589	800,000	-0,089	-0,219
159,604	-10,593	-0,309	-0,142
160,619	-93,126	-0,406	-0,078
161,633	234,538	-0,133	-0,153
162,648	-72,065	-0,350	-0,090
163,662	-17,120	-0,322	-0,141
164,677	-76,871	-0,257	-0,062
165,692	-106,146	-0,266	0,041
166,706	-124,038	-0,241	-0,026
167,721	181,754	-0,258	-0,265
168,735	124,748	-0,265	-0,233
169,750	463,378	-0,139	-0,217
170,764	32,980	-0,289	-0,174
171,779	-83,097	-0,234	0,052
172,794	4,109	-0,231	-0,117
173,808	-111,066	-0,321	-0,045
174,823	-114,039	-0,177	-0,024
175,837	-102,882	-0,255	-0,042
176,852	155,657	-0,128	-0,123
177,867	339,236	-0,191	-0,260
178,881	377,754	-0,134	-0,191
179,896	46,245	-0,217	-0,140
180,910	83,108	-0,227	-0,172
181,925	174,961	-0,207	-0,209
182,940	124,173	-0,250	-0,219
183,954	346,771	-0,123	-0,169
184,969	144,575	-0,256	-0,238
185,983	162,166	-0,122	-0,119
186,998	117,686	-0,121	-0,103
188,013	-0,123	-0,211	-0,104
189,027	22,132	-0,280	-0,159
190,042	122,091	-0,264	-0,230
191,056	60,015	-0,237	-0,163
192,071	-29,542	-0,266	-0,105
193,086	62,401	-0,192	-0,134
194,100	150,415	-0,223	-0,211
195,115	134,767	-0,247	-0,223
196,129	144,804	-0,205	-0,191
197,144	652,246	-0,163	-0,292
198,159	176,981	-0,206	-0,209
199,173	220,913	-0,112	-0,125
200,188	55,591	-0,170	-0,114
201,202	116,350	-0,136	-0,116
202,217	-200,000	-0,006	-0,097
203,232	-149,368	-0,257	-0,014
204,246	-42,291	-0,173	-0,061
205,261	103,126	-0,173	-0,141
206,275	765,280	-0,094	-0,178
207,290	40,264	-0,132	-0,082
208,304	-74,303	-0,182	0,045
209,319	94,566	-0,239	-0,189
210,334	-64,844	-0,145	0,040
211,348	602,948	-0,137	-0,237
212,363	226,242	-0,177	-0,200
213,377	172,894	-0,221	-0,222
214,392	37,989	-0,135	-0,083
215,407	-129,718	-0,278	0,026
216,421	-200,000	-0,012	-0,093
217,436	-16,582	-0,270	-0,118
218,450	41,458	-0,208	-0,131
219,465	38,812	-0,287	-0,178
220,480	-145,325	-0,171	-0,011
221,494	-3,834	-0,163	-0,078
222,509	-85,465	-0,199	-0,043
223,523	37,418	-0,148	-0,091
224,538	199,409	-0,174	-0,185
225,553	212,225	-0,213	-0,234
226,567	203,968	-0,181	-0,195
227,582	-7,526	-0,268	-0,125
228,596	45,355	-0,105	-0,067
229,611	283,522	-0,072	0,091
230,626	223,508	-0,078	-0,087
231,640	571,434	-0,122	-0,206
232,655	126,014	-0,214	-0,188
233,669	247,879	-0,155	-0,182
234,684	39,451	-0,280	-0,174
235,699	-200,000	0,011	-0,159
236,713	233,238	-0,140	-0,160
237,728	129,383	-0,201	-0,178
238,742	-48,669	-0,173	-0,057
239,757	-52,449	-0,163	-0,052
240,772	365,404	-0,167	-0,234
241,786	-200,000	-0,068	-0,304
242,801	-200,000	-0,061	-0,200
243,815	-19,229	-0,171	-0,073
244,830	307,438	-0,107	-0,138
245,844	-13,228	-0,149	-0,067
246,859	-90,850	-0,281	-0,056
247,874	202,173	-0,125	-0,134
248,888	-40,579	-0,256	-0,091
249,903	142,553	-0,111	-0,102
250,917	-143,779	-0,209	-0,014
251,932	800,000	-0,057	-0,118
252,947	-167,656	-0,225	-0,006
253,961	94,650	-0,174	-0,137
254,976	193,798	-0,180	-0,189
255,990	360,067	-0,127	-0,176
257,005	20,873	-0,102	-0,057
258,020	-200,000	-0,007	0,111
259,034	-10,330	-0,170	0,078
260,049	23,335	-0,210	-0,119
261,063	213,789	-0,159	-0,175
262,078	112,284	-0,311	-0,260
263,093	65,731	-0,248	-0,174
264,107	-53,375	-0,266	-0,084
265,122	-200,000	-0,242	-0,001
266,136	120,451	-0,073	-0,063
267,151	22,603	-0,114	-0,065
268,166	298,403	-0,240	-0,306
269,180	261,147	-0,126	-0,152
270,195	18,802	-0,195	-0,108
271,209	69,922	-0,084	-0,060
272,224	276,100	-0,110	-0,135
273,239	491,334	-0,073	-0,115
274,253	62,612	-0,056	-0,039
275,268	-75,657	-0,206	-0,050
276,282	447,901	-0,133	-0,204
277,297	-98,253	-0,206	-0,036
278,312	27,348	-0,178	-0,103
279,326	-45,137	-0,124	-0,042
280,341	42,347	-0,238	-0,149
281,355	-66,935	-0,173	-0,047
282,370	-133,063	-0,159	0,014
283,384	218,533	-0,099	-0,110
284,399	218,183	-0,107	-0,118
285,414	341,202	-0,088	-0,120
286,428	77,812	-0,128	-0,094
287,443	-200,000	-0,029	0,105
288,457	37,938	-0,140	-0,086
289,472	11,281	-0,104	-0,055
290,487	114,678	-0,193	-0,162
291,501	800,000	-0,073	-0,208
292,516	-15,700	-0,265	-0,116
293,530	150,712	-0,139	-0,131
294,545	-113,836	-0,093	-0,012
295,560	-43,948	-0,095	0,033
296,574	-95,789	-0,142	-0,026
297,589	90,028	-0,145	-0,111
298,603	-24,710	-0,186	-0,076
299,618	40,618	-0,150	-0,093
300,633	56,437	-0,289	-0,193
301,647	-27,544	-0,134	0,053
302,662	93,083	-0,140	-0,109
303,676	-184,418	-0,227	-0,002
304,691	-11,537	-0,154	-0,070
305,706	-200,000	-0,012	-0,170
306,720	-79,795	-0,105	-0,024
307,735	-42,594	-0,224	-0,078
308,749	532,370	-0,113	-0,185
309,764	219,349	-0,071	-0,079
310,779	298,295	-0,086	-0,110
311,793	768,083	-0,107	-0,201
312,808	51,281	-0,227	-0,148
313,822	238,871	-0,174	-0,200
314,837	137,312	-0,065	-0,059
315,852	-200,000	-0,015	-0,097
316,866	305,794	-0,050	-0,064
317,881	800,000	-0,075	-0,156
318,895	51,271	-0,112	0,073
319,910	-99,042	-0,207	-0,036
320,925	575,982	-0,040	-0,068
321,939	322,117	-0,068	-0,089
322,954	7,166	-0,043	0,022
323,968	800,000	-0,089	-0,229
324,983	800,000	-0,101	-0,244
325,997	0,017	-0,190	-0,093
327,012	96,332	-0,246	-0,193
328,027	167,223	-0,123	-0,120
329,041	267,614	-0,235	-0,283
330,056	623,810	-0,135	-0,234
331,070	69,651	-0,192	-0,136
332,085	254,072	-0,133	-0,157
333,100	-14,249	-0,117	-0,052
334,114	232,715	-0,181	-0,204
335,129	77,291	-0,184	-0,134
336,143	-85,016	-0,119	-0,025
337,158	25,822	-0,145	-0,083
338,173	-30,752	-0,136	0,053
339,187	-100,055	-0,207	0,035
340,202	-140,337	-0,208	0,015
341,216	-70,367	-0,171	0,044
342,231	145,694	-0,119	-0,109
343,246	-88,654	-0,254	-0,051
344,260	268,798	-0,081	-0,098
345,275	-134,711	-0,108	0,009
346,289	7,517	-0,070	0,036
347,304	353,611	-0,089	0,121
348,319	122,739	-0,063	-0,054
349,333	341,668	-0,204	-0,274
350,348	67,577	-0,101	-0,071
351,362	800,000	-0,051	-0,140
352,377	-43,161	-0,190	-0,066
353,392	322,818	-0,074	-0,098
354,406	-112,765	-0,121	-0,016
355,421	208,064	1316,253	1412,980
356,435	160,078	1477,173	1413,477
