DTS Sentinel unit serial number:	SN410029Multiplexer serial number:	ORYXHardware model number:	OX2-SRSoftware version number:	ORYX F/W v4,00 Oryx Data Collector v3.7.2.0data status	okinstallation	B3 Nyhavnadifferential loss correction	single-endedforward channel	channel 1reverse channel	N/Adate	2023/12/03time	06:02:30forward acquisition time	300,00reverse acquisition time	0,00gamma	499,1914k internal	0,3201k external	0,3201temperature offset calibration	1,0000default loss term (dB/km)	0,3820temperature slope calibration	1,0000multiplexer offset coefficient	1,0000multiplexer slope coefficient	1,0000fibre end	0,00T internal ref (°C)	13,30T ext. ref 1 (°C)	-1,71T ext. ref 2 (°C)	-1,73length (m)	temperature (°C)	Stokes	anti-Stokes-744,400	254,503	-0,182	-0,227
-743,385	-200,000	0,057	0,320
-742,371	127,163	-0,215	-0,199
-741,356	800,000	0,097	0,239
-740,342	-24,884	-0,242	-0,104
-739,327	-200,000	0,015	0,270
-738,312	306,975	-0,291	-0,395
-737,298	-200,000	-0,074	0,239
-736,283	130,260	-0,233	-0,217
-735,269	-200,000	0,041	0,313
-734,254	156,012	-0,207	-0,207
-733,239	292,147	-0,128	0,170
-732,225	800,000	-0,046	-0,127
-731,210	800,000	0,037	0,089
-730,196	-200,000	0,027	-0,130
-729,181	-200,000	0,003	-0,043
-728,167	800,000	-0,027	-0,062
-727,152	800,000	-0,015	-0,041
-726,137	727,221	-0,038	0,074
-725,123	116,533	-0,064	-0,057
-724,108	206,174	-0,141	-0,160
-723,094	-7,796	-0,201	-0,098
-722,079	-93,285	-0,120	0,024
-721,064	129,118	-0,087	-0,080
-720,050	-29,278	-0,125	-0,052
-719,035	-111,066	-0,114	-0,017
-718,021	91,130	-0,030	0,024
-717,006	-121,616	0,013	-0,002
-715,991	-24,460	-0,107	0,046
-714,977	441,582	-0,057	-0,091
-713,962	-200,000	0,028	-0,115
-712,948	-70,037	-0,098	0,027
-711,933	-5,730	-0,068	-0,033
-710,918	800,000	0,032	0,098
-709,904	-35,985	-0,184	0,072
-708,889	83,817	0,082	0,065
-707,875	109,826	-0,171	0,149
-706,860	-200,000	0,043	0,179
-705,845	329,425	0,040	0,057
-704,831	46,857	-0,095	-0,064
-703,816	-4,965	0,032	0,016
-702,802	22,412	-0,070	0,042
-701,787	800,000	-0,026	-0,068
-700,772	-2,481	0,108	-0,055
-699,758	-158,263	-0,145	-0,006
-698,743	800,000	0,043	-0,103
-697,729	67,628	0,049	0,036
-696,714	-134,187	-0,126	0,011
-695,699	190,966	-0,057	0,062
-694,685	-200,000	0,017	-0,063
-693,670	436,177	0,049	-0,078
-692,656	-86,283	0,123	-0,027
-691,641	-134,348	0,010	0,001
-690,627	-200,000	0,009	0,163
-689,612	120,618	-0,158	-0,142
-688,597	93,526	-0,050	0,041
-687,583	-35,479	-0,017	-0,007
-686,568	478,498	-0,036	-0,059
-685,554	-165,292	-0,086	0,003
-684,539	-84,570	0,088	-0,020
-683,524	147,307	-0,057	-0,056
-682,510	381,404	-0,091	0,136
-681,495	-24,303	-0,089	0,038
-680,481	800,000	-0,078	-0,200
-679,466	11,780	-0,120	-0,066
-678,451	589,146	0,078	-0,140
-677,437	130,511	0,085	0,079
-676,422	454,946	-0,095	0,154
-675,408	800,000	-0,041	-0,097
-674,393	-73,182	0,038	-0,010
-673,378	124,514	0,091	0,083
-672,364	246,076	-0,035	0,043
-671,349	82,932	-0,170	-0,134
-670,335	355,862	0,050	-0,072
-669,320	-200,000	-0,007	0,084
-668,305	255,117	0,043	0,053
-667,291	111,953	-0,040	-0,035
-666,276	69,393	-0,098	-0,073
-665,262	310,965	-0,070	0,095
-664,247	-17,980	0,187	0,085
-663,232	800,000	-0,033	-0,067
-662,218	113,293	-0,038	-0,033
-661,203	-200,000	0,030	-0,108
-660,189	-200,000	0,008	-0,162
-659,174	800,000	-0,031	-0,095
-658,159	-200,000	0,026	-0,101
-657,145	168,858	-0,091	-0,094
-656,130	187,193	-0,033	-0,035
-655,116	11,758	0,104	0,058
-654,101	4,183	0,099	0,052
-653,086	-60,872	-0,114	0,035
-652,072	159,522	-0,079	-0,079
-651,057	-14,585	-0,114	-0,053
-650,043	569,714	-0,090	0,159
-649,028	-43,215	-0,096	0,035
-648,014	466,441	-0,021	-0,035
-646,999	-200,000	0,005	0,093
-645,984	83,374	0,097	0,076
-644,970	-133,738	-0,056	0,005
-643,955	75,609	-0,059	0,045
-642,941	-31,413	-0,199	-0,081
-641,926	-200,000	-0,009	-0,083
-640,911	-200,000	0,001	-0,137
-639,897	49,277	0,023	-0,016
-638,882	136,892	-0,022	0,021
-637,868	-200,000	0,029	-0,099
-636,853	-69,959	-0,049	-0,014
-635,838	434,495	-0,029	0,045
-634,824	-200,000	-0,009	0,072
-633,809	-200,000	-0,006	-0,081
-632,795	-200,000	0,020	-0,102
-631,780	800,000	-0,050	0,102
-630,765	-113,718	0,033	0,005
-629,751	279,374	0,075	-0,097
-628,736	-200,000	-0,033	-0,146
-627,722	-21,583	-0,078	-0,034
-626,707	-0,539	0,040	0,021
-625,692	800,000	0,036	0,083
-624,678	-200,000	0,007	0,000
-623,663	-28,547	0,197	-0,082
-622,649	-200,000	-0,004	-0,046
-621,634	-200,000	0,005	-0,119
-620,619	307,505	0,040	-0,054
-619,605	169,478	-0,077	-0,080
-618,590	-200,000	0,018	-0,092
-617,576	-52,470	0,055	-0,018
-616,561	165,723	-0,070	-0,072
-615,546	-104,318	0,030	0,005
-614,532	-12,406	-0,078	0,037
-613,517	-200,000	0,020	-0,110
-612,503	151,302	-0,031	0,030
-611,488	-181,942	-0,050	-0,001
-610,474	64,162	0,016	-0,012
-609,459	-58,198	-0,041	0,013
-608,444	-200,000	0,019	-0,090
-607,430	-200,000	-0,006	-0,031
-606,415	414,545	-0,051	-0,078
-605,401	10,786	0,107	-0,059
-604,386	745,155	0,066	0,129
-603,371	31,561	0,063	0,039
-602,357	136,706	-0,088	0,083
-601,342	656,319	-0,033	0,062
-600,328	-118,923	-0,058	-0,007
-599,313	-200,000	-0,004	-0,110
-598,298	-200,000	-0,017	-0,090
-597,284	251,291	-0,025	0,031
-596,269	83,039	0,107	0,084
-595,255	-200,000	0,008	0,142
-594,240	-104,875	0,031	0,005
-593,225	242,326	0,023	-0,028
-592,211	800,000	0,058	-0,156
-591,196	-79,207	-0,043	-0,010
-590,182	135,554	-0,062	-0,059
-589,167	-200,000	0,005	0,056
-588,152	-94,368	0,034	0,007
-587,138	50,692	-0,101	0,069
-586,123	437,919	0,031	-0,048
-585,109	-200,000	0,001	0,087
-584,094	800,000	-0,051	0,104
-583,079	-200,000	0,004	-0,020
-582,065	230,846	0,022	-0,026
-581,050	623,008	-0,008	-0,014
-580,036	-15,045	-0,096	-0,044
-579,021	-200,000	0,029	-0,134
-578,006	-200,000	-0,024	-0,079
-576,992	-84,076	-0,069	-0,016
-575,977	-52,497	-0,032	-0,010
-574,963	344,715	0,045	-0,064
-573,948	146,394	0,091	0,089
-572,934	800,000	0,025	-0,054
-571,919	30,416	-0,082	0,050
-570,904	-161,441	0,073	0,003
-569,890	-66,492	0,050	-0,014
-568,875	203,335	0,077	0,086
-567,861	-13,956	-0,065	0,030
-566,846	-17,195	-0,117	-0,053
-565,831	-22,813	0,048	-0,021
-564,817	-200,000	0,008	-0,072
-563,802	345,727	-0,064	-0,091
-562,788	275,203	-0,037	0,047
-561,773	-84,578	0,138	0,031
-560,758	73,826	-0,080	0,060
-559,744	800,000	0,027	-0,056
-558,729	-120,844	-0,042	-0,005
-557,715	204,131	0,072	-0,081
-556,700	-200,000	-0,022	-0,157
-555,685	-81,395	-0,087	0,021
-554,671	-94,412	0,160	-0,031
-553,656	148,845	0,027	-0,026
-552,642	-200,000	0,006	-0,065
-551,627	-200,000	-0,010	0,073
-550,612	224,326	0,025	-0,029
-549,598	-38,465	-0,067	-0,025
-548,583	800,000	0,043	0,116
-547,569	800,000	0,026	-0,071
-546,554	-165,279	0,103	0,003
-545,539	53,305	0,134	0,093
-544,525	152,185	0,035	0,035
-543,510	7,926	-0,079	-0,043
-542,496	-200,000	-0,020	-0,103
-541,481	800,000	0,039	-0,094
-540,466	31,004	-0,044	-0,027
-539,452	-200,000	-0,008	0,037
-538,437	-39,705	-0,052	-0,020
-537,423	-200,000	-0,024	-0,129
-536,408	127,324	0,041	0,037
-535,393	-107,225	-0,090	0,014
-534,379	-200,000	-0,005	-0,036
-533,364	-200,000	-0,014	0,086
-532,350	-112,842	-0,135	0,019
-531,335	-200,000	0,061	0,276
-530,321	310,019	-0,086	-0,117
-529,306	-200,000	0,020	0,090
-528,291	90,487	-0,082	0,066
-527,277	-78,443	-0,045	-0,011
-526,262	-200,000	0,012	0,059
-525,248	207,529	-0,067	0,076
-524,233	-118,777	0,035	-0,004
-523,218	70,348	-0,101	-0,075
-522,204	399,696	-0,065	-0,098
-521,189	-11,473	-0,077	0,036
-520,175	-200,000	0,009	-0,115
-519,160	-200,000	0,022	0,139
-518,145	-67,638	0,047	0,013
-517,131	-200,000	0,004	0,041
-516,116	133,164	0,113	0,106
-515,102	-116,123	-0,079	0,010
-514,087	-77,732	-0,086	0,021
-513,072	-85,088	-0,132	-0,030
-512,058	-33,154	0,062	-0,025
-511,043	740,553	0,052	-0,102
-510,029	-200,000	-0,031	0,129
-509,014	-200,000	0,030	0,324
-507,999	-200,000	0,022	0,174
-506,985	-84,827	-0,074	0,017
-505,970	800,000	0,057	0,120
-504,956	800,000	0,019	-0,060
-503,941	-200,000	0,017	-0,154
-502,926	800,000	-0,015	0,034
-501,912	-120,966	-0,092	0,011
-500,897	-200,000	0,000	-0,074
-499,883	-29,395	-0,109	0,045
-498,868	47,159	-0,170	0,114
-497,853	800,000	0,023	-0,051
-496,839	-27,428	-0,055	0,023
-495,824	800,000	0,052	-0,127
-494,810	-64,784	0,031	0,009
-493,795	-55,372	-0,047	-0,015
-492,781	-71,485	0,080	-0,021
-491,766	392,761	-0,047	-0,070
-490,751	8,665	-0,061	-0,033
-489,737	-200,000	-0,010	-0,039
-488,722	-200,000	0,009	0,084
-487,708	-70,994	-0,172	-0,046
-486,693	-85,669	0,079	0,018
-485,678	-77,913	-0,010	0,003
-484,664	554,803	-0,076	-0,132
-483,649	43,163	0,066	0,044
-482,635	800,000	-0,017	-0,046
-481,620	-194,596	0,074	0,000
-480,605	789,360	-0,010	-0,019
-479,591	-48,324	0,125	0,043
-478,576	-200,000	-0,039	0,177
-477,562	-134,067	0,069	-0,006
-476,547	91,525	-0,117	-0,095
-475,532	-200,000	-0,005	-0,086
-474,518	-159,420	-0,082	-0,003
-473,503	-153,091	-0,071	0,004
-472,489	62,573	0,129	0,093
-471,474	-73,613	0,064	-0,017
-470,459	-200,000	-0,038	-0,127
-469,445	59,072	0,090	0,064
-468,430	-156,994	-0,170	-0,007
-467,416	-50,691	-0,132	0,045
-466,401	150,570	0,019	-0,019
-465,386	-200,000	0,014	-0,080
-464,372	672,972	0,035	0,066
-463,357	-89,505	-0,098	0,020
-462,343	-25,991	0,069	0,029
-461,328	172,133	0,020	-0,021
-460,313	-177,046	0,110	0,002
-459,299	242,537	-0,025	0,031
-458,284	-200,000	-0,002	0,062
-457,270	-96,654	0,101	-0,019
-456,255	-60,817	0,152	-0,046
-455,241	-200,000	-0,015	0,091
-454,226	-200,000	-0,022	0,078
-453,211	-79,064	0,038	0,009
-452,197	-35,028	0,160	0,063
-451,182	-200,000	-0,008	-0,029
-450,168	800,000	-0,019	-0,045
-449,153	-150,123	0,103	-0,006
-448,138	-37,251	0,139	0,053
-447,124	-101,550	-0,081	-0,014
-446,109	-111,897	-0,100	0,014
-445,095	-105,697	-0,044	0,007
-444,080	-130,273	-0,097	0,009
-443,065	-200,000	-0,031	-0,136
-442,051	-72,120	-0,038	-0,010
-441,036	-200,000	-0,068	-0,229
-440,022	102,047	0,106	-0,089
-439,007	-154,361	-0,092	-0,004
-437,992	-200,000	-0,041	-0,170
-436,978	-68,838	0,168	-0,046
-435,963	-21,429	-0,041	0,018
-434,949	800,000	0,034	-0,085
-433,934	800,000	-0,035	-0,078
-432,919	-37,422	0,076	0,029
-431,905	800,000	0,033	0,077
-430,890	-80,570	-0,016	0,004
-429,876	-200,000	0,017	-0,055
-428,861	83,602	0,089	0,070
-427,846	-133,258	-0,082	0,007
-426,832	-45,472	-0,087	-0,031
-425,817	-200,000	0,003	-0,055
-424,803	800,000	0,007	-0,016
-423,788	554,208	-0,054	0,093
-422,773	47,174	-0,022	0,014
-421,759	-157,387	-0,076	-0,003
-420,744	-200,000	-0,022	-0,084
-419,730	-200,000	-0,013	0,101
-418,715	-46,415	0,122	0,043
-417,701	33,461	-0,110	-0,068
-416,686	800,000	0,044	-0,107
-415,671	800,000	-0,053	0,121
-414,657	273,379	0,044	0,056
-413,642	543,969	0,020	-0,034
-412,628	-139,712	-0,080	0,006
-411,613	708,669	-0,041	0,077
-410,598	362,097	-0,067	0,097
-409,584	-140,802	0,046	0,003
-408,569	101,688	0,110	0,092
-407,555	-62,050	0,059	0,017
-406,540	800,000	-0,018	-0,044
-405,525	800,000	-0,054	-0,122
-404,511	-122,508	-0,125	0,014
-403,496	6,571	-0,030	0,016
-402,482	-200,000	-0,023	0,109
-401,467	28,038	0,023	0,014
-400,452	600,869	0,030	0,054
-399,438	800,000	0,025	0,067
-398,423	800,000	-0,050	0,101
-397,409	-200,000	-0,006	-0,023
-396,394	-19,286	-0,154	-0,068
-395,379	-200,000	0,015	0,123
-394,365	-200,000	-0,004	-0,029
-393,350	-36,258	0,043	0,017
-392,336	216,543	0,047	0,054
-391,321	336,312	0,048	0,067
-390,306	-24,171	0,062	0,026
-389,292	-152,061	-0,107	-0,006
-388,277	-169,490	0,060	-0,002
-387,263	40,816	-0,035	-0,022
-386,248	-200,000	0,029	-0,102
-385,233	-200,000	0,107	-0,000
-384,219	-200,000	0,002	0,040
-383,204	6,527	-0,067	-0,036
-382,190	-98,377	0,181	-0,033
-381,175	634,097	-0,028	0,051
-380,160	442,031	0,021	0,033
-379,146	-113,109	0,021	0,003
-378,131	800,000	-0,039	0,116
-377,117	-200,000	-0,017	0,170
-376,102	54,423	-0,167	0,115
-375,088	2,344	0,118	0,061
-374,073	-200,000	0,009	0,067
-373,058	800,000	0,041	-0,097
-372,044	-66,479	-0,085	0,024
-371,029	-58,451	0,113	-0,035
-370,015	323,429	-0,017	0,023
-369,000	235,262	-0,051	-0,061
-367,985	179,080	-0,062	0,065
-366,971	-200,000	0,036	-0,178
-365,956	-200,000	0,015	-0,070
-364,942	48,637	0,092	0,062
-363,927	12,261	0,036	0,020
-362,912	-139,541	-0,150	-0,011
-361,898	800,000	-0,055	0,156
-360,883	-200,000	-0,004	0,026
-359,869	1,190	0,136	0,070
-358,854	199,080	0,047	0,052
-357,839	441,193	0,031	-0,049
-356,825	401,418	0,008	0,012
-355,810	74,458	0,061	-0,046
-354,796	579,875	-0,047	0,083
-353,781	-200,000	0,003	-0,035
-352,766	-200,000	-0,013	0,134
-351,752	-59,372	-0,057	-0,017
-350,737	-29,192	0,171	0,070
-349,723	230,006	-0,007	-0,009
-348,708	-10,771	0,034	-0,016
-347,693	300,940	-0,027	-0,036
-346,679	542,055	-0,046	0,079
-345,664	-200,000	-0,005	-0,028
-344,650	-193,924	0,093	0,001
-343,635	-176,734	0,035	0,001
-342,620	-200,000	0,020	0,143
-341,606	98,665	0,068	-0,056
-340,591	-200,000	-0,026	0,089
-339,577	173,361	-0,072	0,075
-338,562	100,495	-0,107	-0,089
-337,548	-180,757	0,017	-0,000
-336,533	302,312	0,016	-0,021
-335,518	327,412	-0,093	0,128
-334,504	-200,000	-0,018	-0,067
-333,489	-200,000	0,031	-0,103
-332,475	800,000	-0,013	0,027
-331,460	562,409	0,118	0,205
-330,445	-0,029	0,055	-0,028
-329,431	-14,956	0,065	0,030
-328,416	800,000	-0,053	0,168
-327,402	339,262	0,088	0,123
-326,387	-143,841	0,157	0,010
-325,372	-58,175	-0,131	-0,041
-324,358	800,000	-0,037	-0,088
-323,343	73,494	-0,039	-0,029
-322,329	778,912	0,015	-0,029
-321,314	-11,861	-0,138	0,064
-320,299	-119,123	-0,076	-0,009
-319,285	107,790	-0,081	0,069
-318,270	-200,000	-0,013	-0,140
-317,256	263,204	-0,062	-0,077
-316,241	-200,000	0,002	0,054
-315,226	-91,963	0,040	-0,008
-314,212	19,676	-0,021	-0,012
-313,197	-19,987	-0,097	0,043
-312,183	-200,000	0,002	0,156
-311,168	-200,000	0,008	-0,121
-310,153	299,052	0,038	-0,050
-309,139	-35,920	-0,046	0,018
-308,124	141,923	-0,063	-0,060
-307,110	8,915	0,051	0,028
-306,095	-200,000	0,024	0,253
-305,080	-200,000	-0,005	0,028
-304,066	65,620	-0,037	-0,027
-303,051	24,454	-0,170	-0,100
-302,037	23,381	-0,060	0,035
-301,022	-101,566	0,073	-0,013
-300,008	-18,695	-0,072	-0,032
-298,993	-107,731	0,079	-0,012
-297,978	32,120	0,098	-0,060
-296,964	800,000	0,004	-0,009
-295,949	120,750	-0,030	0,027
-294,935	278,447	0,023	-0,029
-293,920	-200,000	-0,011	0,045
-292,905	60,116	0,120	0,085
-291,891	800,000	0,034	0,083
-290,876	291,289	0,028	0,037
-289,862	800,000	-0,016	0,040
-288,847	-200,000	-0,007	0,029
-287,832	504,984	-0,082	-0,136
-286,818	-170,033	0,109	-0,003
-285,803	800,000	0,030	0,063
-284,789	-48,871	0,088	0,030
-283,774	124,395	-0,133	-0,120
-282,759	-125,791	-0,065	0,007
-281,745	221,146	-0,116	0,133
-280,730	-4,777	-0,201	-0,099
-279,716	-200,000	0,038	-0,145
-278,701	105,177	0,060	-0,051
-277,686	-143,563	0,174	0,012
-276,672	-200,000	0,013	0,062
-275,657	-200,000	-0,039	-0,137
-274,643	800,000	0,033	-0,082
-273,628	-157,214	-0,081	0,003
-272,613	9,763	-0,134	0,072
-271,599	3,510	0,147	0,076
-270,584	1,521	0,089	0,046
-269,570	-200,000	-0,004	0,044
-268,555	-200,000	0,011	0,035
-267,540	33,736	0,054	0,034
-266,526	98,874	0,085	0,070
-265,511	800,000	-0,047	-0,105
-264,497	800,000	-0,035	-0,089
-263,482	-44,851	0,151	-0,053
-262,467	-200,000	0,033	0,107
-261,453	-200,000	0,014	-0,089
-260,438	186,300	0,042	-0,045
-259,424	800,000	-0,045	-0,121
-258,409	-126,154	0,027	0,003
-257,395	-108,751	0,037	-0,006
-256,380	14,620	0,069	0,038
-255,365	-200,000	0,008	-0,111
-254,351	-200,000	0,013	0,088
-253,336	340,247	0,017	-0,024
-252,322	150,828	-0,052	-0,050
-251,307	772,372	0,023	-0,045
-250,292	800,000	0,001	-0,003
-249,278	511,469	-0,042	0,070
-248,263	176,308	0,050	0,052
-247,249	800,000	-0,091	-0,184
-246,234	-200,000	-0,009	-0,057
-245,219	800,000	-0,016	-0,039
-244,205	476,190	0,019	-0,031
-243,190	354,164	0,050	0,071
-242,176	-200,000	0,001	-0,073
-241,161	-78,715	0,055	0,013
-240,146	40,017	-0,077	-0,049
-239,132	-86,798	0,189	0,041
-238,117	-200,000	-0,007	-0,131
-237,103	235,290	-0,033	-0,039
-236,088	184,047	0,041	0,043
-235,073	594,889	-0,072	-0,127
-234,059	-60,652	-0,072	-0,022
-233,044	-200,000	0,002	-0,104
-232,030	32,353	0,040	-0,025
-231,015	-38,949	-0,091	-0,034
-230,000	-35,965	0,098	0,038
-228,986	314,077	0,054	0,072
-227,971	-200,000	-0,002	0,080
-226,957	-200,000	-0,015	-0,085
-225,942	3,639	-0,089	0,046
-224,927	-200,000	-0,021	0,093
-223,913	155,633	-0,141	-0,139
-222,898	-200,000	-0,014	0,046
-221,884	328,967	-0,044	-0,061
-220,869	31,250	0,128	-0,078
-219,855	-200,000	0,007	0,101
-218,840	97,845	-0,062	-0,050
-217,825	235,656	-0,083	-0,098
-216,811	-59,380	-0,038	0,011
-215,796	800,000	0,038	-0,118
-214,782	-87,738	-0,088	0,019
-213,767	126,482	-0,002	-0,002
-212,752	-72,162	0,150	0,039
-211,738	475,488	-0,045	0,073
-210,723	-37,634	0,104	-0,039
-209,709	199,671	-0,086	0,095
-208,694	101,924	0,041	0,034
-207,679	-28,457	0,043	0,018
-206,665	-200,000	0,035	-0,208
-205,650	-200,000	0,032	0,116
-204,636	-200,000	0,016	0,054
-203,621	204,953	0,184	0,204
-202,606	800,000	0,007	0,016
-201,592	-200,000	0,005	0,168
-200,577	319,611	-0,032	0,043
-199,563	-134,748	0,051	-0,004
-198,548	699,244	-0,040	-0,076
-197,533	-140,209	0,177	-0,013
-196,519	79,969	-0,068	0,052
-195,504	-143,246	-0,125	0,008
-194,490	-14,121	-0,072	-0,033
-193,475	-200,000	0,030	0,118
-192,460	248,222	0,032	0,039
-191,446	-200,000	0,016	-0,065
-190,431	43,037	0,090	0,059
-189,417	-125,607	0,061	0,006
-188,402	800,000	-0,023	0,057
-187,387	800,000	-0,084	-0,171
-186,373	-200,000	-0,018	0,057
-185,358	176,569	-0,056	0,058
-184,344	-52,779	0,149	0,049
-183,329	372,523	0,045	-0,065
-182,315	-200,000	0,023	-0,084
-181,300	15,939	-0,022	0,012
-180,285	-99,037	0,086	0,015
-179,271	-200,000	-0,037	-0,118
-178,256	-86,382	0,133	0,029
-177,242	-93,900	0,105	0,020
-176,227	-25,277	0,099	-0,042
-175,212	-93,605	0,039	-0,008
-174,198	-6,483	0,076	0,037
-173,183	741,560	-0,016	-0,030
-172,169	97,905	0,037	0,030
-171,154	-200,000	-0,006	0,117
-170,139	70,935	0,117	-0,086
-169,125	-200,000	0,017	0,077
-168,110	-200,000	-0,026	0,105
-167,096	30,762	-0,014	-0,009
-166,081	198,733	0,041	0,045
-165,066	7,952	-0,067	-0,035
-164,052	34,510	0,150	-0,093
-163,037	-32,729	-0,097	-0,038
-162,023	-69,079	0,138	-0,038
-161,008	-93,173	-0,050	-0,010
-159,993	155,109	-0,160	-0,157
-158,979	-200,000	-0,011	0,041
-157,964	-200,000	-0,014	-0,050
-156,950	291,620	-0,036	-0,047
-155,935	-200,000	-0,012	0,082
-154,920	328,528	0,028	0,039
-153,906	800,000	-0,024	0,072
-152,891	37,180	-0,060	-0,038
-151,877	800,000	0,028	-0,061
-150,862	-170,453	-0,143	-0,003
-149,847	-200,000	-0,009	-0,042
-148,833	140,729	0,056	0,053
-147,818	725,235	0,109	0,207
-146,804	-200,000	-0,001	-0,052
-145,789	573,553	0,048	0,083
-144,775	518,939	0,079	-0,132
-143,760	-1,122	-0,082	-0,041
-142,745	800,000	-0,021	0,054
-141,731	-200,000	0,006	-0,044
-140,716	451,671	0,031	-0,048
-139,702	-66,224	0,071	0,020
-138,687	-200,000	0,014	0,071
-137,672	-200,000	0,004	0,029
-136,658	-200,000	0,041	-0,179
-135,643	40,429	-0,013	-0,008
-134,629	800,000	-0,059	-0,128
-133,614	57,463	-0,081	0,056
-132,599	-200,000	-0,009	-0,093
-131,585	-150,429	0,062	-0,003
-130,570	287,218	0,060	-0,077
-129,556	-200,000	-0,029	-0,186
-128,541	800,000	-0,074	-0,198
-127,526	12,652	0,022	0,012
-126,512	-144,064	0,098	0,006
-125,497	94,792	-0,047	0,038
-124,483	-47,870	0,077	-0,026
-123,468	432,248	-0,079	0,121
-122,453	800,000	-0,033	0,077
-121,439	-124,550	-0,078	0,009
-120,424	800,000	0,038	0,106
-119,410	800,000	-0,016	-0,037
-118,395	800,000	0,012	-0,025
-117,380	289,846	-0,032	0,041
-116,366	495,079	0,024	-0,039
-115,351	-200,000	-0,013	-0,112
-114,337	800,000	-0,048	0,112
-113,322	-200,000	0,010	-0,114
-112,307	473,208	-0,041	0,066
-111,293	116,331	0,156	0,136
-110,278	-200,000	-0,001	0,027
-109,264	464,719	-0,097	0,154
-108,249	-177,673	-0,249	0,004
-107,234	-34,332	0,027	-0,010
-106,220	-200,000	0,004	0,044
-105,205	39,240	-0,073	-0,046
-104,191	177,135	0,078	0,081
-103,176	212,959	0,027	-0,030
-102,162	77,126	0,056	0,042
-101,147	800,000	0,039	-0,120
-100,132	-200,000	0,028	-0,115
-99,118	9,179	0,107	-0,057
-98,103	15,348	-0,076	-0,042
-97,089	-54,306	-0,024	-0,008
-96,074	-28,945	0,071	0,029
-95,059	43,156	0,076	-0,049
-94,045	-98,823	-0,122	0,022
-93,030	800,000	-0,056	-0,122
-92,016	-128,499	-0,100	0,010
-91,001	305,897	0,099	0,130
-89,986	-13,952	0,052	0,024
-88,972	194,698	0,032	-0,035
-87,957	70,008	0,068	-0,050
-86,943	-200,000	0,001	0,107
-85,928	-200,000	-0,001	0,104
-84,913	408,275	-0,009	-0,014
-83,899	800,000	0,023	-0,070
-82,884	115,496	0,022	-0,019
-81,870	95,449	0,063	0,051
-80,855	-200,000	0,008	0,082
-79,840	48,691	-0,024	-0,016
-78,826	-200,000	0,003	-0,108
-77,811	55,974	-0,094	-0,065
-76,797	6,571	0,067	-0,035
-75,782	330,741	0,050	-0,069
-74,767	-45,465	0,095	0,033
-73,753	-200,000	-0,018	0,064
-72,738	-200,000	0,026	-0,181
-71,724	800,000	-0,047	-0,101
-70,709	213,737	-0,099	-0,111
-69,694	-62,562	-0,084	0,025
-68,680	800,000	0,017	-0,037
-67,665	23,223	-0,107	0,062
-66,651	-60,894	0,139	0,041
-65,636	-51,437	-0,060	0,020
-64,622	-69,601	-0,031	-0,008
-63,607	-200,000	-0,005	-0,038
-62,592	63,609	0,031	-0,022
-61,578	-94,934	0,085	0,016
-60,563	209,623	-0,039	0,043
-59,549	-51,637	0,081	0,027
-58,534	13,491	-1,524	-0,835
-57,519	606,269	-1,187	-2,103
-56,505	-200,000	-0,555	-4,378
-55,490	192,942	0,910	0,975
-54,476	800,000	5,035	11,493
-53,461	-200,000	19,115	319,128
-52,446	-200,000	740,520	2333,031
-51,432	573,801	1655,459	2869,721
-50,417	78,271	1671,094	1261,723
-49,403	21,233	1544,244	885,385
-48,388	15,183	1466,546	811,413
-47,373	17,940	1456,705	819,263
-46,359	16,715	1446,267	807,486
-45,344	13,401	1441,894	789,137
-44,330	13,340	1439,965	787,758
-43,315	13,327	1438,176	786,687
-42,300	13,424	1436,474	786,187
-41,286	13,406	1435,364	785,464
-40,271	13,355	1433,955	784,417
-39,257	13,348	1432,652	783,640
-38,242	13,371	1431,338	782,998
-37,227	13,420	1430,120	782,534
-36,213	13,422	1428,675	781,725
-35,198	13,381	1427,729	780,981
-34,184	13,482	1426,583	780,800
-33,169	13,356	1425,330	779,488
-32,154	13,377	1424,473	779,087
-31,140	13,415	1423,146	778,511
-30,125	13,419	1422,090	777,921
-29,111	13,435	1420,770	777,245
-28,096	13,390	1419,761	776,449
-27,082	13,342	1418,891	775,713
-26,067	13,333	1417,488	774,875
-25,052	13,331	1416,592	774,343
-24,038	13,325	1415,498	773,689
-23,023	13,290	1414,335	772,858
-22,009	13,278	1413,474	772,297
-20,994	13,318	1412,485	771,914
-19,979	13,303	1411,617	771,339
-18,965	13,271	1410,628	770,618
-17,950	13,243	1409,894	770,055
-16,936	13,301	1408,677	769,634
-15,921	13,298	1407,636	769,020
-14,906	13,230	1406,961	768,303
-13,892	13,275	1405,732	767,809
-12,877	13,205	1405,071	767,092
-11,863	13,245	1404,083	766,708
-10,848	13,205	1403,304	766,066
-9,833	13,212	1402,297	765,521
-8,819	13,171	1401,702	764,974
-7,804	13,149	1400,777	764,338
-6,790	13,165	1399,594	763,733
-5,775	13,139	1398,553	763,017
-4,760	13,145	1397,579	762,480
-3,746	13,108	1396,787	761,848
-2,731	13,102	1395,950	761,335
-1,717	13,110	1394,970	760,806
-0,702	13,101	1393,267	759,804
0,313	16,936	1310,165	732,254
1,327	33,202	703,985	431,065
2,342	51,078	123,419	82,668
3,356	2,150	16,696	8,505
4,371	0,040	3,248	1,632
5,386	-51,109	0,715	0,236
6,400	361,376	-0,060	0,085
7,415	15,900	-0,248	-0,138
8,429	111,146	-0,265	-0,226
9,444	-29,022	-0,349	-0,141
10,459	108,488	-0,240	-0,203
11,473	27,746	-0,206	-0,122
12,488	177,718	-0,248	-0,256
13,502	88,911	-0,370	-0,291
14,517	140,122	-0,229	-0,213
15,531	49,606	-0,265	-0,176
16,546	38,726	-0,347	-0,218
17,561	242,316	-0,286	-0,339
18,575	34,255	-0,201	-0,123
19,590	73,045	-0,264	-0,195
20,604	-107,600	-0,200	-0,031
21,619	78,991	-0,469	-0,355
22,634	33,134	-0,459	-0,280
23,648	122,232	-0,378	-0,333
24,663	50,073	-0,364	-0,242
25,677	19,348	-0,349	-0,197
26,692	222,593	-0,277	-0,316
27,707	271,670	-0,245	-0,306
28,721	163,363	-0,308	-0,306
29,736	30,233	-0,419	-0,252
30,750	-31,421	-0,458	-0,181
31,765	100,531	-0,462	-0,379
32,780	89,095	-0,400	-0,314
33,794	-16,623	-0,250	-0,111
34,809	207,393	-0,349	-0,384
35,823	151,966	-0,292	-0,281
36,838	50,026	-0,334	-0,222
37,853	214,463	-0,294	-0,329
38,867	76,663	-0,360	-0,269
39,882	71,827	-0,402	-0,294
40,896	-2,397	-0,414	-0,204
41,911	88,983	-0,321	-0,251
42,926	-27,522	-0,367	-0,150
43,940	122,912	-0,306	-0,270
44,955	105,229	-0,415	-0,345
45,969	68,711	-0,363	-0,262
46,984	93,412	-0,249	-0,199
47,999	64,676	-0,255	-0,181
49,013	-44,227	-0,271	-0,095
50,028	39,865	-0,301	-0,190
51,042	34,447	-0,329	-0,202
52,057	88,811	-0,362	-0,284
53,071	354,922	-0,246	-0,346
54,086	52,877	-0,288	-0,194
55,101	41,709	-0,333	-0,212
56,115	-35,024	-0,449	-0,172
57,130	110,700	-0,361	-0,306
58,144	202,191	-0,244	-0,266
59,159	158,490	-0,351	-0,343
60,174	90,721	-0,353	-0,278
61,188	19,506	-0,210	-0,119
62,203	79,095	-0,348	-0,262
63,217	13,508	-0,280	-0,152
64,232	18,319	-0,231	-0,130
65,247	33,365	-0,394	-0,240
66,261	335,536	-0,257	-0,351
67,276	456,439	-0,201	-0,314
68,290	356,871	-0,262	-0,369
69,305	106,369	-0,298	-0,248
70,320	93,429	-0,269	-0,214
71,334	22,703	-0,333	-0,191
72,349	66,755	-0,303	-0,217
73,363	288,443	-0,196	-0,249
74,378	34,488	-0,324	-0,198
75,393	71,306	-0,216	-0,158
76,407	669,003	-0,165	-0,301
77,422	88,897	-0,249	-0,195
78,436	190,175	-0,265	-0,280
79,451	32,456	-0,325	-0,197
80,466	166,039	-0,396	-0,394
81,480	50,314	-0,252	-0,167
82,495	-14,757	-0,400	-0,180
83,509	128,938	-0,335	-0,300
84,524	56,783	-0,207	-0,141
85,539	48,635	-0,266	-0,175
86,553	298,559	-0,119	-0,154
87,568	239,684	-0,216	-0,253
88,582	27,098	-0,331	-0,194
89,597	67,918	-0,368	-0,264
90,611	84,379	-0,197	-0,151
91,626	66,802	-0,391	-0,279
92,641	-86,565	-0,185	-0,040
93,655	14,707	-0,337	-0,184
94,670	126,762	-0,204	-0,181
95,684	28,465	-0,305	-0,181
96,699	159,680	-0,311	-0,304
97,714	233,772	-0,207	-0,239
98,728	426,153	-0,149	-0,225
99,743	57,585	-0,291	-0,199
100,757	-58,131	-0,324	-0,098
101,772	205,989	-0,118	-0,129
102,787	263,199	-0,242	-0,296
103,801	145,197	-0,330	-0,310
104,816	181,949	-0,120	-0,124
105,830	86,874	-0,179	-0,139
106,845	41,455	-0,258	-0,164
107,860	57,026	-0,239	-0,163
108,874	4,603	-0,218	-0,112
109,889	-4,071	-0,344	-0,166
110,903	-56,804	-0,346	-0,106
111,918	310,044	-0,167	-0,220
112,933	21,837	-0,236	-0,135
113,947	-91,933	-0,351	-0,069
114,962	-151,024	-0,174	0,009
115,976	2,753	-0,329	-0,167
116,991	45,409	-0,298	-0,192
118,006	-28,961	-0,361	-0,145
119,020	46,124	-0,172	-0,111
120,035	225,696	-0,260	-0,296
121,049	-52,118	-0,228	-0,074
122,064	50,375	-0,152	-0,100
123,079	247,502	-0,176	-0,209
124,093	88,100	-0,270	-0,210
125,108	80,547	-0,262	-0,198
126,122	44,048	-0,285	-0,183
127,137	271,563	-0,215	-0,265
128,151	-32,961	-0,224	-0,087
129,166	357,264	-0,145	-0,203
130,181	50,452	-0,235	-0,155
131,195	107,525	-0,224	-0,187
132,210	131,436	-0,193	-0,174
133,224	-30,475	-0,291	-0,115
134,239	167,573	-0,237	-0,236
135,254	146,027	-0,294	-0,276
136,268	-4,934	-0,353	-0,169
137,283	219,531	-0,208	-0,233
138,297	58,293	-0,233	-0,160
139,312	184,191	-0,268	-0,277
140,327	2,282	-0,415	-0,209
141,341	172,358	-0,220	-0,222
142,356	13,165	-0,167	-0,090
143,370	48,516	-0,136	-0,089
144,385	664,597	-0,136	-0,247
145,400	-41,599	-0,383	-0,137
146,414	41,289	-0,390	-0,246
147,429	-6,523	-0,277	-0,131
148,443	-44,117	-0,258	-0,090
149,458	800,000	-0,111	-0,227
150,473	9,826	-0,245	-0,129
151,487	-28,815	-0,203	-0,081
152,502	426,696	-0,177	-0,267
153,516	51,516	-0,209	-0,138
154,531	41,661	-0,225	-0,142
155,546	29,025	-0,253	-0,150
156,560	19,412	-0,200	-0,112
157,575	-92,305	-0,062	-0,012
158,589	74,991	-0,172	-0,126
159,604	-47,114	-0,272	-0,092
160,619	97,507	-0,372	-0,298
161,633	260,902	-0,108	-0,131
162,648	370,968	-0,151	-0,214
163,662	-4,481	-0,353	-0,169
164,677	72,260	-0,284	-0,206
165,692	-71,114	-0,156	-0,041
166,706	67,705	-0,179	-0,127
167,721	257,181	-0,237	-0,284
168,735	6,601	-0,257	-0,133
169,750	-35,443	-0,220	-0,083
170,764	-20,751	-0,227	-0,097
171,779	208,922	-0,097	-0,106
172,794	189,860	-0,230	-0,240
173,808	79,255	-0,266	-0,198
174,823	155,341	-0,283	-0,271
175,837	17,154	-0,260	-0,143
176,852	207,630	-0,159	-0,173
177,867	74,085	-0,183	-0,134
178,881	126,575	-0,138	-0,122
179,896	800,000	0,010	-0,029
180,910	-47,828	-0,209	-0,070
181,925	80,141	-0,338	-0,253
182,940	776,732	-0,132	-0,253
183,954	-200,000	-0,051	-0,244
184,969	142,492	-0,243	-0,225
185,983	-200,000	0,024	-0,099
186,998	-56,840	-0,253	-0,077
188,013	-55,374	-0,269	-0,083
189,027	21,499	-0,175	-0,099
190,042	306,715	-0,255	-0,331
191,056	168,157	-0,113	-0,112
192,071	497,393	-0,182	-0,292
193,086	523,328	-0,194	-0,319
194,100	-74,742	-0,248	-0,062
195,115	30,039	-0,256	-0,152
196,129	203,386	-0,285	-0,307
197,144	119,859	-0,226	-0,195
198,159	227,717	-0,089	-0,101
199,173	156,002	-0,207	-0,199
200,188	2,446	-0,311	-0,156
201,202	251,989	-0,229	-0,272
202,217	-40,328	-0,220	-0,079
203,232	793,905	-0,110	-0,211
204,246	674,506	-0,111	-0,201
205,261	181,047	-0,240	-0,245
206,275	140,122	-0,290	-0,266
207,290	314,340	-0,123	-0,161
208,304	-129,281	-0,259	-0,025
209,319	0,319	-0,101	-0,050
210,334	133,225	-0,182	-0,163
211,348	-101,860	-0,152	-0,025
212,363	-173,716	-0,330	0,007
213,377	227,381	-0,206	-0,233
214,392	84,751	-0,075	-0,057
215,407	-47,474	-0,083	-0,028
216,421	-32,990	-0,072	0,028
217,436	797,533	-0,159	-0,305
218,450	583,685	-0,163	-0,279
219,465	41,739	-0,286	-0,180
220,480	25,224	-0,267	-0,154
221,494	27,359	-0,132	-0,077
222,509	35,171	-0,149	-0,090
223,523	4,049	-0,200	-0,101
224,538	43,252	-0,112	-0,071
225,553	424,519	-0,128	-0,192
226,567	35,777	-0,192	-0,117
227,582	800,000	-0,101	-0,220
228,596	111,447	-0,111	-0,093
229,611	26,405	-0,149	-0,086
230,626	-64,699	-0,165	-0,046
231,640	87,860	-0,195	-0,150
232,655	137,918	-0,167	-0,151
233,669	239,504	-0,253	-0,292
234,684	73,314	-0,175	-0,127
235,699	800,000	-0,033	-0,097
236,713	208,929	-0,170	-0,185
237,728	14,761	-0,258	-0,139
238,742	-108,170	-0,172	-0,026
239,757	-146,043	-0,251	-0,015
240,772	102,295	-0,179	-0,145
241,786	-200,000	-0,061	-0,192
242,801	800,000	-0,133	-0,271
243,815	88,486	-0,153	-0,118
244,830	-80,321	-0,200	-0,046
245,844	308,062	-0,145	-0,188
246,859	151,771	-0,246	-0,232
247,874	636,654	-0,048	-0,084
248,888	-200,000	-0,015	-0,082
249,903	130,044	-0,135	-0,120
250,917	-68,040	-0,129	-0,035
251,932	-41,761	-0,170	-0,060
252,947	-93,772	-0,161	-0,030
253,961	13,437	-0,230	-0,123
254,976	171,019	-0,193	-0,192
255,990	127,129	-0,126	-0,111
257,005	124,997	-0,152	-0,133
258,020	800,000	-0,104	-0,206
259,034	6,529	-0,122	-0,063
260,049	-200,000	-0,046	-0,211
261,063	103,269	-0,300	-0,243
262,078	242,686	-0,229	-0,265
263,093	181,208	-0,213	-0,217
264,107	70,646	-0,208	-0,149
265,122	96,380	-0,129	-0,102
266,136	-13,186	-0,203	-0,091
267,151	88,962	-0,171	-0,132
268,166	329,036	-0,191	-0,254
269,180	800,000	-0,061	-0,131
270,195	283,690	-0,223	-0,277
271,209	29,644	-0,230	-0,135
272,224	28,004	-0,171	-0,100
273,239	77,003	-0,181	-0,133
274,253	87,436	-0,131	-0,100
275,268	107,202	-0,128	-0,105
276,282	-39,389	-0,361	-0,130
277,297	32,055	-0,137	-0,081
278,312	27,366	-0,211	-0,122
279,326	-142,245	-0,175	0,012
280,341	205,761	-0,117	-0,126
281,355	-122,729	0,079	-0,009
282,370	99,397	-0,161	-0,128
283,384	52,489	-0,211	-0,139
284,399	320,655	-0,199	-0,262
285,414	12,298	-0,267	-0,142
286,428	277,476	-0,052	-0,063
287,443	180,795	-0,053	0,054
288,457	-6,278	-0,171	-0,080
289,472	195,747	-0,189	-0,199
290,487	-88,208	-0,181	-0,037
291,501	362,525	-0,098	-0,136
292,516	78,143	-0,151	-0,111
293,530	-84,396	-0,164	-0,035
294,545	66,765	-0,157	-0,110
295,560	-145,692	-0,089	0,005
296,574	380,321	-0,063	-0,090
297,589	-172,896	-0,195	0,004
298,603	180,818	-0,116	-0,118
299,618	77,609	-0,141	-0,103
300,633	21,457	-0,114	-0,064
301,647	-39,798	-0,125	-0,045
302,662	437,676	-0,118	-0,179
303,676	800,000	-0,030	-0,078
304,691	-200,000	-0,045	-0,168
305,706	-136,321	-0,153	-0,012
306,720	176,399	-0,163	-0,163
307,735	222,971	-0,075	-0,083
308,749	-63,961	-0,161	-0,045
309,764	-200,000	-0,008	-0,030
310,779	-181,497	-0,099	0,001
311,793	99,268	-0,196	-0,156
312,808	800,000	-0,143	-0,293
313,822	331,232	-0,089	-0,118
314,837	248,200	-0,148	-0,172
315,852	86,725	-0,177	-0,134
316,866	66,637	-0,130	-0,091
317,881	330,522	-0,098	-0,130
318,895	115,489	-0,113	-0,095
319,910	-37,503	-0,245	-0,089
320,925	222,108	-0,182	-0,202
321,939	127,668	-0,217	-0,190
322,954	325,801	-0,115	-0,152
323,968	685,322	-0,042	-0,075
324,983	678,454	-0,138	-0,247
325,997	800,000	-0,072	-0,168
327,012	47,611	-0,270	-0,173
328,027	-102,794	-0,196	-0,032
329,041	574,533	-0,125	-0,211
330,056	-113,093	-0,076	-0,010
331,070	-2,374	-0,095	-0,046
332,085	120,313	-0,175	-0,149
333,100	75,007	-0,159	-0,115
334,114	691,079	-0,150	-0,271
335,129	108,095	-0,164	-0,134
336,143	178,937	-0,083	-0,083
337,158	235,111	-0,151	-0,171
338,173	800,000	-0,041	-0,124
339,187	-176,566	-0,063	-0,001
340,202	800,000	-0,040	-0,096
341,216	50,121	-0,207	-0,134
342,231	151,210	-0,275	-0,257
343,246	207,172	-0,163	-0,174
344,260	-37,964	-0,174	-0,063
345,275	800,000	-0,024	-0,069
346,289	182,858	-0,153	-0,155
347,304	-200,000	-0,009	-0,066
348,319	800,000	-0,035	-0,071
349,333	247,915	-0,143	-0,166
350,348	43,549	-0,182	-0,114
351,362	-64,510	-0,222	0,062
352,377	-139,982	-0,190	0,014
353,392	15,333	-0,095	-0,051
354,406	-200,000	-0,037	-0,209
355,421	209,514	1314,465	1414,833
356,435	161,257	1475,147	1415,327
