DTS Sentinel unit serial number:	SN410029Multiplexer serial number:	ORYXHardware model number:	OX2-SRSoftware version number:	ORYX F/W v4,00 Oryx Data Collector v3.7.2.0data status	okinstallation	B3 Nyhavnadifferential loss correction	single-endedforward channel	channel 1reverse channel	N/Adate	2023/11/30time	07:42:30forward acquisition time	300,00reverse acquisition time	0,00gamma	499,1914k internal	0,3210k external	0,3210temperature offset calibration	1,0000default loss term (dB/km)	0,3820temperature slope calibration	1,0000multiplexer offset coefficient	1,0000multiplexer slope coefficient	1,0000fibre end	0,00T internal ref (°C)	9,95T ext. ref 1 (°C)	-5,62T ext. ref 2 (°C)	-5,71length (m)	temperature (°C)	Stokes	anti-Stokes-744,400	800,000	-0,145	-0,350
-743,385	-200,000	-0,031	0,303
-742,371	292,231	-0,168	-0,223
-741,356	-200,000	0,035	0,347
-740,342	183,702	-0,144	-0,155
-739,327	-200,000	0,030	0,316
-738,312	321,205	-0,226	-0,313
-737,298	-200,000	-0,065	0,305
-736,283	169,997	-0,207	-0,214
-735,269	-200,000	-0,069	0,424
-734,254	368,755	-0,175	-0,257
-733,239	-123,915	-0,219	0,025
-732,225	-200,000	-0,002	-0,233
-731,210	182,641	0,138	0,147
-730,196	-149,199	0,003	0,000
-729,181	440,873	0,022	0,035
-728,167	-85,727	-0,041	0,009
-727,152	212,862	-0,028	-0,032
-726,137	-161,017	-0,040	0,001
-725,123	240,698	0,047	0,057
-724,108	51,598	-0,065	-0,045
-723,094	-4,232	-0,080	-0,040
-722,079	800,000	-0,040	-0,114
-721,064	-200,000	0,004	0,075
-720,050	-200,000	-0,006	-0,055
-719,035	-34,429	-0,032	0,013
-718,021	-74,838	0,087	0,022
-717,006	-80,600	-0,157	-0,038
-715,991	-200,000	-0,027	-0,172
-714,977	-26,260	-0,162	-0,069
-713,962	205,213	0,014	-0,016
-712,948	-200,000	-0,002	-0,013
-711,933	-113,806	0,034	-0,005
-710,918	-60,494	0,202	-0,062
-709,904	464,970	-0,047	-0,077
-708,889	-200,000	0,019	-0,096
-707,875	-200,000	0,004	-0,046
-706,860	-48,912	-0,118	-0,041
-705,845	135,333	-0,092	0,087
-704,831	800,000	0,022	0,055
-703,816	-117,432	0,034	-0,004
-702,802	800,000	0,036	-0,087
-701,787	-148,392	-0,074	-0,004
-700,772	-200,000	-0,043	-0,150
-699,758	43,113	0,032	0,021
-698,743	-175,817	-0,025	0,000
-697,729	112,576	-0,080	-0,070
-696,714	221,099	0,129	0,150
-695,699	156,715	-0,087	0,087
-694,685	207,432	-0,012	-0,013
-693,670	-54,154	-0,191	-0,062
-692,656	800,000	-0,090	-0,192
-691,641	214,971	0,056	0,064
-690,627	-100,240	-0,042	0,007
-689,612	-200,000	0,024	0,087
-688,597	-55,825	0,151	-0,049
-687,583	15,226	-0,087	-0,049
-686,568	28,377	0,118	-0,072
-685,554	416,500	-0,062	-0,095
-684,539	350,158	0,022	-0,031
-683,524	-12,106	0,074	0,035
-682,510	800,000	-0,027	-0,054
-681,495	140,733	-0,042	-0,040
-680,481	-139,919	0,097	-0,007
-679,466	-200,000	-0,016	-0,058
-678,451	392,441	-0,040	0,061
-677,437	226,174	0,045	-0,053
-676,422	151,564	-0,113	-0,111
-675,408	469,056	0,004	-0,006
-674,393	-200,000	0,018	-0,106
-673,378	254,496	-0,097	-0,121
-672,364	800,000	-0,039	0,080
-671,349	-160,130	0,105	-0,004
-670,335	-200,000	0,001	0,010
-669,320	562,433	-0,029	0,051
-668,305	-200,000	-0,015	-0,081
-667,291	278,549	0,052	0,067
-666,276	404,727	-0,025	-0,038
-665,262	376,800	-0,026	-0,038
-664,247	-200,000	0,001	0,039
-663,232	33,661	-0,093	0,059
-662,218	4,143	0,016	0,008
-661,203	25,758	0,117	0,070
-660,189	800,000	0,062	0,126
-659,174	644,267	-0,124	-0,230
-658,159	-22,376	-0,132	0,058
-657,145	-200,000	0,001	0,059
-656,130	291,244	-0,059	0,077
-655,116	-200,000	-0,039	-0,125
-654,101	-200,000	0,014	0,061
-653,086	560,207	0,004	0,007
-652,072	-200,000	0,013	-0,203
-651,057	-144,974	-0,103	0,007
-650,043	357,608	-0,032	0,047
-649,028	329,546	-0,152	-0,211
-648,014	0,484	0,073	-0,037
-646,999	-79,011	0,061	0,015
-645,984	155,094	-0,039	0,039
-644,970	99,278	0,047	-0,039
-643,955	-61,022	-0,208	0,063
-642,941	-200,000	-0,023	-0,117
-641,926	114,270	-0,100	-0,088
-640,911	138,146	-0,011	0,011
-639,897	800,000	0,035	0,093
-638,882	-87,808	0,042	-0,009
-637,868	-21,179	-0,135	-0,060
-636,853	43,483	0,036	-0,024
-635,838	33,064	-0,135	0,084
-634,824	800,000	-0,043	-0,119
-633,809	123,041	-0,073	-0,066
-632,795	-200,000	-0,020	-0,089
-631,780	66,191	0,037	0,027
-630,765	-200,000	0,002	0,185
-629,751	-200,000	0,022	-0,092
-628,736	642,786	-0,038	0,071
-627,722	671,632	-0,069	0,130
-626,707	332,693	0,072	0,100
-625,692	-36,845	0,156	-0,060
-624,678	-200,000	-0,001	0,024
-623,663	373,506	-0,119	-0,175
-622,649	800,000	0,050	-0,145
-621,634	800,000	-0,053	-0,125
-620,619	-100,314	0,160	0,028
-619,605	62,805	0,052	0,037
-618,590	165,203	0,083	-0,084
-617,576	-200,000	-0,002	0,121
-616,561	657,996	0,062	-0,116
-615,546	-200,000	0,028	-0,175
-614,532	-200,000	-0,009	-0,039
-613,517	800,000	-0,011	0,023
-612,503	-200,000	0,004	0,077
-611,488	-200,000	-0,003	0,106
-610,474	800,000	0,038	0,118
-609,459	632,068	-0,060	0,110
-608,444	176,566	-0,039	-0,041
-607,430	116,318	-0,087	-0,077
-606,415	2,636	-0,103	-0,054
-605,401	13,759	0,062	-0,035
-604,386	449,530	0,037	0,058
-603,371	800,000	-0,068	0,184
-602,357	502,002	0,091	0,151
-601,342	56,733	-0,083	0,058
-600,328	88,121	0,032	-0,025
-599,313	800,000	-0,022	-0,060
-598,298	800,000	0,014	-0,039
-597,284	-200,000	0,030	-0,096
-596,269	-126,652	0,084	0,009
-595,255	800,000	-0,011	0,035
-594,240	-149,851	-0,228	-0,013
-593,225	-200,000	0,032	-0,146
-592,211	-122,779	-0,101	-0,012
-591,196	800,000	0,058	-0,127
-590,182	100,897	-0,028	0,023
-589,167	-200,000	-0,011	0,085
-588,152	257,661	-0,115	0,142
-587,138	101,684	0,026	-0,022
-586,123	-200,000	-0,016	-0,107
-585,109	-200,000	0,016	-0,136
-584,094	800,000	0,055	-0,119
-583,079	800,000	-0,053	-0,148
-582,065	-191,958	0,043	0,000
-581,050	-31,661	-0,041	0,016
-580,036	275,615	-0,043	-0,055
-579,021	-200,000	0,010	-0,050
-578,006	127,363	0,005	0,005
-576,992	158,457	0,138	0,138
-575,977	15,652	0,140	0,079
-574,963	-200,000	-0,030	-0,118
-573,948	122,185	-0,100	0,090
-572,934	176,929	-0,125	0,131
-571,919	271,817	0,024	-0,031
-570,904	322,436	0,049	-0,068
-569,890	-41,462	-0,249	-0,092
-568,875	-200,000	-0,002	-0,035
-567,861	198,986	0,087	0,096
-566,846	-121,995	0,067	0,008
-565,831	88,134	-0,112	0,089
-564,817	40,618	-0,040	0,026
-563,802	-150,828	-0,064	0,003
-562,788	787,816	-0,019	0,038
-561,773	73,667	0,098	0,074
-560,758	800,000	0,049	0,140
-559,744	129,848	-0,058	0,054
-558,729	9,656	0,140	0,076
-557,715	-90,140	-0,137	0,028
-556,700	-8,048	-0,068	0,033
-555,685	-200,000	-0,031	-0,188
-554,671	-111,864	0,150	0,022
-553,656	-200,000	0,025	0,094
-552,642	233,986	-0,074	-0,088
-551,627	800,000	0,025	0,076
-550,612	49,566	0,007	0,005
-549,598	800,000	-0,013	-0,040
-548,583	220,389	0,036	-0,042
-547,569	-200,000	-0,001	0,045
-546,554	272,165	-0,042	-0,054
-545,539	-200,000	0,012	0,207
-544,525	75,326	0,096	0,073
-543,510	800,000	-0,035	-0,093
-542,496	253,031	0,047	0,058
-541,481	389,099	0,018	-0,027
-540,466	-140,423	0,112	0,008
-539,452	29,058	0,068	0,042
-538,437	264,302	-0,002	-0,003
-537,423	-95,989	0,083	-0,016
-536,408	36,231	-0,097	0,061
-535,393	-200,000	-0,009	-0,140
-534,379	-200,000	-0,037	-0,122
-533,364	51,214	0,047	0,032
-532,350	472,342	0,061	0,099
-531,335	-51,429	0,097	0,032
-530,321	-21,983	-0,135	0,059
-529,306	519,731	-0,057	0,097
-528,291	-29,692	0,038	-0,016
-527,277	15,760	0,061	0,035
-526,262	404,668	0,139	-0,211
-525,248	32,550	0,062	0,039
-524,233	-13,958	0,146	0,067
-523,218	292,434	0,088	-0,116
-522,204	-96,492	-0,173	-0,033
-521,189	327,839	-0,048	0,066
-520,175	286,377	-0,104	-0,136
-519,160	-34,565	-0,142	-0,056
-518,145	120,042	0,077	0,069
-517,131	800,000	0,033	0,069
-516,116	-200,000	-0,002	0,125
-515,102	-200,000	0,009	-0,045
-514,087	-133,766	-0,165	0,015
-513,072	35,894	-0,087	-0,055
-512,058	-115,246	0,055	-0,007
-511,043	800,000	-0,058	-0,178
-510,029	-200,000	0,007	0,027
-509,014	-139,384	0,096	-0,007
-507,999	151,049	-0,131	-0,128
-506,985	243,047	-0,050	-0,060
-505,970	-69,185	0,082	-0,022
-504,956	81,890	-0,045	-0,035
-503,941	-69,165	-0,160	0,044
-502,926	432,490	0,086	0,135
-501,912	-33,707	0,085	0,034
-500,897	171,374	-0,121	0,124
-499,883	-200,000	0,007	0,230
-498,868	-134,057	-0,131	-0,011
-497,853	484,306	0,122	-0,199
-496,839	115,592	-0,061	-0,054
-495,824	358,072	0,028	0,040
-494,810	536,715	0,054	0,093
-493,795	-40,611	-0,117	0,043
-492,781	-200,000	-0,009	-0,105
-491,766	196,086	-0,088	-0,097
-490,751	-200,000	0,014	-0,065
-489,737	-194,233	-0,031	-0,000
-488,722	800,000	0,088	0,177
-487,708	-200,000	0,031	0,145
-486,693	-200,000	0,019	0,169
-485,678	-200,000	-0,009	-0,059
-484,664	-200,000	-0,003	0,022
-483,649	-200,000	0,002	-0,027
-482,635	479,730	-0,047	-0,077
-481,620	-78,530	0,040	0,010
-480,605	211,818	0,082	0,093
-479,591	-200,000	-0,019	0,157
-478,576	-64,867	0,043	-0,012
-477,562	388,252	0,037	0,054
-476,547	593,445	-0,115	-0,205
-475,532	432,366	-0,014	0,023
-474,518	-87,085	-0,060	0,013
-473,503	11,419	0,094	-0,051
-472,489	800,000	0,029	0,064
-471,474	-200,000	0,001	0,115
-470,459	7,266	0,104	0,055
-469,445	-169,633	0,070	-0,002
-468,430	-200,000	0,003	-0,029
-467,416	-96,933	-0,088	0,016
-466,401	78,253	0,187	-0,143
-465,386	-154,468	0,049	0,002
-464,372	12,044	0,054	-0,030
-463,357	-200,000	0,004	-0,173
-462,343	-200,000	-0,003	-0,122
-461,328	-12,537	-0,135	-0,063
-460,313	-102,850	-0,200	-0,034
-459,299	153,673	-0,103	0,102
-458,284	34,488	0,067	0,042
-457,270	-171,258	0,148	0,003
-456,255	103,820	-0,091	0,077
-455,241	31,209	-0,044	-0,027
-454,226	29,046	-0,072	-0,044
-453,211	-36,079	0,150	-0,058
-452,197	-15,319	0,058	-0,026
-451,182	13,944	-0,076	-0,042
-450,168	655,181	0,011	0,021
-449,153	-20,282	-0,028	0,012
-448,138	-104,595	-0,093	0,015
-447,124	9,449	0,056	-0,030
-446,109	-124,063	0,056	0,006
-445,095	-56,386	0,035	0,011
-444,080	207,578	0,027	-0,031
-443,065	-110,601	0,127	0,019
-442,051	-200,000	-0,018	-0,086
-441,036	-200,000	0,020	-0,089
-440,022	288,989	-0,023	-0,030
-439,007	8,342	-0,094	0,050
-437,992	7,221	-0,046	-0,025
-436,978	66,298	0,051	-0,037
-435,963	800,000	0,014	-0,038
-434,949	117,700	-0,044	0,039
-433,934	49,715	-0,101	0,068
-432,919	-69,564	0,054	0,015
-431,905	-200,000	-0,002	-0,077
-430,890	-69,879	0,099	-0,027
-429,876	-200,000	-0,004	0,019
-428,861	-88,112	0,175	0,037
-427,846	100,578	-0,032	0,026
-426,832	800,000	-0,054	-0,113
-425,817	243,057	-0,057	0,068
-424,803	-200,000	-0,029	0,196
-423,788	-162,558	0,091	-0,003
-422,773	216,364	0,102	-0,117
-421,759	-200,000	-0,008	-0,059
-420,744	586,363	-0,014	-0,024
-419,730	-200,000	0,011	-0,184
-418,715	-200,000	0,007	-0,122
-417,701	60,980	-0,103	-0,073
-416,686	254,865	-0,045	0,056
-415,671	100,078	-0,025	0,021
-414,657	-200,000	0,020	-0,116
-413,642	71,282	0,092	0,068
-412,628	-200,000	0,005	-0,047
-411,613	-200,000	-0,025	-0,121
-410,598	64,738	0,072	-0,052
-409,584	-200,000	0,002	-0,067
-408,569	-107,656	0,085	0,013
-407,555	800,000	0,048	-0,122
-406,540	442,578	0,030	0,046
-405,525	-90,910	-0,110	-0,022
-404,511	-65,404	-0,109	0,031
-403,496	-200,000	-0,034	-0,114
-402,482	390,998	0,043	0,064
-401,467	-46,583	-0,087	0,031
-400,452	149,629	0,058	0,057
-399,438	98,458	0,064	0,053
-398,423	62,149	-0,151	-0,108
-397,409	65,419	0,032	0,023
-396,394	800,000	0,038	-0,111
-395,379	30,506	0,072	0,044
-394,365	-92,998	0,064	0,013
-393,350	-200,000	-0,006	0,115
-392,336	719,284	0,030	0,057
-391,321	-14,168	0,081	0,037
-390,306	-200,000	-0,034	-0,193
-389,292	800,000	-0,015	-0,038
-388,277	251,699	0,023	-0,028
-387,263	-200,000	-0,013	-0,075
-386,248	-144,175	-0,119	-0,008
-385,233	301,069	0,037	0,049
-384,219	83,962	0,048	-0,038
-383,204	-58,338	-0,073	-0,023
-382,190	167,094	-0,077	-0,078
-381,175	274,539	0,142	-0,181
-380,160	800,000	-0,029	-0,091
-379,146	-200,000	0,020	0,139
-378,131	800,000	0,064	0,131
-377,117	800,000	-0,061	-0,127
-376,102	-154,012	-0,166	-0,008
-375,088	800,000	-0,014	-0,038
-374,073	294,829	-0,033	-0,043
-373,058	-200,000	-0,005	0,032
-372,044	-200,000	0,006	-0,093
-371,029	-84,437	0,106	0,024
-370,015	82,494	-0,047	0,037
-369,000	800,000	-0,021	0,055
-367,985	-164,463	0,053	-0,002
-366,971	65,955	-0,105	0,076
-365,956	302,458	-0,017	-0,023
-364,942	93,822	0,037	0,030
-363,927	56,780	-0,132	-0,092
-362,912	800,000	0,025	-0,055
-361,898	39,284	-0,030	-0,019
-360,883	800,000	0,050	-0,114
-359,869	-149,072	0,121	0,007
-358,854	126,800	-0,109	-0,099
-357,839	-200,000	-0,009	-0,149
-356,825	-94,931	0,052	-0,010
-355,810	3,870	0,030	0,015
-354,796	85,887	0,104	-0,082
-353,781	800,000	0,053	-0,112
-352,766	52,552	-0,064	0,044
-351,752	800,000	-0,062	0,129
-350,737	468,990	0,064	0,104
-349,723	800,000	-0,041	0,118
-348,708	226,578	-0,043	0,050
-347,693	-164,751	0,204	-0,006
-346,679	221,215	0,052	-0,060
-345,664	-131,881	0,081	0,007
-344,650	-200,000	0,032	-0,222
-343,635	85,384	0,030	-0,023
-342,620	-200,000	-0,004	0,077
-341,606	281,888	0,123	0,157
-340,591	-68,900	0,071	0,019
-339,577	167,086	-0,109	-0,110
-338,562	-200,000	-0,019	-0,097
-337,548	313,296	0,041	-0,055
-336,533	-200,000	-0,024	0,208
-335,518	-200,000	-0,028	-0,101
-334,504	82,209	-0,054	-0,042
-333,489	130,994	0,032	-0,029
-332,475	90,449	0,046	0,036
-331,460	-87,543	-0,182	-0,039
-330,445	-200,000	-0,006	-0,031
-329,431	800,000	-0,022	0,043
-328,416	-200,000	0,002	-0,041
-327,402	-133,430	0,130	0,011
-326,387	749,421	-0,025	-0,047
-325,372	-200,000	0,012	-0,082
-324,358	4,997	0,089	0,047
-323,343	-75,293	0,071	-0,018
-322,329	289,036	0,060	0,078
-321,314	-200,000	0,002	0,066
-320,299	212,801	-0,166	0,187
-319,285	-200,000	0,010	0,154
-318,270	800,000	-0,028	0,058
-317,256	86,675	-0,101	-0,079
-316,241	800,000	-0,004	-0,011
-315,226	126,080	0,107	-0,096
-314,212	287,499	0,062	0,080
-313,197	-200,000	-0,010	0,070
-312,183	152,677	0,116	0,113
-311,168	28,934	0,099	0,059
-310,153	302,794	0,093	-0,123
-309,139	-200,000	0,002	-0,120
-308,124	800,000	-0,043	0,116
-307,110	50,357	-0,054	-0,036
-306,095	-172,046	0,107	-0,002
-305,080	-123,081	0,050	-0,006
-304,066	800,000	-0,020	0,042
-303,051	415,335	0,038	0,058
-302,037	-40,034	-0,078	-0,029
-301,022	18,285	-0,048	0,027
-300,008	-146,834	0,062	0,004
-298,993	143,183	0,055	0,052
-297,978	-200,000	0,029	0,131
-296,964	-200,000	-0,016	0,139
-295,949	86,450	-0,118	0,093
-294,935	-200,000	0,020	-0,129
-293,920	99,005	0,034	-0,028
-292,905	-200,000	-0,001	0,048
-291,891	110,748	-0,073	0,062
-290,876	-34,889	0,012	-0,004
-289,862	-86,284	-0,194	-0,042
-288,847	201,888	0,027	0,030
-287,832	800,000	-0,039	-0,097
-286,818	215,192	-0,062	-0,070
-285,803	800,000	0,032	0,068
-284,789	191,234	0,132	0,142
-283,774	800,000	0,047	0,113
-282,759	-134,336	-0,102	-0,009
-281,745	-200,000	-0,001	-0,030
-280,730	25,160	0,046	-0,027
-279,716	138,256	0,044	-0,041
-278,701	510,266	-0,020	-0,033
-277,686	-51,487	0,105	0,035
-276,672	101,530	-0,029	0,024
-275,657	-136,250	-0,114	0,009
-274,643	380,256	0,055	-0,081
-273,628	-200,000	0,004	-0,056
-272,613	310,038	-0,055	0,073
-271,599	63,969	0,156	0,112
-270,584	-50,152	-0,075	0,025
-269,570	-200,000	0,032	0,157
-268,555	-200,000	0,000	0,012
-267,540	-200,000	0,018	0,094
-266,526	192,093	0,031	0,034
-265,511	55,960	-0,140	0,096
-264,497	70,002	-0,064	0,047
-263,482	800,000	-0,087	0,181
-262,467	800,000	0,050	0,113
-261,453	-200,000	0,017	0,172
-260,438	172,572	0,035	-0,035
-259,424	-200,000	-0,045	0,142
-258,409	-200,000	-0,006	0,121
-257,395	-90,340	-0,078	0,016
-256,380	800,000	0,027	0,059
-255,365	-200,000	-0,018	-0,080
-254,351	417,859	0,018	-0,028
-253,336	9,569	-0,041	0,022
-252,322	-96,435	-0,131	-0,024
-251,307	-144,939	-0,045	0,003
-250,292	-121,189	0,034	-0,004
-249,278	279,472	-0,044	0,056
-248,263	-54,841	0,103	-0,033
-247,249	-146,549	0,016	-0,001
-246,234	119,896	-0,042	-0,037
-245,219	84,632	0,067	-0,052
-244,205	71,095	-0,046	0,034
-243,190	191,354	-0,072	-0,077
-242,176	-171,075	0,166	0,004
-241,161	-22,439	0,079	0,034
-240,146	-48,008	-0,065	-0,022
-239,132	131,562	0,016	0,015
-238,117	-140,088	0,069	0,005
-237,103	-200,000	-0,002	0,036
-236,088	596,313	0,045	-0,079
-235,073	-200,000	0,117	0,000
-234,059	31,033	0,083	-0,051
-233,044	100,106	0,096	-0,079
-232,030	-200,000	0,010	-0,137
-231,015	-39,517	-0,114	-0,042
-230,000	49,573	-0,025	-0,016
-228,986	-34,722	0,068	0,026
-227,971	189,377	-0,088	-0,094
-226,957	-200,000	0,013	0,061
-225,942	800,000	-0,028	0,074
-224,927	238,037	0,038	-0,045
-223,913	579,955	-0,018	0,031
-222,898	800,000	0,045	-0,089
-221,884	800,000	0,058	0,150
-220,869	-200,000	-0,011	0,057
-219,855	-159,616	0,093	0,004
-218,840	-141,665	0,046	0,003
-217,825	11,874	-0,159	0,086
-216,811	800,000	-0,063	0,134
-215,796	269,777	-0,057	0,072
-214,782	800,000	-0,040	-0,082
-213,767	6,796	0,066	0,035
-212,752	315,992	0,037	-0,049
-211,738	800,000	-0,018	0,048
-210,723	-82,591	0,123	-0,028
-209,709	190,730	-0,166	0,177
-208,694	-200,000	-0,021	-0,078
-207,679	676,543	0,073	-0,136
-206,665	87,974	0,049	-0,038
-205,650	24,974	0,090	0,053
-204,636	-200,000	-0,009	-0,111
-203,621	-14,447	-0,042	0,019
-202,606	201,324	0,031	-0,034
-201,592	153,450	0,036	0,035
-200,577	268,211	0,099	-0,123
-199,563	-200,000	-0,032	-0,160
-198,548	-8,036	0,069	0,033
-197,533	-125,716	0,138	-0,015
-196,519	-200,000	0,021	-0,094
-195,504	164,333	-0,082	0,082
-194,490	104,145	-0,053	-0,045
-193,475	132,489	-0,132	-0,121
-192,460	679,265	0,092	0,170
-191,446	-200,000	0,048	0,151
-190,431	-113,929	-0,106	-0,014
-189,417	800,000	0,035	0,104
-188,402	244,628	0,066	-0,079
-187,387	213,827	-0,011	-0,012
-186,373	104,650	-0,064	-0,053
-185,358	-140,715	0,060	0,004
-184,344	800,000	0,069	-0,142
-183,329	-40,486	0,074	0,027
-182,315	-200,000	0,001	0,032
-181,300	733,379	0,048	0,091
-180,285	-200,000	0,017	-0,166
-179,271	-200,000	-0,014	-0,082
-178,256	-200,000	0,022	-0,079
-177,242	178,276	0,032	0,033
-176,227	587,444	0,048	-0,085
-175,212	753,441	0,065	0,125
-174,198	-200,000	0,012	0,124
-173,183	800,000	0,024	0,052
-172,169	-200,000	0,043	-0,178
-171,154	23,309	0,063	-0,037
-170,139	604,140	-0,051	0,091
-169,125	-200,000	-0,041	0,177
-168,110	-200,000	-0,006	0,021
-167,096	-200,000	-0,001	0,021
-166,081	-49,117	-0,090	-0,030
-165,066	-103,271	-0,107	-0,018
-164,052	-167,745	-0,077	0,002
-163,037	-50,178	-0,063	-0,021
-162,023	142,700	0,054	0,051
-161,008	29,886	-0,160	-0,097
-159,993	-79,642	-0,196	-0,047
-158,979	229,200	-0,077	0,089
-157,964	800,000	-0,037	0,102
-156,950	-118,183	-0,156	0,019
-155,935	800,000	-0,043	0,127
-154,920	-100,083	-0,096	0,017
-153,906	627,761	0,063	0,113
-152,891	-102,899	0,100	-0,017
-151,877	231,767	0,052	-0,061
-150,862	-200,000	-0,015	-0,116
-149,847	-59,668	-0,084	-0,025
-148,833	642,373	-0,010	0,017
-147,818	-200,000	-0,027	0,106
-146,804	-179,469	0,031	0,000
-145,789	800,000	-0,055	-0,133
-144,775	-106,645	-0,101	-0,016
-143,760	-44,618	-0,127	0,045
-142,745	614,600	0,055	-0,098
-141,731	-200,000	-0,017	0,198
-140,716	-132,536	0,086	-0,008
-139,702	122,055	0,018	0,016
-138,687	800,000	0,020	0,057
-137,672	-200,000	-0,009	0,073
-136,658	-200,000	-0,020	-0,090
-135,643	800,000	0,038	-0,074
-134,629	-155,230	-0,111	-0,005
-133,614	160,945	-0,053	-0,052
-132,599	785,863	0,034	-0,067
-131,585	800,000	0,082	0,189
-130,570	50,197	0,069	-0,046
-129,556	-200,000	-0,001	0,080
-128,541	214,353	0,034	-0,039
-127,526	115,694	0,098	-0,085
-126,512	355,901	0,048	0,068
-125,497	654,428	0,017	0,031
-124,483	-101,579	-0,131	0,022
-123,468	382,013	-0,050	0,073
-122,453	-35,745	-0,188	0,072
-121,439	50,418	-0,068	0,046
-120,424	-54,123	-0,127	0,041
-119,410	734,449	0,080	0,151
-118,395	-200,000	0,016	0,120
-117,380	5,788	0,128	0,067
-116,366	-159,962	0,050	-0,002
-115,351	627,261	-0,073	-0,131
-114,337	91,067	-0,068	0,054
-113,322	401,550	0,040	0,059
-112,307	690,485	0,073	-0,135
-111,293	-86,043	0,036	0,008
-110,278	179,414	-0,071	0,073
-109,264	-41,571	-0,155	0,056
-108,249	-22,119	-0,086	0,037
-107,234	223,847	-0,081	-0,093
-106,220	-200,000	-0,015	0,048
-105,205	-200,000	0,009	0,046
-104,191	-200,000	-0,004	-0,016
-103,176	755,954	0,042	0,080
-102,162	-18,619	0,148	-0,065
-101,147	127,171	-0,084	0,075
-100,132	-200,000	-0,019	-0,082
-99,118	-28,553	0,061	0,025
-98,103	-98,084	0,113	0,020
-97,089	258,637	0,085	0,104
-96,074	-200,000	0,015	0,107
-95,059	615,285	-0,046	0,083
-94,045	800,000	-0,017	-0,041
-93,030	-83,120	0,075	0,017
-92,016	533,941	-0,038	0,065
-91,001	73,942	0,047	-0,035
-89,986	38,781	-0,055	-0,035
-88,972	-200,000	0,004	-0,011
-87,957	-157,796	0,041	-0,002
-86,943	512,837	-0,080	-0,133
-85,928	-175,527	-0,119	-0,002
-84,913	266,673	-0,030	-0,038
-83,899	515,113	-0,046	0,076
-82,884	43,301	-0,020	0,013
-81,870	-200,000	0,014	0,074
-80,855	254,031	0,069	0,083
-79,840	-200,000	0,010	-0,042
-78,826	-200,000	0,007	0,103
-77,811	42,852	0,119	0,076
-76,797	34,995	0,149	-0,092
-75,782	-60,064	0,141	-0,042
-74,767	800,000	-0,027	0,067
-73,753	-57,420	-0,086	0,026
-72,738	276,476	0,053	0,066
-71,724	8,355	-0,120	0,063
-70,709	-200,000	0,021	0,123
-69,694	1,668	-0,048	0,024
-68,680	241,977	0,088	0,104
-67,665	-11,317	0,043	0,020
-66,651	20,754	0,152	0,087
-65,636	67,299	-0,082	-0,059
-64,622	-200,000	0,006	-0,063
-63,607	800,000	-0,079	-0,157
-62,592	800,000	0,074	0,158
-61,578	-200,000	0,014	0,082
-60,563	-26,334	0,136	-0,056
-59,549	-200,000	-0,024	-0,184
-58,534	36,176	-2,166	-1,345
-57,519	586,372	-1,119	-1,951
-56,505	-200,000	-0,402	-4,430
-55,490	552,403	0,895	1,524
-54,476	800,000	4,917	10,963
-53,461	-200,000	21,530	341,783
-52,446	800,000	761,634	2365,010
-51,432	559,403	1664,096	2847,187
-50,417	73,411	1661,229	1225,984
-49,403	17,873	1534,573	860,290
-48,388	11,805	1458,377	788,220
-47,373	19,465	1449,598	820,207
-46,359	15,289	1439,121	794,383
-45,344	10,064	1434,791	767,074
-44,330	10,051	1432,616	765,820
-43,315	9,971	1430,914	764,498
-42,300	10,007	1429,235	763,742
-41,286	9,974	1428,076	762,936
-40,271	9,979	1426,775	762,233
-39,257	9,977	1425,582	761,556
-38,242	10,024	1424,404	761,118
-37,227	10,021	1423,407	760,540
-36,213	10,061	1422,010	759,955
-35,198	10,096	1420,645	759,361
-34,184	10,078	1419,950	758,875
-33,169	9,982	1418,623	757,681
-32,154	10,008	1417,626	757,243
-31,140	10,020	1416,569	756,703
-30,125	10,060	1415,467	756,271
-29,111	10,055	1414,151	755,518
-28,096	10,036	1412,766	754,658
-27,082	10,005	1411,645	753,881
-26,067	9,931	1410,616	752,956
-25,052	10,012	1409,705	752,821
-24,038	9,965	1408,717	752,044
-23,023	9,932	1407,914	751,427
-22,009	9,983	1406,735	751,007
-20,994	9,996	1405,623	750,444
-19,979	9,929	1404,901	749,717
-18,965	9,943	1404,017	749,283
-17,950	9,912	1402,833	748,473
-16,936	9,946	1402,128	748,226
-15,921	9,902	1400,974	747,376
-14,906	9,897	1400,289	746,958
-13,892	9,943	1399,095	746,504
-12,877	9,880	1398,529	745,880
-11,863	9,923	1397,647	745,583
-10,848	9,865	1396,638	744,745
-9,833	9,820	1395,826	744,073
-8,819	9,817	1394,979	743,579
-7,804	9,772	1394,167	742,906
-6,790	9,824	1392,937	742,461
-5,775	9,823	1391,883	741,869
-4,760	9,800	1391,059	741,293
-3,746	9,796	1390,091	740,727
-2,731	9,817	1389,137	740,288
-1,717	9,781	1388,346	739,669
-0,702	9,780	1386,469	738,636
0,313	13,921	1299,288	711,106
1,327	30,280	689,693	414,536
2,342	47,153	119,264	78,166
3,356	0,468	16,584	8,330
4,371	7,575	3,459	1,820
5,386	-34,049	1,203	0,464
6,400	800,000	0,210	0,640
7,415	800,000	-0,053	-0,106
8,429	291,605	-0,238	-0,306
9,444	-94,425	-0,243	-0,046
10,459	20,081	-0,320	-0,181
11,473	166,387	-0,292	-0,292
12,488	249,742	-0,126	-0,150
13,502	14,185	-0,329	-0,180
14,517	-69,611	-0,320	-0,086
15,531	39,432	-0,283	-0,178
16,546	-49,161	-0,449	-0,150
17,561	56,337	-0,313	-0,214
18,575	-9,841	-0,255	-0,119
19,590	169,150	-0,188	-0,189
20,604	17,373	-0,218	-0,122
21,619	53,959	-0,420	-0,284
22,634	72,413	-0,442	-0,324
23,648	122,777	-0,395	-0,348
24,663	320,364	-0,291	-0,390
25,677	25,561	-0,401	-0,235
26,692	-85,150	-0,119	0,026
27,707	131,578	-0,302	-0,274
28,721	247,416	-0,326	-0,388
29,736	111,481	-0,319	-0,271
30,750	36,572	-0,442	-0,274
31,765	110,409	-0,440	-0,372
32,780	82,006	-0,395	-0,301
33,794	-23,013	-0,339	-0,143
34,809	-46,413	-0,386	-0,133
35,823	186,268	-0,242	-0,254
36,838	16,312	-0,385	-0,213
37,853	87,451	-0,332	-0,258
38,867	21,986	-0,375	-0,214
39,882	-8,829	-0,453	-0,213
40,896	60,478	-0,341	-0,237
41,911	103,698	-0,373	-0,308
42,926	53,115	-0,402	-0,270
43,940	94,288	-0,363	-0,290
44,955	66,573	-0,301	-0,215
45,969	21,682	-0,403	-0,230
46,984	87,017	-0,321	-0,249
47,999	160,336	-0,324	-0,318
49,013	-25,360	-0,330	-0,137
50,028	48,278	-0,307	-0,202
51,042	89,107	-0,316	-0,247
52,057	111,242	-0,312	-0,264
53,071	488,817	-0,205	-0,330
54,086	-19,932	-0,374	-0,162
55,101	-3,018	-0,286	-0,139
56,115	-40,775	-0,306	-0,111
57,130	9,168	-0,414	-0,219
58,144	45,620	-0,265	-0,171
59,159	167,214	-0,295	-0,294
60,174	-31,124	-0,414	-0,163
61,188	102,933	-0,320	-0,263
62,203	77,640	-0,273	-0,204
63,217	33,517	-0,276	-0,168
64,232	-37,376	-0,326	-0,121
65,247	26,461	-0,267	-0,156
66,261	-0,567	-0,307	-0,153
67,276	-64,412	-0,368	-0,104
68,290	117,760	-0,359	-0,310
69,305	45,139	-0,351	-0,226
70,320	-32,374	-0,392	-0,152
71,334	72,662	-0,339	-0,248
72,349	60,933	-0,286	-0,199
73,363	259,310	-0,179	-0,217
74,378	59,267	-0,289	-0,199
75,393	159,658	-0,245	-0,239
76,407	103,059	-0,338	-0,277
77,422	53,187	-0,358	-0,240
78,436	-135,245	-0,297	-0,025
79,451	-64,759	-0,233	-0,066
80,466	241,043	-0,178	-0,209
81,480	50,887	-0,417	-0,276
82,495	-200,000	-0,088	-0,292
83,509	-83,571	-0,291	-0,065
84,524	87,690	-0,263	-0,204
85,539	664,803	-0,121	-0,220
86,553	44,696	-0,263	-0,169
87,568	174,627	-0,197	-0,199
88,582	52,821	-0,294	-0,196
89,597	135,049	-0,324	-0,295
90,611	439,903	-0,217	-0,333
91,626	376,351	-0,155	-0,222
92,641	-86,247	-0,256	-0,055
93,655	-27,755	-0,394	-0,159
94,670	127,843	-0,183	-0,162
95,684	56,148	-0,378	-0,257
96,699	306,714	-0,205	-0,268
97,714	25,722	-0,239	-0,139
98,728	63,506	-0,261	-0,183
99,743	109,374	-0,154	-0,129
100,757	177,910	-0,241	-0,246
101,772	133,480	-0,334	-0,302
102,787	-24,215	-0,213	-0,089
103,801	203,932	-0,286	-0,310
104,816	6,386	-0,275	-0,142
105,830	29,005	-0,223	-0,132
106,845	800,000	-0,100	-0,201
107,860	46,860	-0,196	-0,127
108,874	-128,194	-0,265	-0,026
109,889	21,244	-0,326	-0,185
110,903	162,854	-0,182	-0,179
111,918	-17,771	-0,159	-0,069
112,933	88,487	-0,228	-0,177
113,947	205,349	-0,161	-0,175
114,962	-94,000	-0,209	-0,040
115,976	58,458	-0,219	-0,150
116,991	-147,940	-0,360	-0,021
118,006	38,288	-0,269	-0,167
119,020	99,450	-0,209	-0,169
120,035	75,628	-0,256	-0,188
121,049	6,183	-0,232	-0,120
122,064	126,332	-0,181	-0,160
123,079	-85,389	-0,192	-0,041
124,093	41,396	-0,302	-0,190
125,108	318,423	-0,176	-0,233
126,122	103,212	-0,208	-0,170
127,137	80,160	-0,186	-0,140
128,151	-85,942	-0,311	-0,067
129,166	98,806	-0,267	-0,215
130,181	178,267	-0,173	-0,176
131,195	35,703	-0,236	-0,144
132,210	794,191	-0,178	-0,344
133,224	-140,407	-0,224	0,016
134,239	223,580	-0,137	-0,154
135,254	445,908	-0,204	-0,313
136,268	102,306	-0,223	-0,181
137,283	132,913	-0,299	-0,269
138,297	62,284	-0,332	-0,230
139,312	78,054	-0,153	-0,113
140,327	-74,564	-0,338	-0,084
141,341	118,129	-0,202	-0,174
142,356	-59,675	-0,164	-0,049
143,370	-91,176	-0,293	-0,058
144,385	48,194	-0,161	-0,105
145,400	104,741	-0,216	-0,177
146,414	585,288	-0,106	-0,182
147,429	52,280	-0,250	-0,166
148,443	22,984	-0,292	-0,166
149,458	111,766	-0,189	-0,159
150,473	45,602	-0,169	-0,109
151,487	105,961	-0,108	-0,089
152,502	12,571	-0,230	-0,123
153,516	18,280	-0,277	-0,154
154,531	106,073	-0,139	-0,114
155,546	-148,100	-0,307	0,017
156,560	-65,804	-0,199	-0,055
157,575	107,312	-0,199	-0,165
158,589	17,569	-0,089	-0,049
159,604	38,853	-0,300	-0,186
160,619	49,605	-0,274	-0,179
161,633	94,884	-0,245	-0,194
162,648	-23,501	-0,363	-0,151
163,662	83,327	-0,174	-0,132
164,677	26,565	-0,265	-0,154
165,692	-200,000	-0,027	-0,140
166,706	12,374	-0,344	-0,184
167,721	-52,850	-0,140	-0,045
168,735	299,127	-0,166	-0,213
169,750	-71,169	-0,421	-0,109
170,764	-118,611	-0,174	-0,021
171,779	-71,248	-0,179	-0,046
172,794	212,678	-0,128	-0,141
173,808	180,186	-0,222	-0,226
174,823	416,740	-0,135	-0,200
175,837	448,498	-0,165	-0,253
176,852	-5,025	-0,352	-0,168
177,867	87,485	-0,148	-0,114
178,881	-98,109	-0,092	-0,016
179,896	-65,166	-0,193	-0,054
180,910	-200,000	-0,018	-0,248
181,925	-23,521	-0,213	-0,089
182,940	-37,959	-0,279	-0,102
183,954	141,848	-0,195	-0,180
184,969	-27,430	-0,202	-0,081
185,983	546,470	-0,079	-0,131
186,998	28,541	-0,217	-0,127
188,013	-47,716	-0,313	-0,105
189,027	-8,717	-0,242	-0,112
190,042	146,693	-0,163	-0,152
191,056	74,465	-0,216	-0,157
192,071	11,485	-0,242	-0,128
193,086	-11,845	-0,243	-0,110
194,100	150,716	-0,194	-0,183
195,115	-132,911	-0,196	-0,017
196,129	54,109	-0,192	-0,128
197,144	175,972	-0,142	-0,144
198,159	107,504	-0,323	-0,266
199,173	26,416	-0,132	-0,076
200,188	-200,000	-0,021	-0,171
201,202	311,285	-0,115	-0,149
202,217	-147,843	-0,234	-0,013
203,232	21,894	-0,319	-0,180
204,246	61,008	-0,256	-0,176
205,261	527,609	-0,096	-0,157
206,275	-61,995	-0,139	-0,040
207,290	77,645	-0,133	-0,098
208,304	255,409	-0,171	-0,204
209,319	263,455	-0,174	-0,209
210,334	-11,162	-0,148	-0,067
211,348	45,619	-0,158	-0,101
212,363	-17,587	-0,236	-0,102
213,377	-44,453	-0,295	-0,102
214,392	138,332	-0,143	-0,130
215,407	33,657	-0,236	-0,142
216,421	415,510	-0,066	-0,097
217,436	7,106	-0,215	-0,111
218,450	160,831	-0,167	-0,161
219,465	415,387	-0,160	-0,237
220,480	-52,132	-0,256	-0,082
221,494	189,999	-0,156	-0,162
222,509	-8,217	-0,123	-0,057
223,523	800,000	-0,101	-0,240
224,538	46,858	-0,166	-0,106
225,553	151,361	-0,176	-0,166
226,567	65,414	-0,166	-0,116
227,582	131,437	-0,128	-0,114
228,596	-87,418	-0,153	-0,032
229,611	-142,810	-0,178	-0,012
230,626	4,521	-0,120	-0,061
231,640	388,568	-0,173	-0,249
232,655	323,804	-0,174	-0,230
233,669	270,030	-0,113	-0,138
234,684	17,821	-0,241	-0,132
235,699	33,669	-0,147	-0,088
236,713	426,897	-0,132	-0,197
237,728	308,085	-0,168	-0,218
238,742	-200,000	-0,035	-0,233
239,757	311,212	-0,196	-0,255
240,772	-11,713	-0,243	-0,110
241,786	11,922	-0,181	-0,096
242,801	53,765	-0,136	-0,090
243,815	101,636	-0,091	-0,073
244,830	-200,000	0,010	-0,158
245,844	27,282	-0,214	-0,124
246,859	-12,900	-0,200	-0,090
247,874	-173,052	-0,173	-0,004
248,888	155,731	-0,245	-0,233
249,903	658,000	-0,116	-0,207
250,917	177,175	-0,220	-0,221
251,932	-78,201	-0,135	-0,032
252,947	-26,382	-0,178	0,072
253,961	-175,498	-0,119	-0,002
254,976	800,000	-0,092	-0,181
255,990	152,061	-0,175	-0,165
257,005	509,668	-0,039	-0,063
258,020	127,578	-0,135	-0,118
259,034	-5,553	-0,145	-0,068
260,049	59,353	-0,119	-0,080
261,063	546,685	-0,120	-0,199
262,078	139,028	-0,236	-0,214
263,093	-13,603	-0,112	-0,050
264,107	-150,012	-0,164	-0,009
265,122	-13,526	-0,243	-0,108
266,136	-154,817	-0,239	-0,011
267,151	33,410	-0,175	-0,105
268,166	42,234	-0,179	-0,112
269,180	-61,028	-0,200	-0,058
270,195	43,763	-0,283	-0,178
271,209	-23,172	-0,048	0,020
272,224	-66,362	-0,211	-0,057
273,239	-130,427	-0,198	-0,018
274,253	54,667	-0,208	-0,138
275,268	-133,011	-0,236	-0,020
276,282	125,901	-0,188	-0,163
277,297	99,722	-0,134	-0,107
278,312	50,447	-0,149	-0,097
279,326	-145,949	-0,139	0,008
280,341	257,923	-0,103	-0,122
281,355	246,528	-0,138	-0,160
282,370	-1,560	-0,244	-0,118
283,384	-148,400	-0,195	0,011
284,399	-13,015	-0,225	-0,100
285,414	451,087	-0,120	-0,183
286,428	4,931	-0,145	-0,073
287,443	36,971	-0,041	0,025
288,457	35,723	-0,035	-0,021
289,472	274,361	-0,169	-0,207
290,487	36,244	-0,185	-0,112
291,501	97,439	-0,239	-0,189
292,516	83,165	-0,124	-0,092
293,530	-143,093	-0,237	-0,016
294,545	-24,527	-0,119	-0,049
295,560	-54,242	-0,240	-0,074
296,574	-44,422	-0,154	-0,053
297,589	54,593	-0,185	-0,122
298,603	-21,128	-0,207	-0,087
299,618	800,000	-0,090	-0,196
300,633	-30,610	-0,187	-0,072
301,647	601,854	-0,073	-0,125
302,662	86,652	-0,103	-0,078
303,676	-6,181	-0,125	-0,058
304,691	84,349	-0,121	-0,091
305,706	-86,240	-0,183	-0,038
306,720	204,379	-0,216	-0,230
307,735	756,144	-0,038	0,072
308,749	128,676	-0,127	-0,111
309,764	-32,056	-0,171	0,065
310,779	-47,143	-0,033	0,011
311,793	138,287	-0,130	-0,117
312,808	124,956	-0,222	-0,192
313,822	65,376	-0,144	-0,100
314,837	525,047	-0,054	-0,087
315,852	-137,051	-0,153	-0,012
316,866	417,161	0,026	-0,039
317,881	221,873	-0,085	-0,094
318,895	-106,483	-0,284	-0,043
319,910	-83,605	-0,175	-0,038
320,925	800,000	-0,082	-0,165
321,939	51,081	-0,152	-0,099
322,954	-200,000	0,027	-0,089
323,968	-109,502	0,046	-0,007
324,983	342,152	-0,075	0,101
325,997	325,805	-0,120	-0,158
327,012	492,989	-0,120	-0,190
328,027	383,952	-0,173	-0,244
329,041	-200,000	-0,012	-0,162
330,056	-78,240	-0,054	-0,013
331,070	53,078	-0,206	-0,135
332,085	-130,985	-0,108	-0,010
333,100	325,857	-0,126	-0,165
334,114	37,326	-0,159	-0,096
335,129	-139,511	-0,144	-0,010
336,143	247,495	-0,114	-0,132
337,158	-22,842	-0,054	0,022
338,173	-34,363	-0,104	-0,039
339,187	800,000	-0,084	-0,176
340,202	46,226	-0,104	-0,066
341,216	98,300	-0,177	-0,140
342,231	91,749	-0,261	-0,200
343,246	800,000	-0,057	-0,144
344,260	718,949	-0,075	-0,136
345,275	105,252	-0,133	-0,107
346,289	-173,276	-0,103	0,002
347,304	-145,217	-0,245	0,015
348,319	-53,994	-0,126	-0,039
349,333	-79,273	-0,106	-0,024
350,348	800,000	-0,053	-0,131
351,362	134,735	-0,165	-0,147
352,377	64,792	-0,121	-0,083
353,392	130,121	-0,111	-0,097
354,406	310,733	-0,068	-0,087
355,421	207,272	1310,295	1399,499
356,435	159,442	1470,437	1399,963
