DTS Sentinel unit serial number:	SN410029Multiplexer serial number:	ORYXHardware model number:	OX2-SRSoftware version number:	ORYX F/W v4,00 Oryx Data Collector v3.7.2.0data status	okinstallation	B3 Nyhavnadifferential loss correction	single-endedforward channel	channel 1reverse channel	N/Adate	2023/12/05time	02:07:30forward acquisition time	300,00reverse acquisition time	0,00gamma	499,1914k internal	0,3201k external	0,3201temperature offset calibration	1,0000default loss term (dB/km)	0,3820temperature slope calibration	1,0000multiplexer offset coefficient	1,0000multiplexer slope coefficient	1,0000fibre end	0,00T internal ref (°C)	13,88T ext. ref 1 (°C)	-0,73T ext. ref 2 (°C)	-0,75length (m)	temperature (°C)	Stokes	anti-Stokes-744,400	-200,000	-0,068	-0,253
-743,385	-200,000	0,036	0,211
-742,371	153,404	-0,154	-0,154
-741,356	-200,000	-0,113	0,404
-740,342	55,999	-0,165	-0,116
-739,327	474,741	-0,159	0,263
-738,312	800,000	-0,101	-0,241
-737,298	-200,000	0,027	0,242
-736,283	240,814	-0,204	-0,248
-735,269	800,000	0,107	0,290
-734,254	359,060	-0,159	-0,232
-733,239	-22,098	-0,292	0,128
-732,225	445,189	-0,141	-0,226
-731,210	74,543	0,108	0,082
-730,196	-77,821	-0,080	-0,020
-729,181	556,524	-0,042	0,075
-728,167	51,899	-0,143	-0,099
-727,152	692,352	0,049	-0,094
-726,137	440,500	0,056	-0,089
-725,123	-200,000	-0,025	-0,089
-724,108	140,913	-0,103	-0,099
-723,094	-8,233	-0,153	-0,074
-722,079	253,999	-0,058	-0,072
-721,064	197,388	0,014	0,015
-720,050	-200,000	0,004	-0,069
-719,035	257,190	0,048	0,061
-718,021	10,054	0,119	0,065
-717,006	-128,316	0,158	0,016
-715,991	-83,690	-0,089	0,021
-714,977	593,786	-0,073	-0,132
-713,962	-41,037	-0,160	-0,060
-712,948	39,542	0,081	0,053
-711,933	217,175	-0,054	-0,062
-710,918	-25,321	-0,105	0,045
-709,904	-200,000	0,012	-0,070
-708,889	-200,000	-0,017	-0,123
-707,875	800,000	-0,108	-0,233
-706,860	17,090	-0,084	0,048
-705,845	800,000	0,050	0,146
-704,831	64,356	0,051	0,037
-703,816	86,494	0,083	0,066
-702,802	-200,000	0,014	-0,048
-701,787	-200,000	-0,007	-0,048
-700,772	800,000	-0,058	-0,122
-699,758	800,000	0,026	0,068
-698,743	-94,770	0,025	-0,005
-697,729	-200,000	0,001	0,018
-696,714	209,122	0,028	0,032
-695,699	99,460	0,123	0,103
-694,685	-114,005	-0,269	-0,037
-693,670	-200,000	0,002	-0,063
-692,656	800,000	0,041	-0,114
-691,641	176,975	0,015	-0,016
-690,627	-200,000	0,007	0,029
-689,612	-44,660	0,122	-0,044
-688,597	-200,000	-0,012	-0,100
-687,583	33,914	-0,086	0,055
-686,568	525,734	0,035	-0,060
-685,554	289,784	0,048	-0,063
-684,539	-84,809	-0,065	-0,015
-683,524	-200,000	-0,032	0,154
-682,510	-63,844	0,018	0,005
-681,495	-131,331	-0,197	0,019
-680,481	574,510	-0,058	-0,103
-679,466	-130,414	-0,161	-0,016
-678,451	-200,000	-0,004	0,032
-677,437	-200,000	-0,023	-0,082
-676,422	-200,000	-0,004	0,034
-675,408	-176,801	-0,084	0,002
-674,393	144,815	-0,098	-0,095
-673,378	-138,634	-0,030	0,002
-672,364	-30,800	-0,043	-0,018
-671,349	434,171	0,053	-0,084
-670,335	120,913	0,060	-0,054
-669,320	507,397	-0,053	0,090
-668,305	74,233	-0,124	0,094
-667,291	-59,134	-0,086	-0,027
-666,276	349,498	0,029	0,041
-665,262	167,893	-0,050	-0,051
-664,247	-89,252	0,058	0,012
-663,232	-200,000	-0,045	0,161
-662,218	-200,000	-0,021	0,082
-661,203	-200,000	0,010	-0,076
-660,189	-200,000	-0,006	-0,097
-659,174	-200,000	0,003	-0,059
-658,159	-200,000	-0,007	-0,111
-657,145	-39,429	0,039	-0,015
-656,130	-171,906	0,117	0,003
-655,116	194,187	-0,044	0,049
-654,101	336,571	-0,017	-0,023
-653,086	-200,000	-0,004	-0,015
-652,072	-200,000	-0,024	-0,146
-651,057	-122,228	-0,143	0,017
-650,043	19,595	-0,088	0,051
-649,028	-114,954	0,075	-0,010
-648,014	-87,368	-0,057	-0,013
-646,999	-86,871	0,062	0,014
-645,984	-58,322	-0,060	0,019
-644,970	737,127	-0,067	-0,132
-643,955	-200,000	0,019	-0,230
-642,941	800,000	0,055	-0,124
-641,926	800,000	-0,015	0,045
-640,911	-132,463	0,102	0,009
-639,897	18,972	0,035	0,020
-638,882	22,114	-0,096	0,057
-637,868	-119,954	0,127	0,016
-636,853	129,801	-0,041	-0,038
-635,838	488,763	-0,009	0,016
-634,824	-200,000	-0,026	-0,124
-633,809	-143,618	-0,054	-0,004
-632,795	468,493	0,050	-0,082
-631,780	141,825	0,049	-0,047
-630,765	-143,690	-0,046	0,003
-629,751	-200,000	0,028	-0,124
-628,736	-105,624	-0,100	0,016
-627,722	-200,000	0,000	-0,023
-626,707	-180,949	-0,052	-0,001
-625,692	357,117	0,033	-0,047
-624,678	31,290	-0,139	-0,086
-623,663	-103,606	0,063	0,011
-622,649	665,562	-0,062	0,116
-621,634	-200,000	-0,001	-0,032
-620,619	107,048	-0,123	-0,106
-619,605	-200,000	-0,022	-0,077
-618,590	-42,200	0,060	-0,022
-617,576	800,000	0,054	0,148
-616,561	295,463	0,058	0,076
-615,546	-16,897	-0,068	-0,031
-614,532	749,820	-0,034	-0,066
-613,517	12,845	-0,097	-0,054
-612,503	282,024	0,058	0,075
-611,488	616,772	0,067	0,121
-610,474	684,856	-0,059	-0,112
-609,459	-59,327	0,103	-0,032
-608,444	-96,602	0,132	-0,025
-607,430	643,021	0,040	0,075
-606,415	18,783	-0,130	-0,075
-605,401	-13,585	0,049	-0,023
-604,386	-130,948	-0,043	0,004
-603,371	800,000	0,031	-0,088
-602,357	-85,156	0,041	0,009
-601,342	800,000	-0,022	0,052
-600,328	-47,921	-0,070	-0,024
-599,313	-146,673	-0,105	-0,006
-598,298	800,000	-0,013	-0,033
-597,284	-200,000	-0,001	0,071
-596,269	370,169	0,043	-0,064
-595,255	33,477	0,077	0,048
-594,240	-200,000	-0,023	-0,165
-593,225	800,000	-0,055	-0,131
-592,211	-14,331	0,086	-0,040
-591,196	-200,000	0,045	0,165
-590,182	800,000	0,027	-0,056
-589,167	-92,094	-0,013	0,003
-588,152	-35,167	0,140	0,055
-587,138	166,800	-0,070	0,072
-586,123	108,925	-0,088	-0,076
-585,109	-200,000	-0,014	-0,050
-584,094	-200,000	-0,015	-0,093
-583,079	143,702	-0,127	0,123
-582,065	-200,000	-0,018	0,202
-581,050	78,000	0,079	0,061
-580,036	-200,000	-0,012	-0,048
-579,021	230,973	-0,057	-0,068
-578,006	84,263	-0,071	0,056
-576,992	218,100	-0,022	-0,026
-575,977	33,351	-0,081	0,051
-574,963	-133,780	0,212	0,019
-573,948	-58,512	0,131	-0,041
-572,934	343,713	-0,071	0,101
-571,919	-75,100	-0,076	0,019
-570,904	800,000	-0,020	-0,057
-569,890	-200,000	0,037	0,131
-568,875	223,367	-0,092	-0,108
-567,861	70,861	-0,012	-0,009
-566,846	120,390	0,053	0,048
-565,831	-118,631	-0,170	0,021
-564,817	163,040	-0,111	-0,113
-563,802	800,000	-0,023	0,047
-562,788	329,319	0,020	-0,028
-561,773	-114,560	0,062	0,008
-560,758	54,519	-0,112	0,078
-559,744	353,543	0,029	0,041
-558,729	729,988	-0,028	-0,055
-557,715	-186,001	0,032	0,000
-556,700	-200,000	0,009	0,105
-555,685	503,477	0,046	-0,077
-554,671	-143,072	0,108	-0,007
-553,656	158,407	-0,046	0,046
-552,642	112,695	0,076	0,067
-551,627	-3,618	-0,063	0,032
-550,612	377,982	-0,041	0,061
-549,598	800,000	-0,003	0,009
-548,583	263,173	-0,109	-0,137
-547,569	26,334	0,016	-0,010
-546,554	-19,703	0,058	-0,026
-545,539	800,000	-0,047	0,124
-544,525	-200,000	0,000	-0,122
-543,510	326,781	-0,065	-0,090
-542,496	577,950	0,075	-0,132
-541,481	-200,000	-0,003	-0,088
-540,466	6,927	0,110	-0,059
-539,452	-200,000	-0,011	0,054
-538,437	47,878	0,050	-0,034
-537,423	-25,091	0,174	0,074
-536,408	464,185	-0,051	0,083
-535,393	800,000	0,015	-0,035
-534,379	-200,000	-0,010	0,097
-533,364	150,381	-0,011	-0,011
-532,350	56,880	0,079	-0,056
-531,335	271,405	0,120	0,153
-530,321	800,000	0,035	0,094
-529,306	-125,117	-0,057	-0,006
-528,291	800,000	-0,040	-0,088
-527,277	-78,902	-0,102	0,025
-526,262	800,000	0,031	-0,076
-525,248	-200,000	-0,016	0,065
-524,233	60,429	0,133	-0,095
-523,218	616,338	-0,024	-0,043
-522,204	-100,125	0,162	0,029
-521,189	-4,788	-0,062	-0,031
-520,175	-110,429	-0,115	-0,017
-519,160	-200,000	-0,015	-0,096
-518,145	-200,000	0,006	0,185
-517,131	-200,000	0,014	0,109
-516,116	7,021	0,009	0,005
-515,102	58,199	-0,146	0,103
-514,087	800,000	0,022	0,064
-513,072	22,108	-0,009	-0,005
-512,058	-66,842	0,085	0,024
-511,043	371,140	0,068	0,099
-510,029	115,818	-0,083	-0,073
-509,014	-45,261	-0,070	0,025
-507,999	460,494	0,029	0,046
-506,985	-200,000	0,005	-0,017
-505,970	-98,678	-0,141	-0,026
-504,956	225,287	-0,067	0,079
-503,941	269,497	0,069	-0,088
-502,926	-54,752	0,128	0,042
-501,912	-200,000	0,043	0,147
-500,897	117,973	0,036	-0,032
-499,883	65,233	-0,039	0,029
-498,868	-200,000	-0,006	-0,035
-497,853	0,086	0,060	0,031
-496,839	172,272	-0,044	0,046
-495,824	8,543	0,149	0,081
-494,810	-33,178	-0,067	0,027
-493,795	408,401	0,017	0,026
-492,781	566,015	-0,041	0,072
-491,766	800,000	-0,026	-0,053
-490,751	-163,416	0,064	0,002
-489,737	-102,149	0,045	-0,008
-488,722	800,000	-0,004	-0,010
-487,708	-43,688	-0,023	-0,008
-486,693	753,639	-0,019	0,037
-485,678	-200,000	-0,012	0,058
-484,664	-128,701	-0,153	0,015
-483,649	-90,702	0,048	-0,010
-482,635	-32,059	0,103	-0,041
-481,620	-154,462	-0,116	-0,005
-480,605	-72,234	0,174	-0,046
-479,591	800,000	-0,019	0,044
-478,576	28,836	-0,067	0,041
-477,562	160,771	0,037	0,037
-476,547	-3,581	-0,037	0,018
-475,532	-156,759	0,089	0,004
-474,518	119,939	0,094	-0,084
-473,503	-159,713	0,119	-0,005
-472,489	85,778	0,106	-0,084
-471,474	47,582	-0,142	-0,095
-470,459	-76,505	-0,160	-0,040
-469,445	2,286	-0,052	0,027
-468,430	800,000	0,042	0,127
-467,416	-140,641	-0,075	-0,005
-466,401	378,467	0,096	-0,142
-465,386	181,301	-0,016	-0,017
-464,372	137,111	-0,071	0,067
-463,357	500,614	-0,023	-0,038
-462,343	221,696	-0,033	0,038
-461,328	-41,248	-0,102	0,038
-460,313	347,983	0,061	-0,087
-459,299	67,597	-0,046	0,034
-458,284	104,740	0,071	-0,060
-457,270	-200,000	-0,003	0,064
-456,255	800,000	-0,009	-0,023
-455,241	509,298	-0,041	-0,069
-454,226	800,000	-0,096	-0,215
-453,211	800,000	-0,054	0,144
-452,197	-200,000	0,012	0,048
-451,182	-170,264	0,040	0,001
-450,168	-200,000	-0,002	-0,054
-449,153	39,765	-0,018	0,012
-448,138	663,209	0,080	-0,148
-447,124	5,515	-0,061	0,032
-446,109	62,550	0,061	-0,044
-445,095	241,312	0,038	0,046
-444,080	-12,848	-0,085	-0,040
-443,065	-72,776	-0,083	-0,022
-442,051	60,715	0,093	-0,066
-441,036	264,900	0,066	-0,083
-440,022	-200,000	-0,002	0,011
-439,007	-200,000	0,004	0,090
-437,992	800,000	0,025	0,071
-436,978	29,175	0,095	0,058
-435,963	800,000	-0,038	-0,107
-434,949	-200,000	-0,010	-0,063
-433,934	-200,000	-0,031	-0,174
-432,919	585,044	-0,092	-0,162
-431,905	359,417	-0,033	-0,048
-430,890	58,760	0,099	-0,070
-429,876	-11,634	0,104	0,049
-428,861	169,077	0,033	-0,033
-427,846	-57,970	0,095	0,030
-426,832	-58,331	-0,089	-0,028
-425,817	800,000	-0,056	-0,142
-424,803	-200,000	-0,024	0,118
-423,788	89,488	0,158	0,127
-422,773	-193,265	0,090	0,001
-421,759	-33,276	0,086	0,034
-420,744	-117,788	0,077	0,010
-419,730	-51,973	0,059	-0,020
-418,715	-110,666	0,066	-0,010
-417,701	-145,244	-0,181	0,012
-416,686	-200,000	0,000	0,119
-415,671	-200,000	-0,027	0,123
-414,657	-83,373	0,048	-0,011
-413,642	563,950	0,043	-0,075
-412,628	-15,306	-0,089	-0,041
-411,613	-27,528	-0,061	-0,025
-410,598	345,729	-0,116	-0,164
-409,584	800,000	-0,022	-0,050
-408,569	13,643	-0,100	0,056
-407,555	17,183	0,105	0,060
-406,540	-200,000	0,001	-0,044
-405,525	800,000	-0,020	-0,046
-404,511	-9,098	0,142	-0,068
-403,496	-174,630	0,076	0,002
-402,482	-68,741	0,138	0,038
-401,467	336,659	0,056	0,078
-400,452	800,000	-0,021	0,064
-399,438	334,474	-0,060	0,084
-398,423	413,033	0,050	-0,077
-397,409	-200,000	-0,008	0,125
-396,394	211,063	0,047	0,053
-395,379	250,295	0,054	-0,066
-394,365	-106,000	-0,149	0,024
-393,350	190,134	0,110	0,119
-392,336	800,000	0,019	0,041
-391,321	72,556	-0,061	0,045
-390,306	33,659	-0,089	-0,055
-389,292	-200,000	0,006	-0,050
-388,277	400,010	0,025	0,038
-387,263	104,936	-0,033	0,028
-386,248	56,034	0,010	-0,007
-385,233	-200,000	0,012	0,118
-384,219	146,514	-0,051	-0,049
-383,204	-77,338	-0,069	0,017
-382,190	87,083	-0,023	-0,018
-381,175	-200,000	0,020	-0,096
-380,160	800,000	-0,047	0,109
-379,146	-117,043	0,078	-0,010
-378,131	160,666	-0,055	-0,056
-377,117	51,603	-0,077	-0,052
-376,102	252,390	0,044	0,054
-375,088	20,771	-0,110	-0,063
-374,073	159,999	-0,062	-0,062
-373,058	164,043	0,010	0,011
-372,044	701,285	0,039	-0,074
-371,029	758,675	0,016	0,030
-370,015	-137,202	-0,087	0,007
-369,000	-200,000	0,141	0,000
-367,985	-87,075	-0,148	0,032
-366,971	-62,672	-0,014	0,004
-365,956	-7,599	0,063	0,030
-364,942	9,254	0,094	-0,051
-363,927	177,705	0,111	-0,116
-362,912	112,812	-0,146	0,127
-361,898	-97,817	-0,047	0,009
-360,883	-200,000	-0,010	0,073
-359,869	-200,000	-0,019	-0,066
-358,854	455,711	-0,056	-0,089
-357,839	286,993	-0,025	0,032
-356,825	50,176	0,029	0,020
-355,810	-42,428	0,095	-0,035
-354,796	189,521	-0,027	0,029
-353,781	800,000	0,071	-0,168
-352,766	-200,000	-0,016	-0,111
-351,752	-21,872	-0,025	-0,011
-350,737	188,021	0,100	-0,107
-349,723	-49,421	0,070	0,024
-348,708	800,000	0,073	-0,181
-347,693	-74,998	0,166	-0,042
-346,679	150,977	-0,110	0,107
-345,664	-133,492	-0,146	0,013
-344,650	-200,000	0,026	-0,124
-343,635	-200,000	-0,007	-0,053
-342,620	-200,000	0,047	0,176
-341,606	10,141	-0,113	0,061
-340,591	31,672	0,078	0,048
-339,577	-200,000	-0,015	-0,106
-338,562	-200,000	0,000	-0,012
-337,548	-200,000	-0,007	0,055
-336,533	180,414	0,063	-0,066
-335,518	-200,000	0,004	0,029
-334,504	589,008	0,048	0,085
-333,489	-200,000	0,004	0,016
-332,475	-120,590	-0,090	0,011
-331,460	39,037	-0,152	-0,097
-330,445	198,569	0,059	-0,065
-329,431	141,181	-0,098	-0,093
-328,416	108,927	0,087	0,075
-327,402	800,000	-0,012	0,038
-326,387	546,199	0,072	0,124
-325,372	-196,251	0,065	-0,000
-324,358	58,351	-0,091	0,064
-323,343	82,649	0,083	-0,065
-322,329	-98,892	-0,068	0,012
-321,314	49,509	0,147	-0,099
-320,299	-99,121	-0,040	0,007
-319,285	-200,000	0,015	0,051
-318,270	-119,856	-0,051	-0,006
-317,256	-200,000	0,017	-0,066
-316,241	800,000	-0,036	0,092
-315,226	-12,512	0,084	0,039
-314,212	-130,882	0,105	0,010
-313,197	-134,589	-0,075	-0,006
-312,183	783,603	0,056	-0,111
-311,168	650,765	-0,104	-0,192
-310,153	-103,739	-0,031	0,005
-309,139	-2,120	0,072	-0,036
-308,124	-138,359	-0,076	-0,006
-307,110	224,382	0,065	0,075
-306,095	-165,261	0,035	-0,001
-305,080	-200,000	-0,009	0,071
-304,066	206,320	0,090	0,101
-303,051	-200,000	0,007	-0,044
-302,037	30,325	0,061	-0,037
-301,022	329,948	-0,019	-0,027
-300,008	247,125	0,073	0,088
-298,993	484,593	-0,085	0,138
-297,978	-200,000	-0,029	0,107
-296,964	171,264	0,045	0,046
-295,949	-7,896	0,111	0,053
-294,935	404,731	0,068	0,103
-293,920	249,050	0,087	-0,106
-292,905	367,345	-0,050	0,072
-291,891	613,628	0,016	0,029
-290,876	55,477	0,096	-0,067
-289,862	237,876	-0,022	0,026
-288,847	-70,003	-0,097	-0,026
-287,832	-200,000	-0,018	-0,079
-286,818	137,269	-0,048	0,045
-285,803	-200,000	0,007	-0,069
-284,789	7,078	-0,076	0,041
-283,774	-6,872	0,081	-0,039
-282,759	489,193	-0,087	-0,142
-281,745	-42,909	0,087	-0,032
-280,730	314,289	-0,054	0,072
-279,716	-200,000	0,005	0,044
-278,701	155,430	0,062	-0,061
-277,686	-200,000	-0,010	-0,092
-276,672	800,000	0,019	0,038
-275,657	6,289	-0,137	-0,072
-274,643	-1,448	0,143	-0,072
-273,628	-200,000	-0,030	-0,098
-272,613	111,867	-0,051	0,044
-271,599	-200,000	-0,016	0,211
-270,584	-200,000	0,020	0,116
-269,570	130,676	-0,149	0,136
-268,555	800,000	0,083	0,194
-267,540	800,000	-0,030	0,081
-266,526	-200,000	-0,008	-0,068
-265,511	-33,006	0,067	-0,026
-264,497	-111,743	0,063	0,009
-263,482	-37,003	0,080	0,030
-262,467	-200,000	-0,019	0,072
-261,453	800,000	0,043	0,093
-260,438	22,702	0,076	0,044
-259,424	305,041	-0,030	0,040
-258,409	81,961	-0,056	-0,043
-257,395	-200,000	-0,001	-0,062
-256,380	-130,612	0,094	-0,009
-255,365	-200,000	0,024	0,173
-254,351	128,543	0,062	-0,056
-253,336	524,990	-0,093	-0,156
-252,322	460,209	-0,049	-0,078
-251,307	1,649	0,087	-0,045
-250,292	27,465	0,138	0,083
-249,278	328,885	-0,104	0,143
-248,263	399,170	-0,007	-0,010
-247,249	105,428	-0,079	0,066
-246,234	707,078	-0,053	0,101
-245,219	-200,000	-0,003	-0,136
-244,205	9,265	-0,123	-0,066
-243,190	38,251	0,058	-0,036
-242,176	32,056	0,112	0,069
-241,161	-142,589	-0,133	-0,009
-240,146	-23,925	-0,020	-0,008
-239,132	184,194	-0,021	0,022
-238,117	-105,459	-0,103	-0,017
-237,103	-25,628	-0,167	0,070
-236,088	59,456	0,065	-0,046
-235,073	-114,879	-0,106	0,014
-234,059	447,936	0,092	0,144
-233,044	800,000	0,040	0,113
-232,030	-200,000	0,001	0,063
-231,015	-200,000	0,010	-0,147
-230,000	217,507	-0,130	-0,148
-228,986	800,000	0,030	0,092
-227,971	20,245	0,057	-0,032
-226,957	468,763	0,094	-0,151
-225,942	86,315	-0,119	0,094
-224,927	64,945	-0,012	-0,009
-223,913	604,281	-0,079	-0,141
-222,898	162,678	-0,101	-0,101
-221,884	44,933	-0,063	-0,041
-220,869	-30,795	-0,013	-0,005
-219,855	296,059	0,101	0,132
-218,840	386,411	0,079	0,117
-217,825	-22,776	0,053	0,023
-216,811	800,000	-0,038	-0,101
-215,796	-165,592	-0,110	-0,003
-214,782	-69,691	0,005	-0,001
-213,767	362,580	-0,084	-0,121
-212,752	36,884	0,109	-0,069
-211,738	-200,000	-0,011	0,040
-210,723	19,016	-0,111	-0,063
-209,709	-200,000	-0,012	0,173
-208,694	-56,043	-0,079	-0,025
-207,679	-200,000	0,027	0,120
-206,665	710,399	-0,016	0,030
-205,650	-98,250	0,092	-0,017
-204,636	800,000	0,027	-0,054
-203,621	-16,794	0,135	-0,060
-202,606	-103,047	0,095	0,016
-201,592	-42,177	-0,038	0,014
-200,577	-200,000	0,012	-0,098
-199,563	-200,000	0,012	0,088
-198,548	49,703	0,137	0,092
-197,533	-200,000	-0,005	0,033
-196,519	-200,000	0,020	0,102
-195,504	-78,296	0,176	0,043
-194,490	44,205	-0,170	-0,111
-193,475	-200,000	0,014	0,095
-192,460	66,738	-0,039	-0,028
-191,446	-32,542	0,142	0,056
-190,431	800,000	-0,033	0,087
-189,417	268,027	0,079	-0,098
-188,402	-55,193	-0,057	-0,018
-187,387	-101,382	-0,144	-0,025
-186,373	-186,853	0,077	-0,001
-185,358	-21,308	0,020	0,009
-184,344	179,522	-0,050	-0,052
-183,329	57,620	-0,126	-0,087
-182,315	450,378	-0,021	0,033
-181,300	800,000	-0,049	-0,151
-180,285	-173,657	-0,067	-0,001
-179,271	20,957	0,067	0,039
-178,256	7,362	0,034	-0,018
-177,242	800,000	-0,056	0,130
-176,227	-83,868	0,090	-0,020
-175,212	78,352	0,031	-0,024
-174,198	565,517	0,102	0,177
-173,183	207,280	-0,047	0,052
-172,169	97,783	-0,047	0,039
-171,154	757,653	0,023	0,045
-170,139	-34,856	0,084	-0,033
-169,125	659,974	-0,015	0,028
-168,110	17,545	-0,064	0,036
-167,096	99,076	-0,104	-0,085
-166,081	68,208	-0,118	-0,086
-165,066	-132,508	-0,091	-0,008
-164,052	18,992	0,025	0,014
-163,037	-112,027	-0,036	-0,005
-162,023	100,673	-0,044	0,036
-161,008	-41,001	-0,035	-0,013
-159,993	532,966	0,065	0,109
-158,979	-159,117	-0,115	-0,005
-157,964	-200,000	-0,015	0,053
-156,950	89,807	-0,027	-0,022
-155,935	55,961	0,152	0,105
-154,920	-9,051	-0,093	0,044
-153,906	667,774	-0,021	0,039
-152,891	250,013	0,033	-0,040
-151,877	-32,894	-0,179	0,070
-150,862	-1,902	-0,083	0,041
-149,847	800,000	-0,050	0,102
-148,833	207,276	-0,056	-0,062
-147,818	-200,000	0,013	-0,055
-146,804	-106,535	-0,063	-0,010
-145,789	-200,000	0,010	0,128
-144,775	800,000	-0,058	0,146
-143,760	800,000	0,034	0,071
-142,745	-166,093	-0,054	-0,002
-141,731	-159,916	0,060	0,002
-140,716	-200,000	0,034	-0,123
-139,702	800,000	-0,015	-0,035
-138,687	99,569	0,047	-0,038
-137,672	-63,186	-0,092	-0,027
-136,658	-109,177	0,114	-0,017
-135,643	-200,000	-0,029	-0,121
-134,629	28,330	-0,080	-0,048
-133,614	-127,786	0,095	-0,010
-132,599	-200,000	-0,013	0,076
-131,585	112,226	0,089	0,076
-130,570	355,828	0,020	0,028
-129,556	-48,960	-0,086	-0,029
-128,541	173,664	0,050	0,052
-127,526	-105,804	-0,069	0,011
-126,512	-8,788	-0,093	-0,044
-125,497	-200,000	-0,009	0,178
-124,483	92,977	0,052	0,041
-123,468	800,000	-0,032	-0,068
-122,453	237,619	-0,069	-0,082
-121,439	291,694	0,076	-0,098
-120,424	658,929	-0,014	0,026
-119,410	290,724	0,031	-0,040
-118,395	-116,066	0,141	0,018
-117,380	-200,000	-0,020	0,063
-116,366	800,000	-0,016	-0,040
-115,351	224,874	0,013	0,015
-114,337	800,000	-0,059	-0,121
-113,322	800,000	0,039	0,081
-112,307	-200,000	-0,003	0,052
-111,293	444,519	0,104	0,163
-110,278	800,000	-0,096	0,191
-109,264	-78,099	0,098	0,024
-108,249	-200,000	-0,010	0,045
-107,234	-100,059	-0,133	0,023
-106,220	128,386	0,049	-0,045
-105,205	-200,000	0,011	-0,064
-104,191	-200,000	-0,002	-0,007
-103,176	384,392	0,035	0,051
-102,162	294,156	0,020	0,026
-101,147	-200,000	0,002	0,068
-100,132	-41,539	-0,048	0,017
-99,118	800,000	-0,024	0,062
-98,103	166,789	0,123	-0,124
-97,089	-109,376	0,095	-0,014
-96,074	-61,080	-0,106	0,032
-95,059	-56,162	-0,166	-0,052
-94,045	120,904	0,038	-0,033
-93,030	-200,000	0,009	-0,095
-92,016	313,521	-0,028	-0,037
-91,001	82,454	-0,107	-0,082
-89,986	-200,000	-0,007	-0,038
-88,972	221,079	-0,085	0,097
-87,957	800,000	0,022	0,066
-86,943	530,743	-0,043	0,072
-85,928	-174,954	0,055	-0,001
-84,913	-200,000	-0,007	-0,105
-83,899	-50,517	-0,027	0,009
-82,884	800,000	-0,027	0,060
-81,870	390,182	-0,059	0,087
-80,855	57,810	0,109	0,075
-79,840	-200,000	0,019	-0,081
-78,826	16,258	-0,058	0,033
-77,811	800,000	0,031	-0,064
-76,797	417,643	0,019	-0,029
-75,782	-137,191	0,035	0,003
-74,767	164,584	-0,064	0,064
-73,753	54,667	-0,082	-0,056
-72,738	-200,000	-0,002	0,037
-71,724	38,218	0,112	-0,070
-70,709	-165,167	-0,056	-0,002
-69,694	380,753	-0,014	0,020
-68,680	800,000	0,015	-0,042
-67,665	800,000	-0,034	0,083
-66,651	306,439	0,075	0,099
-65,636	-47,204	-0,096	-0,033
-64,622	-200,000	-0,030	-0,097
-63,607	-6,142	0,031	-0,015
-62,592	800,000	0,033	0,071
-61,578	597,278	-0,015	-0,026
-60,563	-200,000	0,030	0,108
-59,549	-147,992	0,063	-0,004
-58,534	-64,370	-1,753	-0,502
-57,519	449,398	-1,305	-2,044
-56,505	-200,000	-0,468	-4,643
-55,490	166,058	0,980	0,984
-54,476	800,000	4,809	11,433
-53,461	-200,000	18,868	310,914
-52,446	-200,000	738,275	2317,017
-51,432	573,753	1654,553	2868,584
-50,417	79,165	1671,098	1266,516
-49,403	21,900	1543,975	888,794
-48,388	15,753	1466,520	814,328
-47,373	17,790	1456,426	818,531
-46,359	16,796	1446,642	808,232
-45,344	13,989	1442,005	792,164
-44,330	13,899	1440,081	790,645
-43,315	13,904	1438,441	789,736
-42,300	13,910	1436,738	788,801
-41,286	13,973	1435,475	788,375
-40,271	13,933	1434,168	787,439
-39,257	13,914	1432,954	786,648
-38,242	13,995	1431,581	786,251
-37,227	14,008	1430,526	785,700
-36,213	13,986	1428,983	784,716
-35,198	13,949	1427,992	783,967
-34,184	14,010	1427,170	783,772
-33,169	13,948	1425,653	782,613
-32,154	13,991	1424,689	782,256
-31,140	14,002	1423,443	781,597
-30,125	14,018	1422,136	780,922
-29,111	13,982	1421,077	780,140
-28,096	13,956	1420,052	779,424
-27,082	13,900	1419,041	778,573
-26,067	13,896	1417,706	777,793
-25,052	13,934	1416,553	777,308
-24,038	13,854	1415,950	776,567
-23,023	13,877	1414,867	776,052
-22,009	13,881	1413,866	775,490
-20,994	13,835	1412,974	774,754
-19,979	13,888	1412,042	774,463
-18,965	13,830	1411,131	773,658
-17,950	13,815	1410,186	773,039
-16,936	13,855	1409,221	772,669
-15,921	13,838	1408,102	771,944
-14,906	13,810	1407,544	771,475
-13,892	13,808	1406,219	770,712
-12,877	13,827	1405,258	770,242
-11,863	13,850	1404,375	769,836
-10,848	13,778	1403,665	769,081
-9,833	13,826	1402,791	768,791
-8,819	13,774	1401,784	767,970
-7,804	13,759	1400,807	767,334
-6,790	13,677	1399,963	766,460
-5,775	13,734	1398,650	765,975
-4,760	13,725	1397,918	765,500
-3,746	13,726	1396,956	764,949
-2,731	13,712	1396,370	764,535
-1,717	13,698	1395,441	763,930
-0,702	13,712	1393,523	762,912
0,313	17,486	1311,319	735,428
1,327	33,750	705,652	433,425
2,342	52,004	123,831	83,324
3,356	1,333	16,585	8,405
4,371	4,277	3,178	1,642
5,386	-11,416	0,624	0,289
6,400	-200,000	0,034	0,347
7,415	62,901	-0,255	-0,180
8,429	79,349	-0,327	-0,248
9,444	112,246	-0,283	-0,242
10,459	-41,152	-0,284	-0,103
11,473	191,645	-0,128	-0,137
12,488	-8,247	-0,309	-0,147
13,502	54,479	-0,274	-0,186
14,517	42,083	-0,339	-0,217
15,531	164,373	-0,308	-0,307
16,546	146,132	-0,385	-0,365
17,561	147,674	-0,417	-0,397
18,575	107,098	-0,266	-0,223
19,590	120,105	-0,066	-0,057
20,604	-63,227	-0,273	-0,079
21,619	93,872	-0,413	-0,330
22,634	65,677	-0,413	-0,295
23,648	104,154	-0,316	-0,262
24,663	255,348	-0,348	-0,421
25,677	319,531	-0,220	-0,296
26,692	113,828	-0,264	-0,226
27,707	114,694	-0,283	-0,243
28,721	7,852	-0,382	-0,201
29,736	-8,966	-0,250	-0,118
30,750	-27,108	-0,416	-0,171
31,765	-11,632	-0,446	-0,206
32,780	14,511	-0,366	-0,201
33,794	28,828	-0,361	-0,215
34,809	61,768	-0,429	-0,301
35,823	101,679	-0,283	-0,233
36,838	45,017	-0,232	-0,151
37,853	156,038	-0,304	-0,296
38,867	207,186	-0,378	-0,416
39,882	195,448	-0,177	-0,190
40,896	-15,895	-0,504	-0,226
41,911	77,081	-0,260	-0,195
42,926	22,007	-0,361	-0,207
43,940	-16,335	-0,414	-0,184
44,955	-10,111	-0,325	-0,151
45,969	149,851	-0,228	-0,218
46,984	198,412	-0,306	-0,330
47,999	574,802	-0,208	-0,360
49,013	73,669	-0,351	-0,259
50,028	57,173	-0,256	-0,176
51,042	137,903	-0,326	-0,301
52,057	66,514	-0,221	-0,158
53,071	61,445	-0,392	-0,275
54,086	246,063	-0,309	-0,368
55,101	156,059	-0,226	-0,220
56,115	-46,234	-0,256	-0,088
57,130	11,909	-0,300	-0,162
58,144	37,151	-0,355	-0,221
59,159	83,500	-0,339	-0,260
60,174	3,444	-0,388	-0,199
61,188	-50,647	-0,445	-0,147
62,203	138,235	-0,427	-0,394
63,217	-93,203	-0,319	-0,062
64,232	55,551	-0,235	-0,160
65,247	-17,824	-0,337	-0,148
66,261	370,442	-0,209	-0,300
67,276	-8,487	-0,383	-0,181
68,290	174,618	-0,324	-0,330
69,305	9,527	-0,353	-0,188
70,320	329,562	-0,202	-0,274
71,334	55,389	-0,338	-0,230
72,349	26,048	-0,239	-0,140
73,363	104,981	-0,377	-0,313
74,378	309,033	-0,303	-0,399
75,393	69,647	-0,411	-0,297
76,407	32,896	-0,320	-0,194
77,422	119,134	-0,254	-0,221
78,436	37,671	-0,285	-0,177
79,451	57,019	-0,264	-0,181
80,466	178,482	-0,180	-0,184
81,480	-43,302	-0,331	-0,117
82,495	89,764	-0,379	-0,297
83,509	210,060	-0,240	-0,265
84,524	104,840	-0,215	-0,178
85,539	-1,302	-0,296	-0,147
86,553	143,593	-0,164	-0,154
87,568	70,556	-0,298	-0,216
88,582	138,704	-0,308	-0,284
89,597	103,398	-0,339	-0,279
90,611	58,021	-0,173	-0,118
91,626	497,664	-0,125	-0,203
92,641	-19,945	-0,379	-0,164
93,655	102,593	-0,290	-0,238
94,670	120,314	-0,250	-0,218
95,684	348,343	-0,243	-0,337
96,699	240,993	-0,256	-0,300
97,714	36,908	-0,277	-0,172
98,728	100,428	-0,237	-0,193
99,743	14,968	-0,264	-0,145
100,757	27,857	-0,218	-0,128
101,772	69,913	-0,288	-0,208
102,787	17,786	-0,358	-0,199
103,801	-11,758	-0,287	-0,132
104,816	-46,834	-0,237	-0,081
105,830	168,862	-0,209	-0,209
106,845	15,341	-0,210	-0,115
107,860	-24,221	-0,259	-0,108
108,874	63,354	-0,339	-0,238
109,889	28,416	-0,476	-0,281
110,903	155,152	-0,202	-0,195
111,918	42,326	-0,223	-0,142
112,933	326,146	-0,165	-0,222
113,947	-82,862	-0,221	-0,050
114,962	23,927	-0,202	-0,116
115,976	-48,443	-0,272	-0,091
116,991	267,913	-0,154	-0,189
118,006	-29,036	-0,375	-0,150
119,020	800,000	-0,163	-0,325
120,035	4,068	-0,237	-0,121
121,049	-22,250	-0,219	-0,093
122,064	206,055	-0,249	-0,271
123,079	90,092	-0,186	-0,145
124,093	7,819	-0,235	-0,123
125,108	28,158	-0,335	-0,197
126,122	-3,583	-0,343	-0,166
127,137	-200,000	0,041	-0,179
128,151	144,172	-0,126	-0,117
129,166	-47,256	-0,225	-0,076
130,181	70,280	-0,228	-0,165
131,195	95,208	-0,254	-0,202
132,210	19,987	-0,255	-0,144
133,224	123,107	-0,177	-0,155
134,239	8,291	-0,247	-0,129
135,254	-65,227	-0,196	-0,055
136,268	-31,668	-0,405	-0,158
137,283	50,623	-0,211	-0,139
138,297	-39,819	-0,270	-0,098
139,312	800,000	-0,119	-0,292
140,327	-66,673	-0,265	-0,073
141,341	138,393	-0,213	-0,195
142,356	96,384	-0,289	-0,231
143,370	21,014	-0,281	-0,159
144,385	72,501	-0,177	-0,129
145,400	-62,370	-0,349	-0,101
146,414	237,278	-0,229	-0,266
147,429	237,117	-0,265	-0,307
148,443	-20,811	-0,208	-0,089
149,458	722,135	-0,084	-0,156
150,473	-40,885	-0,236	-0,085
151,487	216,356	-0,217	-0,241
152,502	85,037	-0,187	-0,143
153,516	38,122	-0,352	-0,218
154,531	-117,623	-0,318	-0,040
155,546	-32,460	-0,194	-0,075
156,560	47,368	-0,214	-0,139
157,575	267,523	-0,118	-0,144
158,589	17,933	-0,319	-0,177
159,604	-36,849	-0,272	-0,101
160,619	111,587	-0,224	-0,189
161,633	94,717	-0,401	-0,318
162,648	7,639	-0,276	-0,144
163,662	348,810	-0,173	-0,239
164,677	-22,598	-0,223	-0,094
165,692	-12,906	-0,234	-0,106
166,706	-116,752	-0,276	-0,035
167,721	160,397	-0,149	-0,145
168,735	180,147	-0,345	-0,353
169,750	210,766	-0,227	-0,249
170,764	-126,705	-0,260	0,026
171,779	15,811	-0,093	-0,051
172,794	-200,000	-0,050	-0,239
173,808	77,945	-0,257	-0,190
174,823	61,705	-0,306	-0,212
175,837	173,462	-0,193	-0,195
176,852	-3,846	-0,244	-0,117
177,867	-78,133	-0,280	-0,067
178,881	99,946	-0,244	-0,197
179,896	-12,603	-0,105	-0,048
180,910	122,172	-0,191	-0,166
181,925	85,590	-0,126	-0,096
182,940	38,289	-0,329	-0,204
183,954	12,276	-0,314	-0,168
184,969	-96,458	-0,291	-0,053
185,983	-140,636	-0,165	-0,012
186,998	52,812	-0,151	-0,100
188,013	-64,366	-0,101	0,028
189,027	269,638	-0,223	-0,273
190,042	38,442	-0,288	-0,178
191,056	152,822	-0,300	-0,285
192,071	399,488	-0,115	-0,169
193,086	-6,769	-0,148	-0,070
194,100	46,980	-0,146	-0,094
195,115	-200,000	-0,025	-0,163
196,129	142,975	-0,158	-0,147
197,144	79,085	-0,272	-0,202
198,159	114,951	-0,207	-0,176
199,173	-71,261	-0,201	-0,052
200,188	-7,694	-0,255	-0,119
201,202	31,379	-0,071	-0,043
202,217	800,000	-0,081	-0,178
203,232	45,594	-0,136	-0,087
204,246	-23,671	-0,178	-0,074
205,261	40,482	-0,223	-0,139
206,275	-34,955	-0,292	-0,110
207,290	46,468	-0,120	-0,077
208,304	139,896	-0,240	-0,220
209,319	202,567	-0,184	-0,198
210,334	9,804	-0,244	-0,128
211,348	-176,311	-0,274	-0,005
212,363	90,942	-0,185	-0,144
213,377	286,443	-0,191	-0,240
214,392	-38,655	-0,055	0,020
215,407	40,356	-0,200	-0,125
216,421	773,083	-0,098	-0,187
217,436	-200,000	-0,089	-0,357
218,450	359,966	-0,185	-0,258
219,465	178,601	-0,220	-0,223
220,480	178,807	-0,142	-0,144
221,494	93,952	-0,154	-0,121
222,509	422,905	-0,129	-0,193
223,523	168,416	-0,204	-0,202
224,538	104,317	-0,211	-0,172
225,553	-13,536	-0,223	-0,100
226,567	490,801	-0,150	-0,240
227,582	295,054	-0,157	-0,200
228,596	800,000	-0,049	-0,133
229,611	121,697	-0,111	-0,096
230,626	55,078	-0,171	-0,115
231,640	756,122	-0,069	-0,130
232,655	431,543	-0,183	-0,275
233,669	602,530	-0,206	-0,356
234,684	112,104	-0,279	-0,233
235,699	43,456	-0,180	-0,114
236,713	800,000	-0,086	-0,184
237,728	800,000	-0,083	-0,172
238,742	800,000	-0,048	-0,103
239,757	115,701	-0,221	-0,188
240,772	-55,420	-0,184	-0,057
241,786	720,871	-0,151	-0,280
242,801	20,445	-0,194	-0,109
243,815	67,263	-0,121	-0,086
244,830	565,399	-0,051	-0,086
245,844	76,702	-0,144	-0,105
246,859	683,856	-0,209	-0,380
247,874	77,877	-0,219	-0,162
248,888	151,546	-0,223	-0,211
249,903	68,664	-0,217	-0,154
250,917	587,594	-0,067	-0,114
251,932	335,819	-0,128	-0,173
252,947	96,562	-0,163	-0,129
253,961	532,026	-0,142	-0,234
254,976	117,378	-0,173	-0,148
255,990	504,014	-0,109	-0,176
257,005	4,354	-0,152	-0,077
258,020	61,092	-0,204	-0,140
259,034	-200,000	-0,038	-0,121
260,049	-122,642	-0,249	0,028
261,063	-10,298	-0,254	-0,116
262,078	800,000	-0,075	-0,225
263,093	93,583	-0,175	-0,137
264,107	800,000	-0,111	-0,215
265,122	-87,445	-0,161	-0,033
266,136	84,400	-0,109	-0,082
267,151	-29,065	-0,234	-0,092
268,166	329,774	-0,141	-0,188
269,180	135,214	-0,266	-0,239
270,195	599,913	-0,160	-0,276
271,209	769,532	-0,127	-0,239
272,224	302,244	-0,116	-0,149
273,239	140,741	-0,208	-0,190
274,253	185,668	-0,133	-0,137
275,268	-14,922	-0,170	-0,075
276,282	-29,007	-0,304	-0,120
277,297	-60,254	-0,224	-0,065
278,312	-88,467	-0,042	0,009
279,326	116,806	-0,096	-0,082
280,341	194,123	-0,054	-0,057
281,355	-36,325	-0,105	-0,039
282,370	800,000	-0,056	-0,166
283,384	188,394	-0,091	-0,094
284,399	-38,634	-0,195	-0,071
285,414	171,948	-0,189	-0,188
286,428	150,376	-0,209	-0,196
287,443	-200,000	-0,013	-0,056
288,457	155,369	-0,162	-0,154
289,472	37,693	-0,195	-0,119
290,487	509,439	-0,135	-0,217
291,501	25,182	-0,164	-0,094
292,516	800,000	-0,147	-0,301
293,530	-65,364	-0,217	-0,060
294,545	264,988	-0,117	-0,141
295,560	463,565	-0,121	-0,188
296,574	-2,377	-0,140	-0,067
297,589	-200,000	-0,033	-0,112
298,603	14,769	-0,290	-0,156
299,618	21,705	-0,091	-0,051
300,633	22,238	-0,119	-0,067
301,647	-121,384	-0,173	-0,020
302,662	-31,653	-0,134	0,052
303,676	29,364	-0,103	-0,060
304,691	800,000	-0,103	-0,210
305,706	177,973	-0,236	-0,238
306,720	365,713	-0,174	-0,243
307,735	-144,405	-0,185	-0,012
308,749	-102,728	-0,055	-0,009
309,764	-200,000	-0,022	-0,175
310,779	142,742	-0,129	-0,118
311,793	49,617	-0,190	-0,123
312,808	168,688	-0,124	-0,122
313,822	47,481	-0,225	-0,144
314,837	12,523	-0,158	-0,084
315,852	21,815	-0,066	-0,037
316,866	-69,607	-0,157	-0,041
317,881	800,000	-0,063	-0,134
318,895	-158,264	-0,219	0,009
319,910	232,637	-0,148	-0,167
320,925	-85,440	-0,184	-0,039
321,939	785,355	-0,132	-0,250
322,954	436,288	-0,050	-0,074
323,968	-77,065	-0,130	-0,031
324,983	-48,887	-0,119	-0,039
325,997	800,000	-0,020	-0,059
327,012	-8,016	-0,167	-0,077
328,027	792,868	-0,130	-0,247
329,041	-119,106	-0,131	0,016
330,056	427,876	-0,139	-0,207
331,070	29,467	-0,104	-0,061
332,085	-200,000	-0,036	-0,124
333,100	-96,198	-0,124	-0,022
334,114	-66,913	-0,259	-0,070
335,129	8,548	-0,213	-0,110
336,143	7,265	-0,039	-0,020
337,158	99,404	-0,105	-0,083
338,173	-200,000	0,034	-0,141
339,187	800,000	-0,062	-0,119
340,202	57,017	-0,060	-0,040
341,216	-170,777	-0,215	0,005
342,231	266,060	-0,148	-0,177
343,246	-53,258	-0,115	-0,036
344,260	-126,991	-0,111	0,011
345,275	-57,757	-0,046	0,014
346,289	-16,916	-0,163	-0,070
347,304	-27,153	-0,089	-0,035
348,319	163,225	-0,259	-0,250
349,333	281,742	-0,173	-0,213
350,348	154,860	-0,103	-0,097
351,362	-1,238	-0,110	-0,053
352,377	652,711	-0,073	-0,128
353,392	-200,000	-0,022	-0,157
354,406	-87,300	-0,060	-0,012
355,421	207,247	1314,590	1408,340
356,435	159,413	1475,302	1408,819
