DTS Sentinel unit serial number:	SN410029Multiplexer serial number:	ORYXHardware model number:	OX2-SRSoftware version number:	ORYX F/W v4,00 Oryx Data Collector v3.7.2.0data status	okinstallation	B3 Nyhavnadifferential loss correction	single-endedforward channel	channel 1reverse channel	N/Adate	2023/12/04time	07:27:30forward acquisition time	300,00reverse acquisition time	0,00gamma	499,1914k internal	0,3206k external	0,3206temperature offset calibration	1,0000default loss term (dB/km)	0,3820temperature slope calibration	1,0000multiplexer offset coefficient	1,0000multiplexer slope coefficient	1,0000fibre end	0,00T internal ref (°C)	12,26T ext. ref 1 (°C)	-2,18T ext. ref 2 (°C)	-2,23length (m)	temperature (°C)	Stokes	anti-Stokes-744,400	800,000	-0,105	-0,326
-743,385	-200,000	-0,027	0,308
-742,371	800,000	-0,108	-0,223
-741,356	-200,000	-0,079	0,359
-740,342	107,969	-0,244	-0,211
-739,327	-200,000	-0,019	0,211
-738,312	504,245	-0,116	-0,196
-737,298	-200,000	0,002	0,255
-736,283	130,388	-0,166	-0,154
-735,269	-200,000	-0,021	0,243
-734,254	492,224	-0,135	-0,226
-733,239	-200,000	-0,008	0,047
-732,225	423,739	-0,087	-0,137
-731,210	-200,000	0,023	0,089
-730,196	-124,018	-0,086	-0,010
-729,181	-109,005	-0,033	0,005
-728,167	-200,000	-0,017	-0,126
-727,152	-106,636	-0,143	0,023
-726,137	-200,000	0,035	-0,255
-725,123	795,746	-0,064	-0,128
-724,108	-79,806	-0,087	-0,021
-723,094	33,160	0,036	-0,023
-722,079	-200,000	0,012	0,038
-721,064	5,166	0,024	0,013
-720,050	-91,986	0,098	-0,020
-719,035	-139,889	-0,124	-0,009
-718,021	-56,074	0,084	0,027
-717,006	-167,109	0,016	0,000
-715,991	193,754	-0,061	-0,067
-714,977	-53,959	-0,133	-0,044
-713,962	800,000	0,083	-0,192
-712,948	42,103	-0,129	-0,085
-711,933	11,198	-0,035	0,019
-710,918	-10,361	-0,062	0,030
-709,904	102,805	-0,129	0,110
-708,889	535,645	-0,079	-0,137
-707,875	-127,758	-0,055	0,006
-706,860	-200,000	-0,001	0,034
-705,845	800,000	0,016	0,046
-704,831	47,817	0,094	0,063
-703,816	-117,752	0,035	-0,004
-702,802	-111,775	-0,140	-0,020
-701,787	-110,462	-0,109	0,016
-700,772	61,553	-0,035	0,025
-699,758	485,624	0,077	-0,128
-698,743	34,597	0,128	-0,081
-697,729	-200,000	0,006	0,055
-696,714	201,090	0,140	-0,157
-695,699	-200,000	-0,008	-0,104
-694,685	267,025	-0,007	-0,009
-693,670	-145,493	-0,050	-0,003
-692,656	-47,154	0,101	0,036
-691,641	-112,825	0,082	-0,012
-690,627	162,840	-0,017	0,017
-689,612	-200,000	0,036	0,128
-688,597	-132,954	-0,129	-0,012
-687,583	223,386	-0,087	-0,101
-686,568	761,694	0,015	-0,030
-685,554	800,000	-0,042	0,125
-684,539	-7,640	-0,054	0,026
-683,524	72,938	-0,038	-0,028
-682,510	103,398	-0,049	-0,041
-681,495	-69,564	0,008	0,002
-680,481	147,670	-0,082	-0,080
-679,466	-140,308	-0,151	-0,011
-678,451	-200,000	0,007	-0,036
-677,437	-200,000	-0,142	0,000
-676,422	-200,000	0,015	0,082
-675,408	215,028	0,075	0,087
-674,393	89,416	-0,112	-0,090
-673,378	-111,196	0,056	-0,008
-672,364	112,085	-0,109	-0,095
-671,349	-81,905	-0,028	-0,007
-670,335	-200,000	-0,004	0,021
-669,320	-200,000	-0,014	0,115
-668,305	9,003	0,081	0,044
-667,291	-200,000	0,002	0,087
-666,276	-159,420	-0,127	-0,005
-665,262	-38,152	-0,095	0,036
-664,247	-200,000	-0,011	-0,082
-663,232	300,187	-0,063	-0,085
-662,218	269,121	0,073	0,093
-661,203	187,798	-0,047	0,051
-660,189	59,101	-0,017	0,012
-659,174	-200,000	-0,021	0,077
-658,159	800,000	-0,027	-0,067
-657,145	-200,000	-0,015	-0,153
-656,130	360,117	0,023	-0,034
-655,116	-200,000	-0,018	-0,065
-654,101	-200,000	-0,006	-0,028
-653,086	800,000	0,005	-0,012
-652,072	800,000	-0,023	-0,070
-651,057	152,838	-0,095	-0,094
-650,043	125,558	0,082	-0,075
-649,028	408,118	0,031	0,048
-648,014	-200,000	0,016	0,107
-646,999	81,888	0,114	0,089
-645,984	-140,895	-0,101	-0,007
-644,970	238,869	-0,041	0,049
-643,955	600,120	0,056	-0,102
-642,941	3,746	0,054	0,028
-641,926	-22,647	-0,083	0,036
-640,911	800,000	-0,031	0,077
-639,897	6,347	0,061	0,033
-638,882	63,295	0,145	0,105
-637,868	43,795	-0,134	0,089
-636,853	800,000	-0,021	-0,048
-635,838	-200,000	-0,014	-0,149
-634,824	192,121	-0,130	0,142
-633,809	147,242	0,150	0,146
-632,795	224,719	0,033	-0,038
-631,780	800,000	0,048	0,123
-630,765	-127,829	-0,124	0,013
-629,751	269,364	0,015	0,019
-628,736	-8,825	-0,077	0,037
-627,722	353,646	-0,032	-0,045
-626,707	800,000	-0,027	-0,082
-625,692	137,783	0,058	0,055
-624,678	-200,000	0,013	0,201
-623,663	-17,850	0,127	0,057
-622,649	-95,029	0,176	-0,034
-621,634	440,805	-0,027	-0,043
-620,619	-148,437	-0,175	-0,010
-619,605	-133,013	-0,055	0,005
-618,590	-200,000	-0,034	0,111
-617,576	31,756	0,068	0,042
-616,561	-137,469	-0,107	-0,009
-615,546	-51,428	-0,190	-0,064
-614,532	256,666	0,117	-0,146
-613,517	100,270	0,105	-0,088
-612,503	-200,000	-0,007	-0,044
-611,488	26,867	0,036	0,022
-610,474	800,000	0,019	-0,052
-609,459	-111,911	0,129	-0,019
-608,444	653,289	-0,031	-0,058
-607,430	24,256	-0,107	0,063
-606,415	800,000	-0,061	0,133
-605,401	312,008	0,048	0,065
-604,386	-200,000	0,003	-0,031
-603,371	266,158	-0,047	0,060
-602,357	-24,176	-0,029	0,012
-601,342	-200,000	-0,027	-0,170
-600,328	800,000	-0,068	-0,165
-599,313	29,685	-0,152	-0,093
-598,298	-20,264	-0,051	-0,022
-597,284	-200,000	-0,007	-0,099
-596,269	-125,143	0,140	0,015
-595,255	374,003	-0,041	0,060
-594,240	135,319	0,034	-0,032
-593,225	-113,982	-0,063	-0,009
-592,211	-63,439	-0,142	-0,042
-591,196	-200,000	0,004	-0,158
-590,182	-200,000	0,008	-0,038
-589,167	-47,252	0,074	-0,026
-588,152	-4,412	-0,007	0,003
-587,138	214,627	-0,137	-0,157
-586,123	-148,456	-0,134	-0,008
-585,109	-179,405	-0,057	0,001
-584,094	800,000	-0,036	0,079
-583,079	-200,000	-0,003	0,046
-582,065	-200,000	0,016	0,126
-581,050	278,376	0,027	-0,035
-580,036	-200,000	0,003	0,010
-579,021	-39,324	-0,074	0,028
-578,006	8,679	-0,126	0,068
-576,992	-13,303	0,052	-0,024
-575,977	-200,000	0,012	0,121
-574,963	800,000	0,074	0,151
-573,948	800,000	0,030	0,069
-572,934	-200,000	0,023	-0,187
-571,919	800,000	-0,053	-0,124
-570,904	547,269	-0,052	-0,090
-569,890	94,474	0,068	-0,055
-568,875	286,540	-0,024	0,031
-567,861	314,913	0,132	0,179
-566,846	-46,030	-0,056	0,020
-565,831	-146,499	-0,099	0,006
-564,817	-98,203	0,056	0,010
-563,802	-200,000	0,013	-0,106
-562,788	-101,520	-0,116	-0,020
-561,773	-200,000	0,022	-0,148
-560,758	304,713	0,069	-0,092
-559,744	-3,639	0,070	-0,035
-558,729	103,987	0,048	-0,041
-557,715	-200,000	0,024	0,145
-556,700	144,666	-0,094	-0,091
-555,685	297,280	0,037	0,049
-554,671	-200,000	0,001	0,049
-553,656	45,202	0,099	-0,066
-552,642	-76,220	0,053	-0,013
-551,627	-200,000	-0,104	0,000
-550,612	-200,000	0,000	0,030
-549,598	-29,809	-0,086	-0,035
-548,583	-200,000	0,000	-0,063
-547,569	-200,000	-0,012	-0,108
-546,554	800,000	0,021	0,042
-545,539	-200,000	-0,015	-0,087
-544,525	-68,418	-0,049	0,014
-543,510	-43,449	0,066	-0,024
-542,496	-25,410	-0,142	0,060
-541,481	-67,390	-0,054	0,015
-540,466	122,207	-0,049	-0,044
-539,452	45,607	0,041	0,027
-538,437	-200,000	0,007	0,174
-537,423	-200,000	0,004	-0,084
-536,408	-29,020	0,130	0,053
-535,393	-156,321	0,042	-0,002
-534,379	-46,234	-0,055	0,019
-533,364	-200,000	0,022	-0,081
-532,350	-179,441	-0,047	-0,001
-531,335	113,275	0,061	-0,053
-530,321	-200,000	0,006	-0,102
-529,306	7,728	-0,075	0,041
-528,291	-200,000	-0,010	-0,104
-527,277	-137,110	0,142	0,012
-526,262	-127,743	-0,117	0,012
-525,248	77,407	-0,011	-0,009
-524,233	105,769	-0,072	0,061
-523,218	800,000	0,028	0,069
-522,204	-92,737	0,069	0,014
-521,189	34,245	-0,131	-0,082
-520,175	-19,389	0,027	0,012
-519,160	-127,903	-0,111	-0,011
-518,145	-131,313	0,176	0,017
-517,131	57,279	-0,031	0,022
-516,116	-200,000	-0,012	-0,104
-515,102	625,287	-0,070	0,128
-514,087	237,094	0,069	0,083
-513,072	-200,000	0,004	-0,115
-512,058	297,340	-0,041	-0,054
-511,043	-6,771	-0,099	-0,049
-510,029	-200,000	0,007	0,035
-509,014	357,615	-0,044	0,064
-507,999	247,231	-0,038	-0,047
-506,985	21,834	0,019	-0,011
-505,970	-87,427	-0,135	-0,029
-504,956	371,449	-0,020	-0,030
-503,941	-152,946	0,117	0,006
-502,926	-200,000	0,026	0,124
-501,912	4,621	0,052	0,028
-500,897	-200,000	-0,007	0,081
-499,883	78,978	-0,109	-0,084
-498,868	371,052	-0,018	-0,027
-497,853	599,823	-0,024	-0,043
-496,839	646,429	0,033	0,060
-495,824	800,000	0,047	0,095
-494,810	-200,000	0,009	0,056
-493,795	48,047	0,088	-0,059
-492,781	-200,000	0,021	-0,133
-491,766	158,858	-0,077	0,077
-490,751	50,621	0,063	0,043
-489,737	-200,000	0,003	-0,181
-488,722	-86,117	0,136	0,030
-487,708	136,163	0,112	0,105
-486,693	-200,000	0,005	-0,125
-485,678	800,000	-0,059	-0,169
-484,664	364,770	-0,087	-0,126
-483,649	398,105	0,070	-0,106
-482,635	123,707	0,069	-0,062
-481,620	-200,000	-0,028	0,114
-480,605	800,000	0,017	-0,038
-479,591	-35,276	0,029	-0,011
-478,576	529,377	-0,025	-0,042
-477,562	398,104	0,023	-0,034
-476,547	165,292	-0,093	-0,094
-475,532	-200,000	0,043	-0,194
-474,518	-200,000	0,016	-0,083
-473,503	-200,000	0,019	0,076
-472,489	499,833	0,056	0,094
-471,474	402,238	0,048	0,073
-470,459	-33,713	-0,058	0,023
-469,445	-99,236	0,073	0,013
-468,430	800,000	0,018	-0,050
-467,416	74,429	-0,091	0,068
-466,401	-86,729	0,184	0,040
-465,386	-200,000	0,008	0,106
-464,372	-200,000	-0,037	-0,122
-463,357	31,953	-0,053	0,033
-462,343	-137,108	-0,069	-0,006
-461,328	163,962	-0,096	0,097
-460,313	-200,000	-0,007	-0,023
-459,299	45,905	0,051	0,033
-458,284	13,193	0,115	0,064
-457,270	173,664	0,070	-0,072
-456,255	220,883	-0,100	0,116
-455,241	-62,565	-0,101	-0,030
-454,226	-108,614	-0,024	0,004
-453,211	763,745	0,080	-0,158
-452,197	645,718	-0,059	0,109
-451,182	-177,362	0,101	0,002
-450,168	0,555	-0,030	-0,015
-449,153	-200,000	0,026	-0,094
-448,138	-79,554	0,031	-0,007
-447,124	50,391	-0,138	-0,094
-446,109	121,502	-0,031	-0,027
-445,095	800,000	0,020	0,061
-444,080	501,638	0,017	0,028
-443,065	-58,157	0,073	-0,023
-442,051	-9,851	0,026	0,012
-441,036	-43,791	0,081	0,029
-440,022	80,924	-0,053	-0,041
-439,007	291,497	-0,052	-0,067
-437,992	35,798	0,128	0,081
-436,978	509,298	-0,039	0,066
-435,963	-200,000	0,021	0,133
-434,949	-28,519	-0,065	0,027
-433,934	800,000	-0,074	-0,180
-432,919	-64,244	0,155	-0,045
-431,905	-200,000	0,026	-0,101
-430,890	-45,418	0,086	0,030
-429,876	-129,154	-0,047	-0,005
-428,861	-200,000	-0,035	0,135
-427,846	-50,064	0,045	-0,015
-426,832	-200,000	-0,019	-0,112
-425,817	-200,000	0,037	-0,122
-424,803	-164,858	-0,133	-0,004
-423,788	257,139	0,087	-0,107
-422,773	-91,403	0,057	-0,012
-421,759	-200,000	0,012	0,081
-420,744	49,220	-0,034	0,023
-419,730	-117,504	-0,103	0,013
-418,715	800,000	-0,015	-0,035
-417,701	-200,000	0,008	-0,075
-416,686	-200,000	-0,004	0,030
-415,671	-18,593	-0,064	-0,028
-414,657	345,445	0,047	0,067
-413,642	36,629	-0,155	-0,098
-412,628	11,569	0,022	0,012
-411,613	800,000	-0,072	-0,194
-410,598	24,066	0,033	0,019
-409,584	-125,681	0,138	0,015
-408,569	-200,000	-0,027	-0,133
-407,555	84,012	-0,038	-0,030
-406,540	800,000	0,022	0,053
-405,525	127,304	-0,072	-0,065
-404,511	20,499	0,076	-0,044
-403,496	-200,000	0,004	-0,045
-402,482	-93,478	0,106	0,021
-401,467	-200,000	0,031	0,150
-400,452	800,000	0,080	0,167
-399,438	-200,000	0,011	0,138
-398,423	800,000	0,028	-0,087
-397,409	6,672	0,046	0,024
-396,394	800,000	-0,056	-0,111
-395,379	492,753	-0,027	0,044
-394,365	800,000	0,060	0,182
-393,350	-200,000	0,001	0,196
-392,336	-46,281	-0,098	0,034
-391,321	-57,206	0,062	-0,019
-390,306	-147,974	-0,095	-0,006
-389,292	83,617	-0,103	0,080
-388,277	83,416	-0,146	-0,114
-387,263	-25,093	-0,071	-0,030
-386,248	107,175	0,173	0,147
-385,233	-54,035	0,116	-0,038
-384,219	203,587	-0,026	-0,029
-383,204	-161,052	-0,142	-0,005
-382,190	359,238	0,019	-0,027
-381,175	-200,000	-0,028	-0,159
-380,160	39,968	0,067	-0,043
-379,146	-200,000	-0,015	0,107
-378,131	-136,012	-0,149	-0,012
-377,117	800,000	-0,015	0,046
-376,102	-62,762	-0,069	0,020
-375,088	-42,091	-0,033	0,012
-374,073	-168,882	-0,107	0,003
-373,058	-200,000	-0,001	0,067
-372,044	-57,851	0,094	-0,029
-371,029	69,058	-0,145	-0,107
-370,015	800,000	0,056	0,138
-369,000	77,408	-0,050	0,038
-367,985	-200,000	-0,010	-0,166
-366,971	-200,000	0,017	0,098
-365,956	800,000	0,058	-0,120
-364,942	-73,613	-0,163	0,042
-363,927	-103,887	0,113	0,019
-362,912	-200,000	0,019	0,115
-361,898	232,964	-0,072	0,085
-360,883	-200,000	0,015	-0,070
-359,869	-200,000	-0,004	-0,064
-358,854	249,508	-0,040	0,048
-357,839	-200,000	0,128	-0,000
-356,825	268,605	0,094	-0,118
-355,810	279,122	0,015	0,020
-354,796	-200,000	-0,008	-0,151
-353,781	82,192	0,085	-0,066
-352,766	27,747	-0,104	-0,063
-351,752	-200,000	-0,021	0,085
-350,737	594,867	0,048	0,085
-349,723	-200,000	-0,040	0,163
-348,708	798,185	0,044	0,088
-347,693	-200,000	0,005	-0,053
-346,679	-99,368	-0,108	-0,019
-345,664	418,564	0,048	-0,074
-344,650	-90,106	-0,056	-0,012
-343,635	79,595	0,055	-0,042
-342,620	-200,000	-0,002	0,016
-341,606	-200,000	0,008	0,107
-340,591	800,000	0,025	0,059
-339,577	-200,000	0,019	-0,206
-338,562	-84,437	-0,067	-0,015
-337,548	355,433	0,052	0,074
-336,533	-15,347	0,078	-0,035
-335,518	110,309	0,040	-0,034
-334,504	-200,000	0,014	-0,084
-333,489	-200,000	-0,040	0,133
-332,475	-57,624	-0,021	-0,007
-331,460	-200,000	0,013	0,119
-330,445	152,095	0,097	-0,095
-329,431	-55,444	-0,092	-0,029
-328,416	104,770	0,077	0,065
-327,402	-200,000	0,005	0,087
-326,387	-67,104	-0,075	0,021
-325,372	141,971	-0,094	-0,089
-324,358	329,466	0,059	0,082
-323,343	-200,000	-0,006	-0,049
-322,329	133,983	0,034	-0,031
-321,314	656,981	0,058	0,107
-320,299	-200,000	0,013	0,176
-319,285	100,632	-0,066	-0,054
-318,270	-26,601	-0,111	0,046
-317,256	800,000	0,030	-0,091
-316,241	-200,000	-0,007	-0,082
-315,226	-72,604	0,108	-0,028
-314,212	71,527	0,100	0,074
-313,197	-200,000	0,005	0,075
-312,183	800,000	0,024	-0,070
-311,168	-33,858	-0,136	0,053
-310,153	27,055	-0,082	0,049
-309,139	800,000	-0,026	-0,055
-308,124	278,337	-0,030	0,039
-307,110	-19,550	-0,097	0,043
-306,095	100,150	0,058	-0,048
-305,080	800,000	0,031	0,070
-304,066	419,415	0,046	0,071
-303,051	-85,006	0,110	0,024
-302,037	-59,381	-0,137	0,042
-301,022	800,000	0,022	-0,057
-300,008	-114,492	0,100	-0,014
-298,993	190,986	0,028	0,030
-297,978	85,457	0,021	0,017
-296,964	800,000	0,047	-0,137
-295,949	127,268	-0,065	0,059
-294,935	371,170	0,068	-0,099
-293,920	-200,000	-0,005	0,101
-292,905	193,553	0,057	0,061
-291,891	32,618	-0,017	-0,010
-290,876	119,859	-0,054	0,048
-289,862	-200,000	-0,017	-0,083
-288,847	800,000	-0,026	0,077
-287,832	240,707	0,022	0,026
-286,818	-200,000	0,000	0,039
-285,803	800,000	0,008	0,025
-284,789	800,000	0,088	0,191
-283,774	17,560	-0,071	0,040
-282,759	-70,933	-0,121	-0,032
-281,745	31,301	0,077	-0,047
-280,730	-75,721	-0,084	-0,021
-279,716	-200,000	0,058	-0,201
-278,701	795,775	-0,033	-0,064
-277,686	-17,298	0,149	0,066
-276,672	-100,929	-0,105	0,018
-275,657	382,940	-0,038	-0,056
-274,643	800,000	0,043	-0,086
-273,628	196,709	-0,086	-0,093
-272,613	71,021	-0,161	-0,119
-271,599	-200,000	0,009	-0,043
-270,584	52,714	0,096	0,065
-269,570	74,872	-0,075	0,056
-268,555	444,567	0,054	-0,084
-267,540	-138,997	-0,060	0,005
-266,526	-112,794	-0,121	-0,017
-265,511	533,716	0,046	0,078
-264,497	165,192	0,022	0,022
-263,482	-109,993	0,124	0,018
-262,467	-15,068	0,143	0,065
-261,453	800,000	-0,020	-0,042
-260,438	-9,304	-0,040	0,019
-259,424	-200,000	-0,012	-0,059
-258,409	113,233	-0,086	-0,075
-257,395	-52,224	0,112	-0,037
-256,380	-90,668	0,077	0,016
-255,365	69,536	0,124	-0,091
-254,351	-144,311	0,122	-0,008
-253,336	233,701	0,039	-0,046
-252,322	-106,886	-0,079	-0,012
-251,307	-200,000	0,030	0,127
-250,292	-70,354	-0,035	0,009
-249,278	-75,776	0,022	0,005
-248,263	64,084	-0,051	0,037
-247,249	274,918	-0,035	0,044
-246,234	-200,000	-0,022	-0,073
-245,219	-174,469	-0,008	0,000
-244,205	33,347	-0,069	-0,043
-243,190	464,666	-0,065	0,103
-242,176	112,790	0,064	0,055
-241,161	96,567	0,067	0,055
-240,146	230,593	-0,079	0,092
-239,132	-200,000	0,057	-0,000
-238,117	113,208	0,046	0,040
-237,103	160,119	-0,047	-0,047
-236,088	-200,000	0,059	0,196
-235,073	800,000	0,027	-0,066
-234,059	72,393	0,021	-0,016
-233,044	40,749	-0,053	-0,034
-232,030	800,000	-0,021	-0,048
-231,015	-200,000	-0,001	0,003
-230,000	-99,862	-0,021	-0,004
-228,986	94,675	-0,046	0,037
-227,971	429,466	-0,065	-0,101
-226,957	-3,392	0,066	0,032
-225,942	-170,590	0,086	0,002
-224,927	7,831	0,112	0,059
-223,913	-128,878	-0,056	-0,005
-222,898	-35,041	-0,056	0,022
-221,884	-120,756	0,199	-0,024
-220,869	103,658	-0,068	0,057
-219,855	25,487	-0,086	-0,051
-218,840	-148,358	0,104	0,006
-217,825	158,785	0,038	-0,038
-216,811	-200,000	0,022	-0,157
-215,796	71,742	-0,065	0,048
-214,782	43,659	-0,029	-0,019
-213,767	715,611	0,055	-0,105
-212,752	-65,399	0,019	-0,005
-211,738	59,180	-0,036	-0,025
-210,723	104,894	0,079	-0,066
-209,709	-82,689	-0,073	-0,017
-208,694	-150,627	0,037	-0,002
-207,679	-185,050	0,117	-0,001
-206,665	-91,561	0,120	0,024
-205,650	-200,000	0,045	0,218
-204,636	800,000	0,050	0,109
-203,621	800,000	-0,013	0,027
-202,606	-200,000	-0,002	0,063
-201,592	-200,000	-0,010	-0,068
-200,577	800,000	0,027	-0,053
-199,563	-200,000	0,021	0,065
-198,548	74,181	0,121	-0,090
-197,533	96,794	-0,182	0,148
-196,519	736,131	-0,041	0,078
-195,504	-2,182	0,005	0,003
-194,490	-200,000	0,024	-0,077
-193,475	131,050	-0,039	-0,036
-192,460	-139,294	-0,075	0,006
-191,446	-200,000	-0,013	0,106
-190,431	-129,012	0,121	0,012
-189,417	-200,000	0,035	-0,150
-188,402	-200,000	-0,017	-0,134
-187,387	-22,425	-0,065	-0,028
-186,373	-187,229	-0,087	0,001
-185,358	-56,927	-0,112	0,035
-184,344	79,672	-0,031	0,023
-183,329	374,899	0,112	0,163
-182,315	-200,000	-0,028	0,160
-181,300	247,717	0,108	0,130
-180,285	136,175	0,069	0,064
-179,271	-200,000	-0,002	-0,039
-178,256	-200,000	-0,010	-0,142
-177,242	-25,624	0,051	0,021
-176,227	120,105	-0,045	-0,039
-175,212	-64,094	-0,047	0,013
-174,198	-115,864	0,046	-0,006
-173,183	-200,000	-0,036	0,149
-172,169	244,010	-0,096	-0,115
-171,154	106,942	-0,112	0,095
-170,139	703,485	0,066	0,124
-169,125	226,883	-0,090	-0,104
-168,110	-40,904	0,109	-0,040
-167,096	-109,271	0,141	0,021
-166,081	-200,000	-0,014	0,080
-165,066	90,239	0,083	0,066
-164,052	-200,000	-0,012	-0,045
-163,037	-84,099	0,096	-0,021
-162,023	-119,633	0,104	0,013
-161,008	-200,000	-0,015	0,054
-159,993	62,044	-0,040	0,028
-158,979	-70,437	-0,133	-0,035
-157,964	170,414	-0,045	-0,045
-156,950	155,213	-0,055	-0,053
-155,935	38,653	0,112	0,071
-154,920	19,762	-0,064	0,037
-153,906	-95,268	0,040	0,008
-152,891	166,512	0,131	-0,131
-151,877	-200,000	-0,004	0,014
-150,862	75,752	0,064	-0,048
-149,847	522,006	0,054	-0,091
-148,833	279,742	0,037	0,047
-147,818	20,168	0,037	0,021
-146,804	800,000	0,066	0,130
-145,789	800,000	0,059	0,168
-144,775	-36,218	-0,047	0,018
-143,760	-200,000	-0,041	0,157
-142,745	800,000	-0,041	-0,118
-141,731	800,000	0,021	0,050
-140,716	800,000	-0,002	0,005
-139,702	-36,980	0,056	0,021
-138,687	793,113	-0,030	-0,059
-137,672	-17,106	-0,091	-0,041
-136,658	98,360	-0,028	0,023
-135,643	544,051	0,041	0,069
-134,629	-200,000	-0,006	-0,081
-133,614	341,291	-0,070	0,097
-132,599	-18,616	0,045	0,020
-131,585	-140,930	-0,117	0,008
-130,570	762,404	0,060	0,116
-129,556	-47,564	0,146	-0,050
-128,541	-94,032	0,069	-0,013
-127,526	272,462	-0,093	0,117
-126,512	800,000	-0,022	0,056
-125,497	-28,078	0,100	-0,041
-124,483	800,000	0,028	0,085
-123,468	800,000	0,031	-0,067
-122,453	800,000	-0,022	0,044
-121,439	-93,396	-0,109	0,021
-120,424	176,625	-0,063	-0,065
-119,410	140,400	0,079	-0,074
-118,395	133,486	-0,133	-0,122
-117,380	800,000	0,037	-0,081
-116,366	-61,278	-0,072	0,021
-115,351	195,136	0,071	-0,076
-114,337	800,000	-0,072	-0,179
-113,322	-200,000	0,001	-0,005
-112,307	204,923	0,026	0,029
-111,293	49,123	0,009	0,006
-110,278	157,495	0,040	-0,039
-109,264	800,000	0,046	-0,106
-108,249	-75,011	-0,131	-0,033
-107,234	-200,000	0,029	-0,160
-106,220	800,000	-0,034	-0,079
-105,205	-33,863	0,020	-0,008
-104,191	800,000	-0,077	0,152
-103,176	-200,000	0,004	-0,034
-102,162	9,333	-0,022	0,012
-101,147	800,000	0,047	-0,093
-100,132	356,256	-0,069	-0,097
-99,118	270,428	-0,104	-0,130
-98,103	-22,036	-0,079	-0,034
-97,089	800,000	0,045	0,131
-96,074	-163,991	-0,034	0,001
-95,059	591,234	-0,053	0,093
-94,045	-80,270	0,158	0,037
-93,030	-200,000	-0,015	-0,074
-92,016	-145,996	-0,063	0,004
-91,001	-144,696	-0,124	0,008
-89,986	69,600	0,196	0,143
-88,972	14,436	-0,106	-0,058
-87,957	42,397	0,041	0,026
-86,943	177,600	0,026	0,027
-85,928	449,632	-0,096	-0,151
-84,913	-200,000	0,003	-0,082
-83,899	-200,000	0,010	0,062
-82,884	800,000	0,064	0,140
-81,870	-200,000	-0,010	0,074
-80,855	-200,000	0,028	0,135
-79,840	800,000	-0,026	-0,055
-78,826	-36,356	-0,140	-0,053
-77,811	-147,576	0,084	-0,005
-76,797	-183,724	0,023	0,000
-75,782	195,884	-0,049	0,052
-74,767	-166,151	0,112	0,003
-73,753	197,829	-0,050	-0,055
-72,738	16,238	0,086	0,048
-71,724	230,617	-0,028	0,032
-70,709	553,822	0,028	-0,048
-69,694	-200,000	0,016	-0,095
-68,680	690,054	0,024	0,044
-67,665	-200,000	0,009	0,095
-66,651	53,088	-0,041	0,028
-65,636	-200,000	-0,017	-0,104
-64,622	-46,529	-0,050	0,017
-63,607	-102,712	-0,142	0,024
-62,592	-29,178	0,253	-0,102
-61,578	25,933	0,133	0,078
-60,563	-57,315	0,175	0,054
-59,549	238,317	-0,059	0,070
-58,534	19,830	-1,590	-0,903
-57,519	619,894	-1,198	-2,138
-56,505	-200,000	-0,601	-4,753
-55,490	286,653	1,074	1,374
-54,476	800,000	4,815	11,127
-53,461	-200,000	20,061	324,476
-52,446	800,000	750,810	2315,200
-51,432	552,305	1662,175	2833,455
-50,417	75,418	1671,849	1245,935
-49,403	20,141	1544,509	878,716
-48,388	14,112	1466,836	805,212
-47,373	18,313	1456,994	820,059
-46,359	16,418	1446,488	805,044
-45,344	12,376	1442,179	783,263
-44,330	12,327	1440,030	781,831
-43,315	12,314	1438,362	780,828
-42,300	12,307	1436,794	779,916
-41,286	12,312	1435,571	779,241
-40,271	12,300	1434,168	778,393
-39,257	12,285	1432,982	777,646
-38,242	12,345	1431,621	777,163
-37,227	12,326	1430,693	776,539
-36,213	12,316	1429,192	775,644
-35,198	12,356	1427,961	775,135
-34,184	12,366	1427,128	774,700
-33,169	12,331	1425,515	773,630
-32,154	12,370	1424,642	773,310
-31,140	12,392	1423,234	772,619
-30,125	12,371	1422,217	771,938
-29,111	12,398	1421,270	771,518
-28,096	12,364	1419,847	770,554
-27,082	12,306	1418,858	769,713
-26,067	12,303	1417,859	769,131
-25,052	12,287	1417,014	768,562
-24,038	12,303	1415,721	767,908
-23,023	12,274	1414,855	767,272
-22,009	12,240	1413,798	766,508
-20,994	12,274	1412,709	766,046
-19,979	12,211	1412,078	765,378
-18,965	12,261	1410,715	764,843
-17,950	12,265	1410,141	764,522
-16,936	12,246	1409,378	763,986
-15,921	12,251	1407,971	763,216
-14,906	12,230	1407,120	762,627
-13,892	12,212	1406,378	762,112
-12,877	12,154	1405,608	761,395
-11,863	12,226	1404,502	761,102
-10,848	12,142	1403,803	760,302
-9,833	12,111	1402,972	759,673
-8,819	12,106	1401,904	759,044
-7,804	12,075	1401,274	758,530
-6,790	12,110	1400,022	757,984
-5,775	12,055	1399,114	757,205
-4,760	12,099	1397,840	756,692
-3,746	12,068	1397,139	756,136
-2,731	12,102	1396,193	755,753
-1,717	12,034	1395,488	755,027
-0,702	12,074	1393,728	754,228
0,313	15,963	1308,945	726,318
1,327	32,277	700,457	426,189
2,342	50,103	122,200	81,357
3,356	1,842	16,621	8,438
4,371	8,339	3,178	1,682
5,386	19,051	0,653	0,369
6,400	-200,000	-0,078	0,372
7,415	98,297	-0,196	-0,159
8,429	53,467	-0,267	-0,181
9,444	32,998	-0,372	-0,227
10,459	272,001	-0,252	-0,315
11,473	28,590	-0,322	-0,192
12,488	-29,038	-0,163	-0,066
13,502	11,836	-0,297	-0,160
14,517	-42,313	-0,217	-0,078
15,531	47,613	-0,439	-0,288
16,546	61,967	-0,267	-0,188
17,561	86,210	-0,451	-0,350
18,575	102,270	-0,103	-0,085
19,590	61,891	-0,298	-0,209
20,604	117,569	-0,219	-0,190
21,619	75,516	-0,432	-0,321
22,634	33,809	-0,512	-0,313
23,648	79,354	-0,494	-0,373
24,663	109,410	-0,450	-0,379
25,677	107,627	-0,386	-0,323
26,692	176,876	-0,318	-0,327
27,707	-29,900	-0,326	-0,130
28,721	164,258	-0,359	-0,357
29,736	59,267	-0,407	-0,282
30,750	129,809	-0,380	-0,342
31,765	373,656	-0,285	-0,410
32,780	48,579	-0,208	-0,137
33,794	213,361	-0,177	-0,197
34,809	76,257	-0,377	-0,281
35,823	115,704	-0,377	-0,324
36,838	-43,681	-0,463	-0,164
37,853	3,351	-0,377	-0,193
38,867	188,276	-0,290	-0,305
39,882	45,280	-0,463	-0,300
40,896	162,544	-0,159	-0,157
41,911	-2,229	-0,196	-0,097
42,926	216,722	-0,371	-0,416
43,940	124,783	-0,362	-0,321
44,955	248,419	-0,224	-0,267
45,969	52,769	-0,396	-0,266
46,984	29,776	-0,382	-0,228
47,999	313,119	-0,250	-0,331
49,013	49,741	-0,317	-0,210
50,028	89,449	-0,320	-0,251
51,042	42,762	-0,246	-0,157
52,057	-23,120	-0,383	-0,162
53,071	161,953	-0,240	-0,236
54,086	304,674	-0,272	-0,356
55,101	26,534	-0,374	-0,220
56,115	33,877	-0,245	-0,149
57,130	134,818	-0,393	-0,359
58,144	45,626	-0,399	-0,259
59,159	59,919	-0,354	-0,246
60,174	10,322	-0,324	-0,173
61,188	134,329	-0,331	-0,302
62,203	2,808	-0,320	-0,163
63,217	-31,950	-0,360	-0,141
64,232	6,054	-0,329	-0,171
65,247	166,386	-0,231	-0,230
66,261	5,691	-0,294	-0,152
67,276	9,222	-0,395	-0,209
68,290	-60,164	-0,370	-0,110
69,305	119,024	-0,312	-0,271
70,320	68,823	-0,233	-0,168
71,334	89,365	-0,270	-0,211
72,349	43,413	-0,253	-0,162
73,363	105,770	-0,346	-0,287
74,378	48,822	-0,292	-0,192
75,393	68,013	-0,335	-0,240
76,407	76,533	-0,259	-0,192
77,422	7,957	-0,275	-0,144
78,436	-55,355	-0,224	-0,070
79,451	133,019	-0,247	-0,224
80,466	65,206	-0,365	-0,259
81,480	85,085	-0,349	-0,268
82,495	67,934	-0,353	-0,253
83,509	37,537	-0,231	-0,143
84,524	357,253	-0,185	-0,260
85,539	-12,897	-0,401	-0,182
86,553	56,565	-0,354	-0,241
87,568	114,475	-0,365	-0,312
88,582	638,350	-0,176	-0,315
89,597	82,397	-0,294	-0,223
90,611	163,118	-0,062	-0,062
91,626	99,791	-0,202	-0,164
92,641	151,484	-0,285	-0,272
93,655	552,294	-0,119	-0,201
94,670	16,384	-0,255	-0,141
95,684	190,252	-0,358	-0,377
96,699	56,467	-0,330	-0,225
97,714	388,159	-0,243	-0,353
98,728	599,670	-0,141	-0,247
99,743	-89,494	-0,415	-0,085
100,757	61,125	-0,302	-0,210
101,772	-68,120	-0,370	-0,100
102,787	91,509	-0,221	-0,174
103,801	30,119	-0,369	-0,220
104,816	117,338	-0,329	-0,283
105,830	-155,531	-0,327	-0,015
106,845	370,855	-0,173	-0,246
107,860	269,016	-0,201	-0,247
108,874	-148,358	-0,307	-0,017
109,889	87,411	-0,266	-0,206
110,903	142,600	-0,258	-0,240
111,918	800,000	-0,191	-0,385
112,933	178,646	-0,173	-0,177
113,947	18,744	-0,250	-0,140
114,962	-24,362	-0,233	-0,097
115,976	237,002	-0,217	-0,252
116,991	-105,735	-0,239	-0,037
118,006	75,324	-0,280	-0,207
119,020	-12,649	-0,250	-0,114
120,035	-54,392	-0,269	-0,085
121,049	-16,264	-0,244	-0,108
122,064	116,857	-0,247	-0,212
123,079	27,423	-0,275	-0,161
124,093	169,428	-0,225	-0,224
125,108	97,503	-0,240	-0,192
126,122	-13,383	-0,352	-0,159
127,137	-4,489	-0,200	-0,096
128,151	21,712	-0,182	-0,103
129,166	122,777	-0,169	-0,148
130,181	59,856	-0,124	-0,086
131,195	215,619	-0,231	-0,257
132,210	-0,505	-0,283	-0,140
133,224	158,775	-0,210	-0,203
134,239	371,838	-0,158	-0,225
135,254	303,007	-0,243	-0,314
136,268	10,136	-0,248	-0,131
137,283	-101,204	-0,276	-0,047
138,297	20,125	-0,252	-0,142
139,312	104,774	-0,315	-0,259
140,327	25,196	-0,248	-0,143
141,341	218,611	-0,232	-0,259
142,356	-100,140	-0,191	-0,033
143,370	96,125	-0,252	-0,201
144,385	169,928	-0,252	-0,251
145,400	-35,807	-0,416	-0,156
146,414	800,000	-0,140	-0,319
147,429	81,464	-0,335	-0,253
148,443	436,961	-0,125	-0,190
149,458	-76,173	-0,169	-0,041
150,473	-73,376	-0,339	-0,086
151,487	-63,027	-0,264	-0,075
152,502	383,158	-0,123	-0,177
153,516	360,475	-0,142	-0,199
154,531	142,500	-0,143	-0,132
155,546	155,701	-0,224	-0,215
156,560	273,791	-0,138	-0,170
157,575	108,335	-0,147	-0,122
158,589	439,799	-0,156	-0,238
159,604	48,340	-0,195	-0,127
160,619	351,262	-0,214	-0,296
161,633	-10,923	-0,314	-0,144
162,648	188,533	-0,207	-0,216
163,662	544,806	-0,131	-0,219
164,677	-56,719	-0,316	-0,097
165,692	53,374	-0,365	-0,244
166,706	30,343	-0,256	-0,152
167,721	7,429	-0,308	-0,160
168,735	230,341	-0,253	-0,289
169,750	534,615	-0,137	-0,226
170,764	160,195	-0,174	-0,169
171,779	542,584	-0,175	-0,291
172,794	-104,228	-0,176	-0,028
173,808	170,072	-0,172	-0,171
174,823	111,987	-0,276	-0,232
175,837	290,265	-0,120	-0,152
176,852	145,218	-0,201	-0,187
177,867	259,330	-0,171	-0,206
178,881	534,678	-0,085	-0,141
179,896	-88,070	-0,187	-0,039
180,910	-89,515	-0,243	-0,049
181,925	72,349	-0,342	-0,247
182,940	617,714	-0,161	-0,283
183,954	76,167	-0,284	-0,209
184,969	45,848	-0,329	-0,211
185,983	23,526	-0,115	-0,065
186,998	19,158	-0,216	-0,120
188,013	114,314	-0,271	-0,229
189,027	4,365	-0,367	-0,186
190,042	54,774	-0,295	-0,197
191,056	-12,570	-0,360	-0,163
192,071	-152,835	-0,176	-0,009
193,086	80,003	-0,203	-0,151
194,100	23,652	-0,112	-0,064
195,115	2,259	-0,094	-0,047
196,129	84,267	-0,213	-0,162
197,144	494,075	-0,164	-0,262
198,159	-44,245	-0,216	-0,075
199,173	171,910	-0,210	-0,210
200,188	800,000	-0,053	-0,151
201,202	-107,949	-0,165	-0,025
202,217	515,140	-0,086	-0,139
203,232	41,845	-0,184	-0,115
204,246	205,718	-0,207	-0,224
205,261	647,844	-0,104	-0,186
206,275	800,000	-0,053	-0,141
207,290	271,120	-0,120	-0,146
208,304	45,040	-0,194	-0,124
209,319	362,049	-0,123	-0,172
210,334	138,649	-0,171	-0,156
211,348	105,105	-0,307	-0,251
212,363	180,881	-0,218	-0,222
213,377	3,299	-0,178	-0,089
214,392	21,556	-0,164	-0,092
215,407	45,018	-0,209	-0,133
216,421	-200,000	-0,001	-0,094
217,436	209,209	-0,061	-0,066
218,450	45,054	-0,267	-0,170
219,465	59,796	-0,295	-0,201
220,480	220,851	-0,308	-0,343
221,494	800,000	-0,059	-0,173
222,509	-101,627	-0,159	-0,027
223,523	-90,022	-0,118	-0,024
224,538	346,686	-0,140	-0,192
225,553	305,438	-0,196	-0,253
226,567	135,427	-0,198	-0,178
227,582	800,000	-0,110	-0,231
228,596	346,230	-0,180	-0,246
229,611	505,701	-0,077	-0,124
230,626	21,308	-0,191	-0,107
231,640	-35,261	-0,095	-0,035
232,655	287,471	-0,086	-0,108
233,669	316,224	-0,153	-0,200
234,684	800,000	-0,084	-0,194
235,699	225,878	-0,124	-0,139
236,713	-75,422	-0,254	-0,062
237,728	204,901	-0,145	-0,156
238,742	-98,224	-0,212	-0,037
239,757	-35,802	-0,225	-0,084
240,772	-44,381	-0,266	-0,092
241,786	66,209	-0,251	-0,176
242,801	-112,878	-0,205	-0,028
243,815	59,242	-0,125	-0,085
244,830	-200,000	-0,035	-0,117
245,844	800,000	-0,104	-0,204
246,859	219,847	-0,192	-0,213
247,874	196,481	-0,117	-0,124
248,888	-58,051	-0,228	-0,068
249,903	76,213	-0,209	-0,153
250,917	132,276	-0,208	-0,185
251,932	64,389	-0,133	-0,093
252,947	32,622	-0,248	-0,148
253,961	10,270	-0,230	-0,121
254,976	307,049	-0,180	-0,232
255,990	800,000	-0,115	-0,322
257,005	-153,806	-0,195	0,009
258,020	800,000	-0,032	-0,072
259,034	557,106	-0,064	-0,107
260,049	28,817	-0,127	-0,074
261,063	-200,000	-0,030	-0,126
262,078	-99,845	-0,179	-0,031
263,093	502,829	-0,088	-0,141
264,107	-63,186	-0,191	-0,054
265,122	39,719	-0,087	-0,054
266,136	-16,630	-0,177	-0,077
267,151	-77,125	-0,149	-0,036
268,166	326,988	-0,133	-0,176
269,180	-118,162	-0,194	0,024
270,195	175,364	-0,117	-0,117
271,209	320,770	-0,107	-0,141
272,224	-200,000	-0,030	-0,228
273,239	683,759	-0,085	-0,154
274,253	41,619	-0,112	-0,070
275,268	614,003	-0,101	-0,175
276,282	-106,706	-0,257	-0,039
277,297	183,618	-0,182	-0,186
278,312	120,479	-0,164	-0,141
279,326	363,769	-0,078	-0,108
280,341	50,328	-0,218	-0,142
281,355	66,900	-0,180	-0,126
282,370	1,260	-0,206	-0,102
283,384	77,468	-0,230	-0,169
284,399	173,586	-0,072	-0,072
285,414	165,316	-0,161	-0,157
286,428	-200,000	-0,058	-0,250
287,443	419,798	-0,113	-0,167
288,457	249,137	-0,039	-0,046
289,472	200,964	-0,153	-0,162
290,487	128,069	-0,086	-0,075
291,501	-33,197	-0,147	-0,056
292,516	800,000	-0,102	-0,199
293,530	121,900	-0,109	-0,093
294,545	660,450	-0,117	-0,209
295,560	147,475	-0,137	-0,127
296,574	-200,000	-0,034	0,150
297,589	-100,167	-0,117	0,020
298,603	128,406	-0,029	0,026
299,618	352,884	-0,091	-0,125
300,633	44,297	-0,057	-0,036
301,647	102,265	-0,077	-0,062
302,662	800,000	0,014	-0,034
303,676	-65,174	-0,226	-0,062
304,691	84,319	-0,264	-0,198
305,706	-20,846	-0,177	-0,074
306,720	46,787	-0,236	-0,151
307,735	43,823	-0,170	-0,107
308,749	-36,761	-0,124	0,045
309,764	-1,331	-0,112	-0,054
310,779	800,000	0,023	-0,045
311,793	243,642	-0,094	-0,109
312,808	9,632	-0,201	-0,104
313,822	268,245	-0,132	-0,160
314,837	-200,000	-0,039	-0,185
315,852	-52,544	-0,083	-0,026
316,866	257,192	-0,116	-0,137
317,881	-52,014	-0,166	-0,053
318,895	-63,740	-0,146	-0,041
319,910	41,733	-0,156	-0,097
320,925	159,826	-0,163	-0,156
321,939	-3,850	-0,149	-0,071
322,954	800,000	-0,074	-0,195
323,968	669,651	-0,077	-0,137
324,983	697,889	-0,061	-0,110
325,997	-75,068	-0,132	-0,032
327,012	76,318	-0,077	-0,056
328,027	-69,377	-0,165	0,043
329,041	-169,234	-0,258	-0,006
330,056	-200,000	-0,064	-0,204
331,070	307,531	-0,023	-0,030
332,085	-192,234	-0,038	0,000
333,100	-42,264	-0,218	-0,076
334,114	139,310	-0,171	-0,155
335,129	157,298	-0,193	-0,183
336,143	224,832	-0,145	-0,161
337,158	300,943	-0,187	-0,237
338,173	88,252	-0,147	-0,112
339,187	-94,241	-0,106	-0,020
340,202	-64,407	-0,150	-0,042
341,216	12,990	-0,189	-0,100
342,231	610,277	-0,127	-0,219
343,246	41,920	-0,071	-0,044
344,260	89,764	-0,158	-0,121
345,275	800,000	-0,024	-0,050
346,289	109,525	-0,174	-0,143
347,304	-119,054	-0,106	0,013
348,319	-36,524	-0,154	-0,057
349,333	43,657	-0,154	-0,097
350,348	50,789	-0,056	-0,036
351,362	57,070	-0,117	0,078
352,377	-102,717	-0,129	0,021
353,392	-200,000	-0,037	-0,268
354,406	-117,254	-0,197	0,024
355,421	208,693	1315,476	1411,428
356,435	160,586	1476,286	1411,899
