DTS Sentinel unit serial number:	SN410029Multiplexer serial number:	ORYXHardware model number:	OX2-SRSoftware version number:	ORYX F/W v4,00 Oryx Data Collector v3.7.2.0data status	okinstallation	B3 Nyhavnadifferential loss correction	single-endedforward channel	channel 1reverse channel	N/Adate	2023/12/03time	15:02:30forward acquisition time	300,00reverse acquisition time	0,00gamma	499,1914k internal	0,3196k external	0,3196temperature offset calibration	1,0000default loss term (dB/km)	0,3820temperature slope calibration	1,0000multiplexer offset coefficient	1,0000multiplexer slope coefficient	1,0000fibre end	0,00T internal ref (°C)	15,87T ext. ref 1 (°C)	0,71T ext. ref 2 (°C)	0,72length (m)	temperature (°C)	Stokes	anti-Stokes-744,400	696,329	-0,157	-0,302
-743,385	-200,000	-0,085	0,310
-742,371	372,652	-0,160	-0,237
-741,356	338,022	0,165	0,234
-740,342	468,574	-0,214	-0,351
-739,327	-200,000	0,089	0,404
-738,312	45,398	-0,330	-0,222
-737,298	-200,000	0,063	0,319
-736,283	86,773	-0,234	-0,188
-735,269	-200,000	0,020	0,304
-734,254	256,716	-0,126	-0,158
-733,239	-13,190	-0,210	0,099
-732,225	800,000	-0,036	-0,113
-731,210	32,282	0,142	0,089
-730,196	-149,989	-0,101	-0,006
-729,181	160,944	-0,039	0,039
-728,167	35,243	-0,144	0,092
-727,152	-200,000	0,011	-0,059
-726,137	177,186	-0,129	0,137
-725,123	-131,809	-0,070	-0,007
-724,108	-61,238	-0,030	-0,009
-723,094	164,037	-0,066	-0,068
-722,079	554,794	-0,060	-0,105
-721,064	800,000	0,029	0,076
-720,050	-200,000	-0,047	-0,000
-719,035	370,332	0,023	-0,034
-718,021	-200,000	0,025	-0,104
-717,006	9,335	-0,140	0,077
-715,991	130,604	-0,133	-0,125
-714,977	-200,000	-0,023	-0,141
-713,962	-126,611	-0,053	0,006
-712,948	800,000	0,034	0,075
-711,933	-200,000	0,006	0,030
-710,918	-66,315	0,060	-0,017
-709,904	800,000	0,017	0,039
-708,889	-200,000	-0,002	0,084
-707,875	14,757	-0,091	0,052
-706,860	436,405	0,043	0,068
-705,845	93,208	0,126	0,103
-704,831	-200,000	0,017	0,085
-703,816	12,654	-0,083	0,047
-702,802	221,668	-0,009	-0,010
-701,787	-200,000	-0,014	0,090
-700,772	82,809	-0,013	0,010
-699,758	67,448	0,016	-0,012
-698,743	20,418	-0,102	0,060
-697,729	-141,792	-0,064	-0,005
-696,714	122,212	-0,097	0,088
-695,699	800,000	-0,046	0,099
-694,685	12,219	-0,059	-0,033
-693,670	-42,287	-0,089	-0,033
-692,656	71,649	0,080	-0,061
-691,641	93,071	-0,068	-0,055
-690,627	-103,367	0,104	-0,018
-689,612	-92,310	-0,019	-0,004
-688,597	-200,000	0,021	0,076
-687,583	-170,558	-0,060	0,001
-686,568	268,009	0,058	-0,074
-685,554	-200,000	-0,008	-0,068
-684,539	76,576	-0,044	-0,034
-683,524	308,664	0,013	0,017
-682,510	-161,693	0,060	0,002
-681,495	117,522	-0,125	-0,112
-680,481	-28,713	-0,038	-0,016
-679,466	800,000	-0,043	-0,132
-678,451	30,766	0,071	-0,044
-677,437	-106,336	-0,047	-0,007
-676,422	-135,017	0,033	-0,003
-675,408	800,000	-0,043	0,089
-674,393	-200,000	0,001	0,026
-673,378	-200,000	-0,007	-0,069
-672,364	502,775	-0,126	-0,212
-671,349	-21,609	-0,132	-0,058
-670,335	-49,423	-0,079	-0,027
-669,320	14,865	0,136	-0,077
-668,305	-200,000	-0,008	-0,039
-667,291	-31,518	-0,030	-0,012
-666,276	-94,786	0,044	0,009
-665,262	-33,285	0,090	0,036
-664,247	-5,586	0,022	0,011
-663,232	-126,462	0,026	-0,003
-662,218	800,000	-0,015	0,044
-661,203	32,854	-0,014	0,009
-660,189	40,619	-0,068	-0,044
-659,174	14,569	-0,121	-0,068
-658,159	-28,514	-0,090	0,037
-657,145	-44,798	0,082	-0,030
-656,130	-200,000	-0,005	0,018
-655,116	314,234	-0,012	0,017
-654,101	75,823	0,086	0,066
-653,086	-148,857	0,062	-0,004
-652,072	800,000	0,025	0,071
-651,057	-76,443	-0,060	-0,015
-650,043	216,282	-0,098	-0,114
-649,028	-200,000	-0,001	-0,034
-648,014	-163,856	0,098	0,003
-646,999	800,000	0,016	0,038
-645,984	800,000	0,042	-0,085
-644,970	800,000	-0,089	-0,222
-643,955	0,310	-0,032	-0,016
-642,941	14,418	0,086	0,048
-641,926	-200,000	0,003	-0,038
-640,911	-103,780	0,074	0,012
-639,897	-48,106	0,094	0,033
-638,882	-5,931	0,066	0,033
-637,868	75,095	0,058	-0,044
-636,853	392,260	0,042	0,063
-635,838	-98,692	-0,069	0,013
-634,824	25,118	-0,057	0,035
-633,809	-70,555	0,137	0,037
-632,795	-123,636	0,113	-0,013
-631,780	-172,540	-0,042	-0,001
-630,765	-200,000	-0,032	-0,203
-629,751	-200,000	-0,005	-0,027
-628,736	-200,000	-0,056	-0,222
-627,722	-200,000	0,018	-0,069
-626,707	-177,952	0,074	0,001
-625,692	-26,089	-0,051	-0,022
-624,678	183,044	0,079	0,085
-623,663	-200,000	0,011	0,043
-622,649	800,000	-0,034	0,072
-621,634	3,958	-0,078	0,041
-620,619	800,000	-0,051	-0,106
-619,605	800,000	-0,066	-0,175
-618,590	-2,721	-0,032	0,016
-617,576	147,715	-0,096	-0,094
-616,561	47,263	-0,115	-0,077
-615,546	-92,033	0,153	-0,031
-614,532	143,541	-0,056	-0,054
-613,517	-200,000	0,004	-0,109
-612,503	-200,000	-0,013	0,092
-611,488	729,164	-0,036	0,070
-610,474	-200,000	0,018	0,096
-609,459	152,714	0,068	0,067
-608,444	-70,318	-0,058	-0,016
-607,430	91,362	0,060	-0,049
-606,415	800,000	-0,071	-0,174
-605,401	19,624	0,077	0,045
-604,386	-200,000	-0,034	0,176
-603,371	101,430	0,145	0,122
-602,357	21,005	-0,069	-0,040
-601,342	-10,450	-0,073	-0,035
-600,328	-200,000	0,032	-0,157
-599,313	61,754	-0,063	-0,045
-598,298	272,999	-0,040	-0,052
-597,284	228,848	0,127	0,150
-596,269	217,398	0,086	-0,099
-595,255	-200,000	-0,005	0,079
-594,240	130,946	0,084	-0,078
-593,225	-77,554	-0,083	0,021
-592,211	-52,889	0,113	-0,037
-591,196	66,994	0,035	0,026
-590,182	-128,809	0,032	-0,003
-589,167	-200,000	0,018	-0,148
-588,152	-200,000	-0,001	-0,052
-587,138	761,980	-0,079	0,157
-586,123	-200,000	-0,011	-0,069
-585,109	108,769	-0,132	-0,114
-584,094	75,181	-0,087	-0,066
-583,079	381,041	0,016	-0,023
-582,065	800,000	-0,028	0,085
-581,050	800,000	0,021	-0,065
-580,036	800,000	0,047	0,112
-579,021	-106,693	-0,190	0,030
-578,006	101,339	0,015	-0,013
-576,992	-89,071	-0,077	0,016
-575,977	800,000	0,055	-0,163
-574,963	232,351	0,022	0,026
-573,948	-146,840	-0,115	0,007
-572,934	585,985	0,060	-0,106
-571,919	100,936	0,017	0,014
-570,904	-200,000	0,035	-0,122
-569,890	-200,000	-0,003	-0,082
-568,875	434,848	-0,081	0,127
-567,861	-200,000	-0,033	-0,111
-566,846	-143,043	-0,142	0,010
-565,831	-59,233	-0,016	0,005
-564,817	800,000	-0,060	0,140
-563,802	-79,361	-0,225	-0,055
-562,788	800,000	-0,019	-0,041
-561,773	193,773	0,093	-0,101
-560,758	-74,857	0,128	0,033
-559,744	-200,000	-0,052	0,195
-558,729	-178,354	-0,152	0,003
-557,715	-198,327	0,010	0,000
-556,700	-88,364	0,052	-0,011
-555,685	-15,231	-0,094	0,043
-554,671	-200,000	0,013	-0,126
-553,656	-54,434	0,060	-0,020
-552,642	43,860	0,129	0,085
-551,627	800,000	0,023	0,066
-550,612	-200,000	0,008	0,074
-549,598	185,770	0,127	-0,136
-548,583	114,322	-0,056	0,050
-547,569	800,000	-0,013	0,028
-546,554	800,000	0,037	0,077
-545,539	305,523	-0,022	0,030
-544,525	406,362	-0,056	0,086
-543,510	35,877	-0,051	0,032
-542,496	-45,885	0,126	-0,045
-541,481	364,433	-0,101	-0,147
-540,466	800,000	-0,017	-0,037
-539,452	161,852	0,064	-0,065
-538,437	-0,653	-0,078	-0,040
-537,423	-200,000	-0,044	0,144
-536,408	-26,836	-0,007	0,003
-535,393	800,000	-0,021	-0,043
-534,379	-83,565	-0,183	-0,042
-533,364	-12,864	-0,086	0,040
-532,350	800,000	0,089	0,180
-531,335	800,000	0,047	-0,112
-530,321	77,112	-0,012	0,009
-529,306	-14,683	-0,056	-0,026
-528,291	-200,000	-0,049	-0,164
-527,277	-200,000	-0,032	-0,117
-526,262	249,889	0,063	-0,077
-525,248	144,347	0,083	0,080
-524,233	-40,664	-0,141	0,052
-523,218	300,536	0,026	-0,035
-522,204	10,523	-0,115	0,063
-521,189	-200,000	-0,030	-0,108
-520,175	-200,000	0,004	0,017
-519,160	108,459	-0,072	-0,062
-518,145	-76,738	0,080	0,020
-517,131	800,000	0,045	0,090
-516,116	47,445	-0,064	0,043
-515,102	114,026	0,085	0,075
-514,087	72,247	0,058	-0,044
-513,072	187,738	-0,112	-0,121
-512,058	30,658	-0,138	-0,085
-511,043	800,000	0,035	0,075
-510,029	432,498	-0,072	0,114
-509,014	74,892	0,089	0,068
-507,999	294,135	0,004	-0,005
-506,985	-147,723	0,057	-0,003
-505,970	-12,577	-0,086	-0,041
-504,956	800,000	0,046	-0,124
-503,941	-200,000	-0,000	-0,097
-502,926	11,462	0,178	-0,098
-501,912	-159,874	0,060	-0,002
-500,897	-200,000	0,020	-0,108
-499,883	134,541	-0,022	-0,021
-498,868	-200,000	-0,021	-0,092
-497,853	186,470	-0,066	-0,071
-496,839	800,000	0,030	0,093
-495,824	-200,000	-0,035	0,118
-494,810	-200,000	0,082	0,286
-493,795	-105,540	0,096	-0,016
-492,781	190,574	0,088	-0,096
-491,766	800,000	0,012	0,029
-490,751	70,179	-0,058	-0,043
-489,737	19,615	-0,016	0,009
-488,722	-200,000	0,014	-0,063
-487,708	-17,915	0,025	0,011
-486,693	-200,000	-0,026	0,094
-485,678	-144,097	0,048	0,003
-484,664	123,185	-0,119	-0,108
-483,649	215,005	0,068	-0,077
-482,635	16,747	0,079	-0,045
-481,620	-61,531	-0,111	0,033
-480,605	153,633	0,140	0,139
-479,591	-84,344	0,075	-0,017
-478,576	333,200	0,041	-0,057
-477,562	-200,000	-0,015	0,084
-476,547	254,304	-0,114	-0,141
-475,532	225,856	0,049	0,057
-474,518	304,046	0,008	0,010
-473,503	800,000	-0,035	0,111
-472,489	455,859	-0,044	0,070
-471,474	5,593	-0,040	0,021
-470,459	678,802	-0,030	-0,057
-469,445	-200,000	0,014	-0,117
-468,430	-200,000	-0,038	-0,169
-467,416	224,202	0,031	0,037
-466,401	56,030	0,129	0,090
-465,386	-17,728	-0,074	0,033
-464,372	115,699	-0,075	0,066
-463,357	797,235	-0,071	-0,143
-462,343	-200,000	0,016	-0,120
-461,328	50,571	-0,032	-0,022
-460,313	-25,908	-0,040	0,017
-459,299	-38,311	0,048	-0,018
-458,284	120,498	0,023	-0,021
-457,270	-200,000	0,014	0,087
-456,255	81,133	0,091	-0,071
-455,241	-200,000	-0,030	-0,128
-454,226	-137,472	-0,049	-0,004
-453,211	-116,547	0,090	-0,012
-452,197	800,000	0,035	-0,070
-451,182	572,688	-0,035	0,062
-450,168	329,567	-0,065	0,090
-449,153	-149,330	0,068	-0,004
-448,138	-200,000	-0,002	-0,016
-447,124	-152,640	0,089	-0,005
-446,109	-200,000	-0,002	0,038
-445,095	-119,760	0,114	-0,014
-444,080	-44,971	0,079	-0,028
-443,065	26,040	-0,037	0,022
-442,051	226,326	-0,074	-0,086
-441,036	33,041	0,077	0,048
-440,022	77,432	-0,116	0,089
-439,007	-200,000	0,035	-0,119
-437,992	-82,528	0,145	-0,034
-436,978	-200,000	0,004	0,090
-435,963	401,340	-0,013	0,020
-434,949	-61,952	-0,140	0,042
-433,934	126,261	-0,140	-0,127
-432,919	-30,763	-0,128	0,052
-431,905	800,000	0,035	0,092
-430,890	-22,813	0,077	-0,033
-429,876	800,000	-0,042	-0,086
-428,861	401,785	0,111	0,168
-427,846	344,698	-0,052	0,073
-426,832	-200,000	-0,012	-0,135
-425,817	42,197	-0,106	-0,069
-424,803	-200,000	-0,005	0,062
-423,788	436,262	0,069	0,108
-422,773	800,000	-0,026	0,080
-421,759	-21,757	-0,067	-0,029
-420,744	198,019	0,076	0,084
-419,730	800,000	-0,021	0,063
-418,715	800,000	-0,064	-0,135
-417,701	284,512	-0,047	-0,061
-416,686	286,079	-0,036	-0,046
-415,671	-78,276	0,149	0,037
-414,657	-70,075	0,222	0,060
-413,642	-200,000	-0,015	0,164
-412,628	-200,000	0,002	-0,156
-411,613	-105,041	-0,108	0,018
-410,598	-69,551	0,050	-0,014
-409,584	-200,000	-0,000	0,031
-408,569	800,000	0,035	-0,079
-407,555	-200,000	0,013	0,107
-406,540	146,196	-0,076	0,074
-405,525	-200,000	-0,000	0,041
-404,511	432,420	-0,032	-0,050
-403,496	-26,118	-0,074	-0,031
-402,482	-35,543	-0,227	0,088
-401,467	42,077	0,112	0,073
-400,452	30,936	0,024	-0,015
-399,438	-56,000	0,012	0,004
-398,423	31,431	-0,061	0,038
-397,409	43,646	-0,022	0,015
-396,394	-144,254	-0,108	-0,007
-395,379	783,497	-0,013	0,026
-394,365	105,077	0,087	-0,074
-393,350	243,732	0,020	0,024
-392,336	800,000	0,052	0,136
-391,321	89,338	-0,042	0,034
-390,306	563,787	-0,037	0,065
-389,292	-200,000	-0,187	-0,000
-388,277	-200,000	0,007	0,029
-387,263	800,000	0,057	0,164
-386,248	-75,603	0,087	0,022
-385,233	-200,000	0,035	0,193
-384,219	36,874	0,164	0,104
-383,204	227,130	0,057	0,067
-382,190	800,000	0,047	-0,117
-381,175	657,085	0,028	-0,051
-380,160	-200,000	-0,000	0,001
-379,146	-200,000	-0,005	-0,044
-378,131	-200,000	-0,021	0,124
-377,117	243,409	0,130	0,157
-376,102	-200,000	-0,006	0,043
-375,088	507,436	0,061	0,101
-374,073	415,813	0,120	-0,185
-373,058	-200,000	0,010	-0,130
-372,044	-63,853	0,047	0,014
-371,029	539,073	-0,083	0,143
-370,015	214,643	0,116	0,132
-369,000	158,386	0,107	0,106
-367,985	800,000	0,062	-0,171
-366,971	135,670	0,014	-0,013
-365,956	800,000	-0,021	-0,062
-364,942	162,025	-0,043	0,043
-363,927	-134,363	0,080	0,007
-362,912	183,269	0,103	0,110
-361,898	-200,000	0,016	-0,108
-360,883	-31,769	-0,226	0,090
-359,869	202,761	-0,052	0,057
-358,854	133,657	0,199	0,185
-357,839	-200,000	-0,006	-0,042
-356,825	430,859	-0,032	0,050
-355,810	-26,101	-0,066	0,028
-354,796	50,766	-0,126	-0,086
-353,781	143,153	-0,065	-0,062
-352,766	800,000	0,030	0,064
-351,752	160,877	-0,154	-0,154
-350,737	84,879	0,068	-0,053
-349,723	181,838	0,015	0,016
-348,708	481,964	0,067	0,110
-347,693	-101,336	0,045	0,008
-346,679	-8,600	-0,048	0,023
-345,664	-151,363	-0,031	0,002
-344,650	800,000	-0,034	-0,088
-343,635	-151,439	0,131	-0,007
-342,620	-92,370	0,052	0,010
-341,606	-71,175	0,096	-0,026
-340,591	800,000	0,034	0,079
-339,577	378,680	-0,060	-0,088
-338,562	800,000	-0,059	-0,132
-337,548	268,901	0,051	-0,064
-336,533	-97,429	-0,036	-0,007
-335,518	-102,316	0,125	0,021
-334,504	800,000	0,032	0,091
-333,489	800,000	-0,045	0,102
-332,475	-4,928	0,056	-0,027
-331,460	324,771	0,018	-0,024
-330,445	-200,000	0,020	0,135
-329,431	800,000	-0,023	0,046
-328,416	148,377	0,053	-0,051
-327,402	-132,709	0,161	0,015
-326,387	21,449	0,074	-0,043
-325,372	-107,290	-0,204	0,032
-324,358	-200,000	-0,002	-0,047
-323,343	-200,000	0,002	0,024
-322,329	47,241	0,164	0,109
-321,314	-200,000	0,006	0,122
-320,299	285,427	0,110	0,142
-319,285	212,776	-0,028	0,032
-318,270	104,776	0,065	0,055
-317,256	216,684	0,055	-0,063
-316,241	-155,805	0,047	0,002
-315,226	-200,000	0,027	-0,104
-314,212	373,555	0,037	0,054
-313,197	196,145	0,025	-0,028
-312,183	-200,000	-0,007	0,195
-311,168	800,000	-0,044	0,098
-310,153	-200,000	-0,012	-0,140
-309,139	111,153	-0,087	-0,075
-308,124	800,000	0,017	0,048
-307,110	-118,494	0,064	-0,008
-306,095	654,100	-0,063	0,117
-305,080	-130,175	0,082	0,008
-304,066	-52,259	-0,105	-0,035
-303,051	797,862	-0,053	-0,104
-302,037	551,895	0,058	-0,100
-301,022	60,881	-0,044	0,031
-300,008	375,686	0,049	0,072
-298,993	489,533	-0,082	-0,136
-297,978	-200,000	0,035	0,115
-296,964	139,407	-0,051	-0,048
-295,949	183,187	-0,043	-0,046
-294,935	-49,277	-0,134	-0,045
-293,920	234,978	-0,018	-0,021
-292,905	49,006	0,050	-0,033
-291,891	-199,916	-0,043	-0,000
-290,876	-20,610	-0,187	0,082
-289,862	800,000	0,023	-0,051
-288,847	-53,794	-0,078	0,025
-287,832	-200,000	-0,032	0,111
-286,818	104,282	-0,081	-0,068
-285,803	-33,876	0,079	0,031
-284,789	338,575	0,089	0,124
-283,774	219,450	-0,097	0,111
-282,759	-21,821	-0,100	-0,043
-281,745	800,000	0,037	0,091
-280,730	-200,000	-0,005	-0,116
-279,716	800,000	0,040	-0,083
-278,701	193,755	0,066	0,071
-277,686	367,516	-0,088	0,127
-276,672	-17,412	0,092	0,041
-275,657	9,005	0,104	-0,056
-274,643	800,000	0,023	-0,073
-273,628	-200,000	-0,011	-0,089
-272,613	-200,000	-0,027	-0,093
-271,599	-17,526	-0,139	0,062
-270,584	664,076	-0,064	0,119
-269,570	800,000	0,043	0,102
-268,555	800,000	0,036	-0,098
-267,540	800,000	-0,041	0,095
-266,526	-8,346	0,012	-0,006
-265,511	171,469	-0,053	-0,054
-264,497	-200,000	-0,020	0,102
-263,482	52,589	0,097	-0,066
-262,467	179,500	0,087	0,091
-261,453	36,915	-0,107	-0,067
-260,438	199,826	0,013	-0,014
-259,424	18,412	-0,058	0,033
-258,409	-77,157	-0,233	0,058
-257,395	113,597	0,069	-0,060
-256,380	90,706	-0,079	0,063
-255,365	-80,552	0,160	0,038
-254,351	-54,623	0,133	0,043
-253,336	-31,209	-0,070	-0,028
-252,322	-200,000	-0,012	0,095
-251,307	11,787	0,028	-0,016
-250,292	-200,000	0,015	0,054
-249,278	-200,000	-0,002	-0,023
-248,263	-72,497	0,127	-0,033
-247,249	-200,000	-0,126	-0,000
-246,234	523,125	0,031	-0,052
-245,219	139,495	-0,071	-0,066
-244,205	-200,000	-0,004	-0,046
-243,190	-131,055	0,118	0,011
-242,176	144,447	0,089	0,085
-241,161	-150,753	0,053	-0,003
-240,146	310,763	-0,070	0,094
-239,132	-39,725	0,057	-0,021
-238,117	-98,936	-0,092	-0,017
-237,103	-200,000	0,039	-0,133
-236,088	-133,150	-0,034	-0,003
-235,073	-200,000	0,021	0,158
-234,059	-43,311	0,093	-0,033
-233,044	-200,000	0,006	-0,021
-232,030	624,489	0,008	-0,014
-231,015	-2,263	-0,096	-0,048
-230,000	-200,000	0,020	-0,093
-228,986	255,597	-0,022	0,027
-227,971	75,643	-0,076	0,057
-226,957	-120,351	0,122	0,015
-225,942	780,032	-0,030	0,058
-224,927	-81,595	0,077	0,018
-223,913	456,547	0,009	-0,014
-222,898	29,634	-0,129	0,078
-221,884	-9,722	-0,138	-0,066
-220,869	194,178	-0,035	0,037
-219,855	-119,851	-0,152	0,018
-218,840	800,000	-0,014	0,033
-217,825	-200,000	0,041	-0,130
-216,811	-7,733	0,054	0,026
-215,796	-200,000	-0,035	-0,110
-214,782	185,449	-0,107	-0,114
-213,767	144,696	0,127	-0,121
-212,752	-200,000	-0,006	0,065
-211,738	138,524	-0,070	-0,066
-210,723	-64,671	0,085	-0,024
-209,709	-200,000	0,003	0,044
-208,694	-200,000	0,021	-0,070
-207,679	-182,275	-0,111	0,001
-206,665	800,000	0,026	-0,080
-205,650	-170,828	-0,069	0,002
-204,636	343,673	-0,050	0,070
-203,621	-200,000	-0,003	0,089
-202,606	56,653	-0,119	0,083
-201,592	-200,000	-0,006	-0,022
-200,577	42,249	-0,111	0,072
-199,563	52,307	0,077	0,052
-198,548	-126,009	0,012	0,001
-197,533	-125,213	0,027	0,003
-196,519	167,377	-0,081	-0,082
-195,504	216,605	0,073	-0,083
-194,490	800,000	-0,028	0,070
-193,475	315,312	-0,006	-0,009
-192,460	800,000	-0,049	0,114
-191,446	-200,000	0,007	0,101
-190,431	-74,978	0,044	-0,011
-189,417	122,801	0,026	0,023
-188,402	489,957	-0,043	0,071
-187,387	-80,589	-0,035	0,008
-186,373	-138,061	-0,172	-0,013
-185,358	800,000	0,032	0,085
-184,344	145,196	-0,018	-0,017
-183,329	-169,210	0,089	0,002
-182,315	-200,000	0,010	-0,131
-181,300	95,477	-0,085	0,069
-180,285	-114,901	0,022	0,003
-179,271	15,978	-0,065	0,036
-178,256	-61,221	0,151	-0,045
-177,242	520,253	0,042	-0,070
-176,227	187,701	-0,100	-0,107
-175,212	-99,716	0,137	0,024
-174,198	-115,904	-0,058	-0,008
-173,183	-11,918	-0,139	-0,065
-172,169	-200,000	-0,059	-0,205
-171,154	150,789	0,051	0,050
-170,139	-200,000	0,008	0,050
-169,125	172,376	0,106	0,109
-168,110	-200,000	-0,019	0,077
-167,096	-200,000	0,019	0,069
-166,081	194,518	0,091	-0,098
-165,066	-69,228	-0,043	-0,012
-164,052	79,795	-0,059	-0,045
-163,037	-130,307	0,145	0,014
-162,023	28,782	0,053	-0,032
-161,008	81,702	0,120	0,092
-159,993	-200,000	0,029	-0,131
-158,979	25,525	-0,117	-0,069
-157,964	-200,000	-0,016	-0,087
-156,950	800,000	0,049	-0,118
-155,935	534,712	0,051	-0,086
-154,920	316,314	0,113	0,152
-153,906	488,022	-0,038	0,062
-152,891	640,133	0,043	-0,079
-151,877	520,143	-0,041	-0,069
-150,862	-65,065	0,010	0,003
-149,847	-86,023	-0,116	0,025
-148,833	-125,261	0,140	-0,015
-147,818	602,592	0,088	0,157
-146,804	7,807	-0,042	-0,022
-145,789	600,563	-0,034	-0,060
-144,775	24,609	-0,120	-0,070
-143,760	-200,000	0,026	-0,098
-142,745	36,364	0,062	-0,039
-141,731	-106,224	-0,218	0,034
-140,716	11,414	-0,073	0,040
-139,702	618,147	-0,072	0,129
-138,687	-200,000	-0,079	-0,000
-137,672	46,421	-0,099	-0,065
-136,658	-65,043	-0,063	0,018
-135,643	-36,469	0,039	-0,015
-134,629	-200,000	-0,004	0,039
-133,614	-93,363	-0,111	-0,022
-132,599	153,839	0,074	0,072
-131,585	-200,000	0,024	0,106
-130,570	35,390	0,163	0,102
-129,556	800,000	-0,054	-0,136
-128,541	109,392	-0,058	-0,049
-127,526	800,000	-0,066	-0,169
-126,512	800,000	-0,039	-0,079
-125,497	-7,696	0,066	-0,032
-124,483	-103,183	0,148	-0,025
-123,468	-18,110	0,084	0,037
-122,453	55,944	0,055	0,038
-121,439	306,184	0,051	-0,067
-120,424	49,415	-0,044	-0,030
-119,410	169,351	0,072	-0,073
-118,395	-200,000	-0,018	0,072
-117,380	112,126	-0,141	0,121
-116,366	-130,045	-0,089	0,009
-115,351	-62,171	-0,051	0,015
-114,337	-200,000	-0,003	0,105
-113,322	-200,000	0,006	0,032
-112,307	285,747	-0,036	0,046
-111,293	-8,680	0,047	0,022
-110,278	-200,000	-0,021	-0,080
-109,264	785,518	0,074	0,146
-108,249	18,158	0,125	0,071
-107,234	-130,808	0,035	-0,003
-106,220	-200,000	0,013	-0,079
-105,205	56,826	-0,094	0,065
-104,191	15,829	0,056	0,031
-103,176	33,587	0,129	0,080
-102,162	-82,868	0,118	0,027
-101,147	223,707	-0,128	-0,147
-100,132	-79,726	-0,122	0,029
-99,118	-33,830	-0,079	-0,031
-98,103	207,912	-0,104	-0,116
-97,089	107,544	-0,074	0,063
-96,074	-120,766	-0,095	-0,011
-95,059	-200,000	-0,014	0,134
-94,045	-200,000	-0,013	-0,061
-93,030	-108,378	0,052	0,008
-92,016	-105,104	-0,117	-0,019
-91,001	800,000	0,026	0,054
-89,986	-200,000	0,024	-0,109
-88,972	135,511	0,084	0,078
-87,957	-200,000	-0,009	0,183
-86,943	800,000	-0,014	0,043
-85,928	278,574	-0,104	-0,132
-84,913	800,000	-0,038	0,112
-83,899	-200,000	-0,008	0,045
-82,884	-32,941	-0,170	0,067
-81,870	-1,766	0,095	0,047
-80,855	-113,955	0,092	0,012
-79,840	270,737	-0,065	0,081
-78,826	-200,000	-0,005	0,035
-77,811	35,860	-0,166	-0,103
-76,797	-200,000	0,011	-0,148
-75,782	800,000	0,021	0,055
-74,767	800,000	-0,044	0,097
-73,753	-46,510	-0,082	-0,028
-72,738	214,425	0,094	0,105
-71,724	-137,238	-0,080	-0,006
-70,709	133,044	0,079	0,073
-69,694	-31,777	-0,105	0,041
-68,680	800,000	0,050	-0,109
-67,665	800,000	-0,021	0,053
-66,651	367,286	0,019	0,027
-65,636	800,000	-0,038	0,116
-64,622	459,489	0,017	-0,026
-63,607	800,000	-0,036	-0,072
-62,592	14,125	-0,112	-0,062
-61,578	9,718	-0,079	0,042
-60,563	-198,962	0,076	0,000
-59,549	-200,000	-0,060	0,221
-58,534	-71,280	-1,483	-0,392
-57,519	411,164	-1,483	-2,239
-56,505	-200,000	-0,582	-4,499
-55,490	260,797	0,936	1,151
-54,476	800,000	4,667	10,878
-53,461	-200,000	17,709	283,958
-52,446	800,000	721,625	2231,165
-51,432	562,704	1636,339	2818,766
-50,417	81,006	1659,508	1268,735
-49,403	23,713	1533,705	893,250
-48,388	17,721	1457,330	819,841
-47,373	18,190	1446,787	816,128
-46,359	17,795	1437,225	808,818
-45,344	16,006	1432,575	797,656
-44,330	15,958	1430,600	796,294
-43,315	15,915	1429,138	795,247
-42,300	15,936	1427,308	794,296
-41,286	16,016	1426,303	794,086
-40,271	15,947	1424,945	792,970
-39,257	15,941	1423,773	792,257
-38,242	15,987	1422,340	791,648
-37,227	16,028	1420,854	790,982
-36,213	15,992	1419,815	790,203
-35,198	16,023	1418,431	789,548
-34,184	16,002	1417,758	789,042
-33,169	15,939	1416,380	787,949
-32,154	15,978	1415,350	787,529
-31,140	15,971	1414,000	786,710
-30,125	16,006	1412,839	786,198
-29,111	16,004	1411,672	785,510
-28,096	15,953	1410,975	784,853
-27,082	15,879	1409,668	783,745
-26,067	15,876	1408,408	783,002
-25,052	15,911	1407,518	782,638
-24,038	15,883	1406,602	781,968
-23,023	15,870	1405,338	781,173
-22,009	15,859	1404,507	780,630
-20,994	15,846	1403,617	780,041
-19,979	15,851	1402,497	779,410
-18,965	15,858	1401,543	778,884
-17,950	15,846	1400,431	778,177
-16,936	15,812	1399,712	777,592
-15,921	15,826	1398,334	776,861
-14,906	15,820	1397,477	776,325
-13,892	15,826	1396,447	775,748
-12,877	15,823	1395,559	775,213
-11,863	15,798	1394,727	774,604
-10,848	15,797	1393,859	774,085
-9,833	15,785	1392,894	773,464
-8,819	15,782	1391,830	772,827
-7,804	15,723	1390,890	772,001
-6,790	15,671	1390,092	771,291
-5,775	15,736	1388,838	770,862
-4,760	15,739	1388,181	770,479
-3,746	15,696	1387,498	769,873
-2,731	15,677	1386,646	769,284
-1,717	15,666	1385,778	768,721
-0,702	15,682	1383,604	767,555
0,313	19,457	1304,224	740,954
1,327	35,710	706,723	439,176
2,342	54,965	125,166	85,512
3,356	5,078	16,518	8,590
4,371	-4,574	3,096	1,510
5,386	-50,732	0,533	0,177
6,400	-200,000	-0,010	0,172
7,415	71,332	-0,233	-0,171
8,429	80,573	-0,288	-0,219
9,444	131,158	-0,330	-0,300
10,459	-10,029	-0,325	-0,152
11,473	188,145	-0,206	-0,218
12,488	14,201	-0,290	-0,159
13,502	55,857	-0,309	-0,212
14,517	26,995	-0,372	-0,221
15,531	-15,395	-0,384	-0,173
16,546	-29,984	-0,294	-0,118
17,561	22,386	-0,526	-0,304
18,575	83,112	-0,268	-0,206
19,590	274,236	-0,292	-0,366
20,604	-66,256	-0,253	-0,071
21,619	115,743	-0,401	-0,347
22,634	151,928	-0,388	-0,374
23,648	149,891	-0,432	-0,415
24,663	33,951	-0,268	-0,165
25,677	15,154	-0,468	-0,258
26,692	110,248	-0,303	-0,258
27,707	-9,567	-0,407	-0,191
28,721	-1,903	-0,368	-0,182
29,736	68,795	-0,411	-0,298
30,750	-1,514	-0,508	-0,252
31,765	101,960	-0,391	-0,322
32,780	1,038	-0,409	-0,207
33,794	34,510	-0,437	-0,269
34,809	-55,593	-0,315	-0,099
35,823	31,045	-0,400	-0,242
36,838	50,020	-0,475	-0,316
37,853	58,358	-0,435	-0,301
38,867	9,493	-0,450	-0,240
39,882	64,105	-0,331	-0,235
40,896	71,170	-0,229	-0,168
41,911	253,007	-0,198	-0,239
42,926	171,376	-0,341	-0,346
43,940	-55,005	-0,489	-0,155
44,955	93,005	-0,342	-0,273
45,969	152,325	-0,382	-0,368
46,984	23,889	-0,341	-0,198
47,999	58,134	-0,288	-0,199
49,013	28,030	-0,309	-0,184
50,028	24,685	-0,425	-0,247
51,042	-54,449	-0,372	-0,118
52,057	69,453	-0,299	-0,217
53,071	193,262	-0,318	-0,340
54,086	76,114	-0,332	-0,247
55,101	27,878	-0,376	-0,223
56,115	13,389	-0,376	-0,205
57,130	-1,251	-0,336	-0,167
58,144	18,852	-0,386	-0,217
59,159	158,015	-0,298	-0,292
60,174	126,879	-0,389	-0,348
61,188	102,098	-0,410	-0,338
62,203	-26,373	-0,367	-0,151
63,217	20,053	-0,295	-0,167
64,232	42,570	-0,312	-0,200
65,247	212,964	-0,249	-0,278
66,261	140,537	-0,246	-0,228
67,276	-4,664	-0,338	-0,164
68,290	45,959	-0,381	-0,248
69,305	-24,961	-0,321	-0,134
70,320	58,126	-0,290	-0,200
71,334	232,820	-0,324	-0,375
72,349	199,043	-0,175	-0,190
73,363	45,753	-0,336	-0,218
74,378	51,178	-0,362	-0,241
75,393	92,295	-0,226	-0,179
76,407	432,653	-0,148	-0,227
77,422	-15,828	-0,228	-0,102
78,436	-128,464	-0,312	-0,031
79,451	-66,843	-0,307	-0,085
80,466	-70,026	-0,325	-0,086
81,480	49,643	-0,335	-0,221
82,495	226,031	-0,291	-0,333
83,509	-39,238	-0,310	-0,114
84,524	-42,142	-0,386	-0,138
85,539	-191,060	-0,283	0,002
86,553	-0,279	-0,290	-0,144
87,568	-59,249	-0,364	-0,110
88,582	122,526	-0,265	-0,233
89,597	30,589	-0,406	-0,244
90,611	111,802	-0,268	-0,227
91,626	501,596	-0,194	-0,316
92,641	246,645	-0,206	-0,245
93,655	61,485	-0,242	-0,169
94,670	136,164	-0,235	-0,216
95,684	-50,876	-0,336	-0,110
96,699	293,912	-0,206	-0,264
97,714	139,661	-0,235	-0,217
98,728	285,393	-0,165	-0,209
99,743	10,447	-0,287	-0,153
100,757	250,635	-0,149	-0,178
101,772	-5,306	-0,341	-0,164
102,787	96,231	-0,252	-0,202
103,801	122,700	-0,375	-0,329
104,816	143,370	-0,275	-0,257
105,830	40,499	-0,179	-0,113
106,845	-51,030	-0,347	-0,114
107,860	39,415	-0,229	-0,144
108,874	-28,411	-0,355	-0,143
109,889	0,719	-0,333	-0,167
110,903	-155,706	-0,419	0,018
111,918	34,839	-0,336	-0,206
112,933	43,363	-0,211	-0,135
113,947	-36,095	-0,227	-0,086
114,962	124,856	-0,283	-0,250
115,976	132,352	-0,234	-0,212
116,991	41,136	-0,228	-0,144
118,006	141,247	-0,205	-0,190
119,020	8,363	-0,291	-0,153
120,035	207,935	-0,145	-0,159
121,049	356,860	-0,217	-0,305
122,064	84,143	-0,277	-0,212
123,079	33,963	-0,267	-0,163
124,093	192,152	-0,147	-0,155
125,108	-56,636	-0,353	-0,109
126,122	178,259	-0,253	-0,259
127,137	48,358	-0,301	-0,197
128,151	29,095	-0,288	-0,171
129,166	-22,294	-0,284	-0,120
130,181	96,316	-0,321	-0,257
131,195	64,240	-0,297	-0,209
132,210	75,431	-0,197	-0,145
133,224	23,316	-0,316	-0,181
134,239	3,956	-0,183	-0,094
135,254	17,395	-0,194	-0,108
136,268	336,078	-0,148	-0,201
137,283	162,211	-0,189	-0,186
138,297	32,216	-0,259	-0,156
139,312	275,347	-0,175	-0,218
140,327	56,245	-0,297	-0,201
141,341	17,136	-0,254	-0,140
142,356	-74,600	-0,239	-0,060
143,370	74,272	-0,172	-0,126
144,385	428,896	-0,232	-0,353
145,400	800,000	-0,086	-0,205
146,414	18,139	-0,261	-0,146
147,429	351,473	-0,201	-0,279
148,443	16,134	-0,181	-0,100
149,458	371,752	-0,194	-0,276
150,473	90,024	-0,207	-0,162
151,487	-75,819	-0,342	-0,084
152,502	142,610	-0,283	-0,263
153,516	137,436	-0,196	-0,179
154,531	98,842	-0,194	-0,157
155,546	-36,448	-0,310	-0,116
156,560	-17,710	-0,202	-0,088
157,575	92,520	-0,224	-0,177
158,589	-14,763	-0,265	-0,118
159,604	28,559	-0,216	-0,127
160,619	-55,810	-0,248	-0,077
161,633	147,428	-0,265	-0,249
162,648	-65,085	-0,238	-0,067
163,662	-188,160	-0,171	-0,001
164,677	8,396	-0,353	-0,185
165,692	64,332	-0,207	-0,145
166,706	399,777	-0,208	-0,306
167,721	-15,337	-0,156	-0,069
168,735	111,128	-0,277	-0,233
169,750	8,676	-0,117	-0,061
170,764	350,057	-0,176	-0,243
171,779	49,741	-0,235	-0,154
172,794	242,135	-0,125	-0,146
173,808	-30,669	-0,299	-0,117
174,823	22,459	-0,357	-0,203
175,837	116,408	-0,310	-0,265
176,852	83,136	-0,261	-0,198
177,867	39,062	-0,187	-0,116
178,881	-133,633	-0,238	-0,020
179,896	-6,386	-0,174	-0,082
180,910	-18,904	-0,235	-0,102
181,925	198,406	-0,272	-0,291
182,940	-104,484	-0,282	-0,045
183,954	64,371	-0,202	-0,142
184,969	34,174	-0,152	-0,092
185,983	92,031	-0,141	-0,111
186,998	144,538	-0,117	-0,109
188,013	-45,293	-0,198	-0,068
189,027	116,983	-0,253	-0,216
190,042	-27,774	-0,222	-0,089
191,056	134,508	-0,178	-0,161
192,071	50,960	-0,159	-0,105
193,086	184,302	-0,151	-0,156
194,100	25,673	-0,231	-0,134
195,115	131,521	-0,131	-0,117
196,129	800,000	-0,117	-0,273
197,144	174,825	-0,228	-0,230
198,159	800,000	-0,080	-0,194
199,173	-54,000	-0,278	-0,088
200,188	-98,739	-0,276	-0,049
201,202	251,010	-0,143	-0,170
202,217	-70,380	-0,199	-0,052
203,232	161,576	-0,157	-0,153
204,246	-7,575	-0,282	-0,132
205,261	128,652	-0,126	-0,112
206,275	189,045	-0,240	-0,250
207,290	-200,000	0,004	-0,217
208,304	293,278	-0,115	-0,146
209,319	15,643	-0,107	-0,059
210,334	21,119	-0,177	-0,100
211,348	81,029	-0,224	-0,168
212,363	71,569	-0,239	-0,172
213,377	55,597	-0,265	-0,178
214,392	1,471	-0,137	-0,068
215,407	184,968	-0,164	-0,169
216,421	35,170	-0,281	-0,171
217,436	-135,517	-0,228	-0,019
218,450	117,824	-0,160	-0,137
219,465	293,957	-0,242	-0,308
220,480	-128,872	-0,132	0,013
221,494	177,004	-0,154	-0,156
222,509	79,686	-0,186	-0,139
223,523	163,410	-0,148	-0,145
224,538	61,440	-0,149	-0,103
225,553	-2,379	-0,318	-0,154
226,567	158,061	-0,212	-0,204
227,582	-31,566	-0,230	-0,089
228,596	210,197	-0,190	-0,207
229,611	-121,553	-0,148	-0,017
230,626	318,514	-0,100	-0,132
231,640	57,509	-0,223	-0,151
232,655	119,450	-0,188	-0,162
233,669	-127,429	-0,199	-0,020
234,684	-3,704	-0,207	-0,099
235,699	0,980	-0,280	-0,139
236,713	-135,274	-0,135	-0,011
237,728	-64,152	-0,151	-0,042
238,742	800,000	-0,087	-0,208
239,757	543,126	-0,087	-0,145
240,772	428,238	-0,179	-0,269
241,786	130,225	-0,188	-0,167
242,801	388,723	-0,195	-0,281
243,815	238,904	-0,152	-0,176
244,830	800,000	-0,112	-0,248
245,844	800,000	-0,078	-0,223
246,859	222,001	-0,150	-0,167
247,874	298,853	-0,146	-0,187
248,888	85,187	-0,204	-0,155
249,903	12,337	-0,303	-0,161
250,917	800,000	-0,036	-0,104
251,932	72,190	-0,097	-0,070
252,947	-59,125	-0,141	-0,042
253,961	194,049	-0,189	-0,198
254,976	800,000	-0,086	-0,244
255,990	408,635	-0,176	-0,259
257,005	321,098	-0,116	-0,153
258,020	-62,173	-0,243	-0,070
259,034	83,513	-0,134	-0,101
260,049	193,705	-0,194	-0,203
261,063	187,576	-0,125	-0,129
262,078	-26,699	-0,250	-0,101
263,093	159,557	-0,154	-0,149
264,107	158,488	-0,202	-0,194
265,122	-75,565	-0,121	-0,030
266,136	-101,850	-0,151	0,025
267,151	-37,074	-0,220	-0,081
268,166	-77,364	-0,168	-0,040
269,180	-52,338	-0,202	-0,064
270,195	23,222	-0,188	-0,106
271,209	163,737	-0,085	-0,082
272,224	-122,990	-0,101	0,011
273,239	-50,751	-0,205	-0,066
274,253	52,203	-0,194	-0,128
275,268	99,488	-0,127	-0,102
276,282	179,388	-0,176	-0,179
277,297	-200,000	0,020	-0,143
278,312	603,760	-0,082	-0,142
279,326	-89,697	-0,177	-0,036
280,341	11,570	-0,232	-0,123
281,355	-114,941	-0,155	-0,020
282,370	-135,040	-0,200	-0,016
283,384	800,000	-0,064	-0,131
284,399	155,577	-0,199	-0,190
285,414	181,133	-0,194	-0,197
286,428	112,061	-0,163	-0,136
287,443	-46,017	-0,272	-0,092
288,457	49,117	-0,166	-0,108
289,472	-10,243	-0,064	-0,029
290,487	800,000	-0,084	-0,208
291,501	-200,000	-0,044	-0,188
292,516	443,249	-0,101	-0,154
293,530	6,060	-0,094	-0,048
294,545	-66,299	-0,145	-0,039
295,560	-147,633	-0,125	0,007
296,574	-56,274	-0,127	0,039
297,589	91,867	-0,165	-0,128
298,603	800,000	-0,136	-0,280
299,618	-137,552	-0,097	-0,007
300,633	-69,745	-0,170	-0,045
301,647	-12,836	-0,136	-0,061
302,662	-19,745	-0,147	0,062
303,676	-45,812	-0,116	-0,039
304,691	-56,879	-0,155	-0,047
305,706	-13,052	-0,238	-0,107
306,720	-18,604	-0,239	-0,103
307,735	-44,932	-0,215	-0,073
308,749	89,781	-0,149	-0,115
309,764	355,326	-0,064	-0,088
310,779	394,943	-0,125	-0,180
311,793	59,717	-0,151	-0,102
312,808	-49,199	-0,175	-0,057
313,822	193,307	-0,057	-0,059
314,837	356,119	-0,112	-0,154
315,852	-168,384	-0,107	-0,003
316,866	-84,949	-0,085	-0,018
317,881	-137,961	-0,213	-0,016
318,895	-137,525	-0,139	-0,011
319,910	122,741	-0,143	-0,124
320,925	-92,707	-0,197	-0,038
321,939	119,620	-0,084	-0,071
322,954	435,904	-0,090	-0,135
323,968	285,071	-0,072	-0,090
324,983	-51,369	-0,208	-0,066
325,997	682,918	-0,038	-0,068
327,012	106,944	-0,119	-0,097
328,027	163,688	-0,160	-0,155
329,041	-112,042	-0,208	-0,029
330,056	-116,953	-0,113	0,014
331,070	197,074	-0,088	-0,092
332,085	20,065	-0,123	-0,068
333,100	-108,699	-0,275	-0,040
334,114	562,874	-0,134	-0,224
335,129	130,412	-0,153	-0,135
336,143	-200,000	-0,013	-0,059
337,158	123,095	-0,146	-0,126
338,173	131,134	-0,142	-0,126
339,187	-200,000	-0,027	-0,156
340,202	-73,786	-0,040	-0,010
341,216	-53,026	-0,244	-0,077
342,231	92,311	-0,064	-0,049
343,246	800,000	-0,042	-0,127
344,260	92,411	-0,097	-0,075
345,275	65,381	-0,184	-0,128
346,289	61,611	-0,173	-0,118
347,304	20,408	-0,206	-0,114
348,319	217,277	-0,173	-0,190
349,333	151,781	-0,179	-0,167
350,348	71,275	-0,272	-0,194
351,362	74,524	-0,174	-0,126
352,377	-123,141	-0,156	0,017
353,392	-156,665	-0,146	-0,006
354,406	-200,000	-0,052	-0,161
355,421	209,945	1314,341	1418,171
356,435	161,600	1475,050	1418,682
