DTS Sentinel unit serial number:	SN410029Multiplexer serial number:	ORYXHardware model number:	OX2-SRSoftware version number:	ORYX F/W v4,00 Oryx Data Collector v3.7.2.0data status	okinstallation	B3 Nyhavnadifferential loss correction	single-endedforward channel	channel 1reverse channel	N/Adate	2023/12/01time	15:07:30forward acquisition time	300,00reverse acquisition time	0,00gamma	499,1914k internal	0,3210k external	0,3210temperature offset calibration	1,0000default loss term (dB/km)	0,3820temperature slope calibration	1,0000multiplexer offset coefficient	1,0000multiplexer slope coefficient	1,0000fibre end	0,00T internal ref (°C)	11,57T ext. ref 1 (°C)	-1,84T ext. ref 2 (°C)	-1,92length (m)	temperature (°C)	Stokes	anti-Stokes-744,400	266,338	-0,202	-0,256
-743,385	-200,000	-0,001	0,318
-742,371	704,662	-0,110	-0,211
-741,356	-200,000	-0,014	0,325
-740,342	30,253	-0,292	-0,181
-739,327	800,000	-0,118	0,291
-738,312	558,447	-0,124	-0,217
-737,298	-200,000	-0,026	0,250
-736,283	77,174	-0,148	-0,114
-735,269	-200,000	0,050	0,463
-734,254	99,489	-0,221	-0,185
-733,239	-136,335	-0,243	0,020
-732,225	774,786	-0,156	-0,309
-731,210	800,000	0,055	0,160
-730,196	197,651	0,065	0,072
-729,181	117,749	-0,079	-0,071
-728,167	-42,974	-0,092	0,034
-727,152	-69,241	-0,064	-0,018
-726,137	169,659	-0,026	-0,027
-725,123	-51,343	-0,179	-0,060
-724,108	409,493	-0,072	-0,110
-723,094	-70,654	-0,185	0,050
-722,079	-200,000	-0,024	-0,091
-721,064	110,125	-0,043	-0,037
-720,050	5,906	-0,042	0,023
-719,035	-123,796	-0,132	-0,015
-718,021	-200,000	-0,021	0,172
-717,006	-126,091	-0,080	0,009
-715,991	-139,919	-0,087	0,007
-714,977	171,695	-0,089	-0,093
-713,962	372,424	-0,041	-0,060
-712,948	-200,000	0,005	0,116
-711,933	2,196	-0,134	0,070
-710,918	-31,042	-0,134	0,055
-709,904	5,553	-0,151	0,081
-708,889	307,590	-0,005	-0,007
-707,875	174,426	-0,102	-0,107
-706,860	72,246	0,014	0,010
-705,845	800,000	-0,030	-0,074
-704,831	265,016	0,063	-0,080
-703,816	-180,115	-0,095	-0,001
-702,802	-200,000	0,001	0,019
-701,787	-30,575	-0,111	-0,045
-700,772	800,000	-0,039	-0,084
-699,758	36,278	0,075	0,048
-698,743	-49,670	0,059	-0,020
-697,729	-37,614	-0,062	-0,024
-696,714	496,919	-0,080	-0,133
-695,699	-190,401	-0,030	-0,000
-694,685	-45,210	-0,089	-0,032
-693,670	-27,629	0,037	-0,016
-692,656	55,516	0,063	0,044
-691,641	-66,405	0,091	0,026
-690,627	97,673	-0,125	0,104
-689,612	-0,439	-0,080	0,041
-688,597	-110,764	-0,090	-0,013
-687,583	325,373	0,100	-0,139
-686,568	321,522	0,014	-0,020
-685,554	-146,459	-0,056	-0,003
-684,539	272,162	-0,051	-0,065
-683,524	-132,804	-0,131	0,012
-682,510	-36,064	-0,070	0,027
-681,495	-173,440	-0,112	-0,002
-680,481	-200,000	0,048	-0,191
-679,466	11,386	-0,011	0,006
-678,451	176,098	-0,044	-0,046
-677,437	-200,000	0,031	-0,123
-676,422	-32,228	0,113	0,045
-675,408	516,419	0,070	0,119
-674,393	13,350	0,084	0,047
-673,378	800,000	0,024	-0,066
-672,364	800,000	-0,021	0,046
-671,349	40,367	-0,062	0,040
-670,335	800,000	-0,027	0,058
-669,320	305,899	0,093	0,126
-668,305	-13,875	0,057	0,026
-667,291	29,156	-0,126	0,077
-666,276	800,000	0,043	-0,103
-665,262	-118,776	-0,073	0,009
-664,247	41,293	0,095	0,062
-663,232	-91,950	-0,108	-0,022
-662,218	92,723	0,120	0,098
-661,203	800,000	0,012	0,029
-660,189	162,119	-0,079	-0,080
-659,174	-59,228	-0,096	-0,030
-658,159	720,893	-0,030	-0,058
-657,145	515,756	-0,047	-0,080
-656,130	37,748	0,056	0,036
-655,116	39,382	-0,046	-0,030
-654,101	76,709	0,045	0,035
-653,086	207,082	-0,049	-0,055
-652,072	-200,000	0,001	0,043
-651,057	-28,950	0,131	-0,054
-650,043	800,000	0,025	0,060
-649,028	47,422	0,060	-0,041
-648,014	-69,612	0,134	0,037
-646,999	-25,934	0,089	0,038
-645,984	547,587	-0,048	-0,084
-644,970	-45,565	0,048	-0,017
-643,955	-142,741	-0,133	-0,009
-642,941	-140,434	-0,010	0,001
-641,926	-84,853	-0,137	-0,031
-640,911	-200,000	-0,002	0,029
-639,897	-101,556	0,101	-0,018
-638,882	-141,685	0,032	-0,002
-637,868	65,741	0,033	0,024
-636,853	-126,410	0,073	0,008
-635,838	-24,408	-0,157	-0,067
-634,824	134,584	0,020	-0,018
-633,809	-200,000	0,011	0,046
-632,795	32,953	0,056	-0,035
-631,780	389,728	0,053	0,079
-630,765	-200,000	-0,007	0,027
-629,751	176,804	-0,146	-0,153
-628,736	-200,000	0,000	-0,049
-627,722	387,879	0,047	-0,071
-626,707	242,429	0,030	-0,036
-625,692	287,684	-0,010	0,013
-624,678	-200,000	-0,025	-0,115
-623,663	39,978	-0,075	-0,049
-622,649	-200,000	-0,001	-0,042
-621,634	62,854	-0,124	-0,089
-620,619	11,671	0,119	-0,065
-619,605	-34,241	0,078	-0,031
-618,590	443,102	0,039	-0,063
-617,576	800,000	0,076	0,192
-616,561	404,312	-0,071	-0,109
-615,546	-17,950	-0,055	-0,025
-614,532	407,213	-0,129	-0,198
-613,517	141,074	0,063	-0,060
-612,503	-152,053	-0,115	0,006
-611,488	-200,000	0,042	0,136
-610,474	64,083	-0,063	0,046
-609,459	269,592	0,036	0,046
-608,444	-107,036	-0,119	-0,019
-607,430	32,789	-0,040	0,025
-606,415	199,621	0,089	0,099
-605,401	800,000	0,041	0,122
-604,386	-200,000	0,022	0,106
-603,371	-66,039	0,133	0,038
-602,357	800,000	0,014	0,041
-601,342	-37,302	-0,106	0,040
-600,328	607,488	-0,073	-0,133
-599,313	-200,000	0,001	-0,035
-598,298	-1,697	0,059	-0,030
-597,284	-200,000	-0,008	-0,049
-596,269	-58,220	0,074	0,023
-595,255	-27,573	0,089	-0,037
-594,240	-200,000	0,002	-0,072
-593,225	-200,000	0,002	0,063
-592,211	-127,613	0,070	0,007
-591,196	628,233	-0,065	-0,118
-590,182	-200,000	-0,003	-0,081
-589,167	-200,000	0,004	0,086
-588,152	800,000	0,095	0,200
-587,138	346,428	-0,034	0,048
-586,123	171,800	-0,103	-0,107
-585,109	-7,015	0,097	0,047
-584,094	597,282	0,002	0,003
-583,079	339,800	-0,083	-0,117
-582,065	-36,976	0,115	-0,044
-581,050	-154,264	0,198	0,009
-580,036	-106,656	-0,082	-0,013
-579,021	58,422	-0,205	-0,144
-578,006	85,778	-0,252	-0,199
-576,992	800,000	0,041	-0,129
-575,977	26,608	0,081	-0,049
-574,963	800,000	0,039	0,122
-573,948	245,205	0,098	-0,119
-572,934	-200,000	0,003	-0,055
-571,919	800,000	-0,067	-0,138
-570,904	-104,155	0,030	-0,005
-569,890	34,412	-0,053	0,033
-568,875	-101,029	0,106	-0,018
-567,861	164,358	-0,099	-0,101
-566,846	-49,241	0,105	0,036
-565,831	4,152	0,118	-0,062
-564,817	595,987	-0,062	-0,112
-563,802	584,249	-0,014	0,024
-562,788	-200,000	0,025	-0,163
-561,773	246,832	-0,057	0,069
-560,758	-7,840	0,118	-0,057
-559,744	-200,000	-0,004	0,102
-558,729	792,790	0,036	-0,072
-557,715	-200,000	0,030	0,000
-556,700	42,347	-0,056	-0,036
-555,685	267,993	-0,066	-0,084
-554,671	11,609	0,034	-0,019
-553,656	162,861	0,041	0,041
-552,642	182,331	0,093	-0,099
-551,627	800,000	-0,049	0,131
-550,612	-200,000	0,013	0,074
-549,598	83,259	0,095	-0,075
-548,583	163,030	-0,055	-0,056
-547,569	215,822	-0,059	-0,068
-546,554	257,192	-0,060	0,074
-545,539	-92,521	-0,074	-0,015
-544,525	-113,826	-0,125	0,017
-543,510	157,532	-0,090	0,089
-542,496	-62,618	-0,037	-0,011
-541,481	591,374	0,063	-0,113
-540,466	-200,000	0,005	-0,023
-539,452	2,642	0,112	0,058
-538,437	-200,000	-0,011	-0,060
-537,423	-38,402	-0,120	0,045
-536,408	-47,593	-0,093	0,032
-535,393	-113,743	-0,188	-0,026
-534,379	800,000	0,045	0,089
-533,364	85,292	0,093	0,073
-532,350	-200,000	0,007	-0,043
-531,335	800,000	-0,052	0,140
-530,321	800,000	0,066	0,146
-529,306	-175,910	-0,178	0,003
-528,291	-200,000	0,037	-0,154
-527,277	756,206	-0,016	-0,032
-526,262	-200,000	-0,028	0,124
-525,248	394,824	0,046	0,069
-524,233	406,913	0,016	0,025
-523,218	-200,000	-0,018	0,079
-522,204	-155,153	0,146	-0,007
-521,189	-200,000	-0,096	0,000
-520,175	800,000	0,026	0,075
-519,160	-200,000	0,003	0,155
-518,145	-200,000	0,002	-0,053
-517,131	172,194	-0,042	0,043
-516,116	16,079	0,044	-0,025
-515,102	65,101	-0,018	0,013
-514,087	-200,000	0,025	-0,189
-513,072	-200,000	0,015	-0,086
-512,058	-200,000	0,015	-0,055
-511,043	-95,491	-0,090	0,017
-510,029	800,000	-0,009	0,019
-509,014	800,000	-0,033	0,090
-507,999	25,883	0,103	0,062
-506,985	-14,187	-0,038	-0,018
-505,970	-29,999	-0,089	0,036
-504,956	-200,000	0,008	-0,025
-503,941	194,463	-0,065	0,071
-502,926	-200,000	-0,003	-0,074
-501,912	-140,907	-0,023	-0,002
-500,897	800,000	-0,026	0,076
-499,883	-200,000	-0,036	-0,117
-498,868	2,221	-0,136	0,070
-497,853	-21,773	-0,031	0,014
-496,839	320,184	-0,092	0,126
-495,824	-200,000	-0,013	0,074
-494,810	-200,000	0,010	0,084
-493,795	-200,000	-0,000	-0,049
-492,781	41,808	-0,080	-0,052
-491,766	152,539	-0,105	-0,103
-490,751	-200,000	-0,040	0,167
-489,737	92,467	-0,065	-0,053
-488,722	280,092	-0,060	0,077
-487,708	76,379	0,031	-0,024
-486,693	124,251	-0,026	0,024
-485,678	184,715	-0,061	-0,065
-484,664	-200,000	-0,001	-0,076
-483,649	352,131	-0,021	0,031
-482,635	-200,000	-0,004	-0,167
-481,620	800,000	-0,037	-0,076
-480,605	-75,344	0,139	0,035
-479,591	800,000	0,029	0,064
-478,576	57,148	-0,130	-0,091
-477,562	521,233	-0,018	-0,030
-476,547	23,108	-0,115	-0,067
-475,532	22,142	0,052	0,030
-474,518	-200,000	0,045	-0,144
-473,503	272,811	0,078	-0,099
-472,489	-50,112	0,024	0,008
-471,474	800,000	-0,034	0,106
-470,459	-0,189	-0,063	0,032
-469,445	42,199	-0,055	-0,036
-468,430	84,597	-0,169	-0,132
-467,416	-200,000	0,003	-0,090
-466,401	389,559	-0,091	0,136
-465,386	161,288	-0,141	-0,142
-464,372	-44,410	-0,154	0,055
-463,357	39,459	-0,130	0,083
-462,343	-120,634	0,042	-0,005
-461,328	-200,000	-0,010	0,062
-460,313	-149,553	0,207	-0,012
-459,299	310,020	0,064	0,086
-458,284	-200,000	-0,004	0,074
-457,270	11,206	-0,058	0,032
-456,255	-38,370	0,093	-0,035
-455,241	161,333	-0,030	-0,030
-454,226	314,204	0,040	-0,054
-453,211	163,247	-0,101	-0,102
-452,197	-124,817	-0,084	-0,009
-451,182	-119,012	0,063	-0,008
-450,168	-200,000	0,008	0,086
-449,153	23,788	-0,059	-0,035
-448,138	-200,000	-0,001	-0,020
-447,124	-65,801	-0,147	0,042
-446,109	146,727	0,004	-0,004
-445,095	-200,000	-0,001	0,051
-444,080	61,558	-0,054	0,039
-443,065	-130,013	0,095	-0,009
-442,051	-72,086	0,195	-0,052
-441,036	7,320	-0,036	0,019
-440,022	458,426	-0,028	-0,045
-439,007	-200,000	0,007	-0,116
-437,992	-200,000	0,002	-0,051
-436,978	-176,996	-0,066	0,001
-435,963	215,281	-0,080	0,091
-434,949	-114,034	-0,091	-0,012
-433,934	-71,819	-0,018	0,005
-432,919	-200,000	-0,021	-0,110
-431,905	168,082	-0,088	-0,090
-430,890	-115,550	0,061	-0,008
-429,876	-200,000	0,012	0,094
-428,861	-200,000	0,015	0,154
-427,846	-126,163	-0,089	-0,009
-426,832	-200,000	0,000	-0,033
-425,817	-11,241	-0,172	-0,081
-424,803	-200,000	-0,009	0,129
-423,788	-14,912	0,119	0,055
-422,773	-88,659	-0,071	-0,015
-421,759	627,102	0,042	0,077
-420,744	-34,615	-0,089	-0,035
-419,730	-200,000	0,001	0,004
-418,715	-32,605	-0,189	0,075
-417,701	192,321	0,040	-0,044
-416,686	-118,316	0,058	0,007
-415,671	-200,000	-0,038	0,140
-414,657	282,836	-0,065	0,084
-413,642	181,642	-0,069	-0,072
-412,628	-153,103	0,086	-0,004
-411,613	-200,000	-0,026	-0,090
-410,598	155,135	-0,106	0,104
-409,584	-200,000	0,011	-0,053
-408,569	666,824	-0,041	-0,075
-407,555	-200,000	0,020	0,169
-406,540	-200,000	-0,026	-0,169
-405,525	-200,000	-0,044	-0,153
-404,511	-103,428	0,061	-0,010
-403,496	-200,000	-0,010	0,051
-402,482	204,665	-0,133	-0,148
-401,467	401,872	-0,009	0,013
-400,452	31,354	0,104	0,064
-399,438	-200,000	0,008	-0,100
-398,423	-200,000	0,013	0,066
-397,409	53,210	-0,113	-0,078
-396,394	-63,692	-0,147	0,043
-395,379	346,774	0,087	0,123
-394,365	800,000	0,036	0,096
-393,350	135,064	-0,084	-0,078
-392,336	-34,448	0,061	0,024
-391,321	120,846	-0,064	-0,057
-390,306	-200,000	-0,001	-0,021
-389,292	-154,312	-0,078	-0,004
-388,277	-159,690	-0,034	-0,001
-387,263	-200,000	0,003	0,088
-386,248	-31,179	0,059	0,024
-385,233	-200,000	-0,041	0,152
-384,219	-81,887	-0,032	0,007
-383,204	-17,917	-0,121	-0,054
-382,190	-105,929	-0,065	-0,010
-381,175	71,605	-0,132	0,098
-380,160	-45,892	0,056	0,020
-379,146	-14,938	0,137	0,063
-378,131	-14,889	-0,045	0,020
-377,117	-200,000	-0,026	0,096
-376,102	-129,361	-0,110	-0,011
-375,088	69,834	0,083	-0,061
-374,073	-104,811	0,110	-0,018
-373,058	-25,943	0,044	-0,018
-372,044	293,817	0,050	-0,065
-371,029	41,017	0,047	-0,031
-370,015	-200,000	-0,008	0,040
-369,000	-42,091	0,048	-0,018
-367,985	-200,000	0,001	-0,037
-366,971	800,000	0,064	-0,163
-365,956	-54,773	-0,091	-0,029
-364,942	-63,178	0,171	-0,050
-363,927	-69,806	-0,065	-0,018
-362,912	148,537	0,108	-0,104
-361,898	-142,299	-0,061	-0,004
-360,883	-200,000	-0,009	-0,029
-359,869	255,232	0,073	0,089
-358,854	233,861	0,100	-0,118
-357,839	44,852	0,143	0,094
-356,825	-200,000	-0,011	0,120
-355,810	152,332	0,029	-0,028
-354,796	-129,561	0,048	-0,005
-353,781	800,000	-0,030	-0,075
-352,766	15,170	0,087	-0,049
-351,752	-117,199	0,107	-0,014
-350,737	-81,044	-0,145	0,034
-349,723	-11,120	-0,112	0,052
-348,708	-200,000	0,015	0,068
-347,693	-200,000	0,014	-0,060
-346,679	530,680	-0,096	-0,162
-345,664	284,046	0,018	0,024
-344,650	162,606	0,098	0,098
-343,635	-200,000	-0,011	-0,209
-342,620	800,000	0,074	0,154
-341,606	-163,287	0,078	-0,003
-340,591	39,476	-0,127	-0,081
-339,577	-52,584	-0,117	0,038
-338,562	111,352	0,118	0,102
-337,548	54,908	-0,032	0,022
-336,533	289,780	0,097	0,126
-335,518	360,690	-0,034	-0,049
-334,504	2,539	-0,073	-0,038
-333,489	-200,000	0,008	0,043
-332,475	577,531	-0,054	-0,095
-331,460	-200,000	0,020	0,114
-330,445	800,000	-0,022	-0,064
-329,431	-80,097	0,138	-0,033
-328,416	71,850	0,099	0,074
-327,402	88,291	0,044	-0,035
-326,387	-200,000	-0,012	0,115
-325,372	-82,511	-0,028	-0,007
-324,358	638,650	0,058	-0,106
-323,343	88,956	-0,127	0,101
-322,329	227,799	0,039	0,046
-321,314	-175,901	0,144	0,003
-320,299	287,875	-0,078	-0,101
-319,285	-73,840	0,075	0,019
-318,270	800,000	-0,053	0,126
-317,256	-107,691	0,132	0,020
-316,241	13,599	-0,075	-0,042
-315,226	-200,000	0,006	0,080
-314,212	343,867	0,102	0,144
-313,197	90,357	0,052	0,042
-312,183	8,173	0,063	-0,034
-311,168	-21,067	-0,126	-0,055
-310,153	487,466	-0,042	-0,068
-309,139	104,462	-0,050	0,042
-308,124	-75,738	-0,003	-0,001
-307,110	-200,000	0,013	-0,076
-306,095	-200,000	0,021	-0,091
-305,080	-162,007	0,099	-0,003
-304,066	256,619	0,094	-0,115
-303,051	301,212	0,025	-0,033
-302,037	229,481	0,030	0,034
-301,022	-128,477	0,113	-0,011
-300,008	753,156	-0,032	0,061
-298,993	94,074	0,043	-0,034
-297,978	286,850	0,077	0,100
-296,964	312,430	0,019	0,025
-295,949	16,249	-0,014	-0,008
-294,935	-18,128	-0,075	-0,033
-293,920	44,110	0,059	-0,039
-292,905	-200,000	0,023	0,110
-291,891	-147,158	-0,087	-0,005
-290,876	195,332	-0,089	-0,096
-289,862	-76,390	0,090	-0,022
-288,847	-30,498	-0,015	0,006
-287,832	145,265	0,070	0,066
-286,818	677,611	-0,016	0,030
-285,803	-9,439	0,055	0,026
-284,789	-200,000	-0,021	0,150
-283,774	59,094	0,090	-0,063
-282,759	800,000	-0,059	-0,153
-281,745	800,000	-0,001	-0,004
-280,730	-200,000	0,034	-0,123
-279,716	-30,214	-0,075	-0,030
-278,701	800,000	0,022	0,054
-277,686	675,037	0,042	0,079
-276,672	589,495	-0,052	-0,092
-275,657	647,392	0,135	-0,248
-274,643	-200,000	0,023	-0,077
-273,628	541,864	-0,135	-0,230
-272,613	800,000	-0,022	0,057
-271,599	-200,000	-0,039	-0,128
-270,584	550,381	0,034	-0,058
-269,570	800,000	0,079	0,195
-268,555	333,515	0,013	-0,019
-267,540	-200,000	0,008	-0,034
-266,526	535,423	0,030	-0,051
-265,511	800,000	0,053	-0,122
-264,497	-88,732	0,072	-0,015
-263,482	126,165	0,096	-0,086
-262,467	407,282	0,014	0,021
-261,453	194,554	0,068	-0,073
-260,438	248,627	-0,100	0,121
-259,424	38,321	0,105	-0,067
-258,409	800,000	-0,057	0,117
-257,395	24,696	0,079	0,046
-256,380	-200,000	0,032	0,120
-255,365	-81,295	-0,066	0,015
-254,351	467,427	0,024	-0,038
-253,336	43,820	0,052	-0,034
-252,322	21,859	0,072	0,042
-251,307	205,106	-0,053	0,059
-250,292	61,225	-0,146	0,103
-249,278	596,174	0,040	0,071
-248,263	-21,878	0,109	-0,047
-247,249	524,985	0,029	0,049
-246,234	78,481	-0,085	-0,064
-245,219	-200,000	0,022	-0,125
-244,205	-121,452	-0,087	0,010
-243,190	-36,949	0,063	0,024
-242,176	800,000	0,045	0,128
-241,161	186,499	0,132	0,140
-240,146	-123,926	0,212	0,024
-239,132	352,947	0,057	-0,081
-238,117	27,128	0,105	-0,063
-237,103	68,456	-0,023	-0,017
-236,088	800,000	-0,013	-0,033
-235,073	-200,000	0,023	0,163
-234,059	-200,000	-0,004	-0,042
-233,044	800,000	0,041	0,095
-232,030	91,074	-0,037	0,029
-231,015	191,399	0,056	0,060
-230,000	-200,000	-0,009	-0,085
-228,986	394,072	0,050	0,074
-227,971	357,165	-0,070	0,100
-226,957	57,925	0,039	0,027
-225,942	202,725	-0,045	0,050
-224,927	-64,083	-0,051	-0,015
-223,913	55,552	0,067	-0,046
-222,898	606,518	0,035	-0,062
-221,884	800,000	0,032	-0,073
-220,869	242,366	0,069	0,082
-219,855	-78,150	0,082	-0,020
-218,840	-200,000	-0,004	-0,082
-217,825	-9,344	-0,079	0,037
-216,811	134,406	-0,094	0,087
-215,796	246,732	0,039	0,047
-214,782	-200,000	0,021	-0,117
-213,767	-130,204	0,077	-0,007
-212,752	-200,000	0,010	0,080
-211,738	-28,895	0,195	0,079
-210,723	-13,730	-0,022	-0,010
-209,709	-102,996	-0,015	-0,003
-208,694	-200,000	0,013	-0,070
-207,679	-38,819	-0,135	-0,050
-206,665	-196,942	-0,069	0,000
-205,650	132,507	0,116	0,106
-204,636	348,083	-0,049	-0,069
-203,621	-19,954	0,082	0,036
-202,606	267,553	-0,045	0,056
-201,592	800,000	-0,023	0,057
-200,577	97,035	0,057	-0,046
-199,563	-200,000	0,019	0,089
-198,548	39,234	0,104	0,066
-197,533	-167,254	0,174	-0,005
-196,519	228,340	-0,077	0,090
-195,504	-105,485	-0,081	-0,013
-194,490	-200,000	-0,012	0,079
-193,475	-2,127	-0,063	-0,031
-192,460	-56,216	0,131	-0,041
-191,446	380,923	0,078	0,114
-190,431	800,000	0,080	0,200
-189,417	-200,000	0,037	0,116
-188,402	246,144	0,067	0,081
-187,387	-200,000	-0,007	-0,083
-186,373	-200,000	-0,031	-0,098
-185,358	-42,076	0,054	-0,020
-184,344	18,238	0,138	0,078
-183,329	-44,851	0,015	-0,005
-182,315	-200,000	0,045	0,150
-181,300	-69,978	-0,151	-0,040
-180,285	-200,000	0,050	-0,202
-179,271	-29,265	-0,085	-0,034
-178,256	-200,000	-0,002	0,109
-177,242	351,652	-0,033	0,047
-176,227	19,362	-0,039	-0,022
-175,212	116,219	0,135	0,117
-174,198	-127,656	0,041	0,004
-173,183	-78,863	-0,133	0,032
-172,169	-12,708	-0,039	0,018
-171,154	45,446	-0,073	-0,048
-170,139	-76,857	0,092	0,023
-169,125	-88,126	0,078	-0,017
-168,110	191,557	-0,121	0,129
-167,096	-81,463	0,095	0,022
-166,081	-200,000	0,042	-0,169
-165,066	800,000	0,019	-0,054
-164,052	-134,716	-0,183	-0,016
-163,037	52,925	0,089	0,060
-162,023	-30,949	-0,081	0,032
-161,008	-166,136	0,078	-0,002
-159,993	-16,933	-0,045	0,020
-158,979	11,613	0,055	-0,030
-157,964	334,258	-0,086	0,119
-156,950	586,600	-0,042	0,073
-155,935	-200,000	-0,016	0,113
-154,920	-37,032	-0,168	0,063
-153,906	-200,000	0,015	0,102
-152,891	155,899	0,162	0,159
-151,877	159,354	-0,099	-0,097
-150,862	-25,022	-0,126	-0,053
-149,847	1,918	0,163	-0,083
-148,833	-115,021	0,142	0,019
-147,818	-200,000	0,034	0,000
-146,804	2,015	0,097	-0,050
-145,789	-137,296	-0,068	0,005
-144,775	128,630	-0,038	-0,034
-143,760	-200,000	-0,006	-0,095
-142,745	-17,646	-0,041	-0,018
-141,731	-200,000	0,000	-0,025
-140,716	35,766	-0,007	0,005
-139,702	800,000	0,061	0,136
-138,687	512,738	0,093	0,154
-137,672	411,485	0,087	0,131
-136,658	-200,000	-0,018	-0,113
-135,643	-200,000	0,024	0,138
-134,629	800,000	0,022	-0,053
-133,614	-75,173	0,203	0,051
-132,599	267,084	0,082	0,102
-131,585	-4,535	-0,124	0,060
-130,570	426,794	0,081	0,125
-129,556	800,000	-0,026	-0,062
-128,541	164,873	0,013	0,013
-127,526	5,107	0,027	-0,014
-126,512	85,299	0,030	-0,023
-125,497	-67,672	0,102	-0,028
-124,483	-115,368	0,104	0,014
-123,468	-63,812	-0,057	0,016
-122,453	5,767	-0,067	0,035
-121,439	273,160	0,034	-0,042
-120,424	270,142	0,048	0,059
-119,410	50,191	-0,095	0,063
-118,395	-200,000	-0,008	-0,054
-117,380	228,972	-0,022	0,026
-116,366	-42,089	0,103	-0,037
-115,351	-118,421	-0,293	0,036
-114,337	-200,000	-0,003	-0,056
-113,322	127,907	0,117	-0,105
-112,307	-200,000	0,047	-0,178
-111,293	228,770	0,033	0,038
-110,278	-12,236	0,128	-0,059
-109,264	358,447	0,030	0,042
-108,249	800,000	-0,056	0,147
-107,234	184,404	0,067	-0,071
-106,220	285,419	-0,079	-0,100
-105,205	-16,631	0,085	0,038
-104,191	-24,445	0,124	0,052
-103,176	6,075	0,095	-0,050
-102,162	-2,654	0,066	-0,033
-101,147	67,476	-0,031	-0,022
-100,132	556,464	-0,022	-0,037
-99,118	-200,000	-0,046	-0,154
-98,103	165,534	0,088	-0,088
-97,089	-200,000	-0,008	-0,033
-96,074	-200,000	0,007	0,052
-95,059	-27,000	0,014	0,006
-94,045	-200,000	-0,010	-0,199
-93,030	274,840	-0,027	-0,034
-92,016	-87,336	-0,059	0,013
-91,001	800,000	-0,039	-0,081
-89,986	225,823	-0,143	0,164
-88,972	-109,428	0,141	0,021
-87,957	-200,000	-0,017	0,084
-86,943	-119,860	-0,160	0,019
-85,928	-46,519	0,134	-0,046
-84,913	-200,000	0,012	-0,071
-83,899	-200,000	0,010	-0,047
-82,884	-200,000	0,008	-0,047
-81,870	-200,000	-0,005	-0,023
-80,855	800,000	0,027	0,070
-79,840	15,728	-0,115	0,064
-78,826	182,946	-0,014	-0,014
-77,811	683,338	-0,058	0,107
-76,797	261,427	-0,031	-0,038
-75,782	25,773	-0,028	-0,016
-74,767	345,150	0,048	0,067
-73,753	-118,066	0,033	0,004
-72,738	142,833	-0,035	0,033
-71,724	25,095	-0,136	0,079
-70,709	133,179	-0,035	0,032
-69,694	-156,167	-0,145	0,006
-68,680	800,000	0,016	0,033
-67,665	-51,273	0,274	-0,090
-66,651	238,161	-0,079	0,093
-65,636	-163,807	-0,087	-0,003
-64,622	-200,000	0,044	0,000
-63,607	-102,503	-0,152	-0,026
-62,592	345,547	-0,096	-0,133
-61,578	149,376	-0,061	0,058
-60,563	358,737	-0,052	0,074
-59,549	-41,666	0,071	-0,026
-58,534	12,123	-1,800	-0,975
-57,519	481,947	-1,309	-2,107
-56,505	-200,000	-0,434	-4,393
-55,490	415,672	0,967	1,460
-54,476	800,000	4,983	11,076
-53,461	-200,000	20,298	327,905
-52,446	800,000	752,315	2311,902
-51,432	549,520	1659,046	2818,233
-50,417	74,288	1665,699	1233,787
-49,403	19,419	1538,662	870,456
-48,388	13,437	1461,261	797,711
-47,373	18,828	1451,627	818,321
-46,359	16,283	1441,043	800,202
-45,344	11,710	1436,542	775,887
-44,330	11,635	1434,650	774,477
-43,315	11,612	1432,922	773,404
-42,300	11,585	1431,417	772,431
-41,286	11,637	1429,992	771,878
-40,271	11,598	1428,570	770,897
-39,257	11,569	1427,658	770,238
-38,242	11,648	1426,178	769,782
-37,227	11,618	1425,124	769,041
-36,213	11,606	1423,899	768,294
-35,198	11,629	1422,874	767,816
-34,184	11,688	1421,810	767,493
-33,169	11,642	1420,259	766,408
-32,154	11,662	1419,390	766,003
-31,140	11,681	1418,062	765,345
-30,125	11,747	1417,044	765,074
-29,111	11,710	1415,942	764,278
-28,096	11,698	1414,793	763,567
-27,082	11,611	1413,661	762,521
-26,067	11,612	1412,511	761,872
-25,052	11,676	1411,209	761,438
-24,038	11,576	1410,541	760,581
-23,023	11,577	1409,518	760,007
-22,009	11,585	1408,510	759,468
-20,994	11,618	1407,527	759,061
-19,979	11,601	1406,641	758,476
-18,965	11,560	1405,630	757,708
-17,950	11,577	1404,819	757,322
-16,936	11,543	1404,118	756,754
-15,921	11,533	1403,015	756,082
-14,906	11,561	1401,897	755,579
-13,892	11,514	1401,069	754,885
-12,877	11,510	1400,182	754,358
-11,863	11,497	1399,358	753,827
-10,848	11,488	1398,343	753,208
-9,833	11,426	1397,563	752,469
-8,819	11,412	1396,755	751,941
-7,804	11,392	1395,873	751,342
-6,790	11,401	1394,966	750,865
-5,775	11,416	1393,748	750,249
-4,760	11,444	1392,808	749,844
-3,746	11,420	1391,790	749,155
-2,731	11,447	1391,104	748,880
-1,717	11,378	1390,180	748,037
-0,702	11,403	1388,453	747,193
0,313	15,548	1303,340	720,364
1,327	32,067	696,628	422,767
2,342	50,014	121,419	80,685
3,356	3,665	16,437	8,433
4,371	2,361	3,392	1,725
5,386	-23,511	0,730	0,308
6,400	-200,000	0,111	0,511
7,415	-65,590	-0,292	-0,082
8,429	-97,876	-0,259	-0,047
9,444	95,315	-0,317	-0,255
10,459	10,250	-0,245	-0,131
11,473	124,366	-0,222	-0,197
12,488	-118,924	-0,359	-0,044
13,502	-177,528	-0,297	-0,005
14,517	-53,009	-0,363	-0,117
15,531	44,669	-0,379	-0,245
16,546	-157,620	-0,403	-0,017
17,561	69,794	-0,306	-0,222
18,575	122,118	-0,197	-0,173
19,590	-112,271	-0,315	-0,044
20,604	151,107	-0,146	-0,140
21,619	54,954	-0,521	-0,353
22,634	95,134	-0,442	-0,354
23,648	318,827	-0,276	-0,369
24,663	13,206	-0,410	-0,223
25,677	129,617	-0,363	-0,326
26,692	-58,103	-0,290	-0,088
27,707	76,613	-0,283	-0,211
28,721	36,847	-0,419	-0,260
29,736	140,211	-0,324	-0,301
30,750	166,209	-0,362	-0,361
31,765	117,063	-0,272	-0,235
32,780	59,488	-0,397	-0,275
33,794	-6,066	-0,360	-0,173
34,809	37,464	-0,413	-0,257
35,823	-8,433	-0,381	-0,180
36,838	121,710	-0,301	-0,264
37,853	71,803	-0,351	-0,256
38,867	33,527	-0,378	-0,231
39,882	76,555	-0,309	-0,230
40,896	27,098	-0,215	-0,127
41,911	135,932	-0,394	-0,361
42,926	26,950	-0,389	-0,229
43,940	4,562	-0,445	-0,229
44,955	30,249	-0,522	-0,312
45,969	-20,314	-0,467	-0,201
46,984	62,484	-0,350	-0,246
47,999	93,609	-0,297	-0,236
49,013	-35,573	-0,361	-0,137
50,028	218,364	-0,242	-0,272
51,042	101,183	-0,231	-0,189
52,057	22,926	-0,421	-0,242
53,071	219,486	-0,267	-0,300
54,086	67,940	-0,371	-0,266
55,101	-54,060	-0,255	-0,081
56,115	-29,140	-0,337	-0,135
57,130	116,334	-0,249	-0,214
58,144	204,932	-0,283	-0,309
59,159	100,992	-0,418	-0,341
60,174	-14,014	-0,327	-0,147
61,188	97,394	-0,340	-0,274
62,203	142,801	-0,308	-0,288
63,217	-61,315	-0,357	-0,105
64,232	-39,599	-0,337	-0,123
65,247	-11,276	-0,312	-0,144
66,261	-6,400	-0,259	-0,123
67,276	-35,167	-0,302	-0,115
68,290	40,223	-0,326	-0,205
69,305	125,703	-0,282	-0,250
70,320	-7,529	-0,295	-0,140
71,334	-48,085	-0,370	-0,125
72,349	55,958	-0,268	-0,182
73,363	13,693	-0,323	-0,175
74,378	216,927	-0,252	-0,282
75,393	124,099	-0,344	-0,303
76,407	-29,116	-0,342	-0,137
77,422	-82,421	-0,209	-0,047
78,436	112,922	-0,285	-0,242
79,451	517,493	-0,097	-0,160
80,466	-31,403	-0,353	-0,138
81,480	127,200	-0,328	-0,291
82,495	102,405	-0,267	-0,218
83,509	50,165	-0,305	-0,202
84,524	-44,257	-0,243	-0,085
85,539	355,829	-0,175	-0,245
86,553	138,218	-0,302	-0,278
87,568	174,008	-0,226	-0,229
88,582	-69,151	-0,321	-0,086
89,597	127,027	-0,232	-0,206
90,611	8,761	-0,258	-0,136
91,626	2,225	-0,187	-0,094
92,641	58,734	-0,258	-0,177
93,655	22,255	-0,345	-0,197
94,670	31,255	-0,351	-0,211
95,684	20,405	-0,337	-0,190
96,699	76,060	-0,263	-0,194
97,714	155,916	-0,155	-0,150
98,728	115,445	-0,290	-0,248
99,743	-111,355	-0,279	-0,039
100,757	346,708	-0,201	-0,277
101,772	294,077	-0,187	-0,240
102,787	41,697	-0,310	-0,196
103,801	343,742	-0,160	-0,220
104,816	111,570	-0,175	-0,148
105,830	-66,663	-0,290	-0,080
106,845	14,088	-0,212	-0,115
107,860	20,486	-0,323	-0,182
108,874	111,359	-0,270	-0,227
109,889	216,680	-0,241	-0,268
110,903	77,144	-0,277	-0,206
111,918	-1,751	-0,323	-0,158
112,933	175,711	-0,213	-0,216
113,947	103,574	-0,233	-0,191
114,962	133,838	-0,228	-0,206
115,976	143,231	-0,182	-0,169
116,991	-59,382	-0,212	-0,063
118,006	347,051	-0,205	-0,282
119,020	17,996	-0,164	-0,091
120,035	-117,009	-0,279	-0,035
121,049	65,955	-0,283	-0,200
122,064	-17,408	-0,144	-0,063
123,079	-123,532	-0,244	-0,027
124,093	-14,762	-0,318	-0,142
125,108	31,368	-0,334	-0,200
126,122	-22,411	-0,249	-0,105
127,137	-166,026	-0,230	-0,007
128,151	162,152	-0,185	-0,181
129,166	22,236	-0,239	-0,136
130,181	7,628	-0,250	-0,130
131,195	637,978	-0,112	-0,200
132,210	-95,737	-0,420	-0,078
133,224	75,921	-0,271	-0,199
134,239	-35,918	-0,150	-0,056
135,254	145,212	-0,195	-0,182
136,268	30,606	-0,130	-0,077
137,283	-43,086	-0,319	-0,112
138,297	39,168	-0,246	-0,153
139,312	121,918	-0,267	-0,232
140,327	104,543	-0,175	-0,144
141,341	7,060	-0,232	-0,120
142,356	5,806	-0,318	-0,163
143,370	-78,133	-0,239	-0,057
144,385	225,124	-0,219	-0,248
145,400	71,781	-0,312	-0,226
146,414	14,602	-0,175	-0,095
147,429	-18,266	-0,184	-0,080
148,443	-44,875	-0,250	-0,086
149,458	-74,878	-0,131	-0,033
150,473	-14,222	-0,250	-0,112
151,487	51,533	-0,308	-0,203
152,502	120,027	-0,175	-0,151
153,516	213,643	-0,272	-0,300
154,531	-74,778	-0,341	-0,085
155,546	270,233	-0,200	-0,245
156,560	49,765	-0,281	-0,184
157,575	78,053	-0,170	-0,126
158,589	198,021	-0,142	-0,151
159,604	192,911	-0,171	-0,180
160,619	25,295	-0,287	-0,165
161,633	52,388	-0,277	-0,184
162,648	-51,132	-0,185	-0,060
163,662	9,011	-0,223	-0,117
164,677	220,763	-0,156	-0,175
165,692	80,886	-0,174	-0,130
166,706	46,736	-0,191	-0,123
167,721	119,433	-0,174	-0,150
168,735	-50,439	-0,213	-0,069
169,750	87,435	-0,300	-0,231
170,764	387,224	-0,197	-0,283
171,779	-24,390	-0,201	-0,083
172,794	83,188	-0,211	-0,160
173,808	17,693	-0,223	-0,123
174,823	102,625	-0,275	-0,223
175,837	202,459	-0,204	-0,219
176,852	1,535	-0,289	-0,144
177,867	30,674	-0,145	-0,086
178,881	73,583	-0,165	-0,120
179,896	468,097	-0,089	-0,140
180,910	-86,473	-0,206	-0,044
181,925	54,758	-0,134	-0,090
182,940	440,436	-0,128	-0,195
183,954	16,483	-0,267	-0,146
184,969	-145,735	-0,245	-0,015
185,983	45,885	-0,177	-0,113
186,998	-27,112	-0,212	-0,086
188,013	43,068	-0,207	-0,131
189,027	669,384	-0,173	-0,313
190,042	111,554	-0,286	-0,239
191,056	88,826	-0,136	-0,105
192,071	106,711	-0,208	-0,171
193,086	83,936	-0,140	-0,106
194,100	-115,452	-0,265	-0,034
195,115	-182,123	-0,254	0,003
196,129	33,161	-0,135	-0,081
197,144	113,420	-0,250	-0,210
198,159	128,906	-0,190	-0,168
199,173	-55,843	-0,213	-0,066
200,188	-72,461	-0,163	-0,041
201,202	26,910	-0,322	-0,187
202,217	26,168	-0,190	-0,110
203,232	800,000	-0,093	-0,226
204,246	52,388	-0,332	-0,219
205,261	103,692	-0,296	-0,241
206,275	655,129	-0,112	-0,201
207,290	14,567	-0,200	-0,108
208,304	800,000	-0,065	-0,160
209,319	-123,333	-0,183	-0,020
210,334	-65,044	-0,331	-0,092
211,348	44,647	-0,206	-0,131
212,363	55,139	-0,186	-0,124
213,377	-8,087	-0,200	-0,093
214,392	14,126	-0,249	-0,134
215,407	269,613	-0,102	-0,125
216,421	68,508	-0,198	-0,140
217,436	47,187	-0,281	-0,180
218,450	128,097	-0,190	-0,167
219,465	370,972	-0,212	-0,298
220,480	117,570	-0,192	-0,164
221,494	73,402	-0,196	-0,142
222,509	212,188	-0,176	-0,193
223,523	107,402	-0,218	-0,179
224,538	-101,411	-0,121	0,020
225,553	32,275	-0,168	-0,100
226,567	45,401	-0,203	-0,129
227,582	-80,761	-0,176	0,040
228,596	25,364	-0,120	0,069
229,611	280,887	-0,165	-0,205
230,626	460,011	-0,173	-0,267
231,640	-138,294	-0,173	0,013
232,655	400,536	-0,179	-0,260
233,669	110,439	-0,191	-0,159
234,684	511,379	-0,166	-0,269
235,699	800,000	-0,113	-0,247
236,713	800,000	-0,025	-0,066
237,728	49,593	-0,192	-0,125
238,742	58,458	-0,197	-0,133
239,757	69,525	-0,324	-0,231
240,772	64,303	-0,217	-0,151
241,786	189,709	-0,199	-0,206
242,801	-19,726	-0,233	-0,099
243,815	65,471	-0,115	-0,080
244,830	-61,788	-0,220	0,063
245,844	-6,633	-0,277	-0,130
246,859	340,333	-0,145	-0,195
247,874	455,136	-0,076	-0,117
248,888	46,001	-0,131	-0,083
249,903	110,967	-0,167	-0,139
250,917	272,784	-0,115	-0,141
251,932	-13,997	-0,153	-0,068
252,947	-200,000	-0,067	-0,214
253,961	537,567	-0,121	-0,199
254,976	-27,277	-0,211	-0,084
255,990	-133,990	-0,206	-0,017
257,005	1,318	-0,092	-0,045
258,020	800,000	-0,025	-0,073
259,034	-100,719	0,012	-0,002
260,049	39,225	-0,127	-0,078
261,063	-80,035	-0,170	-0,039
262,078	66,610	-0,167	-0,117
263,093	79,693	-0,185	-0,137
264,107	265,120	-0,201	-0,242
265,122	-0,509	-0,148	-0,072
266,136	254,297	-0,088	-0,104
267,151	38,356	-0,182	-0,112
268,166	63,932	-0,210	-0,145
269,180	202,795	-0,227	-0,242
270,195	526,013	-0,071	-0,115
271,209	-39,368	-0,233	-0,084
272,224	399,794	-0,054	0,078
273,239	39,284	-0,184	-0,113
274,253	-44,847	-0,117	-0,040
275,268	-52,608	-0,203	-0,064
276,282	-25,817	-0,197	-0,080
277,297	800,000	-0,098	-0,191
278,312	33,605	-0,182	-0,108
279,326	128,556	-0,180	-0,158
280,341	662,062	-0,046	-0,082
281,355	-47,088	-0,125	-0,042
282,370	-9,560	-0,212	-0,097
283,384	38,454	-0,167	-0,102
284,399	174,509	-0,278	-0,277
285,414	39,833	-0,084	-0,052
286,428	800,000	-0,041	-0,083
287,443	211,539	-0,114	-0,124
288,457	263,486	-0,166	-0,199
289,472	119,128	-0,279	-0,237
290,487	20,731	-0,140	-0,078
291,501	106,120	-0,226	-0,184
292,516	59,452	-0,172	-0,116
293,530	-200,000	-0,010	-0,044
294,545	92,101	-0,126	-0,098
295,560	-2,381	-0,132	-0,064
296,574	-72,077	-0,112	-0,028
297,589	249,718	-0,158	-0,184
298,603	-23,143	-0,124	-0,051
299,618	-101,628	-0,143	-0,024
300,633	136,832	-0,173	-0,155
301,647	115,759	-0,106	-0,089
302,662	-146,641	-0,101	0,006
303,676	4,850	-0,175	-0,088
304,691	88,782	-0,195	-0,149
305,706	-44,224	-0,327	-0,112
306,720	245,733	-0,164	-0,190
307,735	105,982	-0,075	-0,061
308,749	49,695	-0,190	-0,123
309,764	-115,485	-0,180	-0,023
310,779	-44,930	-0,187	-0,064
311,793	160,705	-0,204	-0,195
312,808	73,668	-0,115	-0,083
313,822	244,976	-0,175	-0,202
314,837	24,579	-0,144	-0,081
315,852	-159,939	-0,178	0,007
316,866	-200,000	-0,023	-0,073
317,881	16,551	-0,118	-0,064
318,895	25,427	-0,157	-0,090
319,910	612,895	-0,139	-0,239
320,925	403,984	-0,064	-0,093
321,939	174,643	-0,099	-0,098
322,954	60,247	-0,135	-0,091
323,968	571,149	-0,091	-0,153
324,983	109,335	-0,187	-0,154
325,997	127,310	-0,161	-0,140
327,012	-126,094	-0,121	0,012
328,027	17,185	-0,172	-0,093
329,041	175,003	-0,200	-0,198
330,056	32,306	-0,223	-0,132
331,070	-33,117	-0,155	0,059
332,085	38,965	-0,077	-0,047
333,100	-7,359	-0,172	-0,080
334,114	165,544	-0,151	-0,146
335,129	211,792	-0,131	-0,141
336,143	201,643	-0,108	-0,114
337,158	-66,750	-0,098	-0,026
338,173	-200,000	-0,015	-0,076
339,187	208,523	-0,088	-0,094
340,202	207,808	-0,042	0,045
341,216	-47,894	-0,116	0,038
342,231	89,735	-0,270	-0,206
343,246	190,385	-0,096	-0,098
344,260	10,636	-0,140	-0,073
345,275	-200,000	-0,034	-0,179
346,289	-48,760	-0,087	0,028
347,304	-32,542	-0,093	0,035
348,319	70,600	-0,215	-0,152
349,333	511,709	-0,134	-0,215
350,348	380,604	-0,153	-0,216
351,362	342,334	-0,106	-0,143
352,377	-16,759	-0,184	-0,079
353,392	390,542	-0,157	-0,224
354,406	37,640	-0,094	-0,057
355,421	208,728	1314,282	1408,202
356,435	160,621	1474,931	1408,684
