DTS Sentinel unit serial number:	SN410029Multiplexer serial number:	ORYXHardware model number:	OX2-SRSoftware version number:	ORYX F/W v4,00 Oryx Data Collector v3.7.2.0data status	okinstallation	B3 Nyhavnadifferential loss correction	single-endedforward channel	channel 1reverse channel	N/Adate	2023/12/03time	07:17:30forward acquisition time	300,00reverse acquisition time	0,00gamma	499,1914k internal	0,3201k external	0,3201temperature offset calibration	1,0000default loss term (dB/km)	0,3820temperature slope calibration	1,0000multiplexer offset coefficient	1,0000multiplexer slope coefficient	1,0000fibre end	0,00T internal ref (°C)	13,30T ext. ref 1 (°C)	-1,69T ext. ref 2 (°C)	-1,69length (m)	temperature (°C)	Stokes	anti-Stokes-744,400	800,000	-0,107	-0,246
-743,385	-200,000	0,047	0,305
-742,371	391,822	-0,133	-0,201
-741,356	-200,000	-0,085	0,305
-740,342	800,000	-0,109	-0,254
-739,327	-200,000	0,059	0,279
-738,312	273,592	-0,232	-0,299
-737,298	800,000	0,066	0,174
-736,283	169,047	-0,197	-0,205
-735,269	800,000	0,098	0,224
-734,254	674,719	-0,163	-0,308
-733,239	783,605	-0,095	0,190
-732,225	800,000	-0,094	-0,215
-731,210	-200,000	0,026	0,150
-730,196	-117,878	-0,100	0,013
-729,181	800,000	-0,023	-0,057
-728,167	682,940	0,008	0,015
-727,152	-42,248	0,050	-0,018
-726,137	-128,773	-0,117	0,012
-725,123	169,280	-0,108	-0,112
-724,108	490,841	-0,099	-0,166
-723,094	264,100	-0,038	-0,049
-722,079	42,025	-0,152	-0,100
-721,064	-78,130	-0,108	-0,027
-720,050	18,638	-0,072	0,042
-719,035	340,879	-0,082	-0,117
-718,021	-200,000	-0,001	-0,117
-717,006	-3,454	-0,027	-0,013
-715,991	-200,000	-0,036	-0,145
-714,977	170,381	-0,106	-0,111
-713,962	-200,000	0,014	-0,069
-712,948	-94,226	0,051	0,010
-711,933	-200,000	0,012	-0,042
-710,918	-200,000	-0,018	-0,082
-709,904	-200,000	0,013	-0,102
-708,889	-200,000	-0,007	-0,061
-707,875	-82,526	-0,042	0,010
-706,860	-200,000	0,063	-0,227
-705,845	-200,000	-0,011	0,066
-704,831	-200,000	0,009	0,091
-703,816	-15,096	-0,085	-0,039
-702,802	-200,000	0,017	-0,066
-701,787	-191,413	-0,127	-0,001
-700,772	258,601	-0,030	-0,038
-699,758	376,414	-0,029	-0,044
-698,743	-39,009	-0,053	-0,020
-697,729	-78,243	0,103	-0,026
-696,714	-200,000	-0,061	-0,202
-695,699	-133,579	0,062	0,006
-694,685	28,385	-0,117	-0,072
-693,670	-135,553	0,049	-0,004
-692,656	156,581	0,081	-0,081
-691,641	377,293	-0,031	0,046
-690,627	-136,180	0,128	0,011
-689,612	321,410	-0,022	-0,030
-688,597	-200,000	0,012	-0,058
-687,583	-78,644	-0,125	-0,031
-686,568	39,053	0,013	-0,008
-685,554	-8,640	-0,058	0,028
-684,539	32,807	0,116	0,073
-683,524	733,618	0,024	0,047
-682,510	-200,000	-0,006	0,065
-681,495	85,741	0,092	0,073
-680,481	326,940	-0,067	-0,093
-679,466	-200,000	-0,024	0,134
-678,451	-133,420	-0,129	-0,012
-677,437	-29,803	0,135	0,055
-676,422	227,716	0,080	0,095
-675,408	33,812	-0,088	-0,056
-674,393	591,656	0,107	-0,192
-673,378	-200,000	-0,014	-0,135
-672,364	-76,548	-0,072	-0,018
-671,349	308,274	0,075	-0,102
-670,335	511,409	0,011	0,018
-669,320	-200,000	0,001	0,037
-668,305	-148,199	-0,045	-0,003
-667,291	-200,000	-0,009	0,055
-666,276	-106,713	-0,098	0,016
-665,262	167,426	-0,135	0,139
-664,247	283,020	-0,012	-0,016
-663,232	-99,289	0,095	0,017
-662,218	-99,366	-0,115	-0,021
-661,203	363,148	0,089	0,130
-660,189	-145,486	0,112	0,007
-659,174	-44,455	-0,020	0,007
-658,159	-30,872	-0,069	-0,028
-657,145	-159,947	-0,149	0,006
-656,130	233,513	0,059	-0,070
-655,116	800,000	-0,048	-0,132
-654,101	237,796	-0,068	-0,082
-653,086	-200,000	0,002	0,021
-652,072	231,276	-0,027	-0,033
-651,057	-200,000	0,007	-0,174
-650,043	-185,677	-0,084	0,001
-649,028	634,828	0,041	-0,077
-648,014	-75,934	-0,015	0,004
-646,999	-200,000	-0,029	0,158
-645,984	750,204	-0,050	0,099
-644,970	80,948	0,040	0,031
-643,955	309,132	-0,021	-0,029
-642,941	275,281	-0,117	-0,150
-641,926	723,986	0,031	0,060
-640,911	-19,044	-0,161	0,072
-639,897	97,667	0,095	0,079
-638,882	483,016	0,051	-0,085
-637,868	189,859	-0,068	0,074
-636,853	230,430	-0,100	0,119
-635,838	287,481	0,111	-0,145
-634,824	-200,000	-0,013	-0,058
-633,809	-200,000	-0,010	-0,097
-632,795	519,487	-0,053	-0,090
-631,780	-200,000	0,031	0,112
-630,765	382,221	-0,010	-0,015
-629,751	123,739	-0,051	-0,046
-628,736	96,492	-0,073	-0,060
-627,722	253,582	0,033	0,041
-626,707	195,599	0,035	-0,039
-625,692	1,439	-0,094	-0,049
-624,678	-123,889	0,229	-0,026
-623,663	-2,090	0,079	-0,040
-622,649	-147,695	-0,093	0,006
-621,634	-200,000	-0,010	-0,207
-620,619	15,857	0,009	0,005
-619,605	800,000	-0,026	0,053
-618,590	-153,452	0,141	0,007
-617,576	-109,577	-0,091	-0,014
-616,561	-27,286	-0,039	-0,017
-615,546	-121,498	-0,047	0,006
-614,532	82,252	-0,044	-0,034
-613,517	-200,000	-0,006	0,087
-612,503	-197,294	-0,209	0,001
-611,488	-200,000	0,007	0,070
-610,474	-72,651	0,105	0,028
-609,459	102,486	-0,047	-0,040
-608,444	-200,000	0,000	-0,100
-607,430	19,631	0,072	0,042
-606,415	-44,801	0,021	-0,008
-605,401	800,000	-0,005	-0,013
-604,386	800,000	0,038	-0,099
-603,371	-200,000	0,019	-0,107
-602,357	-14,215	0,095	0,044
-601,342	37,400	0,051	0,033
-600,328	-152,982	-0,115	-0,006
-599,313	-58,317	-0,078	0,024
-598,298	-200,000	-0,011	-0,059
-597,284	45,572	0,079	-0,053
-596,269	275,451	-0,021	-0,028
-595,255	-65,791	-0,061	-0,017
-594,240	133,075	0,074	-0,069
-593,225	224,312	-0,211	-0,246
-592,211	-32,546	0,039	-0,016
-591,196	-44,979	-0,054	0,019
-590,182	-200,000	0,009	0,039
-589,167	-83,770	-0,084	0,019
-588,152	-200,000	0,015	-0,052
-587,138	138,659	0,053	-0,050
-586,123	87,355	-0,120	-0,096
-585,109	282,766	-0,035	-0,045
-584,094	-138,042	-0,055	-0,004
-583,079	660,842	0,059	-0,111
-582,065	-200,000	0,020	-0,096
-581,050	35,377	0,074	-0,047
-580,036	268,947	0,032	0,040
-579,021	-154,566	0,029	-0,001
-578,006	800,000	0,023	-0,069
-576,992	-16,620	0,054	-0,024
-575,977	-50,682	-0,069	-0,023
-574,963	-20,178	0,109	0,048
-573,948	-200,000	0,007	0,046
-572,934	800,000	-0,004	0,011
-571,919	-78,729	-0,058	0,014
-570,904	-200,000	0,010	0,039
-569,890	800,000	-0,057	-0,135
-568,875	800,000	-0,060	-0,127
-567,861	19,643	-0,043	-0,025
-566,846	800,000	-0,014	0,045
-565,831	374,502	0,074	-0,110
-564,817	598,924	-0,049	0,088
-563,802	783,728	-0,056	-0,111
-562,788	-200,000	0,021	-0,164
-561,773	212,956	-0,100	-0,115
-560,758	647,480	-0,031	-0,058
-559,744	-200,000	0,052	0,239
-558,729	-118,030	-0,122	0,016
-557,715	-200,000	-0,019	0,086
-556,700	-112,035	0,056	-0,008
-555,685	-53,435	0,085	-0,028
-554,671	27,811	-0,069	-0,042
-553,656	-123,241	0,111	-0,013
-552,642	-7,696	-0,089	0,043
-551,627	-127,228	-0,043	-0,004
-550,612	277,534	-0,126	-0,162
-549,598	61,781	-0,056	0,040
-548,583	-65,726	-0,072	0,021
-547,569	-67,107	0,052	-0,015
-546,554	-78,070	0,068	-0,017
-545,539	-41,825	-0,002	-0,001
-544,525	-82,588	0,070	-0,016
-543,510	547,247	0,073	0,126
-542,496	46,317	-0,026	0,017
-541,481	-200,000	-0,012	0,101
-540,466	800,000	-0,025	-0,076
-539,452	-67,158	0,071	-0,020
-538,437	-128,703	0,076	-0,008
-537,423	-200,000	-0,012	0,178
-536,408	-200,000	0,005	0,040
-535,393	613,142	-0,018	0,032
-534,379	-97,892	0,086	-0,016
-533,364	250,715	0,015	0,018
-532,350	-200,000	0,008	0,074
-531,335	-12,544	0,148	0,069
-530,321	-132,689	-0,074	0,007
-529,306	-200,000	-0,003	0,057
-528,291	-90,864	0,125	-0,026
-527,277	142,407	-0,139	-0,133
-526,262	-200,000	-0,034	-0,138
-525,248	-70,179	0,159	-0,043
-524,233	800,000	0,029	0,087
-523,218	100,491	0,116	-0,097
-522,204	-200,000	0,002	0,090
-521,189	151,250	0,064	0,062
-520,175	-103,045	-0,030	0,005
-519,160	-200,000	-0,045	-0,145
-518,145	83,797	-0,071	-0,055
-517,131	184,859	0,043	-0,046
-516,116	354,559	0,060	0,086
-515,102	-200,000	0,000	-0,058
-514,087	91,371	-0,049	-0,039
-513,072	-200,000	0,007	0,041
-512,058	-59,047	-0,061	0,019
-511,043	-11,180	0,140	-0,066
-510,029	-200,000	0,000	-0,048
-509,014	-50,886	0,064	-0,022
-507,999	800,000	-0,012	0,035
-506,985	800,000	0,044	-0,098
-505,970	121,209	-0,092	0,082
-504,956	125,446	-0,088	0,080
-503,941	-4,575	0,105	-0,052
-502,926	-200,000	-0,005	-0,036
-501,912	79,113	-0,027	-0,021
-500,897	-115,865	0,029	0,004
-499,883	800,000	-0,033	-0,090
-498,868	-87,731	0,118	-0,025
-497,853	-200,000	0,025	-0,087
-496,839	-200,000	0,014	0,055
-495,824	-43,845	0,154	-0,056
-494,810	-3,237	-0,073	0,037
-493,795	-12,672	0,087	-0,041
-492,781	220,567	-0,036	0,042
-491,766	-68,398	-0,110	0,030
-490,751	800,000	-0,045	-0,115
-489,737	-123,961	0,096	0,011
-488,722	-126,478	0,112	0,012
-487,708	-94,411	0,131	0,026
-486,693	-200,000	-0,023	0,136
-485,678	11,410	-0,140	-0,077
-484,664	-200,000	-0,031	-0,117
-483,649	359,596	0,030	-0,043
-482,635	800,000	-0,039	-0,107
-481,620	-200,000	0,021	-0,112
-480,605	800,000	-0,062	-0,145
-479,591	39,247	0,051	-0,033
-478,576	-49,656	-0,063	-0,021
-477,562	-200,000	0,037	-0,126
-476,547	-200,000	-0,028	-0,114
-475,532	-1,447	-0,125	0,063
-474,518	-200,000	0,008	-0,058
-473,503	-51,802	0,060	-0,020
-472,489	210,082	-0,027	-0,030
-471,474	148,764	0,110	0,107
-470,459	-34,556	0,029	0,011
-469,445	336,387	-0,065	-0,091
-468,430	119,644	-0,145	-0,130
-467,416	210,123	-0,045	-0,051
-466,401	800,000	-0,029	-0,067
-465,386	-25,688	0,177	-0,075
-464,372	-200,000	-0,023	0,143
-463,357	-200,000	-0,019	0,065
-462,343	747,310	0,051	0,100
-461,328	-148,266	-0,088	0,005
-460,313	800,000	0,032	0,085
-459,299	-200,000	-0,014	0,068
-458,284	-200,000	-0,009	-0,147
-457,270	343,830	0,064	0,090
-456,255	-200,000	-0,009	-0,038
-455,241	786,396	-0,111	-0,220
-454,226	-66,450	0,043	-0,012
-453,211	-200,000	0,031	0,105
-452,197	210,079	0,008	-0,010
-451,182	800,000	0,030	0,088
-450,168	-47,085	-0,075	-0,026
-449,153	575,150	0,037	0,065
-448,138	-137,138	-0,065	0,005
-447,124	3,206	-0,108	-0,057
-446,109	39,545	0,020	-0,013
-445,095	-200,000	-0,009	-0,139
-444,080	-119,620	-0,058	0,007
-443,065	61,532	0,036	-0,026
-442,051	-89,178	-0,113	-0,024
-441,036	-77,652	-0,146	-0,036
-440,022	-200,000	0,021	-0,096
-439,007	-200,000	0,013	-0,099
-437,992	-200,000	0,006	-0,043
-436,978	-105,138	0,102	-0,017
-435,963	505,533	-0,029	-0,048
-434,949	462,523	-0,077	-0,124
-433,934	800,000	-0,047	-0,109
-432,919	-200,000	-0,001	0,052
-431,905	800,000	-0,037	-0,084
-430,890	-7,079	0,115	0,056
-429,876	136,849	-0,037	0,035
-428,861	-160,057	0,047	-0,002
-427,846	-149,910	0,091	0,005
-426,832	251,156	0,015	-0,018
-425,817	-127,813	-0,085	-0,009
-424,803	800,000	-0,016	0,033
-423,788	800,000	0,016	0,031
-422,773	-55,812	0,142	0,045
-421,759	-200,000	0,019	0,095
-420,744	51,493	-0,042	-0,029
-419,730	-37,857	-0,090	0,034
-418,715	800,000	-0,022	-0,057
-417,701	-85,145	0,105	-0,023
-416,686	800,000	-0,067	0,137
-415,671	62,046	0,164	0,117
-414,657	132,388	0,068	-0,063
-413,642	800,000	0,049	0,145
-412,628	148,658	0,030	0,029
-411,613	-55,263	0,031	-0,010
-410,598	209,240	0,030	-0,034
-409,584	-200,000	-0,004	-0,087
-408,569	7,474	-0,025	0,013
-407,555	140,388	-0,021	0,020
-406,540	283,960	-0,032	0,041
-405,525	-200,000	-0,002	0,189
-404,511	412,814	-0,028	0,043
-403,496	190,473	-0,031	0,033
-402,482	678,865	-0,066	-0,124
-401,467	-200,000	-0,029	-0,111
-400,452	-200,000	0,005	0,104
-399,438	341,568	-0,012	0,017
-398,423	-200,000	-0,011	-0,057
-397,409	-56,368	-0,026	0,008
-396,394	494,475	0,046	-0,076
-395,379	800,000	-0,020	-0,044
-394,365	-147,276	0,104	-0,006
-393,350	610,847	-0,012	-0,023
-392,336	800,000	0,039	0,084
-391,321	800,000	-0,052	-0,148
-390,306	-127,584	-0,132	0,014
-389,292	31,495	0,026	0,016
-388,277	147,845	-0,036	-0,035
-387,263	20,486	0,085	0,049
-386,248	-200,000	0,003	0,052
-385,233	-9,696	0,109	0,052
-384,219	-2,460	-0,064	-0,032
-383,204	-200,000	0,026	-0,104
-382,190	-5,771	-0,031	0,015
-381,175	800,000	-0,028	0,076
-380,160	114,509	-0,074	0,064
-379,146	776,480	-0,043	0,085
-378,131	13,991	0,068	-0,038
-377,117	800,000	0,047	0,114
-376,102	-111,978	-0,169	0,024
-375,088	-200,000	-0,005	-0,086
-374,073	800,000	0,055	0,118
-373,058	206,150	0,116	0,129
-372,044	27,270	0,112	0,067
-371,029	252,696	-0,079	-0,097
-370,015	-200,000	-0,005	0,090
-369,000	-20,509	-0,048	-0,021
-367,985	-109,964	0,039	0,006
-366,971	5,975	0,046	-0,024
-365,956	228,646	0,059	-0,069
-364,942	329,435	0,033	0,046
-363,927	629,779	0,053	0,096
-362,912	121,790	0,085	0,076
-361,898	-8,472	-0,054	-0,026
-360,883	178,298	-0,050	-0,052
-359,869	-200,000	0,011	-0,141
-358,854	104,235	0,103	-0,087
-357,839	148,345	-0,021	0,020
-356,825	-200,000	-0,012	0,052
-355,810	-15,766	0,083	0,038
-354,796	182,338	-0,098	0,104
-353,781	-101,141	-0,065	0,011
-352,766	-200,000	-0,031	-0,144
-351,752	-139,043	-0,070	0,005
-350,737	93,774	0,066	-0,053
-349,723	-200,000	-0,019	0,101
-348,708	-16,657	-0,047	0,021
-347,693	82,473	0,121	0,094
-346,679	800,000	0,009	0,026
-345,664	752,290	-0,031	-0,060
-344,650	-200,000	0,002	0,009
-343,635	-200,000	0,052	0,194
-342,620	93,903	0,055	-0,045
-341,606	-53,527	0,189	0,062
-340,591	161,735	-0,030	0,030
-339,577	446,866	-0,029	-0,046
-338,562	292,392	-0,080	-0,105
-337,548	185,336	-0,022	-0,024
-336,533	492,795	0,076	0,125
-335,518	37,570	0,017	-0,011
-334,504	754,667	0,023	-0,046
-333,489	56,238	0,014	0,010
-332,475	-31,548	0,028	0,011
-331,460	28,051	-0,018	-0,011
-330,445	381,813	-0,054	-0,079
-329,431	-126,385	0,101	-0,011
-328,416	-200,000	0,009	0,206
-327,402	-46,772	-0,100	-0,035
-326,387	-32,335	0,057	0,023
-325,372	401,420	-0,014	-0,021
-324,358	-198,893	-0,041	-0,000
-323,343	-61,775	-0,091	0,027
-322,329	-200,000	-0,002	-0,103
-321,314	-200,000	0,023	0,077
-320,299	197,927	0,079	-0,086
-319,285	-85,267	0,162	-0,036
-318,270	-103,383	-0,140	0,023
-317,256	58,976	-0,178	-0,125
-316,241	540,034	-0,042	0,072
-315,226	-115,839	0,164	0,022
-314,212	189,688	0,126	0,135
-313,197	13,856	0,048	-0,027
-312,183	-200,000	-0,044	-0,210
-311,168	-200,000	-0,010	0,041
-310,153	96,033	-0,049	0,040
-309,139	534,829	0,038	-0,066
-308,124	800,000	0,037	0,101
-307,110	800,000	0,019	0,050
-306,095	25,887	-0,049	-0,029
-305,080	-108,084	-0,049	-0,008
-304,066	-122,418	-0,177	-0,020
-303,051	800,000	-0,017	-0,043
-302,037	-17,514	-0,089	-0,040
-301,022	-98,240	0,084	0,015
-300,008	800,000	-0,012	-0,032
-298,993	1,639	0,042	0,021
-297,978	138,433	-0,083	0,077
-296,964	-200,000	-0,015	0,065
-295,949	-23,349	-0,060	-0,026
-294,935	135,946	-0,105	-0,098
-293,920	446,190	0,035	-0,056
-292,905	-71,626	0,060	-0,016
-291,891	137,995	0,041	0,038
-290,876	-94,986	0,092	0,018
-289,862	-200,000	0,015	0,096
-288,847	-188,673	-0,060	-0,001
-287,832	-200,000	0,009	-0,162
-286,818	139,655	-0,083	0,078
-285,803	182,857	0,061	0,064
-284,789	-20,679	-0,060	0,026
-283,774	-200,000	-0,006	0,022
-282,759	-200,000	-0,021	0,077
-281,745	-200,000	-0,181	-0,000
-280,730	-70,416	-0,091	0,025
-279,716	-22,446	-0,115	-0,050
-278,701	262,942	0,120	-0,149
-277,686	-200,000	-0,017	0,122
-276,672	800,000	-0,013	-0,029
-275,657	-200,000	-0,001	0,119
-274,643	-155,450	-0,139	0,006
-273,628	538,329	0,067	-0,115
-272,613	225,114	0,041	0,047
-271,599	80,853	0,052	0,040
-270,584	800,000	0,060	0,169
-269,570	-200,000	0,009	0,081
-268,555	-9,795	0,049	0,023
-267,540	-109,437	-0,086	-0,013
-266,526	147,417	-0,040	0,039
-265,511	-200,000	0,009	0,054
-264,497	-200,000	-0,003	0,068
-263,482	-200,000	0,001	0,128
-262,467	-200,000	-0,026	0,166
-261,453	707,392	0,030	-0,056
-260,438	-200,000	0,038	0,160
-259,424	-200,000	-0,004	-0,054
-258,409	3,535	0,026	0,014
-257,395	-200,000	0,009	0,033
-256,380	373,407	0,012	0,018
-255,365	800,000	0,047	-0,104
-254,351	202,161	-0,036	0,039
-253,336	182,584	-0,089	0,093
-252,322	-200,000	-0,004	-0,070
-251,307	106,754	0,060	0,051
-250,292	-40,073	-0,164	0,060
-249,278	-164,127	0,149	0,005
-248,263	-40,811	0,076	-0,028
-247,249	290,971	0,087	0,112
-246,234	-39,545	-0,032	-0,012
-245,219	63,845	-0,106	0,076
-244,205	-13,768	-0,176	-0,081
-243,190	-195,359	-0,030	-0,000
-242,176	439,207	0,052	0,081
-241,161	92,192	0,049	0,039
-240,146	-200,000	0,028	0,093
-239,132	-200,000	0,025	0,086
-238,117	-40,181	-0,097	0,036
-237,103	169,340	-0,107	-0,109
-236,088	-82,764	-0,102	-0,023
-235,073	-115,591	0,163	-0,022
-234,059	800,000	-0,047	-0,117
-233,044	611,370	-0,008	-0,014
-232,030	-200,000	0,035	0,133
-231,015	-42,804	0,104	-0,037
-230,000	-200,000	-0,011	0,100
-228,986	-200,000	-0,009	-0,083
-227,971	-200,000	-0,015	-0,084
-226,957	800,000	-0,018	0,044
-225,942	-165,861	0,069	0,002
-224,927	175,041	0,099	-0,102
-223,913	90,973	-0,048	0,039
-222,898	-14,873	-0,073	0,033
-221,884	389,871	0,065	0,097
-220,869	18,379	0,141	0,080
-219,855	-72,425	0,120	0,031
-218,840	-179,053	-0,170	0,003
-217,825	-109,929	0,033	0,005
-216,811	6,519	-0,016	0,009
-215,796	-200,000	0,030	-0,184
-214,782	-200,000	-0,005	0,077
-213,767	-193,254	0,048	-0,000
-212,752	418,928	0,051	0,078
-211,738	-139,842	-0,048	0,004
-210,723	-13,315	-0,056	-0,026
-209,709	-34,837	-0,009	-0,004
-208,694	-200,000	0,009	-0,038
-207,679	-200,000	0,019	0,097
-206,665	800,000	0,037	0,093
-205,650	132,953	-0,054	0,050
-204,636	-200,000	0,015	0,166
-203,621	185,939	0,101	-0,108
-202,606	-200,000	-0,005	-0,045
-201,592	800,000	-0,027	0,070
-200,577	11,177	-0,085	-0,046
-199,563	131,002	0,065	-0,059
-198,548	-136,260	-0,046	0,004
-197,533	-200,000	-0,020	0,175
-196,519	205,592	-0,058	0,064
-195,504	199,344	-0,047	0,052
-194,490	800,000	0,034	0,076
-193,475	-200,000	-0,005	-0,089
-192,460	683,679	-0,049	0,091
-191,446	800,000	0,062	0,142
-190,431	241,958	0,038	0,046
-189,417	800,000	-0,032	-0,084
-188,402	-200,000	0,011	-0,052
-187,387	-113,411	-0,162	-0,022
-186,373	-200,000	0,002	0,010
-185,358	-189,520	-0,058	0,000
-184,344	393,763	0,053	0,079
-183,329	-62,216	0,095	0,028
-182,315	126,242	-0,002	0,002
-181,300	-200,000	0,015	-0,073
-180,285	52,867	0,035	0,023
-179,271	7,535	-0,044	-0,023
-178,256	-123,527	0,118	0,013
-177,242	800,000	0,020	0,042
-176,227	-200,000	0,040	0,180
-175,212	26,048	0,043	-0,026
-174,198	72,909	0,053	0,040
-173,183	86,959	-0,047	-0,037
-172,169	-17,972	-0,073	0,032
-171,154	-58,325	-0,048	0,015
-170,139	800,000	0,041	0,091
-169,125	299,247	-0,072	0,094
-168,110	-91,508	0,073	0,015
-167,096	558,159	0,077	0,132
-166,081	-200,000	0,001	-0,044
-165,066	800,000	0,047	-0,131
-164,052	-200,000	-0,005	-0,041
-163,037	-72,141	0,211	0,055
-162,023	247,096	-0,030	0,036
-161,008	328,938	-0,032	-0,043
-159,993	490,603	-0,028	-0,046
-158,979	-0,919	-0,031	-0,016
-157,964	800,000	0,053	-0,149
-156,950	-200,000	0,006	-0,056
-155,935	800,000	0,036	0,092
-154,920	-200,000	-0,001	0,008
-153,906	800,000	-0,064	0,133
-152,891	-200,000	0,004	0,014
-151,877	-58,868	-0,092	-0,028
-150,862	-200,000	0,009	-0,077
-149,847	800,000	-0,041	-0,091
-148,833	707,942	0,033	-0,063
-147,818	-62,490	-0,037	-0,011
-146,804	161,576	-0,070	0,070
-145,789	25,446	0,006	0,004
-144,775	800,000	0,042	-0,130
-143,760	-23,910	-0,208	0,088
-142,745	-200,000	0,019	-0,073
-141,731	395,736	0,028	0,041
-140,716	-18,188	-0,073	-0,032
-139,702	-121,115	0,131	0,015
-138,687	-200,000	0,001	0,062
-137,672	125,547	-0,019	0,017
-136,658	-102,914	0,041	-0,007
-135,643	-200,000	-0,015	-0,122
-134,629	-200,000	-0,038	-0,127
-133,614	43,626	-0,033	0,022
-132,599	-7,703	0,071	0,034
-131,585	25,982	-0,022	0,013
-130,570	-200,000	-0,009	-0,097
-129,556	128,357	-0,010	0,009
-128,541	362,276	0,045	0,064
-127,526	9,181	0,060	-0,032
-126,512	3,821	-0,035	-0,018
-125,497	27,529	0,045	-0,027
-124,483	-200,000	0,024	0,176
-123,468	-66,281	0,065	0,018
-122,453	-25,452	-0,158	-0,066
-121,439	-200,000	-0,001	0,084
-120,424	415,239	-0,052	-0,079
-119,410	-68,689	0,188	-0,051
-118,395	-200,000	-0,023	0,100
-117,380	306,013	0,052	0,069
-116,366	-109,963	-0,064	-0,009
-115,351	-200,000	-0,001	-0,018
-114,337	-80,981	-0,014	0,003
-113,322	-60,946	-0,033	-0,010
-112,307	-88,792	-0,031	0,007
-111,293	680,265	-0,052	0,097
-110,278	17,050	0,007	-0,004
-109,264	144,487	-0,038	-0,036
-108,249	-189,586	-0,112	0,001
-107,234	-200,000	-0,003	-0,032
-106,220	-97,557	-0,090	-0,016
-105,205	800,000	-0,051	0,103
-104,191	6,279	-0,041	-0,022
-103,176	25,259	-0,036	-0,021
-102,162	-200,000	-0,003	-0,013
-101,147	-32,122	-0,189	-0,075
-100,132	135,770	-0,051	-0,047
-99,118	766,794	-0,061	-0,117
-98,103	-200,000	-0,114	-0,000
-97,089	-200,000	-0,007	0,123
-96,074	800,000	-0,008	-0,017
-95,059	-171,202	0,076	-0,002
-94,045	-61,676	0,130	-0,039
-93,030	800,000	-0,067	-0,153
-92,016	40,558	0,047	-0,030
-91,001	210,793	-0,091	0,102
-89,986	9,918	0,140	-0,075
-88,972	601,087	0,039	0,069
-87,957	-6,517	0,089	0,043
-86,943	-45,217	0,061	0,021
-85,928	166,715	-0,049	0,050
-84,913	498,815	-0,046	-0,076
-83,899	-200,000	-0,020	0,080
-82,884	-200,000	-0,023	0,113
-81,870	-30,884	0,071	0,028
-80,855	-72,594	-0,158	0,041
-79,840	328,540	-0,026	-0,036
-78,826	146,599	-0,121	-0,115
-77,811	-15,146	0,110	-0,050
-76,797	800,000	0,015	0,033
-75,782	799,429	0,020	0,040
-74,767	-200,000	0,002	0,106
-73,753	800,000	-0,019	0,037
-72,738	-148,449	0,052	-0,003
-71,724	278,378	0,104	-0,131
-70,709	-200,000	-0,016	0,088
-69,694	476,349	-0,058	0,093
-68,680	-200,000	0,049	0,174
-67,665	349,314	-0,070	-0,099
-66,651	800,000	0,040	-0,079
-65,636	-140,489	0,102	0,007
-64,622	-113,331	0,095	0,013
-63,607	-200,000	0,037	-0,144
-62,592	53,597	-0,034	0,023
-61,578	800,000	0,053	0,105
-60,563	-200,000	0,027	-0,126
-59,549	-128,563	-0,169	0,017
-58,534	-19,375	-1,592	-0,696
-57,519	433,167	-1,309	-2,018
-56,505	-200,000	-0,560	-4,661
-55,490	177,417	1,016	1,049
-54,476	800,000	4,893	11,522
-53,461	-200,000	19,174	319,688
-52,446	-200,000	740,696	2333,702
-51,432	573,501	1655,607	2869,391
-50,417	78,224	1671,065	1261,468
-49,403	21,269	1543,995	885,430
-48,388	15,170	1466,475	811,313
-47,373	17,934	1456,664	819,215
-46,359	16,669	1446,555	807,432
-45,344	13,418	1441,808	789,178
-44,330	13,297	1440,139	787,651
-43,315	13,322	1438,287	786,725
-42,300	13,375	1436,489	785,964
-41,286	13,408	1435,334	785,458
-40,271	13,327	1434,029	784,326
-39,257	13,313	1432,811	783,564
-38,242	13,353	1431,299	782,894
-37,227	13,402	1430,048	782,414
-36,213	13,375	1428,824	781,584
-35,198	13,412	1427,466	780,987
-34,184	13,391	1426,818	780,503
-33,169	13,345	1425,358	779,454
-32,154	13,417	1424,309	779,189
-31,140	13,433	1422,904	778,466
-30,125	13,455	1421,976	778,033
-29,111	13,417	1420,860	777,210
-28,096	13,402	1419,541	776,390
-27,082	13,362	1418,582	775,645
-26,067	13,309	1417,523	774,785
-25,052	13,332	1416,459	774,279
-24,038	13,323	1415,467	773,666
-23,023	13,287	1414,495	772,932
-22,009	13,279	1413,463	772,301
-20,994	13,270	1412,729	771,828
-19,979	13,259	1411,626	771,144
-18,965	13,268	1410,976	770,801
-17,950	13,284	1409,838	770,220
-16,936	13,301	1408,801	769,706
-15,921	13,242	1407,604	768,746
-14,906	13,224	1406,871	768,229
-13,892	13,286	1405,687	767,842
-12,877	13,214	1405,260	767,240
-11,863	13,236	1404,360	766,821
-10,848	13,253	1403,284	766,282
-9,833	13,183	1402,607	765,557
-8,819	13,238	1401,277	765,059
-7,804	13,144	1400,724	764,286
-6,790	13,143	1399,656	763,667
-5,775	13,189	1398,385	763,161
-4,760	13,164	1397,556	762,561
-3,746	13,135	1396,714	761,936
-2,731	13,090	1395,866	761,237
-1,717	13,119	1394,980	760,857
-0,702	13,145	1393,237	759,995
0,313	16,971	1309,920	732,275
1,327	33,240	703,645	430,946
2,342	50,928	123,359	82,569
3,356	-0,508	16,690	8,353
4,371	4,660	3,252	1,684
5,386	-44,448	0,578	0,204
6,400	-200,000	-0,057	0,312
7,415	15,045	-0,319	-0,176
8,429	126,716	-0,231	-0,207
9,444	316,429	-0,277	-0,371
10,459	43,572	-0,284	-0,183
11,473	-12,428	-0,325	-0,149
12,488	35,685	-0,219	-0,136
13,502	145,204	-0,223	-0,211
14,517	197,710	-0,289	-0,312
15,531	2,944	-0,359	-0,184
16,546	39,261	-0,438	-0,276
17,561	102,332	-0,383	-0,316
18,575	73,338	-0,112	-0,083
19,590	48,588	-0,362	-0,239
20,604	800,000	-0,123	-0,277
21,619	33,121	-0,522	-0,319
22,634	6,489	-0,503	-0,263
23,648	24,580	-0,432	-0,252
24,663	6,166	-0,547	-0,285
25,677	141,886	-0,358	-0,335
26,692	114,611	-0,379	-0,326
27,707	21,887	-0,360	-0,207
28,721	37,191	-0,411	-0,256
29,736	17,051	-0,425	-0,237
30,750	-6,267	-0,413	-0,198
31,765	132,644	-0,340	-0,310
32,780	233,845	-0,369	-0,429
33,794	102,893	-0,334	-0,276
34,809	43,653	-0,392	-0,253
35,823	-12,594	-0,366	-0,168
36,838	40,616	-0,387	-0,246
37,853	216,754	-0,268	-0,302
38,867	334,231	-0,233	-0,319
39,882	175,589	-0,359	-0,367
40,896	184,911	-0,229	-0,240
41,911	72,353	-0,302	-0,222
42,926	96,195	-0,335	-0,270
43,940	-4,048	-0,408	-0,199
44,955	145,234	-0,371	-0,351
45,969	238,008	-0,291	-0,342
46,984	-7,337	-0,394	-0,187
47,999	132,033	-0,168	-0,153
49,013	109,336	-0,229	-0,194
50,028	-44,533	-0,407	-0,143
51,042	227,941	-0,302	-0,346
52,057	47,508	-0,385	-0,253
53,071	181,642	-0,275	-0,285
54,086	59,184	-0,235	-0,163
55,101	171,146	-0,398	-0,402
56,115	73,223	-0,369	-0,272
57,130	132,393	-0,326	-0,296
58,144	80,212	-0,302	-0,228
59,159	168,768	-0,310	-0,312
60,174	11,734	-0,315	-0,170
61,188	-6,111	-0,403	-0,193
62,203	-8,419	-0,332	-0,156
63,217	-5,186	-0,412	-0,199
64,232	139,389	-0,337	-0,312
65,247	196,460	-0,337	-0,362
66,261	39,417	-0,291	-0,183
67,276	6,045	-0,456	-0,237
68,290	-71,454	-0,446	-0,117
69,305	105,223	-0,294	-0,244
70,320	-96,476	-0,388	-0,071
71,334	-17,923	-0,329	-0,144
72,349	97,313	-0,385	-0,311
73,363	-22,680	-0,440	-0,186
74,378	-12,877	-0,413	-0,188
75,393	800,000	-0,112	-0,329
76,407	5,612	-0,284	-0,147
77,422	-56,333	-0,307	-0,095
78,436	-74,672	-0,364	0,091
79,451	38,714	-0,232	-0,145
80,466	112,267	-0,221	-0,188
81,480	39,341	-0,400	-0,251
82,495	145,403	-0,257	-0,242
83,509	324,519	-0,231	-0,311
84,524	144,741	-0,274	-0,257
85,539	706,324	-0,172	-0,321
86,553	29,940	-0,276	-0,165
87,568	194,875	-0,288	-0,308
88,582	44,963	-0,310	-0,200
89,597	76,420	-0,208	-0,154
90,611	6,641	-0,269	-0,140
91,626	32,103	-0,220	-0,133
92,641	-29,533	-0,324	-0,129
93,655	106,372	-0,216	-0,180
94,670	14,027	-0,264	-0,144
95,684	68,549	-0,365	-0,262
96,699	-79,929	-0,301	-0,070
97,714	12,932	-0,325	-0,176
98,728	250,706	-0,191	-0,228
99,743	-60,707	-0,286	-0,085
100,757	-20,471	-0,264	-0,113
101,772	218,632	-0,321	-0,360
102,787	146,044	-0,261	-0,246
103,801	226,670	-0,208	-0,237
104,816	99,190	-0,238	-0,193
105,830	60,416	-0,277	-0,192
106,845	-38,651	-0,310	-0,114
107,860	-147,827	-0,288	0,017
108,874	207,463	-0,174	-0,191
109,889	55,956	-0,297	-0,202
110,903	-3,006	-0,239	-0,116
111,918	139,902	-0,211	-0,195
112,933	-11,837	-0,168	-0,077
113,947	1,577	-0,270	-0,136
114,962	124,772	-0,204	-0,180
115,976	-60,788	-0,330	-0,097
116,991	73,717	-0,252	-0,185
118,006	66,247	-0,332	-0,236
119,020	166,936	-0,191	-0,190
120,035	-38,992	-0,230	-0,084
121,049	64,457	-0,192	-0,135
122,064	18,738	-0,270	-0,151
123,079	-64,839	-0,285	-0,080
124,093	48,954	-0,296	-0,194
125,108	229,774	-0,266	-0,304
126,122	47,860	-0,311	-0,203
127,137	33,460	-0,312	-0,189
128,151	153,967	-0,128	-0,123
129,166	133,070	-0,255	-0,231
130,181	48,620	-0,313	-0,205
131,195	-10,768	-0,311	-0,143
132,210	151,097	-0,257	-0,245
133,224	54,711	-0,198	-0,133
134,239	-16,394	-0,218	-0,096
135,254	464,071	-0,110	-0,173
136,268	-50,405	-0,227	-0,075
137,283	240,087	-0,144	-0,168
138,297	52,736	-0,221	-0,147
139,312	-14,338	-0,318	-0,143
140,327	-15,177	-0,311	-0,138
141,341	139,028	-0,227	-0,208
142,356	141,751	-0,184	-0,170
143,370	99,488	-0,210	-0,169
144,385	102,406	-0,350	-0,286
145,400	339,847	-0,127	-0,173
146,414	94,808	-0,326	-0,259
147,429	81,329	-0,260	-0,196
148,443	255,159	-0,163	-0,196
149,458	272,864	-0,145	-0,180
150,473	86,503	-0,247	-0,190
151,487	128,891	-0,247	-0,220
152,502	56,689	-0,262	-0,178
153,516	-45,534	-0,256	-0,088
154,531	-57,434	-0,203	-0,062
155,546	17,046	-0,349	-0,193
156,560	112,633	-0,154	-0,130
157,575	20,961	-0,174	-0,098
158,589	77,295	-0,253	-0,187
159,604	106,446	-0,261	-0,216
160,619	143,571	-0,202	-0,188
161,633	-43,954	-0,211	-0,074
162,648	211,753	-0,127	-0,140
163,662	24,444	-0,182	-0,105
164,677	140,944	-0,209	-0,193
165,692	328,620	-0,175	-0,235
166,706	800,000	-0,125	-0,256
167,721	176,264	-0,370	-0,375
168,735	136,239	-0,235	-0,214
169,750	71,605	-0,248	-0,180
170,764	85,897	-0,129	-0,099
171,779	-122,265	-0,170	-0,019
172,794	42,858	-0,253	-0,160
173,808	28,472	-0,239	-0,141
174,823	42,547	-0,321	-0,203
175,837	70,521	-0,320	-0,231
176,852	562,040	-0,164	-0,278
177,867	129,084	-0,223	-0,198
178,881	31,477	-0,144	-0,086
179,896	594,029	-0,163	-0,281
180,910	19,787	-0,237	-0,133
181,925	-105,683	-0,280	-0,044
182,940	106,528	-0,379	-0,313
183,954	25,865	-0,250	-0,145
184,969	-49,271	-0,198	-0,065
185,983	488,069	-0,124	-0,198
186,998	71,198	-0,251	-0,181
188,013	-54,839	-0,241	-0,075
189,027	0,138	-0,315	-0,156
190,042	79,217	-0,205	-0,153
191,056	198,537	-0,253	-0,270
192,071	23,175	-0,177	-0,101
193,086	-30,717	-0,309	-0,121
194,100	264,953	-0,149	-0,181
195,115	-11,553	-0,272	-0,124
196,129	46,904	-0,336	-0,217
197,144	48,201	-0,271	-0,176
198,159	800,000	-0,148	-0,322
199,173	251,791	-0,127	-0,150
200,188	143,587	-0,141	-0,130
201,202	-60,074	-0,153	-0,045
202,217	12,590	-0,188	0,101
203,232	-123,990	-0,227	0,025
204,246	670,389	-0,097	-0,175
205,261	110,132	-0,141	-0,117
206,275	14,770	-0,236	-0,128
207,290	311,532	-0,114	-0,149
208,304	-5,264	-0,335	-0,159
209,319	-10,001	-0,124	-0,057
210,334	83,775	-0,183	-0,139
211,348	173,894	-0,169	-0,170
212,363	425,982	-0,165	-0,247
213,377	-113,870	-0,262	-0,035
214,392	597,126	-0,138	-0,238
215,407	69,154	-0,148	-0,106
216,421	519,471	-0,088	-0,143
217,436	68,713	-0,199	-0,142
218,450	-6,317	-0,207	-0,098
219,465	800,000	-0,103	-0,213
220,480	3,083	-0,242	-0,122
221,494	195,829	-0,104	-0,110
222,509	730,115	-0,072	-0,134
223,523	-60,290	-0,184	-0,054
224,538	574,918	-0,151	-0,257
225,553	81,187	-0,271	-0,203
226,567	40,002	-0,234	-0,146
227,582	428,775	-0,110	-0,166
228,596	3,288	-0,115	-0,058
229,611	-11,668	-0,223	-0,101
230,626	355,880	-0,181	-0,251
231,640	-21,502	-0,206	-0,087
232,655	175,259	-0,151	-0,151
233,669	473,041	-0,121	-0,190
234,684	800,000	-0,097	-0,189
235,699	117,581	-0,245	-0,209
236,713	-35,543	-0,190	-0,071
237,728	99,234	-0,097	-0,078
238,742	61,340	-0,245	-0,168
239,757	118,748	-0,208	-0,178
240,772	480,737	-0,166	-0,261
241,786	-6,052	-0,243	-0,115
242,801	135,416	-0,085	-0,077
243,815	697,252	-0,138	-0,252
244,830	183,587	-0,143	-0,147
245,844	-100,119	-0,181	0,031
246,859	301,405	-0,202	-0,259
247,874	24,355	-0,135	-0,077
248,888	129,530	-0,203	-0,179
249,903	272,651	-0,147	-0,180
250,917	356,661	-0,129	-0,179
251,932	126,982	-0,157	-0,138
252,947	-19,117	-0,202	-0,087
253,961	147,317	-0,209	-0,195
254,976	68,317	-0,260	-0,184
255,990	-51,003	-0,232	-0,075
257,005	-152,938	-0,127	0,006
258,020	-137,033	-0,253	0,020
259,034	-149,887	-0,259	-0,014
260,049	6,047	-0,131	-0,067
261,063	-200,000	-0,032	-0,101
262,078	1,115	-0,191	0,094
263,093	38,692	-0,150	-0,093
264,107	-93,765	-0,206	-0,039
265,122	234,001	-0,130	-0,148
266,136	800,000	-0,066	-0,201
267,151	193,757	-0,060	-0,063
268,166	439,917	-0,118	-0,178
269,180	800,000	-0,066	-0,187
270,195	127,567	-0,158	-0,139
271,209	155,941	-0,254	-0,242
272,224	-60,575	-0,181	0,053
273,239	-98,323	-0,164	-0,029
274,253	84,983	-0,134	-0,102
275,268	68,760	-0,089	-0,063
276,282	72,668	-0,209	-0,151
277,297	-103,089	-0,251	-0,041
278,312	92,654	-0,198	-0,154
279,326	46,481	-0,174	-0,112
280,341	-103,145	-0,211	0,034
281,355	723,427	-0,067	-0,123
282,370	161,526	-0,188	-0,181
283,384	167,523	-0,175	-0,171
284,399	83,155	-0,190	-0,143
285,414	49,798	-0,248	-0,161
286,428	75,821	-0,231	-0,168
287,443	800,000	-0,075	-0,190
288,457	136,990	-0,042	-0,038
289,472	-27,522	-0,275	-0,110
290,487	-171,738	-0,226	-0,005
291,501	101,906	-0,292	-0,235
292,516	331,762	-0,181	-0,241
293,530	118,924	-0,159	-0,136
294,545	-72,438	-0,181	-0,046
295,560	-6,804	-0,208	-0,097
296,574	225,437	-0,130	-0,146
297,589	-200,000	-0,002	0,222
298,603	337,497	-0,114	-0,153
299,618	-18,366	-0,242	-0,104
300,633	90,962	-0,166	-0,128
301,647	-67,127	-0,099	0,027
302,662	217,202	-0,115	-0,126
303,676	95,726	-0,161	-0,126
304,691	-122,868	-0,346	-0,038
305,706	-73,399	-0,158	0,039
306,720	652,571	-0,191	-0,338
307,735	61,618	-0,115	-0,079
308,749	-200,000	-0,031	-0,119
309,764	-168,667	-0,090	0,002
310,779	-147,868	-0,148	0,008
311,793	47,292	-0,085	-0,054
312,808	-109,699	-0,201	-0,029
313,822	628,245	-0,115	-0,200
314,837	-7,802	-0,254	-0,117
315,852	-89,501	-0,182	-0,036
316,866	-178,994	-0,253	-0,004
317,881	-23,857	-0,145	-0,059
318,895	800,000	-0,109	-0,233
319,910	46,357	-0,158	-0,101
320,925	43,229	-0,101	0,063
321,939	456,698	-0,147	-0,225
322,954	200,166	-0,174	-0,184
323,968	763,296	-0,037	-0,070
324,983	-200,000	-0,054	-0,199
325,997	800,000	-0,122	-0,247
327,012	213,582	-0,119	-0,130
328,027	213,789	-0,145	-0,158
329,041	-14,597	-0,123	-0,054
330,056	-75,364	-0,116	-0,028
331,070	-110,009	-0,269	0,038
332,085	-93,456	-0,146	-0,028
333,100	-87,538	-0,221	-0,046
334,114	-70,311	-0,142	-0,037
335,129	281,283	-0,165	-0,203
336,143	-149,277	-0,094	-0,005
337,158	-55,691	-0,140	-0,043
338,173	281,607	-0,093	-0,115
339,187	-59,231	-0,142	-0,042
340,202	44,591	-0,137	-0,086
341,216	128,328	-0,206	-0,180
342,231	800,000	-0,142	-0,281
343,246	69,959	-0,181	-0,128
344,260	55,451	-0,084	-0,056
345,275	167,676	-0,191	-0,186
346,289	50,857	-0,134	-0,087
347,304	-160,431	-0,181	-0,007
348,319	-133,081	-0,178	-0,015
349,333	155,761	-0,257	-0,243
350,348	-29,709	-0,229	-0,089
351,362	-75,782	-0,212	0,051
352,377	244,459	-0,066	-0,076
353,392	263,998	-0,114	-0,137
354,406	800,000	-0,045	-0,118
355,421	210,472	1313,386	1416,578
356,435	162,029	1473,950	1417,070
