DTS Sentinel unit serial number:	SN410029Multiplexer serial number:	ORYXHardware model number:	OX2-SRSoftware version number:	ORYX F/W v4,00 Oryx Data Collector v3.7.2.0data status	okinstallation	B3 Nyhavnadifferential loss correction	single-endedforward channel	channel 1reverse channel	N/Adate	2023/12/03time	10:27:30forward acquisition time	300,00reverse acquisition time	0,00gamma	499,1914k internal	0,3201k external	0,3201temperature offset calibration	1,0000default loss term (dB/km)	0,3820temperature slope calibration	1,0000multiplexer offset coefficient	1,0000multiplexer slope coefficient	1,0000fibre end	0,00T internal ref (°C)	13,38T ext. ref 1 (°C)	-1,49T ext. ref 2 (°C)	-1,49length (m)	temperature (°C)	Stokes	anti-Stokes-744,400	602,634	-0,186	-0,338
-743,385	-200,000	0,059	0,274
-742,371	259,746	-0,154	-0,193
-741,356	-200,000	0,026	0,361
-740,342	-200,000	0,000	-0,156
-739,327	-200,000	-0,032	0,327
-738,312	750,314	-0,124	-0,245
-737,298	-200,000	0,002	0,438
-736,283	-200,000	-0,046	-0,263
-735,269	-200,000	0,097	0,341
-734,254	272,058	-0,104	-0,134
-733,239	37,935	-0,247	0,159
-732,225	700,350	-0,133	-0,256
-731,210	-200,000	0,014	0,121
-730,196	-200,000	0,020	0,100
-729,181	-33,051	-0,118	-0,047
-728,167	-37,337	-0,054	-0,021
-727,152	-200,000	0,045	0,265
-726,137	-62,488	-0,025	0,008
-725,123	772,863	-0,019	0,038
-724,108	800,000	0,022	-0,049
-723,094	-77,605	-0,103	0,026
-722,079	337,362	0,044	-0,062
-721,064	-200,000	-0,007	-0,063
-720,050	-40,496	0,039	0,015
-719,035	800,000	-0,048	0,099
-718,021	105,076	-0,093	-0,080
-717,006	-200,000	-0,016	-0,192
-715,991	-27,711	-0,115	0,048
-714,977	-62,203	0,105	0,031
-713,962	294,244	-0,029	0,039
-712,948	800,000	-0,023	-0,060
-711,933	-54,358	0,006	-0,002
-710,918	-200,000	0,034	-0,154
-709,904	-152,015	-0,144	0,008
-708,889	473,821	0,024	-0,040
-707,875	800,000	-0,037	-0,118
-706,860	-156,531	-0,079	-0,004
-705,845	-96,780	0,033	0,006
-704,831	-148,091	-0,063	0,004
-703,816	-200,000	0,023	-0,137
-702,802	-136,796	-0,067	0,006
-701,787	-27,362	0,123	-0,052
-700,772	179,603	0,098	-0,104
-699,758	640,812	-0,050	-0,092
-698,743	-95,661	0,050	0,010
-697,729	38,436	0,168	0,109
-696,714	155,112	0,065	-0,065
-695,699	15,172	-0,138	0,078
-694,685	-200,000	0,012	-0,066
-693,670	-184,497	-0,212	0,002
-692,656	18,076	0,050	0,029
-691,641	35,609	-0,081	-0,051
-690,627	51,615	0,067	0,046
-689,612	84,244	0,063	0,050
-688,597	24,703	-0,072	0,043
-687,583	22,328	-0,014	-0,008
-686,568	202,293	-0,155	-0,173
-685,554	800,000	-0,063	-0,164
-684,539	-118,121	0,152	-0,020
-683,524	800,000	0,030	0,070
-682,510	64,920	0,062	-0,045
-681,495	-11,828	-0,058	-0,028
-680,481	-200,000	-0,015	-0,129
-679,466	-83,331	-0,134	0,031
-678,451	140,968	-0,011	-0,011
-677,437	440,358	0,078	-0,124
-676,422	-77,218	0,063	-0,016
-675,408	-200,000	-0,022	-0,136
-674,393	187,075	-0,079	-0,086
-673,378	183,982	0,099	-0,106
-672,364	-65,124	0,095	-0,028
-671,349	800,000	-0,072	-0,145
-670,335	184,985	-0,066	0,072
-669,320	-77,621	0,047	0,012
-668,305	-200,000	0,012	0,116
-667,291	800,000	0,034	0,078
-666,276	-77,885	-0,039	-0,010
-665,262	-200,000	0,003	-0,045
-664,247	-4,793	-0,040	0,020
-663,232	44,364	0,109	-0,073
-662,218	-118,895	0,175	-0,022
-661,203	-78,855	0,053	-0,013
-660,189	800,000	-0,067	0,149
-659,174	80,498	0,037	-0,029
-658,159	167,558	0,011	0,012
-657,145	800,000	0,007	-0,016
-656,130	26,320	0,087	0,052
-655,116	433,802	-0,040	-0,063
-654,101	221,461	0,042	0,049
-653,086	253,271	0,066	-0,082
-652,072	-183,144	-0,075	-0,001
-651,057	710,460	0,059	-0,114
-650,043	208,546	0,075	0,085
-649,028	-167,945	-0,103	-0,003
-648,014	800,000	0,055	0,163
-646,999	-200,000	-0,011	0,141
-645,984	-200,000	0,025	0,129
-644,970	-200,000	-0,002	-0,050
-643,955	800,000	-0,051	-0,129
-642,941	341,033	-0,019	0,027
-641,926	-98,975	-0,048	-0,009
-640,911	-200,000	0,005	-0,083
-639,897	182,056	0,057	0,061
-638,882	-200,000	0,030	-0,200
-637,868	747,042	-0,028	-0,055
-636,853	195,729	-0,100	-0,110
-635,838	-61,366	-0,067	-0,020
-634,824	-132,140	0,139	0,013
-633,809	-86,357	0,131	-0,029
-632,795	-190,560	0,064	0,000
-631,780	-114,601	0,065	0,009
-630,765	-200,000	0,024	-0,179
-629,751	-29,132	-0,045	0,019
-628,736	55,730	-0,103	-0,072
-627,722	-200,000	-0,012	-0,063
-626,707	-55,819	-0,183	0,059
-625,692	51,886	0,073	0,050
-624,678	-198,979	-0,156	0,001
-623,663	530,114	-0,047	-0,080
-622,649	60,318	0,069	0,049
-621,634	-120,135	-0,092	-0,011
-620,619	-56,345	-0,050	0,016
-619,605	-200,000	0,006	-0,178
-618,590	-28,137	-0,158	-0,066
-617,576	-63,101	0,087	0,026
-616,561	168,503	-0,006	0,007
-615,546	-4,636	-0,145	-0,072
-614,532	-61,719	-0,068	-0,020
-613,517	161,315	0,047	-0,048
-612,503	79,186	-0,051	0,040
-611,488	-88,851	0,077	-0,016
-610,474	-5,941	0,067	0,033
-609,459	407,044	0,070	0,107
-608,444	-200,000	-0,035	0,136
-607,430	-200,000	-0,016	0,141
-606,415	168,345	-0,031	0,032
-605,401	69,293	0,049	0,037
-604,386	95,331	-0,165	0,136
-603,371	221,823	-0,040	-0,046
-602,357	-200,000	0,015	-0,098
-601,342	158,959	0,059	0,060
-600,328	-2,638	-0,160	-0,081
-599,313	185,909	0,028	-0,030
-598,298	335,436	0,042	-0,059
-597,284	37,338	0,104	-0,067
-596,269	800,000	0,019	-0,054
-595,255	800,000	-0,022	-0,045
-594,240	-51,876	0,033	-0,011
-593,225	-200,000	0,004	-0,064
-592,211	-200,000	-0,015	-0,088
-591,196	74,144	0,129	0,098
-590,182	-200,000	-0,035	0,157
-589,167	-33,686	0,074	0,029
-588,152	-79,139	-0,112	-0,027
-587,138	497,482	0,028	0,047
-586,123	54,648	-0,123	0,085
-585,109	-21,859	-0,043	0,019
-584,094	162,716	-0,076	-0,077
-583,079	800,000	-0,017	-0,039
-582,065	-15,502	0,090	0,042
-581,050	107,618	-0,066	-0,057
-580,036	800,000	-0,061	-0,149
-579,021	40,100	-0,081	-0,052
-578,006	-168,222	0,073	-0,002
-576,992	-28,218	-0,080	-0,033
-575,977	-200,000	0,027	0,091
-574,963	-200,000	-0,032	0,169
-573,948	-200,000	0,010	0,088
-572,934	-3,896	0,054	0,027
-571,919	-200,000	0,017	0,077
-570,904	-15,945	-0,111	-0,051
-569,890	800,000	0,015	0,045
-568,875	143,314	-0,100	-0,097
-567,861	-107,455	0,037	0,006
-566,846	465,170	-0,072	0,116
-565,831	304,156	-0,032	-0,043
-564,817	69,959	-0,157	0,117
-563,802	-200,000	0,020	-0,101
-562,788	67,506	-0,065	-0,048
-561,773	718,263	0,061	-0,118
-560,758	-200,000	-0,019	0,099
-559,744	135,683	-0,143	0,135
-558,729	-200,000	0,002	0,046
-557,715	52,191	-0,025	-0,017
-556,700	197,520	-0,042	-0,047
-555,685	-200,000	0,022	0,074
-554,671	-200,000	0,018	0,071
-553,656	-33,449	-0,193	0,077
-552,642	800,000	0,007	-0,018
-551,627	109,392	-0,063	0,054
-550,612	-153,132	0,153	0,008
-549,598	-55,474	-0,090	-0,029
-548,583	744,748	-0,027	-0,053
-547,569	-200,000	-0,019	-0,073
-546,554	105,997	0,116	0,099
-545,539	121,440	0,084	0,075
-544,525	-200,000	-0,016	0,177
-543,510	48,979	-0,048	-0,032
-542,496	386,997	0,059	0,088
-541,481	554,646	0,006	-0,011
-540,466	109,571	0,052	-0,045
-539,452	124,249	0,080	-0,073
-538,437	70,053	0,056	-0,042
-537,423	14,925	-0,065	0,037
-536,408	518,236	-0,033	0,056
-535,393	70,564	-0,149	-0,111
-534,379	36,680	0,082	-0,052
-533,364	353,091	0,043	0,062
-532,350	43,230	0,138	0,091
-531,335	-200,000	0,006	0,102
-530,321	-107,193	-0,023	-0,004
-529,306	141,735	0,128	0,122
-528,291	-200,000	-0,030	-0,117
-527,277	-173,686	-0,085	0,002
-526,262	151,292	-0,136	-0,134
-525,248	-31,704	0,144	-0,058
-524,233	-76,723	-0,120	0,030
-523,218	85,878	0,062	0,049
-522,204	800,000	-0,045	-0,136
-521,189	800,000	-0,061	-0,190
-520,175	216,391	-0,034	0,039
-519,160	-200,000	-0,010	0,053
-518,145	391,744	0,045	-0,067
-517,131	104,707	0,033	0,028
-516,116	43,191	0,115	0,076
-515,102	-200,000	0,024	0,140
-514,087	-200,000	0,012	-0,089
-513,072	556,725	0,062	-0,108
-512,058	322,095	-0,048	-0,066
-511,043	-88,620	-0,054	0,012
-510,029	800,000	-0,010	0,026
-509,014	766,620	0,018	-0,036
-507,999	4,875	-0,009	0,005
-506,985	800,000	0,003	0,008
-505,970	-169,899	-0,178	-0,004
-504,956	-58,867	-0,086	-0,027
-503,941	800,000	-0,018	-0,043
-502,926	-200,000	0,008	-0,029
-501,912	800,000	0,045	0,095
-500,897	-200,000	-0,005	0,053
-499,883	-200,000	-0,010	-0,070
-498,868	195,815	-0,064	0,071
-497,853	68,609	-0,071	-0,053
-496,839	-152,718	-0,067	-0,003
-495,824	-200,000	0,002	0,056
-494,810	-200,000	0,010	0,032
-493,795	25,818	-0,077	0,046
-492,781	-32,556	-0,235	-0,094
-491,766	83,285	0,035	-0,027
-490,751	-200,000	-0,003	-0,033
-489,737	-200,000	-0,010	0,085
-488,722	-113,433	0,082	-0,011
-487,708	797,736	0,032	-0,063
-486,693	-200,000	0,006	0,072
-485,678	550,946	0,028	-0,049
-484,664	-200,000	0,034	0,127
-483,649	222,777	0,080	-0,093
-482,635	-128,735	-0,135	-0,014
-481,620	-19,508	0,099	-0,044
-480,605	21,203	-0,100	-0,058
-479,591	-200,000	0,016	-0,111
-478,576	33,119	-0,105	0,065
-477,562	36,324	-0,052	0,033
-476,547	800,000	-0,035	0,092
-475,532	245,993	0,081	-0,098
-474,518	235,525	0,026	0,030
-473,503	-200,000	-0,001	-0,073
-472,489	800,000	-0,003	0,006
-471,474	65,801	0,012	-0,009
-470,459	66,924	0,089	0,065
-469,445	-37,486	0,071	-0,027
-468,430	83,139	-0,077	0,060
-467,416	-5,954	0,118	-0,058
-466,401	52,917	0,103	0,071
-465,386	-200,000	-0,036	0,173
-464,372	-18,265	0,152	-0,068
-463,357	-48,072	-0,105	-0,036
-462,343	681,352	-0,072	0,135
-461,328	-102,852	-0,140	0,024
-460,313	251,043	0,096	-0,117
-459,299	-58,326	0,069	0,022
-458,284	50,686	0,057	-0,038
-457,270	136,567	-0,061	-0,057
-456,255	-200,000	-0,009	0,113
-455,241	-36,023	-0,103	-0,040
-454,226	800,000	0,025	-0,056
-453,211	-63,480	0,081	-0,024
-452,197	-42,657	0,142	0,052
-451,182	59,650	0,005	0,004
-450,168	126,038	-0,044	0,040
-449,153	34,977	-0,069	-0,043
-448,138	-200,000	0,016	-0,067
-447,124	800,000	-0,017	-0,034
-446,109	206,811	-0,013	-0,015
-445,095	330,185	0,064	-0,089
-444,080	565,857	0,021	0,037
-443,065	-200,000	0,029	0,139
-442,051	273,233	0,058	-0,074
-441,036	-151,305	0,023	0,001
-440,022	150,873	-0,064	-0,063
-439,007	-42,089	0,092	0,034
-437,992	48,812	-0,083	-0,056
-436,978	243,271	0,021	-0,026
-435,963	-200,000	-0,016	0,081
-434,949	343,405	0,074	0,104
-433,934	800,000	0,034	-0,075
-432,919	302,408	-0,052	-0,070
-431,905	800,000	0,059	-0,139
-430,890	-200,000	0,067	-0,224
-429,876	512,948	-0,031	0,052
-428,861	-49,349	0,128	0,044
-427,846	-200,000	0,004	-0,078
-426,832	-58,273	-0,024	-0,007
-425,817	19,486	-0,222	-0,128
-424,803	-200,000	-0,013	0,146
-423,788	26,671	0,107	-0,064
-422,773	-29,617	0,124	-0,051
-421,759	195,475	0,086	0,094
-420,744	800,000	0,037	-0,074
-419,730	800,000	0,025	0,066
-418,715	-200,000	-0,026	-0,127
-417,701	-200,000	0,000	-0,004
-416,686	-200,000	-0,008	-0,035
-415,671	450,091	0,041	0,066
-414,657	-2,972	0,248	0,124
-413,642	-200,000	0,012	0,105
-412,628	-200,000	0,018	-0,130
-411,613	182,742	-0,053	-0,056
-410,598	-68,309	-0,036	-0,010
-409,584	512,391	0,031	-0,052
-408,569	-159,179	0,040	-0,002
-407,555	-200,000	-0,014	0,057
-406,540	-100,139	-0,026	0,005
-405,525	345,470	0,106	0,150
-404,511	-74,400	-0,081	0,021
-403,496	239,216	0,101	-0,121
-402,482	-27,129	0,140	0,058
-401,467	800,000	-0,023	-0,067
-400,452	-200,000	0,039	0,123
-399,438	260,753	0,012	0,015
-398,423	800,000	-0,067	0,138
-397,409	-200,000	0,006	0,095
-396,394	196,996	-0,032	0,035
-395,379	-64,306	-0,087	0,025
-394,365	-52,386	0,126	0,042
-393,350	-200,000	-0,009	-0,111
-392,336	-200,000	-0,114	-0,000
-391,321	-33,770	-0,017	-0,007
-390,306	-117,005	-0,140	0,018
-389,292	-41,218	-0,080	0,029
-388,277	67,987	0,095	-0,070
-387,263	250,805	0,037	0,045
-386,248	800,000	-0,022	0,063
-385,233	15,926	0,078	0,044
-384,219	-200,000	-0,002	-0,079
-383,204	210,386	-0,034	-0,038
-382,190	-200,000	-0,008	-0,165
-381,175	193,483	-0,061	-0,066
-380,160	-71,458	-0,072	-0,019
-379,146	-91,560	0,133	-0,027
-378,131	-141,787	-0,060	-0,004
-377,117	-200,000	-0,016	0,086
-376,102	-4,277	-0,110	0,054
-375,088	800,000	0,006	-0,017
-374,073	-200,000	-0,006	-0,050
-373,058	177,589	0,050	-0,052
-372,044	-132,145	0,110	-0,010
-371,029	110,122	0,070	-0,061
-370,015	119,250	-0,082	-0,073
-369,000	526,589	-0,038	-0,064
-367,985	-150,848	-0,120	0,006
-366,971	173,121	0,061	-0,063
-365,956	291,820	-0,072	-0,094
-364,942	-200,000	0,022	0,133
-363,927	8,521	0,012	-0,006
-362,912	800,000	-0,024	-0,071
-361,898	693,732	-0,108	0,203
-360,883	-200,000	0,019	-0,112
-359,869	-200,000	-0,000	-0,123
-358,854	7,272	0,025	-0,013
-357,839	104,419	0,151	-0,127
-356,825	800,000	0,026	0,081
-355,810	-200,000	0,058	-0,187
-354,796	800,000	-0,121	-0,249
-353,781	1,257	-0,123	-0,063
-352,766	532,114	0,029	0,049
-351,752	370,439	0,054	0,078
-350,737	35,337	0,084	0,052
-349,723	344,473	0,033	0,047
-348,708	-200,000	-0,004	0,096
-347,693	-112,111	0,102	-0,015
-346,679	-107,657	-0,161	-0,025
-345,664	95,874	0,020	-0,016
-344,650	-200,000	-0,005	0,023
-343,635	419,958	-0,045	-0,070
-342,620	-200,000	0,003	-0,015
-341,606	464,443	0,061	0,098
-340,591	800,000	-0,054	0,147
-339,577	-200,000	0,024	-0,075
-338,562	205,071	0,056	-0,062
-337,548	429,240	-0,033	-0,051
-336,533	91,668	-0,067	0,054
-335,518	-67,298	0,027	-0,008
-334,504	-200,000	-0,008	-0,053
-333,489	-131,712	-0,040	-0,004
-332,475	800,000	-0,066	-0,162
-331,460	-159,582	-0,115	0,004
-330,445	-104,593	0,111	-0,018
-329,431	-159,455	0,095	0,004
-328,416	225,728	0,114	0,132
-327,402	-200,000	-0,005	0,055
-326,387	-108,961	-0,137	0,021
-325,372	-74,527	0,075	-0,019
-324,358	269,602	-0,106	-0,133
-323,343	800,000	-0,037	-0,102
-322,329	-75,076	0,070	0,018
-321,314	87,791	0,069	0,055
-320,299	113,164	0,032	0,027
-319,285	-105,806	0,056	0,009
-318,270	-200,000	-0,002	-0,039
-317,256	39,831	-0,105	0,067
-316,241	360,165	0,054	-0,078
-315,226	-176,782	0,130	0,002
-314,212	-112,167	0,058	0,008
-313,197	-200,000	-0,006	-0,088
-312,183	-200,000	-0,003	0,078
-311,168	16,075	-0,203	0,114
-310,153	-200,000	-0,020	-0,076
-309,139	100,763	-0,128	0,106
-308,124	-200,000	0,021	-0,150
-307,110	800,000	-0,053	0,109
-306,095	3,916	-0,065	0,034
-305,080	-29,330	0,036	0,015
-304,066	452,497	0,047	0,075
-303,051	86,081	-0,051	0,040
-302,037	37,854	0,107	-0,068
-301,022	222,940	0,036	-0,042
-300,008	-200,000	0,006	-0,104
-298,993	41,421	0,093	0,060
-297,978	64,068	0,059	0,042
-296,964	225,369	-0,048	0,056
-295,949	155,838	0,082	0,081
-294,935	185,822	0,023	0,024
-293,920	-106,385	0,134	-0,021
-292,905	-200,000	-0,002	-0,035
-291,891	244,458	0,119	0,143
-290,876	268,520	-0,059	0,073
-289,862	-200,000	-0,004	0,135
-288,847	-74,579	-0,127	0,033
-287,832	61,349	0,101	-0,072
-286,818	32,615	-0,023	-0,014
-285,803	800,000	0,055	-0,121
-284,789	-200,000	0,003	0,017
-283,774	-31,437	0,032	0,013
-282,759	-169,353	-0,020	-0,001
-281,745	293,123	0,033	-0,043
-280,730	159,488	-0,068	-0,068
-279,716	-200,000	-0,023	0,117
-278,701	330,965	0,090	0,125
-277,686	144,045	0,027	-0,026
-276,672	-90,131	0,074	-0,015
-275,657	-200,000	0,003	0,158
-274,643	-200,000	0,008	-0,067
-273,628	-60,926	0,038	0,011
-272,613	-200,000	0,020	0,132
-271,599	57,015	-0,057	-0,040
-270,584	-116,241	0,113	0,015
-269,570	-200,000	-0,000	0,006
-268,555	140,793	-0,052	-0,050
-267,540	-57,434	-0,083	0,026
-266,526	800,000	0,049	-0,146
-265,511	82,227	-0,056	-0,043
-264,497	-176,436	0,157	0,003
-263,482	-10,798	-0,151	0,071
-262,467	-127,167	-0,046	0,005
-261,453	-200,000	-0,016	-0,111
-260,438	-103,535	0,098	-0,016
-259,424	-131,856	-0,035	0,003
-258,409	800,000	-0,039	0,085
-257,395	800,000	-0,038	-0,086
-256,380	-54,464	-0,075	-0,024
-255,365	309,870	0,058	0,078
-254,351	-71,347	0,110	-0,029
-253,336	-200,000	-0,008	0,081
-252,322	-79,254	0,040	0,010
-251,307	-24,873	-0,043	-0,018
-250,292	412,947	-0,068	-0,104
-249,278	-184,723	0,034	-0,000
-248,263	628,516	-0,010	-0,018
-247,249	-6,824	0,007	0,004
-246,234	-105,030	-0,080	-0,013
-245,219	-200,000	0,014	-0,105
-244,205	800,000	0,015	-0,045
-243,190	-200,000	0,013	-0,089
-242,176	-77,901	-0,086	-0,021
-241,161	800,000	0,013	0,025
-240,146	-109,560	0,065	-0,010
-239,132	182,521	-0,075	0,079
-238,117	-200,000	0,007	-0,101
-237,103	-103,906	-0,028	-0,005
-236,088	-39,480	-0,076	0,028
-235,073	-200,000	0,015	0,145
-234,059	57,936	-0,150	0,104
-233,044	-200,000	0,053	0,223
-232,030	-0,648	-0,171	0,086
-231,015	800,000	-0,014	-0,032
-230,000	-90,911	0,188	0,038
-228,986	-30,916	0,124	0,050
-227,971	171,656	0,028	0,028
-226,957	-61,149	0,051	0,015
-225,942	232,120	0,020	0,023
-224,927	44,002	0,127	-0,083
-223,913	610,474	-0,022	0,040
-222,898	744,735	0,024	-0,046
-221,884	-34,299	-0,041	-0,016
-220,869	9,850	0,112	0,061
-219,855	-91,410	0,116	0,023
-218,840	-200,000	-0,011	0,046
-217,825	800,000	-0,095	0,217
-216,811	365,523	-0,004	0,006
-215,796	800,000	-0,017	-0,042
-214,782	12,157	0,043	-0,024
-213,767	-29,582	0,130	-0,053
-212,752	288,274	0,068	-0,087
-211,738	-44,386	0,057	-0,020
-210,723	162,551	0,071	-0,071
-209,709	-28,846	0,053	0,022
-208,694	-24,159	-0,096	0,041
-207,679	800,000	-0,056	-0,131
-206,665	41,515	-0,092	-0,059
-205,650	134,495	0,066	-0,061
-204,636	-85,924	-0,066	-0,014
-203,621	-200,000	-0,038	0,173
-202,606	-18,593	-0,104	-0,046
-201,592	159,037	0,077	0,076
-200,577	-133,718	0,072	-0,006
-199,563	-200,000	0,006	0,097
-198,548	800,000	-0,030	0,086
-197,533	-200,000	-0,001	0,035
-196,519	35,938	-0,042	-0,026
-195,504	-172,470	-0,062	-0,001
-194,490	-200,000	0,002	-0,013
-193,475	25,250	-0,071	0,042
-192,460	551,579	0,060	-0,103
-191,446	621,636	-0,060	0,109
-190,431	34,361	0,094	0,058
-189,417	249,439	-0,066	-0,080
-188,402	-84,228	-0,130	0,029
-187,387	352,712	-0,097	-0,137
-186,373	-200,000	-0,007	-0,058
-185,358	-165,490	0,101	0,003
-184,344	-124,453	0,143	0,016
-183,329	23,302	0,090	0,052
-182,315	-105,772	0,082	0,013
-181,300	178,926	-0,074	0,077
-180,285	393,027	0,029	0,043
-179,271	301,863	-0,058	-0,076
-178,256	-158,204	0,102	0,004
-177,242	-5,946	0,032	-0,015
-176,227	-200,000	-0,021	-0,072
-175,212	-200,000	0,019	0,063
-174,198	-74,824	0,012	-0,003
-173,183	-200,000	-0,036	-0,116
-172,169	41,242	0,106	0,068
-171,154	272,366	-0,024	0,030
-170,139	411,157	0,065	0,098
-169,125	-200,000	0,005	0,093
-168,110	56,388	-0,084	0,058
-167,096	-51,879	0,083	0,027
-166,081	42,354	-0,033	0,021
-165,066	-19,917	-0,160	0,070
-164,052	-200,000	0,005	0,075
-163,037	-88,967	-0,064	-0,013
-162,023	-200,000	-0,011	0,048
-161,008	353,295	-0,035	0,049
-159,993	138,450	0,063	0,059
-158,979	5,063	-0,087	-0,046
-157,964	-200,000	-0,013	-0,197
-156,950	28,883	0,107	0,064
-155,935	79,737	0,063	-0,048
-154,920	-200,000	-0,027	-0,093
-153,906	-9,808	0,133	-0,063
-152,891	-144,750	0,088	0,006
-151,877	442,372	0,053	-0,083
-150,862	800,000	-0,028	-0,063
-149,847	41,990	-0,017	-0,011
-148,833	-48,134	0,085	-0,029
-147,818	800,000	-0,045	0,101
-146,804	-138,437	-0,100	-0,008
-145,789	-200,000	-0,014	0,051
-144,775	209,214	-0,093	-0,104
-143,760	-200,000	0,008	-0,149
-142,745	-200,000	-0,013	-0,076
-141,731	-200,000	0,007	-0,138
-140,716	-200,000	0,022	0,139
-139,702	-27,029	0,136	0,056
-138,687	39,292	0,021	0,014
-137,672	-119,146	-0,016	-0,002
-136,658	326,921	-0,039	-0,053
-135,643	-155,188	-0,091	-0,004
-134,629	12,677	-0,057	0,031
-133,614	-44,135	0,022	0,008
-132,599	23,766	0,009	-0,005
-131,585	102,296	0,115	0,095
-130,570	11,472	-0,168	-0,091
-129,556	657,140	0,099	-0,181
-128,541	119,359	-0,020	-0,017
-127,526	750,261	0,065	-0,125
-126,512	-200,000	-0,028	-0,093
-125,497	-4,272	0,190	0,093
-124,483	-200,000	-0,015	0,111
-123,468	55,317	0,132	0,090
-122,453	71,022	-0,119	-0,087
-121,439	50,343	-0,104	-0,069
-120,424	-70,300	-0,067	-0,018
-119,410	32,493	-0,033	0,020
-118,395	209,837	0,017	-0,018
-117,380	800,000	0,043	0,112
-116,366	-80,984	-0,068	-0,016
-115,351	27,326	-0,049	0,029
-114,337	246,494	-0,029	-0,034
-113,322	590,677	0,028	-0,050
-112,307	-200,000	0,019	0,099
-111,293	-173,134	0,124	0,003
-110,278	262,809	0,081	0,100
-109,264	-57,778	-0,064	-0,020
-108,249	-200,000	0,011	-0,045
-107,234	-200,000	0,038	-0,145
-106,220	-40,944	-0,077	-0,028
-105,205	-200,000	0,007	0,076
-104,191	-155,772	0,118	-0,005
-103,176	16,769	0,049	-0,028
-102,162	182,882	0,077	0,081
-101,147	-200,000	0,027	-0,105
-100,132	-85,466	-0,096	-0,021
-99,118	595,906	0,023	-0,041
-98,103	800,000	0,042	0,094
-97,089	525,416	-0,044	0,074
-96,074	88,415	-0,090	-0,071
-95,059	154,989	-0,085	0,083
-94,045	46,498	-0,069	0,045
-93,030	41,432	-0,159	-0,102
-92,016	-58,633	0,075	-0,023
-91,001	-200,000	-0,009	0,069
-89,986	800,000	-0,023	0,050
-88,972	115,585	0,104	0,090
-87,957	178,582	0,018	0,019
-86,943	617,257	-0,025	-0,045
-85,928	140,982	-0,112	0,105
-84,913	375,013	-0,051	-0,073
-83,899	-200,000	-0,006	0,070
-82,884	-101,704	0,085	0,015
-81,870	-200,000	0,009	-0,083
-80,855	501,411	-0,025	0,041
-79,840	-90,256	0,075	0,015
-78,826	-0,748	-0,113	0,057
-77,811	537,094	0,043	-0,073
-76,797	127,235	0,038	-0,035
-75,782	334,493	0,067	-0,093
-74,767	380,896	0,064	0,093
-73,753	-200,000	-0,024	-0,146
-72,738	-0,806	-0,047	-0,024
-71,724	800,000	0,060	0,147
-70,709	107,808	-0,086	0,073
-69,694	-113,815	-0,037	0,005
-68,680	-200,000	-0,019	-0,114
-67,665	129,078	0,039	-0,035
-66,651	-94,979	-0,162	-0,031
-65,636	-200,000	-0,018	-0,063
-64,622	26,954	0,037	-0,022
-63,607	174,027	-0,070	-0,072
-62,592	800,000	-0,028	0,072
-61,578	102,260	0,072	0,059
-60,563	-67,411	0,090	0,025
-59,549	562,923	-0,005	-0,009
-58,534	-28,201	-1,562	-0,636
-57,519	461,086	-1,336	-2,116
-56,505	-200,000	-0,538	-4,424
-55,490	402,907	0,946	1,414
-54,476	800,000	4,890	11,063
-53,461	-200,000	19,045	319,802
-52,446	-200,000	740,118	2335,101
-51,432	574,121	1655,263	2870,410
-50,417	78,379	1671,171	1262,506
-49,403	21,355	1544,147	886,074
-48,388	15,299	1466,330	811,968
-47,373	17,959	1456,634	819,426
-46,359	16,709	1446,483	807,689
-45,344	13,514	1441,898	789,789
-44,330	13,427	1439,789	788,188
-43,315	13,425	1438,286	787,322
-42,300	13,447	1436,563	786,454
-41,286	13,430	1435,484	785,748
-40,271	13,461	1433,926	785,014
-39,257	13,393	1432,776	784,028
-38,242	13,441	1431,521	783,542
-37,227	13,531	1430,003	783,108
-36,213	13,476	1429,050	782,290
-35,198	13,469	1427,671	781,473
-34,184	13,507	1426,901	781,200
-33,169	13,478	1425,444	780,236
-32,154	13,513	1424,432	779,815
-31,140	13,475	1423,087	778,869
-30,125	13,539	1421,919	778,499
-29,111	13,471	1420,728	777,495
-28,096	13,500	1419,720	777,051
-27,082	13,426	1418,612	776,063
-26,067	13,387	1417,603	775,298
-25,052	13,389	1416,581	774,717
-24,038	13,370	1415,520	774,017
-23,023	13,408	1414,311	773,504
-22,009	13,399	1413,482	772,979
-20,994	13,385	1412,467	772,324
-19,979	13,352	1411,939	771,852
-18,965	13,354	1410,879	771,252
-17,950	13,352	1409,883	770,665
-16,936	13,391	1408,965	770,316
-15,921	13,324	1407,889	769,385
-14,906	13,349	1406,780	768,863
-13,892	13,301	1405,944	768,152
-12,877	13,298	1405,127	767,663
-11,863	13,342	1404,132	767,295
-10,848	13,328	1403,214	766,695
-9,833	13,269	1402,467	765,982
-8,819	13,258	1401,640	765,451
-7,804	13,271	1400,616	764,922
-6,790	13,256	1399,649	764,294
-5,775	13,218	1398,670	763,550
-4,760	13,243	1397,484	762,991
-3,746	13,209	1396,990	762,529
-2,731	13,237	1395,964	762,069
-1,717	13,159	1395,093	761,205
-0,702	13,153	1393,391	760,218
0,313	17,022	1310,107	732,695
1,327	33,172	703,881	430,992
2,342	51,455	123,217	82,692
3,356	4,505	16,511	8,543
4,371	1,197	3,228	1,634
5,386	40,248	0,558	0,354
6,400	-200,000	0,032	0,222
7,415	153,123	-0,228	-0,221
8,429	-57,994	-0,211	-0,065
9,444	0,694	-0,403	-0,203
10,459	-2,155	-0,316	-0,157
11,473	23,568	-0,312	-0,181
12,488	473,201	-0,142	-0,227
13,502	53,113	-0,311	-0,210
14,517	229,725	-0,236	-0,273
15,531	89,128	-0,471	-0,370
16,546	39,924	-0,366	-0,232
17,561	-86,791	-0,361	-0,077
18,575	-77,905	-0,185	-0,045
19,590	85,296	-0,316	-0,245
20,604	-88,939	-0,310	-0,064
21,619	30,404	-0,518	-0,312
22,634	310,144	-0,291	-0,385
23,648	50,881	-0,473	-0,316
24,663	133,379	-0,254	-0,232
25,677	66,725	-0,298	-0,214
26,692	15,332	-0,327	-0,180
27,707	312,998	-0,230	-0,306
28,721	89,601	-0,397	-0,312
29,736	92,997	-0,519	-0,414
30,750	266,268	-0,277	-0,342
31,765	67,309	-0,399	-0,287
32,780	193,083	-0,383	-0,409
33,794	-16,635	-0,526	-0,234
34,809	34,739	-0,383	-0,236
35,823	-47,709	-0,392	-0,133
36,838	44,700	-0,267	-0,173
37,853	6,294	-0,463	-0,242
38,867	92,926	-0,361	-0,287
39,882	11,155	-0,309	-0,166
40,896	247,889	-0,227	-0,271
41,911	-19,421	-0,408	-0,178
42,926	180,776	-0,378	-0,392
43,940	56,609	-0,358	-0,245
44,955	58,650	-0,509	-0,352
45,969	-11,555	-0,464	-0,214
46,984	55,649	-0,385	-0,262
47,999	-17,729	-0,378	-0,167
49,013	-24,074	-0,343	-0,144
50,028	-22,538	-0,348	-0,148
51,042	206,276	-0,290	-0,319
52,057	60,270	-0,355	-0,247
53,071	30,566	-0,390	-0,234
54,086	58,434	-0,290	-0,200
55,101	125,867	-0,395	-0,351
56,115	207,086	-0,224	-0,247
57,130	12,646	-0,327	-0,177
58,144	137,262	-0,325	-0,300
59,159	36,199	-0,462	-0,286
60,174	126,761	-0,433	-0,387
61,188	26,409	-0,364	-0,213
62,203	-47,165	-0,378	-0,129
63,217	111,997	-0,301	-0,256
64,232	154,565	-0,251	-0,242
65,247	108,402	-0,357	-0,299
66,261	326,517	-0,307	-0,415
67,276	122,643	-0,314	-0,276
68,290	295,014	-0,243	-0,313
69,305	205,131	-0,218	-0,239
70,320	-54,365	-0,464	-0,147
71,334	198,196	-0,252	-0,272
72,349	-67,054	-0,351	-0,097
73,363	122,841	-0,214	-0,188
74,378	-89,386	-0,447	-0,092
75,393	96,884	-0,311	-0,250
76,407	-11,448	-0,347	-0,160
77,422	76,097	-0,280	-0,208
78,436	33,265	-0,279	-0,169
79,451	-25,197	-0,293	-0,121
80,466	-136,586	-0,292	-0,023
81,480	-30,967	-0,220	-0,087
82,495	56,469	-0,338	-0,231
83,509	116,100	-0,338	-0,291
84,524	-95,403	-0,401	-0,075
85,539	-39,052	-0,225	-0,083
86,553	108,937	-0,251	-0,211
87,568	-1,101	-0,399	-0,198
88,582	281,117	-0,209	-0,263
89,597	4,623	-0,343	-0,176
90,611	26,571	-0,211	-0,124
91,626	173,149	-0,283	-0,286
92,641	117,069	-0,175	-0,151
93,655	-69,313	-0,385	-0,103
94,670	11,923	-0,368	-0,198
95,684	80,697	-0,327	-0,247
96,699	-44,938	-0,326	-0,113
97,714	-76,895	-0,387	-0,094
98,728	279,700	-0,180	-0,226
99,743	138,367	-0,172	-0,158
100,757	137,092	-0,189	-0,174
101,772	3,704	-0,344	-0,176
102,787	236,941	-0,196	-0,228
103,801	242,800	-0,255	-0,300
104,816	114,230	-0,236	-0,201
105,830	-27,609	-0,273	-0,111
106,845	4,755	-0,252	-0,129
107,860	133,784	-0,199	-0,181
108,874	319,397	-0,195	-0,259
109,889	457,640	-0,197	-0,309
110,903	178,358	-0,200	-0,205
111,918	-58,622	-0,199	-0,060
112,933	-158,368	-0,321	-0,013
113,947	78,904	-0,243	-0,182
114,962	-86,018	-0,265	-0,057
115,976	68,140	-0,217	-0,156
116,991	545,056	-0,187	-0,314
118,006	250,392	-0,251	-0,299
119,020	40,281	-0,273	-0,171
120,035	80,999	-0,259	-0,196
121,049	77,884	-0,214	-0,160
122,064	-2,818	-0,305	-0,149
123,079	7,522	-0,259	-0,135
124,093	800,000	-0,122	-0,282
125,108	61,593	-0,245	-0,170
126,122	132,238	-0,170	-0,153
127,137	219,528	-0,196	-0,219
128,151	398,323	-0,134	-0,197
129,166	-16,876	-0,170	-0,075
130,181	75,719	-0,271	-0,200
131,195	82,811	-0,327	-0,248
132,210	48,776	-0,312	-0,205
133,224	42,497	-0,278	-0,177
134,239	140,162	-0,230	-0,212
135,254	321,292	-0,187	-0,250
136,268	54,002	-0,167	-0,112
137,283	-114,417	-0,243	-0,032
138,297	320,462	-0,283	-0,377
139,312	100,251	-0,367	-0,297
140,327	155,121	-0,262	-0,252
141,341	16,650	-0,271	-0,150
142,356	128,608	-0,217	-0,194
143,370	642,427	-0,204	-0,366
144,385	-38,429	-0,295	-0,109
145,400	-200,000	0,022	-0,210
146,414	59,531	-0,281	-0,193
147,429	-27,963	-0,348	-0,140
148,443	83,348	-0,114	-0,087
149,458	50,310	-0,157	-0,103
150,473	142,421	-0,282	-0,262
151,487	-62,472	-0,313	-0,090
152,502	236,185	-0,232	-0,268
153,516	-16,282	-0,262	-0,116
154,531	97,305	-0,348	-0,279
155,546	146,486	-0,402	-0,377
156,560	480,196	-0,129	-0,204
157,575	11,861	-0,203	-0,108
158,589	108,052	-0,201	-0,167
159,604	-2,901	-0,293	-0,142
160,619	398,262	-0,188	-0,276
161,633	173,447	-0,197	-0,198
162,648	557,260	-0,127	-0,215
163,662	-29,322	-0,170	-0,068
164,677	74,330	-0,232	-0,170
165,692	-3,556	-0,287	-0,139
166,706	136,725	-0,225	-0,205
167,721	-51,532	-0,294	-0,095
168,735	172,576	-0,164	-0,165
169,750	39,570	-0,232	-0,144
170,764	184,383	-0,112	-0,116
171,779	70,993	-0,218	-0,157
172,794	149,827	-0,189	-0,179
173,808	34,094	-0,236	-0,143
174,823	268,965	-0,219	-0,268
175,837	163,154	-0,267	-0,261
176,852	-13,815	-0,268	-0,120
177,867	493,932	-0,073	-0,117
178,881	98,762	-0,209	-0,168
179,896	78,523	-0,199	-0,148
180,910	-139,898	-0,376	-0,027
181,925	62,096	-0,291	-0,202
182,940	42,805	-0,298	-0,189
183,954	89,231	-0,273	-0,211
184,969	393,470	-0,144	-0,209
185,983	183,706	-0,270	-0,279
186,998	14,422	-0,126	-0,068
188,013	180,659	-0,188	-0,192
189,027	800,000	-0,038	-0,110
190,042	111,941	-0,238	-0,200
191,056	9,243	-0,305	-0,160
192,071	222,202	-0,239	-0,268
193,086	435,554	-0,114	-0,173
194,100	98,323	-0,141	-0,113
195,115	-2,654	-0,223	-0,108
196,129	96,939	-0,226	-0,180
197,144	87,924	-0,268	-0,206
198,159	123,939	-0,223	-0,195
199,173	474,416	-0,159	-0,251
200,188	205,975	-0,140	-0,151
201,202	-61,556	-0,229	-0,066
202,217	212,322	-0,129	-0,142
203,232	800,000	-0,183	-0,419
204,246	256,715	-0,150	-0,180
205,261	156,688	-0,269	-0,258
206,275	161,471	-0,177	-0,172
207,290	228,784	-0,078	-0,089
208,304	-200,000	0,024	-0,086
209,319	249,827	-0,167	-0,197
210,334	-36,838	-0,264	-0,098
211,348	440,624	-0,154	-0,234
212,363	75,680	-0,187	-0,137
213,377	-41,921	-0,157	-0,056
214,392	-86,589	-0,258	-0,054
215,407	246,933	-0,202	-0,237
216,421	194,897	-0,112	-0,118
217,436	-72,986	-0,190	-0,048
218,450	615,626	-0,137	-0,240
219,465	141,247	-0,175	-0,161
220,480	82,327	-0,281	-0,212
221,494	5,332	-0,040	0,021
222,509	106,204	-0,222	-0,183
223,523	-9,891	-0,237	-0,109
224,538	800,000	-0,113	-0,236
225,553	74,829	-0,152	-0,111
226,567	203,469	-0,244	-0,263
227,582	133,458	-0,302	-0,271
228,596	363,749	-0,246	-0,344
229,611	800,000	-0,102	-0,213
230,626	13,005	-0,232	-0,124
231,640	-8,856	-0,153	-0,071
232,655	259,776	-0,110	-0,131
233,669	-20,532	-0,221	-0,094
234,684	429,661	-0,205	-0,309
235,699	372,043	-0,123	-0,174
236,713	-42,186	-0,259	-0,091
237,728	689,001	-0,119	-0,217
238,742	-83,043	-0,241	-0,053
239,757	-109,781	-0,171	-0,025
240,772	122,600	-0,126	-0,109
241,786	26,113	-0,183	-0,106
242,801	-133,895	-0,201	-0,017
243,815	66,294	-0,161	-0,113
244,830	53,908	-0,140	-0,093
245,844	168,313	-0,187	-0,185
246,859	-78,191	-0,058	-0,014
247,874	12,130	-0,243	-0,129
248,888	179,230	-0,154	-0,156
249,903	800,000	-0,096	-0,194
250,917	40,322	-0,121	-0,075
251,932	-6,075	-0,233	-0,110
252,947	-191,068	-0,237	0,002
253,961	237,498	-0,142	-0,163
254,976	42,573	-0,243	-0,153
255,990	125,709	-0,249	-0,218
257,005	24,750	-0,131	-0,075
258,020	79,518	-0,188	-0,139
259,034	-200,000	0,006	-0,250
260,049	179,729	-0,156	-0,159
261,063	-200,000	-0,059	-0,221
262,078	84,369	-0,196	-0,148
263,093	182,696	-0,220	-0,224
264,107	53,099	-0,228	-0,151
265,122	-107,890	-0,233	-0,035
266,136	-20,793	-0,122	-0,052
267,151	297,278	-0,140	-0,178
268,166	65,556	-0,133	-0,093
269,180	56,633	-0,301	-0,202
270,195	498,306	-0,130	-0,208
271,209	364,800	-0,122	-0,169
272,224	139,059	-0,199	-0,181
273,239	-200,000	-0,025	-0,153
274,253	800,000	-0,078	-0,236
275,268	-12,909	-0,234	-0,105
276,282	331,620	-0,169	-0,226
277,297	-151,324	-0,249	-0,013
278,312	598,574	-0,148	-0,255
279,326	34,070	-0,147	-0,088
280,341	125,128	-0,097	-0,084
281,355	-13,706	-0,222	-0,099
282,370	-87,513	-0,166	0,034
283,384	388,952	-0,178	-0,255
284,399	259,345	-0,130	-0,155
285,414	38,135	-0,227	-0,139
286,428	-164,508	-0,177	0,005
287,443	437,407	-0,037	-0,055
288,457	-200,000	-0,016	-0,145
289,472	800,000	-0,081	-0,175
290,487	800,000	-0,065	-0,136
291,501	212,553	-0,131	-0,142
292,516	200,791	-0,149	-0,158
293,530	60,163	-0,164	-0,112
294,545	1,307	-0,165	-0,081
295,560	-87,957	-0,175	-0,036
296,574	157,858	-0,093	-0,089
297,589	-20,976	-0,175	-0,073
298,603	-57,500	-0,270	-0,081
299,618	170,993	-0,044	-0,043
300,633	157,626	-0,167	-0,160
301,647	108,326	-0,217	-0,178
302,662	-134,593	-0,130	0,011
303,676	254,794	-0,169	-0,199
304,691	-51,881	-0,259	-0,082
305,706	-95,132	-0,141	0,026
306,720	800,000	-0,069	-0,190
307,735	66,032	-0,215	-0,150
308,749	800,000	-0,090	-0,201
309,764	19,091	-0,122	-0,067
310,779	800,000	-0,040	-0,111
311,793	-103,184	-0,103	-0,017
312,808	64,337	-0,151	-0,104
313,822	-200,000	-0,158	0,000
314,837	-155,016	-0,157	0,007
315,852	154,685	-0,079	-0,075
316,866	166,808	-0,026	-0,025
317,881	800,000	-0,111	-0,243
318,895	69,722	-0,151	-0,107
319,910	87,437	-0,193	-0,147
320,925	-200,000	-0,049	-0,186
321,939	-200,000	-0,047	-0,323
322,954	-4,474	-0,146	-0,069
323,968	3,839	-0,219	-0,110
324,983	-200,000	-0,028	-0,214
325,997	800,000	-0,074	-0,172
327,012	800,000	-0,027	-0,076
328,027	-50,892	-0,130	-0,042
329,041	52,493	-0,036	0,024
330,056	-115,178	-0,068	-0,009
331,070	330,584	0,032	0,043
332,085	180,200	-0,142	-0,143
333,100	-92,694	-0,107	-0,020
334,114	1,143	-0,205	-0,101
335,129	-4,179	-0,231	-0,110
336,143	-12,892	-0,109	-0,048
337,158	150,489	-0,106	-0,099
338,173	-200,000	-0,024	-0,074
339,187	473,611	-0,054	-0,084
340,202	342,174	-0,037	-0,050
341,216	447,575	-0,039	-0,059
342,231	-200,000	-0,094	-0,302
343,246	255,075	-0,171	-0,202
344,260	608,758	-0,120	-0,207
345,275	110,789	-0,064	-0,053
346,289	5,582	-0,113	-0,057
347,304	-115,401	-0,146	-0,019
348,319	34,103	-0,088	-0,053
349,333	418,905	-0,131	-0,194
350,348	617,593	-0,120	-0,208
351,362	342,673	-0,161	-0,217
352,377	23,803	-0,089	-0,050
353,392	-52,986	-0,100	-0,031
354,406	-200,000	-0,030	-0,117
355,421	208,293	1313,461	1410,244
356,435	160,270	1474,014	1410,734
