DTS Sentinel unit serial number:	SN410029Multiplexer serial number:	ORYXHardware model number:	OX2-SRSoftware version number:	ORYX F/W v4,00 Oryx Data Collector v3.7.2.0data status	okinstallation	B3 Nyhavnadifferential loss correction	single-endedforward channel	channel 1reverse channel	N/Adate	2023/12/02time	14:42:30forward acquisition time	300,00reverse acquisition time	0,00gamma	499,1914k internal	0,3197k external	0,3197temperature offset calibration	1,0000default loss term (dB/km)	0,3820temperature slope calibration	1,0000multiplexer offset coefficient	1,0000multiplexer slope coefficient	1,0000fibre end	0,00T internal ref (°C)	14,88T ext. ref 1 (°C)	-0,28T ext. ref 2 (°C)	-0,29length (m)	temperature (°C)	Stokes	anti-Stokes-744,400	285,840	-0,181	-0,238
-743,385	267,063	-0,184	0,235
-742,371	800,000	-0,111	-0,264
-741,356	-200,000	-0,043	0,404
-740,342	800,000	-0,055	-0,160
-739,327	-200,000	-0,048	0,319
-738,312	169,768	-0,221	-0,230
-737,298	800,000	0,105	0,234
-736,283	321,037	-0,195	-0,270
-735,269	-200,000	0,089	0,361
-734,254	185,220	-0,243	-0,263
-733,239	32,259	-0,235	0,147
-732,225	800,000	-0,101	-0,311
-731,210	-31,652	0,076	-0,031
-730,196	800,000	0,038	-0,088
-729,181	306,043	-0,072	0,097
-728,167	-8,042	-0,152	-0,074
-727,152	-178,289	-0,102	-0,002
-726,137	85,948	-0,093	0,075
-725,123	800,000	0,029	-0,068
-724,108	256,037	0,089	-0,112
-723,094	351,428	-0,029	-0,042
-722,079	-144,762	0,167	-0,011
-721,064	-172,937	0,011	0,000
-720,050	617,321	-0,031	-0,056
-719,035	-200,000	0,007	-0,069
-718,021	800,000	0,006	-0,014
-717,006	-73,041	-0,129	-0,034
-715,991	-26,641	-0,098	-0,041
-714,977	76,146	-0,072	-0,055
-713,962	800,000	0,038	-0,104
-712,948	-200,000	0,008	-0,048
-711,933	-200,000	-0,010	0,052
-710,918	488,973	0,020	0,033
-709,904	-86,624	-0,070	-0,016
-708,889	-59,186	-0,097	-0,030
-707,875	-84,165	-0,216	-0,049
-706,860	790,174	0,036	-0,073
-705,845	-77,869	-0,037	0,009
-704,831	104,597	0,105	-0,090
-703,816	-200,000	0,010	0,121
-702,802	800,000	-0,002	-0,004
-701,787	-200,000	-0,018	0,171
-700,772	136,906	-0,079	-0,075
-699,758	800,000	0,047	-0,119
-698,743	-200,000	0,009	-0,119
-697,729	-200,000	0,019	0,071
-696,714	-200,000	-0,059	0,206
-695,699	79,358	-0,073	-0,057
-694,685	-200,000	-0,005	-0,078
-693,670	152,789	-0,045	-0,044
-692,656	-200,000	0,017	-0,067
-691,641	34,594	-0,094	0,060
-690,627	-200,000	0,012	-0,141
-689,612	81,005	0,070	-0,055
-688,597	424,556	-0,026	-0,040
-687,583	118,288	0,081	-0,072
-686,568	-200,000	0,005	0,039
-685,554	-200,000	0,022	0,152
-684,539	174,930	0,005	0,006
-683,524	483,822	0,024	0,040
-682,510	-109,625	0,014	0,002
-681,495	-92,664	-0,063	-0,013
-680,481	-110,235	0,085	0,013
-679,466	559,461	-0,046	-0,082
-678,451	-28,605	0,138	-0,057
-677,437	-200,000	0,004	0,028
-676,422	-25,147	0,134	-0,057
-675,408	243,780	-0,037	-0,046
-674,393	-200,000	0,007	-0,030
-673,378	-76,098	0,138	-0,035
-672,364	-200,000	-0,030	-0,101
-671,349	114,632	-0,104	0,092
-670,335	79,138	-0,067	0,052
-669,320	304,839	0,064	0,086
-668,305	353,860	-0,055	0,080
-667,291	557,487	-0,053	-0,093
-666,276	-104,589	-0,213	-0,035
-665,262	-44,180	-0,144	-0,052
-664,247	800,000	0,007	0,016
-663,232	379,160	0,069	-0,102
-662,218	-200,000	-0,020	-0,081
-661,203	-200,000	0,005	-0,041
-660,189	144,059	-0,093	0,090
-659,174	296,163	-0,047	-0,062
-658,159	-117,744	-0,015	0,002
-657,145	-200,000	0,024	0,083
-656,130	-200,000	0,001	0,014
-655,116	98,224	0,033	0,028
-654,101	68,560	-0,049	0,037
-653,086	-41,066	0,081	0,030
-652,072	752,230	0,060	-0,119
-651,057	-63,008	0,020	-0,006
-650,043	228,760	-0,066	-0,078
-649,028	-97,111	-0,083	0,016
-648,014	18,024	0,044	0,026
-646,999	281,456	-0,045	0,058
-645,984	139,909	0,084	-0,080
-644,970	86,384	-0,032	0,026
-643,955	-151,845	-0,078	-0,004
-642,941	403,391	0,034	-0,052
-641,926	-21,548	-0,040	-0,017
-640,911	232,088	-0,032	0,038
-639,897	-42,316	0,085	0,031
-638,882	800,000	0,027	-0,059
-637,868	-200,000	-0,011	-0,042
-636,853	91,207	-0,099	-0,081
-635,838	102,205	0,044	-0,037
-634,824	131,757	-0,077	-0,071
-633,809	-200,000	0,036	0,143
-632,795	800,000	-0,016	0,040
-631,780	240,210	0,051	0,061
-630,765	728,809	0,061	0,118
-629,751	-94,963	0,053	-0,010
-628,736	45,583	-0,131	0,087
-627,722	5,901	0,034	-0,018
-626,707	328,661	-0,076	-0,106
-625,692	-119,284	0,043	0,005
-624,678	800,000	0,010	0,026
-623,663	-200,000	-0,029	0,182
-622,649	800,000	0,019	0,048
-621,634	45,508	-0,084	0,056
-620,619	-200,000	0,031	-0,112
-619,605	732,269	-0,018	-0,036
-618,590	71,183	0,206	0,155
-617,576	-118,391	-0,056	-0,007
-616,561	239,546	0,039	-0,047
-615,546	-107,008	-0,095	0,015
-614,532	-200,000	0,039	-0,126
-613,517	-200,000	-0,017	-0,168
-612,503	436,353	-0,034	-0,053
-611,488	800,000	0,003	-0,006
-610,474	25,687	0,083	0,050
-609,459	800,000	0,046	0,094
-608,444	-200,000	0,001	-0,048
-607,430	114,854	-0,009	-0,008
-606,415	185,707	-0,051	-0,055
-605,401	503,952	0,047	-0,080
-604,386	-183,635	0,045	0,001
-603,371	60,052	-0,091	-0,065
-602,357	-200,000	-0,034	0,136
-601,342	-51,340	-0,114	-0,038
-600,328	196,578	-0,041	-0,045
-599,313	288,321	0,038	-0,049
-598,298	800,000	0,060	0,126
-597,284	-45,799	0,127	0,045
-596,269	-200,000	-0,013	0,117
-595,255	-200,000	0,053	-0,211
-594,240	-159,213	-0,175	-0,007
-593,225	-1,900	-0,045	-0,023
-592,211	-200,000	-0,025	-0,104
-591,196	13,599	0,054	0,030
-590,182	800,000	-0,059	-0,169
-589,167	-129,860	0,107	-0,010
-588,152	103,087	-0,081	-0,069
-587,138	108,724	-0,059	-0,051
-586,123	114,744	-0,101	0,089
-585,109	-200,000	0,031	-0,178
-584,094	-17,446	0,050	-0,022
-583,079	586,189	-0,057	0,102
-582,065	-69,232	0,129	0,036
-581,050	-200,000	-0,001	-0,090
-580,036	800,000	-0,033	0,070
-579,021	420,419	-0,042	-0,066
-578,006	800,000	-0,062	-0,176
-576,992	25,305	0,005	-0,003
-575,977	-200,000	0,009	0,045
-574,963	-12,395	0,054	0,025
-573,948	589,403	0,052	0,093
-572,934	-17,210	-0,086	-0,039
-571,919	-200,000	0,007	-0,038
-570,904	-92,351	-0,153	-0,031
-569,890	-200,000	0,017	-0,066
-568,875	125,478	-0,086	-0,079
-567,861	-147,822	-0,053	0,003
-566,846	12,246	0,130	0,072
-565,831	-200,000	0,003	0,010
-564,817	346,187	-0,118	0,169
-563,802	263,473	-0,005	0,007
-562,788	284,924	0,042	-0,055
-561,773	-200,000	0,035	0,168
-560,758	800,000	-0,039	-0,082
-559,744	800,000	0,040	0,086
-558,729	354,606	0,029	-0,041
-557,715	114,774	0,034	-0,030
-556,700	228,637	-0,071	0,083
-555,685	162,329	-0,110	-0,112
-554,671	800,000	-0,024	0,061
-553,656	800,000	-0,057	-0,146
-552,642	-21,992	-0,097	0,042
-551,627	168,422	-0,059	0,061
-550,612	-200,000	-0,001	-0,060
-549,598	124,437	-0,038	0,035
-548,583	-200,000	0,004	-0,107
-547,569	-54,739	-0,087	0,028
-546,554	-200,000	0,022	0,076
-545,539	800,000	0,027	-0,087
-544,525	332,549	-0,043	-0,060
-543,510	774,845	0,040	-0,080
-542,496	53,370	-0,114	-0,079
-541,481	-2,358	-0,083	-0,042
-540,466	-200,000	0,007	-0,084
-539,452	-200,000	0,020	-0,112
-538,437	800,000	0,026	0,068
-537,423	47,995	0,076	0,051
-536,408	302,187	0,045	0,060
-535,393	446,142	-0,059	-0,094
-534,379	800,000	-0,032	-0,100
-533,364	-157,459	0,048	-0,002
-532,350	138,274	0,061	0,057
-531,335	-168,259	-0,139	0,004
-530,321	-200,000	-0,015	0,155
-529,306	163,323	-0,018	0,018
-528,291	800,000	0,056	-0,122
-527,277	16,354	-0,107	-0,061
-526,262	-44,415	0,101	0,036
-525,248	-165,412	0,080	-0,002
-524,233	800,000	-0,024	0,066
-523,218	-37,226	-0,071	-0,027
-522,204	489,057	0,044	0,072
-521,189	-200,000	-0,025	-0,121
-520,175	-49,426	-0,157	-0,054
-519,160	-14,535	0,058	-0,027
-518,145	-61,011	0,127	0,038
-517,131	-200,000	-0,004	0,156
-516,116	-64,583	0,010	0,003
-515,102	-200,000	-0,002	0,058
-514,087	-86,743	-0,090	-0,020
-513,072	80,133	-0,078	-0,060
-512,058	-13,867	0,044	0,021
-511,043	-109,540	0,019	0,003
-510,029	-71,155	0,172	-0,046
-509,014	-200,000	-0,023	0,226
-507,999	-57,362	-0,116	0,037
-506,985	-141,376	-0,009	-0,001
-505,970	-200,000	0,012	-0,096
-504,956	-200,000	0,008	-0,053
-503,941	114,327	-0,040	-0,036
-502,926	800,000	0,051	0,146
-501,912	-145,136	-0,179	-0,012
-500,897	-200,000	0,032	-0,143
-499,883	-200,000	-0,014	-0,092
-498,868	336,551	0,053	-0,074
-497,853	-108,233	0,105	0,016
-496,839	-53,818	-0,019	0,006
-495,824	-133,053	0,074	0,007
-494,810	-95,749	-0,141	0,027
-493,795	250,836	0,043	0,053
-492,781	-49,291	-0,073	-0,025
-491,766	-200,000	-0,001	-0,143
-490,751	800,000	-0,048	-0,129
-489,737	35,706	0,066	0,042
-488,722	15,119	-0,070	0,039
-487,708	-200,000	0,000	0,007
-486,693	94,803	0,063	0,052
-485,678	-141,848	0,069	0,005
-484,664	-182,537	-0,176	0,002
-483,649	800,000	-0,029	-0,065
-482,635	-170,860	0,080	-0,002
-481,620	800,000	-0,013	0,035
-480,605	-200,000	-0,016	-0,057
-479,591	800,000	-0,060	0,136
-478,576	-200,000	0,009	0,040
-477,562	-200,000	0,004	-0,027
-476,547	69,178	-0,054	-0,040
-475,532	-200,000	-0,028	0,116
-474,518	800,000	0,063	0,172
-473,503	-200,000	-0,004	0,155
-472,489	-60,709	0,073	0,022
-471,474	-200,000	0,004	0,084
-470,459	-200,000	0,036	-0,133
-469,445	-102,372	-0,079	-0,014
-468,430	359,877	-0,051	-0,074
-467,416	-125,796	0,081	-0,009
-466,401	-66,915	-0,088	0,025
-465,386	-200,000	-0,016	-0,157
-464,372	246,231	0,123	0,150
-463,357	-118,366	-0,074	-0,009
-462,343	135,929	-0,099	-0,093
-461,328	0,064	0,070	0,036
-460,313	-2,176	0,076	-0,038
-459,299	-50,895	-0,104	-0,035
-458,284	108,256	0,040	0,034
-457,270	-200,000	0,015	0,071
-456,255	369,234	0,037	-0,055
-455,241	-90,752	-0,203	-0,042
-454,226	-86,642	0,077	-0,017
-453,211	-200,000	0,009	0,174
-452,197	-107,173	0,137	0,021
-451,182	-200,000	-0,008	0,072
-450,168	-200,000	0,034	0,117
-449,153	800,000	0,055	-0,150
-448,138	800,000	-0,003	0,006
-447,124	175,036	0,075	-0,078
-446,109	-200,000	-0,003	-0,067
-445,095	-200,000	-0,026	0,112
-444,080	-107,278	-0,045	-0,007
-443,065	-134,659	0,120	0,010
-442,051	-86,264	0,052	-0,011
-441,036	160,789	-0,143	-0,144
-440,022	-125,226	0,051	-0,006
-439,007	-200,000	-0,026	-0,125
-437,992	-55,801	-0,020	-0,006
-436,978	800,000	0,041	0,083
-435,963	91,987	-0,139	-0,113
-434,949	-128,395	0,119	0,012
-433,934	182,526	-0,067	-0,071
-432,919	800,000	0,034	-0,068
-431,905	51,476	-0,103	-0,070
-430,890	-79,340	-0,105	-0,025
-429,876	-200,000	0,017	0,091
-428,861	49,199	-0,048	0,032
-427,846	-32,777	0,110	-0,044
-426,832	-171,640	-0,073	-0,002
-425,817	171,228	-0,058	-0,060
-424,803	140,346	-0,042	-0,040
-423,788	11,734	0,113	0,062
-422,773	800,000	0,044	0,108
-421,759	800,000	-0,021	0,045
-420,744	29,913	-0,093	0,057
-419,730	-124,061	-0,135	-0,015
-418,715	141,531	0,085	0,081
-417,701	6,263	-0,067	-0,036
-416,686	57,223	0,053	-0,037
-415,671	635,601	-0,075	0,137
-414,657	533,303	-0,031	0,054
-413,642	69,706	0,061	-0,045
-412,628	800,000	0,028	-0,085
-411,613	800,000	-0,031	-0,093
-410,598	729,154	-0,031	0,060
-409,584	278,436	0,015	-0,019
-408,569	-180,875	0,105	-0,001
-407,555	-200,000	0,025	0,134
-406,540	222,154	-0,050	-0,058
-405,525	112,402	0,053	-0,046
-404,511	277,936	-0,077	-0,099
-403,496	46,464	-0,059	-0,039
-402,482	426,422	0,067	0,103
-401,467	-200,000	0,064	0,213
-400,452	210,234	0,135	0,152
-399,438	-168,429	0,100	0,003
-398,423	270,344	-0,041	0,052
-397,409	800,000	0,025	-0,075
-396,394	160,120	-0,074	-0,074
-395,379	800,000	-0,011	-0,025
-394,365	156,720	0,021	0,021
-393,350	-200,000	0,042	0,146
-392,336	800,000	-0,052	0,105
-391,321	-43,453	0,136	0,049
-390,306	-200,000	-0,008	-0,115
-389,292	-200,000	-0,013	-0,060
-388,277	-96,650	-0,078	-0,015
-387,263	-108,846	0,001	0,000
-386,248	88,246	0,058	0,046
-385,233	-117,397	-0,095	-0,012
-384,219	800,000	0,021	-0,058
-383,204	-200,000	0,005	-0,048
-382,190	250,863	0,031	-0,037
-381,175	46,647	-0,116	-0,077
-380,160	-200,000	-0,004	0,077
-379,146	19,615	0,108	0,062
-378,131	174,235	-0,066	-0,068
-377,117	53,900	0,086	-0,059
-376,102	-200,000	-0,006	-0,062
-375,088	-27,376	-0,073	0,030
-374,073	-200,000	-0,013	-0,167
-373,058	-200,000	-0,026	0,098
-372,044	-80,685	0,061	0,014
-371,029	-200,000	-0,012	0,133
-370,015	-23,148	0,086	0,037
-369,000	-88,853	-0,073	-0,015
-367,985	800,000	-0,039	0,103
-366,971	-72,768	-0,159	0,042
-365,956	-143,768	-0,126	0,008
-364,942	-200,000	-0,034	0,174
-363,927	-12,481	-0,104	0,048
-362,912	22,782	-0,019	0,011
-361,898	-200,000	-0,024	0,187
-360,883	-44,917	0,051	-0,018
-359,869	168,989	0,048	0,049
-358,854	-58,206	0,134	0,042
-357,839	-88,059	-0,060	-0,013
-356,825	190,447	0,091	0,098
-355,810	-50,011	-0,053	-0,018
-354,796	-115,388	0,086	-0,012
-353,781	800,000	-0,030	-0,094
-352,766	-18,219	-0,064	0,029
-351,752	-200,000	-0,004	0,047
-350,737	-49,067	0,076	0,026
-349,723	-200,000	-0,027	0,088
-348,708	-0,680	0,149	0,076
-347,693	-164,951	0,077	0,002
-346,679	-95,475	-0,130	0,025
-345,664	-200,000	0,025	0,188
-344,650	800,000	-0,055	-0,116
-343,635	109,727	-0,015	-0,013
-342,620	-200,000	-0,019	-0,101
-341,606	-200,000	0,015	0,057
-340,591	-200,000	0,002	0,029
-339,577	61,251	0,093	-0,066
-338,562	-200,000	-0,027	-0,127
-337,548	82,681	0,078	-0,061
-336,533	149,438	0,087	0,085
-335,518	48,666	-0,115	0,077
-334,504	-200,000	0,003	-0,144
-333,489	286,886	0,032	0,041
-332,475	-98,036	-0,043	0,008
-331,460	63,132	-0,026	-0,019
-330,445	-165,976	0,076	0,002
-329,431	-144,362	-0,078	0,005
-328,416	467,321	0,070	0,113
-327,402	-69,942	-0,011	-0,003
-326,387	-25,505	-0,124	0,052
-325,372	-54,193	0,155	-0,050
-324,358	58,664	-0,073	-0,051
-323,343	-200,000	0,009	-0,044
-322,329	-200,000	0,010	-0,047
-321,314	-105,893	0,088	0,014
-320,299	90,496	0,088	0,071
-319,285	239,916	0,029	0,034
-318,270	-200,000	0,006	0,019
-317,256	-200,000	-0,011	-0,113
-316,241	-200,000	0,012	-0,070
-315,226	756,725	-0,051	-0,099
-314,212	800,000	0,021	0,050
-313,197	2,219	-0,062	0,032
-312,183	-94,430	0,148	0,029
-311,168	123,139	0,066	-0,059
-310,153	91,025	-0,011	0,009
-309,139	-12,728	0,112	0,052
-308,124	-162,659	0,047	0,002
-307,110	108,425	0,076	-0,065
-306,095	148,584	0,101	0,098
-305,080	800,000	0,016	0,050
-304,066	-200,000	-0,013	-0,098
-303,051	-200,000	0,009	-0,148
-302,037	49,380	0,045	-0,030
-301,022	293,548	0,045	-0,059
-300,008	197,447	-0,043	-0,047
-298,993	800,000	-0,020	-0,042
-297,978	-189,696	0,068	0,001
-296,964	-184,793	-0,080	0,001
-295,949	516,825	0,121	-0,204
-294,935	773,263	-0,050	0,099
-293,920	-119,963	-0,045	0,006
-292,905	334,291	-0,073	0,101
-291,891	410,425	0,056	0,086
-290,876	800,000	-0,042	-0,108
-289,862	122,697	-0,073	0,066
-288,847	351,874	0,050	-0,071
-287,832	61,900	-0,079	-0,056
-286,818	800,000	-0,030	-0,074
-285,803	301,482	0,038	-0,050
-284,789	800,000	0,040	0,128
-283,774	800,000	0,038	0,080
-282,759	-200,000	-0,002	0,123
-281,745	325,435	-0,111	-0,152
-280,730	37,179	-0,045	-0,028
-279,716	446,734	0,039	0,062
-278,701	800,000	-0,042	0,109
-277,686	-124,791	0,043	0,005
-276,672	-200,000	0,040	0,154
-275,657	253,230	0,089	0,108
-274,643	148,395	0,058	0,056
-273,628	749,710	-0,010	0,020
-272,613	-71,194	-0,081	-0,022
-271,599	-200,000	-0,005	-0,048
-270,584	499,681	0,057	-0,095
-269,570	317,985	0,054	0,073
-268,555	-200,000	-0,002	0,082
-267,540	-200,000	0,012	-0,056
-266,526	-200,000	0,011	-0,047
-265,511	-92,676	-0,069	-0,014
-264,497	52,327	-0,051	0,035
-263,482	602,232	0,059	0,105
-262,467	366,819	0,062	-0,089
-261,453	494,808	-0,045	-0,074
-260,438	77,502	-0,072	0,054
-259,424	-200,000	0,034	-0,156
-258,409	-35,517	-0,054	-0,021
-257,395	86,392	0,093	0,074
-256,380	800,000	0,010	-0,021
-255,365	-23,100	0,015	0,006
-254,351	-200,000	0,022	0,130
-253,336	-200,000	0,003	-0,067
-252,322	171,664	0,122	-0,125
-251,307	800,000	0,037	0,110
-250,292	-99,514	0,040	-0,007
-249,278	800,000	-0,026	-0,064
-248,263	-200,000	0,007	0,142
-247,249	-200,000	0,005	0,071
-246,234	-200,000	-0,020	-0,099
-245,219	-3,683	-0,162	-0,080
-244,205	-200,000	0,016	-0,127
-243,190	-200,000	0,004	0,082
-242,176	46,750	0,099	0,065
-241,161	-95,715	0,199	0,038
-240,146	-58,686	0,158	0,049
-239,132	177,604	-0,103	-0,107
-238,117	-200,000	0,028	-0,133
-237,103	-200,000	-0,006	-0,019
-236,088	800,000	-0,047	-0,098
-235,073	84,282	-0,025	-0,019
-234,059	342,934	-0,066	0,092
-233,044	109,037	0,123	0,105
-232,030	100,673	0,031	-0,026
-231,015	-6,349	-0,114	0,055
-230,000	800,000	0,010	-0,028
-228,986	30,649	0,069	0,042
-227,971	-46,599	0,105	-0,037
-226,957	-200,000	0,019	0,148
-225,942	-17,027	-0,052	-0,024
-224,927	253,884	0,030	0,037
-223,913	429,487	-0,085	-0,131
-222,898	-35,555	0,043	-0,017
-221,884	-52,239	0,055	0,018
-220,869	-90,517	0,222	0,045
-219,855	480,129	0,080	-0,130
-218,840	-200,000	0,010	0,032
-217,825	85,412	0,080	0,063
-216,811	-73,876	-0,099	-0,025
-215,796	55,579	-0,073	-0,050
-214,782	538,491	-0,083	-0,141
-213,767	543,521	0,044	0,075
-212,752	-200,000	-0,000	0,016
-211,738	311,817	0,047	0,063
-210,723	-142,076	-0,101	0,007
-209,709	-142,113	0,074	-0,005
-208,694	-6,204	-0,115	-0,056
-207,679	-200,000	0,012	0,064
-206,665	161,514	0,036	-0,036
-205,650	-193,684	0,069	-0,000
-204,636	-28,786	-0,023	-0,009
-203,621	-25,312	0,092	0,039
-202,606	56,764	-0,079	-0,055
-201,592	176,050	0,003	-0,004
-200,577	28,021	-0,151	-0,091
-199,563	501,735	-0,039	-0,065
-198,548	141,867	-0,023	0,021
-197,533	-200,000	-0,002	0,147
-196,519	-3,017	-0,043	0,021
-195,504	-122,559	0,110	0,013
-194,490	49,472	-0,096	-0,064
-193,475	-57,949	-0,044	0,014
-192,460	364,531	-0,038	0,054
-191,446	-42,237	-0,105	0,038
-190,431	23,681	0,046	0,027
-189,417	201,600	0,058	-0,064
-188,402	169,812	-0,054	0,055
-187,387	-90,194	-0,112	-0,023
-186,373	800,000	0,026	-0,070
-185,358	-99,475	-0,103	-0,018
-184,344	148,750	0,051	0,050
-183,329	-175,426	0,089	-0,002
-182,315	-22,998	0,101	-0,043
-181,300	-200,000	-0,003	0,077
-180,285	-109,429	0,033	-0,005
-179,271	338,150	-0,033	-0,046
-178,256	114,453	0,075	-0,065
-177,242	274,076	-0,044	0,056
-176,227	-200,000	0,055	0,205
-175,212	-156,150	-0,157	0,007
-174,198	233,998	-0,142	0,167
-173,183	-200,000	0,014	-0,056
-172,169	154,191	0,036	-0,036
-171,154	-85,916	0,092	0,020
-170,139	-157,490	0,070	0,003
-169,125	163,900	0,056	0,057
-168,110	-44,916	0,071	-0,025
-167,096	20,947	0,098	0,057
-166,081	245,867	-0,067	-0,080
-165,066	800,000	0,050	-0,100
-164,052	800,000	0,038	0,100
-163,037	-200,000	-0,001	0,153
-162,023	800,000	-0,022	-0,060
-161,008	-79,357	-0,058	-0,014
-159,993	228,936	0,075	-0,088
-158,979	-200,000	-0,013	-0,108
-157,964	-28,963	-0,063	-0,026
-156,950	-4,824	0,103	-0,050
-155,935	-121,537	0,204	0,024
-154,920	-50,818	-0,205	0,068
-153,906	64,107	0,088	-0,063
-152,891	-76,895	-0,115	0,028
-151,877	-128,099	0,057	0,006
-150,862	280,045	-0,046	-0,059
-149,847	-200,000	-0,028	-0,107
-148,833	69,600	0,063	-0,046
-147,818	-200,000	0,038	0,138
-146,804	166,700	0,081	-0,082
-145,789	-94,730	-0,039	-0,008
-144,775	-103,743	-0,071	0,012
-143,760	292,333	0,041	-0,053
-142,745	-200,000	0,002	0,025
-141,731	-200,000	0,006	0,213
-140,716	90,470	0,089	0,071
-139,702	-200,000	0,017	-0,162
-138,687	52,474	0,063	0,043
-137,672	-200,000	0,008	-0,057
-136,658	-38,686	-0,026	-0,010
-135,643	-200,000	-0,024	-0,212
-134,629	-157,378	-0,189	-0,008
-133,614	800,000	0,031	-0,086
-132,599	747,016	0,026	0,049
-131,585	232,314	-0,037	0,043
-130,570	-56,123	-0,057	0,018
-129,556	369,704	-0,028	-0,041
-128,541	-86,033	-0,073	-0,016
-127,526	196,768	-0,021	0,023
-126,512	-87,631	0,142	0,030
-125,497	188,512	0,097	0,103
-124,483	689,469	-0,005	0,010
-123,468	800,000	-0,034	0,092
-122,453	126,260	-0,118	0,106
-121,439	2,781	0,150	0,077
-120,424	-200,000	-0,011	-0,117
-119,410	800,000	0,015	-0,033
-118,395	168,955	-0,052	0,053
-117,380	158,809	0,093	-0,091
-116,366	800,000	0,045	-0,092
-115,351	-33,745	0,076	0,030
-114,337	114,852	-0,085	-0,074
-113,322	-136,067	-0,135	0,011
-112,307	-164,705	-0,037	-0,001
-111,293	-62,957	0,044	0,013
-110,278	56,234	0,046	0,032
-109,264	-200,000	-0,013	0,072
-108,249	-127,633	-0,050	0,005
-107,234	361,461	-0,006	-0,008
-106,220	-99,047	0,116	-0,021
-105,205	783,589	0,046	0,089
-104,191	96,340	0,092	0,074
-103,176	800,000	0,058	0,141
-102,162	-58,375	-0,088	-0,027
-101,147	58,671	-0,078	-0,055
-100,132	800,000	-0,068	-0,145
-99,118	-200,000	0,046	0,147
-98,103	356,946	0,061	-0,086
-97,089	-200,000	-0,005	-0,067
-96,074	680,724	0,038	-0,071
-95,059	-110,204	0,104	-0,015
-94,045	373,832	-0,061	0,088
-93,030	368,067	-0,101	-0,145
-92,016	-26,587	-0,110	-0,045
-91,001	292,785	0,061	-0,079
-89,986	800,000	0,019	0,058
-88,972	294,044	0,053	0,069
-87,957	141,643	0,017	0,016
-86,943	137,840	-0,032	-0,029
-85,928	8,528	-0,065	-0,035
-84,913	-58,294	0,017	-0,005
-83,899	75,438	-0,032	0,024
-82,884	307,703	-0,020	0,026
-81,870	-11,317	-0,073	0,034
-80,855	-81,946	0,122	0,028
-79,840	-200,000	-0,018	-0,201
-78,826	-116,169	0,021	-0,003
-77,811	4,992	-0,029	0,015
-76,797	-200,000	0,010	-0,055
-75,782	176,382	-0,025	-0,026
-74,767	24,941	0,122	0,071
-73,753	-54,186	0,045	-0,015
-72,738	-106,800	-0,079	-0,012
-71,724	248,295	0,024	0,029
-70,709	-52,961	-0,116	-0,038
-69,694	-200,000	0,004	-0,037
-68,680	800,000	0,036	0,099
-67,665	-58,036	0,100	0,031
-66,651	79,267	0,011	0,008
-65,636	-200,000	0,001	0,074
-64,622	103,338	0,101	0,084
-63,607	67,029	-0,050	-0,036
-62,592	-105,760	0,087	-0,014
-61,578	73,031	0,065	-0,048
-60,563	-66,686	0,143	0,040
-59,549	800,000	0,005	-0,011
-58,534	-56,573	-1,744	-0,545
-57,519	410,662	-1,472	-2,219
-56,505	-200,000	-0,480	-4,524
-55,490	142,934	0,990	0,933
-54,476	800,000	4,744	11,153
-53,461	-200,000	18,415	290,087
-52,446	800,000	728,115	2237,364
-51,432	557,653	1643,892	2820,396
-50,417	79,162	1665,209	1263,230
-49,403	22,768	1538,773	891,050
-48,388	16,773	1461,686	817,362
-47,373	17,882	1451,901	817,206
-46,359	17,264	1442,326	808,825
-45,344	15,013	1437,680	795,436
-44,330	14,941	1435,760	793,995
-43,315	14,943	1434,015	793,010
-42,300	14,997	1432,252	792,263
-41,286	14,963	1431,305	791,544
-40,271	14,968	1429,979	790,801
-39,257	14,946	1428,673	789,943
-38,242	15,000	1427,492	789,516
-37,227	14,968	1426,211	788,627
-36,213	14,980	1424,909	787,931
-35,198	14,948	1423,769	787,119
-34,184	15,008	1422,742	786,801
-33,169	14,942	1421,618	785,840
-32,154	14,968	1420,584	785,358
-31,140	14,971	1419,136	784,543
-30,125	15,042	1418,110	784,276
-29,111	15,011	1416,907	783,432
-28,096	15,004	1415,634	782,668
-27,082	14,925	1414,678	781,733
-26,067	14,925	1413,618	781,118
-25,052	14,916	1412,620	780,496
-24,038	14,919	1411,724	779,980
-23,023	14,909	1410,485	779,218
-22,009	14,927	1409,417	778,683
-20,994	14,863	1408,674	777,941
-19,979	14,872	1407,739	777,437
-18,965	14,837	1406,823	776,735
-17,950	14,836	1405,924	776,205
-16,936	14,837	1404,853	775,586
-15,921	14,843	1403,741	774,968
-14,906	14,798	1402,976	774,309
-13,892	14,826	1401,947	773,841
-12,877	14,806	1401,043	773,216
-11,863	14,811	1400,217	772,752
-10,848	14,838	1399,233	772,305
-9,833	14,804	1398,498	771,709
-8,819	14,759	1397,555	770,951
-7,804	14,683	1396,786	770,142
-6,790	14,736	1395,519	769,662
-5,775	14,765	1394,401	769,146
-4,760	14,735	1393,684	768,584
-3,746	14,726	1392,648	767,940
-2,731	14,740	1392,050	767,644
-1,717	14,672	1391,160	766,807
-0,702	14,701	1389,213	765,837
0,313	18,441	1308,265	738,551
1,327	34,710	706,045	436,282
2,342	53,121	124,413	84,236
3,356	5,113	16,648	8,656
4,371	2,624	3,273	1,674
5,386	38,315	0,424	0,267
6,400	-200,000	-0,030	0,271
7,415	-8,002	-0,315	-0,150
8,429	12,968	-0,401	-0,219
9,444	190,498	-0,261	-0,278
10,459	-50,790	-0,177	-0,059
11,473	-20,852	-0,358	-0,155
12,488	-16,454	-0,272	-0,122
13,502	64,967	-0,286	-0,204
14,517	-55,530	-0,275	-0,087
15,531	19,608	-0,455	-0,258
16,546	157,675	-0,312	-0,306
17,561	206,207	-0,275	-0,303
18,575	-46,373	-0,085	0,029
19,590	82,638	-0,387	-0,297
20,604	65,698	-0,200	-0,143
21,619	23,050	-0,492	-0,284
22,634	46,548	-0,446	-0,292
23,648	645,262	-0,199	-0,361
24,663	107,587	-0,442	-0,372
25,677	109,315	-0,330	-0,279
26,692	-26,217	-0,331	-0,137
27,707	-10,436	-0,331	-0,154
28,721	40,811	-0,324	-0,206
29,736	125,264	-0,284	-0,253
30,750	41,054	-0,454	-0,289
31,765	69,480	-0,414	-0,301
32,780	372,096	-0,156	-0,225
33,794	109,101	-0,337	-0,284
34,809	154,741	-0,216	-0,210
35,823	-5,266	-0,390	-0,189
36,838	168,527	-0,299	-0,301
37,853	-4,349	-0,485	-0,236
38,867	85,025	-0,332	-0,257
39,882	206,622	-0,228	-0,251
40,896	55,926	-0,357	-0,244
41,911	82,224	-0,191	-0,146
42,926	-5,819	-0,356	-0,171
43,940	85,995	-0,365	-0,283
44,955	116,041	-0,420	-0,363
45,969	119,742	-0,257	-0,224
46,984	110,390	-0,361	-0,306
47,999	242,734	-0,302	-0,357
49,013	-33,290	-0,421	-0,164
50,028	13,379	-0,438	-0,239
51,042	92,150	-0,320	-0,254
52,057	263,745	-0,338	-0,415
53,071	46,508	-0,364	-0,238
54,086	28,403	-0,269	-0,160
55,101	53,190	-0,191	-0,129
56,115	55,389	-0,351	-0,239
57,130	13,820	-0,315	-0,172
58,144	38,332	-0,363	-0,228
59,159	94,593	-0,347	-0,278
60,174	85,302	-0,429	-0,331
61,188	147,995	-0,321	-0,305
62,203	-34,728	-0,474	-0,182
63,217	94,368	-0,332	-0,266
64,232	110,942	-0,272	-0,231
65,247	134,517	-0,316	-0,289
66,261	39,262	-0,284	-0,178
67,276	14,697	-0,409	-0,225
68,290	264,021	-0,362	-0,444
69,305	29,217	-0,320	-0,191
70,320	67,821	-0,301	-0,216
71,334	105,272	-0,295	-0,245
72,349	-55,550	-0,363	-0,114
73,363	295,311	-0,137	-0,177
74,378	105,507	-0,206	-0,171
75,393	16,217	-0,419	-0,232
76,407	24,909	-0,378	-0,220
77,422	116,346	-0,254	-0,219
78,436	-96,069	-0,353	-0,065
79,451	-5,507	-0,434	-0,209
80,466	16,463	-0,326	-0,181
81,480	393,123	-0,201	-0,295
82,495	70,107	-0,326	-0,236
83,509	81,960	-0,114	-0,087
84,524	-18,068	-0,291	-0,128
85,539	17,330	-0,385	-0,214
86,553	-55,753	-0,282	-0,088
87,568	191,642	-0,271	-0,287
88,582	57,363	-0,276	-0,189
89,597	0,316	-0,344	-0,172
90,611	-16,859	-0,313	-0,139
91,626	48,565	-0,239	-0,157
92,641	15,450	-0,319	-0,176
93,655	159,769	-0,221	-0,216
94,670	-119,777	-0,340	-0,041
95,684	192,825	-0,397	-0,422
96,699	-70,784	-0,345	-0,091
97,714	-27,562	-0,399	-0,162
98,728	-31,043	-0,308	-0,121
99,743	22,941	-0,313	-0,180
100,757	315,161	-0,193	-0,256
101,772	76,654	-0,289	-0,215
102,787	570,919	-0,185	-0,318
103,801	152,705	-0,234	-0,224
104,816	-162,260	-0,373	-0,013
105,830	149,693	-0,232	-0,220
106,845	-86,511	-0,258	-0,055
107,860	-176,890	-0,274	-0,005
108,874	57,100	-0,218	-0,149
109,889	133,628	-0,275	-0,250
110,903	159,142	-0,330	-0,322
111,918	61,759	-0,255	-0,178
112,933	46,734	-0,244	-0,159
113,947	19,838	-0,253	-0,142
114,962	-18,359	-0,216	0,094
115,976	659,158	-0,155	-0,282
116,991	29,596	-0,281	-0,167
118,006	-16,986	-0,297	-0,131
119,020	5,796	-0,221	-0,114
120,035	76,838	-0,308	-0,229
121,049	-45,606	-0,212	-0,073
122,064	800,000	-0,110	-0,286
123,079	304,815	-0,281	-0,366
124,093	73,299	-0,285	-0,209
125,108	201,602	-0,229	-0,248
126,122	18,438	-0,187	-0,105
127,137	-15,413	-0,211	-0,094
128,151	309,171	-0,115	-0,151
129,166	57,170	-0,120	-0,082
130,181	146,845	-0,147	-0,139
131,195	26,066	-0,382	-0,223
132,210	109,925	-0,324	-0,272
133,224	75,186	-0,276	-0,204
134,239	67,247	-0,171	-0,122
135,254	56,523	-0,211	-0,143
136,268	-11,331	-0,168	-0,077
137,283	8,435	-0,252	-0,132
138,297	181,802	-0,222	-0,229
139,312	36,093	-0,279	-0,172
140,327	54,212	-0,337	-0,227
141,341	57,777	-0,289	-0,197
142,356	-126,339	-0,302	0,031
143,370	53,737	-0,175	-0,118
144,385	-56,112	-0,263	-0,081
145,400	237,113	-0,159	-0,185
146,414	106,796	-0,170	-0,141
147,429	800,000	-0,166	-0,325
148,443	220,309	-0,189	-0,213
149,458	441,404	-0,079	-0,122
150,473	110,405	-0,278	-0,234
151,487	54,517	-0,118	-0,080
152,502	118,929	-0,246	-0,213
153,516	106,919	-0,288	-0,239
154,531	42,761	-0,229	-0,145
155,546	431,134	-0,116	-0,177
156,560	81,198	-0,249	-0,188
157,575	123,541	-0,251	-0,220
158,589	-167,824	-0,324	-0,009
159,604	-61,173	-0,302	-0,088
160,619	105,050	-0,344	-0,284
161,633	43,911	-0,224	-0,143
162,648	-85,197	-0,259	-0,056
163,662	197,803	-0,192	-0,205
164,677	48,981	-0,281	-0,184
165,692	23,408	-0,284	-0,163
166,706	-1,618	-0,198	-0,097
167,721	-200,000	-0,088	-0,301
168,735	-0,316	-0,268	-0,132
169,750	403,290	-0,131	-0,193
170,764	59,134	-0,055	-0,038
171,779	107,237	-0,278	-0,230
172,794	-115,076	-0,157	-0,021
173,808	113,729	-0,226	-0,191
174,823	3,139	-0,334	-0,169
175,837	-131,063	-0,316	-0,029
176,852	-7,220	-0,206	-0,097
177,867	226,180	-0,139	-0,157
178,881	405,748	-0,078	-0,114
179,896	112,079	-0,221	-0,186
180,910	83,435	-0,205	-0,156
181,925	87,006	-0,113	-0,087
182,940	198,273	-0,271	-0,289
183,954	-86,282	-0,273	-0,058
184,969	695,620	-0,138	-0,254
185,983	189,344	-0,192	-0,201
186,998	93,425	-0,158	-0,125
188,013	16,769	-0,258	-0,142
189,027	301,813	-0,165	-0,213
190,042	37,742	-0,222	-0,137
191,056	-48,620	-0,234	-0,078
192,071	237,479	-0,156	-0,180
193,086	-81,194	-0,168	-0,038
194,100	-2,543	-0,176	-0,085
195,115	54,875	-0,140	-0,094
196,129	184,655	-0,165	-0,171
197,144	800,000	-0,154	-0,304
198,159	189,734	-0,230	-0,241
199,173	800,000	-0,068	-0,173
200,188	7,572	-0,181	-0,094
201,202	-75,437	-0,216	-0,053
202,217	-37,640	-0,170	-0,063
203,232	81,838	-0,162	-0,122
204,246	-11,271	-0,340	-0,155
205,261	113,935	-0,221	-0,187
206,275	94,763	-0,192	-0,151
207,290	748,301	-0,092	-0,174
208,304	381,719	-0,023	-0,034
209,319	-32,698	-0,124	-0,048
210,334	43,377	-0,249	-0,158
211,348	241,452	-0,201	-0,234
212,363	141,996	-0,135	-0,124
213,377	-50,460	-0,348	-0,113
214,392	391,970	-0,041	0,059
215,407	-118,394	-0,098	0,012
216,421	82,398	-0,158	-0,119
217,436	-12,348	-0,292	-0,132
218,450	-26,251	-0,235	-0,095
219,465	800,000	-0,132	-0,274
220,480	-28,527	-0,139	-0,056
221,494	-174,038	-0,179	-0,004
222,509	-142,115	-0,170	-0,012
223,523	186,484	-0,102	-0,105
224,538	15,814	-0,279	-0,152
225,553	87,902	-0,170	-0,131
226,567	-9,967	-0,254	-0,117
227,582	588,699	-0,093	-0,159
228,596	47,406	-0,253	-0,163
229,611	300,276	-0,121	-0,156
230,626	187,896	-0,115	-0,119
231,640	176,076	-0,216	-0,218
232,655	-92,065	-0,190	-0,037
233,669	115,738	-0,269	-0,228
234,684	15,932	-0,233	-0,127
235,699	118,067	-0,138	-0,118
236,713	463,282	-0,120	-0,187
237,728	-9,109	-0,158	-0,073
238,742	161,677	-0,182	-0,177
239,757	-57,417	-0,156	0,047
240,772	-87,774	-0,252	-0,052
241,786	33,099	-0,210	-0,126
242,801	19,315	-0,261	-0,145
243,815	-26,889	-0,294	-0,118
244,830	187,240	-0,190	-0,196
245,844	311,028	-0,068	-0,089
246,859	297,281	-0,182	-0,232
247,874	251,800	-0,222	-0,262
248,888	61,805	-0,308	-0,212
249,903	-6,104	-0,210	-0,099
250,917	-60,000	-0,096	-0,028
251,932	119,536	-0,183	-0,157
252,947	-13,302	-0,271	-0,121
253,961	70,534	-0,113	-0,081
254,976	-66,141	-0,218	-0,060
255,990	115,235	-0,129	-0,109
257,005	-128,728	-0,098	0,009
258,020	-124,772	-0,167	-0,018
259,034	-110,943	-0,172	0,024
260,049	-94,777	-0,109	0,020
261,063	800,000	-0,075	-0,147
262,078	127,458	-0,147	-0,129
263,093	800,000	-0,065	-0,126
264,107	106,481	-0,217	-0,178
265,122	-200,000	-0,037	-0,206
266,136	40,993	-0,149	-0,093
267,151	21,287	-0,193	-0,108
268,166	-94,133	-0,102	-0,019
269,180	800,000	-0,052	-0,152
270,195	-93,029	-0,275	-0,052
271,209	42,068	-0,240	-0,150
272,224	0,660	-0,162	-0,080
273,239	110,401	-0,171	-0,142
274,253	-129,522	-0,138	-0,013
275,268	28,258	-0,217	-0,126
276,282	-165,843	-0,189	-0,006
277,297	212,669	-0,190	-0,207
278,312	356,772	-0,171	-0,236
279,326	11,675	-0,137	-0,072
280,341	-29,531	-0,119	-0,047
281,355	-191,563	-0,125	-0,001
282,370	4,687	-0,078	-0,040
283,384	-143,084	-0,184	-0,012
284,399	-100,489	-0,223	-0,038
285,414	229,743	-0,130	-0,147
286,428	430,162	-0,141	-0,212
287,443	146,987	-0,156	-0,145
288,457	-9,741	-0,081	-0,037
289,472	-138,380	-0,177	0,013
290,487	-54,119	-0,289	0,090
291,501	355,216	-0,130	-0,179
292,516	7,780	-0,198	-0,102
293,530	-71,834	-0,136	0,035
294,545	51,700	-0,101	-0,067
295,560	233,401	-0,092	-0,105
296,574	-95,859	-0,166	-0,030
297,589	38,318	-0,126	-0,077
298,603	-65,087	-0,176	-0,049
299,618	-200,000	-0,039	-0,135
300,633	-126,544	-0,128	-0,013
301,647	-200,000	-0,015	-0,079
302,662	-166,139	-0,034	-0,001
303,676	-3,112	-0,154	0,074
304,691	52,898	-0,189	-0,125
305,706	113,968	-0,117	-0,098
306,720	137,842	-0,121	-0,110
307,735	800,000	-0,072	-0,157
308,749	379,789	-0,094	-0,133
309,764	-200,000	-0,015	-0,132
310,779	-10,717	-0,155	-0,070
311,793	98,052	-0,182	-0,144
312,808	-97,255	-0,121	-0,022
313,822	43,985	-0,123	-0,078
314,837	51,771	-0,165	-0,108
315,852	800,000	-0,024	-0,051
316,866	-200,000	-0,002	-0,099
317,881	52,851	-0,069	-0,045
318,895	61,219	-0,123	-0,084
319,910	117,712	-0,164	-0,139
320,925	-145,963	-0,076	0,005
321,939	-90,976	-0,157	-0,031
322,954	196,123	-0,087	-0,091
323,968	1,334	-0,240	-0,118
324,983	61,287	-0,081	-0,055
325,997	162,609	-0,133	-0,128
327,012	60,558	-0,202	-0,137
328,027	772,182	-0,042	-0,080
329,041	-200,000	-0,039	-0,164
330,056	419,544	-0,068	-0,100
331,070	30,266	-0,125	-0,073
332,085	134,826	-0,109	-0,097
333,100	40,606	-0,162	-0,100
334,114	409,568	-0,090	-0,131
335,129	79,267	-0,186	-0,137
336,143	163,081	-0,137	-0,133
337,158	247,018	-0,147	-0,171
338,173	800,000	-0,011	0,024
339,187	-69,975	-0,165	0,043
340,202	207,470	-0,116	-0,124
341,216	-29,725	-0,235	-0,092
342,231	31,147	-0,189	-0,111
343,246	-71,548	-0,145	-0,037
344,260	-22,019	-0,097	-0,040
345,275	-200,000	0,002	-0,010
346,289	578,250	-0,101	-0,171
347,304	322,694	-0,119	-0,157
348,319	225,380	-0,149	-0,166
349,333	85,049	-0,167	-0,126
350,348	91,588	-0,126	-0,097
351,362	-200,000	0,037	-0,275
352,377	27,263	-0,193	-0,111
353,392	410,523	-0,085	-0,125
354,406	287,561	-0,178	-0,222
355,421	207,904	1314,081	1411,127
356,435	159,946	1474,754	1411,628
