DTS Sentinel unit serial number:	SN410029Multiplexer serial number:	ORYXHardware model number:	OX2-SRSoftware version number:	ORYX F/W v4,00 Oryx Data Collector v3.7.2.0data status	okinstallation	B3 Nyhavnadifferential loss correction	single-endedforward channel	channel 1reverse channel	N/Adate	2023/12/01time	13:57:30forward acquisition time	300,00reverse acquisition time	0,00gamma	499,1914k internal	0,3213k external	0,3213temperature offset calibration	1,0000default loss term (dB/km)	0,3820temperature slope calibration	1,0000multiplexer offset coefficient	1,0000multiplexer slope coefficient	1,0000fibre end	0,00T internal ref (°C)	10,09T ext. ref 1 (°C)	-3,30T ext. ref 2 (°C)	-3,35length (m)	temperature (°C)	Stokes	anti-Stokes-744,400	800,000	-0,097	-0,262
-743,385	-200,000	-0,083	0,278
-742,371	563,624	-0,081	-0,143
-741,356	-200,000	0,011	0,173
-740,342	211,356	-0,198	-0,226
-739,327	800,000	-0,138	0,304
-738,312	770,546	-0,192	-0,381
-737,298	800,000	-0,067	0,192
-736,283	136,869	-0,123	-0,117
-735,269	800,000	-0,083	0,242
-734,254	550,654	-0,231	-0,404
-733,239	-11,821	-0,244	0,116
-732,225	-38,280	-0,237	-0,090
-731,210	3,677	0,159	0,084
-730,196	-116,804	-0,130	-0,017
-729,181	100,268	-0,087	0,073
-728,167	800,000	0,057	0,120
-727,152	800,000	-0,043	0,087
-726,137	-103,136	0,060	0,010
-725,123	-80,129	-0,067	0,016
-724,108	-200,000	-0,046	-0,177
-723,094	664,730	-0,042	-0,079
-722,079	-54,410	-0,132	-0,043
-721,064	320,998	0,006	-0,008
-720,050	-110,989	0,061	0,009
-719,035	-179,602	-0,016	-0,000
-718,021	-120,163	-0,134	-0,016
-717,006	-105,695	-0,161	-0,026
-715,991	-81,083	-0,132	-0,031
-714,977	213,709	-0,053	-0,061
-713,962	6,365	0,078	-0,042
-712,948	763,400	0,026	0,051
-711,933	-60,151	-0,041	-0,012
-710,918	-15,638	0,151	-0,070
-709,904	1,534	-0,148	-0,077
-708,889	415,504	0,048	-0,075
-707,875	-200,000	0,022	-0,150
-706,860	-200,000	0,007	-0,037
-705,845	800,000	0,044	-0,100
-704,831	-137,414	-0,148	-0,012
-703,816	-200,000	-0,036	-0,128
-702,802	-153,488	0,010	0,001
-701,787	-103,508	-0,130	0,022
-700,772	11,235	-0,089	-0,049
-699,758	800,000	-0,026	0,055
-698,743	173,215	0,097	0,101
-697,729	687,551	0,070	0,133
-696,714	122,676	0,036	0,033
-695,699	800,000	0,012	0,030
-694,685	-196,232	0,081	0,000
-693,670	167,025	-0,043	-0,044
-692,656	-16,824	-0,025	-0,011
-691,641	323,800	0,068	0,094
-690,627	755,644	0,029	-0,058
-689,612	77,659	0,045	-0,034
-688,597	-200,000	-0,005	-0,145
-687,583	-121,442	0,119	-0,014
-686,568	-105,088	-0,100	-0,016
-685,554	-49,448	0,004	0,001
-684,539	-200,000	-0,028	-0,094
-683,524	-8,005	0,124	0,060
-682,510	5,904	-0,084	-0,045
-681,495	-72,377	-0,115	-0,030
-680,481	-136,778	-0,095	-0,008
-679,466	-41,996	-0,150	-0,055
-678,451	-114,011	-0,096	0,013
-677,437	-200,000	0,013	-0,081
-676,422	-200,000	-0,008	-0,102
-675,408	-145,330	0,126	0,008
-674,393	-83,561	0,179	0,041
-673,378	539,799	-0,092	0,159
-672,364	-200,000	-0,009	-0,117
-671,349	-78,554	-0,069	-0,017
-670,335	254,244	-0,058	0,072
-669,320	-48,299	0,070	-0,024
-668,305	-200,000	-0,011	0,136
-667,291	-108,845	-0,109	0,017
-666,276	20,599	-0,098	0,057
-665,262	-25,362	-0,092	-0,039
-664,247	-200,000	0,025	-0,131
-663,232	240,688	-0,032	0,038
-662,218	421,913	0,024	0,037
-661,203	-38,700	-0,169	0,064
-660,189	-107,250	0,078	0,012
-659,174	67,870	-0,088	-0,065
-658,159	-72,457	-0,129	0,034
-657,145	332,196	0,027	-0,038
-656,130	-81,016	0,139	-0,033
-655,116	800,000	-0,047	-0,124
-654,101	800,000	-0,030	-0,089
-653,086	-176,462	-0,071	0,001
-652,072	363,023	0,048	-0,070
-651,057	-76,686	0,118	0,030
-650,043	-200,000	-0,030	-0,145
-649,028	-112,226	-0,085	0,012
-648,014	-86,193	0,031	0,007
-646,999	12,825	-0,058	0,032
-645,984	800,000	-0,094	0,215
-644,970	-184,089	0,111	-0,001
-643,955	-200,000	0,033	-0,119
-642,941	133,696	-0,023	-0,022
-641,926	76,845	0,046	0,035
-640,911	800,000	-0,032	-0,098
-639,897	-160,439	0,138	0,005
-638,882	-200,000	-0,011	0,060
-637,868	132,010	-0,062	0,058
-636,853	75,305	-0,050	0,038
-635,838	637,736	0,056	-0,104
-634,824	-200,000	-0,013	-0,156
-633,809	800,000	0,066	0,185
-632,795	299,553	0,037	0,049
-631,780	-200,000	0,031	0,104
-630,765	133,313	0,036	-0,034
-629,751	-52,951	-0,113	-0,037
-628,736	-178,232	-0,065	0,001
-627,722	358,038	0,015	-0,022
-626,707	76,099	0,052	-0,039
-625,692	75,831	0,089	0,068
-624,678	356,871	0,096	0,138
-623,663	-144,284	-0,105	-0,007
-622,649	463,619	-0,054	-0,088
-621,634	800,000	0,024	-0,052
-620,619	-183,276	-0,071	-0,001
-619,605	-114,744	0,072	0,010
-618,590	-9,655	-0,069	0,033
-617,576	-200,000	0,038	0,133
-616,561	-14,987	-0,056	0,026
-615,546	-200,000	0,016	0,137
-614,532	-15,097	0,058	0,027
-613,517	127,497	-0,048	0,044
-612,503	800,000	0,038	0,094
-611,488	-120,470	-0,089	0,011
-610,474	73,305	0,061	0,046
-609,459	-1,279	-0,035	0,018
-608,444	-200,000	-0,005	0,032
-607,430	-87,546	-0,186	-0,040
-606,415	800,000	-0,054	-0,149
-605,401	266,859	-0,032	-0,040
-604,386	577,393	0,060	-0,105
-603,371	215,454	0,065	0,074
-602,357	-43,063	-0,061	0,022
-601,342	418,826	0,042	-0,066
-600,328	340,487	-0,110	-0,156
-599,313	81,026	-0,104	-0,081
-598,298	800,000	-0,045	-0,130
-597,284	115,558	0,027	0,024
-596,269	800,000	0,004	0,013
-595,255	327,620	-0,034	0,047
-594,240	23,033	-0,154	0,091
-593,225	21,012	-0,121	-0,070
-592,211	800,000	0,024	-0,071
-591,196	354,494	-0,063	0,090
-590,182	-200,000	0,012	0,053
-589,167	-6,313	-0,038	0,019
-588,152	-75,993	0,092	-0,023
-587,138	233,499	0,058	-0,069
-586,123	-200,000	0,037	-0,140
-585,109	800,000	-0,065	-0,139
-584,094	-200,000	-0,025	-0,107
-583,079	-117,030	-0,085	0,011
-582,065	-66,216	0,086	0,025
-581,050	144,119	0,013	0,013
-580,036	-200,000	0,011	0,095
-579,021	239,494	-0,101	-0,121
-578,006	10,729	-0,092	-0,050
-576,992	40,823	0,031	0,020
-575,977	127,127	0,113	-0,103
-574,963	-28,321	0,105	0,043
-573,948	-54,146	0,044	0,014
-572,934	-200,000	0,011	-0,065
-571,919	-200,000	-0,008	0,171
-570,904	341,625	-0,008	-0,011
-569,890	217,628	-0,042	-0,048
-568,875	800,000	-0,025	-0,052
-567,861	-100,535	0,056	-0,010
-566,846	71,300	0,062	0,046
-565,831	231,732	-0,052	0,062
-564,817	-39,967	0,048	-0,018
-563,802	-200,000	0,022	-0,082
-562,788	800,000	0,029	-0,082
-561,773	800,000	0,039	0,084
-560,758	200,784	-0,055	-0,061
-559,744	-65,579	-0,078	-0,022
-558,729	157,947	0,080	0,080
-557,715	800,000	-0,056	0,151
-556,700	652,608	-0,029	-0,054
-555,685	577,875	0,043	-0,076
-554,671	68,998	-0,012	0,008
-553,656	-200,000	-0,009	-0,114
-552,642	227,585	-0,069	0,081
-551,627	-73,893	-0,006	-0,002
-550,612	400,740	-0,007	0,010
-549,598	601,774	-0,102	-0,183
-548,583	314,334	0,050	-0,068
-547,569	90,434	-0,014	0,011
-546,554	21,140	0,126	-0,073
-545,539	-39,071	-0,042	0,016
-544,525	186,762	0,064	-0,069
-543,510	-200,000	-0,007	0,075
-542,496	-200,000	0,028	0,127
-541,481	800,000	0,003	-0,006
-540,466	800,000	-0,019	0,045
-539,452	-22,117	0,040	-0,017
-538,437	-200,000	-0,006	0,091
-537,423	-183,997	-0,082	0,001
-536,408	98,519	0,086	0,071
-535,393	88,662	-0,135	-0,108
-534,379	19,600	-0,096	0,056
-533,364	-109,797	-0,098	-0,015
-532,350	-22,027	0,164	-0,071
-531,335	107,243	0,064	-0,055
-530,321	800,000	0,031	0,078
-529,306	375,008	-0,051	-0,074
-528,291	338,572	0,056	-0,078
-527,277	-97,412	0,110	-0,020
-526,262	-102,770	-0,083	-0,014
-525,248	800,000	0,036	0,095
-524,233	258,445	-0,055	-0,069
-523,218	371,509	0,089	0,130
-522,204	-200,000	0,007	-0,029
-521,189	25,079	-0,107	-0,063
-520,175	-200,000	0,028	-0,133
-519,160	-200,000	-0,046	-0,150
-518,145	155,617	-0,094	0,093
-517,131	-115,423	-0,061	-0,008
-516,116	193,610	0,073	0,079
-515,102	355,236	0,020	0,028
-514,087	-5,664	-0,118	-0,058
-513,072	-24,462	0,086	-0,037
-512,058	-44,995	0,020	-0,007
-511,043	335,001	0,071	0,098
-510,029	-200,000	-0,014	-0,086
-509,014	-200,000	-0,001	-0,019
-507,999	12,849	-0,093	-0,052
-506,985	139,743	-0,122	-0,116
-505,970	800,000	-0,052	-0,159
-504,956	-109,365	0,047	0,007
-503,941	46,134	0,140	0,093
-502,926	-200,000	-0,029	-0,149
-501,912	-18,927	0,046	0,020
-500,897	236,078	0,098	0,117
-499,883	265,223	-0,044	0,055
-498,868	800,000	-0,061	-0,145
-497,853	-139,051	-0,074	-0,006
-496,839	-133,367	0,044	-0,004
-495,824	-42,655	0,050	-0,018
-494,810	648,379	0,038	0,070
-493,795	-200,000	-0,021	0,119
-492,781	-22,825	0,131	-0,056
-491,766	800,000	-0,035	0,081
-490,751	-132,940	0,103	-0,009
-489,737	652,914	-0,047	-0,087
-488,722	451,047	-0,012	-0,019
-487,708	205,238	0,060	-0,067
-486,693	-117,631	0,161	-0,021
-485,678	443,391	0,033	0,053
-484,664	37,290	0,032	0,020
-483,649	-59,283	-0,242	-0,074
-482,635	337,004	0,087	0,122
-481,620	-200,000	-0,018	0,105
-480,605	207,656	-0,016	0,018
-479,591	144,124	0,045	0,043
-478,576	800,000	-0,085	-0,201
-477,562	-19,505	0,219	-0,097
-476,547	-35,261	-0,109	-0,042
-475,532	-185,545	-0,047	0,001
-474,518	94,875	0,007	-0,006
-473,503	121,028	-0,074	-0,066
-472,489	25,657	0,031	0,019
-471,474	74,134	0,031	-0,023
-470,459	38,510	-0,085	-0,054
-469,445	45,273	-0,038	0,025
-468,430	-25,035	-0,101	0,043
-467,416	-33,644	0,070	0,028
-466,401	-50,274	0,160	0,054
-465,386	-82,249	-0,074	0,017
-464,372	614,342	0,057	-0,102
-463,357	241,313	0,042	-0,050
-462,343	800,000	0,020	0,040
-461,328	800,000	0,016	-0,038
-460,313	-200,000	-0,042	-0,145
-459,299	18,349	0,114	0,065
-458,284	322,780	0,091	0,125
-457,270	800,000	-0,040	-0,117
-456,255	0,917	0,094	-0,048
-455,241	-104,031	-0,134	-0,022
-454,226	329,998	0,039	0,054
-453,211	-123,517	-0,028	0,003
-452,197	800,000	0,048	0,114
-451,182	-158,397	-0,041	0,002
-450,168	-200,000	-0,003	-0,038
-449,153	-12,678	-0,070	0,033
-448,138	800,000	-0,093	-0,261
-447,124	800,000	0,048	-0,137
-446,109	-130,065	0,098	0,009
-445,095	-15,363	0,125	0,057
-444,080	-20,414	-0,086	0,038
-443,065	314,247	0,094	0,127
-442,051	101,289	0,104	-0,087
-441,036	39,738	0,010	-0,006
-440,022	566,757	-0,048	-0,083
-439,007	-200,000	0,012	0,046
-437,992	-182,526	0,127	-0,002
-436,978	-200,000	0,015	-0,079
-435,963	-27,359	-0,020	-0,008
-434,949	-200,000	0,001	0,033
-433,934	-200,000	0,011	-0,148
-432,919	-200,000	-0,016	-0,084
-431,905	552,155	0,081	-0,139
-430,890	507,984	-0,106	0,178
-429,876	-200,000	-0,011	0,088
-428,861	-82,906	0,080	0,018
-427,846	-67,269	0,082	-0,023
-426,832	205,571	-0,054	0,060
-425,817	578,534	-0,014	0,024
-424,803	367,892	0,052	0,075
-423,788	-173,921	0,125	0,003
-422,773	-55,151	0,133	0,043
-421,759	-200,000	-0,001	0,170
-420,744	378,436	-0,065	0,096
-419,730	125,157	0,025	0,023
-418,715	-128,669	-0,179	0,018
-417,701	800,000	-0,031	-0,090
-416,686	800,000	0,050	-0,120
-415,671	191,084	0,067	0,072
-414,657	98,637	0,044	0,036
-413,642	-200,000	0,032	0,186
-412,628	-200,000	-0,038	0,178
-411,613	-87,148	-0,081	0,017
-410,598	12,731	0,083	-0,046
-409,584	91,308	0,057	0,046
-408,569	56,170	0,127	0,088
-407,555	155,055	-0,089	-0,087
-406,540	800,000	0,070	-0,140
-405,525	562,770	-0,069	-0,120
-404,511	105,765	-0,120	-0,101
-403,496	-100,656	0,078	0,014
-402,482	800,000	0,038	0,088
-401,467	-37,604	0,030	-0,011
-400,452	-188,420	0,144	0,001
-399,438	152,841	-0,112	-0,110
-398,423	56,851	0,116	-0,081
-397,409	8,955	-0,170	-0,091
-396,394	-37,500	0,008	-0,003
-395,379	317,452	-0,033	0,044
-394,365	-200,000	0,011	-0,128
-393,350	-200,000	0,003	-0,118
-392,336	-175,771	-0,061	0,001
-391,321	800,000	-0,024	-0,073
-390,306	-98,357	-0,170	0,031
-389,292	251,203	0,046	-0,056
-388,277	800,000	0,061	-0,168
-387,263	-50,123	0,094	0,032
-386,248	-200,000	0,003	-0,048
-385,233	-121,354	-0,119	-0,014
-384,219	216,259	-0,095	0,108
-383,204	-71,739	-0,148	0,039
-382,190	-200,000	0,003	0,038
-381,175	728,141	-0,062	0,119
-380,160	201,538	0,101	0,111
-379,146	-200,000	0,008	0,083
-378,131	-76,051	-0,055	0,014
-377,117	-200,000	-0,039	0,151
-376,102	-200,000	0,008	-0,035
-375,088	75,392	-0,085	0,064
-374,073	637,083	-0,032	0,058
-373,058	477,731	0,038	-0,062
-372,044	397,754	-0,010	0,015
-371,029	-159,395	0,053	-0,002
-370,015	800,000	-0,029	0,079
-369,000	-105,709	-0,109	-0,017
-367,985	762,494	-0,062	-0,121
-366,971	248,109	0,038	0,046
-365,956	-36,781	0,149	-0,057
-364,942	800,000	-0,069	-0,188
-363,927	-200,000	0,002	0,218
-362,912	-92,937	-0,094	-0,018
-361,898	-200,000	0,042	0,161
-360,883	800,000	-0,057	-0,133
-359,869	-39,355	-0,046	0,017
-358,854	-21,732	0,020	0,009
-357,839	-69,038	0,126	-0,034
-356,825	-125,966	0,091	0,010
-355,810	639,997	-0,021	0,039
-354,796	-156,925	-0,105	0,005
-353,781	-200,000	0,006	-0,047
-352,766	-10,161	-0,126	0,060
-351,752	-158,118	0,001	0,000
-350,737	-200,000	-0,010	-0,131
-349,723	229,189	-0,057	0,067
-348,708	33,678	-0,130	-0,081
-347,693	65,306	-0,092	0,066
-346,679	-33,703	0,090	-0,035
-345,664	-169,103	-0,115	0,003
-344,650	-89,621	-0,143	0,030
-343,635	49,665	0,122	0,082
-342,620	-105,066	0,164	-0,026
-341,606	36,218	0,041	-0,026
-340,591	58,752	0,082	0,057
-339,577	-89,095	0,096	-0,020
-338,562	800,000	-0,020	-0,042
-337,548	92,887	0,069	-0,055
-336,533	-200,000	0,015	-0,108
-335,518	800,000	-0,037	0,077
-334,504	274,591	-0,066	0,083
-333,489	327,642	0,047	0,065
-332,475	-200,000	-0,007	-0,026
-331,460	-200,000	0,003	-0,125
-330,445	-200,000	-0,011	0,075
-329,431	-17,496	0,105	0,047
-328,416	-61,739	0,131	0,039
-327,402	-33,467	-0,030	0,012
-326,387	800,000	0,035	0,086
-325,372	455,852	0,013	-0,020
-324,358	-70,606	0,114	-0,031
-323,343	270,051	-0,054	-0,068
-322,329	40,330	0,154	-0,098
-321,314	176,457	0,036	0,037
-320,299	-200,000	0,011	0,070
-319,285	-200,000	-0,002	0,030
-318,270	800,000	-0,033	-0,067
-317,256	20,128	-0,069	-0,040
-316,241	248,752	-0,065	0,079
-315,226	-200,000	0,020	-0,073
-314,212	-200,000	0,003	-0,047
-313,197	230,706	0,042	0,049
-312,183	-86,991	0,089	0,019
-311,168	-114,580	-0,160	0,022
-310,153	187,251	-0,075	-0,079
-309,139	-142,942	0,082	0,006
-308,124	-200,000	0,030	0,111
-307,110	277,299	0,085	0,108
-306,095	-200,000	-0,003	0,123
-305,080	54,946	0,036	-0,025
-304,066	389,746	-0,046	-0,069
-303,051	339,807	-0,096	-0,134
-302,037	-21,620	-0,034	0,015
-301,022	676,528	0,083	-0,154
-300,008	317,612	0,082	0,110
-298,993	-64,466	-0,101	-0,029
-297,978	653,796	0,064	0,117
-296,964	738,874	-0,033	0,063
-295,949	-54,270	-0,096	-0,031
-294,935	800,000	-0,052	-0,109
-293,920	12,936	0,013	0,007
-292,905	100,557	0,050	-0,041
-291,891	460,042	0,046	0,072
-290,876	-122,506	-0,066	-0,007
-289,862	203,247	-0,126	0,138
-288,847	-168,390	-0,075	0,002
-287,832	800,000	-0,009	0,021
-286,818	-79,176	0,065	0,016
-285,803	-200,000	-0,003	-0,011
-284,789	43,183	-0,109	0,070
-283,774	74,170	-0,135	0,101
-282,759	212,451	0,084	-0,094
-281,745	-14,137	-0,041	0,019
-280,730	147,792	-0,105	-0,101
-279,716	-200,000	-0,006	0,186
-278,701	800,000	-0,037	-0,077
-277,686	51,512	0,057	0,039
-276,672	-170,344	-0,165	-0,004
-275,657	29,323	-0,034	-0,020
-274,643	-200,000	-0,008	-0,084
-273,628	-29,397	0,168	-0,068
-272,613	-200,000	-0,004	-0,038
-271,599	-200,000	0,017	0,063
-270,584	800,000	0,047	0,096
-269,570	28,644	-0,036	0,022
-268,555	13,550	-0,056	-0,031
-267,540	91,831	-0,041	-0,032
-266,526	-200,000	-0,017	-0,065
-265,511	-77,912	0,019	-0,005
-264,497	60,221	0,189	-0,133
-263,482	-200,000	0,005	0,034
-262,467	-84,740	0,110	0,024
-261,453	90,373	-0,054	0,043
-260,438	163,586	-0,100	-0,100
-259,424	257,225	-0,070	-0,086
-258,409	-145,361	-0,054	-0,003
-257,395	-74,928	0,087	-0,022
-256,380	800,000	-0,036	0,080
-255,365	383,896	0,072	0,105
-254,351	-32,147	-0,056	0,022
-253,336	-200,000	0,007	0,044
-252,322	459,951	0,035	-0,055
-251,307	-159,400	-0,108	0,004
-250,292	695,255	0,045	-0,084
-249,278	-200,000	0,014	-0,083
-248,263	407,298	0,092	0,138
-247,249	33,345	-0,085	-0,052
-246,234	-200,000	-0,003	0,027
-245,219	259,600	0,039	0,048
-244,205	41,592	0,072	0,046
-243,190	-200,000	0,006	0,038
-242,176	-200,000	0,015	0,096
-241,161	-200,000	-0,021	0,168
-240,146	-200,000	0,007	0,027
-239,132	331,402	-0,027	0,037
-238,117	41,846	-0,027	0,018
-237,103	-41,268	-0,087	-0,032
-236,088	-123,277	0,074	0,008
-235,073	-12,178	-0,035	-0,016
-234,059	-200,000	0,000	0,044
-233,044	-131,034	0,139	0,013
-232,030	129,537	-0,043	0,039
-231,015	81,910	-0,090	0,069
-230,000	800,000	-0,028	0,057
-228,986	644,433	-0,034	-0,063
-227,971	-200,000	0,000	0,002
-226,957	502,040	0,060	0,099
-225,942	-107,513	0,060	0,009
-224,927	-200,000	-0,009	0,047
-223,913	58,024	-0,151	-0,105
-222,898	-73,156	-0,133	-0,034
-221,884	0,200	-0,032	0,016
-220,869	0,713	-0,014	0,007
-219,855	-28,582	-0,008	-0,003
-218,840	289,518	0,102	0,132
-217,825	-96,073	-0,115	0,021
-216,811	193,349	0,083	-0,089
-215,796	800,000	-0,052	-0,112
-214,782	800,000	-0,015	-0,029
-213,767	3,145	0,154	-0,079
-212,752	767,001	0,070	0,135
-211,738	431,705	0,063	-0,098
-210,723	303,997	-0,032	-0,043
-209,709	48,171	0,094	-0,063
-208,694	-200,000	0,016	0,085
-207,679	-200,000	0,003	-0,161
-206,665	31,622	-0,090	0,055
-205,650	-200,000	0,006	0,130
-204,636	-200,000	0,022	-0,140
-203,621	398,566	-0,041	-0,061
-202,606	-43,444	0,084	0,030
-201,592	-200,000	-0,021	0,112
-200,577	-80,616	-0,082	0,019
-199,563	85,039	-0,032	-0,025
-198,548	381,930	-0,025	0,036
-197,533	-110,618	0,201	-0,029
-196,519	-200,000	0,032	0,148
-195,504	-200,000	-0,011	0,062
-194,490	-135,531	-0,047	-0,004
-193,475	59,004	-0,060	0,042
-192,460	-133,747	0,125	0,011
-191,446	800,000	-0,029	-0,068
-190,431	498,159	0,073	0,120
-189,417	-66,536	0,129	0,036
-188,402	231,451	0,038	-0,045
-187,387	-123,986	-0,161	-0,018
-186,373	-200,000	-0,044	0,157
-185,358	-200,000	0,004	0,030
-184,344	40,298	0,128	-0,082
-183,329	317,095	-0,021	0,028
-182,315	104,581	0,094	0,078
-181,300	204,748	0,006	-0,007
-180,285	583,777	0,028	0,048
-179,271	169,172	-0,072	0,073
-178,256	-132,948	0,040	-0,004
-177,242	242,640	0,012	0,014
-176,227	800,000	-0,017	-0,039
-175,212	292,360	-0,016	0,020
-174,198	800,000	0,025	-0,058
-173,183	800,000	-0,097	-0,210
-172,169	509,807	-0,016	-0,027
-171,154	757,936	-0,037	-0,071
-170,139	109,896	0,122	0,104
-169,125	-200,000	0,036	0,127
-168,110	800,000	0,003	-0,008
-167,096	-104,663	-0,027	0,004
-166,081	184,772	-0,042	-0,044
-165,066	800,000	-0,016	-0,049
-164,052	800,000	-0,018	-0,037
-163,037	-92,098	0,024	-0,005
-162,023	800,000	-0,025	-0,073
-161,008	166,876	0,057	-0,057
-159,993	-44,121	-0,015	0,005
-158,979	253,354	0,014	0,017
-157,964	-10,908	-0,067	-0,031
-156,950	800,000	0,018	-0,049
-155,935	-82,940	0,143	0,032
-154,920	-200,000	0,016	0,163
-153,906	558,137	-0,128	0,220
-152,891	8,037	0,031	-0,017
-151,877	377,891	0,024	-0,034
-150,862	107,783	-0,087	0,073
-149,847	192,906	0,067	0,072
-148,833	-200,000	-0,008	0,101
-147,818	484,227	0,052	-0,084
-146,804	800,000	-0,038	-0,081
-145,789	-89,878	-0,026	-0,005
-144,775	232,696	-0,091	-0,106
-143,760	-155,145	-0,133	-0,006
-142,745	-200,000	-0,023	0,075
-141,731	302,775	-0,090	0,118
-140,716	-112,557	-0,057	-0,008
-139,702	-80,062	0,036	-0,009
-138,687	-200,000	-0,021	0,068
-137,672	175,761	-0,098	-0,100
-136,658	-56,337	0,159	0,050
-135,643	-16,901	-0,141	-0,063
-134,629	259,172	-0,015	0,018
-133,614	167,638	0,123	-0,124
-132,599	67,075	0,115	0,083
-131,585	-200,000	-0,007	0,101
-130,570	172,389	0,087	-0,088
-129,556	-200,000	-0,045	-0,143
-128,541	-200,000	-0,003	-0,164
-127,526	-56,724	0,127	0,040
-126,512	-100,902	0,084	0,014
-125,497	800,000	0,068	-0,186
-124,483	-128,891	-0,193	-0,019
-123,468	39,625	-0,081	-0,051
-122,453	-74,100	0,076	-0,019
-121,439	129,790	-0,105	0,095
-120,424	-16,377	-0,267	0,119
-119,410	574,143	-0,030	-0,053
-118,395	-200,000	-0,015	0,143
-117,380	10,134	-0,075	0,040
-116,366	-200,000	-0,015	-0,077
-115,351	173,364	0,065	-0,066
-114,337	-32,386	-0,090	-0,035
-113,322	131,322	-0,099	0,090
-112,307	-52,987	-0,220	0,071
-111,293	733,970	0,033	0,063
-110,278	276,471	0,119	0,150
-109,264	457,646	0,106	0,168
-108,249	66,092	-0,066	0,047
-107,234	800,000	-0,026	-0,055
-106,220	96,473	-0,086	-0,070
-105,205	24,654	0,098	-0,057
-104,191	-144,141	0,052	-0,003
-103,176	-115,381	-0,054	0,007
-102,162	16,166	-0,069	0,038
-101,147	183,990	-0,039	-0,041
-100,132	-159,865	-0,186	0,007
-99,118	-200,000	0,018	-0,072
-98,103	466,264	0,134	0,213
-97,089	800,000	-0,039	-0,101
-96,074	800,000	-0,043	0,107
-95,059	-155,240	0,126	0,006
-94,045	-145,301	0,120	0,008
-93,030	800,000	-0,046	0,098
-92,016	-200,000	-0,026	-0,134
-91,001	153,266	0,071	-0,069
-89,986	-61,404	-0,100	-0,030
-88,972	-149,785	0,040	0,002
-87,957	-200,000	0,009	-0,072
-86,943	134,384	0,102	-0,094
-85,928	-200,000	-0,008	-0,151
-84,913	-200,000	-0,034	-0,114
-83,899	96,191	0,090	0,073
-82,884	383,683	0,041	-0,060
-81,870	-200,000	0,028	0,135
-80,855	800,000	0,043	-0,130
-79,840	-7,451	0,031	-0,015
-78,826	-107,060	-0,049	0,008
-77,811	298,809	-0,091	-0,119
-76,797	53,969	-0,048	0,032
-75,782	367,629	0,082	-0,117
-74,767	-99,767	0,225	0,039
-73,753	-200,000	-0,007	0,054
-72,738	-24,054	-0,020	-0,009
-71,724	462,835	-0,062	-0,098
-70,709	800,000	-0,077	-0,175
-69,694	-40,762	-0,105	-0,038
-68,680	-2,311	0,190	0,094
-67,665	-200,000	0,020	0,083
-66,651	49,597	0,124	-0,082
-65,636	-200,000	-0,008	-0,150
-64,622	-140,753	-0,148	-0,011
-63,607	800,000	-0,016	0,036
-62,592	-26,368	-0,134	-0,055
-61,578	67,095	0,029	-0,021
-60,563	-121,777	0,059	-0,007
-59,549	-53,400	-0,049	0,016
-58,534	27,976	-1,969	-1,168
-57,519	449,515	-1,254	-1,957
-56,505	-200,000	-0,436	-4,359
-55,490	572,434	0,910	1,570
-54,476	800,000	5,150	11,288
-53,461	-200,000	21,148	339,960
-52,446	800,000	759,441	2351,827
-51,432	558,281	1662,527	2839,468
-50,417	73,418	1662,826	1226,017
-49,403	17,999	1536,130	860,974
-48,388	11,922	1459,988	788,898
-47,373	19,400	1450,810	819,793
-46,359	15,390	1440,204	794,694
-45,344	10,210	1435,939	767,646
-44,330	10,130	1434,121	766,259
-43,315	10,112	1432,107	765,071
-42,300	10,126	1430,531	764,265
-41,286	10,164	1429,096	763,647
-40,271	10,091	1428,053	762,714
-39,257	10,153	1426,682	762,246
-38,242	10,182	1425,633	761,792
-37,227	10,133	1424,581	760,966
-36,213	10,161	1423,242	760,355
-35,198	10,182	1421,936	759,725
-34,184	10,217	1421,198	759,464
-33,169	10,131	1419,763	758,263
-32,154	10,154	1418,849	757,855
-31,140	10,151	1417,648	757,168
-30,125	10,216	1416,389	756,773
-29,111	10,208	1415,297	756,119
-28,096	10,168	1414,261	755,348
-27,082	10,120	1413,079	754,463
-26,067	10,137	1412,049	753,960
-25,052	10,143	1410,853	753,323
-24,038	10,153	1409,796	752,773
-23,023	10,112	1408,891	752,071
-22,009	10,128	1407,814	751,538
-20,994	10,084	1406,967	750,850
-19,979	10,133	1405,901	750,483
-18,965	10,129	1405,045	749,975
-17,950	10,072	1404,265	749,265
-16,936	10,085	1403,375	748,819
-15,921	10,031	1402,503	748,072
-14,906	10,005	1401,672	747,478
-13,892	10,105	1400,212	747,137
-12,877	10,069	1399,669	746,650
-11,863	10,015	1398,684	745,843
-10,848	9,946	1397,998	745,130
-9,833	9,991	1396,908	744,725
-8,819	9,966	1396,104	744,154
-7,804	9,952	1395,411	743,687
-6,790	9,958	1394,217	743,053
-5,775	9,939	1393,222	742,405
-4,760	9,989	1391,871	741,886
-3,746	9,967	1391,159	741,374
-2,731	9,964	1390,400	740,927
-1,717	9,913	1389,644	740,258
-0,702	9,947	1387,644	739,319
0,313	14,125	1300,782	712,120
1,327	30,528	691,044	415,507
2,342	47,561	119,783	78,586
3,356	4,233	16,464	8,470
4,371	7,956	3,599	1,896
5,386	-23,807	1,071	0,450
6,400	800,000	0,175	0,483
7,415	-43,836	-0,271	-0,096
8,429	45,362	-0,352	-0,229
9,444	28,065	-0,249	-0,148
10,459	98,933	-0,316	-0,257
11,473	86,802	-0,357	-0,277
12,488	-118,161	-0,279	-0,035
13,502	100,395	-0,239	-0,195
14,517	53,487	-0,282	-0,190
15,531	28,884	-0,398	-0,237
16,546	87,318	-0,399	-0,310
17,561	-34,365	-0,416	-0,160
18,575	374,648	-0,044	-0,063
19,590	-116,815	-0,375	-0,048
20,604	81,181	-0,206	-0,156
21,619	-4,941	-0,477	-0,230
22,634	106,041	-0,434	-0,362
23,648	127,317	-0,391	-0,349
24,663	27,443	-0,384	-0,227
25,677	240,583	-0,203	-0,239
26,692	64,956	-0,330	-0,234
27,707	10,329	-0,369	-0,197
28,721	44,925	-0,343	-0,222
29,736	35,558	-0,464	-0,286
30,750	27,733	-0,481	-0,284
31,765	142,321	-0,293	-0,274
32,780	123,126	-0,307	-0,271
33,794	355,178	-0,218	-0,305
34,809	102,274	-0,380	-0,312
35,823	106,172	-0,405	-0,337
36,838	60,736	-0,351	-0,244
37,853	-37,804	-0,413	-0,154
38,867	260,290	-0,343	-0,417
39,882	-46,017	-0,383	-0,132
40,896	-33,257	-0,310	-0,120
41,911	218,968	-0,285	-0,321
42,926	-34,342	-0,345	-0,132
43,940	104,957	-0,304	-0,251
44,955	58,085	-0,427	-0,293
45,969	28,318	-0,271	-0,160
46,984	195,344	-0,332	-0,354
47,999	86,278	-0,319	-0,247
49,013	38,365	-0,283	-0,176
50,028	17,579	-0,416	-0,232
51,042	150,143	-0,347	-0,331
52,057	56,014	-0,257	-0,174
53,071	102,907	-0,405	-0,333
54,086	113,132	-0,348	-0,296
55,101	65,192	-0,317	-0,225
56,115	135,201	-0,377	-0,344
57,130	84,763	-0,342	-0,262
58,144	-67,972	-0,307	-0,083
59,159	191,725	-0,382	-0,404
60,174	297,932	-0,297	-0,383
61,188	147,526	-0,318	-0,300
62,203	326,024	-0,235	-0,316
63,217	234,942	-0,254	-0,295
64,232	113,778	-0,269	-0,229
65,247	16,498	-0,320	-0,177
66,261	118,553	-0,346	-0,299
67,276	122,478	-0,298	-0,261
68,290	200,611	-0,233	-0,251
69,305	177,044	-0,355	-0,362
70,320	-34,512	-0,416	-0,159
71,334	21,336	-0,287	-0,163
72,349	249,160	-0,293	-0,348
73,363	88,784	-0,371	-0,288
74,378	6,959	-0,416	-0,216
75,393	94,044	-0,280	-0,222
76,407	-132,093	-0,235	-0,021
77,422	-80,435	-0,269	-0,062
78,436	-31,988	-0,307	-0,120
79,451	59,348	-0,301	-0,207
80,466	-46,024	-0,272	-0,093
81,480	85,114	-0,324	-0,249
82,495	-29,096	-0,268	-0,107
83,509	121,397	-0,246	-0,215
84,524	185,794	-0,126	-0,131
85,539	57,741	-0,369	-0,252
86,553	125,527	-0,175	-0,155
87,568	-10,198	-0,240	-0,111
88,582	40,044	-0,261	-0,164
89,597	271,446	-0,238	-0,293
90,611	-45,137	-0,198	-0,068
91,626	403,282	-0,157	-0,232
92,641	135,904	-0,219	-0,199
93,655	75,867	-0,331	-0,245
94,670	-1,616	-0,280	-0,137
95,684	142,648	-0,255	-0,237
96,699	-5,273	-0,328	-0,157
97,714	-21,877	-0,392	-0,166
98,728	109,166	-0,199	-0,166
99,743	144,609	-0,332	-0,310
100,757	109,346	-0,293	-0,245
101,772	253,683	-0,311	-0,371
102,787	-87,314	-0,240	-0,050
103,801	67,762	-0,279	-0,199
104,816	91,433	-0,266	-0,208
105,830	-38,396	-0,170	-0,062
106,845	159,250	-0,167	-0,162
107,860	-19,267	-0,250	-0,108
108,874	69,772	-0,233	-0,167
109,889	198,700	-0,173	-0,186
110,903	67,354	-0,296	-0,211
111,918	196,187	-0,246	-0,261
112,933	25,474	-0,318	-0,184
113,947	800,000	-0,112	-0,250
114,962	32,665	-0,254	-0,153
115,976	27,181	-0,287	-0,168
116,991	-42,045	-0,391	-0,139
118,006	511,588	-0,157	-0,256
119,020	-40,450	-0,290	-0,105
120,035	448,509	-0,150	-0,232
121,049	-75,917	-0,304	-0,074
122,064	-22,821	-0,249	-0,104
123,079	-24,486	-0,258	-0,107
124,093	158,109	-0,165	-0,160
125,108	67,809	-0,255	-0,181
126,122	49,641	-0,225	-0,148
127,137	62,181	-0,279	-0,194
128,151	103,378	-0,273	-0,223
129,166	206,587	-0,142	-0,154
130,181	214,996	-0,207	-0,229
131,195	-72,583	-0,163	-0,042
132,210	484,578	-0,202	-0,322
133,224	175,834	-0,270	-0,273
134,239	25,903	-0,261	-0,151
135,254	640,636	-0,119	-0,212
136,268	301,925	-0,154	-0,199
137,283	184,045	-0,274	-0,283
138,297	7,641	-0,233	-0,121
139,312	215,558	-0,198	-0,219
140,327	107,795	-0,233	-0,193
141,341	128,933	-0,274	-0,244
142,356	-13,723	-0,173	-0,078
143,370	-66,253	-0,307	-0,085
144,385	86,604	-0,254	-0,195
145,400	-182,881	-0,351	0,004
146,414	15,695	-0,254	-0,138
147,429	-126,446	-0,285	-0,029
148,443	117,101	-0,235	-0,200
149,458	66,714	-0,193	-0,136
150,473	13,220	-0,323	-0,173
151,487	-94,967	-0,222	-0,041
152,502	225,923	-0,185	-0,209
153,516	239,004	-0,247	-0,286
154,531	74,626	-0,352	-0,257
155,546	-41,461	-0,151	-0,054
156,560	36,165	-0,243	-0,149
157,575	34,954	-0,275	-0,167
158,589	346,933	-0,157	-0,216
159,604	78,999	-0,222	-0,165
160,619	26,134	-0,278	-0,161
161,633	205,857	-0,230	-0,249
162,648	-78,968	-0,213	-0,050
163,662	-13,828	-0,228	-0,102
164,677	91,551	-0,141	-0,110
165,692	247,639	-0,189	-0,223
166,706	57,526	-0,211	-0,143
167,721	-16,488	-0,323	-0,142
168,735	-180,123	-0,212	-0,003
169,750	-39,935	-0,287	-0,104
170,764	-22,316	-0,255	-0,107
171,779	493,154	-0,134	-0,214
172,794	219,401	-0,161	-0,179
173,808	146,172	-0,179	-0,167
174,823	207,243	-0,140	-0,152
175,837	91,176	-0,210	-0,163
176,852	98,560	-0,201	-0,161
177,867	41,962	-0,172	-0,108
178,881	58,951	-0,190	-0,129
179,896	30,896	-0,198	-0,117
180,910	162,434	-0,169	-0,165
181,925	348,271	-0,185	-0,254
182,940	245,594	-0,168	-0,197
183,954	701,429	-0,097	-0,177
184,969	139,497	-0,154	-0,140
185,983	66,233	-0,247	-0,174
186,998	97,480	-0,197	-0,157
188,013	67,012	-0,209	-0,147
189,027	-47,489	-0,164	-0,055
190,042	800,000	-0,123	-0,286
191,056	-100,904	-0,259	-0,044
192,071	124,520	-0,155	-0,135
193,086	164,849	-0,146	-0,143
194,100	138,708	-0,222	-0,202
195,115	339,463	-0,164	-0,222
196,129	800,000	-0,129	-0,252
197,144	-3,699	-0,188	-0,090
198,159	416,498	-0,160	-0,238
199,173	89,035	-0,257	-0,198
200,188	-49,165	-0,208	-0,069
201,202	231,330	-0,106	-0,120
202,217	-53,429	-0,144	-0,046
203,232	292,388	-0,151	-0,190
204,246	317,151	-0,247	-0,324
205,261	266,772	-0,184	-0,223
206,275	-89,621	-0,219	-0,044
207,290	28,003	-0,163	-0,095
208,304	-101,919	-0,077	-0,013
209,319	-108,737	-0,173	-0,025
210,334	349,716	-0,094	-0,129
211,348	5,803	-0,306	-0,156
212,363	90,482	-0,318	-0,246
213,377	67,940	-0,209	-0,148
214,392	-200,000	0,020	-0,102
215,407	-200,000	-0,055	-0,231
216,421	106,469	-0,176	-0,145
217,436	800,000	-0,087	-0,211
218,450	109,268	-0,308	-0,255
219,465	33,241	-0,285	-0,170
220,480	-133,425	-0,167	0,014
221,494	-60,304	-0,134	0,039
222,509	-55,294	-0,178	-0,055
223,523	134,818	-0,125	-0,112
224,538	51,289	-0,254	-0,167
225,553	205,582	-0,221	-0,238
226,567	31,953	-0,249	-0,148
227,582	92,949	-0,168	-0,131
228,596	-19,726	-0,340	-0,145
229,611	-139,100	-0,214	-0,016
230,626	-108,292	-0,182	-0,027
231,640	36,556	-0,194	-0,118
232,655	-112,696	-0,295	-0,040
233,669	81,789	-0,253	-0,189
234,684	9,386	-0,249	-0,130
235,699	51,010	-0,193	-0,126
236,713	-143,042	-0,188	0,012
237,728	143,375	-0,158	-0,146
238,742	527,224	-0,095	-0,156
239,757	235,845	-0,175	-0,200
240,772	113,742	-0,290	-0,243
241,786	367,177	-0,123	-0,172
242,801	-200,000	-0,037	-0,159
243,815	-200,000	-0,041	-0,190
244,830	92,519	-0,143	-0,111
245,844	-63,149	-0,214	-0,061
246,859	-115,217	-0,214	-0,028
247,874	333,825	-0,191	-0,255
248,888	351,687	-0,089	-0,122
249,903	-149,630	-0,091	0,005
250,917	-34,317	-0,248	-0,093
251,932	182,331	-0,210	-0,214
252,947	-103,320	-0,234	-0,038
253,961	-73,023	-0,213	-0,054
254,976	122,674	-0,163	-0,140
255,990	301,243	-0,142	-0,182
257,005	800,000	-0,020	-0,059
258,020	309,650	-0,110	0,142
259,034	-185,087	-0,274	0,003
260,049	-5,570	-0,032	-0,015
261,063	19,550	-0,138	0,076
262,078	182,914	-0,175	-0,178
263,093	181,755	-0,308	-0,313
264,107	139,910	-0,274	-0,248
265,122	-82,375	-0,175	0,039
266,136	236,174	-0,130	-0,148
267,151	-58,244	-0,218	-0,065
268,166	800,000	-0,088	-0,228
269,180	279,871	-0,172	-0,212
270,195	23,561	-0,192	-0,108
271,209	165,638	-0,167	-0,162
272,224	-47,618	-0,209	-0,069
273,239	-50,798	-0,152	0,049
274,253	115,794	-0,123	0,104
275,268	-60,372	-0,265	-0,077
276,282	9,253	-0,167	-0,087
277,297	77,048	-0,115	-0,084
278,312	96,197	-0,180	-0,141
279,326	-86,685	-0,126	-0,026
280,341	-8,423	-0,148	-0,068
281,355	-163,699	-0,060	0,002
282,370	695,005	-0,084	-0,152
283,384	420,832	-0,210	-0,310
284,399	225,534	-0,150	-0,168
285,414	437,262	-0,065	-0,097
286,428	-41,072	-0,096	-0,034
287,443	695,352	-0,141	-0,255
288,457	54,942	-0,125	-0,083
289,472	45,093	-0,175	-0,111
290,487	20,137	-0,157	-0,087
291,501	154,271	-0,213	-0,201
292,516	3,784	-0,248	-0,124
293,530	347,286	-0,073	-0,099
294,545	-200,000	0,021	-0,156
295,560	435,882	-0,105	-0,158
296,574	800,000	-0,136	-0,268
297,589	48,851	-0,108	-0,070
298,603	430,278	-0,121	-0,180
299,618	31,247	-0,194	-0,114
300,633	157,545	-0,093	0,088
301,647	29,501	-0,067	-0,039
302,662	-67,679	-0,091	0,024
303,676	185,078	-0,059	-0,060
304,691	800,000	-0,096	-0,185
305,706	52,649	-0,200	-0,131
306,720	206,319	-0,188	-0,201
307,735	247,401	-0,128	-0,149
308,749	226,062	-0,044	-0,048
309,764	65,790	-0,057	0,040
310,779	-200,000	-0,016	-0,049
311,793	800,000	-0,133	-0,259
312,808	230,589	-0,139	-0,156
313,822	-78,961	-0,254	-0,059
314,837	325,968	-0,149	-0,196
315,852	800,000	-0,013	0,026
316,866	800,000	-0,054	-0,156
317,881	219,741	-0,119	-0,131
318,895	800,000	-0,044	0,110
319,910	-200,000	-0,035	-0,187
320,925	145,864	-0,171	-0,157
321,939	38,359	-0,097	-0,059
322,954	674,168	-0,088	-0,158
323,968	506,033	-0,145	-0,231
324,983	-44,037	-0,163	-0,056
325,997	800,000	-0,084	-0,252
327,012	-150,262	-0,166	-0,009
328,027	614,015	-0,070	-0,120
329,041	-5,710	-0,187	-0,087
330,056	317,531	-0,042	-0,055
331,070	-109,938	-0,155	-0,022
332,085	-84,722	-0,057	-0,012
333,100	728,023	-0,047	-0,086
334,114	268,999	-0,205	-0,246
335,129	87,423	-0,107	-0,081
336,143	-145,496	-0,181	-0,011
337,158	-93,459	-0,151	-0,028
338,173	35,889	-0,125	-0,075
339,187	-2,290	-0,128	0,061
340,202	800,000	-0,032	-0,072
341,216	800,000	-0,129	-0,261
342,231	52,644	-0,212	-0,139
343,246	53,358	-0,183	-0,120
344,260	2,613	-0,083	-0,041
345,275	49,377	-0,127	0,082
346,289	104,808	-0,184	-0,148
347,304	-9,497	-0,116	-0,053
348,319	-82,036	-0,220	0,049
349,333	149,708	-0,154	-0,143
350,348	412,673	-0,123	-0,179
351,362	111,045	-0,124	-0,102
352,377	-200,000	0,053	-0,193
353,392	800,000	-0,037	-0,080
354,406	-111,774	-0,170	0,023
355,421	208,037	1313,105	1403,468
356,435	160,063	1473,588	1403,936
