DTS Sentinel unit serial number:	SN410029Multiplexer serial number:	ORYXHardware model number:	OX2-SRSoftware version number:	ORYX F/W v4,00 Oryx Data Collector v3.7.2.0data status	okinstallation	B3 Nyhavnadifferential loss correction	single-endedforward channel	channel 1reverse channel	N/Adate	2023/12/01time	12:17:30forward acquisition time	300,00reverse acquisition time	0,00gamma	499,1914k internal	0,3213k external	0,3213temperature offset calibration	1,0000default loss term (dB/km)	0,3820temperature slope calibration	1,0000multiplexer offset coefficient	1,0000multiplexer slope coefficient	1,0000fibre end	0,00T internal ref (°C)	8,82T ext. ref 1 (°C)	-5,13T ext. ref 2 (°C)	-5,26length (m)	temperature (°C)	Stokes	anti-Stokes-744,400	387,256	-0,107	-0,161
-743,385	-200,000	-0,039	0,275
-742,371	800,000	-0,092	-0,203
-741,356	-200,000	-0,036	0,320
-740,342	27,042	-0,194	-0,118
-739,327	-200,000	0,018	0,176
-738,312	543,743	-0,097	-0,169
-737,298	310,572	-0,123	0,167
-736,283	800,000	-0,076	-0,218
-735,269	800,000	0,048	0,144
-734,254	-5,630	-0,232	-0,115
-733,239	14,324	-0,220	0,124
-732,225	368,117	-0,165	-0,242
-731,210	800,000	0,103	0,234
-730,196	-5,412	-0,060	0,030
-729,181	431,600	0,021	0,034
-728,167	-42,471	-0,003	-0,001
-727,152	56,761	0,057	-0,040
-726,137	800,000	-0,068	0,154
-725,123	59,547	-0,094	0,067
-724,108	599,913	0,050	-0,090
-723,094	241,249	-0,003	0,004
-722,079	788,344	-0,074	0,147
-721,064	6,622	-0,193	-0,103
-720,050	-200,000	-0,015	-0,069
-719,035	-154,328	0,079	0,004
-718,021	-200,000	-0,034	-0,108
-717,006	-200,000	0,003	-0,158
-715,991	-200,000	-0,008	-0,031
-714,977	459,090	-0,064	-0,103
-713,962	-127,587	-0,044	0,005
-712,948	-174,965	0,132	-0,003
-711,933	546,177	-0,064	0,111
-710,918	800,000	-0,037	-0,080
-709,904	800,000	-0,040	-0,099
-708,889	-200,000	-0,015	-0,126
-707,875	121,685	-0,131	-0,119
-706,860	-200,000	0,033	-0,112
-705,845	-39,191	-0,104	0,039
-704,831	47,752	-0,039	0,026
-703,816	-200,000	0,012	0,078
-702,802	800,000	0,051	-0,110
-701,787	800,000	0,017	-0,040
-700,772	800,000	0,029	-0,089
-699,758	230,160	0,030	-0,036
-698,743	-200,000	0,014	-0,089
-697,729	800,000	-0,040	0,085
-696,714	1,492	-0,072	-0,038
-695,699	439,930	0,034	0,055
-694,685	384,193	0,027	-0,040
-693,670	393,706	-0,060	-0,091
-692,656	-79,728	0,095	-0,023
-691,641	-78,573	0,030	0,007
-690,627	358,764	0,081	0,117
-689,612	800,000	-0,012	0,038
-688,597	-103,909	-0,039	0,006
-687,583	7,666	-0,049	-0,026
-686,568	-200,000	-0,048	-0,171
-685,554	-200,000	-0,005	-0,025
-684,539	195,291	0,024	0,026
-683,524	-200,000	0,018	-0,127
-682,510	-156,532	-0,059	-0,003
-681,495	-200,000	0,007	0,081
-680,481	800,000	-0,054	-0,110
-679,466	-200,000	0,023	-0,239
-678,451	-200,000	0,040	-0,164
-677,437	800,000	0,045	0,105
-676,422	800,000	0,005	-0,016
-675,408	-68,270	-0,043	-0,012
-674,393	442,434	-0,046	-0,073
-673,378	543,626	0,012	0,020
-672,364	73,767	0,067	0,051
-671,349	131,381	-0,109	-0,101
-670,335	800,000	0,029	-0,078
-669,320	-65,071	-0,141	0,041
-668,305	189,874	0,050	0,054
-667,291	-200,000	-0,020	0,066
-666,276	-18,035	0,140	0,063
-665,262	33,741	-0,112	-0,070
-664,247	98,413	-0,148	0,123
-663,232	-200,000	0,013	-0,133
-662,218	-42,247	-0,102	-0,037
-661,203	-200,000	-0,008	-0,107
-660,189	-34,322	-0,057	-0,022
-659,174	-200,000	0,012	-0,206
-658,159	149,920	-0,081	-0,079
-657,145	-77,094	0,021	0,005
-656,130	-200,000	-0,009	-0,094
-655,116	-200,000	-0,017	-0,079
-654,101	-59,774	0,043	0,013
-653,086	-145,273	0,120	0,008
-652,072	-17,115	0,100	-0,045
-651,057	-200,000	-0,005	0,091
-650,043	-165,291	-0,049	-0,002
-649,028	-200,000	-0,028	-0,109
-648,014	74,801	-0,011	0,008
-646,999	242,756	0,038	0,046
-645,984	522,052	-0,037	-0,062
-644,970	800,000	-0,022	-0,050
-643,955	211,870	0,046	-0,052
-642,941	-144,200	-0,060	-0,004
-641,926	236,852	-0,149	-0,179
-640,911	-200,000	0,002	0,053
-639,897	-200,000	0,026	0,176
-638,882	135,234	0,071	-0,067
-637,868	44,316	-0,117	0,077
-636,853	-111,526	-0,078	0,011
-635,838	289,748	-0,058	-0,076
-634,824	-200,000	-0,003	-0,094
-633,809	-131,975	-0,013	0,001
-632,795	-200,000	0,028	-0,136
-631,780	-200,000	-0,008	-0,056
-630,765	92,979	-0,037	-0,030
-629,751	575,928	-0,036	0,064
-628,736	-200,000	0,051	-0,239
-627,722	-200,000	-0,006	0,140
-626,707	234,058	-0,064	0,076
-625,692	53,989	0,028	0,020
-624,678	260,485	0,096	-0,120
-623,663	-10,232	-0,021	-0,010
-622,649	-200,000	-0,017	-0,061
-621,634	800,000	0,049	-0,107
-620,619	62,025	0,030	-0,021
-619,605	800,000	0,013	-0,033
-618,590	666,660	-0,079	-0,147
-617,576	9,766	-0,079	0,043
-616,561	-200,000	-0,027	-0,146
-615,546	-200,000	-0,011	-0,099
-614,532	800,000	-0,034	-0,070
-613,517	318,495	-0,033	0,045
-612,503	-167,762	-0,040	0,001
-611,488	447,180	0,049	0,078
-610,474	-172,796	0,092	-0,002
-609,459	-68,134	-0,021	0,006
-608,444	21,669	-0,064	-0,037
-607,430	800,000	-0,046	-0,116
-606,415	-200,000	-0,001	-0,250
-605,401	592,671	0,036	-0,065
-604,386	438,304	-0,046	-0,073
-603,371	-129,184	0,065	-0,006
-602,357	800,000	0,034	-0,081
-601,342	69,631	-0,055	-0,041
-600,328	-58,497	-0,043	-0,013
-599,313	560,050	-0,043	0,075
-598,298	-200,000	-0,004	-0,016
-597,284	-73,936	0,152	0,039
-596,269	-185,529	-0,027	-0,000
-595,255	616,866	-0,069	0,125
-594,240	-200,000	-0,010	0,048
-593,225	800,000	0,001	0,003
-592,211	176,431	-0,119	0,125
-591,196	800,000	0,045	0,100
-590,182	-31,274	0,098	0,040
-589,167	-200,000	-0,019	-0,072
-588,152	-200,000	-0,023	0,075
-587,138	-200,000	0,064	-0,248
-586,123	-41,201	-0,038	-0,014
-585,109	176,431	0,117	-0,123
-584,094	-9,912	-0,081	0,038
-583,079	189,439	-0,088	0,095
-582,065	-60,001	-0,089	0,027
-581,050	800,000	-0,061	0,147
-580,036	638,069	0,021	-0,039
-579,021	30,320	-0,047	0,029
-578,006	-8,713	0,077	0,037
-576,992	-2,068	0,041	0,021
-575,977	800,000	0,067	-0,140
-574,963	800,000	0,030	0,085
-573,948	146,253	0,055	0,053
-572,934	-137,113	0,059	-0,005
-571,919	-127,904	-0,110	0,011
-570,904	800,000	-0,017	-0,050
-569,890	-200,000	-0,031	0,100
-568,875	-200,000	0,017	-0,077
-567,861	-169,610	0,100	-0,003
-566,846	20,807	0,129	0,075
-565,831	-64,330	-0,031	-0,009
-564,817	-84,524	-0,105	0,024
-563,802	-22,049	-0,060	0,026
-562,788	-200,000	0,001	-0,033
-561,773	350,938	0,016	0,023
-560,758	5,385	-0,053	0,028
-559,744	80,840	0,096	-0,074
-558,729	142,839	-0,103	0,098
-557,715	43,712	-0,122	-0,080
-556,700	-200,000	-0,002	-0,086
-555,685	800,000	-0,015	-0,035
-554,671	281,729	0,047	0,061
-553,656	87,733	-0,029	0,023
-552,642	110,086	0,144	-0,124
-551,627	-200,000	0,000	-0,017
-550,612	-200,000	0,019	0,121
-549,598	70,228	-0,134	-0,099
-548,583	-200,000	-0,039	-0,128
-547,569	-15,598	-0,113	0,052
-546,554	736,609	-0,030	-0,057
-545,539	-200,000	0,019	0,136
-544,525	716,493	-0,020	-0,038
-543,510	361,063	-0,077	0,112
-542,496	118,861	0,091	-0,081
-541,481	128,576	-0,061	0,056
-540,466	-200,000	-0,004	-0,024
-539,452	-200,000	0,011	-0,197
-538,437	270,318	0,098	0,124
-537,423	30,567	0,124	-0,076
-536,408	-200,000	0,015	-0,051
-535,393	-200,000	-0,040	0,139
-534,379	93,095	0,061	-0,050
-533,364	740,788	0,063	0,122
-532,350	800,000	0,061	0,135
-531,335	325,830	-0,050	0,068
-530,321	72,767	0,099	0,075
-529,306	-44,741	-0,144	0,051
-528,291	-200,000	0,006	0,106
-527,277	561,701	0,046	-0,081
-526,262	57,267	-0,074	0,052
-525,248	-80,167	0,106	0,025
-524,233	-147,886	-0,126	0,007
-523,218	56,868	-0,085	-0,059
-522,204	94,041	-0,038	0,031
-521,189	-200,000	-0,004	-0,079
-520,175	205,225	-0,019	0,021
-519,160	-21,932	0,086	0,037
-518,145	-35,060	0,095	-0,037
-517,131	-48,821	0,073	0,025
-516,116	105,466	-0,057	-0,048
-515,102	315,936	-0,116	0,157
-514,087	248,064	0,030	0,036
-513,072	224,919	0,037	-0,043
-512,058	-200,000	-0,001	-0,042
-511,043	-70,624	0,093	-0,025
-510,029	44,937	0,165	-0,109
-509,014	800,000	0,065	0,142
-507,999	114,095	-0,125	-0,110
-506,985	319,237	-0,068	-0,093
-505,970	800,000	0,029	-0,065
-504,956	-200,000	-0,017	0,108
-503,941	800,000	-0,020	0,053
-502,926	331,308	0,053	0,074
-501,912	210,919	0,121	0,136
-500,897	800,000	0,028	-0,077
-499,883	631,035	-0,038	-0,070
-498,868	800,000	-0,073	-0,184
-497,853	-200,000	0,019	-0,111
-496,839	748,524	-0,089	-0,174
-495,824	-200,000	0,020	-0,149
-494,810	234,497	0,050	0,059
-493,795	-118,562	0,142	0,018
-492,781	119,353	0,025	0,022
-491,766	-200,000	0,008	-0,036
-490,751	395,598	0,095	0,142
-489,737	-57,157	-0,082	-0,026
-488,722	628,131	0,065	-0,119
-487,708	342,215	0,043	0,061
-486,693	597,334	0,083	0,148
-485,678	539,689	-0,025	0,042
-484,664	-200,000	0,053	-0,200
-483,649	79,558	0,126	-0,097
-482,635	800,000	-0,045	0,127
-481,620	-11,794	0,043	0,020
-480,605	-200,000	-0,015	0,094
-479,591	-129,442	-0,047	-0,005
-478,576	395,709	-0,038	0,057
-477,562	296,925	-0,059	-0,078
-476,547	230,002	-0,062	-0,073
-475,532	-200,000	-0,002	-0,007
-474,518	171,384	0,127	0,131
-473,503	-108,043	0,009	-0,001
-472,489	-200,000	-0,003	0,082
-471,474	642,710	-0,068	-0,124
-470,459	251,701	0,030	0,037
-469,445	28,147	-0,087	-0,053
-468,430	-200,000	0,017	-0,193
-467,416	42,655	0,009	0,006
-466,401	-127,036	0,061	0,006
-465,386	78,485	0,040	-0,030
-464,372	16,863	-0,070	0,040
-463,357	440,997	0,033	-0,053
-462,343	379,230	-0,041	0,061
-461,328	-200,000	-0,009	-0,049
-460,313	78,222	-0,048	0,037
-459,299	-200,000	-0,001	0,066
-458,284	-22,315	-0,003	-0,001
-457,270	-86,064	-0,176	0,039
-456,255	-75,546	-0,024	0,006
-455,241	15,024	-0,133	-0,075
-454,226	-200,000	0,019	0,160
-453,211	64,066	0,077	-0,056
-452,197	-104,970	-0,082	0,013
-451,182	-35,495	0,067	0,026
-450,168	-200,000	-0,005	0,062
-449,153	168,711	-0,039	-0,040
-448,138	-33,461	0,069	-0,027
-447,124	-200,000	0,014	0,081
-446,109	751,050	-0,050	-0,096
-445,095	773,849	0,053	-0,104
-444,080	-200,000	0,029	0,098
-443,065	-200,000	-0,001	-0,007
-442,051	90,441	-0,018	-0,015
-441,036	800,000	-0,017	-0,048
-440,022	-200,000	0,013	-0,173
-439,007	-53,831	-0,103	-0,033
-437,992	60,848	-0,119	0,085
-436,978	800,000	0,050	0,107
-435,963	-200,000	0,006	0,057
-434,949	214,513	-0,124	0,141
-433,934	800,000	0,044	-0,098
-432,919	-6,701	-0,174	-0,084
-431,905	443,826	-0,091	0,143
-430,890	494,522	0,029	0,048
-429,876	516,927	-0,008	-0,013
-428,861	447,894	0,068	-0,107
-427,846	61,443	-0,084	-0,060
-426,832	49,802	-0,059	0,040
-425,817	-1,493	-0,109	0,055
-424,803	-47,272	0,095	0,033
-423,788	-155,110	0,118	0,005
-422,773	147,672	0,029	-0,028
-421,759	-38,828	-0,138	0,052
-420,744	89,070	0,086	-0,068
-419,730	192,180	0,038	-0,041
-418,715	341,190	-0,068	-0,096
-417,701	548,612	0,022	-0,037
-416,686	60,332	0,072	-0,051
-415,671	-104,376	0,137	-0,023
-414,657	53,098	0,124	-0,085
-413,642	-61,617	0,041	0,012
-412,628	800,000	-0,036	-0,109
-411,613	511,622	0,040	-0,066
-410,598	800,000	-0,020	0,049
-409,584	-122,169	0,064	0,007
-408,569	-142,415	-0,059	0,004
-407,555	-31,450	0,078	0,031
-406,540	-42,259	-0,060	-0,022
-405,525	-32,826	-0,071	0,028
-404,511	-93,196	-0,158	0,031
-403,496	235,134	-0,050	0,059
-402,482	-200,000	0,024	0,120
-401,467	-27,345	0,082	-0,034
-400,452	800,000	0,090	0,210
-399,438	800,000	0,014	-0,034
-398,423	12,163	-0,101	-0,055
-397,409	-200,000	0,023	-0,076
-396,394	295,515	-0,111	-0,146
-395,379	800,000	0,017	-0,036
-394,365	800,000	0,044	0,103
-393,350	750,886	-0,027	-0,053
-392,336	-200,000	0,010	0,140
-391,321	-200,000	-0,203	0,000
-390,306	800,000	0,024	0,069
-389,292	129,375	0,053	-0,048
-388,277	-14,475	-0,108	-0,049
-387,263	35,705	0,056	0,035
-386,248	53,294	0,054	0,037
-385,233	-200,000	-0,027	-0,125
-384,219	143,882	-0,010	0,010
-383,204	-44,626	-0,081	-0,029
-382,190	800,000	-0,047	-0,100
-381,175	-200,000	0,038	0,142
-380,160	11,397	-0,173	-0,094
-379,146	308,076	0,077	-0,102
-378,131	561,443	0,031	0,054
-377,117	89,715	-0,087	-0,069
-376,102	16,056	0,092	-0,052
-375,088	20,538	-0,121	-0,070
-374,073	-124,394	-0,013	-0,001
-373,058	-49,620	0,147	-0,050
-372,044	135,960	0,110	0,103
-371,029	-200,000	-0,036	0,123
-370,015	128,959	-0,081	-0,074
-369,000	-200,000	0,007	-0,129
-367,985	-200,000	-0,017	-0,057
-366,971	-106,498	0,118	-0,019
-365,956	800,000	0,038	0,116
-364,942	-96,386	0,087	-0,016
-363,927	-200,000	-0,020	0,152
-362,912	-13,573	-0,099	-0,046
-361,898	-200,000	0,012	0,067
-360,883	800,000	0,043	0,126
-359,869	381,901	-0,004	0,006
-358,854	84,711	0,087	0,068
-357,839	-200,000	0,013	-0,062
-356,825	800,000	0,099	0,249
-355,810	472,358	-0,044	-0,071
-354,796	-84,330	0,085	-0,019
-353,781	800,000	0,037	-0,115
-352,766	430,149	0,023	0,035
-351,752	1,602	0,113	0,058
-350,737	-200,000	0,018	-0,179
-349,723	491,295	0,021	0,035
-348,708	-200,000	-0,023	0,085
-347,693	455,399	0,092	0,146
-346,679	-66,976	-0,148	-0,041
-345,664	278,573	0,067	-0,086
-344,650	-104,962	0,050	-0,008
-343,635	-200,000	0,037	0,127
-342,620	-200,000	-0,009	0,097
-341,606	-200,000	0,006	-0,032
-340,591	-42,133	0,120	-0,044
-339,577	128,292	-0,037	0,033
-338,562	-124,857	0,040	-0,004
-337,548	133,361	0,054	0,050
-336,533	-200,000	0,002	-0,126
-335,518	3,947	-0,095	0,049
-334,504	-150,834	0,093	-0,005
-333,489	247,463	-0,026	-0,031
-332,475	-100,430	-0,066	-0,012
-331,460	-53,330	-0,076	-0,025
-330,445	-98,471	-0,125	-0,023
-329,431	78,593	0,122	0,093
-328,416	-184,795	0,143	-0,002
-327,402	-200,000	-0,005	-0,064
-326,387	-200,000	0,008	0,143
-325,372	62,831	0,066	-0,047
-324,358	-33,028	-0,167	0,066
-323,343	-169,989	-0,074	-0,002
-322,329	-116,445	0,111	-0,014
-321,314	108,977	-0,067	-0,057
-320,299	-79,964	0,050	0,012
-319,285	-81,826	-0,039	-0,009
-318,270	-200,000	-0,006	-0,099
-317,256	-131,313	-0,087	-0,008
-316,241	-18,094	-0,118	0,053
-315,226	-108,084	0,170	0,026
-314,212	-65,137	0,230	0,066
-313,197	-89,526	-0,188	-0,039
-312,183	155,907	0,031	0,031
-311,168	-200,000	-0,006	-0,124
-310,153	-77,049	-0,040	-0,010
-309,139	42,998	0,028	-0,018
-308,124	19,328	0,081	0,046
-307,110	129,223	-0,051	0,046
-306,095	393,598	0,011	-0,017
-305,080	83,707	-0,121	-0,094
-304,066	-200,000	-0,017	0,096
-303,051	-120,425	-0,168	0,020
-302,037	37,353	-0,075	0,047
-301,022	800,000	0,045	0,102
-300,008	40,658	0,078	0,050
-298,993	2,916	0,039	0,020
-297,978	196,750	-0,116	-0,126
-296,964	-18,941	-0,117	-0,051
-295,949	130,434	-0,088	-0,080
-294,935	-90,604	-0,049	0,010
-293,920	476,123	0,036	0,058
-292,905	-43,343	-0,137	-0,049
-291,891	-200,000	-0,013	-0,148
-290,876	-9,568	0,147	-0,069
-289,862	166,734	-0,042	-0,043
-288,847	-200,000	-0,012	-0,087
-287,832	-200,000	0,045	-0,168
-286,818	297,100	0,026	0,034
-285,803	91,156	-0,025	0,020
-284,789	-16,167	0,129	0,058
-283,774	-40,259	-0,078	0,029
-282,759	-71,746	0,092	0,024
-281,745	205,441	-0,084	0,093
-280,730	45,860	0,047	0,031
-279,716	105,928	0,028	-0,024
-278,701	-200,000	0,014	0,127
-277,686	-200,000	0,001	0,075
-276,672	144,811	0,089	0,084
-275,657	-147,185	0,145	0,009
-274,643	237,217	-0,074	-0,087
-273,628	-69,475	-0,082	-0,022
-272,613	113,059	-0,029	0,025
-271,599	32,615	0,072	0,044
-270,584	800,000	-0,029	0,080
-269,570	67,777	0,119	0,086
-268,555	23,481	-0,075	0,044
-267,540	42,346	0,040	-0,026
-266,526	-200,000	-0,002	-0,036
-265,511	167,112	-0,032	-0,032
-264,497	800,000	-0,052	-0,127
-263,482	650,636	0,030	-0,055
-262,467	92,871	0,037	0,030
-261,453	-200,000	-0,025	0,086
-260,438	29,553	0,078	0,047
-259,424	-200,000	0,016	0,075
-258,409	28,388	-0,061	0,036
-257,395	-15,012	0,084	-0,038
-256,380	-200,000	0,018	0,130
-255,365	483,375	0,025	0,041
-254,351	-108,099	0,060	-0,009
-253,336	-69,886	0,119	-0,032
-252,322	-200,000	0,002	0,014
-251,307	-200,000	0,005	-0,024
-250,292	183,979	0,023	-0,025
-249,278	-200,000	0,005	-0,052
-248,263	800,000	0,065	0,155
-247,249	715,807	-0,041	-0,078
-246,234	-200,000	0,042	-0,161
-245,219	-75,554	-0,036	-0,009
-244,205	-185,343	-0,062	-0,001
-243,190	800,000	-0,055	-0,164
-242,176	-31,661	0,021	0,009
-241,161	274,639	0,085	0,107
-240,146	25,874	-0,163	0,096
-239,132	-85,877	-0,140	0,031
-238,117	-4,543	-0,084	-0,041
-237,103	-43,972	-0,111	-0,039
-236,088	-0,434	-0,076	-0,038
-235,073	800,000	-0,055	0,123
-234,059	-50,320	0,081	0,027
-233,044	-200,000	0,028	0,161
-232,030	-200,000	0,045	-0,168
-231,015	-200,000	-0,015	0,051
-230,000	800,000	0,019	-0,041
-228,986	156,582	0,017	0,017
-227,971	-33,676	0,085	-0,033
-226,957	128,795	-0,056	0,051
-225,942	-200,000	0,035	0,140
-224,927	-166,704	-0,018	-0,001
-223,913	-55,253	-0,095	0,030
-222,898	800,000	-0,055	-0,161
-221,884	185,939	0,048	0,051
-220,869	-80,108	-0,089	-0,021
-219,855	-141,241	0,074	-0,005
-218,840	207,355	0,031	0,034
-217,825	-75,627	0,069	0,017
-216,811	-17,520	-0,100	0,045
-215,796	-200,000	-0,007	0,096
-214,782	-145,678	0,025	0,002
-213,767	4,026	-0,123	0,063
-212,752	800,000	0,026	0,077
-211,738	-200,000	0,045	0,160
-210,723	364,007	0,032	-0,046
-209,709	-26,440	0,087	-0,036
-208,694	800,000	0,019	0,057
-207,679	219,723	0,087	-0,099
-206,665	204,255	0,086	0,094
-205,650	6,847	0,093	0,049
-204,636	287,588	-0,104	0,133
-203,621	-118,596	0,157	0,019
-202,606	-200,000	0,036	-0,140
-201,592	116,260	-0,093	-0,081
-200,577	800,000	0,066	0,139
-199,563	-67,778	0,012	0,003
-198,548	301,077	-0,033	0,043
-197,533	-200,000	0,028	0,093
-196,519	800,000	0,008	-0,025
-195,504	800,000	0,047	-0,094
-194,490	-200,000	-0,012	-0,057
-193,475	491,879	-0,006	-0,010
-192,460	485,137	0,029	0,047
-191,446	65,024	0,088	-0,063
-190,431	-200,000	-0,001	-0,014
-189,417	-58,836	-0,136	-0,041
-188,402	-6,907	0,067	0,032
-187,387	-200,000	-0,026	0,089
-186,373	153,071	0,044	0,042
-185,358	170,955	-0,073	0,075
-184,344	-200,000	-0,019	0,176
-183,329	53,084	0,064	0,043
-182,315	64,204	0,032	0,022
-181,300	434,444	-0,061	0,094
-180,285	-200,000	0,008	-0,034
-179,271	-27,057	0,036	-0,015
-178,256	32,300	-0,138	-0,084
-177,242	-26,605	0,106	-0,044
-176,227	-66,469	0,102	-0,028
-175,212	450,374	-0,042	0,066
-174,198	800,000	0,054	0,164
-173,183	678,691	0,013	-0,023
-172,169	-200,000	0,001	-0,065
-171,154	-151,013	0,115	-0,006
-170,139	-182,271	0,081	-0,001
-169,125	800,000	-0,026	0,076
-168,110	80,767	0,078	0,060
-167,096	-200,000	0,024	0,101
-166,081	800,000	-0,031	-0,071
-165,066	-54,854	-0,203	-0,064
-164,052	-200,000	-0,022	0,098
-163,037	22,169	0,159	0,092
-162,023	-200,000	0,023	-0,134
-161,008	-160,507	0,192	-0,007
-159,993	-200,000	0,019	0,076
-158,979	-113,591	-0,158	0,022
-157,964	-38,563	-0,127	0,047
-156,950	317,875	-0,104	-0,140
-155,935	652,634	0,046	0,084
-154,920	-9,259	-0,020	0,009
-153,906	382,627	-0,037	-0,055
-152,891	-200,000	0,023	-0,086
-151,877	-2,970	-0,074	0,036
-150,862	54,692	0,026	-0,018
-149,847	-50,189	-0,232	-0,077
-148,833	-98,606	-0,031	0,005
-147,818	-200,000	0,033	-0,104
-146,804	800,000	0,043	0,107
-145,789	-150,439	-0,030	-0,002
-144,775	262,990	-0,012	-0,014
-143,760	-200,000	0,004	-0,092
-142,745	-119,976	0,051	-0,006
-141,731	204,809	0,039	-0,043
-140,716	800,000	0,023	-0,052
-139,702	-164,294	0,104	-0,003
-138,687	0,890	0,101	0,051
-137,672	-200,000	0,007	-0,047
-136,658	-115,915	0,114	-0,015
-135,643	-200,000	-0,001	-0,007
-134,629	-200,000	-0,003	-0,053
-133,614	-174,257	-0,104	0,002
-132,599	686,454	0,052	0,096
-131,585	463,494	0,047	-0,074
-130,570	-107,601	0,158	-0,024
-129,556	-200,000	-0,046	-0,200
-128,541	645,653	-0,041	-0,074
-127,526	26,364	0,016	0,009
-126,512	-200,000	0,000	-0,019
-125,497	800,000	-0,030	0,069
-124,483	-48,695	0,097	0,033
-123,468	143,010	-0,039	0,037
-122,453	12,982	-0,080	0,044
-121,439	-200,000	0,006	-0,057
-120,424	-200,000	-0,014	0,055
-119,410	-118,608	0,122	-0,015
-118,395	-7,360	0,123	0,059
-117,380	-88,247	-0,046	0,010
-116,366	-164,351	0,021	-0,001
-115,351	-200,000	-0,063	0,235
-114,337	257,780	-0,043	-0,053
-113,322	-74,098	-0,107	0,027
-112,307	-70,541	0,205	-0,055
-111,293	-162,259	0,074	-0,003
-110,278	-200,000	0,003	0,053
-109,264	-0,543	-0,048	0,024
-108,249	800,000	-0,039	0,081
-107,234	800,000	-0,019	-0,057
-106,220	800,000	-0,041	-0,097
-105,205	-200,000	-0,020	0,089
-104,191	395,823	0,134	0,198
-103,176	15,808	0,080	-0,045
-102,162	-200,000	-0,004	-0,028
-101,147	-200,000	0,009	-0,077
-100,132	-65,523	0,073	-0,021
-99,118	800,000	0,054	-0,159
-98,103	-133,906	0,107	0,009
-97,089	-200,000	-0,020	-0,100
-96,074	-47,354	-0,013	-0,004
-95,059	800,000	0,068	-0,167
-94,045	-200,000	-0,004	-0,069
-93,030	759,449	-0,088	-0,169
-92,016	800,000	0,044	-0,090
-91,001	-200,000	-0,006	0,034
-89,986	310,720	0,051	0,068
-88,972	625,147	-0,029	-0,053
-87,957	95,721	0,130	-0,105
-86,943	-24,074	-0,060	0,025
-85,928	-200,000	0,009	0,049
-84,913	378,196	0,045	-0,065
-83,899	320,861	-0,094	-0,127
-82,884	14,234	0,040	-0,022
-81,870	-163,712	0,090	-0,003
-80,855	-117,870	0,155	0,019
-79,840	200,836	-0,071	0,078
-78,826	800,000	-0,062	-0,190
-77,811	-200,000	0,009	-0,035
-76,797	500,738	-0,031	-0,051
-75,782	-0,325	0,046	0,023
-74,767	77,954	0,067	-0,050
-73,753	-116,698	0,035	-0,004
-72,738	-109,445	-0,084	-0,012
-71,724	800,000	-0,024	0,052
-70,709	46,012	0,044	0,029
-69,694	-200,000	-0,012	0,051
-68,680	212,381	-0,040	-0,044
-67,665	121,406	-0,073	0,064
-66,651	-200,000	-0,002	-0,069
-65,636	224,141	0,057	0,065
-64,622	-26,286	-0,100	-0,041
-63,607	135,841	-0,031	-0,028
-62,592	562,143	0,056	0,096
-61,578	-119,078	0,021	-0,003
-60,563	-69,172	0,059	0,016
-59,549	-200,000	0,016	0,093
-58,534	22,982	-2,261	-1,305
-57,519	507,261	-1,096	-1,801
-56,505	-200,000	-0,406	-4,430
-55,490	313,672	1,190	1,583
-54,476	800,000	5,161	11,460
-53,461	-200,000	21,908	338,375
-52,446	800,000	760,231	2290,300
-51,432	529,484	1655,268	2766,911
-50,417	68,879	1652,877	1195,646
-49,403	16,424	1527,998	848,491
-48,388	10,684	1452,251	778,771
-47,373	19,089	1444,446	814,742
-46,359	14,035	1433,091	784,369
-45,344	8,972	1429,130	758,145
-44,330	8,900	1427,232	756,769
-43,315	8,847	1425,658	755,653
-42,300	8,867	1423,669	754,660
-41,286	8,946	1422,475	754,372
-40,271	8,886	1421,225	753,397
-39,257	8,878	1420,014	752,688
-38,242	8,947	1418,929	752,408
-37,227	8,900	1417,945	751,633
-36,213	8,891	1416,415	750,750
-35,198	8,903	1415,167	750,118
-34,184	8,969	1414,164	749,866
-33,169	8,841	1412,970	748,601
-32,154	8,884	1411,937	748,228
-31,140	8,909	1410,770	747,695
-30,125	8,959	1409,767	747,367
-29,111	8,897	1408,607	746,435
-28,096	8,908	1407,087	745,647
-27,082	8,816	1406,218	744,730
-26,067	8,835	1405,043	744,168
-25,052	8,789	1404,160	743,456
-24,038	8,871	1402,984	743,183
-23,023	8,864	1402,070	742,636
-22,009	8,865	1400,912	741,998
-20,994	8,857	1399,986	741,442
-19,979	8,863	1399,028	740,933
-18,965	8,809	1398,193	740,209
-17,950	8,790	1397,106	739,518
-16,936	8,801	1396,219	739,068
-15,921	8,751	1395,351	738,351
-14,906	8,747	1394,375	737,785
-13,892	8,815	1393,269	737,487
-12,877	8,779	1392,692	736,987
-11,863	8,792	1391,797	736,540
-10,848	8,710	1391,026	735,725
-9,833	8,695	1390,046	735,108
-8,819	8,651	1389,213	734,436
-7,804	8,644	1388,262	733,874
-6,790	8,652	1387,144	733,286
-5,775	8,686	1386,006	732,813
-4,760	8,675	1385,041	732,225
-3,746	8,697	1384,179	731,840
-2,731	8,680	1383,437	731,340
-1,717	8,640	1382,612	730,694
-0,702	8,677	1380,886	729,919
0,313	12,833	1292,045	701,828
1,327	29,067	682,963	407,410
2,342	45,245	117,628	76,306
3,356	-1,390	16,577	8,216
4,371	-2,703	3,803	1,868
5,386	30,208	1,280	0,768
6,400	414,196	0,370	0,557
7,415	-3,685	-0,256	-0,125
8,429	-44,924	-0,315	-0,110
9,444	238,843	-0,268	-0,315
10,459	45,893	-0,335	-0,218
11,473	-63,701	-0,393	-0,113
12,488	-39,585	-0,298	-0,109
13,502	124,277	-0,312	-0,276
14,517	-4,675	-0,290	-0,140
15,531	7,374	-0,420	-0,220
16,546	59,915	-0,232	-0,161
17,561	375,592	-0,231	-0,332
18,575	-104,793	-0,072	-0,012
19,590	141,798	-0,221	-0,206
20,604	34,193	-0,250	-0,153
21,619	75,680	-0,422	-0,313
22,634	162,516	-0,445	-0,439
23,648	85,652	-0,451	-0,348
24,663	183,555	-0,339	-0,353
25,677	84,304	-0,313	-0,241
26,692	107,800	-0,357	-0,299
27,707	82,978	-0,360	-0,275
28,721	29,106	-0,289	-0,172
29,736	42,843	-0,376	-0,240
30,750	11,803	-0,483	-0,260
31,765	211,652	-0,307	-0,340
32,780	33,504	-0,426	-0,260
33,794	8,171	-0,358	-0,189
34,809	172,070	-0,234	-0,236
35,823	-94,100	-0,378	-0,072
36,838	79,362	-0,349	-0,263
37,853	310,130	-0,265	-0,350
38,867	21,334	-0,512	-0,291
39,882	-10,637	-0,317	-0,147
40,896	39,617	-0,378	-0,237
41,911	168,446	-0,236	-0,236
42,926	326,975	-0,156	-0,210
43,940	51,802	-0,261	-0,174
44,955	206,361	-0,301	-0,329
45,969	29,676	-0,399	-0,238
46,984	74,340	-0,259	-0,190
47,999	-62,553	-0,369	-0,107
49,013	32,152	-0,319	-0,193
50,028	-15,340	-0,413	-0,185
51,042	207,621	-0,252	-0,276
52,057	-3,372	-0,419	-0,204
53,071	117,438	-0,335	-0,289
54,086	-1,099	-0,403	-0,199
55,101	124,119	-0,270	-0,238
56,115	249,216	-0,236	-0,281
57,130	119,579	-0,379	-0,329
58,144	-11,535	-0,438	-0,201
59,159	94,552	-0,397	-0,316
60,174	-47,385	-0,488	-0,166
61,188	53,407	-0,316	-0,212
62,203	42,325	-0,154	-0,098
63,217	91,926	-0,260	-0,205
64,232	-105,277	-0,281	-0,044
65,247	230,761	-0,215	-0,247
66,261	169,584	-0,310	-0,311
67,276	345,185	-0,211	-0,292
68,290	5,674	-0,329	-0,170
69,305	-138,196	-0,296	-0,023
70,320	79,335	-0,250	-0,188
71,334	-14,432	-0,384	-0,173
72,349	81,952	-0,349	-0,265
73,363	-48,686	-0,361	-0,121
74,378	132,839	-0,282	-0,255
75,393	26,329	-0,373	-0,218
76,407	138,561	-0,204	-0,188
77,422	20,638	-0,311	-0,176
78,436	105,988	-0,194	-0,161
79,451	224,807	-0,279	-0,316
80,466	1,310	-0,391	-0,196
81,480	34,272	-0,252	-0,153
82,495	112,026	-0,268	-0,226
83,509	47,549	-0,396	-0,258
84,524	-50,025	-0,326	-0,107
85,539	88,860	-0,298	-0,232
86,553	-1,877	-0,311	-0,152
87,568	132,752	-0,275	-0,248
88,582	125,680	-0,214	-0,189
89,597	-11,343	-0,239	-0,109
90,611	-59,028	-0,386	-0,116
91,626	36,102	-0,257	-0,158
92,641	178,102	-0,180	-0,184
93,655	-38,351	-0,328	-0,121
94,670	-50,552	-0,343	-0,112
95,684	45,114	-0,284	-0,182
96,699	232,002	-0,240	-0,275
97,714	142,524	-0,181	-0,168
98,728	63,532	-0,206	-0,144
99,743	189,928	-0,173	-0,182
100,757	73,391	-0,247	-0,181
101,772	114,800	-0,288	-0,245
102,787	156,705	-0,192	-0,185
103,801	110,997	-0,295	-0,248
104,816	169,933	-0,184	-0,184
105,830	-6,883	-0,308	-0,146
106,845	299,703	-0,192	-0,248
107,860	-6,336	-0,314	-0,149
108,874	170,566	-0,281	-0,282
109,889	127,940	-0,196	-0,174
110,903	-17,091	-0,343	-0,150
111,918	88,704	-0,294	-0,228
112,933	312,510	-0,112	-0,147
113,947	147,399	-0,163	-0,153
114,962	584,225	-0,085	-0,147
115,976	-59,758	-0,288	-0,085
116,991	94,643	-0,298	-0,237
118,006	637,014	-0,148	-0,264
119,020	-44,108	-0,166	-0,058
120,035	74,646	-0,231	-0,169
121,049	0,914	-0,234	-0,117
122,064	200,403	-0,211	-0,226
123,079	-84,652	-0,297	-0,065
124,093	38,504	-0,268	-0,166
125,108	-48,609	-0,359	-0,120
126,122	4,029	-0,251	-0,128
127,137	44,850	-0,189	-0,121
128,151	23,425	-0,170	-0,097
129,166	117,912	-0,117	-0,101
130,181	428,617	-0,177	-0,268
131,195	61,886	-0,264	-0,183
132,210	107,552	-0,234	-0,194
133,224	81,803	-0,232	-0,175
134,239	152,177	-0,189	-0,180
135,254	38,152	-0,198	-0,123
136,268	138,474	-0,173	-0,158
137,283	-70,790	-0,202	0,053
138,297	231,004	-0,068	-0,078
139,312	160,280	-0,253	-0,246
140,327	191,150	-0,185	-0,194
141,341	-30,073	-0,154	-0,061
142,356	-200,000	-0,031	-0,191
143,370	225,694	-0,183	-0,207
144,385	399,872	-0,088	-0,129
145,400	180,040	-0,168	-0,172
146,414	170,156	-0,214	-0,214
147,429	15,731	-0,407	-0,222
148,443	93,401	-0,289	-0,227
149,458	18,836	-0,259	-0,144
150,473	-28,213	-0,239	-0,096
151,487	-40,879	-0,238	-0,085
152,502	290,008	-0,194	-0,246
153,516	211,383	-0,211	-0,231
154,531	203,102	-0,231	-0,249
155,546	109,061	-0,180	-0,150
156,560	117,990	-0,214	-0,183
157,575	95,442	-0,195	-0,155
158,589	47,562	-0,341	-0,221
159,604	144,230	-0,228	-0,211
160,619	-12,567	-0,172	-0,078
161,633	633,560	-0,175	-0,310
162,648	800,000	-0,101	-0,212
163,662	216,363	-0,098	-0,109
164,677	-14,223	-0,209	-0,093
165,692	184,861	-0,189	-0,195
166,706	7,064	-0,104	-0,054
167,721	77,981	-0,283	-0,210
168,735	32,134	-0,188	-0,112
169,750	22,662	-0,372	-0,211
170,764	-66,664	-0,348	-0,095
171,779	-100,382	-0,136	-0,023
172,794	-33,700	-0,269	-0,103
173,808	145,053	-0,138	-0,128
174,823	32,657	-0,307	-0,184
175,837	13,334	-0,379	-0,203
176,852	224,881	-0,135	-0,151
177,867	199,474	-0,182	-0,194
178,881	-48,056	-0,180	-0,060
179,896	193,220	-0,198	-0,208
180,910	235,144	-0,237	-0,272
181,925	-11,961	-0,286	-0,130
182,940	-79,753	-0,420	-0,097
183,954	32,714	-0,292	-0,175
184,969	157,356	-0,268	-0,257
185,983	-42,091	-0,136	-0,048
186,998	44,637	-0,149	-0,095
188,013	-12,606	-0,180	-0,081
189,027	52,429	-0,174	-0,115
190,042	190,307	-0,239	-0,249
191,056	173,290	-0,171	-0,171
192,071	136,005	-0,150	-0,136
193,086	-31,970	-0,107	-0,041
194,100	800,000	-0,096	-0,260
195,115	-11,648	-0,184	-0,083
196,129	69,194	-0,297	-0,212
197,144	50,684	-0,260	-0,170
198,159	398,218	-0,144	-0,210
199,173	-6,066	-0,257	-0,121
200,188	299,755	-0,114	-0,145
201,202	30,895	-0,203	-0,120
202,217	-11,406	-0,393	-0,178
203,232	304,853	-0,217	-0,279
204,246	57,116	-0,228	-0,154
205,261	414,922	-0,164	-0,243
206,275	581,358	-0,045	-0,077
207,290	800,000	-0,020	-0,051
208,304	61,452	-0,144	-0,099
209,319	-95,419	-0,265	-0,049
210,334	-18,853	-0,328	-0,141
211,348	800,000	-0,047	-0,094
212,363	121,626	-0,152	-0,131
213,377	-104,635	-0,137	-0,022
214,392	237,015	-0,113	-0,129
215,407	564,498	-0,126	-0,211
216,421	-115,656	-0,070	-0,009
217,436	157,922	-0,215	-0,206
218,450	145,786	-0,155	-0,144
219,465	380,050	-0,133	-0,189
220,480	17,234	-0,267	-0,146
221,494	-43,043	-0,238	-0,083
222,509	7,683	-0,050	-0,026
223,523	18,532	-0,126	-0,069
224,538	-200,000	-0,033	-0,121
225,553	133,263	-0,215	-0,192
226,567	126,620	-0,253	-0,222
227,582	-134,340	-0,216	0,018
228,596	-70,984	-0,164	-0,042
229,611	-45,484	-0,141	-0,048
230,626	214,845	-0,164	-0,180
231,640	115,302	-0,171	-0,144
232,655	181,848	-0,251	-0,256
233,669	304,418	-0,167	-0,215
234,684	359,773	-0,129	-0,179
235,699	402,434	-0,180	-0,262
236,713	-145,718	-0,168	-0,010
237,728	-17,939	-0,187	-0,081
238,742	120,019	-0,209	-0,179
239,757	36,200	-0,204	-0,124
240,772	95,954	-0,334	-0,263
241,786	737,404	-0,108	-0,200
242,801	693,247	-0,110	-0,200
243,815	40,313	-0,179	-0,111
244,830	183,125	-0,083	-0,085
245,844	301,746	-0,150	-0,192
246,859	245,458	-0,073	-0,085
247,874	351,072	-0,072	-0,099
248,888	175,496	-0,158	-0,158
249,903	483,834	-0,148	-0,233
250,917	89,315	-0,140	-0,107
251,932	188,917	-0,080	-0,082
252,947	-77,817	-0,294	-0,070
253,961	-19,098	-0,259	-0,110
254,976	234,844	-0,182	-0,208
255,990	-14,539	-0,175	-0,077
257,005	191,862	-0,146	-0,152
258,020	87,645	-0,210	-0,160
259,034	4,650	-0,090	0,045
260,049	800,000	-0,099	-0,195
261,063	154,838	-0,150	-0,142
262,078	159,807	-0,112	-0,108
263,093	800,000	-0,082	-0,169
264,107	-75,865	-0,197	0,048
265,122	33,725	-0,252	-0,151
266,136	-60,199	-0,096	-0,028
267,151	521,933	-0,087	-0,141
268,166	800,000	-0,111	-0,224
269,180	-6,371	-0,219	-0,103
270,195	95,053	-0,242	-0,189
271,209	66,104	-0,203	-0,141
272,224	85,446	-0,129	-0,097
273,239	172,466	-0,134	-0,133
274,253	-71,380	-0,185	-0,047
275,268	6,671	-0,163	-0,083
276,282	245,258	-0,143	-0,165
277,297	-1,525	-0,298	-0,144
278,312	42,617	-0,246	-0,154
279,326	-104,668	-0,092	-0,014
280,341	-13,993	-0,098	-0,043
281,355	-66,216	-0,293	-0,080
282,370	2,199	-0,218	-0,108
283,384	92,353	-0,208	-0,161
284,399	-63,298	-0,244	-0,069
285,414	136,999	-0,059	-0,053
286,428	69,004	-0,078	-0,055
287,443	-156,543	-0,222	-0,009
288,457	132,092	-0,063	0,055
289,472	380,212	-0,043	-0,061
290,487	155,557	-0,136	-0,128
291,501	183,384	-0,155	-0,158
292,516	96,683	-0,151	-0,119
293,530	-107,298	-0,099	-0,015
294,545	9,077	-0,129	-0,067
295,560	-200,000	-0,005	-0,126
296,574	96,811	-0,085	-0,067
297,589	736,827	-0,121	-0,224
298,603	168,521	-0,153	-0,149
299,618	150,159	-0,199	-0,185
300,633	77,450	-0,105	-0,077
301,647	317,598	-0,202	-0,264
302,662	245,385	-0,121	-0,140
303,676	-7,543	-0,139	-0,064
304,691	-113,010	-0,147	-0,020
305,706	51,291	-0,125	-0,081
306,720	365,027	-0,110	-0,153
307,735	-92,027	-0,126	0,024
308,749	-28,728	-0,094	-0,037
309,764	-30,079	-0,206	-0,080
310,779	-44,843	-0,217	-0,074
311,793	-61,344	-0,185	-0,053
312,808	178,453	-0,066	-0,067
313,822	228,335	-0,089	-0,099
314,837	316,753	-0,119	-0,155
315,852	553,232	-0,055	-0,091
316,866	-61,301	-0,121	0,035
317,881	574,946	-0,085	-0,142
318,895	26,631	-0,060	-0,035
319,910	11,038	-0,185	-0,097
320,925	54,685	-0,165	-0,109
321,939	477,967	-0,245	-0,382
322,954	114,585	-0,111	-0,092
323,968	-200,000	-0,018	0,056
324,983	-132,593	-0,204	-0,018
325,997	-200,000	0,002	-0,087
327,012	46,992	-0,146	-0,093
328,027	311,450	-0,122	-0,157
329,041	6,967	-0,172	-0,088
330,056	10,046	-0,125	-0,065
331,070	800,000	-0,055	-0,137
332,085	-157,329	0,045	0,002
333,100	119,595	-0,048	0,041
334,114	-200,000	-0,041	-0,141
335,129	66,814	-0,163	-0,113
336,143	226,892	-0,169	-0,188
337,158	183,600	-0,056	0,057
338,173	300,719	-0,075	-0,095
339,187	-166,883	-0,127	0,003
340,202	50,461	-0,177	-0,114
341,216	-57,731	-0,225	-0,067
342,231	-84,945	-0,171	-0,036
343,246	-69,259	-0,141	0,037
344,260	166,770	-0,044	0,043
345,275	800,000	0,025	-0,054
346,289	-30,738	-0,225	-0,087
347,304	-115,567	-0,155	0,020
348,319	-181,239	-0,203	0,003
349,333	410,305	-0,124	-0,180
350,348	199,546	-0,139	-0,146
351,362	12,514	-0,141	-0,074
352,377	-200,000	-0,050	-0,161
353,392	62,327	-0,104	-0,071
354,406	167,590	-0,078	0,076
355,421	208,081	1310,698	1401,074
356,435	160,096	1470,872	1401,517
