DTS Sentinel unit serial number:	SN410029Multiplexer serial number:	ORYXHardware model number:	OX2-SRSoftware version number:	ORYX F/W v4,00 Oryx Data Collector v3.7.2.0data status	okinstallation	B3 Nyhavnadifferential loss correction	single-endedforward channel	channel 1reverse channel	N/Adate	2023/12/04time	05:12:30forward acquisition time	300,00reverse acquisition time	0,00gamma	499,1914k internal	0,3206k external	0,3206temperature offset calibration	1,0000default loss term (dB/km)	0,3820temperature slope calibration	1,0000multiplexer offset coefficient	1,0000multiplexer slope coefficient	1,0000fibre end	0,00T internal ref (°C)	11,99T ext. ref 1 (°C)	-2,91T ext. ref 2 (°C)	-2,96length (m)	temperature (°C)	Stokes	anti-Stokes-744,400	800,000	-0,100	-0,314
-743,385	-200,000	0,091	0,366
-742,371	403,592	-0,177	-0,272
-741,356	-200,000	0,034	0,256
-740,342	219,742	-0,177	-0,206
-739,327	-200,000	0,067	0,396
-738,312	550,738	-0,202	-0,354
-737,298	-200,000	0,021	0,332
-736,283	34,514	-0,252	-0,159
-735,269	-200,000	-0,077	0,373
-734,254	60,540	-0,238	-0,171
-733,239	38,579	-0,114	0,074
-732,225	-200,000	-0,067	-0,289
-731,210	-53,113	0,072	0,024
-730,196	120,881	0,090	0,082
-729,181	-200,000	0,004	-0,114
-728,167	24,078	-0,083	0,050
-727,152	-200,000	0,011	0,124
-726,137	-107,748	0,118	-0,019
-725,123	177,253	-0,112	-0,118
-724,108	-48,511	-0,105	-0,036
-723,094	-22,338	0,048	-0,021
-722,079	52,135	-0,046	-0,032
-721,064	-172,487	-0,021	-0,000
-720,050	800,000	-0,024	-0,062
-719,035	66,717	0,042	-0,031
-718,021	-200,000	-0,017	0,150
-717,006	0,118	-0,242	-0,125
-715,991	17,738	-0,144	-0,083
-714,977	735,634	-0,057	-0,111
-713,962	442,938	-0,052	0,083
-712,948	27,423	0,059	0,036
-711,933	109,757	-0,072	0,063
-710,918	143,578	-0,088	0,085
-709,904	-200,000	-0,010	-0,112
-708,889	88,707	-0,138	-0,111
-707,875	108,757	-0,189	-0,164
-706,860	325,792	-0,012	0,016
-705,845	2,092	0,132	-0,069
-704,831	-74,227	-0,093	0,024
-703,816	-200,000	-0,014	-0,098
-702,802	-125,374	-0,157	0,017
-701,787	15,823	-0,055	-0,031
-700,772	11,636	0,100	-0,055
-699,758	-1,444	-0,133	-0,068
-698,743	-24,345	0,082	-0,035
-697,729	-200,000	-0,023	0,205
-696,714	800,000	-0,018	0,036
-695,699	-150,199	-0,099	0,005
-694,685	-200,000	0,016	-0,135
-693,670	-200,000	-0,028	-0,186
-692,656	-63,907	0,054	-0,016
-691,641	-48,016	-0,236	0,082
-690,627	800,000	0,062	-0,142
-689,612	217,873	0,091	-0,105
-688,597	718,733	-0,039	-0,076
-687,583	-200,000	0,009	0,082
-686,568	-200,000	0,019	-0,067
-685,554	-200,000	0,051	-0,211
-684,539	-200,000	0,001	0,010
-683,524	-200,000	-0,018	0,197
-682,510	-113,672	0,078	0,011
-681,495	-80,413	-0,052	-0,012
-680,481	305,477	0,072	0,097
-679,466	73,891	-0,093	-0,071
-678,451	-155,478	0,020	-0,001
-677,437	15,938	0,043	-0,024
-676,422	-74,826	-0,092	0,024
-675,408	189,641	-0,060	-0,065
-674,393	-146,800	0,025	-0,002
-673,378	-108,047	-0,220	-0,034
-672,364	165,332	0,122	-0,125
-671,349	800,000	0,087	-0,234
-670,335	800,000	-0,024	-0,068
-669,320	-27,265	0,071	-0,030
-668,305	29,187	-0,054	-0,033
-667,291	108,079	-0,016	-0,014
-666,276	423,905	0,074	-0,116
-665,262	-200,000	-0,028	-0,099
-664,247	531,859	-0,051	-0,088
-663,232	313,550	0,092	-0,126
-662,218	800,000	-0,020	0,045
-661,203	-45,812	0,038	0,014
-660,189	-161,317	0,034	0,001
-659,174	250,874	-0,087	-0,107
-658,159	-200,000	-0,001	-0,098
-657,145	516,737	-0,006	0,010
-656,130	140,301	-0,058	0,056
-655,116	-121,730	0,002	0,000
-654,101	161,957	0,040	0,040
-653,086	-106,332	-0,066	-0,011
-652,072	188,938	0,019	-0,021
-651,057	-11,316	-0,154	-0,073
-650,043	-52,869	-0,217	-0,072
-649,028	281,156	-0,059	-0,076
-648,014	488,357	-0,031	0,051
-646,999	800,000	0,037	-0,104
-645,984	-200,000	-0,017	0,073
-644,970	800,000	0,025	0,067
-643,955	-200,000	-0,001	0,044
-642,941	-200,000	0,037	-0,132
-641,926	369,976	0,031	-0,046
-640,911	-200,000	-0,009	-0,034
-639,897	-20,064	-0,044	-0,020
-638,882	-129,670	0,118	0,012
-637,868	800,000	0,007	-0,024
-636,853	-200,000	-0,000	0,002
-635,838	-55,548	-0,131	0,042
-634,824	800,000	-0,040	-0,106
-633,809	-200,000	-0,016	0,136
-632,795	-119,836	0,075	-0,009
-631,780	-20,954	-0,043	0,019
-630,765	800,000	0,019	0,046
-629,751	406,938	-0,057	-0,087
-628,736	74,023	0,109	-0,082
-627,722	-177,013	-0,082	0,001
-626,707	-29,616	0,138	0,057
-625,692	-154,084	0,138	0,007
-624,678	52,793	0,054	-0,037
-623,663	-80,041	-0,094	0,023
-622,649	-191,273	-0,175	0,001
-621,634	-157,276	-0,044	-0,002
-620,619	269,919	0,081	-0,103
-619,605	-51,633	-0,160	0,054
-618,590	800,000	0,060	0,185
-617,576	-200,000	-0,020	0,124
-616,561	-200,000	-0,000	-0,028
-615,546	-200,000	0,001	-0,072
-614,532	-86,883	-0,090	-0,020
-613,517	-43,302	0,102	0,037
-612,503	299,601	0,039	-0,051
-611,488	25,726	0,075	0,045
-610,474	29,310	-0,020	-0,012
-609,459	173,357	0,069	-0,072
-608,444	-200,000	0,004	0,025
-607,430	800,000	0,042	-0,116
-606,415	637,901	-0,025	0,046
-605,401	7,761	0,081	-0,043
-604,386	348,425	0,074	0,105
-603,371	-121,535	0,034	-0,004
-602,357	-120,745	-0,103	0,012
-601,342	1,485	0,124	-0,064
-600,328	349,229	0,018	-0,026
-599,313	16,464	0,085	-0,049
-598,298	800,000	0,033	-0,106
-597,284	144,792	-0,066	0,064
-596,269	191,037	0,032	0,034
-595,255	36,816	-0,093	0,059
-594,240	-200,000	0,029	0,107
-593,225	-32,456	0,080	0,032
-592,211	454,873	-0,084	-0,136
-591,196	19,640	0,049	-0,029
-590,182	-112,715	0,063	0,009
-589,167	-5,914	0,049	0,024
-588,152	800,000	0,055	0,131
-587,138	-200,000	-0,002	0,087
-586,123	-42,566	0,070	0,026
-585,109	-200,000	-0,007	-0,137
-584,094	753,908	0,047	-0,093
-583,079	299,659	-0,043	-0,058
-582,065	68,836	-0,126	0,094
-581,050	-82,354	0,133	0,031
-580,036	-115,233	-0,070	0,009
-579,021	59,881	0,033	-0,023
-578,006	-65,438	-0,157	0,045
-576,992	657,967	-0,040	-0,075
-575,977	-28,560	-0,082	0,034
-574,963	540,350	0,054	0,093
-573,948	-29,065	-0,088	-0,036
-572,934	102,480	0,082	0,069
-571,919	-108,159	-0,050	-0,008
-570,904	-200,000	-0,026	-0,108
-569,890	239,811	0,011	0,013
-568,875	800,000	-0,053	0,133
-567,861	28,246	0,101	0,061
-566,846	27,097	-0,076	0,046
-565,831	-25,049	-0,095	0,040
-564,817	36,107	-0,113	-0,071
-563,802	-100,366	-0,108	0,019
-562,788	48,494	0,042	-0,028
-561,773	-150,759	0,011	0,001
-560,758	-200,000	0,024	0,190
-559,744	58,425	-0,106	-0,075
-558,729	-23,325	0,047	0,020
-557,715	-2,937	0,084	-0,042
-556,700	-200,000	0,020	-0,139
-555,685	310,528	-0,056	0,076
-554,671	417,103	0,022	0,035
-553,656	-200,000	-0,009	-0,049
-552,642	800,000	-0,011	0,034
-551,627	-200,000	0,056	0,000
-550,612	86,492	-0,142	-0,113
-549,598	-11,741	-0,024	0,011
-548,583	800,000	0,041	-0,090
-547,569	2,237	-0,065	0,034
-546,554	84,094	0,076	0,060
-545,539	-21,750	-0,054	0,023
-544,525	190,756	0,063	-0,068
-543,510	-200,000	-0,011	-0,072
-542,496	42,542	-0,082	-0,054
-541,481	-200,000	-0,008	-0,115
-540,466	281,829	0,090	-0,116
-539,452	375,798	0,072	0,106
-538,437	26,954	-0,089	-0,054
-537,423	800,000	0,034	0,070
-536,408	41,793	-0,014	0,009
-535,393	-116,536	-0,227	-0,030
-534,379	167,357	0,019	-0,020
-533,364	800,000	-0,024	0,061
-532,350	-79,592	0,162	0,039
-531,335	-200,000	-0,016	0,087
-530,321	800,000	-0,021	-0,062
-529,306	-200,000	-0,011	-0,038
-528,291	-200,000	-0,023	-0,079
-527,277	800,000	-0,024	-0,069
-526,262	14,508	-0,185	0,104
-525,248	24,493	-0,051	-0,030
-524,233	245,531	0,025	0,030
-523,218	4,755	0,037	-0,019
-522,204	-89,450	-0,111	0,023
-521,189	201,264	-0,016	0,018
-520,175	800,000	0,045	0,135
-519,160	-75,619	0,024	-0,006
-518,145	-42,336	-0,080	-0,029
-517,131	-33,411	0,134	-0,053
-516,116	800,000	-0,051	0,104
-515,102	-58,482	-0,179	0,056
-514,087	588,885	-0,101	-0,180
-513,072	800,000	-0,015	-0,034
-512,058	475,856	0,020	-0,033
-511,043	-93,744	0,077	-0,015
-510,029	152,097	0,041	-0,040
-509,014	-200,000	-0,007	0,095
-507,999	199,288	-0,041	-0,045
-506,985	800,000	0,029	-0,065
-505,970	-26,426	0,036	0,015
-504,956	34,985	-0,039	0,024
-503,941	570,767	-0,009	0,016
-502,926	602,256	0,053	-0,095
-501,912	-56,047	0,097	-0,031
-500,897	800,000	-0,028	0,073
-499,883	-100,672	0,049	0,009
-498,868	800,000	-0,048	-0,097
-497,853	-20,022	-0,086	0,038
-496,839	-173,613	-0,162	0,003
-495,824	501,261	-0,053	0,088
-494,810	-41,248	0,140	0,051
-493,795	535,826	0,012	0,021
-492,781	800,000	0,014	0,039
-491,766	-31,816	-0,038	0,015
-490,751	451,062	-0,021	0,034
-489,737	-200,000	0,031	0,122
-488,722	176,746	-0,094	0,099
-487,708	156,452	-0,051	-0,051
-486,693	399,433	-0,080	0,122
-485,678	261,832	0,087	-0,109
-484,664	-200,000	-0,010	0,039
-483,649	-34,626	0,194	-0,076
-482,635	259,008	0,067	-0,083
-481,620	255,728	0,050	-0,062
-480,605	43,576	0,096	-0,063
-479,591	562,921	0,076	-0,132
-478,576	800,000	-0,005	0,015
-477,562	-200,000	-0,008	0,083
-476,547	-18,195	-0,184	-0,083
-475,532	-200,000	-0,040	0,176
-474,518	800,000	0,054	0,124
-473,503	-200,000	0,004	-0,090
-472,489	-177,237	0,102	-0,002
-471,474	424,820	0,023	-0,036
-470,459	-200,000	0,010	-0,123
-469,445	10,648	-0,068	-0,037
-468,430	800,000	0,047	-0,105
-467,416	238,731	0,109	-0,131
-466,401	-67,460	0,088	-0,025
-465,386	-59,192	0,067	-0,021
-464,372	-68,098	-0,090	-0,025
-463,357	-200,000	-0,023	0,135
-462,343	-3,930	0,081	-0,040
-461,328	-200,000	-0,014	-0,069
-460,313	-200,000	0,004	0,091
-459,299	635,016	0,069	0,126
-458,284	800,000	0,043	-0,125
-457,270	172,976	-0,094	0,097
-456,255	2,362	-0,163	-0,084
-455,241	-200,000	0,003	-0,034
-454,226	-168,207	-0,117	0,003
-453,211	-74,441	0,080	0,021
-452,197	512,456	0,028	0,047
-451,182	167,312	-0,072	-0,074
-450,168	-89,745	-0,223	-0,047
-449,153	-162,576	-0,079	0,003
-448,138	586,435	-0,091	-0,162
-447,124	110,827	-0,059	-0,051
-446,109	6,901	-0,150	-0,080
-445,095	381,584	0,086	0,128
-444,080	-97,730	0,094	0,017
-443,065	-74,675	0,104	0,027
-442,051	134,039	0,004	-0,004
-441,036	64,490	-0,034	0,025
-440,022	217,959	0,142	-0,163
-439,007	-200,000	-0,003	0,014
-437,992	322,590	0,008	0,011
-436,978	0,636	0,064	0,033
-435,963	-0,945	0,054	0,027
-434,949	-200,000	-0,018	0,081
-433,934	444,660	0,048	-0,076
-432,919	800,000	0,058	-0,168
-431,905	-200,000	-0,005	0,148
-430,890	257,308	0,025	-0,031
-429,876	800,000	-0,075	0,158
-428,861	136,510	0,116	0,109
-427,846	-200,000	0,004	-0,035
-426,832	-200,000	-0,019	-0,103
-425,817	-37,544	0,053	-0,020
-424,803	-200,000	0,026	-0,101
-423,788	132,179	0,075	0,069
-422,773	-44,505	0,048	-0,017
-421,759	-4,732	0,140	-0,069
-420,744	-31,120	-0,114	0,046
-419,730	-200,000	0,035	-0,150
-418,715	-102,517	-0,087	-0,015
-417,701	114,839	0,068	0,060
-416,686	6,465	-0,086	0,046
-415,671	-61,802	0,044	0,013
-414,657	169,111	0,083	-0,085
-413,642	-60,613	-0,054	-0,016
-412,628	-200,000	-0,015	-0,065
-411,613	-178,370	-0,050	0,001
-410,598	485,568	0,018	0,029
-409,584	-200,000	0,037	0,173
-408,569	-15,492	0,165	0,075
-407,555	118,952	0,067	0,059
-406,540	-86,498	0,048	-0,010
-405,525	100,064	-0,082	0,068
-404,511	-78,749	0,133	0,032
-403,496	-200,000	0,011	0,067
-402,482	800,000	0,047	-0,114
-401,467	244,335	0,110	-0,133
-400,452	53,355	0,091	0,062
-399,438	40,798	-0,093	0,060
-398,423	-160,854	-0,048	-0,002
-397,409	-200,000	-0,035	-0,151
-396,394	-200,000	-0,003	-0,098
-395,379	249,169	0,048	0,058
-394,365	-200,000	0,016	0,058
-393,350	50,607	-0,090	0,061
-392,336	800,000	0,064	0,146
-391,321	115,900	0,043	-0,038
-390,306	602,432	0,030	0,053
-389,292	258,527	-0,046	0,057
-388,277	291,726	0,045	0,059
-387,263	-46,346	0,058	0,020
-386,248	202,766	0,045	0,050
-385,233	15,235	-0,090	0,051
-384,219	-140,424	0,045	0,003
-383,204	-123,682	-0,136	0,015
-382,190	800,000	0,036	0,110
-381,175	-160,149	0,086	-0,003
-380,160	-200,000	-0,028	-0,103
-379,146	-7,371	0,113	-0,055
-378,131	255,831	-0,047	-0,058
-377,117	22,182	-0,086	0,050
-376,102	-85,514	-0,178	0,039
-375,088	28,090	-0,159	-0,096
-374,073	-200,000	-0,027	-0,125
-373,058	-40,701	-0,081	0,030
-372,044	-104,561	0,175	0,029
-371,029	648,246	0,006	-0,012
-370,015	44,855	0,086	0,056
-369,000	398,052	0,062	0,093
-367,985	-2,133	0,049	-0,024
-366,971	9,276	-0,072	-0,039
-365,956	790,779	-0,005	0,009
-364,942	-158,189	0,293	-0,012
-363,927	-129,629	0,081	0,008
-362,912	256,916	-0,045	0,055
-361,898	399,394	-0,027	0,040
-360,883	388,561	0,077	0,115
-359,869	-13,799	-0,098	-0,045
-358,854	800,000	0,054	0,106
-357,839	-200,000	0,018	0,065
-356,825	117,946	0,071	-0,063
-355,810	-200,000	0,012	0,086
-354,796	-200,000	0,008	-0,049
-353,781	-152,996	-0,145	0,007
-352,766	-200,000	0,000	0,143
-351,752	267,560	-0,015	0,019
-350,737	800,000	-0,019	-0,042
-349,723	-182,697	-0,064	0,001
-348,708	82,054	-0,042	0,032
-347,693	575,880	-0,045	0,079
-346,679	-111,302	-0,017	-0,003
-345,664	800,000	0,044	-0,099
-344,650	165,205	0,076	0,077
-343,635	800,000	-0,024	0,055
-342,620	453,782	0,008	-0,013
-341,606	-200,000	0,008	0,116
-340,591	116,619	-0,040	0,035
-339,577	-36,351	-0,147	-0,056
-338,562	792,925	0,030	-0,059
-337,548	800,000	-0,010	0,025
-336,533	89,083	-0,022	0,017
-335,518	78,674	0,070	-0,054
-334,504	-164,764	0,101	-0,003
-333,489	4,236	0,089	0,046
-332,475	800,000	-0,041	0,093
-331,460	-200,000	-0,026	-0,159
-330,445	-200,000	0,025	-0,224
-329,431	-200,000	-0,030	0,122
-328,416	204,595	0,075	0,083
-327,402	350,207	0,027	0,038
-326,387	-86,347	-0,099	0,022
-325,372	-200,000	0,007	-0,039
-324,358	69,099	0,111	0,081
-323,343	-145,371	0,076	0,005
-322,329	85,148	0,053	0,042
-321,314	79,718	-0,016	-0,012
-320,299	-124,290	0,064	0,007
-319,285	178,275	0,055	0,058
-318,270	-51,223	-0,081	-0,027
-317,256	8,148	0,087	-0,046
-316,241	280,069	0,014	0,018
-315,226	-120,189	0,018	0,002
-314,212	-145,328	0,088	0,006
-313,197	27,321	0,036	-0,022
-312,183	-200,000	-0,009	-0,043
-311,168	378,128	-0,075	0,110
-310,153	71,548	-0,068	0,050
-309,139	296,622	0,061	-0,080
-308,124	-200,000	0,028	0,095
-307,110	125,511	0,013	0,012
-306,095	108,122	0,128	0,109
-305,080	-10,898	-0,074	0,035
-304,066	86,198	0,009	0,007
-303,051	-95,729	-0,111	0,021
-302,037	-55,861	0,066	0,021
-301,022	-200,000	0,056	0,225
-300,008	129,765	0,071	-0,065
-298,993	-200,000	0,030	0,139
-297,978	800,000	-0,038	0,115
-296,964	800,000	-0,020	0,045
-295,949	-111,558	-0,097	-0,014
-294,935	-80,829	-0,111	0,026
-293,920	-200,000	-0,006	0,037
-292,905	-6,857	-0,057	0,028
-291,891	800,000	0,045	0,102
-290,876	36,911	-0,104	0,065
-289,862	160,149	-0,030	0,030
-288,847	6,971	-0,053	0,028
-287,832	-200,000	-0,015	-0,209
-286,818	164,233	0,170	-0,171
-285,803	800,000	-0,044	0,125
-284,789	1,337	-0,021	0,011
-283,774	240,307	-0,026	-0,031
-282,759	200,808	-0,026	0,029
-281,745	800,000	-0,062	-0,164
-280,730	-27,175	-0,105	-0,043
-279,716	518,590	-0,025	-0,042
-278,701	-200,000	0,004	-0,054
-277,686	222,630	-0,038	-0,044
-276,672	-200,000	-0,001	-0,005
-275,657	107,287	0,050	0,042
-274,643	-168,387	-0,139	-0,004
-273,628	117,902	0,053	0,046
-272,613	-5,113	-0,076	-0,037
-271,599	-145,769	0,084	-0,005
-270,584	-78,980	0,088	-0,021
-269,570	-200,000	-0,005	-0,031
-268,555	-134,402	-0,148	-0,013
-267,540	-11,687	-0,101	0,047
-266,526	-57,688	0,049	0,015
-265,511	800,000	0,033	-0,085
-264,497	-2,175	0,046	0,023
-263,482	197,057	0,076	-0,083
-262,467	-200,000	0,013	0,047
-261,453	-35,641	-0,159	0,061
-260,438	-58,546	-0,145	0,045
-259,424	800,000	0,058	-0,155
-258,409	-3,658	-0,080	0,040
-257,395	197,625	0,079	0,086
-256,380	-0,817	0,119	-0,060
-255,365	111,171	0,067	-0,057
-254,351	-132,341	-0,150	0,014
-253,336	800,000	-0,026	0,065
-252,322	-92,016	-0,224	-0,045
-251,307	278,604	0,031	-0,040
-250,292	-111,161	0,172	-0,025
-249,278	800,000	0,019	-0,056
-248,263	121,544	0,052	0,046
-247,249	-200,000	0,008	-0,031
-246,234	514,232	0,012	0,021
-245,219	-200,000	-0,030	-0,142
-244,205	-153,933	-0,159	-0,008
-243,190	26,803	-0,067	0,040
-242,176	200,864	0,091	-0,099
-241,161	15,896	0,092	-0,052
-240,146	-43,615	-0,086	0,031
-239,132	-200,000	-0,073	0,000
-238,117	114,597	0,045	-0,039
-237,103	80,894	-0,038	0,029
-236,088	167,287	-0,070	-0,071
-235,073	243,495	0,087	-0,104
-234,059	800,000	0,053	0,106
-233,044	-200,000	0,018	0,082
-232,030	2,016	-0,081	0,042
-231,015	420,274	-0,027	-0,042
-230,000	-200,000	-0,001	-0,050
-228,986	-200,000	0,007	0,041
-227,971	-200,000	-0,004	0,057
-226,957	800,000	0,083	0,226
-225,942	-200,000	-0,008	-0,095
-224,927	218,267	0,048	0,054
-223,913	-200,000	-0,028	-0,114
-222,898	80,912	-0,136	-0,104
-221,884	-200,000	0,013	-0,041
-220,869	-200,000	0,015	0,101
-219,855	-40,626	-0,075	-0,028
-218,840	154,208	-0,011	0,011
-217,825	246,828	0,059	-0,071
-216,811	206,996	-0,050	-0,056
-215,796	-153,270	0,098	0,005
-214,782	-200,000	-0,050	0,000
-213,767	34,807	-0,089	0,056
-212,752	-200,000	-0,014	-0,105
-211,738	-200,000	-0,007	0,063
-210,723	-64,624	-0,078	0,022
-209,709	41,766	-0,054	-0,035
-208,694	-134,370	0,108	-0,009
-207,679	-200,000	0,029	-0,118
-206,665	-71,622	-0,019	-0,005
-205,650	54,068	0,127	-0,087
-204,636	36,125	-0,135	0,085
-203,621	-1,586	0,108	0,054
-202,606	-63,437	0,014	0,004
-201,592	-200,000	-0,019	0,081
-200,577	433,108	0,043	-0,067
-199,563	-200,000	0,005	-0,027
-198,548	-52,981	-0,012	-0,004
-197,533	5,107	0,086	0,045
-196,519	800,000	0,032	0,063
-195,504	63,242	-0,053	-0,038
-194,490	246,472	-0,078	-0,094
-193,475	190,227	0,049	0,053
-192,460	36,218	0,079	0,049
-191,446	-52,987	0,081	-0,026
-190,431	800,000	0,013	0,036
-189,417	-41,111	-0,150	-0,055
-188,402	800,000	-0,059	0,167
-187,387	476,149	-0,065	-0,105
-186,373	557,822	-0,022	-0,038
-185,358	53,525	-0,164	0,112
-184,344	62,705	-0,056	0,040
-183,329	-200,000	-0,002	0,073
-182,315	369,045	0,081	-0,116
-181,300	800,000	0,026	-0,053
-180,285	333,108	-0,007	-0,010
-179,271	-200,000	-0,008	-0,189
-178,256	673,920	0,026	-0,048
-177,242	422,848	-0,022	-0,034
-176,227	-63,696	-0,043	-0,012
-175,212	-200,000	-0,016	0,049
-174,198	601,185	0,043	0,076
-173,183	268,073	-0,085	-0,106
-172,169	-200,000	0,013	-0,061
-171,154	-29,614	0,077	0,031
-170,139	9,347	0,086	-0,046
-169,125	-48,248	0,175	0,060
-168,110	-11,871	-0,033	-0,015
-167,096	-200,000	-0,009	0,067
-166,081	-200,000	0,007	-0,099
-165,066	496,647	-0,060	-0,098
-164,052	-200,000	-0,007	-0,100
-163,037	109,866	-0,098	-0,084
-162,023	-200,000	0,021	-0,103
-161,008	7,776	0,046	-0,024
-159,993	-39,905	-0,059	0,022
-158,979	800,000	-0,055	-0,129
-157,964	-200,000	0,002	-0,035
-156,950	800,000	0,029	0,061
-155,935	223,172	0,098	0,112
-154,920	374,408	0,058	0,084
-153,906	-200,000	0,016	0,144
-152,891	-74,632	-0,019	0,005
-151,877	26,165	-0,065	-0,038
-150,862	-200,000	0,007	-0,035
-149,847	-197,610	-0,138	-0,001
-148,833	-200,000	-0,012	-0,146
-147,818	-115,735	0,052	0,007
-146,804	-151,328	0,078	-0,004
-145,789	74,456	-0,130	0,097
-144,775	-147,420	-0,127	0,008
-143,760	-77,986	-0,126	0,031
-142,745	-200,000	0,005	0,040
-141,731	-200,000	-0,006	-0,096
-140,716	800,000	0,041	0,085
-139,702	-200,000	0,019	-0,060
-138,687	-71,658	0,043	-0,011
-137,672	800,000	-0,011	-0,031
-136,658	-200,000	-0,022	-0,114
-135,643	800,000	-0,027	0,067
-134,629	58,128	-0,077	-0,053
-133,614	208,021	-0,110	0,122
-132,599	800,000	0,070	0,162
-131,585	106,019	0,051	0,043
-130,570	262,582	-0,020	-0,025
-129,556	-200,000	-0,023	-0,102
-128,541	800,000	0,035	-0,105
-127,526	181,663	-0,072	-0,075
-126,512	169,411	-0,031	-0,031
-125,497	-190,077	0,020	-0,000
-124,483	-83,904	0,124	0,028
-123,468	-33,391	-0,046	0,018
-122,453	-137,834	0,075	0,006
-121,439	206,104	0,009	0,010
-120,424	353,719	0,099	-0,140
-119,410	83,809	-0,081	-0,062
-118,395	-200,000	0,009	-0,059
-117,380	800,000	0,042	0,119
-116,366	-200,000	0,015	0,053
-115,351	-28,384	-0,063	0,025
-114,337	-135,697	-0,070	-0,006
-113,322	-200,000	0,006	-0,068
-112,307	-117,197	-0,045	-0,006
-111,293	672,934	0,093	0,172
-110,278	-191,417	0,147	-0,001
-109,264	85,329	0,045	0,035
-108,249	-128,621	0,077	0,008
-107,234	-155,537	-0,038	0,002
-106,220	-11,216	-0,049	-0,023
-105,205	-125,576	0,113	-0,012
-104,191	-200,000	-0,005	-0,058
-103,176	756,622	0,018	0,035
-102,162	800,000	-0,092	0,183
-101,147	-155,451	-0,121	0,005
-100,132	47,263	-0,078	-0,051
-99,118	407,764	-0,087	-0,131
-98,103	548,499	-0,043	-0,072
-97,089	-106,915	0,087	-0,014
-96,074	800,000	0,015	-0,037
-95,059	75,447	-0,026	0,020
-94,045	-200,000	0,018	-0,145
-93,030	246,194	-0,035	0,041
-92,016	281,785	0,066	-0,084
-91,001	202,537	0,069	-0,076
-89,986	194,856	0,090	-0,097
-88,972	-80,730	0,087	-0,020
-87,957	-64,269	-0,098	0,028
-86,943	163,552	-0,073	-0,073
-85,928	-109,635	-0,098	0,015
-84,913	8,959	0,071	-0,038
-83,899	-107,151	-0,104	0,016
-82,884	699,216	0,040	-0,076
-81,870	-81,305	0,088	-0,020
-80,855	-118,355	0,221	-0,027
-79,840	81,164	-0,105	-0,080
-78,826	800,000	-0,032	-0,073
-77,811	800,000	0,064	-0,159
-76,797	800,000	-0,028	-0,065
-75,782	274,833	-0,087	0,109
-74,767	106,575	-0,046	0,038
-73,753	-57,019	0,117	0,036
-72,738	305,864	-0,053	-0,070
-71,724	404,480	-0,024	0,035
-70,709	14,214	-0,104	-0,057
-69,694	661,727	0,080	-0,146
-68,680	800,000	0,050	-0,120
-67,665	-200,000	-0,016	0,069
-66,651	-64,688	-0,059	0,017
-65,636	93,822	0,109	-0,087
-64,622	533,521	-0,060	-0,101
-63,607	97,227	-0,098	-0,079
-62,592	236,889	-0,048	0,056
-61,578	800,000	0,008	0,015
-60,563	800,000	0,056	0,113
-59,549	800,000	-0,032	0,091
-58,534	9,234	-1,735	-0,924
-57,519	553,276	-1,267	-2,161
-56,505	-200,000	-0,585	-4,690
-55,490	333,786	1,021	1,400
-54,476	800,000	4,847	11,115
-53,461	-200,000	20,266	323,944
-52,446	800,000	752,164	2310,554
-51,432	548,836	1663,081	2827,270
-50,417	74,727	1671,607	1241,994
-49,403	19,866	1544,513	877,163
-48,388	13,824	1467,142	803,835
-47,373	18,428	1457,375	820,683
-46,359	16,308	1446,864	804,583
-45,344	12,080	1442,417	781,833
-44,330	11,959	1440,767	780,327
-43,315	12,049	1438,926	779,728
-42,300	12,070	1437,097	778,807
-41,286	12,028	1435,928	777,941
-40,271	11,992	1434,448	776,940
-39,257	12,038	1433,334	776,524
-38,242	12,090	1431,908	775,969
-37,227	12,089	1430,943	775,409
-36,213	12,032	1429,732	774,450
-35,198	12,086	1428,357	773,933
-34,184	12,136	1427,390	773,613
-33,169	12,016	1426,044	772,285
-32,154	12,124	1424,725	772,050
-31,140	12,082	1423,835	771,342
-30,125	12,134	1422,552	770,860
-29,111	12,102	1421,518	770,120
-28,096	12,072	1420,329	769,302
-27,082	12,044	1419,241	768,550
-26,067	12,047	1418,082	767,905
-25,052	12,065	1416,952	767,349
-24,038	11,977	1416,119	766,451
-23,023	12,011	1415,113	766,040
-22,009	12,072	1413,788	765,579
-20,994	11,978	1413,174	764,772
-19,979	11,973	1412,273	764,231
-18,965	11,948	1411,276	763,543
-17,950	11,990	1410,479	763,280
-16,936	11,990	1409,639	762,794
-15,921	11,940	1408,402	761,861
-14,906	11,937	1407,630	761,397
-13,892	11,942	1406,609	760,839
-12,877	11,942	1405,861	760,406
-11,863	11,891	1404,924	759,629
-10,848	11,917	1403,806	759,116
-9,833	11,883	1403,040	758,512
-8,819	11,837	1402,352	757,900
-7,804	11,813	1401,463	757,277
-6,790	11,798	1400,480	756,644
-5,775	11,832	1399,349	756,160
-4,760	11,821	1398,410	755,573
-3,746	11,771	1397,479	754,806
-2,731	11,819	1396,470	754,456
-1,717	11,784	1395,681	753,837
-0,702	11,785	1393,990	752,897
0,313	15,751	1308,945	725,269
1,327	31,959	699,504	424,808
2,342	49,695	121,820	80,931
3,356	-0,748	16,483	8,223
4,371	2,435	3,283	1,673
5,386	-27,031	0,677	0,278
6,400	101,300	0,250	0,205
7,415	-32,609	-0,205	-0,080
8,429	-106,339	-0,388	-0,061
9,444	256,971	-0,204	-0,248
10,459	63,513	-0,353	-0,250
11,473	27,364	-0,307	-0,182
12,488	-47,173	-0,426	-0,146
13,502	-39,868	-0,392	-0,144
14,517	-74,847	-0,343	-0,086
15,531	68,333	-0,294	-0,212
16,546	190,746	-0,373	-0,396
17,561	20,666	-0,358	-0,204
18,575	-67,436	-0,177	0,049
19,590	247,481	-0,206	-0,245
20,604	46,598	-0,271	-0,177
21,619	-26,920	-0,530	-0,217
22,634	98,690	-0,450	-0,366
23,648	80,508	-0,522	-0,396
24,663	425,485	-0,199	-0,304
25,677	120,967	-0,276	-0,242
26,692	52,515	-0,242	-0,163
27,707	195,418	-0,223	-0,239
28,721	156,734	-0,378	-0,368
29,736	73,062	-0,419	-0,308
30,750	147,222	-0,447	-0,424
31,765	173,506	-0,332	-0,337
32,780	189,760	-0,308	-0,326
33,794	114,124	-0,408	-0,350
34,809	-51,921	-0,498	-0,162
35,823	27,229	-0,257	-0,152
36,838	21,027	-0,493	-0,281
37,853	145,579	-0,263	-0,248
38,867	23,173	-0,432	-0,249
39,882	217,070	-0,331	-0,372
40,896	487,788	-0,198	-0,320
41,911	-2,943	-0,289	-0,142
42,926	165,048	-0,363	-0,361
43,940	111,310	-0,217	-0,184
44,955	166,786	-0,338	-0,338
45,969	85,198	-0,392	-0,302
46,984	80,198	-0,388	-0,293
47,999	174,146	-0,279	-0,284
49,013	-74,979	-0,338	-0,084
50,028	30,137	-0,252	-0,151
51,042	8,739	-0,301	-0,159
52,057	172,871	-0,359	-0,364
53,071	43,196	-0,287	-0,184
54,086	110,656	-0,212	-0,179
55,101	133,758	-0,316	-0,288
56,115	-20,214	-0,374	-0,161
57,130	75,489	-0,297	-0,220
58,144	35,041	-0,402	-0,247
59,159	81,302	-0,397	-0,302
60,174	453,497	-0,289	-0,451
61,188	-31,428	-0,414	-0,163
62,203	-101,955	-0,215	-0,036
63,217	17,446	-0,339	-0,189
64,232	58,928	-0,422	-0,291
65,247	3,094	-0,320	-0,163
66,261	250,723	-0,313	-0,374
67,276	13,121	-0,303	-0,164
68,290	427,980	-0,247	-0,376
69,305	131,089	-0,250	-0,226
70,320	-125,510	-0,331	-0,035
71,334	44,359	-0,224	-0,144
72,349	274,982	-0,291	-0,363
73,363	2,316	-0,418	-0,212
74,378	39,387	-0,345	-0,217
75,393	299,225	-0,235	-0,305
76,407	-19,524	-0,323	-0,140
77,422	-38,179	-0,364	-0,135
78,436	241,491	-0,142	-0,166
79,451	-15,815	-0,514	-0,229
80,466	-120,245	-0,462	-0,055
81,480	-13,820	-0,497	-0,225
82,495	88,602	-0,240	-0,187
83,509	344,826	-0,213	-0,294
84,524	13,975	-0,304	-0,165
85,539	17,319	-0,263	-0,146
86,553	181,518	-0,257	-0,265
87,568	81,110	-0,302	-0,228
88,582	130,288	-0,341	-0,306
89,597	97,934	-0,357	-0,288
90,611	800,000	-0,103	-0,203
91,626	17,938	-0,289	-0,161
92,641	332,628	-0,156	-0,212
93,655	25,824	-0,246	-0,143
94,670	67,940	-0,432	-0,309
95,684	3,676	-0,401	-0,204
96,699	154,909	-0,316	-0,305
97,714	94,376	-0,220	-0,175
98,728	-33,186	-0,216	-0,083
99,743	-26,287	-0,256	-0,105
100,757	-46,802	-0,247	-0,084
101,772	-42,609	-0,306	-0,108
102,787	150,395	-0,256	-0,244
103,801	185,457	-0,223	-0,232
104,816	137,085	-0,212	-0,194
105,830	86,350	-0,045	-0,034
106,845	130,452	-0,234	-0,210
107,860	-116,741	-0,363	-0,046
108,874	41,259	-0,329	-0,207
109,889	146,805	-0,209	-0,196
110,903	-3,626	-0,217	-0,105
111,918	121,146	-0,257	-0,223
112,933	121,182	-0,148	-0,129
113,947	-113,150	-0,197	-0,027
114,962	-12,347	-0,298	-0,136
115,976	-200,000	-0,029	-0,142
116,991	-50,094	-0,377	-0,124
118,006	150,630	-0,244	-0,232
119,020	303,064	-0,173	-0,224
120,035	11,741	-0,320	-0,171
121,049	33,220	-0,123	-0,074
122,064	726,483	-0,176	-0,329
123,079	-5,717	-0,305	-0,146
124,093	183,605	-0,271	-0,281
125,108	155,049	-0,319	-0,306
126,122	-91,366	-0,338	-0,067
127,137	-50,405	-0,253	-0,083
128,151	164,077	-0,265	-0,261
129,166	39,741	-0,213	-0,133
130,181	31,086	-0,284	-0,170
131,195	77,639	-0,234	-0,174
132,210	113,741	-0,223	-0,189
133,224	81,079	-0,222	-0,167
134,239	-49,556	-0,229	-0,076
135,254	270,471	-0,199	-0,244
136,268	13,851	-0,194	-0,105
137,283	-7,770	-0,289	-0,136
138,297	308,687	-0,187	-0,245
139,312	89,366	-0,320	-0,249
140,327	90,674	-0,323	-0,252
141,341	200,985	-0,141	-0,152
142,356	180,348	-0,105	-0,107
143,370	38,702	-0,284	-0,176
144,385	182,562	-0,199	-0,205
145,400	-19,373	-0,303	-0,130
146,414	-39,275	-0,208	-0,076
147,429	112,597	-0,259	-0,218
148,443	198,961	-0,237	-0,254
149,458	556,840	-0,152	-0,257
150,473	800,000	-0,098	-0,199
151,487	-89,962	-0,197	-0,040
152,502	143,876	-0,265	-0,246
153,516	354,189	-0,189	-0,262
154,531	76,658	-0,269	-0,199
155,546	145,958	-0,287	-0,269
156,560	60,613	-0,257	-0,177
157,575	53,442	-0,297	-0,198
158,589	-38,062	-0,162	-0,059
159,604	11,010	-0,188	-0,100
160,619	-43,679	-0,258	-0,090
161,633	178,066	-0,210	-0,213
162,648	222,803	-0,192	-0,216
163,662	-136,122	-0,346	0,028
164,677	-192,287	-0,196	0,001
165,692	-28,604	-0,155	-0,062
166,706	-85,230	-0,211	-0,046
167,721	279,834	-0,130	-0,161
168,735	-56,540	-0,265	-0,081
169,750	88,609	-0,164	-0,127
170,764	123,197	-0,231	-0,202
171,779	71,178	-0,205	-0,148
172,794	-200,000	-0,052	-0,266
173,808	54,478	-0,179	-0,120
174,823	338,657	-0,173	-0,235
175,837	98,057	-0,166	-0,133
176,852	297,989	-0,139	-0,178
177,867	-21,482	-0,239	-0,101
178,881	228,117	-0,128	-0,145
179,896	698,040	-0,094	-0,172
180,910	13,175	-0,307	-0,165
181,925	41,307	-0,268	-0,168
182,940	26,074	-0,219	-0,127
183,954	-80,901	-0,289	-0,066
184,969	0,202	-0,328	-0,162
185,983	-47,587	-0,280	-0,094
186,998	-86,904	-0,335	-0,071
188,013	-16,062	-0,359	-0,158
189,027	-40,702	-0,309	-0,111
190,042	326,493	-0,172	-0,229
191,056	42,702	-0,269	-0,170
192,071	-100,854	-0,306	-0,052
193,086	34,338	-0,208	-0,126
194,100	68,167	-0,189	-0,134
195,115	231,009	-0,137	-0,157
196,129	247,013	-0,216	-0,254
197,144	200,674	-0,235	-0,251
198,159	112,118	-0,228	-0,191
199,173	251,061	-0,171	-0,202
200,188	800,000	-0,124	-0,247
201,202	-91,833	-0,245	-0,048
202,217	78,365	-0,246	-0,182
203,232	83,164	-0,159	-0,120
204,246	800,000	-0,140	-0,276
205,261	275,360	-0,146	-0,180
206,275	-47,692	-0,197	-0,066
207,290	334,132	-0,114	-0,153
208,304	-30,760	-0,101	-0,039
209,319	214,231	-0,105	-0,115
210,334	-71,802	-0,230	-0,059
211,348	241,472	-0,173	-0,200
212,363	180,276	-0,280	-0,285
213,377	666,615	-0,109	-0,195
214,392	578,239	-0,151	-0,258
215,407	49,146	-0,220	-0,143
216,421	98,809	-0,174	-0,139
217,436	137,287	-0,138	-0,125
218,450	324,869	-0,282	-0,374
219,465	186,858	-0,282	-0,292
220,480	-20,730	-0,303	-0,128
221,494	28,291	-0,128	-0,075
222,509	-200,000	-0,047	-0,186
223,523	-200,000	-0,030	-0,134
224,538	281,325	-0,144	-0,178
225,553	191,070	-0,196	-0,204
226,567	102,468	-0,245	-0,199
227,582	128,950	-0,169	-0,150
228,596	159,465	-0,153	-0,148
229,611	800,000	-0,098	-0,195
230,626	396,617	-0,031	-0,045
231,640	226,770	-0,133	-0,149
232,655	800,000	-0,089	-0,244
233,669	618,753	-0,159	-0,278
234,684	107,359	-0,164	-0,135
235,699	110,301	-0,217	-0,181
236,713	-97,662	-0,212	-0,038
237,728	231,586	-0,131	-0,149
238,742	26,144	-0,184	-0,106
239,757	43,160	-0,247	-0,156
240,772	111,861	-0,235	-0,196
241,786	165,869	-0,159	-0,156
242,801	61,645	-0,214	-0,147
243,815	138,956	-0,126	-0,114
244,830	780,664	-0,130	-0,247
245,844	420,014	-0,151	-0,224
246,859	127,507	-0,194	-0,171
247,874	55,314	-0,232	-0,155
248,888	113,682	-0,236	-0,198
249,903	18,115	-0,280	-0,154
250,917	101,963	-0,110	-0,089
251,932	-30,099	-0,156	-0,061
252,947	800,000	-0,067	-0,194
253,961	217,976	-0,177	-0,195
254,976	32,433	-0,318	-0,190
255,990	526,710	-0,168	-0,275
257,005	143,683	-0,198	-0,183
258,020	39,061	-0,220	-0,135
259,034	106,182	-0,173	-0,141
260,049	73,394	-0,191	-0,138
261,063	705,329	-0,145	-0,265
262,078	7,045	-0,290	-0,149
263,093	295,012	-0,222	-0,281
264,107	-62,187	-0,178	-0,051
265,122	34,467	-0,144	-0,087
266,136	209,733	-0,154	-0,167
267,151	133,741	-0,231	-0,206
268,166	274,198	-0,136	-0,167
269,180	527,504	-0,139	-0,228
270,195	36,547	-0,196	-0,119
271,209	-120,061	-0,155	-0,018
272,224	20,446	-0,165	-0,092
273,239	-23,051	-0,270	-0,112
274,253	146,557	-0,208	-0,192
275,268	402,937	-0,173	-0,251
276,282	62,916	-0,155	-0,107
277,297	173,938	-0,183	-0,183
278,312	45,701	-0,181	-0,115
279,326	150,527	-0,191	-0,179
280,341	-92,517	-0,193	-0,037
281,355	-200,000	-0,033	-0,167
282,370	800,000	-0,133	-0,262
283,384	96,204	-0,149	-0,117
284,399	-184,730	-0,257	0,003
285,414	-128,588	-0,136	0,013
286,428	-37,434	-0,198	-0,072
287,443	467,874	-0,052	0,081
288,457	117,033	-0,124	-0,105
289,472	-10,359	-0,231	-0,105
290,487	598,141	-0,133	-0,228
291,501	517,915	-0,138	-0,224
292,516	800,000	-0,057	-0,168
293,530	-200,000	-0,022	-0,264
294,545	52,770	-0,191	-0,126
295,560	21,257	-0,194	-0,108
296,574	-22,527	-0,236	-0,098
297,589	50,956	-0,162	-0,106
298,603	800,000	-0,121	-0,269
299,618	-22,215	-0,125	-0,052
300,633	-42,003	-0,216	-0,076
301,647	293,029	-0,147	-0,185
302,662	186,644	-0,159	-0,163
303,676	55,543	-0,072	-0,048
304,691	-142,492	-0,181	0,012
305,706	-21,661	-0,205	-0,085
306,720	141,639	-0,104	-0,095
307,735	14,436	-0,070	-0,038
308,749	-23,528	-0,193	-0,079
309,764	-200,000	-0,009	-0,064
310,779	252,107	-0,172	-0,202
311,793	-130,382	-0,253	0,023
312,808	145,948	-0,082	-0,076
313,822	135,142	-0,078	-0,069
314,837	10,889	-0,107	0,056
315,852	-200,000	0,035	-0,152
316,866	-143,699	-0,132	0,008
317,881	164,212	-0,122	-0,118
318,895	136,185	-0,130	-0,116
319,910	44,319	-0,147	-0,092
320,925	-7,092	-0,285	-0,132
321,939	742,744	-0,129	-0,239
322,954	638,633	-0,089	-0,157
323,968	20,757	0,098	0,055
324,983	-54,298	-0,128	-0,040
325,997	200,435	-0,125	-0,132
327,012	86,122	-0,111	-0,084
328,027	22,688	-0,218	-0,122
329,041	-200,000	-0,058	-0,201
330,056	-200,000	0,007	-0,126
331,070	1,155	-0,049	-0,024
332,085	-73,778	-0,134	-0,033
333,100	800,000	0,039	-0,091
334,114	205,597	-0,151	-0,162
335,129	-60,940	-0,099	-0,028
336,143	218,324	-0,145	-0,159
337,158	97,104	-0,202	-0,159
338,173	173,704	-0,152	-0,151
339,187	-29,661	0,021	-0,008
340,202	-10,358	-0,041	-0,018
341,216	-50,950	-0,248	-0,079
342,231	-3,222	-0,212	-0,101
343,246	-196,720	-0,157	-0,001
344,260	-166,097	-0,127	0,004
345,275	437,701	-0,079	-0,118
346,289	-21,164	-0,200	-0,083
347,304	-44,479	-0,163	-0,055
348,319	-162,348	-0,121	-0,004
349,333	177,727	0,070	-0,070
350,348	219,816	-0,057	-0,063
351,362	266,353	-0,204	-0,244
352,377	-56,110	-0,210	-0,064
353,392	320,867	-0,108	-0,141
354,406	25,821	-0,262	-0,149
355,421	208,663	1315,013	1410,589
356,435	160,557	1475,777	1411,053
