DTS Sentinel unit serial number:	SN410029Multiplexer serial number:	ORYXHardware model number:	OX2-SRSoftware version number:	ORYX F/W v4,00 Oryx Data Collector v3.7.2.0data status	okinstallation	B3 Nyhavnadifferential loss correction	single-endedforward channel	channel 1reverse channel	N/Adate	2023/12/04time	11:47:30forward acquisition time	300,00reverse acquisition time	0,00gamma	499,1914k internal	0,3202k external	0,3202temperature offset calibration	1,0000default loss term (dB/km)	0,3820temperature slope calibration	1,0000multiplexer offset coefficient	1,0000multiplexer slope coefficient	1,0000fibre end	0,00T internal ref (°C)	14,16T ext. ref 1 (°C)	-0,17T ext. ref 2 (°C)	-0,19length (m)	temperature (°C)	Stokes	anti-Stokes-744,400	93,228	-0,255	-0,209
-743,385	800,000	0,087	0,270
-742,371	265,277	-0,187	-0,237
-741,356	-200,000	0,041	0,221
-740,342	-200,000	-0,072	-0,275
-739,327	-200,000	0,050	0,210
-738,312	469,928	-0,208	-0,340
-737,298	-200,000	0,049	0,256
-736,283	105,977	-0,298	-0,256
-735,269	-200,000	0,051	0,248
-734,254	655,335	-0,151	-0,282
-733,239	-11,155	-0,299	0,143
-732,225	463,897	-0,117	-0,190
-731,210	-200,000	0,035	0,142
-730,196	-93,401	-0,079	0,016
-729,181	-200,000	0,008	-0,118
-728,167	-134,190	-0,124	0,011
-727,152	42,582	0,060	-0,040
-726,137	-154,282	-0,149	0,007
-725,123	83,544	-0,062	0,049
-724,108	-200,000	0,003	0,022
-723,094	119,389	0,097	-0,087
-722,079	-78,564	-0,193	-0,047
-721,064	-200,000	0,004	-0,106
-720,050	-78,308	0,054	-0,013
-719,035	-180,131	-0,080	-0,001
-718,021	-9,879	-0,135	0,065
-717,006	-200,000	-0,022	-0,104
-715,991	127,422	-0,103	-0,095
-714,977	38,205	-0,019	-0,012
-713,962	217,212	0,039	0,045
-712,948	-96,629	0,102	-0,019
-711,933	800,000	0,054	-0,123
-710,918	168,198	0,083	-0,086
-709,904	-146,974	-0,145	0,009
-708,889	38,421	-0,087	-0,056
-707,875	754,117	-0,032	-0,063
-706,860	-200,000	-0,010	-0,085
-705,845	18,456	-0,110	0,063
-704,831	-200,000	-0,005	-0,037
-703,816	-200,000	-0,010	0,049
-702,802	111,629	0,073	-0,064
-701,787	800,000	-0,035	-0,075
-700,772	-122,430	-0,116	-0,014
-699,758	356,983	0,065	0,095
-698,743	-36,869	-0,098	0,038
-697,729	324,295	0,091	-0,126
-696,714	800,000	0,033	0,101
-695,699	-37,236	-0,226	-0,087
-694,685	592,740	0,077	-0,138
-693,670	146,771	-0,162	-0,158
-692,656	800,000	-0,077	-0,225
-691,641	-136,881	0,086	0,007
-690,627	-200,000	0,017	0,161
-689,612	275,589	-0,116	0,149
-688,597	800,000	0,034	-0,090
-687,583	-200,000	-0,007	-0,043
-686,568	-200,000	-0,022	-0,115
-685,554	129,200	-0,050	-0,047
-684,539	-200,000	0,011	-0,157
-683,524	-75,432	-0,110	0,028
-682,510	-30,368	0,058	0,024
-681,495	-200,000	0,023	-0,226
-680,481	-63,206	-0,097	-0,029
-679,466	-44,448	0,056	-0,020
-678,451	800,000	0,057	-0,167
-677,437	47,493	-0,061	-0,041
-676,422	68,130	-0,059	-0,043
-675,408	316,391	0,055	-0,075
-674,393	32,462	0,056	-0,035
-673,378	686,206	-0,111	-0,211
-672,364	103,744	0,090	-0,077
-671,349	-200,000	0,014	-0,114
-670,335	392,402	0,092	-0,139
-669,320	304,936	0,045	-0,060
-668,305	-200,000	0,024	0,205
-667,291	-95,693	-0,064	-0,012
-666,276	567,678	0,022	-0,040
-665,262	-20,239	-0,061	0,027
-664,247	442,012	0,067	-0,106
-663,232	572,742	-0,082	-0,146
-662,218	794,948	0,032	0,063
-661,203	-124,600	0,075	0,008
-660,189	-142,559	-0,138	-0,010
-659,174	-200,000	-0,015	0,074
-658,159	377,265	0,050	-0,074
-657,145	-200,000	-0,018	-0,104
-656,130	800,000	0,039	-0,122
-655,116	61,753	-0,094	0,068
-654,101	257,976	0,084	-0,105
-653,086	800,000	-0,043	-0,087
-652,072	-2,281	-0,049	-0,025
-651,057	-73,809	-0,135	0,035
-650,043	219,884	0,070	-0,081
-649,028	-32,651	0,096	0,038
-648,014	-51,155	0,022	-0,008
-646,999	342,559	0,080	-0,114
-645,984	208,083	0,043	-0,049
-644,970	-200,000	0,016	-0,115
-643,955	427,857	0,095	-0,149
-642,941	-200,000	0,009	-0,070
-641,926	-57,474	0,130	0,041
-640,911	7,692	-0,065	0,035
-639,897	-173,881	-0,087	0,002
-638,882	800,000	-0,027	0,056
-637,868	-143,164	-0,126	0,009
-636,853	-75,878	0,202	-0,051
-635,838	-114,923	0,107	0,015
-634,824	-94,505	-0,141	0,027
-633,809	323,215	0,055	0,077
-632,795	246,504	-0,073	0,089
-631,780	800,000	-0,042	0,110
-630,765	-103,639	-0,051	-0,008
-629,751	499,967	-0,061	-0,102
-628,736	525,852	-0,069	-0,118
-627,722	-130,253	0,078	-0,008
-626,707	-9,745	0,118	0,057
-625,692	-200,000	0,022	0,120
-624,678	282,170	0,074	0,096
-623,663	-70,089	-0,032	-0,009
-622,649	-200,000	-0,019	0,101
-621,634	800,000	-0,013	0,030
-620,619	-179,578	-0,061	-0,001
-619,605	-200,000	-0,005	0,078
-618,590	-200,000	-0,003	0,019
-617,576	11,146	-0,015	-0,008
-616,561	311,618	0,034	-0,046
-615,546	800,000	0,012	0,029
-614,532	139,363	-0,116	-0,111
-613,517	800,000	-0,061	-0,129
-612,503	674,001	0,025	0,047
-611,488	94,996	-0,071	0,058
-610,474	-200,000	0,015	0,123
-609,459	174,222	-0,020	0,021
-608,444	800,000	-0,028	0,071
-607,430	329,426	-0,022	0,030
-606,415	394,412	-0,040	0,061
-605,401	-121,396	-0,114	-0,014
-604,386	629,816	0,013	-0,025
-603,371	-200,000	-0,003	-0,124
-602,357	313,904	-0,035	-0,048
-601,342	-200,000	-0,002	-0,073
-600,328	-200,000	-0,021	-0,183
-599,313	105,389	0,142	-0,121
-598,298	-139,903	0,053	-0,004
-597,284	800,000	-0,013	-0,033
-596,269	268,944	-0,029	-0,037
-595,255	800,000	0,011	0,026
-594,240	37,059	-0,036	-0,023
-593,225	14,711	-0,160	-0,090
-592,211	-90,477	0,110	0,023
-591,196	247,677	0,029	0,035
-590,182	-200,000	0,001	-0,053
-589,167	-200,000	-0,015	0,047
-588,152	9,612	-0,005	0,003
-587,138	-200,000	-0,006	0,039
-586,123	-200,000	-0,017	-0,124
-585,109	35,132	-0,013	-0,008
-584,094	-200,000	-0,002	-0,035
-583,079	-94,509	0,123	0,024
-582,065	371,830	-0,074	-0,109
-581,050	67,218	0,106	0,078
-580,036	800,000	-0,026	0,058
-579,021	-8,206	0,042	0,020
-578,006	147,341	0,047	0,045
-576,992	-200,000	0,023	0,077
-575,977	-114,065	-0,078	0,011
-574,963	800,000	0,046	0,093
-573,948	196,689	-0,059	0,065
-572,934	270,415	0,077	-0,098
-571,919	489,212	-0,054	-0,089
-570,904	198,780	-0,104	-0,115
-569,890	-5,281	-0,044	0,022
-568,875	49,037	-0,052	0,035
-567,861	-200,000	0,029	0,111
-566,846	-200,000	0,015	-0,105
-565,831	351,438	-0,011	-0,016
-564,817	301,422	0,093	-0,124
-563,802	126,994	-0,135	-0,123
-562,788	-200,000	0,000	0,028
-561,773	-63,282	0,014	-0,004
-560,758	-200,000	-0,034	-0,164
-559,744	-47,605	0,126	-0,044
-558,729	-48,735	-0,061	-0,021
-557,715	-200,000	-0,009	-0,086
-556,700	103,752	0,025	0,021
-555,685	-51,502	-0,039	0,013
-554,671	253,133	-0,015	0,019
-553,656	204,578	0,127	0,142
-552,642	723,007	0,044	0,085
-551,627	241,232	-0,047	0,056
-550,612	201,789	0,014	-0,015
-549,598	-200,000	-0,009	-0,081
-548,583	-200,000	-0,015	0,117
-547,569	383,274	0,065	0,097
-546,554	-26,741	0,165	0,069
-545,539	-200,000	0,008	-0,066
-544,525	163,917	-0,024	0,024
-543,510	-1,803	-0,130	-0,066
-542,496	-104,626	-0,117	0,019
-541,481	8,770	0,111	-0,060
-540,466	235,759	-0,107	-0,127
-539,452	-200,000	0,004	0,045
-538,437	-196,652	-0,118	-0,001
-537,423	52,548	-0,034	-0,024
-536,408	-132,310	-0,052	0,005
-535,393	-184,807	-0,084	-0,001
-534,379	800,000	-0,032	0,076
-533,364	-66,128	0,075	0,022
-532,350	-39,665	0,077	-0,029
-531,335	-25,811	-0,207	-0,087
-530,321	-1,466	0,138	-0,070
-529,306	-6,886	0,034	0,016
-528,291	9,875	-0,143	-0,078
-527,277	85,932	0,039	0,031
-526,262	-82,890	-0,272	-0,063
-525,248	35,671	0,074	0,047
-524,233	800,000	0,075	0,180
-523,218	87,527	-0,096	-0,077
-522,204	-109,649	-0,025	0,004
-521,189	-32,599	0,053	0,021
-520,175	93,608	0,009	-0,007
-519,160	-140,959	0,140	0,010
-518,145	-140,848	-0,052	0,004
-517,131	-34,893	0,184	-0,072
-516,116	-14,435	0,097	0,045
-515,102	-125,978	-0,067	-0,007
-514,087	-200,000	0,005	0,071
-513,072	-200,000	0,004	0,074
-512,058	-98,155	-0,038	-0,007
-511,043	-104,500	0,148	0,024
-510,029	-200,000	-0,004	0,124
-509,014	-200,000	-0,047	0,271
-507,999	-102,310	0,087	-0,015
-506,985	31,972	-0,102	0,063
-505,970	-200,000	-0,041	-0,139
-504,956	19,708	-0,073	-0,042
-503,941	-123,725	-0,135	0,015
-502,926	-9,246	0,078	0,037
-501,912	-167,119	0,045	0,001
-500,897	260,912	-0,047	-0,058
-499,883	-200,000	0,029	0,143
-498,868	208,868	-0,008	-0,009
-497,853	-200,000	-0,007	-0,080
-496,839	-160,580	0,182	-0,007
-495,824	81,680	-0,044	-0,034
-494,810	393,888	0,077	0,116
-493,795	274,427	0,068	-0,087
-492,781	800,000	0,027	0,058
-491,766	-58,527	-0,031	0,010
-490,751	-133,394	-0,251	0,022
-489,737	593,665	-0,046	0,082
-488,722	403,816	-0,049	0,075
-487,708	160,097	-0,022	-0,022
-486,693	-143,908	0,080	-0,005
-485,678	-83,241	0,082	-0,019
-484,664	800,000	0,038	-0,099
-483,649	111,202	0,120	-0,104
-482,635	-200,000	0,016	-0,175
-481,620	-64,053	0,133	-0,039
-480,605	-16,362	0,089	-0,040
-479,591	34,076	-0,068	-0,042
-478,576	311,697	-0,077	0,104
-477,562	-122,363	-0,051	-0,006
-476,547	87,712	-0,114	0,091
-475,532	-200,000	0,014	0,063
-474,518	125,552	0,128	0,116
-473,503	-200,000	-0,039	0,169
-472,489	-136,987	0,095	0,008
-471,474	-200,000	-0,003	0,119
-470,459	28,407	-0,040	-0,024
-469,445	177,599	0,080	-0,084
-468,430	10,569	0,073	-0,040
-467,416	-200,000	0,008	0,076
-466,401	800,000	0,062	0,151
-465,386	266,077	-0,077	0,097
-464,372	80,146	0,017	0,013
-463,357	76,894	-0,118	-0,090
-462,343	94,128	0,070	-0,057
-461,328	-138,313	-0,080	0,006
-460,313	657,140	0,047	-0,087
-459,299	133,071	0,103	-0,095
-458,284	-116,749	0,056	0,007
-457,270	-36,451	-0,100	0,038
-456,255	800,000	0,003	0,006
-455,241	800,000	0,007	-0,020
-454,226	-40,886	-0,058	-0,021
-453,211	-66,183	0,147	-0,042
-452,197	-200,000	0,085	0,000
-451,182	800,000	-0,041	0,086
-450,168	-160,489	0,079	-0,003
-449,153	-6,428	0,032	0,016
-448,138	216,231	-0,069	-0,079
-447,124	94,931	0,043	-0,035
-446,109	55,873	0,096	-0,067
-445,095	-168,391	0,163	0,004
-444,080	277,246	0,059	0,076
-443,065	400,399	-0,086	0,130
-442,051	-3,173	-0,105	0,053
-441,036	-148,901	0,049	0,003
-440,022	-200,000	-0,016	-0,135
-439,007	208,193	0,055	-0,062
-437,992	-200,000	0,002	0,057
-436,978	182,064	0,033	0,035
-435,963	444,159	-0,069	-0,109
-434,949	-200,000	-0,001	-0,007
-433,934	72,831	-0,099	0,074
-432,919	-121,602	-0,041	-0,005
-431,905	163,390	0,007	-0,007
-430,890	95,134	0,083	0,068
-429,876	-84,598	0,045	0,010
-428,861	469,009	-0,057	-0,093
-427,846	800,000	-0,032	0,069
-426,832	-59,905	-0,144	-0,044
-425,817	800,000	-0,036	-0,092
-424,803	-200,000	0,008	0,072
-423,788	-200,000	-0,008	0,135
-422,773	328,416	0,115	0,159
-421,759	219,252	0,026	-0,030
-420,744	-39,085	-0,020	-0,007
-419,730	-200,000	-0,003	-0,033
-418,715	109,099	-0,124	-0,106
-417,701	-200,000	-0,020	-0,066
-416,686	509,837	-0,048	0,080
-415,671	-200,000	0,034	0,129
-414,657	-6,821	0,081	-0,039
-413,642	-86,615	0,149	0,032
-412,628	-200,000	-0,023	-0,074
-411,613	-200,000	-0,035	-0,133
-410,598	2,478	-0,105	-0,054
-409,584	-200,000	-0,000	0,032
-408,569	335,761	0,124	0,173
-407,555	-200,000	-0,032	0,228
-406,540	318,559	-0,024	0,033
-405,525	439,426	-0,051	-0,080
-404,511	424,878	0,078	0,122
-403,496	-138,088	0,157	0,012
-402,482	800,000	0,012	0,034
-401,467	-119,699	0,223	0,027
-400,452	-128,200	0,021	0,002
-399,438	16,013	-0,152	0,086
-398,423	168,875	-0,035	0,036
-397,409	800,000	-0,009	-0,027
-396,394	-153,253	0,120	0,006
-395,379	125,378	-0,058	0,052
-394,365	-200,000	0,013	-0,090
-393,350	800,000	0,043	0,131
-392,336	-200,000	-0,016	0,142
-391,321	-122,423	-0,078	0,009
-390,306	102,382	-0,056	-0,047
-389,292	204,423	-0,016	0,017
-388,277	800,000	0,012	-0,032
-387,263	-200,000	0,018	0,192
-386,248	-200,000	0,035	0,138
-385,233	-200,000	0,041	0,184
-384,219	346,255	0,083	-0,117
-383,204	121,760	-0,147	-0,132
-382,190	193,029	-0,084	-0,091
-381,175	-200,000	0,019	-0,087
-380,160	99,969	0,062	0,051
-379,146	-89,753	0,103	-0,021
-378,131	-98,906	0,010	0,002
-377,117	-163,243	-0,063	-0,002
-376,102	-148,039	0,153	-0,009
-375,088	218,939	-0,065	-0,075
-374,073	800,000	0,037	0,095
-373,058	420,876	-0,034	0,052
-372,044	-135,340	-0,030	-0,002
-371,029	-200,000	0,002	0,019
-370,015	-200,000	0,002	0,052
-369,000	800,000	0,071	-0,146
-367,985	800,000	-0,119	-0,249
-366,971	-138,516	-0,162	0,013
-365,956	44,396	0,064	0,042
-364,942	-51,863	0,168	0,056
-363,927	127,776	-0,056	-0,051
-362,912	-109,162	-0,075	0,011
-361,898	-30,161	-0,053	-0,021
-360,883	-200,000	-0,011	-0,101
-359,869	-200,000	-0,001	0,072
-358,854	-56,041	-0,070	0,022
-357,839	161,161	0,086	-0,087
-356,825	-103,215	0,120	0,020
-355,810	-26,479	-0,098	-0,041
-354,796	-200,000	0,001	-0,108
-353,781	-200,000	-0,006	0,068
-352,766	-23,731	-0,184	-0,079
-351,752	30,632	-0,134	-0,082
-350,737	114,112	0,061	0,053
-349,723	-174,670	0,032	0,001
-348,708	-109,795	0,137	-0,020
-347,693	-148,649	0,096	0,005
-346,679	800,000	0,043	-0,085
-345,664	-200,000	-0,025	-0,190
-344,650	-99,617	0,027	0,005
-343,635	800,000	0,020	0,040
-342,620	60,491	0,131	0,093
-341,606	-151,730	-0,075	0,004
-340,591	9,966	0,252	-0,137
-339,577	-174,105	-0,084	0,002
-338,562	649,600	-0,059	-0,109
-337,548	-119,028	0,042	0,005
-336,533	78,023	0,045	-0,034
-335,518	800,000	0,066	0,131
-334,504	-200,000	-0,025	0,168
-333,489	-42,759	-0,061	-0,022
-332,475	-101,017	-0,035	0,006
-331,460	-200,000	0,039	-0,175
-330,445	364,158	-0,081	-0,117
-329,431	63,856	-0,087	-0,063
-328,416	-155,497	-0,054	-0,002
-327,402	-53,824	-0,100	-0,032
-326,387	333,616	-0,018	-0,025
-325,372	23,070	-0,020	0,012
-324,358	33,913	-0,087	-0,054
-323,343	800,000	0,017	-0,044
-322,329	166,995	-0,073	-0,074
-321,314	39,175	0,069	-0,044
-320,299	312,854	-0,045	0,060
-319,285	-34,242	0,104	0,041
-318,270	-29,861	-0,070	-0,028
-317,256	0,575	0,070	-0,036
-316,241	800,000	-0,042	0,092
-315,226	-53,549	-0,081	0,026
-314,212	337,060	0,082	0,115
-313,197	-200,000	-0,008	0,192
-312,183	-52,509	-0,075	-0,025
-311,168	146,313	0,050	-0,048
-310,153	19,297	0,013	-0,007
-309,139	-176,107	-0,182	-0,003
-308,124	310,054	-0,018	0,025
-307,110	605,157	0,031	0,055
-306,095	472,558	0,072	-0,116
-305,080	316,515	-0,129	-0,174
-304,066	330,026	-0,007	-0,010
-303,051	800,000	-0,045	-0,106
-302,037	-143,832	-0,160	-0,011
-301,022	-93,669	0,144	-0,028
-300,008	52,680	0,094	0,064
-298,993	380,093	-0,056	0,082
-297,978	-48,609	-0,136	0,046
-296,964	-200,000	-0,001	-0,142
-295,949	180,093	-0,113	-0,118
-294,935	-28,027	0,066	-0,027
-293,920	-200,000	0,045	0,144
-292,905	-164,784	-0,061	0,002
-291,891	0,141	0,109	-0,055
-290,876	-200,000	-0,014	0,091
-289,862	-167,718	-0,053	-0,001
-288,847	-106,550	0,121	0,019
-287,832	-11,818	-0,177	-0,083
-286,818	55,636	0,112	0,078
-285,803	-124,706	0,127	0,014
-284,789	-142,467	-0,134	-0,009
-283,774	800,000	0,052	0,128
-282,759	-200,000	0,009	-0,059
-281,745	160,106	0,008	-0,008
-280,730	154,739	-0,096	0,095
-279,716	-11,248	0,040	0,019
-278,701	370,574	0,054	-0,079
-277,686	-105,298	0,180	0,029
-276,672	114,106	0,043	0,037
-275,657	-107,860	-0,168	-0,026
-274,643	-200,000	0,004	-0,057
-273,628	526,510	0,106	-0,180
-272,613	-110,995	0,141	-0,020
-271,599	-57,966	-0,049	0,015
-270,584	-2,711	0,076	-0,038
-269,570	-37,575	0,108	0,041
-268,555	-105,709	-0,068	0,011
-267,540	-18,768	-0,080	0,035
-266,526	-107,479	0,098	0,015
-265,511	800,000	0,069	-0,138
-264,497	-200,000	-0,011	0,087
-263,482	800,000	0,021	0,049
-262,467	-58,192	0,054	-0,017
-261,453	13,711	-0,092	0,051
-260,438	-200,000	0,002	-0,068
-259,424	386,397	-0,076	0,112
-258,409	-200,000	-0,006	-0,073
-257,395	-112,386	-0,056	-0,008
-256,380	705,468	0,041	-0,077
-255,365	800,000	-0,023	0,069
-254,351	-59,939	-0,122	0,037
-253,336	345,324	0,079	-0,111
-252,322	-200,000	0,001	-0,029
-251,307	673,229	0,030	0,056
-250,292	-200,000	0,007	-0,125
-249,278	85,873	-0,029	0,023
-248,263	-200,000	-0,003	0,144
-247,249	-153,110	0,018	0,001
-246,234	175,361	0,033	-0,034
-245,219	-200,000	0,011	-0,048
-244,205	-200,000	-0,005	-0,061
-243,190	373,809	0,058	-0,085
-242,176	38,863	0,083	0,053
-241,161	-200,000	-0,027	-0,100
-240,146	114,323	-0,049	-0,043
-239,132	163,539	0,075	0,076
-238,117	62,625	-0,162	0,115
-237,103	168,086	-0,045	0,045
-236,088	453,354	-0,028	-0,044
-235,073	-200,000	-0,024	0,081
-234,059	26,662	-0,025	0,015
-233,044	800,000	-0,045	0,111
-232,030	800,000	-0,073	0,202
-231,015	-152,734	-0,069	-0,003
-230,000	21,411	-0,113	-0,065
-228,986	374,832	-0,027	-0,039
-227,971	-27,297	0,078	-0,032
-226,957	327,663	0,116	0,160
-225,942	-200,000	0,019	0,282
-224,927	213,272	-0,090	-0,101
-223,913	486,791	-0,104	-0,170
-222,898	-200,000	-0,011	-0,064
-221,884	800,000	-0,064	-0,149
-220,869	111,453	-0,082	0,070
-219,855	9,695	0,075	-0,041
-218,840	375,981	-0,078	-0,114
-217,825	-200,000	0,019	0,135
-216,811	-200,000	-0,003	0,014
-215,796	402,675	-0,032	-0,049
-214,782	130,362	0,072	-0,066
-213,767	51,079	0,066	-0,044
-212,752	200,734	0,041	0,045
-211,738	800,000	-0,041	0,129
-210,723	146,880	-0,091	-0,087
-209,709	169,239	-0,062	-0,063
-208,694	386,462	0,042	-0,062
-207,679	390,987	0,073	-0,108
-206,665	239,055	-0,068	0,080
-205,650	-43,748	0,068	0,024
-204,636	232,140	-0,099	0,116
-203,621	-5,757	-0,065	-0,032
-202,606	-200,000	0,017	-0,089
-201,592	-200,000	-0,026	-0,084
-200,577	3,892	-0,144	-0,075
-199,563	86,019	0,163	-0,128
-198,548	145,211	0,070	0,067
-197,533	-200,000	-0,023	0,196
-196,519	78,562	0,047	0,036
-195,504	151,289	0,132	-0,128
-194,490	69,110	0,167	-0,122
-193,475	216,366	0,015	0,017
-192,460	438,763	0,016	0,024
-191,446	-184,973	-0,169	-0,002
-190,431	-113,039	0,021	-0,003
-189,417	9,009	-0,048	0,026
-188,402	800,000	-0,027	-0,054
-187,387	-52,504	0,051	0,017
-186,373	-197,662	-0,146	-0,001
-185,358	-200,000	-0,004	0,065
-184,344	800,000	-0,029	0,058
-183,329	200,041	0,029	-0,032
-182,315	-200,000	0,015	0,080
-181,300	130,824	-0,029	-0,026
-180,285	-200,000	0,004	-0,098
-179,271	-162,888	0,025	0,001
-178,256	248,362	0,046	-0,055
-177,242	12,834	-0,085	0,047
-176,227	-200,000	-0,019	0,173
-175,212	800,000	-0,009	-0,022
-174,198	-200,000	0,004	0,099
-173,183	252,903	-0,012	0,015
-172,169	420,114	0,102	-0,156
-171,154	-200,000	-0,002	0,053
-170,139	-53,361	-0,019	-0,006
-169,125	133,335	0,078	-0,072
-168,110	-32,982	0,107	-0,042
-167,096	-62,980	-0,131	-0,038
-166,081	-8,292	-0,108	-0,051
-165,066	262,599	0,034	0,043
-164,052	275,120	-0,039	0,050
-163,037	800,000	0,019	0,043
-162,023	-87,964	-0,098	0,021
-161,008	-200,000	0,035	0,124
-159,993	800,000	-0,012	0,034
-158,979	-200,000	0,006	0,073
-157,964	4,257	0,090	-0,047
-156,950	7,647	0,039	0,021
-155,935	55,910	0,015	0,010
-154,920	800,000	0,043	0,087
-153,906	-200,000	-0,001	-0,049
-152,891	529,557	0,025	0,042
-151,877	47,582	-0,062	-0,041
-150,862	161,768	-0,073	-0,072
-149,847	-35,923	-0,083	0,032
-148,833	800,000	0,048	-0,109
-147,818	-200,000	0,007	-0,082
-146,804	28,141	0,018	-0,011
-145,789	-200,000	-0,052	-0,185
-144,775	149,788	-0,063	0,060
-143,760	170,458	0,090	-0,092
-142,745	-46,297	0,000	0,000
-141,731	127,245	0,104	-0,094
-140,716	-120,793	-0,070	-0,008
-139,702	352,160	0,104	0,147
-138,687	-200,000	0,014	0,180
-137,672	94,615	-0,124	-0,100
-136,658	800,000	0,036	-0,090
-135,643	81,746	-0,087	-0,067
-134,629	248,895	0,090	-0,108
-133,614	-167,188	0,114	-0,003
-132,599	-125,953	0,177	-0,019
-131,585	-200,000	-0,012	0,073
-130,570	100,227	-0,079	0,065
-129,556	-78,375	-0,062	-0,015
-128,541	178,901	0,077	-0,080
-127,526	273,125	-0,030	0,037
-126,512	67,443	0,018	0,013
-125,497	-200,000	-0,001	0,170
-124,483	259,746	0,095	0,117
-123,468	40,545	-0,149	0,095
-122,453	-16,073	-0,145	-0,065
-121,439	-200,000	0,017	0,074
-120,424	663,169	0,026	-0,048
-119,410	-200,000	-0,013	-0,040
-118,395	800,000	0,029	0,069
-117,380	-41,699	-0,067	-0,024
-116,366	800,000	-0,013	0,031
-115,351	389,177	0,040	0,059
-114,337	125,287	0,009	-0,008
-113,322	64,313	0,054	-0,039
-112,307	508,768	0,033	0,055
-111,293	72,992	0,065	-0,048
-110,278	141,775	-0,013	-0,012
-109,264	155,104	-0,047	-0,046
-108,249	-200,000	-0,001	0,038
-107,234	-200,000	0,004	0,037
-106,220	143,356	0,068	0,064
-105,205	-200,000	0,019	0,097
-104,191	-200,000	0,009	0,045
-103,176	800,000	0,024	0,053
-102,162	-35,084	0,019	-0,007
-101,147	-119,604	0,102	-0,012
-100,132	-200,000	0,003	0,021
-99,118	-76,805	-0,088	-0,022
-98,103	114,364	-0,035	0,030
-97,089	-41,331	-0,054	0,020
-96,074	800,000	-0,028	0,072
-95,059	660,335	-0,048	-0,087
-94,045	109,239	-0,066	-0,056
-93,030	-200,000	-0,009	-0,213
-92,016	-39,485	-0,149	0,055
-91,001	800,000	0,021	-0,046
-89,986	-200,000	0,002	0,093
-88,972	-200,000	0,016	0,100
-87,957	-128,820	0,124	-0,012
-86,943	-64,920	0,104	0,030
-85,928	800,000	0,034	0,075
-84,913	147,093	-0,039	0,037
-83,899	193,977	-0,117	0,126
-82,884	549,172	-0,027	0,047
-81,870	800,000	-0,067	-0,143
-80,855	139,396	-0,070	0,065
-79,840	800,000	-0,028	-0,061
-78,826	-200,000	0,029	0,000
-77,811	252,937	0,072	-0,088
-76,797	30,803	0,098	-0,059
-75,782	800,000	0,037	-0,077
-74,767	141,497	0,067	-0,063
-73,753	-118,770	-0,047	0,006
-72,738	800,000	-0,034	-0,069
-71,724	800,000	-0,050	0,136
-70,709	-101,557	0,076	0,013
-69,694	-53,559	-0,150	0,048
-68,680	419,778	-0,048	0,072
-67,665	295,511	0,042	-0,055
-66,651	-61,590	0,076	-0,022
-65,636	-110,952	-0,101	-0,014
-64,622	204,663	0,118	-0,130
-63,607	133,068	0,066	0,060
-62,592	84,199	0,033	0,026
-61,578	55,978	0,093	0,064
-60,563	17,865	-0,058	-0,032
-59,549	-75,666	0,016	-0,004
-58,534	-44,103	-1,666	-0,589
-57,519	435,696	-1,397	-2,159
-56,505	-200,000	-0,651	-4,616
-55,490	264,738	0,984	1,215
-54,476	800,000	4,758	11,234
-53,461	-200,000	18,724	302,469
-52,446	800,000	734,415	2277,311
-51,432	562,897	1650,575	2838,219
-50,417	78,800	1669,200	1262,487
-49,403	22,120	1542,219	888,389
-48,388	16,026	1465,260	814,482
-47,373	17,764	1454,976	817,118
-46,359	16,917	1445,316	807,603
-45,344	14,324	1440,537	792,503
-44,330	14,217	1438,739	790,972
-43,315	14,200	1437,033	789,922
-42,300	14,234	1435,427	789,168
-41,286	14,283	1434,365	788,788
-40,271	14,264	1432,758	787,783
-39,257	14,256	1431,611	787,083
-38,242	14,267	1430,248	786,355
-37,227	14,265	1429,172	785,722
-36,213	14,224	1427,928	784,812
-35,198	14,255	1426,800	784,307
-34,184	14,356	1425,636	784,116
-33,169	14,260	1424,330	782,912
-32,154	14,242	1423,435	782,303
-31,140	14,285	1422,061	781,718
-30,125	14,313	1420,783	781,120
-29,111	14,296	1419,753	780,439
-28,096	14,238	1418,656	779,533
-27,082	14,175	1417,761	778,716
-26,067	14,175	1416,542	778,011
-25,052	14,179	1415,657	777,515
-24,038	14,157	1414,582	776,793
-23,023	14,147	1413,665	776,209
-22,009	14,140	1412,621	775,572
-20,994	14,163	1411,733	775,161
-19,979	14,135	1410,968	774,581
-18,965	14,117	1409,674	773,756
-17,950	14,117	1409,103	773,412
-16,936	14,136	1407,901	772,809
-15,921	14,120	1406,783	772,089
-14,906	14,073	1405,945	771,381
-13,892	14,069	1405,249	770,947
-12,877	14,088	1403,976	770,307
-11,863	14,085	1403,342	769,917
-10,848	14,101	1402,295	769,386
-9,833	14,026	1401,625	768,640
-8,819	14,024	1400,740	768,114
-7,804	13,981	1399,740	767,335
-6,790	14,000	1398,442	766,681
-5,775	13,987	1397,620	766,138
-4,760	14,016	1396,439	765,594
-3,746	13,989	1395,772	765,076
-2,731	13,985	1395,215	764,723
-1,717	14,000	1393,970	764,076
-0,702	14,001	1392,284	763,126
0,313	17,899	1310,510	736,339
1,327	34,342	706,194	434,864
2,342	52,788	124,276	83,884
3,356	2,382	16,627	8,480
4,371	-0,602	3,276	1,638
5,386	-73,653	0,664	0,170
6,400	534,859	0,102	0,171
7,415	119,619	-0,228	-0,200
8,429	-31,422	-0,233	-0,092
9,444	3,018	-0,415	-0,212
10,459	154,450	-0,192	-0,187
11,473	252,895	-0,194	-0,235
12,488	800,000	-0,057	-0,177
13,502	-58,777	-0,292	-0,089
14,517	74,874	-0,370	-0,275
15,531	143,961	-0,321	-0,303
16,546	84,615	-0,292	-0,226
17,561	336,051	-0,317	-0,435
18,575	-25,985	-0,274	-0,113
19,590	800,000	-0,108	-0,237
20,604	210,171	-0,211	-0,234
21,619	150,410	-0,417	-0,400
22,634	150,768	-0,459	-0,441
23,648	111,253	-0,441	-0,375
24,663	-18,753	-0,524	-0,229
25,677	269,672	-0,276	-0,343
26,692	20,875	-0,305	-0,174
27,707	109,181	-0,285	-0,241
28,721	125,674	-0,263	-0,234
29,736	-3,123	-0,442	-0,217
30,750	175,919	-0,323	-0,331
31,765	311,541	-0,311	-0,412
32,780	196,568	-0,285	-0,307
33,794	130,476	-0,261	-0,236
34,809	122,428	-0,301	-0,265
35,823	83,904	-0,279	-0,215
36,838	12,011	-0,387	-0,209
37,853	121,134	-0,421	-0,369
38,867	31,976	-0,441	-0,267
39,882	74,669	-0,491	-0,364
40,896	359,325	-0,254	-0,360
41,911	15,912	-0,388	-0,214
42,926	229,038	-0,310	-0,357
43,940	68,746	-0,342	-0,247
44,955	37,704	-0,387	-0,242
45,969	376,770	-0,299	-0,431
46,984	86,872	-0,378	-0,294
47,999	25,394	-0,315	-0,184
49,013	-101,637	-0,391	-0,066
50,028	126,328	-0,257	-0,229
51,042	20,084	-0,383	-0,217
52,057	324,801	-0,260	-0,351
53,071	117,328	-0,323	-0,280
54,086	166,037	-0,221	-0,220
55,101	321,036	-0,189	-0,253
56,115	-38,799	-0,229	-0,085
57,130	-50,886	-0,307	-0,101
58,144	-26,808	-0,390	-0,160
59,159	113,387	-0,377	-0,322
60,174	271,242	-0,271	-0,337
61,188	-8,663	-0,395	-0,186
62,203	-17,776	-0,393	-0,173
63,217	9,532	-0,393	-0,209
64,232	47,841	-0,396	-0,260
65,247	121,667	-0,325	-0,285
66,261	143,662	-0,307	-0,287
67,276	-5,710	-0,462	-0,222
68,290	24,410	-0,330	-0,191
69,305	-33,713	-0,398	-0,154
70,320	-0,705	-0,303	-0,151
71,334	15,958	-0,299	-0,165
72,349	-5,088	-0,466	-0,225
73,363	-12,644	-0,357	-0,163
74,378	159,348	-0,370	-0,362
75,393	21,558	-0,323	-0,184
76,407	121,420	-0,217	-0,190
77,422	9,948	-0,309	-0,164
78,436	-164,548	-0,321	-0,010
79,451	139,022	-0,249	-0,230
80,466	166,326	-0,266	-0,265
81,480	97,493	-0,343	-0,277
82,495	148,510	-0,342	-0,324
83,509	15,735	-0,377	-0,208
84,524	-118,494	-0,322	-0,040
85,539	86,182	-0,299	-0,231
86,553	-27,490	-0,318	-0,129
87,568	38,062	-0,370	-0,230
88,582	361,728	-0,238	-0,336
89,597	99,481	-0,243	-0,197
90,611	69,352	-0,200	-0,144
91,626	108,695	-0,236	-0,198
92,641	-2,964	-0,306	-0,149
93,655	13,565	-0,339	-0,184
94,670	287,216	-0,165	-0,210
95,684	59,976	-0,275	-0,190
96,699	136,353	-0,371	-0,340
97,714	-59,140	-0,312	-0,094
98,728	14,939	-0,200	-0,110
99,743	-67,913	-0,280	-0,076
100,757	33,009	-0,290	-0,176
101,772	-14,278	-0,289	-0,130
102,787	31,610	-0,346	-0,208
103,801	97,779	-0,283	-0,228
104,816	165,723	-0,264	-0,262
105,830	20,630	-0,179	-0,101
106,845	144,010	-0,282	-0,264
107,860	112,887	-0,263	-0,223
108,874	-7,488	-0,269	-0,127
109,889	17,229	-0,335	-0,186
110,903	259,387	-0,249	-0,301
111,918	270,374	-0,157	-0,194
112,933	256,735	-0,237	-0,286
113,947	283,786	-0,204	-0,258
114,962	54,758	-0,229	-0,155
115,976	130,889	-0,230	-0,206
116,991	100,715	-0,324	-0,263
118,006	161,797	-0,318	-0,312
119,020	174,548	-0,300	-0,304
120,035	484,779	-0,133	-0,213
121,049	-117,323	-0,353	-0,044
122,064	93,910	-0,209	-0,166
123,079	44,631	-0,242	-0,155
124,093	130,447	-0,300	-0,269
125,108	115,347	-0,242	-0,207
126,122	113,348	-0,295	-0,250
127,137	-36,416	-0,294	-0,110
128,151	-1,666	-0,210	-0,103
129,166	800,000	-0,115	-0,323
130,181	-116,676	-0,336	-0,043
131,195	179,401	-0,164	-0,168
132,210	158,128	-0,189	-0,184
133,224	45,131	-0,184	-0,118
134,239	-1,479	-0,345	-0,170
135,254	-14,177	-0,175	-0,079
136,268	168,081	-0,228	-0,227
137,283	217,596	-0,275	-0,307
138,297	-44,170	-0,356	-0,124
139,312	800,000	-0,129	-0,257
140,327	65,214	-0,300	-0,212
141,341	20,275	-0,171	-0,096
142,356	145,906	-0,174	-0,163
143,370	87,169	-0,283	-0,218
144,385	-24,352	-0,242	-0,101
145,400	76,084	-0,188	-0,139
146,414	-15,669	-0,284	-0,126
147,429	325,211	-0,232	-0,311
148,443	228,728	-0,199	-0,227
149,458	94,335	-0,242	-0,192
150,473	281,772	-0,241	-0,302
151,487	457,740	-0,173	-0,270
152,502	0,216	-0,329	-0,163
153,516	20,077	-0,232	-0,130
154,531	21,600	-0,248	-0,140
155,546	329,886	-0,182	-0,245
156,560	800,000	-0,072	-0,219
157,575	601,010	-0,190	-0,331
158,589	254,536	-0,204	-0,244
159,604	225,101	-0,225	-0,254
160,619	119,420	-0,213	-0,184
161,633	402,490	-0,228	-0,336
162,648	-47,276	-0,195	-0,066
163,662	68,249	-0,158	-0,113
164,677	146,738	-0,239	-0,224
165,692	14,624	-0,344	-0,187
166,706	-98,264	-0,312	-0,055
167,721	61,143	-0,275	-0,190
168,735	-31,737	-0,244	-0,095
169,750	279,340	-0,159	-0,199
170,764	93,842	-0,206	-0,163
171,779	12,194	-0,241	-0,129
172,794	-36,567	-0,182	-0,068
173,808	18,396	-0,243	-0,135
174,823	-58,128	-0,283	-0,085
175,837	208,826	-0,225	-0,246
176,852	164,396	-0,201	-0,197
177,867	208,482	-0,159	-0,174
178,881	-9,633	-0,157	-0,073
179,896	-50,608	-0,274	-0,089
180,910	-41,253	-0,174	-0,062
181,925	-200,000	-0,026	-0,236
182,940	416,943	-0,172	-0,257
183,954	779,559	-0,106	-0,202
184,969	14,384	-0,276	-0,149
185,983	97,329	-0,134	-0,107
186,998	19,671	-0,256	-0,143
188,013	38,122	-0,262	-0,162
189,027	147,256	-0,160	-0,150
190,042	223,542	-0,145	-0,164
191,056	-51,220	-0,300	-0,097
192,071	557,485	-0,138	-0,232
193,086	11,250	-0,191	-0,101
194,100	77,413	-0,193	-0,143
195,115	76,601	-0,258	-0,190
196,129	-121,065	-0,299	-0,034
197,144	75,072	-0,197	-0,144
198,159	417,309	-0,169	-0,251
199,173	159,654	-0,124	-0,120
200,188	377,248	-0,100	-0,143
201,202	286,444	-0,224	-0,281
202,217	141,959	-0,119	-0,110
203,232	73,309	-0,305	-0,222
204,246	14,746	-0,215	-0,116
205,261	154,823	-0,253	-0,242
206,275	-112,184	-0,235	-0,032
207,290	589,431	-0,107	-0,183
208,304	15,000	-0,063	-0,034
209,319	68,285	-0,048	-0,034
210,334	40,878	-0,290	-0,181
211,348	160,185	-0,183	-0,177
212,363	162,843	-0,129	-0,126
213,377	72,412	-0,249	-0,180
214,392	-165,715	-0,239	-0,007
215,407	147,441	-0,112	-0,104
216,421	55,241	-0,215	-0,144
217,436	800,000	-0,112	-0,264
218,450	-11,776	-0,187	-0,085
219,465	634,840	-0,086	-0,152
220,480	88,657	-0,121	-0,093
221,494	-81,267	-0,276	-0,063
222,509	53,455	-0,234	-0,155
223,523	172,961	-0,073	-0,073
224,538	-151,350	-0,245	-0,012
225,553	-75,617	-0,337	-0,082
226,567	60,725	-0,294	-0,202
227,582	-166,060	-0,185	-0,005
228,596	40,159	-0,115	-0,071
229,611	-200,000	0,011	-0,129
230,626	-7,199	-0,222	-0,104
231,640	278,988	-0,154	-0,191
232,655	166,079	-0,106	-0,104
233,669	-99,486	-0,177	0,031
234,684	-22,687	-0,240	-0,100
235,699	463,775	-0,148	-0,229
236,713	142,645	-0,171	-0,157
237,728	82,493	-0,290	-0,218
238,742	79,664	-0,123	-0,091
239,757	130,840	-0,214	-0,190
240,772	32,269	-0,273	-0,163
241,786	-24,711	-0,334	-0,137
242,801	-89,619	-0,158	-0,032
243,815	74,164	-0,240	-0,174
244,830	-32,330	-0,166	-0,064
245,844	12,191	-0,159	-0,085
246,859	421,591	-0,158	-0,236
247,874	-200,000	-0,061	-0,216
248,888	-200,000	-0,052	-0,182
249,903	82,046	-0,144	-0,108
250,917	307,288	-0,113	-0,146
251,932	-115,568	-0,168	-0,022
252,947	-163,702	-0,183	-0,006
253,961	95,499	-0,197	-0,155
254,976	296,146	-0,149	-0,189
255,990	66,242	-0,188	-0,132
257,005	114,264	-0,164	-0,138
258,020	-178,671	-0,232	0,004
259,034	-200,000	0,019	-0,084
260,049	56,001	-0,264	-0,177
261,063	62,241	-0,156	-0,107
262,078	65,783	-0,228	-0,159
263,093	182,639	-0,198	-0,202
264,107	76,899	-0,202	-0,148
265,122	424,517	-0,123	-0,183
266,136	-32,962	-0,201	-0,077
267,151	-29,968	-0,097	0,038
268,166	-15,941	-0,199	-0,087
269,180	-55,574	-0,263	-0,081
270,195	206,990	-0,194	-0,210
271,209	-88,788	-0,139	-0,028
272,224	304,255	-0,033	-0,042
273,239	-18,531	-0,139	-0,060
274,253	62,044	-0,101	-0,069
275,268	67,363	-0,126	-0,088
276,282	111,016	-0,224	-0,186
277,297	217,917	-0,155	-0,171
278,312	85,454	-0,264	-0,200
279,326	-48,457	-0,199	-0,066
280,341	321,724	-0,104	-0,137
281,355	-83,627	-0,272	-0,060
282,370	-134,862	-0,300	-0,025
283,384	105,589	-0,260	-0,212
284,399	-24,659	-0,212	-0,087
285,414	202,226	-0,238	-0,254
286,428	-60,979	-0,214	-0,062
287,443	-200,000	-0,051	-0,186
288,457	-19,949	-0,111	-0,047
289,472	-44,543	-0,240	-0,082
290,487	195,342	-0,186	-0,195
291,501	-200,000	-0,060	-0,257
292,516	357,144	-0,146	-0,201
293,530	417,834	-0,117	-0,173
294,545	781,601	-0,072	-0,136
295,560	71,269	-0,059	-0,042
296,574	21,244	-0,158	-0,088
297,589	3,830	-0,212	-0,107
298,603	171,049	-0,126	-0,125
299,618	56,769	-0,113	-0,075
300,633	-137,335	-0,211	-0,016
301,647	-45,655	-0,133	-0,045
302,662	52,139	-0,126	-0,083
303,676	-62,079	-0,073	-0,021
304,691	687,836	-0,078	-0,140
305,706	120,748	-0,228	-0,195
306,720	78,389	-0,171	-0,126
307,735	122,628	-0,145	-0,125
308,749	692,779	-0,097	-0,177
309,764	12,508	-0,203	-0,108
310,779	24,031	-0,134	-0,076
311,793	210,232	-0,104	-0,112
312,808	91,602	-0,213	-0,165
313,822	44,273	-0,135	-0,085
314,837	-26,599	-0,265	-0,106
315,852	-83,035	-0,111	-0,024
316,866	-200,000	-0,037	-0,222
317,881	-25,952	-0,084	-0,034
318,895	-149,949	-0,183	-0,010
319,910	-17,730	-0,161	-0,069
320,925	191,526	-0,131	-0,136
321,939	358,263	-0,133	-0,184
322,954	114,424	-0,130	-0,109
323,968	-1,929	-0,098	-0,047
324,983	406,464	0,017	-0,025
325,997	-154,193	-0,178	-0,008
327,012	-14,702	-0,133	-0,059
328,027	651,313	-0,075	-0,133
329,041	6,866	-0,278	-0,142
330,056	20,844	-0,126	-0,070
331,070	50,190	-0,088	0,057
332,085	132,066	-0,163	-0,144
333,100	38,269	-0,222	-0,136
334,114	500,719	-0,080	-0,128
335,129	95,289	-0,135	-0,106
336,143	148,840	-0,161	-0,149
337,158	-59,844	-0,069	-0,020
338,173	-52,123	-0,038	-0,012
339,187	82,985	-0,130	-0,097
340,202	15,179	-0,258	-0,138
341,216	173,944	-0,104	-0,103
342,231	-92,433	-0,195	-0,037
343,246	247,421	-0,143	-0,167
344,260	107,818	-0,169	-0,138
345,275	702,614	-0,067	0,122
346,289	-86,323	-0,110	-0,023
347,304	360,626	-0,093	-0,128
348,319	124,459	-0,146	-0,126
349,333	119,275	-0,214	-0,182
350,348	-135,949	-0,046	-0,004
351,362	800,000	-0,053	-0,121
352,377	-113,003	-0,238	0,032
353,392	51,065	-0,149	-0,097
354,406	-96,501	-0,086	-0,015
355,421	209,134	1315,575	1414,314
356,435	160,945	1476,411	1414,808
