DTS Sentinel unit serial number:	SN410029Multiplexer serial number:	ORYXHardware model number:	OX2-SRSoftware version number:	ORYX F/W v4,00 Oryx Data Collector v3.7.2.0data status	okinstallation	B3 Nyhavnadifferential loss correction	single-endedforward channel	channel 1reverse channel	N/Adate	2023/12/04time	09:07:30forward acquisition time	300,00reverse acquisition time	0,00gamma	499,1914k internal	0,3203k external	0,3203temperature offset calibration	1,0000default loss term (dB/km)	0,3820temperature slope calibration	1,0000multiplexer offset coefficient	1,0000multiplexer slope coefficient	1,0000fibre end	0,00T internal ref (°C)	13,01T ext. ref 1 (°C)	-1,33T ext. ref 2 (°C)	-1,35length (m)	temperature (°C)	Stokes	anti-Stokes-744,400	-35,078	-0,340	-0,134
-743,385	-200,000	-0,001	0,382
-742,371	21,474	-0,184	-0,108
-741,356	800,000	0,071	0,202
-740,342	669,958	-0,104	-0,197
-739,327	-200,000	0,012	0,324
-738,312	-12,225	-0,240	-0,113
-737,298	-200,000	0,030	0,208
-736,283	37,299	-0,310	-0,200
-735,269	-200,000	-0,032	0,459
-734,254	89,085	-0,246	-0,199
-733,239	-52,464	-0,175	0,058
-732,225	312,815	-0,112	-0,154
-731,210	555,155	0,108	0,189
-730,196	-34,791	-0,173	0,068
-729,181	-102,527	0,066	-0,011
-728,167	224,581	-0,076	-0,089
-727,152	84,840	0,071	-0,056
-726,137	7,066	-0,093	-0,050
-725,123	-200,000	0,003	-0,051
-724,108	691,536	-0,128	-0,244
-723,094	-200,000	-0,048	-0,195
-722,079	596,734	0,047	-0,085
-721,064	-200,000	-0,007	-0,031
-720,050	-200,000	0,016	0,159
-719,035	800,000	-0,016	-0,043
-718,021	-140,288	0,054	-0,004
-717,006	-200,000	-0,005	0,054
-715,991	418,201	-0,070	-0,109
-714,977	-200,000	-0,005	-0,076
-713,962	-6,996	-0,118	-0,058
-712,948	141,492	0,020	-0,020
-711,933	301,430	0,037	-0,050
-710,918	764,458	0,020	0,040
-709,904	800,000	-0,051	-0,119
-708,889	13,402	0,038	-0,021
-707,875	108,214	-0,131	0,113
-706,860	-200,000	-0,001	0,047
-705,845	-169,117	-0,064	-0,002
-704,831	124,081	-0,060	0,054
-703,816	-154,901	-0,047	0,002
-702,802	44,537	-0,139	0,093
-701,787	-200,000	-0,026	-0,088
-700,772	800,000	-0,035	-0,085
-699,758	528,724	-0,035	-0,060
-698,743	-200,000	0,043	0,180
-697,729	-57,162	-0,044	0,014
-696,714	-162,720	-0,060	-0,002
-695,699	135,018	-0,115	0,109
-694,685	-87,066	-0,105	0,023
-693,670	-87,126	-0,220	-0,048
-692,656	-86,987	0,129	-0,028
-691,641	554,306	-0,086	-0,150
-690,627	-58,366	-0,084	0,026
-689,612	-150,149	-0,083	-0,005
-688,597	800,000	-0,028	0,070
-687,583	-83,672	-0,122	-0,028
-686,568	110,893	0,074	-0,065
-685,554	626,016	-0,041	0,075
-684,539	-200,000	0,008	-0,025
-683,524	800,000	0,022	0,065
-682,510	-71,186	-0,079	0,021
-681,495	-107,025	-0,105	0,017
-680,481	64,260	-0,054	-0,039
-679,466	-103,019	0,064	0,011
-678,451	-113,895	0,096	-0,013
-677,437	-200,000	-0,016	-0,061
-676,422	-200,000	0,017	-0,097
-675,408	-72,008	-0,059	0,016
-674,393	-111,964	-0,098	0,014
-673,378	-200,000	0,000	0,094
-672,364	588,016	-0,019	-0,034
-671,349	-75,046	0,122	-0,031
-670,335	-200,000	0,012	-0,054
-669,320	-200,000	0,008	0,060
-668,305	-200,000	0,027	0,092
-667,291	-28,743	-0,115	0,048
-666,276	-23,119	0,038	0,017
-665,262	-134,550	-0,135	0,012
-664,247	14,266	0,093	0,052
-663,232	-200,000	-0,033	0,118
-662,218	-177,595	-0,040	-0,001
-661,203	-109,916	-0,071	0,011
-660,189	-200,000	0,013	0,103
-659,174	85,923	-0,052	-0,041
-658,159	-37,266	0,077	-0,030
-657,145	353,622	-0,055	-0,079
-656,130	-128,238	-0,037	0,004
-655,116	382,521	0,047	-0,070
-654,101	17,592	0,116	0,067
-653,086	788,095	-0,020	0,040
-652,072	137,407	-0,008	-0,008
-651,057	-77,340	-0,129	0,032
-650,043	-161,615	0,052	0,002
-649,028	-84,757	-0,102	0,023
-648,014	-95,896	0,155	-0,030
-646,999	-123,644	0,094	-0,011
-645,984	99,306	0,068	-0,057
-644,970	208,899	-0,044	-0,050
-643,955	-200,000	-0,018	-0,117
-642,941	792,583	-0,067	0,135
-641,926	800,000	-0,034	-0,080
-640,911	-22,623	0,072	-0,031
-639,897	-125,951	0,046	-0,005
-638,882	159,541	-0,095	-0,096
-637,868	22,206	-0,076	-0,045
-636,853	-178,763	-0,051	-0,001
-635,838	-1,216	0,090	-0,046
-634,824	-46,639	0,082	-0,029
-633,809	578,718	-0,065	-0,116
-632,795	-200,000	-0,021	-0,071
-631,780	104,834	0,030	-0,025
-630,765	-166,234	-0,088	0,003
-629,751	369,045	-0,040	-0,059
-628,736	-30,158	-0,117	-0,048
-627,722	-24,422	0,139	-0,060
-626,707	-103,776	0,094	-0,016
-625,692	-25,541	0,041	0,017
-624,678	218,179	0,019	0,022
-623,663	-200,000	-0,021	0,079
-622,649	20,037	-0,155	-0,090
-621,634	-53,212	0,115	-0,038
-620,619	800,000	-0,019	-0,046
-619,605	-200,000	-0,013	0,109
-618,590	-103,708	-0,133	-0,022
-617,576	-16,759	-0,078	0,036
-616,561	-40,985	-0,044	-0,016
-615,546	-200,000	0,003	0,063
-614,532	-109,095	-0,052	-0,008
-613,517	-200,000	0,038	-0,141
-612,503	800,000	-0,034	-0,082
-611,488	299,875	-0,101	0,135
-610,474	-200,000	0,001	-0,100
-609,459	800,000	0,058	-0,122
-608,444	102,580	-0,105	-0,089
-607,430	-200,000	-0,014	-0,096
-606,415	124,524	0,066	-0,060
-605,401	212,782	0,019	0,022
-604,386	-168,588	0,067	-0,002
-603,371	-200,000	0,003	-0,012
-602,357	-200,000	-0,009	-0,143
-601,342	306,654	0,077	-0,104
-600,328	-68,096	-0,128	0,036
-599,313	800,000	-0,034	-0,081
-598,298	32,023	0,063	-0,039
-597,284	27,680	-0,063	-0,038
-596,269	207,248	0,042	-0,047
-595,255	-138,262	-0,021	0,002
-594,240	270,015	-0,032	0,040
-593,225	397,498	-0,072	-0,109
-592,211	3,501	-0,134	-0,070
-591,196	238,983	0,044	-0,053
-590,182	-200,000	0,005	0,071
-589,167	-87,019	-0,050	-0,011
-588,152	117,896	0,032	0,028
-587,138	-50,810	-0,030	-0,010
-586,123	277,453	-0,091	0,117
-585,109	-200,000	-0,003	0,100
-584,094	-200,000	-0,012	0,050
-583,079	519,711	0,090	0,153
-582,065	145,268	0,046	-0,044
-581,050	222,471	0,083	0,096
-580,036	309,276	-0,034	0,046
-579,021	144,748	-0,018	0,017
-578,006	-100,682	-0,073	-0,013
-576,992	-67,227	-0,047	0,013
-575,977	-200,000	0,024	-0,155
-574,963	83,932	0,056	-0,044
-573,948	76,224	0,023	0,018
-572,934	-200,000	0,005	-0,025
-571,919	-105,570	-0,099	0,016
-570,904	-140,947	-0,046	-0,003
-569,890	770,877	-0,059	-0,117
-568,875	42,684	-0,119	0,078
-567,861	-134,451	-0,045	0,004
-566,846	345,039	0,052	0,074
-565,831	753,191	-0,040	-0,079
-564,817	235,173	0,056	-0,067
-563,802	308,984	0,114	-0,154
-562,788	159,432	-0,043	-0,043
-561,773	473,492	0,081	0,131
-560,758	119,702	0,127	0,114
-559,744	800,000	-0,063	0,137
-558,729	72,352	-0,077	0,058
-557,715	-104,885	-0,007	0,001
-556,700	-200,000	-0,089	0,000
-555,685	42,047	0,128	-0,084
-554,671	-146,284	-0,036	0,002
-553,656	544,833	0,077	-0,134
-552,642	-162,740	0,070	-0,002
-551,627	800,000	0,040	0,114
-550,612	-200,000	-0,000	-0,093
-549,598	-200,000	-0,008	0,087
-548,583	800,000	-0,062	0,149
-547,569	44,730	0,076	-0,051
-546,554	-200,000	-0,028	0,138
-545,539	384,933	0,047	-0,070
-544,525	-34,373	0,008	-0,003
-543,510	-110,119	0,035	-0,005
-542,496	800,000	0,017	0,047
-541,481	-59,078	-0,114	0,035
-540,466	800,000	-0,018	-0,054
-539,452	-121,852	0,145	-0,017
-538,437	-48,985	0,116	0,040
-537,423	800,000	0,013	-0,033
-536,408	-49,365	-0,015	-0,005
-535,393	-93,144	0,064	-0,013
-534,379	351,503	-0,042	-0,060
-533,364	-98,124	-0,002	0,000
-532,350	800,000	0,039	0,092
-531,335	6,114	0,055	0,029
-530,321	8,939	0,125	0,068
-529,306	-130,804	0,203	0,019
-528,291	185,316	-0,096	-0,102
-527,277	-200,000	0,021	0,194
-526,262	-52,518	-0,075	0,025
-525,248	494,870	0,018	0,031
-524,233	278,100	-0,046	0,059
-523,218	99,897	-0,076	0,063
-522,204	-200,000	0,009	0,106
-521,189	-155,621	-0,149	-0,007
-520,175	-79,165	-0,114	-0,028
-519,160	148,560	0,058	-0,056
-518,145	-156,097	0,037	-0,002
-517,131	54,992	0,069	0,048
-516,116	113,333	0,032	0,028
-515,102	157,452	0,058	0,058
-514,087	-98,574	-0,123	-0,022
-513,072	326,667	0,049	0,068
-512,058	-119,690	0,082	0,010
-511,043	-47,329	0,083	-0,029
-510,029	-101,741	0,121	-0,021
-509,014	800,000	0,013	0,032
-507,999	-90,899	-0,034	0,007
-506,985	140,788	-0,023	0,021
-505,970	800,000	0,012	0,026
-504,956	368,592	0,080	-0,117
-503,941	-200,000	-0,005	-0,028
-502,926	-30,381	0,122	-0,050
-501,912	-101,422	-0,120	-0,021
-500,897	31,325	0,062	-0,038
-499,883	-57,246	-0,135	-0,042
-498,868	-200,000	-0,016	-0,163
-497,853	51,639	-0,037	0,025
-496,839	213,305	-0,057	0,065
-495,824	-200,000	0,027	-0,114
-494,810	371,006	0,110	0,161
-493,795	-200,000	-0,017	0,066
-492,781	303,034	0,048	0,064
-491,766	800,000	0,027	-0,059
-490,751	-200,000	0,003	-0,102
-489,737	44,698	0,026	0,017
-488,722	-51,194	-0,145	-0,049
-487,708	233,614	0,102	0,121
-486,693	58,127	0,128	0,090
-485,678	-44,098	-0,106	-0,038
-484,664	3,252	-0,083	-0,043
-483,649	-108,391	-0,109	0,017
-482,635	800,000	-0,096	-0,197
-481,620	-129,718	0,170	0,017
-480,605	-200,000	0,037	0,236
-479,591	-200,000	-0,042	0,224
-478,576	-29,293	-0,082	-0,034
-477,562	148,294	-0,072	-0,070
-476,547	-82,600	-0,132	0,031
-475,532	24,450	-0,147	0,087
-474,518	-14,398	0,050	0,023
-473,503	245,981	0,056	-0,068
-472,489	-117,139	0,140	0,018
-471,474	-170,670	-0,073	-0,002
-470,459	800,000	-0,053	0,143
-469,445	129,298	-0,101	-0,092
-468,430	-171,154	-0,184	-0,004
-467,416	369,785	0,076	0,111
-466,401	-200,000	0,003	0,020
-465,386	65,720	0,070	0,051
-464,372	-200,000	0,012	-0,061
-463,357	5,838	-0,075	-0,040
-462,343	337,819	-0,090	-0,126
-461,328	271,777	-0,095	0,121
-460,313	800,000	-0,032	0,073
-459,299	-35,855	0,038	-0,015
-458,284	-200,000	0,020	0,113
-457,270	-155,257	-0,006	-0,000
-456,255	17,270	0,030	-0,017
-455,241	-0,654	0,035	-0,018
-454,226	149,392	-0,060	-0,059
-453,211	-200,000	0,024	-0,155
-452,197	37,633	0,100	0,064
-451,182	-200,000	-0,004	-0,032
-450,168	380,806	0,073	0,109
-449,153	-172,368	0,064	-0,001
-448,138	101,499	-0,074	-0,062
-447,124	-149,511	0,163	-0,009
-446,109	256,716	-0,047	0,058
-445,095	-200,000	-0,015	0,094
-444,080	21,006	-0,107	0,062
-443,065	229,310	0,048	0,057
-442,051	210,324	-0,107	0,121
-441,036	-109,566	0,108	0,016
-440,022	135,835	-0,077	0,072
-439,007	800,000	-0,082	-0,257
-437,992	-200,000	0,009	-0,039
-436,978	-200,000	-0,038	0,124
-435,963	-200,000	0,022	0,101
-434,949	800,000	-0,045	-0,116
-433,934	-200,000	-0,023	-0,098
-432,919	568,790	0,052	0,091
-431,905	-12,978	0,016	-0,008
-430,890	71,511	-0,076	0,057
-429,876	142,897	0,086	-0,082
-428,861	100,569	-0,082	0,068
-427,846	-45,261	0,193	0,068
-426,832	-63,304	-0,083	-0,024
-425,817	19,084	-0,118	-0,068
-424,803	-200,000	0,003	-0,027
-423,788	800,000	0,049	0,114
-422,773	-200,000	0,001	-0,017
-421,759	-106,703	0,173	0,027
-420,744	198,217	-0,094	-0,103
-419,730	-200,000	-0,008	-0,155
-418,715	99,397	-0,058	-0,048
-417,701	-200,000	0,000	-0,128
-416,686	464,923	0,107	-0,172
-415,671	55,356	0,137	0,095
-414,657	285,168	0,070	0,091
-413,642	800,000	0,073	0,167
-412,628	-63,884	0,103	0,030
-411,613	283,674	0,100	0,130
-410,598	800,000	-0,066	-0,199
-409,584	-200,000	0,003	0,013
-408,569	153,140	-0,072	-0,071
-407,555	-110,702	0,115	-0,017
-406,540	-200,000	-0,027	0,110
-405,525	-200,000	0,016	-0,070
-404,511	-200,000	-0,007	-0,152
-403,496	-30,889	0,126	0,051
-402,482	335,897	0,075	0,105
-401,467	78,156	-0,045	0,034
-400,452	226,690	0,067	0,078
-399,438	559,713	0,035	0,061
-398,423	17,109	-0,074	-0,042
-397,409	-200,000	-0,041	-0,146
-396,394	-200,000	0,029	-0,103
-395,379	800,000	0,008	0,022
-394,365	-173,879	0,128	0,003
-393,350	288,175	-0,024	0,031
-392,336	-200,000	0,008	0,034
-391,321	-83,252	-0,071	-0,016
-390,306	-147,050	0,138	-0,008
-389,292	-200,000	-0,008	-0,143
-388,277	-55,805	-0,121	0,039
-387,263	105,977	0,108	0,092
-386,248	581,899	0,056	0,099
-385,233	-120,301	0,050	0,006
-384,219	800,000	0,012	0,039
-383,204	800,000	0,017	0,043
-382,190	210,583	-0,015	0,016
-381,175	59,398	0,059	-0,041
-380,160	-200,000	0,000	-0,013
-379,146	53,254	0,038	0,026
-378,131	546,874	0,065	0,112
-377,117	-200,000	-0,014	-0,175
-376,102	-56,209	0,215	-0,068
-375,088	-88,488	-0,112	0,024
-374,073	452,291	-0,033	0,052
-373,058	6,773	-0,049	-0,026
-372,044	46,396	0,032	-0,021
-371,029	50,463	-0,030	-0,020
-370,015	294,707	0,008	0,010
-369,000	81,358	-0,082	-0,063
-367,985	-200,000	0,009	-0,084
-366,971	-200,000	-0,012	-0,094
-365,956	-200,000	0,004	0,108
-364,942	405,354	-0,049	0,074
-363,927	-41,733	0,118	0,043
-362,912	-178,373	0,095	0,002
-361,898	-0,395	-0,068	0,035
-360,883	7,120	0,076	-0,040
-359,869	7,620	0,055	-0,030
-358,854	319,214	-0,041	-0,055
-357,839	-55,402	0,097	0,031
-356,825	-48,666	0,106	0,036
-355,810	-53,093	0,066	-0,022
-354,796	-79,814	-0,135	-0,032
-353,781	109,485	0,070	-0,060
-352,766	-200,000	-0,030	-0,150
-351,752	58,608	0,054	0,038
-350,737	359,510	0,048	0,069
-349,723	-101,886	0,145	-0,025
-348,708	-109,015	0,123	-0,019
-347,693	800,000	-0,017	-0,049
-346,679	800,000	-0,018	0,037
-345,664	-193,443	-0,173	0,001
-344,650	-68,025	-0,067	0,019
-343,635	479,307	0,006	-0,010
-342,620	-101,374	0,062	-0,011
-341,606	44,713	-0,165	-0,108
-340,591	97,629	-0,085	-0,070
-339,577	-124,324	-0,153	0,017
-338,562	-200,000	0,039	-0,133
-337,548	96,287	0,110	-0,090
-336,533	133,027	-0,011	-0,010
-335,518	-26,184	0,081	0,034
-334,504	170,361	0,078	0,080
-333,489	32,495	-0,096	-0,059
-332,475	636,816	-0,015	-0,028
-331,460	40,928	-0,055	0,035
-330,445	-200,000	-0,021	0,078
-329,431	-35,481	0,135	-0,052
-328,416	554,309	0,063	0,109
-327,402	-76,852	-0,059	0,015
-326,387	-200,000	0,006	-0,034
-325,372	-200,000	0,012	0,042
-324,358	-49,181	-0,115	0,039
-323,343	-200,000	0,006	-0,049
-322,329	-13,943	0,123	0,057
-321,314	-150,863	0,058	-0,003
-320,299	-77,931	-0,142	-0,035
-319,285	-11,008	-0,051	0,024
-318,270	206,551	-0,031	-0,035
-317,256	23,532	-0,048	-0,028
-316,241	800,000	0,017	0,047
-315,226	109,151	0,091	0,078
-314,212	150,165	-0,153	0,149
-313,197	83,436	0,106	0,083
-312,183	-200,000	-0,010	-0,082
-311,168	-117,676	-0,228	0,029
-310,153	800,000	0,037	-0,086
-309,139	199,709	-0,042	-0,046
-308,124	19,549	-0,115	0,066
-307,110	-91,785	-0,081	-0,016
-306,095	378,270	-0,042	0,061
-305,080	-200,000	0,008	-0,033
-304,066	-150,545	-0,041	-0,002
-303,051	-41,209	-0,011	0,004
-302,037	800,000	0,020	-0,048
-301,022	278,608	0,063	-0,081
-300,008	389,390	0,014	0,021
-298,993	327,333	-0,026	0,036
-297,978	515,721	0,097	0,163
-296,964	534,304	0,032	0,054
-295,949	800,000	0,030	-0,067
-294,935	105,508	-0,059	0,049
-293,920	-200,000	0,016	-0,091
-292,905	728,965	-0,040	0,077
-291,891	-200,000	-0,026	0,095
-290,876	197,065	-0,040	0,043
-289,862	-200,000	0,027	0,107
-288,847	-118,143	0,035	-0,004
-287,832	-145,006	-0,079	-0,005
-286,818	302,984	0,033	-0,043
-285,803	800,000	-0,053	-0,147
-284,789	-79,788	0,140	0,033
-283,774	-150,089	-0,106	0,006
-282,759	800,000	0,005	-0,015
-281,745	469,177	0,023	-0,037
-280,730	-200,000	-0,006	0,062
-279,716	16,710	0,140	-0,079
-278,701	-200,000	0,031	-0,136
-277,686	-30,650	-0,050	0,020
-276,672	-156,689	0,101	0,004
-275,657	155,382	0,033	0,032
-274,643	-50,116	-0,076	-0,026
-273,628	-199,652	-0,103	0,000
-272,613	-25,369	0,043	0,018
-271,599	-115,423	0,225	0,030
-270,584	-200,000	-0,054	0,199
-269,570	522,087	-0,049	0,082
-268,555	176,224	-0,020	-0,021
-267,540	418,791	-0,018	-0,027
-266,526	1,091	-0,089	0,046
-265,511	755,682	-0,020	-0,038
-264,497	66,102	0,067	0,049
-263,482	356,867	0,022	-0,031
-262,467	800,000	0,035	-0,078
-261,453	324,437	-0,083	0,113
-260,438	-138,424	0,090	0,007
-259,424	-110,758	0,123	-0,018
-258,409	85,180	-0,046	-0,036
-257,395	-56,038	-0,020	-0,006
-256,380	-200,000	-0,005	0,077
-255,365	287,845	-0,037	-0,048
-254,351	740,478	-0,068	0,131
-253,336	800,000	-0,038	-0,111
-252,322	60,622	-0,120	-0,085
-251,307	9,874	-0,105	-0,057
-250,292	-200,000	-0,001	0,047
-249,278	86,011	0,090	0,071
-248,263	800,000	0,056	0,159
-247,249	-22,372	0,075	0,032
-246,234	-130,697	-0,044	-0,004
-245,219	197,749	0,175	-0,191
-244,205	-137,005	-0,013	-0,001
-243,190	-200,000	0,010	0,068
-242,176	800,000	-0,057	0,139
-241,161	-200,000	-0,006	0,212
-240,146	190,039	-0,044	-0,047
-239,132	145,256	0,109	0,104
-238,117	-47,341	-0,026	0,009
-237,103	-200,000	0,010	-0,062
-236,088	-200,000	-0,029	0,098
-235,073	52,250	-0,025	-0,017
-234,059	800,000	0,050	0,138
-233,044	-5,425	0,047	0,023
-232,030	547,525	-0,083	-0,141
-231,015	632,545	0,077	-0,139
-230,000	-22,975	-0,077	0,033
-228,986	-200,000	-0,013	-0,056
-227,971	90,762	0,146	0,117
-226,957	-200,000	-0,017	0,103
-225,942	-25,161	0,046	0,019
-224,927	-200,000	-0,015	-0,109
-223,913	-30,762	-0,111	-0,045
-222,898	542,975	0,024	0,041
-221,884	-122,600	-0,120	0,014
-220,869	-195,203	-0,132	0,001
-219,855	-52,261	0,197	0,065
-218,840	-200,000	0,030	0,110
-217,825	358,313	0,045	0,064
-216,811	76,852	-0,070	-0,053
-215,796	800,000	-0,015	-0,033
-214,782	-111,322	-0,082	-0,012
-213,767	-200,000	-0,025	-0,114
-212,752	-200,000	0,002	-0,029
-211,738	-200,000	0,014	-0,098
-210,723	-200,000	0,010	0,118
-209,709	-78,305	-0,085	0,021
-208,694	-77,928	-0,161	-0,039
-207,679	-82,627	-0,096	-0,022
-206,665	-36,709	-0,088	-0,034
-205,650	-69,441	0,085	-0,023
-204,636	204,011	0,102	0,112
-203,621	-200,000	0,029	-0,184
-202,606	61,503	-0,042	0,030
-201,592	800,000	0,038	-0,103
-200,577	-91,465	0,057	-0,012
-199,563	-200,000	-0,000	-0,075
-198,548	-172,202	0,060	0,001
-197,533	800,000	-0,029	0,084
-196,519	-200,000	-0,006	-0,117
-195,504	-180,483	0,085	-0,001
-194,490	-200,000	-0,017	0,206
-193,475	538,719	-0,032	0,054
-192,460	-200,000	0,009	0,129
-191,446	-3,086	-0,061	0,030
-190,431	2,758	-0,066	0,034
-189,417	497,909	0,067	0,110
-188,402	-127,385	-0,124	-0,013
-187,387	-94,381	-0,022	-0,004
-186,373	-4,336	0,079	-0,039
-185,358	651,435	-0,052	-0,095
-184,344	35,058	0,054	-0,034
-183,329	291,595	0,045	-0,058
-182,315	-119,302	-0,053	-0,007
-181,300	268,667	0,061	0,076
-180,285	60,545	-0,047	0,033
-179,271	-200,000	-0,026	-0,182
-178,256	761,059	0,037	0,072
-177,242	-200,000	0,005	-0,035
-176,227	568,562	-0,020	-0,034
-175,212	-200,000	0,008	0,057
-174,198	368,228	0,016	0,023
-173,183	800,000	0,043	0,088
-172,169	272,643	0,013	0,016
-171,154	604,482	0,010	0,019
-170,139	-178,104	-0,116	-0,002
-169,125	-200,000	0,051	0,173
-168,110	-200,000	-0,010	0,044
-167,096	-168,699	0,035	0,001
-166,081	-183,321	-0,066	0,001
-165,066	223,144	-0,059	-0,068
-164,052	13,756	0,090	0,049
-163,037	59,599	-0,060	-0,042
-162,023	-146,353	0,152	0,009
-161,008	79,141	-0,024	-0,018
-159,993	140,548	-0,115	-0,108
-158,979	800,000	-0,032	-0,068
-157,964	88,282	-0,114	-0,089
-156,950	-200,000	0,003	-0,085
-155,935	189,900	0,048	-0,052
-154,920	85,953	-0,121	-0,095
-153,906	184,604	0,072	0,076
-152,891	131,773	-0,057	-0,052
-151,877	-91,920	0,034	0,007
-150,862	25,448	-0,103	-0,060
-149,847	650,166	0,026	-0,048
-148,833	-44,646	-0,083	-0,029
-147,818	-94,779	-0,029	-0,006
-146,804	-172,406	-0,095	-0,002
-145,789	-200,000	-0,001	-0,101
-144,775	242,475	0,061	-0,073
-143,760	40,457	0,021	-0,013
-142,745	172,142	0,045	0,046
-141,731	318,002	-0,069	0,093
-140,716	100,939	0,141	0,116
-139,702	88,677	0,030	0,023
-138,687	140,393	0,096	0,090
-137,672	-200,000	0,001	-0,140
-136,658	-122,652	-0,054	0,006
-135,643	221,070	0,080	-0,092
-134,629	-71,420	0,150	-0,040
-133,614	-136,077	-0,065	0,005
-132,599	113,346	-0,098	-0,084
-131,585	173,067	0,072	0,074
-130,570	67,645	0,133	0,096
-129,556	-200,000	-0,016	0,134
-128,541	304,641	-0,032	0,043
-127,526	69,320	-0,079	-0,058
-126,512	10,663	-0,039	-0,021
-125,497	443,809	0,017	0,026
-124,483	-200,000	-0,006	-0,048
-123,468	-200,000	0,032	0,172
-122,453	126,818	0,102	0,091
-121,439	-200,000	-0,003	-0,216
-120,424	108,042	-0,075	0,063
-119,410	800,000	0,050	0,149
-118,395	-200,000	-0,004	-0,043
-117,380	-200,000	0,006	0,135
-116,366	-200,000	-0,021	-0,074
-115,351	309,266	-0,077	-0,102
-114,337	673,470	0,037	-0,068
-113,322	-200,000	0,001	-0,044
-112,307	-52,315	0,066	-0,022
-111,293	-2,456	-0,052	0,026
-110,278	-200,000	0,011	0,084
-109,264	10,211	0,095	0,051
-108,249	-140,731	0,076	0,005
-107,234	800,000	0,029	-0,067
-106,220	-94,892	-0,117	-0,022
-105,205	-128,051	-0,061	-0,006
-104,191	-162,821	0,087	-0,003
-103,176	38,692	-0,074	-0,047
-102,162	-139,070	-0,171	0,013
-101,147	-70,747	0,041	0,011
-100,132	-200,000	0,001	-0,035
-99,118	17,728	-0,100	0,056
-98,103	97,341	-0,023	-0,019
-97,089	-200,000	-0,011	0,038
-96,074	75,312	0,054	-0,040
-95,059	-200,000	0,021	0,087
-94,045	-36,599	-0,106	0,040
-93,030	22,969	0,043	0,025
-92,016	-200,000	-0,001	0,019
-91,001	-200,000	-0,006	-0,082
-89,986	-200,000	0,000	-0,030
-88,972	213,797	0,034	0,038
-87,957	-200,000	-0,026	0,150
-86,943	-135,599	-0,107	-0,009
-85,928	-200,000	0,013	0,117
-84,913	-55,946	0,068	0,021
-83,899	800,000	0,056	-0,125
-82,884	-200,000	-0,017	-0,096
-81,870	800,000	0,022	-0,044
-80,855	-47,560	-0,036	0,012
-79,840	354,317	-0,049	0,069
-78,826	-200,000	-0,032	-0,123
-77,811	800,000	-0,057	0,121
-76,797	-107,006	-0,101	-0,016
-75,782	364,433	0,081	-0,115
-74,767	449,545	0,054	-0,085
-73,753	61,679	-0,127	0,089
-72,738	800,000	-0,025	0,071
-71,724	31,059	-0,115	-0,070
-70,709	24,879	0,136	-0,080
-69,694	800,000	-0,047	-0,095
-68,680	-86,939	-0,068	-0,015
-67,665	137,282	0,015	-0,014
-66,651	258,931	0,031	-0,039
-65,636	-200,000	0,059	0,194
-64,622	-200,000	-0,018	0,153
-63,607	27,032	0,034	-0,020
-62,592	207,208	0,042	-0,046
-61,578	104,233	-0,021	0,018
-60,563	118,322	0,072	-0,063
-59,549	-200,000	0,039	0,155
-58,534	-11,978	-1,718	-0,794
-57,519	429,329	-1,368	-2,100
-56,505	-200,000	-0,613	-4,714
-55,490	187,097	1,250	1,319
-54,476	800,000	4,800	11,048
-53,461	-200,000	19,286	322,103
-52,446	-200,000	742,537	2332,664
-51,432	570,967	1655,545	2862,285
-50,417	77,736	1670,473	1257,686
-49,403	20,979	1543,797	883,247
-48,388	14,907	1466,135	809,302
-47,373	18,017	1456,277	818,843
-46,359	16,549	1446,312	806,177
-45,344	13,153	1441,639	787,282
-44,330	13,007	1439,714	785,502
-43,315	13,073	1438,069	784,888
-42,300	13,078	1436,370	783,955
-41,286	13,115	1435,134	783,424
-40,271	13,037	1433,668	782,222
-39,257	13,051	1432,440	781,587
-38,242	13,100	1431,072	781,042
-37,227	13,071	1430,049	780,314
-36,213	13,101	1428,610	779,643
-35,198	13,081	1427,500	778,908
-34,184	13,154	1426,233	778,536
-33,169	13,096	1425,284	777,708
-32,154	13,130	1424,172	777,235
-31,140	13,154	1422,703	776,514
-30,125	13,168	1421,641	775,969
-29,111	13,131	1420,750	775,277
-28,096	13,094	1419,567	774,425
-27,082	13,064	1418,416	773,628
-26,067	13,001	1417,391	772,740
-25,052	13,079	1416,190	772,424
-24,038	12,996	1415,343	771,538
-23,023	13,010	1414,367	771,044
-22,009	13,025	1413,341	770,524
-20,994	12,968	1412,526	769,779
-19,979	12,942	1411,663	769,157
-18,965	12,989	1410,380	768,647
-17,950	12,968	1409,682	768,137
-16,936	12,976	1408,923	767,734
-15,921	12,958	1407,453	766,818
-14,906	12,943	1406,717	766,318
-13,892	12,947	1405,675	765,734
-12,877	12,982	1404,826	765,405
-11,863	12,960	1403,975	764,808
-10,848	12,972	1403,188	764,406
-9,833	12,915	1402,225	763,587
-8,819	12,836	1401,629	762,864
-7,804	12,864	1400,679	762,448
-6,790	12,859	1399,591	761,800
-5,775	12,883	1398,310	761,185
-4,760	12,888	1397,413	760,687
-3,746	12,864	1396,475	760,036
-2,731	12,837	1395,946	759,594
-1,717	12,839	1394,840	758,973
-0,702	12,814	1393,069	757,860
0,313	16,824	1309,479	730,897
1,327	33,377	702,125	430,038
2,342	51,747	122,947	82,558
3,356	1,014	16,620	8,397
4,371	-1,757	3,207	1,590
5,386	-77,116	0,605	0,148
6,400	-200,000	-0,015	0,207
7,415	-21,389	-0,233	0,100
8,429	181,076	-0,245	-0,255
9,444	76,726	-0,323	-0,242
10,459	49,759	-0,214	-0,142
11,473	211,308	-0,193	-0,215
12,488	129,646	-0,120	-0,108
13,502	-12,524	-0,294	-0,135
14,517	-15,309	-0,364	-0,164
15,531	132,848	-0,219	-0,199
16,546	32,188	-0,411	-0,250
17,561	158,524	-0,318	-0,312
18,575	-8,064	-0,229	-0,108
19,590	260,346	-0,118	-0,144
20,604	178,662	-0,209	-0,215
21,619	-48,353	-0,381	-0,129
22,634	46,191	-0,410	-0,268
23,648	317,868	-0,302	-0,405
24,663	18,616	-0,503	-0,283
25,677	43,789	-0,369	-0,238
26,692	80,357	-0,314	-0,238
27,707	59,359	-0,363	-0,252
28,721	-26,379	-0,440	-0,181
29,736	318,612	-0,268	-0,360
30,750	117,468	-0,453	-0,393
31,765	43,523	-0,368	-0,237
32,780	104,957	-0,365	-0,304
33,794	46,029	-0,298	-0,194
34,809	349,385	-0,235	-0,328
35,823	167,110	-0,329	-0,329
36,838	124,122	-0,357	-0,316
37,853	206,059	-0,359	-0,394
38,867	47,884	-0,411	-0,270
39,882	-37,450	-0,318	-0,119
40,896	98,345	-0,329	-0,267
41,911	138,650	-0,384	-0,355
42,926	60,017	-0,404	-0,280
43,940	21,015	-0,441	-0,251
44,955	59,444	-0,406	-0,281
45,969	75,001	-0,422	-0,313
46,984	113,866	-0,349	-0,299
47,999	46,903	-0,363	-0,237
49,013	62,143	-0,378	-0,265
50,028	19,769	-0,362	-0,205
51,042	30,108	-0,392	-0,235
52,057	107,841	-0,352	-0,295
53,071	29,609	-0,293	-0,175
54,086	88,199	-0,352	-0,275
55,101	165,995	-0,286	-0,285
56,115	781,263	-0,154	-0,297
57,130	38,993	-0,334	-0,210
58,144	92,982	-0,312	-0,248
59,159	145,446	-0,382	-0,360
60,174	292,674	-0,307	-0,394
61,188	57,561	-0,396	-0,272
62,203	6,825	-0,360	-0,188
63,217	19,412	-0,296	-0,167
64,232	-19,045	-0,336	-0,146
65,247	-23,276	-0,388	-0,163
66,261	16,135	-0,442	-0,244
67,276	8,958	-0,433	-0,229
68,290	332,898	-0,281	-0,382
69,305	-40,846	-0,399	-0,144
70,320	48,345	-0,347	-0,228
71,334	-33,883	-0,440	-0,170
72,349	-69,369	-0,387	-0,104
73,363	14,719	-0,396	-0,217
74,378	-157,926	-0,203	0,008
75,393	294,373	-0,335	-0,431
76,407	5,386	-0,299	-0,154
77,422	-35,944	-0,252	-0,095
78,436	126,182	-0,203	-0,180
79,451	58,545	-0,317	-0,218
80,466	134,894	-0,248	-0,226
81,480	22,337	-0,287	-0,164
82,495	14,058	-0,251	-0,137
83,509	57,327	-0,306	-0,210
84,524	100,695	-0,343	-0,280
85,539	51,908	-0,232	-0,155
86,553	-3,090	-0,375	-0,183
87,568	-64,810	-0,221	-0,062
88,582	93,129	-0,244	-0,194
89,597	44,074	-0,381	-0,244
90,611	20,954	-0,193	-0,109
91,626	-29,068	-0,240	-0,096
92,641	65,043	-0,293	-0,207
93,655	-124,473	-0,400	-0,043
94,670	329,297	-0,228	-0,308
95,684	56,688	-0,347	-0,236
96,699	20,793	-0,331	-0,187
97,714	390,470	-0,228	-0,333
98,728	-103,659	-0,104	-0,017
99,743	-36,032	-0,293	-0,111
100,757	-24,495	-0,269	-0,112
101,772	71,412	-0,332	-0,241
102,787	237,320	-0,223	-0,259
103,801	98,613	-0,250	-0,202
104,816	46,240	-0,382	-0,247
105,830	109,489	-0,279	-0,234
106,845	1,707	-0,344	-0,173
107,860	90,050	-0,256	-0,200
108,874	56,166	-0,279	-0,190
109,889	16,902	-0,361	-0,199
110,903	80,631	-0,327	-0,247
111,918	-2,495	-0,371	-0,181
112,933	-62,527	-0,238	-0,069
113,947	-92,023	-0,159	-0,031
114,962	-103,192	-0,284	-0,047
115,976	52,190	-0,248	-0,165
116,991	86,978	-0,273	-0,211
118,006	71,489	-0,255	-0,185
119,020	37,977	-0,258	-0,160
120,035	150,799	-0,223	-0,213
121,049	-200,000	-0,103	0,000
122,064	0,158	-0,244	-0,122
123,079	32,487	-0,249	-0,150
124,093	50,301	-0,274	-0,181
125,108	-105,096	-0,354	-0,056
126,122	152,558	-0,288	-0,275
127,137	-66,026	-0,227	-0,063
128,151	-49,772	-0,286	-0,094
129,166	-106,011	-0,311	-0,048
130,181	-89,581	-0,299	-0,061
131,195	162,205	-0,229	-0,224
132,210	-34,027	-0,317	-0,121
133,224	78,678	-0,262	-0,196
134,239	-108,539	-0,315	-0,047
135,254	-79,458	-0,210	-0,049
136,268	152,684	-0,223	-0,213
137,283	7,402	-0,178	-0,093
138,297	-37,205	-0,319	-0,118
139,312	141,370	-0,296	-0,274
140,327	800,000	-0,143	-0,304
141,341	-74,705	-0,204	-0,051
142,356	-35,195	-0,269	-0,102
143,370	141,565	-0,270	-0,250
144,385	450,484	-0,137	-0,212
145,400	69,155	-0,157	-0,112
146,414	-40,925	-0,422	-0,151
147,429	800,000	-0,102	-0,266
148,443	-27,885	-0,278	-0,112
149,458	289,085	-0,129	-0,164
150,473	104,520	-0,171	-0,141
151,487	-200,000	-0,016	-0,170
152,502	97,089	-0,304	-0,244
153,516	87,464	-0,262	-0,202
154,531	174,822	-0,155	-0,157
155,546	29,145	-0,319	-0,189
156,560	77,415	-0,162	-0,120
157,575	277,273	-0,144	-0,179
158,589	-39,642	-0,250	-0,091
159,604	57,969	-0,248	-0,169
160,619	226,372	-0,236	-0,268
161,633	-44,774	-0,389	-0,134
162,648	-8,535	-0,240	-0,112
163,662	-25,763	-0,221	-0,091
164,677	-55,041	-0,264	-0,082
165,692	-64,254	-0,268	-0,076
166,706	13,052	-0,225	-0,121
167,721	104,341	-0,216	-0,177
168,735	308,088	-0,195	-0,255
169,750	209,682	-0,234	-0,256
170,764	349,970	-0,250	-0,345
171,779	360,838	-0,116	-0,163
172,794	95,879	-0,168	-0,134
173,808	76,991	-0,185	-0,137
174,823	480,934	-0,167	-0,265
175,837	800,000	-0,110	-0,239
176,852	254,292	-0,198	-0,237
177,867	-65,647	-0,209	-0,058
178,881	82,721	-0,149	-0,112
179,896	142,392	-0,204	-0,189
180,910	110,326	-0,216	-0,181
181,925	-1,322	-0,185	-0,090
182,940	36,366	-0,134	-0,082
183,954	140,092	-0,141	-0,130
184,969	283,750	-0,195	-0,244
185,983	137,758	-0,184	-0,168
186,998	164,782	-0,219	-0,215
188,013	-13,168	-0,272	-0,122
189,027	8,227	-0,288	-0,150
190,042	179,617	-0,189	-0,193
191,056	92,605	-0,257	-0,202
192,071	497,346	-0,163	-0,262
193,086	176,760	-0,143	-0,145
194,100	71,023	-0,140	-0,101
195,115	335,259	-0,191	-0,258
196,129	248,299	-0,143	-0,169
197,144	140,902	-0,276	-0,253
198,159	72,063	-0,217	-0,157
199,173	136,420	-0,228	-0,207
200,188	-92,767	-0,174	-0,034
201,202	-58,621	-0,160	-0,048
202,217	727,654	-0,080	-0,149
203,232	240,551	-0,210	-0,244
204,246	196,625	-0,246	-0,261
205,261	17,398	-0,243	-0,134
206,275	24,865	-0,196	-0,113
207,290	213,514	-0,058	-0,064
208,304	-11,696	-0,214	-0,097
209,319	-8,013	-0,228	-0,106
210,334	202,942	-0,269	-0,289
211,348	-82,646	-0,220	-0,049
212,363	158,123	-0,119	-0,114
213,377	371,469	-0,121	-0,170
214,392	197,835	-0,229	-0,244
215,407	2,940	-0,129	-0,065
216,421	-9,234	-0,135	-0,062
217,436	546,324	-0,102	-0,169
218,450	-21,330	-0,191	-0,081
219,465	156,118	-0,182	-0,175
220,480	75,496	-0,170	-0,125
221,494	800,000	-0,091	-0,203
222,509	-200,000	-0,007	0,053
223,523	52,612	-0,235	-0,155
224,538	-168,004	-0,067	-0,002
225,553	136,064	-0,248	-0,224
226,567	138,609	-0,153	-0,139
227,582	-41,769	-0,290	-0,103
228,596	279,741	-0,151	-0,187
229,611	800,000	-0,040	-0,120
230,626	-58,667	-0,199	-0,059
231,640	68,172	-0,191	-0,135
232,655	-200,000	-0,208	0,000
233,669	316,524	-0,086	-0,113
234,684	-71,185	-0,215	-0,055
235,699	196,592	-0,126	-0,133
236,713	186,330	-0,073	-0,075
237,728	-1,486	-0,172	-0,084
238,742	222,623	-0,232	-0,259
239,757	130,400	-0,250	-0,222
240,772	155,705	-0,225	-0,215
241,786	252,528	-0,198	-0,234
242,801	-14,280	-0,186	-0,083
243,815	-34,707	-0,259	-0,098
244,830	-68,910	-0,255	-0,068
245,844	800,000	-0,129	-0,250
246,859	343,671	-0,194	-0,264
247,874	107,890	-0,119	-0,098
248,888	-200,000	0,008	-0,294
249,903	444,623	-0,139	-0,212
250,917	81,471	-0,102	-0,076
251,932	175,124	-0,111	-0,112
252,947	68,261	-0,243	-0,172
253,961	-10,305	-0,252	-0,115
254,976	92,727	-0,251	-0,196
255,990	800,000	-0,137	-0,270
257,005	800,000	-0,109	-0,217
258,020	-7,866	-0,176	-0,082
259,034	-30,904	-0,158	-0,062
260,049	284,734	-0,147	-0,183
261,063	527,357	-0,116	-0,190
262,078	66,188	-0,218	-0,153
263,093	388,622	-0,080	-0,115
264,107	-200,000	-0,092	-0,323
265,122	248,339	-0,104	-0,122
266,136	-58,185	-0,129	-0,039
267,151	42,260	-0,130	-0,081
268,166	39,314	-0,231	-0,142
269,180	800,000	-0,048	-0,106
270,195	-1,853	-0,196	-0,095
271,209	-200,000	-0,021	-0,167
272,224	-116,091	-0,049	-0,006
273,239	178,014	-0,187	-0,189
274,253	-5,515	-0,128	0,061
275,268	126,859	-0,170	-0,149
276,282	268,530	-0,194	-0,235
277,297	293,507	-0,079	-0,099
278,312	578,690	-0,072	-0,122
279,326	-24,413	-0,081	-0,033
280,341	313,830	-0,104	-0,136
281,355	-81,598	-0,037	-0,008
282,370	207,243	-0,108	-0,117
283,384	305,973	-0,070	-0,090
284,399	-130,692	-0,329	0,030
285,414	136,210	-0,092	0,083
286,428	-200,000	0,018	-0,089
287,443	28,791	-0,174	-0,101
288,457	-34,650	-0,119	0,045
289,472	-107,386	-0,153	-0,023
290,487	4,321	-0,222	-0,112
291,501	800,000	-0,140	-0,330
292,516	146,253	-0,153	-0,141
293,530	338,622	-0,116	-0,156
294,545	152,501	-0,162	-0,153
295,560	-64,135	-0,208	-0,058
296,574	12,137	-0,216	-0,114
297,589	-200,000	-0,075	-0,235
298,603	512,541	-0,114	-0,184
299,618	52,931	-0,111	-0,073
300,633	103,839	-0,130	-0,105
301,647	-200,000	-0,039	-0,154
302,662	145,023	-0,078	0,072
303,676	800,000	-0,120	-0,268
304,691	74,006	-0,251	-0,181
305,706	-121,878	-0,233	-0,026
306,720	-200,000	-0,073	-0,228
307,735	252,847	-0,094	-0,111
308,749	-74,028	-0,019	-0,005
309,764	-57,551	-0,229	-0,069
310,779	-166,122	-0,198	-0,006
311,793	68,595	-0,182	-0,128
312,808	664,704	-0,141	-0,251
313,822	-9,564	-0,182	-0,083
314,837	-13,459	-0,155	-0,069
315,852	79,855	-0,142	-0,105
316,866	-200,000	-0,085	-0,287
317,881	-200,000	-0,011	-0,084
318,895	124,145	-0,142	-0,122
319,910	-83,622	-0,186	-0,041
320,925	137,882	-0,150	-0,136
321,939	16,301	-0,114	-0,062
322,954	-35,750	-0,094	-0,035
323,968	-83,809	-0,059	-0,013
324,983	71,161	-0,151	-0,108
325,997	-69,475	-0,221	-0,058
327,012	88,133	-0,232	-0,177
328,027	-69,403	-0,244	-0,064
329,041	95,365	-0,065	-0,051
330,056	379,126	-0,105	-0,148
331,070	270,006	-0,030	-0,036
332,085	202,968	-0,076	-0,081
333,100	63,031	-0,068	-0,047
334,114	-127,056	-0,112	-0,011
335,129	232,391	-0,201	-0,227
336,143	-24,174	-0,076	-0,031
337,158	-46,357	-0,032	0,011
338,173	395,502	-0,030	-0,044
339,187	-200,000	-0,035	-0,120
340,202	-93,355	-0,203	-0,038
341,216	245,304	-0,167	-0,193
342,231	4,303	-0,229	-0,115
343,246	106,376	-0,199	-0,162
344,260	46,102	-0,166	-0,105
345,275	-200,000	-0,181	0,000
346,289	-189,197	-0,073	-0,001
347,304	93,642	-0,138	-0,107
348,319	136,182	-0,125	-0,111
349,333	638,115	-0,051	-0,089
350,348	800,000	-0,122	-0,235
351,362	-14,666	-0,256	-0,112
352,377	800,000	-0,020	0,053
353,392	682,551	-0,017	0,030
354,406	800,000	-0,033	-0,072
355,421	209,306	1315,413	1414,278
356,435	161,087	1476,212	1414,765
