DTS Sentinel unit serial number:	SN410029Multiplexer serial number:	ORYXHardware model number:	OX2-SRSoftware version number:	ORYX F/W v4,00 Oryx Data Collector v3.7.2.0data status	okinstallation	B3 Nyhavnadifferential loss correction	single-endedforward channel	channel 1reverse channel	N/Adate	2023/11/29time	07:27:30forward acquisition time	300,00reverse acquisition time	0,00gamma	499,1914k internal	0,3211k external	0,3211temperature offset calibration	1,0000default loss term (dB/km)	0,3820temperature slope calibration	1,0000multiplexer offset coefficient	1,0000multiplexer slope coefficient	1,0000fibre end	0,00T internal ref (°C)	8,88T ext. ref 1 (°C)	-6,41T ext. ref 2 (°C)	-6,52length (m)	temperature (°C)	Stokes	anti-Stokes-744,400	235,469	-0,189	-0,227
-743,385	275,807	-0,184	0,237
-742,371	89,161	-0,152	-0,122
-741,356	-200,000	-0,015	0,291
-740,342	26,188	-0,235	-0,142
-739,327	-200,000	-0,029	0,256
-738,312	-200,000	0,036	-0,227
-737,298	-200,000	-0,050	0,306
-736,283	-200,000	-0,020	-0,118
-735,269	267,008	0,190	0,242
-734,254	74,113	-0,222	-0,169
-733,239	248,746	-0,196	0,241
-732,225	320,069	-0,095	-0,131
-731,210	800,000	0,072	0,165
-730,196	-103,010	-0,063	0,011
-729,181	-105,721	0,053	0,009
-728,167	-26,430	-0,062	0,026
-727,152	800,000	-0,041	0,113
-726,137	443,638	-0,098	-0,156
-725,123	-200,000	-0,025	-0,178
-724,108	-200,000	-0,040	0,144
-723,094	-102,951	-0,110	-0,019
-722,079	-200,000	-0,032	0,112
-721,064	354,143	0,037	0,053
-720,050	-200,000	0,009	0,031
-719,035	-82,466	-0,103	0,024
-718,021	229,202	-0,040	0,047
-717,006	-123,043	-0,086	-0,010
-715,991	800,000	-0,074	-0,193
-714,977	800,000	-0,065	-0,199
-713,962	-200,000	0,002	0,012
-712,948	-134,729	0,023	0,002
-711,933	-200,000	-0,051	0,201
-710,918	800,000	-0,043	-0,090
-709,904	757,006	-0,077	-0,153
-708,889	-139,966	-0,087	0,007
-707,875	-2,945	-0,086	0,043
-706,860	800,000	0,031	0,092
-705,845	-200,000	-0,025	0,150
-704,831	-200,000	0,006	0,057
-703,816	50,924	0,045	0,031
-702,802	-44,166	-0,083	0,030
-701,787	243,243	-0,071	-0,087
-700,772	74,707	0,025	-0,019
-699,758	800,000	0,031	0,064
-698,743	228,417	0,102	0,121
-697,729	800,000	-0,016	0,036
-696,714	-88,496	-0,041	-0,009
-695,699	800,000	-0,014	0,036
-694,685	-104,994	-0,062	0,010
-693,670	185,811	-0,142	-0,153
-692,656	-200,000	-0,014	-0,095
-691,641	205,408	-0,063	0,071
-690,627	82,252	0,041	-0,032
-689,612	800,000	-0,035	0,077
-688,597	-67,251	-0,114	0,032
-687,583	-200,000	-0,016	-0,058
-686,568	800,000	-0,044	-0,124
-685,554	-32,285	-0,118	-0,047
-684,539	-200,000	0,012	0,068
-683,524	-107,329	0,047	0,007
-682,510	10,902	0,075	-0,041
-681,495	36,703	-0,043	-0,027
-680,481	203,589	-0,036	-0,040
-679,466	-48,665	0,127	-0,044
-678,451	800,000	-0,060	-0,147
-677,437	-200,000	0,030	0,111
-676,422	-35,891	-0,090	-0,035
-675,408	599,881	0,045	0,081
-674,393	-200,000	-0,028	0,111
-673,378	126,125	0,117	0,107
-672,364	187,782	-0,079	-0,086
-671,349	88,554	-0,072	0,057
-670,335	-200,000	-0,000	-0,069
-669,320	-110,359	0,144	0,021
-668,305	168,525	0,088	-0,091
-667,291	32,860	-0,078	-0,049
-666,276	800,000	0,040	-0,085
-665,262	-200,000	-0,005	0,033
-664,247	85,464	-0,066	-0,053
-663,232	-32,739	-0,050	0,020
-662,218	141,754	-0,041	0,040
-661,203	800,000	0,035	-0,081
-660,189	74,774	0,057	0,044
-659,174	-154,930	-0,155	-0,007
-658,159	21,705	-0,198	-0,116
-657,145	800,000	-0,035	-0,074
-656,130	-200,000	0,000	0,039
-655,116	-200,000	-0,017	0,083
-654,101	101,860	-0,121	0,102
-653,086	-200,000	0,003	-0,109
-652,072	-200,000	-0,003	0,057
-651,057	577,807	0,045	-0,079
-650,043	800,000	0,011	-0,024
-649,028	800,000	0,072	-0,171
-648,014	3,810	-0,118	-0,062
-646,999	157,273	0,083	0,083
-645,984	-200,000	0,008	0,030
-644,970	-200,000	0,024	-0,082
-643,955	-200,000	0,004	-0,133
-642,941	800,000	-0,031	-0,077
-641,926	0,706	-0,162	-0,084
-640,911	120,607	0,134	0,120
-639,897	-200,000	0,011	0,072
-638,882	-200,000	0,010	0,095
-637,868	-200,000	0,014	-0,158
-636,853	800,000	0,017	-0,035
-635,838	558,592	-0,043	-0,075
-634,824	-54,227	0,042	0,014
-633,809	556,907	-0,038	-0,066
-632,795	-200,000	-0,000	0,002
-631,780	-33,194	0,082	-0,033
-630,765	-151,868	-0,053	-0,003
-629,751	178,503	-0,128	-0,135
-628,736	800,000	-0,043	-0,128
-627,722	-17,609	-0,061	0,027
-626,707	629,567	0,055	0,102
-625,692	-200,000	-0,038	-0,137
-624,678	-58,340	0,040	-0,013
-623,663	168,974	0,053	0,054
-622,649	-64,637	-0,087	-0,025
-621,634	-200,000	-0,003	-0,117
-620,619	19,528	-0,089	0,052
-619,605	156,480	0,108	0,108
-618,590	9,152	0,059	0,032
-617,576	375,673	0,037	0,055
-616,561	800,000	0,002	0,006
-615,546	800,000	0,030	-0,062
-614,532	-4,864	-0,128	0,064
-613,517	628,712	0,035	-0,064
-612,503	319,380	-0,006	0,008
-611,488	-50,277	0,058	-0,020
-610,474	-144,286	-0,019	0,001
-609,459	-19,538	-0,061	-0,027
-608,444	-200,000	-0,024	-0,092
-607,430	529,432	-0,020	-0,035
-606,415	-143,735	-0,215	0,014
-605,401	-200,000	-0,059	0,000
-604,386	800,000	-0,017	0,041
-603,371	-200,000	0,015	0,163
-602,357	-200,000	-0,012	-0,115
-601,342	-149,959	-0,143	-0,008
-600,328	663,658	0,055	-0,103
-599,313	121,751	0,036	0,032
-598,298	800,000	-0,018	-0,052
-597,284	-173,131	0,076	-0,002
-596,269	800,000	0,021	0,045
-595,255	-122,005	-0,036	0,004
-594,240	-200,000	0,005	0,105
-593,225	800,000	-0,029	0,081
-592,211	169,892	-0,085	0,087
-591,196	-200,000	-0,162	0,000
-590,182	-200,000	0,034	0,127
-589,167	-200,000	0,014	0,050
-588,152	-115,034	0,061	0,008
-587,138	-29,271	0,094	0,038
-586,123	-99,886	-0,093	-0,017
-585,109	47,608	0,043	-0,029
-584,094	800,000	0,034	-0,078
-583,079	-178,357	0,091	0,001
-582,065	-200,000	0,004	0,126
-581,050	130,959	0,079	-0,073
-580,036	-200,000	-0,013	-0,081
-579,021	221,696	0,089	-0,103
-578,006	-200,000	-0,003	-0,048
-576,992	-138,969	0,189	-0,015
-575,977	144,317	0,108	0,104
-574,963	166,412	-0,070	0,072
-573,948	-200,000	-0,009	-0,090
-572,934	601,646	-0,012	0,021
-571,919	800,000	-0,012	-0,036
-570,904	-12,428	-0,083	0,039
-569,890	-98,735	-0,034	-0,006
-568,875	-130,934	0,167	0,016
-567,861	-200,000	0,014	0,045
-566,846	800,000	0,027	-0,070
-565,831	-65,468	-0,063	0,018
-564,817	-87,730	-0,094	0,020
-563,802	168,243	0,082	-0,084
-562,788	215,770	-0,080	0,091
-561,773	-200,000	-0,017	0,084
-560,758	8,021	-0,017	0,009
-559,744	-21,515	0,072	0,031
-558,729	-200,000	-0,008	0,168
-557,715	800,000	-0,019	-0,050
-556,700	218,949	-0,102	-0,117
-555,685	294,818	-0,065	-0,086
-554,671	-120,212	-0,077	0,009
-553,656	315,425	-0,049	-0,066
-552,642	800,000	0,019	0,047
-551,627	447,800	-0,068	-0,108
-550,612	-200,000	0,002	-0,143
-549,598	-12,437	-0,044	0,020
-548,583	-97,172	0,021	-0,004
-547,569	228,660	0,044	0,052
-546,554	43,879	0,056	-0,037
-545,539	-200,000	-0,053	0,207
-544,525	-119,769	-0,068	0,008
-543,510	221,537	-0,042	-0,049
-542,496	800,000	0,040	0,111
-541,481	69,010	-0,089	-0,066
-540,466	-200,000	-0,008	0,057
-539,452	391,038	0,019	-0,028
-538,437	318,523	0,101	0,138
-537,423	-200,000	0,001	0,201
-536,408	-86,654	0,063	-0,014
-535,393	-200,000	-0,008	-0,067
-534,379	-200,000	-0,007	-0,093
-533,364	713,751	-0,039	-0,075
-532,350	200,159	-0,034	0,037
-531,335	239,425	0,018	0,022
-530,321	611,299	0,066	0,119
-529,306	-200,000	0,010	0,049
-528,291	-16,299	-0,134	0,061
-527,277	-96,820	-0,036	0,007
-526,262	800,000	-0,031	-0,072
-525,248	-5,386	0,103	0,051
-524,233	-200,000	-0,040	0,126
-523,218	-23,276	0,037	-0,016
-522,204	-182,172	-0,108	-0,001
-521,189	-200,000	-0,000	0,018
-520,175	-32,901	0,100	-0,040
-519,160	-200,000	0,014	-0,059
-518,145	377,389	-0,079	-0,116
-517,131	-200,000	-0,002	0,129
-516,116	360,750	-0,009	0,012
-515,102	-200,000	0,016	-0,054
-514,087	115,136	-0,078	-0,068
-513,072	-200,000	-0,013	-0,165
-512,058	156,157	-0,126	-0,125
-511,043	245,505	-0,027	0,032
-510,029	200,265	-0,081	0,090
-509,014	-177,236	0,036	0,001
-507,999	-46,516	-0,020	0,007
-506,985	28,389	-0,036	-0,022
-505,970	-200,000	-0,018	-0,199
-504,956	800,000	-0,047	-0,110
-503,941	548,476	-0,073	0,126
-502,926	-9,306	-0,031	-0,015
-501,912	-200,000	-0,007	0,055
-500,897	14,644	-0,019	0,011
-499,883	-200,000	0,004	-0,130
-498,868	180,090	-0,070	-0,074
-497,853	129,096	-0,096	0,088
-496,839	3,488	0,069	0,036
-495,824	-200,000	0,006	0,026
-494,810	180,020	-0,039	0,041
-493,795	-200,000	-0,013	-0,066
-492,781	88,115	-0,110	0,087
-491,766	-200,000	0,005	0,015
-490,751	-200,000	-0,029	-0,106
-489,737	800,000	-0,048	0,104
-488,722	-200,000	-0,011	0,056
-487,708	-129,662	0,051	0,005
-486,693	-78,363	0,074	-0,018
-485,678	53,737	0,072	0,050
-484,664	322,427	-0,050	0,068
-483,649	-200,000	-0,007	0,043
-482,635	800,000	0,009	-0,023
-481,620	120,409	0,102	0,090
-480,605	-62,296	-0,050	0,015
-479,591	800,000	-0,001	-0,003
-478,576	-200,000	0,005	0,120
-477,562	800,000	-0,027	0,065
-476,547	319,798	-0,042	-0,057
-475,532	61,318	0,111	-0,079
-474,518	800,000	-0,045	0,119
-473,503	7,176	-0,049	0,026
-472,489	323,603	0,072	-0,099
-471,474	-50,765	-0,073	-0,025
-470,459	-200,000	-0,033	-0,130
-469,445	-200,000	0,003	0,040
-468,430	65,910	-0,057	-0,041
-467,416	99,659	-0,055	0,046
-466,401	-138,768	0,142	-0,011
-465,386	800,000	-0,014	0,042
-464,372	-200,000	0,000	0,196
-463,357	-200,000	0,003	0,068
-462,343	-44,759	0,085	-0,030
-461,328	-184,151	-0,094	-0,001
-460,313	347,404	0,037	-0,053
-459,299	-200,000	-0,007	0,164
-458,284	-200,000	0,003	0,052
-457,270	800,000	-0,020	0,044
-456,255	-200,000	-0,028	-0,128
-455,241	80,608	0,087	-0,067
-454,226	800,000	-0,060	-0,140
-453,211	-18,578	-0,099	-0,044
-452,197	-200,000	0,077	0,000
-451,182	62,636	0,096	0,069
-450,168	473,703	-0,104	0,169
-449,153	80,052	-0,080	-0,061
-448,138	-9,983	-0,113	-0,053
-447,124	800,000	-0,037	-0,095
-446,109	800,000	0,048	0,129
-445,095	106,452	0,202	0,172
-444,080	-200,000	0,030	-0,108
-443,065	-200,000	-0,004	0,018
-442,051	261,510	0,041	-0,052
-441,036	107,429	-0,059	0,050
-440,022	90,910	-0,004	-0,003
-439,007	236,856	0,025	-0,029
-437,992	152,798	0,075	0,074
-436,978	256,517	-0,065	0,080
-435,963	358,229	0,048	0,068
-434,949	-114,025	-0,016	0,002
-433,934	427,854	-0,055	-0,086
-432,919	142,069	-0,069	-0,066
-431,905	-200,000	-0,014	-0,060
-430,890	-49,147	0,047	-0,016
-429,876	59,512	-0,018	0,013
-428,861	-61,329	0,115	-0,034
-427,846	174,375	-0,048	-0,049
-426,832	800,000	-0,039	0,113
-425,817	52,899	-0,033	0,023
-424,803	75,773	0,081	-0,062
-423,788	634,757	-0,055	0,101
-422,773	312,841	0,028	0,038
-421,759	746,264	-0,018	0,036
-420,744	-13,355	-0,069	-0,032
-419,730	-96,692	-0,097	-0,018
-418,715	11,411	-0,091	-0,050
-417,701	-200,000	0,019	-0,158
-416,686	9,294	0,114	0,061
-415,671	119,843	0,140	0,124
-414,657	-45,565	0,095	-0,033
-413,642	-70,642	-0,056	-0,015
-412,628	800,000	-0,029	-0,090
-411,613	1,093	-0,088	-0,045
-410,598	-91,345	0,073	-0,015
-409,584	119,589	-0,053	-0,047
-408,569	150,074	0,090	-0,088
-407,555	-200,000	0,048	-0,170
-406,540	-200,000	-0,024	0,191
-405,525	800,000	-0,022	-0,055
-404,511	-200,000	-0,036	-0,207
-403,496	800,000	0,025	0,067
-402,482	95,968	0,057	-0,046
-401,467	206,995	0,074	0,083
-400,452	-200,000	-0,025	0,085
-399,438	462,149	-0,035	0,057
-398,423	128,394	-0,144	-0,131
-397,409	78,110	-0,055	0,042
-396,394	-114,323	0,110	-0,015
-395,379	-200,000	0,020	-0,123
-394,365	-200,000	0,002	0,078
-393,350	84,757	-0,080	0,063
-392,336	-200,000	-0,015	-0,109
-391,321	-67,208	-0,196	0,055
-390,306	-200,000	-0,036	0,143
-389,292	800,000	-0,036	0,097
-388,277	238,149	0,033	0,039
-387,263	800,000	-0,018	0,053
-386,248	800,000	0,003	-0,008
-385,233	800,000	0,022	-0,049
-384,219	78,105	0,079	-0,060
-383,204	-87,705	-0,138	-0,029
-382,190	67,016	-0,174	-0,126
-381,175	-200,000	0,015	-0,060
-380,160	-75,272	0,096	-0,024
-379,146	129,309	0,065	-0,059
-378,131	315,516	-0,070	0,094
-377,117	337,030	-0,059	0,083
-376,102	800,000	0,031	-0,079
-375,088	-6,117	-0,152	0,074
-374,073	-74,196	0,021	0,005
-373,058	85,520	0,112	-0,088
-372,044	389,377	-0,077	-0,115
-371,029	-73,259	0,042	0,011
-370,015	800,000	-0,053	-0,114
-369,000	33,695	-0,054	-0,033
-367,985	-85,221	-0,117	-0,026
-366,971	800,000	-0,063	0,146
-365,956	313,309	0,055	-0,073
-364,942	611,140	-0,041	0,073
-363,927	-35,706	-0,044	-0,017
-362,912	800,000	-0,009	-0,020
-361,898	-200,000	-0,001	-0,045
-360,883	215,796	-0,065	-0,074
-359,869	800,000	0,063	-0,134
-358,854	235,623	0,077	0,091
-357,839	-160,304	-0,151	0,006
-356,825	-200,000	0,008	0,080
-355,810	421,318	0,032	0,048
-354,796	-200,000	-0,019	0,086
-353,781	800,000	0,072	-0,203
-352,766	101,154	0,031	0,026
-351,752	-17,586	-0,127	0,057
-350,737	-138,615	-0,014	-0,001
-349,723	-123,222	0,151	-0,017
-348,708	65,541	0,077	0,056
-347,693	-40,595	-0,068	-0,025
-346,679	800,000	-0,048	-0,143
-345,664	-165,740	0,039	0,001
-344,650	587,132	0,082	-0,145
-343,635	-68,412	-0,055	0,015
-342,620	-200,000	-0,009	0,155
-341,606	460,136	0,004	0,006
-340,591	-200,000	0,002	-0,038
-339,577	4,608	0,095	-0,050
-338,562	-162,811	-0,156	-0,005
-337,548	-142,113	-0,051	-0,004
-336,533	-105,182	0,081	-0,013
-335,518	49,967	0,055	0,037
-334,504	114,930	0,118	0,103
-333,489	-200,000	-0,001	-0,080
-332,475	83,046	0,096	-0,074
-331,460	117,489	-0,163	0,143
-330,445	-121,031	0,044	0,005
-329,431	-148,197	-0,048	0,003
-328,416	800,000	0,050	0,135
-327,402	-200,000	0,028	0,112
-326,387	10,023	0,060	0,032
-325,372	-109,767	-0,054	-0,008
-324,358	672,981	-0,026	0,048
-323,343	-200,000	-0,007	0,041
-322,329	-200,000	-0,011	-0,081
-321,314	34,455	0,035	-0,022
-320,299	-200,000	-0,001	0,051
-319,285	597,362	-0,039	0,070
-318,270	400,498	0,021	-0,032
-317,256	266,959	-0,063	-0,079
-316,241	-200,000	0,025	-0,246
-315,226	800,000	0,023	-0,066
-314,212	-200,000	-0,004	0,024
-313,197	372,607	0,033	-0,049
-312,183	-200,000	-0,007	-0,046
-311,168	112,521	0,037	0,032
-310,153	491,303	-0,053	-0,087
-309,139	189,175	-0,064	0,069
-308,124	-200,000	-0,017	0,058
-307,110	-200,000	-0,006	0,055
-306,095	-107,035	0,099	-0,015
-305,080	-8,734	0,079	0,037
-304,066	800,000	0,013	-0,038
-303,051	428,953	-0,035	0,054
-302,037	-105,065	-0,061	0,010
-301,022	-200,000	0,014	0,097
-300,008	-23,444	-0,017	-0,007
-298,993	-200,000	0,000	0,063
-297,978	86,067	-0,136	0,107
-296,964	800,000	-0,042	-0,105
-295,949	16,531	0,079	-0,044
-294,935	224,430	0,034	-0,039
-293,920	-200,000	0,001	-0,041
-292,905	800,000	-0,048	0,097
-291,891	-55,317	0,165	0,053
-290,876	231,031	0,103	-0,120
-289,862	191,140	0,075	-0,080
-288,847	489,953	-0,094	-0,153
-287,832	-200,000	0,022	0,120
-286,818	-200,000	0,005	0,093
-285,803	-200,000	0,003	-0,038
-284,789	13,271	0,091	-0,050
-283,774	-200,000	0,032	0,133
-282,759	1,063	0,090	-0,046
-281,745	-105,393	0,036	0,006
-280,730	-200,000	0,020	-0,143
-279,716	48,620	0,034	0,023
-278,701	-75,238	0,098	-0,025
-277,686	-0,372	-0,069	-0,035
-276,672	142,920	0,202	0,191
-275,657	43,030	0,077	-0,050
-274,643	-85,473	0,096	-0,021
-273,628	331,639	-0,086	-0,119
-272,613	369,297	-0,037	0,054
-271,599	-200,000	0,044	0,145
-270,584	177,656	0,126	0,131
-269,570	291,444	0,054	-0,070
-268,555	-200,000	0,026	0,131
-267,540	529,302	-0,028	-0,048
-266,526	-200,000	-0,027	0,000
-265,511	-200,000	-0,044	0,147
-264,497	96,918	0,115	0,094
-263,482	-102,017	-0,101	-0,017
-262,467	-60,176	0,138	-0,042
-261,453	-200,000	0,010	0,190
-260,438	800,000	-0,034	-0,100
-259,424	-200,000	0,004	-0,126
-258,409	315,272	-0,051	-0,068
-257,395	73,213	0,073	0,054
-256,380	375,642	0,036	-0,053
-255,365	69,509	0,033	0,024
-254,351	-131,183	0,162	-0,015
-253,336	800,000	-0,008	0,024
-252,322	82,443	0,068	-0,053
-251,307	-200,000	0,012	0,066
-250,292	-200,000	-0,015	0,057
-249,278	33,033	-0,042	0,026
-248,263	2,070	0,169	-0,087
-247,249	302,476	0,008	-0,011
-246,234	20,510	0,054	-0,031
-245,219	-200,000	0,006	-0,077
-244,205	51,911	-0,089	-0,060
-243,190	-200,000	-0,027	0,130
-242,176	250,171	0,055	0,067
-241,161	-3,643	0,087	-0,043
-240,146	-102,126	-0,059	0,010
-239,132	800,000	-0,070	-0,142
-238,117	-99,155	-0,107	0,019
-237,103	679,603	0,022	-0,040
-236,088	100,368	-0,073	-0,060
-235,073	48,412	0,248	0,165
-234,059	338,111	0,032	0,044
-233,044	314,925	-0,050	-0,067
-232,030	-200,000	0,066	0,000
-231,015	260,109	0,041	0,051
-230,000	221,039	-0,091	-0,104
-228,986	-42,012	0,029	-0,011
-227,971	-41,041	0,065	-0,024
-226,957	560,222	-0,018	-0,030
-225,942	91,293	0,114	0,091
-224,927	800,000	0,027	0,077
-223,913	107,134	0,037	-0,032
-222,898	800,000	-0,096	-0,203
-221,884	-6,937	-0,023	0,011
-220,869	-144,545	0,117	-0,008
-219,855	125,523	-0,080	-0,072
-218,840	-42,426	0,105	-0,038
-217,825	48,687	0,014	0,009
-216,811	-123,354	0,025	0,003
-215,796	-187,084	0,032	0,000
-214,782	96,673	-0,104	-0,084
-213,767	581,006	-0,044	0,076
-212,752	595,655	-0,048	0,084
-211,738	397,986	-0,021	0,032
-210,723	800,000	0,021	-0,053
-209,709	800,000	0,022	0,052
-208,694	26,126	0,036	0,022
-207,679	729,804	-0,058	0,111
-206,665	-82,739	0,135	-0,031
-205,650	-200,000	0,109	-0,000
-204,636	731,576	-0,040	0,077
-203,621	645,988	0,062	-0,113
-202,606	-56,857	-0,076	-0,024
-201,592	-102,195	0,129	-0,022
-200,577	197,834	0,020	0,022
-199,563	269,617	0,033	-0,042
-198,548	-5,106	0,139	0,068
-197,533	136,799	0,049	0,046
-196,519	357,912	-0,033	0,047
-195,504	-7,040	-0,194	-0,093
-194,490	800,000	0,033	-0,096
-193,475	454,391	-0,091	0,143
-192,460	-200,000	-0,022	-0,089
-191,446	248,305	0,068	0,082
-190,431	-200,000	0,005	0,085
-189,417	85,785	0,062	-0,049
-188,402	-86,473	0,064	-0,014
-187,387	522,777	-0,030	0,051
-186,373	800,000	-0,025	-0,064
-185,358	-137,803	0,046	-0,004
-184,344	-98,389	0,094	-0,017
-183,329	295,172	-0,022	-0,029
-182,315	106,341	-0,054	0,046
-181,300	83,704	-0,161	0,125
-180,285	-42,094	-0,029	0,010
-179,271	-200,000	0,007	0,026
-178,256	250,261	0,046	-0,056
-177,242	-200,000	-0,016	0,065
-176,227	-81,755	0,121	0,028
-175,212	800,000	0,038	0,084
-174,198	-81,435	0,069	0,016
-173,183	110,509	-0,078	0,067
-172,169	-108,077	-0,063	-0,010
-171,154	-33,216	0,057	0,022
-170,139	-200,000	0,016	-0,151
-169,125	-121,514	-0,095	0,011
-168,110	164,018	0,007	0,007
-167,096	-200,000	-0,030	-0,217
-166,081	-200,000	0,001	0,051
-165,066	179,571	-0,067	-0,070
-164,052	800,000	-0,015	-0,035
-163,037	175,611	0,104	0,107
-162,023	769,465	-0,059	0,115
-161,008	114,655	0,093	-0,080
-159,993	800,000	-0,021	-0,055
-158,979	272,643	-0,122	0,153
-157,964	91,156	-0,038	0,030
-156,950	83,922	0,106	0,082
-155,935	74,176	0,018	0,013
-154,920	800,000	-0,038	0,093
-153,906	-33,689	0,108	-0,042
-152,891	-129,439	-0,102	-0,010
-151,877	603,522	-0,020	0,035
-150,862	-200,000	-0,034	-0,263
-149,847	154,403	-0,088	-0,086
-148,833	506,649	0,055	-0,090
-147,818	-200,000	0,005	0,092
-146,804	-105,753	0,091	0,014
-145,789	-200,000	0,012	0,108
-144,775	364,350	-0,047	-0,067
-143,760	-200,000	0,027	0,168
-142,745	202,832	-0,038	0,042
-141,731	-200,000	-0,015	-0,091
-140,716	800,000	-0,041	0,087
-139,702	378,085	0,047	0,068
-138,687	-8,013	0,068	0,032
-137,672	-32,632	-0,068	-0,026
-136,658	-200,000	0,020	0,118
-135,643	326,353	0,038	-0,052
-134,629	800,000	0,023	-0,063
-133,614	800,000	0,008	0,017
-132,599	291,944	-0,020	0,026
-131,585	-105,609	-0,040	-0,006
-130,570	-37,312	-0,144	-0,054
-129,556	717,395	0,023	-0,044
-128,541	100,924	-0,098	-0,081
-127,526	12,629	0,024	-0,013
-126,512	57,134	0,042	0,029
-125,497	123,373	-0,075	-0,066
-124,483	269,036	0,105	0,130
-123,468	525,543	0,027	0,046
-122,453	-200,000	-0,017	-0,074
-121,439	-200,000	-0,042	-0,156
-120,424	-14,067	-0,055	0,025
-119,410	219,396	0,026	0,029
-118,395	170,689	0,088	0,089
-117,380	243,949	0,005	-0,006
-116,366	-87,808	0,121	0,025
-115,351	800,000	-0,035	-0,072
-114,337	69,267	-0,131	-0,095
-113,322	-122,569	0,055	0,006
-112,307	-200,000	-0,019	-0,082
-111,293	189,528	0,091	0,097
-110,278	-200,000	0,002	-0,075
-109,264	165,905	0,061	0,061
-108,249	54,068	0,110	-0,075
-107,234	-200,000	0,008	0,040
-106,220	117,097	0,074	0,065
-105,205	-16,615	0,133	0,059
-104,191	-200,000	-0,019	-0,100
-103,176	-200,000	0,010	0,142
-102,162	310,412	0,040	0,053
-101,147	138,856	-0,125	0,116
-100,132	92,811	-0,023	0,018
-99,118	-60,329	0,156	-0,047
-98,103	-200,000	-0,008	-0,036
-97,089	552,872	0,097	0,165
-96,074	800,000	-0,029	-0,077
-95,059	366,830	0,062	-0,089
-94,045	-58,585	-0,117	-0,036
-93,030	112,166	0,019	0,016
-92,016	-93,701	0,068	-0,013
-91,001	184,379	0,035	-0,037
-89,986	94,177	0,154	0,124
-88,972	21,708	0,089	-0,051
-87,957	-58,575	0,056	-0,017
-86,943	-200,000	0,011	0,063
-85,928	7,366	-0,112	0,059
-84,913	-108,984	-0,098	-0,015
-83,899	454,651	-0,027	0,043
-82,884	499,226	-0,046	0,075
-81,870	800,000	0,048	0,120
-80,855	432,825	-0,045	0,070
-79,840	800,000	-0,022	0,050
-78,826	-200,000	0,019	-0,119
-77,811	56,626	-0,054	0,037
-76,797	619,685	-0,040	0,071
-75,782	-84,940	0,093	0,020
-74,767	-172,918	0,122	-0,003
-73,753	800,000	-0,018	0,040
-72,738	-140,978	-0,076	-0,005
-71,724	189,382	0,009	0,009
-70,709	4,996	-0,123	-0,064
-69,694	301,541	0,023	-0,030
-68,680	-200,000	-0,014	0,091
-67,665	-200,000	-0,005	0,148
-66,651	800,000	0,031	-0,072
-65,636	-120,967	0,113	-0,013
-64,622	67,686	-0,105	-0,076
-63,607	461,921	0,047	-0,074
-62,592	-200,000	-0,005	-0,096
-61,578	-200,000	0,009	0,036
-60,563	-76,157	-0,100	-0,025
-59,549	-200,000	-0,025	0,146
-58,534	45,861	-2,197	-1,432
-57,519	603,397	-1,148	-2,024
-56,505	-200,000	-0,409	-4,472
-55,490	342,772	0,962	1,333
-54,476	800,000	5,292	11,538
-53,461	-200,000	22,027	336,815
-52,446	800,000	758,594	2293,729
-51,432	532,517	1651,887	2769,594
-50,417	69,052	1649,697	1195,031
-49,403	16,490	1524,696	847,561
-48,388	10,707	1449,444	777,897
-47,373	18,988	1441,407	813,092
-46,359	14,061	1430,178	783,424
-45,344	9,033	1426,219	757,401
-44,330	8,975	1424,234	756,042
-43,315	8,920	1422,571	754,867
-42,300	8,972	1420,507	753,986
-41,286	8,957	1419,401	753,300
-40,271	8,956	1418,218	752,637
-39,257	8,927	1417,116	751,885
-38,242	8,968	1415,975	751,447
-37,227	8,989	1414,914	750,952
-36,213	8,946	1413,447	749,938
-35,198	8,963	1412,347	749,405
-34,184	8,991	1411,437	749,023
-33,169	8,888	1410,008	747,753
-32,154	8,986	1408,966	747,630
-31,140	8,945	1407,880	746,833
-30,125	9,009	1406,542	746,393
-29,111	8,993	1405,286	745,622
-28,096	8,968	1404,149	744,872
-27,082	8,896	1403,096	743,950
-26,067	8,884	1402,112	743,342
-25,052	8,921	1400,889	742,835
-24,038	8,946	1400,137	742,524
-23,023	8,926	1399,219	741,914
-22,009	8,902	1398,152	741,209
-20,994	8,948	1396,915	740,736
-19,979	8,914	1396,102	740,117
-18,965	8,873	1395,133	739,384
-17,950	8,835	1394,468	738,826
-16,936	8,869	1393,420	738,399
-15,921	8,784	1392,622	737,553
-14,906	8,857	1391,490	737,262
-13,892	8,885	1390,395	736,784
-12,877	8,840	1389,814	736,238
-11,863	8,829	1388,987	735,720
-10,848	8,794	1387,930	734,969
-9,833	8,768	1386,978	734,315
-8,819	8,736	1386,064	733,655
-7,804	8,763	1385,122	733,252
-6,790	8,749	1384,161	732,652
-5,775	8,723	1383,335	732,063
-4,760	8,727	1382,224	731,463
-3,746	8,750	1381,507	731,161
-2,731	8,762	1380,451	730,628
-1,717	8,802	1379,314	730,180
-0,702	8,752	1377,930	729,190
0,313	12,814	1289,282	700,717
1,327	28,804	681,624	406,300
2,342	44,533	117,405	75,945
3,356	1,161	16,398	8,273
4,371	0,723	3,757	1,890
5,386	4,251	1,246	0,641
6,400	800,000	0,207	0,577
7,415	-47,645	-0,266	0,091
8,429	251,319	-0,182	-0,219
9,444	190,086	-0,278	-0,295
10,459	-26,890	-0,286	-0,117
11,473	-90,495	-0,221	-0,045
12,488	-163,879	-0,287	0,009
13,502	87,671	-0,346	-0,270
14,517	486,232	-0,091	-0,147
15,531	69,991	-0,357	-0,259
16,546	272,857	-0,246	-0,307
17,561	230,224	-0,275	-0,317
18,575	200,066	-0,136	-0,147
19,590	87,307	-0,194	-0,151
20,604	156,084	-0,147	-0,143
21,619	157,976	-0,395	-0,386
22,634	71,171	-0,378	-0,275
23,648	-77,439	-0,352	-0,085
24,663	5,717	-0,385	-0,200
25,677	5,613	-0,373	-0,193
26,692	-32,949	-0,380	-0,148
27,707	24,014	-0,406	-0,235
28,721	149,259	-0,365	-0,347
29,736	46,042	-0,402	-0,261
30,750	13,836	-0,440	-0,240
31,765	148,389	-0,271	-0,258
32,780	89,316	-0,395	-0,309
33,794	218,562	-0,318	-0,358
34,809	38,290	-0,386	-0,241
35,823	28,921	-0,381	-0,227
36,838	-100,629	-0,421	-0,072
37,853	-1,065	-0,411	-0,204
38,867	336,048	-0,240	-0,328
39,882	-37,205	-0,401	-0,150
40,896	26,147	-0,404	-0,237
41,911	-19,949	-0,263	-0,113
42,926	48,659	-0,264	-0,174
43,940	37,172	-0,324	-0,201
44,955	430,238	-0,198	-0,303
45,969	76,077	-0,348	-0,258
46,984	32,957	-0,420	-0,255
47,999	-2,357	-0,249	-0,122
49,013	271,135	-0,168	-0,208
50,028	-59,908	-0,394	-0,117
51,042	0,244	-0,370	-0,185
52,057	16,137	-0,452	-0,250
53,071	2,336	-0,540	-0,274
54,086	236,679	-0,239	-0,279
55,101	-21,692	-0,430	-0,183
56,115	-56,180	-0,351	-0,109
57,130	63,013	-0,289	-0,203
58,144	173,191	-0,323	-0,327
59,159	77,997	-0,383	-0,286
60,174	122,997	-0,438	-0,385
61,188	122,133	-0,362	-0,317
62,203	72,811	-0,264	-0,193
63,217	-2,552	-0,253	-0,124
64,232	136,314	-0,192	-0,175
65,247	17,188	-0,345	-0,191
66,261	116,056	-0,341	-0,293
67,276	75,648	-0,370	-0,274
68,290	132,037	-0,340	-0,307
69,305	68,604	-0,263	-0,189
70,320	-8,099	-0,305	-0,143
71,334	59,540	-0,227	-0,157
72,349	55,271	-0,265	-0,179
73,363	238,493	-0,260	-0,303
74,378	169,565	-0,266	-0,267
75,393	113,802	-0,354	-0,301
76,407	68,703	-0,376	-0,270
77,422	-51,020	-0,234	-0,076
78,436	48,734	-0,295	-0,194
79,451	42,623	-0,281	-0,179
80,466	22,246	-0,344	-0,196
81,480	56,555	-0,332	-0,226
82,495	101,704	-0,151	-0,123
83,509	59,290	-0,351	-0,242
84,524	430,300	-0,224	-0,341
85,539	350,982	-0,217	-0,302
86,553	69,988	-0,247	-0,178
87,568	-96,693	-0,368	-0,067
88,582	68,989	-0,331	-0,238
89,597	165,362	-0,235	-0,233
90,611	104,164	-0,285	-0,235
91,626	150,813	-0,271	-0,258
92,641	-36,114	-0,345	-0,130
93,655	163,168	-0,288	-0,283
94,670	83,091	-0,443	-0,337
95,684	237,075	-0,242	-0,281
96,699	255,404	-0,188	-0,225
97,714	800,000	-0,084	-0,203
98,728	-8,170	-0,205	-0,096
99,743	-48,158	-0,266	-0,089
100,757	-132,458	-0,205	0,018
101,772	-32,318	-0,238	-0,092
102,787	-9,446	-0,327	-0,152
103,801	55,830	-0,193	-0,130
104,816	80,507	-0,174	-0,131
105,830	800,000	-0,067	-0,132
106,845	365,446	-0,142	-0,200
107,860	-161,388	-0,306	-0,011
108,874	-7,671	-0,257	-0,121
109,889	98,606	-0,337	-0,272
110,903	39,407	-0,300	-0,188
111,918	47,790	-0,363	-0,237
112,933	284,207	-0,195	-0,245
113,947	-10,346	-0,234	-0,108
114,962	163,699	-0,144	-0,142
115,976	619,326	-0,151	-0,265
116,991	103,301	-0,229	-0,188
118,006	93,088	-0,142	-0,112
119,020	31,929	-0,244	-0,146
120,035	602,811	-0,181	-0,316
121,049	323,066	-0,199	-0,265
122,064	-72,171	-0,299	-0,077
123,079	222,173	-0,171	-0,192
124,093	17,470	-0,290	-0,161
125,108	176,198	-0,274	-0,278
126,122	36,908	-0,358	-0,221
127,137	-37,630	-0,158	-0,059
128,151	187,219	-0,221	-0,230
129,166	-47,315	-0,264	-0,089
130,181	229,727	-0,145	-0,166
131,195	264,838	-0,273	-0,332
132,210	4,070	-0,300	-0,153
133,224	341,808	-0,161	-0,220
134,239	-103,432	-0,113	0,018
135,254	-8,136	-0,280	-0,131
136,268	30,113	-0,194	-0,115
137,283	-38,190	-0,345	-0,127
138,297	-4,807	-0,354	-0,170
139,312	-157,952	-0,276	-0,011
140,327	172,755	-0,208	-0,208
141,341	-17,186	-0,254	-0,111
142,356	32,681	-0,152	-0,091
143,370	-157,000	-0,184	-0,008
144,385	69,006	-0,240	-0,171
145,400	-65,876	-0,308	-0,085
146,414	196,570	-0,269	-0,286
147,429	4,603	-0,376	-0,192
148,443	125,317	-0,184	-0,162
149,458	136,007	-0,268	-0,243
150,473	74,332	-0,261	-0,191
151,487	37,216	-0,264	-0,162
152,502	33,081	-0,225	-0,136
153,516	216,401	-0,248	-0,275
154,531	57,474	-0,208	-0,141
155,546	265,029	-0,162	-0,197
156,560	88,851	-0,274	-0,212
157,575	7,540	-0,264	-0,137
158,589	-41,706	-0,264	-0,094
159,604	65,351	-0,242	-0,170
160,619	597,185	-0,162	-0,280
161,633	1,635	-0,309	-0,154
162,648	3,005	-0,316	-0,159
163,662	232,666	-0,165	-0,188
164,677	72,735	-0,148	-0,107
165,692	-31,976	-0,291	-0,113
166,706	103,011	-0,218	-0,177
167,721	162,711	-0,182	-0,178
168,735	120,619	-0,217	-0,187
169,750	-44,233	-0,265	-0,092
170,764	-20,674	-0,241	-0,102
171,779	-0,157	-0,191	-0,094
172,794	-16,289	-0,229	-0,101
173,808	-135,232	-0,299	-0,025
174,823	158,863	-0,210	-0,202
175,837	98,788	-0,300	-0,240
176,852	29,068	-0,218	-0,128
177,867	-49,858	-0,217	-0,071
178,881	609,700	-0,105	-0,183
179,896	-37,146	-0,150	-0,055
180,910	5,721	-0,226	-0,116
181,925	-46,704	-0,319	-0,108
182,940	-49,811	-0,144	-0,047
183,954	144,763	-0,149	-0,138
184,969	20,941	-0,259	-0,146
185,983	-200,000	-0,048	-0,171
186,998	-200,000	-0,040	-0,126
188,013	532,129	-0,095	-0,156
189,027	60,553	-0,245	-0,168
190,042	123,793	-0,187	-0,163
191,056	68,295	-0,149	-0,106
192,071	-70,598	-0,095	-0,025
193,086	16,442	-0,251	-0,137
194,100	282,950	-0,210	-0,262
195,115	77,904	-0,244	-0,181
196,129	-0,091	-0,239	-0,118
197,144	19,285	-0,218	-0,121
198,159	203,470	-0,197	-0,212
199,173	204,150	-0,111	-0,119
200,188	427,153	-0,100	-0,150
201,202	154,447	-0,088	-0,084
202,217	69,054	-0,161	-0,115
203,232	40,481	-0,322	-0,200
204,246	43,353	-0,153	-0,097
205,261	800,000	-0,131	-0,257
206,275	37,255	-0,256	-0,157
207,290	474,126	-0,117	-0,184
208,304	66,473	-0,299	-0,210
209,319	227,950	-0,181	-0,204
210,334	92,112	-0,193	-0,150
211,348	8,071	-0,284	-0,147
212,363	657,687	-0,056	-0,101
213,377	52,802	-0,141	-0,093
214,392	-7,539	-0,101	0,047
215,407	281,917	-0,128	-0,159
216,421	2,805	-0,227	-0,113
217,436	-87,229	-0,243	0,051
218,450	-186,524	-0,193	-0,002
219,465	143,087	-0,173	-0,160
220,480	67,082	-0,208	-0,146
221,494	800,000	-0,055	-0,152
222,509	73,804	-0,035	-0,025
223,523	573,529	-0,093	-0,158
224,538	156,977	-0,249	-0,238
225,553	-11,107	-0,302	-0,137
226,567	-75,558	-0,264	-0,064
227,582	182,735	-0,115	-0,118
228,596	-152,140	-0,214	0,011
229,611	626,712	-0,020	-0,036
230,626	83,662	-0,121	-0,091
231,640	-144,213	-0,159	-0,010
232,655	255,005	-0,141	-0,167
233,669	-35,214	-0,284	-0,106
234,684	-40,743	-0,220	-0,078
235,699	377,857	-0,155	-0,220
236,713	234,595	-0,212	-0,242
237,728	182,444	-0,236	-0,241
238,742	-21,762	-0,194	-0,081
239,757	88,784	-0,197	-0,151
240,772	13,928	-0,265	-0,142
241,786	169,099	-0,289	-0,285
242,801	332,063	-0,130	-0,173
243,815	10,074	-0,192	-0,101
244,830	182,568	-0,110	-0,112
245,844	141,351	-0,139	-0,127
246,859	-58,373	-0,193	-0,058
247,874	112,875	-0,093	-0,078
248,888	284,481	-0,145	-0,181
249,903	302,288	-0,083	-0,106
250,917	-70,909	-0,116	-0,030
251,932	188,434	-0,165	-0,170
252,947	-28,716	-0,240	-0,095
253,961	800,000	-0,139	-0,343
254,976	9,182	-0,258	-0,134
255,990	201,002	-0,163	-0,173
257,005	800,000	-0,109	-0,214
258,020	571,032	-0,060	-0,102
259,034	240,919	-0,157	-0,180
260,049	-5,567	-0,186	-0,087
261,063	357,451	-0,134	-0,184
262,078	-14,538	-0,173	-0,076
263,093	67,072	-0,171	-0,120
264,107	593,110	-0,061	-0,105
265,122	431,771	-0,051	-0,076
266,136	-129,284	-0,180	0,017
267,151	-80,640	-0,105	-0,024
268,166	-6,175	-0,254	-0,119
269,180	-156,452	-0,159	-0,007
270,195	434,703	-0,176	-0,265
271,209	109,194	-0,171	-0,141
272,224	59,989	-0,130	-0,088
273,239	-114,107	-0,047	0,006
274,253	409,038	-0,077	-0,113
275,268	74,768	-0,230	-0,166
276,282	800,000	-0,120	-0,249
277,297	-182,354	-0,094	0,001
278,312	116,250	-0,169	-0,142
279,326	-200,000	-0,011	-0,285
280,341	52,565	-0,176	-0,116
281,355	-77,499	-0,185	0,044
282,370	-98,596	-0,306	-0,053
283,384	-2,086	-0,225	-0,108
284,399	-20,724	-0,218	-0,092
285,414	-57,864	-0,137	-0,041
286,428	313,110	-0,117	-0,151
287,443	-147,963	-0,092	0,005
288,457	-139,712	-0,150	-0,011
289,472	142,043	-0,203	-0,185
290,487	-53,847	-0,240	-0,075
291,501	152,592	-0,202	-0,190
292,516	129,572	-0,236	-0,208
293,530	92,139	-0,063	0,049
294,545	19,360	-0,089	-0,049
295,560	127,745	-0,218	-0,190
296,574	62,002	-0,080	-0,055
297,589	454,899	-0,141	-0,215
298,603	571,349	-0,072	-0,122
299,618	152,312	-0,095	-0,089
300,633	102,821	-0,235	-0,189
301,647	505,021	-0,104	-0,166
302,662	800,000	-0,065	-0,129
303,676	-50,147	-0,091	-0,029
304,691	-113,142	-0,179	-0,024
305,706	300,488	-0,127	-0,161
306,720	231,110	-0,083	-0,094
307,735	9,493	-0,121	-0,063
308,749	76,145	-0,121	-0,088
309,764	-200,000	-0,011	-0,115
310,779	81,701	-0,200	-0,149
311,793	-28,212	-0,146	0,058
312,808	-81,629	-0,120	-0,027
313,822	223,967	-0,146	-0,162
314,837	699,583	-0,100	-0,181
315,852	129,635	-0,136	-0,119
316,866	-96,618	-0,166	0,030
317,881	-200,000	-0,009	0,039
318,895	541,900	-0,085	-0,139
319,910	85,019	-0,174	-0,130
320,925	102,445	-0,155	-0,124
321,939	169,367	-0,158	-0,155
322,954	-154,837	-0,115	-0,005
323,968	-98,782	-0,162	0,028
324,983	313,046	-0,068	-0,088
325,997	20,358	-0,091	-0,050
327,012	-200,000	-0,027	-0,171
328,027	-158,474	-0,328	-0,013
329,041	182,397	-0,221	-0,223
330,056	141,530	-0,142	-0,128
331,070	103,621	-0,096	-0,077
332,085	152,570	-0,068	-0,064
333,100	156,764	-0,148	-0,140
334,114	94,522	-0,206	-0,160
335,129	-200,000	-0,033	-0,174
336,143	-103,208	-0,218	0,035
337,158	48,115	-0,120	-0,077
338,173	-154,465	-0,075	-0,003
339,187	-149,372	-0,182	-0,010
340,202	248,496	-0,114	-0,132
341,216	99,998	-0,135	-0,107
342,231	168,361	-0,122	-0,119
343,246	-27,678	-0,133	-0,053
344,260	639,862	-0,061	-0,106
345,275	410,465	-0,068	-0,098
346,289	-200,000	0,012	-0,116
347,304	-114,424	-0,107	-0,014
348,319	-26,461	-0,138	-0,055
349,333	-200,000	-0,033	-0,109
350,348	55,136	-0,159	-0,105
351,362	335,639	-0,054	-0,072
352,377	102,594	-0,108	-0,086
353,392	351,021	-0,037	-0,050
354,406	-160,715	-0,125	-0,004
355,421	208,750	1304,685	1397,594
356,435	160,642	1464,143	1398,066
