DTS Sentinel unit serial number:	SN410029Multiplexer serial number:	ORYXHardware model number:	OX2-SRSoftware version number:	ORYX F/W v4,00 Oryx Data Collector v3.7.2.0data status	okinstallation	B3 Nyhavnadifferential loss correction	single-endedforward channel	channel 1reverse channel	N/Adate	2023/12/01time	18:17:30forward acquisition time	300,00reverse acquisition time	0,00gamma	499,1914k internal	0,3203k external	0,3203temperature offset calibration	1,0000default loss term (dB/km)	0,3820temperature slope calibration	1,0000multiplexer offset coefficient	1,0000multiplexer slope coefficient	1,0000fibre end	0,00T internal ref (°C)	14,73T ext. ref 1 (°C)	0,79T ext. ref 2 (°C)	0,78length (m)	temperature (°C)	Stokes	anti-Stokes-744,400	107,867	-0,213	-0,184
-743,385	-200,000	-0,038	0,208
-742,371	147,826	-0,133	-0,130
-741,356	-200,000	0,042	0,434
-740,342	108,581	-0,177	-0,154
-739,327	-200,000	-0,040	0,361
-738,312	295,928	-0,143	-0,191
-737,298	-4,679	0,150	0,075
-736,283	438,350	-0,204	-0,325
-735,269	800,000	0,134	0,302
-734,254	352,169	-0,151	-0,218
-733,239	28,915	-0,214	0,132
-732,225	621,526	-0,115	-0,211
-731,210	195,196	0,131	-0,145
-730,196	-154,989	-0,104	-0,005
-729,181	448,725	0,034	0,055
-728,167	-49,277	0,066	0,023
-727,152	-200,000	-0,011	-0,035
-726,137	-200,000	0,008	0,047
-725,123	-200,000	-0,003	0,046
-724,108	-76,190	-0,101	-0,026
-723,094	800,000	-0,092	-0,199
-722,079	-200,000	-0,031	-0,103
-721,064	-116,394	0,157	0,021
-720,050	-200,000	-0,001	0,045
-719,035	800,000	0,038	-0,119
-718,021	-200,000	-0,026	-0,132
-717,006	-200,000	-0,020	-0,126
-715,991	30,473	-0,037	0,023
-714,977	-200,000	0,020	-0,165
-713,962	-134,045	-0,042	0,004
-712,948	800,000	0,019	-0,045
-711,933	142,599	-0,104	-0,101
-710,918	800,000	-0,049	-0,120
-709,904	578,314	-0,038	-0,068
-708,889	800,000	-0,041	-0,109
-707,875	-200,000	-0,061	-0,254
-706,860	-52,418	-0,092	0,031
-705,845	521,505	0,066	-0,114
-704,831	7,994	0,085	0,046
-703,816	800,000	-0,043	0,104
-702,802	146,519	0,023	-0,023
-701,787	455,984	0,030	0,049
-700,772	-200,000	0,026	-0,113
-699,758	-9,853	-0,117	-0,056
-698,743	800,000	0,056	-0,167
-697,729	25,188	0,068	0,041
-696,714	800,000	-0,016	-0,034
-695,699	-8,924	-0,075	-0,036
-694,685	-200,000	-0,036	-0,119
-693,670	-200,000	-0,026	-0,279
-692,656	-55,952	0,059	0,019
-691,641	-200,000	-0,015	-0,099
-690,627	800,000	-0,022	-0,054
-689,612	-30,490	0,150	0,062
-688,597	182,488	-0,075	0,081
-687,583	-4,385	-0,101	0,051
-686,568	-200,000	-0,002	-0,043
-685,554	-200,000	-0,005	0,046
-684,539	11,288	0,215	0,119
-683,524	-200,000	0,044	0,160
-682,510	-157,603	0,075	0,003
-681,495	44,937	0,044	0,030
-680,481	130,620	-0,148	-0,137
-679,466	-200,000	-0,001	0,004
-678,451	-138,809	-0,019	0,001
-677,437	-200,000	-0,006	-0,063
-676,422	117,600	0,076	-0,068
-675,408	-103,748	-0,179	-0,030
-674,393	-200,000	0,022	0,094
-673,378	-106,529	0,038	0,006
-672,364	-200,000	-0,004	-0,113
-671,349	800,000	0,044	-0,099
-670,335	76,172	-0,069	0,053
-669,320	-200,000	-0,032	0,153
-668,305	800,000	0,031	0,096
-667,291	-68,273	0,074	-0,021
-666,276	144,741	-0,062	-0,060
-665,262	-200,000	-0,005	-0,072
-664,247	-121,275	0,055	-0,007
-663,232	51,096	-0,041	-0,028
-662,218	-50,895	0,132	0,045
-661,203	-30,007	-0,039	0,016
-660,189	106,129	0,037	0,032
-659,174	800,000	0,013	-0,035
-658,159	658,937	-0,068	-0,127
-657,145	-200,000	0,020	-0,116
-656,130	246,492	0,021	-0,025
-655,116	14,766	-0,098	0,055
-654,101	402,820	-0,040	-0,062
-653,086	-148,726	0,098	-0,006
-652,072	-93,878	-0,061	-0,012
-651,057	-200,000	-0,004	-0,107
-650,043	-200,000	-0,003	-0,138
-649,028	210,619	0,129	-0,147
-648,014	-200,000	-0,006	-0,094
-646,999	-200,000	-0,008	0,099
-645,984	198,465	-0,078	0,087
-644,970	-200,000	0,003	-0,098
-643,955	-200,000	-0,013	-0,101
-642,941	-4,459	-0,071	-0,035
-641,926	-76,509	-0,060	-0,015
-640,911	226,176	0,188	-0,221
-639,897	79,565	0,089	-0,069
-638,882	-4,206	-0,033	0,017
-637,868	-200,000	-0,001	-0,055
-636,853	7,173	-0,075	-0,040
-635,838	800,000	0,021	-0,046
-634,824	800,000	-0,057	-0,179
-633,809	484,141	-0,052	0,085
-632,795	108,837	0,131	0,113
-631,780	-200,000	-0,012	0,064
-630,765	-61,163	-0,148	-0,045
-629,751	618,497	-0,028	-0,051
-628,736	95,714	-0,035	-0,029
-627,722	800,000	-0,026	-0,061
-626,707	160,789	-0,047	-0,048
-625,692	265,333	0,053	0,067
-624,678	-21,024	0,042	0,018
-623,663	153,616	0,030	-0,030
-622,649	68,088	0,112	-0,083
-621,634	330,845	-0,063	-0,088
-620,619	204,495	0,082	-0,092
-619,605	-200,000	0,014	-0,093
-618,590	236,351	0,059	0,071
-617,576	-125,104	-0,084	-0,009
-616,561	800,000	-0,021	-0,058
-615,546	-200,000	0,014	-0,108
-614,532	426,880	-0,048	-0,074
-613,517	153,756	-0,154	-0,153
-612,503	800,000	-0,055	0,143
-611,488	-200,000	-0,017	-0,057
-610,474	-200,000	0,005	0,052
-609,459	800,000	-0,065	0,133
-608,444	-171,680	-0,132	-0,003
-607,430	-200,000	0,017	-0,157
-606,415	800,000	-0,032	-0,065
-605,401	13,682	-0,042	0,024
-604,386	135,215	-0,126	0,118
-603,371	800,000	-0,051	0,112
-602,357	610,022	0,080	-0,146
-601,342	-200,000	-0,042	-0,144
-600,328	800,000	-0,049	-0,102
-599,313	231,077	0,081	0,096
-598,298	730,325	-0,032	-0,062
-597,284	27,350	-0,087	0,052
-596,269	743,366	-0,015	0,029
-595,255	378,919	-0,034	-0,050
-594,240	-200,000	0,003	0,028
-593,225	-84,447	0,086	-0,019
-592,211	35,397	-0,154	-0,097
-591,196	800,000	-0,063	0,160
-590,182	-5,756	0,013	-0,007
-589,167	-200,000	0,009	0,081
-588,152	800,000	-0,094	0,264
-587,138	-20,542	0,081	0,036
-586,123	40,520	0,069	-0,045
-585,109	323,458	-0,051	-0,070
-584,094	51,677	0,030	-0,021
-583,079	-200,000	0,037	0,158
-582,065	-200,000	0,003	0,238
-581,050	317,694	0,085	0,117
-580,036	-200,000	-0,029	-0,124
-579,021	-200,000	0,001	-0,054
-578,006	114,597	-0,115	-0,101
-576,992	174,109	0,019	0,020
-575,977	252,124	-0,061	0,075
-574,963	-200,000	-0,006	0,042
-573,948	-58,305	0,093	0,029
-572,934	173,926	-0,137	0,142
-571,919	-50,116	-0,069	-0,023
-570,904	800,000	-0,034	-0,077
-569,890	800,000	0,013	0,027
-568,875	254,720	-0,020	-0,024
-567,861	-50,991	-0,077	-0,026
-566,846	-126,220	0,048	-0,005
-565,831	-200,000	0,003	-0,105
-564,817	207,019	0,035	-0,039
-563,802	-200,000	-0,004	0,044
-562,788	79,432	-0,013	0,010
-561,773	-56,321	-0,064	0,020
-560,758	-58,933	-0,061	0,019
-559,744	364,357	0,081	0,117
-558,729	135,414	-0,084	0,079
-557,715	-105,020	-0,224	-0,037
-556,700	-200,000	0,011	-0,075
-555,685	-200,000	-0,005	-0,086
-554,671	390,896	-0,082	0,123
-553,656	46,733	0,034	-0,023
-552,642	-200,000	0,012	-0,045
-551,627	21,359	-0,149	0,087
-550,612	173,456	0,036	0,037
-549,598	252,612	0,043	0,053
-548,583	86,064	0,013	-0,010
-547,569	495,238	-0,055	-0,091
-546,554	-200,000	0,015	-0,143
-545,539	-102,953	-0,051	0,009
-544,525	159,956	0,054	0,054
-543,510	636,141	0,076	-0,139
-542,496	-185,554	-0,106	-0,001
-541,481	88,734	-0,058	-0,046
-540,466	-200,000	0,011	-0,047
-539,452	437,734	0,035	0,055
-538,437	-200,000	-0,008	0,062
-537,423	-200,000	-0,016	0,073
-536,408	-200,000	0,042	0,175
-535,393	-200,000	-0,004	-0,076
-534,379	-55,885	-0,113	-0,036
-533,364	158,588	-0,061	-0,061
-532,350	408,350	0,012	-0,018
-531,335	-140,832	-0,036	-0,003
-530,321	71,944	-0,048	0,036
-529,306	1,728	0,072	0,037
-528,291	-200,000	-0,008	-0,085
-527,277	-45,869	-0,099	-0,035
-526,262	-17,917	0,096	0,043
-525,248	-42,399	0,049	0,018
-524,233	-127,127	0,124	-0,013
-523,218	-50,119	0,088	-0,030
-522,204	-115,000	0,125	-0,017
-521,189	486,310	-0,039	-0,064
-520,175	80,127	-0,048	0,037
-519,160	128,283	-0,068	-0,062
-518,145	20,898	0,035	0,020
-517,131	309,015	-0,017	0,023
-516,116	678,699	-0,020	0,038
-515,102	-200,000	-0,016	0,000
-514,087	49,702	-0,124	-0,084
-513,072	-200,000	-0,021	-0,180
-512,058	251,672	0,102	-0,125
-511,043	-200,000	0,012	0,106
-510,029	-109,769	0,125	0,019
-509,014	-200,000	-0,017	0,114
-507,999	800,000	0,022	0,057
-506,985	-153,874	-0,100	0,005
-505,970	237,441	0,046	-0,055
-504,956	-200,000	0,001	-0,027
-503,941	-78,017	0,067	0,017
-502,926	15,651	0,109	-0,062
-501,912	309,332	-0,038	0,051
-500,897	800,000	-0,019	-0,044
-499,883	66,903	-0,087	-0,064
-498,868	-159,370	-0,051	0,002
-497,853	800,000	-0,030	-0,097
-496,839	-25,396	-0,158	-0,067
-495,824	358,052	0,029	-0,042
-494,810	9,776	-0,088	0,048
-493,795	-200,000	-0,003	-0,182
-492,781	800,000	-0,012	-0,032
-491,766	35,615	0,024	-0,015
-490,751	-200,000	-0,028	0,159
-489,737	55,658	0,044	0,031
-488,722	185,249	0,084	0,090
-487,708	-200,000	0,001	0,029
-486,693	294,473	0,103	0,136
-485,678	-200,000	0,001	-0,011
-484,664	800,000	-0,043	-0,092
-483,649	800,000	-0,075	-0,192
-482,635	-104,900	-0,129	0,021
-481,620	-200,000	0,002	-0,110
-480,605	16,693	0,062	0,035
-479,591	-11,552	-0,124	0,058
-478,576	747,869	0,078	0,151
-477,562	-200,000	-0,070	0,000
-476,547	99,301	0,083	-0,069
-475,532	800,000	0,015	-0,033
-474,518	-200,000	-0,003	-0,033
-473,503	-120,554	0,115	0,014
-472,489	800,000	0,049	0,098
-471,474	2,436	-0,074	0,038
-470,459	-139,037	-0,015	-0,001
-469,445	800,000	-0,063	-0,146
-468,430	18,377	-0,033	0,019
-467,416	800,000	-0,041	0,083
-466,401	-115,049	0,195	-0,026
-465,386	561,008	0,072	-0,126
-464,372	-88,710	0,173	0,037
-463,357	-152,357	-0,107	0,005
-462,343	-200,000	-0,001	-0,013
-461,328	-73,090	-0,089	0,023
-460,313	-200,000	-0,007	-0,092
-459,299	-101,115	-0,041	-0,007
-458,284	-200,000	0,015	0,074
-457,270	800,000	-0,032	0,066
-456,255	51,173	-0,065	0,044
-455,241	-200,000	-0,007	0,062
-454,226	-200,000	0,011	-0,068
-453,211	-200,000	-0,015	-0,058
-452,197	94,460	0,046	0,037
-451,182	196,456	0,067	0,074
-450,168	-200,000	0,005	0,033
-449,153	336,805	-0,080	-0,112
-448,138	482,540	0,035	-0,058
-447,124	135,043	-0,112	-0,105
-446,109	-200,000	0,008	0,054
-445,095	-200,000	-0,010	0,041
-444,080	377,780	0,081	0,120
-443,065	-83,070	-0,054	0,012
-442,051	-200,000	-0,001	0,016
-441,036	320,979	-0,012	-0,017
-440,022	774,700	-0,094	-0,186
-439,007	-200,000	0,016	-0,116
-437,992	131,554	0,117	0,108
-436,978	-102,825	-0,094	0,016
-435,963	116,870	0,036	-0,031
-434,949	-34,737	0,022	-0,008
-433,934	248,670	0,082	0,100
-432,919	-36,816	-0,029	-0,011
-431,905	578,739	-0,069	0,121
-430,890	102,259	0,053	0,044
-429,876	-145,935	0,044	-0,003
-428,861	105,983	0,046	0,039
-427,846	56,342	-0,078	-0,054
-426,832	12,729	-0,093	0,051
-425,817	-200,000	-0,005	0,064
-424,803	-125,443	-0,035	0,004
-423,788	179,345	-0,048	-0,050
-422,773	64,049	0,057	0,041
-421,759	215,186	0,040	0,046
-420,744	180,849	0,132	-0,139
-419,730	-200,000	-0,013	-0,091
-418,715	114,406	0,086	0,075
-417,701	-200,000	0,010	-0,040
-416,686	-173,343	-0,104	0,002
-415,671	-200,000	-0,017	0,188
-414,657	800,000	0,044	0,101
-413,642	295,506	0,139	0,183
-412,628	-44,229	0,107	0,038
-411,613	800,000	0,031	-0,084
-410,598	1,587	0,053	0,027
-409,584	-61,011	-0,024	-0,007
-408,569	-121,144	0,082	-0,010
-407,555	-93,154	0,035	0,007
-406,540	-169,701	-0,130	0,003
-405,525	-174,207	0,056	0,001
-404,511	332,608	0,022	0,031
-403,496	-18,907	0,042	0,019
-402,482	-33,350	-0,037	0,015
-401,467	800,000	0,007	0,020
-400,452	800,000	-0,033	-0,096
-399,438	800,000	-0,052	0,155
-398,423	-79,198	0,155	0,038
-397,409	-200,000	0,052	-0,202
-396,394	-103,205	-0,050	0,008
-395,379	445,580	0,085	-0,135
-394,365	-200,000	-0,003	0,123
-393,350	-124,573	0,157	-0,017
-392,336	-39,938	0,122	-0,045
-391,321	132,237	-0,085	0,079
-390,306	462,709	-0,049	-0,078
-389,292	10,531	-0,072	0,039
-388,277	-200,000	-0,004	-0,119
-387,263	-110,998	0,053	0,008
-386,248	-5,075	0,075	0,037
-385,233	283,816	0,066	0,086
-384,219	240,925	-0,033	-0,039
-383,204	294,254	0,065	0,086
-382,190	90,964	-0,045	0,036
-381,175	-102,205	0,073	0,012
-380,160	-200,000	-0,008	-0,086
-379,146	800,000	0,033	-0,084
-378,131	389,409	0,017	-0,025
-377,117	158,289	-0,043	-0,042
-376,102	-200,000	0,028	0,108
-375,088	453,226	-0,041	-0,065
-374,073	-10,192	0,036	0,017
-373,058	-200,000	-0,010	0,113
-372,044	-200,000	0,166	-0,000
-371,029	-200,000	-0,025	-0,095
-370,015	-53,645	-0,100	-0,032
-369,000	20,842	0,046	0,026
-367,985	-200,000	-0,003	-0,097
-366,971	9,649	-0,130	-0,070
-365,956	-56,883	-0,036	-0,011
-364,942	628,581	-0,072	0,131
-363,927	-200,000	-0,070	0,233
-362,912	240,777	0,043	-0,052
-361,898	-62,680	-0,069	-0,020
-360,883	-200,000	-0,024	-0,121
-359,869	34,798	-0,048	-0,030
-358,854	800,000	-0,014	0,042
-357,839	228,971	0,072	0,084
-356,825	-200,000	-0,018	0,076
-355,810	-7,109	-0,045	0,022
-354,796	-130,294	-0,045	0,004
-353,781	123,170	-0,107	-0,096
-352,766	-200,000	-0,013	0,088
-351,752	167,595	0,052	0,053
-350,737	-200,000	0,026	0,122
-349,723	-200,000	0,019	0,110
-348,708	-200,000	-0,001	0,025
-347,693	-16,930	-0,124	0,056
-346,679	93,577	-0,090	0,073
-345,664	-116,986	-0,030	0,004
-344,650	800,000	-0,052	-0,144
-343,635	-189,578	0,102	0,001
-342,620	653,574	0,047	-0,087
-341,606	-200,000	-0,001	-0,100
-340,591	-200,000	-0,012	-0,081
-339,577	-35,664	0,085	0,033
-338,562	-200,000	-0,022	-0,223
-337,548	-101,975	0,140	-0,024
-336,533	481,004	-0,068	0,111
-335,518	186,661	0,024	-0,025
-334,504	-200,000	-0,036	-0,131
-333,489	800,000	0,018	-0,036
-332,475	-78,125	-0,052	0,013
-331,460	-22,791	-0,131	-0,057
-330,445	467,876	0,017	-0,028
-329,431	-38,045	0,104	0,039
-328,416	800,000	0,013	0,034
-327,402	-38,337	-0,089	-0,033
-326,387	-45,438	-0,162	-0,057
-325,372	91,902	0,041	-0,033
-324,358	-138,936	0,108	0,008
-323,343	800,000	-0,026	0,072
-322,329	800,000	0,055	0,135
-321,314	-200,000	0,002	-0,010
-320,299	-200,000	-0,009	0,069
-319,285	-200,000	0,001	-0,005
-318,270	-11,248	-0,063	-0,029
-317,256	-73,582	-0,116	-0,030
-316,241	800,000	-0,046	-0,123
-315,226	3,619	0,058	-0,030
-314,212	351,598	0,057	-0,081
-313,197	-200,000	0,004	0,050
-312,183	-200,000	0,010	0,054
-311,168	-200,000	-0,006	-0,099
-310,153	800,000	-0,013	0,027
-309,139	-200,000	-0,026	-0,130
-308,124	-200,000	0,022	0,078
-307,110	800,000	-0,068	0,156
-306,095	-37,770	0,089	0,034
-305,080	-70,296	0,054	0,015
-304,066	153,309	-0,040	0,039
-303,051	-58,023	0,048	-0,015
-302,037	-72,279	-0,093	-0,024
-301,022	172,398	-0,091	-0,093
-300,008	115,785	0,083	0,073
-298,993	-69,327	0,106	-0,029
-297,978	1,302	0,078	0,040
-296,964	-200,000	-0,010	-0,041
-295,949	800,000	0,038	-0,089
-294,935	281,327	0,052	0,067
-293,920	-95,668	0,212	-0,040
-292,905	-0,260	0,074	0,037
-291,891	188,070	-0,076	-0,081
-290,876	-200,000	0,012	0,127
-289,862	-55,529	0,022	-0,007
-288,847	123,751	-0,069	0,062
-287,832	11,683	-0,126	0,069
-286,818	-200,000	0,004	0,120
-285,803	98,375	-0,007	-0,006
-284,789	330,051	-0,088	0,121
-283,774	-161,904	0,080	-0,003
-282,759	73,131	-0,058	0,044
-281,745	-24,783	-0,156	-0,066
-280,730	-74,830	-0,065	-0,017
-279,716	490,490	-0,019	-0,031
-278,701	52,237	0,080	-0,055
-277,686	-80,237	0,137	0,032
-276,672	-113,522	-0,079	0,011
-275,657	-38,411	-0,059	0,022
-274,643	-200,000	-0,006	0,036
-273,628	427,848	0,053	-0,083
-272,613	354,872	-0,049	-0,070
-271,599	-200,000	0,012	-0,043
-270,584	-200,000	0,043	0,211
-269,570	-200,000	-0,000	0,084
-268,555	202,379	0,072	0,080
-267,540	304,463	0,110	0,146
-266,526	-200,000	-0,179	0,000
-265,511	-66,871	0,121	-0,034
-264,497	-200,000	-0,015	0,057
-263,482	-77,339	0,137	-0,034
-262,467	-28,774	-0,106	0,043
-261,453	97,947	-0,143	0,117
-260,438	800,000	0,055	-0,116
-259,424	797,173	-0,077	-0,152
-258,409	-200,000	-0,020	-0,098
-257,395	295,197	0,011	-0,015
-256,380	-200,000	-0,000	0,139
-255,365	800,000	0,037	0,108
-254,351	800,000	0,059	-0,130
-253,336	5,704	-0,056	-0,029
-252,322	-3,316	-0,012	0,006
-251,307	76,715	0,032	0,024
-250,292	-200,000	0,088	0,000
-249,278	179,599	0,065	0,068
-248,263	273,946	0,054	0,068
-247,249	800,000	-0,053	0,135
-246,234	800,000	-0,011	0,034
-245,219	232,054	-0,018	-0,021
-244,205	-118,418	0,063	0,008
-243,190	91,323	0,120	0,096
-242,176	-161,484	0,145	-0,005
-241,161	213,993	0,052	-0,058
-240,146	-200,000	0,004	0,057
-239,132	-6,280	-0,096	0,047
-238,117	-200,000	0,005	0,033
-237,103	-90,350	0,084	0,017
-236,088	-200,000	-0,017	-0,077
-235,073	800,000	-0,010	-0,027
-234,059	553,338	-0,077	-0,132
-233,044	31,220	0,037	0,023
-232,030	-200,000	-0,004	-0,072
-231,015	-200,000	0,027	-0,096
-230,000	800,000	-0,024	-0,058
-228,986	-144,752	-0,073	-0,005
-227,971	16,376	0,071	0,040
-226,957	37,731	-0,069	0,043
-225,942	36,951	-0,090	0,057
-224,927	-30,110	-0,086	-0,035
-223,913	344,579	0,064	0,090
-222,898	344,257	0,035	-0,049
-221,884	-200,000	-0,005	0,058
-220,869	-200,000	0,002	-0,031
-219,855	301,518	0,089	0,117
-218,840	-75,485	0,116	0,029
-217,825	188,698	0,071	0,076
-216,811	38,884	-0,098	0,062
-215,796	-101,287	-0,148	-0,025
-214,782	-86,652	-0,078	0,017
-213,767	148,401	0,125	0,120
-212,752	-200,000	0,009	0,083
-211,738	-179,620	0,124	-0,002
-210,723	-41,565	0,012	0,004
-209,709	-69,414	0,068	0,019
-208,694	76,410	0,061	-0,046
-207,679	800,000	-0,043	-0,103
-206,665	-9,867	-0,028	-0,013
-205,650	473,100	-0,037	0,060
-204,636	49,211	0,109	0,073
-203,621	147,227	0,016	0,015
-202,606	800,000	0,037	-0,098
-201,592	800,000	-0,016	0,033
-200,577	-200,000	-0,030	-0,137
-199,563	51,149	0,024	-0,016
-198,548	666,652	0,062	-0,114
-197,533	184,886	0,116	-0,123
-196,519	-200,000	0,000	0,126
-195,504	89,786	-0,053	-0,042
-194,490	-200,000	0,026	-0,181
-193,475	50,043	0,038	-0,025
-192,460	123,873	-0,043	-0,038
-191,446	-48,172	0,154	0,053
-190,431	-200,000	-0,038	0,122
-189,417	800,000	-0,030	0,079
-188,402	255,017	0,054	0,066
-187,387	162,936	0,080	-0,080
-186,373	-81,464	-0,035	0,008
-185,358	399,647	0,060	-0,090
-184,344	36,842	0,150	-0,094
-183,329	172,869	0,059	0,061
-182,315	-195,833	-0,057	0,000
-181,300	98,447	0,045	-0,037
-180,285	800,000	-0,021	0,051
-179,271	-200,000	-0,019	-0,066
-178,256	-67,857	0,022	0,006
-177,242	329,102	-0,025	-0,034
-176,227	-200,000	0,030	0,101
-175,212	-81,039	0,145	0,034
-174,198	-200,000	-0,018	-0,071
-173,183	-55,916	-0,079	0,025
-172,169	-200,000	0,007	-0,059
-171,154	-200,000	0,010	-0,157
-170,139	273,184	-0,016	-0,020
-169,125	-46,879	-0,157	0,054
-168,110	27,973	0,090	0,054
-167,096	-82,183	0,058	-0,013
-166,081	-200,000	0,004	0,095
-165,066	125,234	0,026	-0,024
-164,052	227,957	-0,087	-0,101
-163,037	800,000	0,046	0,104
-162,023	-185,441	0,077	0,001
-161,008	-169,493	-0,057	-0,001
-159,993	227,867	-0,081	0,093
-158,979	85,729	0,092	0,072
-157,964	63,001	-0,089	0,064
-156,950	-68,349	0,047	-0,013
-155,935	246,430	0,008	0,009
-154,920	-25,904	0,065	-0,027
-153,906	684,504	0,027	0,050
-152,891	134,521	-0,106	0,097
-151,877	-175,408	-0,179	-0,003
-150,862	800,000	-0,030	0,069
-149,847	-200,000	-0,038	0,131
-148,833	-200,000	0,007	0,102
-147,818	359,803	-0,105	-0,149
-146,804	-200,000	0,012	-0,059
-145,789	69,690	0,084	0,061
-144,775	-39,416	-0,125	-0,046
-143,760	-200,000	-0,011	-0,073
-142,745	12,219	0,141	-0,077
-141,731	256,588	-0,037	-0,045
-140,716	5,218	0,061	0,032
-139,702	-200,000	0,009	-0,065
-138,687	171,529	0,015	-0,015
-137,672	-200,000	0,005	0,153
-136,658	-52,236	-0,079	0,026
-135,643	-200,000	-0,008	0,029
-134,629	-95,336	-0,020	-0,004
-133,614	16,085	0,121	0,068
-132,599	151,558	0,034	0,032
-131,585	-99,642	-0,066	-0,012
-130,570	51,188	-0,071	0,048
-129,556	220,670	0,022	0,025
-128,541	-0,556	-0,072	-0,036
-127,526	-200,000	0,031	-0,118
-126,512	-48,835	0,085	0,029
-125,497	186,940	0,105	0,112
-124,483	523,547	0,034	0,058
-123,468	-24,836	0,098	0,041
-122,453	489,457	0,041	0,066
-121,439	-200,000	-0,000	-0,053
-120,424	-48,392	-0,028	-0,009
-119,410	-0,404	0,055	-0,028
-118,395	-140,431	0,074	0,005
-117,380	263,231	0,016	0,020
-116,366	-178,940	-0,101	0,002
-115,351	41,830	-0,064	0,041
-114,337	-200,000	-0,032	-0,106
-113,322	229,405	0,051	0,059
-112,307	182,973	0,058	-0,061
-111,293	-200,000	-0,000	0,060
-110,278	371,852	0,092	0,133
-109,264	-116,731	0,104	-0,013
-108,249	188,024	-0,091	-0,097
-107,234	-200,000	-0,005	-0,026
-106,220	-200,000	0,015	-0,057
-105,205	248,688	0,067	-0,081
-104,191	800,000	0,020	0,059
-103,176	-184,510	0,081	-0,001
-102,162	476,057	0,026	0,042
-101,147	-200,000	0,012	0,117
-100,132	41,887	-0,016	-0,010
-99,118	-142,600	-0,058	-0,004
-98,103	-200,000	0,000	0,065
-97,089	-200,000	0,042	0,143
-96,074	-67,642	0,152	-0,042
-95,059	-200,000	-0,023	0,138
-94,045	-127,179	-0,137	-0,014
-93,030	-200,000	-0,021	-0,087
-92,016	-127,977	-0,070	-0,007
-91,001	-165,080	-0,139	0,004
-89,986	800,000	-0,113	0,244
-88,972	800,000	0,025	0,052
-87,957	628,786	0,038	0,068
-86,943	-200,000	-0,041	-0,168
-85,928	-47,624	-0,044	0,015
-84,913	-200,000	-0,009	0,049
-83,899	-146,526	0,188	0,011
-82,884	316,899	0,080	-0,107
-81,870	-35,050	0,053	0,020
-80,855	-40,836	0,069	0,025
-79,840	66,547	-0,137	-0,098
-78,826	800,000	0,023	-0,063
-77,811	-98,197	-0,058	0,011
-76,797	-129,462	-0,089	0,009
-75,782	-200,000	0,009	0,062
-74,767	-30,370	0,041	-0,017
-73,753	261,285	-0,098	0,120
-72,738	570,679	0,021	0,036
-71,724	-34,023	-0,123	0,048
-70,709	544,174	-0,036	-0,061
-69,694	55,958	0,033	-0,023
-68,680	33,964	0,134	-0,083
-67,665	427,423	0,148	0,227
-66,651	800,000	-0,046	0,136
-65,636	-200,000	-0,006	-0,107
-64,622	196,186	-0,053	-0,057
-63,607	-108,104	-0,074	-0,011
-62,592	-200,000	-0,010	-0,089
-61,578	95,000	-0,011	0,009
-60,563	739,481	0,037	0,071
-59,549	75,946	-0,091	0,068
-58,534	-52,616	-1,550	-0,504
-57,519	384,948	-1,495	-2,187
-56,505	-200,000	-0,529	-4,393
-55,490	197,389	0,813	0,879
-54,476	800,000	4,819	11,438
-53,461	-200,000	18,284	288,851
-52,446	800,000	726,657	2230,354
-51,432	556,640	1641,187	2808,929
-50,417	79,076	1662,850	1258,870
-49,403	22,626	1536,746	887,653
-48,388	16,565	1460,084	814,081
-47,373	17,847	1449,716	814,424
-46,359	17,169	1440,361	805,903
-45,344	14,853	1435,488	792,115
-44,330	14,804	1433,717	790,873
-43,315	14,767	1432,030	789,734
-42,300	14,788	1430,420	788,916
-41,286	14,856	1429,004	788,429
-40,271	14,836	1427,927	787,706
-39,257	14,802	1426,866	786,928
-38,242	14,856	1425,401	786,347
-37,227	14,875	1424,312	785,803
-36,213	14,844	1423,011	784,908
-35,198	14,846	1421,709	784,166
-34,184	14,912	1420,791	783,943
-33,169	14,849	1419,367	782,830
-32,154	14,865	1418,534	782,411
-31,140	14,858	1417,047	781,530
-30,125	14,872	1416,196	781,096
-29,111	14,824	1414,945	780,147
-28,096	14,811	1414,072	779,576
-27,082	14,785	1412,673	778,650
-26,067	14,733	1411,811	777,900
-25,052	14,780	1410,705	777,480
-24,038	14,741	1409,771	776,751
-23,023	14,713	1408,747	776,026
-22,009	14,718	1407,804	775,501
-20,994	14,714	1406,877	774,938
-19,979	14,725	1405,868	774,403
-18,965	14,670	1404,902	773,585
-17,950	14,704	1403,901	773,160
-16,936	14,676	1403,021	772,516
-15,921	14,661	1402,001	771,851
-14,906	14,669	1400,929	771,269
-13,892	14,691	1399,929	770,792
-12,877	14,657	1399,124	770,158
-11,863	14,615	1398,524	769,602
-10,848	14,643	1397,538	769,159
-9,833	14,619	1396,437	768,413
-8,819	14,637	1395,549	767,975
-7,804	14,585	1394,720	767,248
-6,790	14,575	1393,603	766,559
-5,775	14,592	1392,446	765,969
-4,760	14,586	1391,724	765,517
-3,746	14,568	1390,904	764,950
-2,731	14,540	1390,136	764,369
-1,717	14,553	1389,197	763,883
-0,702	14,545	1387,411	762,831
0,313	18,356	1306,478	735,926
1,327	34,689	705,453	435,131
2,342	53,073	124,567	84,179
3,356	1,748	16,610	8,435
4,371	9,291	3,053	1,627
5,386	-20,966	0,480	0,207
6,400	237,910	-0,055	0,065
7,415	6,890	-0,069	0,036
8,429	282,769	-0,295	-0,375
9,444	167,597	-0,261	-0,263
10,459	-1,421	-0,272	-0,135
11,473	-61,274	-0,291	-0,086
12,488	13,199	-0,312	-0,170
13,502	10,459	-0,324	-0,174
14,517	146,090	-0,218	-0,206
15,531	-83,182	-0,402	-0,091
16,546	3,798	-0,425	-0,219
17,561	282,323	-0,302	-0,383
18,575	-49,941	-0,207	-0,069
19,590	386,150	-0,199	-0,292
20,604	-29,519	-0,417	-0,168
21,619	14,570	-0,455	-0,250
22,634	19,079	-0,548	-0,310
23,648	164,264	-0,408	-0,407
24,663	136,394	-0,316	-0,291
25,677	107,729	-0,323	-0,272
26,692	263,116	-0,239	-0,293
27,707	133,132	-0,314	-0,286
28,721	-45,490	-0,408	-0,142
29,736	29,881	-0,411	-0,247
30,750	255,809	-0,429	-0,519
31,765	306,490	-0,311	-0,410
32,780	85,784	-0,383	-0,297
33,794	250,732	-0,248	-0,298
34,809	145,134	-0,329	-0,310
35,823	90,915	-0,436	-0,345
36,838	316,326	-0,369	-0,493
37,853	205,194	-0,256	-0,281
38,867	113,870	-0,307	-0,263
39,882	1,359	-0,296	-0,149
40,896	82,670	-0,391	-0,299
41,911	23,932	-0,400	-0,232
42,926	60,868	-0,365	-0,255
43,940	-12,776	-0,320	-0,146
44,955	195,117	-0,432	-0,463
45,969	-2,083	-0,495	-0,244
46,984	26,487	-0,313	-0,184
47,999	126,901	-0,312	-0,278
49,013	67,414	-0,322	-0,231
50,028	48,612	-0,287	-0,189
51,042	16,670	-0,357	-0,198
52,057	-50,672	-0,367	-0,121
53,071	125,876	-0,315	-0,280
54,086	-39,380	-0,436	-0,160
55,101	-58,174	-0,323	-0,099
56,115	71,853	-0,196	-0,143
57,130	69,930	-0,274	-0,198
58,144	113,869	-0,343	-0,293
59,159	81,430	-0,411	-0,312
60,174	-4,934	-0,376	-0,182
61,188	13,224	-0,368	-0,200
62,203	-34,550	-0,415	-0,159
63,217	-62,340	-0,382	-0,111
64,232	68,954	-0,232	-0,167
65,247	246,597	-0,297	-0,353
66,261	212,528	-0,237	-0,263
67,276	-50,784	-0,392	-0,129
68,290	30,535	-0,287	-0,172
69,305	115,526	-0,241	-0,207
70,320	-71,296	-0,153	-0,040
71,334	56,976	-0,262	-0,179
72,349	48,558	-0,296	-0,195
73,363	166,820	-0,292	-0,291
74,378	152,283	-0,332	-0,319
75,393	61,373	-0,304	-0,212
76,407	107,892	-0,283	-0,237
77,422	-25,021	-0,348	-0,144
78,436	-23,059	-0,271	-0,114
79,451	28,149	-0,345	-0,204
80,466	4,736	-0,396	-0,203
81,480	22,865	-0,316	-0,181
82,495	397,983	-0,154	-0,227
83,509	-46,155	-0,283	-0,097
84,524	182,788	-0,194	-0,201
85,539	64,777	-0,288	-0,203
86,553	100,062	-0,270	-0,219
87,568	46,493	-0,347	-0,226
88,582	-17,353	-0,396	-0,174
89,597	-58,704	-0,234	-0,071
90,611	-53,798	-0,345	-0,110
91,626	-33,529	-0,321	-0,124
92,641	36,849	-0,234	-0,145
93,655	51,463	-0,412	-0,274
94,670	26,065	-0,342	-0,200
95,684	548,956	-0,191	-0,322
96,699	21,182	-0,352	-0,200
97,714	12,496	-0,305	-0,165
98,728	-2,113	-0,325	-0,159
99,743	-74,906	-0,311	-0,077
100,757	-76,700	-0,246	-0,060
101,772	171,189	-0,205	-0,207
102,787	32,661	-0,288	-0,174
103,801	144,241	-0,276	-0,258
104,816	210,027	-0,188	-0,207
105,830	189,035	-0,267	-0,280
106,845	714,730	-0,116	-0,217
107,860	43,039	-0,297	-0,189
108,874	749,032	-0,098	-0,187
109,889	292,726	-0,191	-0,244
110,903	89,358	-0,252	-0,196
111,918	3,737	-0,273	-0,139
112,933	314,586	-0,096	-0,127
113,947	-184,156	-0,273	0,003
114,962	229,787	-0,267	-0,306
115,976	48,495	-0,236	-0,155
116,991	103,085	-0,260	-0,213
118,006	146,412	-0,373	-0,351
119,020	182,368	-0,204	-0,211
120,035	46,548	-0,288	-0,187
121,049	-136,089	-0,144	0,012
122,064	-65,978	-0,170	-0,047
123,079	280,147	-0,199	-0,249
124,093	37,723	-0,338	-0,209
125,108	266,047	-0,217	-0,266
126,122	14,636	-0,216	-0,118
127,137	-80,697	-0,236	-0,054
128,151	275,138	-0,224	-0,279
129,166	204,415	-0,153	-0,166
130,181	-59,785	-0,279	-0,083
131,195	53,175	-0,225	-0,150
132,210	18,632	-0,263	-0,147
133,224	26,723	-0,229	-0,134
134,239	143,835	-0,291	-0,271
135,254	41,785	-0,255	-0,161
136,268	163,573	-0,278	-0,273
137,283	126,253	-0,217	-0,192
138,297	128,988	-0,244	-0,217
139,312	104,548	-0,216	-0,177
140,327	95,920	-0,294	-0,235
141,341	-51,697	-0,413	-0,134
142,356	-57,355	-0,243	-0,074
143,370	170,640	-0,182	-0,182
144,385	135,174	-0,234	-0,212
145,400	-91,421	-0,291	-0,057
146,414	-129,098	-0,208	-0,020
147,429	305,274	-0,217	-0,282
148,443	27,651	-0,312	-0,183
149,458	-57,695	-0,244	-0,074
150,473	114,922	-0,017	0,015
151,487	27,522	-0,253	-0,148
152,502	86,917	-0,167	-0,128
153,516	-200,000	-0,075	-0,246
154,531	91,960	-0,285	-0,224
155,546	-12,180	-0,255	-0,116
156,560	53,084	-0,154	-0,102
157,575	91,151	-0,090	-0,070
158,589	61,191	-0,138	-0,095
159,604	287,594	-0,195	-0,246
160,619	18,755	-0,400	-0,223
161,633	183,585	-0,263	-0,271
162,648	350,416	-0,109	-0,150
163,662	-69,461	-0,297	-0,079
164,677	95,598	-0,211	-0,167
165,692	-78,050	-0,270	-0,064
166,706	-200,000	0,036	-0,265
167,721	191,964	-0,317	-0,333
168,735	240,375	-0,191	-0,222
169,750	17,005	-0,203	-0,112
170,764	-101,656	-0,251	-0,042
171,779	502,863	-0,067	-0,108
172,794	7,953	-0,270	-0,141
173,808	-40,474	-0,208	-0,075
174,823	-21,721	-0,307	-0,130
175,837	-196,601	-0,344	-0,002
176,852	435,878	-0,201	-0,306
177,867	261,603	-0,198	-0,240
178,881	-77,484	-0,111	-0,027
179,896	15,575	-0,233	-0,127
180,910	155,720	-0,309	-0,297
181,925	257,178	-0,210	-0,251
182,940	228,529	-0,229	-0,260
183,954	7,078	-0,256	-0,133
184,969	148,259	-0,243	-0,228
185,983	34,179	-0,191	-0,115
186,998	-120,901	-0,250	-0,029
188,013	-93,361	-0,253	-0,048
189,027	60,229	-0,257	-0,176
190,042	-30,679	-0,343	-0,134
191,056	491,688	-0,165	-0,264
192,071	10,300	-0,228	-0,120
193,086	146,220	-0,143	-0,133
194,100	151,422	-0,200	-0,189
195,115	141,690	-0,219	-0,202
196,129	1,135	-0,241	-0,120
197,144	9,602	-0,239	-0,125
198,159	171,667	-0,196	-0,196
199,173	314,163	-0,144	-0,188
200,188	-127,379	-0,181	-0,018
201,202	41,021	-0,188	-0,118
202,217	152,873	-0,142	-0,135
203,232	310,099	-0,265	-0,345
204,246	145,785	-0,228	-0,212
205,261	132,034	-0,202	-0,181
206,275	248,322	-0,202	-0,238
207,290	-43,309	-0,294	-0,103
208,304	-200,000	-0,002	-0,088
209,319	394,161	-0,193	-0,280
210,334	465,839	-0,139	-0,217
211,348	448,414	-0,096	-0,147
212,363	179,121	-0,228	-0,232
213,377	-30,365	-0,265	-0,104
214,392	73,605	-0,130	-0,095
215,407	-103,720	-0,250	-0,040
216,421	213,810	-0,165	-0,182
217,436	87,927	-0,161	-0,124
218,450	39,107	-0,264	-0,164
219,465	-200,000	-0,084	-0,294
220,480	58,454	-0,214	-0,145
221,494	14,474	-0,249	-0,134
222,509	-200,000	0,026	-0,127
223,523	-59,785	-0,190	0,056
224,538	-5,127	-0,195	-0,092
225,553	72,178	-0,301	-0,217
226,567	401,868	-0,162	-0,237
227,582	800,000	-0,087	-0,243
228,596	-42,030	-0,123	-0,043
229,611	166,937	-0,192	-0,189
230,626	-35,416	-0,129	-0,048
231,640	587,636	-0,118	-0,202
232,655	78,149	-0,250	-0,185
233,669	421,650	-0,157	-0,234
234,684	130,847	-0,180	-0,160
235,699	83,562	-0,174	-0,131
236,713	70,121	-0,237	-0,169
237,728	-200,000	-0,046	-0,214
238,742	-22,100	-0,200	-0,084
239,757	-58,962	-0,253	-0,075
240,772	-18,709	-0,335	-0,144
241,786	127,347	-0,167	-0,147
242,801	267,679	-0,174	-0,211
243,815	-200,000	0,021	-0,094
244,830	-47,046	-0,120	-0,040
245,844	281,232	-0,085	-0,105
246,859	293,254	-0,148	-0,188
247,874	800,000	-0,095	-0,252
248,888	105,445	-0,241	-0,197
249,903	-12,697	-0,049	0,022
250,917	321,439	-0,083	-0,109
251,932	-200,000	-0,037	-0,214
252,947	291,069	-0,072	-0,090
253,961	10,168	-0,159	-0,083
254,976	258,635	-0,190	-0,227
255,990	800,000	-0,091	-0,208
257,005	-63,127	-0,174	-0,049
258,020	548,454	-0,093	-0,154
259,034	800,000	-0,068	-0,170
260,049	-78,710	-0,161	-0,038
261,063	-58,967	-0,180	-0,053
262,078	322,133	-0,183	-0,241
263,093	189,546	-0,226	-0,234
264,107	800,000	-0,110	-0,245
265,122	-103,484	-0,098	-0,016
266,136	218,680	-0,160	-0,177
267,151	7,982	-0,076	-0,039
268,166	82,748	-0,210	-0,157
269,180	101,798	-0,138	-0,111
270,195	-97,943	-0,125	0,022
271,209	-90,145	-0,142	-0,028
272,224	58,955	-0,182	-0,124
273,239	120,952	-0,085	-0,073
274,253	32,660	-0,241	-0,144
275,268	16,036	-0,236	-0,128
276,282	-45,898	-0,288	-0,098
277,297	335,301	-0,099	-0,133
278,312	-98,971	-0,188	-0,033
279,326	-20,425	-0,081	0,034
280,341	101,652	-0,099	-0,079
281,355	114,677	-0,114	-0,096
282,370	354,711	-0,058	-0,080
283,384	-200,000	-0,020	-0,111
284,399	441,606	-0,157	-0,237
285,414	-49,920	-0,206	0,067
286,428	-200,000	-0,038	-0,167
287,443	800,000	-0,082	-0,214
288,457	179,568	-0,171	-0,173
289,472	106,495	-0,126	-0,103
290,487	79,365	-0,208	-0,153
291,501	800,000	-0,066	-0,161
292,516	-176,389	-0,151	-0,003
293,530	114,756	-0,170	-0,143
294,545	-200,000	-0,027	-0,148
295,560	466,892	-0,106	-0,165
296,574	-108,355	-0,152	0,022
297,589	3,378	-0,125	-0,062
298,603	-41,403	-0,043	0,015
299,618	241,146	-0,097	-0,111
300,633	-2,743	-0,078	-0,037
301,647	65,607	-0,083	-0,058
302,662	-122,024	-0,131	0,015
303,676	-200,000	-0,070	-0,252
304,691	121,857	-0,132	-0,114
305,706	97,189	-0,235	-0,186
306,720	177,298	-0,209	-0,210
307,735	-200,000	-0,003	-0,107
308,749	-200,000	0,013	-0,040
309,764	283,793	-0,048	-0,060
310,779	16,373	-0,114	-0,062
311,793	44,300	-0,144	-0,091
312,808	118,870	-0,250	-0,212
313,822	96,963	-0,275	-0,216
314,837	-119,092	-0,184	-0,022
315,852	43,900	-0,096	-0,060
316,866	428,271	-0,081	-0,121
317,881	-79,872	-0,169	0,039
318,895	-8,715	-0,302	-0,139
319,910	-147,402	-0,261	-0,015
320,925	-15,184	-0,165	-0,072
321,939	428,751	-0,035	0,052
322,954	-31,789	-0,119	-0,046
323,968	-200,000	-0,057	-0,209
324,983	800,000	-0,017	-0,050
325,997	28,213	-0,175	-0,101
327,012	199,933	-0,110	-0,116
328,027	-136,579	-0,204	-0,016
329,041	-119,426	-0,188	-0,022
330,056	180,669	-0,091	-0,092
331,070	-146,717	-0,219	-0,013
332,085	-184,461	-0,144	0,002
333,100	23,226	-0,100	-0,056
334,114	-49,465	-0,228	-0,074
335,129	48,846	-0,254	-0,164
336,143	318,650	-0,139	-0,181
337,158	800,000	-0,079	-0,151
338,173	-108,379	-0,138	-0,020
339,187	-168,632	-0,231	0,006
340,202	800,000	-0,051	-0,103
341,216	-14,465	-0,223	-0,098
342,231	235,973	-0,157	-0,178
343,246	-200,000	0,006	-0,161
344,260	-52,979	-0,072	0,023
345,275	44,227	-0,186	-0,117
346,289	-68,467	-0,221	0,058
347,304	16,340	-0,167	-0,090
348,319	405,308	-0,123	-0,178
349,333	-32,714	-0,139	-0,053
350,348	114,222	-0,126	-0,105
351,362	240,122	-0,193	-0,221
352,377	749,350	0,008	-0,015
353,392	43,329	-0,065	0,041
354,406	147,451	-0,159	-0,147
355,421	210,281	1312,617	1414,370
356,435	161,876	1473,116	1414,892
