DTS Sentinel unit serial number:	SN410029Multiplexer serial number:	ORYXHardware model number:	OX2-SRSoftware version number:	ORYX F/W v4,00 Oryx Data Collector v3.7.2.0data status	okinstallation	B3 Nyhavnadifferential loss correction	single-endedforward channel	channel 1reverse channel	N/Adate	2023/12/03time	13:07:30forward acquisition time	300,00reverse acquisition time	0,00gamma	499,1914k internal	0,3201k external	0,3201temperature offset calibration	1,0000default loss term (dB/km)	0,3820temperature slope calibration	1,0000multiplexer offset coefficient	1,0000multiplexer slope coefficient	1,0000fibre end	0,00T internal ref (°C)	14,67T ext. ref 1 (°C)	0,94T ext. ref 2 (°C)	0,93length (m)	temperature (°C)	Stokes	anti-Stokes-744,400	800,000	-0,161	-0,327
-743,385	-200,000	0,040	0,297
-742,371	800,000	-0,088	-0,202
-741,356	628,516	0,187	0,346
-740,342	245,006	-0,043	-0,053
-739,327	-200,000	-0,029	0,329
-738,312	296,021	-0,244	-0,326
-737,298	706,255	-0,061	0,118
-736,283	34,648	-0,191	-0,121
-735,269	-200,000	0,086	0,327
-734,254	158,186	-0,222	-0,224
-733,239	-54,106	-0,211	0,069
-732,225	12,698	-0,144	-0,081
-731,210	-200,000	-0,036	0,164
-730,196	-200,000	0,006	0,078
-729,181	29,875	-0,112	-0,069
-728,167	337,964	-0,044	-0,062
-727,152	-52,031	-0,071	0,024
-726,137	-200,000	-0,009	0,058
-725,123	-119,717	-0,115	-0,014
-724,108	738,199	-0,042	-0,083
-723,094	-61,222	-0,108	0,033
-722,079	-40,970	-0,136	0,051
-721,064	74,152	-0,143	-0,109
-720,050	-200,000	0,023	0,085
-719,035	-200,000	-0,018	0,191
-718,021	-200,000	-0,017	-0,084
-717,006	-101,350	-0,123	0,022
-715,991	-200,000	0,011	-0,060
-714,977	800,000	-0,020	-0,060
-713,962	-101,558	-0,058	-0,010
-712,948	506,357	0,027	-0,046
-711,933	-200,000	0,011	-0,076
-710,918	800,000	0,033	0,081
-709,904	282,379	-0,048	-0,063
-708,889	800,000	-0,030	0,078
-707,875	-200,000	-0,011	-0,126
-706,860	-101,090	-0,059	0,010
-705,845	800,000	-0,017	0,051
-704,831	-168,081	-0,072	-0,002
-703,816	289,962	0,065	-0,086
-702,802	-15,113	-0,113	-0,053
-701,787	-134,054	-0,128	-0,011
-700,772	326,028	0,065	0,090
-699,758	-123,359	-0,071	-0,008
-698,743	-4,457	0,060	0,030
-697,729	-200,000	-0,001	-0,154
-696,714	-200,000	0,027	-0,089
-695,699	347,215	0,039	-0,056
-694,685	76,223	-0,133	-0,102
-693,670	66,684	-0,017	-0,013
-692,656	-18,227	0,068	0,031
-691,641	368,806	0,025	-0,037
-690,627	-200,000	-0,047	0,158
-689,612	-121,797	-0,093	-0,011
-688,597	-139,314	0,130	-0,010
-687,583	675,773	0,036	-0,067
-686,568	12,827	-0,112	-0,063
-685,554	-200,000	0,002	0,014
-684,539	-200,000	0,010	0,033
-683,524	-200,000	-0,023	0,104
-682,510	106,554	-0,090	0,077
-681,495	342,010	-0,035	0,050
-680,481	0,389	-0,222	-0,115
-679,466	-16,773	0,075	0,035
-678,451	102,281	-0,053	0,045
-677,437	47,867	0,075	0,051
-676,422	324,698	0,012	-0,017
-675,408	800,000	0,089	0,257
-674,393	453,686	-0,023	-0,037
-673,378	-10,753	0,060	-0,028
-672,364	162,563	-0,085	-0,086
-671,349	-167,351	0,088	-0,003
-670,335	800,000	-0,030	-0,092
-669,320	-200,000	0,098	0,000
-668,305	-200,000	-0,002	-0,096
-667,291	355,939	-0,018	-0,026
-666,276	-13,483	-0,080	0,037
-665,262	291,600	-0,011	0,015
-664,247	-200,000	0,020	-0,103
-663,232	-200,000	-0,014	-0,047
-662,218	-153,878	0,056	-0,003
-661,203	-200,000	-0,027	-0,115
-660,189	340,806	-0,046	-0,066
-659,174	-100,721	-0,120	0,021
-658,159	-200,000	0,014	-0,065
-657,145	658,878	0,029	0,054
-656,130	386,944	0,049	0,073
-655,116	-49,790	-0,083	0,028
-654,101	-200,000	-0,016	-0,059
-653,086	-200,000	-0,027	0,182
-652,072	110,882	-0,046	-0,040
-651,057	117,685	0,107	-0,095
-650,043	125,483	-0,125	-0,114
-649,028	-200,000	-0,009	0,129
-648,014	-200,000	0,018	0,103
-646,999	160,029	-0,019	0,019
-645,984	800,000	0,050	0,116
-644,970	46,181	0,057	0,038
-643,955	-8,248	-0,062	-0,030
-642,941	-200,000	-0,028	-0,161
-641,926	114,016	0,063	-0,056
-640,911	379,648	-0,012	-0,018
-639,897	-200,000	-0,006	-0,068
-638,882	51,405	-0,104	-0,071
-637,868	-200,000	0,013	-0,065
-636,853	-200,000	-0,004	-0,120
-635,838	56,079	0,086	-0,060
-634,824	800,000	-0,030	-0,069
-633,809	800,000	0,020	0,055
-632,795	798,419	0,018	0,037
-631,780	-200,000	0,004	-0,071
-630,765	800,000	-0,020	-0,049
-629,751	800,000	-0,005	-0,017
-628,736	471,897	-0,058	-0,095
-627,722	106,255	0,148	-0,127
-626,707	599,387	0,022	-0,039
-625,692	-200,000	-0,016	0,092
-624,678	-200,000	-0,016	0,136
-623,663	800,000	-0,066	-0,173
-622,649	-200,000	-0,003	-0,037
-621,634	1,691	-0,122	-0,064
-620,619	-200,000	0,018	-0,077
-619,605	86,315	-0,096	0,077
-618,590	31,118	0,171	0,106
-617,576	800,000	0,098	0,207
-616,561	-11,117	0,045	-0,021
-615,546	-107,866	0,022	-0,004
-614,532	476,015	-0,079	0,129
-613,517	-200,000	-0,015	-0,079
-612,503	-16,992	0,025	0,012
-611,488	371,286	0,074	0,109
-610,474	-200,000	0,016	0,053
-609,459	-58,812	-0,129	-0,040
-608,444	-200,000	-0,019	0,075
-607,430	781,469	0,038	-0,075
-606,415	-200,000	-0,000	0,021
-605,401	531,816	0,033	-0,057
-604,386	800,000	0,012	0,027
-603,371	-39,910	0,071	0,027
-602,357	49,493	-0,152	0,103
-601,342	-200,000	-0,003	-0,049
-600,328	-144,333	-0,068	0,004
-599,313	82,365	-0,046	-0,036
-598,298	-23,330	-0,180	0,078
-597,284	10,937	0,038	0,021
-596,269	-79,515	0,074	0,018
-595,255	-20,958	-0,129	-0,057
-594,240	-6,029	-0,152	0,075
-593,225	-200,000	0,001	-0,093
-592,211	-3,109	-0,061	-0,030
-591,196	276,457	-0,093	-0,119
-590,182	203,330	-0,066	-0,073
-589,167	-200,000	0,007	0,090
-588,152	-167,342	-0,158	0,004
-587,138	261,580	-0,037	-0,046
-586,123	-200,000	0,003	0,073
-585,109	-150,666	0,037	-0,002
-584,094	360,070	-0,114	-0,165
-583,079	544,914	0,037	0,065
-582,065	-200,000	0,018	-0,073
-581,050	800,000	-0,025	-0,065
-580,036	346,149	0,033	-0,047
-579,021	534,221	0,027	0,047
-578,006	800,000	0,057	-0,127
-576,992	18,293	-0,069	-0,040
-575,977	-122,248	-0,044	0,005
-574,963	-169,225	0,233	0,006
-573,948	-118,552	-0,065	-0,008
-572,934	-200,000	0,002	-0,056
-571,919	-200,000	-0,020	-0,078
-570,904	194,864	-0,073	-0,080
-569,890	800,000	-0,088	-0,222
-568,875	76,640	-0,030	0,023
-567,861	113,282	0,026	-0,023
-566,846	13,962	-0,038	-0,021
-565,831	176,506	0,034	-0,036
-564,817	557,146	-0,051	0,089
-563,802	-120,663	-0,038	0,005
-562,788	800,000	0,035	0,110
-561,773	409,099	0,029	0,045
-560,758	759,437	0,024	0,047
-559,744	-200,000	-0,012	-0,067
-558,729	-122,839	0,054	0,006
-557,715	37,391	-0,094	-0,060
-556,700	18,830	0,058	-0,033
-555,685	-200,000	-0,001	-0,088
-554,671	800,000	-0,028	-0,088
-553,656	800,000	0,021	0,052
-552,642	270,651	0,089	0,113
-551,627	-67,025	-0,093	-0,026
-550,612	-200,000	-0,027	-0,107
-549,598	-46,233	0,075	0,027
-548,583	310,957	0,012	0,017
-547,569	-1,412	-0,050	-0,025
-546,554	-105,031	-0,032	-0,005
-545,539	-200,000	-0,005	0,050
-544,525	-200,000	-0,026	0,139
-543,510	758,299	-0,042	-0,083
-542,496	-200,000	0,004	-0,112
-541,481	-200,000	0,002	-0,136
-540,466	-200,000	0,003	-0,025
-539,452	-58,164	0,111	0,035
-538,437	69,970	-0,069	-0,052
-537,423	63,006	0,095	-0,068
-536,408	227,394	0,050	0,059
-535,393	477,079	0,012	-0,020
-534,379	-165,618	-0,111	-0,003
-533,364	-200,000	-0,023	-0,077
-532,350	800,000	-0,057	-0,153
-531,335	-200,000	0,037	0,222
-530,321	-102,272	0,058	-0,010
-529,306	101,316	-0,005	0,004
-528,291	36,486	-0,099	-0,063
-527,277	-200,000	-0,017	-0,226
-526,262	-88,299	0,078	0,017
-525,248	-21,504	-0,178	0,078
-524,233	258,508	0,113	0,141
-523,218	-141,249	-0,169	-0,012
-522,204	152,367	0,082	0,081
-521,189	800,000	-0,053	-0,123
-520,175	13,831	0,112	-0,063
-519,160	74,354	-0,067	0,051
-518,145	272,600	-0,024	0,030
-517,131	162,549	-0,059	-0,059
-516,116	-200,000	-0,017	0,166
-515,102	800,000	-0,052	-0,133
-514,087	348,017	-0,071	-0,102
-513,072	800,000	-0,012	-0,035
-512,058	-200,000	0,011	0,101
-511,043	-123,033	-0,161	0,018
-510,029	-124,231	0,034	-0,004
-509,014	800,000	0,059	0,119
-507,999	800,000	0,053	0,105
-506,985	-79,337	-0,163	0,039
-505,970	209,544	-0,084	-0,095
-504,956	513,814	0,047	0,079
-503,941	800,000	-0,033	0,105
-502,926	-200,000	0,002	0,145
-501,912	49,594	0,138	-0,094
-500,897	-200,000	-0,001	0,033
-499,883	322,411	0,008	-0,011
-498,868	153,782	-0,084	-0,083
-497,853	-63,473	0,059	-0,017
-496,839	800,000	-0,037	-0,109
-495,824	-126,861	0,136	0,014
-494,810	-20,819	0,175	-0,077
-493,795	-200,000	-0,043	0,138
-492,781	152,891	0,115	0,113
-491,766	-200,000	-0,025	-0,105
-490,751	-69,790	0,097	-0,027
-489,737	-200,000	-0,005	0,054
-488,722	-28,182	0,038	0,016
-487,708	-200,000	-0,021	0,124
-486,693	-200,000	0,007	0,118
-485,678	-200,000	-0,011	-0,111
-484,664	-126,580	0,136	-0,014
-483,649	-200,000	-0,009	-0,087
-482,635	-116,484	-0,162	-0,021
-481,620	-200,000	-0,005	-0,024
-480,605	-162,362	-0,130	-0,005
-479,591	-200,000	-0,002	0,018
-478,576	-200,000	-0,012	0,072
-477,562	603,669	0,028	-0,050
-476,547	29,299	0,046	-0,028
-475,532	-9,880	-0,048	-0,023
-474,518	-200,000	-0,064	0,215
-473,503	-27,098	-0,060	0,025
-472,489	459,567	-0,039	0,062
-471,474	-21,935	-0,116	0,051
-470,459	800,000	0,011	-0,025
-469,445	800,000	-0,021	-0,066
-468,430	161,968	-0,144	-0,145
-467,416	-70,328	0,103	-0,028
-466,401	359,373	0,058	0,084
-465,386	131,372	-0,022	-0,021
-464,372	800,000	0,018	-0,045
-463,357	86,725	-0,138	-0,109
-462,343	-33,514	-0,100	-0,040
-461,328	-200,000	0,015	-0,057
-460,313	-200,000	0,007	0,073
-459,299	-42,137	0,108	0,039
-458,284	-144,925	0,183	0,012
-457,270	-57,533	-0,080	-0,025
-456,255	311,990	-0,018	0,024
-455,241	800,000	0,050	-0,115
-454,226	316,388	0,056	-0,077
-453,211	738,601	0,055	-0,108
-452,197	-200,000	0,016	-0,181
-451,182	-108,205	-0,035	0,005
-450,168	464,384	0,064	0,104
-449,153	57,224	-0,065	0,046
-448,138	451,305	-0,060	-0,095
-447,124	77,281	-0,035	-0,026
-446,109	505,102	0,047	-0,078
-445,095	800,000	0,028	0,064
-444,080	39,220	0,092	0,059
-443,065	-200,000	0,010	0,077
-442,051	-200,000	-0,000	0,035
-441,036	311,746	-0,057	-0,077
-440,022	100,441	-0,079	-0,066
-439,007	75,764	-0,063	-0,048
-437,992	258,788	-0,011	0,014
-436,978	-16,263	0,097	-0,044
-435,963	-200,000	-0,011	0,113
-434,949	-145,553	0,035	-0,002
-433,934	635,660	0,012	-0,022
-432,919	-200,000	-0,014	-0,060
-431,905	-200,000	0,006	-0,089
-430,890	-193,156	0,097	0,001
-429,876	-92,310	0,055	0,011
-428,861	800,000	-0,067	0,141
-427,846	766,339	-0,063	0,123
-426,832	20,083	0,051	-0,030
-425,817	-182,177	0,030	0,000
-424,803	535,606	0,077	-0,131
-423,788	550,525	0,026	-0,044
-422,773	-92,039	0,086	0,017
-421,759	-78,790	0,058	0,014
-420,744	75,764	-0,048	-0,036
-419,730	-97,993	0,049	-0,009
-418,715	-200,000	0,002	-0,017
-417,701	-200,000	-0,000	-0,146
-416,686	218,981	0,085	-0,097
-415,671	529,855	0,073	0,124
-414,657	-111,448	-0,059	0,009
-413,642	-102,927	-0,063	-0,011
-412,628	203,252	0,041	0,046
-411,613	108,041	0,059	-0,050
-410,598	290,105	-0,057	0,074
-409,584	-157,270	0,122	-0,005
-408,569	42,519	-0,106	0,069
-407,555	-129,363	0,078	-0,008
-406,540	800,000	0,021	-0,045
-405,525	41,096	0,142	0,092
-404,511	665,325	-0,043	-0,081
-403,496	-37,124	-0,036	0,014
-402,482	6,183	0,009	0,005
-401,467	800,000	-0,021	-0,043
-400,452	127,175	-0,081	0,074
-399,438	391,389	0,047	0,071
-398,423	121,793	-0,039	0,035
-397,409	-191,637	-0,115	-0,001
-396,394	795,134	0,056	-0,111
-395,379	-200,000	-0,016	-0,079
-394,365	-200,000	-0,067	0,000
-393,350	71,430	0,078	0,058
-392,336	-161,198	0,049	0,002
-391,321	-200,000	-0,047	-0,167
-390,306	42,423	-0,094	0,061
-389,292	-57,271	0,140	0,044
-388,277	-200,000	-0,011	0,074
-387,263	-66,130	0,109	-0,031
-386,248	-17,582	0,103	-0,046
-385,233	-66,448	0,035	0,010
-384,219	800,000	-0,021	0,042
-383,204	-38,012	-0,082	-0,031
-382,190	328,825	-0,007	-0,010
-381,175	106,586	-0,078	-0,066
-380,160	-145,560	-0,078	0,005
-379,146	380,536	0,027	0,040
-378,131	-144,371	-0,078	0,005
-377,117	-200,000	0,022	-0,119
-376,102	-19,964	0,055	0,024
-375,088	188,745	-0,053	-0,057
-374,073	-200,000	0,005	0,021
-373,058	389,990	-0,097	0,144
-372,044	-120,196	0,060	-0,007
-371,029	77,912	0,089	0,068
-370,015	-38,811	-0,021	0,008
-369,000	-4,842	0,124	-0,061
-367,985	257,552	-0,086	-0,106
-366,971	800,000	-0,053	-0,117
-365,956	-130,319	-0,116	-0,011
-364,942	5,218	0,167	0,088
-363,927	82,718	0,042	0,032
-362,912	505,590	-0,057	0,096
-361,898	-200,000	-0,014	-0,059
-360,883	-143,283	0,046	0,003
-359,869	465,234	-0,067	-0,108
-358,854	253,713	0,059	-0,073
-357,839	800,000	-0,018	-0,052
-356,825	800,000	0,012	-0,026
-355,810	800,000	-0,047	0,114
-354,796	-11,884	-0,029	-0,013
-353,781	-152,572	-0,156	0,008
-352,766	-200,000	-0,023	-0,151
-351,752	800,000	0,051	-0,123
-350,737	105,496	0,111	0,094
-349,723	-58,976	-0,047	-0,014
-348,708	115,718	-0,076	0,066
-347,693	-200,000	-0,017	0,076
-346,679	800,000	-0,041	0,095
-345,664	-71,590	-0,091	-0,024
-344,650	541,968	0,053	-0,091
-343,635	281,665	0,087	0,112
-342,620	-32,055	-0,060	0,024
-341,606	35,967	0,013	0,008
-340,591	-200,000	-0,002	-0,139
-339,577	-200,000	-0,005	0,106
-338,562	282,440	0,059	0,076
-337,548	334,016	0,066	0,091
-336,533	130,186	0,057	0,052
-335,518	-200,000	-0,011	0,062
-334,504	199,963	0,094	-0,103
-333,489	-200,000	0,003	-0,093
-332,475	-56,319	0,054	-0,017
-331,460	-102,475	-0,034	-0,006
-330,445	-145,186	0,073	-0,005
-329,431	154,870	0,086	0,084
-328,416	-200,000	0,005	0,050
-327,402	-62,445	0,067	0,020
-326,387	100,075	-0,078	0,065
-325,372	-108,652	-0,102	-0,015
-324,358	-200,000	-0,003	0,056
-323,343	-12,024	0,095	-0,044
-322,329	-116,244	0,058	0,008
-321,314	596,051	0,068	0,121
-320,299	-80,759	-0,012	0,003
-319,285	800,000	0,042	0,118
-318,270	-80,721	-0,054	-0,013
-317,256	404,625	-0,048	-0,073
-316,241	-21,119	-0,123	-0,054
-315,226	-200,000	0,003	-0,048
-314,212	761,683	0,023	0,045
-313,197	97,392	-0,076	0,063
-312,183	-28,406	0,070	0,029
-311,168	-54,067	-0,112	-0,036
-310,153	-133,381	0,054	-0,005
-309,139	-27,375	-0,041	0,017
-308,124	39,323	0,045	-0,028
-307,110	74,729	0,065	0,049
-306,095	-22,571	-0,060	0,026
-305,080	244,708	0,060	0,072
-304,066	220,125	-0,088	0,101
-303,051	-200,000	-0,041	-0,158
-302,037	800,000	0,088	-0,176
-301,022	12,060	0,115	-0,063
-300,008	0,998	0,143	0,073
-298,993	-9,921	0,126	-0,060
-297,978	520,540	0,085	0,144
-296,964	-200,000	0,015	-0,050
-295,949	12,952	0,113	0,062
-294,935	-111,158	0,111	-0,016
-293,920	7,723	-0,116	-0,062
-292,905	-107,612	0,146	0,023
-291,891	-200,000	0,024	0,076
-290,876	-63,386	-0,117	-0,034
-289,862	-67,899	0,042	0,012
-288,847	82,234	-0,087	0,067
-287,832	116,369	-0,105	-0,092
-286,818	150,659	0,066	-0,064
-285,803	-20,404	-0,044	0,019
-284,789	200,366	0,117	0,129
-283,774	-31,700	0,141	0,056
-282,759	800,000	-0,037	-0,085
-281,745	18,644	0,087	-0,049
-280,730	-200,000	-0,011	-0,058
-279,716	-200,000	-0,015	-0,076
-278,701	792,233	0,031	-0,062
-277,686	-46,699	0,052	-0,018
-276,672	14,579	-0,048	-0,027
-275,657	207,218	0,056	0,063
-274,643	-200,000	0,007	-0,023
-273,628	-14,964	0,132	-0,060
-272,613	-43,405	0,093	-0,033
-271,599	-77,431	0,086	-0,021
-270,584	800,000	0,042	-0,107
-269,570	-200,000	-0,001	0,037
-268,555	49,185	0,019	0,013
-267,540	-61,799	0,076	0,023
-266,526	125,211	-0,054	-0,048
-265,511	42,779	-0,046	-0,030
-264,497	800,000	-0,007	-0,017
-263,482	-200,000	-0,006	0,048
-262,467	-200,000	0,006	0,102
-261,453	10,561	-0,141	-0,077
-260,438	227,455	0,006	-0,007
-259,424	-200,000	-0,011	-0,066
-258,409	-35,501	-0,051	0,020
-257,395	172,799	-0,048	0,050
-256,380	800,000	0,028	0,068
-255,365	229,309	0,050	-0,058
-254,351	-200,000	-0,008	0,046
-253,336	-122,383	0,237	-0,027
-252,322	2,797	-0,144	-0,074
-251,307	73,093	-0,064	-0,048
-250,292	800,000	0,042	-0,090
-249,278	144,105	0,121	0,115
-248,263	800,000	-0,034	0,099
-247,249	531,402	0,053	0,090
-246,234	95,855	-0,100	0,082
-245,219	218,551	0,069	-0,079
-244,205	-118,308	-0,056	-0,007
-243,190	800,000	-0,032	0,089
-242,176	800,000	-0,063	0,131
-241,161	56,234	0,028	-0,020
-240,146	800,000	-0,022	-0,057
-239,132	-108,076	-0,039	0,006
-238,117	800,000	0,029	0,066
-237,103	112,235	-0,132	-0,114
-236,088	-46,838	-0,103	0,036
-235,073	-168,695	0,072	0,002
-234,059	23,723	0,082	0,048
-233,044	-83,856	0,227	0,051
-232,030	800,000	0,021	-0,066
-231,015	775,657	0,051	0,099
-230,000	-32,330	-0,109	0,043
-228,986	-59,115	-0,101	0,031
-227,971	-155,331	0,099	0,004
-226,957	-200,000	-0,039	0,151
-225,942	-79,552	0,085	-0,020
-224,927	361,422	-0,046	-0,065
-223,913	-200,000	-0,014	-0,136
-222,898	-116,779	-0,153	0,020
-221,884	1,993	-0,022	0,011
-220,869	12,293	0,138	0,075
-219,855	631,640	0,020	-0,036
-218,840	-200,000	0,011	0,081
-217,825	-200,000	-0,059	0,207
-216,811	-21,071	-0,097	-0,042
-215,796	473,665	0,012	0,019
-214,782	58,039	-0,022	0,015
-213,767	112,476	0,061	0,052
-212,752	-200,000	0,008	-0,039
-211,738	56,768	0,142	0,098
-210,723	-200,000	0,003	-0,097
-209,709	-68,704	0,087	0,024
-208,694	-108,909	-0,089	-0,013
-207,679	-114,555	-0,163	0,022
-206,665	-57,251	-0,054	0,017
-205,650	60,612	0,119	0,084
-204,636	-200,000	0,035	0,166
-203,621	800,000	-0,020	0,059
-202,606	191,981	0,113	0,121
-201,592	-87,361	-0,117	-0,025
-200,577	681,494	0,097	-0,180
-199,563	-94,354	-0,154	-0,030
-198,548	370,281	-0,051	0,074
-197,533	800,000	-0,042	0,099
-196,519	180,218	-0,057	0,059
-195,504	443,707	-0,038	0,060
-194,490	-119,835	-0,142	-0,017
-193,475	-52,600	0,199	-0,065
-192,460	340,919	-0,038	-0,053
-191,446	118,173	0,142	0,125
-190,431	800,000	0,058	-0,115
-189,417	-200,000	0,011	-0,058
-188,402	-200,000	0,037	0,206
-187,387	-169,671	-0,079	-0,002
-186,373	-78,854	-0,073	-0,018
-185,358	563,432	-0,019	0,032
-184,344	-200,000	-0,003	0,014
-183,329	15,120	0,076	0,042
-182,315	74,757	0,034	0,025
-181,300	800,000	0,040	-0,121
-180,285	180,676	-0,137	0,143
-179,271	-18,816	-0,052	0,023
-178,256	-200,000	-0,029	-0,114
-177,242	-200,000	0,043	0,134
-176,227	-200,000	-0,018	0,077
-175,212	-55,047	-0,049	0,016
-174,198	238,619	0,024	-0,028
-173,183	-200,000	0,004	-0,030
-172,169	733,958	-0,015	-0,029
-171,154	-200,000	0,024	-0,089
-170,139	-200,000	-0,003	-0,079
-169,125	165,539	0,061	0,061
-168,110	-2,974	-0,227	0,112
-167,096	-200,000	0,009	-0,030
-166,081	-102,861	-0,142	0,024
-165,066	-70,265	-0,088	-0,023
-164,052	800,000	-0,012	0,027
-163,037	407,697	-0,041	0,062
-162,023	159,780	0,138	0,137
-161,008	9,028	-0,065	0,035
-159,993	52,730	0,030	-0,020
-158,979	703,378	-0,049	0,092
-157,964	-200,000	0,011	0,052
-156,950	800,000	-0,008	-0,023
-155,935	-153,434	0,106	-0,005
-154,920	-44,713	0,107	-0,038
-153,906	-200,000	0,005	0,070
-152,891	-71,158	-0,047	0,012
-151,877	161,604	0,038	0,037
-150,862	424,002	-0,081	-0,124
-149,847	800,000	-0,037	-0,100
-148,833	121,459	-0,060	0,053
-147,818	163,617	0,041	-0,041
-146,804	292,375	-0,050	0,065
-145,789	-38,241	-0,062	0,023
-144,775	215,715	-0,103	-0,116
-143,760	203,025	0,058	0,064
-142,745	800,000	-0,056	-0,174
-141,731	438,213	-0,061	-0,095
-140,716	-66,270	0,070	0,020
-139,702	-101,907	-0,021	0,004
-138,687	-200,000	-0,002	0,042
-137,672	306,512	0,047	0,062
-136,658	-3,099	-0,089	-0,044
-135,643	-23,305	-0,118	-0,050
-134,629	348,282	0,039	0,055
-133,614	-200,000	0,047	0,269
-132,599	623,122	0,019	0,035
-131,585	-200,000	0,023	0,117
-130,570	-200,000	0,004	0,051
-129,556	-200,000	-0,001	-0,006
-128,541	53,901	-0,168	-0,114
-127,526	800,000	0,037	0,108
-126,512	115,054	0,015	0,013
-125,497	800,000	-0,049	0,136
-124,483	358,006	-0,100	-0,141
-123,468	113,029	0,095	0,082
-122,453	82,318	-0,038	-0,029
-121,439	127,732	0,101	0,091
-120,424	-29,845	-0,032	-0,013
-119,410	800,000	0,025	0,065
-118,395	-200,000	-0,028	0,181
-117,380	118,951	-0,016	-0,014
-116,366	206,193	-0,068	0,075
-115,351	-200,000	-0,013	0,056
-114,337	-200,000	0,005	0,077
-113,322	106,626	-0,038	0,032
-112,307	139,234	-0,100	-0,094
-111,293	70,363	-0,051	0,037
-110,278	-200,000	0,010	0,126
-109,264	197,051	-0,048	0,052
-108,249	-32,873	0,056	-0,022
-107,234	33,084	-0,089	0,055
-106,220	244,114	-0,029	0,035
-105,205	800,000	-0,036	0,111
-104,191	-12,099	0,255	0,118
-103,176	-24,762	-0,021	0,009
-102,162	15,581	0,051	0,029
-101,147	-200,000	0,012	-0,072
-100,132	-200,000	0,008	-0,169
-99,118	-85,022	0,048	0,011
-98,103	-170,315	-0,086	-0,002
-97,089	-105,814	-0,054	0,008
-96,074	-156,354	0,110	-0,005
-95,059	67,385	0,023	-0,017
-94,045	499,722	-0,095	0,156
-93,030	-102,902	0,022	-0,004
-92,016	-140,067	-0,149	-0,011
-91,001	-32,394	0,083	0,033
-89,986	34,740	0,093	-0,057
-88,972	-87,523	-0,164	0,035
-87,957	-80,584	0,061	-0,014
-86,943	-200,000	-0,008	0,053
-85,928	-137,106	-0,097	0,008
-84,913	800,000	-0,032	0,065
-83,899	-165,725	0,070	0,002
-82,884	6,408	0,102	0,054
-81,870	-62,984	0,111	0,032
-80,855	601,297	-0,082	0,145
-79,840	297,476	-0,031	-0,040
-78,826	800,000	-0,043	-0,087
-77,811	113,544	-0,083	-0,072
-76,797	94,735	0,087	-0,070
-75,782	461,659	-0,031	-0,049
-74,767	-200,000	-0,017	0,112
-73,753	26,584	0,070	0,041
-72,738	-158,939	-0,045	0,002
-71,724	800,000	0,063	0,179
-70,709	-89,250	0,101	0,021
-69,694	328,089	-0,057	0,078
-68,680	800,000	0,023	-0,053
-67,665	800,000	0,026	-0,064
-66,651	51,174	0,155	-0,104
-65,636	71,983	-0,150	-0,110
-64,622	800,000	-0,019	0,060
-63,607	224,093	-0,107	-0,122
-62,592	-81,681	-0,053	-0,012
-61,578	22,326	-0,119	-0,069
-60,563	-200,000	0,014	0,094
-59,549	-156,947	-0,108	-0,005
-58,534	-71,622	-1,448	-0,380
-57,519	431,633	-1,448	-2,229
-56,505	-200,000	-0,492	-4,401
-55,490	212,936	0,997	1,116
-54,476	800,000	4,897	10,892
-53,461	-200,000	18,188	291,016
-52,446	800,000	728,624	2240,527
-51,432	558,469	1644,219	2819,675
-50,417	79,043	1665,208	1261,311
-49,403	22,566	1538,828	889,127
-48,388	16,506	1462,062	815,426
-47,373	17,803	1451,886	815,963
-46,359	17,136	1442,379	807,401
-45,344	14,835	1437,527	793,673
-44,330	14,710	1435,695	792,029
-43,315	14,751	1433,840	791,171
-42,300	14,756	1432,509	790,430
-41,286	14,795	1431,168	789,845
-40,271	14,766	1429,844	788,945
-39,257	14,711	1428,808	788,080
-38,242	14,767	1427,306	787,484
-37,227	14,772	1426,288	786,918
-36,213	14,785	1424,794	786,121
-35,198	14,843	1423,582	785,696
-34,184	14,797	1422,754	784,992
-33,169	14,733	1421,454	783,942
-32,154	14,815	1420,352	783,690
-31,140	14,787	1419,246	782,915
-30,125	14,827	1418,124	782,453
-29,111	14,805	1417,056	781,730
-28,096	14,737	1415,893	780,736
-27,082	14,700	1414,778	779,917
-26,067	14,720	1413,641	779,352
-25,052	14,735	1412,529	778,782
-24,038	14,688	1411,688	778,066
-23,023	14,660	1410,743	777,384
-22,009	14,698	1409,541	776,869
-20,994	14,631	1408,739	776,083
-19,979	14,649	1407,891	775,666
-18,965	14,659	1406,842	775,104
-17,950	14,653	1405,821	774,486
-16,936	14,619	1405,058	773,875
-15,921	14,562	1403,878	772,927
-14,906	14,632	1402,926	772,697
-13,892	14,649	1401,928	772,199
-12,877	14,602	1401,202	771,548
-11,863	14,583	1400,268	770,915
-10,848	14,598	1399,296	770,418
-9,833	14,566	1398,327	769,709
-8,819	14,509	1397,624	769,025
-7,804	14,526	1396,663	768,544
-6,790	14,522	1395,496	767,853
-5,775	14,550	1394,479	767,392
-4,760	14,522	1393,616	766,759
-3,746	14,506	1392,800	766,203
-2,731	14,493	1392,001	765,673
-1,717	14,502	1391,187	765,239
-0,702	14,538	1389,113	764,233
0,313	18,353	1308,305	737,420
1,327	34,686	706,007	435,749
2,342	53,579	124,324	84,269
3,356	2,784	16,682	8,534
4,371	-2,358	3,100	1,532
5,386	-20,772	0,615	0,266
6,400	800,000	0,068	0,154
7,415	84,044	-0,338	-0,261
8,429	19,288	-0,310	-0,175
9,444	41,789	-0,327	-0,210
10,459	215,873	-0,235	-0,264
11,473	-5,308	-0,442	-0,214
12,488	185,128	-0,246	-0,259
13,502	188,414	-0,256	-0,271
14,517	-31,187	-0,353	-0,140
15,531	228,098	-0,300	-0,345
16,546	83,600	-0,372	-0,286
17,561	306,165	-0,356	-0,469
18,575	-49,647	-0,144	-0,048
19,590	246,652	-0,192	-0,229
20,604	79,175	-0,272	-0,206
21,619	-47,352	-0,517	-0,177
22,634	26,999	-0,479	-0,283
23,648	40,680	-0,471	-0,299
24,663	159,907	-0,330	-0,325
25,677	79,072	-0,328	-0,248
26,692	205,351	-0,303	-0,333
27,707	-4,110	-0,382	-0,186
28,721	45,778	-0,345	-0,225
29,736	66,129	-0,460	-0,329
30,750	249,064	-0,403	-0,482
31,765	28,363	-0,507	-0,302
32,780	21,041	-0,424	-0,242
33,794	149,304	-0,326	-0,312
34,809	0,094	-0,325	-0,163
35,823	-25,314	-0,389	-0,162
36,838	140,404	-0,320	-0,298
37,853	113,854	-0,389	-0,333
38,867	162,198	-0,430	-0,426
39,882	23,755	-0,530	-0,307
40,896	102,079	-0,278	-0,229
41,911	37,538	-0,344	-0,215
42,926	43,374	-0,404	-0,260
43,940	263,186	-0,347	-0,426
44,955	-23,583	-0,409	-0,172
45,969	-68,312	-0,537	-0,146
46,984	122,213	-0,425	-0,374
47,999	95,375	-0,342	-0,275
49,013	321,086	-0,209	-0,281
50,028	-88,619	-0,347	-0,072
51,042	288,352	-0,218	-0,279
52,057	35,526	-0,422	-0,260
53,071	366,336	-0,255	-0,363
54,086	27,509	-0,291	-0,172
55,101	147,872	-0,245	-0,233
56,115	43,591	-0,424	-0,272
57,130	51,334	-0,362	-0,241
58,144	68,515	-0,377	-0,272
59,159	169,354	-0,373	-0,375
60,174	139,592	-0,454	-0,421
61,188	119,707	-0,346	-0,302
62,203	21,939	-0,239	-0,137
63,217	-22,109	-0,325	-0,138
64,232	255,740	-0,278	-0,336
65,247	59,333	-0,379	-0,263
66,261	310,886	-0,294	-0,388
67,276	45,915	-0,356	-0,231
68,290	5,370	-0,460	-0,238
69,305	-46,697	-0,270	-0,093
70,320	6,844	-0,345	-0,180
71,334	234,500	-0,174	-0,203
72,349	11,338	-0,269	-0,144
73,363	184,091	-0,260	-0,271
74,378	106,378	-0,312	-0,260
75,393	67,304	-0,398	-0,285
76,407	-123,641	-0,349	-0,038
77,422	-70,680	-0,304	-0,080
78,436	-5,121	-0,251	-0,121
79,451	125,983	-0,303	-0,269
80,466	118,934	-0,368	-0,320
81,480	-6,414	-0,311	-0,149
82,495	160,666	-0,252	-0,247
83,509	266,653	-0,171	-0,210
84,524	-32,654	-0,266	-0,103
85,539	183,361	-0,201	-0,209
86,553	-19,687	-0,360	-0,156
87,568	44,435	-0,334	-0,215
88,582	118,649	-0,334	-0,290
89,597	430,896	-0,165	-0,251
90,611	10,077	-0,438	-0,233
91,626	300,685	-0,206	-0,268
92,641	-107,837	-0,409	0,062
93,655	-59,704	-0,315	-0,094
94,670	23,806	-0,354	-0,204
95,684	141,869	-0,342	-0,319
96,699	-78,268	-0,360	-0,086
97,714	-11,275	-0,364	-0,168
98,728	-18,676	-0,197	-0,086
99,743	-30,009	-0,091	-0,036
100,757	131,127	-0,235	-0,211
101,772	56,754	-0,295	-0,201
102,787	-108,964	-0,418	-0,062
103,801	-136,465	-0,302	-0,024
104,816	194,084	-0,237	-0,252
105,830	-23,587	-0,230	-0,096
106,845	48,378	-0,258	-0,169
107,860	64,939	-0,207	-0,146
108,874	4,779	-0,393	-0,202
109,889	-23,635	-0,299	-0,125
110,903	195,455	-0,320	-0,342
111,918	-77,096	-0,319	-0,077
112,933	-59,133	-0,293	-0,088
113,947	95,231	-0,205	-0,164
114,962	37,755	-0,277	-0,172
115,976	-41,222	-0,286	-0,103
116,991	-76,246	-0,188	-0,046
118,006	233,450	-0,234	-0,270
119,020	34,075	-0,257	-0,156
120,035	29,285	-0,126	-0,075
121,049	87,823	-0,206	-0,160
122,064	24,016	-0,345	-0,198
123,079	800,000	-0,112	-0,253
124,093	98,402	-0,283	-0,228
125,108	96,236	-0,398	-0,318
126,122	-32,168	-0,361	-0,140
127,137	280,159	-0,158	-0,198
128,151	-53,360	-0,345	-0,110
129,166	-5,028	-0,329	-0,158
130,181	89,246	-0,233	-0,182
131,195	53,955	-0,282	-0,189
132,210	-23,623	-0,321	-0,134
133,224	530,646	-0,125	-0,207
134,239	204,057	-0,154	-0,167
135,254	-170,868	-0,366	-0,009
136,268	199,120	-0,145	-0,156
137,283	473,044	-0,170	-0,269
138,297	41,393	-0,240	-0,151
139,312	-110,844	-0,300	-0,043
140,327	333,242	-0,239	-0,324
141,341	147,068	-0,130	-0,123
142,356	239,616	-0,228	-0,265
143,370	-6,500	-0,261	-0,124
144,385	94,411	-0,286	-0,227
145,400	127,122	-0,210	-0,186
146,414	26,084	-0,226	-0,131
147,429	-69,003	-0,190	-0,051
148,443	-79,436	-0,263	-0,062
149,458	180,946	-0,218	-0,224
150,473	542,270	-0,122	-0,204
151,487	-131,499	-0,219	-0,020
152,502	134,828	-0,139	-0,126
153,516	149,233	-0,198	-0,187
154,531	-5,127	-0,232	-0,111
155,546	375,647	-0,212	-0,302
156,560	163,470	-0,216	-0,212
157,575	231,850	-0,194	-0,222
158,589	-130,653	-0,172	-0,016
159,604	790,020	-0,104	-0,201
160,619	21,121	-0,264	-0,149
161,633	55,064	-0,217	-0,146
162,648	243,110	-0,149	-0,174
163,662	122,024	-0,216	-0,188
164,677	-131,245	-0,320	-0,029
165,692	-119,031	-0,253	-0,030
166,706	-13,410	-0,348	-0,157
167,721	22,123	-0,343	-0,195
168,735	357,029	-0,208	-0,290
169,750	-29,377	-0,198	-0,079
170,764	-7,019	-0,304	-0,143
171,779	-34,521	-0,283	-0,107
172,794	-9,212	-0,210	-0,097
173,808	240,382	-0,195	-0,227
174,823	156,115	-0,277	-0,266
175,837	158,243	-0,260	-0,251
176,852	-80,583	-0,238	-0,055
177,867	-15,719	-0,111	-0,049
178,881	280,159	-0,111	-0,139
179,896	113,844	-0,182	-0,154
180,910	34,506	-0,232	-0,141
181,925	79,572	-0,168	-0,125
182,940	204,152	-0,264	-0,285
183,954	10,103	-0,268	-0,141
184,969	222,671	-0,175	-0,197
185,983	8,774	-0,232	-0,122
186,998	-73,589	-0,192	-0,048
188,013	-200,000	-0,058	-0,198
189,027	242,877	-0,080	-0,093
190,042	-6,146	-0,209	-0,099
191,056	-40,114	-0,096	-0,035
192,071	800,000	-0,078	-0,172
193,086	41,837	-0,220	-0,138
194,100	800,000	-0,106	-0,224
195,115	118,933	-0,139	-0,120
196,129	800,000	-0,115	-0,285
197,144	81,637	-0,191	-0,143
198,159	34,386	-0,240	-0,145
199,173	800,000	-0,094	-0,216
200,188	-21,478	-0,238	-0,101
201,202	-96,381	-0,224	-0,041
202,217	675,685	-0,133	-0,241
203,232	395,684	-0,140	-0,204
204,246	292,330	-0,155	-0,196
205,261	67,466	-0,200	-0,141
206,275	74,403	-0,333	-0,243
207,290	800,000	-0,083	-0,239
208,304	80,973	-0,194	-0,146
209,319	-200,000	-0,010	-0,205
210,334	-63,639	-0,259	-0,073
211,348	800,000	-0,097	-0,203
212,363	262,970	-0,189	-0,229
213,377	52,086	-0,142	-0,094
214,392	453,990	-0,142	-0,219
215,407	28,657	-0,205	-0,120
216,421	4,556	-0,227	-0,115
217,436	800,000	-0,121	-0,241
218,450	263,581	-0,146	-0,176
219,465	31,464	-0,232	-0,138
220,480	167,278	-0,275	-0,271
221,494	-135,891	-0,140	-0,011
222,509	173,220	-0,109	-0,110
223,523	-1,674	-0,247	-0,120
224,538	-87,373	-0,123	-0,026
225,553	90,205	-0,215	-0,166
226,567	447,289	-0,196	-0,300
227,582	61,746	-0,137	-0,095
228,596	-47,840	-0,141	-0,047
229,611	289,464	-0,126	-0,158
230,626	395,248	-0,128	-0,185
231,640	42,446	-0,108	-0,068
232,655	95,349	-0,247	-0,195
233,669	722,371	-0,095	-0,175
234,684	128,866	-0,260	-0,230
235,699	120,519	-0,135	-0,116
236,713	623,020	-0,051	-0,090
237,728	-17,842	-0,215	-0,093
238,742	36,450	-0,259	-0,158
239,757	95,839	-0,178	-0,140
240,772	285,144	-0,164	-0,205
241,786	604,544	-0,137	-0,237
242,801	-43,047	-0,148	-0,052
243,815	-22,498	-0,162	-0,068
244,830	165,322	-0,228	-0,224
245,844	37,288	-0,224	-0,137
246,859	-5,552	-0,306	-0,145
247,874	286,259	-0,127	-0,159
248,888	800,000	-0,099	-0,225
249,903	800,000	-0,134	-0,310
250,917	-124,643	-0,084	0,009
251,932	42,055	-0,148	-0,093
252,947	644,703	-0,078	-0,139
253,961	-41,729	-0,293	-0,104
254,976	-74,269	-0,306	-0,076
255,990	183,438	-0,202	-0,206
257,005	246,119	-0,207	-0,241
258,020	800,000	-0,097	-0,211
259,034	-121,749	-0,209	-0,024
260,049	11,700	-0,194	-0,103
261,063	-200,000	-0,033	-0,166
262,078	514,156	-0,114	-0,185
263,093	-95,804	-0,191	-0,035
264,107	12,853	-0,246	-0,131
265,122	150,961	-0,151	-0,142
266,136	-72,952	-0,198	-0,050
267,151	-137,595	-0,077	-0,006
268,166	162,766	-0,180	-0,175
269,180	-18,466	-0,148	-0,064
270,195	96,206	-0,291	-0,230
271,209	169,544	-0,171	-0,169
272,224	-120,341	-0,201	-0,023
273,239	100,244	-0,208	-0,167
274,253	-28,174	-0,100	-0,040
275,268	698,502	-0,147	-0,267
276,282	800,000	-0,134	-0,263
277,297	-81,189	-0,212	-0,048
278,312	-31,583	-0,264	-0,102
279,326	-112,289	-0,089	-0,012
280,341	31,332	-0,105	0,062
281,355	154,504	-0,091	-0,086
282,370	800,000	-0,057	-0,123
283,384	-87,908	-0,201	-0,041
284,399	800,000	-0,106	-0,237
285,414	42,166	-0,123	-0,077
286,428	800,000	-0,099	-0,273
287,443	105,135	-0,179	-0,146
288,457	187,445	-0,202	-0,208
289,472	81,568	-0,215	-0,160
290,487	-129,213	-0,113	-0,011
291,501	-18,769	-0,169	-0,072
292,516	686,925	-0,133	-0,240
293,530	-88,564	-0,158	-0,032
294,545	-62,146	-0,169	-0,048
295,560	-27,357	-0,169	-0,067
296,574	-48,412	-0,129	-0,043
297,589	-83,316	-0,094	-0,021
298,603	122,764	-0,176	-0,152
299,618	-53,503	-0,287	-0,090
300,633	-140,462	-0,054	-0,004
301,647	-98,979	-0,106	0,018
302,662	-25,242	-0,158	-0,064
303,676	800,000	-0,081	-0,179
304,691	271,302	-0,083	-0,101
305,706	147,124	-0,124	-0,115
306,720	-200,000	0,015	-0,139
307,735	-167,388	-0,253	0,007
308,749	-184,189	-0,159	-0,002
309,764	-38,581	-0,115	-0,042
310,779	-117,664	-0,119	-0,015
311,793	-62,460	-0,174	-0,050
312,808	126,082	-0,142	-0,123
313,822	420,711	-0,067	-0,099
314,837	19,028	-0,176	-0,097
315,852	-90,665	-0,122	0,024
316,866	59,768	-0,096	-0,065
317,881	-200,000	-0,010	-0,054
318,895	49,992	-0,120	-0,078
319,910	276,331	-0,205	-0,251
320,925	25,708	-0,187	-0,107
321,939	32,981	-0,194	-0,115
322,954	736,138	-0,115	-0,214
323,968	466,214	-0,074	0,114
324,983	-156,430	-0,242	-0,010
325,997	-168,739	-0,193	-0,005
327,012	-81,829	-0,130	-0,029
328,027	549,332	-0,138	-0,229
329,041	181,878	-0,034	-0,034
330,056	-150,742	-0,079	-0,004
331,070	-46,061	-0,160	0,054
332,085	-112,856	-0,097	0,013
333,100	20,061	-0,240	-0,132
334,114	3,969	-0,199	-0,099
335,129	-22,418	-0,204	-0,085
336,143	762,529	-0,033	-0,061
337,158	217,817	-0,144	-0,158
338,173	800,000	-0,026	-0,057
339,187	72,280	-0,081	-0,058
340,202	178,564	-0,150	-0,151
341,216	134,245	-0,147	-0,130
342,231	-10,536	-0,204	-0,093
343,246	-200,000	-0,032	-0,112
344,260	341,240	-0,132	-0,177
345,275	800,000	-0,022	-0,046
346,289	-56,027	-0,123	-0,037
347,304	578,074	-0,095	-0,160
348,319	-50,757	-0,126	-0,040
349,333	800,000	-0,093	-0,228
350,348	220,952	-0,114	-0,126
351,362	800,000	-0,074	-0,143
352,377	800,000	-0,045	-0,108
353,392	-123,602	-0,223	-0,024
354,406	-119,483	-0,153	-0,018
355,421	209,765	1316,319	1417,714
356,435	161,456	1477,252	1418,213
