DTS Sentinel unit serial number:	SN410029Multiplexer serial number:	ORYXHardware model number:	OX2-SRSoftware version number:	ORYX F/W v4,00 Oryx Data Collector v3.7.2.0data status	okinstallation	B3 Nyhavnadifferential loss correction	single-endedforward channel	channel 1reverse channel	N/Adate	2023/12/02time	21:27:30forward acquisition time	300,00reverse acquisition time	0,00gamma	499,1914k internal	0,3201k external	0,3201temperature offset calibration	1,0000default loss term (dB/km)	0,3820temperature slope calibration	1,0000multiplexer offset coefficient	1,0000multiplexer slope coefficient	1,0000fibre end	0,00T internal ref (°C)	13,25T ext. ref 1 (°C)	-1,89T ext. ref 2 (°C)	-1,91length (m)	temperature (°C)	Stokes	anti-Stokes-744,400	332,025	-0,231	-0,325
-743,385	139,847	0,161	0,154
-742,371	30,596	-0,358	-0,222
-741,356	-200,000	0,028	0,255
-740,342	-176,015	-0,143	-0,003
-739,327	-200,000	0,043	0,230
-738,312	140,335	-0,267	-0,256
-737,298	-200,000	-0,006	0,285
-736,283	179,825	-0,258	-0,276
-735,269	-200,000	-0,086	0,430
-734,254	89,752	-0,265	-0,215
-733,239	30,806	-0,150	0,093
-732,225	233,090	-0,089	-0,106
-731,210	-122,080	0,057	-0,007
-730,196	167,778	0,056	-0,058
-729,181	800,000	-0,023	-0,049
-728,167	800,000	0,044	0,116
-727,152	-200,000	-0,001	-0,031
-726,137	-90,078	-0,174	0,037
-725,123	-200,000	-0,020	-0,120
-724,108	42,600	-0,107	-0,071
-723,094	258,178	0,062	-0,078
-722,079	800,000	-0,078	-0,189
-721,064	12,405	-0,115	0,064
-720,050	-145,540	0,045	-0,003
-719,035	0,315	0,033	0,017
-718,021	-200,000	-0,005	-0,109
-717,006	274,694	0,041	-0,053
-715,991	-65,207	-0,163	-0,047
-714,977	373,424	-0,059	0,087
-713,962	800,000	-0,003	0,007
-712,948	-162,918	0,115	0,004
-711,933	-137,760	0,077	-0,006
-710,918	-200,000	-0,009	0,049
-709,904	-25,195	-0,125	-0,054
-708,889	279,976	-0,036	-0,046
-707,875	-200,000	-0,045	-0,160
-706,860	800,000	0,055	-0,133
-705,845	-143,580	-0,056	0,004
-704,831	800,000	0,029	0,078
-703,816	254,634	-0,053	0,066
-702,802	-200,000	-0,004	-0,037
-701,787	-21,838	-0,238	-0,105
-700,772	146,143	0,079	0,077
-699,758	-59,702	-0,158	-0,049
-698,743	-81,276	-0,165	0,039
-697,729	665,404	-0,013	-0,024
-696,714	740,048	-0,051	0,100
-695,699	-200,000	-0,023	-0,112
-694,685	-77,703	-0,076	-0,019
-693,670	800,000	-0,026	0,070
-692,656	-200,000	-0,029	-0,094
-691,641	124,317	-0,022	0,020
-690,627	-18,262	0,103	-0,046
-689,612	185,360	0,042	0,046
-688,597	236,459	-0,043	-0,052
-687,583	-200,000	-0,042	-0,139
-686,568	-200,000	-0,010	-0,110
-685,554	-11,911	-0,112	-0,053
-684,539	-77,449	-0,113	-0,028
-683,524	-117,191	0,062	0,008
-682,510	594,226	-0,033	0,059
-681,495	-200,000	0,002	-0,225
-680,481	137,726	0,083	-0,079
-679,466	574,849	0,007	0,013
-678,451	-64,016	-0,042	0,012
-677,437	800,000	-0,020	-0,060
-676,422	-200,000	0,027	-0,103
-675,408	800,000	-0,046	-0,100
-674,393	222,444	0,043	-0,050
-673,378	800,000	-0,039	-0,098
-672,364	273,782	-0,046	-0,059
-671,349	-200,000	-0,023	-0,147
-670,335	235,696	0,046	-0,056
-669,320	-200,000	-0,018	-0,094
-668,305	-200,000	0,004	-0,107
-667,291	800,000	-0,027	0,082
-666,276	272,749	0,019	-0,024
-665,262	-124,685	0,101	-0,011
-664,247	-200,000	0,009	-0,086
-663,232	364,323	0,066	-0,097
-662,218	-194,646	0,217	-0,001
-661,203	-200,000	0,034	-0,127
-660,189	-99,839	0,094	0,017
-659,174	281,080	0,044	-0,057
-658,159	-122,329	-0,142	-0,017
-657,145	75,442	-0,074	0,057
-656,130	-200,000	0,003	0,012
-655,116	256,994	-0,052	-0,065
-654,101	-200,000	0,005	-0,114
-653,086	718,124	-0,037	0,072
-652,072	-33,989	-0,077	0,031
-651,057	43,933	0,019	0,013
-650,043	14,371	-0,076	-0,043
-649,028	800,000	0,014	0,042
-648,014	-200,000	-0,003	-0,101
-646,999	-65,801	0,106	0,031
-645,984	374,356	-0,076	0,113
-644,970	800,000	0,074	0,179
-643,955	800,000	-0,047	0,120
-642,941	-196,244	-0,110	-0,001
-641,926	314,212	-0,102	-0,140
-640,911	38,146	0,078	-0,050
-639,897	-200,000	-0,001	-0,021
-638,882	395,978	-0,043	0,065
-637,868	159,198	0,062	0,063
-636,853	-200,000	-0,003	0,045
-635,838	-75,666	-0,095	0,024
-634,824	-113,011	0,119	0,017
-633,809	9,291	0,067	-0,037
-632,795	-40,315	0,040	0,015
-631,780	651,257	-0,029	-0,055
-630,765	-17,067	-0,110	-0,050
-629,751	-106,894	0,055	0,009
-628,736	-139,021	-0,092	0,007
-627,722	-200,000	0,007	-0,084
-626,707	2,274	0,079	0,041
-625,692	-33,588	-0,037	-0,015
-624,678	15,124	0,157	0,089
-623,663	484,169	-0,049	-0,082
-622,649	-200,000	-0,004	-0,057
-621,634	-81,264	-0,109	0,026
-620,619	-28,079	-0,105	-0,044
-619,605	-140,199	0,123	-0,009
-618,590	95,877	0,083	0,069
-617,576	121,145	0,024	0,022
-616,561	800,000	-0,065	0,133
-615,546	-20,995	0,056	-0,025
-614,532	-5,872	0,018	-0,009
-613,517	-200,000	0,001	-0,047
-612,503	-200,000	-0,005	-0,084
-611,488	-44,784	0,069	0,025
-610,474	-199,143	-0,030	0,000
-609,459	-97,971	-0,068	0,013
-608,444	200,604	-0,126	0,141
-607,430	-4,256	-0,079	-0,039
-606,415	203,993	0,147	-0,165
-605,401	-26,668	0,056	0,024
-604,386	-118,062	0,120	-0,015
-603,371	-23,620	0,078	-0,034
-602,357	141,983	0,024	0,023
-601,342	95,233	0,038	-0,031
-600,328	-200,000	-0,043	-0,186
-599,313	800,000	-0,051	-0,111
-598,298	800,000	0,028	-0,059
-597,284	-200,000	0,038	-0,133
-596,269	-200,000	0,014	0,087
-595,255	440,384	0,072	-0,114
-594,240	611,801	-0,015	0,026
-593,225	102,323	-0,076	0,065
-592,211	-43,848	-0,233	-0,084
-591,196	-107,034	0,075	-0,012
-590,182	212,484	0,074	0,084
-589,167	-68,086	0,025	-0,007
-588,152	-20,551	0,109	0,048
-587,138	-200,000	0,034	0,181
-586,123	-87,353	-0,073	0,016
-585,109	-22,098	-0,156	-0,068
-584,094	-200,000	0,031	-0,132
-583,079	-15,517	0,079	-0,036
-582,065	-200,000	0,017	-0,080
-581,050	-26,841	-0,094	0,039
-580,036	-200,000	0,011	0,121
-579,021	725,962	0,028	0,054
-578,006	-200,000	0,010	-0,064
-576,992	2,379	-0,126	-0,066
-575,977	182,269	-0,065	-0,070
-574,963	-7,184	0,155	0,076
-573,948	10,390	-0,045	0,025
-572,934	-200,000	-0,011	0,073
-571,919	-92,995	-0,051	0,010
-570,904	-148,539	-0,238	-0,014
-569,890	-0,959	-0,074	0,038
-568,875	-200,000	-0,021	0,123
-567,861	800,000	-0,045	0,113
-566,846	328,398	0,040	-0,056
-565,831	-32,776	-0,150	-0,060
-564,817	800,000	0,004	-0,009
-563,802	155,556	-0,065	0,065
-562,788	800,000	0,030	-0,090
-561,773	-145,199	0,074	-0,005
-560,758	800,000	0,009	-0,020
-559,744	346,133	-0,036	0,051
-558,729	800,000	-0,081	-0,163
-557,715	800,000	-0,055	-0,174
-556,700	-73,719	-0,124	-0,032
-555,685	100,514	-0,069	-0,058
-554,671	-200,000	-0,008	-0,057
-553,656	229,414	0,093	-0,109
-552,642	318,123	0,014	0,019
-551,627	22,085	0,036	-0,021
-550,612	800,000	-0,054	-0,144
-549,598	172,517	-0,082	-0,085
-548,583	-132,761	-0,060	0,005
-547,569	350,396	0,059	0,084
-546,554	-200,000	0,002	0,057
-545,539	637,345	-0,018	0,032
-544,525	-60,208	0,120	0,037
-543,510	214,081	0,012	0,014
-542,496	7,442	0,024	-0,013
-541,481	21,889	-0,112	0,065
-540,466	-23,707	0,091	0,039
-539,452	800,000	0,035	0,096
-538,437	800,000	0,058	0,135
-537,423	-200,000	0,006	0,128
-536,408	93,474	0,039	-0,032
-535,393	406,158	0,009	-0,014
-534,379	-200,000	-0,004	0,032
-533,364	210,419	-0,104	-0,118
-532,350	-84,402	0,078	-0,018
-531,335	-80,253	0,161	-0,039
-530,321	-67,994	-0,110	0,031
-529,306	-75,644	-0,064	0,016
-528,291	-200,000	-0,006	0,076
-527,277	149,589	-0,072	-0,071
-526,262	645,464	-0,059	0,109
-525,248	-93,222	0,093	0,018
-524,233	705,776	0,057	0,109
-523,218	13,862	-0,032	0,018
-522,204	-200,000	-0,033	-0,153
-521,189	-200,000	-0,025	-0,084
-520,175	-81,570	-0,145	-0,034
-519,160	-200,000	0,028	-0,103
-518,145	342,385	0,029	-0,042
-517,131	96,833	-0,052	-0,043
-516,116	-98,748	0,230	0,042
-515,102	72,048	-0,236	0,177
-514,087	241,765	0,077	-0,092
-513,072	800,000	-0,034	0,089
-512,058	-200,000	-0,025	-0,180
-511,043	-197,542	0,076	0,000
-510,029	-32,509	0,069	-0,028
-509,014	-200,000	0,003	0,052
-507,999	-200,000	0,003	0,052
-506,985	-200,000	-0,021	-0,067
-505,970	324,999	0,057	-0,079
-504,956	-8,677	0,059	0,029
-503,941	-155,991	-0,069	0,003
-502,926	-200,000	0,014	0,094
-501,912	-200,000	0,026	0,101
-500,897	-14,840	-0,108	-0,050
-499,883	362,762	0,063	0,091
-498,868	-125,020	0,012	0,001
-497,853	-60,101	-0,066	-0,020
-496,839	800,000	0,032	-0,087
-495,824	171,503	0,113	0,117
-494,810	-200,000	-0,001	0,099
-493,795	-187,483	0,125	0,001
-492,781	-23,966	0,021	-0,009
-491,766	69,610	-0,045	0,033
-490,751	43,297	0,169	-0,111
-489,737	92,909	0,061	-0,049
-488,722	800,000	-0,045	-0,102
-487,708	-200,000	0,005	-0,117
-486,693	88,952	0,035	-0,028
-485,678	-28,906	-0,125	-0,052
-484,664	-200,000	-0,008	0,046
-483,649	189,885	-0,032	0,035
-482,635	341,398	-0,009	0,013
-481,620	117,410	-0,018	0,016
-480,605	800,000	-0,039	0,108
-479,591	11,456	-0,095	-0,052
-478,576	63,561	-0,076	-0,055
-477,562	154,394	-0,066	0,065
-476,547	-113,654	-0,040	-0,006
-475,532	-200,000	0,003	0,034
-474,518	204,793	0,054	0,060
-473,503	301,945	0,104	0,138
-472,489	358,856	-0,090	0,130
-471,474	800,000	0,032	0,098
-470,459	-200,000	-0,007	0,050
-469,445	237,070	-0,097	-0,116
-468,430	475,492	-0,022	0,035
-467,416	-0,754	0,068	0,035
-466,401	629,148	0,025	-0,046
-465,386	437,902	-0,034	-0,053
-464,372	-200,000	0,006	-0,093
-463,357	44,699	-0,093	-0,061
-462,343	635,184	-0,073	-0,134
-461,328	-200,000	-0,020	-0,090
-460,313	-42,870	0,127	-0,046
-459,299	-70,160	0,053	0,014
-458,284	-147,409	-0,059	-0,004
-457,270	432,016	0,031	0,048
-456,255	-180,202	0,029	-0,000
-455,241	-200,000	-0,187	-0,000
-454,226	-45,736	0,030	-0,011
-453,211	286,510	0,094	-0,122
-452,197	-88,784	0,069	-0,015
-451,182	-104,244	0,018	-0,003
-450,168	-63,644	0,062	0,018
-449,153	-59,900	0,107	0,033
-448,138	427,775	-0,048	-0,075
-447,124	-144,518	-0,092	0,006
-446,109	281,222	-0,057	-0,074
-445,095	101,506	0,055	-0,046
-444,080	-200,000	0,000	0,066
-443,065	55,789	-0,087	0,060
-442,051	485,960	0,055	-0,091
-441,036	-100,233	0,180	-0,032
-440,022	443,067	-0,026	-0,041
-439,007	169,821	0,038	-0,039
-437,992	-200,000	0,010	0,104
-436,978	416,333	0,090	0,139
-435,963	-55,284	-0,159	0,051
-434,949	38,687	0,050	-0,032
-433,934	-200,000	-0,012	-0,125
-432,919	800,000	0,013	-0,032
-431,905	-15,360	-0,023	0,010
-430,890	-132,839	0,137	0,012
-429,876	-106,653	0,143	-0,023
-428,861	211,554	0,060	0,068
-427,846	397,739	-0,055	0,083
-426,832	-147,241	0,128	-0,008
-425,817	16,673	-0,127	-0,072
-424,803	13,945	-0,040	0,023
-423,788	-96,957	0,063	-0,012
-422,773	-52,933	0,083	-0,027
-421,759	108,854	-0,109	0,094
-420,744	-200,000	-0,001	-0,051
-419,730	390,450	0,011	0,017
-418,715	-200,000	-0,034	-0,170
-417,701	-175,344	0,090	0,002
-416,686	-200,000	0,024	0,091
-415,671	224,756	0,097	0,113
-414,657	34,785	0,108	0,068
-413,642	-200,000	0,011	0,050
-412,628	566,750	-0,033	-0,058
-411,613	-49,279	-0,025	0,008
-410,598	-200,000	0,007	-0,050
-409,584	203,703	-0,048	0,053
-408,569	-200,000	-0,033	0,143
-407,555	-84,281	0,135	-0,030
-406,540	122,052	0,100	0,090
-405,525	-2,447	-0,092	0,046
-404,511	300,594	-0,084	-0,111
-403,496	20,605	0,133	-0,077
-402,482	2,895	0,096	0,050
-401,467	-200,000	-0,032	0,104
-400,452	248,368	0,110	-0,133
-399,438	-200,000	-0,009	-0,035
-398,423	-74,311	-0,073	-0,019
-397,409	-57,050	0,065	-0,021
-396,394	369,951	-0,043	0,062
-395,379	695,506	0,072	-0,137
-394,365	800,000	0,040	0,103
-393,350	-200,000	0,023	-0,088
-392,336	123,257	-0,107	0,096
-391,321	-16,579	0,015	0,007
-390,306	79,066	0,096	0,074
-389,292	344,410	-0,065	0,092
-388,277	662,293	0,061	0,113
-387,263	-200,000	-0,005	-0,029
-386,248	54,785	-0,030	0,021
-385,233	800,000	0,059	-0,127
-384,219	68,036	-0,106	-0,078
-383,204	800,000	0,049	-0,115
-382,190	231,697	0,132	-0,155
-381,175	-71,527	0,081	-0,022
-380,160	100,965	0,040	0,033
-379,146	556,494	0,055	0,095
-378,131	61,383	0,079	-0,056
-377,117	-4,300	0,059	-0,029
-376,102	-200,000	-0,019	-0,098
-375,088	-200,000	0,011	0,125
-374,073	684,438	0,044	0,082
-373,058	27,102	0,050	-0,030
-372,044	-200,000	-0,021	0,096
-371,029	657,156	0,003	-0,006
-370,015	-200,000	0,001	0,122
-369,000	107,039	-0,106	0,090
-367,985	-84,736	-0,121	-0,027
-366,971	-200,000	-0,002	-0,129
-365,956	800,000	0,031	-0,068
-364,942	-200,000	-0,005	0,076
-363,927	466,746	0,075	-0,121
-362,912	5,424	0,035	-0,019
-361,898	-200,000	0,041	0,149
-360,883	-22,029	-0,090	-0,039
-359,869	113,821	-0,102	-0,089
-358,854	-92,872	-0,097	-0,019
-357,839	-85,016	-0,053	0,012
-356,825	-200,000	0,004	-0,048
-355,810	106,003	0,045	-0,039
-354,796	800,000	-0,020	0,050
-353,781	800,000	0,030	0,080
-352,766	-200,000	0,015	0,088
-351,752	-200,000	0,010	0,057
-350,737	-200,000	-0,011	-0,035
-349,723	28,345	-0,054	-0,033
-348,708	-200,000	-0,030	-0,126
-347,693	486,485	-0,060	-0,098
-346,679	-200,000	0,015	-0,083
-345,664	800,000	0,021	-0,046
-344,650	800,000	-0,031	0,067
-343,635	800,000	-0,053	0,132
-342,620	-200,000	0,019	0,129
-341,606	143,807	0,062	-0,060
-340,591	800,000	-0,046	-0,096
-339,577	254,172	0,102	0,125
-338,562	3,843	0,205	-0,107
-337,548	800,000	0,016	0,045
-336,533	387,591	0,061	0,090
-335,518	272,628	0,030	-0,038
-334,504	-200,000	0,015	-0,084
-333,489	-46,950	0,050	-0,018
-332,475	-77,640	0,021	-0,005
-331,460	222,862	-0,107	0,123
-330,445	-12,246	-0,024	-0,011
-329,431	-33,072	-0,066	0,026
-328,416	36,212	0,102	-0,064
-327,402	138,969	0,041	0,039
-326,387	-91,029	-0,130	-0,027
-325,372	339,017	-0,051	-0,072
-324,358	8,387	0,053	-0,029
-323,343	800,000	0,041	0,086
-322,329	76,584	0,111	-0,084
-321,314	364,592	0,092	0,132
-320,299	-200,000	-0,004	0,188
-319,285	254,724	0,049	-0,060
-318,270	-153,272	-0,024	0,001
-317,256	-6,398	-0,118	-0,057
-316,241	-200,000	0,015	-0,056
-315,226	800,000	0,081	0,186
-314,212	224,374	-0,073	0,085
-313,197	37,556	0,055	-0,035
-312,183	-200,000	0,000	-0,039
-311,168	-200,000	-0,041	-0,224
-310,153	9,790	-0,094	-0,051
-309,139	-72,011	-0,176	-0,047
-308,124	-37,033	-0,020	-0,007
-307,110	81,045	0,061	0,047
-306,095	54,164	-0,017	0,011
-305,080	-200,000	-0,004	-0,047
-304,066	-80,034	0,124	-0,030
-303,051	-139,853	-0,117	0,009
-302,037	-57,501	0,110	0,034
-301,022	-65,572	-0,028	-0,008
-300,008	-99,752	0,186	-0,033
-298,993	800,000	0,061	0,158
-297,978	-62,813	-0,093	-0,027
-296,964	122,390	0,059	0,053
-295,949	-200,000	-0,002	-0,202
-294,935	588,866	-0,026	-0,046
-293,920	-174,204	0,053	0,001
-292,905	-200,000	0,043	0,174
-291,891	-200,000	0,007	0,076
-290,876	9,248	-0,050	0,027
-289,862	-200,000	-0,009	0,078
-288,847	-200,000	0,000	0,005
-287,832	12,865	-0,045	-0,025
-286,818	-200,000	0,016	-0,318
-285,803	179,226	0,037	-0,039
-284,789	-200,000	-0,027	0,180
-283,774	-10,099	0,036	-0,017
-282,759	101,425	0,068	-0,056
-281,745	57,551	0,040	-0,028
-280,730	1,249	0,043	-0,022
-279,716	706,395	0,055	-0,105
-278,701	-78,175	-0,173	0,042
-277,686	82,194	0,100	-0,078
-276,672	79,989	-0,070	-0,054
-275,657	-200,000	-0,013	-0,154
-274,643	54,493	-0,012	-0,008
-273,628	800,000	-0,053	-0,108
-272,613	-154,965	-0,049	0,002
-271,599	-55,866	0,142	0,045
-270,584	313,112	0,100	0,135
-269,570	-200,000	-0,027	0,113
-268,555	-74,811	0,056	0,014
-267,540	80,816	-0,030	0,023
-266,526	-200,000	-0,018	-0,150
-265,511	-52,484	-0,061	0,020
-264,497	-96,090	-0,016	-0,003
-263,482	-150,186	0,147	-0,008
-262,467	265,059	0,067	-0,083
-261,453	476,633	0,023	0,037
-260,438	-200,000	-0,163	0,000
-259,424	319,476	-0,049	-0,066
-258,409	-69,909	-0,065	-0,018
-257,395	411,277	-0,065	0,099
-256,380	-157,738	0,083	-0,003
-255,365	-200,000	-0,005	0,077
-254,351	548,830	0,065	0,112
-253,336	99,777	-0,065	0,054
-252,322	800,000	-0,042	-0,121
-251,307	296,778	-0,045	0,059
-250,292	-14,759	0,106	0,048
-249,278	-134,305	-0,065	-0,006
-248,263	-200,000	0,012	0,067
-247,249	216,315	-0,045	-0,052
-246,234	800,000	0,015	0,046
-245,219	-59,781	-0,139	-0,042
-244,205	292,299	-0,021	0,028
-243,190	800,000	-0,036	-0,089
-242,176	-54,268	-0,048	-0,015
-241,161	57,309	-0,056	0,039
-240,146	-73,400	0,097	0,025
-239,132	245,069	-0,050	0,061
-238,117	-11,638	0,036	-0,017
-237,103	-137,672	0,229	-0,018
-236,088	-114,982	-0,084	-0,011
-235,073	-200,000	-0,006	-0,027
-234,059	175,139	0,057	-0,059
-233,044	-110,207	0,067	0,010
-232,030	5,564	-0,026	0,014
-231,015	209,323	-0,080	0,090
-230,000	-108,248	-0,045	0,007
-228,986	-149,517	0,047	0,003
-227,971	-200,000	-0,011	0,192
-226,957	-200,000	0,044	0,176
-225,942	87,969	-0,052	0,041
-224,927	354,729	0,015	0,021
-223,913	34,415	-0,106	0,066
-222,898	619,266	-0,089	-0,160
-221,884	-200,000	0,007	-0,060
-220,869	629,962	0,029	0,052
-219,855	165,910	-0,083	0,084
-218,840	-97,649	-0,014	-0,003
-217,825	-95,053	-0,097	0,018
-216,811	185,446	-0,035	0,037
-215,796	51,697	0,025	-0,017
-214,782	609,293	0,062	-0,111
-213,767	577,837	0,014	-0,024
-212,752	-157,112	-0,073	-0,003
-211,738	208,789	0,031	-0,035
-210,723	-200,000	0,008	-0,057
-209,709	737,436	0,064	-0,124
-208,694	2,321	-0,084	-0,043
-207,679	418,313	-0,050	0,076
-206,665	3,463	0,093	0,048
-205,650	-38,844	0,026	0,010
-204,636	-200,000	-0,012	0,170
-203,621	475,353	0,088	-0,143
-202,606	172,447	0,067	-0,069
-201,592	28,439	-0,070	0,042
-200,577	-127,567	-0,165	0,017
-199,563	-200,000	-0,002	-0,015
-198,548	-85,057	0,152	0,034
-197,533	-60,571	-0,082	-0,025
-196,519	-0,744	0,110	0,055
-195,504	111,937	-0,045	0,038
-194,490	140,421	0,054	-0,051
-193,475	-200,000	-0,032	-0,127
-192,460	-125,396	0,147	-0,016
-191,446	-200,000	0,006	-0,134
-190,431	800,000	0,067	0,140
-189,417	800,000	0,042	0,126
-188,402	216,080	-0,139	0,158
-187,387	138,025	-0,090	-0,084
-186,373	313,285	0,022	0,029
-185,358	-200,000	0,006	0,087
-184,344	48,008	0,056	-0,037
-183,329	-11,795	-0,178	0,083
-182,315	-200,000	-0,006	0,052
-181,300	467,244	0,020	-0,031
-180,285	12,227	-0,059	0,032
-179,271	-142,760	-0,090	-0,006
-178,256	203,435	0,064	-0,071
-177,242	11,047	0,129	-0,070
-176,227	337,080	-0,066	-0,091
-175,212	-200,000	0,001	-0,050
-174,198	146,642	-0,037	0,035
-173,183	-105,329	0,030	-0,005
-172,169	-42,761	-0,050	-0,018
-171,154	647,937	-0,038	0,070
-170,139	9,170	-0,075	-0,040
-169,125	800,000	0,030	-0,080
-168,110	800,000	0,051	0,130
-167,096	-24,591	-0,035	-0,015
-166,081	109,070	-0,041	-0,035
-165,066	-128,214	-0,079	-0,008
-164,052	-17,866	-0,003	-0,001
-163,037	-169,241	-0,064	-0,002
-162,023	373,021	-0,035	0,051
-161,008	523,056	0,036	0,061
-159,993	324,859	-0,062	0,084
-158,979	-145,833	-0,074	0,005
-157,964	-74,540	-0,195	0,050
-156,950	-191,646	-0,076	0,001
-155,935	800,000	-0,027	0,073
-154,920	-200,000	0,004	0,055
-153,906	447,492	-0,030	-0,048
-152,891	84,272	0,045	0,035
-151,877	236,480	-0,118	-0,139
-150,862	-200,000	-0,004	0,097
-149,847	-200,000	-0,016	0,124
-148,833	402,189	-0,055	-0,082
-147,818	13,757	0,111	-0,061
-146,804	165,532	0,012	0,012
-145,789	17,849	0,128	0,072
-144,775	79,633	0,078	0,059
-143,760	-200,000	0,070	-0,237
-142,745	-54,865	0,071	-0,022
-141,731	-200,000	0,000	0,030
-140,716	-73,265	-0,099	0,025
-139,702	-128,923	-0,072	-0,007
-138,687	800,000	-0,012	-0,024
-137,672	800,000	-0,040	0,082
-136,658	27,783	0,050	-0,030
-135,643	271,638	-0,109	-0,136
-134,629	38,189	0,066	-0,041
-133,614	800,000	0,081	0,166
-132,599	-200,000	-0,004	0,048
-131,585	195,153	0,039	-0,042
-130,570	-138,197	-0,152	-0,012
-129,556	61,698	-0,043	0,031
-128,541	-200,000	-0,003	-0,012
-127,526	201,518	0,048	0,052
-126,512	530,404	0,046	0,077
-125,497	85,633	-0,026	-0,021
-124,483	-150,179	0,074	0,004
-123,468	414,577	-0,043	0,065
-122,453	800,000	-0,036	0,098
-121,439	-200,000	-0,001	-0,084
-120,424	142,940	-0,040	-0,038
-119,410	80,690	-0,077	-0,059
-118,395	148,684	0,008	-0,008
-117,380	70,370	0,014	0,010
-116,366	-119,168	0,038	-0,005
-115,351	-200,000	0,028	-0,128
-114,337	-4,710	-0,047	-0,023
-113,322	79,490	0,057	-0,044
-112,307	-200,000	0,003	-0,126
-111,293	-200,000	0,015	-0,077
-110,278	-200,000	-0,004	0,054
-109,264	18,884	-0,099	-0,056
-108,249	-200,000	-0,010	0,063
-107,234	16,752	0,023	0,013
-106,220	-83,172	-0,095	0,021
-105,205	-200,000	0,003	0,023
-104,191	-200,000	-0,027	0,099
-103,176	800,000	0,007	-0,015
-102,162	48,662	-0,051	0,034
-101,147	-39,573	0,071	0,026
-100,132	33,090	0,044	0,027
-99,118	54,094	0,022	-0,015
-98,103	-180,326	0,111	0,002
-97,089	20,800	0,049	0,028
-96,074	-111,070	0,158	-0,023
-95,059	800,000	-0,045	-0,103
-94,045	800,000	-0,021	-0,052
-93,030	-199,553	-0,184	0,001
-92,016	160,166	-0,136	-0,134
-91,001	-200,000	0,011	-0,070
-89,986	714,059	0,031	0,059
-88,972	-200,000	0,019	-0,069
-87,957	284,627	-0,090	0,115
-86,943	36,446	0,116	-0,072
-85,928	-49,515	-0,056	0,019
-84,913	-200,000	0,018	-0,083
-83,899	-18,561	-0,071	-0,031
-82,884	194,808	0,080	0,086
-81,870	-200,000	0,047	0,195
-80,855	-107,316	0,078	0,012
-79,840	-101,597	-0,115	0,020
-78,826	283,203	0,081	0,103
-77,811	338,603	-0,075	-0,104
-76,797	-1,028	0,024	-0,012
-75,782	-200,000	0,020	0,107
-74,767	-200,000	-0,037	-0,163
-73,753	800,000	-0,045	-0,094
-72,738	533,446	0,036	0,060
-71,724	-200,000	-0,013	0,061
-70,709	787,143	-0,041	-0,081
-69,694	-39,826	-0,101	-0,037
-68,680	79,967	0,065	0,049
-67,665	-153,898	-0,139	-0,007
-66,651	-152,979	-0,119	-0,006
-65,636	10,686	-0,171	-0,092
-64,622	-149,233	0,035	0,002
-63,607	322,121	0,077	-0,104
-62,592	-161,634	-0,079	-0,003
-61,578	-200,000	0,021	0,082
-60,563	781,254	-0,026	-0,052
-59,549	-14,852	0,101	0,046
-58,534	-33,867	-1,645	-0,638
-57,519	323,088	-1,524	-2,062
-56,505	-200,000	-0,470	-4,539
-55,490	195,488	1,087	1,171
-54,476	800,000	4,798	11,410
-53,461	-200,000	19,324	321,515
-52,446	-200,000	741,928	2335,191
-51,432	572,053	1655,994	2867,242
-50,417	78,051	1670,984	1260,559
-49,403	21,265	1543,880	885,369
-48,388	15,138	1466,472	811,182
-47,373	18,000	1456,815	819,640
-46,359	16,688	1446,521	807,526
-45,344	13,377	1441,779	788,983
-44,330	13,290	1439,895	787,508
-43,315	13,263	1438,306	786,477
-42,300	13,346	1436,423	785,812
-41,286	13,337	1435,193	785,067
-40,271	13,307	1433,873	784,171
-39,257	13,309	1432,540	783,417
-38,242	13,347	1431,352	782,917
-37,227	13,370	1430,274	782,406
-36,213	13,310	1428,856	781,315
-35,198	13,328	1427,601	780,682
-34,184	13,372	1426,707	780,373
-33,169	13,362	1425,429	779,594
-32,154	13,352	1424,342	778,922
-31,140	13,356	1423,179	778,272
-30,125	13,385	1421,878	777,670
-29,111	13,376	1420,758	776,983
-28,096	13,313	1419,637	776,041
-27,082	13,300	1418,757	775,467
-26,067	13,262	1417,626	774,642
-25,052	13,247	1416,623	773,989
-24,038	13,284	1415,290	773,407
-23,023	13,240	1414,368	772,666
-22,009	13,260	1413,394	772,197
-20,994	13,196	1412,539	771,397
-19,979	13,214	1411,733	771,010
-18,965	13,263	1410,638	770,613
-17,950	13,244	1409,653	769,954
-16,936	13,250	1408,974	769,579
-15,921	13,223	1407,701	768,727
-14,906	13,205	1406,730	768,084
-13,892	13,183	1405,890	767,494
-12,877	13,168	1405,058	766,936
-11,863	13,180	1404,066	766,421
-10,848	13,170	1403,387	765,973
-9,833	13,141	1402,447	765,294
-8,819	13,143	1401,441	764,726
-7,804	13,100	1400,748	764,116
-6,790	13,134	1399,371	763,492
-5,775	13,066	1398,690	762,773
-4,760	13,118	1397,612	762,397
-3,746	13,072	1396,656	761,634
-2,731	13,096	1395,919	761,314
-1,717	13,038	1395,019	760,522
-0,702	13,101	1392,977	759,671
0,313	17,002	1309,835	732,381
1,327	33,490	703,077	431,180
2,342	51,772	122,999	82,661
3,356	3,199	16,553	8,491
4,371	2,045	3,227	1,643
5,386	-16,898	0,631	0,281
6,400	800,000	0,124	0,247
7,415	16,379	-0,304	-0,169
8,429	-14,916	-0,378	-0,171
9,444	125,665	-0,238	-0,213
10,459	-79,690	-0,373	-0,088
11,473	64,496	-0,289	-0,206
12,488	111,042	-0,272	-0,231
13,502	-42,658	-0,342	-0,122
14,517	16,441	-0,413	-0,230
15,531	128,677	-0,336	-0,303
16,546	100,175	-0,404	-0,331
17,561	115,169	-0,443	-0,382
18,575	-57,497	-0,190	-0,059
19,590	266,461	-0,155	-0,192
20,604	-121,594	-0,285	-0,033
21,619	237,158	-0,377	-0,442
22,634	61,617	-0,502	-0,352
23,648	130,153	-0,359	-0,325
24,663	210,164	-0,309	-0,343
25,677	50,423	-0,354	-0,236
26,692	294,656	-0,210	-0,272
27,707	40,012	-0,414	-0,262
28,721	-37,991	-0,400	-0,149
29,736	-5,269	-0,371	-0,179
30,750	251,188	-0,326	-0,392
31,765	257,399	-0,371	-0,451
32,780	115,635	-0,384	-0,331
33,794	109,031	-0,340	-0,287
34,809	5,497	-0,401	-0,208
35,823	85,885	-0,359	-0,279
36,838	187,016	-0,309	-0,325
37,853	25,899	-0,504	-0,296
38,867	9,404	-0,346	-0,184
39,882	120,033	-0,410	-0,358
40,896	110,919	-0,330	-0,280
41,911	-28,691	-0,274	-0,111
42,926	127,125	-0,325	-0,291
43,940	93,931	-0,257	-0,205
44,955	197,697	-0,369	-0,398
45,969	25,617	-0,486	-0,284
46,984	169,992	-0,343	-0,345
47,999	232,700	-0,249	-0,289
49,013	23,597	-0,276	-0,159
50,028	-102,460	-0,420	-0,070
51,042	14,782	-0,382	-0,210
52,057	62,761	-0,468	-0,329
53,071	120,777	-0,242	-0,212
54,086	436,800	-0,166	-0,256
55,101	68,948	-0,318	-0,230
56,115	-3,283	-0,294	-0,144
57,130	102,850	-0,336	-0,277
58,144	24,626	-0,330	-0,192
59,159	79,633	-0,453	-0,342
60,174	108,728	-0,372	-0,313
61,188	88,537	-0,416	-0,325
62,203	-54,636	-0,263	-0,083
63,217	95,184	-0,349	-0,279
64,232	-14,768	-0,393	-0,177
65,247	255,226	-0,171	-0,207
66,261	71,375	-0,374	-0,273
67,276	-11,933	-0,373	-0,171
68,290	53,632	-0,415	-0,279
69,305	122,799	-0,175	-0,154
70,320	-12,983	-0,313	-0,143
71,334	68,866	-0,235	-0,169
72,349	-84,284	-0,262	-0,058
73,363	20,287	-0,450	-0,255
74,378	128,193	-0,283	-0,253
75,393	-5,155	-0,302	-0,146
76,407	-50,054	-0,298	-0,099
77,422	165,283	-0,323	-0,320
78,436	155,247	-0,229	-0,222
79,451	89,877	-0,275	-0,216
80,466	33,536	-0,395	-0,241
81,480	69,945	-0,345	-0,249
82,495	69,028	-0,262	-0,189
83,509	16,103	-0,319	-0,176
84,524	15,893	-0,266	-0,147
85,539	800,000	-0,141	-0,283
86,553	-52,137	-0,416	-0,135
87,568	159,708	-0,389	-0,380
88,582	83,653	-0,312	-0,238
89,597	208,635	-0,239	-0,262
90,611	77,631	-0,255	-0,190
91,626	81,278	-0,230	-0,174
92,641	-18,573	-0,234	-0,102
93,655	-11,741	-0,308	-0,141
94,670	-9,722	-0,322	-0,150
95,684	-68,391	-0,394	-0,107
96,699	94,871	-0,305	-0,244
97,714	-45,017	-0,401	-0,139
98,728	-5,028	-0,291	-0,140
99,743	120,539	-0,314	-0,274
100,757	-12,364	-0,324	-0,148
101,772	661,783	-0,160	-0,291
102,787	240,549	-0,365	-0,428
103,801	65,273	-0,266	-0,188
104,816	75,334	-0,349	-0,258
105,830	160,153	-0,247	-0,241
106,845	-94,280	-0,230	0,044
107,860	75,187	-0,245	-0,181
108,874	-67,016	-0,386	-0,106
109,889	54,270	-0,341	-0,229
110,903	-42,361	-0,220	-0,078
111,918	56,133	-0,303	-0,206
112,933	100,203	-0,204	-0,165
113,947	-200,000	-0,057	-0,190
114,962	-65,669	-0,112	-0,031
115,976	89,039	-0,210	-0,164
116,991	133,935	-0,286	-0,260
118,006	32,912	-0,268	-0,162
119,020	293,932	-0,185	-0,237
120,035	-55,199	-0,208	-0,065
121,049	-17,040	-0,270	-0,119
122,064	123,070	-0,322	-0,282
123,079	174,324	-0,179	-0,181
124,093	100,887	-0,287	-0,233
125,108	658,837	-0,170	-0,307
126,122	53,030	-0,263	-0,176
127,137	-24,226	-0,239	-0,099
128,151	-71,231	-0,297	-0,077
129,166	-147,298	-0,286	-0,017
130,181	-2,326	-0,355	-0,174
131,195	55,708	-0,254	-0,172
132,210	57,448	-0,174	-0,119
133,224	39,681	-0,306	-0,192
134,239	151,411	-0,213	-0,203
135,254	280,532	-0,188	-0,236
136,268	58,014	-0,120	-0,082
137,283	-151,375	-0,359	-0,018
138,297	27,367	-0,230	-0,135
139,312	52,756	-0,288	-0,192
140,327	85,612	-0,292	-0,224
141,341	418,265	-0,120	-0,179
142,356	-42,708	-0,237	-0,084
143,370	434,427	-0,129	-0,197
144,385	336,183	-0,198	-0,269
145,400	106,745	-0,175	-0,145
146,414	76,880	-0,255	-0,189
147,429	141,008	-0,224	-0,207
148,443	800,000	-0,078	-0,209
149,458	215,921	-0,091	-0,101
150,473	265,997	-0,180	-0,220
151,487	90,630	-0,268	-0,210
152,502	193,206	-0,231	-0,245
153,516	25,116	-0,367	-0,212
154,531	68,932	-0,217	-0,155
155,546	140,257	-0,227	-0,210
156,560	223,968	-0,220	-0,248
157,575	23,541	-0,216	-0,123
158,589	182,300	-0,251	-0,258
159,604	-75,126	-0,278	-0,069
160,619	13,445	-0,380	-0,205
161,633	197,198	-0,250	-0,266
162,648	105,104	-0,178	-0,146
163,662	145,149	-0,212	-0,198
164,677	50,151	-0,236	-0,155
165,692	-107,987	-0,140	0,021
166,706	290,807	-0,197	-0,250
167,721	50,748	-0,263	-0,173
168,735	354,840	-0,204	-0,284
169,750	46,501	-0,220	-0,142
170,764	-36,853	-0,210	-0,078
171,779	800,000	-0,117	-0,230
172,794	-27,418	-0,273	-0,110
173,808	-23,834	-0,191	-0,079
174,823	56,917	-0,196	-0,133
175,837	800,000	-0,110	-0,282
176,852	222,046	-0,236	-0,265
177,867	-200,000	-0,006	0,020
178,881	101,412	-0,138	-0,112
179,896	43,409	-0,085	-0,054
180,910	36,118	-0,172	-0,105
181,925	150,120	-0,169	-0,159
182,940	-19,232	-0,346	-0,149
183,954	3,304	-0,207	-0,104
184,969	86,980	-0,218	-0,168
185,983	321,187	-0,049	-0,065
186,998	213,787	-0,187	-0,206
188,013	40,334	-0,283	-0,177
189,027	-42,345	-0,273	-0,096
190,042	56,142	-0,319	-0,215
191,056	133,237	-0,170	-0,153
192,071	-175,960	-0,294	-0,005
193,086	453,826	-0,120	-0,186
194,100	777,651	-0,110	-0,211
195,115	62,311	-0,169	-0,117
196,129	386,215	-0,160	-0,231
197,144	150,982	-0,313	-0,296
198,159	800,000	-0,162	-0,351
199,173	24,857	-0,206	-0,119
200,188	-7,781	-0,116	-0,054
201,202	-137,953	-0,244	-0,019
202,217	6,068	-0,226	-0,116
203,232	299,905	-0,179	-0,230
204,246	-71,413	-0,342	-0,088
205,261	-112,623	-0,108	0,015
206,275	157,636	-0,095	-0,092
207,290	264,414	-0,186	-0,225
208,304	-39,588	-0,242	-0,088
209,319	122,342	-0,215	-0,187
210,334	-28,005	-0,314	-0,125
211,348	-69,288	-0,206	-0,055
212,363	-46,633	-0,200	-0,068
213,377	50,987	-0,208	-0,137
214,392	174,321	-0,249	-0,250
215,407	36,382	-0,215	-0,131
216,421	113,762	-0,183	-0,155
217,436	77,716	-0,199	-0,147
218,450	62,330	-0,166	-0,115
219,465	194,892	-0,218	-0,230
220,480	800,000	-0,105	-0,257
221,494	222,111	-0,107	-0,120
222,509	-99,601	-0,188	-0,033
223,523	-200,000	-0,015	-0,173
224,538	-11,107	-0,229	-0,104
225,553	158,506	-0,145	-0,140
226,567	146,515	-0,081	-0,076
227,582	800,000	-0,071	-0,146
228,596	79,457	-0,153	-0,113
229,611	-106,923	-0,185	-0,028
230,626	-142,889	-0,122	0,008
231,640	69,986	-0,171	-0,122
232,655	81,680	-0,266	-0,200
233,669	3,697	-0,260	-0,131
234,684	120,305	-0,158	-0,136
235,699	-1,469	-0,187	-0,091
236,713	-18,854	-0,158	-0,068
237,728	40,075	-0,165	-0,103
238,742	213,200	-0,191	-0,209
239,757	800,000	-0,168	-0,351
240,772	-12,109	-0,265	-0,120
241,786	132,633	-0,147	-0,131
242,801	89,334	-0,132	-0,102
243,815	-200,000	0,006	-0,084
244,830	330,733	-0,081	-0,108
245,844	95,988	-0,105	-0,083
246,859	21,776	-0,160	-0,090
247,874	352,705	-0,198	-0,273
248,888	291,210	-0,155	-0,196
249,903	800,000	-0,075	-0,195
250,917	8,753	-0,095	-0,050
251,932	299,755	-0,157	-0,201
252,947	-5,961	-0,290	-0,137
253,961	-200,000	-0,061	-0,252
254,976	84,407	-0,199	-0,150
255,990	91,156	-0,340	-0,264
257,005	-200,000	-0,065	-0,221
258,020	312,163	0,051	-0,066
259,034	-2,042	-0,194	-0,094
260,049	-24,133	-0,161	-0,066
261,063	-13,546	-0,170	-0,076
262,078	14,246	-0,328	-0,176
263,093	37,405	-0,314	-0,192
264,107	-21,703	-0,207	-0,087
265,122	800,000	-0,084	-0,220
266,136	681,541	-0,129	-0,233
267,151	-52,472	-0,208	-0,066
268,166	268,082	-0,138	-0,168
269,180	128,383	-0,151	-0,133
270,195	118,808	-0,161	-0,137
271,209	59,984	-0,132	-0,090
272,224	324,287	-0,099	-0,131
273,239	1,956	-0,192	-0,095
274,253	60,982	-0,186	-0,128
275,268	274,839	-0,170	-0,208
276,282	61,690	-0,363	-0,249
277,297	153,068	-0,207	-0,196
278,312	-36,115	-0,220	-0,082
279,326	29,686	-0,138	-0,081
280,341	800,000	-0,114	-0,232
281,355	-88,787	-0,179	-0,036
282,370	-16,087	-0,324	-0,142
283,384	0,322	-0,347	-0,170
284,399	352,228	-0,213	-0,292
285,414	800,000	-0,097	-0,195
286,428	378,506	-0,105	-0,149
287,443	-13,315	-0,017	0,007
288,457	356,456	-0,164	-0,226
289,472	250,823	-0,112	-0,131
290,487	542,848	-0,182	-0,300
291,501	-33,308	-0,359	-0,136
292,516	-96,295	-0,303	-0,055
293,530	-200,000	0,021	-0,073
294,545	-25,696	-0,137	-0,055
295,560	-18,479	-0,099	-0,043
296,574	-121,351	-0,183	0,021
297,589	193,009	-0,052	0,054
298,603	94,306	-0,118	-0,092
299,618	-66,729	-0,100	0,027
300,633	-72,577	-0,279	-0,070
301,647	379,625	-0,111	-0,157
302,662	-81,417	-0,138	0,031
303,676	-26,758	-0,222	-0,089
304,691	266,867	-0,121	-0,145
305,706	800,000	-0,137	-0,286
306,720	-200,000	-0,055	-0,258
307,735	193,948	-0,138	-0,144
308,749	295,613	0,032	0,040
309,764	800,000	-0,051	-0,108
310,779	-133,521	-0,129	-0,011
311,793	-157,907	-0,175	0,007
312,808	800,000	-0,090	-0,200
313,822	-200,000	-0,030	-0,105
314,837	273,510	-0,120	-0,146
315,852	-84,047	-0,071	0,015
316,866	-64,208	-0,167	-0,046
317,881	265,241	-0,082	-0,098
318,895	-88,431	-0,090	-0,018
319,910	-17,160	-0,130	-0,056
320,925	106,912	-0,230	-0,188
321,939	-200,000	-0,013	-0,145
322,954	800,000	-0,030	-0,079
323,968	2,179	-0,159	-0,079
324,983	405,309	-0,084	-0,122
325,997	186,052	-0,109	-0,112
327,012	296,758	-0,204	-0,257
328,027	48,823	-0,136	-0,088
329,041	-200,000	-0,058	-0,248
330,056	-200,000	-0,065	-0,226
331,070	102,611	-0,075	-0,060
332,085	367,165	-0,128	-0,178
333,100	-19,944	-0,252	-0,106
334,114	-43,694	-0,177	-0,061
335,129	-28,107	-0,231	-0,091
336,143	784,058	-0,071	-0,135
337,158	32,959	-0,109	-0,065
338,173	-154,412	-0,065	-0,003
339,187	-63,838	-0,113	-0,031
340,202	800,000	-0,024	-0,063
341,216	344,258	-0,137	-0,185
342,231	106,149	-0,181	-0,147
343,246	-171,388	-0,221	-0,005
344,260	-88,624	-0,073	0,015
345,275	-103,830	-0,172	-0,027
346,289	-103,307	-0,148	-0,024
347,304	-200,000	-0,023	-0,150
348,319	30,959	-0,190	-0,111
349,333	161,583	-0,134	-0,129
350,348	-150,468	-0,110	0,006
351,362	50,535	-0,129	-0,084
352,377	-200,000	-0,009	-0,147
353,392	284,079	-0,083	-0,103
354,406	136,357	-0,136	-0,122
355,421	210,330	1312,946	1415,713
356,435	161,917	1473,457	1416,217
