DTS Sentinel unit serial number:	SN410029Multiplexer serial number:	ORYXHardware model number:	OX2-SRSoftware version number:	ORYX F/W v4,00 Oryx Data Collector v3.7.2.0data status	okinstallation	B3 Nyhavnadifferential loss correction	single-endedforward channel	channel 1reverse channel	N/Adate	2023/12/03time	23:07:30forward acquisition time	300,00reverse acquisition time	0,00gamma	499,1914k internal	0,3201k external	0,3201temperature offset calibration	1,0000default loss term (dB/km)	0,3820temperature slope calibration	1,0000multiplexer offset coefficient	1,0000multiplexer slope coefficient	1,0000fibre end	0,00T internal ref (°C)	13,01T ext. ref 1 (°C)	-2,31T ext. ref 2 (°C)	-2,33length (m)	temperature (°C)	Stokes	anti-Stokes-744,400	571,053	-0,142	-0,252
-743,385	-200,000	-0,015	0,261
-742,371	464,199	-0,114	-0,185
-741,356	-200,000	0,048	0,306
-740,342	260,525	-0,156	-0,196
-739,327	-200,000	-0,019	0,327
-738,312	66,622	-0,222	-0,164
-737,298	-200,000	-0,016	0,118
-736,283	197,267	-0,188	-0,209
-735,269	-200,000	0,090	0,352
-734,254	135,057	-0,242	-0,228
-733,239	-50,703	-0,221	0,075
-732,225	-200,000	0,019	-0,273
-731,210	-106,945	0,221	-0,035
-730,196	-121,840	-0,226	0,027
-729,181	499,976	0,116	0,195
-728,167	-200,000	0,006	-0,059
-727,152	327,066	0,054	-0,076
-726,137	357,849	0,021	-0,031
-725,123	800,000	-0,031	-0,099
-724,108	-102,469	-0,137	-0,024
-723,094	800,000	0,027	-0,066
-722,079	23,352	-0,175	-0,104
-721,064	-141,118	0,057	0,004
-720,050	-133,589	0,040	-0,004
-719,035	76,132	0,067	-0,051
-718,021	-200,000	0,021	-0,082
-717,006	0,174	-0,115	-0,060
-715,991	208,128	-0,122	-0,139
-714,977	800,000	0,053	-0,110
-713,962	-200,000	0,001	-0,060
-712,948	136,777	0,030	-0,029
-711,933	-200,000	0,003	0,039
-710,918	-200,000	0,002	-0,120
-709,904	-42,967	-0,044	-0,016
-708,889	87,940	-0,041	0,033
-707,875	-200,000	-0,012	0,149
-706,860	91,431	-0,017	0,014
-705,845	-105,630	-0,154	0,025
-704,831	-200,000	-0,002	0,098
-703,816	342,412	-0,083	0,118
-702,802	224,977	0,031	-0,036
-701,787	-21,089	-0,144	0,064
-700,772	-5,592	-0,042	0,021
-699,758	345,756	-0,051	-0,073
-698,743	307,935	0,097	-0,131
-697,729	-200,000	0,010	0,047
-696,714	143,293	0,095	-0,092
-695,699	49,514	-0,053	0,036
-694,685	142,267	0,023	0,022
-693,670	691,540	0,056	-0,107
-692,656	101,931	0,102	-0,087
-691,641	-200,000	-0,010	0,144
-690,627	662,207	0,043	0,081
-689,612	-200,000	-0,010	0,050
-688,597	-200,000	0,003	0,019
-687,583	34,156	0,063	-0,040
-686,568	-123,081	-0,051	-0,006
-685,554	800,000	-0,032	-0,065
-684,539	222,745	0,029	0,033
-683,524	-37,078	-0,033	0,013
-682,510	261,384	-0,030	-0,037
-681,495	292,207	-0,051	0,067
-680,481	255,737	0,044	0,055
-679,466	82,005	-0,083	-0,065
-678,451	-30,634	0,065	0,026
-677,437	138,045	-0,031	0,029
-676,422	-123,188	0,036	0,004
-675,408	-200,000	-0,018	0,088
-674,393	-200,000	0,038	0,169
-673,378	420,953	0,070	-0,109
-672,364	-148,829	-0,167	-0,010
-671,349	-107,483	-0,055	-0,009
-670,335	264,244	0,028	0,035
-669,320	-115,414	-0,108	0,015
-668,305	-200,000	0,017	0,058
-667,291	800,000	0,045	0,120
-666,276	-200,000	0,002	0,095
-665,262	800,000	0,026	0,056
-664,247	360,580	-0,075	0,109
-663,232	-111,921	0,039	-0,006
-662,218	90,194	0,149	0,121
-661,203	169,588	-0,048	0,049
-660,189	800,000	0,026	-0,057
-659,174	-200,000	-0,006	0,054
-658,159	261,552	-0,088	0,111
-657,145	-200,000	-0,008	0,067
-656,130	-200,000	-0,009	0,042
-655,116	-109,437	-0,055	0,008
-654,101	-19,489	0,059	0,027
-653,086	779,033	0,003	0,005
-652,072	-14,974	0,134	-0,062
-651,057	-200,000	0,003	-0,043
-650,043	-169,533	0,066	0,002
-649,028	-200,000	-0,073	0,266
-648,014	25,753	0,139	0,084
-646,999	276,509	0,075	0,096
-645,984	435,727	-0,026	0,041
-644,970	488,493	-0,067	-0,111
-643,955	656,515	-0,029	0,054
-642,941	-90,494	-0,032	0,007
-641,926	217,817	0,016	0,018
-640,911	-46,445	0,024	-0,008
-639,897	165,449	-0,071	0,073
-638,882	510,213	0,040	-0,067
-637,868	-62,196	-0,055	0,017
-636,853	323,568	-0,026	0,035
-635,838	-187,538	-0,101	0,001
-634,824	-200,000	0,018	-0,165
-633,809	800,000	0,055	0,165
-632,795	205,865	0,022	0,025
-631,780	-200,000	-0,171	-0,001
-630,765	47,337	0,086	0,058
-629,751	-130,862	-0,008	0,001
-628,736	360,527	-0,043	-0,063
-627,722	42,229	0,026	-0,017
-626,707	-38,387	-0,069	0,026
-625,692	800,000	0,045	0,113
-624,678	-105,268	-0,168	0,028
-623,663	222,577	0,031	-0,037
-622,649	-40,507	-0,084	-0,031
-621,634	434,223	-0,074	0,117
-620,619	800,000	0,052	0,110
-619,605	141,202	-0,072	-0,069
-618,590	130,506	0,042	-0,039
-617,576	109,467	-0,020	-0,017
-616,561	99,280	-0,068	0,057
-615,546	87,569	-0,157	0,126
-614,532	-70,392	-0,068	0,018
-613,517	800,000	-0,025	0,056
-612,503	800,000	0,052	-0,135
-611,488	-46,563	-0,086	0,030
-610,474	-88,210	0,057	0,012
-609,459	8,183	-0,165	-0,089
-608,444	-165,958	-0,106	0,003
-607,430	776,647	0,018	0,035
-606,415	-200,000	0,003	0,021
-605,401	390,875	-0,029	0,043
-604,386	170,426	-0,027	0,028
-603,371	363,681	-0,022	0,032
-602,357	92,759	-0,165	-0,135
-601,342	223,962	0,066	-0,077
-600,328	34,329	0,084	0,053
-599,313	-200,000	-0,039	0,153
-598,298	-56,774	0,050	0,016
-597,284	253,125	-0,016	-0,020
-596,269	-200,000	-0,016	-0,094
-595,255	-200,000	-0,009	0,074
-594,240	155,428	-0,078	0,077
-593,225	97,634	-0,011	0,009
-592,211	-59,372	-0,057	-0,018
-591,196	53,223	-0,048	-0,033
-590,182	800,000	-0,061	0,140
-589,167	122,913	0,018	0,016
-588,152	-26,061	-0,081	0,034
-587,138	-59,504	-0,089	-0,028
-586,123	-10,964	-0,108	-0,051
-585,109	58,611	-0,087	-0,062
-584,094	-200,000	0,006	-0,045
-583,079	715,820	-0,087	0,167
-582,065	-56,673	0,144	0,046
-581,050	-200,000	0,034	0,125
-580,036	800,000	-0,041	0,114
-579,021	800,000	0,054	-0,113
-578,006	224,320	0,017	-0,020
-576,992	168,479	-0,035	-0,036
-575,977	61,024	0,076	0,054
-574,963	125,587	-0,049	-0,045
-573,948	86,976	0,075	0,059
-572,934	24,143	-0,022	-0,013
-571,919	84,322	-0,088	-0,070
-570,904	800,000	0,009	-0,019
-569,890	236,415	-0,106	-0,127
-568,875	-29,176	-0,119	0,049
-567,861	125,055	-0,037	0,034
-566,846	-72,150	0,157	0,042
-565,831	260,671	-0,040	-0,050
-564,817	47,210	-0,046	-0,031
-563,802	-128,767	-0,164	0,016
-562,788	197,099	-0,040	-0,044
-561,773	-77,080	0,083	-0,021
-560,758	800,000	0,024	0,075
-559,744	-80,870	0,039	0,009
-558,729	-200,000	0,004	0,057
-557,715	26,973	-0,103	0,062
-556,700	185,421	-0,037	0,040
-555,685	-170,919	0,024	-0,001
-554,671	271,948	0,052	0,066
-553,656	-77,917	0,169	0,042
-552,642	754,678	0,033	-0,064
-551,627	411,124	0,090	0,138
-550,612	161,443	-0,055	0,055
-549,598	-200,000	-0,032	-0,184
-548,583	25,260	-0,102	0,061
-547,569	-200,000	0,019	-0,124
-546,554	-94,423	0,075	0,015
-545,539	-89,882	0,074	-0,015
-544,525	139,675	-0,031	-0,030
-543,510	-42,450	0,052	-0,019
-542,496	282,723	0,039	-0,051
-541,481	-200,000	-0,020	-0,097
-540,466	287,376	-0,035	-0,045
-539,452	-56,948	0,084	0,027
-538,437	200,883	0,077	0,085
-537,423	-200,000	0,044	-0,144
-536,408	249,172	-0,040	-0,049
-535,393	-60,642	0,116	0,035
-534,379	-200,000	-0,011	-0,051
-533,364	38,716	-0,118	-0,076
-532,350	800,000	-0,038	-0,096
-531,335	-200,000	-0,016	0,074
-530,321	-27,947	0,216	0,090
-529,306	-86,448	-0,148	-0,033
-528,291	104,452	-0,084	-0,071
-527,277	22,243	-0,094	-0,055
-526,262	-161,589	-0,087	-0,003
-525,248	-71,289	0,221	0,059
-524,233	264,928	-0,051	-0,064
-523,218	110,948	0,123	0,107
-522,204	-200,000	0,018	-0,110
-521,189	715,758	-0,019	-0,036
-520,175	-200,000	0,035	-0,163
-519,160	-200,000	-0,024	-0,124
-518,145	24,601	-0,048	0,029
-517,131	800,000	0,019	0,053
-516,116	-61,822	0,094	0,028
-515,102	-80,165	0,092	0,022
-514,087	-35,951	-0,074	0,029
-513,072	98,531	-0,018	0,015
-512,058	-200,000	0,009	0,036
-511,043	-180,776	-0,055	-0,001
-510,029	15,069	0,143	-0,081
-509,014	155,862	-0,092	-0,091
-507,999	-30,295	-0,091	0,037
-506,985	202,122	-0,035	-0,039
-505,970	252,722	0,021	-0,026
-504,956	800,000	0,017	-0,037
-503,941	-200,000	-0,014	-0,087
-502,926	336,568	0,072	0,101
-501,912	327,678	0,048	-0,067
-500,897	-200,000	-0,011	-0,091
-499,883	800,000	0,028	-0,079
-498,868	-200,000	-0,017	-0,202
-497,853	209,874	-0,021	-0,024
-496,839	0,135	0,118	0,060
-495,824	-52,591	0,033	0,011
-494,810	-149,268	0,120	0,007
-493,795	-166,228	-0,162	0,005
-492,781	127,990	0,028	0,026
-491,766	-200,000	-0,028	-0,096
-490,751	40,381	-0,040	0,026
-489,737	-19,642	-0,131	-0,058
-488,722	-200,000	0,025	0,082
-487,708	800,000	0,049	0,153
-486,693	800,000	-0,036	0,112
-485,678	-19,342	-0,152	-0,068
-484,664	14,858	-0,125	-0,070
-483,649	391,908	-0,018	0,028
-482,635	800,000	0,033	0,097
-481,620	-200,000	0,018	0,095
-480,605	90,113	-0,069	-0,055
-479,591	-25,963	0,111	0,047
-478,576	-144,690	0,102	0,007
-477,562	800,000	-0,033	-0,088
-476,547	3,457	0,076	0,039
-475,532	751,873	-0,039	0,076
-474,518	-104,074	0,149	0,025
-473,503	61,953	0,086	0,062
-472,489	-109,497	-0,177	-0,027
-471,474	-200,000	0,046	-0,172
-470,459	208,514	-0,106	0,120
-469,445	-200,000	-0,013	0,077
-468,430	-200,000	0,000	-0,006
-467,416	-172,169	0,123	0,003
-466,401	800,000	-0,047	0,099
-465,386	-200,000	0,005	0,047
-464,372	-200,000	0,017	0,154
-463,357	-103,299	-0,115	0,019
-462,343	46,480	-0,085	-0,057
-461,328	617,832	-0,023	-0,042
-460,313	-127,167	0,046	-0,005
-459,299	800,000	0,038	0,106
-458,284	-131,748	0,167	0,016
-457,270	-126,525	-0,031	0,003
-456,255	74,583	0,100	-0,076
-455,241	-95,573	0,046	-0,009
-454,226	317,264	-0,053	-0,072
-453,211	-200,000	-0,020	0,104
-452,197	183,328	-0,100	-0,106
-451,182	326,521	0,071	-0,098
-450,168	-200,000	-0,027	0,180
-449,153	-176,174	0,113	-0,002
-448,138	320,379	-0,074	-0,101
-447,124	800,000	0,057	0,166
-446,109	342,148	0,005	0,007
-445,095	-39,750	-0,064	0,024
-444,080	252,961	0,064	-0,078
-443,065	-104,737	0,168	-0,028
-442,051	800,000	-0,060	-0,190
-441,036	-71,674	0,073	0,020
-440,022	-200,000	0,002	-0,113
-439,007	800,000	-0,039	-0,092
-437,992	-75,299	0,055	0,014
-436,978	-62,854	0,130	0,038
-435,963	-200,000	-0,011	0,067
-434,949	68,768	-0,019	-0,014
-433,934	-32,288	-0,022	0,009
-432,919	800,000	0,037	-0,104
-431,905	367,237	-0,025	-0,037
-430,890	-200,000	0,005	0,105
-429,876	-8,099	-0,079	-0,038
-428,861	800,000	-0,024	0,063
-427,846	-60,422	-0,229	0,069
-426,832	68,046	0,042	-0,031
-425,817	141,289	-0,071	-0,067
-424,803	125,483	0,045	-0,041
-423,788	-200,000	0,023	0,116
-422,773	0,392	0,148	0,076
-421,759	-117,468	0,174	-0,022
-420,744	-114,169	-0,039	0,005
-419,730	-200,000	0,020	-0,142
-418,715	-200,000	-0,014	-0,067
-417,701	44,373	-0,072	0,048
-416,686	-106,869	0,155	0,024
-415,671	231,680	-0,066	0,078
-414,657	282,052	0,055	0,071
-413,642	-200,000	0,023	0,113
-412,628	-15,297	-0,105	0,048
-411,613	-10,405	-0,130	0,062
-410,598	-200,000	0,004	0,054
-409,584	1,647	-0,052	0,027
-408,569	-162,949	0,073	-0,003
-407,555	-123,735	0,140	0,016
-406,540	-85,715	0,014	0,003
-405,525	5,159	-0,094	-0,049
-404,511	-200,000	0,014	-0,071
-403,496	501,944	-0,037	0,062
-402,482	-200,000	-0,031	-0,102
-401,467	-4,930	0,058	-0,028
-400,452	-37,537	0,092	0,035
-399,438	32,105	-0,023	-0,015
-398,423	-200,000	0,002	0,024
-397,409	-200,000	0,015	-0,125
-396,394	-200,000	-0,001	-0,008
-395,379	-42,790	-0,052	-0,019
-394,365	-200,000	-0,010	0,036
-393,350	144,697	0,042	0,040
-392,336	212,504	0,123	0,139
-391,321	226,188	0,048	-0,055
-390,306	146,287	-0,031	0,030
-389,292	-31,255	0,088	-0,035
-388,277	-95,772	-0,083	-0,016
-387,263	-200,000	0,048	0,160
-386,248	369,628	-0,027	0,039
-385,233	-200,000	0,015	0,114
-384,219	-102,589	-0,110	0,019
-383,204	-54,797	0,045	0,015
-382,190	-110,734	0,053	-0,008
-381,175	97,762	0,077	0,063
-380,160	-2,244	0,110	0,055
-379,146	-133,938	0,229	0,020
-378,131	-25,106	-0,077	-0,033
-377,117	-200,000	0,003	-0,107
-376,102	202,210	0,064	-0,071
-375,088	-200,000	0,038	-0,127
-374,073	376,127	-0,037	-0,055
-373,058	257,696	-0,012	0,014
-372,044	-142,358	0,047	-0,003
-371,029	320,572	-0,061	0,083
-370,015	-200,000	-0,014	0,111
-369,000	-93,934	-0,028	0,005
-367,985	-127,916	0,161	-0,016
-366,971	-93,604	-0,173	0,034
-365,956	66,357	0,078	0,057
-364,942	-36,713	0,019	0,007
-363,927	-200,000	0,004	-0,020
-362,912	-129,865	0,053	-0,005
-361,898	-70,741	0,137	-0,037
-360,883	800,000	-0,088	-0,179
-359,869	-53,900	0,077	-0,025
-358,854	-200,000	-0,012	0,085
-357,839	648,129	0,078	0,144
-356,825	-96,063	-0,063	-0,012
-355,810	-44,235	0,106	-0,038
-354,796	220,539	-0,086	-0,099
-353,781	55,356	0,018	-0,012
-352,766	31,338	-0,135	-0,083
-351,752	800,000	-0,046	-0,122
-350,737	41,631	-0,034	0,022
-349,723	-10,269	-0,087	0,041
-348,708	675,254	-0,064	0,120
-347,693	-200,000	-0,007	0,024
-346,679	430,228	-0,043	0,067
-345,664	-200,000	-0,021	-0,081
-344,650	-200,000	-0,020	0,149
-343,635	-74,648	-0,088	0,023
-342,620	21,641	0,223	0,130
-341,606	297,346	-0,068	0,089
-340,591	-200,000	0,001	-0,057
-339,577	-142,453	0,141	0,010
-338,562	-200,000	-0,016	-0,171
-337,548	222,753	-0,058	-0,067
-336,533	51,267	0,068	0,046
-335,518	618,937	0,030	-0,054
-334,504	30,663	0,071	-0,043
-333,489	-59,527	-0,065	0,020
-332,475	-200,000	-0,008	0,028
-331,460	800,000	-0,051	0,150
-330,445	295,995	-0,090	-0,118
-329,431	511,994	0,014	0,023
-328,416	-151,668	-0,049	-0,003
-327,402	16,483	-0,173	0,097
-326,387	-128,088	-0,113	0,011
-325,372	-200,000	-0,028	0,115
-324,358	-200,000	0,013	-0,099
-323,343	800,000	-0,061	-0,146
-322,329	77,367	0,037	-0,028
-321,314	17,058	-0,090	0,051
-320,299	232,095	0,027	-0,032
-319,285	136,150	-0,048	0,044
-318,270	402,761	-0,054	-0,082
-317,256	-90,467	0,168	0,034
-316,241	-200,000	-0,017	0,066
-315,226	63,104	0,111	-0,079
-314,212	796,527	0,017	0,035
-313,197	79,980	-0,077	0,059
-312,183	800,000	0,033	0,079
-311,168	-101,419	0,021	0,004
-310,153	109,531	0,120	-0,103
-309,139	421,589	0,057	-0,087
-308,124	397,717	-0,075	-0,113
-307,110	-14,643	-0,100	0,046
-306,095	-148,302	0,062	-0,004
-305,080	-103,330	0,057	0,010
-304,066	-200,000	-0,003	-0,066
-303,051	800,000	0,026	-0,081
-302,037	36,786	0,109	0,069
-301,022	286,782	-0,064	0,082
-300,008	155,100	0,191	0,188
-298,993	743,515	0,038	-0,072
-297,978	800,000	0,007	-0,015
-296,964	146,161	-0,104	-0,100
-295,949	37,780	-0,107	0,068
-294,935	164,738	0,050	0,050
-293,920	545,998	0,043	-0,073
-292,905	109,938	-0,086	-0,074
-291,891	-105,226	-0,036	0,006
-290,876	433,790	-0,022	0,034
-289,862	-200,000	0,005	-0,082
-288,847	-200,000	0,004	0,013
-287,832	66,337	-0,042	0,030
-286,818	800,000	0,015	-0,030
-285,803	-105,292	0,140	-0,022
-284,789	800,000	-0,046	0,101
-283,774	800,000	0,047	-0,100
-282,759	63,421	-0,047	0,033
-281,745	-200,000	-0,004	-0,058
-280,730	800,000	-0,082	-0,181
-279,716	535,114	0,018	-0,030
-278,701	545,542	0,082	-0,140
-277,686	800,000	0,026	0,079
-276,672	-64,440	0,023	0,007
-275,657	160,828	0,097	0,097
-274,643	237,053	-0,096	-0,114
-273,628	-80,486	-0,093	-0,022
-272,613	-154,256	-0,088	0,004
-271,599	-1,591	0,032	0,016
-270,584	322,128	0,063	-0,086
-269,570	-200,000	-0,042	0,172
-268,555	66,554	0,066	-0,048
-267,540	260,177	-0,038	-0,047
-266,526	45,703	-0,143	-0,094
-265,511	-200,000	0,011	-0,036
-264,497	-98,156	-0,084	-0,015
-263,482	-200,000	0,010	0,063
-262,467	561,209	-0,052	0,090
-261,453	-200,000	-0,002	0,044
-260,438	734,208	-0,042	-0,082
-259,424	-200,000	-0,009	-0,128
-258,409	78,438	-0,087	-0,066
-257,395	377,704	0,022	0,032
-256,380	-25,300	0,143	0,060
-255,365	800,000	-0,032	0,074
-254,351	-200,000	0,019	0,126
-253,336	800,000	0,027	0,070
-252,322	315,132	-0,048	-0,065
-251,307	-200,000	0,006	-0,072
-250,292	-147,333	-0,049	-0,003
-249,278	347,734	0,123	0,173
-248,263	-113,676	0,063	0,009
-247,249	22,274	0,091	0,053
-246,234	-54,859	0,061	-0,020
-245,219	419,202	-0,124	-0,190
-244,205	-200,000	0,017	-0,106
-243,190	58,530	-0,053	-0,037
-242,176	-200,000	0,011	-0,073
-241,161	36,479	0,101	0,064
-240,146	-200,000	0,019	0,117
-239,132	141,020	-0,063	-0,060
-238,117	-200,000	0,005	-0,082
-237,103	-105,468	-0,090	-0,015
-236,088	171,108	-0,050	-0,051
-235,073	-200,000	0,005	-0,031
-234,059	372,128	-0,073	0,106
-233,044	541,085	-0,044	0,076
-232,030	-62,558	0,066	0,020
-231,015	-200,000	0,001	-0,017
-230,000	-200,000	-0,018	-0,159
-228,986	-200,000	0,001	-0,033
-227,971	178,328	0,054	-0,056
-226,957	-200,000	0,019	0,106
-225,942	28,774	-0,051	0,031
-224,927	-139,684	0,082	0,006
-223,913	-135,128	0,055	0,005
-222,898	-12,944	-0,054	-0,025
-221,884	-200,000	0,007	0,048
-220,869	800,000	-0,039	-0,077
-219,855	-86,032	0,089	-0,019
-218,840	800,000	-0,012	-0,031
-217,825	-200,000	0,016	-0,153
-216,811	-200,000	-0,021	-0,102
-215,796	84,707	0,051	0,040
-214,782	438,893	0,102	-0,158
-213,767	131,387	0,092	0,084
-212,752	117,266	0,050	-0,044
-211,738	-200,000	0,015	0,105
-210,723	236,780	-0,021	-0,024
-209,709	341,921	0,067	0,094
-208,694	-200,000	0,004	-0,046
-207,679	71,117	-0,122	-0,090
-206,665	423,295	-0,052	-0,080
-205,650	-106,418	0,243	0,038
-204,636	-114,994	0,131	-0,018
-203,621	83,564	0,107	0,083
-202,606	765,861	0,058	-0,112
-201,592	243,345	0,085	-0,101
-200,577	-77,939	0,219	-0,053
-199,563	99,074	-0,083	-0,068
-198,548	498,463	-0,086	0,142
-197,533	800,000	-0,031	0,080
-196,519	-36,716	0,125	-0,047
-195,504	-200,000	-0,003	-0,010
-194,490	-200,000	-0,001	0,055
-193,475	567,627	-0,111	-0,192
-192,460	800,000	0,031	-0,087
-191,446	-200,000	0,043	0,000
-190,431	342,759	0,082	0,115
-189,417	37,466	0,034	-0,021
-188,402	-30,577	-0,137	0,055
-187,387	40,905	0,210	-0,134
-186,373	-140,545	-0,083	0,006
-185,358	-131,894	-0,059	0,005
-184,344	269,057	0,130	0,163
-183,329	78,221	0,044	0,033
-182,315	-200,000	0,050	0,215
-181,300	800,000	0,022	0,057
-180,285	225,373	0,029	-0,033
-179,271	16,809	-0,021	0,012
-178,256	-200,000	-0,016	-0,055
-177,242	-12,963	0,226	-0,104
-176,227	800,000	-0,024	0,072
-175,212	-200,000	-0,010	0,085
-174,198	-6,200	0,033	-0,016
-173,183	408,677	-0,103	-0,156
-172,169	41,679	-0,038	0,025
-171,154	-41,853	0,101	0,037
-170,139	36,480	-0,118	0,074
-169,125	-200,000	0,012	0,051
-168,110	-62,816	-0,013	0,004
-167,096	120,820	-0,082	0,072
-166,081	800,000	-0,037	0,086
-165,066	-101,750	-0,216	-0,037
-164,052	-38,655	0,034	-0,013
-163,037	-116,558	0,049	0,006
-162,023	-145,851	-0,117	-0,007
-161,008	0,223	-0,030	0,015
-159,993	800,000	-0,031	-0,069
-158,979	-200,000	0,022	-0,225
-157,964	800,000	-0,010	-0,028
-156,950	67,620	-0,076	-0,055
-155,935	-155,703	-0,067	0,003
-154,920	118,660	0,026	-0,023
-153,906	90,339	0,156	0,124
-152,891	-43,357	-0,064	0,023
-151,877	800,000	-0,042	-0,130
-150,862	-200,000	-0,004	-0,045
-149,847	800,000	-0,062	-0,154
-148,833	-195,385	-0,048	-0,000
-147,818	-31,514	0,114	-0,045
-146,804	-58,964	-0,042	-0,013
-145,789	72,637	-0,028	0,021
-144,775	89,651	-0,152	0,121
-143,760	-53,644	0,073	-0,023
-142,745	235,936	0,041	-0,049
-141,731	-200,000	-0,007	0,065
-140,716	129,547	0,037	0,034
-139,702	190,777	0,036	0,039
-138,687	-200,000	-0,019	0,099
-137,672	-74,854	-0,071	-0,018
-136,658	-112,014	-0,109	0,015
-135,643	-200,000	0,009	-0,052
-134,629	250,860	0,036	-0,044
-133,614	-200,000	0,008	0,067
-132,599	112,989	0,046	-0,040
-131,585	-200,000	-0,006	-0,056
-130,570	452,781	0,038	-0,060
-129,556	-133,818	-0,008	-0,001
-128,541	-54,628	-0,050	-0,016
-127,526	-200,000	-0,021	-0,068
-126,512	354,102	-0,076	-0,108
-125,497	463,021	0,041	0,065
-124,483	-200,000	0,042	0,138
-123,468	800,000	-0,018	-0,052
-122,453	-156,095	-0,046	0,002
-121,439	67,882	-0,105	-0,076
-120,424	77,044	-0,103	-0,078
-119,410	53,428	0,059	0,040
-118,395	180,087	-0,053	0,055
-117,380	-127,426	0,097	0,010
-116,366	-200,000	0,006	0,040
-115,351	-50,732	-0,159	0,053
-114,337	122,578	-0,062	0,055
-113,322	-116,497	-0,043	-0,006
-112,307	-96,502	-0,117	0,022
-111,293	800,000	-0,040	0,080
-110,278	-111,884	-0,087	0,012
-109,264	60,912	-0,096	0,068
-108,249	-86,714	-0,094	0,020
-107,234	3,595	-0,172	-0,088
-106,220	749,005	0,073	-0,140
-105,205	35,934	0,030	0,019
-104,191	-104,295	0,090	-0,015
-103,176	108,254	0,074	-0,062
-102,162	-99,667	-0,130	-0,023
-101,147	-115,549	-0,104	-0,014
-100,132	230,827	0,064	-0,075
-99,118	-35,282	-0,075	0,029
-98,103	368,248	0,090	0,130
-97,089	226,291	0,005	0,006
-96,074	122,132	0,077	0,068
-95,059	800,000	0,019	-0,058
-94,045	382,023	0,035	-0,051
-93,030	348,044	0,021	-0,030
-92,016	-200,000	0,014	0,128
-91,001	-85,307	-0,106	-0,023
-89,986	297,843	0,132	0,172
-88,972	63,044	-0,115	0,081
-87,957	88,136	-0,114	0,090
-86,943	-200,000	0,034	-0,157
-85,928	537,068	-0,054	0,091
-84,913	204,856	-0,047	0,052
-83,899	-200,000	0,004	0,105
-82,884	64,212	-0,053	0,037
-81,870	548,260	0,053	0,091
-80,855	201,757	0,015	-0,016
-79,840	-200,000	-0,004	0,017
-78,826	-200,000	0,009	-0,095
-77,811	-72,836	-0,060	-0,015
-76,797	304,443	-0,029	0,038
-75,782	800,000	-0,047	0,110
-74,767	4,480	-0,059	0,031
-73,753	-6,262	-0,101	0,049
-72,738	401,340	-0,035	-0,052
-71,724	58,904	0,110	-0,077
-70,709	-200,000	0,007	-0,041
-69,694	-200,000	-0,017	-0,111
-68,680	-91,949	0,145	0,029
-67,665	-48,155	0,147	0,050
-66,651	-69,964	0,198	-0,053
-65,636	713,780	-0,022	-0,042
-64,622	-80,276	0,029	-0,007
-63,607	-200,000	-0,004	0,082
-62,592	800,000	0,011	0,035
-61,578	28,254	-0,030	0,018
-60,563	3,502	-0,051	0,026
-59,549	800,000	0,057	0,164
-58,534	-6,474	-1,602	-0,770
-57,519	451,804	-1,368	-2,148
-56,505	-200,000	-0,506	-4,619
-55,490	350,940	0,901	1,266
-54,476	800,000	4,978	11,280
-53,461	-200,000	19,601	323,779
-52,446	-200,000	744,210	2334,039
-51,432	568,303	1656,974	2861,241
-50,417	77,614	1670,867	1258,173
-49,403	20,954	1544,319	883,984
-48,388	14,853	1467,079	810,081
-47,373	18,051	1457,129	820,020
-46,359	16,559	1446,900	807,071
-45,344	13,120	1442,174	787,923
-44,330	13,032	1440,397	786,503
-43,315	13,041	1438,620	785,541
-42,300	13,022	1436,931	784,496
-41,286	13,102	1435,426	784,028
-40,271	13,037	1434,270	783,053
-39,257	13,024	1432,961	782,248
-38,242	13,053	1431,849	781,747
-37,227	13,097	1430,459	781,166
-36,213	13,107	1428,993	780,385
-35,198	13,106	1427,887	779,744
-34,184	13,144	1426,978	779,394
-33,169	13,096	1425,760	778,474
-32,154	13,137	1424,662	778,038
-31,140	13,139	1423,377	777,311
-30,125	13,162	1422,240	776,768
-29,111	13,119	1421,100	775,915
-28,096	13,082	1420,129	775,178
-27,082	13,044	1419,033	774,367
-26,067	13,054	1417,763	773,691
-25,052	13,040	1416,873	773,108
-24,038	13,048	1415,732	772,493
-23,023	13,048	1414,665	771,882
-22,009	13,025	1413,775	771,257
-20,994	12,984	1412,963	770,590
-19,979	12,986	1411,970	770,030
-18,965	13,009	1410,947	769,546
-17,950	12,957	1410,166	768,847
-16,936	12,966	1409,313	768,396
-15,921	12,941	1408,125	767,599
-14,906	12,986	1407,149	767,247
-13,892	12,981	1406,151	766,650
-12,877	12,952	1405,418	766,084
-11,863	12,914	1404,738	765,505
-10,848	12,922	1403,646	764,918
-9,833	12,875	1402,902	764,260
-8,819	12,832	1401,993	763,537
-7,804	12,852	1401,100	763,110
-6,790	12,836	1400,203	762,517
-5,775	12,843	1399,064	761,902
-4,760	12,841	1397,995	761,278
-3,746	12,831	1396,950	760,636
-2,731	12,835	1396,112	760,164
-1,717	12,774	1395,492	759,514
-0,702	12,816	1393,453	758,567
0,313	16,725	1309,349	730,865
1,327	33,034	701,930	429,412
2,342	50,852	122,751	82,131
3,356	1,960	16,611	8,451
4,371	4,227	3,225	1,665
5,386	6,869	0,686	0,360
6,400	-200,000	0,000	0,393
7,415	52,965	-0,182	-0,123
8,429	247,691	-0,117	-0,141
9,444	47,098	-0,329	-0,216
10,459	31,681	-0,247	-0,150
11,473	-168,534	-0,324	-0,009
12,488	-74,213	-0,270	-0,069
13,502	-105,296	-0,325	-0,052
14,517	-200,000	-0,052	-0,224
15,531	119,865	-0,334	-0,293
16,546	-14,944	-0,319	-0,144
17,561	-35,791	-0,406	-0,155
18,575	-31,006	-0,170	-0,067
19,590	311,192	-0,208	-0,277
20,604	-54,286	-0,247	-0,079
21,619	-24,228	-0,526	-0,221
22,634	-4,311	-0,538	-0,262
23,648	7,403	-0,399	-0,210
24,663	63,104	-0,389	-0,274
25,677	110,483	-0,278	-0,236
26,692	-14,297	-0,309	-0,140
27,707	161,456	-0,332	-0,329
28,721	78,952	-0,350	-0,264
29,736	52,167	-0,367	-0,246
30,750	71,842	-0,409	-0,300
31,765	264,509	-0,289	-0,356
32,780	117,212	-0,352	-0,305
33,794	11,029	-0,327	-0,176
34,809	91,626	-0,303	-0,240
35,823	-45,951	-0,377	-0,130
36,838	106,276	-0,345	-0,288
37,853	132,526	-0,368	-0,334
38,867	163,601	-0,376	-0,373
39,882	8,302	-0,286	-0,151
40,896	-62,798	-0,361	-0,105
41,911	376,005	-0,228	-0,329
42,926	80,022	-0,340	-0,257
43,940	124,564	-0,359	-0,318
44,955	21,695	-0,406	-0,232
45,969	268,320	-0,244	-0,302
46,984	63,013	-0,450	-0,317
47,999	3,956	-0,355	-0,182
49,013	791,015	-0,178	-0,346
50,028	209,214	-0,274	-0,303
51,042	108,651	-0,320	-0,269
52,057	41,387	-0,270	-0,172
53,071	274,158	-0,313	-0,391
54,086	48,364	-0,331	-0,218
55,101	-27,480	-0,438	-0,178
56,115	37,976	-0,391	-0,244
57,130	57,261	-0,335	-0,230
58,144	170,606	-0,279	-0,282
59,159	32,730	-0,442	-0,268
60,174	77,346	-0,414	-0,310
61,188	-18,132	-0,373	-0,164
62,203	112,589	-0,302	-0,258
63,217	69,986	-0,250	-0,181
64,232	-6,906	-0,415	-0,198
65,247	136,977	-0,344	-0,316
66,261	245,718	-0,290	-0,344
67,276	-23,328	-0,362	-0,152
68,290	54,413	-0,400	-0,270
69,305	-65,384	-0,284	-0,080
70,320	548,205	-0,123	-0,208
71,334	-130,533	-0,308	-0,029
72,349	-71,107	-0,455	-0,119
73,363	99,523	-0,392	-0,319
74,378	43,885	-0,265	-0,170
75,393	227,673	-0,270	-0,309
76,407	-124,123	-0,255	-0,028
77,422	310,910	-0,198	-0,261
78,436	213,758	-0,198	-0,220
79,451	331,849	-0,167	-0,227
80,466	11,963	-0,384	-0,207
81,480	113,102	-0,291	-0,248
82,495	-18,679	-0,220	-0,096
83,509	56,959	-0,371	-0,253
84,524	93,108	-0,268	-0,213
85,539	27,948	-0,247	-0,146
86,553	-70,621	-0,264	-0,069
87,568	120,466	-0,234	-0,204
88,582	28,489	-0,370	-0,219
89,597	-27,538	-0,290	-0,118
90,611	-83,696	-0,198	-0,044
91,626	10,725	-0,330	-0,176
92,641	79,506	-0,276	-0,208
93,655	14,129	-0,223	-0,121
94,670	6,229	-0,190	-0,099
95,684	47,137	-0,252	-0,164
96,699	169,894	-0,347	-0,348
97,714	30,340	-0,196	-0,117
98,728	-60,618	-0,104	-0,031
99,743	45,129	-0,188	-0,121
100,757	53,277	-0,348	-0,234
101,772	525,795	-0,099	-0,165
102,787	-14,516	-0,319	-0,143
103,801	24,339	-0,393	-0,227
104,816	311,795	-0,173	-0,228
105,830	101,018	-0,202	-0,165
106,845	74,665	-0,093	-0,068
107,860	32,784	-0,273	-0,165
108,874	137,165	-0,254	-0,233
109,889	89,199	-0,290	-0,226
110,903	114,799	-0,194	-0,166
111,918	-5,869	-0,252	-0,121
112,933	113,883	-0,222	-0,189
113,947	11,279	-0,275	-0,147
114,962	-7,127	-0,271	-0,128
115,976	-56,555	-0,324	-0,100
116,991	171,865	-0,342	-0,344
118,006	800,000	-0,105	-0,256
119,020	205,357	-0,184	-0,201
120,035	15,257	-0,288	-0,158
121,049	425,831	-0,136	-0,206
122,064	-12,840	-0,110	-0,050
123,079	-73,219	-0,352	-0,090
124,093	199,136	-0,231	-0,248
125,108	-10,032	-0,375	-0,174
126,122	367,206	-0,115	-0,162
127,137	48,706	-0,328	-0,215
128,151	-104,084	-0,202	-0,033
129,166	57,555	-0,169	-0,116
130,181	-2,710	-0,228	-0,111
131,195	94,924	-0,178	-0,142
132,210	217,171	-0,262	-0,292
133,224	65,106	-0,327	-0,231
134,239	235,221	-0,161	-0,187
135,254	-107,457	-0,192	-0,029
136,268	800,000	-0,080	-0,191
137,283	81,464	-0,269	-0,203
138,297	28,274	-0,262	-0,154
139,312	-21,735	-0,270	-0,114
140,327	284,170	-0,202	-0,255
141,341	-60,601	-0,238	-0,070
142,356	-116,225	-0,244	-0,031
143,370	87,096	-0,105	-0,081
144,385	-54,596	-0,263	-0,083
145,400	82,737	-0,099	-0,075
146,414	800,000	-0,182	-0,358
147,429	122,887	-0,167	-0,146
148,443	127,547	-0,335	-0,297
149,458	92,340	-0,255	-0,200
150,473	19,816	-0,245	-0,137
151,487	11,535	-0,287	-0,153
152,502	1,633	-0,217	-0,109
153,516	69,730	-0,234	-0,168
154,531	377,441	-0,241	-0,345
155,546	-18,008	-0,178	-0,078
156,560	-16,966	-0,267	-0,117
157,575	-75,152	-0,235	-0,058
158,589	171,447	-0,158	-0,158
159,604	23,763	-0,207	-0,118
160,619	131,701	-0,223	-0,200
161,633	-32,213	-0,253	-0,098
162,648	-181,842	-0,296	0,004
163,662	169,815	-0,118	-0,118
164,677	-180,293	-0,245	-0,003
165,692	101,833	-0,180	-0,146
166,706	-37,412	-0,322	-0,119
167,721	179,440	-0,182	-0,186
168,735	409,301	-0,239	-0,354
169,750	316,525	-0,194	-0,256
170,764	-52,920	-0,282	-0,090
171,779	-132,869	-0,169	-0,015
172,794	-129,156	-0,288	-0,028
173,808	183,768	-0,211	-0,218
174,823	-75,159	-0,285	-0,070
175,837	212,802	-0,225	-0,248
176,852	-46,121	-0,254	-0,087
177,867	76,115	-0,227	-0,167
178,881	588,151	-0,103	-0,177
179,896	-31,109	-0,167	-0,065
180,910	20,686	-0,227	-0,127
181,925	51,957	-0,187	-0,124
182,940	-118,818	-0,259	-0,031
183,954	205,454	-0,275	-0,298
184,969	-39,109	-0,221	-0,080
185,983	-44,347	-0,154	-0,053
186,998	87,355	-0,218	-0,168
188,013	-133,034	-0,274	-0,024
189,027	19,922	-0,374	-0,209
190,042	197,842	-0,321	-0,342
191,056	234,582	-0,115	-0,132
192,071	435,344	-0,088	-0,133
193,086	457,586	-0,102	-0,158
194,100	194,571	-0,186	-0,196
195,115	57,892	-0,249	-0,169
196,129	185,356	-0,173	-0,179
197,144	-23,787	-0,213	-0,088
198,159	171,459	-0,151	-0,151
199,173	144,675	-0,066	-0,061
200,188	33,539	-0,253	-0,152
201,202	77,760	-0,116	-0,086
202,217	-113,543	-0,172	-0,023
203,232	96,492	-0,235	-0,187
204,246	152,263	-0,209	-0,198
205,261	205,368	-0,221	-0,239
206,275	96,963	-0,040	-0,032
207,290	313,441	-0,119	-0,156
208,304	800,000	-0,108	-0,262
209,319	589,609	-0,134	-0,230
210,334	-44,640	-0,149	-0,052
211,348	127,593	-0,231	-0,204
212,363	-42,669	-0,116	0,041
213,377	415,189	-0,084	-0,124
214,392	-63,617	-0,203	-0,058
215,407	355,157	-0,174	-0,241
216,421	-74,407	-0,168	-0,042
217,436	800,000	-0,086	-0,258
218,450	332,068	-0,166	-0,223
219,465	142,964	-0,154	-0,142
220,480	794,127	-0,121	-0,232
221,494	800,000	-0,115	-0,223
222,509	17,664	-0,285	-0,157
223,523	7,561	-0,289	-0,150
224,538	323,016	-0,145	-0,192
225,553	37,046	-0,095	-0,058
226,567	171,061	-0,190	-0,190
227,582	47,066	-0,169	-0,109
228,596	136,658	-0,190	-0,172
229,611	-22,179	-0,068	-0,029
230,626	-130,187	-0,237	-0,022
231,640	78,633	-0,203	-0,150
232,655	436,543	-0,131	-0,199
233,669	187,999	-0,205	-0,213
234,684	13,388	-0,162	-0,087
235,699	-130,424	-0,285	0,026
236,713	-92,755	-0,118	-0,023
237,728	118,550	-0,137	-0,117
238,742	-69,241	-0,291	-0,077
239,757	800,000	-0,095	-0,205
240,772	-200,000	-0,046	-0,223
241,786	23,563	-0,158	-0,090
242,801	85,337	-0,137	-0,104
243,815	-39,984	-0,153	-0,055
244,830	38,882	-0,119	-0,073
245,844	-57,313	-0,286	-0,087
246,859	800,000	-0,078	-0,179
247,874	129,412	-0,072	-0,063
248,888	-200,000	-0,019	-0,150
249,903	800,000	-0,085	-0,210
250,917	18,781	-0,179	-0,099
251,932	3,599	-0,189	-0,095
252,947	255,644	-0,081	-0,096
253,961	240,320	-0,232	-0,268
254,976	31,980	-0,229	-0,136
255,990	245,317	-0,117	-0,136
257,005	-99,114	-0,186	-0,032
258,020	-100,160	-0,121	-0,021
259,034	-57,663	-0,117	-0,035
260,049	-152,597	-0,190	0,009
261,063	218,814	-0,134	-0,148
262,078	193,114	-0,158	-0,165
263,093	203,303	-0,121	-0,130
264,107	-38,606	-0,151	-0,055
265,122	-200,000	-0,043	-0,190
266,136	-41,102	-0,073	-0,026
267,151	195,167	-0,095	-0,100
268,166	-200,000	-0,072	-0,228
269,180	-18,014	-0,174	-0,075
270,195	312,777	-0,192	-0,250
271,209	-48,196	-0,212	-0,070
272,224	648,666	-0,142	-0,252
273,239	-200,000	-0,037	-0,114
274,253	800,000	-0,078	-0,153
275,268	-26,914	-0,166	-0,067
276,282	-19,355	-0,257	-0,110
277,297	258,322	-0,095	-0,114
278,312	-121,388	-0,243	-0,028
279,326	323,627	-0,125	-0,165
280,341	219,710	-0,055	-0,060
281,355	800,000	-0,080	-0,204
282,370	96,083	-0,122	-0,096
283,384	283,230	-0,172	-0,213
284,399	-76,705	-0,186	-0,045
285,414	-200,000	-0,011	-0,125
286,428	81,243	-0,123	-0,092
287,443	-23,967	-0,089	-0,036
288,457	-85,672	-0,202	-0,043
289,472	712,469	-0,076	-0,140
290,487	-14,700	-0,191	-0,084
291,501	59,982	-0,282	-0,192
292,516	800,000	-0,108	-0,206
293,530	800,000	-0,078	-0,182
294,545	800,000	-0,075	-0,192
295,560	-9,428	-0,187	-0,086
296,574	195,242	-0,101	-0,106
297,589	227,091	-0,241	-0,270
298,603	602,413	-0,186	-0,320
299,618	-37,257	-0,154	-0,057
300,633	0,998	-0,181	-0,089
301,647	800,000	-0,042	-0,095
302,662	-30,560	-0,150	-0,058
303,676	-71,677	-0,089	-0,023
304,691	11,928	-0,139	-0,073
305,706	105,872	-0,093	-0,076
306,720	75,659	-0,168	-0,122
307,735	78,853	-0,144	-0,106
308,749	800,000	-0,121	-0,305
309,764	-200,000	-0,033	-0,119
310,779	90,227	-0,093	-0,072
311,793	-9,747	-0,206	-0,094
312,808	265,075	-0,064	-0,077
313,822	257,518	-0,146	-0,173
314,837	-181,145	-0,140	-0,002
315,852	-23,659	-0,162	-0,066
316,866	-100,703	-0,168	0,028
317,881	-200,000	-0,045	-0,193
318,895	241,329	-0,106	-0,122
319,910	-76,513	-0,205	-0,049
320,925	73,835	-0,238	-0,171
321,939	14,457	-0,138	-0,074
322,954	715,068	-0,097	-0,178
323,968	-23,456	-0,049	-0,020
324,983	-63,006	-0,138	0,039
325,997	116,142	-0,109	-0,092
327,012	193,921	-0,133	-0,139
328,027	152,300	-0,123	-0,116
329,041	-124,655	-0,191	0,020
330,056	-48,101	-0,107	-0,035
331,070	62,311	-0,041	0,028
332,085	-70,405	-0,081	-0,021
333,100	-200,000	0,025	-0,100
334,114	111,209	-0,212	-0,176
335,129	-18,996	-0,178	-0,076
336,143	110,517	-0,114	-0,094
337,158	-75,737	-0,201	0,049
338,173	800,000	-0,062	-0,149
339,187	-4,078	-0,150	0,071
340,202	239,358	-0,115	-0,132
341,216	57,060	-0,139	-0,093
342,231	94,204	-0,170	-0,132
343,246	800,000	-0,045	-0,091
344,260	630,212	-0,051	-0,089
345,275	705,564	-0,077	-0,140
346,289	590,190	-0,039	-0,066
347,304	23,148	-0,197	-0,111
348,319	-200,000	-0,029	-0,210
349,333	-17,490	-0,092	-0,040
350,348	-200,000	-0,053	-0,198
351,362	-151,496	-0,042	-0,002
352,377	-39,333	-0,051	0,018
353,392	-41,128	-0,163	-0,057
354,406	-79,494	-0,112	0,026
355,421	208,114	1313,520	1409,537
356,435	160,117	1474,095	1410,016
