DTS Sentinel unit serial number:	SN410029Multiplexer serial number:	ORYXHardware model number:	OX2-SRSoftware version number:	ORYX F/W v4,00 Oryx Data Collector v3.7.2.0data status	okinstallation	B3 Nyhavnadifferential loss correction	single-endedforward channel	channel 1reverse channel	N/Adate	2023/12/02time	06:17:30forward acquisition time	300,00reverse acquisition time	0,00gamma	499,1914k internal	0,3194k external	0,3194temperature offset calibration	1,0000default loss term (dB/km)	0,3820temperature slope calibration	1,0000multiplexer offset coefficient	1,0000multiplexer slope coefficient	1,0000fibre end	0,00T internal ref (°C)	16,01T ext. ref 1 (°C)	0,75T ext. ref 2 (°C)	0,74length (m)	temperature (°C)	Stokes	anti-Stokes-744,400	64,085	-0,240	-0,176
-743,385	-200,000	0,093	0,401
-742,371	285,556	-0,219	-0,288
-741,356	-200,000	-0,036	0,224
-740,342	425,552	-0,168	-0,264
-739,327	-200,000	-0,022	0,352
-738,312	76,696	-0,281	-0,217
-737,298	-200,000	0,060	0,375
-736,283	-71,371	-0,210	-0,057
-735,269	800,000	0,187	0,482
-734,254	34,754	-0,397	-0,252
-733,239	34,193	-0,137	0,087
-732,225	619,467	-0,167	-0,307
-731,210	-55,238	0,085	-0,028
-730,196	800,000	-0,074	-0,189
-729,181	-81,115	-0,095	-0,023
-728,167	-56,175	0,051	-0,016
-727,152	69,757	0,055	0,041
-726,137	-200,000	-0,001	-0,177
-725,123	-52,071	-0,120	-0,040
-724,108	800,000	0,035	-0,087
-723,094	-200,000	-0,006	0,032
-722,079	191,996	-0,093	0,102
-721,064	23,338	0,137	0,082
-720,050	-70,045	-0,144	0,040
-719,035	-200,000	-0,000	0,038
-718,021	800,000	-0,030	-0,062
-717,006	18,127	0,026	0,015
-715,991	82,525	-0,117	-0,092
-714,977	50,386	-0,030	-0,020
-713,962	83,292	-0,082	-0,065
-712,948	96,407	0,043	-0,036
-711,933	-200,000	-0,002	0,120
-710,918	-139,503	-0,044	0,003
-709,904	-200,000	0,027	-0,095
-708,889	641,082	-0,066	-0,124
-707,875	-23,343	-0,004	-0,002
-706,860	92,110	-0,037	-0,031
-705,845	731,587	-0,042	0,081
-704,831	-99,285	0,084	0,015
-703,816	-200,000	0,019	-0,135
-702,802	-200,000	-0,014	-0,109
-701,787	153,349	-0,149	-0,148
-700,772	32,245	-0,027	0,017
-699,758	-200,000	0,033	0,117
-698,743	162,346	0,058	0,059
-697,729	126,931	0,020	0,019
-696,714	-200,000	-0,023	-0,082
-695,699	-90,417	0,126	0,026
-694,685	-118,512	-0,085	-0,011
-693,670	-200,000	0,013	-0,077
-692,656	-113,304	-0,064	-0,009
-691,641	134,887	0,094	0,088
-690,627	-200,000	-0,027	-0,097
-689,612	341,083	0,022	-0,031
-688,597	800,000	-0,064	-0,165
-687,583	-200,000	-0,016	-0,151
-686,568	-4,191	-0,058	0,029
-685,554	72,679	0,058	0,044
-684,539	-200,000	-0,022	0,170
-683,524	164,294	0,161	0,165
-682,510	-200,000	-0,058	-0,195
-681,495	-104,269	-0,141	-0,023
-680,481	800,000	0,031	-0,081
-679,466	-16,672	-0,144	-0,066
-678,451	33,419	-0,054	0,034
-677,437	800,000	-0,015	-0,040
-676,422	-19,817	0,129	-0,058
-675,408	63,096	-0,133	0,097
-674,393	-200,000	-0,014	-0,174
-673,378	144,243	-0,137	-0,133
-672,364	-200,000	0,001	0,091
-671,349	120,065	-0,095	-0,086
-670,335	800,000	-0,075	-0,170
-669,320	28,569	-0,070	-0,043
-668,305	145,527	-0,072	-0,070
-667,291	-83,526	-0,162	-0,037
-666,276	800,000	0,038	-0,100
-665,262	800,000	-0,034	-0,076
-664,247	800,000	0,020	0,046
-663,232	-200,000	-0,024	0,079
-662,218	495,337	0,047	0,078
-661,203	-180,053	-0,061	-0,001
-660,189	-200,000	0,041	0,144
-659,174	-77,518	-0,052	-0,013
-658,159	654,584	0,038	0,071
-657,145	284,725	-0,054	-0,071
-656,130	-200,000	-0,004	0,042
-655,116	-200,000	-0,013	0,071
-654,101	800,000	-0,045	0,103
-653,086	-134,087	0,115	-0,010
-652,072	87,883	-0,088	0,070
-651,057	-143,412	0,021	-0,001
-650,043	-114,933	-0,060	0,008
-649,028	-79,113	-0,014	0,004
-648,014	66,922	-0,057	0,042
-646,999	-200,000	0,009	-0,070
-645,984	388,379	0,012	-0,017
-644,970	-200,000	0,009	0,067
-643,955	-74,133	-0,047	0,012
-642,941	129,039	-0,024	-0,022
-641,926	-32,711	-0,017	0,007
-640,911	287,436	0,064	0,084
-639,897	1,479	0,099	0,052
-638,882	626,179	-0,043	-0,078
-637,868	677,831	-0,001	0,002
-636,853	-85,731	-0,149	-0,033
-635,838	374,178	-0,041	-0,060
-634,824	800,000	-0,016	0,040
-633,809	-200,000	0,025	-0,179
-632,795	4,272	-0,099	-0,053
-631,780	23,722	0,057	-0,034
-630,765	304,681	0,052	-0,070
-629,751	-200,000	-0,002	-0,011
-628,736	-50,664	-0,115	0,039
-627,722	-200,000	0,016	0,170
-626,707	-48,012	0,054	0,019
-625,692	-177,485	-0,022	-0,000
-624,678	51,811	0,084	-0,058
-623,663	-43,187	0,055	-0,020
-622,649	173,630	0,050	-0,053
-621,634	48,637	-0,120	-0,081
-620,619	-200,000	0,013	-0,049
-619,605	-79,922	0,121	0,029
-618,590	141,166	0,023	0,022
-617,576	283,049	0,071	0,093
-616,561	185,520	0,049	0,052
-615,546	75,821	-0,091	-0,069
-614,532	636,603	-0,022	-0,042
-613,517	-72,876	-0,179	-0,047
-612,503	-200,000	-0,005	0,137
-611,488	-200,000	-0,001	0,086
-610,474	-103,244	0,030	0,005
-609,459	-104,018	0,014	0,002
-608,444	-200,000	-0,020	0,067
-607,430	64,836	-0,171	-0,125
-606,415	-13,413	-0,012	0,005
-605,401	253,207	0,038	0,047
-604,386	256,131	-0,009	0,011
-603,371	26,615	0,065	-0,039
-602,357	-118,905	-0,067	-0,008
-601,342	-200,000	-0,014	-0,106
-600,328	689,303	-0,045	-0,085
-599,313	591,599	-0,072	-0,130
-598,298	800,000	0,064	-0,195
-597,284	216,442	0,011	-0,013
-596,269	-200,000	0,005	-0,064
-595,255	-200,000	-0,005	0,113
-594,240	-72,643	0,145	0,039
-593,225	-8,538	-0,151	-0,073
-592,211	-97,770	-0,092	-0,017
-591,196	-70,443	0,056	0,015
-590,182	800,000	0,032	0,077
-589,167	800,000	-0,063	-0,155
-588,152	-200,000	-0,004	0,080
-587,138	-200,000	0,021	0,099
-586,123	118,539	-0,092	-0,083
-585,109	-33,640	-0,108	0,043
-584,094	800,000	-0,026	-0,056
-583,079	-83,218	-0,036	-0,008
-582,065	389,500	-0,014	-0,021
-581,050	210,358	-0,070	0,079
-580,036	389,892	0,039	0,059
-579,021	512,573	-0,034	0,058
-578,006	331,384	0,031	0,043
-576,992	-32,619	0,112	0,045
-575,977	-200,000	-0,001	-0,057
-574,963	-200,000	-0,015	-0,069
-573,948	-200,000	0,017	0,076
-572,934	-79,524	-0,087	-0,021
-571,919	533,430	0,080	-0,138
-570,904	437,419	-0,099	-0,157
-569,890	387,795	-0,064	-0,096
-568,875	-200,000	-0,012	-0,120
-567,861	-169,594	0,019	0,000
-566,846	-22,740	-0,060	0,026
-565,831	-73,480	0,087	-0,023
-564,817	-142,268	0,070	-0,005
-563,802	439,339	-0,082	-0,131
-562,788	-200,000	-0,019	0,098
-561,773	800,000	0,046	-0,124
-560,758	800,000	-0,036	0,079
-559,744	74,874	0,094	0,072
-558,729	800,000	0,016	0,041
-557,715	63,866	-0,065	-0,047
-556,700	800,000	-0,082	-0,167
-555,685	800,000	-0,011	-0,031
-554,671	-69,508	-0,054	0,015
-553,656	-96,319	0,057	0,011
-552,642	161,577	-0,047	-0,047
-551,627	168,644	-0,036	0,037
-550,612	-119,659	-0,118	-0,015
-549,598	800,000	0,052	-0,157
-548,583	800,000	-0,028	-0,072
-547,569	424,656	-0,059	0,092
-546,554	-146,126	0,054	0,003
-545,539	800,000	-0,031	0,062
-544,525	-200,000	-0,017	-0,069
-543,510	-173,339	0,033	0,001
-542,496	60,222	0,013	-0,009
-541,481	-81,609	0,025	-0,006
-540,466	-79,457	0,140	0,034
-539,452	800,000	0,002	-0,005
-538,437	-88,904	0,136	0,029
-537,423	-200,000	-0,018	-0,104
-536,408	41,014	0,084	0,055
-535,393	-200,000	-0,008	0,040
-534,379	45,868	-0,063	0,042
-533,364	-48,493	0,081	0,028
-532,350	-200,000	0,027	0,098
-531,335	89,867	0,065	-0,052
-530,321	393,224	-0,022	-0,033
-529,306	502,602	-0,043	0,072
-528,291	800,000	-0,027	0,063
-527,277	198,187	-0,076	-0,084
-526,262	800,000	-0,019	0,040
-525,248	800,000	0,043	0,104
-524,233	-200,000	0,003	-0,079
-523,218	0,869	0,076	-0,039
-522,204	-129,244	-0,043	0,004
-521,189	-137,803	0,105	0,008
-520,175	-20,403	-0,071	0,031
-519,160	-56,004	-0,042	0,013
-518,145	-136,325	0,121	0,010
-517,131	181,816	0,077	-0,082
-516,116	800,000	-0,047	0,104
-515,102	-34,438	-0,125	-0,049
-514,087	534,950	-0,042	-0,072
-513,072	-14,305	-0,141	0,065
-512,058	329,193	-0,057	0,079
-511,043	119,593	0,044	0,039
-510,029	114,779	-0,085	0,074
-509,014	-43,017	0,045	-0,017
-507,999	-14,732	-0,058	0,027
-506,985	274,668	-0,096	-0,123
-505,970	637,372	-0,015	-0,028
-504,956	-200,000	0,011	0,041
-503,941	-69,198	0,079	-0,022
-502,926	-118,699	-0,048	-0,006
-501,912	-200,000	-0,028	0,111
-500,897	147,902	-0,102	0,099
-499,883	207,804	-0,062	-0,070
-498,868	-200,000	0,008	-0,104
-497,853	-200,000	0,003	-0,142
-496,839	364,546	-0,057	-0,084
-495,824	-57,945	0,151	0,047
-494,810	23,737	0,149	0,088
-493,795	800,000	0,029	-0,068
-492,781	-112,995	0,080	-0,011
-491,766	800,000	-0,008	-0,023
-490,751	126,275	0,089	-0,081
-489,737	126,856	-0,084	0,077
-488,722	93,666	0,093	0,076
-487,708	49,172	0,087	-0,059
-486,693	-200,000	-0,018	-0,112
-485,678	-160,637	0,053	0,002
-484,664	-200,000	0,006	-0,095
-483,649	-200,000	-0,011	0,107
-482,635	-200,000	-0,014	0,085
-481,620	-200,000	0,043	0,184
-480,605	-200,000	0,004	-0,069
-479,591	726,747	0,063	-0,122
-478,576	-200,000	0,009	-0,209
-477,562	-200,000	0,013	-0,043
-476,547	-200,000	-0,057	-0,266
-475,532	-29,889	0,128	-0,053
-474,518	-70,157	0,076	-0,021
-473,503	-200,000	-0,004	-0,018
-472,489	-61,492	0,117	-0,035
-471,474	331,961	-0,030	-0,041
-470,459	-135,231	-0,060	0,005
-469,445	705,818	0,052	0,099
-468,430	37,186	-0,122	-0,078
-467,416	-68,146	0,012	0,003
-466,401	725,225	-0,017	0,034
-465,386	-120,568	0,051	-0,006
-464,372	-200,000	0,011	0,165
-463,357	-200,000	0,007	-0,089
-462,343	40,791	-0,117	0,076
-461,328	-200,000	0,004	-0,051
-460,313	413,209	0,012	0,019
-459,299	67,743	0,037	-0,027
-458,284	40,352	0,032	-0,021
-457,270	480,662	-0,059	0,097
-456,255	98,763	0,075	0,062
-455,241	-11,030	0,151	-0,072
-454,226	-200,000	-0,035	0,136
-453,211	-200,000	0,017	0,075
-452,197	-24,517	-0,097	0,042
-451,182	-95,470	0,059	0,011
-450,168	154,514	-0,070	-0,069
-449,153	472,542	0,076	-0,123
-448,138	-129,745	-0,190	0,019
-447,124	-62,536	-0,078	0,023
-446,109	766,415	0,047	-0,092
-445,095	415,837	-0,059	0,091
-444,080	800,000	0,039	0,109
-443,065	-200,000	0,016	-0,133
-442,051	-48,816	0,085	-0,029
-441,036	-50,472	-0,166	0,056
-440,022	-49,443	-0,016	-0,005
-439,007	92,575	0,027	0,022
-437,992	-20,549	0,099	-0,043
-436,978	149,276	-0,129	-0,126
-435,963	153,568	0,198	0,196
-434,949	74,081	-0,092	-0,070
-433,934	-103,561	-0,066	-0,011
-432,919	222,869	-0,051	-0,059
-431,905	68,165	-0,067	0,049
-430,890	-120,855	0,068	-0,008
-429,876	-117,831	0,134	-0,017
-428,861	-118,476	0,041	-0,005
-427,846	-13,640	-0,027	-0,013
-426,832	-200,000	-0,012	-0,100
-425,817	-128,442	-0,091	-0,009
-424,803	76,528	0,051	-0,039
-423,788	-200,000	-0,002	0,098
-422,773	156,925	0,068	0,067
-421,759	-200,000	-0,000	0,068
-420,744	-200,000	0,018	0,161
-419,730	-200,000	0,033	0,116
-418,715	331,706	0,106	-0,148
-417,701	-200,000	-0,006	-0,063
-416,686	197,146	0,021	0,023
-415,671	800,000	0,035	0,109
-414,657	-16,798	-0,080	0,036
-413,642	344,499	-0,074	0,105
-412,628	-65,062	-0,123	0,036
-411,613	-200,000	0,004	-0,016
-410,598	-139,140	-0,042	-0,003
-409,584	4,470	0,089	-0,047
-408,569	800,000	-0,022	0,065
-407,555	800,000	-0,035	0,088
-406,540	36,676	-0,048	-0,030
-405,525	484,500	0,038	-0,062
-404,511	310,362	0,062	-0,084
-403,496	-22,727	-0,196	0,085
-402,482	89,689	0,066	-0,053
-401,467	-159,045	0,072	0,003
-400,452	-200,000	0,021	0,099
-399,438	612,041	-0,055	0,099
-398,423	-149,255	0,051	0,003
-397,409	221,890	0,100	-0,116
-396,394	151,460	-0,061	-0,059
-395,379	-200,000	-0,003	0,107
-394,365	800,000	0,014	0,035
-393,350	114,308	0,041	0,036
-392,336	350,029	0,046	-0,065
-391,321	347,259	0,087	-0,123
-390,306	-200,000	0,015	0,069
-389,292	316,622	0,043	-0,059
-388,277	110,523	-0,031	0,027
-387,263	-115,151	0,157	0,021
-386,248	196,883	0,062	0,069
-385,233	703,689	0,031	0,059
-384,219	340,616	-0,022	0,032
-383,204	415,345	-0,045	-0,069
-382,190	800,000	0,041	-0,090
-381,175	800,000	-0,040	-0,081
-380,160	-200,000	-0,041	0,160
-379,146	460,282	-0,023	-0,036
-378,131	800,000	0,051	0,117
-377,117	-85,657	-0,029	0,006
-376,102	70,946	-0,022	-0,017
-375,088	339,618	-0,054	0,075
-374,073	800,000	0,017	0,038
-373,058	65,589	0,094	0,069
-372,044	-65,601	0,125	-0,036
-371,029	-200,000	-0,023	0,109
-370,015	-144,201	0,071	-0,005
-369,000	69,639	-0,070	-0,052
-367,985	171,379	-0,087	0,090
-366,971	-55,859	-0,093	-0,030
-365,956	216,131	0,070	0,080
-364,942	799,138	-0,037	0,074
-363,927	800,000	0,008	0,020
-362,912	30,927	-0,021	-0,013
-361,898	-52,514	0,053	0,017
-360,883	-200,000	0,008	0,033
-359,869	-200,000	-0,017	0,081
-358,854	-1,901	0,079	0,040
-357,839	-200,000	-0,008	0,077
-356,825	-200,000	0,014	0,110
-355,810	-54,615	0,051	0,016
-354,796	60,080	-0,065	0,046
-353,781	51,288	-0,172	-0,117
-352,766	355,298	0,041	0,059
-351,752	60,848	0,047	-0,034
-350,737	201,876	0,061	-0,068
-349,723	137,801	-0,033	-0,031
-348,708	515,627	-0,010	0,016
-347,693	-200,000	0,033	0,152
-346,679	26,561	-0,028	-0,017
-345,664	-34,091	-0,091	-0,036
-344,650	-87,940	0,007	0,001
-343,635	-200,000	0,014	0,209
-342,620	143,413	0,175	-0,168
-341,606	182,053	-0,074	0,078
-340,591	-144,947	-0,061	0,004
-339,577	166,239	0,103	-0,105
-338,562	-120,690	-0,026	0,003
-337,548	75,864	-0,088	-0,067
-336,533	-5,646	0,121	0,059
-335,518	-34,416	0,096	0,037
-334,504	-200,000	0,037	0,128
-333,489	193,189	0,022	0,024
-332,475	800,000	-0,034	-0,085
-331,460	-200,000	-0,002	-0,105
-330,445	-200,000	0,031	-0,141
-329,431	-20,262	-0,074	0,033
-328,416	405,157	0,078	0,118
-327,402	-2,337	-0,056	-0,028
-326,387	-128,805	-0,068	-0,007
-325,372	-19,573	-0,176	-0,078
-324,358	-16,459	0,059	0,027
-323,343	108,381	0,080	0,068
-322,329	453,143	0,021	0,034
-321,314	-25,523	0,102	0,043
-320,299	-200,000	-0,032	0,157
-319,285	503,852	0,077	0,128
-318,270	42,591	-0,136	0,089
-317,256	-172,078	-0,060	-0,001
-316,241	275,076	-0,076	-0,097
-315,226	137,366	0,082	0,076
-314,212	-200,000	0,009	0,047
-313,197	642,749	0,060	-0,110
-312,183	264,429	-0,064	0,080
-311,168	220,506	0,033	0,038
-310,153	173,630	-0,063	-0,065
-309,139	85,505	-0,140	-0,110
-308,124	-2,075	-0,160	0,080
-307,110	-137,991	0,149	0,012
-306,095	-104,676	0,045	0,007
-305,080	0,854	-0,051	0,026
-304,066	-10,059	-0,061	-0,029
-303,051	800,000	-0,032	0,092
-302,037	-200,000	0,016	-0,076
-301,022	348,715	0,041	0,058
-300,008	-200,000	-0,004	-0,031
-298,993	-23,703	0,187	0,080
-297,978	800,000	0,073	0,203
-296,964	800,000	0,044	0,089
-295,949	282,111	-0,135	-0,173
-294,935	-72,519	-0,082	-0,021
-293,920	149,427	0,046	0,045
-292,905	-72,094	0,111	-0,029
-291,891	-200,000	0,039	0,169
-290,876	496,648	-0,056	0,092
-289,862	13,008	-0,022	0,012
-288,847	800,000	-0,050	0,114
-287,832	800,000	0,031	-0,081
-286,818	-71,632	0,018	0,005
-285,803	523,755	0,071	0,120
-284,789	183,292	0,112	0,119
-283,774	800,000	0,017	0,036
-282,759	800,000	-0,063	-0,156
-281,745	800,000	-0,032	0,068
-280,730	93,401	-0,114	-0,092
-279,716	-200,000	0,006	-0,031
-278,701	147,498	-0,053	0,051
-277,686	800,000	-0,040	0,081
-276,672	530,623	0,056	0,096
-275,657	-200,000	0,000	0,013
-274,643	-200,000	0,004	0,089
-273,628	137,473	0,059	0,056
-272,613	-131,652	0,113	0,011
-271,599	-200,000	0,002	-0,098
-270,584	17,605	-0,065	-0,037
-269,570	-73,263	-0,049	-0,013
-268,555	57,681	-0,075	-0,053
-267,540	800,000	0,043	-0,106
-266,526	-117,101	-0,124	0,016
-265,511	-200,000	0,010	-0,148
-264,497	-78,233	-0,043	-0,010
-263,482	-131,599	0,182	0,017
-262,467	160,664	-0,049	-0,049
-261,453	-56,615	0,111	0,035
-260,438	70,330	0,042	-0,031
-259,424	-12,413	-0,033	0,015
-258,409	800,000	-0,025	0,062
-257,395	800,000	0,015	-0,031
-256,380	-96,570	0,140	0,026
-255,365	-200,000	0,010	0,068
-254,351	254,206	0,040	-0,049
-253,336	-64,237	-0,127	-0,037
-252,322	800,000	0,024	-0,067
-251,307	-63,217	0,103	0,030
-250,292	357,387	-0,015	0,022
-249,278	216,336	0,035	-0,040
-248,263	71,564	0,082	0,061
-247,249	160,425	-0,020	-0,020
-246,234	-200,000	-0,016	-0,080
-245,219	-143,380	-0,155	-0,010
-244,205	-105,063	-0,172	0,028
-243,190	800,000	0,013	-0,034
-242,176	257,754	0,045	0,055
-241,161	402,945	0,070	0,105
-240,146	-27,695	0,063	-0,026
-239,132	-200,000	-0,019	-0,086
-238,117	-200,000	0,002	0,019
-237,103	-200,000	-0,003	-0,142
-236,088	-200,000	-0,001	-0,095
-235,073	50,434	-0,031	0,021
-234,059	800,000	-0,023	0,051
-233,044	29,840	-0,041	-0,025
-232,030	-15,232	0,084	-0,038
-231,015	334,113	0,019	-0,026
-230,000	-200,000	-0,005	-0,112
-228,986	282,900	-0,039	0,050
-227,971	218,129	-0,057	-0,065
-226,957	-200,000	0,009	0,084
-225,942	-200,000	0,010	-0,035
-224,927	-31,280	0,171	0,069
-223,913	281,623	-0,040	0,051
-222,898	36,215	-0,048	0,030
-221,884	-200,000	-0,030	-0,154
-220,869	223,462	0,084	-0,097
-219,855	274,376	-0,071	0,089
-218,840	-96,803	0,145	-0,027
-217,825	75,170	0,022	-0,016
-216,811	311,486	0,043	0,058
-215,796	-49,821	-0,118	-0,040
-214,782	800,000	-0,010	0,027
-213,767	64,037	-0,024	-0,017
-212,752	800,000	-0,030	-0,081
-211,738	200,842	0,035	0,038
-210,723	37,407	-0,106	-0,067
-209,709	-19,436	0,027	-0,012
-208,694	640,169	0,064	0,117
-207,679	800,000	0,013	0,040
-206,665	-47,902	0,117	0,040
-205,650	386,390	-0,022	0,032
-204,636	-200,000	0,002	-0,085
-203,621	352,548	0,056	0,079
-202,606	-109,116	-0,070	-0,011
-201,592	-76,878	0,104	-0,026
-200,577	-19,972	-0,058	-0,025
-199,563	800,000	0,029	-0,074
-198,548	-124,142	0,057	-0,006
-197,533	-21,493	0,107	0,046
-196,519	-52,706	-0,109	-0,036
-195,504	26,809	0,059	-0,035
-194,490	177,813	-0,041	-0,043
-193,475	-200,000	0,007	-0,168
-192,460	681,138	0,032	-0,060
-191,446	5,737	0,056	-0,030
-190,431	-47,929	-0,129	0,044
-189,417	60,221	0,079	0,056
-188,402	-115,572	-0,065	0,009
-187,387	-200,000	-0,010	0,194
-186,373	-71,674	-0,168	0,044
-185,358	-142,494	0,057	0,004
-184,344	-200,000	-0,014	-0,129
-183,329	503,041	-0,048	-0,080
-182,315	574,889	0,083	0,146
-181,300	169,387	0,110	-0,112
-180,285	-200,000	0,035	-0,217
-179,271	487,845	-0,041	0,068
-178,256	107,901	0,082	0,070
-177,242	-140,396	0,032	-0,002
-176,227	183,966	-0,051	0,054
-175,212	59,266	0,069	0,048
-174,198	108,683	-0,053	0,045
-173,183	-200,000	0,012	0,095
-172,169	-57,692	-0,158	-0,049
-171,154	800,000	-0,062	-0,130
-170,139	114,874	-0,018	0,016
-169,125	-11,732	-0,055	-0,026
-168,110	152,388	0,056	0,054
-167,096	-27,603	-0,130	0,054
-166,081	-200,000	0,014	-0,107
-165,066	500,727	-0,137	-0,226
-164,052	-99,547	-0,079	-0,014
-163,037	253,855	0,080	0,097
-162,023	-106,338	-0,083	-0,013
-161,008	143,358	0,052	0,050
-159,993	-200,000	0,017	0,097
-158,979	115,905	-0,085	0,074
-157,964	148,135	-0,052	0,050
-156,950	-200,000	0,013	-0,119
-155,935	800,000	0,022	0,047
-154,920	-200,000	0,035	-0,128
-153,906	242,399	0,032	0,038
-152,891	659,361	0,051	-0,094
-151,877	-200,000	-0,001	-0,044
-150,862	-136,535	0,063	-0,005
-149,847	-16,676	-0,095	0,043
-148,833	-151,955	-0,119	0,006
-147,818	-200,000	-0,012	-0,055
-146,804	-66,448	0,115	0,032
-145,789	-76,966	-0,008	-0,002
-144,775	800,000	-0,018	-0,039
-143,760	0,050	-0,199	-0,101
-142,745	54,315	0,111	0,076
-141,731	17,706	-0,088	0,050
-140,716	-117,585	0,091	0,011
-139,702	800,000	0,052	0,135
-138,687	-123,697	-0,007	-0,001
-137,672	142,728	0,052	0,049
-136,658	498,586	0,029	0,047
-135,643	2,942	0,095	0,049
-134,629	-42,968	-0,059	-0,021
-133,614	-200,000	0,024	-0,125
-132,599	501,620	0,050	-0,082
-131,585	218,873	0,037	0,043
-130,570	-98,247	-0,141	-0,026
-129,556	224,910	0,040	0,047
-128,541	-200,000	0,001	0,015
-127,526	2,873	-0,095	0,049
-126,512	-112,335	-0,121	-0,017
-125,497	38,674	0,033	-0,021
-124,483	41,406	-0,008	0,005
-123,468	76,289	-0,147	-0,111
-122,453	35,594	-0,152	-0,095
-121,439	302,424	0,047	-0,063
-120,424	528,449	-0,075	-0,127
-119,410	120,618	0,061	0,054
-118,395	-200,000	0,011	-0,115
-117,380	-200,000	0,013	-0,043
-116,366	-200,000	0,018	-0,085
-115,351	194,690	-0,060	0,065
-114,337	119,397	0,058	-0,051
-113,322	44,180	-0,101	0,066
-112,307	146,725	-0,023	0,022
-111,293	-200,000	0,000	0,031
-110,278	800,000	-0,031	-0,076
-109,264	120,782	0,068	0,060
-108,249	-200,000	0,040	0,153
-107,234	-117,023	-0,079	0,010
-106,220	800,000	0,026	0,069
-105,205	-37,544	0,050	-0,019
-104,191	10,964	-0,088	0,048
-103,176	91,544	0,121	0,097
-102,162	604,802	-0,066	0,117
-101,147	800,000	0,045	0,104
-100,132	125,495	-0,077	0,069
-99,118	-200,000	-0,025	-0,099
-98,103	-2,577	-0,103	-0,051
-97,089	-74,943	-0,086	-0,022
-96,074	-146,506	0,137	0,008
-95,059	-200,000	0,005	0,073
-94,045	-158,025	0,049	0,002
-93,030	127,454	-0,047	0,042
-92,016	100,000	-0,047	-0,038
-91,001	13,407	0,061	-0,033
-89,986	264,036	-0,039	0,049
-88,972	-200,000	-0,016	0,068
-87,957	-123,418	-0,035	-0,004
-86,943	-58,403	-0,017	0,005
-85,928	-112,794	0,093	-0,013
-84,913	254,597	0,099	-0,120
-83,899	414,124	0,056	-0,085
-82,884	-56,649	0,018	0,006
-81,870	-200,000	0,000	0,131
-80,855	122,927	0,043	0,038
-79,840	-200,000	0,009	-0,082
-78,826	373,327	-0,118	-0,170
-77,811	-200,000	-0,027	0,170
-76,797	800,000	-0,050	-0,127
-75,782	800,000	0,021	0,048
-74,767	-200,000	-0,019	-0,087
-73,753	-162,119	0,113	0,004
-72,738	-200,000	0,000	-0,025
-71,724	453,427	-0,169	-0,266
-70,709	73,630	-0,080	0,059
-69,694	374,580	0,040	0,058
-68,680	-14,531	-0,101	0,046
-67,665	188,441	-0,049	0,052
-66,651	601,206	-0,035	-0,062
-65,636	-200,000	0,010	0,062
-64,622	47,825	-0,031	-0,020
-63,607	-94,042	0,104	-0,020
-62,592	800,000	0,024	0,054
-61,578	79,105	-0,120	-0,091
-60,563	-159,332	0,071	-0,003
-59,549	32,566	-0,049	0,030
-58,534	-82,517	-1,443	-0,330
-57,519	300,235	-1,601	-2,101
-56,505	-200,000	-0,458	-4,366
-55,490	115,838	0,990	0,860
-54,476	800,000	4,758	11,149
-53,461	-200,000	17,652	281,839
-52,446	800,000	720,416	2225,809
-51,432	563,900	1635,026	2821,056
-50,417	81,078	1658,410	1269,222
-49,403	23,880	1532,545	894,101
-48,388	17,809	1455,974	820,126
-47,373	18,262	1445,654	816,453
-46,359	17,894	1436,096	809,270
-45,344	16,151	1431,471	798,341
-44,330	16,056	1429,600	796,810
-43,315	16,044	1427,766	795,700
-42,300	16,066	1426,204	794,905
-41,286	16,088	1424,966	794,284
-40,271	16,116	1423,652	793,653
-39,257	16,086	1422,338	792,749
-38,242	16,117	1421,039	792,141
-37,227	16,112	1419,775	791,378
-36,213	16,133	1418,569	790,777
-35,198	16,038	1417,488	789,693
-34,184	16,114	1416,309	789,364
-33,169	16,072	1415,218	788,526
-32,154	16,092	1414,225	788,036
-31,140	16,082	1412,870	787,203
-30,125	16,131	1411,681	786,739
-29,111	16,136	1410,652	786,159
-28,096	16,114	1409,317	785,278
-27,082	16,007	1408,508	784,297
-26,067	16,051	1407,291	783,792
-25,052	16,036	1406,325	783,156
-24,038	16,037	1405,219	782,514
-23,023	16,013	1404,327	781,871
-22,009	16,026	1403,222	781,286
-20,994	15,969	1402,250	780,447
-19,979	15,952	1401,444	779,888
-18,965	15,987	1400,402	779,441
-17,950	15,958	1399,434	778,736
-16,936	16,026	1398,413	778,453
-15,921	16,000	1397,139	777,594
-14,906	15,924	1396,304	776,745
-13,892	15,933	1395,613	776,371
-12,877	15,978	1394,460	775,907
-11,863	15,971	1393,535	775,330
-10,848	15,886	1392,814	774,505
-9,833	15,865	1391,761	773,790
-8,819	15,892	1390,716	773,306
-7,804	15,889	1389,747	772,720
-6,790	15,864	1388,705	771,995
-5,775	15,878	1387,717	771,483
-4,760	15,837	1387,033	770,879
-3,746	15,844	1386,303	770,479
-2,731	15,824	1385,411	769,858
-1,717	15,851	1384,301	769,334
-0,702	15,834	1382,438	768,192
0,313	19,640	1303,208	741,731
1,327	36,139	706,443	440,320
2,342	55,858	125,143	85,915
3,356	3,288	16,531	8,504
4,371	13,834	3,032	1,667
5,386	71,213	0,439	0,322
6,400	800,000	-0,048	0,146
7,415	11,423	-0,256	-0,138
8,429	1,690	-0,339	-0,172
9,444	164,666	-0,251	-0,251
10,459	-98,077	-0,247	-0,045
11,473	23,419	-0,434	-0,252
12,488	-10,527	-0,371	-0,173
13,502	335,865	-0,236	-0,325
14,517	51,668	-0,188	-0,126
15,531	-45,733	-0,368	-0,128
16,546	441,511	-0,250	-0,389
17,561	78,271	-0,433	-0,327
18,575	109,658	-0,093	-0,079
19,590	800,000	-0,139	-0,275
20,604	-91,363	-0,334	-0,067
21,619	44,325	-0,399	-0,259
22,634	110,190	-0,433	-0,368
23,648	100,635	-0,428	-0,351
24,663	79,143	-0,394	-0,299
25,677	138,015	-0,354	-0,329
26,692	115,036	-0,282	-0,243
27,707	63,076	-0,399	-0,283
28,721	118,417	-0,348	-0,304
29,736	20,116	-0,340	-0,193
30,750	-0,915	-0,533	-0,266
31,765	32,369	-0,386	-0,235
32,780	213,228	-0,290	-0,325
33,794	353,018	-0,275	-0,387
34,809	21,228	-0,352	-0,202
35,823	150,035	-0,263	-0,252
36,838	-29,736	-0,432	-0,173
37,853	87,538	-0,373	-0,291
38,867	79,077	-0,324	-0,245
39,882	229,689	-0,304	-0,352
40,896	800,000	-0,131	-0,343
41,911	-48,718	-0,327	-0,110
42,926	-39,117	-0,371	-0,137
43,940	139,633	-0,369	-0,344
44,955	119,822	-0,303	-0,265
45,969	478,428	-0,262	-0,420
46,984	30,602	-0,390	-0,235
47,999	14,943	-0,272	-0,150
49,013	415,137	-0,170	-0,257
50,028	115,782	-0,301	-0,260
51,042	173,022	-0,280	-0,285
52,057	84,128	-0,387	-0,298
53,071	40,234	-0,372	-0,236
54,086	112,706	-0,274	-0,234
55,101	-91,292	-0,369	-0,074
56,115	105,826	-0,292	-0,243
57,130	17,725	-0,284	-0,159
58,144	65,440	-0,401	-0,286
59,159	127,417	-0,428	-0,383
60,174	125,079	-0,372	-0,331
61,188	256,239	-0,355	-0,431
62,203	222,892	-0,302	-0,344
63,217	275,101	-0,257	-0,322
64,232	7,849	-0,351	-0,185
65,247	229,551	-0,366	-0,422
66,261	17,779	-0,416	-0,233
67,276	104,065	-0,275	-0,228
68,290	176,566	-0,337	-0,345
69,305	57,059	-0,351	-0,241
70,320	-2,119	-0,478	-0,236
71,334	-95,916	-0,362	-0,067
72,349	71,425	-0,295	-0,215
73,363	128,749	-0,320	-0,288
74,378	138,875	-0,317	-0,293
75,393	56,540	-0,318	-0,218
76,407	363,981	-0,197	-0,280
77,422	-10,318	-0,263	-0,123
78,436	-19,281	-0,298	-0,130
79,451	11,429	-0,422	-0,227
80,466	188,040	-0,266	-0,280
81,480	43,288	-0,328	-0,210
82,495	217,757	-0,280	-0,314
83,509	-88,977	-0,272	-0,056
84,524	62,687	-0,282	-0,198
85,539	-85,257	-0,271	-0,059
86,553	190,541	-0,188	-0,199
87,568	89,529	-0,289	-0,227
88,582	-12,866	-0,339	-0,155
89,597	297,064	-0,236	-0,305
90,611	-93,432	-0,257	-0,050
91,626	121,196	-0,178	-0,156
92,641	20,137	-0,205	-0,116
93,655	48,230	-0,376	-0,247
94,670	227,935	-0,195	-0,223
95,684	73,614	-0,335	-0,246
96,699	99,187	-0,237	-0,192
97,714	98,711	-0,353	-0,286
98,728	251,625	-0,181	-0,217
99,743	13,223	-0,207	-0,113
100,757	112,493	-0,230	-0,196
101,772	345,322	-0,190	-0,263
102,787	46,758	-0,372	-0,242
103,801	581,696	-0,142	-0,246
104,816	62,972	-0,251	-0,176
105,830	216,869	-0,220	-0,247
106,845	-29,656	-0,293	-0,117
107,860	-8,656	-0,284	-0,133
108,874	131,199	-0,284	-0,256
109,889	377,832	-0,209	-0,302
110,903	86,393	-0,259	-0,201
111,918	16,456	-0,257	-0,142
112,933	108,780	-0,197	-0,165
113,947	18,965	-0,294	-0,165
114,962	38,655	-0,243	-0,152
115,976	-32,895	-0,261	-0,101
116,991	96,726	-0,226	-0,182
118,006	39,547	-0,428	-0,268
119,020	58,780	-0,261	-0,180
120,035	-18,035	-0,301	-0,132
121,049	177,138	-0,181	-0,185
122,064	43,764	-0,236	-0,152
123,079	41,300	-0,270	-0,171
124,093	216,461	-0,361	-0,403
125,108	61,390	-0,289	-0,201
126,122	123,339	-0,245	-0,216
127,137	-18,444	-0,347	-0,151
128,151	151,604	-0,180	-0,172
129,166	-38,868	-0,275	-0,101
130,181	158,552	-0,218	-0,213
131,195	71,431	-0,232	-0,169
132,210	92,927	-0,300	-0,237
133,224	13,711	-0,165	-0,089
134,239	420,344	-0,204	-0,307
135,254	63,485	-0,265	-0,186
136,268	412,960	-0,162	-0,242
137,283	-148,326	-0,334	-0,019
138,297	800,000	-0,059	-0,177
139,312	132,515	-0,305	-0,275
140,327	323,842	-0,212	-0,284
141,341	-89,036	-0,316	-0,065
142,356	75,565	-0,279	-0,206
143,370	152,692	-0,224	-0,214
144,385	107,745	-0,200	-0,167
145,400	259,415	-0,187	-0,226
146,414	-31,128	-0,203	-0,080
147,429	106,203	-0,304	-0,252
148,443	182,820	-0,300	-0,311
149,458	138,248	-0,281	-0,258
150,473	19,942	-0,375	-0,211
151,487	140,190	-0,144	-0,133
152,502	122,336	-0,322	-0,282
153,516	87,256	-0,280	-0,216
154,531	79,367	-0,302	-0,226
155,546	313,616	-0,260	-0,342
156,560	131,365	-0,252	-0,227
157,575	135,810	-0,230	-0,210
158,589	-17,890	-0,288	-0,126
159,604	91,092	-0,197	-0,155
160,619	408,113	-0,196	-0,291
161,633	-60,404	-0,165	-0,049
162,648	115,652	-0,152	-0,130
163,662	26,593	-0,211	-0,123
164,677	51,633	-0,163	0,108
165,692	-36,817	-0,230	-0,086
166,706	55,324	-0,272	-0,184
167,721	40,188	-0,180	-0,113
168,735	141,051	-0,267	-0,247
169,750	110,387	-0,213	-0,179
170,764	163,223	-0,211	-0,207
171,779	-125,466	-0,172	0,018
172,794	-86,025	-0,342	-0,073
173,808	62,948	-0,268	-0,187
174,823	800,000	-0,071	-0,199
175,837	668,286	-0,130	-0,235
176,852	28,584	-0,396	-0,234
177,867	-199,042	-0,279	0,001
178,881	-92,870	-0,356	-0,069
179,896	17,118	-0,270	-0,149
180,910	-96,889	-0,253	-0,046
181,925	-13,722	-0,248	-0,112
182,940	40,793	-0,249	-0,156
183,954	21,536	-0,261	-0,148
184,969	-14,282	-0,230	-0,103
185,983	123,710	-0,182	-0,159
186,998	-35,664	-0,129	-0,048
188,013	218,358	-0,229	-0,255
189,027	-6,239	-0,314	-0,149
190,042	153,026	-0,185	-0,177
191,056	149,537	-0,198	-0,188
192,071	249,643	-0,189	-0,224
193,086	-58,922	-0,085	-0,026
194,100	-148,053	-0,232	0,013
195,115	-21,292	-0,250	-0,106
196,129	445,593	-0,206	-0,316
197,144	329,967	-0,161	-0,216
198,159	18,237	-0,207	-0,115
199,173	-46,539	-0,302	-0,103
200,188	-57,716	-0,152	-0,046
201,202	64,279	-0,176	-0,123
202,217	61,761	-0,184	-0,127
203,232	-1,447	-0,219	-0,107
204,246	393,451	-0,210	-0,305
205,261	-172,246	-0,324	0,007
206,275	800,000	-0,127	-0,296
207,290	-11,228	-0,229	-0,105
208,304	47,653	-0,246	-0,160
209,319	22,666	-0,293	-0,166
210,334	399,357	-0,171	-0,250
211,348	24,787	-0,239	-0,137
212,363	175,464	-0,311	-0,314
213,377	106,934	-0,176	-0,145
214,392	755,080	-0,101	-0,190
215,407	20,884	-0,132	-0,074
216,421	54,071	-0,233	-0,156
217,436	80,468	-0,209	-0,157
218,450	170,396	-0,199	-0,198
219,465	444,911	-0,113	-0,173
220,480	800,000	-0,127	-0,294
221,494	50,194	-0,248	-0,162
222,509	370,716	-0,092	-0,130
223,523	-200,000	0,025	-0,136
224,538	-200,000	-0,050	-0,226
225,553	245,313	-0,199	-0,234
226,567	-7,318	-0,145	-0,068
227,582	515,803	-0,133	-0,216
228,596	101,320	-0,034	0,028
229,611	-140,785	-0,305	-0,022
230,626	4,440	-0,159	-0,081
231,640	-131,736	-0,247	-0,022
232,655	127,539	-0,179	-0,158
233,669	155,639	-0,172	-0,165
234,684	374,313	-0,149	-0,211
235,699	95,334	-0,036	-0,028
236,713	-200,000	-0,183	0,000
237,728	-44,330	-0,241	-0,083
238,742	79,702	-0,218	-0,163
239,757	14,317	-0,308	-0,166
240,772	159,671	-0,175	-0,169
241,786	144,181	-0,179	-0,166
242,801	-33,060	-0,224	-0,086
243,815	-24,349	-0,130	-0,054
244,830	-111,716	-0,156	-0,022
245,844	21,209	-0,207	-0,116
246,859	137,982	-0,174	-0,159
247,874	-25,336	-0,188	-0,077
248,888	-27,319	-0,320	-0,129
249,903	29,024	-0,169	-0,099
250,917	74,166	-0,144	-0,105
251,932	579,180	-0,091	-0,156
252,947	151,621	-0,121	-0,115
253,961	-81,050	-0,260	0,059
254,976	78,971	-0,203	-0,150
255,990	223,508	-0,093	-0,104
257,005	103,534	-0,212	-0,173
258,020	800,000	-0,074	-0,195
259,034	-45,208	-0,238	-0,082
260,049	-69,334	-0,125	-0,033
261,063	800,000	-0,111	-0,230
262,078	212,472	-0,159	-0,174
263,093	135,938	-0,116	-0,105
264,107	25,890	-0,190	-0,109
265,122	16,381	-0,173	-0,094
266,136	163,925	-0,202	-0,198
267,151	49,709	-0,229	-0,149
268,166	-20,306	-0,254	-0,108
269,180	241,143	-0,192	-0,223
270,195	454,911	-0,159	-0,245
271,209	169,746	-0,146	-0,144
272,224	712,181	-0,120	-0,221
273,239	193,079	-0,082	-0,086
274,253	-131,792	-0,121	-0,011
275,268	-58,959	-0,216	-0,064
276,282	94,122	-0,146	-0,115
277,297	196,352	-0,149	-0,157
278,312	145,668	-0,250	-0,232
279,326	2,049	-0,179	-0,089
280,341	-42,079	-0,174	-0,061
281,355	253,084	-0,152	-0,180
282,370	107,135	-0,116	-0,095
283,384	-64,199	-0,147	-0,041
284,399	51,379	-0,185	-0,121
285,414	798,889	-0,114	-0,218
286,428	382,113	-0,168	-0,239
287,443	800,000	-0,027	-0,061
288,457	61,067	-0,147	-0,101
289,472	-108,330	-0,295	-0,044
290,487	243,290	-0,224	-0,260
291,501	800,000	-0,068	-0,195
292,516	-24,401	-0,113	-0,046
293,530	-99,707	-0,083	0,014
294,545	-200,000	-0,007	-0,164
295,560	69,244	-0,208	-0,148
296,574	-50,264	-0,103	-0,033
297,589	190,003	-0,191	-0,198
298,603	-90,882	-0,255	-0,050
299,618	386,963	-0,201	-0,288
300,633	-35,265	-0,047	-0,018
301,647	295,445	-0,031	-0,040
302,662	132,397	-0,035	-0,031
303,676	-94,687	-0,134	-0,025
304,691	359,611	-0,051	-0,071
305,706	123,975	-0,176	-0,152
306,720	303,620	-0,211	-0,270
307,735	192,984	-0,088	-0,092
308,749	181,586	-0,130	-0,132
309,764	800,000	-0,023	-0,061
310,779	646,152	-0,063	-0,111
311,793	35,643	-0,194	-0,117
312,808	542,232	-0,101	-0,168
313,822	70,868	-0,205	-0,147
314,837	162,447	-0,142	-0,137
315,852	-200,000	-0,008	-0,103
316,866	-173,655	-0,196	0,004
317,881	-104,249	-0,209	0,033
318,895	-55,337	-0,210	-0,065
319,910	210,674	-0,197	-0,214
320,925	163,009	-0,164	-0,159
321,939	-161,480	-0,154	-0,005
322,954	-121,677	-0,118	0,013
323,968	-38,407	-0,233	-0,084
324,983	28,963	-0,174	-0,102
325,997	70,181	-0,126	-0,089
327,012	800,000	-0,092	-0,197
328,027	73,061	-0,149	-0,107
329,041	341,075	-0,174	-0,235
330,056	80,399	-0,126	-0,093
331,070	198,151	-0,055	-0,058
332,085	77,228	-0,073	-0,053
333,100	800,000	-0,067	-0,155
334,114	-48,899	-0,147	0,048
335,129	191,731	-0,158	-0,164
336,143	10,274	-0,204	0,107
337,158	403,029	-0,141	-0,205
338,173	-200,000	-0,036	-0,111
339,187	-40,913	-0,118	-0,042
340,202	-41,149	-0,214	-0,076
341,216	-87,420	-0,126	0,026
342,231	143,572	-0,105	-0,096
343,246	-64,113	-0,094	0,026
344,260	-55,996	-0,108	-0,033
345,275	-85,337	-0,081	0,017
346,289	143,826	0,050	0,046
347,304	-200,000	-0,033	0,150
348,319	-99,386	-0,215	0,037
349,333	138,499	-0,172	-0,156
350,348	-17,988	-0,091	-0,039
351,362	41,916	-0,209	-0,130
352,377	-26,283	-0,120	-0,048
353,392	-62,514	-0,093	-0,026
354,406	-77,495	-0,201	-0,048
355,421	208,009	1314,821	1413,876
356,435	160,030	1475,609	1414,401
