DTS Sentinel unit serial number:	SN410029Multiplexer serial number:	ORYXHardware model number:	OX2-SRSoftware version number:	ORYX F/W v4,00 Oryx Data Collector v3.7.2.0data status	okinstallation	B3 Nyhavnadifferential loss correction	single-endedforward channel	channel 1reverse channel	N/Adate	2023/12/05time	07:37:30forward acquisition time	300,00reverse acquisition time	0,00gamma	499,1914k internal	0,3200k external	0,3200temperature offset calibration	1,0000default loss term (dB/km)	0,3820temperature slope calibration	1,0000multiplexer offset coefficient	1,0000multiplexer slope coefficient	1,0000fibre end	0,00T internal ref (°C)	13,77T ext. ref 1 (°C)	-1,46T ext. ref 2 (°C)	-1,49length (m)	temperature (°C)	Stokes	anti-Stokes-744,400	606,794	-0,130	-0,237
-743,385	-200,000	-0,058	0,266
-742,371	271,800	-0,172	-0,221
-741,356	-200,000	0,016	0,354
-740,342	240,342	-0,186	-0,226
-739,327	-200,000	-0,008	0,354
-738,312	435,890	-0,194	-0,309
-737,298	-200,000	-0,064	0,244
-736,283	100,365	-0,200	-0,169
-735,269	-200,000	0,017	0,335
-734,254	-145,754	-0,283	-0,018
-733,239	425,530	-0,138	0,217
-732,225	800,000	-0,075	-0,221
-731,210	-75,617	0,145	0,037
-730,196	-120,797	-0,190	0,023
-729,181	455,604	-0,054	-0,087
-728,167	-61,880	-0,074	-0,022
-727,152	480,037	-0,043	-0,071
-726,137	-200,000	-0,018	-0,062
-725,123	800,000	-0,064	-0,170
-724,108	130,778	-0,075	-0,070
-723,094	-117,658	-0,196	-0,025
-722,079	-200,000	-0,020	-0,212
-721,064	217,339	-0,046	-0,054
-720,050	-200,000	0,007	0,064
-719,035	800,000	-0,037	0,083
-718,021	191,608	-0,034	-0,037
-717,006	498,392	-0,073	-0,123
-715,991	173,020	-0,090	-0,094
-714,977	-65,354	-0,069	0,020
-713,962	475,015	-0,037	0,061
-712,948	324,954	0,048	0,067
-711,933	-55,658	-0,087	-0,028
-710,918	-70,287	-0,156	0,043
-709,904	800,000	0,011	-0,034
-708,889	82,800	-0,196	-0,155
-707,875	-200,000	0,000	-0,234
-706,860	690,487	-0,033	-0,062
-705,845	-76,544	0,070	0,018
-704,831	-40,217	0,190	0,072
-703,816	-100,828	0,043	-0,008
-702,802	800,000	0,032	-0,078
-701,787	248,399	0,076	-0,094
-700,772	182,923	-0,145	-0,155
-699,758	-81,815	0,106	-0,025
-698,743	-200,000	-0,008	0,097
-697,729	-200,000	0,003	-0,067
-696,714	89,074	0,098	0,079
-695,699	800,000	-0,038	-0,103
-694,685	-127,302	0,057	-0,006
-693,670	800,000	-0,029	-0,075
-692,656	154,843	0,106	-0,106
-691,641	285,956	0,064	0,085
-690,627	-125,802	0,111	-0,012
-689,612	283,782	0,031	0,041
-688,597	-0,556	-0,059	-0,030
-687,583	14,912	0,171	-0,097
-686,568	-30,667	-0,017	-0,007
-685,554	633,716	0,011	0,020
-684,539	-200,000	-0,006	-0,024
-683,524	422,697	-0,067	0,104
-682,510	800,000	0,044	-0,101
-681,495	10,558	-0,053	-0,029
-680,481	-200,000	-0,035	-0,118
-679,466	-67,092	-0,099	0,028
-678,451	-151,959	0,030	-0,002
-677,437	-79,576	-0,060	-0,015
-676,422	44,853	-0,030	0,020
-675,408	-200,000	0,001	0,107
-674,393	-200,000	-0,007	-0,111
-673,378	160,218	-0,080	-0,081
-672,364	-93,449	-0,065	-0,013
-671,349	25,697	0,008	0,005
-670,335	-114,164	-0,025	0,004
-669,320	96,706	0,138	-0,115
-668,305	55,858	-0,108	0,076
-667,291	800,000	-0,026	-0,069
-666,276	-200,000	-0,045	0,161
-665,262	353,197	-0,061	-0,089
-664,247	-200,000	0,032	-0,112
-663,232	800,000	0,058	0,142
-662,218	-53,403	0,087	0,029
-661,203	-20,330	-0,060	-0,027
-660,189	-200,000	0,011	-0,050
-659,174	32,794	-0,119	0,074
-658,159	23,770	-0,161	-0,096
-657,145	800,000	0,027	-0,057
-656,130	10,273	-0,030	0,016
-655,116	153,513	0,038	0,037
-654,101	52,592	-0,103	0,071
-653,086	115,560	0,142	0,126
-652,072	-102,544	-0,042	0,007
-651,057	21,529	-0,099	-0,058
-650,043	800,000	0,086	-0,181
-649,028	-36,288	-0,057	-0,022
-648,014	32,867	-0,041	0,026
-646,999	-200,000	0,014	-0,054
-645,984	-200,000	-0,001	-0,016
-644,970	-200,000	0,011	0,050
-643,955	-200,000	-0,019	-0,063
-642,941	204,629	0,027	-0,030
-641,926	70,848	0,117	-0,088
-640,911	-142,903	0,157	0,011
-639,897	-6,403	0,134	0,066
-638,882	-102,139	0,122	0,021
-637,868	-25,984	-0,122	-0,052
-636,853	25,386	-0,086	0,051
-635,838	87,582	-0,049	-0,040
-634,824	800,000	-0,038	-0,093
-633,809	800,000	0,044	-0,133
-632,795	547,101	0,048	0,084
-631,780	-200,000	0,008	0,099
-630,765	26,114	-0,111	0,067
-629,751	-118,135	-0,069	-0,009
-628,736	-200,000	-0,023	-0,153
-627,722	-200,000	-0,014	-0,078
-626,707	439,915	0,045	-0,071
-625,692	128,988	0,049	-0,045
-624,678	-46,389	-0,033	0,012
-623,663	-8,066	0,142	0,069
-622,649	-118,616	-0,104	0,013
-621,634	-200,000	0,049	-0,170
-620,619	-200,000	-0,131	-0,000
-619,605	-200,000	0,006	0,052
-618,590	269,474	-0,021	-0,027
-617,576	-200,000	-0,016	0,067
-616,561	-76,835	-0,089	-0,022
-615,546	340,724	-0,019	0,027
-614,532	-64,413	-0,028	-0,008
-613,517	-96,067	0,063	-0,012
-612,503	37,326	0,078	0,050
-611,488	190,713	0,007	-0,008
-610,474	-81,160	0,114	-0,027
-609,459	800,000	0,019	0,046
-608,444	800,000	-0,067	-0,179
-607,430	-137,899	-0,104	0,008
-606,415	-200,000	0,018	-0,069
-605,401	-200,000	0,023	-0,104
-604,386	-173,782	-0,071	0,001
-603,371	114,924	-0,042	-0,037
-602,357	-29,090	0,065	-0,027
-601,342	-86,915	-0,070	0,015
-600,328	800,000	-0,004	0,009
-599,313	560,016	-0,034	-0,060
-598,298	-200,000	-0,025	-0,128
-597,284	173,963	-0,052	0,055
-596,269	-87,492	-0,083	-0,018
-595,255	316,810	-0,065	0,089
-594,240	-141,283	-0,167	-0,012
-593,225	-200,000	0,019	-0,137
-592,211	-47,443	-0,120	0,042
-591,196	-21,403	0,044	-0,019
-590,182	-200,000	0,004	-0,057
-589,167	-200,000	-0,001	-0,008
-588,152	-200,000	0,006	-0,059
-587,138	155,027	-0,059	0,059
-586,123	175,981	-0,047	-0,050
-585,109	678,782	0,041	-0,078
-584,094	175,243	-0,105	-0,110
-583,079	64,011	0,096	-0,070
-582,065	-130,805	0,088	-0,008
-581,050	774,453	-0,048	0,094
-580,036	-119,794	-0,166	0,020
-579,021	800,000	-0,038	-0,079
-578,006	-103,389	-0,213	0,036
-576,992	-11,447	-0,064	-0,030
-575,977	7,181	0,081	0,044
-574,963	-200,000	-0,002	-0,055
-573,948	58,399	-0,098	-0,069
-572,934	-200,000	0,011	-0,109
-571,919	29,315	-0,082	0,050
-570,904	447,352	-0,031	-0,049
-569,890	-200,000	0,022	-0,207
-568,875	-200,000	0,012	0,088
-567,861	294,779	-0,104	0,138
-566,846	-168,403	0,074	-0,002
-565,831	-17,798	-0,031	-0,014
-564,817	-144,817	-0,102	-0,007
-563,802	-3,022	-0,112	-0,056
-562,788	800,000	0,064	-0,132
-561,773	-22,833	0,068	0,030
-560,758	168,791	-0,089	0,091
-559,744	800,000	0,010	0,020
-558,729	-2,472	-0,059	0,030
-557,715	-95,897	-0,064	-0,012
-556,700	173,681	-0,090	0,094
-555,685	-96,410	-0,149	-0,028
-554,671	11,874	0,059	0,033
-553,656	-129,993	0,039	-0,004
-552,642	431,017	0,017	-0,026
-551,627	30,555	0,125	0,077
-550,612	3,475	0,090	-0,047
-549,598	-200,000	0,001	-0,054
-548,583	70,868	-0,013	-0,010
-547,569	36,644	0,066	0,042
-546,554	-146,201	0,082	0,005
-545,539	-106,957	0,079	-0,012
-544,525	151,425	0,068	0,067
-543,510	-110,545	-0,136	-0,020
-542,496	-200,000	0,016	0,101
-541,481	282,031	-0,067	-0,087
-540,466	-49,868	-0,103	0,035
-539,452	216,624	0,011	0,013
-538,437	707,440	0,058	0,110
-537,423	-200,000	0,005	0,030
-536,408	-111,757	0,062	-0,009
-535,393	-200,000	0,011	0,037
-534,379	733,465	-0,045	0,088
-533,364	45,999	0,071	-0,047
-532,350	187,576	0,042	-0,046
-531,335	-200,000	-0,006	0,057
-530,321	-200,000	-0,012	-0,062
-529,306	-200,000	-0,045	-0,189
-528,291	-200,000	0,032	0,104
-527,277	318,029	-0,002	0,003
-526,262	-200,000	0,011	-0,078
-525,248	-200,000	-0,001	0,045
-524,233	633,147	-0,018	0,034
-523,218	-9,800	0,106	0,051
-522,204	-154,654	-0,102	0,005
-521,189	307,349	-0,100	-0,134
-520,175	-200,000	0,015	-0,048
-519,160	-200,000	0,017	-0,095
-518,145	682,445	0,060	0,114
-517,131	-200,000	0,022	0,171
-516,116	-61,207	0,118	0,036
-515,102	-119,480	-0,049	0,006
-514,087	252,147	0,051	-0,063
-513,072	800,000	-0,020	-0,045
-512,058	-200,000	0,037	-0,186
-511,043	-101,136	-0,097	-0,017
-510,029	8,787	0,035	0,019
-509,014	167,885	0,061	0,062
-507,999	-68,282	0,108	0,030
-506,985	-200,000	-0,002	0,140
-505,970	483,285	0,058	0,095
-504,956	82,355	0,017	-0,014
-503,941	414,488	0,009	-0,014
-502,926	-27,880	0,158	0,066
-501,912	800,000	-0,029	0,089
-500,897	264,988	-0,051	0,064
-499,883	-195,530	-0,074	-0,000
-498,868	116,336	-0,102	0,090
-497,853	554,583	-0,019	0,033
-496,839	23,003	0,108	-0,064
-495,824	-42,520	-0,117	0,043
-494,810	-36,045	0,130	-0,051
-493,795	800,000	-0,045	-0,090
-492,781	-85,864	-0,114	-0,025
-491,766	122,585	-0,104	-0,094
-490,751	662,567	0,023	-0,042
-489,737	-29,841	0,046	0,019
-488,722	231,891	0,037	-0,044
-487,708	800,000	0,032	0,065
-486,693	81,733	-0,015	0,011
-485,678	-200,000	-0,006	-0,021
-484,664	98,127	0,058	0,048
-483,649	800,000	-0,043	-0,112
-482,635	-200,000	-0,002	-0,047
-481,620	-200,000	-0,009	0,031
-480,605	-200,000	0,009	-0,100
-479,591	83,878	0,101	0,079
-478,576	-139,669	0,165	-0,012
-477,562	-78,769	-0,091	-0,022
-476,547	800,000	0,024	-0,073
-475,532	12,097	0,085	-0,047
-474,518	141,796	-0,042	-0,040
-473,503	-69,892	-0,058	0,016
-472,489	-15,280	0,168	-0,077
-471,474	-200,000	-0,014	-0,055
-470,459	-200,000	0,007	-0,164
-469,445	-200,000	-0,000	-0,037
-468,430	-83,290	-0,038	-0,009
-467,416	198,388	0,025	0,027
-466,401	643,227	0,005	-0,009
-465,386	-53,490	-0,108	-0,035
-464,372	800,000	0,049	-0,109
-463,357	-200,000	0,008	-0,166
-462,343	-200,000	-0,020	0,068
-461,328	800,000	-0,041	0,083
-460,313	137,591	-0,059	-0,056
-459,299	251,106	0,057	-0,070
-458,284	154,395	0,039	0,039
-457,270	77,074	-0,062	0,047
-456,255	38,514	0,118	-0,076
-455,241	13,203	0,055	-0,030
-454,226	800,000	-0,013	-0,038
-453,211	800,000	0,044	0,098
-452,197	674,462	-0,016	0,031
-451,182	-93,335	-0,035	-0,007
-450,168	-30,744	-0,041	0,017
-449,153	753,896	0,049	-0,095
-448,138	-200,000	0,042	-0,178
-447,124	589,085	-0,032	0,057
-446,109	-200,000	0,043	-0,147
-445,095	-200,000	0,011	0,099
-444,080	-200,000	-0,024	0,105
-443,065	141,174	0,085	-0,081
-442,051	146,345	-0,082	0,079
-441,036	800,000	0,038	-0,100
-440,022	-53,742	0,055	-0,018
-439,007	-200,000	0,011	-0,066
-437,992	104,697	-0,105	0,089
-436,978	413,119	0,028	-0,043
-435,963	800,000	-0,066	0,134
-434,949	737,331	-0,061	0,118
-433,934	800,000	0,027	0,075
-432,919	800,000	-0,038	-0,094
-431,905	732,747	0,121	-0,233
-430,890	-74,782	-0,020	0,005
-429,876	-104,454	0,167	-0,027
-428,861	57,836	-0,046	0,032
-427,846	318,930	-0,036	-0,048
-426,832	-32,763	0,088	0,035
-425,817	800,000	-0,032	-0,067
-424,803	-15,429	-0,120	-0,055
-423,788	-84,288	0,235	0,053
-422,773	-129,252	-0,072	-0,007
-421,759	-200,000	0,029	0,118
-420,744	800,000	-0,042	0,128
-419,730	307,926	-0,021	-0,028
-418,715	800,000	0,033	0,077
-417,701	66,723	0,071	0,051
-416,686	-200,000	-0,013	0,050
-415,671	-191,266	0,093	-0,001
-414,657	78,054	0,019	-0,014
-413,642	-185,071	-0,100	-0,001
-412,628	-94,536	-0,175	0,034
-411,613	-154,325	0,105	-0,005
-410,598	-200,000	0,044	-0,184
-409,584	93,937	0,056	-0,046
-408,569	800,000	-0,054	0,107
-407,555	100,315	-0,108	0,090
-406,540	249,638	0,085	0,104
-405,525	-7,114	0,042	0,021
-404,511	-200,000	0,017	-0,074
-403,496	557,464	-0,053	-0,093
-402,482	-15,732	-0,076	0,035
-401,467	-136,622	-0,082	-0,007
-400,452	42,350	0,057	0,037
-399,438	614,132	0,036	0,065
-398,423	-184,819	-0,024	0,000
-397,409	467,459	0,033	0,054
-396,394	9,041	0,058	-0,031
-395,379	29,115	0,063	-0,038
-394,365	-61,568	0,094	-0,028
-393,350	382,199	0,033	0,049
-392,336	-54,027	-0,111	-0,036
-391,321	-60,496	-0,202	0,061
-390,306	43,602	-0,050	-0,033
-389,292	50,449	-0,086	-0,058
-388,277	-160,565	-0,022	-0,001
-387,263	327,461	-0,026	0,035
-386,248	53,150	0,243	0,167
-385,233	-200,000	-0,002	0,056
-384,219	466,392	-0,015	0,024
-383,204	-200,000	0,008	-0,067
-382,190	-200,000	-0,013	-0,106
-381,175	-97,307	-0,050	-0,009
-380,160	800,000	0,031	0,090
-379,146	-56,975	0,178	0,056
-378,131	-81,886	-0,155	-0,036
-377,117	140,126	0,076	-0,072
-376,102	-134,062	-0,023	0,002
-375,088	51,940	-0,044	-0,030
-374,073	-114,453	0,130	0,018
-373,058	153,512	0,012	-0,012
-372,044	-200,000	-0,008	0,058
-371,029	800,000	0,048	0,139
-370,015	800,000	-0,017	-0,037
-369,000	-16,967	-0,174	-0,078
-367,985	23,687	0,101	-0,060
-366,971	51,214	-0,113	0,077
-365,956	-200,000	0,025	0,110
-364,942	800,000	0,028	0,070
-363,927	51,394	0,128	0,087
-362,912	-56,984	0,084	0,027
-361,898	157,321	-0,068	0,067
-360,883	-143,190	0,113	0,008
-359,869	518,295	0,020	-0,033
-358,854	252,566	0,017	-0,021
-357,839	247,169	-0,037	0,045
-356,825	-200,000	0,033	0,156
-355,810	-10,660	0,095	-0,045
-354,796	800,000	-0,031	-0,082
-353,781	-116,840	0,046	-0,006
-352,766	800,000	0,023	0,068
-351,752	34,967	-0,109	0,068
-350,737	800,000	-0,041	0,082
-349,723	-200,000	-0,007	0,096
-348,708	-104,916	-0,108	0,018
-347,693	312,179	-0,089	0,121
-346,679	793,525	-0,054	-0,108
-345,664	800,000	-0,034	0,083
-344,650	64,778	0,035	0,026
-343,635	303,099	0,049	-0,065
-342,620	-200,000	0,003	0,075
-341,606	-200,000	0,047	0,154
-340,591	-15,791	0,044	0,020
-339,577	527,995	-0,039	0,066
-338,562	-123,940	0,191	-0,021
-337,548	-86,073	-0,164	-0,036
-336,533	-200,000	0,003	0,049
-335,518	-17,287	0,049	0,022
-334,504	223,830	-0,023	0,026
-333,489	231,249	-0,096	-0,113
-332,475	-11,053	-0,085	0,040
-331,460	318,867	-0,029	-0,040
-330,445	-200,000	0,009	-0,072
-329,431	800,000	-0,045	-0,108
-328,416	800,000	-0,045	0,113
-327,402	-200,000	-0,023	-0,081
-326,387	-76,251	0,025	0,006
-325,372	-200,000	0,006	-0,086
-324,358	71,193	0,018	0,014
-323,343	113,246	-0,191	-0,165
-322,329	615,284	0,023	-0,042
-321,314	-171,664	0,068	0,002
-320,299	-200,000	0,001	0,104
-319,285	-182,734	0,038	0,000
-318,270	447,438	0,022	-0,035
-317,256	-52,156	-0,250	0,082
-316,241	72,589	-0,026	0,019
-315,226	-108,334	0,044	0,007
-314,212	-64,508	-0,078	-0,022
-313,197	3,825	0,099	-0,051
-312,183	628,804	-0,045	-0,082
-311,168	105,023	-0,121	-0,102
-310,153	-49,744	0,087	0,029
-309,139	-200,000	-0,004	-0,051
-308,124	605,791	0,030	0,055
-307,110	-167,289	0,078	-0,002
-306,095	143,599	0,187	0,179
-305,080	800,000	-0,039	-0,084
-304,066	194,539	-0,092	0,100
-303,051	2,239	0,039	-0,020
-302,037	800,000	0,009	-0,021
-301,022	-200,000	0,022	0,073
-300,008	800,000	-0,007	0,016
-298,993	240,723	0,062	-0,075
-297,978	-200,000	0,005	0,086
-296,964	617,205	-0,044	-0,078
-295,949	800,000	-0,075	-0,161
-294,935	-200,000	0,003	-0,064
-293,920	454,562	0,048	0,077
-292,905	-66,953	0,100	0,028
-291,891	241,555	0,065	0,078
-290,876	-200,000	-0,014	-0,090
-289,862	207,715	-0,076	-0,085
-288,847	540,145	-0,040	0,069
-287,832	684,944	-0,057	0,106
-286,818	-42,159	0,038	-0,014
-285,803	-200,000	0,016	0,071
-284,789	800,000	-0,030	-0,064
-283,774	-101,393	0,034	0,006
-282,759	235,515	-0,056	0,067
-281,745	678,033	-0,012	0,023
-280,730	199,936	-0,045	0,050
-279,716	-168,537	0,088	0,002
-278,701	-200,000	-0,016	0,116
-277,686	26,268	0,065	-0,039
-276,672	-200,000	0,052	-0,183
-275,657	800,000	-0,048	0,108
-274,643	229,591	0,040	0,047
-273,628	100,879	-0,098	-0,082
-272,613	145,879	0,130	-0,124
-271,599	124,045	0,072	0,064
-270,584	-200,000	-0,008	-0,080
-269,570	-200,000	-0,022	0,104
-268,555	312,003	0,060	0,081
-267,540	141,106	-0,018	0,017
-266,526	-107,481	-0,076	0,012
-265,511	118,354	-0,033	-0,029
-264,497	611,590	0,064	0,115
-263,482	-17,870	0,158	-0,071
-262,467	800,000	0,038	0,076
-261,453	558,078	0,018	-0,032
-260,438	160,003	-0,142	0,142
-259,424	231,558	0,065	0,076
-258,409	225,897	-0,090	-0,104
-257,395	13,478	-0,106	-0,058
-256,380	-62,990	0,147	-0,043
-255,365	-200,000	-0,025	0,108
-254,351	-200,000	-0,039	-0,136
-253,336	-14,489	0,047	-0,021
-252,322	-45,666	0,080	-0,028
-251,307	180,998	-0,057	-0,060
-250,292	-200,000	-0,007	0,099
-249,278	-10,009	0,147	0,069
-248,263	-200,000	0,007	0,102
-247,249	272,131	0,093	0,118
-246,234	-200,000	0,004	-0,017
-245,219	-135,021	-0,027	0,002
-244,205	-200,000	0,096	-0,000
-243,190	229,760	-0,033	-0,039
-242,176	-43,388	0,146	0,052
-241,161	-200,000	-0,013	0,151
-240,146	-74,649	0,143	0,036
-239,132	-117,712	-0,106	0,013
-238,117	-62,331	-0,021	0,006
-237,103	-200,000	0,013	-0,099
-236,088	-52,985	0,027	0,009
-235,073	108,275	0,084	-0,071
-234,059	-200,000	-0,006	0,090
-233,044	422,019	-0,075	-0,115
-232,030	-200,000	-0,001	0,110
-231,015	-29,469	-0,049	0,020
-230,000	673,295	-0,042	-0,079
-228,986	-200,000	0,001	0,095
-227,971	-200,000	-0,013	0,083
-226,957	800,000	-0,063	0,177
-225,942	-200,000	-0,020	0,122
-224,927	62,382	-0,065	-0,046
-223,913	-23,738	-0,057	-0,024
-222,898	97,753	-0,069	-0,057
-221,884	-85,670	0,079	0,017
-220,869	800,000	-0,047	0,140
-219,855	199,580	0,054	0,059
-218,840	-86,200	0,059	-0,013
-217,825	425,689	-0,058	0,089
-216,811	46,917	0,032	0,021
-215,796	129,834	-0,106	-0,097
-214,782	-114,827	-0,022	0,003
-213,767	-115,607	0,055	0,007
-212,752	126,520	-0,067	0,061
-211,738	121,247	-0,061	-0,054
-210,723	-200,000	0,000	-0,058
-209,709	-200,000	-0,015	-0,100
-208,694	-200,000	-0,032	-0,128
-207,679	89,049	-0,082	0,065
-206,665	235,110	0,116	0,137
-205,650	22,129	0,116	0,067
-204,636	-200,000	0,045	0,144
-203,621	-200,000	0,016	0,099
-202,606	-200,000	0,012	-0,054
-201,592	-13,360	-0,052	-0,024
-200,577	-200,000	-0,001	0,011
-199,563	-55,895	0,055	-0,017
-198,548	-200,000	-0,013	-0,062
-197,533	266,761	-0,040	-0,050
-196,519	41,608	0,106	0,069
-195,504	800,000	-0,060	-0,138
-194,490	800,000	0,094	-0,194
-193,475	96,491	-0,022	-0,018
-192,460	280,626	-0,030	0,038
-191,446	-93,538	0,096	0,019
-190,431	-115,100	-0,068	0,009
-189,417	800,000	0,033	-0,081
-188,402	-200,000	0,015	-0,079
-187,387	8,068	-0,115	-0,061
-186,373	-150,508	-0,119	-0,006
-185,358	-200,000	0,004	-0,059
-184,344	-200,000	-0,003	0,038
-183,329	290,075	-0,035	-0,046
-182,315	-169,080	0,108	0,003
-181,300	-200,000	-0,027	-0,141
-180,285	-200,000	-0,030	0,152
-179,271	408,981	0,049	0,074
-178,256	371,558	-0,065	-0,094
-177,242	-200,000	0,020	0,090
-176,227	170,340	-0,055	0,057
-175,212	-73,580	0,093	0,024
-174,198	-59,580	0,035	-0,010
-173,183	-68,385	0,049	-0,013
-172,169	277,712	0,120	-0,153
-171,154	235,855	0,018	-0,021
-170,139	-170,490	0,072	-0,002
-169,125	800,000	-0,062	0,155
-168,110	-200,000	0,017	0,057
-167,096	375,023	0,058	-0,084
-166,081	-200,000	-0,009	-0,041
-165,066	418,669	0,071	-0,109
-164,052	-200,000	0,019	-0,066
-163,037	800,000	0,068	0,147
-162,023	800,000	0,035	0,093
-161,008	272,950	0,095	0,120
-159,993	-200,000	-0,013	-0,106
-158,979	-105,155	-0,207	-0,033
-157,964	-92,863	-0,052	-0,010
-156,950	703,090	-0,052	0,099
-155,935	-26,333	0,065	0,027
-154,920	800,000	-0,051	0,127
-153,906	157,661	0,024	0,023
-152,891	-9,706	-0,050	-0,024
-151,877	342,480	0,060	0,083
-150,862	-107,683	-0,198	-0,030
-149,847	800,000	-0,018	0,041
-148,833	0,058	-0,131	-0,066
-147,818	39,788	0,139	-0,089
-146,804	800,000	-0,034	-0,070
-145,789	-38,150	-0,045	0,017
-144,775	-200,000	0,009	-0,087
-143,760	800,000	0,038	-0,096
-142,745	-200,000	0,020	-0,095
-141,731	-113,738	-0,081	-0,011
-140,716	-200,000	-0,000	0,070
-139,702	-200,000	-0,024	0,139
-138,687	-151,214	-0,057	0,003
-137,672	156,712	-0,108	-0,106
-136,658	30,940	-0,077	0,047
-135,643	45,452	0,005	0,003
-134,629	-200,000	0,008	-0,106
-133,614	-65,998	0,051	0,014
-132,599	-200,000	-0,006	-0,040
-131,585	800,000	0,012	-0,035
-130,570	47,190	-0,032	-0,021
-129,556	-106,377	-0,172	0,027
-128,541	800,000	0,012	-0,034
-127,526	-121,952	-0,157	-0,018
-126,512	331,489	-0,019	0,026
-125,497	-39,911	0,123	0,045
-124,483	197,420	-0,038	-0,042
-123,468	19,991	0,128	-0,073
-122,453	-55,664	-0,139	-0,044
-121,439	368,464	0,047	0,068
-120,424	120,106	-0,118	-0,104
-119,410	-27,865	-0,048	0,020
-118,395	-200,000	-0,062	0,000
-117,380	800,000	0,015	-0,035
-116,366	429,276	-0,106	-0,163
-115,351	73,527	0,088	0,065
-114,337	709,542	0,053	-0,100
-113,322	-200,000	-0,021	-0,149
-112,307	800,000	0,049	-0,099
-111,293	598,921	0,012	-0,021
-110,278	-200,000	0,024	0,139
-109,264	327,536	0,100	0,137
-108,249	-200,000	-0,007	-0,047
-107,234	-171,946	-0,111	-0,002
-106,220	-71,954	0,065	0,017
-105,205	-8,274	-0,061	0,029
-104,191	7,035	-0,025	-0,013
-103,176	-200,000	0,016	0,088
-102,162	104,769	-0,070	0,059
-101,147	33,734	0,082	0,050
-100,132	723,344	-0,037	-0,070
-99,118	800,000	-0,051	-0,114
-98,103	-111,598	-0,088	0,013
-97,089	120,571	0,034	0,030
-96,074	339,929	-0,062	0,086
-95,059	445,402	-0,017	0,027
-94,045	52,789	0,128	-0,086
-93,030	-200,000	-0,013	-0,047
-92,016	464,269	-0,124	-0,198
-91,001	-200,000	0,001	0,038
-89,986	800,000	0,042	0,086
-88,972	-200,000	-0,023	0,135
-87,957	-152,329	0,093	-0,005
-86,943	148,718	0,037	-0,035
-85,928	84,440	0,087	-0,067
-84,913	800,000	-0,027	-0,054
-83,899	447,348	0,042	-0,065
-82,884	179,565	0,057	0,059
-81,870	800,000	-0,029	0,064
-80,855	235,250	0,020	0,023
-79,840	453,148	-0,032	-0,050
-78,826	-200,000	-0,020	0,074
-77,811	-102,695	-0,173	0,029
-76,797	-200,000	-0,010	0,078
-75,782	-200,000	-0,054	-0,171
-74,767	-141,851	-0,093	0,006
-73,753	137,006	-0,026	0,024
-72,738	62,090	-0,172	-0,121
-71,724	240,012	-0,114	-0,135
-70,709	800,000	-0,052	-0,138
-69,694	-200,000	0,005	-0,078
-68,680	800,000	0,026	-0,073
-67,665	561,584	-0,037	-0,063
-66,651	-200,000	-0,001	0,059
-65,636	282,590	-0,101	-0,129
-64,622	18,810	-0,077	-0,044
-63,607	-200,000	0,009	-0,134
-62,592	-200,000	-0,002	-0,058
-61,578	276,540	-0,033	0,042
-60,563	499,676	0,024	-0,039
-59,549	-200,000	0,025	-0,090
-58,534	-13,845	-1,714	-0,782
-57,519	455,743	-1,233	-1,944
-56,505	-200,000	-0,636	-4,712
-55,490	185,767	1,068	1,126
-54,476	800,000	4,956	11,678
-53,461	-200,000	18,865	315,657
-52,446	-200,000	739,254	2329,859
-51,432	575,876	1655,738	2875,499
-50,417	79,072	1671,989	1266,994
-49,403	21,810	1544,696	888,946
-48,388	15,654	1467,370	814,495
-47,373	17,860	1457,315	819,549
-46,359	16,842	1447,338	809,019
-45,344	13,871	1442,900	792,261
-44,330	13,813	1440,783	790,791
-43,315	13,833	1439,117	789,942
-42,300	13,839	1437,236	788,908
-41,286	13,897	1436,223	788,596
-40,271	13,780	1434,974	787,322
-39,257	13,827	1433,587	786,750
-38,242	13,909	1432,267	786,388
-37,227	13,867	1431,197	785,568
-36,213	13,892	1429,908	784,951
-35,198	13,859	1428,747	784,126
-34,184	13,872	1427,876	783,675
-33,169	13,806	1426,462	782,557
-32,154	13,874	1425,263	782,192
-31,140	13,924	1423,789	781,586
-30,125	13,933	1422,907	781,113
-29,111	13,898	1421,647	780,227
-28,096	13,874	1420,720	779,572
-27,082	13,778	1419,625	778,488
-26,067	13,769	1418,334	777,706
-25,052	13,808	1417,439	777,368
-24,038	13,774	1416,590	776,713
-23,023	13,764	1415,400	775,982
-22,009	13,781	1414,279	775,416
-20,994	13,736	1413,521	774,758
-19,979	13,744	1412,711	774,323
-18,965	13,715	1411,817	773,661
-17,950	13,742	1410,952	773,286
-16,936	13,707	1410,023	772,583
-15,921	13,692	1408,634	771,720
-14,906	13,670	1407,995	771,236
-13,892	13,751	1406,822	770,940
-12,877	13,720	1405,943	770,285
-11,863	13,711	1405,214	769,814
-10,848	13,717	1404,190	769,248
-9,833	13,633	1403,376	768,380
-8,819	13,640	1402,402	767,851
-7,804	13,627	1401,566	767,300
-6,790	13,586	1400,574	766,539
-5,775	13,577	1399,364	765,801
-4,760	13,580	1398,527	765,329
-3,746	13,613	1397,733	765,015
-2,731	13,591	1396,945	764,450
-1,717	13,562	1396,014	763,777
-0,702	13,579	1394,338	762,908
0,313	17,284	1311,452	734,781
1,327	33,299	705,587	432,443
2,342	51,233	123,710	82,957
3,356	-0,592	16,693	8,353
4,371	6,241	3,174	1,661
5,386	-2,533	0,568	0,281
6,400	222,663	0,134	0,153
7,415	-1,658	-0,405	-0,201
8,429	28,778	-0,223	-0,133
9,444	211,631	-0,269	-0,300
10,459	154,348	-0,202	-0,196
11,473	211,833	-0,238	-0,266
12,488	26,696	-0,354	-0,209
13,502	29,354	-0,196	-0,117
14,517	16,880	-0,315	-0,176
15,531	-13,533	-0,448	-0,204
16,546	140,389	-0,362	-0,338
17,561	100,993	-0,351	-0,288
18,575	164,670	-0,152	-0,152
19,590	252,067	-0,179	-0,216
20,604	71,359	-0,254	-0,186
21,619	35,147	-0,340	-0,210
22,634	180,659	-0,319	-0,331
23,648	146,384	-0,341	-0,323
24,663	168,859	-0,383	-0,386
25,677	43,231	-0,255	-0,164
26,692	-23,505	-0,335	-0,141
27,707	136,566	-0,342	-0,315
28,721	-24,094	-0,412	-0,173
29,736	126,797	-0,420	-0,375
30,750	39,074	-0,430	-0,271
31,765	210,337	-0,349	-0,387
32,780	6,269	-0,494	-0,258
33,794	-26,059	-0,468	-0,193
34,809	79,591	-0,388	-0,294
35,823	103,856	-0,466	-0,386
36,838	179,521	-0,397	-0,411
37,853	56,448	-0,361	-0,247
38,867	229,664	-0,228	-0,263
39,882	322,550	-0,262	-0,353
40,896	119,188	-0,377	-0,329
41,911	42,287	-0,403	-0,258
42,926	192,093	-0,399	-0,424
43,940	209,881	-0,356	-0,395
44,955	6,181	-0,387	-0,202
45,969	55,482	-0,398	-0,271
46,984	178,332	-0,287	-0,295
47,999	267,468	-0,310	-0,383
49,013	233,281	-0,186	-0,216
50,028	27,377	-0,382	-0,226
51,042	187,892	-0,318	-0,335
52,057	-17,186	-0,364	-0,161
53,071	45,404	-0,333	-0,216
54,086	161,547	-0,239	-0,235
55,101	67,582	-0,393	-0,283
56,115	61,168	-0,260	-0,182
57,130	2,648	-0,403	-0,205
58,144	25,888	-0,401	-0,235
59,159	5,103	-0,510	-0,263
60,174	90,307	-0,299	-0,236
61,188	-1,811	-0,407	-0,201
62,203	24,501	-0,327	-0,190
63,217	61,728	-0,367	-0,257
64,232	-11,339	-0,319	-0,147
65,247	59,679	-0,420	-0,291
66,261	200,150	-0,299	-0,324
67,276	100,812	-0,304	-0,248
68,290	5,992	-0,413	-0,214
69,305	56,397	-0,255	-0,174
70,320	93,493	-0,273	-0,217
71,334	167,532	-0,226	-0,226
72,349	23,264	-0,288	-0,166
73,363	-1,538	-0,289	-0,143
74,378	-37,746	-0,347	-0,129
75,393	20,326	-0,338	-0,191
76,407	-41,298	-0,266	-0,096
77,422	-54,302	-0,286	-0,091
78,436	91,865	-0,226	-0,179
79,451	-9,749	-0,274	-0,128
80,466	11,329	-0,486	-0,261
81,480	10,227	-0,362	-0,193
82,495	800,000	-0,089	-0,250
83,509	38,779	-0,206	-0,129
84,524	-134,852	-0,332	-0,028
85,539	-68,224	-0,253	-0,069
86,553	-36,388	-0,361	-0,136
87,568	86,613	-0,294	-0,228
88,582	-28,371	-0,479	-0,193
89,597	-0,594	-0,412	-0,205
90,611	110,053	-0,307	-0,259
91,626	800,000	-0,084	-0,165
92,641	325,979	-0,202	-0,272
93,655	-39,478	-0,298	-0,109
94,670	55,971	-0,330	-0,224
95,684	57,915	-0,429	-0,294
96,699	-41,780	-0,354	-0,127
97,714	136,072	-0,152	-0,139
98,728	2,226	-0,263	-0,133
99,743	-2,129	-0,292	-0,143
100,757	-49,149	-0,302	-0,101
101,772	-81,288	-0,226	-0,052
102,787	255,967	-0,218	-0,263
103,801	395,826	-0,248	-0,364
104,816	47,421	-0,184	-0,120
105,830	59,810	-0,196	-0,136
106,845	36,120	-0,193	-0,119
107,860	-58,073	-0,362	-0,110
108,874	35,223	-0,351	-0,215
109,889	-36,791	-0,313	-0,117
110,903	25,903	-0,395	-0,230
111,918	361,931	-0,212	-0,299
112,933	553,501	-0,119	-0,200
113,947	-55,884	-0,384	-0,119
114,962	295,148	-0,185	-0,238
115,976	69,013	-0,156	-0,113
116,991	108,537	-0,261	-0,219
118,006	29,434	-0,256	-0,152
119,020	251,222	-0,188	-0,224
120,035	23,489	-0,253	-0,145
121,049	-100,638	-0,306	-0,052
122,064	7,047	-0,210	-0,109
123,079	-35,032	-0,122	-0,046
124,093	-3,753	-0,291	-0,141
125,108	122,801	-0,185	-0,162
126,122	60,552	-0,248	-0,172
127,137	172,529	-0,179	-0,181
128,151	179,255	-0,174	-0,178
129,166	174,895	-0,210	-0,213
130,181	-24,035	-0,298	-0,124
131,195	219,612	-0,197	-0,221
132,210	61,591	-0,263	-0,183
133,224	-2,629	-0,299	-0,146
134,239	-0,275	-0,268	-0,133
135,254	252,595	-0,190	-0,227
136,268	-14,430	-0,155	-0,069
137,283	-90,339	-0,324	-0,065
138,297	4,338	-0,230	-0,118
139,312	142,871	-0,169	-0,157
140,327	18,292	-0,246	-0,137
141,341	54,485	-0,165	-0,111
142,356	10,783	-0,132	-0,070
143,370	125,458	-0,206	-0,182
144,385	-68,709	-0,313	-0,084
145,400	-36,482	-0,226	-0,085
146,414	71,658	-0,317	-0,230
147,429	371,299	-0,219	-0,311
148,443	-6,439	-0,131	-0,062
149,458	-2,876	-0,334	-0,162
150,473	55,556	-0,263	-0,178
151,487	5,104	-0,277	-0,142
152,502	104,286	-0,258	-0,212
153,516	-25,154	-0,268	-0,110
154,531	-128,462	-0,212	-0,021
155,546	91,805	-0,240	-0,188
156,560	31,259	-0,206	-0,123
157,575	-124,275	-0,261	-0,028
158,589	127,591	-0,235	-0,208
159,604	108,853	-0,208	-0,173
160,619	126,997	-0,201	-0,178
161,633	17,856	-0,275	-0,152
162,648	132,911	-0,140	-0,126
163,662	113,074	-0,227	-0,192
164,677	67,441	-0,224	-0,159
165,692	-10,396	-0,243	-0,112
166,706	-53,233	-0,226	-0,072
167,721	-74,057	-0,162	-0,041
168,735	116,501	-0,203	-0,173
169,750	62,508	-0,254	-0,177
170,764	1,585	-0,156	-0,078
171,779	250,107	-0,188	-0,223
172,794	522,180	-0,157	-0,258
173,808	223,271	-0,216	-0,243
174,823	56,006	-0,173	-0,117
175,837	-158,967	-0,168	0,007
176,852	268,453	-0,190	-0,233
177,867	-8,067	-0,256	-0,120
178,881	201,098	-0,251	-0,270
179,896	366,989	-0,104	-0,146
180,910	38,370	-0,282	-0,175
181,925	408,502	-0,133	-0,197
182,940	338,336	-0,168	-0,229
183,954	124,663	-0,144	-0,126
184,969	221,989	-0,231	-0,259
185,983	251,875	-0,182	-0,216
186,998	800,000	-0,120	-0,235
188,013	-12,835	-0,277	-0,125
189,027	68,659	-0,220	-0,157
190,042	219,443	-0,200	-0,224
191,056	121,715	-0,251	-0,218
192,071	-15,579	-0,243	-0,108
193,086	430,998	-0,136	-0,206
194,100	-37,013	-0,116	-0,043
195,115	2,647	-0,275	-0,138
196,129	221,043	-0,166	-0,186
197,144	800,000	-0,078	-0,234
198,159	800,000	-0,177	-0,344
199,173	52,224	-0,215	-0,143
200,188	212,107	-0,093	-0,102
201,202	-198,216	-0,299	0,001
202,217	86,670	-0,155	-0,119
203,232	800,000	-0,144	-0,290
204,246	-15,829	-0,228	-0,100
205,261	-25,003	-0,209	-0,086
206,275	316,406	-0,169	-0,222
207,290	-200,000	-0,028	-0,132
208,304	32,158	-0,106	-0,064
209,319	15,775	-0,212	-0,115
210,334	-105,860	-0,239	-0,037
211,348	116,193	-0,217	-0,185
212,363	3,443	-0,118	-0,060
213,377	407,491	-0,103	-0,151
214,392	580,163	-0,103	-0,176
215,407	-43,411	-0,208	-0,072
216,421	-168,573	-0,211	-0,005
217,436	-111,560	-0,278	-0,039
218,450	-181,174	-0,221	-0,003
219,465	-81,946	-0,169	0,038
220,480	502,994	-0,127	-0,204
221,494	220,606	-0,078	-0,087
222,509	-47,115	-0,247	-0,083
223,523	800,000	-0,045	-0,096
224,538	223,993	-0,201	-0,226
225,553	144,320	-0,261	-0,242
226,567	66,916	-0,231	-0,163
227,582	800,000	-0,104	-0,226
228,596	284,901	-0,112	-0,141
229,611	244,651	-0,084	-0,098
230,626	-71,711	-0,240	-0,062
231,640	-167,216	-0,274	0,008
232,655	-31,766	-0,191	-0,074
233,669	81,684	-0,248	-0,186
234,684	-58,725	-0,319	-0,095
235,699	-120,017	-0,207	-0,024
236,713	149,898	-0,129	-0,122
237,728	150,602	-0,174	-0,164
238,742	-90,738	-0,248	-0,049
239,757	63,420	-0,210	-0,146
240,772	27,598	-0,276	-0,161
241,786	40,962	-0,192	-0,120
242,801	230,128	-0,100	-0,114
243,815	390,641	-0,132	-0,190
244,830	48,050	-0,054	-0,035
245,844	452,794	-0,126	-0,194
246,859	412,323	-0,080	-0,118
247,874	-94,210	-0,144	0,027
248,888	406,811	-0,100	-0,147
249,903	-1,571	-0,222	-0,108
250,917	-200,000	-0,025	-0,195
251,932	514,800	-0,096	-0,156
252,947	-164,528	-0,208	0,006
253,961	-93,077	-0,287	-0,055
254,976	-1,283	-0,265	-0,129
255,990	-62,889	-0,180	-0,051
257,005	-87,926	-0,111	0,023
258,020	-107,939	-0,164	-0,024
259,034	126,425	-0,055	-0,048
260,049	-38,415	-0,125	0,045
261,063	465,096	-0,106	-0,165
262,078	38,189	-0,244	-0,150
263,093	402,926	-0,141	-0,206
264,107	84,295	-0,226	-0,171
265,122	800,000	-0,033	-0,063
266,136	616,409	-0,012	-0,021
267,151	165,525	-0,162	-0,159
268,166	-39,633	-0,216	-0,078
269,180	131,159	-0,124	-0,111
270,195	-51,887	-0,234	-0,075
271,209	172,631	-0,202	-0,201
272,224	-200,000	-0,031	-0,137
273,239	99,097	-0,137	-0,110
274,253	7,032	-0,111	-0,057
275,268	4,623	-0,145	-0,073
276,282	-19,018	-0,264	-0,113
277,297	45,073	-0,324	-0,206
278,312	127,544	-0,164	-0,144
279,326	44,839	-0,107	-0,068
280,341	20,731	-0,204	-0,114
281,355	186,086	-0,061	-0,063
282,370	162,607	-0,209	-0,203
283,384	165,252	-0,167	-0,163
284,399	301,005	-0,181	-0,231
285,414	-27,052	-0,241	-0,097
286,428	-200,000	-0,009	-0,263
287,443	-200,000	-0,029	-0,099
288,457	206,099	-0,113	-0,122
289,472	-118,310	-0,151	0,018
290,487	800,000	-0,039	-0,087
291,501	109,934	-0,264	-0,218
292,516	45,388	-0,265	-0,168
293,530	182,203	-0,136	-0,138
294,545	-164,823	-0,104	-0,003
295,560	-29,142	-0,157	-0,062
296,574	-111,254	-0,072	-0,010
297,589	-125,146	-0,145	0,015
298,603	65,415	-0,204	-0,142
299,618	277,644	-0,096	-0,118
300,633	-200,000	-0,028	-0,093
301,647	-13,920	-0,059	0,026
302,662	293,694	-0,097	-0,122
303,676	226,333	-0,057	-0,064
304,691	2,083	-0,158	-0,078
305,706	-118,909	-0,176	-0,021
306,720	-13,909	-0,190	-0,084
307,735	94,829	-0,155	-0,121
308,749	-89,137	-0,166	-0,033
309,764	137,556	-0,037	-0,033
310,779	-11,738	-0,101	0,046
311,793	-173,649	-0,153	-0,003
312,808	-200,000	-0,065	-0,319
313,822	122,593	-0,083	-0,071
314,837	-200,000	-0,003	-0,221
315,852	-82,725	-0,147	-0,032
316,866	-130,806	-0,221	0,020
317,881	-33,808	-0,152	-0,057
318,895	79,146	-0,239	-0,176
319,910	-21,637	-0,235	-0,098
320,925	85,020	-0,158	-0,119
321,939	73,554	-0,151	-0,109
322,954	-200,000	0,033	-0,245
323,968	702,140	-0,100	-0,182
324,983	54,685	-0,116	-0,077
325,997	-12,240	-0,178	-0,080
327,012	125,261	-0,132	-0,114
328,027	330,453	-0,098	-0,130
329,041	400,059	-0,150	-0,217
330,056	-38,549	-0,108	-0,039
331,070	800,000	-0,041	0,095
332,085	-92,362	-0,162	0,031
333,100	-148,719	-0,120	0,007
334,114	148,220	-0,092	-0,085
335,129	41,392	-0,212	-0,131
336,143	79,837	-0,219	-0,162
337,158	-200,000	-0,002	-0,019
338,173	104,767	-0,094	-0,076
339,187	-165,918	-0,119	0,003
340,202	113,937	-0,052	-0,044
341,216	148,722	-0,114	-0,106
342,231	167,702	-0,097	-0,095
343,246	81,909	-0,165	-0,122
344,260	62,896	-0,131	-0,090
345,275	293,933	-0,076	-0,096
346,289	591,184	-0,062	0,105
347,304	-81,138	-0,306	-0,069
348,319	-32,824	-0,106	-0,040
349,333	86,880	-0,180	-0,137
350,348	800,000	-0,077	-0,154
351,362	800,000	-0,041	-0,115
352,377	-192,884	-0,187	0,001
353,392	24,305	-0,085	0,048
354,406	-58,509	-0,041	-0,012
355,421	209,380	1314,775	1415,333
356,435	161,145	1475,493	1415,809
