DTS Sentinel unit serial number:	SN410029Multiplexer serial number:	ORYXHardware model number:	OX2-SRSoftware version number:	ORYX F/W v4,00 Oryx Data Collector v3.7.2.0data status	okinstallation	B3 Nyhavnadifferential loss correction	single-endedforward channel	channel 1reverse channel	N/Adate	2023/11/30time	14:27:30forward acquisition time	300,00reverse acquisition time	0,00gamma	499,1914k internal	0,3209k external	0,3209temperature offset calibration	1,0000default loss term (dB/km)	0,3820temperature slope calibration	1,0000multiplexer offset coefficient	1,0000multiplexer slope coefficient	1,0000fibre end	0,00T internal ref (°C)	11,77T ext. ref 1 (°C)	-1,85T ext. ref 2 (°C)	-1,94length (m)	temperature (°C)	Stokes	anti-Stokes-744,400	373,947	-0,181	-0,269
-743,385	800,000	0,116	0,233
-742,371	800,000	0,096	-0,221
-741,356	-200,000	0,010	0,306
-740,342	299,639	-0,176	-0,236
-739,327	-200,000	-0,093	0,393
-738,312	128,791	-0,269	-0,248
-737,298	-200,000	-0,042	0,243
-736,283	787,316	-0,149	-0,297
-735,269	800,000	0,101	0,252
-734,254	209,333	-0,189	-0,215
-733,239	55,536	-0,131	0,091
-732,225	43,235	-0,088	-0,058
-731,210	-62,800	0,128	0,038
-730,196	-200,000	0,000	0,026
-729,181	800,000	-0,033	0,073
-728,167	-200,000	-0,026	0,096
-727,152	-200,000	-0,004	0,043
-726,137	444,499	0,085	-0,136
-725,123	-33,885	-0,104	-0,041
-724,108	-111,504	-0,028	0,004
-723,094	-162,525	-0,048	-0,002
-722,079	210,951	-0,047	-0,053
-721,064	169,517	-0,005	0,006
-720,050	-200,000	-0,031	-0,160
-719,035	-200,000	-0,031	-0,130
-718,021	26,250	0,142	-0,086
-717,006	73,044	-0,076	0,058
-715,991	-66,502	-0,177	-0,051
-714,977	-22,725	-0,044	-0,019
-713,962	800,000	-0,058	-0,123
-712,948	-23,383	0,094	-0,041
-711,933	-85,572	-0,122	0,027
-710,918	800,000	0,051	-0,113
-709,904	-85,240	-0,041	0,009
-708,889	800,000	-0,023	-0,061
-707,875	483,113	-0,106	-0,176
-706,860	-99,856	-0,104	0,019
-705,845	-200,000	-0,001	-0,091
-704,831	800,000	0,024	0,061
-703,816	349,122	-0,036	-0,051
-702,802	-138,185	-0,126	0,010
-701,787	359,329	-0,058	-0,084
-700,772	-184,228	0,040	0,000
-699,758	440,770	0,013	0,021
-698,743	396,538	0,044	-0,066
-697,729	-200,000	-0,004	0,025
-696,714	-90,615	-0,113	0,023
-695,699	-200,000	0,007	-0,027
-694,685	109,779	-0,082	-0,071
-693,670	456,747	-0,078	-0,126
-692,656	-148,597	-0,082	0,005
-691,641	-200,000	0,003	0,136
-690,627	-6,440	0,077	0,038
-689,612	-200,000	0,004	-0,012
-688,597	23,582	0,085	0,051
-687,583	-76,379	0,143	0,036
-686,568	-187,619	-0,100	-0,001
-685,554	-200,000	0,006	0,020
-684,539	-200,000	-0,007	0,023
-683,524	-41,558	-0,109	0,040
-682,510	-59,744	-0,076	0,023
-681,495	-200,000	0,012	-0,055
-680,481	-85,506	-0,101	0,022
-679,466	22,686	-0,085	-0,050
-678,451	80,041	-0,093	-0,072
-677,437	-77,096	-0,016	0,004
-676,422	-200,000	0,026	0,087
-675,408	150,805	-0,019	-0,019
-674,393	5,691	-0,064	0,034
-673,378	800,000	0,035	0,112
-672,364	-200,000	-0,007	-0,053
-671,349	-200,000	0,037	-0,192
-670,335	8,347	-0,146	-0,079
-669,320	-24,933	-0,046	0,020
-668,305	-200,000	0,005	0,053
-667,291	66,010	-0,154	0,113
-666,276	14,324	-0,089	0,050
-665,262	-200,000	-0,012	-0,098
-664,247	800,000	-0,055	0,121
-663,232	-200,000	-0,030	0,227
-662,218	740,790	0,030	0,059
-661,203	74,403	-0,038	-0,029
-660,189	-92,973	-0,120	-0,024
-659,174	125,871	-0,029	0,026
-658,159	-200,000	0,022	-0,086
-657,145	-102,318	-0,151	-0,026
-656,130	800,000	0,057	0,165
-655,116	-200,000	0,015	-0,105
-654,101	180,288	0,079	0,084
-653,086	-200,000	-0,045	-0,190
-652,072	346,454	0,082	-0,116
-651,057	76,541	-0,102	-0,078
-650,043	-12,494	-0,051	-0,024
-649,028	120,719	-0,034	-0,030
-648,014	-138,240	-0,008	-0,001
-646,999	-106,908	0,037	-0,006
-645,984	84,276	-0,081	0,064
-644,970	2,681	-0,128	-0,067
-643,955	-45,888	-0,115	0,041
-642,941	282,284	-0,098	-0,127
-641,926	-64,820	0,169	-0,049
-640,911	-57,405	-0,054	-0,017
-639,897	203,208	-0,015	0,017
-638,882	172,443	-0,059	0,061
-637,868	413,696	-0,016	-0,025
-636,853	612,121	-0,079	-0,143
-635,838	110,981	-0,032	-0,028
-634,824	-200,000	-0,009	-0,053
-633,809	800,000	0,012	-0,031
-632,795	-15,055	0,059	-0,027
-631,780	-200,000	-0,011	0,122
-630,765	28,412	-0,080	0,049
-629,751	84,223	-0,019	-0,015
-628,736	360,479	-0,099	-0,143
-627,722	800,000	-0,027	0,080
-626,707	-183,654	0,057	0,001
-625,692	54,935	0,073	0,051
-624,678	261,995	-0,041	0,052
-623,663	675,940	0,045	0,085
-622,649	-34,970	-0,129	-0,051
-621,634	-200,000	0,013	-0,065
-620,619	-45,671	-0,053	-0,019
-619,605	185,072	0,116	0,125
-618,590	608,109	-0,042	-0,076
-617,576	-200,000	-0,005	-0,082
-616,561	-77,849	-0,202	0,050
-615,546	-87,207	-0,090	-0,020
-614,532	-200,000	-0,025	-0,155
-613,517	76,163	-0,020	0,015
-612,503	800,000	0,046	-0,113
-611,488	-200,000	-0,020	0,093
-610,474	-177,049	-0,077	-0,001
-609,459	-70,998	0,021	0,006
-608,444	-104,324	0,140	0,023
-607,430	87,024	-0,087	-0,069
-606,415	58,471	-0,075	-0,053
-605,401	34,848	0,035	-0,022
-604,386	-200,000	0,015	0,127
-603,371	-117,993	0,049	0,006
-602,357	-34,256	-0,069	-0,027
-601,342	83,541	0,069	-0,055
-600,328	17,920	-0,066	-0,038
-599,313	-200,000	-0,016	-0,077
-598,298	-21,854	0,053	-0,023
-597,284	800,000	0,060	0,178
-596,269	132,925	0,082	0,077
-595,255	749,532	0,049	0,095
-594,240	800,000	0,028	0,075
-593,225	-19,975	-0,136	0,060
-592,211	8,541	0,141	-0,076
-591,196	-81,687	-0,113	-0,027
-590,182	460,738	0,074	0,119
-589,167	109,430	-0,068	0,059
-588,152	800,000	-0,046	-0,093
-587,138	72,264	-0,059	0,044
-586,123	-200,000	0,042	-0,151
-585,109	70,165	0,038	0,028
-584,094	-200,000	0,010	-0,083
-583,079	-23,098	0,066	-0,029
-582,065	17,192	-0,062	-0,035
-581,050	-146,153	-0,065	-0,004
-580,036	219,136	-0,082	0,094
-579,021	-11,542	-0,068	-0,032
-578,006	-112,387	-0,103	0,015
-576,992	21,036	0,042	0,024
-575,977	-200,000	0,047	0,156
-574,963	-89,198	0,056	0,012
-573,948	-53,493	-0,093	0,031
-572,934	136,832	-0,047	0,044
-571,919	-67,643	-0,134	-0,038
-570,904	615,542	-0,078	-0,142
-569,890	800,000	-0,049	-0,115
-568,875	71,596	0,079	-0,059
-567,861	146,314	0,067	0,065
-566,846	106,891	0,091	0,078
-565,831	60,726	-0,054	-0,039
-564,817	501,323	0,047	-0,079
-563,802	378,823	-0,078	0,116
-562,788	10,938	0,058	0,032
-561,773	157,193	-0,065	-0,065
-560,758	-90,500	0,135	0,028
-559,744	-88,442	-0,065	0,014
-558,729	-200,000	-0,019	0,190
-557,715	26,942	0,053	-0,032
-556,700	-200,000	0,050	-0,294
-555,685	-3,086	0,090	0,045
-554,671	162,492	0,019	0,019
-553,656	-90,767	-0,094	-0,019
-552,642	37,922	0,011	0,007
-551,627	-200,000	0,020	-0,110
-550,612	-200,000	-0,003	0,097
-549,598	173,012	-0,045	0,047
-548,583	-61,965	-0,046	-0,014
-547,569	800,000	-0,025	0,067
-546,554	582,272	0,007	0,013
-545,539	800,000	-0,040	0,104
-544,525	-200,000	0,013	-0,116
-543,510	-172,271	0,008	-0,000
-542,496	-200,000	0,036	-0,166
-541,481	800,000	-0,061	0,136
-540,466	71,350	0,130	-0,097
-539,452	-200,000	0,050	0,176
-538,437	28,352	-0,087	0,053
-537,423	-200,000	-0,001	-0,135
-536,408	1,536	-0,117	0,061
-535,393	-200,000	0,003	0,023
-534,379	-93,707	-0,038	0,007
-533,364	800,000	-0,044	-0,125
-532,350	-200,000	0,018	0,156
-531,335	318,106	0,035	-0,048
-530,321	118,353	0,029	0,026
-529,306	-121,098	-0,051	0,006
-528,291	800,000	-0,042	-0,108
-527,277	359,437	-0,080	-0,115
-526,262	-23,199	-0,206	-0,089
-525,248	480,916	0,083	0,136
-524,233	23,267	0,083	0,049
-523,218	752,550	0,031	-0,060
-522,204	-152,860	0,057	0,003
-521,189	-200,000	-0,015	-0,072
-520,175	317,164	-0,117	-0,160
-519,160	-200,000	-0,007	0,028
-518,145	-71,475	-0,006	-0,002
-517,131	800,000	-0,039	-0,097
-516,116	61,736	0,155	-0,111
-515,102	-200,000	0,021	-0,136
-514,087	351,961	-0,009	-0,013
-513,072	-200,000	-0,004	-0,032
-512,058	-88,953	-0,140	-0,030
-511,043	-88,317	-0,044	0,009
-510,029	161,609	0,035	-0,035
-509,014	196,942	-0,061	0,067
-507,999	35,594	-0,158	0,100
-506,985	-200,000	0,004	0,015
-505,970	13,766	-0,079	-0,044
-504,956	-57,633	-0,046	0,015
-503,941	800,000	0,008	-0,022
-502,926	351,033	0,073	-0,104
-501,912	3,446	-0,069	0,036
-500,897	284,606	-0,042	0,055
-499,883	69,423	0,111	0,082
-498,868	13,583	0,043	0,024
-497,853	-200,000	-0,037	-0,164
-496,839	-200,000	0,012	0,106
-495,824	359,455	0,066	0,096
-494,810	383,497	-0,040	0,059
-493,795	-82,388	0,097	0,022
-492,781	75,605	0,059	-0,045
-491,766	-200,000	0,005	-0,041
-490,751	-200,000	0,015	-0,134
-489,737	461,433	-0,067	-0,107
-488,722	199,008	0,041	0,045
-487,708	-16,038	0,103	0,047
-486,693	32,448	-0,027	0,017
-485,678	93,192	-0,071	0,058
-484,664	-200,000	0,003	-0,048
-483,649	800,000	0,018	-0,035
-482,635	64,860	-0,113	0,082
-481,620	-25,988	0,050	-0,021
-480,605	44,865	0,090	-0,060
-479,591	800,000	0,019	0,047
-478,576	-46,809	-0,174	-0,061
-477,562	-200,000	0,017	-0,158
-476,547	765,800	-0,033	-0,065
-475,532	800,000	0,017	0,036
-474,518	-61,423	0,137	0,041
-473,503	-200,000	0,024	0,080
-472,489	-200,000	0,014	0,216
-471,474	27,940	-0,088	-0,053
-470,459	152,625	0,029	-0,028
-469,445	310,377	-0,049	-0,066
-468,430	-69,489	0,064	0,018
-467,416	-200,000	0,014	0,093
-466,401	246,131	0,075	0,091
-465,386	-104,194	0,049	0,008
-464,372	450,914	-0,037	-0,059
-463,357	-115,676	-0,203	-0,027
-462,343	-200,000	0,013	-0,053
-461,328	800,000	-0,032	-0,073
-460,313	282,439	0,082	-0,105
-459,299	106,642	0,038	-0,032
-458,284	208,968	0,072	-0,081
-457,270	228,141	-0,038	0,044
-456,255	-200,000	-0,014	-0,140
-455,241	-31,645	-0,080	-0,032
-454,226	-200,000	0,019	-0,064
-453,211	-200,000	-0,015	-0,149
-452,197	800,000	0,014	0,035
-451,182	-104,198	0,024	0,004
-450,168	150,706	-0,047	-0,046
-449,153	-200,000	-0,020	0,095
-448,138	-200,000	-0,007	-0,055
-447,124	117,321	-0,114	-0,100
-446,109	-200,000	0,003	0,033
-445,095	-200,000	-0,004	0,065
-444,080	234,920	-0,043	0,050
-443,065	233,198	0,036	-0,042
-442,051	-77,282	-0,041	0,010
-441,036	318,437	0,007	0,009
-440,022	41,658	0,023	0,015
-439,007	-71,372	0,046	-0,012
-437,992	-200,000	-0,019	0,090
-436,978	-200,000	-0,001	0,087
-435,963	-138,040	0,032	0,003
-434,949	-106,743	0,028	0,004
-433,934	800,000	-0,047	-0,124
-432,919	2,902	-0,172	-0,089
-431,905	-200,000	0,009	-0,091
-430,890	272,325	0,075	0,095
-429,876	514,318	0,031	0,052
-428,861	57,394	-0,047	0,033
-427,846	-107,981	0,049	0,007
-426,832	78,997	-0,062	0,047
-425,817	-50,486	0,105	-0,035
-424,803	134,642	-0,103	-0,096
-423,788	27,519	0,037	-0,022
-422,773	-200,000	0,023	-0,109
-421,759	92,048	-0,033	0,026
-420,744	-200,000	0,037	-0,118
-419,730	-200,000	-0,007	0,143
-418,715	-200,000	-0,010	-0,149
-417,701	183,048	-0,011	-0,012
-416,686	-19,405	0,232	0,103
-415,671	49,670	0,109	0,073
-414,657	-16,307	-0,027	0,012
-413,642	800,000	0,040	0,081
-412,628	285,780	0,038	0,050
-411,613	536,212	-0,102	-0,173
-410,598	800,000	0,038	0,078
-409,584	-182,207	0,053	0,001
-408,569	800,000	0,061	0,167
-407,555	514,090	-0,083	0,140
-406,540	-49,730	-0,158	-0,053
-405,525	190,765	0,036	-0,039
-404,511	155,511	-0,055	-0,054
-403,496	-200,000	-0,014	-0,138
-402,482	3,744	0,074	-0,039
-401,467	-30,232	0,062	-0,025
-400,452	-84,790	0,111	0,025
-399,438	-163,512	-0,054	-0,002
-398,423	800,000	0,049	-0,122
-397,409	800,000	-0,047	-0,126
-396,394	-23,864	-0,048	0,020
-395,379	428,586	-0,053	0,083
-394,365	800,000	-0,061	0,122
-393,350	79,505	0,088	0,068
-392,336	800,000	-0,009	-0,022
-391,321	-200,000	-0,024	0,087
-390,306	-200,000	0,013	-0,100
-389,292	-143,901	-0,116	0,008
-388,277	-30,288	0,058	0,023
-387,263	315,525	0,100	0,135
-386,248	55,376	0,031	0,022
-385,233	-104,998	0,086	0,014
-384,219	364,998	0,024	-0,035
-383,204	20,764	0,105	-0,061
-382,190	800,000	-0,030	-0,069
-381,175	800,000	0,058	0,144
-380,160	-3,061	-0,142	0,070
-379,146	-145,639	0,070	-0,004
-378,131	800,000	-0,036	0,094
-377,117	800,000	-0,056	0,115
-376,102	-138,796	0,106	0,008
-375,088	-48,259	0,025	0,008
-374,073	-200,000	-0,018	-0,141
-373,058	-111,615	0,032	-0,005
-372,044	209,605	-0,042	-0,047
-371,029	212,011	-0,037	0,042
-370,015	-200,000	-0,019	0,123
-369,000	87,657	-0,061	-0,048
-367,985	18,533	-0,075	-0,043
-366,971	-81,270	0,139	-0,033
-365,956	12,785	-0,059	0,032
-364,942	395,321	-0,037	-0,055
-363,927	37,672	0,102	-0,065
-362,912	293,580	0,007	0,010
-361,898	-200,000	-0,001	0,084
-360,883	50,917	0,085	-0,058
-359,869	-200,000	-0,034	0,170
-358,854	-200,000	-0,012	0,086
-357,839	293,777	0,038	0,049
-356,825	22,091	0,050	0,029
-355,810	14,905	0,096	-0,054
-354,796	16,199	0,048	-0,027
-353,781	800,000	-0,039	-0,080
-352,766	-129,518	0,016	0,002
-351,752	236,952	0,009	0,010
-350,737	-57,091	0,054	0,017
-349,723	153,496	0,062	0,060
-348,708	-200,000	0,013	-0,072
-347,693	-105,989	0,088	-0,014
-346,679	-95,169	0,054	-0,010
-345,664	27,075	-0,063	0,038
-344,650	-35,154	0,054	0,021
-343,635	136,242	0,107	0,100
-342,620	800,000	0,030	0,083
-341,606	-200,000	0,004	0,102
-340,591	-3,019	0,024	-0,012
-339,577	20,336	-0,070	0,040
-338,562	70,070	-0,074	0,054
-337,548	800,000	-0,025	0,076
-336,533	76,333	0,076	0,057
-335,518	800,000	0,100	0,221
-334,504	800,000	0,043	0,110
-333,489	92,252	-0,019	0,015
-332,475	800,000	0,013	0,038
-331,460	-200,000	-0,027	0,113
-330,445	229,359	0,100	-0,116
-329,431	153,627	0,069	-0,068
-328,416	-200,000	0,025	0,114
-327,402	-41,046	0,066	-0,024
-326,387	107,079	0,049	0,042
-325,372	459,357	-0,058	-0,093
-324,358	-200,000	0,007	0,095
-323,343	3,739	-0,072	-0,037
-322,329	161,398	0,094	-0,093
-321,314	2,265	-0,069	0,035
-320,299	13,434	0,100	0,055
-319,285	-200,000	-0,001	-0,122
-318,270	92,163	-0,049	0,039
-317,256	-57,610	0,170	-0,053
-316,241	-129,501	0,041	0,004
-315,226	-21,670	0,098	0,042
-314,212	-69,296	0,168	-0,046
-313,197	146,031	-0,059	0,056
-312,183	800,000	-0,012	-0,038
-311,168	-40,490	-0,046	-0,017
-310,153	156,062	0,068	-0,067
-309,139	-2,474	0,020	0,010
-308,124	-147,812	-0,145	-0,008
-307,110	23,544	0,050	0,029
-306,095	-200,000	0,020	0,077
-305,080	-200,000	-0,019	0,061
-304,066	-156,191	0,126	0,006
-303,051	-76,889	-0,054	0,013
-302,037	-200,000	0,008	0,045
-301,022	-160,025	0,064	-0,002
-300,008	-200,000	-0,003	0,140
-298,993	166,880	-0,016	0,016
-297,978	158,602	-0,023	0,022
-296,964	47,261	-0,065	0,043
-295,949	-81,252	-0,044	0,010
-294,935	-200,000	-0,012	0,077
-293,920	800,000	0,021	-0,050
-292,905	83,093	0,111	-0,086
-291,891	570,872	0,042	0,073
-290,876	163,225	-0,035	0,035
-289,862	561,994	-0,033	-0,057
-288,847	-81,631	0,018	-0,004
-287,832	800,000	0,024	-0,068
-286,818	234,170	-0,080	-0,094
-285,803	10,756	-0,141	0,077
-284,789	-200,000	-0,009	0,042
-283,774	-63,132	-0,151	0,044
-282,759	-80,541	0,028	0,007
-281,745	77,104	-0,056	-0,042
-280,730	249,629	-0,043	-0,052
-279,716	800,000	-0,049	-0,101
-278,701	56,134	0,033	-0,023
-277,686	105,296	-0,011	-0,009
-276,672	-54,510	0,095	-0,031
-275,657	441,698	0,017	0,026
-274,643	730,432	-0,058	-0,112
-273,628	800,000	-0,050	-0,155
-272,613	535,454	-0,022	-0,038
-271,599	-41,625	0,099	0,036
-270,584	-125,934	0,026	0,003
-269,570	575,608	0,087	0,152
-268,555	-200,000	0,021	-0,200
-267,540	800,000	-0,020	0,046
-266,526	76,289	-0,126	-0,095
-265,511	800,000	-0,052	0,119
-264,497	-138,940	0,083	-0,006
-263,482	81,385	0,081	0,062
-262,467	262,220	-0,035	0,043
-261,453	800,000	-0,084	0,179
-260,438	10,039	0,025	-0,013
-259,424	-200,000	-0,003	0,011
-258,409	192,222	0,099	-0,107
-257,395	546,544	-0,070	0,120
-256,380	-200,000	0,002	0,045
-255,365	-100,105	0,097	0,017
-254,351	63,440	0,125	0,089
-253,336	440,679	0,033	0,052
-252,322	800,000	0,022	0,045
-251,307	-200,000	0,031	-0,156
-250,292	695,420	-0,053	-0,099
-249,278	-200,000	0,016	0,065
-248,263	314,191	-0,121	0,162
-247,249	-61,211	-0,210	0,063
-246,234	800,000	0,032	0,083
-245,219	-200,000	-0,016	0,078
-244,205	-200,000	-0,037	-0,246
-243,190	-29,091	-0,025	-0,010
-242,176	280,117	0,112	-0,142
-241,161	-200,000	0,004	0,054
-240,146	-107,488	0,070	0,011
-239,132	33,796	-0,092	0,057
-238,117	-17,835	0,055	-0,024
-237,103	457,143	0,027	-0,044
-236,088	800,000	-0,019	-0,038
-235,073	-166,546	0,058	-0,002
-234,059	-200,000	-0,056	0,179
-233,044	-200,000	0,012	-0,063
-232,030	-200,000	-0,009	-0,043
-231,015	34,190	-0,062	-0,039
-230,000	-87,670	0,054	-0,011
-228,986	-200,000	-0,014	-0,059
-227,971	341,516	0,060	0,084
-226,957	703,819	0,077	0,146
-225,942	545,579	0,055	0,094
-224,927	188,516	0,025	0,026
-223,913	-129,601	-0,007	0,001
-222,898	-200,000	-0,001	-0,052
-221,884	800,000	0,047	-0,127
-220,869	134,269	-0,109	-0,100
-219,855	288,266	0,037	-0,048
-218,840	800,000	-0,037	0,116
-217,825	-200,000	-0,004	0,074
-216,811	25,335	0,052	-0,031
-215,796	467,154	-0,050	-0,080
-214,782	800,000	-0,052	-0,150
-213,767	584,841	-0,004	0,007
-212,752	-126,937	0,078	-0,008
-211,738	-200,000	0,048	0,178
-210,723	-38,991	0,030	0,011
-209,709	800,000	0,046	0,108
-208,694	285,417	0,072	-0,093
-207,679	-44,283	-0,214	0,076
-206,665	-127,483	0,219	-0,022
-205,650	193,691	-0,113	-0,122
-204,636	64,172	0,099	-0,070
-203,621	800,000	-0,054	-0,139
-202,606	28,583	-0,066	-0,040
-201,592	-200,000	-0,031	-0,138
-200,577	-39,999	-0,050	0,018
-199,563	173,719	0,087	0,089
-198,548	-200,000	-0,049	-0,193
-197,533	13,045	0,130	-0,071
-196,519	284,989	0,038	0,049
-195,504	155,358	-0,035	0,034
-194,490	135,110	-0,048	0,044
-193,475	535,339	0,001	-0,002
-192,460	161,486	-0,018	0,018
-191,446	-136,236	0,121	-0,010
-190,431	-17,347	0,113	-0,050
-189,417	-48,301	-0,054	0,018
-188,402	-200,000	-0,033	-0,168
-187,387	-200,000	0,009	0,036
-186,373	31,341	-0,099	0,060
-185,358	304,092	-0,048	0,064
-184,344	-200,000	-0,001	0,080
-183,329	55,336	0,021	0,015
-182,315	298,330	0,039	0,051
-181,300	442,044	-0,013	-0,021
-180,285	-200,000	-0,026	-0,186
-179,271	237,144	-0,051	0,061
-178,256	-105,084	-0,066	0,011
-177,242	-200,000	-0,013	-0,074
-176,227	-200,000	-0,010	0,089
-175,212	-200,000	0,046	0,235
-174,198	253,803	0,049	0,060
-173,183	-200,000	-0,004	-0,115
-172,169	-200,000	-0,028	-0,092
-171,154	667,366	-0,016	0,030
-170,139	-73,019	0,057	0,015
-169,125	794,239	-0,016	0,032
-168,110	-200,000	0,035	0,127
-167,096	-44,369	-0,046	-0,016
-166,081	800,000	0,023	-0,055
-165,066	77,961	-0,072	0,054
-164,052	-104,875	-0,013	0,002
-163,037	143,309	-0,044	-0,042
-162,023	-154,647	0,099	0,005
-161,008	112,322	0,080	0,069
-159,993	44,550	-0,029	-0,019
-158,979	-200,000	-0,007	-0,111
-157,964	-104,702	-0,129	-0,021
-156,950	-200,000	0,035	-0,111
-155,935	182,393	0,030	0,031
-154,920	-200,000	0,015	0,099
-153,906	105,783	0,088	0,074
-152,891	800,000	-0,032	0,067
-151,877	-200,000	0,052	-0,185
-150,862	-109,208	-0,139	0,021
-149,847	-200,000	-0,033	-0,152
-148,833	-65,789	-0,034	-0,010
-147,818	-200,000	-0,031	-0,219
-146,804	82,700	0,049	0,038
-145,789	-2,103	0,102	-0,051
-144,775	169,403	0,033	0,034
-143,760	334,617	-0,011	0,015
-142,745	-63,208	-0,142	-0,041
-141,731	-89,614	0,203	0,042
-140,716	800,000	-0,032	0,086
-139,702	-200,000	-0,016	0,089
-138,687	10,150	0,050	0,027
-137,672	369,801	0,056	-0,081
-136,658	-26,135	0,061	-0,025
-135,643	137,323	-0,105	-0,097
-134,629	-99,007	0,037	-0,007
-133,614	800,000	0,059	-0,153
-132,599	-131,936	0,093	-0,008
-131,585	322,187	-0,066	-0,089
-130,570	-200,000	-0,023	-0,103
-129,556	73,548	-0,104	-0,077
-128,541	-46,496	0,052	0,018
-127,526	-200,000	-0,014	-0,080
-126,512	97,188	0,031	-0,025
-125,497	-200,000	-0,016	-0,068
-124,483	-74,130	-0,023	0,006
-123,468	73,769	-0,120	-0,089
-122,453	-200,000	0,003	0,057
-121,439	-200,000	-0,006	0,129
-120,424	-200,000	-0,037	-0,123
-119,410	-123,302	-0,018	-0,002
-118,395	-49,891	0,118	-0,039
-117,380	76,014	0,032	0,024
-116,366	-83,188	-0,061	0,014
-115,351	-126,056	0,092	-0,010
-114,337	156,297	-0,076	-0,074
-113,322	81,416	-0,164	0,126
-112,307	-63,711	0,097	0,028
-111,293	181,131	-0,052	0,054
-110,278	-105,304	0,144	0,023
-109,264	-70,292	0,090	0,024
-108,249	-200,000	0,007	0,026
-107,234	-200,000	-0,007	0,093
-106,220	50,582	-0,161	-0,108
-105,205	-29,480	0,062	-0,025
-104,191	307,658	-0,047	0,063
-103,176	-200,000	-0,034	-0,141
-102,162	-101,799	0,090	0,015
-101,147	5,387	0,030	0,015
-100,132	13,708	-0,043	0,023
-99,118	596,375	-0,053	-0,092
-98,103	523,553	0,029	0,048
-97,089	-56,398	-0,067	0,021
-96,074	678,804	0,050	-0,093
-95,059	800,000	0,033	-0,078
-94,045	-46,714	-0,112	0,039
-93,030	56,680	0,122	0,084
-92,016	800,000	-0,055	-0,124
-91,001	-200,000	0,002	-0,081
-89,986	80,156	-0,048	0,036
-88,972	-200,000	-0,001	0,025
-87,957	-200,000	0,016	0,105
-86,943	-200,000	0,006	0,189
-85,928	66,701	-0,093	-0,067
-84,913	-200,000	-0,117	-0,000
-83,899	163,580	0,109	-0,108
-82,884	800,000	-0,007	0,020
-81,870	-200,000	0,008	0,079
-80,855	-200,000	0,006	0,113
-79,840	519,306	-0,063	0,105
-78,826	-200,000	0,025	0,085
-77,811	-108,580	-0,004	-0,001
-76,797	-89,861	0,123	0,025
-75,782	-102,723	-0,097	0,016
-74,767	179,332	0,070	-0,073
-73,753	46,467	-0,033	0,021
-72,738	118,295	-0,066	0,057
-71,724	-106,813	-0,096	-0,015
-70,709	-200,000	-0,012	-0,134
-69,694	173,997	-0,046	-0,047
-68,680	800,000	-0,062	0,138
-67,665	276,329	0,058	0,073
-66,651	800,000	0,039	0,089
-65,636	-55,644	-0,110	0,035
-64,622	-83,846	0,130	-0,029
-63,607	8,818	-0,183	0,097
-62,592	-139,031	-0,104	-0,008
-61,578	142,027	-0,030	0,028
-60,563	800,000	-0,030	-0,075
-59,549	9,415	-0,072	-0,038
-58,534	1,654	-1,790	-0,908
-57,519	356,831	-1,440	-2,033
-56,505	-200,000	-0,298	-4,448
-55,490	372,940	0,916	1,320
-54,476	800,000	5,149	11,420
-53,461	-200,000	20,211	326,610
-52,446	800,000	751,242	2310,182
-51,432	549,050	1658,684	2817,571
-50,417	74,541	1665,775	1235,540
-49,403	19,621	1538,529	871,695
-48,388	13,612	1460,916	798,635
-47,373	18,692	1451,258	817,731
-46,359	16,408	1440,463	800,740
-45,344	11,894	1436,138	776,802
-44,330	11,822	1434,419	775,500
-43,315	11,809	1432,563	774,405
-42,300	11,815	1430,784	773,439
-41,286	11,796	1429,618	772,690
-40,271	11,778	1428,372	771,897
-39,257	11,763	1427,117	771,119
-38,242	11,849	1425,931	770,853
-37,227	11,864	1424,594	770,173
-36,213	11,817	1423,538	769,349
-35,198	11,856	1422,119	768,737
-34,184	11,903	1421,390	768,532
-33,169	11,816	1419,989	767,335
-32,154	11,835	1418,912	766,811
-31,140	11,920	1417,621	766,482
-30,125	11,924	1416,587	765,912
-29,111	11,905	1415,254	765,072
-28,096	11,849	1414,459	764,351
-27,082	11,811	1413,163	763,439
-26,067	11,798	1412,077	762,761
-25,052	11,818	1411,060	762,279
-24,038	11,803	1410,124	761,670
-23,023	11,792	1409,127	761,049
-22,009	11,804	1408,148	760,547
-20,994	11,781	1406,972	759,776
-19,979	11,780	1406,247	759,349
-18,965	11,769	1405,058	758,626
-17,950	11,763	1404,558	758,295
-16,936	11,746	1403,844	757,801
-15,921	11,747	1402,383	756,990
-14,906	11,729	1401,613	756,460
-13,892	11,738	1400,667	755,961
-12,877	11,740	1399,703	755,420
-11,863	11,718	1399,082	754,953
-10,848	11,703	1397,897	754,212
-9,833	11,625	1397,114	753,401
-8,819	11,594	1396,543	752,918
-7,804	11,578	1395,475	752,237
-6,790	11,632	1394,385	751,868
-5,775	11,621	1393,261	751,185
-4,760	11,666	1392,294	750,841
-3,746	11,648	1391,443	750,268
-2,731	11,574	1390,809	749,557
-1,717	11,556	1389,850	748,926
-0,702	11,618	1388,078	748,225
0,313	15,648	1303,373	721,054
1,327	32,038	696,865	422,984
2,342	49,672	121,303	80,503
3,356	4,572	16,558	8,548
4,371	3,299	3,257	1,667
5,386	22,684	0,657	0,379
6,400	497,207	0,199	0,323
7,415	598,156	-0,074	-0,129
8,429	20,728	-0,251	-0,143
9,444	63,721	-0,215	-0,152
10,459	-102,561	-0,296	-0,049
11,473	-9,534	-0,242	-0,114
12,488	63,128	-0,232	-0,164
13,502	-106,112	-0,240	-0,038
14,517	82,317	-0,278	-0,213
15,531	110,215	-0,353	-0,299
16,546	199,583	-0,290	-0,314
17,561	104,461	-0,393	-0,326
18,575	-85,305	-0,118	-0,026
19,590	25,053	-0,302	-0,176
20,604	-155,455	-0,277	-0,012
21,619	23,979	-0,392	-0,227
22,634	200,255	-0,408	-0,442
23,648	0,975	-0,463	-0,233
24,663	51,789	-0,380	-0,254
25,677	71,147	-0,363	-0,265
26,692	-10,067	-0,433	-0,202
27,707	-47,026	-0,407	-0,139
28,721	54,150	-0,333	-0,225
29,736	63,833	-0,428	-0,303
30,750	65,309	-0,393	-0,279
31,765	116,304	-0,291	-0,251
32,780	156,939	-0,336	-0,327
33,794	75,771	-0,293	-0,218
34,809	85,385	-0,381	-0,294
35,823	-21,022	-0,445	-0,191
36,838	87,812	-0,364	-0,284
37,853	-4,121	-0,404	-0,196
38,867	136,343	-0,373	-0,342
39,882	50,405	-0,422	-0,280
40,896	164,279	-0,310	-0,308
41,911	195,042	-0,222	-0,237
42,926	41,023	-0,301	-0,190
43,940	140,153	-0,345	-0,320
44,955	98,806	-0,355	-0,288
45,969	59,857	-0,290	-0,201
46,984	366,309	-0,231	-0,329
47,999	91,765	-0,262	-0,207
49,013	78,872	-0,354	-0,266
50,028	87,749	-0,434	-0,338
51,042	112,844	-0,402	-0,342
52,057	463,997	-0,272	-0,429
53,071	85,777	-0,352	-0,272
54,086	-19,819	-0,411	-0,177
55,101	4,692	-0,332	-0,171
56,115	94,776	-0,243	-0,194
57,130	135,002	-0,294	-0,268
58,144	-48,307	-0,268	-0,090
59,159	124,652	-0,389	-0,343
60,174	42,741	-0,295	-0,188
61,188	79,222	-0,396	-0,297
62,203	-149,871	-0,343	-0,019
63,217	41,648	-0,358	-0,227
64,232	56,779	-0,333	-0,227
65,247	58,256	-0,401	-0,275
66,261	76,905	-0,349	-0,259
67,276	-46,549	-0,451	-0,154
68,290	-42,303	-0,421	-0,150
69,305	3,401	-0,311	-0,158
70,320	-50,606	-0,343	-0,113
71,334	-65,028	-0,323	-0,091
72,349	5,854	-0,399	-0,207
73,363	310,957	-0,194	-0,256
74,378	256,174	-0,286	-0,345
75,393	96,018	-0,292	-0,233
76,407	260,752	-0,302	-0,367
77,422	-14,457	-0,352	-0,158
78,436	36,089	-0,283	-0,174
79,451	399,168	-0,212	-0,313
80,466	-102,249	-0,234	-0,039
81,480	-66,613	-0,324	-0,089
82,495	107,937	-0,190	-0,158
83,509	196,583	-0,225	-0,240
84,524	248,763	-0,231	-0,275
85,539	95,781	-0,299	-0,239
86,553	21,460	-0,285	-0,162
87,568	78,801	-0,271	-0,203
88,582	60,533	-0,382	-0,264
89,597	141,955	-0,233	-0,216
90,611	44,075	-0,317	-0,203
91,626	-10,985	-0,322	-0,148
92,641	52,719	-0,244	-0,163
93,655	-69,604	-0,182	0,048
94,670	102,036	-0,301	-0,246
95,684	-12,042	-0,277	-0,127
96,699	54,942	-0,364	-0,246
97,714	93,875	-0,257	-0,204
98,728	-21,762	-0,217	-0,092
99,743	-83,324	-0,246	-0,055
100,757	139,487	-0,228	-0,210
101,772	33,697	-0,275	-0,167
102,787	56,860	-0,348	-0,237
103,801	119,700	-0,117	-0,101
104,816	491,832	-0,134	-0,215
105,830	-24,916	-0,432	-0,179
106,845	75,067	-0,303	-0,223
107,860	85,206	-0,296	-0,227
108,874	-116,795	-0,338	-0,043
109,889	138,703	-0,309	-0,284
110,903	56,719	-0,257	-0,175
111,918	151,511	-0,176	-0,167
112,933	-65,045	-0,197	-0,055
113,947	183,588	-0,168	-0,173
114,962	175,895	-0,186	-0,189
115,976	39,573	-0,357	-0,223
116,991	65,482	-0,266	-0,188
118,006	260,138	-0,289	-0,350
119,020	23,694	-0,249	-0,143
120,035	-78,589	-0,183	-0,043
121,049	35,797	-0,235	-0,144
122,064	-123,284	-0,279	-0,031
123,079	0,762	-0,328	-0,163
124,093	257,338	-0,166	-0,200
125,108	261,039	-0,218	-0,264
126,122	100,768	-0,232	-0,188
127,137	-16,881	-0,233	-0,102
128,151	153,371	-0,254	-0,243
129,166	31,584	-0,237	-0,142
130,181	-39,893	-0,227	-0,082
131,195	260,789	-0,168	-0,203
132,210	-74,356	-0,288	-0,072
133,224	141,273	-0,265	-0,245
134,239	100,254	-0,265	-0,215
135,254	326,185	-0,110	-0,148
136,268	-62,394	-0,177	0,051
137,283	71,891	-0,248	-0,180
138,297	161,673	-0,247	-0,241
139,312	71,768	-0,191	-0,139
140,327	24,317	-0,360	-0,207
141,341	62,382	-0,320	-0,223
142,356	-200,000	-0,038	-0,264
143,370	-65,962	-0,189	-0,052
144,385	359,266	-0,113	-0,158
145,400	75,926	-0,261	-0,192
146,414	144,530	-0,199	-0,186
147,429	244,730	-0,279	-0,328
148,443	800,000	-0,129	-0,268
149,458	149,822	-0,228	-0,216
150,473	277,411	-0,160	-0,198
151,487	-16,210	-0,208	-0,092
152,502	286,141	-0,269	-0,339
153,516	96,327	-0,270	-0,215
154,531	-105,872	-0,262	-0,041
155,546	800,000	-0,129	-0,304
156,560	29,375	-0,195	-0,115
157,575	800,000	-0,071	-0,181
158,589	121,455	-0,145	-0,125
159,604	-45,858	-0,222	-0,076
160,619	63,707	-0,258	-0,180
161,633	80,601	-0,237	-0,178
162,648	56,532	-0,200	-0,135
163,662	428,509	-0,087	-0,132
164,677	110,492	-0,228	-0,191
165,692	140,924	-0,221	-0,203
166,706	740,779	-0,101	-0,189
167,721	-71,400	-0,342	-0,088
168,735	147,323	-0,215	-0,202
169,750	139,855	-0,251	-0,230
170,764	91,955	-0,159	-0,124
171,779	270,699	-0,169	-0,207
172,794	234,222	-0,235	-0,269
173,808	14,761	-0,207	-0,112
174,823	100,184	-0,159	-0,128
175,837	-44,220	-0,228	-0,079
176,852	27,694	-0,259	-0,151
177,867	44,390	-0,188	-0,120
178,881	206,085	-0,229	-0,248
179,896	-106,905	-0,226	-0,034
180,910	82,322	-0,199	-0,150
181,925	198,741	-0,201	-0,214
182,940	336,957	-0,146	-0,198
183,954	134,182	-0,184	-0,166
184,969	591,154	-0,151	-0,260
185,983	-200,000	-0,062	-0,204
186,998	480,747	-0,082	-0,130
188,013	198,817	-0,158	-0,168
189,027	78,379	-0,198	-0,147
190,042	-21,225	-0,220	-0,093
191,056	201,669	-0,146	-0,156
192,071	121,433	-0,241	-0,209
193,086	-18,044	-0,229	-0,099
194,100	1,557	-0,216	-0,107
195,115	374,243	-0,134	-0,190
196,129	191,439	-0,174	-0,182
197,144	101,276	-0,116	-0,094
198,159	75,359	-0,211	-0,154
199,173	188,860	-0,123	-0,128
200,188	316,303	-0,115	-0,151
201,202	67,184	-0,257	-0,181
202,217	-86,198	-0,166	0,035
203,232	303,138	-0,123	-0,158
204,246	-73,248	-0,218	-0,055
205,261	140,561	-0,175	-0,160
206,275	-21,011	-0,251	-0,106
207,290	800,000	-0,074	-0,181
208,304	101,380	-0,219	-0,177
209,319	149,740	-0,191	-0,180
210,334	136,096	-0,205	-0,186
211,348	-108,891	-0,203	-0,030
212,363	59,801	-0,159	-0,108
213,377	39,534	-0,181	-0,112
214,392	-10,804	-0,169	-0,077
215,407	-78,658	-0,268	0,063
216,421	38,335	-0,216	-0,133
217,436	419,551	-0,190	-0,283
218,450	-28,773	-0,233	-0,093
219,465	145,102	-0,112	-0,104
220,480	274,235	-0,207	-0,255
221,494	-115,611	-0,231	-0,030
222,509	114,369	-0,141	-0,119
223,523	221,553	-0,084	-0,093
224,538	534,814	-0,108	-0,178
225,553	-18,929	-0,231	-0,099
226,567	103,071	-0,175	-0,142
227,582	232,493	-0,242	-0,276
228,596	-14,950	-0,255	-0,113
229,611	102,816	-0,133	-0,108
230,626	-34,355	-0,121	-0,046
231,640	165,925	-0,164	-0,161
232,655	61,442	-0,196	-0,135
233,669	782,655	-0,140	-0,266
234,684	85,536	-0,172	-0,130
235,699	-99,899	-0,144	-0,025
236,713	-64,513	-0,180	-0,050
237,728	-5,049	-0,216	-0,102
238,742	-46,751	-0,163	-0,055
239,757	7,868	-0,226	-0,117
240,772	81,461	-0,258	-0,192
241,786	356,390	-0,131	-0,180
242,801	24,764	-0,163	-0,093
243,815	87,153	-0,129	-0,098
244,830	-23,394	-0,165	-0,068
245,844	-93,817	-0,129	-0,024
246,859	214,711	-0,194	-0,213
247,874	800,000	-0,121	-0,322
248,888	171,465	-0,196	-0,195
249,903	61,674	-0,197	-0,135
250,917	5,773	-0,135	-0,069
251,932	406,772	-0,149	-0,217
252,947	140,335	-0,168	-0,153
253,961	-14,501	-0,163	-0,072
254,976	211,822	-0,135	-0,147
255,990	208,031	-0,185	-0,200
257,005	-65,598	-0,232	-0,064
258,020	307,138	-0,117	-0,150
259,034	336,676	-0,112	-0,151
260,049	535,982	-0,097	-0,160
261,063	-78,330	-0,209	-0,049
262,078	71,931	-0,249	-0,178
263,093	800,000	-0,095	-0,218
264,107	144,356	-0,220	-0,203
265,122	582,859	-0,170	-0,289
266,136	19,129	-0,131	-0,072
267,151	115,620	-0,227	-0,191
268,166	153,066	-0,118	-0,111
269,180	69,092	-0,191	-0,135
270,195	800,000	-0,084	-0,163
271,209	308,495	-0,047	-0,061
272,224	45,082	-0,127	-0,081
273,239	-69,034	-0,187	0,049
274,253	-138,142	-0,203	-0,015
275,268	83,537	-0,198	-0,149
276,282	257,395	-0,163	-0,194
277,297	3,974	-0,224	-0,113
278,312	360,541	-0,103	-0,143
279,326	25,278	-0,201	-0,115
280,341	-49,385	-0,162	-0,053
281,355	94,409	-0,080	-0,063
282,370	149,865	-0,113	-0,105
283,384	-125,246	-0,162	-0,017
284,399	-200,000	-0,021	-0,166
285,414	193,333	-0,194	-0,202
286,428	-200,000	-0,059	-0,222
287,443	-149,889	-0,099	0,005
288,457	800,000	-0,023	0,046
289,472	-62,684	-0,076	-0,022
290,487	312,422	-0,166	-0,215
291,501	172,202	-0,166	-0,164
292,516	17,955	-0,185	-0,101
293,530	15,385	-0,270	-0,145
294,545	94,642	-0,137	-0,107
295,560	-37,406	-0,193	0,071
296,574	-162,106	-0,145	-0,005
297,589	60,677	-0,143	-0,098
298,603	800,000	-0,155	-0,310
299,618	-46,384	-0,105	0,035
300,633	47,941	-0,145	0,093
301,647	-200,000	-0,005	0,099
302,662	203,760	-0,095	-0,101
303,676	-14,381	-0,228	-0,101
304,691	-43,236	-0,167	-0,058
305,706	-200,000	-0,083	-0,310
306,720	161,120	-0,112	-0,108
307,735	151,512	-0,125	-0,117
308,749	-51,093	-0,104	-0,033
309,764	145,312	-0,124	-0,114
310,779	49,034	-0,138	-0,089
311,793	5,838	-0,099	-0,050
312,808	-67,950	-0,272	-0,072
313,822	167,172	-0,133	-0,130
314,837	25,600	-0,171	-0,097
315,852	-31,964	-0,117	-0,045
316,866	115,734	-0,171	-0,144
317,881	-19,988	-0,183	-0,077
318,895	94,703	-0,189	-0,148
319,910	30,615	-0,286	-0,167
320,925	800,000	-0,080	-0,179
321,939	-55,946	-0,216	-0,066
322,954	35,567	-0,099	-0,059
323,968	588,039	-0,054	-0,091
324,983	34,248	-0,131	-0,078
325,997	-70,593	-0,178	-0,046
327,012	-29,726	-0,226	-0,088
328,027	343,693	-0,195	-0,263
329,041	-200,000	-0,017	-0,082
330,056	-23,757	-0,138	-0,056
331,070	83,495	-0,182	-0,136
332,085	63,328	-0,044	-0,030
333,100	454,055	-0,032	-0,048
334,114	780,374	-0,137	-0,258
335,129	77,854	-0,136	-0,099
336,143	33,139	-0,143	-0,085
337,158	48,958	-0,181	-0,116
338,173	800,000	-0,066	-0,148
339,187	-94,389	-0,234	-0,043
340,202	-4,021	-0,112	0,053
341,216	12,921	-0,167	-0,088
342,231	-97,607	-0,186	-0,033
343,246	-0,928	-0,203	-0,098
344,260	-100,585	-0,118	-0,020
345,275	-67,905	-0,143	-0,038
346,289	32,011	-0,137	-0,080
347,304	82,159	-0,255	-0,189
348,319	45,039	-0,174	-0,110
349,333	800,000	-0,019	0,039
350,348	-200,000	-0,017	-0,114
351,362	-163,253	-0,149	0,005
352,377	126,202	-0,085	0,073
353,392	-27,571	-0,191	-0,076
354,406	-23,153	-0,068	0,028
355,421	206,943	1311,338	1400,107
356,435	159,177	1471,635	1400,606
