DTS Sentinel unit serial number:	SN410029Multiplexer serial number:	ORYXHardware model number:	OX2-SRSoftware version number:	ORYX F/W v4,00 Oryx Data Collector v3.7.2.0data status	okinstallation	B3 Nyhavnadifferential loss correction	single-endedforward channel	channel 1reverse channel	N/Adate	2023/12/02time	16:37:30forward acquisition time	300,00reverse acquisition time	0,00gamma	499,1914k internal	0,3197k external	0,3197temperature offset calibration	1,0000default loss term (dB/km)	0,3820temperature slope calibration	1,0000multiplexer offset coefficient	1,0000multiplexer slope coefficient	1,0000fibre end	0,00T internal ref (°C)	14,18T ext. ref 1 (°C)	-1,38T ext. ref 2 (°C)	-1,40length (m)	temperature (°C)	Stokes	anti-Stokes-744,400	117,341	-0,238	-0,213
-743,385	-200,000	0,039	0,296
-742,371	94,996	-0,178	-0,148
-741,356	800,000	0,089	0,234
-740,342	-116,283	-0,262	-0,035
-739,327	-200,000	-0,064	0,306
-738,312	63,574	-0,251	-0,183
-737,298	-200,000	0,053	0,335
-736,283	449,801	-0,088	-0,141
-735,269	345,732	0,228	0,327
-734,254	119,147	-0,183	-0,165
-733,239	-200,000	-0,035	0,183
-732,225	800,000	-0,104	-0,282
-731,210	57,340	0,131	0,093
-730,196	-73,647	-0,109	-0,029
-729,181	312,725	-0,091	0,125
-728,167	235,218	-0,094	-0,113
-727,152	541,225	0,033	-0,058
-726,137	800,000	-0,047	-0,119
-725,123	65,888	-0,124	-0,091
-724,108	416,427	-0,033	-0,051
-723,094	-200,000	-0,049	-0,159
-722,079	-93,965	-0,183	-0,036
-721,064	-200,000	0,018	-0,110
-720,050	353,622	-0,074	-0,108
-719,035	-200,000	-0,010	0,092
-718,021	800,000	-0,039	0,115
-717,006	-46,247	-0,094	-0,034
-715,991	-200,000	0,004	-0,098
-714,977	800,000	0,026	-0,061
-713,962	-135,983	-0,067	-0,006
-712,948	-200,000	0,016	0,139
-711,933	-96,072	0,104	-0,020
-710,918	-96,544	-0,185	0,035
-709,904	173,655	-0,044	0,047
-708,889	-200,000	-0,020	0,092
-707,875	-200,000	0,002	-0,127
-706,860	-200,000	0,008	-0,070
-705,845	392,235	0,085	-0,129
-704,831	800,000	-0,019	-0,057
-703,816	236,428	0,057	0,069
-702,802	-200,000	-0,006	0,021
-701,787	-34,689	-0,113	-0,045
-700,772	635,716	-0,054	-0,100
-699,758	-17,278	0,075	-0,034
-698,743	-153,686	0,081	-0,004
-697,729	-200,000	-0,022	0,087
-696,714	-153,219	-0,060	-0,003
-695,699	22,782	-0,028	0,017
-694,685	800,000	-0,038	-0,101
-693,670	14,456	-0,125	-0,071
-692,656	-49,864	0,078	0,027
-691,641	622,829	-0,062	0,114
-690,627	462,524	-0,034	-0,055
-689,612	527,807	-0,146	-0,251
-688,597	492,883	-0,056	-0,094
-687,583	-3,196	-0,060	-0,030
-686,568	-200,000	0,004	0,079
-685,554	-200,000	0,005	0,047
-684,539	-159,059	0,042	-0,002
-683,524	-71,339	-0,071	-0,019
-682,510	800,000	0,021	0,066
-681,495	-200,000	0,000	-0,009
-680,481	170,180	-0,119	-0,124
-679,466	800,000	0,061	-0,137
-678,451	-200,000	0,026	-0,095
-677,437	-119,629	0,024	0,003
-676,422	-28,601	-0,084	-0,035
-675,408	786,055	-0,077	0,155
-674,393	800,000	0,009	-0,029
-673,378	-150,236	-0,150	-0,008
-672,364	-53,929	0,040	0,013
-671,349	523,823	-0,026	-0,045
-670,335	-0,445	-0,035	-0,018
-669,320	290,279	-0,026	-0,034
-668,305	556,126	0,072	-0,126
-667,291	-129,817	0,077	-0,008
-666,276	800,000	-0,043	-0,103
-665,262	168,063	0,045	-0,047
-664,247	-3,991	-0,040	-0,020
-663,232	-200,000	-0,006	-0,140
-662,218	194,896	-0,140	-0,154
-661,203	152,972	-0,004	0,004
-660,189	-200,000	-0,003	0,131
-659,174	-200,000	0,003	-0,106
-658,159	-92,672	-0,224	0,045
-657,145	752,347	-0,056	-0,110
-656,130	-121,664	0,033	-0,004
-655,116	131,495	-0,031	-0,029
-654,101	483,020	0,050	-0,083
-653,086	60,315	0,029	0,020
-652,072	354,347	-0,036	0,052
-651,057	-34,042	-0,091	0,036
-650,043	117,108	-0,047	-0,042
-649,028	106,598	-0,098	-0,085
-648,014	69,091	0,071	-0,053
-646,999	-200,000	-0,018	-0,072
-645,984	-200,000	-0,010	-0,055
-644,970	-58,895	-0,064	0,020
-643,955	437,907	0,024	-0,038
-642,941	800,000	-0,027	-0,087
-641,926	190,793	0,044	-0,048
-640,911	-35,654	0,077	-0,030
-639,897	-130,237	0,113	0,011
-638,882	17,655	-0,053	0,031
-637,868	-45,794	-0,027	-0,009
-636,853	-81,846	-0,071	0,017
-635,838	138,837	-0,127	0,121
-634,824	-113,704	0,028	-0,004
-633,809	-103,725	-0,162	-0,027
-632,795	-200,000	0,022	0,094
-631,780	157,025	0,095	0,095
-630,765	-37,126	-0,168	0,065
-629,751	307,172	0,047	-0,064
-628,736	300,788	-0,118	-0,158
-627,722	-200,000	0,013	-0,050
-626,707	145,718	0,053	0,051
-625,692	-200,000	-0,010	0,068
-624,678	92,429	-0,069	0,056
-623,663	-5,335	0,073	0,036
-622,649	52,272	-0,006	0,004
-621,634	612,515	-0,032	-0,058
-620,619	800,000	0,079	-0,198
-619,605	800,000	0,046	-0,123
-618,590	800,000	0,041	-0,122
-617,576	800,000	0,034	-0,088
-616,561	193,448	-0,066	-0,073
-615,546	446,919	-0,069	-0,111
-614,532	800,000	0,022	-0,054
-613,517	491,798	-0,018	0,029
-612,503	96,324	-0,032	0,026
-611,488	-54,494	0,050	0,016
-610,474	-200,000	0,015	-0,075
-609,459	743,640	-0,068	0,132
-608,444	-4,392	-0,041	-0,021
-607,430	107,442	-0,024	0,021
-606,415	-6,731	0,122	0,060
-605,401	-200,000	-0,009	0,116
-604,386	-131,865	0,066	0,006
-603,371	225,847	-0,048	0,056
-602,357	-200,000	0,014	-0,130
-601,342	52,846	-0,030	0,021
-600,328	-200,000	0,004	-0,082
-599,313	7,471	-0,050	0,027
-598,298	259,726	0,107	-0,134
-597,284	87,459	-0,038	-0,031
-596,269	-115,714	0,030	0,004
-595,255	-200,000	0,009	-0,130
-594,240	800,000	0,066	-0,201
-593,225	-103,523	0,135	0,023
-592,211	-22,370	-0,105	0,046
-591,196	-200,000	-0,018	-0,170
-590,182	-165,947	0,066	0,002
-589,167	140,907	0,158	-0,151
-588,152	-19,474	0,079	0,035
-587,138	503,879	0,042	-0,071
-586,123	700,845	-0,040	-0,077
-585,109	-200,000	0,024	-0,099
-584,094	48,848	0,029	-0,020
-583,079	800,000	-0,095	-0,219
-582,065	-8,818	0,114	-0,055
-581,050	-127,884	0,060	-0,006
-580,036	108,274	0,061	-0,053
-579,021	-200,000	0,016	-0,055
-578,006	800,000	-0,012	-0,033
-576,992	-18,126	0,131	0,059
-575,977	145,532	-0,082	-0,079
-574,963	800,000	0,043	0,088
-573,948	-200,000	0,009	0,118
-572,934	306,762	-0,008	-0,011
-571,919	800,000	0,067	-0,139
-570,904	226,626	-0,126	0,148
-569,890	153,750	-0,120	0,119
-568,875	-4,497	0,166	0,083
-567,861	-200,000	-0,001	0,027
-566,846	-200,000	0,019	-0,117
-565,831	-200,000	0,014	-0,125
-564,817	-200,000	0,031	-0,103
-563,802	213,928	-0,096	-0,110
-562,788	800,000	0,038	-0,098
-561,773	-103,230	0,150	0,025
-560,758	420,287	-0,045	0,070
-559,744	-14,431	0,089	0,041
-558,729	-69,124	-0,144	0,040
-557,715	-63,316	-0,042	-0,012
-556,700	-82,319	-0,122	-0,028
-555,685	303,200	-0,076	-0,102
-554,671	-110,049	-0,141	-0,021
-553,656	800,000	0,035	-0,092
-552,642	-11,619	0,105	0,050
-551,627	800,000	0,015	0,048
-550,612	-27,291	0,092	-0,039
-549,598	117,536	0,091	-0,081
-548,583	183,312	-0,027	-0,029
-547,569	-200,000	0,007	0,038
-546,554	48,868	-0,111	0,075
-545,539	-8,672	0,055	-0,027
-544,525	800,000	0,035	0,110
-543,510	800,000	0,037	-0,110
-542,496	233,869	0,030	0,035
-541,481	-200,000	0,001	-0,078
-540,466	-200,000	0,008	-0,034
-539,452	-142,922	0,070	0,005
-538,437	-147,034	0,015	0,001
-537,423	300,467	-0,097	0,130
-536,408	-20,674	-0,037	0,016
-535,393	-200,000	0,004	-0,024
-534,379	800,000	0,030	-0,079
-533,364	175,449	0,111	0,116
-532,350	-108,392	0,161	0,025
-531,335	211,165	0,068	0,077
-530,321	85,679	-0,043	0,034
-529,306	-200,000	0,012	0,045
-528,291	-160,262	0,183	-0,007
-527,277	42,729	0,063	-0,041
-526,262	800,000	-0,032	-0,088
-525,248	-200,000	-0,001	0,151
-524,233	-171,361	0,184	0,004
-523,218	126,165	0,051	0,046
-522,204	-130,132	-0,086	0,008
-521,189	-200,000	-0,009	0,048
-520,175	800,000	0,039	-0,114
-519,160	103,099	-0,100	0,085
-518,145	-200,000	-0,016	-0,055
-517,131	188,577	0,051	0,055
-516,116	800,000	-0,023	-0,048
-515,102	78,702	0,059	0,045
-514,087	592,062	-0,020	-0,036
-513,072	209,710	-0,047	0,053
-512,058	351,235	-0,025	0,036
-511,043	275,117	0,010	-0,013
-510,029	456,590	0,075	0,120
-509,014	-26,448	0,067	0,028
-507,999	-200,000	-0,023	0,090
-506,985	55,096	0,073	-0,051
-505,970	19,715	-0,140	-0,081
-504,956	-89,886	0,060	0,013
-503,941	800,000	-0,014	-0,043
-502,926	-120,015	-0,121	-0,015
-501,912	64,317	0,004	-0,003
-500,897	75,056	-0,095	-0,072
-499,883	800,000	0,018	0,038
-498,868	800,000	0,024	0,069
-497,853	61,430	-0,158	-0,113
-496,839	-200,000	0,018	-0,093
-495,824	73,652	0,130	0,098
-494,810	-200,000	0,038	0,129
-493,795	519,480	-0,046	0,078
-492,781	-124,228	0,031	0,004
-491,766	241,803	-0,047	0,057
-490,751	202,221	-0,046	-0,052
-489,737	-200,000	0,010	0,054
-488,722	6,969	-0,078	0,042
-487,708	217,618	-0,055	0,063
-486,693	-200,000	0,017	0,118
-485,678	-200,000	0,004	0,041
-484,664	-200,000	-0,001	0,039
-483,649	-66,209	-0,094	-0,027
-482,635	-94,548	0,074	0,014
-481,620	800,000	0,010	0,029
-480,605	-44,607	-0,118	0,042
-479,591	160,593	-0,072	-0,072
-478,576	4,380	0,097	0,051
-477,562	-200,000	0,014	-0,059
-476,547	128,956	-0,102	-0,094
-475,532	326,752	-0,058	-0,080
-474,518	435,282	-0,064	0,100
-473,503	620,007	0,043	0,078
-472,489	2,790	0,143	0,074
-471,474	101,533	0,070	0,059
-470,459	19,633	-0,053	0,031
-469,445	301,907	-0,038	0,051
-468,430	-76,971	0,034	0,009
-467,416	94,044	-0,038	0,031
-466,401	184,074	0,074	0,079
-465,386	31,495	-0,127	0,079
-464,372	-11,186	0,106	-0,050
-463,357	-39,184	0,088	0,033
-462,343	657,241	-0,049	-0,091
-461,328	220,925	0,063	0,073
-460,313	-111,584	-0,091	-0,013
-459,299	-55,353	0,087	-0,028
-458,284	262,506	0,063	0,079
-457,270	114,781	-0,011	-0,010
-456,255	-123,856	-0,090	0,010
-455,241	-200,000	-0,031	-0,147
-454,226	-200,000	-0,003	-0,015
-453,211	-36,189	0,125	0,048
-452,197	-200,000	0,003	-0,034
-451,182	28,515	0,079	0,048
-450,168	230,869	0,009	0,011
-449,153	69,233	-0,103	-0,077
-448,138	-153,594	-0,019	-0,001
-447,124	-200,000	-0,006	0,059
-446,109	22,859	0,066	0,039
-445,095	786,835	-0,034	-0,068
-444,080	2,442	-0,068	0,035
-443,065	539,371	-0,048	0,082
-442,051	130,888	-0,036	-0,033
-441,036	-110,715	-0,174	0,026
-440,022	-40,742	0,024	-0,009
-439,007	-31,919	0,074	0,030
-437,992	800,000	0,021	0,046
-436,978	-141,159	0,144	0,010
-435,963	128,061	0,049	0,045
-434,949	-131,220	-0,139	0,013
-433,934	721,435	-0,067	-0,129
-432,919	406,158	-0,054	-0,083
-431,905	207,054	-0,093	-0,104
-430,890	70,023	0,081	-0,060
-429,876	56,046	-0,058	-0,041
-428,861	-51,686	0,061	0,020
-427,846	24,978	-0,088	0,052
-426,832	800,000	0,026	-0,079
-425,817	20,298	-0,063	-0,037
-424,803	610,749	-0,022	-0,040
-423,788	-149,025	-0,048	-0,003
-422,773	8,736	0,007	-0,004
-421,759	-53,795	-0,037	0,012
-420,744	800,000	-0,040	0,115
-419,730	-98,293	-0,147	0,027
-418,715	8,136	0,123	0,066
-417,701	-200,000	-0,008	0,069
-416,686	-200,000	-0,076	0,000
-415,671	-200,000	0,034	0,129
-414,657	22,805	-0,065	0,038
-413,642	-200,000	-0,039	0,126
-412,628	-38,443	-0,127	0,048
-411,613	-15,517	-0,168	-0,077
-410,598	-200,000	0,034	-0,112
-409,584	83,742	0,067	-0,053
-408,569	-147,813	0,185	0,011
-407,555	25,989	0,114	0,068
-406,540	800,000	0,022	0,055
-405,525	183,176	0,023	0,024
-404,511	396,599	-0,051	-0,077
-403,496	502,304	-0,023	-0,038
-402,482	117,942	-0,065	-0,058
-401,467	-107,435	0,029	-0,004
-400,452	642,420	0,015	-0,028
-399,438	-200,000	0,024	-0,102
-398,423	-113,817	0,060	-0,008
-397,409	431,375	-0,087	-0,135
-396,394	1,400	0,124	-0,064
-395,379	281,922	0,098	0,127
-394,365	-140,879	0,138	-0,010
-393,350	-27,365	-0,078	-0,033
-392,336	-76,516	-0,051	-0,013
-391,321	-200,000	0,004	0,016
-390,306	46,510	-0,154	0,103
-389,292	616,760	0,024	-0,043
-388,277	-20,714	-0,156	0,069
-387,263	800,000	-0,011	0,024
-386,248	128,100	0,057	0,052
-385,233	800,000	0,069	0,151
-384,219	-62,370	0,095	0,028
-383,204	-200,000	-0,009	-0,073
-382,190	187,265	0,045	-0,049
-381,175	277,751	-0,061	0,078
-380,160	-200,000	0,001	0,008
-379,146	233,435	-0,010	-0,012
-378,131	77,481	-0,040	0,030
-377,117	-200,000	0,006	0,072
-376,102	-200,000	0,042	0,135
-375,088	347,150	-0,080	-0,114
-374,073	148,099	-0,089	-0,086
-373,058	-200,000	0,007	-0,064
-372,044	-200,000	0,002	0,143
-371,029	-200,000	-0,027	0,092
-370,015	-181,244	-0,162	-0,002
-369,000	-41,509	-0,083	-0,030
-367,985	476,297	0,050	-0,081
-366,971	17,222	-0,055	-0,031
-365,956	-60,502	0,080	0,024
-364,942	-172,869	0,126	-0,003
-363,927	800,000	0,029	-0,062
-362,912	422,479	0,057	0,088
-361,898	27,647	0,108	-0,065
-360,883	202,604	0,082	-0,091
-359,869	352,543	-0,055	-0,078
-358,854	-1,612	0,081	0,041
-357,839	285,174	0,052	-0,067
-356,825	-144,500	0,202	-0,013
-355,810	497,675	0,016	-0,027
-354,796	324,809	0,072	0,099
-353,781	-185,256	-0,072	0,001
-352,766	375,284	0,025	-0,037
-351,752	74,982	-0,098	-0,074
-350,737	-49,188	0,112	0,038
-349,723	4,054	-0,097	-0,051
-348,708	-200,000	-0,016	0,092
-347,693	344,363	0,064	0,090
-346,679	-35,593	-0,189	-0,073
-345,664	-9,177	-0,096	-0,046
-344,650	-69,922	0,027	0,007
-343,635	-82,629	0,133	0,031
-342,620	-86,866	-0,101	-0,022
-341,606	163,061	-0,039	0,039
-340,591	-195,596	0,116	0,001
-339,577	-170,145	-0,131	0,003
-338,562	-59,775	-0,088	0,027
-337,548	120,248	0,057	0,051
-336,533	-38,150	0,137	-0,052
-335,518	-200,000	-0,001	-0,081
-334,504	112,844	-0,079	0,068
-333,489	-124,045	0,124	0,014
-332,475	612,711	-0,030	-0,055
-331,460	31,116	-0,109	0,067
-330,445	-200,000	-0,073	-0,000
-329,431	-170,609	0,054	0,001
-328,416	-200,000	0,013	0,042
-327,402	800,000	-0,010	-0,026
-326,387	-200,000	-0,042	-0,153
-325,372	221,052	-0,069	-0,080
-324,358	800,000	-0,061	-0,126
-323,343	-200,000	0,075	-0,000
-322,329	676,110	-0,046	0,086
-321,314	-200,000	-0,001	0,053
-320,299	-200,000	-0,001	-0,018
-319,285	-200,000	-0,033	-0,169
-318,270	-41,891	-0,098	0,036
-317,256	138,149	0,053	-0,050
-316,241	-88,290	0,054	0,011
-315,226	800,000	0,058	-0,145
-314,212	266,825	-0,016	-0,020
-313,197	800,000	0,013	-0,037
-312,183	605,313	0,056	0,101
-311,168	433,823	-0,033	0,052
-310,153	481,818	-0,110	-0,180
-309,139	-97,237	0,063	0,012
-308,124	800,000	-0,010	0,027
-307,110	-32,134	-0,037	0,015
-306,095	800,000	0,016	0,047
-305,080	-134,107	-0,226	0,020
-304,066	598,106	0,048	0,085
-303,051	-200,000	-0,004	-0,209
-302,037	161,920	0,009	-0,009
-301,022	324,124	0,117	0,160
-300,008	-116,941	0,071	-0,009
-298,993	-200,000	0,011	0,034
-297,978	-200,000	0,010	0,103
-296,964	-200,000	-0,007	-0,093
-295,949	-153,485	-0,158	-0,008
-294,935	513,229	0,110	-0,185
-293,920	-106,470	0,034	0,005
-292,905	-139,876	0,101	-0,008
-291,891	-153,616	0,092	-0,004
-290,876	-71,704	-0,121	0,032
-289,862	-126,989	-0,024	-0,003
-288,847	39,426	-0,089	-0,057
-287,832	-11,834	-0,153	0,071
-286,818	-200,000	-0,004	-0,018
-285,803	579,380	0,052	0,092
-284,789	603,108	0,033	0,060
-283,774	-9,677	-0,072	0,034
-282,759	-14,064	0,023	0,011
-281,745	-200,000	-0,004	-0,034
-280,730	-159,179	0,063	0,003
-279,716	800,000	-0,052	-0,105
-278,701	-200,000	0,008	-0,032
-277,686	800,000	-0,022	0,052
-276,672	-200,000	-0,005	0,037
-275,657	-200,000	-0,051	-0,169
-274,643	-30,156	-0,123	-0,050
-273,628	-68,535	-0,047	0,013
-272,613	800,000	0,052	0,122
-271,599	20,370	0,037	0,021
-270,584	-200,000	-0,019	-0,122
-269,570	471,331	0,087	0,140
-268,555	-200,000	0,011	0,146
-267,540	206,459	-0,083	0,092
-266,526	800,000	-0,039	-0,085
-265,511	203,168	-0,072	-0,080
-264,497	800,000	0,040	0,085
-263,482	-200,000	-0,019	0,097
-262,467	-55,581	-0,017	-0,005
-261,453	-136,106	-0,027	0,002
-260,438	-200,000	0,026	0,145
-259,424	51,752	0,033	-0,023
-258,409	-85,254	-0,023	-0,005
-257,395	-91,947	0,099	0,020
-256,380	6,561	0,060	0,032
-255,365	800,000	0,065	0,197
-254,351	57,155	0,067	-0,047
-253,336	104,370	-0,076	-0,064
-252,322	-129,500	0,057	-0,006
-251,307	-86,193	-0,099	-0,022
-250,292	489,200	0,035	0,057
-249,278	348,792	0,041	-0,058
-248,263	-200,000	0,011	-0,089
-247,249	759,386	0,033	0,064
-246,234	800,000	-0,046	-0,102
-245,219	-200,000	0,020	-0,124
-244,205	754,133	-0,033	0,064
-243,190	-200,000	-0,009	-0,050
-242,176	-23,106	0,154	-0,066
-241,161	800,000	0,039	0,105
-240,146	371,930	-0,087	0,126
-239,132	-200,000	0,034	0,203
-238,117	124,284	-0,053	-0,048
-237,103	-200,000	-0,039	-0,157
-236,088	-15,726	-0,101	0,046
-235,073	99,680	0,095	-0,078
-234,059	-39,039	-0,057	0,021
-233,044	111,726	0,082	0,071
-232,030	-200,000	0,039	0,183
-231,015	-200,000	-0,008	0,053
-230,000	-200,000	0,002	0,010
-228,986	99,538	0,072	0,060
-227,971	310,545	-0,050	-0,067
-226,957	99,839	-0,118	0,097
-225,942	-200,000	0,014	0,141
-224,927	800,000	0,009	0,023
-223,913	23,107	0,099	0,058
-222,898	-200,000	-0,022	-0,074
-221,884	800,000	-0,013	-0,028
-220,869	77,935	-0,046	-0,035
-219,855	800,000	0,022	0,061
-218,840	800,000	-0,051	-0,112
-217,825	-200,000	0,051	-0,234
-216,811	-200,000	0,019	0,074
-215,796	110,466	-0,117	-0,100
-214,782	-54,463	0,107	0,034
-213,767	800,000	0,052	0,106
-212,752	86,958	0,033	0,026
-211,738	2,073	-0,125	0,064
-210,723	800,000	-0,030	0,089
-209,709	-67,395	0,046	-0,013
-208,694	34,468	0,076	0,047
-207,679	-60,337	-0,166	0,050
-206,665	-200,000	-0,006	0,053
-205,650	-59,105	0,143	-0,044
-204,636	751,567	0,042	-0,082
-203,621	-107,875	0,048	-0,007
-202,606	-33,179	0,084	-0,033
-201,592	-200,000	-0,002	-0,038
-200,577	-200,000	0,003	0,042
-199,563	260,709	-0,090	0,111
-198,548	-200,000	-0,016	0,096
-197,533	268,855	-0,073	0,091
-196,519	333,584	0,036	0,049
-195,504	800,000	-0,026	0,066
-194,490	609,391	-0,056	-0,100
-193,475	-123,801	-0,034	0,004
-192,460	48,573	0,063	-0,042
-191,446	213,955	0,085	0,096
-190,431	-55,537	0,108	0,034
-189,417	-14,123	-0,209	-0,096
-188,402	248,503	0,013	0,015
-187,387	518,428	0,051	0,085
-186,373	-70,937	-0,058	-0,015
-185,358	-200,000	-0,003	-0,095
-184,344	206,419	-0,046	-0,051
-183,329	-200,000	0,016	0,133
-182,315	-1,548	0,086	-0,043
-181,300	-139,345	0,159	-0,012
-180,285	-200,000	-0,011	0,049
-179,271	18,533	0,074	-0,042
-178,256	33,097	-0,061	0,037
-177,242	219,179	-0,067	0,076
-176,227	147,922	-0,050	0,048
-175,212	103,831	-0,158	0,132
-174,198	99,112	-0,068	0,056
-173,183	262,657	-0,011	-0,014
-172,169	121,808	-0,194	-0,173
-171,154	664,430	0,068	-0,126
-170,139	-62,103	-0,059	-0,017
-169,125	800,000	0,024	-0,054
-168,110	161,921	0,041	0,041
-167,096	234,440	-0,075	0,088
-166,081	183,435	0,055	-0,058
-165,066	221,411	-0,053	0,061
-164,052	756,844	0,072	-0,140
-163,037	45,016	0,099	0,065
-162,023	-200,000	0,020	-0,122
-161,008	-78,380	0,088	-0,021
-159,993	342,540	-0,059	0,083
-158,979	-36,640	0,090	0,034
-157,964	-200,000	0,023	-0,076
-156,950	-200,000	0,002	0,022
-155,935	27,100	-0,031	0,018
-154,920	347,314	-0,074	0,104
-153,906	519,839	0,109	0,182
-152,891	49,183	-0,064	0,043
-151,877	58,621	0,058	-0,041
-150,862	606,496	-0,106	-0,189
-149,847	-183,029	-0,048	0,001
-148,833	-200,000	0,007	0,030
-147,818	-200,000	0,021	-0,083
-146,804	-200,000	-0,023	0,085
-145,789	33,248	0,057	-0,035
-144,775	76,647	-0,079	-0,060
-143,760	-194,338	-0,049	-0,000
-142,745	59,243	-0,107	-0,075
-141,731	-200,000	-0,015	-0,088
-140,716	800,000	-0,005	0,012
-139,702	82,127	0,093	0,072
-138,687	-200,000	-0,014	0,048
-137,672	-137,721	-0,043	0,003
-136,658	-87,715	-0,084	0,018
-135,643	210,984	-0,054	0,060
-134,629	6,463	0,075	-0,040
-133,614	-200,000	-0,015	0,093
-132,599	-192,400	0,136	0,001
-131,585	-200,000	0,007	0,021
-130,570	283,350	0,052	0,067
-129,556	238,433	-0,049	0,058
-128,541	118,405	0,023	-0,020
-127,526	247,355	-0,017	-0,021
-126,512	800,000	-0,017	0,051
-125,497	-7,123	0,067	-0,032
-124,483	800,000	0,050	-0,104
-123,468	197,160	-0,152	0,165
-122,453	800,000	0,038	-0,099
-121,439	403,217	-0,074	-0,111
-120,424	-200,000	0,024	0,092
-119,410	800,000	-0,043	0,120
-118,395	61,732	0,115	0,081
-117,380	97,122	0,009	0,008
-116,366	-109,484	-0,095	0,014
-115,351	-200,000	-0,024	-0,118
-114,337	-200,000	-0,047	-0,181
-113,322	-200,000	0,029	0,098
-112,307	-200,000	-0,032	0,113
-111,293	800,000	-0,031	0,078
-110,278	-200,000	-0,003	0,067
-109,264	-124,527	0,091	-0,010
-108,249	328,006	-0,050	0,069
-107,234	-52,793	-0,074	-0,024
-106,220	32,010	-0,005	-0,003
-105,205	-200,000	0,045	0,167
-104,191	418,303	-0,043	-0,065
-103,176	704,682	-0,019	0,036
-102,162	16,874	-0,106	0,059
-101,147	-99,369	-0,075	-0,013
-100,132	-200,000	-0,005	-0,020
-99,118	-104,892	-0,054	0,009
-98,103	37,490	0,080	-0,050
-97,089	195,129	-0,093	0,101
-96,074	195,817	0,110	0,119
-95,059	209,895	0,094	0,105
-94,045	374,924	-0,031	-0,046
-93,030	-200,000	0,015	-0,133
-92,016	-76,596	0,033	-0,008
-91,001	189,099	-0,085	0,091
-89,986	-66,222	0,189	-0,053
-88,972	-200,000	0,004	0,050
-87,957	96,263	0,142	0,115
-86,943	800,000	-0,037	-0,091
-85,928	-103,698	-0,011	0,002
-84,913	-175,111	-0,076	-0,001
-83,899	-70,903	0,067	-0,018
-82,884	-29,854	0,023	0,009
-81,870	44,027	-0,054	0,035
-80,855	800,000	-0,060	0,132
-79,840	221,259	0,050	0,057
-78,826	-40,040	-0,113	0,042
-77,811	800,000	-0,034	-0,080
-76,797	126,425	-0,037	0,034
-75,782	89,955	0,058	0,046
-74,767	800,000	0,015	-0,039
-73,753	178,002	0,135	0,140
-72,738	15,735	-0,106	0,059
-71,724	66,898	-0,054	0,039
-70,709	359,530	-0,081	-0,115
-69,694	-135,995	-0,145	-0,012
-68,680	-95,743	0,042	-0,008
-67,665	-54,144	0,070	0,022
-66,651	-200,000	0,003	0,047
-65,636	-63,819	-0,095	0,027
-64,622	198,705	0,054	-0,058
-63,607	-200,000	0,028	-0,087
-62,592	92,882	0,090	-0,072
-61,578	57,624	0,058	-0,040
-60,563	800,000	0,023	0,070
-59,549	-200,000	-0,007	0,113
-58,534	-22,048	-1,624	-0,696
-57,519	342,155	-1,425	-1,981
-56,505	-200,000	-0,479	-4,378
-55,490	172,158	0,983	1,003
-54,476	800,000	4,896	11,261
-53,461	-200,000	18,650	303,379
-52,446	800,000	736,463	2287,701
-51,432	565,704	1652,490	2851,647
-50,417	78,777	1668,902	1264,119
-49,403	22,125	1541,746	889,529
-48,388	16,091	1464,563	815,683
-47,373	17,808	1454,797	818,509
-46,359	16,951	1445,033	808,870
-45,344	14,297	1440,298	793,479
-44,330	14,235	1438,362	792,084
-43,315	14,267	1436,517	791,194
-42,300	14,236	1435,086	790,226
-41,286	14,292	1433,694	789,694
-40,271	14,196	1432,743	788,680
-39,257	14,238	1431,136	787,963
-38,242	14,307	1429,722	787,481
-37,227	14,344	1428,762	787,097
-36,213	14,316	1427,368	786,167
-35,198	14,271	1426,373	785,373
-34,184	14,308	1425,376	784,971
-33,169	14,261	1423,963	783,936
-32,154	14,268	1422,885	783,345
-31,140	14,251	1421,761	782,616
-30,125	14,328	1420,514	782,260
-29,111	14,238	1419,667	781,340
-28,096	14,286	1418,209	780,732
-27,082	14,199	1417,261	779,770
-26,067	14,246	1416,042	779,290
-25,052	14,264	1415,028	778,785
-24,038	14,237	1414,210	778,179
-23,023	14,176	1413,189	777,296
-22,009	14,198	1411,980	776,706
-20,994	14,196	1411,148	776,209
-19,979	14,151	1410,482	775,597
-18,965	14,124	1409,530	774,920
-17,950	14,087	1408,616	774,210
-16,936	14,102	1407,640	773,715
-15,921	14,118	1406,492	773,127
-14,906	14,109	1405,600	772,564
-13,892	14,135	1404,628	772,120
-12,877	14,155	1403,505	771,568
-11,863	14,100	1402,798	770,890
-10,848	14,103	1402,055	770,464
-9,833	14,089	1401,118	769,857
-8,819	14,022	1400,245	769,031
-7,804	13,980	1399,214	768,243
-6,790	14,002	1398,153	767,729
-5,775	13,987	1397,277	767,147
-4,760	14,039	1396,196	766,766
-3,746	13,994	1395,536	766,165
-2,731	13,950	1394,664	765,450
-1,717	14,012	1393,703	765,181
-0,702	13,953	1391,999	763,940
0,313	17,797	1310,179	736,859
1,327	34,219	705,460	434,810
2,342	52,840	123,799	83,713
3,356	4,453	16,628	8,609
4,371	6,009	3,235	1,691
5,386	116,211	0,514	0,446
6,400	800,000	-0,097	0,247
7,415	370,184	-0,225	-0,323
8,429	212,868	-0,205	-0,229
9,444	50,768	-0,357	-0,239
10,459	51,382	-0,251	-0,169
11,473	118,971	-0,217	-0,190
12,488	-25,425	-0,235	-0,098
13,502	46,688	-0,331	-0,217
14,517	-8,532	-0,367	-0,174
15,531	-2,356	-0,314	-0,155
16,546	119,400	-0,384	-0,336
17,561	91,718	-0,396	-0,315
18,575	11,143	-0,228	-0,123
19,590	320,617	-0,164	-0,221
20,604	-49,362	-0,322	-0,108
21,619	15,380	-0,394	-0,218
22,634	-30,391	-0,553	-0,221
23,648	132,422	-0,344	-0,314
24,663	32,909	-0,388	-0,237
25,677	-2,119	-0,340	-0,168
26,692	70,164	-0,282	-0,206
27,707	-11,703	-0,356	-0,165
28,721	74,217	-0,431	-0,320
29,736	5,561	-0,503	-0,262
30,750	270,807	-0,274	-0,342
31,765	155,866	-0,418	-0,408
32,780	307,959	-0,303	-0,401
33,794	41,620	-0,284	-0,182
34,809	39,821	-0,409	-0,258
35,823	86,932	-0,368	-0,287
36,838	70,926	-0,401	-0,293
37,853	154,425	-0,401	-0,389
38,867	54,261	-0,333	-0,226
39,882	-72,032	-0,373	-0,097
40,896	46,924	-0,219	-0,144
41,911	98,857	-0,357	-0,290
42,926	119,617	-0,182	-0,159
43,940	150,733	-0,318	-0,305
44,955	205,823	-0,302	-0,332
45,969	150,814	-0,282	-0,271
46,984	17,020	-0,356	-0,198
47,999	-144,427	-0,343	-0,022
49,013	15,613	-0,310	-0,171
50,028	133,079	-0,217	-0,198
51,042	-42,758	-0,390	-0,139
52,057	81,634	-0,383	-0,292
53,071	75,796	-0,339	-0,252
54,086	3,700	-0,169	-0,087
55,101	83,951	-0,224	-0,172
56,115	-18,098	-0,331	-0,146
57,130	-72,970	-0,500	-0,129
58,144	-55,563	-0,404	-0,127
59,159	12,006	-0,420	-0,227
60,174	42,660	-0,263	-0,168
61,188	53,961	-0,339	-0,230
62,203	-83,495	-0,228	-0,051
63,217	-42,730	-0,306	-0,109
64,232	31,728	-0,324	-0,196
65,247	-56,425	-0,325	-0,101
66,261	135,749	-0,284	-0,261
67,276	77,157	-0,366	-0,273
68,290	-43,682	-0,361	-0,128
69,305	-59,136	-0,263	-0,079
70,320	270,214	-0,092	-0,114
71,334	211,782	-0,198	-0,220
72,349	-75,342	-0,384	-0,096
73,363	31,962	-0,365	-0,221
74,378	-58,454	-0,168	-0,051
75,393	201,289	-0,227	-0,246
76,407	139,103	-0,271	-0,251
77,422	161,294	-0,189	-0,186
78,436	55,546	-0,235	-0,160
79,451	83,967	-0,255	-0,196
80,466	75,906	-0,335	-0,249
81,480	264,743	-0,254	-0,312
82,495	-5,158	-0,415	-0,200
83,509	210,771	-0,291	-0,322
84,524	531,168	-0,205	-0,342
85,539	82,088	-0,216	-0,164
86,553	-112,732	-0,303	-0,042
87,568	172,286	-0,295	-0,298
88,582	5,343	-0,307	-0,158
89,597	7,541	-0,359	-0,188
90,611	-28,189	-0,303	-0,122
91,626	25,509	-0,335	-0,195
92,641	-9,025	-0,170	-0,080
93,655	120,229	-0,275	-0,240
94,670	5,993	-0,276	-0,143
95,684	140,836	-0,332	-0,309
96,699	-28,425	-0,338	-0,136
97,714	-17,382	-0,213	-0,094
98,728	11,149	-0,212	-0,113
99,743	-158,330	-0,225	-0,009
100,757	75,284	-0,271	-0,201
101,772	-16,951	-0,249	-0,110
102,787	-137,319	-0,302	-0,024
103,801	105,668	-0,260	-0,216
104,816	-200,000	-0,081	-0,290
105,830	263,086	-0,138	-0,169
106,845	-60,034	-0,246	-0,073
107,860	98,119	-0,229	-0,185
108,874	-117,728	-0,315	-0,039
109,889	167,828	-0,187	-0,187
110,903	178,066	-0,225	-0,231
111,918	145,180	-0,192	-0,180
112,933	220,328	-0,187	-0,210
113,947	287,198	-0,204	-0,259
114,962	171,255	-0,220	-0,222
115,976	-33,161	-0,245	-0,095
116,991	171,722	-0,206	-0,208
118,006	105,854	-0,293	-0,243
119,020	12,333	-0,223	-0,120
120,035	12,658	-0,207	-0,112
121,049	137,268	-0,171	-0,157
122,064	-5,351	-0,184	-0,088
123,079	99,846	-0,197	-0,160
124,093	128,900	-0,185	-0,165
125,108	800,000	-0,134	-0,268
126,122	50,222	-0,229	-0,151
127,137	-32,404	-0,293	-0,114
128,151	-51,072	-0,228	-0,074
129,166	-91,763	-0,123	-0,024
130,181	-38,030	-0,262	-0,097
131,195	-41,042	-0,356	-0,128
132,210	-5,164	-0,272	-0,130
133,224	-19,693	-0,268	-0,115
134,239	78,734	-0,251	-0,188
135,254	360,352	-0,163	-0,229
136,268	60,253	-0,270	-0,187
137,283	-74,036	-0,239	-0,060
138,297	473,319	-0,210	-0,332
139,312	74,702	-0,266	-0,195
140,327	9,127	-0,289	-0,152
141,341	51,678	-0,254	-0,168
142,356	181,891	-0,141	-0,146
143,370	48,301	-0,243	-0,159
144,385	254,502	-0,190	-0,227
145,400	339,525	-0,174	-0,238
146,414	604,204	-0,137	-0,239
147,429	215,136	-0,207	-0,230
148,443	730,816	-0,164	-0,308
149,458	89,309	-0,251	-0,196
150,473	75,661	-0,183	-0,135
151,487	-37,399	-0,273	-0,101
152,502	365,829	-0,147	-0,207
153,516	-0,563	-0,194	-0,096
154,531	-24,831	-0,114	-0,047
155,546	90,913	-0,281	-0,220
156,560	584,765	-0,094	-0,162
157,575	169,127	-0,194	-0,194
158,589	8,729	-0,213	-0,112
159,604	60,867	-0,279	-0,193
160,619	60,743	-0,338	-0,234
161,633	83,089	-0,147	-0,112
162,648	8,798	-0,303	-0,159
163,662	4,028	-0,340	-0,173
164,677	81,967	-0,205	-0,155
165,692	148,781	-0,218	-0,205
166,706	300,799	-0,081	-0,104
167,721	-54,963	-0,306	-0,096
168,735	50,036	-0,173	-0,114
169,750	-90,507	-0,243	-0,049
170,764	-70,252	-0,231	-0,061
171,779	-3,038	-0,338	-0,164
172,794	142,170	-0,115	-0,106
173,808	-19,314	-0,224	-0,097
174,823	53,287	-0,220	-0,147
175,837	235,458	-0,170	-0,196
176,852	20,613	-0,284	-0,160
177,867	43,402	-0,306	-0,195
178,881	619,423	-0,111	-0,195
179,896	29,232	-0,171	-0,101
180,910	57,562	-0,268	-0,182
181,925	-41,908	-0,310	-0,110
182,940	471,907	-0,214	-0,337
183,954	800,000	-0,165	-0,363
184,969	87,768	-0,183	-0,141
185,983	-17,748	-0,163	-0,071
186,998	378,698	-0,180	-0,257
188,013	-85,402	-0,236	-0,051
189,027	-145,360	-0,231	-0,014
190,042	367,399	-0,193	-0,272
191,056	13,168	-0,239	-0,128
192,071	235,206	-0,117	-0,135
193,086	-64,515	-0,251	-0,070
194,100	37,609	-0,206	-0,127
195,115	15,239	-0,231	-0,126
196,129	73,719	-0,189	-0,138
197,144	-71,795	-0,213	-0,055
198,159	-14,566	-0,292	-0,130
199,173	134,009	-0,145	-0,131
200,188	-56,888	-0,161	-0,049
201,202	8,668	-0,155	-0,081
202,217	-19,952	-0,178	-0,076
203,232	86,895	-0,202	-0,155
204,246	-91,928	-0,205	-0,040
205,261	122,887	-0,129	-0,112
206,275	31,484	-0,272	-0,162
207,290	-79,727	-0,127	-0,030
208,304	-60,574	-0,153	-0,045
209,319	-114,202	-0,100	-0,013
210,334	98,974	-0,170	-0,137
211,348	-111,523	-0,296	-0,041
212,363	-12,790	-0,168	-0,076
213,377	135,158	-0,201	-0,182
214,392	800,000	-0,059	-0,135
215,407	15,071	-0,106	0,057
216,421	-20,521	-0,323	-0,137
217,436	337,316	-0,226	-0,306
218,450	125,674	-0,192	-0,168
219,465	-68,162	-0,250	-0,067
220,480	82,397	-0,212	-0,160
221,494	-66,837	-0,214	-0,058
222,509	-76,496	-0,104	0,025
223,523	-27,808	-0,177	-0,071
224,538	-63,115	-0,237	-0,067
225,553	294,272	-0,197	-0,251
226,567	99,969	-0,146	-0,117
227,582	-37,340	-0,226	-0,083
228,596	-107,693	-0,079	-0,012
229,611	-26,198	-0,162	0,066
230,626	270,663	0,043	-0,052
231,640	75,444	-0,227	-0,166
232,655	-13,712	-0,389	-0,174
233,669	162,818	-0,126	-0,123
234,684	51,814	-0,320	-0,211
235,699	363,992	-0,093	-0,130
236,713	176,867	-0,150	-0,151
237,728	325,127	-0,186	-0,247
238,742	-5,050	-0,206	-0,098
239,757	283,657	-0,119	-0,148
240,772	25,171	-0,269	-0,155
241,786	57,832	-0,144	-0,097
242,801	20,804	-0,144	-0,080
243,815	10,626	-0,228	-0,120
244,830	-68,923	-0,241	-0,064
245,844	158,453	-0,160	-0,154
246,859	464,078	-0,072	-0,112
247,874	557,135	-0,178	-0,299
248,888	111,375	-0,204	-0,170
249,903	800,000	-0,085	-0,172
250,917	-186,145	-0,140	-0,001
251,932	800,000	-0,107	-0,293
252,947	40,938	-0,066	-0,041
253,961	-142,430	-0,212	-0,014
254,976	-34,297	-0,240	-0,091
255,990	295,858	-0,198	-0,252
257,005	441,564	-0,115	-0,175
258,020	108,665	-0,154	-0,127
259,034	-125,616	-0,180	0,019
260,049	800,000	-0,071	-0,172
261,063	-95,555	-0,221	0,041
262,078	70,943	-0,255	-0,183
263,093	800,000	-0,087	-0,232
264,107	-118,561	-0,182	0,022
265,122	79,824	-0,152	-0,113
266,136	800,000	-0,045	-0,109
267,151	510,007	-0,100	-0,161
268,166	-50,221	-0,173	-0,056
269,180	-65,177	-0,212	-0,059
270,195	-85,152	-0,154	-0,033
271,209	-124,744	-0,236	0,025
272,224	79,382	-0,099	-0,073
273,239	-107,589	-0,032	-0,005
274,253	800,000	-0,067	-0,165
275,268	-200,000	-0,041	-0,244
276,282	-128,914	-0,166	0,016
277,297	114,444	-0,177	-0,149
278,312	-130,756	-0,220	-0,020
279,326	-200,000	-0,010	-0,206
280,341	44,204	-0,085	-0,054
281,355	-5,449	-0,293	-0,139
282,370	55,442	-0,260	-0,173
283,384	129,593	-0,234	-0,207
284,399	-14,874	-0,265	-0,117
285,414	-79,627	-0,219	-0,051
286,428	-124,776	-0,143	0,015
287,443	-98,594	-0,200	0,035
288,457	40,234	-0,090	-0,056
289,472	800,000	-0,078	-0,214
290,487	-175,993	-0,160	-0,003
291,501	2,744	-0,172	-0,086
292,516	-65,112	-0,096	-0,027
293,530	247,279	-0,152	-0,177
294,545	-138,798	-0,130	-0,010
295,560	337,066	-0,102	-0,137
296,574	-79,015	-0,183	-0,043
297,589	153,433	-0,173	-0,163
298,603	-59,297	-0,278	-0,082
299,618	282,198	-0,124	-0,154
300,633	448,344	-0,138	-0,211
301,647	800,000	-0,021	-0,042
302,662	-65,855	-0,195	-0,054
303,676	95,910	-0,081	-0,064
304,691	-200,000	-0,004	-0,137
305,706	9,677	-0,135	-0,070
306,720	-55,984	-0,299	-0,091
307,735	232,781	-0,143	-0,162
308,749	-50,855	-0,250	-0,081
309,764	-22,533	-0,177	0,073
310,779	77,830	-0,202	-0,148
311,793	82,092	-0,111	-0,083
312,808	-171,518	-0,253	0,006
313,822	-92,056	-0,313	-0,061
314,837	149,468	-0,253	-0,236
315,852	-115,078	-0,176	-0,023
316,866	395,114	-0,128	-0,184
317,881	175,168	-0,120	-0,120
318,895	800,000	-0,046	-0,130
319,910	-21,545	-0,164	-0,069
320,925	161,083	-0,184	-0,178
321,939	-200,000	0,034	-0,174
322,954	325,252	-0,062	0,082
323,968	-142,184	-0,204	0,014
324,983	75,937	-0,213	-0,155
325,997	322,708	-0,131	-0,173
327,012	188,734	-0,183	-0,188
328,027	86,615	-0,077	-0,059
329,041	221,550	-0,148	-0,164
330,056	84,581	-0,137	-0,103
331,070	-32,106	-0,076	-0,029
332,085	-74,295	-0,068	0,017
333,100	-52,502	-0,186	-0,059
334,114	113,077	-0,180	-0,150
335,129	83,346	-0,176	-0,132
336,143	-87,570	-0,123	0,025
337,158	800,000	-0,099	-0,193
338,173	-51,690	-0,108	-0,034
339,187	-200,000	-0,009	-0,122
340,202	-81,204	-0,251	-0,056
341,216	-43,880	-0,259	-0,089
342,231	-116,589	-0,254	-0,032
343,246	-87,420	-0,136	-0,028
344,260	268,412	-0,092	-0,111
345,275	69,149	-0,067	0,047
346,289	83,331	-0,067	-0,050
347,304	-53,918	-0,205	-0,064
348,319	291,097	-0,115	-0,144
349,333	471,079	-0,072	-0,111
350,348	-80,959	-0,146	-0,033
351,362	393,943	-0,049	-0,070
352,377	-55,506	-0,002	-0,001
353,392	800,000	-0,059	0,119
354,406	208,126	-0,083	-0,089
355,421	207,691	1314,611	1411,098
356,435	159,774	1475,340	1411,598
