DTS Sentinel unit serial number:	SN410029Multiplexer serial number:	ORYXHardware model number:	OX2-SRSoftware version number:	ORYX F/W v4,00 Oryx Data Collector v3.7.2.0data status	okinstallation	B3 Nyhavnadifferential loss correction	single-endedforward channel	channel 1reverse channel	N/Adate	2023/12/05time	05:27:30forward acquisition time	300,00reverse acquisition time	0,00gamma	499,1914k internal	0,3201k external	0,3201temperature offset calibration	1,0000default loss term (dB/km)	0,3820temperature slope calibration	1,0000multiplexer offset coefficient	1,0000multiplexer slope coefficient	1,0000fibre end	0,00T internal ref (°C)	14,04T ext. ref 1 (°C)	-0,96T ext. ref 2 (°C)	-1,00length (m)	temperature (°C)	Stokes	anti-Stokes-744,400	146,304	-0,216	-0,211
-743,385	475,088	0,135	0,223
-742,371	-200,000	-0,087	-0,310
-741,356	-200,000	0,035	0,306
-740,342	244,231	-0,187	-0,229
-739,327	-200,000	-0,080	0,341
-738,312	48,914	-0,285	-0,194
-737,298	800,000	0,072	0,197
-736,283	122,439	-0,216	-0,196
-735,269	90,735	0,247	0,201
-734,254	-18,133	-0,320	-0,145
-733,239	209,651	-0,151	0,172
-732,225	-200,000	-0,060	-0,231
-731,210	119,838	0,043	0,039
-730,196	-200,000	0,021	-0,087
-729,181	55,666	-0,015	-0,011
-728,167	380,928	0,066	0,098
-727,152	140,770	0,118	-0,114
-726,137	459,751	-0,042	0,068
-725,123	10,586	-0,071	-0,039
-724,108	800,000	0,027	-0,076
-723,094	-161,175	-0,130	0,005
-722,079	-46,281	-0,016	-0,006
-721,064	102,858	0,114	-0,097
-720,050	292,563	-0,104	-0,138
-719,035	-200,000	0,015	0,083
-718,021	164,874	-0,025	-0,025
-717,006	-3,548	0,017	0,009
-715,991	-91,453	-0,061	-0,013
-714,977	52,941	-0,181	-0,125
-713,962	277,444	0,049	-0,064
-712,948	-171,426	-0,033	-0,001
-711,933	28,516	-0,050	0,031
-710,918	160,515	0,026	0,026
-709,904	59,720	0,141	-0,101
-708,889	-200,000	-0,014	0,069
-707,875	-84,120	-0,151	-0,035
-706,860	-10,904	0,090	0,043
-705,845	181,189	0,064	0,069
-704,831	-156,182	0,152	-0,007
-703,816	-30,591	0,164	-0,067
-702,802	-200,000	0,006	0,024
-701,787	26,470	0,057	-0,035
-700,772	-64,831	-0,200	-0,058
-699,758	-69,220	0,127	-0,035
-698,743	-200,000	0,044	0,165
-697,729	-200,000	0,013	0,120
-696,714	800,000	-0,020	-0,050
-695,699	303,109	0,008	-0,011
-694,685	-100,896	-0,027	-0,005
-693,670	470,725	-0,038	-0,062
-692,656	-32,600	0,057	-0,023
-691,641	661,191	-0,052	0,097
-690,627	800,000	0,060	0,166
-689,612	169,132	0,050	-0,052
-688,597	-200,000	-0,010	-0,073
-687,583	-110,641	-0,107	0,016
-686,568	-200,000	-0,025	-0,094
-685,554	19,599	-0,149	-0,087
-684,539	304,191	-0,055	-0,074
-683,524	-116,977	0,106	0,014
-682,510	197,232	0,062	0,069
-681,495	167,927	0,078	0,081
-680,481	134,035	-0,041	-0,038
-679,466	-49,714	0,055	-0,019
-678,451	213,460	0,080	-0,092
-677,437	-160,621	-0,087	-0,003
-676,422	-44,848	0,076	0,027
-675,408	22,917	-0,122	0,073
-674,393	316,073	0,023	0,032
-673,378	-200,000	-0,015	-0,123
-672,364	-200,000	0,020	-0,075
-671,349	672,270	-0,046	-0,087
-670,335	217,505	0,063	0,073
-669,320	800,000	0,020	0,062
-668,305	-200,000	0,000	-0,065
-667,291	-19,846	0,038	0,017
-666,276	-140,238	-0,105	0,008
-665,262	-51,705	0,081	0,027
-664,247	649,935	0,071	-0,132
-663,232	-200,000	-0,031	-0,102
-662,218	-104,808	-0,009	-0,002
-661,203	65,089	-0,046	0,034
-660,189	-52,895	0,054	0,018
-659,174	-200,000	-0,021	-0,187
-658,159	199,167	-0,048	0,053
-657,145	-125,902	-0,053	-0,006
-656,130	480,732	0,025	0,041
-655,116	72,230	0,105	0,079
-654,101	800,000	0,038	0,119
-653,086	-138,653	0,092	0,007
-652,072	-200,000	-0,024	0,078
-651,057	-57,455	-0,063	0,020
-650,043	800,000	-0,049	-0,151
-649,028	-200,000	0,023	-0,084
-648,014	-149,703	0,134	0,008
-646,999	-200,000	0,018	-0,096
-645,984	-75,588	0,081	-0,021
-644,970	295,636	-0,070	0,093
-643,955	800,000	-0,059	0,142
-642,941	481,895	-0,078	-0,129
-641,926	-44,400	-0,116	-0,042
-640,911	-90,138	0,121	0,025
-639,897	-69,145	0,109	0,030
-638,882	-200,000	0,053	0,222
-637,868	-89,543	-0,064	0,014
-636,853	-200,000	-0,013	-0,082
-635,838	-200,000	0,018	-0,067
-634,824	280,714	-0,016	-0,021
-633,809	187,148	0,067	-0,072
-632,795	163,513	0,056	0,057
-631,780	418,008	-0,033	-0,051
-630,765	103,155	-0,139	-0,118
-629,751	-68,879	-0,190	0,053
-628,736	247,585	-0,027	-0,033
-627,722	90,356	0,108	-0,088
-626,707	-64,953	-0,058	0,017
-625,692	243,618	-0,041	-0,050
-624,678	-189,086	0,083	-0,001
-623,663	-200,000	0,007	0,045
-622,649	-100,398	0,094	0,017
-621,634	-200,000	-0,024	-0,080
-620,619	-200,000	-0,022	0,137
-619,605	-200,000	0,000	0,147
-618,590	800,000	-0,065	0,205
-617,576	157,809	0,107	0,108
-616,561	-94,964	0,007	0,001
-615,546	-118,770	-0,067	-0,008
-614,532	-158,974	-0,122	0,005
-613,517	-200,000	-0,003	-0,088
-612,503	-200,000	0,013	-0,058
-611,488	-200,000	0,000	0,037
-610,474	-174,627	0,163	-0,003
-609,459	-122,381	-0,104	0,012
-608,444	-113,638	-0,163	-0,023
-607,430	44,095	0,036	0,024
-606,415	-167,886	0,052	0,001
-605,401	137,203	0,037	0,035
-604,386	386,575	-0,019	-0,028
-603,371	-200,000	0,007	0,022
-602,357	-200,000	-0,008	0,077
-601,342	-37,886	-0,050	-0,019
-600,328	-200,000	-0,018	0,064
-599,313	800,000	0,032	-0,091
-598,298	-83,845	-0,088	-0,020
-597,284	-49,115	0,094	0,032
-596,269	530,445	0,070	0,121
-595,255	57,160	0,115	0,081
-594,240	227,253	0,054	0,064
-593,225	-70,045	-0,124	0,034
-592,211	558,154	0,089	-0,156
-591,196	31,341	-0,034	0,021
-590,182	800,000	0,040	-0,117
-589,167	311,954	-0,043	0,058
-588,152	800,000	-0,050	0,104
-587,138	10,041	0,135	0,074
-586,123	-200,000	-0,028	-0,213
-585,109	-200,000	0,010	-0,097
-584,094	-124,321	0,053	-0,006
-583,079	50,136	0,099	0,068
-582,065	-4,587	-0,072	0,036
-581,050	69,757	-0,010	-0,007
-580,036	119,052	-0,088	0,079
-579,021	478,563	-0,021	-0,034
-578,006	800,000	-0,076	-0,159
-576,992	800,000	0,032	-0,098
-575,977	191,655	0,092	-0,101
-574,963	-4,421	-0,087	0,043
-573,948	-32,353	0,135	-0,054
-572,934	333,559	-0,034	0,047
-571,919	-56,321	-0,165	-0,053
-570,904	-200,000	-0,005	-0,158
-569,890	-200,000	-0,018	-0,109
-568,875	-200,000	0,009	-0,054
-567,861	9,240	0,062	-0,034
-566,846	800,000	0,040	0,113
-565,831	-76,739	0,104	-0,026
-564,817	213,839	-0,091	-0,104
-563,802	-200,000	-0,021	-0,228
-562,788	-200,000	0,001	-0,038
-561,773	-156,413	0,082	-0,004
-560,758	800,000	-0,023	0,070
-559,744	-139,563	-0,191	0,015
-558,729	99,391	0,057	-0,047
-557,715	-66,301	0,071	0,020
-556,700	70,274	0,130	-0,097
-555,685	-200,000	-0,004	-0,064
-554,671	49,491	-0,086	0,059
-553,656	-86,692	0,080	0,018
-552,642	-134,328	0,047	-0,004
-551,627	-13,234	0,027	-0,013
-550,612	-109,352	-0,087	-0,013
-549,598	-62,504	0,069	-0,021
-548,583	88,072	0,071	-0,057
-547,569	19,414	0,077	0,044
-546,554	160,332	0,036	0,036
-545,539	46,198	-0,068	0,045
-544,525	-18,285	-0,028	-0,013
-543,510	141,168	-0,077	0,073
-542,496	117,991	-0,080	-0,072
-541,481	61,381	-0,072	0,052
-540,466	-200,000	-0,004	0,072
-539,452	350,406	-0,155	0,222
-538,437	-69,320	0,116	-0,032
-537,423	-40,963	0,003	-0,001
-536,408	-128,303	0,087	-0,009
-535,393	611,787	-0,123	-0,223
-534,379	-104,501	0,037	-0,006
-533,364	800,000	-0,030	0,071
-532,350	19,651	0,047	0,027
-531,335	105,743	0,057	0,049
-530,321	800,000	0,009	0,018
-529,306	800,000	-0,043	-0,090
-528,291	168,941	0,052	-0,053
-527,277	-2,526	-0,102	-0,051
-526,262	289,709	0,048	0,063
-525,248	99,941	0,131	0,110
-524,233	800,000	0,050	0,126
-523,218	-137,402	0,091	0,007
-522,204	-200,000	-0,028	-0,095
-521,189	157,868	0,015	0,015
-520,175	-65,425	-0,195	-0,056
-519,160	538,613	-0,069	0,120
-518,145	-51,804	0,070	0,023
-517,131	362,115	-0,072	0,104
-516,116	-200,000	0,088	-0,000
-515,102	-57,059	-0,099	0,031
-514,087	228,767	-0,028	0,033
-513,072	51,227	-0,082	-0,056
-512,058	800,000	0,021	-0,065
-511,043	-99,725	0,094	-0,017
-510,029	529,125	0,019	0,033
-509,014	-104,324	-0,149	0,025
-507,999	538,009	-0,044	0,075
-506,985	663,661	-0,051	-0,095
-505,970	-200,000	-0,031	-0,198
-504,956	-40,381	-0,075	0,028
-503,941	-96,451	-0,071	0,013
-502,926	23,761	0,149	0,088
-501,912	2,105	-0,083	-0,043
-500,897	-27,383	0,036	0,015
-499,883	800,000	0,026	-0,054
-498,868	-200,000	-0,001	-0,040
-497,853	-200,000	0,041	-0,132
-496,839	474,288	-0,036	0,059
-495,824	-200,000	0,000	0,009
-494,810	-128,342	0,110	0,011
-493,795	29,852	0,093	-0,057
-492,781	-200,000	0,012	-0,043
-491,766	143,922	-0,179	0,172
-490,751	28,078	-0,092	-0,056
-489,737	-200,000	-0,007	-0,031
-488,722	800,000	0,020	0,050
-487,708	-113,794	-0,042	-0,006
-486,693	-79,555	0,088	0,021
-485,678	153,994	0,086	0,085
-484,664	-59,314	-0,098	0,030
-483,649	-200,000	0,014	-0,046
-482,635	221,813	-0,056	-0,065
-481,620	88,308	0,061	-0,049
-480,605	618,017	0,079	-0,144
-479,591	-43,174	0,106	-0,039
-478,576	-54,424	0,064	0,021
-477,562	-127,113	0,064	0,007
-476,547	-68,621	-0,117	-0,032
-475,532	-200,000	-0,003	0,065
-474,518	-200,000	0,010	0,065
-473,503	9,349	0,086	-0,047
-472,489	800,000	0,058	0,118
-471,474	272,269	-0,067	-0,085
-470,459	54,909	-0,026	0,018
-469,445	-184,524	-0,079	-0,001
-468,430	202,334	0,084	-0,093
-467,416	469,366	0,049	-0,080
-466,401	800,000	-0,019	0,056
-465,386	-200,000	0,036	0,119
-464,372	232,499	0,101	0,120
-463,357	-200,000	-0,010	0,034
-462,343	-24,216	-0,091	0,039
-461,328	-200,000	0,001	-0,007
-460,313	-53,264	0,123	0,040
-459,299	-22,164	-0,067	0,029
-458,284	30,525	0,017	0,011
-457,270	-126,279	-0,057	-0,006
-456,255	-60,426	-0,061	0,019
-455,241	676,203	-0,039	-0,073
-454,226	66,244	-0,095	-0,070
-453,211	-18,645	0,001	-0,000
-452,197	446,231	0,039	0,062
-451,182	-9,267	0,208	-0,100
-450,168	-200,000	-0,046	0,211
-449,153	-123,150	-0,066	-0,007
-448,138	147,165	-0,034	-0,033
-447,124	-53,146	-0,070	-0,023
-446,109	78,300	0,144	0,110
-445,095	-82,059	-0,039	-0,009
-444,080	-74,458	0,179	0,046
-443,065	-73,178	-0,027	-0,007
-442,051	94,968	-0,146	0,120
-441,036	171,853	-0,079	-0,081
-440,022	-200,000	0,008	0,112
-439,007	-23,526	-0,066	0,028
-437,992	800,000	0,054	-0,146
-436,978	-47,146	0,092	-0,032
-435,963	800,000	0,024	0,068
-434,949	-94,585	0,065	-0,013
-433,934	-200,000	-0,006	-0,211
-432,919	117,570	-0,099	-0,088
-431,905	-200,000	-0,008	-0,080
-430,890	301,229	-0,050	0,066
-429,876	-184,929	0,093	-0,001
-428,861	688,827	-0,060	0,113
-427,846	-200,000	0,015	-0,108
-426,832	31,209	-0,059	-0,036
-425,817	118,013	-0,081	-0,072
-424,803	-109,231	0,088	-0,013
-423,788	0,670	0,006	-0,003
-422,773	-0,055	0,046	-0,024
-421,759	106,409	0,126	-0,107
-420,744	-87,447	-0,045	-0,010
-419,730	-200,000	-0,001	0,009
-418,715	-24,948	-0,065	0,027
-417,701	26,290	-0,028	0,017
-416,686	-200,000	0,020	0,154
-415,671	-101,071	-0,077	-0,013
-414,657	800,000	-0,030	0,081
-413,642	338,419	0,022	-0,031
-412,628	-62,456	-0,115	0,034
-411,613	33,627	0,078	0,049
-410,598	-42,521	-0,168	0,061
-409,584	-182,008	0,061	0,001
-408,569	-19,922	-0,033	-0,015
-407,555	800,000	-0,077	-0,174
-406,540	-200,000	-0,027	-0,090
-405,525	-200,000	-0,000	0,013
-404,511	330,563	0,057	0,078
-403,496	-32,210	-0,084	0,034
-402,482	-85,098	0,086	0,019
-401,467	570,810	-0,006	0,010
-400,452	-12,496	0,172	-0,080
-399,438	241,274	0,044	0,052
-398,423	-76,313	-0,090	0,023
-397,409	12,605	0,173	-0,096
-396,394	38,045	-0,074	-0,047
-395,379	-25,357	0,067	0,028
-394,365	138,787	0,065	0,062
-393,350	-200,000	0,018	-0,088
-392,336	37,678	0,075	0,048
-391,321	-148,848	0,054	0,003
-390,306	734,075	-0,037	0,071
-389,292	-48,355	-0,027	-0,009
-388,277	-104,300	-0,127	-0,021
-387,263	-17,909	-0,096	-0,043
-386,248	-63,776	0,064	0,019
-385,233	-125,976	0,039	0,004
-384,219	-200,000	0,022	-0,113
-383,204	151,794	0,055	-0,054
-382,190	243,049	-0,060	-0,072
-381,175	64,419	0,017	0,012
-380,160	-48,444	0,049	-0,017
-379,146	121,694	0,070	0,063
-378,131	-200,000	-0,049	0,000
-377,117	-200,000	0,009	-0,043
-376,102	98,423	-0,106	0,088
-375,088	288,238	-0,042	-0,054
-374,073	-129,169	-0,027	0,003
-373,058	-200,000	0,014	0,065
-372,044	-8,889	0,052	-0,025
-371,029	472,250	-0,052	0,084
-370,015	-124,481	0,030	-0,003
-369,000	800,000	-0,078	-0,183
-367,985	117,136	0,096	0,085
-366,971	-200,000	0,000	-0,073
-365,956	-158,346	0,018	0,001
-364,942	712,907	0,027	-0,052
-363,927	800,000	0,028	0,086
-362,912	-40,834	0,116	0,043
-361,898	800,000	-0,019	-0,061
-360,883	77,218	-0,060	-0,045
-359,869	567,187	0,001	-0,002
-358,854	45,909	-0,084	-0,056
-357,839	-44,358	0,055	-0,019
-356,825	-82,231	0,068	0,016
-355,810	249,064	0,030	-0,037
-354,796	-56,491	-0,119	0,038
-353,781	-194,573	0,104	-0,001
-352,766	-200,000	-0,000	0,058
-351,752	-63,884	-0,060	0,018
-350,737	-200,000	-0,045	-0,176
-349,723	552,217	0,095	0,163
-348,708	-200,000	-0,007	0,042
-347,693	590,926	0,041	0,073
-346,679	336,480	0,039	-0,055
-345,664	-200,000	-0,001	0,050
-344,650	54,252	0,067	-0,046
-343,635	-191,780	0,100	-0,001
-342,620	-166,688	0,121	0,004
-341,606	127,482	0,049	0,045
-340,591	98,518	0,043	0,036
-339,577	179,226	-0,059	-0,062
-338,562	161,920	-0,033	0,033
-337,548	-47,585	-0,059	0,020
-336,533	382,558	0,022	-0,032
-335,518	275,429	0,094	0,120
-334,504	26,606	0,069	-0,041
-333,489	-200,000	0,003	0,064
-332,475	800,000	0,054	-0,124
-331,460	800,000	-0,021	0,049
-330,445	-111,306	-0,064	0,009
-329,431	-200,000	0,013	0,127
-328,416	519,925	0,046	-0,077
-327,402	62,180	0,041	0,029
-326,387	800,000	-0,049	0,140
-325,372	46,763	-0,019	-0,013
-324,358	800,000	-0,060	-0,123
-323,343	342,692	-0,057	-0,080
-322,329	372,555	-0,015	0,021
-321,314	-160,057	0,035	-0,001
-320,299	-200,000	0,015	-0,060
-319,285	-200,000	-0,011	0,050
-318,270	111,293	0,070	0,060
-317,256	466,370	0,053	-0,086
-316,241	730,018	-0,025	0,048
-315,226	105,524	0,088	-0,075
-314,212	211,556	-0,021	0,024
-313,197	227,347	0,116	0,136
-312,183	226,118	-0,071	0,083
-311,168	352,965	-0,054	-0,077
-310,153	525,231	-0,094	-0,159
-309,139	92,232	0,092	-0,074
-308,124	645,950	-0,024	0,043
-307,110	-15,915	0,101	0,046
-306,095	800,000	0,025	0,077
-305,080	-127,005	0,067	-0,007
-304,066	18,616	-0,176	-0,100
-303,051	-41,433	-0,092	-0,034
-302,037	189,675	-0,054	0,058
-301,022	370,577	-0,067	0,098
-300,008	336,396	0,049	0,068
-298,993	-47,491	-0,066	0,023
-297,978	800,000	-0,110	0,265
-296,964	-43,916	0,148	0,053
-295,949	-200,000	-0,004	-0,019
-294,935	61,061	0,063	0,045
-293,920	84,886	0,076	-0,059
-292,905	800,000	0,030	-0,081
-291,891	-200,000	-0,021	0,087
-290,876	88,534	0,116	0,092
-289,862	364,682	-0,083	-0,120
-288,847	-108,503	-0,056	-0,008
-287,832	-79,997	-0,165	0,039
-286,818	-26,932	-0,132	0,055
-285,803	734,705	-0,041	0,079
-284,789	-200,000	-0,016	0,102
-283,774	800,000	0,011	-0,031
-282,759	-118,964	0,101	0,012
-281,745	-200,000	-0,003	-0,059
-280,730	-200,000	0,013	0,145
-279,716	-14,805	-0,015	0,007
-278,701	-108,866	0,187	0,028
-277,686	-200,000	-0,001	0,027
-276,672	-117,818	-0,036	-0,005
-275,657	-200,000	-0,013	-0,112
-274,643	-200,000	-0,009	-0,082
-273,628	185,967	-0,026	-0,027
-272,613	800,000	-0,046	-0,129
-271,599	-140,762	0,117	-0,008
-270,584	-200,000	-0,026	0,125
-269,570	-200,000	0,051	0,192
-268,555	-190,784	-0,216	0,002
-267,540	22,232	0,019	0,011
-266,526	108,791	-0,161	-0,138
-265,511	-200,000	0,038	-0,151
-264,497	-112,760	0,200	-0,028
-263,482	-200,000	0,071	0,294
-262,467	-200,000	0,009	0,151
-261,453	-43,753	0,139	-0,050
-260,438	800,000	0,032	-0,066
-259,424	-138,567	0,128	0,010
-258,409	-80,549	-0,126	-0,030
-257,395	800,000	0,031	0,064
-256,380	129,084	0,064	-0,058
-255,365	800,000	-0,016	0,048
-254,351	16,937	0,109	-0,061
-253,336	98,805	-0,077	0,063
-252,322	800,000	0,071	-0,154
-251,307	295,331	-0,023	0,030
-250,292	291,928	0,036	0,046
-249,278	234,848	-0,033	0,039
-248,263	-109,992	0,046	0,007
-247,249	30,506	0,111	0,067
-246,234	800,000	-0,078	-0,156
-245,219	152,528	-0,099	-0,096
-244,205	56,768	-0,069	0,048
-243,190	800,000	0,016	-0,041
-242,176	-200,000	-0,016	0,121
-241,161	-39,204	-0,100	0,037
-240,146	796,821	0,018	-0,035
-239,132	-161,257	-0,067	0,002
-238,117	-133,808	-0,016	0,001
-237,103	-97,225	0,101	0,019
-236,088	-200,000	-0,021	0,115
-235,073	8,675	0,115	0,061
-234,059	800,000	-0,017	-0,040
-233,044	-200,000	0,038	0,155
-232,030	-18,059	-0,069	0,031
-231,015	-13,130	-0,008	0,004
-230,000	800,000	-0,019	-0,041
-228,986	776,988	-0,036	-0,070
-227,971	70,941	-0,030	0,022
-226,957	-62,249	-0,063	-0,019
-225,942	-19,771	0,038	0,017
-224,927	612,572	0,006	-0,011
-223,913	77,915	-0,032	-0,024
-222,898	339,790	0,045	0,063
-221,884	15,095	-0,067	0,037
-220,869	-76,115	0,052	0,013
-219,855	71,421	0,062	-0,046
-218,840	-200,000	0,002	-0,060
-217,825	-200,000	-0,001	-0,055
-216,811	-200,000	-0,013	0,091
-215,796	-200,000	0,006	0,062
-214,782	507,775	0,061	-0,101
-213,767	-179,568	-0,116	-0,002
-212,752	478,758	0,036	0,058
-211,738	-200,000	-0,031	0,110
-210,723	-23,749	0,118	-0,050
-209,709	337,529	-0,060	-0,083
-208,694	800,000	-0,045	0,104
-207,679	-200,000	0,006	-0,076
-206,665	800,000	0,043	-0,113
-205,650	-97,074	-0,143	0,026
-204,636	-200,000	0,007	0,212
-203,621	800,000	-0,045	0,105
-202,606	-200,000	0,020	0,078
-201,592	-200,000	0,017	-0,079
-200,577	-200,000	-0,030	-0,111
-199,563	-200,000	0,055	-0,220
-198,548	-200,000	0,012	-0,141
-197,533	-200,000	-0,001	0,012
-196,519	640,760	0,046	0,084
-195,504	442,968	-0,072	-0,113
-194,490	800,000	-0,014	-0,044
-193,475	-68,146	-0,076	-0,021
-192,460	-44,518	-0,113	-0,040
-191,446	800,000	0,057	0,117
-190,431	313,806	0,079	0,106
-189,417	710,651	-0,132	0,250
-188,402	-58,800	-0,032	0,010
-187,387	-45,654	0,032	-0,011
-186,373	-38,976	-0,125	-0,047
-185,358	194,752	-0,077	-0,083
-184,344	800,000	0,052	0,144
-183,329	21,577	-0,074	0,043
-182,315	45,867	-0,042	0,028
-181,300	-200,000	0,011	0,058
-180,285	192,395	0,040	0,043
-179,271	-98,320	-0,011	0,002
-178,256	-89,899	-0,040	0,008
-177,242	800,000	0,037	0,112
-176,227	-68,598	-0,030	-0,008
-175,212	-12,897	-0,071	-0,033
-174,198	-58,106	0,092	-0,028
-173,183	356,233	-0,050	-0,071
-172,169	800,000	-0,007	0,016
-171,154	-200,000	0,040	-0,173
-170,139	122,626	0,085	-0,076
-169,125	-75,968	-0,052	-0,013
-168,110	-200,000	-0,005	-0,064
-167,096	141,356	-0,103	-0,097
-166,081	34,491	-0,101	-0,062
-165,066	622,609	-0,082	-0,148
-164,052	-200,000	0,037	-0,154
-163,037	-63,637	0,189	-0,055
-162,023	789,988	-0,051	0,100
-161,008	-85,105	-0,029	0,006
-159,993	121,808	-0,027	-0,024
-158,979	474,311	0,011	0,017
-157,964	645,264	-0,032	0,058
-156,950	259,812	-0,028	0,034
-155,935	471,196	-0,077	-0,124
-154,920	348,321	-0,007	0,010
-153,906	800,000	-0,011	-0,028
-152,891	-84,232	0,068	0,015
-151,877	-200,000	0,016	-0,084
-150,862	-121,806	0,107	-0,012
-149,847	-200,000	-0,017	-0,150
-148,833	612,564	0,046	-0,082
-147,818	251,320	0,046	-0,056
-146,804	-10,021	-0,065	0,031
-145,789	800,000	0,085	0,169
-144,775	-104,189	0,074	0,012
-143,760	270,436	-0,043	-0,054
-142,745	198,589	-0,087	0,095
-141,731	216,312	-0,006	-0,007
-140,716	83,758	0,086	0,067
-139,702	75,263	0,046	0,035
-138,687	170,607	0,044	0,045
-137,672	-72,669	0,007	0,002
-136,658	42,976	-0,105	0,068
-135,643	64,965	-0,086	-0,061
-134,629	438,853	-0,087	-0,135
-133,614	-32,486	0,128	0,050
-132,599	800,000	0,027	-0,077
-131,585	290,864	-0,049	-0,063
-130,570	-200,000	0,018	0,061
-129,556	-27,689	0,020	-0,008
-128,541	-12,036	-0,092	0,043
-127,526	217,329	-0,080	-0,091
-126,512	124,582	-0,057	-0,051
-125,497	704,077	0,049	0,091
-124,483	800,000	0,060	0,152
-123,468	800,000	0,024	0,065
-122,453	-109,297	-0,040	0,006
-121,439	157,261	-0,100	-0,098
-120,424	-70,133	-0,072	0,019
-119,410	-200,000	0,021	0,085
-118,395	-110,054	-0,029	-0,004
-117,380	107,053	0,014	0,012
-116,366	-58,231	0,088	0,027
-115,351	800,000	0,046	-0,121
-114,337	200,387	-0,086	-0,094
-113,322	94,949	0,105	0,085
-112,307	-200,000	0,025	-0,100
-111,293	453,506	-0,027	-0,042
-110,278	-200,000	0,005	-0,070
-109,264	638,402	-0,054	0,098
-108,249	-83,134	-0,072	0,016
-107,234	64,479	-0,101	-0,072
-106,220	26,647	0,070	-0,041
-105,205	552,182	-0,052	0,088
-104,191	800,000	0,040	-0,105
-103,176	-200,000	0,012	-0,074
-102,162	770,398	0,025	0,049
-101,147	18,087	0,031	0,017
-100,132	327,423	-0,084	-0,115
-99,118	-200,000	-0,004	-0,102
-98,103	109,251	0,031	-0,027
-97,089	12,057	0,053	-0,029
-96,074	330,250	-0,010	0,014
-95,059	-5,167	-0,091	0,044
-94,045	444,916	-0,053	-0,083
-93,030	-79,019	-0,125	-0,030
-92,016	-122,870	-0,071	-0,008
-91,001	800,000	0,026	-0,081
-89,986	196,837	-0,043	0,047
-88,972	85,736	0,051	0,040
-87,957	499,254	0,069	-0,114
-86,943	58,054	-0,096	0,067
-85,928	-3,160	-0,099	0,049
-84,913	270,981	0,116	-0,144
-83,899	310,621	-0,061	-0,081
-82,884	-200,000	0,015	0,148
-81,870	800,000	0,003	0,010
-80,855	800,000	-0,009	0,018
-79,840	-120,351	-0,081	-0,010
-78,826	800,000	0,070	-0,178
-77,811	419,628	-0,027	-0,042
-76,797	57,255	0,049	0,034
-75,782	-76,638	0,134	0,033
-74,767	-200,000	0,013	-0,048
-73,753	39,993	0,018	-0,011
-72,738	553,051	-0,036	0,062
-71,724	-200,000	0,010	-0,040
-70,709	3,791	-0,139	-0,072
-69,694	800,000	0,001	0,003
-68,680	187,048	-0,021	0,022
-67,665	-200,000	-0,018	0,116
-66,651	-200,000	-0,025	0,097
-65,636	-122,423	0,083	0,009
-64,622	-200,000	0,018	0,071
-63,607	328,806	-0,047	-0,064
-62,592	800,000	0,027	0,076
-61,578	-30,243	0,179	-0,072
-60,563	-94,439	0,048	-0,009
-59,549	-200,000	0,036	0,198
-58,534	-29,263	-1,608	-0,649
-57,519	458,937	-1,270	-2,008
-56,505	-200,000	-0,481	-4,486
-55,490	189,612	0,870	0,925
-54,476	800,000	4,961	11,512
-53,461	-200,000	18,889	307,578
-52,446	800,000	737,356	2303,396
-51,432	570,717	1653,783	2861,000
-50,417	79,113	1670,771	1265,925
-49,403	22,012	1543,904	889,269
-48,388	15,912	1466,586	815,088
-47,373	17,847	1456,471	818,783
-46,359	16,867	1446,695	808,555
-45,344	14,201	1441,953	793,107
-44,330	14,057	1440,227	791,435
-43,315	14,111	1438,386	790,651
-42,300	14,133	1436,816	789,861
-41,286	14,191	1435,437	789,347
-40,271	14,102	1434,287	788,260
-39,257	14,081	1433,100	787,474
-38,242	14,161	1431,742	787,079
-37,227	14,155	1430,601	786,393
-36,213	14,177	1429,117	785,649
-35,198	14,153	1428,135	784,963
-34,184	14,174	1427,332	784,589
-33,169	14,139	1425,726	783,512
-32,154	14,249	1424,576	783,372
-31,140	14,124	1423,505	782,160
-30,125	14,201	1422,201	781,775
-29,111	14,211	1421,116	781,197
-28,096	14,105	1420,198	780,159
-27,082	14,092	1419,013	779,414
-26,067	14,048	1418,061	778,654
-25,052	14,109	1416,816	778,228
-24,038	14,011	1416,035	777,305
-23,023	14,040	1415,172	776,940
-22,009	14,056	1414,127	776,407
-20,994	14,019	1413,160	775,672
-19,979	14,012	1412,136	775,048
-18,965	13,964	1411,278	774,320
-17,950	14,026	1410,489	774,147
-16,936	14,011	1409,411	773,453
-15,921	13,987	1408,016	772,545
-14,906	13,969	1407,383	772,085
-13,892	14,007	1406,462	771,725
-12,877	13,982	1405,564	771,084
-11,863	13,941	1404,594	770,333
-10,848	13,965	1403,719	769,934
-9,833	13,934	1402,857	769,286
-8,819	13,907	1402,035	768,678
-7,804	13,870	1401,161	767,996
-6,790	13,903	1399,974	767,469
-5,775	13,843	1399,035	766,643
-4,760	13,913	1398,010	766,379
-3,746	13,916	1397,103	765,865
-2,731	13,900	1396,371	765,357
-1,717	13,890	1395,334	764,714
-0,702	13,860	1393,759	763,682
0,313	17,709	1311,354	736,370
1,327	34,062	706,097	434,389
2,342	52,318	123,865	83,466
3,356	1,090	16,723	8,461
4,371	9,018	3,209	1,708
5,386	43,350	0,571	0,368
6,400	800,000	0,060	0,161
7,415	154,274	-0,281	-0,273
8,429	-21,405	-0,333	-0,143
9,444	187,159	-0,307	-0,324
10,459	22,512	-0,284	-0,164
11,473	31,982	-0,372	-0,226
12,488	-1,524	-0,289	-0,143
13,502	30,662	-0,257	-0,155
14,517	-30,010	-0,335	-0,134
15,531	146,571	-0,337	-0,320
16,546	163,226	-0,288	-0,286
17,561	116,826	-0,367	-0,319
18,575	78,698	-0,276	-0,209
19,590	107,193	-0,142	-0,119
20,604	-42,023	-0,281	-0,101
21,619	-44,403	-0,603	-0,212
22,634	181,923	-0,422	-0,439
23,648	53,905	-0,538	-0,364
24,663	194,961	-0,341	-0,366
25,677	191,400	-0,324	-0,344
26,692	122,136	-0,354	-0,312
27,707	196,587	-0,363	-0,391
28,721	7,919	-0,402	-0,212
29,736	-2,319	-0,467	-0,230
30,750	71,580	-0,442	-0,324
31,765	123,686	-0,407	-0,360
32,780	148,792	-0,305	-0,291
33,794	10,346	-0,344	-0,184
34,809	159,417	-0,364	-0,358
35,823	35,361	-0,400	-0,247
36,838	69,757	-0,455	-0,331
37,853	94,198	-0,326	-0,261
38,867	86,336	-0,403	-0,313
39,882	-2,887	-0,456	-0,224
40,896	125,056	-0,392	-0,349
41,911	-14,003	-0,272	-0,123
42,926	-88,846	-0,365	-0,076
43,940	74,329	-0,271	-0,201
44,955	20,969	-0,386	-0,220
45,969	48,349	-0,310	-0,204
46,984	253,682	-0,275	-0,332
47,999	9,953	-0,314	-0,168
49,013	224,623	-0,283	-0,323
50,028	174,406	-0,265	-0,270
51,042	-38,112	-0,365	-0,136
52,057	121,048	-0,398	-0,349
53,071	115,488	-0,348	-0,300
54,086	4,368	-0,308	-0,158
55,101	41,382	-0,293	-0,186
56,115	57,525	-0,258	-0,177
57,130	-28,790	-0,309	-0,125
58,144	51,040	-0,311	-0,207
59,159	98,899	-0,435	-0,353
60,174	52,022	-0,356	-0,238
61,188	120,768	-0,237	-0,207
62,203	115,990	-0,331	-0,285
63,217	256,322	-0,215	-0,260
64,232	23,463	-0,236	-0,136
65,247	-21,601	-0,323	-0,138
66,261	128,951	-0,337	-0,303
67,276	31,913	-0,324	-0,196
68,290	-39,934	-0,365	-0,133
69,305	179,816	-0,203	-0,209
70,320	29,958	-0,310	-0,186
71,334	-54,996	-0,331	-0,104
72,349	61,414	-0,335	-0,234
73,363	188,394	-0,329	-0,346
74,378	-17,818	-0,240	-0,106
75,393	86,178	-0,294	-0,228
76,407	-97,985	-0,315	-0,057
77,422	-116,950	-0,203	0,026
78,436	1,879	-0,289	-0,146
79,451	-48,963	-0,420	-0,141
80,466	102,984	-0,228	-0,188
81,480	91,116	-0,216	-0,170
82,495	-48,463	-0,420	-0,141
83,509	800,000	-0,164	-0,348
84,524	-29,748	-0,309	-0,123
85,539	110,447	-0,319	-0,270
86,553	71,006	-0,140	-0,102
87,568	77,124	-0,332	-0,248
88,582	355,806	-0,207	-0,290
89,597	64,156	-0,267	-0,188
90,611	69,947	-0,330	-0,239
91,626	112,784	-0,243	-0,207
92,641	39,615	-0,284	-0,179
93,655	2,614	-0,240	-0,122
94,670	186,216	-0,238	-0,249
95,684	108,137	-0,278	-0,233
96,699	254,473	-0,296	-0,356
97,714	239,633	-0,182	-0,213
98,728	70,497	-0,257	-0,186
99,743	12,835	-0,318	-0,172
100,757	-83,831	-0,291	-0,064
101,772	-97,984	-0,346	-0,062
102,787	44,874	-0,357	-0,230
103,801	-8,553	-0,335	-0,157
104,816	79,758	-0,326	-0,246
105,830	-5,319	-0,158	-0,076
106,845	-112,113	-0,244	-0,034
107,860	221,129	-0,117	-0,132
108,874	149,752	-0,241	-0,229
109,889	107,754	-0,267	-0,223
110,903	229,901	-0,238	-0,273
111,918	159,400	-0,228	-0,223
112,933	294,344	-0,222	-0,285
113,947	-43,102	-0,235	-0,083
114,962	-122,728	-0,338	-0,038
115,976	-38,594	-0,249	-0,092
116,991	281,215	-0,239	-0,301
118,006	-61,747	-0,289	-0,084
119,020	698,610	-0,068	-0,125
120,035	163,321	-0,158	-0,156
121,049	-65,242	-0,240	-0,067
122,064	24,404	-0,282	-0,163
123,079	594,567	-0,158	-0,274
124,093	430,411	-0,213	-0,324
125,108	13,096	-0,380	-0,205
126,122	-82,151	-0,315	-0,071
127,137	100,661	-0,218	-0,177
128,151	59,168	-0,339	-0,233
129,166	55,651	-0,215	-0,145
130,181	131,002	-0,310	-0,279
131,195	81,968	-0,304	-0,230
132,210	133,950	-0,248	-0,224
133,224	79,367	-0,195	-0,146
134,239	184,727	-0,150	-0,155
135,254	163,348	-0,220	-0,217
136,268	-147,545	-0,330	-0,019
137,283	42,936	-0,286	-0,182
138,297	168,885	-0,183	-0,183
139,312	78,557	-0,214	-0,160
140,327	216,647	-0,248	-0,276
141,341	302,346	-0,259	-0,335
142,356	366,088	-0,144	-0,203
143,370	-25,146	-0,207	-0,085
144,385	578,032	-0,218	-0,375
145,400	227,447	-0,254	-0,289
146,414	320,771	-0,281	-0,375
147,429	56,435	-0,258	-0,175
148,443	319,663	-0,241	-0,320
149,458	-18,795	-0,354	-0,153
150,473	61,482	-0,242	-0,168
151,487	16,503	-0,140	-0,077
152,502	204,854	-0,232	-0,251
153,516	17,158	-0,231	-0,128
154,531	-52,713	-0,194	-0,062
155,546	-172,764	-0,275	-0,006
156,560	490,360	-0,183	-0,294
157,575	219,717	-0,184	-0,206
158,589	184,711	-0,238	-0,247
159,604	128,219	-0,193	-0,172
160,619	187,766	-0,270	-0,281
161,633	108,206	-0,303	-0,252
162,648	178,157	-0,195	-0,198
163,662	71,033	-0,249	-0,180
164,677	73,554	-0,215	-0,157
165,692	237,949	-0,202	-0,235
166,706	-43,674	-0,263	-0,092
167,721	-17,104	-0,284	-0,124
168,735	176,476	-0,228	-0,231
169,750	164,248	-0,171	-0,168
170,764	40,694	-0,182	-0,114
171,779	522,880	-0,052	-0,086
172,794	92,573	-0,171	-0,135
173,808	35,675	-0,152	-0,093
174,823	115,829	-0,180	-0,153
175,837	800,000	-0,074	-0,148
176,852	348,558	-0,140	-0,193
177,867	3,965	-0,186	-0,094
178,881	-17,503	-0,259	-0,113
179,896	-90,591	-0,248	-0,050
180,910	125,302	-0,082	-0,072
181,925	130,083	-0,158	-0,141
182,940	100,271	-0,237	-0,191
183,954	60,368	-0,112	-0,077
184,969	469,848	-0,086	-0,135
185,983	-133,058	-0,341	0,030
186,998	800,000	-0,072	-0,144
188,013	343,169	-0,131	-0,179
189,027	-20,167	-0,292	-0,125
190,042	138,750	-0,183	-0,168
191,056	800,000	-0,147	-0,345
192,071	396,214	-0,151	-0,220
193,086	76,685	-0,160	-0,118
194,100	239,346	-0,173	-0,200
195,115	63,442	-0,219	-0,153
196,129	110,271	-0,254	-0,212
197,144	775,213	-0,149	-0,285
198,159	155,300	-0,309	-0,296
199,173	348,094	-0,118	-0,162
200,188	-33,994	-0,244	-0,093
201,202	115,482	-0,255	-0,217
202,217	8,860	-0,151	-0,079
203,232	-5,735	-0,258	-0,122
204,246	46,124	-0,262	-0,169
205,261	188,719	-0,232	-0,241
206,275	223,486	-0,155	-0,174
207,290	57,800	-0,251	-0,170
208,304	-22,153	-0,274	-0,115
209,319	164,428	-0,150	-0,147
210,334	65,459	-0,329	-0,231
211,348	-200,000	-0,058	-0,225
212,363	134,531	-0,275	-0,248
213,377	411,192	-0,219	-0,324
214,392	-31,743	-0,168	-0,065
215,407	-51,908	-0,121	-0,039
216,421	-64,147	-0,099	0,028
217,436	435,147	-0,139	-0,211
218,450	800,000	-0,107	-0,219
219,465	90,279	-0,280	-0,217
220,480	383,620	-0,151	-0,216
221,494	109,064	-0,241	-0,200
222,509	202,628	-0,109	-0,117
223,523	-95,366	-0,218	-0,040
224,538	-83,048	-0,247	-0,055
225,553	800,000	-0,105	-0,262
226,567	-200,000	-0,041	-0,192
227,582	-20,011	-0,255	-0,109
228,596	-134,650	-0,299	-0,025
229,611	-60,121	-0,214	-0,063
230,626	79,982	-0,195	-0,145
231,640	264,682	-0,113	-0,137
232,655	-33,129	-0,279	-0,107
233,669	206,902	-0,191	-0,207
234,684	-34,758	-0,199	-0,075
235,699	-2,403	-0,193	-0,093
236,713	13,580	-0,236	-0,127
237,728	82,707	-0,178	-0,134
238,742	259,907	-0,107	-0,128
239,757	79,658	-0,233	-0,173
240,772	99,332	-0,209	-0,167
241,786	800,000	-0,098	-0,199
242,801	484,958	-0,090	-0,142
243,815	76,074	-0,246	-0,180
244,830	-40,809	-0,239	-0,085
245,844	367,634	-0,118	-0,165
246,859	-33,141	-0,212	-0,081
247,874	800,000	-0,093	-0,243
248,888	358,791	-0,197	-0,273
249,903	36,725	-0,197	-0,120
250,917	23,841	-0,140	-0,080
251,932	114,447	-0,254	-0,214
252,947	-200,000	-0,020	-0,144
253,961	526,876	-0,132	-0,216
254,976	64,591	-0,296	-0,206
255,990	226,541	-0,263	-0,296
257,005	-71,999	-0,161	-0,041
258,020	-134,947	-0,163	-0,013
259,034	-161,117	-0,182	0,006
260,049	800,000	-0,070	-0,152
261,063	-33,478	-0,125	0,047
262,078	19,749	-0,186	-0,103
263,093	533,911	-0,142	-0,233
264,107	-39,542	-0,211	-0,076
265,122	19,100	-0,222	-0,123
266,136	290,372	-0,105	-0,132
267,151	-23,600	-0,160	-0,066
268,166	17,103	-0,161	-0,088
269,180	234,505	-0,127	-0,145
270,195	-9,330	-0,258	-0,119
271,209	-80,925	-0,192	-0,044
272,224	800,000	-0,066	-0,170
273,239	306,173	-0,071	-0,091
274,253	305,540	-0,181	-0,234
275,268	35,470	-0,297	-0,179
276,282	130,877	-0,169	-0,150
277,297	-200,000	-0,053	-0,182
278,312	-15,101	-0,103	-0,045
279,326	66,611	-0,228	-0,160
280,341	-114,331	-0,167	-0,022
281,355	538,800	-0,098	-0,161
282,370	-200,000	-0,006	-0,201
283,384	-200,000	-0,064	-0,209
284,399	447,671	-0,155	-0,236
285,414	-200,000	-0,054	-0,215
286,428	-200,000	-0,057	-0,193
287,443	274,250	-0,038	0,047
288,457	247,611	-0,079	-0,092
289,472	55,997	-0,109	-0,073
290,487	156,770	-0,117	-0,112
291,501	-74,550	-0,202	-0,050
292,516	-200,000	-0,040	-0,187
293,530	-109,622	-0,097	0,014
294,545	-62,401	-0,164	0,047
295,560	800,000	-0,053	-0,122
296,574	29,420	-0,198	-0,116
297,589	-87,370	-0,189	-0,039
298,603	800,000	-0,076	-0,169
299,618	321,782	-0,152	-0,200
300,633	800,000	-0,057	-0,122
301,647	97,690	-0,166	-0,131
302,662	264,545	-0,163	-0,196
303,676	256,921	-0,118	-0,139
304,691	539,801	-0,103	-0,170
305,706	172,941	-0,073	-0,072
306,720	418,676	-0,131	-0,193
307,735	800,000	-0,075	-0,171
308,749	209,256	-0,233	-0,252
309,764	800,000	0,034	-0,088
310,779	-120,639	-0,273	-0,031
311,793	-62,754	-0,074	-0,021
312,808	81,217	-0,207	-0,154
313,822	340,903	-0,158	-0,213
314,837	107,914	-0,047	-0,039
315,852	-200,000	0,024	-0,149
316,866	211,748	0,019	0,020
317,881	-200,000	0,016	0,095
318,895	77,167	-0,087	0,064
319,910	311,181	-0,150	-0,194
320,925	-200,000	-0,001	-0,097
321,939	-200,000	-0,056	-0,187
322,954	800,000	0,030	-0,063
323,968	209,273	-0,161	-0,174
324,983	165,114	-0,157	-0,153
325,997	800,000	-0,063	-0,165
327,012	112,487	-0,165	-0,137
328,027	83,199	-0,230	-0,172
329,041	800,000	-0,085	-0,180
330,056	595,749	-0,136	-0,232
331,070	800,000	-0,038	-0,083
332,085	545,783	-0,099	-0,164
333,100	772,467	-0,073	-0,137
334,114	-118,028	-0,287	-0,035
335,129	399,797	-0,067	-0,097
336,143	-28,674	-0,074	-0,029
337,158	-30,332	-0,225	-0,087
338,173	-137,404	-0,105	-0,008
339,187	-150,017	-0,215	0,011
340,202	205,545	-0,060	-0,064
341,216	-200,000	-0,027	-0,106
342,231	800,000	-0,131	-0,268
343,246	720,493	-0,062	0,113
344,260	800,000	-0,060	-0,136
345,275	196,485	-0,104	-0,109
346,289	-200,000	-0,034	-0,126
347,304	-64,199	-0,153	-0,043
348,319	294,640	-0,161	-0,202
349,333	189,826	-0,212	-0,219
350,348	57,845	-0,172	-0,116
351,362	334,085	-0,062	-0,082
352,377	-13,698	-0,081	-0,036
353,392	-137,837	-0,155	0,012
354,406	477,647	-0,078	0,121
355,421	210,176	1314,530	1417,086
356,435	161,791	1475,223	1417,574
