DTS Sentinel unit serial number:	SN410029Multiplexer serial number:	ORYXHardware model number:	OX2-SRSoftware version number:	ORYX F/W v4,00 Oryx Data Collector v3.7.2.0data status	okinstallation	B3 Nyhavnadifferential loss correction	single-endedforward channel	channel 1reverse channel	N/Adate	2023/12/03time	09:52:30forward acquisition time	300,00reverse acquisition time	0,00gamma	499,1914k internal	0,3201k external	0,3201temperature offset calibration	1,0000default loss term (dB/km)	0,3820temperature slope calibration	1,0000multiplexer offset coefficient	1,0000multiplexer slope coefficient	1,0000fibre end	0,00T internal ref (°C)	13,36T ext. ref 1 (°C)	-1,62T ext. ref 2 (°C)	-1,64length (m)	temperature (°C)	Stokes	anti-Stokes-744,400	286,734	-0,288	-0,379
-743,385	-200,000	0,003	0,181
-742,371	88,782	-0,182	-0,147
-741,356	-200,000	0,086	0,304
-740,342	800,000	-0,074	-0,234
-739,327	-200,000	-0,021	0,376
-738,312	800,000	-0,157	-0,387
-737,298	162,449	0,187	0,191
-736,283	123,582	-0,191	-0,174
-735,269	-200,000	0,035	0,342
-734,254	298,090	-0,226	-0,302
-733,239	14,244	-0,198	0,112
-732,225	800,000	-0,059	-0,154
-731,210	-200,000	0,005	0,115
-730,196	-200,000	0,005	-0,084
-729,181	519,355	0,048	-0,082
-728,167	511,389	-0,059	-0,101
-727,152	-200,000	-0,015	0,069
-726,137	547,545	0,038	-0,066
-725,123	28,373	-0,181	-0,111
-724,108	-123,800	-0,040	0,005
-723,094	135,702	0,063	-0,060
-722,079	58,349	-0,108	-0,077
-721,064	-200,000	0,011	0,085
-720,050	122,011	0,068	-0,062
-719,035	800,000	-0,048	0,113
-718,021	800,000	-0,029	0,068
-717,006	-130,682	-0,073	-0,007
-715,991	-27,062	0,091	0,038
-714,977	-200,000	-0,006	0,047
-713,962	19,989	-0,073	-0,043
-712,948	-173,151	-0,046	-0,001
-711,933	-92,078	0,024	0,005
-710,918	683,573	-0,049	0,093
-709,904	-107,552	-0,019	0,003
-708,889	-15,389	-0,078	-0,036
-707,875	-200,000	-0,013	0,062
-706,860	-93,768	0,148	-0,029
-705,845	-132,671	0,019	0,002
-704,831	-73,545	-0,053	0,014
-703,816	-126,605	0,075	-0,008
-702,802	-111,122	-0,075	0,011
-701,787	29,923	-0,088	-0,054
-700,772	-112,660	-0,243	-0,035
-699,758	-132,162	0,046	-0,004
-698,743	50,840	0,042	0,029
-697,729	800,000	-0,022	0,048
-696,714	-200,000	-0,011	0,068
-695,699	-200,000	-0,001	-0,102
-694,685	21,940	-0,111	-0,065
-693,670	88,972	-0,045	-0,037
-692,656	-94,821	0,039	-0,008
-691,641	800,000	0,026	-0,073
-690,627	-60,777	0,104	0,032
-689,612	800,000	0,017	-0,050
-688,597	131,413	-0,084	-0,078
-687,583	16,853	-0,031	0,018
-686,568	-14,810	-0,104	-0,048
-685,554	158,410	0,061	-0,061
-684,539	190,667	-0,015	0,016
-683,524	-200,000	0,002	0,092
-682,510	-76,621	-0,034	0,009
-681,495	800,000	-0,019	0,052
-680,481	270,538	-0,052	-0,066
-679,466	25,166	-0,055	-0,033
-678,451	343,028	-0,047	0,067
-677,437	209,773	0,078	-0,089
-676,422	-114,111	-0,094	0,013
-675,408	-104,224	-0,141	0,024
-674,393	381,983	0,018	-0,028
-673,378	-35,146	-0,048	0,019
-672,364	214,065	-0,041	0,048
-671,349	-200,000	0,002	-0,077
-670,335	5,254	0,092	0,049
-669,320	61,494	-0,084	-0,061
-668,305	21,362	0,061	0,036
-667,291	417,481	-0,105	-0,163
-666,276	190,356	-0,036	0,040
-665,262	-140,066	0,083	-0,006
-664,247	-159,506	-0,069	-0,003
-663,232	-200,000	-0,003	-0,026
-662,218	-200,000	0,006	0,094
-661,203	-200,000	0,010	-0,097
-660,189	800,000	-0,021	-0,066
-659,174	-45,302	0,102	0,036
-658,159	-200,000	-0,013	-0,046
-657,145	-200,000	0,017	-0,065
-656,130	-119,424	-0,081	-0,010
-655,116	-51,062	0,064	0,022
-654,101	-94,525	-0,054	0,011
-653,086	762,065	-0,070	-0,138
-652,072	784,637	-0,029	-0,058
-651,057	425,213	-0,111	0,174
-650,043	800,000	-0,036	-0,094
-649,028	-30,934	-0,201	-0,082
-648,014	622,907	-0,008	0,014
-646,999	-200,000	0,045	-0,197
-645,984	-68,210	0,084	0,024
-644,970	-39,619	0,057	-0,022
-643,955	112,609	0,021	-0,018
-642,941	129,281	-0,053	-0,049
-641,926	-200,000	-0,001	-0,046
-640,911	-143,777	-0,072	-0,005
-639,897	-200,000	0,003	0,083
-638,882	-200,000	-0,018	0,095
-637,868	424,001	0,035	-0,055
-636,853	575,513	-0,028	0,051
-635,838	-178,097	-0,120	0,002
-634,824	39,798	0,112	-0,073
-633,809	-200,000	-0,014	-0,081
-632,795	800,000	0,023	0,051
-631,780	6,538	-0,067	-0,036
-630,765	-56,647	-0,091	0,029
-629,751	-200,000	-0,013	-0,061
-628,736	56,461	-0,083	0,059
-627,722	-164,910	-0,134	-0,004
-626,707	-146,578	-0,192	0,012
-625,692	-94,722	0,120	0,023
-624,678	-200,000	0,010	0,205
-623,663	-200,000	-0,037	0,259
-622,649	518,130	0,044	-0,074
-621,634	-127,828	-0,088	0,009
-620,619	549,108	-0,061	-0,106
-619,605	-15,951	0,188	0,086
-618,590	3,178	0,100	0,053
-617,576	-41,167	-0,019	-0,007
-616,561	800,000	-0,052	0,157
-615,546	-120,051	0,079	-0,010
-614,532	800,000	-0,133	-0,270
-613,517	286,852	0,124	-0,162
-612,503	265,862	0,020	0,025
-611,488	70,669	0,080	0,060
-610,474	800,000	-0,045	0,126
-609,459	-87,968	0,072	0,016
-608,444	100,588	-0,143	-0,120
-607,430	-73,053	-0,100	-0,026
-606,415	37,009	-0,104	-0,066
-605,401	184,442	-0,065	-0,070
-604,386	790,702	0,047	-0,094
-603,371	408,880	0,100	-0,154
-602,357	-128,894	0,029	-0,003
-601,342	-155,998	-0,104	-0,005
-600,328	47,668	0,062	0,041
-599,313	800,000	0,040	-0,121
-598,298	95,783	-0,043	-0,035
-597,284	-158,736	-0,035	-0,001
-596,269	-200,000	-0,003	0,016
-595,255	171,267	0,072	-0,075
-594,240	-59,921	0,048	0,015
-593,225	229,526	-0,072	-0,085
-592,211	385,706	-0,023	0,034
-591,196	190,781	-0,103	-0,112
-590,182	800,000	-0,053	0,111
-589,167	-40,420	0,123	-0,046
-588,152	715,050	-0,051	0,099
-587,138	187,743	0,072	0,078
-586,123	800,000	-0,018	-0,053
-585,109	228,205	-0,058	0,069
-584,094	800,000	-0,053	-0,116
-583,079	61,300	0,036	-0,026
-582,065	-200,000	0,010	0,051
-581,050	-200,000	0,016	0,069
-580,036	-200,000	-0,008	-0,074
-579,021	265,844	-0,126	-0,159
-578,006	62,088	0,183	-0,132
-576,992	255,817	-0,021	0,026
-575,977	-118,590	0,157	-0,020
-574,963	621,570	-0,058	0,106
-573,948	-200,000	0,047	-0,151
-572,934	-200,000	0,001	0,041
-571,919	-136,991	-0,169	-0,014
-570,904	800,000	0,039	-0,105
-569,890	-200,000	-0,005	0,082
-568,875	121,507	-0,084	0,076
-567,861	609,665	0,028	0,050
-566,846	-71,004	0,151	0,041
-565,831	216,349	-0,062	-0,071
-564,817	31,697	0,017	-0,011
-563,802	297,645	-0,081	-0,107
-562,788	-96,211	-0,129	0,025
-561,773	111,263	-0,073	0,063
-560,758	-200,000	-0,015	0,073
-559,744	3,664	-0,017	-0,009
-558,729	-83,767	0,036	-0,008
-557,715	-200,000	0,021	0,133
-556,700	704,416	-0,047	-0,091
-555,685	-200,000	-0,027	-0,201
-554,671	-200,000	0,017	-0,090
-553,656	-21,680	0,088	0,038
-552,642	-200,000	-0,008	-0,067
-551,627	800,000	-0,013	0,038
-550,612	800,000	0,019	0,043
-549,598	48,160	-0,165	-0,111
-548,583	265,008	0,047	-0,059
-547,569	185,792	-0,042	-0,046
-546,554	67,128	0,163	-0,120
-545,539	800,000	0,014	0,028
-544,525	58,324	-0,019	0,014
-543,510	-82,879	-0,073	-0,017
-542,496	235,157	-0,077	-0,091
-541,481	-50,274	-0,074	0,025
-540,466	462,205	-0,033	0,054
-539,452	800,000	-0,028	0,079
-538,437	-200,000	0,031	0,137
-537,423	-200,000	0,008	0,086
-536,408	-97,343	0,036	-0,007
-535,393	-200,000	-0,020	0,106
-534,379	-188,517	-0,128	-0,001
-533,364	-71,343	-0,066	0,018
-532,350	85,666	0,040	0,031
-531,335	-200,000	0,018	0,099
-530,321	43,332	0,043	-0,028
-529,306	800,000	0,033	-0,076
-528,291	-85,873	-0,056	-0,012
-527,277	-165,903	-0,243	0,007
-526,262	302,670	-0,091	-0,122
-525,248	800,000	0,043	-0,098
-524,233	-200,000	0,018	-0,121
-523,218	158,234	0,109	0,109
-522,204	153,164	-0,140	0,138
-521,189	-45,151	-0,027	-0,010
-520,175	-200,000	-0,020	-0,072
-519,160	-191,095	-0,108	0,001
-518,145	-118,684	0,103	0,013
-517,131	339,916	0,029	-0,040
-516,116	-72,986	-0,107	-0,028
-515,102	366,715	0,052	0,076
-514,087	-200,000	0,009	-0,041
-513,072	-82,314	-0,149	-0,035
-512,058	-59,339	-0,030	-0,009
-511,043	518,490	0,051	-0,086
-510,029	227,147	-0,092	-0,108
-509,014	-119,003	0,119	-0,015
-507,999	800,000	-0,005	-0,011
-506,985	297,739	0,013	-0,017
-505,970	-74,720	-0,039	-0,010
-504,956	0,446	-0,077	-0,039
-503,941	-59,689	-0,151	-0,046
-502,926	-79,822	0,129	0,031
-501,912	229,785	0,048	0,057
-500,897	32,320	-0,076	0,047
-499,883	-200,000	-0,022	0,095
-498,868	-200,000	0,003	0,110
-497,853	-107,327	0,083	0,013
-496,839	-200,000	0,005	0,109
-495,824	-143,218	-0,104	0,007
-494,810	-39,242	0,128	0,048
-493,795	-94,847	0,104	0,020
-492,781	-174,834	-0,058	-0,001
-491,766	-200,000	-0,036	-0,114
-490,751	135,911	0,044	0,041
-489,737	-46,789	0,141	0,049
-488,722	-18,667	0,115	0,052
-487,708	-45,341	-0,062	-0,022
-486,693	13,743	0,090	0,050
-485,678	-200,000	0,046	0,156
-484,664	-69,806	-0,074	0,020
-483,649	230,214	-0,033	-0,038
-482,635	-200,000	-0,014	0,054
-481,620	-200,000	0,058	0,200
-480,605	2,222	-0,037	-0,019
-479,591	721,157	0,042	-0,080
-478,576	35,485	-0,040	0,026
-477,562	-57,304	-0,106	0,033
-476,547	-90,299	-0,030	-0,006
-475,532	800,000	0,012	0,029
-474,518	-163,178	0,079	-0,003
-473,503	-200,000	0,019	0,086
-472,489	800,000	0,018	-0,058
-471,474	-75,480	0,106	0,027
-470,459	-146,413	0,084	0,005
-469,445	-200,000	0,026	-0,156
-468,430	-110,650	-0,072	-0,011
-467,416	62,752	0,042	-0,030
-466,401	210,261	0,068	0,077
-465,386	90,896	0,121	0,098
-464,372	-200,000	0,001	-0,018
-463,357	20,437	0,077	-0,045
-462,343	-138,251	0,028	0,002
-461,328	-79,600	0,075	0,018
-460,313	389,385	-0,073	-0,109
-459,299	4,746	0,108	-0,057
-458,284	800,000	0,026	0,071
-457,270	495,474	-0,050	-0,082
-456,255	800,000	-0,050	-0,121
-455,241	202,740	0,082	0,092
-454,226	-200,000	0,007	-0,043
-453,211	-132,132	0,083	0,008
-452,197	-143,624	0,109	-0,007
-451,182	-47,349	0,145	0,050
-450,168	-39,781	-0,027	-0,010
-449,153	-160,964	-0,179	0,007
-448,138	25,517	-0,023	-0,014
-447,124	-133,299	-0,100	0,009
-446,109	-200,000	0,005	-0,088
-445,095	-155,720	0,113	-0,005
-444,080	800,000	0,003	-0,008
-443,065	109,238	-0,060	-0,052
-442,051	-29,941	0,128	-0,052
-441,036	6,831	0,066	-0,035
-440,022	233,722	0,080	-0,095
-439,007	-144,949	0,066	-0,004
-437,992	800,000	-0,021	0,056
-436,978	658,690	-0,023	-0,042
-435,963	-86,755	-0,025	0,005
-434,949	-200,000	-0,007	0,051
-433,934	788,479	-0,041	-0,081
-432,919	800,000	-0,072	-0,167
-431,905	-107,338	0,121	-0,019
-430,890	159,123	0,060	0,060
-429,876	300,436	0,047	-0,063
-428,861	22,630	-0,060	0,035
-427,846	76,713	-0,035	-0,027
-426,832	16,800	0,052	0,029
-425,817	-200,000	0,009	-0,055
-424,803	-79,555	-0,092	-0,022
-423,788	-65,813	-0,119	0,034
-422,773	-3,907	0,041	0,020
-421,759	800,000	-0,047	-0,116
-420,744	-34,356	0,066	0,026
-419,730	205,715	-0,056	0,063
-418,715	-120,168	-0,042	-0,005
-417,701	461,189	0,070	0,112
-416,686	-17,170	-0,078	0,035
-415,671	482,119	0,038	0,062
-414,657	-146,040	-0,078	-0,005
-413,642	-150,836	0,084	-0,005
-412,628	-200,000	0,036	-0,114
-411,613	257,725	0,044	-0,055
-410,598	-144,347	0,122	-0,008
-409,584	-16,830	-0,022	-0,010
-408,569	540,181	0,049	0,084
-407,555	-126,771	-0,101	0,011
-406,540	522,561	0,068	0,115
-405,525	800,000	0,052	-0,118
-404,511	-200,000	-0,003	-0,031
-403,496	-63,367	-0,153	0,045
-402,482	-35,133	0,099	-0,038
-401,467	800,000	-0,008	-0,024
-400,452	441,968	0,056	0,088
-399,438	800,000	0,039	0,110
-398,423	208,187	-0,080	-0,090
-397,409	216,789	-0,012	-0,014
-396,394	213,751	-0,029	0,033
-395,379	-200,000	-0,012	0,086
-394,365	-200,000	-0,057	0,186
-393,350	167,706	0,046	0,047
-392,336	420,012	-0,041	0,063
-391,321	159,383	-0,089	-0,089
-390,306	-49,426	-0,088	0,030
-389,292	241,121	-0,063	-0,075
-388,277	-200,000	0,032	-0,129
-387,263	800,000	0,060	-0,124
-386,248	800,000	0,033	-0,101
-385,233	-79,432	-0,104	-0,025
-384,219	-96,724	0,090	0,017
-383,204	-200,000	0,005	-0,039
-382,190	206,931	-0,135	-0,151
-381,175	800,000	0,022	0,052
-380,160	-160,081	0,199	0,008
-379,146	15,427	0,076	0,043
-378,131	1,395	-0,113	0,058
-377,117	31,972	-0,045	0,028
-376,102	420,635	-0,070	0,107
-375,088	-200,000	-0,021	0,075
-374,073	84,429	-0,077	-0,060
-373,058	181,625	-0,069	-0,073
-372,044	27,123	-0,043	0,026
-371,029	800,000	0,014	-0,027
-370,015	800,000	-0,006	-0,012
-369,000	-200,000	-0,018	-0,063
-367,985	-200,000	-0,032	-0,137
-366,971	-43,938	-0,112	0,040
-365,956	267,083	0,052	0,065
-364,942	313,460	0,054	-0,073
-363,927	222,462	0,047	0,054
-362,912	-144,143	0,107	-0,007
-361,898	59,263	0,145	-0,102
-360,883	800,000	-0,055	-0,143
-359,869	64,083	-0,045	0,032
-358,854	-200,000	0,023	0,129
-357,839	-55,262	-0,087	-0,028
-356,825	-27,041	0,057	0,024
-355,810	-81,669	-0,088	0,021
-354,796	-200,000	0,040	-0,151
-353,781	-102,346	-0,133	0,023
-352,766	-200,000	0,019	0,105
-351,752	-150,603	0,084	0,004
-350,737	-143,678	-0,061	-0,004
-349,723	-200,000	0,020	0,077
-348,708	-200,000	0,029	0,147
-347,693	30,257	-0,116	0,071
-346,679	228,091	-0,102	-0,119
-345,664	221,917	0,049	0,057
-344,650	89,588	0,042	0,033
-343,635	-13,335	-0,057	0,026
-342,620	735,167	0,019	-0,037
-341,606	486,050	0,009	0,015
-340,591	122,642	-0,029	-0,026
-339,577	687,846	-0,042	-0,080
-338,562	-47,482	0,157	0,054
-337,548	-114,016	0,061	0,008
-336,533	-110,138	0,221	-0,033
-335,518	321,465	-0,048	0,065
-334,504	55,350	-0,025	0,018
-333,489	-200,000	-0,017	-0,129
-332,475	458,950	-0,020	-0,031
-331,460	231,339	-0,107	0,126
-330,445	17,307	0,081	-0,046
-329,431	321,300	-0,083	0,114
-328,416	-200,000	-0,018	0,119
-327,402	-54,289	0,041	-0,013
-326,387	169,798	0,077	0,079
-325,372	-200,000	0,013	-0,068
-324,358	-184,012	-0,077	0,001
-323,343	126,334	-0,086	0,078
-322,329	800,000	0,082	0,243
-321,314	464,380	0,053	-0,085
-320,299	169,555	0,040	-0,041
-319,285	-200,000	0,031	0,139
-318,270	218,162	-0,065	0,075
-317,256	-200,000	-0,038	-0,155
-316,241	-100,225	0,063	-0,011
-315,226	187,882	0,077	0,083
-314,212	-200,000	-0,000	-0,017
-313,197	800,000	-0,050	0,125
-312,183	-152,768	-0,011	0,001
-311,168	225,414	-0,070	0,082
-310,153	451,337	-0,055	-0,088
-309,139	104,206	0,067	0,057
-308,124	-81,844	0,094	-0,022
-307,110	800,000	0,002	0,005
-306,095	75,639	0,101	0,076
-305,080	-127,731	-0,101	-0,010
-304,066	-67,820	0,147	-0,041
-303,051	800,000	0,060	-0,134
-302,037	149,222	0,117	-0,113
-301,022	-200,000	0,035	0,154
-300,008	-8,251	-0,058	0,028
-298,993	-200,000	0,002	0,142
-297,978	-94,706	0,196	0,038
-296,964	-200,000	-0,021	-0,140
-295,949	493,285	0,043	-0,071
-294,935	-200,000	0,011	-0,085
-293,920	156,148	0,128	0,126
-292,905	674,284	0,026	0,048
-291,891	10,447	0,123	-0,067
-290,876	49,837	0,111	-0,074
-289,862	-200,000	-0,004	0,119
-288,847	575,699	-0,038	-0,066
-287,832	-3,886	0,044	0,022
-286,818	-53,306	-0,076	-0,025
-285,803	221,092	0,095	0,109
-284,789	-122,091	0,043	0,005
-283,774	136,282	0,143	0,133
-282,759	-200,000	0,003	-0,051
-281,745	2,437	-0,094	0,048
-280,730	-170,724	0,042	-0,001
-279,716	-200,000	0,011	-0,070
-278,701	200,244	-0,012	-0,013
-277,686	613,670	-0,059	0,106
-276,672	-156,986	0,039	-0,002
-275,657	112,515	-0,104	0,090
-274,643	-26,572	-0,131	-0,054
-273,628	-200,000	-0,006	-0,066
-272,613	-133,647	-0,229	0,020
-271,599	-118,097	0,103	0,013
-270,584	99,679	0,088	-0,073
-269,570	800,000	-0,018	0,039
-268,555	138,951	-0,109	0,102
-267,540	800,000	-0,020	-0,049
-266,526	-83,987	0,025	0,006
-265,511	-200,000	0,002	0,032
-264,497	-48,268	0,100	0,034
-263,482	-200,000	-0,003	-0,017
-262,467	251,349	0,048	-0,058
-261,453	-149,523	-0,094	0,005
-260,438	-106,198	0,210	-0,033
-259,424	69,472	-0,088	0,064
-258,409	-200,000	-0,007	0,151
-257,395	-56,120	0,137	0,043
-256,380	583,658	0,059	-0,103
-255,365	800,000	0,039	0,107
-254,351	469,960	0,034	0,055
-253,336	289,614	-0,070	-0,091
-252,322	-24,880	-0,130	0,055
-251,307	409,172	0,040	0,060
-250,292	-200,000	-0,002	-0,074
-249,278	-125,266	0,131	0,014
-248,263	-48,852	-0,046	-0,016
-247,249	196,648	-0,068	0,074
-246,234	-55,380	0,071	0,023
-245,219	79,239	-0,107	0,082
-244,205	-8,729	-0,049	0,023
-243,190	800,000	-0,042	-0,124
-242,176	-61,684	0,061	0,018
-241,161	800,000	0,008	-0,019
-240,146	-200,000	0,033	0,104
-239,132	-73,195	0,045	-0,012
-238,117	-118,618	-0,110	0,014
-237,103	160,581	-0,080	-0,079
-236,088	410,768	-0,068	0,102
-235,073	148,222	0,048	-0,047
-234,059	-126,906	0,117	-0,012
-233,044	-200,000	-0,001	-0,178
-232,030	672,011	-0,052	0,096
-231,015	477,589	0,016	0,025
-230,000	-51,141	-0,137	-0,046
-228,986	800,000	-0,005	0,012
-227,971	230,687	0,068	0,079
-226,957	277,562	-0,024	0,030
-225,942	26,613	0,042	0,025
-224,927	-197,063	-0,115	-0,001
-223,913	54,698	-0,030	0,021
-222,898	-200,000	-0,006	-0,159
-221,884	174,840	-0,071	0,073
-220,869	30,304	-0,073	-0,044
-219,855	-56,022	-0,062	-0,019
-218,840	-88,190	0,121	-0,026
-217,825	-200,000	0,016	0,065
-216,811	325,246	-0,016	-0,022
-215,796	-200,000	0,002	0,024
-214,782	-200,000	0,016	0,070
-213,767	-18,427	-0,105	0,047
-212,752	800,000	-0,062	0,139
-211,738	574,787	0,073	-0,127
-210,723	239,865	0,070	0,083
-209,709	105,196	-0,089	-0,075
-208,694	-160,729	0,098	-0,004
-207,679	564,068	0,051	0,088
-206,665	46,519	-0,118	0,078
-205,650	-200,000	0,019	0,108
-204,636	734,522	-0,016	0,030
-203,621	-200,000	0,006	0,047
-202,606	-200,000	0,005	-0,046
-201,592	-200,000	0,026	-0,170
-200,577	264,447	-0,033	-0,041
-199,563	-113,610	-0,043	0,006
-198,548	-12,227	0,042	0,019
-197,533	158,947	0,133	0,132
-196,519	-118,120	-0,057	0,007
-195,504	800,000	0,041	-0,086
-194,490	-200,000	0,005	-0,050
-193,475	-200,000	-0,019	-0,217
-192,460	681,702	-0,028	-0,052
-191,446	800,000	-0,052	0,109
-190,431	-79,767	-0,077	-0,018
-189,417	-200,000	0,017	0,090
-188,402	-200,000	0,015	-0,149
-187,387	292,548	-0,094	-0,123
-186,373	176,643	0,095	-0,098
-185,358	405,172	0,074	-0,112
-184,344	-200,000	0,028	0,095
-183,329	800,000	0,078	0,157
-182,315	-200,000	0,061	0,199
-181,300	-200,000	-0,012	-0,076
-180,285	7,695	-0,040	0,021
-179,271	48,452	0,171	-0,114
-178,256	-97,766	0,042	0,008
-177,242	-69,901	0,097	-0,026
-176,227	-119,160	0,077	-0,009
-175,212	662,173	0,029	0,054
-174,198	400,307	-0,023	0,035
-173,183	-200,000	-0,006	0,091
-172,169	-49,071	0,076	-0,026
-171,154	3,610	-0,108	-0,056
-170,139	435,840	0,034	-0,053
-169,125	-28,825	0,036	0,015
-168,110	-69,707	-0,106	0,029
-167,096	380,836	-0,089	0,131
-166,081	-200,000	0,013	-0,125
-165,066	-200,000	-0,028	-0,089
-164,052	641,009	0,044	-0,080
-163,037	391,133	-0,033	-0,049
-162,023	-200,000	-0,020	0,085
-161,008	307,080	0,021	-0,028
-159,993	-39,904	-0,083	-0,031
-158,979	800,000	-0,058	-0,120
-157,964	-17,712	-0,044	0,020
-156,950	-200,000	-0,007	-0,036
-155,935	296,495	-0,105	0,137
-154,920	-70,553	0,170	0,046
-153,906	546,483	0,018	-0,031
-152,891	482,165	-0,055	0,088
-151,877	115,395	-0,052	-0,046
-150,862	-200,000	-0,019	-0,062
-149,847	-126,101	0,045	-0,005
-148,833	119,494	-0,081	0,072
-147,818	-52,340	0,094	-0,031
-146,804	527,691	-0,037	0,063
-145,789	-114,271	-0,052	0,007
-144,775	-132,565	0,098	0,009
-143,760	90,568	-0,028	0,022
-142,745	-200,000	-0,004	-0,059
-141,731	-200,000	-0,015	0,115
-140,716	-52,584	-0,143	-0,047
-139,702	315,750	0,047	0,063
-138,687	800,000	0,016	0,044
-137,672	412,479	0,032	0,049
-136,658	310,159	-0,045	0,060
-135,643	-200,000	-0,006	-0,161
-134,629	-200,000	0,004	-0,094
-133,614	3,579	-0,089	0,046
-132,599	-46,672	-0,042	-0,015
-131,585	36,339	-0,018	0,011
-130,570	800,000	0,037	-0,075
-129,556	800,000	-0,073	-0,196
-128,541	-200,000	-0,006	-0,036
-127,526	141,849	0,121	-0,114
-126,512	-168,978	0,057	0,001
-125,497	-156,237	0,108	-0,005
-124,483	-2,038	0,049	0,024
-123,468	-49,370	-0,057	-0,019
-122,453	-200,000	-0,009	0,063
-121,439	800,000	-0,064	-0,137
-120,424	79,019	-0,065	-0,049
-119,410	-163,202	0,044	-0,001
-118,395	463,666	-0,037	0,059
-117,380	800,000	0,013	0,039
-116,366	244,359	-0,013	-0,015
-115,351	66,786	-0,025	-0,018
-114,337	1,024	-0,048	-0,024
-113,322	-77,128	-0,051	0,013
-112,307	-130,978	0,101	0,009
-111,293	33,095	0,118	0,072
-110,278	6,509	0,062	0,033
-109,264	-68,283	-0,095	0,026
-108,249	8,007	0,024	0,013
-107,234	264,160	0,071	-0,088
-106,220	-200,000	0,002	0,077
-105,205	59,239	-0,123	0,086
-104,191	265,043	0,091	0,112
-103,176	3,758	0,080	-0,041
-102,162	729,771	-0,041	0,079
-101,147	50,233	0,034	0,023
-100,132	-18,185	-0,058	-0,026
-99,118	-200,000	0,028	-0,096
-98,103	50,084	0,092	-0,062
-97,089	-60,686	0,098	0,029
-96,074	669,920	0,035	-0,064
-95,059	-102,454	-0,045	-0,008
-94,045	-200,000	-0,003	-0,106
-93,030	800,000	-0,041	0,110
-92,016	-161,764	0,093	-0,003
-91,001	-182,175	-0,119	0,002
-89,986	-51,862	-0,008	-0,003
-88,972	-1,806	0,055	0,028
-87,957	12,459	-0,091	0,050
-86,943	800,000	0,019	0,051
-85,928	800,000	-0,025	-0,075
-84,913	-200,000	0,008	-0,137
-83,899	-101,620	0,048	0,008
-82,884	122,681	0,150	0,133
-81,870	639,011	-0,014	0,024
-80,855	-200,000	-0,005	-0,111
-79,840	-94,669	-0,072	-0,014
-78,826	-200,000	0,025	-0,087
-77,811	250,740	0,032	-0,039
-76,797	-26,125	0,032	-0,013
-75,782	-132,630	0,075	0,007
-74,767	800,000	0,023	-0,053
-73,753	-121,252	-0,069	0,008
-72,738	-132,177	-0,066	0,006
-71,724	95,287	0,031	0,025
-70,709	800,000	-0,016	-0,042
-69,694	800,000	0,046	-0,092
-68,680	800,000	0,012	0,024
-67,665	-200,000	-0,008	0,041
-66,651	268,815	0,063	0,078
-65,636	14,244	-0,107	0,059
-64,622	145,437	0,030	0,028
-63,607	39,632	0,031	-0,020
-62,592	423,730	-0,038	-0,058
-61,578	800,000	-0,051	0,108
-60,563	-200,000	-0,001	0,127
-59,549	-104,558	0,108	0,018
-58,534	-39,099	-1,738	-0,644
-57,519	469,816	-1,297	-2,071
-56,505	-200,000	-0,401	-4,515
-55,490	367,122	0,938	1,344
-54,476	800,000	4,862	10,985
-53,461	-200,000	19,172	320,098
-52,446	-200,000	740,461	2336,146
-51,432	574,203	1655,522	2870,989
-50,417	78,393	1671,100	1262,506
-49,403	21,341	1544,191	886,017
-48,388	15,223	1466,557	811,716
-47,373	17,969	1456,783	819,548
-46,359	16,742	1446,451	807,820
-45,344	13,469	1441,930	789,582
-44,330	13,383	1439,914	788,035
-43,315	13,427	1438,353	787,357
-42,300	13,386	1436,618	786,183
-41,286	13,442	1435,243	785,664
-40,271	13,387	1434,254	784,833
-39,257	13,367	1432,875	783,948
-38,242	13,441	1431,417	783,476
-37,227	13,477	1430,231	782,963
-36,213	13,472	1429,031	782,255
-35,198	13,464	1427,839	781,533
-34,184	13,465	1426,916	780,999
-33,169	13,415	1425,692	780,061
-32,154	13,473	1424,442	779,624
-31,140	13,449	1423,257	778,829
-30,125	13,521	1421,873	778,383
-29,111	13,450	1421,084	777,581
-28,096	13,436	1419,858	776,815
-27,082	13,394	1418,811	776,011
-26,067	13,408	1417,735	775,460
-25,052	13,421	1416,629	774,885
-24,038	13,369	1415,756	774,134
-23,023	13,376	1414,446	773,416
-22,009	13,378	1413,455	772,856
-20,994	13,342	1412,720	772,252
-19,979	13,367	1411,774	771,822
-18,965	13,366	1410,887	771,302
-17,950	13,325	1409,978	770,584
-16,936	13,306	1409,129	769,997
-15,921	13,298	1407,916	769,269
-14,906	13,299	1407,062	768,777
-13,892	13,348	1405,858	768,314
-12,877	13,301	1405,153	767,683
-11,863	13,300	1404,368	767,218
-10,848	13,268	1403,441	766,531
-9,833	13,276	1402,462	766,002
-8,819	13,256	1401,448	765,325
-7,804	13,211	1400,774	764,717
-6,790	13,203	1399,750	764,090
-5,775	13,232	1398,411	763,466
-4,760	13,204	1397,703	762,916
-3,746	13,210	1396,683	762,360
-2,731	13,201	1395,891	761,852
-1,717	13,143	1395,244	761,203
-0,702	13,202	1393,173	760,314
0,313	17,027	1309,997	732,648
1,327	33,267	703,737	431,114
2,342	51,259	123,333	82,691
3,356	4,048	16,622	8,575
4,371	-0,407	3,227	1,616
5,386	-6,190	0,579	0,279
6,400	612,050	0,155	0,275
7,415	46,361	-0,290	-0,190
8,429	10,339	-0,246	-0,132
9,444	-31,679	-0,302	-0,119
10,459	-83,251	-0,316	-0,071
11,473	-70,327	-0,230	-0,061
12,488	30,248	-0,276	-0,166
13,502	60,887	-0,235	-0,164
14,517	50,313	-0,350	-0,233
15,531	74,190	-0,406	-0,301
16,546	30,629	-0,392	-0,236
17,561	43,259	-0,355	-0,229
18,575	487,308	-0,141	-0,228
19,590	155,917	-0,217	-0,211
20,604	-8,154	-0,240	-0,114
21,619	92,767	-0,318	-0,253
22,634	9,183	-0,504	-0,268
23,648	22,841	-0,382	-0,221
24,663	461,919	-0,260	-0,412
25,677	50,348	-0,361	-0,241
26,692	30,095	-0,200	-0,120
27,707	32,950	-0,379	-0,231
28,721	270,273	-0,246	-0,306
29,736	-20,468	-0,452	-0,195
30,750	144,709	-0,424	-0,400
31,765	281,087	-0,220	-0,279
32,780	-77,582	-0,248	-0,060
33,794	6,469	-0,402	-0,210
34,809	-1,396	-0,414	-0,206
35,823	-26,844	-0,353	-0,145
36,838	141,997	-0,362	-0,339
37,853	27,137	-0,455	-0,269
38,867	182,373	-0,364	-0,379
39,882	-48,097	-0,361	-0,122
40,896	130,869	-0,306	-0,277
41,911	77,566	-0,322	-0,241
42,926	36,212	-0,366	-0,227
43,940	-27,077	-0,350	-0,143
44,955	106,030	-0,309	-0,258
45,969	37,173	-0,406	-0,253
46,984	190,765	-0,380	-0,403
47,999	56,302	-0,126	-0,086
49,013	2,689	-0,370	-0,188
50,028	72,052	-0,388	-0,284
51,042	23,111	-0,236	-0,136
52,057	108,137	-0,359	-0,301
53,071	34,303	-0,401	-0,246
54,086	226,324	-0,230	-0,263
55,101	239,750	-0,259	-0,304
56,115	91,232	-0,228	-0,180
57,130	59,002	-0,310	-0,215
58,144	-63,746	-0,481	-0,138
59,159	120,666	-0,311	-0,272
60,174	44,602	-0,347	-0,224
61,188	155,641	-0,321	-0,311
62,203	-5,380	-0,290	-0,140
63,217	-57,098	-0,455	-0,140
64,232	-103,722	-0,365	-0,060
65,247	-56,686	-0,373	-0,115
66,261	12,394	-0,395	-0,214
67,276	90,033	-0,392	-0,308
68,290	116,171	-0,370	-0,318
69,305	-63,265	-0,401	-0,115
70,320	13,387	-0,268	-0,146
71,334	-6,154	-0,341	-0,163
72,349	-35,122	-0,381	-0,145
73,363	247,900	-0,217	-0,259
74,378	-14,140	-0,350	-0,158
75,393	-17,832	-0,345	-0,152
76,407	-29,661	-0,305	-0,122
77,422	169,138	-0,161	-0,162
78,436	338,266	-0,187	-0,257
79,451	108,183	-0,315	-0,264
80,466	-35,861	-0,389	-0,147
81,480	64,061	-0,355	-0,251
82,495	175,127	-0,255	-0,259
83,509	72,702	-0,249	-0,182
84,524	102,292	-0,290	-0,238
85,539	136,838	-0,215	-0,197
86,553	59,579	-0,288	-0,199
87,568	16,812	-0,353	-0,196
88,582	199,075	-0,240	-0,258
89,597	32,870	-0,427	-0,259
90,611	56,248	-0,260	-0,177
91,626	40,051	-0,270	-0,170
92,641	279,507	-0,198	-0,249
93,655	104,971	-0,331	-0,274
94,670	-68,203	-0,282	-0,076
95,684	108,059	-0,296	-0,248
96,699	126,392	-0,288	-0,256
97,714	144,537	-0,273	-0,256
98,728	33,071	-0,169	-0,103
99,743	90,142	-0,201	-0,158
100,757	215,427	-0,219	-0,244
101,772	74,741	-0,338	-0,249
102,787	230,191	-0,265	-0,304
103,801	224,380	-0,260	-0,295
104,816	198,147	-0,258	-0,277
105,830	800,000	-0,166	-0,336
106,845	90,763	-0,148	-0,116
107,860	215,482	-0,280	-0,312
108,874	-2,304	-0,386	-0,189
109,889	115,090	-0,252	-0,215
110,903	-79,545	-0,265	-0,062
111,918	234,355	-0,248	-0,287
112,933	198,538	-0,227	-0,244
113,947	-20,554	-0,175	-0,075
114,962	-92,218	-0,366	-0,072
115,976	208,536	-0,141	-0,155
116,991	34,580	-0,331	-0,202
118,006	100,814	-0,270	-0,220
119,020	56,686	-0,251	-0,171
120,035	71,483	-0,256	-0,186
121,049	113,834	-0,167	-0,142
122,064	130,793	-0,185	-0,166
123,079	78,022	-0,265	-0,198
124,093	16,622	-0,250	-0,138
125,108	386,398	-0,236	-0,342
126,122	-10,043	-0,251	-0,116
127,137	800,000	-0,065	-0,197
128,151	19,679	-0,211	-0,119
129,166	142,939	-0,225	-0,209
130,181	19,420	-0,264	-0,148
131,195	57,052	-0,277	-0,189
132,210	375,517	-0,176	-0,251
133,224	-15,661	-0,194	-0,086
134,239	-81,164	-0,308	-0,071
135,254	182,959	-0,168	-0,173
136,268	76,920	-0,245	-0,182
137,283	-118,464	-0,356	-0,044
138,297	-12,744	-0,171	-0,077
139,312	-9,491	-0,195	-0,091
140,327	3,773	-0,241	-0,123
141,341	-18,045	-0,287	-0,125
142,356	325,438	-0,163	-0,218
143,370	-1,085	-0,300	-0,148
144,385	67,521	-0,293	-0,209
145,400	578,922	-0,098	-0,168
146,414	80,110	-0,242	-0,181
147,429	470,440	-0,221	-0,348
148,443	50,896	-0,298	-0,197
149,458	124,352	-0,184	-0,162
150,473	355,271	-0,148	-0,206
151,487	533,881	-0,131	-0,217
152,502	-145,006	-0,170	-0,011
153,516	187,030	-0,235	-0,245
154,531	201,965	-0,193	-0,208
155,546	132,610	-0,149	-0,134
156,560	213,557	-0,211	-0,234
157,575	-38,191	-0,272	-0,100
158,589	28,741	-0,214	-0,126
159,604	95,347	-0,234	-0,186
160,619	24,626	-0,272	-0,157
161,633	61,510	-0,213	-0,148
162,648	-20,937	-0,315	-0,134
163,662	10,471	-0,260	-0,138
164,677	130,856	-0,197	-0,176
165,692	215,522	-0,214	-0,237
166,706	-26,079	-0,288	-0,118
167,721	55,733	-0,284	-0,192
168,735	-17,977	-0,226	-0,098
169,750	25,823	-0,174	-0,101
170,764	-24,874	-0,164	-0,067
171,779	9,937	-0,269	-0,142
172,794	-106,440	-0,193	-0,030
173,808	46,500	-0,251	-0,162
174,823	84,938	-0,220	-0,168
175,837	-33,547	-0,188	-0,072
176,852	73,428	-0,169	-0,123
177,867	153,480	-0,253	-0,241
178,881	427,930	-0,167	-0,252
179,896	-69,798	-0,251	-0,066
180,910	-4,804	-0,318	-0,152
181,925	-19,105	-0,279	-0,120
182,940	183,233	-0,235	-0,242
183,954	300,386	-0,154	-0,198
184,969	800,000	-0,079	-0,215
185,983	252,877	-0,106	-0,126
186,998	365,799	-0,094	-0,133
188,013	106,588	-0,162	-0,134
189,027	64,079	-0,274	-0,191
190,042	99,683	-0,145	-0,117
191,056	209,949	-0,212	-0,232
192,071	-17,061	-0,322	-0,141
193,086	-14,292	-0,231	-0,103
194,100	106,009	-0,135	-0,111
195,115	94,155	-0,212	-0,167
196,129	-3,831	-0,426	-0,205
197,144	119,865	-0,225	-0,194
198,159	-0,340	-0,134	-0,066
199,173	800,000	-0,071	-0,141
200,188	-60,714	-0,235	-0,069
201,202	192,128	-0,234	-0,246
202,217	119,434	-0,225	-0,193
203,232	800,000	-0,128	-0,307
204,246	124,581	-0,286	-0,250
205,261	311,605	-0,273	-0,357
206,275	126,349	-0,191	-0,168
207,290	-121,081	-0,224	0,026
208,304	-56,976	-0,249	-0,076
209,319	278,540	-0,111	-0,138
210,334	73,085	-0,135	-0,098
211,348	-7,802	-0,227	-0,106
212,363	-29,294	-0,250	-0,099
213,377	228,448	-0,181	-0,205
214,392	-114,892	-0,166	0,022
215,407	-126,514	-0,248	-0,025
216,421	104,377	-0,180	-0,147
217,436	43,102	-0,264	-0,167
218,450	15,601	-0,249	-0,136
219,465	-22,319	-0,233	-0,098
220,480	-129,197	-0,126	0,012
221,494	90,946	-0,134	-0,105
222,509	100,428	-0,208	-0,168
223,523	-33,431	-0,129	0,049
224,538	96,531	-0,136	-0,108
225,553	800,000	-0,104	-0,221
226,567	96,268	-0,264	-0,209
227,582	598,619	-0,152	-0,263
228,596	160,865	-0,213	-0,207
229,611	19,529	-0,180	-0,100
230,626	261,121	-0,098	-0,118
231,640	34,654	-0,255	-0,154
232,655	95,374	-0,227	-0,180
233,669	91,229	-0,241	-0,187
234,684	800,000	-0,039	-0,106
235,699	800,000	-0,079	-0,185
236,713	361,405	-0,120	-0,167
237,728	152,650	-0,196	-0,186
238,742	246,872	-0,143	-0,167
239,757	-12,843	-0,193	-0,087
240,772	84,034	-0,204	-0,154
241,786	135,968	-0,146	-0,132
242,801	161,484	-0,185	-0,180
243,815	-166,183	-0,106	0,003
244,830	-56,888	-0,157	-0,048
245,844	-83,918	-0,213	-0,047
246,859	-123,448	-0,278	-0,030
247,874	534,572	-0,140	-0,231
248,888	16,740	-0,177	-0,097
249,903	54,991	-0,156	0,104
250,917	800,000	-0,013	-0,037
251,932	192,038	-0,096	-0,100
252,947	-91,834	-0,187	0,036
253,961	-188,376	-0,239	-0,002
254,976	258,552	-0,194	-0,232
255,990	133,588	-0,170	-0,152
257,005	-75,484	-0,217	-0,053
258,020	31,635	-0,254	-0,151
259,034	47,379	-0,147	-0,095
260,049	-11,292	-0,071	-0,032
261,063	239,838	-0,124	-0,143
262,078	800,000	-0,109	-0,257
263,093	46,141	-0,236	-0,151
264,107	12,607	-0,167	-0,089
265,122	727,940	-0,026	-0,048
266,136	-62,684	-0,139	-0,040
267,151	-74,677	-0,192	-0,047
268,166	263,629	-0,187	-0,225
269,180	-149,680	-0,208	-0,011
270,195	267,178	-0,201	-0,243
271,209	51,191	-0,207	-0,136
272,224	492,180	-0,072	-0,114
273,239	800,000	-0,077	-0,188
274,253	63,792	-0,190	-0,132
275,268	463,084	-0,144	-0,222
276,282	36,478	-0,249	-0,151
277,297	49,585	-0,265	-0,172
278,312	82,024	-0,202	-0,151
279,326	391,324	-0,074	-0,106
280,341	381,184	-0,058	-0,083
281,355	126,620	-0,102	-0,089
282,370	224,889	-0,118	-0,132
283,384	83,314	-0,185	-0,139
284,399	36,385	-0,190	-0,116
285,414	172,355	-0,123	-0,122
286,428	9,966	-0,147	-0,077
287,443	255,737	-0,145	-0,172
288,457	339,733	-0,162	-0,219
289,472	114,907	-0,144	-0,121
290,487	101,700	-0,113	-0,091
291,501	-67,915	-0,189	-0,050
292,516	-149,506	-0,192	-0,010
293,530	412,006	-0,102	-0,149
294,545	-200,000	-0,027	-0,114
295,560	69,004	-0,179	-0,126
296,574	-160,230	-0,181	0,007
297,589	-119,278	-0,321	-0,038
298,603	-28,291	-0,238	-0,094
299,618	136,263	-0,058	-0,052
300,633	-200,000	-0,026	-0,089
301,647	-117,063	-0,061	0,008
302,662	-67,555	-0,214	-0,058
303,676	304,003	-0,130	-0,166
304,691	24,061	-0,177	-0,100
305,706	-72,348	-0,096	-0,024
306,720	89,786	-0,164	-0,126
307,735	190,253	-0,119	-0,123
308,749	141,527	-0,159	-0,145
309,764	-101,858	-0,129	-0,021
310,779	736,216	-0,060	-0,111
311,793	287,007	-0,192	-0,239
312,808	263,080	-0,138	-0,165
313,822	286,850	-0,156	-0,195
314,837	-200,000	-0,011	-0,189
315,852	94,145	-0,054	-0,042
316,866	-77,683	-0,107	0,025
317,881	-165,032	-0,138	-0,004
318,895	-120,424	-0,144	0,017
319,910	90,988	-0,224	-0,172
320,925	45,440	-0,202	-0,128
321,939	-200,000	-0,015	-0,109
322,954	-48,858	-0,149	0,049
323,968	70,644	-0,206	-0,146
324,983	-39,102	-0,141	-0,051
325,997	100,065	-0,122	-0,097
327,012	484,006	-0,089	-0,140
328,027	420,883	-0,069	-0,102
329,041	260,416	-0,103	-0,122
330,056	302,726	-0,039	-0,050
331,070	79,636	-0,143	-0,106
332,085	78,220	0,080	-0,058
333,100	87,944	-0,149	-0,114
334,114	-78,026	-0,040	-0,009
335,129	758,466	-0,104	-0,194
336,143	102,383	-0,135	-0,108
337,158	-64,485	-0,101	-0,028
338,173	-84,529	-0,085	0,018
339,187	-105,459	-0,079	-0,012
340,202	-9,401	-0,187	-0,085
341,216	211,662	-0,198	-0,215
342,231	225,439	-0,054	-0,061
343,246	594,804	-0,122	-0,208
344,260	-200,000	-0,019	-0,075
345,275	-143,707	-0,164	0,011
346,289	50,747	-0,032	-0,021
347,304	-76,533	-0,031	-0,008
348,319	-87,580	-0,217	-0,045
349,333	500,598	-0,159	-0,253
350,348	323,354	-0,075	-0,098
351,362	-11,666	-0,091	-0,041
352,377	16,145	-0,130	-0,070
353,392	-200,000	-0,033	-0,196
354,406	-200,000	-0,018	-0,097
355,421	209,879	1314,265	1415,902
356,435	161,555	1474,919	1416,399
