DTS Sentinel unit serial number:	SN410029Multiplexer serial number:	ORYXHardware model number:	OX2-SRSoftware version number:	ORYX F/W v4,00 Oryx Data Collector v3.7.2.0data status	okinstallation	B3 Nyhavnadifferential loss correction	single-endedforward channel	channel 1reverse channel	N/Adate	2023/12/03time	22:57:30forward acquisition time	300,00reverse acquisition time	0,00gamma	499,1914k internal	0,3201k external	0,3201temperature offset calibration	1,0000default loss term (dB/km)	0,3820temperature slope calibration	1,0000multiplexer offset coefficient	1,0000multiplexer slope coefficient	1,0000fibre end	0,00T internal ref (°C)	13,06T ext. ref 1 (°C)	-2,25T ext. ref 2 (°C)	-2,27length (m)	temperature (°C)	Stokes	anti-Stokes-744,400	472,580	-0,197	-0,324
-743,385	-200,000	-0,015	0,281
-742,371	-42,950	-0,314	-0,115
-741,356	-200,000	0,052	0,269
-740,342	800,000	-0,050	-0,102
-739,327	273,857	0,115	0,149
-738,312	253,517	-0,130	-0,162
-737,298	800,000	0,081	0,190
-736,283	30,831	-0,280	-0,174
-735,269	800,000	-0,090	0,262
-734,254	800,000	-0,167	-0,384
-733,239	101,779	-0,070	0,059
-732,225	7,862	-0,079	-0,043
-731,210	-200,000	0,066	0,217
-730,196	-200,000	0,030	-0,112
-729,181	-200,000	0,011	0,142
-728,167	30,221	-0,056	-0,035
-727,152	-18,065	0,046	0,021
-726,137	115,720	0,106	0,095
-725,123	-49,119	-0,141	0,049
-724,108	800,000	0,039	-0,093
-723,094	99,810	0,039	-0,033
-722,079	59,027	-0,085	-0,061
-721,064	622,754	-0,033	-0,060
-720,050	255,649	-0,027	-0,034
-719,035	225,595	-0,014	0,017
-718,021	178,193	-0,115	-0,123
-717,006	-13,145	-0,068	0,032
-715,991	800,000	-0,048	-0,118
-714,977	-200,000	-0,008	-0,070
-713,962	-200,000	-0,012	0,061
-712,948	800,000	-0,040	-0,112
-711,933	800,000	0,024	0,053
-710,918	-200,000	-0,035	-0,262
-709,904	-200,000	0,011	-0,044
-708,889	17,279	0,059	-0,034
-707,875	254,566	-0,085	0,106
-706,860	106,355	0,088	0,076
-705,845	800,000	-0,030	-0,070
-704,831	13,768	0,057	-0,032
-703,816	115,796	-0,030	0,027
-702,802	14,495	-0,040	0,023
-701,787	-200,000	-0,018	-0,179
-700,772	800,000	0,066	-0,146
-699,758	286,321	0,040	0,053
-698,743	800,000	0,030	0,071
-697,729	-142,391	-0,039	0,003
-696,714	-12,391	-0,032	0,015
-695,699	382,746	-0,097	-0,146
-694,685	32,062	-0,080	-0,050
-693,670	-104,932	-0,090	0,015
-692,656	-10,635	-0,121	0,058
-691,641	-136,578	0,033	0,003
-690,627	-200,000	-0,004	-0,013
-689,612	800,000	0,021	-0,058
-688,597	-200,000	-0,008	-0,075
-687,583	-200,000	0,005	-0,070
-686,568	-200,000	0,021	-0,150
-685,554	800,000	-0,035	-0,077
-684,539	648,256	-0,052	-0,098
-683,524	162,633	0,123	0,125
-682,510	335,829	0,044	-0,062
-681,495	-32,370	-0,115	0,046
-680,481	-200,000	-0,020	-0,120
-679,466	309,380	0,061	-0,083
-678,451	800,000	-0,045	-0,093
-677,437	-138,455	0,075	-0,006
-676,422	-87,399	0,029	-0,006
-675,408	-200,000	-0,036	0,139
-674,393	59,111	-0,114	0,081
-673,378	-8,077	-0,152	-0,074
-672,364	-200,000	-0,036	-0,132
-671,349	344,892	-0,071	0,102
-670,335	800,000	0,031	0,088
-669,320	258,819	0,010	0,012
-668,305	-17,773	0,093	0,042
-667,291	-46,845	-0,008	-0,003
-666,276	19,539	-0,039	-0,023
-665,262	-87,499	-0,128	-0,028
-664,247	-80,227	-0,133	0,032
-663,232	-31,762	-0,054	-0,022
-662,218	277,019	0,086	-0,111
-661,203	-200,000	0,010	0,132
-660,189	-200,000	-0,027	-0,187
-659,174	672,512	0,053	-0,099
-658,159	12,936	-0,118	-0,066
-657,145	786,861	-0,039	-0,079
-656,130	-50,744	-0,075	-0,025
-655,116	-26,761	0,067	0,028
-654,101	-200,000	0,017	0,078
-653,086	800,000	-0,016	-0,035
-652,072	800,000	0,025	0,067
-651,057	93,461	-0,134	-0,110
-650,043	800,000	0,064	-0,130
-649,028	134,022	-0,062	0,058
-648,014	-24,880	-0,079	0,034
-646,999	176,395	-0,078	-0,082
-645,984	23,420	0,079	-0,047
-644,970	800,000	0,055	0,132
-643,955	-131,877	-0,202	-0,019
-642,941	107,163	-0,037	0,032
-641,926	-200,000	0,023	0,082
-640,911	243,002	-0,043	-0,053
-639,897	-112,974	0,141	0,020
-638,882	27,036	0,069	-0,042
-637,868	-115,428	0,140	0,019
-636,853	-48,190	-0,086	-0,030
-635,838	-200,000	-0,003	-0,043
-634,824	-200,000	-0,027	-0,089
-633,809	-193,416	-0,024	0,000
-632,795	-200,000	-0,006	0,032
-631,780	46,924	0,120	0,081
-630,765	-200,000	-0,032	-0,106
-629,751	86,496	-0,067	0,053
-628,736	-94,213	0,071	0,014
-627,722	337,262	0,078	0,110
-626,707	-98,083	-0,097	-0,018
-625,692	-7,392	0,124	0,060
-624,678	800,000	0,023	0,073
-623,663	178,182	-0,055	0,059
-622,649	-33,352	-0,070	0,028
-621,634	257,669	0,082	-0,103
-620,619	-118,262	-0,030	0,004
-619,605	-200,000	0,000	0,028
-618,590	-19,746	-0,025	-0,011
-617,576	136,423	0,108	-0,102
-616,561	800,000	-0,082	-0,180
-615,546	800,000	-0,029	-0,074
-614,532	107,006	-0,174	-0,149
-613,517	-74,878	0,037	0,009
-612,503	68,388	0,029	-0,021
-611,488	326,989	0,038	0,052
-610,474	-45,494	-0,031	-0,011
-609,459	-142,394	0,207	-0,015
-608,444	36,173	0,028	-0,018
-607,430	800,000	-0,056	-0,173
-606,415	-107,086	-0,076	-0,012
-605,401	277,315	-0,078	0,100
-604,386	800,000	0,043	0,127
-603,371	164,290	0,066	0,067
-602,357	-37,680	-0,034	-0,013
-601,342	-41,312	-0,034	-0,012
-600,328	-72,554	-0,035	0,009
-599,313	-74,908	-0,109	-0,028
-598,298	-200,000	0,041	-0,168
-597,284	800,000	0,037	0,103
-596,269	800,000	0,048	0,124
-595,255	-104,019	0,115	0,019
-594,240	169,268	0,034	0,035
-593,225	76,245	0,044	0,034
-592,211	-34,950	-0,071	-0,028
-591,196	800,000	-0,037	0,083
-590,182	-200,000	-0,011	0,226
-589,167	-200,000	0,005	-0,101
-588,152	437,240	-0,044	-0,070
-587,138	800,000	0,057	-0,145
-586,123	800,000	0,010	-0,025
-585,109	246,293	-0,046	-0,056
-584,094	-35,899	0,106	-0,041
-583,079	-152,338	-0,041	0,002
-582,065	800,000	-0,051	-0,136
-581,050	-78,887	-0,125	0,030
-580,036	321,347	-0,013	0,017
-579,021	-109,276	-0,104	-0,016
-578,006	288,323	-0,043	-0,057
-576,992	133,991	0,028	-0,026
-575,977	-200,000	0,005	0,101
-574,963	197,550	-0,035	0,038
-573,948	252,819	-0,015	0,019
-572,934	-28,425	-0,137	0,057
-571,919	100,254	0,070	-0,059
-570,904	-200,000	0,002	0,075
-569,890	-5,482	0,091	-0,045
-568,875	-200,000	-0,027	0,125
-567,861	102,923	-0,029	-0,024
-566,846	-18,034	-0,067	0,030
-565,831	800,000	-0,031	-0,076
-564,817	315,780	0,040	-0,055
-563,802	-28,577	-0,122	-0,050
-562,788	800,000	-0,016	-0,044
-561,773	107,118	-0,050	-0,043
-560,758	119,115	0,071	-0,063
-559,744	198,011	0,033	0,037
-558,729	-200,000	-0,005	0,061
-557,715	198,856	-0,035	0,039
-556,700	-38,346	-0,054	-0,021
-555,685	-17,733	-0,110	0,050
-554,671	293,887	-0,035	0,047
-553,656	90,112	0,024	-0,019
-552,642	-200,000	0,006	-0,035
-551,627	-139,451	0,133	-0,010
-550,612	-200,000	-0,032	-0,130
-549,598	218,959	0,102	-0,118
-548,583	-96,079	-0,095	-0,018
-547,569	187,160	-0,088	-0,094
-546,554	35,610	-0,072	0,045
-545,539	-85,493	0,138	0,031
-544,525	-57,315	-0,080	-0,025
-543,510	-200,000	0,039	0,209
-542,496	116,874	-0,030	-0,026
-541,481	800,000	0,058	-0,162
-540,466	15,371	0,063	0,036
-539,452	46,678	0,118	-0,079
-538,437	170,803	-0,054	0,056
-537,423	460,004	-0,026	0,042
-536,408	-0,791	0,104	-0,053
-535,393	-103,913	-0,164	-0,027
-534,379	-109,852	-0,144	-0,022
-533,364	-62,043	-0,017	0,005
-532,350	110,805	-0,116	0,101
-531,335	277,423	0,022	0,029
-530,321	-200,000	-0,007	-0,028
-529,306	10,570	0,042	0,023
-528,291	800,000	-0,025	0,068
-527,277	402,260	-0,055	-0,084
-526,262	-133,519	0,063	-0,006
-525,248	48,087	-0,102	-0,069
-524,233	444,758	0,051	0,081
-523,218	52,172	-0,120	-0,082
-522,204	315,847	-0,012	-0,016
-521,189	-111,708	-0,116	-0,017
-520,175	-200,000	-0,013	-0,202
-519,160	-42,670	-0,022	0,008
-518,145	-66,655	-0,080	0,023
-517,131	758,503	0,047	-0,092
-516,116	-200,000	0,016	-0,072
-515,102	193,675	-0,056	0,061
-514,087	800,000	-0,017	-0,045
-513,072	-75,292	-0,036	-0,009
-512,058	-200,000	-0,006	-0,028
-511,043	-200,000	0,050	0,000
-510,029	-113,857	-0,091	0,013
-509,014	521,291	0,082	0,139
-507,999	-200,000	0,018	-0,093
-506,985	291,387	0,064	-0,084
-505,970	331,268	-0,091	-0,127
-504,956	599,430	-0,050	-0,090
-503,941	242,971	-0,025	-0,030
-502,926	800,000	0,038	0,119
-501,912	-93,305	0,058	-0,011
-500,897	167,332	-0,080	0,082
-499,883	-200,000	-0,017	-0,186
-498,868	-200,000	0,014	-0,112
-497,853	751,149	-0,024	0,047
-496,839	-63,895	-0,095	0,028
-495,824	136,558	-0,012	0,011
-494,810	742,814	0,051	-0,099
-493,795	-131,658	-0,053	-0,005
-492,781	-200,000	0,005	0,020
-491,766	800,000	0,059	-0,137
-490,751	216,021	-0,163	-0,187
-489,737	800,000	-0,031	0,068
-488,722	98,045	-0,026	0,022
-487,708	-133,692	0,097	0,009
-486,693	800,000	-0,033	0,077
-485,678	85,541	0,042	0,033
-484,664	160,706	0,094	-0,095
-483,649	10,528	0,080	0,044
-482,635	14,358	-0,105	-0,059
-481,620	476,512	0,065	-0,105
-480,605	-200,000	-0,016	0,164
-479,591	-155,845	0,109	0,005
-478,576	-200,000	-0,000	0,047
-477,562	-200,000	0,002	-0,017
-476,547	640,309	-0,026	-0,048
-475,532	-59,579	-0,092	0,028
-474,518	407,926	-0,052	0,079
-473,503	31,811	0,149	-0,092
-472,489	800,000	0,039	0,079
-471,474	452,367	-0,066	0,105
-470,459	264,661	-0,054	0,068
-469,445	644,921	-0,085	-0,158
-468,430	-113,935	0,153	-0,021
-467,416	-200,000	0,026	-0,118
-466,401	-200,000	0,001	-0,162
-465,386	199,933	0,041	0,046
-464,372	460,214	0,055	-0,089
-463,357	400,766	-0,040	-0,061
-462,343	244,224	0,066	-0,080
-461,328	800,000	0,035	0,102
-460,313	-200,000	0,003	-0,112
-459,299	278,049	0,025	-0,032
-458,284	120,683	-0,049	0,044
-457,270	467,135	-0,079	-0,128
-456,255	-113,337	-0,100	-0,014
-455,241	-30,168	-0,044	0,018
-454,226	-200,000	0,011	0,114
-453,211	-200,000	-0,003	-0,028
-452,197	59,989	-0,111	0,079
-451,182	-23,726	0,079	0,034
-450,168	-7,838	0,112	-0,054
-449,153	-63,520	-0,013	0,004
-448,138	470,451	-0,031	0,051
-447,124	241,836	-0,009	-0,011
-446,109	-11,238	0,065	-0,031
-445,095	-156,022	0,090	0,004
-444,080	-200,000	0,023	0,086
-443,065	-200,000	-0,001	0,128
-442,051	-106,104	-0,101	0,016
-441,036	-50,773	-0,038	-0,013
-440,022	-75,711	0,033	0,008
-439,007	86,604	-0,027	0,022
-437,992	256,510	-0,088	0,108
-436,978	757,580	-0,082	0,161
-435,963	182,785	0,104	-0,110
-434,949	-200,000	-0,010	-0,065
-433,934	-200,000	-0,045	-0,164
-432,919	126,412	-0,123	-0,112
-431,905	103,011	-0,091	0,077
-430,890	-38,190	-0,049	-0,019
-429,876	530,728	0,050	0,086
-428,861	-48,135	0,021	-0,007
-427,846	800,000	0,032	-0,090
-426,832	350,058	-0,137	-0,194
-425,817	-200,000	0,023	-0,105
-424,803	100,673	0,052	-0,044
-423,788	-3,597	0,078	0,039
-422,773	-200,000	-0,011	0,064
-421,759	-21,488	0,034	0,015
-420,744	33,223	0,106	0,066
-419,730	-159,669	-0,085	-0,003
-418,715	11,890	0,088	0,048
-417,701	378,065	0,051	-0,075
-416,686	278,464	0,048	-0,062
-415,671	-123,068	0,154	0,018
-414,657	-44,410	0,131	-0,047
-413,642	-200,000	-0,038	-0,213
-412,628	-200,000	0,017	-0,055
-411,613	11,402	0,079	-0,043
-410,598	-87,628	-0,226	0,049
-409,584	-1,198	-0,150	-0,076
-408,569	48,793	0,193	0,130
-407,555	800,000	-0,080	0,162
-406,540	-66,543	0,058	0,016
-405,525	-200,000	0,004	-0,056
-404,511	281,257	-0,079	-0,102
-403,496	66,816	0,077	0,056
-402,482	800,000	-0,014	0,038
-401,467	-200,000	0,063	0,213
-400,452	-200,000	0,000	0,067
-399,438	-85,987	-0,130	0,029
-398,423	523,779	-0,056	-0,095
-397,409	800,000	-0,053	-0,160
-396,394	-125,170	-0,123	-0,013
-395,379	630,782	0,042	0,076
-394,365	-95,480	0,098	-0,019
-393,350	-73,939	0,099	0,026
-392,336	-135,111	-0,129	-0,011
-391,321	-200,000	-0,043	-0,163
-390,306	800,000	-0,037	-0,103
-389,292	306,771	0,048	0,065
-388,277	-200,000	0,002	-0,066
-387,263	-127,258	0,133	0,014
-386,248	133,790	0,021	0,019
-385,233	800,000	0,017	0,046
-384,219	615,103	-0,042	0,076
-383,204	68,328	0,111	0,082
-382,190	-100,605	0,025	0,004
-381,175	-200,000	-0,032	-0,105
-380,160	375,711	0,044	-0,064
-379,146	800,000	-0,050	0,099
-378,131	-200,000	0,014	0,083
-377,117	160,910	-0,029	-0,029
-376,102	800,000	-0,039	0,120
-375,088	82,449	-0,093	0,072
-374,073	702,179	0,029	-0,055
-373,058	800,000	0,048	0,098
-372,044	267,856	-0,017	-0,022
-371,029	-120,872	-0,103	-0,012
-370,015	800,000	0,029	-0,064
-369,000	53,250	0,065	0,044
-367,985	-138,568	-0,078	-0,006
-366,971	145,739	0,065	0,063
-365,956	-200,000	-0,014	0,117
-364,942	-200,000	0,014	0,046
-363,927	97,849	0,074	0,061
-362,912	-174,248	-0,153	-0,003
-361,898	531,753	-0,048	0,082
-360,883	-107,041	0,048	-0,008
-359,869	-120,887	-0,111	-0,013
-358,854	84,116	0,106	0,083
-357,839	800,000	0,067	0,134
-356,825	244,746	-0,046	0,056
-355,810	-173,761	0,090	0,002
-354,796	153,125	0,103	0,101
-353,781	-111,282	-0,102	0,015
-352,766	-200,000	0,016	-0,072
-351,752	-200,000	-0,029	0,129
-350,737	-168,162	-0,132	0,004
-349,723	-200,000	0,000	0,113
-348,708	115,579	-0,054	0,047
-347,693	291,045	0,029	-0,037
-346,679	-200,000	0,002	-0,078
-345,664	-2,056	-0,134	-0,067
-344,650	-200,000	0,004	0,015
-343,635	-128,889	0,057	-0,006
-342,620	-141,006	0,084	0,006
-341,606	-200,000	0,063	0,270
-340,591	-119,281	0,166	0,020
-339,577	-8,177	-0,105	0,050
-338,562	48,857	-0,018	-0,012
-337,548	764,319	0,068	-0,133
-336,533	328,151	-0,074	-0,102
-335,518	-164,744	0,124	0,004
-334,504	65,669	-0,085	0,061
-333,489	-60,578	-0,087	0,026
-332,475	221,932	0,048	-0,055
-331,460	-163,571	-0,070	-0,002
-330,445	-200,000	0,002	-0,047
-329,431	185,612	0,048	-0,051
-328,416	-200,000	-0,013	-0,060
-327,402	299,510	-0,034	0,046
-326,387	-57,565	0,074	-0,023
-325,372	-200,000	0,010	-0,155
-324,358	38,903	0,083	-0,053
-323,343	97,861	0,051	-0,042
-322,329	151,057	0,061	-0,059
-321,314	-200,000	-0,010	0,140
-320,299	-118,450	0,080	-0,010
-319,285	81,481	-0,061	0,047
-318,270	-200,000	0,011	0,107
-317,256	78,156	-0,023	-0,018
-316,241	-6,414	-0,103	0,050
-315,226	64,361	0,105	-0,075
-314,212	-200,000	0,003	-0,031
-313,197	55,238	0,139	-0,096
-312,183	247,322	0,018	0,022
-311,168	177,127	-0,069	-0,072
-310,153	775,739	-0,086	-0,168
-309,139	-200,000	0,053	-0,225
-308,124	-200,000	-0,015	-0,057
-307,110	800,000	0,036	0,084
-306,095	163,913	-0,102	0,103
-305,080	461,666	0,059	0,095
-304,066	-200,000	-0,000	-0,130
-303,051	-136,681	-0,079	-0,006
-302,037	191,239	-0,086	-0,093
-301,022	-141,562	0,104	0,007
-300,008	-200,000	0,024	0,088
-298,993	156,863	0,099	0,098
-297,978	255,100	0,055	0,068
-296,964	139,960	-0,053	-0,050
-295,949	207,367	0,059	-0,065
-294,935	-200,000	-0,010	0,053
-293,920	673,648	-0,053	0,098
-292,905	-200,000	-0,004	-0,027
-291,891	-170,933	0,121	-0,003
-290,876	800,000	0,045	0,134
-289,862	-115,440	-0,104	-0,014
-288,847	800,000	0,015	-0,031
-287,832	261,305	0,075	-0,093
-286,818	800,000	-0,021	-0,045
-285,803	-200,000	-0,016	0,100
-284,789	-200,000	0,002	0,059
-283,774	-200,000	0,001	-0,037
-282,759	-29,564	-0,080	0,032
-281,745	-166,852	0,072	0,002
-280,730	285,788	-0,034	-0,043
-279,716	472,744	0,017	0,028
-278,701	206,631	0,056	-0,062
-277,686	51,912	-0,175	0,118
-276,672	92,844	-0,062	0,050
-275,657	-200,000	-0,019	0,109
-274,643	378,642	0,108	-0,159
-273,628	-200,000	-0,021	0,088
-272,613	800,000	-0,023	-0,065
-271,599	97,827	-0,053	-0,044
-270,584	264,942	0,122	0,153
-269,570	-25,652	0,054	0,023
-268,555	-136,884	0,062	-0,005
-267,540	457,630	0,107	0,171
-266,526	207,794	0,064	-0,071
-265,511	-200,000	-0,008	-0,095
-264,497	-27,244	0,071	0,029
-263,482	-20,646	0,066	-0,029
-262,467	212,513	0,088	0,099
-261,453	800,000	-0,011	0,030
-260,438	800,000	-0,035	0,110
-259,424	-33,707	-0,056	-0,022
-258,409	134,049	0,131	-0,121
-257,395	-59,073	0,180	0,055
-256,380	-38,646	-0,138	-0,052
-255,365	800,000	0,050	0,113
-254,351	-200,000	-0,017	0,058
-253,336	800,000	0,042	-0,087
-252,322	317,210	-0,010	-0,014
-251,307	-8,250	-0,072	0,035
-250,292	-200,000	0,010	0,167
-249,278	22,656	0,059	0,034
-248,263	5,391	0,101	-0,053
-247,249	-51,296	-0,118	-0,039
-246,234	308,368	0,077	0,103
-245,219	338,306	-0,058	0,081
-244,205	-125,655	-0,071	-0,008
-243,190	-125,571	-0,062	-0,007
-242,176	-36,292	0,109	0,042
-241,161	51,060	-0,089	-0,060
-240,146	545,405	-0,079	-0,134
-239,132	52,269	0,035	0,024
-238,117	162,912	0,031	-0,031
-237,103	283,225	0,111	-0,143
-236,088	215,105	0,141	-0,159
-235,073	-89,478	0,082	-0,017
-234,059	-200,000	0,017	0,070
-233,044	-148,607	-0,155	-0,009
-232,030	161,239	0,099	-0,099
-231,015	293,869	-0,060	-0,078
-230,000	-200,000	0,013	-0,066
-228,986	116,210	0,042	0,037
-227,971	800,000	-0,044	0,093
-226,957	368,317	0,059	-0,086
-225,942	197,720	-0,052	0,057
-224,927	408,098	0,050	0,075
-223,913	800,000	0,014	0,032
-222,898	-152,875	0,128	-0,006
-221,884	170,846	-0,043	-0,044
-220,869	-131,872	0,024	-0,002
-219,855	-21,331	0,059	0,026
-218,840	-90,353	0,100	0,021
-217,825	800,000	-0,030	0,079
-216,811	226,743	-0,009	-0,010
-215,796	217,767	-0,018	0,020
-214,782	157,213	0,030	-0,030
-213,767	-52,022	-0,100	-0,033
-212,752	55,557	0,155	0,107
-211,738	-76,847	-0,074	0,018
-210,723	-200,000	0,014	0,074
-209,709	-157,045	0,095	0,004
-208,694	156,488	-0,056	-0,055
-207,679	601,743	0,081	-0,143
-206,665	-1,141	0,049	0,025
-205,650	-200,000	-0,001	0,044
-204,636	-200,000	-0,044	0,154
-203,621	-104,152	-0,123	0,020
-202,606	-200,000	0,009	-0,060
-201,592	-131,425	0,061	-0,006
-200,577	-200,000	-0,048	-0,162
-199,563	-143,397	0,082	-0,005
-198,548	39,495	0,058	-0,037
-197,533	216,648	-0,052	0,059
-196,519	-111,006	0,047	0,007
-195,504	-163,171	-0,011	0,000
-194,490	280,487	-0,081	0,103
-193,475	348,059	-0,029	0,041
-192,460	800,000	-0,036	0,099
-191,446	31,405	0,190	0,116
-190,431	-200,000	0,017	0,088
-189,417	-200,000	-0,017	0,101
-188,402	-109,823	0,139	-0,021
-187,387	-200,000	0,025	-0,149
-186,373	-115,602	-0,086	-0,011
-185,358	186,277	-0,120	0,127
-184,344	-200,000	0,034	0,164
-183,329	800,000	-0,059	0,135
-182,315	800,000	0,059	0,128
-181,300	85,926	-0,061	-0,048
-180,285	800,000	0,023	0,061
-179,271	39,928	0,028	-0,018
-178,256	800,000	-0,070	-0,154
-177,242	-200,000	0,006	0,082
-176,227	-13,309	-0,091	0,042
-175,212	519,709	-0,047	-0,078
-174,198	210,425	-0,039	0,044
-173,183	-133,674	-0,024	0,002
-172,169	30,361	0,110	0,067
-171,154	8,727	-0,113	0,060
-170,139	690,047	0,036	0,067
-169,125	-42,618	0,118	0,043
-168,110	-166,423	-0,056	0,002
-167,096	334,633	0,026	0,035
-166,081	23,890	-0,008	-0,005
-165,066	-200,000	0,020	-0,082
-164,052	212,719	-0,026	0,029
-163,037	-200,000	-0,011	-0,070
-162,023	800,000	0,034	0,080
-161,008	480,273	0,016	0,026
-159,993	-16,193	0,121	-0,054
-158,979	-124,911	-0,151	0,016
-157,964	278,551	-0,080	-0,101
-156,950	-137,547	-0,135	-0,011
-155,935	111,180	0,051	0,043
-154,920	81,768	-0,010	0,007
-153,906	22,266	0,138	0,080
-152,891	138,938	-0,073	-0,068
-151,877	-27,408	-0,112	0,046
-150,862	286,158	-0,067	-0,086
-149,847	2,329	-0,116	-0,059
-148,833	-200,000	0,018	0,077
-147,818	307,081	0,076	0,101
-146,804	-80,135	0,076	0,018
-145,789	469,251	0,071	0,114
-144,775	-200,000	-0,001	-0,029
-143,760	618,851	-0,072	-0,129
-142,745	-83,681	-0,105	0,024
-141,731	-114,987	0,064	0,009
-140,716	-33,656	0,076	-0,030
-139,702	-66,492	-0,116	0,033
-138,687	-182,247	0,061	0,001
-137,672	-90,011	0,199	-0,041
-136,658	170,521	-0,041	-0,042
-135,643	-34,168	0,059	-0,023
-134,629	365,987	0,081	-0,117
-133,614	39,606	0,152	0,097
-132,599	16,000	-0,090	0,050
-131,585	-44,918	0,083	0,029
-130,570	-147,649	-0,056	-0,003
-129,556	418,900	-0,063	-0,097
-128,541	-82,125	-0,050	0,011
-127,526	-41,398	0,142	-0,052
-126,512	557,850	0,049	0,084
-125,497	116,960	0,128	0,111
-124,483	-95,971	-0,076	-0,014
-123,468	730,860	0,056	0,106
-122,453	800,000	0,011	0,022
-121,439	-140,855	-0,073	-0,005
-120,424	-200,000	0,009	-0,054
-119,410	-200,000	0,000	0,008
-118,395	-200,000	-0,013	0,119
-117,380	-38,705	0,146	0,055
-116,366	609,475	-0,042	0,075
-115,351	800,000	-0,026	-0,052
-114,337	97,315	-0,023	0,019
-113,322	79,628	-0,058	-0,044
-112,307	-187,645	0,126	-0,001
-111,293	162,759	-0,035	0,035
-110,278	-120,335	-0,163	0,019
-109,264	65,858	-0,148	0,106
-108,249	-30,622	0,158	-0,063
-107,234	-200,000	0,018	-0,102
-106,220	-200,000	-0,036	-0,140
-105,205	-118,276	0,004	-0,001
-104,191	-200,000	0,004	0,062
-103,176	258,539	0,052	-0,064
-102,162	-85,734	-0,102	0,022
-101,147	-117,812	-0,095	-0,012
-100,132	106,360	-0,053	0,045
-99,118	133,400	-0,070	-0,064
-98,103	88,098	0,103	-0,081
-97,089	-62,892	0,137	0,040
-96,074	97,660	-0,122	-0,099
-95,059	-200,000	0,015	0,050
-94,045	-122,794	-0,058	-0,007
-93,030	-200,000	0,012	-0,099
-92,016	-45,493	0,045	0,016
-91,001	30,988	0,057	0,034
-89,986	-200,000	-0,029	-0,123
-88,972	742,042	0,031	-0,059
-87,957	-88,759	-0,028	-0,006
-86,943	95,474	-0,108	-0,087
-85,928	-200,000	0,000	0,142
-84,913	-53,571	-0,093	-0,030
-83,899	-200,000	-0,028	0,101
-82,884	-200,000	0,018	0,140
-81,870	-134,204	0,041	-0,004
-80,855	117,857	0,066	0,057
-79,840	620,620	0,070	-0,125
-78,826	800,000	-0,020	0,039
-77,811	283,414	0,035	0,044
-76,797	35,059	-0,052	0,032
-75,782	800,000	0,057	0,123
-74,767	253,258	0,047	0,057
-73,753	800,000	-0,018	0,052
-72,738	-19,235	-0,062	0,027
-71,724	16,346	-0,165	-0,092
-70,709	126,851	0,045	0,040
-69,694	177,417	-0,018	0,019
-68,680	-200,000	0,028	0,147
-67,665	-200,000	-0,014	0,059
-66,651	800,000	0,036	0,082
-65,636	-200,000	-0,009	0,062
-64,622	417,288	-0,081	-0,122
-63,607	800,000	0,023	-0,050
-62,592	546,357	-0,001	-0,002
-61,578	44,548	0,089	0,058
-60,563	800,000	-0,018	0,054
-59,549	-5,978	-0,039	-0,019
-58,534	-20,602	-1,729	-0,749
-57,519	313,461	-1,505	-2,009
-56,505	-200,000	-0,611	-4,559
-55,490	206,997	0,998	1,103
-54,476	800,000	4,903	11,232
-53,461	-200,000	19,336	323,283
-52,446	-200,000	743,467	2333,926
-51,432	569,422	1656,753	2862,924
-50,417	77,716	1671,309	1258,942
-49,403	21,031	1544,471	884,407
-48,388	14,917	1467,012	810,303
-47,373	18,035	1457,337	820,005
-46,359	16,591	1447,082	807,274
-45,344	13,196	1442,281	788,297
-44,330	13,060	1440,479	786,629
-43,315	13,077	1438,900	785,816
-42,300	13,116	1436,991	784,928
-41,286	13,124	1435,688	784,222
-40,271	13,054	1434,575	783,248
-39,257	13,094	1433,085	782,598
-38,242	13,137	1431,881	782,115
-37,227	13,135	1430,664	781,405
-36,213	13,175	1429,157	780,741
-35,198	13,123	1428,335	780,016
-34,184	13,209	1427,191	779,769
-33,169	13,119	1425,970	778,642
-32,154	13,175	1424,533	778,091
-31,140	13,163	1423,435	777,406
-30,125	13,218	1422,391	777,065
-29,111	13,176	1421,169	776,168
-28,096	13,151	1420,173	775,475
-27,082	13,137	1419,003	774,740
-26,067	13,096	1418,080	774,013
-25,052	13,113	1416,752	773,335
-24,038	13,091	1415,907	772,741
-23,023	13,079	1414,926	772,120
-22,009	13,066	1413,906	771,468
-20,994	13,008	1413,205	770,786
-19,979	13,018	1412,264	770,286
-18,965	13,018	1411,180	769,666
-17,950	13,005	1410,270	769,078
-16,936	13,048	1409,232	768,682
-15,921	13,003	1408,191	767,876
-14,906	13,008	1407,185	767,320
-13,892	12,970	1406,471	766,721
-12,877	12,979	1405,636	766,279
-11,863	12,998	1404,603	765,771
-10,848	13,006	1403,643	765,254
-9,833	12,980	1402,885	764,691
-8,819	12,948	1402,149	764,108
-7,804	12,912	1401,183	763,386
-6,790	12,886	1400,212	762,707
-5,775	12,910	1398,889	762,066
-4,760	12,934	1397,900	761,609
-3,746	12,846	1397,270	760,826
-2,731	12,853	1396,483	760,398
-1,717	12,862	1395,539	759,898
-0,702	12,875	1393,604	758,873
0,313	16,840	1309,354	731,321
1,327	33,347	702,227	430,280
2,342	51,266	122,890	82,380
3,356	2,521	16,650	8,502
4,371	-1,113	3,314	1,652
5,386	-62,067	0,574	0,168
6,400	-200,000	0,008	0,285
7,415	94,553	-0,245	-0,197
8,429	49,058	-0,272	-0,180
9,444	-8,151	-0,364	-0,173
10,459	-76,306	-0,218	-0,054
11,473	51,360	-0,205	-0,137
12,488	-44,958	-0,199	-0,070
13,502	-39,552	-0,293	-0,108
14,517	210,187	-0,324	-0,359
15,531	-32,786	-0,391	-0,153
16,546	134,119	-0,270	-0,247
17,561	112,002	-0,336	-0,287
18,575	0,719	-0,224	-0,113
19,590	50,448	-0,223	-0,149
20,604	-196,445	-0,228	-0,001
21,619	20,517	-0,454	-0,259
22,634	107,252	-0,481	-0,403
23,648	233,510	-0,306	-0,356
24,663	800,000	-0,194	-0,399
25,677	31,786	-0,393	-0,238
26,692	44,662	-0,355	-0,230
27,707	-42,751	-0,285	-0,102
28,721	-5,982	-0,432	-0,208
29,736	163,385	-0,499	-0,496
30,750	186,646	-0,404	-0,425
31,765	4,442	-0,338	-0,174
32,780	40,385	-0,273	-0,173
33,794	48,682	-0,304	-0,201
34,809	-31,530	-0,488	-0,192
35,823	29,982	-0,456	-0,274
36,838	363,895	-0,274	-0,390
37,853	108,337	-0,323	-0,272
38,867	11,573	-0,371	-0,200
39,882	8,294	-0,434	-0,229
40,896	190,642	-0,259	-0,275
41,911	50,487	-0,457	-0,304
42,926	216,035	-0,192	-0,215
43,940	78,286	-0,334	-0,251
44,955	9,563	-0,477	-0,254
45,969	295,010	-0,165	-0,213
46,984	177,126	-0,296	-0,304
47,999	-60,456	-0,326	-0,097
49,013	185,147	-0,222	-0,232
50,028	-36,382	-0,371	-0,140
51,042	132,552	-0,307	-0,279
52,057	102,485	-0,307	-0,252
53,071	195,485	-0,300	-0,321
54,086	-7,946	-0,385	-0,182
55,101	55,553	-0,323	-0,220
56,115	89,152	-0,332	-0,260
57,130	17,882	-0,410	-0,229
58,144	-27,270	-0,303	-0,124
59,159	18,798	-0,400	-0,225
60,174	-34,968	-0,357	-0,137
61,188	114,766	-0,340	-0,292
62,203	6,254	-0,337	-0,175
63,217	120,001	-0,201	-0,175
64,232	46,289	-0,242	-0,157
65,247	52,729	-0,362	-0,243
66,261	434,618	-0,323	-0,495
67,276	91,821	-0,312	-0,247
68,290	132,121	-0,406	-0,368
69,305	136,919	-0,333	-0,306
70,320	31,967	-0,319	-0,193
71,334	119,054	-0,321	-0,279
72,349	25,512	-0,342	-0,200
73,363	90,713	-0,272	-0,214
74,378	-4,281	-0,497	-0,241
75,393	-46,876	-0,362	-0,124
76,407	255,904	-0,256	-0,309
77,422	19,269	-0,231	-0,130
78,436	-16,163	-0,336	-0,149
79,451	35,563	-0,220	-0,135
80,466	25,939	-0,303	-0,177
81,480	241,341	-0,244	-0,287
82,495	187,496	-0,247	-0,259
83,509	-101,366	-0,407	-0,069
84,524	-77,465	-0,281	-0,068
85,539	-62,415	-0,269	-0,078
86,553	50,223	-0,305	-0,202
87,568	160,512	-0,243	-0,239
88,582	141,189	-0,290	-0,269
89,597	-37,435	-0,427	-0,159
90,611	84,773	-0,265	-0,203
91,626	155,602	-0,209	-0,202
92,641	-43,403	-0,316	-0,111
93,655	166,010	-0,225	-0,223
94,670	178,762	-0,290	-0,297
95,684	-32,439	-0,347	-0,135
96,699	69,815	-0,380	-0,275
97,714	20,939	-0,434	-0,246
98,728	92,685	-0,307	-0,243
99,743	522,861	-0,152	-0,251
100,757	-24,515	-0,231	-0,096
101,772	39,067	-0,326	-0,204
102,787	-5,114	-0,318	-0,153
103,801	44,169	-0,311	-0,200
104,816	124,521	-0,241	-0,213
105,830	248,556	-0,207	-0,246
106,845	15,202	-0,234	-0,128
107,860	71,033	-0,119	-0,086
108,874	-6,617	-0,341	-0,162
109,889	245,003	-0,242	-0,286
110,903	82,951	-0,220	-0,168
111,918	150,297	-0,259	-0,247
112,933	3,582	-0,267	-0,136
113,947	12,624	-0,162	-0,087
114,962	46,215	-0,178	-0,115
115,976	90,533	-0,211	-0,166
116,991	288,593	-0,211	-0,269
118,006	12,791	-0,422	-0,227
119,020	-6,587	-0,272	-0,129
120,035	108,015	-0,188	-0,156
121,049	-123,466	-0,234	0,026
122,064	65,095	-0,262	-0,185
123,079	65,264	-0,147	-0,104
124,093	82,730	-0,329	-0,250
125,108	82,296	-0,263	-0,199
126,122	-125,288	-0,257	-0,027
127,137	429,041	-0,143	-0,217
128,151	186,220	-0,169	-0,176
129,166	121,160	-0,191	-0,166
130,181	169,874	-0,168	-0,168
131,195	167,364	-0,219	-0,217
132,210	135,170	-0,289	-0,263
133,224	-10,825	-0,277	-0,128
134,239	-112,617	-0,265	-0,036
135,254	-76,001	-0,199	-0,049
136,268	3,551	-0,269	-0,137
137,283	-27,583	-0,212	-0,086
138,297	557,793	-0,169	-0,286
139,312	15,701	-0,298	-0,163
140,327	470,821	-0,129	-0,204
141,341	-55,205	-0,298	-0,093
142,356	-104,827	-0,201	-0,032
143,370	-28,230	-0,338	-0,136
144,385	31,976	-0,236	-0,142
145,400	187,537	-0,248	-0,259
146,414	178,842	-0,277	-0,283
147,429	-61,060	-0,250	-0,073
148,443	29,019	-0,338	-0,199
149,458	150,400	-0,212	-0,201
150,473	-81,991	-0,287	0,065
151,487	167,695	-0,163	-0,161
152,502	257,259	-0,191	-0,230
153,516	176,654	-0,241	-0,245
154,531	78,834	-0,418	-0,312
155,546	478,963	-0,160	-0,254
156,560	422,567	-0,150	-0,225
157,575	76,918	-0,173	-0,128
158,589	-29,722	-0,227	-0,090
159,604	40,449	-0,197	-0,124
160,619	163,519	-0,244	-0,240
161,633	-110,948	-0,239	-0,034
162,648	137,967	-0,198	-0,181
163,662	23,977	-0,302	-0,173
164,677	-173,659	-0,229	0,005
165,692	16,269	-0,364	-0,200
166,706	365,334	-0,185	-0,261
167,721	-128,112	-0,243	-0,024
168,735	179,321	-0,184	-0,188
169,750	95,730	-0,118	-0,094
170,764	19,173	-0,212	-0,118
171,779	-125,624	-0,193	0,020
172,794	-46,897	-0,378	-0,128
173,808	63,252	-0,287	-0,201
174,823	151,978	-0,170	-0,162
175,837	246,670	-0,211	-0,249
176,852	266,658	-0,144	-0,176
177,867	800,000	-0,089	-0,261
178,881	124,343	-0,258	-0,226
179,896	413,132	-0,211	-0,314
180,910	-36,531	-0,244	-0,091
181,925	128,432	-0,221	-0,196
182,940	494,852	-0,107	-0,171
183,954	6,692	-0,120	-0,062
184,969	-35,538	-0,249	-0,094
185,983	55,477	-0,139	-0,093
186,998	-23,848	-0,173	-0,072
188,013	-38,791	-0,277	-0,101
189,027	129,434	-0,236	-0,210
190,042	12,036	-0,190	-0,102
191,056	-152,051	-0,227	-0,011
192,071	132,578	-0,154	-0,138
193,086	-76,312	-0,206	-0,050
194,100	-200,000	-0,057	-0,227
195,115	54,550	-0,256	-0,172
196,129	51,917	-0,271	-0,179
197,144	88,301	-0,307	-0,237
198,159	163,276	-0,214	-0,210
199,173	-24,331	-0,241	-0,099
200,188	32,996	-0,195	-0,117
201,202	111,149	-0,303	-0,253
202,217	-48,891	-0,241	-0,080
203,232	-36,118	-0,176	-0,066
204,246	-33,386	-0,260	-0,099
205,261	9,896	-0,194	-0,102
206,275	-134,539	-0,176	-0,015
207,290	-31,850	-0,251	-0,097
208,304	-119,257	-0,127	-0,015
209,319	-31,842	-0,261	-0,101
210,334	130,312	-0,217	-0,193
211,348	175,228	-0,102	-0,102
212,363	-109,886	-0,270	-0,039
213,377	347,256	-0,167	-0,229
214,392	-200,000	-0,037	-0,213
215,407	15,277	-0,233	-0,127
216,421	-17,034	-0,195	-0,085
217,436	317,886	-0,059	-0,078
218,450	800,000	-0,111	-0,218
219,465	-51,243	-0,298	-0,096
220,480	150,428	-0,200	-0,188
221,494	-13,442	-0,110	-0,049
222,509	25,952	-0,161	-0,093
223,523	103,302	-0,182	-0,148
224,538	70,049	-0,172	-0,123
225,553	77,019	-0,157	-0,115
226,567	146,947	-0,176	-0,164
227,582	559,243	-0,092	-0,154
228,596	45,800	-0,083	-0,053
229,611	90,307	-0,131	-0,101
230,626	204,247	-0,113	-0,121
231,640	344,252	-0,130	-0,177
232,655	16,436	-0,284	-0,155
233,669	421,308	-0,170	-0,254
234,684	34,350	-0,172	-0,104
235,699	42,770	-0,245	-0,155
236,713	-89,032	-0,197	-0,040
237,728	2,663	-0,281	-0,141
238,742	144,668	-0,168	-0,155
239,757	86,995	-0,050	-0,038
240,772	517,753	-0,091	-0,148
241,786	71,338	-0,303	-0,218
242,801	68,950	-0,178	-0,127
243,815	-96,958	-0,162	-0,029
244,830	129,814	-0,218	-0,193
245,844	-54,648	-0,110	-0,034
246,859	704,943	-0,065	-0,119
247,874	-61,219	-0,261	-0,076
248,888	348,232	-0,099	-0,135
249,903	800,000	-0,077	-0,189
250,917	269,569	-0,142	-0,173
251,932	190,903	-0,143	-0,148
252,947	49,391	-0,205	-0,133
253,961	70,240	-0,181	-0,129
254,976	210,012	-0,235	-0,255
255,990	89,437	-0,196	-0,151
257,005	208,703	-0,182	-0,198
258,020	-78,696	-0,092	-0,021
259,034	166,828	-0,214	-0,210
260,049	-181,554	-0,207	0,003
261,063	69,645	-0,282	-0,200
262,078	229,224	-0,143	-0,161
263,093	-26,924	-0,207	-0,083
264,107	-44,517	-0,282	-0,097
265,122	590,020	-0,155	-0,266
266,136	-200,000	-0,060	-0,197
267,151	39,886	-0,233	-0,144
268,166	-131,489	-0,258	-0,023
269,180	-77,772	-0,236	-0,056
270,195	67,500	-0,232	-0,164
271,209	442,579	-0,079	-0,119
272,224	123,853	-0,268	-0,233
273,239	116,011	-0,170	-0,144
274,253	77,249	-0,202	-0,148
275,268	331,558	-0,150	-0,201
276,282	800,000	-0,110	-0,213
277,297	800,000	-0,114	-0,242
278,312	230,198	-0,101	-0,114
279,326	800,000	-0,093	-0,218
280,341	-71,619	-0,186	-0,048
281,355	800,000	-0,034	-0,085
282,370	-200,000	-0,005	-0,221
283,384	-13,872	-0,188	-0,084
284,399	399,861	-0,192	-0,279
285,414	83,696	-0,222	-0,167
286,428	-100,982	-0,053	0,009
287,443	-60,566	-0,171	-0,050
288,457	232,513	-0,173	-0,197
289,472	-108,032	-0,086	-0,013
290,487	800,000	-0,049	-0,095
291,501	427,226	-0,092	-0,138
292,516	14,527	-0,171	-0,092
293,530	421,239	-0,115	-0,171
294,545	-108,465	-0,128	-0,019
295,560	243,753	-0,143	-0,166
296,574	445,029	-0,111	-0,168
297,589	84,169	-0,188	-0,141
298,603	-117,690	-0,158	-0,019
299,618	41,367	-0,220	-0,137
300,633	300,959	-0,115	-0,147
301,647	-64,000	-0,186	-0,052
302,662	800,000	-0,058	-0,134
303,676	673,244	-0,129	-0,232
304,691	-102,535	-0,152	-0,025
305,706	-58,248	-0,213	-0,063
306,720	223,484	-0,196	-0,218
307,735	263,538	-0,103	-0,123
308,749	800,000	-0,062	-0,154
309,764	612,655	-0,126	-0,218
310,779	-128,302	-0,068	-0,007
311,793	136,145	-0,160	-0,144
312,808	800,000	-0,142	-0,280
313,822	187,742	-0,090	-0,093
314,837	800,000	-0,110	-0,267
315,852	800,000	-0,047	-0,131
316,866	206,388	-0,200	-0,214
317,881	-138,488	-0,132	0,010
318,895	255,951	-0,124	-0,147
319,910	54,568	-0,227	-0,150
320,925	261,993	-0,204	-0,243
321,939	29,145	-0,143	-0,083
322,954	800,000	-0,077	-0,183
323,968	-22,967	-0,114	-0,047
324,983	-56,954	-0,194	-0,059
325,997	-103,451	-0,084	-0,013
327,012	27,225	-0,282	-0,162
328,027	97,172	-0,158	-0,125
329,041	-200,000	-0,026	-0,229
330,056	-43,593	-0,131	-0,045
331,070	131,189	-0,101	-0,089
332,085	-93,217	-0,106	-0,020
333,100	120,983	-0,187	-0,160
334,114	46,882	-0,130	-0,083
335,129	-38,873	-0,167	-0,060
336,143	179,876	-0,124	-0,125
337,158	4,184	-0,212	-0,106
338,173	-200,000	0,004	-0,054
339,187	382,831	-0,140	-0,199
340,202	30,301	-0,107	-0,063
341,216	-41,919	-0,180	-0,063
342,231	54,752	-0,165	-0,109
343,246	240,748	-0,123	-0,141
344,260	800,000	-0,030	-0,090
345,275	117,524	-0,146	-0,123
346,289	351,445	-0,105	-0,143
347,304	800,000	-0,073	-0,140
348,319	24,061	-0,188	-0,106
349,333	800,000	-0,111	-0,216
350,348	800,000	-0,061	-0,139
351,362	-145,225	-0,149	0,009
352,377	52,107	-0,117	-0,077
353,392	132,564	-0,156	-0,138
354,406	66,459	-0,150	-0,104
355,421	208,499	1313,799	1410,911
356,435	160,428	1474,411	1411,387
