DTS Sentinel unit serial number:	SN410029Multiplexer serial number:	ORYXHardware model number:	OX2-SRSoftware version number:	ORYX F/W v4,00 Oryx Data Collector v3.7.2.0data status	okinstallation	B3 Nyhavnadifferential loss correction	single-endedforward channel	channel 1reverse channel	N/Adate	2023/11/28time	23:57:30forward acquisition time	300,00reverse acquisition time	0,00gamma	499,1914k internal	0,3212k external	0,3212temperature offset calibration	1,0000default loss term (dB/km)	0,3820temperature slope calibration	1,0000multiplexer offset coefficient	1,0000multiplexer slope coefficient	1,0000fibre end	0,00T internal ref (°C)	8,94T ext. ref 1 (°C)	-5,34T ext. ref 2 (°C)	-5,48length (m)	temperature (°C)	Stokes	anti-Stokes-744,400	800,000	-0,122	-0,287
-743,385	800,000	-0,122	0,278
-742,371	800,000	-0,083	-0,177
-741,356	677,100	0,070	0,133
-740,342	494,943	-0,096	-0,160
-739,327	535,314	-0,103	0,179
-738,312	272,717	-0,187	-0,239
-737,298	800,000	-0,094	0,262
-736,283	800,000	-0,095	-0,195
-735,269	-200,000	-0,036	0,359
-734,254	800,000	-0,118	-0,273
-733,239	-108,866	-0,294	0,045
-732,225	800,000	-0,115	-0,281
-731,210	162,242	0,201	0,205
-730,196	-163,594	0,071	0,002
-729,181	-129,214	-0,190	0,019
-728,167	152,416	-0,077	-0,076
-727,152	-53,342	-0,051	-0,017
-726,137	-200,000	-0,013	-0,117
-725,123	401,956	0,015	-0,023
-724,108	-97,308	-0,114	-0,021
-723,094	800,000	-0,038	-0,098
-722,079	116,092	-0,083	-0,074
-721,064	-68,059	0,051	0,014
-720,050	800,000	0,007	-0,020
-719,035	117,875	-0,061	-0,055
-718,021	42,523	-0,103	-0,068
-717,006	570,888	-0,028	-0,050
-715,991	-200,000	0,008	-0,132
-714,977	455,101	0,034	0,055
-713,962	-200,000	-0,036	-0,228
-712,948	62,145	-0,077	0,056
-711,933	-200,000	0,024	0,223
-710,918	-156,392	-0,031	-0,001
-709,904	422,189	-0,061	0,095
-708,889	800,000	-0,043	-0,119
-707,875	-200,000	0,004	-0,101
-706,860	15,363	-0,022	-0,013
-705,845	-200,000	-0,027	0,173
-704,831	-50,956	-0,058	-0,020
-703,816	-94,945	0,047	-0,009
-702,802	-200,000	0,007	0,028
-701,787	800,000	-0,057	-0,173
-700,772	-45,404	0,064	0,023
-699,758	-200,000	0,000	-0,072
-698,743	154,803	-0,055	-0,055
-697,729	257,167	0,039	0,049
-696,714	-125,748	-0,157	0,017
-695,699	573,027	-0,020	-0,035
-694,685	800,000	0,052	-0,109
-693,670	509,065	-0,076	0,129
-692,656	631,623	0,032	-0,058
-691,641	800,000	-0,020	-0,042
-690,627	27,408	0,145	-0,088
-689,612	642,004	0,025	-0,047
-688,597	-38,407	0,116	-0,044
-687,583	36,256	-0,104	-0,066
-686,568	-200,000	0,002	-0,031
-685,554	-1,844	-0,102	-0,052
-684,539	-39,769	0,074	0,028
-683,524	56,850	0,139	0,098
-682,510	164,239	0,057	0,059
-681,495	128,594	-0,098	-0,090
-680,481	20,409	-0,128	0,075
-679,466	-200,000	-0,011	0,079
-678,451	135,473	-0,074	-0,070
-677,437	-80,123	0,073	0,018
-676,422	-71,849	-0,078	-0,021
-675,408	-200,000	-0,004	-0,114
-674,393	-200,000	-0,013	-0,088
-673,378	-200,000	-0,011	-0,069
-672,364	497,747	-0,018	0,030
-671,349	-3,730	-0,212	-0,106
-670,335	-200,000	0,020	0,118
-669,320	145,721	0,104	0,100
-668,305	-41,752	-0,074	0,027
-667,291	677,957	0,061	0,115
-666,276	283,041	-0,077	0,101
-665,262	800,000	0,016	0,043
-664,247	-200,000	0,021	0,133
-663,232	390,397	0,078	-0,118
-662,218	-115,585	-0,101	0,014
-661,203	13,477	-0,169	0,095
-660,189	-79,396	-0,099	0,024
-659,174	-182,870	0,126	-0,002
-658,159	-87,237	-0,159	-0,035
-657,145	4,744	-0,043	-0,023
-656,130	172,206	-0,132	-0,137
-655,116	163,446	0,059	-0,059
-654,101	800,000	-0,030	-0,095
-653,086	20,500	-0,030	-0,018
-652,072	-200,000	0,016	-0,054
-651,057	85,227	-0,127	-0,101
-650,043	-200,000	-0,004	-0,032
-649,028	246,494	-0,073	0,089
-648,014	-69,816	0,104	0,029
-646,999	-200,000	-0,004	0,143
-645,984	2,589	0,057	0,029
-644,970	27,927	-0,119	-0,072
-643,955	-200,000	-0,010	-0,110
-642,941	-37,290	-0,044	0,017
-641,926	-14,899	-0,016	-0,007
-640,911	-32,066	0,025	0,010
-639,897	-200,000	0,015	0,160
-638,882	-28,583	-0,098	0,041
-637,868	-39,378	-0,025	-0,009
-636,853	800,000	-0,046	-0,111
-635,838	-20,481	0,140	-0,062
-634,824	-53,629	-0,118	-0,039
-633,809	800,000	0,018	-0,056
-632,795	610,829	0,055	-0,100
-631,780	-200,000	-0,016	-0,099
-630,765	253,544	-0,116	-0,143
-629,751	706,118	0,071	0,136
-628,736	800,000	0,008	-0,017
-627,722	35,673	0,057	0,036
-626,707	82,437	-0,043	-0,034
-625,692	227,033	-0,044	-0,051
-624,678	39,452	-0,051	0,033
-623,663	800,000	-0,038	0,090
-622,649	800,000	-0,064	-0,141
-621,634	-121,680	0,059	-0,007
-620,619	800,000	0,018	0,042
-619,605	301,150	-0,058	0,077
-618,590	-113,767	0,089	0,012
-617,576	800,000	0,026	0,068
-616,561	-36,279	-0,114	-0,044
-615,546	485,909	0,114	-0,188
-614,532	-200,000	0,018	-0,125
-613,517	-200,000	-0,043	0,161
-612,503	196,494	0,128	0,141
-611,488	434,559	0,066	-0,103
-610,474	-41,473	0,126	-0,047
-609,459	87,342	-0,125	0,100
-608,444	-102,840	-0,086	0,015
-607,430	106,008	0,102	-0,087
-606,415	258,725	-0,123	-0,153
-605,401	-59,280	-0,017	-0,005
-604,386	-52,538	0,144	-0,048
-603,371	405,158	-0,058	0,089
-602,357	800,000	-0,012	-0,032
-601,342	800,000	-0,041	-0,119
-600,328	30,994	0,071	0,044
-599,313	800,000	0,052	-0,123
-598,298	-200,000	0,023	-0,115
-597,284	263,858	-0,051	-0,064
-596,269	151,863	0,100	0,098
-595,255	443,569	0,022	0,036
-594,240	-87,409	-0,029	0,006
-593,225	-200,000	0,005	-0,081
-592,211	60,300	-0,043	0,031
-591,196	-72,721	0,058	-0,015
-590,182	118,175	-0,057	0,051
-589,167	-200,000	-0,027	0,089
-588,152	141,062	0,129	-0,123
-587,138	-200,000	-0,007	-0,103
-586,123	-200,000	-0,014	-0,155
-585,109	800,000	0,062	-0,191
-584,094	268,961	0,133	-0,169
-583,079	560,782	-0,101	0,177
-582,065	-111,730	0,164	-0,024
-581,050	-81,665	0,037	0,009
-580,036	594,696	0,032	0,058
-579,021	114,650	0,048	0,042
-578,006	174,536	-0,040	-0,041
-576,992	612,085	0,022	-0,039
-575,977	-58,305	0,095	0,030
-574,963	136,905	-0,028	-0,027
-573,948	-57,482	0,104	-0,033
-572,934	347,262	-0,056	0,080
-571,919	-200,000	-0,017	-0,066
-570,904	-200,000	0,016	-0,112
-569,890	-200,000	0,005	0,080
-568,875	800,000	0,011	-0,024
-567,861	178,856	0,015	0,016
-566,846	-46,004	0,162	-0,057
-565,831	85,769	0,072	-0,057
-564,817	-32,169	-0,014	0,006
-563,802	-106,427	-0,187	0,030
-562,788	269,902	-0,053	-0,068
-561,773	-93,416	-0,065	-0,013
-560,758	131,216	-0,032	0,030
-559,744	-46,760	0,052	0,018
-558,729	-98,273	-0,065	0,012
-557,715	-200,000	0,008	-0,174
-556,700	200,911	-0,112	-0,124
-555,685	800,000	-0,014	0,029
-554,671	-34,353	-0,129	-0,051
-553,656	125,751	0,086	0,078
-552,642	-200,000	-0,010	-0,125
-551,627	-200,000	-0,008	0,123
-550,612	800,000	-0,040	-0,087
-549,598	-48,840	-0,094	0,032
-548,583	-65,342	0,080	0,023
-547,569	-45,729	-0,011	0,004
-546,554	351,730	0,105	0,151
-545,539	272,588	0,076	0,097
-544,525	-111,200	-0,148	-0,021
-543,510	-200,000	-0,025	0,088
-542,496	-200,000	0,023	-0,088
-541,481	292,257	-0,054	-0,071
-540,466	28,695	0,178	-0,108
-539,452	-69,858	-0,022	-0,006
-538,437	149,984	0,047	0,046
-537,423	800,000	0,032	0,077
-536,408	81,639	-0,026	0,021
-535,393	-200,000	0,019	0,132
-534,379	800,000	-0,041	-0,108
-533,364	309,309	-0,039	0,052
-532,350	-39,118	0,049	0,018
-531,335	-88,925	-0,077	-0,016
-530,321	24,413	-0,068	0,040
-529,306	-200,000	0,009	0,066
-528,291	726,002	0,086	0,165
-527,277	1,404	-0,026	0,013
-526,262	135,201	0,032	0,030
-525,248	-200,000	-0,017	0,169
-524,233	716,113	0,084	0,162
-523,218	176,599	0,095	0,100
-522,204	110,649	-0,042	-0,036
-521,189	-200,000	-0,009	0,105
-520,175	108,039	-0,064	-0,054
-519,160	199,532	-0,052	-0,057
-518,145	5,947	0,079	0,042
-517,131	-6,133	-0,148	0,072
-516,116	-91,971	0,028	-0,006
-515,102	164,263	0,044	0,045
-514,087	338,740	-0,015	0,021
-513,072	-200,000	-0,030	-0,169
-512,058	-17,884	-0,035	0,016
-511,043	173,476	-0,011	-0,011
-510,029	469,881	-0,027	-0,044
-509,014	-21,843	-0,014	0,006
-507,999	582,463	0,045	0,080
-506,985	-200,000	-0,011	-0,036
-505,970	752,449	-0,012	0,024
-504,956	540,446	0,024	-0,041
-503,941	101,306	0,067	0,056
-502,926	-58,010	0,093	-0,029
-501,912	453,273	-0,066	0,105
-500,897	784,329	-0,040	-0,080
-499,883	413,055	-0,042	-0,064
-498,868	-200,000	0,010	-0,113
-497,853	262,926	-0,048	-0,060
-496,839	468,199	0,069	0,111
-495,824	-4,978	-0,003	0,001
-494,810	-72,578	0,037	0,010
-493,795	-200,000	0,022	-0,083
-492,781	35,406	0,062	-0,039
-491,766	648,586	-0,035	-0,065
-490,751	-5,438	0,097	-0,048
-489,737	-64,486	0,157	0,045
-488,722	-126,902	-0,037	-0,004
-487,708	140,586	0,011	0,011
-486,693	347,291	0,101	0,143
-485,678	-145,980	-0,073	0,005
-484,664	-200,000	-0,028	-0,098
-483,649	-7,119	-0,180	-0,087
-482,635	-169,057	0,120	0,003
-481,620	216,682	0,093	-0,106
-480,605	115,309	-0,122	0,107
-479,591	487,954	0,113	0,185
-478,576	221,146	-0,057	0,066
-477,562	232,459	-0,130	-0,153
-476,547	-200,000	0,012	-0,258
-475,532	235,982	0,023	0,028
-474,518	-200,000	-0,006	0,099
-473,503	-200,000	0,009	0,088
-472,489	51,078	-0,024	0,016
-471,474	-200,000	-0,017	0,112
-470,459	-200,000	0,014	-0,082
-469,445	366,000	-0,057	0,083
-468,430	-18,610	0,035	-0,016
-467,416	-200,000	0,022	0,125
-466,401	136,600	0,067	0,063
-465,386	239,367	-0,014	-0,017
-464,372	-88,254	-0,121	0,026
-463,357	-200,000	-0,022	-0,081
-462,343	-1,865	0,016	-0,008
-461,328	8,039	0,130	0,070
-460,313	-200,000	-0,030	-0,177
-459,299	-200,000	0,024	-0,132
-458,284	171,598	0,073	0,075
-457,270	-200,000	0,003	-0,055
-456,255	-200,000	0,001	-0,013
-455,241	224,871	0,061	-0,071
-454,226	597,589	0,034	0,060
-453,211	800,000	0,096	0,216
-452,197	216,021	-0,018	0,021
-451,182	-58,533	0,074	-0,023
-450,168	222,254	0,091	0,105
-449,153	16,617	-0,040	0,022
-448,138	-121,348	-0,048	0,006
-447,124	-155,589	-0,014	-0,001
-446,109	800,000	0,033	0,097
-445,095	-12,742	0,173	-0,080
-444,080	-138,339	0,084	-0,007
-443,065	555,151	-0,118	0,204
-442,051	800,000	-0,015	0,041
-441,036	15,763	-0,098	0,055
-440,022	73,239	-0,039	-0,029
-439,007	-56,240	-0,077	-0,024
-437,992	123,928	0,086	0,077
-436,978	236,877	-0,093	0,111
-435,963	-200,000	0,026	0,090
-434,949	-2,417	-0,141	0,070
-433,934	-7,693	-0,087	0,042
-432,919	39,729	-0,103	-0,066
-431,905	-33,862	-0,068	0,027
-430,890	-91,606	0,107	0,022
-429,876	112,154	0,083	0,072
-428,861	299,218	-0,024	0,031
-427,846	-15,643	-0,056	-0,025
-426,832	800,000	-0,099	-0,222
-425,817	-200,000	0,006	-0,077
-424,803	-12,766	-0,070	-0,032
-423,788	-70,833	-0,112	0,030
-422,773	-1,116	0,165	0,083
-421,759	-200,000	-0,011	0,094
-420,744	-125,960	-0,175	0,019
-419,730	-200,000	-0,013	-0,169
-418,715	-144,369	-0,097	0,006
-417,701	561,263	0,019	0,033
-416,686	-109,718	0,013	-0,002
-415,671	800,000	0,016	-0,043
-414,657	117,568	-0,045	-0,039
-413,642	11,605	-0,032	0,018
-412,628	60,787	-0,091	0,065
-411,613	-150,959	0,055	0,003
-410,598	169,234	-0,042	-0,042
-409,584	197,919	-0,026	0,029
-408,569	156,113	0,081	0,080
-407,555	172,849	0,125	0,129
-406,540	800,000	-0,037	-0,110
-405,525	313,182	0,061	-0,083
-404,511	-200,000	0,017	-0,081
-403,496	-83,869	-0,145	0,033
-402,482	-200,000	-0,011	-0,035
-401,467	800,000	-0,032	0,092
-400,452	-46,240	-0,073	0,026
-399,438	800,000	-0,038	0,083
-398,423	361,128	-0,058	0,083
-397,409	-200,000	-0,029	0,123
-396,394	800,000	0,019	0,049
-395,379	-200,000	0,014	0,053
-394,365	257,005	0,081	0,100
-393,350	-200,000	0,004	0,024
-392,336	68,201	0,061	0,045
-391,321	156,108	0,029	0,029
-390,306	-28,654	0,065	0,027
-389,292	-200,000	0,028	-0,106
-388,277	289,256	0,032	0,041
-387,263	800,000	-0,026	0,075
-386,248	66,057	0,061	-0,044
-385,233	-200,000	-0,019	0,085
-384,219	-200,000	-0,029	0,100
-383,204	415,143	-0,050	0,077
-382,190	-200,000	-0,021	-0,074
-381,175	-200,000	-0,019	-0,097
-380,160	254,529	-0,081	-0,099
-379,146	347,807	0,031	-0,043
-378,131	-200,000	-0,005	-0,074
-377,117	-10,370	0,034	0,016
-376,102	7,376	-0,084	-0,045
-375,088	-72,608	-0,046	-0,012
-374,073	791,674	0,099	-0,196
-373,058	800,000	-0,047	-0,102
-372,044	139,123	-0,040	0,038
-371,029	800,000	0,013	-0,026
-370,015	441,957	-0,111	0,173
-369,000	789,275	-0,034	0,068
-367,985	-30,948	0,045	0,018
-366,971	-200,000	-0,001	0,049
-365,956	-200,000	0,005	-0,032
-364,942	800,000	0,035	0,074
-363,927	699,414	0,046	-0,087
-362,912	800,000	-0,004	0,009
-361,898	608,915	0,051	-0,091
-360,883	269,882	0,028	0,035
-359,869	54,368	-0,020	0,014
-358,854	-21,195	-0,003	-0,001
-357,839	-58,070	0,070	-0,022
-356,825	64,861	-0,082	0,059
-355,810	800,000	0,041	0,118
-354,796	800,000	0,031	-0,076
-353,781	-138,093	-0,058	0,005
-352,766	-200,000	-0,024	0,183
-351,752	186,569	-0,107	-0,114
-350,737	50,254	0,164	0,110
-349,723	60,976	0,027	0,019
-348,708	-12,782	-0,147	0,068
-347,693	-72,348	0,172	0,045
-346,679	466,128	-0,042	-0,068
-345,664	-87,386	-0,089	0,019
-344,650	248,136	-0,028	0,034
-343,635	-200,000	-0,002	-0,087
-342,620	-200,000	-0,007	-0,024
-341,606	-79,843	-0,063	-0,015
-340,591	-71,610	0,047	-0,012
-339,577	250,510	-0,128	-0,156
-338,562	-67,834	0,027	0,007
-337,548	-200,000	-0,020	0,120
-336,533	1,366	0,110	-0,056
-335,518	37,352	-0,060	0,038
-334,504	-88,000	0,044	-0,009
-333,489	420,536	-0,057	0,088
-332,475	376,440	-0,033	0,048
-331,460	450,022	0,020	-0,032
-330,445	800,000	-0,026	0,076
-329,431	-87,946	0,019	-0,004
-328,416	-158,170	0,087	0,004
-327,402	-200,000	-0,016	0,237
-326,387	-82,766	-0,016	-0,004
-325,372	51,674	-0,097	0,066
-324,358	251,936	0,076	-0,093
-323,343	-200,000	0,028	-0,149
-322,329	-146,017	0,255	-0,016
-321,314	145,637	-0,057	-0,055
-320,299	-156,765	0,116	0,005
-319,285	-148,693	-0,087	0,005
-318,270	356,431	0,095	0,135
-317,256	56,208	0,011	-0,008
-316,241	265,676	0,038	0,048
-315,226	-138,328	-0,072	-0,006
-314,212	-200,000	-0,023	0,103
-313,197	433,382	-0,080	0,124
-312,183	-200,000	0,002	0,113
-311,168	170,287	0,080	-0,082
-310,153	190,323	-0,058	-0,062
-309,139	666,033	0,022	0,041
-308,124	71,238	-0,070	-0,052
-307,110	418,358	0,075	0,114
-306,095	43,716	0,115	0,075
-305,080	800,000	0,039	0,093
-304,066	-200,000	-0,017	-0,115
-303,051	97,846	-0,065	-0,054
-302,037	-200,000	0,009	-0,144
-301,022	186,443	0,087	-0,092
-300,008	423,778	0,043	-0,066
-298,993	-145,618	0,122	-0,008
-297,978	764,317	-0,039	-0,077
-296,964	0,073	0,105	0,053
-295,949	13,878	-0,016	0,009
-294,935	800,000	-0,044	-0,101
-293,920	239,506	0,014	0,017
-292,905	18,614	0,032	0,018
-291,891	800,000	0,029	-0,072
-290,876	800,000	-0,017	-0,054
-289,862	14,662	-0,048	-0,026
-288,847	546,850	0,053	-0,091
-287,832	-103,351	-0,092	-0,015
-286,818	-200,000	0,021	0,106
-285,803	185,336	0,038	0,040
-284,789	-200,000	-0,015	0,130
-283,774	406,912	-0,018	0,027
-282,759	-81,595	-0,129	-0,030
-281,745	-200,000	0,022	-0,082
-280,730	213,304	-0,062	0,070
-279,716	-177,858	0,076	-0,001
-278,701	588,745	-0,044	0,077
-277,686	-57,620	-0,071	-0,022
-276,672	800,000	0,065	0,152
-275,657	789,471	-0,073	0,144
-274,643	800,000	-0,036	0,106
-273,628	340,088	-0,030	-0,042
-272,613	41,589	0,038	0,025
-271,599	-93,818	-0,154	0,030
-270,584	-200,000	0,008	0,064
-269,570	-100,454	-0,103	0,018
-268,555	-200,000	-0,003	-0,098
-267,540	-200,000	-0,022	-0,100
-266,526	28,114	-0,096	0,057
-265,511	660,879	0,034	-0,062
-264,497	-135,051	0,043	-0,004
-263,482	222,632	-0,051	-0,059
-262,467	800,000	-0,048	0,109
-261,453	526,554	-0,068	-0,115
-260,438	800,000	0,014	-0,039
-259,424	-96,201	-0,133	0,025
-258,409	437,277	0,090	-0,140
-257,395	-200,000	-0,013	-0,072
-256,380	-200,000	0,005	0,096
-255,365	800,000	0,031	0,064
-254,351	204,816	0,091	-0,101
-253,336	383,084	0,048	-0,070
-252,322	800,000	-0,044	-0,099
-251,307	-179,865	-0,086	-0,001
-250,292	-200,000	0,003	0,036
-249,278	193,963	0,088	0,094
-248,263	-29,484	0,050	-0,020
-247,249	-200,000	-0,022	-0,121
-246,234	-92,539	-0,038	-0,007
-245,219	-200,000	-0,003	0,009
-244,205	-200,000	-0,022	-0,145
-243,190	-200,000	0,047	-0,162
-242,176	63,176	0,069	0,049
-241,161	759,724	-0,044	-0,086
-240,146	281,607	-0,066	-0,084
-239,132	371,883	0,090	-0,130
-238,117	-43,453	-0,002	-0,001
-237,103	9,315	-0,118	-0,063
-236,088	610,685	-0,002	-0,004
-235,073	198,107	-0,039	0,043
-234,059	-200,000	-0,004	0,058
-233,044	-200,000	0,029	0,122
-232,030	181,817	0,065	0,068
-231,015	153,568	0,099	-0,096
-230,000	-161,667	-0,079	-0,003
-228,986	681,084	-0,028	0,053
-227,971	202,165	0,093	0,102
-226,957	-200,000	-0,046	0,187
-225,942	-9,011	0,042	0,020
-224,927	-200,000	0,007	-0,038
-223,913	-112,268	-0,130	-0,018
-222,898	-39,431	-0,062	0,023
-221,884	-46,997	0,023	-0,008
-220,869	-23,801	0,027	-0,011
-219,855	800,000	-0,021	-0,059
-218,840	269,871	0,079	-0,099
-217,825	-200,000	0,013	0,106
-216,811	230,151	-0,097	0,113
-215,796	81,157	0,043	0,033
-214,782	-200,000	-0,017	-0,061
-213,767	800,000	-0,085	-0,184
-212,752	-200,000	-0,024	0,127
-211,738	-200,000	-0,022	-0,109
-210,723	138,866	-0,167	-0,156
-209,709	-200,000	0,029	-0,159
-208,694	-200,000	0,022	-0,077
-207,679	800,000	-0,046	-0,095
-206,665	653,986	0,052	-0,096
-205,650	-200,000	0,012	0,106
-204,636	48,008	0,122	0,081
-203,621	98,812	-0,149	0,122
-202,606	-84,078	-0,045	-0,010
-201,592	800,000	0,038	0,102
-200,577	157,979	-0,050	-0,050
-199,563	800,000	0,092	-0,202
-198,548	-113,174	0,045	0,006
-197,533	346,688	0,035	-0,049
-196,519	800,000	0,014	-0,031
-195,504	7,003	-0,086	-0,045
-194,490	92,005	-0,071	0,057
-193,475	218,112	-0,109	-0,124
-192,460	88,805	0,088	-0,069
-191,446	800,000	0,069	0,158
-190,431	-70,117	0,022	-0,006
-189,417	-11,700	0,183	-0,085
-188,402	-80,479	-0,147	0,035
-187,387	384,333	-0,034	-0,049
-186,373	800,000	0,051	-0,141
-185,358	-133,335	-0,028	-0,002
-184,344	-12,867	0,101	0,046
-183,329	800,000	-0,026	0,062
-182,315	-25,585	-0,030	0,013
-181,300	-88,910	0,025	0,005
-180,285	-24,052	-0,068	-0,028
-179,271	110,941	0,101	-0,086
-178,256	-123,285	-0,182	0,020
-177,242	800,000	0,044	0,131
-176,227	-29,234	0,066	0,027
-175,212	-93,987	-0,087	0,017
-174,198	-200,000	-0,037	-0,130
-173,183	800,000	0,026	-0,070
-172,169	-200,000	0,005	-0,017
-171,154	-186,119	0,021	-0,000
-170,139	34,757	0,076	-0,047
-169,125	398,303	0,095	0,142
-168,110	-35,451	0,088	0,034
-167,096	47,802	-0,082	0,054
-166,081	-200,000	-0,014	-0,096
-165,066	-141,435	0,012	-0,001
-164,052	236,307	0,083	0,097
-163,037	344,793	-0,015	-0,020
-162,023	-85,300	0,101	0,022
-161,008	317,790	0,030	0,041
-159,993	38,176	-0,073	0,046
-158,979	-200,000	-0,036	-0,143
-157,964	-49,094	-0,071	-0,024
-156,950	319,238	0,080	-0,108
-155,935	-200,000	-0,002	0,028
-154,920	286,351	0,078	0,100
-153,906	476,829	0,060	0,096
-152,891	-17,977	0,102	0,045
-151,877	6,087	0,083	-0,043
-150,862	76,798	0,121	-0,091
-149,847	-200,000	0,028	-0,131
-148,833	800,000	0,045	-0,103
-147,818	800,000	0,023	0,062
-146,804	238,223	0,076	-0,089
-145,789	327,135	0,131	0,179
-144,775	187,326	-0,050	0,053
-143,760	160,709	-0,054	-0,053
-142,745	447,933	0,041	-0,065
-141,731	-22,938	-0,120	-0,051
-140,716	800,000	0,068	-0,141
-139,702	-0,923	0,025	-0,012
-138,687	48,264	0,033	0,022
-137,672	-200,000	0,020	-0,080
-136,658	-108,959	0,007	0,001
-135,643	800,000	-0,032	-0,088
-134,629	539,914	0,055	-0,092
-133,614	421,058	0,044	-0,066
-132,599	-116,114	0,076	0,010
-131,585	160,192	0,083	0,082
-130,570	159,492	-0,026	0,025
-129,556	800,000	-0,044	-0,136
-128,541	-200,000	0,033	-0,142
-127,526	-200,000	0,019	-0,106
-126,512	319,823	-0,081	-0,109
-125,497	146,980	0,044	0,042
-124,483	730,355	0,030	0,057
-123,468	-200,000	-0,006	0,115
-122,453	-49,594	-0,033	-0,011
-121,439	800,000	-0,062	-0,130
-120,424	-200,000	0,006	0,087
-119,410	518,102	0,058	-0,097
-118,395	-35,867	0,124	0,047
-117,380	-44,536	0,138	0,049
-116,366	615,381	0,045	-0,081
-115,351	4,490	0,109	-0,056
-114,337	800,000	-0,043	-0,102
-113,322	656,658	-0,073	-0,134
-112,307	800,000	0,039	0,092
-111,293	762,555	0,092	0,178
-110,278	-200,000	-0,010	0,085
-109,264	-200,000	-0,026	-0,173
-108,249	-182,555	-0,094	-0,001
-107,234	251,692	0,062	0,075
-106,220	-200,000	-0,014	-0,174
-105,205	-200,000	0,038	0,167
-104,191	-200,000	-0,003	-0,136
-103,176	-127,947	-0,072	-0,007
-102,162	800,000	0,023	0,065
-101,147	102,838	-0,074	0,061
-100,132	-200,000	0,011	-0,037
-99,118	-85,988	0,020	0,004
-98,103	-49,813	-0,103	-0,034
-97,089	-200,000	0,022	0,081
-96,074	178,456	0,063	-0,066
-95,059	-96,224	0,069	0,013
-94,045	-89,537	-0,243	-0,050
-93,030	282,528	-0,037	0,047
-92,016	763,367	-0,046	0,089
-91,001	-20,109	-0,071	-0,031
-89,986	2,108	0,089	-0,045
-88,972	1,684	0,028	-0,014
-87,957	-90,968	0,128	-0,026
-86,943	-105,998	0,128	0,020
-85,928	-186,371	-0,033	0,000
-84,913	-200,000	0,031	0,114
-83,899	-139,374	-0,087	-0,006
-82,884	-57,727	-0,026	0,008
-81,870	-200,000	-0,014	0,181
-80,855	-122,600	0,051	0,006
-79,840	-42,366	0,038	-0,013
-78,826	-200,000	-0,023	0,110
-77,811	240,003	0,017	-0,020
-76,797	-79,009	-0,140	0,033
-75,782	-200,000	0,005	0,061
-74,767	-200,000	0,019	0,060
-73,753	-96,175	-0,027	-0,005
-72,738	397,627	0,080	0,119
-71,724	330,540	-0,049	0,067
-70,709	10,173	-0,067	-0,036
-69,694	372,203	-0,003	-0,004
-68,680	134,212	0,090	-0,083
-67,665	-44,978	0,090	0,031
-66,651	24,234	0,003	0,002
-65,636	800,000	0,048	0,117
-64,622	-177,162	-0,127	0,002
-63,607	800,000	-0,051	-0,099
-62,592	-187,391	-0,072	0,001
-61,578	-200,000	-0,000	0,033
-60,563	800,000	0,032	0,065
-59,549	-22,217	-0,057	-0,024
-58,534	46,719	-2,135	-1,397
-57,519	620,135	-1,144	-2,038
-56,505	-200,000	-0,327	-4,297
-55,490	628,250	0,961	1,722
-54,476	800,000	5,211	11,134
-53,461	-200,000	21,933	336,904
-52,446	800,000	758,424	2296,188
-51,432	533,697	1652,436	2772,416
-50,417	69,327	1650,091	1196,454
-49,403	16,590	1524,841	847,959
-48,388	10,762	1449,461	778,003
-47,373	18,930	1441,259	812,556
-46,359	14,124	1430,154	783,537
-45,344	9,054	1426,184	757,316
-44,330	9,006	1424,271	756,041
-43,315	8,988	1422,366	754,914
-42,300	8,974	1420,754	753,962
-41,286	9,086	1419,176	753,624
-40,271	8,984	1418,130	752,558
-39,257	9,002	1416,900	751,961
-38,242	8,983	1415,880	751,302
-37,227	9,036	1414,740	750,915
-36,213	9,025	1413,515	750,185
-35,198	9,029	1412,083	749,411
-34,184	9,059	1411,115	749,011
-33,169	9,002	1409,738	747,982
-32,154	8,995	1408,872	747,461
-31,140	9,001	1407,594	746,779
-30,125	9,000	1406,583	746,207
-29,111	9,041	1405,435	745,762
-28,096	8,997	1404,209	744,878
-27,082	8,984	1403,089	744,191
-26,067	8,940	1402,077	743,423
-25,052	9,008	1400,766	743,012
-24,038	8,971	1399,907	742,354
-23,023	8,970	1398,985	741,832
-22,009	8,993	1397,871	741,320
-20,994	9,002	1396,950	740,844
-19,979	8,956	1396,115	740,156
-18,965	8,908	1395,125	739,383
-17,950	8,902	1394,175	738,821
-16,936	8,924	1393,272	738,412
-15,921	8,886	1392,300	737,696
-14,906	8,870	1391,356	737,089
-13,892	8,963	1390,189	736,871
-12,877	8,876	1389,673	736,167
-11,863	8,917	1388,705	735,814
-10,848	8,871	1387,774	735,082
-9,833	8,819	1387,019	734,409
-8,819	8,793	1386,023	733,735
-7,804	8,746	1385,230	733,072
-6,790	8,760	1384,101	732,507
-5,775	8,777	1383,173	732,066
-4,760	8,821	1382,007	731,620
-3,746	8,834	1381,062	731,153
-2,731	8,783	1380,535	730,608
-1,717	8,809	1379,474	730,137
-0,702	8,788	1377,940	729,204
0,313	12,838	1289,582	700,831
1,327	28,781	682,249	406,532
2,342	44,657	117,454	76,007
3,356	-2,159	16,577	8,177
4,371	-0,385	3,761	1,877
5,386	16,191	1,331	0,738
6,400	-200,000	0,137	0,645
7,415	-176,422	-0,236	-0,004
8,429	-17,462	-0,230	-0,101
9,444	31,522	-0,317	-0,191
10,459	330,504	-0,128	-0,174
11,473	-86,825	-0,274	-0,058
12,488	94,394	-0,343	-0,274
13,502	73,663	-0,345	-0,254
14,517	22,802	-0,253	-0,145
15,531	-15,079	-0,453	-0,204
16,546	165,751	-0,231	-0,230
17,561	303,967	-0,299	-0,391
18,575	371,368	-0,110	-0,158
19,590	398,409	-0,154	-0,227
20,604	-127,546	-0,254	0,026
21,619	20,033	-0,453	-0,256
22,634	592,599	-0,236	-0,411
23,648	75,895	-0,436	-0,324
24,663	279,907	-0,298	-0,375
25,677	441,082	-0,197	-0,305
26,692	185,545	-0,298	-0,311
27,707	-76,731	-0,480	-0,117
28,721	137,374	-0,351	-0,323
29,736	30,963	-0,486	-0,292
30,750	206,293	-0,304	-0,333
31,765	5,578	-0,327	-0,170
32,780	347,599	-0,252	-0,350
33,794	49,615	-0,383	-0,253
34,809	101,814	-0,278	-0,228
35,823	39,677	-0,376	-0,237
36,838	74,364	-0,386	-0,285
37,853	-4,817	-0,491	-0,237
38,867	108,362	-0,380	-0,319
39,882	122,705	-0,253	-0,222
40,896	84,330	-0,443	-0,340
41,911	-50,213	-0,320	-0,106
42,926	204,977	-0,335	-0,366
43,940	145,974	-0,271	-0,255
44,955	252,420	-0,284	-0,341
45,969	146,940	-0,433	-0,409
46,984	128,425	-0,288	-0,258
47,999	128,800	-0,238	-0,213
49,013	14,745	-0,404	-0,221
50,028	108,405	-0,333	-0,279
51,042	16,994	-0,452	-0,251
52,057	199,192	-0,291	-0,313
53,071	16,547	-0,360	-0,199
54,086	31,073	-0,293	-0,176
55,101	-25,556	-0,432	-0,178
56,115	111,856	-0,219	-0,186
57,130	56,806	-0,276	-0,188
58,144	114,147	-0,323	-0,276
59,159	64,757	-0,293	-0,207
60,174	22,363	-0,434	-0,248
61,188	119,105	-0,324	-0,281
62,203	-89,910	-0,327	-0,066
63,217	69,252	-0,212	-0,153
64,232	-92,723	-0,323	-0,063
65,247	-116,674	-0,306	-0,039
66,261	122,807	-0,258	-0,226
67,276	184,569	-0,268	-0,279
68,290	159,226	-0,247	-0,241
69,305	519,890	-0,148	-0,245
70,320	304,669	-0,208	-0,272
71,334	58,319	-0,371	-0,254
72,349	96,636	-0,351	-0,282
73,363	-44,088	-0,455	-0,159
74,378	61,884	-0,316	-0,220
75,393	10,000	-0,344	-0,182
76,407	-16,544	-0,350	-0,155
77,422	8,329	-0,280	-0,147
78,436	-19,319	-0,328	-0,142
79,451	111,108	-0,200	-0,169
80,466	116,281	-0,248	-0,213
81,480	526,594	-0,122	-0,202
82,495	14,827	-0,260	-0,142
83,509	97,162	-0,264	-0,212
84,524	-60,533	-0,297	-0,088
85,539	-38,439	-0,355	-0,131
86,553	38,486	-0,267	-0,166
87,568	34,388	-0,249	-0,151
88,582	329,548	-0,150	-0,202
89,597	-99,409	-0,339	-0,059
90,611	-130,784	-0,257	-0,024
91,626	65,147	-0,188	-0,133
92,641	74,157	-0,269	-0,197
93,655	164,303	-0,244	-0,241
94,670	39,646	-0,185	-0,116
95,684	173,499	-0,206	-0,208
96,699	46,358	-0,320	-0,207
97,714	83,989	-0,276	-0,210
98,728	392,078	-0,148	-0,215
99,743	257,338	-0,164	-0,198
100,757	800,000	-0,094	-0,207
101,772	55,300	-0,362	-0,244
102,787	325,903	-0,191	-0,256
103,801	-22,355	-0,397	-0,167
104,816	55,274	-0,204	-0,138
105,830	-148,944	-0,352	-0,020
106,845	197,739	-0,161	-0,172
107,860	60,432	-0,310	-0,214
108,874	58,089	-0,291	-0,199
109,889	243,705	-0,172	-0,201
110,903	-9,408	-0,382	-0,178
111,918	98,241	-0,289	-0,232
112,933	21,917	-0,155	-0,088
113,947	307,049	-0,123	-0,161
114,962	74,533	-0,204	-0,150
115,976	48,603	-0,206	-0,135
116,991	-53,020	-0,314	-0,100
118,006	86,888	-0,261	-0,201
119,020	104,586	-0,268	-0,221
120,035	69,724	-0,289	-0,207
121,049	85,578	-0,114	-0,087
122,064	194,341	-0,150	-0,158
123,079	158,934	-0,215	-0,209
124,093	104,643	-0,253	-0,208
125,108	280,925	-0,158	-0,198
126,122	-111,248	-0,185	-0,026
127,137	-67,687	-0,221	-0,060
128,151	234,997	-0,162	-0,187
129,166	22,987	-0,261	-0,149
130,181	-73,712	-0,258	-0,065
131,195	67,760	-0,210	-0,149
132,210	54,283	-0,269	-0,181
133,224	170,037	-0,183	-0,182
134,239	119,507	-0,206	-0,177
135,254	-44,058	-0,190	-0,066
136,268	106,989	-0,128	-0,106
137,283	329,595	-0,174	-0,234
138,297	235,319	-0,196	-0,226
139,312	-29,246	-0,337	-0,134
140,327	105,666	-0,248	-0,204
141,341	-58,621	-0,194	-0,058
142,356	800,000	-0,121	-0,277
143,370	-33,859	-0,279	-0,106
144,385	60,608	-0,307	-0,211
145,400	175,134	-0,201	-0,203
146,414	164,300	-0,318	-0,313
147,429	68,458	-0,216	-0,154
148,443	-110,092	-0,223	-0,032
149,458	-77,588	-0,155	-0,037
150,473	176,540	-0,189	-0,191
151,487	113,319	-0,200	-0,169
152,502	104,667	-0,432	-0,354
153,516	-200,000	-0,097	-0,359
154,531	30,608	-0,345	-0,205
155,546	-51,029	-0,142	-0,046
156,560	61,787	-0,194	-0,134
157,575	-160,272	-0,199	0,007
158,589	162,130	-0,236	-0,230
159,604	39,185	-0,143	-0,089
160,619	-5,835	-0,259	-0,123
161,633	-46,474	-0,297	-0,101
162,648	160,819	-0,142	-0,138
163,662	-17,005	-0,253	-0,111
164,677	200,288	-0,159	-0,170
165,692	-53,362	-0,219	-0,069
166,706	63,267	-0,308	-0,214
167,721	36,721	-0,171	-0,105
168,735	97,962	-0,251	-0,200
169,750	-20,846	-0,260	-0,110
170,764	329,579	-0,199	-0,266
171,779	42,616	-0,321	-0,202
172,794	-98,515	-0,236	-0,041
173,808	800,000	-0,160	-0,317
174,823	800,000	-0,125	-0,250
175,837	134,091	-0,232	-0,209
176,852	29,295	-0,218	-0,128
177,867	42,800	-0,121	-0,076
178,881	-8,715	-0,270	-0,125
179,896	0,080	-0,169	-0,083
180,910	135,027	-0,262	-0,236
181,925	27,507	-0,244	-0,142
182,940	800,000	-0,060	-0,134
183,954	-94,748	-0,189	-0,035
184,969	84,292	-0,168	-0,127
185,983	-88,635	-0,144	-0,030
186,998	201,475	-0,221	-0,236
188,013	375,308	-0,117	-0,166
189,027	78,421	-0,244	-0,181
190,042	800,000	-0,136	-0,296
191,056	261,916	-0,257	-0,310
192,071	171,742	-0,208	-0,207
193,086	-137,369	-0,089	0,007
194,100	68,089	-0,218	-0,154
195,115	247,789	-0,157	-0,184
196,129	94,945	-0,194	-0,153
197,144	800,000	-0,102	-0,214
198,159	90,963	-0,231	-0,180
199,173	731,202	-0,147	-0,273
200,188	143,263	-0,125	-0,116
201,202	474,770	-0,125	-0,196
202,217	-3,010	-0,227	-0,109
203,232	591,021	-0,115	-0,198
204,246	30,158	-0,202	-0,119
205,261	520,295	-0,077	-0,125
206,275	-57,102	-0,179	-0,054
207,290	800,000	-0,075	-0,185
208,304	361,649	-0,127	-0,176
209,319	397,552	-0,141	-0,205
210,334	-0,749	-0,236	-0,115
211,348	89,013	-0,245	-0,189
212,363	79,231	-0,200	-0,148
213,377	800,000	-0,097	-0,287
214,392	-71,514	-0,190	-0,049
215,407	107,242	-0,157	-0,129
216,421	101,367	-0,150	-0,121
217,436	120,509	-0,138	-0,119
218,450	-12,669	-0,280	-0,126
219,465	-98,793	-0,223	-0,039
220,480	-134,374	-0,195	-0,016
221,494	96,266	-0,170	-0,134
222,509	128,225	-0,177	-0,156
223,523	800,000	-0,105	-0,224
224,538	706,719	-0,045	-0,082
225,553	126,763	-0,180	-0,158
226,567	84,716	-0,075	-0,056
227,582	190,038	-0,183	-0,190
228,596	-10,329	-0,151	-0,069
229,611	331,816	-0,088	-0,118
230,626	111,200	-0,166	-0,138
231,640	-142,988	-0,284	0,019
232,655	331,169	-0,195	-0,260
233,669	0,422	-0,306	-0,150
234,684	800,000	-0,089	-0,206
235,699	151,988	-0,161	-0,152
236,713	800,000	-0,049	-0,136
237,728	47,437	-0,156	-0,100
238,742	-55,972	-0,152	-0,047
239,757	110,260	-0,193	-0,160
240,772	80,410	-0,150	-0,112
241,786	663,921	-0,115	-0,207
242,801	-92,969	-0,244	-0,047
243,815	-27,093	-0,171	-0,069
244,830	112,222	-0,186	-0,155
245,844	211,818	-0,235	-0,255
246,859	326,089	-0,110	-0,145
247,874	-200,000	-0,077	-0,245
248,888	800,000	-0,068	-0,181
249,903	263,772	-0,225	-0,270
250,917	-200,000	-0,006	-0,102
251,932	96,871	-0,192	-0,151
252,947	192,574	-0,098	-0,102
253,961	633,725	-0,172	-0,303
254,976	93,888	-0,261	-0,204
255,990	199,302	-0,146	-0,154
257,005	41,694	-0,140	-0,087
258,020	432,322	-0,120	-0,180
259,034	-124,740	-0,173	-0,018
260,049	33,506	-0,179	-0,107
261,063	182,955	-0,109	-0,111
262,078	153,939	-0,114	-0,108
263,093	409,427	-0,176	-0,258
264,107	-83,417	-0,122	-0,027
265,122	7,332	-0,212	-0,109
266,136	-54,627	-0,129	0,040
267,151	-93,737	-0,153	-0,029
268,166	-7,133	-0,226	-0,105
269,180	234,730	-0,224	-0,255
270,195	197,744	-0,232	-0,245
271,209	139,735	-0,144	-0,131
272,224	-138,162	-0,142	0,011
273,239	552,241	-0,049	-0,081
274,253	-200,000	-0,050	-0,192
275,268	-74,414	-0,164	0,040
276,282	70,354	-0,154	-0,110
277,297	171,058	-0,174	-0,172
278,312	-47,758	-0,197	-0,065
279,326	800,000	-0,070	-0,205
280,341	-91,666	-0,075	0,014
281,355	204,833	-0,085	-0,090
282,370	143,613	-0,137	-0,126
283,384	-47,533	-0,203	-0,067
284,399	353,079	-0,182	-0,249
285,414	-200,000	-0,040	-0,135
286,428	-13,930	-0,114	-0,051
287,443	88,827	-0,070	-0,053
288,457	230,887	-0,126	-0,143
289,472	800,000	-0,065	-0,154
290,487	-97,419	-0,241	-0,043
291,501	-21,095	-0,340	-0,143
292,516	209,323	-0,199	-0,214
293,530	800,000	-0,026	-0,063
294,545	288,272	-0,044	0,055
295,560	-42,240	-0,202	0,071
296,574	-27,376	-0,149	-0,059
297,589	-0,012	-0,145	-0,071
298,603	766,236	-0,115	-0,215
299,618	154,241	-0,177	-0,166
300,633	30,438	-0,207	-0,121
301,647	13,070	-0,116	-0,062
302,662	430,254	-0,090	-0,135
303,676	6,215	-0,201	-0,102
304,691	-125,498	-0,225	-0,023
305,706	17,125	-0,211	-0,115
306,720	-200,000	0,010	-0,188
307,735	800,000	-0,018	-0,050
308,749	-168,513	-0,134	-0,003
309,764	140,999	-0,111	-0,101
310,779	39,815	-0,195	-0,120
311,793	-127,655	-0,173	0,017
312,808	-4,545	-0,201	-0,095
313,822	800,000	-0,038	-0,101
314,837	800,000	-0,104	-0,256
315,852	155,190	-0,063	0,059
316,866	-91,587	-0,124	0,024
317,881	-102,740	-0,116	-0,019
318,895	-53,034	-0,186	-0,058
319,910	-34,734	-0,154	-0,058
320,925	-49,691	-0,144	-0,047
321,939	721,690	-0,092	-0,168
322,954	-48,691	-0,169	-0,055
323,968	-84,696	-0,120	-0,026
324,983	150,054	-0,094	-0,088
325,997	78,976	-0,130	0,095
327,012	-200,000	-0,032	-0,181
328,027	36,827	-0,150	-0,091
329,041	246,803	-0,089	-0,104
330,056	235,815	-0,107	-0,121
331,070	-129,068	0,051	-0,005
332,085	-31,932	-0,126	-0,048
333,100	163,159	-0,046	-0,044
334,114	597,818	-0,077	-0,131
335,129	-76,679	-0,112	0,027
336,143	110,888	-0,148	-0,122
337,158	41,676	-0,108	-0,067
338,173	-98,239	-0,036	0,006
339,187	134,115	-0,126	0,112
340,202	109,953	0,027	-0,023
341,216	578,093	-0,043	-0,072
342,231	-109,359	-0,217	-0,031
343,246	-95,490	-0,217	-0,039
344,260	-155,436	-0,174	0,008
345,275	170,875	-0,205	-0,201
346,289	426,642	-0,095	-0,141
347,304	-200,000	-0,112	0,000
348,319	154,415	-0,102	0,096
349,333	493,723	-0,091	-0,143
350,348	-37,138	-0,130	-0,048
351,362	75,298	-0,222	-0,160
352,377	-45,879	-0,138	0,046
353,392	-200,000	-0,026	-0,141
354,406	151,978	-0,122	-0,114
355,421	207,260	1306,392	1394,628
356,435	159,435	1466,068	1395,112
