DTS Sentinel unit serial number:	SN410029Multiplexer serial number:	ORYXHardware model number:	OX2-SRSoftware version number:	ORYX F/W v4,00 Oryx Data Collector v3.7.2.0data status	okinstallation	B3 Nyhavnadifferential loss correction	single-endedforward channel	channel 1reverse channel	N/Adate	2023/12/05time	00:32:30forward acquisition time	300,00reverse acquisition time	0,00gamma	499,1914k internal	0,3200k external	0,3200temperature offset calibration	1,0000default loss term (dB/km)	0,3820temperature slope calibration	1,0000multiplexer offset coefficient	1,0000multiplexer slope coefficient	1,0000fibre end	0,00T internal ref (°C)	13,86T ext. ref 1 (°C)	-1,25T ext. ref 2 (°C)	-1,28length (m)	temperature (°C)	Stokes	anti-Stokes-744,400	271,590	-0,195	-0,250
-743,385	800,000	-0,093	0,270
-742,371	800,000	-0,100	-0,206
-741,356	800,000	0,094	0,281
-740,342	707,851	-0,151	-0,292
-739,327	800,000	0,123	0,309
-738,312	125,038	-0,198	-0,182
-737,298	-200,000	-0,080	0,350
-736,283	-200,000	-0,045	-0,193
-735,269	-200,000	0,030	0,306
-734,254	196,547	-0,096	-0,106
-733,239	-17,834	-0,183	0,083
-732,225	800,000	-0,073	-0,154
-731,210	-167,304	0,152	0,004
-730,196	800,000	-0,016	-0,034
-729,181	-147,925	-0,129	-0,008
-728,167	316,610	0,040	0,054
-727,152	-135,239	-0,124	-0,011
-726,137	88,273	-0,050	0,040
-725,123	800,000	-0,041	0,133
-724,108	172,994	0,024	-0,025
-723,094	69,860	-0,106	-0,079
-722,079	302,198	-0,155	-0,208
-721,064	-37,309	0,048	0,018
-720,050	-53,598	-0,149	0,049
-719,035	-200,000	-0,002	0,017
-718,021	581,563	-0,052	0,092
-717,006	129,001	-0,078	0,072
-715,991	-200,000	-0,050	-0,172
-714,977	602,227	-0,138	-0,250
-713,962	523,700	0,044	0,075
-712,948	-200,000	0,003	-0,048
-711,933	800,000	0,041	0,129
-710,918	112,262	0,022	0,019
-709,904	480,875	-0,044	-0,073
-708,889	-134,811	-0,107	-0,009
-707,875	-200,000	0,043	-0,243
-706,860	-118,002	-0,088	0,011
-705,845	800,000	-0,066	0,150
-704,831	-200,000	0,015	0,115
-703,816	23,439	-0,070	-0,042
-702,802	322,407	-0,131	0,181
-701,787	-63,614	-0,075	-0,022
-700,772	-36,433	0,025	-0,010
-699,758	-117,533	-0,049	-0,006
-698,743	206,224	0,115	0,130
-697,729	511,224	0,045	0,077
-696,714	204,728	0,027	0,031
-695,699	-7,998	-0,108	-0,053
-694,685	-200,000	-0,032	-0,113
-693,670	-134,665	-0,043	-0,004
-692,656	-200,000	-0,006	-0,048
-691,641	-6,776	-0,004	0,002
-690,627	-200,000	0,005	0,066
-689,612	-200,000	0,028	0,155
-688,597	-200,000	-0,020	0,082
-687,583	65,672	-0,014	0,010
-686,568	165,387	-0,056	0,057
-685,554	22,672	0,054	-0,032
-684,539	-141,680	0,119	0,009
-683,524	-6,566	-0,027	0,013
-682,510	-52,527	0,084	0,028
-681,495	-163,277	-0,148	-0,005
-680,481	113,769	-0,115	-0,101
-679,466	33,040	-0,145	-0,091
-678,451	-200,000	0,008	0,067
-677,437	-131,373	0,063	-0,006
-676,422	-86,302	0,140	-0,031
-675,408	122,264	0,074	0,067
-674,393	129,804	-0,053	0,049
-673,378	27,080	-0,069	-0,042
-672,364	-64,911	-0,192	-0,056
-671,349	800,000	-0,046	-0,104
-670,335	197,401	-0,042	-0,047
-669,320	231,480	-0,074	0,088
-668,305	-57,678	-0,039	0,012
-667,291	-46,254	-0,121	0,043
-666,276	61,152	-0,021	0,015
-665,262	74,109	-0,028	-0,021
-664,247	465,453	-0,022	0,036
-663,232	24,003	0,014	-0,008
-662,218	71,143	0,105	0,079
-661,203	71,662	0,110	0,083
-660,189	-200,000	-0,020	0,120
-659,174	46,674	-0,090	-0,060
-658,159	93,135	-0,070	-0,057
-657,145	800,000	-0,019	-0,043
-656,130	396,836	-0,137	-0,208
-655,116	-117,408	0,053	0,007
-654,101	524,031	0,072	0,123
-653,086	800,000	-0,029	-0,066
-652,072	-200,000	0,017	-0,096
-651,057	-200,000	-0,007	-0,070
-650,043	15,323	-0,069	0,039
-649,028	-200,000	-0,011	-0,097
-648,014	-200,000	0,000	-0,010
-646,999	-200,000	-0,022	0,110
-645,984	-200,000	-0,014	-0,081
-644,970	800,000	0,022	-0,044
-643,955	82,180	-0,087	-0,068
-642,941	-66,673	-0,080	0,023
-641,926	26,795	0,117	0,071
-640,911	100,189	-0,115	0,096
-639,897	800,000	-0,034	0,072
-638,882	-120,842	-0,043	0,005
-637,868	415,478	-0,079	-0,123
-636,853	-99,362	-0,080	-0,014
-635,838	-200,000	-0,005	-0,140
-634,824	239,960	0,049	-0,060
-633,809	800,000	0,016	-0,041
-632,795	-150,046	-0,076	0,004
-631,780	424,038	0,043	0,068
-630,765	717,130	-0,048	0,094
-629,751	800,000	-0,032	-0,067
-628,736	-24,114	-0,133	-0,057
-627,722	580,327	0,025	0,045
-626,707	190,727	0,114	-0,124
-625,692	-200,000	-0,003	-0,015
-624,678	569,264	-0,020	0,036
-623,663	-200,000	-0,008	0,049
-622,649	346,181	-0,127	-0,182
-621,634	-153,129	-0,142	-0,007
-620,619	-161,487	-0,091	-0,003
-619,605	209,062	0,032	-0,036
-618,590	-114,380	0,089	0,012
-617,576	-50,860	-0,076	-0,026
-616,561	-200,000	0,022	0,154
-615,546	-59,108	-0,052	0,016
-614,532	800,000	0,041	-0,091
-613,517	604,947	0,061	0,111
-612,503	-200,000	0,020	-0,073
-611,488	800,000	0,025	-0,069
-610,474	800,000	0,015	-0,049
-609,459	-200,000	0,035	0,144
-608,444	-44,932	-0,147	-0,053
-607,430	-200,000	-0,020	-0,071
-606,415	-200,000	0,002	-0,127
-605,401	474,605	-0,088	0,144
-604,386	-146,908	-0,074	0,005
-603,371	-165,349	0,054	0,002
-602,357	-27,911	-0,144	-0,060
-601,342	-200,000	0,013	-0,081
-600,328	800,000	-0,050	-0,113
-599,313	190,075	0,104	-0,113
-598,298	84,521	-0,085	-0,067
-597,284	649,317	0,041	-0,076
-596,269	108,254	0,131	0,113
-595,255	-200,000	0,008	0,027
-594,240	-41,273	-0,098	0,036
-593,225	-121,598	-0,065	0,008
-592,211	-8,702	-0,189	0,091
-591,196	-200,000	-0,053	-0,173
-590,182	-193,552	-0,123	-0,001
-589,167	-200,000	0,004	-0,079
-588,152	800,000	-0,032	-0,077
-587,138	77,722	-0,061	0,047
-586,123	-111,559	-0,111	0,016
-585,109	-159,585	0,081	-0,003
-584,094	-93,529	-0,067	-0,013
-583,079	511,637	0,101	0,170
-582,065	-200,000	0,004	0,025
-581,050	238,257	-0,061	0,073
-580,036	362,112	-0,062	0,091
-579,021	52,960	0,059	-0,040
-578,006	-200,000	0,007	0,049
-576,992	800,000	-0,061	-0,165
-575,977	253,979	-0,018	-0,022
-574,963	30,138	-0,023	-0,014
-573,948	1,708	0,093	-0,048
-572,934	53,556	-0,046	-0,032
-571,919	157,118	0,086	0,086
-570,904	59,830	-0,100	-0,071
-569,890	-200,000	-0,015	-0,048
-568,875	-200,000	0,000	0,024
-567,861	-85,910	-0,056	-0,012
-566,846	148,103	-0,041	-0,040
-565,831	800,000	0,015	0,035
-564,817	35,916	-0,049	-0,031
-563,802	314,468	-0,070	0,096
-562,788	-200,000	-0,010	-0,090
-561,773	2,509	0,027	-0,014
-560,758	-200,000	0,037	0,160
-559,744	-200,000	-0,032	0,113
-558,729	702,924	-0,079	0,150
-557,715	-58,084	0,046	0,014
-556,700	-106,901	0,022	0,003
-555,685	-65,861	-0,119	0,034
-554,671	-53,439	0,187	-0,061
-553,656	-200,000	-0,044	0,161
-552,642	151,219	0,140	0,138
-551,627	-200,000	-0,016	-0,053
-550,612	-200,000	-0,038	-0,130
-549,598	41,836	-0,072	0,047
-548,583	-168,348	0,069	-0,002
-547,569	582,573	-0,095	-0,169
-546,554	-200,000	0,023	0,099
-545,539	-200,000	0,043	0,139
-544,525	-88,278	0,063	0,014
-543,510	28,128	-0,052	0,032
-542,496	456,103	-0,051	-0,082
-541,481	-200,000	-0,011	0,055
-540,466	81,948	-0,125	0,098
-539,452	378,643	-0,022	0,032
-538,437	605,795	-0,011	0,020
-537,423	118,326	0,071	-0,063
-536,408	-69,020	-0,076	0,021
-535,393	-119,078	0,063	0,008
-534,379	302,433	-0,095	-0,127
-533,364	85,135	0,035	0,028
-532,350	-200,000	0,010	-0,070
-531,335	138,603	0,116	0,109
-530,321	-3,987	0,088	-0,044
-529,306	-59,546	-0,093	-0,029
-528,291	-200,000	0,000	-0,072
-527,277	85,661	0,051	-0,040
-526,262	-153,513	0,060	-0,003
-525,248	19,885	-0,123	-0,071
-524,233	200,707	0,034	0,038
-523,218	-100,042	0,023	0,004
-522,204	-116,963	0,044	0,006
-521,189	474,149	0,071	0,116
-520,175	272,353	-0,082	0,104
-519,160	132,030	-0,129	-0,120
-518,145	-200,000	0,014	-0,175
-517,131	-104,129	-0,141	-0,023
-516,116	322,259	0,016	-0,022
-515,102	100,994	0,082	0,069
-514,087	800,000	-0,022	0,050
-513,072	405,264	-0,011	-0,017
-512,058	-90,352	-0,158	-0,033
-511,043	95,076	-0,032	0,026
-510,029	549,530	-0,063	0,110
-509,014	124,427	-0,139	0,126
-507,999	-92,142	-0,196	0,040
-506,985	-92,019	-0,152	0,031
-505,970	-200,000	-0,005	0,055
-504,956	116,756	0,108	-0,095
-503,941	4,778	-0,066	-0,035
-502,926	448,643	-0,034	0,055
-501,912	340,445	-0,024	0,033
-500,897	-200,000	-0,006	-0,063
-499,883	365,447	-0,080	-0,117
-498,868	-200,000	-0,012	-0,127
-497,853	-200,000	-0,011	-0,048
-496,839	84,782	-0,123	-0,097
-495,824	259,772	0,033	0,042
-494,810	338,235	0,116	0,163
-493,795	-200,000	-0,018	0,101
-492,781	176,130	0,043	-0,045
-491,766	-200,000	-0,011	0,079
-490,751	-49,464	-0,137	-0,047
-489,737	-200,000	0,011	-0,106
-488,722	13,365	0,125	-0,070
-487,708	-200,000	0,018	0,108
-486,693	-10,275	0,069	-0,033
-485,678	-56,689	-0,053	0,017
-484,664	86,873	-0,070	-0,056
-483,649	-97,276	-0,119	-0,022
-482,635	-200,000	-0,021	-0,097
-481,620	-28,904	0,052	0,021
-480,605	309,124	0,048	0,065
-479,591	-89,992	0,115	-0,024
-478,576	-131,603	-0,052	0,005
-477,562	800,000	-0,090	-0,209
-476,547	-142,608	0,070	0,005
-475,532	144,576	-0,047	-0,045
-474,518	-200,000	-0,002	0,014
-473,503	-118,416	0,090	0,011
-472,489	-200,000	0,006	0,034
-471,474	-200,000	0,006	0,055
-470,459	485,329	0,086	0,141
-469,445	-47,830	0,023	0,008
-468,430	525,565	0,028	0,048
-467,416	197,890	0,092	-0,101
-466,401	-43,815	0,096	0,035
-465,386	35,578	-0,091	0,057
-464,372	-104,113	0,067	0,011
-463,357	800,000	-0,056	-0,112
-462,343	-55,155	0,046	0,015
-461,328	91,934	-0,061	0,050
-460,313	-96,284	-0,051	0,010
-459,299	-200,000	-0,001	0,029
-458,284	-8,306	0,041	-0,020
-457,270	800,000	0,017	-0,035
-456,255	-46,254	0,045	0,016
-455,241	-145,892	0,068	0,004
-454,226	220,194	-0,060	0,070
-453,211	617,010	-0,044	0,080
-452,197	43,239	-0,066	0,043
-451,182	-94,069	0,106	-0,021
-450,168	-200,000	-0,004	0,046
-449,153	-200,000	-0,013	-0,051
-448,138	-46,974	-0,146	-0,051
-447,124	-200,000	0,015	-0,175
-446,109	28,010	0,071	-0,043
-445,095	531,745	0,073	0,125
-444,080	-200,000	-0,047	0,000
-443,065	62,633	0,069	-0,049
-442,051	-200,000	0,001	-0,023
-441,036	67,375	0,027	-0,019
-440,022	157,688	-0,031	-0,031
-439,007	521,672	0,105	-0,178
-437,992	681,313	-0,012	0,023
-436,978	45,915	0,054	-0,036
-435,963	632,870	-0,016	-0,029
-434,949	293,820	-0,030	-0,039
-433,934	131,890	-0,043	-0,040
-432,919	266,626	-0,076	-0,095
-431,905	332,807	0,105	-0,146
-430,890	78,559	0,025	0,019
-429,876	343,044	0,080	0,113
-428,861	-89,160	-0,098	-0,021
-427,846	800,000	-0,075	-0,157
-426,832	-81,844	0,060	0,014
-425,817	-200,000	0,020	-0,113
-424,803	-200,000	0,014	0,068
-423,788	266,288	-0,037	0,047
-422,773	496,330	0,065	0,108
-421,759	-77,248	0,037	0,009
-420,744	154,681	-0,071	0,070
-419,730	-0,394	0,134	-0,068
-418,715	-115,154	-0,077	0,010
-417,701	-200,000	-0,017	-0,059
-416,686	-0,435	0,049	-0,025
-415,671	-117,836	0,060	0,008
-414,657	-94,697	-0,114	0,022
-413,642	800,000	0,019	0,055
-412,628	800,000	-0,026	0,062
-411,613	362,004	-0,128	-0,185
-410,598	263,465	-0,045	-0,056
-409,584	72,645	-0,054	0,041
-408,569	-200,000	0,020	0,119
-407,555	800,000	0,004	-0,012
-406,540	166,471	-0,087	0,088
-405,525	-200,000	0,048	0,177
-404,511	-80,000	-0,226	-0,054
-403,496	446,800	0,035	0,056
-402,482	-200,000	0,012	-0,135
-401,467	-49,047	-0,029	-0,010
-400,452	-109,038	0,095	-0,014
-399,438	60,328	-0,088	0,063
-398,423	-200,000	0,037	-0,171
-397,409	539,178	0,021	-0,036
-396,394	-200,000	0,048	0,165
-395,379	45,318	0,048	-0,031
-394,365	-22,615	0,161	0,069
-393,350	-133,879	0,075	-0,007
-392,336	30,810	-0,034	0,021
-391,321	-40,916	0,106	0,039
-390,306	-200,000	-0,010	-0,116
-389,292	-85,395	0,001	0,000
-388,277	-51,753	0,066	-0,022
-387,263	-144,560	0,104	0,007
-386,248	-15,299	-0,056	-0,026
-385,233	-200,000	0,000	0,026
-384,219	156,420	0,102	0,102
-383,204	1,955	-0,042	0,022
-382,190	190,738	-0,073	-0,079
-381,175	-95,415	0,027	0,005
-380,160	11,017	0,046	0,025
-379,146	-200,000	0,030	0,128
-378,131	-86,971	-0,121	-0,026
-377,117	407,906	-0,028	-0,043
-376,102	291,582	0,018	0,023
-375,088	158,887	-0,028	0,028
-374,073	340,691	0,036	-0,051
-373,058	8,227	0,085	-0,046
-372,044	-200,000	0,008	0,040
-371,029	-98,311	0,118	0,022
-370,015	247,991	-0,035	-0,043
-369,000	-200,000	-0,024	0,083
-367,985	800,000	-0,043	-0,128
-366,971	6,285	0,053	-0,028
-365,956	-111,096	-0,110	0,016
-364,942	756,176	0,120	0,234
-363,927	383,731	0,086	0,127
-362,912	-200,000	0,015	0,079
-361,898	223,226	0,083	-0,096
-360,883	-200,000	0,019	-0,117
-359,869	230,366	-0,005	0,006
-358,854	71,580	0,169	-0,126
-357,839	-151,980	0,198	-0,010
-356,825	99,096	0,071	0,059
-355,810	800,000	-0,048	-0,114
-354,796	43,771	-0,028	-0,018
-353,781	800,000	0,046	-0,117
-352,766	-122,042	-0,188	-0,022
-351,752	66,632	0,030	-0,022
-350,737	-16,690	0,124	-0,056
-349,723	-200,000	0,027	0,155
-348,708	-25,397	0,073	0,031
-347,693	-97,278	-0,140	-0,026
-346,679	-200,000	-0,010	-0,123
-345,664	-200,000	0,021	-0,097
-344,650	-200,000	-0,016	-0,148
-343,635	-200,000	0,009	-0,064
-342,620	-200,000	-0,019	0,081
-341,606	478,510	0,112	0,182
-340,591	-200,000	0,013	0,063
-339,577	-200,000	-0,022	-0,107
-338,562	98,691	0,037	-0,030
-337,548	-200,000	-0,010	0,039
-336,533	-139,613	0,122	-0,009
-335,518	-200,000	0,016	0,061
-334,504	-200,000	0,007	0,049
-333,489	153,730	0,052	-0,051
-332,475	-5,128	0,132	-0,065
-331,460	-150,164	-0,040	-0,002
-330,445	-19,980	-0,061	-0,027
-329,431	-9,242	-0,134	0,064
-328,416	130,505	0,059	-0,054
-327,402	39,467	0,162	0,104
-326,387	580,448	0,044	-0,077
-325,372	515,972	0,094	-0,157
-324,358	81,869	0,076	-0,059
-323,343	87,911	-0,054	-0,043
-322,329	707,268	0,055	-0,104
-321,314	89,505	0,112	0,090
-320,299	46,671	-0,079	0,053
-319,285	-177,755	-0,022	-0,000
-318,270	-200,000	-0,025	-0,164
-317,256	126,340	0,036	0,033
-316,241	-200,000	0,000	-0,116
-315,226	-200,000	-0,026	-0,084
-314,212	-86,718	0,041	-0,009
-313,197	-125,478	0,193	0,021
-312,183	15,829	0,047	0,026
-311,168	-200,000	-0,023	0,127
-310,153	-200,000	0,013	0,089
-309,139	-1,946	0,163	-0,082
-308,124	4,953	0,102	-0,054
-307,110	293,027	0,003	0,004
-306,095	-200,000	-0,019	0,067
-305,080	-200,000	-0,001	0,055
-304,066	800,000	-0,071	-0,162
-303,051	179,264	-0,068	-0,071
-302,037	-200,000	0,021	0,080
-301,022	163,419	0,021	-0,021
-300,008	139,553	0,091	0,086
-298,993	287,054	-0,086	0,111
-297,978	-200,000	-0,004	0,037
-296,964	4,637	0,043	-0,023
-295,949	-74,645	0,094	0,024
-294,935	-49,111	-0,080	0,027
-293,920	156,439	-0,015	0,015
-292,905	-6,728	0,114	-0,055
-291,891	-117,523	-0,011	0,001
-290,876	369,364	0,067	0,097
-289,862	-3,528	-0,138	0,068
-288,847	800,000	0,023	0,057
-287,832	-200,000	-0,053	-0,197
-286,818	35,309	0,064	0,040
-285,803	131,953	-0,077	-0,071
-284,789	4,108	0,134	0,070
-283,774	264,238	-0,014	-0,017
-282,759	165,628	-0,045	-0,046
-281,745	3,037	-0,107	-0,055
-280,730	-200,000	-0,029	-0,102
-279,716	720,074	0,067	-0,129
-278,701	-108,775	-0,075	-0,011
-277,686	-200,000	0,006	0,179
-276,672	-21,964	-0,120	-0,052
-275,657	726,001	-0,017	0,033
-274,643	-8,986	0,121	-0,057
-273,628	31,070	0,025	-0,015
-272,613	496,850	-0,045	0,075
-271,599	339,008	0,098	0,137
-270,584	540,977	0,080	0,136
-269,570	536,126	0,079	0,135
-268,555	560,554	0,046	0,079
-267,540	-12,834	0,075	0,035
-266,526	-168,124	-0,018	-0,000
-265,511	0,367	-0,052	-0,026
-264,497	-105,773	0,043	-0,007
-263,482	-190,697	0,250	0,002
-262,467	728,825	-0,054	-0,103
-261,453	191,455	0,100	-0,108
-260,438	-200,000	-0,024	-0,184
-259,424	61,802	-0,053	-0,038
-258,409	60,555	-0,058	0,041
-257,395	-134,846	0,138	-0,012
-256,380	777,353	0,013	-0,026
-255,365	-127,346	0,173	0,018
-254,351	800,000	-0,048	0,104
-253,336	332,344	-0,029	0,040
-252,322	598,695	0,025	-0,044
-251,307	800,000	0,028	-0,076
-250,292	92,104	0,071	0,057
-249,278	-200,000	-0,038	0,159
-248,263	800,000	0,041	0,087
-247,249	266,512	0,068	0,085
-246,234	-105,726	-0,047	-0,007
-245,219	-69,545	0,056	0,015
-244,205	-200,000	0,001	0,052
-243,190	-57,820	0,116	0,036
-242,176	680,339	0,010	-0,020
-241,161	-153,693	-0,074	0,004
-240,146	-200,000	-0,009	-0,083
-239,132	88,574	-0,070	0,055
-238,117	800,000	-0,030	0,074
-237,103	-120,980	-0,109	0,013
-236,088	316,029	-0,046	0,062
-235,073	554,653	0,017	0,030
-234,059	435,240	0,043	-0,067
-233,044	-200,000	-0,001	-0,047
-232,030	800,000	0,014	0,032
-231,015	800,000	-0,066	-0,152
-230,000	693,339	0,025	-0,047
-228,986	-200,000	0,009	-0,042
-227,971	-36,023	-0,080	0,031
-226,957	-7,318	0,029	0,014
-225,942	-51,067	0,213	-0,071
-224,927	278,878	-0,072	-0,092
-223,913	800,000	0,018	-0,036
-222,898	71,748	-0,103	-0,076
-221,884	78,476	-0,053	-0,040
-220,869	-30,372	0,058	-0,023
-219,855	-200,000	-0,001	0,051
-218,840	800,000	0,084	0,168
-217,825	800,000	-0,060	0,175
-216,811	1,434	0,115	0,059
-215,796	-200,000	0,010	-0,086
-214,782	290,313	-0,072	-0,093
-213,767	800,000	-0,030	0,092
-212,752	-192,581	-0,065	-0,000
-211,738	-200,000	0,004	0,031
-210,723	-200,000	-0,019	0,111
-209,709	-200,000	0,011	0,067
-208,694	-84,756	-0,067	0,015
-207,679	-200,000	0,007	-0,031
-206,665	-157,069	-0,033	0,001
-205,650	-200,000	0,022	-0,101
-204,636	219,888	0,075	0,086
-203,621	-58,853	0,113	0,035
-202,606	26,654	-0,055	0,033
-201,592	-41,455	-0,154	-0,056
-200,577	800,000	-0,038	0,090
-199,563	388,164	-0,053	-0,078
-198,548	-200,000	-0,007	0,057
-197,533	489,587	0,045	0,073
-196,519	800,000	-0,044	0,100
-195,504	-200,000	0,000	0,042
-194,490	47,474	-0,020	-0,013
-193,475	-200,000	0,046	0,147
-192,460	82,735	0,088	-0,068
-191,446	-200,000	0,020	0,074
-190,431	146,701	0,056	0,053
-189,417	304,473	0,068	-0,090
-188,402	164,661	0,038	-0,038
-187,387	71,588	-0,058	-0,043
-186,373	-200,000	0,002	0,067
-185,358	66,243	-0,100	0,072
-184,344	57,721	0,103	0,071
-183,329	-200,000	-0,013	0,084
-182,315	-200,000	0,010	-0,085
-181,300	569,814	-0,061	0,106
-180,285	-134,989	-0,088	0,007
-179,271	800,000	-0,020	0,043
-178,256	-200,000	0,006	0,029
-177,242	800,000	-0,043	0,086
-176,227	101,983	0,022	0,018
-175,212	309,152	0,062	-0,083
-174,198	-85,371	-0,039	-0,009
-173,183	82,119	-0,009	0,007
-172,169	-200,000	0,003	-0,011
-171,154	-200,000	-0,000	-0,010
-170,139	214,814	-0,048	-0,055
-169,125	-200,000	-0,006	0,246
-168,110	-200,000	-0,006	0,056
-167,096	751,645	0,074	-0,142
-166,081	607,626	-0,146	-0,260
-165,066	-51,518	0,045	-0,015
-164,052	-200,000	0,002	0,131
-163,037	-140,840	-0,078	-0,006
-162,023	-48,029	-0,032	0,011
-161,008	-149,038	-0,099	-0,006
-159,993	800,000	0,076	-0,153
-158,979	-95,091	-0,076	-0,015
-157,964	800,000	0,018	0,045
-156,950	43,806	0,092	0,060
-155,935	-81,434	0,063	0,015
-154,920	-200,000	0,005	0,066
-153,906	229,102	0,037	0,043
-152,891	-200,000	-0,032	0,176
-151,877	409,419	-0,142	0,215
-150,862	-200,000	-0,033	-0,149
-149,847	-31,902	-0,085	-0,034
-148,833	454,587	0,034	0,054
-147,818	-68,362	0,055	0,015
-146,804	56,746	-0,107	0,074
-145,789	164,534	-0,071	-0,071
-144,775	-114,545	0,125	0,017
-143,760	-35,769	-0,102	0,039
-142,745	-76,818	-0,075	-0,019
-141,731	800,000	0,038	0,101
-140,716	-23,483	-0,014	0,006
-139,702	69,674	0,016	-0,012
-138,687	161,710	-0,028	0,028
-137,672	87,270	0,081	0,064
-136,658	-190,807	-0,023	0,000
-135,643	452,681	-0,024	0,037
-134,629	-78,522	0,066	-0,016
-133,614	800,000	0,018	0,045
-132,599	800,000	-0,029	0,065
-131,585	-116,493	-0,047	-0,006
-130,570	-114,612	-0,098	0,013
-129,556	249,468	0,066	0,080
-128,541	-162,737	-0,125	-0,004
-127,526	800,000	0,017	-0,040
-126,512	-200,000	-0,003	0,068
-125,497	-133,081	-0,021	-0,002
-124,483	800,000	0,023	0,067
-123,468	800,000	-0,016	0,039
-122,453	193,678	-0,120	-0,129
-121,439	1,963	0,074	-0,038
-120,424	8,814	0,124	-0,066
-119,410	800,000	0,009	0,027
-118,395	-200,000	0,019	-0,068
-117,380	800,000	-0,030	0,072
-116,366	289,180	-0,037	-0,048
-115,351	800,000	-0,045	-0,119
-114,337	-44,608	0,006	0,002
-113,322	721,745	-0,047	-0,090
-112,307	-200,000	0,017	-0,131
-111,293	111,190	0,085	0,073
-110,278	-81,532	-0,050	-0,011
-109,264	-48,535	0,032	-0,011
-108,249	-11,856	-0,062	0,029
-107,234	-159,585	-0,039	-0,001
-106,220	394,798	0,036	0,053
-105,205	469,267	0,068	0,109
-104,191	-171,948	0,055	-0,001
-103,176	-39,670	0,116	0,043
-102,162	18,418	-0,107	-0,060
-101,147	-94,507	0,089	-0,017
-100,132	-8,154	-0,131	-0,062
-99,118	-200,000	-0,012	0,054
-98,103	-200,000	0,001	0,024
-97,089	-200,000	-0,006	-0,020
-96,074	28,231	0,050	-0,030
-95,059	-200,000	-0,019	0,070
-94,045	-132,025	-0,061	-0,006
-93,030	-200,000	0,016	-0,074
-92,016	658,693	-0,110	-0,201
-91,001	-98,888	-0,175	0,031
-89,986	387,524	0,047	0,070
-88,972	458,054	0,016	0,025
-87,957	-53,844	0,062	0,020
-86,943	463,264	0,036	-0,057
-85,928	800,000	0,033	-0,071
-84,913	-200,000	0,030	-0,112
-83,899	-200,000	-0,003	0,072
-82,884	449,266	-0,122	0,191
-81,870	800,000	0,014	-0,043
-80,855	-58,266	-0,014	0,004
-79,840	47,873	0,140	-0,092
-78,826	-67,062	-0,115	0,032
-77,811	-200,000	0,010	-0,063
-76,797	-64,263	0,110	-0,032
-75,782	149,876	-0,012	-0,012
-74,767	-53,151	0,072	-0,023
-73,753	-179,267	0,249	-0,004
-72,738	542,582	-0,126	0,213
-71,724	311,845	0,024	0,033
-70,709	-93,519	0,176	0,034
-69,694	167,290	0,033	-0,033
-68,680	-200,000	-0,015	-0,079
-67,665	300,875	0,101	0,132
-66,651	800,000	0,015	-0,031
-65,636	-200,000	-0,023	-0,074
-64,622	233,238	-0,096	0,113
-63,607	-200,000	0,010	-0,102
-62,592	-99,107	0,113	0,020
-61,578	-200,000	-0,017	0,130
-60,563	0,974	-0,047	0,024
-59,549	-200,000	0,028	0,199
-58,534	-30,283	-1,649	-0,660
-57,519	507,632	-1,235	-2,038
-56,505	-200,000	-0,610	-4,608
-55,490	190,028	0,942	1,002
-54,476	800,000	4,914	11,323
-53,461	-200,000	19,128	313,527
-52,446	-200,000	739,072	2324,243
-51,432	575,210	1655,439	2873,373
-50,417	79,107	1671,991	1267,050
-49,403	21,909	1544,357	889,169
-48,388	15,703	1467,184	814,552
-47,373	17,875	1457,203	819,480
-46,359	16,839	1447,195	808,847
-45,344	14,010	1442,592	792,684
-44,330	13,876	1440,836	791,043
-43,315	13,886	1438,910	790,005
-42,300	13,906	1437,344	789,211
-41,286	13,929	1436,008	788,556
-40,271	13,917	1434,732	787,765
-39,257	13,887	1433,552	786,942
-38,242	13,935	1432,326	786,469
-37,227	13,946	1431,321	785,937
-36,213	14,006	1429,769	785,336
-35,198	13,996	1428,343	784,476
-34,184	13,972	1427,699	783,979
-33,169	13,920	1426,440	783,008
-32,154	14,026	1425,051	782,715
-31,140	13,973	1424,010	781,862
-30,125	14,013	1422,770	781,342
-29,111	13,944	1421,750	780,422
-28,096	13,917	1420,732	779,704
-27,082	13,942	1419,496	779,117
-26,067	13,865	1418,389	778,115
-25,052	13,899	1417,220	777,604
-24,038	13,907	1416,180	777,036
-23,023	13,896	1415,242	776,439
-22,009	13,890	1414,538	775,994
-20,994	13,839	1413,529	775,173
-19,979	13,821	1412,777	774,643
-18,965	13,806	1411,701	773,951
-17,950	13,828	1410,725	773,491
-16,936	13,849	1409,759	773,026
-15,921	13,766	1408,713	772,034
-14,906	13,761	1407,825	771,496
-13,892	13,807	1406,802	771,119
-12,877	13,794	1406,146	770,667
-11,863	13,777	1405,188	770,034
-10,848	13,747	1404,070	769,248
-9,833	13,764	1403,207	768,825
-8,819	13,721	1402,530	768,225
-7,804	13,718	1401,481	767,603
-6,790	13,694	1400,489	766,920
-5,775	13,738	1399,278	766,431
-4,760	13,697	1398,412	765,734
-3,746	13,660	1397,761	765,176
-2,731	13,672	1396,887	764,723
-1,717	13,701	1395,824	764,245
-0,702	13,657	1394,088	763,058
0,313	17,414	1311,731	735,431
1,327	33,506	705,785	432,997
2,342	51,466	123,980	83,223
3,356	3,996	16,690	8,608
4,371	11,667	3,251	1,760
5,386	-56,685	0,573	0,178
6,400	-200,000	0,066	0,211
7,415	1,889	-0,261	-0,133
8,429	115,805	-0,282	-0,244
9,444	-106,055	-0,318	-0,050
10,459	-22,757	-0,264	-0,112
11,473	136,650	-0,255	-0,235
12,488	3,681	-0,259	-0,133
13,502	-167,685	-0,309	0,008
14,517	63,997	-0,356	-0,253
15,531	159,282	-0,259	-0,255
16,546	136,633	-0,316	-0,292
17,561	181,978	-0,273	-0,284
18,575	-52,854	-0,329	-0,107
19,590	118,040	-0,237	-0,206
20,604	-97,281	-0,290	-0,053
21,619	7,507	-0,409	-0,216
22,634	62,286	-0,397	-0,280
23,648	-23,919	-0,365	-0,154
24,663	56,770	-0,363	-0,250
25,677	5,621	-0,393	-0,204
26,692	173,982	-0,242	-0,247
27,707	-10,777	-0,434	-0,202
28,721	-17,055	-0,421	-0,187
29,736	383,963	-0,284	-0,415
30,750	108,319	-0,430	-0,362
31,765	39,103	-0,356	-0,224
32,780	124,330	-0,333	-0,296
33,794	105,742	-0,307	-0,256
34,809	208,015	-0,356	-0,393
35,823	254,275	-0,315	-0,381
36,838	10,581	-0,375	-0,201
37,853	208,572	-0,247	-0,273
38,867	124,361	-0,389	-0,345
39,882	314,527	-0,339	-0,451
40,896	41,635	-0,386	-0,246
41,911	187,152	-0,243	-0,256
42,926	121,695	-0,401	-0,353
43,940	-14,148	-0,457	-0,207
44,955	116,581	-0,346	-0,299
45,969	88,303	-0,459	-0,359
46,984	134,041	-0,260	-0,238
47,999	169,935	-0,246	-0,248
49,013	-16,097	-0,414	-0,185
50,028	34,231	-0,242	-0,148
51,042	313,985	-0,248	-0,329
52,057	156,215	-0,410	-0,399
53,071	22,765	-0,348	-0,200
54,086	68,367	-0,319	-0,230
55,101	60,999	-0,382	-0,266
56,115	148,828	-0,315	-0,300
57,130	-59,056	-0,404	-0,122
58,144	-12,554	-0,443	-0,203
59,159	141,927	-0,377	-0,352
60,174	304,973	-0,362	-0,475
61,188	128,876	-0,398	-0,358
62,203	172,654	-0,237	-0,241
63,217	308,686	-0,235	-0,309
64,232	223,862	-0,296	-0,337
65,247	-71,723	-0,352	-0,092
66,261	23,474	-0,450	-0,260
67,276	463,298	-0,235	-0,371
68,290	6,684	-0,334	-0,174
69,305	25,818	-0,331	-0,193
70,320	40,228	-0,335	-0,212
71,334	218,392	-0,312	-0,351
72,349	-120,371	-0,223	0,026
73,363	2,716	-0,365	-0,185
74,378	-66,445	-0,296	-0,082
75,393	128,848	-0,292	-0,262
76,407	-38,340	-0,286	-0,106
77,422	-37,764	-0,412	-0,153
78,436	-5,986	-0,306	-0,147
79,451	-13,520	-0,311	-0,141
80,466	136,345	-0,315	-0,288
81,480	98,652	-0,310	-0,251
82,495	99,184	-0,236	-0,192
83,509	120,669	-0,292	-0,255
84,524	159,886	-0,250	-0,245
85,539	294,920	-0,221	-0,285
86,553	-55,675	-0,304	-0,095
87,568	96,881	-0,351	-0,283
88,582	1,068	-0,403	-0,202
89,597	204,151	-0,217	-0,236
90,611	-100,454	-0,230	-0,040
91,626	230,154	-0,152	-0,175
92,641	-86,500	-0,203	-0,043
93,655	-44,075	-0,273	-0,096
94,670	205,039	-0,239	-0,261
95,684	54,097	-0,268	-0,181
96,699	19,722	-0,396	-0,223
97,714	-107,265	-0,316	-0,048
98,728	9,959	-0,171	-0,091
99,743	-30,447	-0,253	-0,100
100,757	95,909	-0,243	-0,195
101,772	-3,654	-0,316	-0,154
102,787	29,932	-0,250	-0,149
103,801	123,145	-0,391	-0,344
104,816	22,122	-0,243	-0,139
105,830	-116,319	-0,267	-0,034
106,845	-200,000	-0,050	-0,179
107,860	-64,143	-0,310	-0,088
108,874	161,068	-0,166	-0,163
109,889	138,746	-0,290	-0,267
110,903	373,866	-0,204	-0,291
111,918	118,485	-0,206	-0,178
112,933	-86,560	-0,263	-0,056
113,947	-9,615	-0,220	-0,102
114,962	-108,460	-0,187	-0,028
115,976	-8,252	-0,268	-0,126
116,991	81,544	-0,275	-0,208
118,006	54,251	-0,328	-0,221
119,020	12,067	-0,147	-0,079
120,035	386,152	-0,157	-0,228
121,049	31,090	-0,273	-0,164
122,064	123,190	-0,217	-0,191
123,079	344,664	-0,120	-0,165
124,093	32,948	-0,304	-0,184
125,108	175,444	-0,246	-0,250
126,122	164,545	-0,291	-0,287
127,137	178,124	-0,246	-0,252
128,151	215,674	-0,163	-0,181
129,166	107,542	-0,287	-0,239
130,181	-9,323	-0,245	-0,114
131,195	-6,950	-0,297	-0,141
132,210	285,380	-0,360	-0,455
133,224	24,153	-0,262	-0,151
134,239	800,000	-0,106	-0,249
135,254	439,742	-0,160	-0,246
136,268	254,003	-0,259	-0,310
137,283	-16,714	-0,238	-0,105
138,297	295,387	-0,241	-0,310
139,312	128,776	-0,225	-0,201
140,327	-36,022	-0,332	-0,125
141,341	146,975	-0,213	-0,200
142,356	31,953	-0,165	-0,099
143,370	254,557	-0,181	-0,217
144,385	28,076	-0,227	-0,133
145,400	36,364	-0,245	-0,151
146,414	47,538	-0,274	-0,178
147,429	-27,956	-0,270	-0,109
148,443	33,377	-0,247	-0,149
149,458	-108,369	-0,163	-0,024
150,473	38,662	-0,230	-0,143
151,487	-39,857	-0,239	-0,087
152,502	43,972	-0,261	-0,167
153,516	166,950	-0,186	-0,184
154,531	-19,332	-0,257	-0,111
155,546	54,455	-0,163	-0,110
156,560	60,688	-0,242	-0,167
157,575	-46,144	-0,268	-0,092
158,589	142,383	-0,181	-0,168
159,604	9,650	-0,282	-0,149
160,619	54,492	-0,297	-0,200
161,633	212,168	-0,239	-0,264
162,648	106,555	-0,183	-0,151
163,662	800,000	-0,114	-0,234
164,677	527,867	-0,120	-0,199
165,692	-66,590	-0,217	-0,060
166,706	141,941	-0,185	-0,171
167,721	145,302	-0,272	-0,254
168,735	153,372	-0,200	-0,191
169,750	-200,000	-0,098	-0,331
170,764	19,151	-0,201	-0,112
171,779	27,361	-0,220	-0,128
172,794	15,071	-0,284	-0,155
173,808	-43,275	-0,257	-0,090
174,823	68,132	-0,222	-0,158
175,837	-13,609	-0,182	-0,082
176,852	212,188	-0,113	-0,124
177,867	98,751	-0,155	-0,124
178,881	38,755	-0,225	-0,139
179,896	183,799	-0,190	-0,196
180,910	361,940	-0,184	-0,258
181,925	34,661	-0,413	-0,251
182,940	220,162	-0,198	-0,221
183,954	-77,421	-0,218	-0,052
184,969	122,683	-0,157	-0,137
185,983	371,650	-0,147	-0,208
186,998	-29,938	-0,229	-0,090
188,013	292,977	-0,161	-0,205
189,027	84,595	-0,259	-0,197
190,042	307,636	-0,166	-0,216
191,056	186,921	-0,194	-0,202
192,071	-93,121	-0,339	-0,065
193,086	-36,029	-0,171	-0,064
194,100	-30,128	-0,213	-0,084
195,115	286,314	-0,152	-0,191
196,129	80,601	-0,212	-0,159
197,144	800,000	-0,118	-0,271
198,159	156,246	-0,143	-0,138
199,173	-200,000	-0,018	-0,198
200,188	67,133	-0,130	-0,092
201,202	-35,678	-0,112	-0,042
202,217	-31,986	-0,286	-0,111
203,232	68,934	-0,181	-0,129
204,246	-41,463	-0,332	-0,118
205,261	-41,919	-0,243	-0,086
206,275	-36,499	-0,245	-0,091
207,290	719,264	-0,115	-0,213
208,304	-200,000	-0,011	-0,129
209,319	204,839	-0,146	-0,158
210,334	59,962	-0,217	-0,149
211,348	125,259	-0,231	-0,203
212,363	-50,259	-0,263	-0,086
213,377	-27,158	-0,206	-0,083
214,392	204,868	-0,112	-0,121
215,407	-74,334	-0,185	-0,046
216,421	77,678	-0,100	-0,074
217,436	104,734	-0,223	-0,182
218,450	1,911	-0,243	-0,122
219,465	347,380	-0,100	-0,137
220,480	267,194	-0,215	-0,262
221,494	-9,686	-0,152	-0,070
222,509	800,000	-0,083	-0,179
223,523	41,242	-0,176	-0,110
224,538	12,981	-0,221	-0,118
225,553	141,665	-0,200	-0,184
226,567	309,143	-0,162	-0,210
227,582	156,863	-0,247	-0,237
228,596	433,625	-0,092	-0,139
229,611	-39,922	-0,202	-0,073
230,626	67,056	-0,191	-0,135
231,640	320,066	-0,079	-0,104
232,655	144,266	-0,221	-0,205
233,669	173,069	-0,226	-0,226
234,684	38,061	-0,353	-0,217
235,699	201,602	-0,158	-0,169
236,713	-67,649	-0,239	-0,065
237,728	51,163	-0,159	-0,104
238,742	276,793	-0,167	-0,206
239,757	74,496	-0,284	-0,207
240,772	181,767	-0,249	-0,254
241,786	246,916	-0,187	-0,219
242,801	-40,430	-0,193	0,069
243,815	-64,940	-0,226	-0,063
244,830	107,988	-0,129	-0,106
245,844	-151,480	-0,128	-0,006
246,859	244,786	-0,151	-0,176
247,874	-7,961	-0,196	-0,091
248,888	-109,237	-0,220	-0,032
249,903	259,525	-0,070	-0,083
250,917	-200,000	-0,001	-0,065
251,932	-14,342	-0,178	-0,079
252,947	320,378	-0,104	-0,137
253,961	17,401	-0,202	-0,111
254,976	170,843	-0,119	-0,118
255,990	316,688	-0,165	-0,216
257,005	2,837	-0,229	-0,115
258,020	226,989	-0,130	-0,146
259,034	-126,237	-0,118	0,012
260,049	260,502	-0,158	-0,190
261,063	44,261	-0,179	-0,114
262,078	121,871	-0,227	-0,196
263,093	-71,814	-0,131	-0,034
264,107	-177,040	-0,216	-0,004
265,122	212,453	-0,167	-0,182
266,136	11,907	-0,182	-0,097
267,151	-69,463	-0,170	-0,045
268,166	-62,749	-0,145	0,041
269,180	158,643	-0,167	-0,160
270,195	-62,737	-0,247	-0,070
271,209	566,819	-0,056	-0,094
272,224	84,979	-0,118	-0,089
273,239	-162,956	-0,179	0,006
274,253	-11,752	-0,213	-0,096
275,268	425,613	-0,156	-0,233
276,282	97,626	-0,246	-0,196
277,297	297,932	-0,165	-0,210
278,312	-108,687	-0,086	0,013
279,326	-101,090	-0,201	-0,034
280,341	-200,000	-0,169	0,000
281,355	32,441	-0,110	-0,065
282,370	-156,436	-0,268	-0,011
283,384	800,000	-0,051	-0,151
284,399	146,735	-0,205	-0,190
285,414	153,985	-0,163	-0,154
286,428	-29,982	-0,190	-0,074
287,443	-116,234	-0,175	-0,022
288,457	-14,292	-0,188	-0,083
289,472	-7,508	-0,189	-0,088
290,487	-126,989	-0,251	-0,025
291,501	321,902	-0,138	-0,182
292,516	79,257	-0,167	-0,123
293,530	26,580	-0,184	-0,106
294,545	43,523	-0,207	-0,130
295,560	800,000	-0,067	-0,134
296,574	-200,000	-0,166	0,000
297,589	12,124	-0,075	-0,040
298,603	231,871	-0,189	-0,214
299,618	-127,866	-0,220	0,022
300,633	95,270	-0,243	-0,190
301,647	-34,089	-0,241	-0,091
302,662	14,285	-0,122	-0,065
303,676	375,617	-0,050	-0,071
304,691	82,285	-0,147	-0,110
305,706	350,223	-0,145	-0,198
306,720	186,433	-0,176	-0,180
307,735	166,766	-0,222	-0,217
308,749	83,107	-0,104	-0,078
309,764	70,009	-0,139	-0,099
310,779	271,649	-0,080	-0,098
311,793	654,705	-0,069	-0,122
312,808	210,995	-0,119	-0,129
313,822	280,471	-0,197	-0,242
314,837	-28,241	-0,196	-0,077
315,852	27,446	-0,204	-0,118
316,866	-200,000	-0,050	-0,263
317,881	66,008	-0,110	-0,077
318,895	800,000	-0,086	-0,241
319,910	-104,138	-0,109	-0,017
320,925	800,000	-0,125	-0,247
321,939	800,000	-0,059	-0,143
322,954	-153,192	-0,091	-0,004
323,968	-93,493	-0,280	0,053
324,983	66,680	-0,119	-0,083
325,997	800,000	-0,054	-0,160
327,012	209,452	-0,178	-0,192
328,027	-89,787	-0,154	-0,031
329,041	61,830	-0,141	-0,097
330,056	-63,090	-0,149	-0,042
331,070	800,000	-0,006	-0,017
332,085	416,723	-0,047	-0,070
333,100	-33,065	-0,071	-0,027
334,114	-37,340	-0,172	-0,063
335,129	98,677	-0,152	-0,121
336,143	616,745	-0,105	-0,181
337,158	-114,758	-0,157	-0,020
338,173	-7,354	-0,094	-0,044
339,187	266,650	-0,144	-0,173
340,202	86,454	-0,162	-0,123
341,216	-113,953	-0,252	-0,033
342,231	26,355	-0,171	-0,098
343,246	222,695	-0,093	-0,103
344,260	77,447	-0,062	-0,045
345,275	-22,217	-0,229	-0,095
346,289	219,414	-0,055	-0,060
347,304	800,000	-0,031	-0,072
348,319	654,082	-0,126	-0,222
349,333	246,264	-0,204	-0,236
350,348	-133,397	-0,115	-0,010
351,362	800,000	-0,078	-0,193
352,377	-200,000	-0,039	-0,235
353,392	370,241	-0,121	-0,169
354,406	30,855	-0,157	-0,092
355,421	207,492	1317,440	1412,313
356,435	159,611	1478,509	1412,795
