DTS Sentinel unit serial number:	SN410029Multiplexer serial number:	ORYXHardware model number:	OX2-SRSoftware version number:	ORYX F/W v4,00 Oryx Data Collector v3.7.2.0data status	okinstallation	B3 Nyhavnadifferential loss correction	single-endedforward channel	channel 1reverse channel	N/Adate	2023/12/02time	06:02:30forward acquisition time	300,00reverse acquisition time	0,00gamma	499,1914k internal	0,3194k external	0,3194temperature offset calibration	1,0000default loss term (dB/km)	0,3820temperature slope calibration	1,0000multiplexer offset coefficient	1,0000multiplexer slope coefficient	1,0000fibre end	0,00T internal ref (°C)	16,07T ext. ref 1 (°C)	0,82T ext. ref 2 (°C)	0,81length (m)	temperature (°C)	Stokes	anti-Stokes-744,400	800,000	-0,117	-0,293
-743,385	-200,000	0,014	0,393
-742,371	109,606	-0,201	-0,176
-741,356	-200,000	0,083	0,351
-740,342	133,390	-0,231	-0,218
-739,327	717,867	0,084	0,164
-738,312	195,819	-0,243	-0,269
-737,298	-200,000	-0,068	0,281
-736,283	333,588	-0,178	-0,252
-735,269	-200,000	0,055	0,338
-734,254	218,131	-0,112	-0,130
-733,239	220,495	-0,151	0,177
-732,225	305,393	-0,185	-0,251
-731,210	-200,000	0,056	0,230
-730,196	-63,478	-0,061	0,018
-729,181	-170,585	-0,061	-0,002
-728,167	800,000	0,027	-0,063
-727,152	430,385	0,061	-0,096
-726,137	-8,335	-0,124	-0,060
-725,123	-2,266	-0,156	-0,080
-724,108	27,539	-0,078	0,047
-723,094	-89,343	0,123	-0,026
-722,079	-53,507	-0,140	-0,046
-721,064	315,559	-0,074	0,102
-720,050	-96,015	0,061	0,012
-719,035	369,657	-0,061	-0,090
-718,021	-88,421	0,056	-0,012
-717,006	-102,668	-0,155	-0,027
-715,991	-100,836	-0,113	0,020
-714,977	-200,000	-0,026	-0,179
-713,962	800,000	0,044	0,109
-712,948	-127,148	-0,187	-0,020
-711,933	0,248	0,051	0,026
-710,918	-40,392	-0,080	0,030
-709,904	-200,000	-0,046	-0,148
-708,889	-33,430	0,064	0,025
-707,875	529,770	0,014	0,023
-706,860	-200,000	-0,022	0,086
-705,845	-105,948	0,091	-0,015
-704,831	800,000	0,017	-0,050
-703,816	-37,411	-0,063	0,025
-702,802	22,897	0,093	-0,055
-701,787	115,819	-0,095	-0,085
-700,772	-74,228	-0,053	-0,014
-699,758	800,000	-0,036	-0,084
-698,743	-200,000	-0,019	-0,074
-697,729	800,000	0,048	0,106
-696,714	-175,125	-0,033	0,001
-695,699	-200,000	0,019	-0,077
-694,685	92,039	-0,064	-0,052
-693,670	-14,874	0,191	-0,089
-692,656	-44,926	-0,098	-0,035
-691,641	-200,000	-0,000	0,021
-690,627	46,896	0,076	0,051
-689,612	-40,165	-0,041	-0,015
-688,597	60,009	0,018	-0,013
-687,583	35,360	-0,070	0,044
-686,568	800,000	0,054	-0,143
-685,554	-200,000	0,009	0,077
-684,539	277,403	-0,068	0,089
-683,524	98,951	0,061	-0,051
-682,510	-178,879	-0,060	-0,001
-681,495	-200,000	0,014	-0,129
-680,481	-96,602	-0,030	0,006
-679,466	-60,430	-0,082	-0,025
-678,451	37,075	0,049	-0,032
-677,437	71,757	0,079	-0,060
-676,422	-90,440	0,099	-0,021
-675,408	7,218	0,037	0,020
-674,393	-200,000	0,009	-0,171
-673,378	253,867	-0,090	-0,113
-672,364	-51,477	-0,159	-0,054
-671,349	-200,000	-0,002	0,121
-670,335	-200,000	0,007	-0,068
-669,320	-200,000	0,023	-0,093
-668,305	-155,217	-0,114	-0,005
-667,291	-200,000	0,011	0,044
-666,276	800,000	-0,048	-0,113
-665,262	-200,000	0,002	-0,068
-664,247	280,590	0,016	-0,021
-663,232	-1,786	-0,050	0,025
-662,218	82,000	0,097	0,077
-661,203	-46,725	-0,040	0,014
-660,189	20,476	-0,041	0,024
-659,174	800,000	0,006	0,015
-658,159	-45,709	-0,152	0,054
-657,145	-200,000	0,006	-0,194
-656,130	800,000	-0,023	0,058
-655,116	-38,737	0,128	0,049
-654,101	-60,568	0,078	-0,024
-653,086	-56,260	-0,109	0,035
-652,072	291,403	0,036	0,047
-651,057	-200,000	-0,015	-0,086
-650,043	-200,000	0,017	0,105
-649,028	-200,000	0,013	0,088
-648,014	217,084	0,061	-0,070
-646,999	305,730	-0,029	0,039
-645,984	-11,697	-0,024	-0,011
-644,970	26,843	0,043	0,026
-643,955	246,371	-0,063	-0,077
-642,941	638,723	-0,024	-0,045
-641,926	-105,817	-0,103	-0,017
-640,911	-200,000	-0,024	-0,079
-639,897	76,427	-0,011	-0,008
-638,882	-52,895	-0,149	0,050
-637,868	-67,063	-0,091	-0,026
-636,853	-200,000	0,009	0,076
-635,838	447,652	-0,081	-0,129
-634,824	233,676	-0,064	-0,077
-633,809	321,249	0,057	0,079
-632,795	76,776	0,054	0,042
-631,780	104,559	-0,031	0,027
-630,765	-200,000	0,045	-0,148
-629,751	87,618	0,097	-0,078
-628,736	-130,446	-0,125	-0,012
-627,722	-48,225	-0,082	-0,029
-626,707	3,952	0,077	-0,041
-625,692	-24,979	0,093	-0,040
-624,678	800,000	0,018	0,043
-623,663	-141,052	0,027	0,002
-622,649	450,580	-0,030	-0,049
-621,634	800,000	-0,029	-0,068
-620,619	800,000	-0,063	0,129
-619,605	29,748	-0,060	-0,037
-618,590	800,000	-0,028	0,082
-617,576	128,753	0,118	0,109
-616,561	-200,000	-0,013	-0,162
-615,546	-140,499	-0,138	-0,010
-614,532	-31,932	-0,080	0,032
-613,517	-99,017	0,053	0,010
-612,503	309,254	0,059	-0,080
-611,488	96,896	0,067	-0,055
-610,474	-200,000	0,027	-0,091
-609,459	11,648	-0,091	-0,050
-608,444	-107,606	0,068	-0,011
-607,430	101,362	-0,131	-0,111
-606,415	800,000	-0,065	-0,144
-605,401	-5,085	0,063	-0,031
-604,386	800,000	-0,014	0,043
-603,371	312,302	0,038	-0,052
-602,357	-110,058	0,027	-0,004
-601,342	-200,000	0,005	-0,228
-600,328	222,852	0,048	-0,056
-599,313	454,091	-0,061	0,098
-598,298	793,955	-0,050	0,100
-597,284	-200,000	0,043	0,153
-596,269	800,000	0,055	0,114
-595,255	800,000	-0,015	0,042
-594,240	-149,076	-0,170	0,010
-593,225	190,793	-0,093	0,101
-592,211	25,646	0,072	0,043
-591,196	800,000	-0,019	-0,055
-590,182	190,467	-0,016	0,017
-589,167	248,584	0,046	0,056
-588,152	800,000	0,024	0,056
-587,138	4,194	-0,217	0,115
-586,123	-200,000	-0,012	-0,066
-585,109	103,253	-0,053	-0,045
-584,094	25,414	0,077	0,047
-583,079	800,000	0,052	-0,161
-582,065	279,934	-0,012	0,015
-581,050	28,836	-0,095	0,058
-580,036	800,000	-0,040	0,124
-579,021	-95,699	-0,032	0,006
-578,006	281,018	-0,063	-0,081
-576,992	119,797	0,048	0,043
-575,977	800,000	0,041	0,092
-574,963	122,573	0,101	0,091
-573,948	-39,633	-0,065	0,025
-572,934	526,332	-0,035	-0,060
-571,919	800,000	-0,058	-0,137
-570,904	657,311	-0,062	-0,116
-569,890	4,011	0,102	0,054
-568,875	322,202	0,061	-0,084
-567,861	157,937	-0,132	0,133
-566,846	-125,016	0,116	-0,013
-565,831	800,000	-0,050	-0,159
-564,817	800,000	-0,023	0,058
-563,802	-200,000	0,006	-0,124
-562,788	-0,514	0,062	0,032
-561,773	-40,935	-0,089	-0,033
-560,758	-137,465	0,059	-0,005
-559,744	-54,169	0,075	0,025
-558,729	-15,401	-0,148	0,068
-557,715	-59,166	-0,105	-0,032
-556,700	108,702	-0,019	0,016
-555,685	-42,708	0,088	0,032
-554,671	-78,845	0,053	-0,013
-553,656	266,472	-0,094	0,119
-552,642	108,936	0,087	0,075
-551,627	-200,000	-0,013	-0,053
-550,612	266,536	-0,059	-0,075
-549,598	-51,774	-0,105	0,035
-548,583	-200,000	0,013	-0,062
-547,569	800,000	-0,037	-0,098
-546,554	-200,000	0,008	0,056
-545,539	-200,000	-0,008	0,027
-544,525	800,000	-0,038	-0,094
-543,510	154,890	-0,018	-0,018
-542,496	146,158	0,109	0,105
-541,481	26,145	0,072	-0,043
-540,466	-47,045	0,087	0,031
-539,452	-200,000	0,021	0,116
-538,437	375,875	0,062	0,092
-537,423	800,000	0,059	-0,136
-536,408	-153,355	-0,068	0,003
-535,393	156,364	0,081	-0,081
-534,379	281,670	-0,108	-0,141
-533,364	-200,000	0,016	0,056
-532,350	61,840	-0,067	-0,048
-531,335	89,597	-0,130	0,105
-530,321	-130,725	-0,081	0,008
-529,306	238,232	-0,051	-0,061
-528,291	77,230	0,074	0,056
-527,277	-94,270	-0,117	0,023
-526,262	560,481	-0,091	-0,160
-525,248	-161,074	0,070	-0,003
-524,233	-200,000	0,005	0,247
-523,218	180,520	0,099	0,105
-522,204	-200,000	0,005	0,037
-521,189	296,309	-0,050	-0,066
-520,175	-200,000	0,038	-0,191
-519,160	-200,000	0,005	0,021
-518,145	-112,817	0,088	0,013
-517,131	165,622	0,080	0,082
-516,116	266,063	0,018	0,023
-515,102	-141,712	-0,029	0,002
-514,087	-114,201	-0,072	0,010
-513,072	-200,000	-0,005	0,037
-512,058	103,727	-0,095	-0,081
-511,043	-200,000	0,053	-0,241
-510,029	-200,000	0,011	-0,121
-509,014	12,922	0,233	0,130
-507,999	-200,000	0,020	-0,152
-506,985	593,453	0,037	-0,066
-505,970	-53,532	-0,125	-0,041
-504,956	98,278	-0,225	-0,187
-503,941	-200,000	-0,015	-0,069
-502,926	-16,233	0,055	0,025
-501,912	142,851	0,137	0,131
-500,897	-56,635	-0,040	0,013
-499,883	800,000	0,070	-0,182
-498,868	430,410	-0,038	0,060
-497,853	-129,994	-0,047	0,005
-496,839	800,000	-0,057	0,123
-495,824	227,464	0,031	-0,036
-494,810	357,339	0,029	-0,042
-493,795	-49,842	-0,139	0,048
-492,781	800,000	-0,047	-0,096
-491,766	226,961	0,056	-0,066
-490,751	-200,000	-0,013	-0,140
-489,737	-134,309	-0,096	0,008
-488,722	161,051	0,033	0,033
-487,708	-118,851	0,067	0,008
-486,693	427,500	-0,075	0,117
-485,678	39,455	-0,075	-0,049
-484,664	-126,428	0,080	0,009
-483,649	-108,205	-0,122	0,019
-482,635	-200,000	0,001	-0,196
-481,620	-187,101	0,090	0,001
-480,605	-38,900	0,136	0,052
-479,591	-72,803	0,049	0,013
-478,576	800,000	-0,027	-0,073
-477,562	-200,000	-0,023	0,123
-476,547	401,913	-0,014	0,021
-475,532	62,108	0,037	-0,026
-474,518	-39,390	-0,037	0,014
-473,503	800,000	-0,037	0,115
-472,489	-137,980	0,041	-0,003
-471,474	-133,683	-0,074	0,007
-470,459	43,431	-0,073	-0,048
-469,445	273,524	-0,042	0,053
-468,430	-200,000	0,031	-0,159
-467,416	90,899	0,063	0,051
-466,401	800,000	-0,037	0,106
-465,386	-200,000	0,007	0,199
-464,372	800,000	0,039	-0,103
-463,357	-200,000	-0,014	0,097
-462,343	-110,140	-0,067	-0,010
-461,328	800,000	-0,030	0,069
-460,313	-200,000	-0,000	-0,066
-459,299	162,318	-0,011	0,011
-458,284	800,000	-0,018	-0,053
-457,270	-22,688	0,113	0,049
-456,255	-200,000	0,012	0,122
-455,241	-7,428	0,138	0,067
-454,226	-200,000	0,032	0,151
-453,211	18,288	-0,116	0,066
-452,197	-200,000	-0,004	-0,020
-451,182	-30,253	-0,036	0,014
-450,168	6,471	0,032	-0,017
-449,153	20,482	-0,073	-0,043
-448,138	88,480	-0,024	0,019
-447,124	-113,178	-0,063	-0,009
-446,109	-56,015	0,062	0,020
-445,095	38,404	0,006	-0,004
-444,080	-86,216	0,058	-0,013
-443,065	800,000	-0,022	-0,046
-442,051	800,000	0,016	-0,038
-441,036	102,893	-0,091	-0,077
-440,022	598,260	0,072	0,129
-439,007	-39,081	-0,107	0,040
-437,992	-35,016	0,015	0,006
-436,978	800,000	0,028	0,061
-435,963	800,000	-0,043	-0,102
-434,949	19,221	-0,052	0,030
-433,934	358,619	-0,082	-0,118
-432,919	349,043	-0,023	-0,033
-431,905	635,478	0,025	-0,046
-430,890	210,820	0,066	-0,075
-429,876	-39,401	0,060	0,023
-428,861	-152,825	0,161	-0,008
-427,846	-200,000	0,011	0,038
-426,832	-200,000	0,015	-0,114
-425,817	800,000	-0,074	0,154
-424,803	-30,072	-0,099	0,040
-423,788	800,000	0,064	0,133
-422,773	-15,690	-0,100	-0,046
-421,759	60,277	-0,019	0,014
-420,744	-200,000	-0,004	0,195
-419,730	-161,463	0,054	-0,002
-418,715	800,000	0,024	-0,066
-417,701	-200,000	-0,008	-0,053
-416,686	-20,111	0,069	0,030
-415,671	-200,000	-0,006	-0,061
-414,657	6,010	-0,076	0,040
-413,642	-200,000	0,029	-0,151
-412,628	282,989	0,050	0,065
-411,613	-84,861	-0,126	0,028
-410,598	800,000	-0,053	-0,160
-409,584	148,534	-0,090	0,088
-408,569	223,797	0,038	0,044
-407,555	240,527	0,128	0,154
-406,540	160,265	0,023	0,023
-405,525	-28,807	0,073	-0,030
-404,511	800,000	-0,029	-0,087
-403,496	20,778	0,038	-0,022
-402,482	800,000	0,030	0,081
-401,467	52,781	0,016	0,011
-400,452	214,340	0,068	0,078
-399,438	800,000	-0,006	-0,018
-398,423	258,029	0,066	0,082
-397,409	-171,459	-0,175	-0,004
-396,394	-200,000	0,004	-0,080
-395,379	28,690	-0,078	0,048
-394,365	-200,000	-0,023	0,164
-393,350	-200,000	-0,006	0,046
-392,336	-37,412	-0,147	-0,056
-391,321	-107,873	-0,077	0,012
-390,306	163,878	0,015	-0,015
-389,292	-188,445	-0,075	-0,001
-388,277	-200,000	0,012	-0,106
-387,263	637,339	0,024	0,043
-386,248	-74,888	0,058	-0,015
-385,233	-200,000	-0,018	0,134
-384,219	-200,000	-0,018	0,098
-383,204	-87,651	-0,098	0,021
-382,190	-18,775	-0,232	0,104
-381,175	266,293	0,006	-0,007
-380,160	429,485	0,037	-0,057
-379,146	800,000	-0,012	0,034
-378,131	800,000	0,035	0,082
-377,117	70,923	0,072	-0,054
-376,102	265,625	-0,021	0,027
-375,088	257,356	-0,087	-0,107
-374,073	-77,376	0,111	-0,027
-373,058	-200,000	0,002	-0,053
-372,044	-200,000	-0,018	0,165
-371,029	800,000	0,028	-0,071
-370,015	-63,854	-0,030	-0,009
-369,000	-93,690	-0,101	-0,020
-367,985	-200,000	-0,025	-0,165
-366,971	596,062	0,088	-0,158
-365,956	-61,453	-0,089	-0,027
-364,942	194,352	0,068	0,074
-363,927	-107,562	0,093	-0,014
-362,912	-200,000	0,011	-0,041
-361,898	188,974	0,062	-0,067
-360,883	549,174	-0,038	-0,066
-359,869	292,326	-0,007	-0,010
-358,854	-76,674	0,070	0,017
-357,839	0,970	0,073	0,038
-356,825	-45,905	0,160	-0,056
-355,810	640,477	-0,014	0,025
-354,796	11,821	-0,136	0,075
-353,781	399,240	-0,052	-0,078
-352,766	-200,000	0,001	0,035
-351,752	277,055	-0,018	0,023
-350,737	341,845	-0,031	-0,044
-349,723	-200,000	0,029	0,138
-348,708	64,151	-0,054	0,039
-347,693	75,762	-0,101	-0,076
-346,679	800,000	-0,050	0,118
-345,664	794,952	0,033	0,065
-344,650	352,733	-0,078	-0,112
-343,635	466,347	0,073	-0,117
-342,620	-62,316	-0,125	0,037
-341,606	-94,922	0,118	0,023
-340,591	297,797	-0,061	0,080
-339,577	-200,000	0,008	-0,067
-338,562	-200,000	-0,004	-0,174
-337,548	-200,000	0,002	-0,016
-336,533	155,235	0,055	0,054
-335,518	-200,000	-0,013	-0,045
-334,504	173,144	0,083	0,086
-333,489	-23,474	0,060	-0,026
-332,475	-200,000	-0,018	-0,163
-331,460	-200,000	0,014	-0,053
-330,445	95,840	0,067	0,055
-329,431	-157,453	0,061	0,003
-328,416	-200,000	0,006	0,059
-327,402	31,223	0,065	0,040
-326,387	689,237	-0,018	0,033
-325,372	-26,380	-0,108	0,045
-324,358	389,746	-0,040	-0,059
-323,343	-200,000	-0,019	-0,102
-322,329	-52,092	-0,057	-0,019
-321,314	95,176	0,135	-0,110
-320,299	-200,000	0,012	0,065
-319,285	727,617	0,057	-0,110
-318,270	90,906	0,065	0,052
-317,256	-88,644	-0,112	-0,024
-316,241	335,443	-0,054	0,075
-315,226	561,450	0,095	-0,166
-314,212	-22,276	0,034	-0,015
-313,197	-7,680	0,116	0,056
-312,183	800,000	0,039	0,106
-311,168	-119,582	0,023	0,003
-310,153	311,986	0,045	-0,061
-309,139	358,621	0,083	0,119
-308,124	-200,000	0,002	0,027
-307,110	-200,000	-0,017	0,076
-306,095	506,770	0,029	0,048
-305,080	-69,192	0,034	-0,009
-304,066	-46,955	0,087	0,030
-303,051	236,288	0,064	-0,076
-302,037	159,382	-0,126	-0,126
-301,022	-9,549	0,012	0,006
-300,008	-42,235	0,081	-0,029
-298,993	-200,000	-0,007	-0,051
-297,978	-142,815	0,134	0,009
-296,964	459,231	0,033	-0,053
-295,949	-66,946	0,068	-0,019
-294,935	-200,000	-0,002	0,009
-293,920	158,336	0,079	-0,079
-292,905	-200,000	0,006	-0,110
-291,891	-101,617	0,066	0,011
-290,876	800,000	0,091	0,207
-289,862	800,000	0,043	-0,086
-288,847	-45,316	-0,154	-0,054
-287,832	-187,633	-0,081	0,001
-286,818	-200,000	0,031	-0,135
-285,803	-200,000	0,001	0,022
-284,789	-200,000	-0,011	-0,125
-283,774	53,967	0,055	0,038
-282,759	387,419	-0,083	0,123
-281,745	117,714	0,109	-0,096
-280,730	-30,585	-0,026	0,010
-279,716	112,568	0,098	0,085
-278,701	153,909	0,055	-0,054
-277,686	-9,020	0,197	0,094
-276,672	579,775	-0,069	0,122
-275,657	29,999	0,081	0,049
-274,643	431,658	-0,090	-0,139
-273,628	-200,000	-0,005	0,056
-272,613	104,939	0,043	-0,036
-271,599	153,311	0,028	0,028
-270,584	539,021	0,081	0,139
-269,570	800,000	0,040	0,114
-268,555	2,463	-0,165	-0,085
-267,540	439,278	-0,035	-0,056
-266,526	-200,000	0,009	-0,067
-265,511	-200,000	0,016	0,054
-264,497	-138,450	0,141	0,011
-263,482	679,248	-0,025	0,046
-262,467	309,889	-0,007	-0,009
-261,453	418,341	0,078	-0,120
-260,438	-44,675	-0,079	0,028
-259,424	50,992	0,065	0,044
-258,409	-56,960	-0,048	0,015
-257,395	326,268	0,050	-0,069
-256,380	800,000	-0,047	0,121
-255,365	-66,404	0,049	-0,014
-254,351	157,972	0,109	0,108
-253,336	661,502	0,042	-0,078
-252,322	61,806	0,063	-0,044
-251,307	800,000	-0,033	-0,070
-250,292	-78,463	-0,034	0,008
-249,278	332,706	-0,086	-0,119
-248,263	-64,412	0,103	0,030
-247,249	800,000	0,051	0,112
-246,234	-1,628	-0,081	-0,041
-245,219	-147,522	0,034	0,002
-244,205	-71,060	0,161	-0,043
-243,190	-200,000	-0,033	-0,171
-242,176	-111,990	0,109	-0,016
-241,161	-200,000	-0,007	0,025
-240,146	-143,538	0,093	0,006
-239,132	96,985	-0,055	-0,045
-238,117	800,000	0,067	-0,149
-237,103	163,013	0,043	0,043
-236,088	338,976	0,070	0,097
-235,073	-36,548	0,112	0,043
-234,059	-200,000	0,020	0,134
-233,044	800,000	-0,020	0,062
-232,030	-200,000	-0,008	-0,041
-231,015	130,540	-0,092	-0,085
-230,000	613,376	-0,033	0,060
-228,986	232,034	-0,053	0,062
-227,971	242,718	0,057	0,068
-226,957	-200,000	-0,036	0,252
-225,942	2,657	0,079	0,041
-224,927	-200,000	0,028	-0,125
-223,913	55,865	-0,121	-0,084
-222,898	800,000	-0,022	-0,057
-221,884	-129,245	-0,059	0,006
-220,869	800,000	-0,033	0,098
-219,855	-200,000	-0,022	0,136
-218,840	-61,076	0,167	-0,050
-217,825	-200,000	-0,010	-0,212
-216,811	-200,000	-0,007	0,114
-215,796	-16,983	-0,032	-0,014
-214,782	800,000	-0,035	-0,108
-213,767	-164,857	-0,065	-0,002
-212,752	-200,000	-0,009	0,052
-211,738	734,768	0,114	0,219
-210,723	-200,000	-0,004	-0,024
-209,709	-114,498	-0,127	-0,017
-208,694	375,120	0,073	-0,107
-207,679	-101,453	0,045	-0,008
-206,665	101,130	0,049	0,041
-205,650	-200,000	0,013	-0,047
-204,636	48,459	0,075	0,050
-203,621	-16,718	-0,082	0,037
-202,606	-200,000	-0,010	0,034
-201,592	-22,419	-0,064	-0,028
-200,577	-17,261	-0,154	-0,069
-199,563	-200,000	-0,005	-0,075
-198,548	-200,000	0,005	-0,017
-197,533	4,439	0,082	-0,043
-196,519	-117,918	0,052	0,007
-195,504	-200,000	0,004	0,055
-194,490	800,000	0,060	0,124
-193,475	-200,000	-0,006	-0,023
-192,460	-200,000	-0,002	-0,067
-191,446	-45,612	-0,081	0,029
-190,431	800,000	0,092	0,218
-189,417	800,000	-0,030	0,062
-188,402	527,160	-0,079	-0,134
-187,387	292,351	-0,075	-0,097
-186,373	215,842	-0,082	-0,093
-185,358	500,592	0,048	0,080
-184,344	-200,000	0,033	-0,131
-183,329	255,199	0,104	0,127
-182,315	484,730	0,024	0,039
-181,300	-36,680	0,058	-0,022
-180,285	-63,272	-0,115	0,034
-179,271	-200,000	-0,009	0,056
-178,256	800,000	-0,028	-0,079
-177,242	800,000	-0,034	0,085
-176,227	-4,315	-0,095	-0,047
-175,212	-200,000	0,003	-0,045
-174,198	800,000	0,015	0,030
-173,183	800,000	0,051	0,110
-172,169	-200,000	0,027	-0,184
-171,154	114,382	-0,109	0,095
-170,139	-200,000	-0,009	0,123
-169,125	-46,534	0,127	-0,044
-168,110	426,585	-0,058	0,090
-167,096	800,000	0,033	0,100
-166,081	282,932	-0,057	-0,074
-165,066	-115,601	-0,048	0,006
-164,052	-132,118	-0,064	-0,006
-163,037	-78,740	0,082	-0,020
-162,023	70,327	-0,046	-0,034
-161,008	721,876	0,096	0,183
-159,993	-200,000	0,049	0,228
-158,979	33,593	-0,064	-0,040
-157,964	-99,704	-0,019	0,003
-156,950	800,000	-0,051	-0,100
-155,935	800,000	0,062	0,126
-154,920	-89,910	0,126	-0,026
-153,906	-200,000	-0,003	0,094
-152,891	158,197	-0,055	0,055
-151,877	410,181	0,039	0,058
-150,862	-30,478	-0,069	0,028
-149,847	-154,252	-0,094	0,004
-148,833	800,000	-0,029	-0,062
-147,818	30,756	-0,028	0,017
-146,804	-200,000	0,027	0,143
-145,789	-176,199	-0,053	0,001
-144,775	536,099	-0,034	-0,058
-143,760	-62,254	-0,033	-0,010
-142,745	-200,000	-0,014	-0,181
-141,731	-0,797	0,072	0,036
-140,716	13,033	0,155	0,085
-139,702	-127,065	0,046	0,005
-138,687	375,462	0,066	-0,095
-137,672	-200,000	0,034	-0,120
-136,658	-200,000	-0,020	0,082
-135,643	781,620	0,067	-0,132
-134,629	-17,577	-0,099	-0,044
-133,614	-90,362	0,062	0,013
-132,599	-40,502	-0,093	0,034
-131,585	292,399	-0,022	-0,029
-130,570	109,080	-0,097	0,083
-129,556	800,000	0,031	-0,081
-128,541	457,349	-0,030	-0,048
-127,526	27,050	-0,077	-0,046
-126,512	-200,000	0,018	0,066
-125,497	450,390	0,049	0,078
-124,483	-105,725	0,121	-0,019
-123,468	22,182	0,048	0,028
-122,453	339,390	-0,110	-0,153
-121,439	-200,000	0,028	-0,109
-120,424	-5,462	-0,149	0,072
-119,410	800,000	-0,038	0,104
-118,395	264,067	0,019	-0,023
-117,380	15,900	0,037	-0,021
-116,366	-200,000	0,017	-0,067
-115,351	-200,000	-0,006	-0,107
-114,337	236,356	-0,087	0,103
-113,322	213,990	-0,098	0,110
-112,307	-106,599	-0,105	-0,017
-111,293	-58,344	0,056	0,017
-110,278	-184,799	0,117	-0,001
-109,264	154,640	-0,081	-0,079
-108,249	-200,000	0,002	0,041
-107,234	800,000	-0,045	-0,101
-106,220	9,498	-0,076	-0,041
-105,205	-75,852	0,099	-0,025
-104,191	221,321	0,014	0,016
-103,176	32,815	-0,041	-0,025
-102,162	-200,000	0,005	0,148
-101,147	-136,894	-0,062	0,005
-100,132	29,938	-0,087	-0,052
-99,118	-80,093	0,036	-0,008
-98,103	199,955	0,035	-0,038
-97,089	-71,318	0,046	0,012
-96,074	800,000	-0,053	0,131
-95,059	101,028	-0,029	0,024
-94,045	-54,166	0,191	0,061
-93,030	800,000	0,060	-0,156
-92,016	-200,000	-0,031	-0,232
-91,001	52,455	0,067	0,045
-89,986	627,542	-0,055	-0,099
-88,972	195,400	0,080	0,086
-87,957	174,921	-0,092	-0,094
-86,943	713,861	-0,010	-0,018
-85,928	236,344	0,048	0,056
-84,913	446,001	0,113	-0,177
-83,899	-200,000	-0,006	-0,047
-82,884	71,864	0,036	-0,027
-81,870	-200,000	-0,004	-0,029
-80,855	800,000	0,039	0,114
-79,840	247,925	-0,061	0,073
-78,826	149,603	-0,058	-0,056
-77,811	800,000	0,028	0,066
-76,797	-71,863	0,157	-0,041
-75,782	-65,558	0,103	0,029
-74,767	-137,683	0,118	0,009
-73,753	-30,309	0,091	0,037
-72,738	80,651	-0,092	0,070
-71,724	-200,000	0,011	0,121
-70,709	800,000	-0,040	-0,086
-69,694	-200,000	-0,007	0,051
-68,680	-36,295	0,091	-0,035
-67,665	756,850	0,078	0,151
-66,651	-200,000	-0,006	0,063
-65,636	800,000	0,021	0,043
-64,622	3,818	-0,161	-0,083
-63,607	-167,136	-0,042	0,001
-62,592	800,000	0,029	-0,062
-61,578	-58,676	0,045	-0,014
-60,563	-200,000	0,018	0,071
-59,549	-200,000	-0,006	0,047
-58,534	-102,149	-1,448	-0,245
-57,519	346,112	-1,558	-2,180
-56,505	-200,000	-0,434	-4,434
-55,490	150,483	0,769	0,742
-54,476	800,000	4,779	11,161
-53,461	-200,000	17,672	280,686
-52,446	800,000	719,736	2223,008
-51,432	563,571	1634,159	2819,049
-50,417	81,236	1658,268	1269,978
-49,403	23,949	1532,534	894,493
-48,388	17,892	1455,666	820,397
-47,373	18,333	1445,109	816,531
-46,359	17,994	1435,588	809,503
-45,344	16,181	1431,205	798,374
-44,330	16,123	1429,204	796,953
-43,315	16,115	1427,456	795,907
-42,300	16,155	1425,715	795,093
-41,286	16,197	1424,766	794,733
-40,271	16,194	1423,140	793,782
-39,257	16,170	1422,067	793,038
-38,242	16,235	1420,664	792,529
-37,227	16,190	1419,548	791,665
-36,213	16,173	1418,136	790,764
-35,198	16,135	1417,134	789,994
-34,184	16,178	1416,186	789,640
-33,169	16,099	1414,778	788,449
-32,154	16,176	1413,774	788,221
-31,140	16,200	1412,491	787,589
-30,125	16,211	1411,424	787,012
-29,111	16,249	1409,979	786,356
-28,096	16,159	1409,077	785,400
-27,082	16,115	1408,081	784,607
-26,067	16,089	1407,026	783,863
-25,052	16,140	1405,723	783,347
-24,038	16,106	1404,889	782,691
-23,023	16,092	1403,977	782,089
-22,009	16,069	1402,938	781,371
-20,994	16,068	1401,845	780,726
-19,979	16,079	1400,860	780,200
-18,965	16,076	1399,879	779,606
-17,950	16,036	1399,024	778,915
-16,936	16,052	1398,081	778,431
-15,921	16,036	1396,752	777,589
-14,906	15,983	1396,013	776,900
-13,892	15,997	1395,074	776,411
-12,877	15,962	1394,083	775,667
-11,863	15,972	1393,279	775,233
-10,848	16,027	1392,196	774,854
-9,833	15,952	1391,311	773,987
-8,819	15,974	1390,267	773,477
-7,804	15,921	1389,362	772,698
-6,790	15,885	1388,380	771,955
-5,775	15,881	1387,332	771,322
-4,760	15,888	1386,654	770,945
-3,746	15,933	1385,705	770,595
-2,731	15,835	1385,142	769,801
-1,717	15,899	1383,848	769,347
-0,702	15,870	1382,229	768,283
0,313	19,613	1303,274	741,689
1,327	36,052	707,037	440,516
2,342	55,363	125,299	85,830
3,356	3,224	16,494	8,482
4,371	-5,887	3,189	1,542
5,386	-32,190	0,553	0,218
6,400	-76,030	-0,036	0,009
7,415	514,671	-0,139	-0,231
8,429	173,571	-0,257	-0,263
9,444	116,216	-0,340	-0,295
10,459	421,784	-0,240	-0,366
11,473	-10,059	-0,232	-0,109
12,488	260,567	-0,249	-0,306
13,502	36,994	-0,428	-0,268
14,517	48,593	-0,370	-0,245
15,531	268,438	-0,220	-0,273
16,546	74,616	-0,412	-0,307
17,561	59,937	-0,396	-0,276
18,575	-101,145	-0,224	-0,038
19,590	-27,123	-0,286	-0,118
20,604	-20,047	-0,245	-0,107
21,619	48,797	-0,479	-0,318
22,634	272,201	-0,398	-0,498
23,648	71,577	-0,486	-0,357
24,663	51,852	-0,498	-0,335
25,677	47,195	-0,423	-0,278
26,692	-6,939	-0,311	-0,149
27,707	0,319	-0,338	-0,170
28,721	370,583	-0,285	-0,410
29,736	276,146	-0,331	-0,417
30,750	99,222	-0,495	-0,404
31,765	112,898	-0,364	-0,312
32,780	-40,788	-0,430	-0,157
33,794	-20,523	-0,281	-0,122
34,809	13,859	-0,417	-0,229
35,823	51,328	-0,360	-0,241
36,838	354,292	-0,231	-0,325
37,853	82,374	-0,389	-0,298
38,867	8,169	-0,461	-0,244
39,882	219,578	-0,330	-0,374
40,896	112,255	-0,234	-0,200
41,911	37,639	-0,297	-0,186
42,926	112,603	-0,205	-0,175
43,940	25,168	-0,347	-0,203
44,955	44,968	-0,336	-0,218
45,969	107,675	-0,387	-0,325
46,984	80,675	-0,410	-0,312
47,999	289,562	-0,158	-0,203
49,013	42,978	-0,417	-0,268
50,028	15,606	-0,374	-0,207
51,042	111,438	-0,290	-0,247
52,057	76,289	-0,348	-0,260
53,071	120,990	-0,329	-0,289
54,086	307,295	-0,249	-0,328
55,101	123,931	-0,291	-0,258
56,115	80,142	-0,265	-0,201
57,130	26,617	-0,419	-0,247
58,144	193,501	-0,239	-0,255
59,159	-23,958	-0,322	-0,135
60,174	-63,642	-0,502	-0,144
61,188	87,426	-0,294	-0,229
62,203	272,966	-0,272	-0,340
63,217	0,136	-0,304	-0,152
64,232	-74,401	-0,412	-0,104
65,247	297,667	-0,268	-0,348
66,261	103,574	-0,415	-0,344
67,276	192,758	-0,308	-0,329
68,290	40,989	-0,270	-0,171
69,305	-62,256	-0,354	-0,103
70,320	70,934	-0,366	-0,267
71,334	66,600	-0,321	-0,230
72,349	70,406	-0,323	-0,235
73,363	104,987	-0,274	-0,228
74,378	28,828	-0,351	-0,209
75,393	-25,560	-0,324	-0,134
76,407	54,185	-0,296	-0,201
77,422	-64,089	-0,386	-0,110
78,436	253,748	-0,197	-0,238
79,451	24,032	-0,290	-0,168
80,466	40,718	-0,400	-0,253
81,480	138,155	-0,212	-0,196
82,495	106,111	-0,296	-0,247
83,509	-5,690	-0,324	-0,156
84,524	-45,194	-0,245	-0,085
85,539	480,332	-0,124	-0,198
86,553	-28,637	-0,328	-0,132
87,568	95,856	-0,285	-0,229
88,582	-75,142	-0,334	-0,083
89,597	117,338	-0,334	-0,289
90,611	57,655	-0,252	-0,173
91,626	203,110	-0,230	-0,250
92,641	-138,297	-0,318	0,024
93,655	127,307	-0,309	-0,276
94,670	-82,918	-0,312	-0,070
95,684	249,893	-0,234	-0,279
96,699	75,738	-0,232	-0,172
97,714	284,385	-0,222	-0,282
98,728	-75,162	-0,464	-0,116
99,743	84,688	-0,254	-0,195
100,757	-3,716	-0,308	-0,150
101,772	437,785	-0,147	-0,226
102,787	17,699	-0,323	-0,180
103,801	169,269	-0,214	-0,215
104,816	35,906	-0,198	-0,122
105,830	-85,735	-0,282	-0,061
106,845	-27,501	-0,238	-0,097
107,860	141,046	-0,219	-0,203
108,874	184,143	-0,210	-0,218
109,889	38,085	-0,281	-0,175
110,903	-48,512	-0,228	-0,077
111,918	50,589	-0,212	-0,140
112,933	153,048	-0,232	-0,223
113,947	298,251	-0,167	-0,216
114,962	-20,807	-0,229	-0,098
115,976	183,019	-0,158	-0,164
116,991	109,548	-0,213	-0,179
118,006	197,171	-0,256	-0,275
119,020	17,223	-0,268	-0,149
120,035	83,881	-0,379	-0,290
121,049	-32,387	-0,149	-0,058
122,064	-14,236	-0,294	-0,133
123,079	7,873	-0,244	-0,128
124,093	56,363	-0,262	-0,179
125,108	185,238	-0,263	-0,274
126,122	440,175	-0,196	-0,301
127,137	101,858	-0,301	-0,246
128,151	18,733	-0,262	-0,147
129,166	19,403	-0,240	-0,135
130,181	36,337	-0,238	-0,147
131,195	-40,947	-0,230	-0,083
132,210	24,323	-0,262	-0,151
133,224	31,615	-0,265	-0,160
134,239	-70,872	-0,255	-0,067
135,254	-14,802	-0,288	-0,129
136,268	-32,757	-0,268	-0,104
137,283	174,419	-0,275	-0,279
138,297	526,792	-0,079	-0,131
139,312	83,251	-0,301	-0,229
140,327	10,353	-0,295	-0,157
141,341	-49,514	-0,127	-0,042
142,356	159,887	-0,265	-0,259
143,370	92,591	-0,173	-0,137
144,385	-78,241	-0,234	-0,056
145,400	76,762	-0,205	-0,152
146,414	116,848	-0,275	-0,236
147,429	176,748	-0,186	-0,190
148,443	69,187	-0,237	-0,170
149,458	72,046	-0,165	-0,120
150,473	109,037	-0,165	-0,138
151,487	71,193	-0,261	-0,189
152,502	236,176	-0,239	-0,277
153,516	-3,425	-0,227	-0,110
154,531	-19,449	-0,282	-0,122
155,546	90,300	-0,248	-0,194
156,560	-68,331	-0,130	-0,035
157,575	-51,262	-0,202	-0,066
158,589	535,658	-0,120	-0,200
159,604	-44,540	-0,231	-0,080
160,619	86,160	-0,299	-0,230
161,633	250,347	-0,225	-0,268
162,648	800,000	-0,104	-0,205
163,662	332,268	-0,173	-0,234
164,677	-78,453	-0,216	-0,051
165,692	-43,719	-0,256	-0,090
166,706	92,373	-0,261	-0,206
167,721	1,423	-0,336	-0,168
168,735	342,351	-0,182	-0,249
169,750	800,000	-0,096	-0,220
170,764	-78,285	-0,119	-0,028
171,779	57,065	-0,160	-0,109
172,794	35,825	-0,163	-0,100
173,808	800,000	-0,116	-0,286
174,823	122,334	-0,280	-0,244
175,837	318,097	-0,211	-0,280
176,852	69,196	-0,093	-0,066
177,867	135,180	-0,189	-0,172
178,881	21,910	-0,209	-0,119
179,896	100,233	-0,172	-0,139
180,910	-46,624	-0,137	-0,047
181,925	-50,316	-0,260	-0,085
182,940	-43,416	-0,334	-0,117
183,954	-53,476	-0,307	-0,097
184,969	685,377	-0,076	-0,139
185,983	432,893	-0,170	-0,259
186,998	187,488	-0,145	-0,152
188,013	196,752	-0,185	-0,196
189,027	141,272	-0,233	-0,215
190,042	319,331	-0,103	-0,137
191,056	800,000	-0,170	-0,351
192,071	46,941	-0,197	-0,127
193,086	104,794	-0,189	-0,156
194,100	455,362	-0,170	-0,264
195,115	800,000	-0,080	-0,176
196,129	-107,280	-0,258	-0,039
197,144	95,037	-0,227	-0,180
198,159	35,372	-0,291	-0,178
199,173	251,744	-0,112	-0,133
200,188	552,973	-0,043	-0,072
201,202	-200,000	-0,037	-0,157
202,217	-155,598	-0,240	0,011
203,232	87,915	-0,290	-0,224
204,246	618,582	-0,159	-0,279
205,261	85,187	-0,190	-0,145
206,275	358,464	-0,094	-0,131
207,290	-145,560	-0,100	-0,006
208,304	-34,929	-0,199	-0,075
209,319	24,636	-0,181	-0,104
210,334	315,433	-0,173	-0,228
211,348	329,858	-0,174	-0,234
212,363	13,853	-0,256	-0,138
213,377	95,812	-0,184	-0,146
214,392	254,317	-0,119	-0,142
215,407	-140,559	-0,076	0,005
216,421	180,672	-0,152	-0,156
217,436	92,295	-0,162	-0,127
218,450	408,635	-0,158	-0,233
219,465	334,471	-0,166	-0,224
220,480	127,926	-0,212	-0,188
221,494	244,128	-0,119	-0,140
222,509	-46,169	-0,190	-0,065
223,523	22,929	-0,245	-0,139
224,538	-195,301	-0,129	0,001
225,553	22,553	-0,190	-0,108
226,567	0,292	-0,300	-0,148
227,582	24,905	-0,185	-0,106
228,596	-93,006	-0,195	-0,037
229,611	137,788	-0,177	-0,161
230,626	364,341	-0,161	-0,226
231,640	800,000	-0,101	-0,278
232,655	10,574	-0,319	-0,168
233,669	12,242	-0,239	-0,128
234,684	39,489	-0,189	-0,117
235,699	-5,078	-0,157	-0,075
236,713	-200,000	-0,034	-0,180
237,728	-101,768	-0,227	-0,038
238,742	-2,417	-0,170	-0,082
239,757	800,000	-0,146	-0,335
240,772	-23,183	-0,168	-0,070
241,786	76,407	-0,196	-0,144
242,801	-186,417	-0,133	-0,001
243,815	5,311	-0,196	-0,100
244,830	91,989	-0,057	0,044
245,844	-72,552	-0,269	-0,068
246,859	-76,508	-0,284	-0,069
247,874	-14,994	-0,243	-0,108
248,888	-149,853	-0,129	-0,007
249,903	241,418	-0,102	-0,118
250,917	295,058	-0,113	-0,144
251,932	364,023	-0,135	-0,188
252,947	257,481	-0,120	-0,143
253,961	100,997	-0,179	-0,145
254,976	6,460	-0,264	-0,135
255,990	514,538	-0,188	-0,305
257,005	281,980	-0,155	-0,194
258,020	67,874	-0,246	-0,174
259,034	-200,000	-0,101	-0,321
260,049	155,866	-0,243	-0,232
261,063	715,073	-0,087	-0,161
262,078	149,167	-0,227	-0,213
263,093	14,030	-0,253	-0,136
264,107	130,265	-0,107	-0,095
265,122	68,142	-0,139	-0,099
266,136	62,919	-0,126	0,087
267,151	-35,631	-0,224	-0,084
268,166	109,436	-0,211	-0,175
269,180	-38,470	-0,130	-0,047
270,195	675,341	-0,116	-0,209
271,209	322,796	-0,136	-0,180
272,224	-200,000	0,006	-0,096
273,239	-200,000	-0,036	-0,143
274,253	66,245	-0,198	-0,139
275,268	18,528	-0,213	-0,117
276,282	-27,287	-0,173	-0,069
277,297	-16,778	-0,244	-0,106
278,312	421,483	-0,097	-0,145
279,326	-164,467	-0,129	-0,004
280,341	-49,845	-0,209	-0,068
281,355	79,650	-0,042	0,032
282,370	-27,437	-0,274	-0,110
283,384	23,810	-0,304	-0,173
284,399	800,000	-0,058	-0,142
285,414	-125,542	-0,163	-0,017
286,428	82,028	-0,096	0,072
287,443	-77,637	-0,224	-0,053
288,457	-25,930	-0,160	-0,065
289,472	-56,077	-0,195	-0,060
290,487	111,104	-0,256	-0,213
291,501	48,261	-0,169	-0,109
292,516	-16,060	-0,109	-0,048
293,530	-108,343	-0,195	-0,029
294,545	-134,890	-0,162	-0,013
295,560	800,000	-0,051	-0,100
296,574	-8,420	-0,167	0,077
297,589	800,000	-0,064	-0,133
298,603	-42,266	-0,148	-0,052
299,618	62,675	-0,114	-0,079
300,633	-125,844	-0,111	0,011
301,647	170,840	-0,036	-0,035
302,662	-165,144	-0,050	0,002
303,676	-199,583	-0,157	0,001
304,691	69,359	-0,124	-0,088
305,706	262,836	-0,217	-0,261
306,720	250,016	-0,176	-0,207
307,735	800,000	-0,058	-0,159
308,749	-200,000	-0,008	-0,073
309,764	188,582	-0,096	-0,099
310,779	221,681	-0,068	-0,075
311,793	111,979	-0,141	-0,117
312,808	72,829	-0,264	-0,190
313,822	-113,575	-0,136	-0,018
314,837	169,982	-0,155	-0,153
315,852	-141,725	-0,177	0,012
316,866	109,108	-0,178	-0,146
317,881	26,955	-0,178	-0,103
318,895	-98,745	0,063	-0,011
319,910	-117,209	-0,255	0,032
320,925	-66,548	-0,237	-0,064
321,939	-169,467	-0,201	0,005
322,954	-69,558	-0,215	-0,056
323,968	-131,246	-0,129	-0,012
324,983	613,828	-0,095	-0,165
325,997	137,812	-0,202	-0,183
327,012	800,000	-0,075	-0,176
328,027	92,221	-0,160	-0,124
329,041	789,929	-0,172	-0,327
330,056	800,000	-0,096	-0,199
331,070	756,833	-0,028	-0,052
332,085	-127,814	-0,067	-0,007
333,100	-93,590	-0,180	-0,034
334,114	-4,157	-0,100	-0,048
335,129	-200,000	-0,061	-0,277
336,143	60,694	-0,173	-0,118
337,158	-200,000	-0,098	0,000
338,173	86,128	-0,113	-0,086
339,187	121,081	-0,093	0,080
340,202	-134,445	-0,203	-0,017
341,216	-95,662	-0,159	-0,029
342,231	237,807	-0,242	-0,277
343,246	482,027	-0,109	-0,170
344,260	-31,700	-0,087	-0,033
345,275	251,471	-0,092	-0,107
346,289	49,033	-0,172	-0,111
347,304	800,000	-0,080	-0,165
348,319	800,000	-0,052	-0,146
349,333	-52,767	-0,189	0,060
350,348	215,367	-0,114	-0,125
351,362	219,567	-0,108	-0,119
352,377	-118,163	-0,112	0,014
353,392	129,931	-0,127	-0,112
354,406	160,294	-0,187	-0,179
355,421	208,298	1314,755	1414,763
356,435	160,267	1475,532	1415,295
