DTS Sentinel unit serial number:	SN410029Multiplexer serial number:	ORYXHardware model number:	OX2-SRSoftware version number:	ORYX F/W v4,00 Oryx Data Collector v3.7.2.0data status	okinstallation	B3 Nyhavnadifferential loss correction	single-endedforward channel	channel 1reverse channel	N/Adate	2023/12/03time	05:37:30forward acquisition time	300,00reverse acquisition time	0,00gamma	499,1914k internal	0,3201k external	0,3201temperature offset calibration	1,0000default loss term (dB/km)	0,3820temperature slope calibration	1,0000multiplexer offset coefficient	1,0000multiplexer slope coefficient	1,0000fibre end	0,00T internal ref (°C)	13,30T ext. ref 1 (°C)	-1,71T ext. ref 2 (°C)	-1,71length (m)	temperature (°C)	Stokes	anti-Stokes-744,400	543,160	-0,123	-0,214
-743,385	800,000	0,061	0,172
-742,371	280,979	-0,129	-0,168
-741,356	-200,000	0,019	0,326
-740,342	3,114	-0,164	-0,087
-739,327	542,203	0,088	0,152
-738,312	167,858	-0,231	-0,239
-737,298	-200,000	-0,051	0,258
-736,283	377,595	-0,148	-0,221
-735,269	-200,000	0,044	0,332
-734,254	411,878	-0,133	-0,206
-733,239	800,000	-0,076	0,163
-732,225	248,590	-0,142	-0,175
-731,210	174,460	0,125	0,131
-730,196	41,394	-0,052	-0,034
-729,181	800,000	0,056	-0,127
-728,167	800,000	0,018	-0,053
-727,152	800,000	-0,066	-0,134
-726,137	2,761	-0,084	0,044
-725,123	800,000	0,027	0,069
-724,108	-168,636	0,042	0,001
-723,094	229,119	-0,137	-0,163
-722,079	-17,944	-0,052	0,023
-721,064	313,868	-0,056	-0,076
-720,050	69,623	-0,076	0,057
-719,035	-200,000	0,020	0,126
-718,021	-121,519	0,101	0,012
-717,006	303,169	0,094	-0,127
-715,991	-200,000	0,018	0,091
-714,977	-33,788	0,137	-0,055
-713,962	540,172	-0,042	-0,074
-712,948	175,303	-0,040	-0,042
-711,933	281,016	-0,060	-0,078
-710,918	-200,000	-0,026	0,115
-709,904	298,010	-0,047	-0,063
-708,889	-62,696	0,148	-0,044
-707,875	800,000	-0,039	-0,091
-706,860	800,000	0,031	-0,074
-705,845	787,953	0,050	-0,100
-704,831	14,130	0,150	-0,084
-703,816	-200,000	-0,027	0,141
-702,802	-200,000	-0,022	0,092
-701,787	-113,404	-0,228	-0,032
-700,772	-200,000	0,017	-0,102
-699,758	245,709	-0,030	0,037
-698,743	-17,962	0,093	-0,042
-697,729	28,808	0,042	0,026
-696,714	-51,656	0,111	0,037
-695,699	800,000	0,039	-0,086
-694,685	-200,000	0,001	0,006
-693,670	-54,868	-0,064	0,021
-692,656	91,566	0,045	0,037
-691,641	62,198	0,061	0,044
-690,627	800,000	0,032	0,090
-689,612	-97,486	-0,027	-0,005
-688,597	-68,648	0,076	0,021
-687,583	-97,753	-0,115	-0,021
-686,568	-200,000	0,033	-0,116
-685,554	-106,874	-0,139	-0,022
-684,539	0,642	0,064	-0,033
-683,524	-47,693	-0,096	0,033
-682,510	-200,000	-0,010	-0,115
-681,495	-13,461	-0,042	-0,020
-680,481	259,133	0,080	-0,100
-679,466	689,386	0,022	-0,041
-678,451	395,112	-0,034	-0,052
-677,437	281,694	0,168	-0,219
-676,422	-200,000	0,008	-0,098
-675,408	800,000	0,038	0,085
-674,393	-0,130	-0,027	0,014
-673,378	107,175	-0,079	-0,068
-672,364	800,000	-0,038	-0,084
-671,349	178,986	-0,149	-0,158
-670,335	-34,403	0,029	0,012
-669,320	534,299	-0,035	-0,060
-668,305	434,893	0,007	-0,011
-667,291	262,731	-0,010	-0,013
-666,276	-120,827	-0,237	0,029
-665,262	30,508	-0,146	-0,091
-664,247	167,153	-0,099	-0,102
-663,232	-25,517	0,102	-0,044
-662,218	167,746	-0,108	-0,111
-661,203	-136,392	-0,045	0,004
-660,189	469,552	0,027	-0,044
-659,174	293,438	-0,008	-0,011
-658,159	-12,931	0,125	-0,059
-657,145	800,000	0,002	0,005
-656,130	74,758	0,022	-0,017
-655,116	-58,663	-0,112	0,035
-654,101	61,643	-0,073	-0,052
-653,086	186,940	-0,084	0,091
-652,072	-11,782	0,039	0,018
-651,057	34,252	-0,139	0,088
-650,043	102,307	0,104	0,088
-649,028	72,320	-0,078	-0,059
-648,014	789,564	-0,053	0,106
-646,999	800,000	-0,025	0,059
-645,984	-200,000	0,002	0,072
-644,970	800,000	-0,034	-0,086
-643,955	-200,000	-0,016	0,197
-642,941	-200,000	0,000	-0,062
-641,926	110,726	0,092	0,080
-640,911	-199,857	-0,048	0,000
-639,897	30,483	0,062	-0,038
-638,882	134,930	0,086	-0,081
-637,868	434,320	0,019	-0,031
-636,853	64,995	-0,097	0,071
-635,838	800,000	-0,082	-0,194
-634,824	232,798	0,024	-0,029
-633,809	-76,855	-0,058	0,015
-632,795	-200,000	-0,012	-0,074
-631,780	-200,000	-0,011	-0,079
-630,765	-110,290	0,033	0,005
-629,751	123,460	0,074	-0,068
-628,736	-119,862	-0,123	-0,015
-627,722	44,392	-0,161	-0,107
-626,707	-70,711	0,122	0,033
-625,692	-69,265	-0,114	0,032
-624,678	-23,849	0,070	0,030
-623,663	-200,000	0,018	0,060
-622,649	757,835	-0,068	0,135
-621,634	-118,941	-0,174	-0,022
-620,619	-33,235	0,079	-0,031
-619,605	-68,852	-0,100	-0,028
-618,590	-200,000	0,007	0,028
-617,576	337,281	0,045	-0,063
-616,561	389,065	0,036	-0,054
-615,546	38,371	0,059	-0,038
-614,532	-200,000	0,011	-0,129
-613,517	24,362	-0,059	0,035
-612,503	-60,431	0,090	0,027
-611,488	-200,000	-0,009	0,075
-610,474	800,000	-0,046	-0,094
-609,459	563,789	0,036	0,063
-608,444	15,951	0,071	0,040
-607,430	800,000	-0,045	-0,136
-606,415	69,603	-0,071	-0,053
-605,401	146,298	0,028	-0,027
-604,386	13,562	0,083	0,047
-603,371	800,000	-0,041	0,086
-602,357	800,000	0,075	-0,179
-601,342	800,000	-0,036	-0,083
-600,328	-31,378	0,059	0,024
-599,313	-88,687	-0,040	-0,008
-598,298	-200,000	0,001	-0,078
-597,284	-104,978	0,017	0,003
-596,269	459,801	0,052	-0,085
-595,255	350,091	-0,046	0,067
-594,240	345,229	0,113	-0,161
-593,225	-200,000	-0,012	0,086
-592,211	717,367	-0,079	-0,153
-591,196	12,409	0,123	0,068
-590,182	-57,472	0,127	-0,040
-589,167	137,678	0,101	-0,095
-588,152	-200,000	0,031	-0,130
-587,138	-200,000	-0,015	-0,126
-586,123	-200,000	-0,005	0,076
-585,109	-76,546	-0,101	-0,025
-584,094	-50,161	-0,031	-0,010
-583,079	-7,421	-0,062	-0,030
-582,065	358,460	0,103	0,148
-581,050	800,000	0,030	0,070
-580,036	259,785	0,039	0,049
-579,021	6,468	-0,057	-0,030
-578,006	-23,671	-0,114	-0,049
-576,992	-200,000	-0,023	-0,125
-575,977	270,481	0,049	0,062
-574,963	-145,788	-0,097	-0,006
-573,948	221,618	-0,115	0,133
-572,934	100,553	-0,040	0,033
-571,919	-117,700	-0,034	0,004
-570,904	-200,000	-0,030	-0,116
-569,890	-200,000	-0,018	0,121
-568,875	279,471	0,018	0,024
-567,861	-200,000	-0,014	0,155
-566,846	-29,238	0,098	0,040
-565,831	-125,268	0,038	-0,004
-564,817	136,421	0,016	-0,015
-563,802	-200,000	0,032	-0,119
-562,788	-200,000	-0,004	-0,071
-561,773	-200,000	0,003	-0,080
-560,758	800,000	0,010	-0,032
-559,744	79,605	0,062	0,048
-558,729	-76,280	-0,085	0,022
-557,715	335,525	-0,072	-0,101
-556,700	-200,000	0,030	0,103
-555,685	-200,000	0,004	0,037
-554,671	150,792	-0,021	0,021
-553,656	-59,881	0,031	-0,010
-552,642	672,637	0,016	0,031
-551,627	-12,542	0,018	0,009
-550,612	159,048	-0,011	0,011
-549,598	356,213	0,074	-0,106
-548,583	580,267	-0,016	0,029
-547,569	-114,950	-0,144	0,019
-546,554	-83,958	0,125	-0,028
-545,539	-200,000	0,017	0,081
-544,525	-2,972	-0,096	-0,048
-543,510	-200,000	-0,019	0,085
-542,496	-200,000	0,009	0,066
-541,481	-200,000	-0,021	-0,161
-540,466	800,000	-0,052	-0,110
-539,452	-200,000	-0,005	0,182
-538,437	-102,307	0,032	0,005
-537,423	41,129	0,071	-0,046
-536,408	4,738	0,126	0,066
-535,393	14,121	-0,120	0,067
-534,379	-63,486	0,128	-0,038
-533,364	-200,000	-0,028	0,128
-532,350	800,000	-0,046	0,120
-531,335	-91,237	-0,125	-0,026
-530,321	-200,000	0,042	0,151
-529,306	-200,000	-0,036	0,133
-528,291	-200,000	-0,004	-0,014
-527,277	540,051	0,032	-0,056
-526,262	128,360	0,077	-0,071
-525,248	-82,573	-0,016	-0,004
-524,233	52,913	-0,076	-0,052
-523,218	-200,000	-0,008	0,047
-522,204	125,572	-0,070	-0,064
-521,189	800,000	0,015	0,045
-520,175	277,380	0,071	-0,091
-519,160	-65,696	-0,101	-0,029
-518,145	-200,000	0,004	0,109
-517,131	800,000	0,023	0,051
-516,116	96,154	0,073	-0,060
-515,102	800,000	-0,017	0,053
-514,087	-200,000	0,007	-0,046
-513,072	280,800	-0,104	-0,135
-512,058	422,082	0,022	-0,035
-511,043	-12,534	0,139	-0,065
-510,029	753,072	0,025	-0,048
-509,014	447,196	-0,066	0,105
-507,999	-200,000	0,022	0,192
-506,985	-148,559	0,081	0,005
-505,970	326,149	-0,032	0,044
-504,956	55,558	-0,129	-0,090
-503,941	-9,132	-0,043	0,021
-502,926	-45,519	-0,094	0,033
-501,912	112,183	0,068	0,059
-500,897	353,751	0,051	0,074
-499,883	315,624	-0,053	-0,072
-498,868	-50,949	-0,026	0,009
-497,853	-200,000	0,027	0,115
-496,839	63,173	-0,010	0,008
-495,824	573,904	0,070	0,124
-494,810	-200,000	-0,004	-0,057
-493,795	-181,284	0,038	0,001
-492,781	800,000	0,017	-0,050
-491,766	168,604	0,110	-0,113
-490,751	-57,579	-0,085	-0,027
-489,737	800,000	-0,006	0,013
-488,722	800,000	0,038	-0,083
-487,708	448,837	-0,034	0,054
-486,693	362,856	0,116	0,169
-485,678	-200,000	-0,025	0,159
-484,664	653,864	0,037	0,068
-483,649	-4,691	0,069	-0,034
-482,635	-90,570	-0,081	0,017
-481,620	-200,000	-0,024	0,125
-480,605	-62,662	-0,084	-0,025
-479,591	800,000	0,024	0,068
-478,576	-184,918	0,142	0,002
-477,562	-32,130	0,024	-0,010
-476,547	-200,000	0,033	-0,142
-475,532	-106,656	-0,151	-0,024
-474,518	-23,810	0,042	-0,018
-473,503	43,982	0,085	-0,056
-472,489	32,431	-0,089	0,055
-471,474	77,151	0,061	-0,047
-470,459	407,547	-0,022	0,034
-469,445	424,550	-0,045	0,070
-468,430	13,485	0,057	-0,031
-467,416	315,202	0,049	0,067
-466,401	99,902	-0,062	0,052
-465,386	-72,630	-0,088	0,023
-464,372	-200,000	-0,008	0,096
-463,357	-147,313	0,102	0,006
-462,343	-200,000	0,003	-0,126
-461,328	427,716	0,028	-0,043
-460,313	66,277	0,122	-0,089
-459,299	-42,319	0,048	0,018
-458,284	124,796	0,095	-0,086
-457,270	229,895	0,011	0,012
-456,255	-15,497	-0,097	0,044
-455,241	-200,000	-0,034	-0,136
-454,226	-200,000	-0,004	-0,154
-453,211	-136,943	0,094	0,008
-452,197	144,599	0,100	0,096
-451,182	-200,000	-0,004	0,105
-450,168	432,208	-0,079	0,123
-449,153	133,779	0,049	-0,046
-448,138	800,000	-0,020	-0,056
-447,124	-200,000	-0,009	-0,064
-446,109	544,691	0,058	-0,099
-445,095	66,488	0,135	-0,098
-444,080	285,493	0,119	0,154
-443,065	-200,000	-0,002	0,057
-442,051	-200,000	-0,005	0,022
-441,036	800,000	0,020	-0,063
-440,022	20,803	-0,032	-0,018
-439,007	-200,000	-0,015	-0,081
-437,992	-116,317	0,039	0,005
-436,978	-151,197	0,106	0,006
-435,963	-65,020	-0,066	0,019
-434,949	-200,000	-0,001	0,030
-433,934	-200,000	0,002	-0,110
-432,919	206,477	-0,038	0,043
-431,905	-45,668	0,068	-0,024
-430,890	-23,733	0,046	-0,020
-429,876	-200,000	0,021	-0,115
-428,861	800,000	0,029	-0,081
-427,846	-200,000	-0,028	-0,090
-426,832	-200,000	-0,042	-0,133
-425,817	-200,000	-0,003	-0,120
-424,803	-3,557	0,032	-0,016
-423,788	-200,000	0,033	0,183
-422,773	-200,000	-0,007	0,113
-421,759	-200,000	0,039	0,191
-420,744	119,212	0,139	-0,123
-419,730	800,000	-0,053	0,143
-418,715	-17,904	-0,170	-0,076
-417,701	43,432	-0,066	0,043
-416,686	-200,000	0,015	0,071
-415,671	44,539	0,046	0,031
-414,657	-200,000	-0,005	0,098
-413,642	81,436	0,152	-0,118
-412,628	-40,736	0,077	-0,029
-411,613	-160,047	-0,170	0,007
-410,598	350,065	0,042	-0,059
-409,584	800,000	0,025	-0,074
-408,569	206,023	0,064	0,072
-407,555	215,039	0,052	-0,059
-406,540	701,372	0,037	0,069
-405,525	-96,730	-0,089	-0,017
-404,511	-200,000	-0,033	-0,118
-403,496	-200,000	0,000	0,062
-402,482	664,892	-0,054	-0,101
-401,467	158,219	0,083	-0,083
-400,452	-143,348	-0,061	-0,004
-399,438	291,599	0,110	0,144
-398,423	105,606	-0,060	0,051
-397,409	215,979	-0,037	-0,043
-396,394	50,149	-0,169	-0,114
-395,379	-1,782	-0,027	0,013
-394,365	-30,486	0,071	0,029
-393,350	-52,710	0,141	0,046
-392,336	-16,305	-0,025	-0,011
-391,321	541,962	-0,032	0,055
-390,306	800,000	-0,051	-0,157
-389,292	-200,000	-0,019	-0,149
-388,277	-109,620	-0,187	-0,028
-387,263	800,000	0,053	0,106
-386,248	-28,917	0,041	0,017
-385,233	-144,314	0,030	-0,002
-384,219	237,417	0,051	0,061
-383,204	165,264	0,030	-0,031
-382,190	-49,151	-0,119	-0,040
-381,175	309,413	0,036	0,049
-380,160	89,013	0,067	0,054
-379,146	-137,602	-0,058	0,005
-378,131	-200,000	0,020	0,081
-377,117	39,750	-0,059	-0,038
-376,102	185,634	-0,065	-0,069
-375,088	800,000	-0,040	-0,084
-374,073	15,401	0,056	0,031
-373,058	-85,244	0,136	-0,030
-372,044	253,998	-0,021	-0,026
-371,029	-200,000	-0,019	0,076
-370,015	-200,000	-0,003	0,015
-369,000	501,323	0,020	-0,034
-367,985	420,788	0,062	-0,096
-366,971	-4,887	-0,080	-0,039
-365,956	800,000	0,015	0,047
-364,942	800,000	-0,040	0,099
-363,927	-181,499	0,167	-0,002
-362,912	449,643	-0,077	-0,122
-361,898	-23,679	-0,005	-0,002
-360,883	32,635	-0,092	-0,057
-359,869	331,281	0,117	-0,162
-358,854	135,480	-0,096	-0,089
-357,839	-16,267	0,023	0,010
-356,825	-200,000	0,010	-0,150
-355,810	329,483	0,006	-0,008
-354,796	34,988	0,046	0,029
-353,781	-200,000	0,008	-0,133
-352,766	255,355	0,070	0,086
-351,752	-200,000	0,022	-0,139
-350,737	800,000	0,037	-0,116
-349,723	-146,172	-0,087	-0,005
-348,708	195,788	0,072	0,078
-347,693	346,175	-0,074	-0,105
-346,679	122,060	-0,054	0,048
-345,664	800,000	0,046	-0,119
-344,650	-200,000	0,004	-0,054
-343,635	316,643	0,076	-0,103
-342,620	-71,179	0,015	-0,004
-341,606	-101,279	0,123	-0,021
-340,591	153,045	-0,069	0,068
-339,577	-200,000	-0,026	0,106
-338,562	-62,240	0,045	0,013
-337,548	212,812	-0,044	0,050
-336,533	800,000	-0,034	0,069
-335,518	-200,000	-0,007	0,174
-334,504	15,025	-0,076	0,042
-333,489	-192,205	0,084	-0,001
-332,475	-200,000	0,023	-0,115
-331,460	-115,997	0,085	0,011
-330,445	353,430	-0,007	-0,010
-329,431	-43,249	-0,024	0,009
-328,416	84,778	0,218	0,171
-327,402	-200,000	0,023	0,177
-326,387	61,994	-0,116	0,082
-325,372	623,708	-0,052	0,094
-324,358	-64,866	0,008	0,002
-323,343	466,661	-0,113	-0,181
-322,329	-17,751	-0,186	-0,083
-321,314	37,234	0,118	0,075
-320,299	-16,439	0,098	0,044
-319,285	-61,822	-0,088	-0,026
-318,270	-200,000	0,016	-0,131
-317,256	-200,000	0,004	-0,226
-316,241	-200,000	-0,001	-0,012
-315,226	184,128	0,024	-0,026
-314,212	-200,000	0,007	0,029
-313,197	82,332	-0,023	-0,018
-312,183	-200,000	0,004	0,065
-311,168	-200,000	0,016	0,077
-310,153	16,461	-0,032	-0,018
-309,139	-148,972	-0,080	0,005
-308,124	294,037	-0,071	-0,093
-307,110	-75,999	0,137	0,034
-306,095	-131,119	-0,100	0,009
-305,080	800,000	0,039	0,100
-304,066	-79,024	0,085	-0,021
-303,051	-146,209	-0,215	0,013
-302,037	246,849	-0,074	0,089
-301,022	148,332	0,086	-0,083
-300,008	607,244	-0,035	-0,063
-298,993	207,020	-0,044	0,049
-297,978	192,530	-0,027	-0,029
-296,964	-11,957	0,154	0,072
-295,949	436,014	0,030	-0,046
-294,935	131,008	-0,117	-0,107
-293,920	141,329	-0,076	-0,072
-292,905	-200,000	0,010	-0,054
-291,891	-124,904	-0,111	0,012
-290,876	536,352	0,067	0,113
-289,862	385,870	-0,081	0,119
-288,847	-99,848	-0,076	-0,013
-287,832	100,642	-0,083	-0,069
-286,818	79,591	0,132	-0,101
-285,803	202,647	-0,019	-0,020
-284,789	-100,850	-0,080	0,014
-283,774	-119,874	0,233	0,028
-282,759	602,317	-0,044	0,079
-281,745	82,677	0,018	0,014
-280,730	-141,763	-0,168	-0,012
-279,716	-78,924	-0,033	-0,008
-278,701	-54,560	0,177	0,057
-277,686	-103,797	0,056	-0,009
-276,672	100,779	-0,070	0,058
-275,657	313,554	0,057	0,076
-274,643	163,842	-0,122	-0,123
-273,628	11,462	-0,081	-0,044
-272,613	46,396	-0,034	0,022
-271,599	159,859	-0,045	0,044
-270,584	-168,956	-0,123	0,003
-269,570	-91,637	-0,092	0,019
-268,555	-101,131	-0,069	0,012
-267,540	800,000	-0,025	-0,064
-266,526	800,000	0,037	-0,104
-265,511	58,406	0,107	-0,075
-264,497	800,000	0,030	0,081
-263,482	-156,138	-0,189	0,008
-262,467	-200,000	-0,005	0,040
-261,453	276,653	0,084	0,107
-260,438	-200,000	0,001	-0,023
-259,424	-200,000	0,007	0,105
-258,409	-200,000	0,009	0,067
-257,395	493,130	-0,034	-0,056
-256,380	85,801	-0,048	0,038
-255,365	773,261	0,047	0,092
-254,351	-200,000	-0,021	0,083
-253,336	800,000	-0,044	-0,096
-252,322	106,231	0,016	0,013
-251,307	-67,896	0,089	-0,025
-250,292	3,111	0,105	0,054
-249,278	118,604	0,080	0,070
-248,263	-200,000	-0,037	0,000
-247,249	19,151	0,025	-0,015
-246,234	-44,608	0,087	0,031
-245,219	800,000	0,042	-0,113
-244,205	-200,000	0,037	-0,132
-243,190	800,000	-0,062	0,131
-242,176	-200,000	-0,005	-0,053
-241,161	800,000	0,032	0,069
-240,146	513,906	0,044	0,073
-239,132	104,896	-0,131	-0,110
-238,117	105,441	-0,048	-0,041
-237,103	-90,731	-0,053	-0,011
-236,088	-200,000	0,040	-0,157
-235,073	-97,819	-0,039	0,007
-234,059	800,000	0,058	0,125
-233,044	-105,425	-0,009	0,001
-232,030	-128,256	-0,112	0,011
-231,015	123,515	-0,062	0,056
-230,000	-200,000	-0,015	0,000
-228,986	533,475	0,028	-0,047
-227,971	29,357	0,104	0,063
-226,957	-67,263	0,185	0,052
-225,942	-124,402	-0,089	-0,010
-224,927	346,709	-0,037	-0,052
-223,913	-200,000	-0,002	-0,128
-222,898	-200,000	-0,004	-0,087
-221,884	800,000	-0,029	-0,087
-220,869	-200,000	-0,013	0,116
-219,855	358,256	-0,030	-0,043
-218,840	156,858	0,058	0,058
-217,825	800,000	0,063	0,131
-216,811	-9,643	0,082	-0,039
-215,796	-200,000	0,019	-0,155
-214,782	179,169	0,055	0,058
-213,767	346,181	-0,124	0,174
-212,752	-194,397	0,147	0,001
-211,738	549,394	0,093	0,159
-210,723	-149,404	-0,073	-0,004
-209,709	633,476	-0,020	0,037
-208,694	-107,293	-0,026	-0,004
-207,679	770,933	0,021	-0,042
-206,665	-153,981	0,157	-0,007
-205,650	800,000	-0,040	0,086
-204,636	-200,000	0,061	0,203
-203,621	800,000	0,100	0,240
-202,606	-200,000	-0,032	-0,167
-201,592	253,777	0,045	-0,054
-200,577	214,178	-0,045	0,050
-199,563	130,712	0,096	0,087
-198,548	-200,000	0,037	-0,129
-197,533	-200,000	-0,011	-0,082
-196,519	247,907	0,045	-0,054
-195,504	58,581	-0,065	-0,045
-194,490	122,452	0,025	-0,022
-193,475	-122,339	-0,075	-0,009
-192,460	466,197	0,025	0,039
-191,446	-61,613	-0,219	-0,065
-190,431	800,000	-0,030	-0,061
-189,417	399,721	0,030	0,045
-188,402	-31,484	-0,148	0,059
-187,387	-163,663	0,115	-0,004
-186,373	337,663	0,089	-0,124
-185,358	-200,000	-0,000	-0,018
-184,344	800,000	-0,046	0,142
-183,329	-200,000	-0,023	0,126
-182,315	259,314	0,078	0,096
-181,300	-9,989	-0,156	-0,074
-180,285	-200,000	0,001	-0,019
-179,271	53,145	-0,028	-0,019
-178,256	159,930	-0,014	-0,014
-177,242	-200,000	-0,018	-0,071
-176,227	-200,000	-0,002	0,008
-175,212	65,203	-0,039	-0,028
-174,198	147,527	-0,057	0,055
-173,183	168,388	-0,013	-0,014
-172,169	316,473	-0,077	-0,103
-171,154	19,818	0,079	-0,045
-170,139	97,060	-0,072	0,059
-169,125	-71,318	0,042	0,011
-168,110	-200,000	0,055	0,183
-167,096	-8,289	-0,084	-0,040
-166,081	800,000	-0,012	-0,034
-165,066	767,148	-0,037	-0,072
-164,052	-200,000	-0,005	-0,058
-163,037	-200,000	0,008	0,028
-162,023	-200,000	-0,009	-0,043
-161,008	-200,000	0,004	0,119
-159,993	483,645	0,025	0,041
-158,979	-200,000	-0,032	0,163
-157,964	800,000	0,066	0,136
-156,950	-41,994	-0,090	0,033
-155,935	-172,134	-0,109	0,002
-154,920	338,351	0,092	0,127
-153,906	600,397	-0,088	0,156
-152,891	-7,133	0,082	0,040
-151,877	228,577	-0,028	0,032
-150,862	-14,549	0,164	0,075
-149,847	-200,000	0,008	-0,055
-148,833	-20,277	-0,081	0,035
-147,818	-27,408	0,041	0,017
-146,804	72,486	0,038	-0,028
-145,789	800,000	-0,040	0,103
-144,775	-200,000	0,004	-0,036
-143,760	111,922	-0,096	0,082
-142,745	-158,690	-0,038	-0,002
-141,731	137,130	0,059	0,055
-140,716	800,000	0,046	-0,113
-139,702	-34,956	0,186	0,072
-138,687	156,586	-0,091	0,089
-137,672	-117,483	-0,117	0,015
-136,658	68,840	-0,049	0,036
-135,643	800,000	-0,018	0,053
-134,629	-87,831	0,106	-0,022
-133,614	82,654	-0,058	0,045
-132,599	800,000	0,047	-0,125
-131,585	235,941	-0,031	-0,037
-130,570	-200,000	-0,029	-0,108
-129,556	-12,316	-0,109	-0,050
-128,541	-27,073	-0,155	-0,064
-127,526	-74,071	0,061	-0,016
-126,512	-200,000	0,006	0,031
-125,497	117,058	-0,014	-0,012
-124,483	43,043	-0,086	0,055
-123,468	-143,077	-0,077	-0,005
-122,453	134,473	-0,044	-0,041
-121,439	148,815	0,057	-0,055
-120,424	-200,000	-0,028	-0,098
-119,410	-23,579	0,036	0,015
-118,395	223,379	0,035	-0,040
-117,380	-160,984	-0,090	0,003
-116,366	185,406	-0,044	0,047
-115,351	-121,587	0,054	-0,006
-114,337	-11,651	-0,194	-0,090
-113,322	246,965	0,102	-0,122
-112,307	342,107	0,025	0,035
-111,293	-200,000	0,018	-0,081
-110,278	-105,522	0,134	-0,021
-109,264	-81,074	0,182	0,042
-108,249	800,000	0,025	-0,062
-107,234	-200,000	-0,037	-0,251
-106,220	-200,000	0,005	-0,139
-105,205	222,910	0,031	-0,035
-104,191	-200,000	0,022	0,101
-103,176	317,287	-0,063	0,085
-102,162	-93,133	0,044	-0,009
-101,147	-48,839	-0,072	-0,024
-100,132	326,403	-0,048	-0,065
-99,118	-107,036	-0,045	-0,007
-98,103	800,000	-0,038	0,101
-97,089	-200,000	0,010	-0,100
-96,074	2,644	0,167	0,085
-95,059	-200,000	-0,000	0,012
-94,045	327,269	-0,075	-0,102
-93,030	184,055	-0,073	-0,076
-92,016	800,000	-0,071	-0,160
-91,001	108,242	-0,049	-0,041
-89,986	7,575	-0,034	-0,018
-88,972	64,856	0,056	-0,040
-87,957	407,683	0,041	-0,061
-86,943	204,536	0,068	0,074
-85,928	800,000	0,022	-0,066
-84,913	-200,000	-0,023	-0,083
-83,899	800,000	-0,062	-0,157
-82,884	-200,000	0,017	0,064
-81,870	-76,866	-0,100	-0,025
-80,855	-97,445	0,035	-0,006
-79,840	111,625	0,101	-0,086
-78,826	136,551	0,043	-0,040
-77,811	800,000	0,043	-0,096
-76,797	-200,000	-0,023	0,093
-75,782	-200,000	0,004	0,057
-74,767	-148,939	-0,068	0,004
-73,753	-44,060	0,146	-0,052
-72,738	75,376	0,074	-0,055
-71,724	349,908	-0,010	-0,014
-70,709	-104,731	-0,133	-0,022
-69,694	617,834	0,022	-0,040
-68,680	-200,000	-0,006	-0,090
-67,665	91,072	0,056	0,044
-66,651	-119,924	0,164	0,020
-65,636	-200,000	-0,007	0,073
-64,622	5,282	-0,156	-0,081
-63,607	-81,228	0,063	0,015
-62,592	417,344	-0,052	0,078
-61,578	-200,000	0,027	-0,168
-60,563	76,897	0,030	-0,023
-59,549	-124,935	-0,130	0,014
-58,534	-16,330	-1,720	-0,770
-57,519	494,084	-1,260	-2,055
-56,505	-200,000	-0,509	-4,637
-55,490	182,180	0,963	1,006
-54,476	800,000	4,998	11,473
-53,461	-200,000	19,223	320,196
-52,446	-200,000	740,989	2334,185
-51,432	572,692	1655,795	2868,053
-50,417	78,248	1671,057	1261,564
-49,403	21,303	1544,045	885,619
-48,388	15,152	1466,456	811,205
-47,373	17,981	1456,843	819,526
-46,359	16,700	1446,422	807,491
-45,344	13,422	1441,875	789,219
-44,330	13,350	1439,663	787,631
-43,315	13,320	1438,334	786,730
-42,300	13,358	1436,528	785,893
-41,286	13,434	1435,176	785,485
-40,271	13,317	1434,095	784,302
-39,257	13,342	1432,727	783,646
-38,242	13,363	1431,460	783,022
-37,227	13,400	1430,194	782,472
-36,213	13,389	1428,832	781,643
-35,198	13,352	1427,719	780,830
-34,184	13,424	1426,910	780,696
-33,169	13,367	1425,474	779,611
-32,154	13,415	1424,504	779,277
-31,140	13,418	1423,020	778,449
-30,125	13,436	1422,065	777,980
-29,111	13,395	1421,036	777,189
-28,096	13,382	1419,792	776,417
-27,082	13,304	1418,824	775,491
-26,067	13,256	1417,847	774,700
-25,052	13,369	1416,323	774,367
-24,038	13,336	1415,523	773,746
-23,023	13,284	1414,571	772,950
-22,009	13,339	1413,297	772,480
-20,994	13,242	1412,596	771,609
-19,979	13,274	1411,607	771,192
-18,965	13,250	1410,752	770,582
-17,950	13,253	1409,928	770,113
-16,936	13,300	1408,940	769,762
-15,921	13,261	1407,788	768,920
-14,906	13,245	1406,931	768,347
-13,892	13,221	1405,839	767,610
-12,877	13,182	1405,204	767,051
-11,863	13,273	1404,117	766,848
-10,848	13,234	1403,286	766,185
-9,833	13,240	1402,261	765,624
-8,819	13,199	1401,604	765,043
-7,804	13,179	1400,644	764,394
-6,790	13,148	1399,700	763,703
-5,775	13,159	1398,545	763,093
-4,760	13,113	1397,707	762,393
-3,746	13,127	1396,864	761,970
-2,731	13,114	1395,897	761,352
-1,717	13,085	1395,093	760,750
-0,702	13,106	1393,293	759,833
0,313	17,000	1309,920	732,386
1,327	33,219	703,572	430,846
2,342	51,423	123,299	82,722
3,356	-0,024	16,639	8,355
4,371	26,824	3,208	1,897
5,386	-3,943	0,560	0,274
6,400	-200,000	0,060	0,321
7,415	586,734	-0,075	-0,131
8,429	-6,730	-0,324	-0,155
9,444	-47,492	-0,329	-0,113
10,459	97,069	-0,200	-0,162
11,473	388,011	-0,216	-0,317
12,488	-171,042	-0,265	0,006
13,502	51,866	-0,344	-0,231
14,517	29,021	-0,305	-0,182
15,531	44,405	-0,327	-0,212
16,546	35,344	-0,385	-0,238
17,561	23,410	-0,383	-0,222
18,575	89,179	-0,236	-0,186
19,590	131,739	-0,258	-0,235
20,604	-41,453	-0,248	-0,090
21,619	78,178	-0,487	-0,367
22,634	48,044	-0,354	-0,233
23,648	152,284	-0,401	-0,387
24,663	137,091	-0,398	-0,367
25,677	36,768	-0,364	-0,227
26,692	421,530	-0,162	-0,245
27,707	-9,245	-0,456	-0,214
28,721	9,919	-0,370	-0,198
29,736	170,208	-0,362	-0,366
30,750	94,233	-0,375	-0,300
31,765	73,198	-0,481	-0,354
32,780	165,294	-0,258	-0,257
33,794	232,377	-0,270	-0,313
34,809	-11,880	-0,434	-0,200
35,823	163,549	-0,166	-0,165
36,838	27,151	-0,421	-0,248
37,853	150,874	-0,343	-0,329
38,867	-13,094	-0,458	-0,209
39,882	-25,461	-0,284	-0,118
40,896	11,874	-0,397	-0,215
41,911	17,447	-0,346	-0,193
42,926	118,221	-0,357	-0,311
43,940	606,213	-0,266	-0,470
44,955	234,544	-0,288	-0,336
45,969	176,865	-0,302	-0,310
46,984	18,064	-0,459	-0,257
47,999	29,321	-0,383	-0,229
49,013	50,059	-0,348	-0,231
50,028	141,175	-0,279	-0,260
51,042	174,698	-0,339	-0,346
52,057	53,826	-0,337	-0,227
53,071	146,311	-0,420	-0,397
54,086	206,760	-0,213	-0,234
55,101	800,000	-0,145	-0,315
56,115	96,877	-0,203	-0,164
57,130	227,264	-0,219	-0,251
58,144	-9,467	-0,363	-0,170
59,159	-17,117	-0,383	-0,170
60,174	192,193	-0,299	-0,318
61,188	573,548	-0,229	-0,395
62,203	40,037	-0,371	-0,234
63,217	34,631	-0,409	-0,251
64,232	77,655	-0,345	-0,259
65,247	192,745	-0,281	-0,299
66,261	0,674	-0,474	-0,238
67,276	191,832	-0,358	-0,380
68,290	89,803	-0,341	-0,268
69,305	62,123	-0,283	-0,199
70,320	200,318	-0,204	-0,221
71,334	54,115	-0,301	-0,204
72,349	301,456	-0,237	-0,309
73,363	-16,441	-0,352	-0,156
74,378	-1,376	-0,421	-0,208
75,393	-45,470	-0,446	-0,154
76,407	82,881	-0,262	-0,200
77,422	-58,392	-0,348	-0,106
78,436	-83,683	-0,366	-0,081
79,451	-75,688	-0,409	-0,101
80,466	141,332	-0,286	-0,266
81,480	-112,612	-0,369	-0,051
82,495	65,105	-0,257	-0,183
83,509	2,508	-0,311	-0,158
84,524	56,889	-0,196	-0,134
85,539	18,516	-0,437	-0,245
86,553	153,935	-0,172	-0,166
87,568	120,893	-0,187	-0,164
88,582	25,938	-0,385	-0,225
89,597	85,059	-0,299	-0,230
90,611	-46,414	-0,225	-0,077
91,626	-119,665	-0,259	0,031
92,641	-154,023	-0,281	-0,013
93,655	-19,919	-0,293	-0,126
94,670	2,110	-0,416	-0,210
95,684	74,464	-0,258	-0,190
96,699	-0,073	-0,370	-0,184
97,714	149,967	-0,220	-0,209
98,728	127,585	-0,097	-0,086
99,743	-83,098	-0,213	-0,048
100,757	210,928	-0,253	-0,279
101,772	8,771	-0,394	-0,208
102,787	-200,000	-0,079	-0,307
103,801	112,121	-0,393	-0,333
104,816	-0,983	-0,299	-0,148
105,830	3,945	-0,303	-0,155
106,845	196,416	-0,213	-0,227
107,860	123,130	-0,233	-0,205
108,874	48,814	-0,312	-0,205
109,889	83,119	-0,162	-0,124
110,903	71,066	-0,216	-0,157
111,918	77,300	-0,230	-0,171
112,933	-80,894	-0,260	-0,060
113,947	210,638	-0,191	-0,210
114,962	-29,737	-0,266	-0,106
115,976	113,376	-0,342	-0,291
116,991	91,853	-0,265	-0,209
118,006	-18,139	-0,341	-0,149
119,020	-45,754	-0,260	-0,090
120,035	63,330	-0,191	-0,134
121,049	35,855	-0,258	-0,159
122,064	-28,786	-0,397	-0,159
123,079	91,159	-0,156	-0,122
124,093	-114,343	-0,411	-0,055
125,108	-38,244	-0,260	-0,096
126,122	219,191	-0,315	-0,353
127,137	208,823	-0,223	-0,245
128,151	36,183	-0,179	-0,110
129,166	-31,019	-0,320	-0,126
130,181	134,923	-0,214	-0,195
131,195	97,034	-0,274	-0,220
132,210	47,405	-0,236	-0,154
133,224	54,469	-0,354	-0,238
134,239	325,843	-0,216	-0,290
135,254	72,359	-0,322	-0,234
136,268	45,973	-0,207	-0,133
137,283	187,905	-0,257	-0,268
138,297	125,729	-0,302	-0,267
139,312	275,259	-0,268	-0,333
140,327	46,162	-0,200	-0,129
141,341	800,000	-0,123	-0,252
142,356	-17,981	-0,245	-0,107
143,370	95,060	-0,218	-0,174
144,385	234,644	-0,141	-0,163
145,400	70,147	-0,336	-0,242
146,414	-84,970	-0,255	-0,055
147,429	226,477	-0,254	-0,289
148,443	84,520	-0,292	-0,223
149,458	-109,604	-0,234	-0,034
150,473	-76,057	-0,136	-0,033
151,487	224,701	-0,144	-0,163
152,502	104,080	-0,201	-0,165
153,516	692,047	-0,182	-0,335
154,531	70,300	-0,320	-0,231
155,546	-46,859	-0,207	-0,070
156,560	155,715	-0,130	-0,125
157,575	-39,452	-0,135	-0,049
158,589	100,394	-0,295	-0,239
159,604	228,469	-0,219	-0,249
160,619	93,148	-0,266	-0,210
161,633	-153,734	-0,224	0,011
162,648	800,000	-0,123	-0,253
163,662	-146,321	-0,187	0,011
164,677	154,139	-0,137	-0,132
165,692	-12,817	-0,207	-0,094
166,706	147,710	-0,192	-0,180
167,721	302,947	-0,208	-0,269
168,735	339,428	-0,133	-0,181
169,750	69,912	-0,157	-0,113
170,764	234,655	-0,195	-0,224
171,779	2,621	-0,206	-0,104
172,794	-115,048	-0,174	-0,023
173,808	81,434	-0,377	-0,284
174,823	5,220	-0,260	-0,133
175,837	-80,768	-0,198	-0,045
176,852	-128,533	-0,160	0,016
177,867	-7,195	-0,237	-0,112
178,881	129,348	-0,164	-0,146
179,896	800,000	-0,014	-0,036
180,910	374,855	-0,174	-0,248
181,925	623,270	-0,157	-0,277
182,940	35,728	-0,238	-0,145
183,954	-57,207	-0,264	-0,080
184,969	658,295	-0,139	-0,250
185,983	42,939	-0,208	-0,132
186,998	133,741	-0,176	-0,159
188,013	800,000	-0,062	-0,158
189,027	249,416	-0,147	-0,174
190,042	164,103	-0,269	-0,264
191,056	195,807	-0,230	-0,243
192,071	345,200	-0,166	-0,227
193,086	-25,746	-0,124	-0,051
194,100	41,505	-0,264	-0,166
195,115	55,628	-0,243	-0,163
196,129	27,495	-0,240	-0,140
197,144	-61,048	-0,348	-0,102
198,159	71,787	-0,247	-0,179
199,173	108,872	-0,212	-0,176
200,188	117,784	-0,181	-0,155
201,202	-107,926	-0,256	-0,038
202,217	-20,012	-0,170	-0,073
203,232	281,324	-0,103	-0,129
204,246	-141,914	-0,193	-0,013
205,261	-51,814	-0,251	-0,081
206,275	453,586	-0,117	-0,181
207,290	238,872	-0,187	-0,217
208,304	217,552	-0,275	-0,304
209,319	112,283	-0,174	-0,146
210,334	-107,457	-0,171	-0,026
211,348	-2,477	-0,303	-0,147
212,363	215,045	-0,244	-0,269
213,377	67,536	-0,172	-0,122
214,392	672,327	-0,080	-0,145
215,407	81,467	-0,197	-0,148
216,421	619,306	-0,084	-0,148
217,436	181,359	-0,180	-0,184
218,450	800,000	-0,075	-0,148
219,465	200,769	-0,217	-0,232
220,480	126,504	-0,202	-0,178
221,494	-25,688	-0,203	-0,083
222,509	36,309	-0,087	-0,053
223,523	-3,229	-0,211	0,102
224,538	29,941	-0,156	-0,092
225,553	80,541	-0,237	-0,177
226,567	70,293	-0,291	-0,208
227,582	130,729	-0,228	-0,203
228,596	800,000	-0,145	-0,293
229,611	-84,507	-0,082	-0,018
230,626	42,585	-0,109	-0,069
231,640	341,974	-0,137	-0,186
232,655	145,445	-0,112	-0,104
233,669	14,266	-0,251	-0,135
234,684	147,664	-0,166	-0,155
235,699	-73,065	-0,273	-0,069
236,713	800,000	-0,111	-0,220
237,728	571,683	-0,026	0,043
238,742	-96,677	-0,069	-0,012
239,757	60,113	-0,161	-0,110
240,772	-29,750	-0,291	-0,114
241,786	365,831	-0,190	-0,266
242,801	7,641	-0,125	-0,065
243,815	83,929	-0,220	-0,166
244,830	120,380	-0,153	-0,132
245,844	-81,559	-0,180	0,041
246,859	800,000	-0,188	-0,379
247,874	87,812	-0,239	-0,184
248,888	169,721	-0,157	-0,156
249,903	395,937	-0,169	-0,245
250,917	-136,145	-0,294	0,024
251,932	53,081	-0,197	-0,130
252,947	-62,797	-0,144	-0,041
253,961	-87,467	-0,246	-0,051
254,976	26,496	-0,243	-0,140
255,990	-91,599	-0,170	-0,033
257,005	-95,845	-0,136	-0,025
258,020	-57,431	-0,160	-0,048
259,034	-129,622	-0,174	0,016
260,049	-52,335	-0,146	-0,046
261,063	258,063	-0,087	-0,103
262,078	16,238	-0,192	-0,104
263,093	89,524	-0,203	-0,156
264,107	99,555	-0,172	-0,138
265,122	-86,169	-0,057	0,012
266,136	379,501	-0,080	-0,114
267,151	169,403	-0,188	-0,185
268,166	264,343	-0,216	-0,261
269,180	269,219	-0,203	-0,246
270,195	67,417	-0,137	-0,097
271,209	13,752	-0,278	-0,149
272,224	130,329	-0,191	-0,169
273,239	-0,785	-0,251	-0,122
274,253	157,909	-0,129	-0,124
275,268	76,785	-0,166	-0,121
276,282	-52,233	-0,257	-0,082
277,297	766,398	-0,098	-0,185
278,312	35,862	-0,223	-0,135
279,326	-13,371	-0,130	0,058
280,341	522,216	-0,087	-0,142
281,355	-73,243	-0,262	-0,066
282,370	800,000	-0,070	-0,180
283,384	53,788	-0,228	-0,151
284,399	65,117	-0,223	-0,155
285,414	581,715	-0,091	-0,155
286,428	-200,000	-0,027	-0,184
287,443	800,000	-0,064	-0,152
288,457	-200,000	-0,035	-0,164
289,472	75,286	-0,079	-0,057
290,487	738,451	-0,120	-0,222
291,501	281,579	-0,175	-0,216
292,516	-7,374	-0,292	-0,136
293,530	800,000	-0,060	-0,183
294,545	800,000	-0,056	-0,121
295,560	800,000	-0,042	-0,088
296,574	800,000	-0,070	-0,136
297,589	112,126	-0,260	-0,216
298,603	106,445	-0,274	-0,224
299,618	800,000	-0,132	-0,262
300,633	3,263	-0,103	-0,052
301,647	308,242	-0,138	-0,177
302,662	64,657	-0,056	-0,039
303,676	-23,748	-0,098	-0,040
304,691	173,775	-0,248	-0,246
305,706	201,165	-0,155	-0,165
306,720	800,000	-0,070	-0,183
307,735	131,354	-0,105	-0,093
308,749	116,978	-0,093	-0,079
309,764	67,193	-0,109	-0,076
310,779	294,141	-0,172	-0,217
311,793	154,169	-0,173	-0,163
312,808	92,311	-0,048	0,037
313,822	-34,112	-0,297	-0,112
314,837	46,466	-0,218	-0,139
315,852	362,464	-0,135	-0,187
316,866	251,960	-0,082	-0,096
317,881	458,276	-0,149	-0,228
318,895	247,881	-0,175	-0,204
319,910	145,802	-0,188	-0,173
320,925	221,254	-0,217	-0,240
321,939	-98,690	-0,177	0,031
322,954	-200,000	-0,013	0,041
323,968	-39,500	-0,197	-0,071
324,983	49,572	-0,079	0,051
325,997	57,354	-0,102	-0,068
327,012	-49,087	-0,203	-0,066
328,027	2,741	-0,215	-0,107
329,041	-25,759	-0,168	-0,068
330,056	-200,000	-0,031	-0,102
331,070	-64,181	-0,151	0,042
332,085	-15,855	-0,185	-0,080
333,100	506,536	-0,113	-0,181
334,114	323,766	-0,076	-0,099
335,129	-16,842	-0,215	-0,093
336,143	583,905	-0,105	-0,178
337,158	22,346	-0,115	0,064
338,173	-200,000	-0,023	-0,084
339,187	-123,985	-0,137	-0,015
340,202	51,591	-0,160	-0,104
341,216	-140,108	-0,127	-0,009
342,231	-45,522	-0,201	-0,068
343,246	-200,000	0,021	-0,128
344,260	390,251	-0,082	-0,117
345,275	-31,369	-0,153	-0,059
346,289	395,639	-0,061	0,087
347,304	356,087	-0,146	-0,200
348,319	34,788	-0,267	-0,160
349,333	572,309	-0,117	-0,196
350,348	-8,392	-0,252	-0,116
351,362	223,778	-0,151	-0,168
352,377	257,149	-0,118	-0,140
353,392	-42,035	-0,067	-0,023
354,406	-200,000	-0,026	-0,103
355,421	208,747	1313,618	1411,582
356,435	160,634	1474,200	1412,069
