DTS Sentinel unit serial number:	SN410029Multiplexer serial number:	ORYXHardware model number:	OX2-SRSoftware version number:	ORYX F/W v4,00 Oryx Data Collector v3.7.2.0data status	okinstallation	B3 Nyhavnadifferential loss correction	single-endedforward channel	channel 1reverse channel	N/Adate	2023/12/01time	10:17:30forward acquisition time	300,00reverse acquisition time	0,00gamma	499,1914k internal	0,3213k external	0,3213temperature offset calibration	1,0000default loss term (dB/km)	0,3820temperature slope calibration	1,0000multiplexer offset coefficient	1,0000multiplexer slope coefficient	1,0000fibre end	0,00T internal ref (°C)	8,03T ext. ref 1 (°C)	-6,30T ext. ref 2 (°C)	-6,43length (m)	temperature (°C)	Stokes	anti-Stokes-744,400	272,913	-0,132	-0,169
-743,385	387,993	-0,182	0,273
-742,371	800,000	-0,096	-0,239
-741,356	-200,000	0,089	0,286
-740,342	115,913	-0,237	-0,210
-739,327	353,681	-0,207	0,299
-738,312	8,136	-0,214	-0,116
-737,298	719,605	-0,125	0,241
-736,283	123,151	-0,174	-0,158
-735,269	-200,000	-0,083	0,324
-734,254	800,000	-0,062	-0,149
-733,239	-124,615	-0,320	0,036
-732,225	178,676	-0,103	-0,109
-731,210	123,233	0,140	0,127
-730,196	-123,257	-0,146	-0,017
-729,181	592,184	-0,026	-0,046
-728,167	162,408	-0,110	-0,112
-727,152	398,732	0,102	0,155
-726,137	-200,000	-0,004	-0,016
-725,123	184,817	-0,023	-0,025
-724,108	-67,336	-0,211	-0,060
-723,094	-173,351	-0,057	0,001
-722,079	603,420	-0,098	-0,177
-721,064	-200,000	0,014	-0,102
-720,050	-13,682	0,076	-0,036
-719,035	-179,078	-0,134	-0,002
-718,021	210,557	0,045	-0,052
-717,006	800,000	0,066	-0,142
-715,991	-29,602	-0,199	-0,082
-714,977	271,460	0,070	-0,089
-713,962	403,820	0,039	0,060
-712,948	148,504	-0,093	-0,091
-711,933	78,581	-0,127	-0,098
-710,918	-44,366	-0,041	0,015
-709,904	20,485	-0,126	-0,073
-708,889	-80,378	-0,119	0,029
-707,875	37,002	-0,122	-0,078
-706,860	164,525	-0,097	-0,099
-705,845	-125,322	-0,029	0,003
-704,831	-200,000	0,027	0,109
-703,816	800,000	-0,031	0,088
-702,802	-86,016	-0,089	-0,020
-701,787	-30,948	0,024	-0,010
-700,772	-89,160	-0,054	-0,011
-699,758	19,138	0,069	0,040
-698,743	-80,754	-0,096	0,023
-697,729	-200,000	0,028	-0,149
-696,714	222,981	0,066	0,077
-695,699	-200,000	-0,010	-0,122
-694,685	800,000	0,045	0,103
-693,670	800,000	0,020	0,056
-692,656	-200,000	-0,003	-0,127
-691,641	188,107	0,064	0,069
-690,627	68,336	-0,028	-0,021
-689,612	-200,000	-0,021	-0,074
-688,597	-200,000	0,004	0,113
-687,583	-200,000	0,008	-0,202
-686,568	117,582	-0,155	-0,138
-685,554	-41,403	-0,012	-0,005
-684,539	11,803	0,080	0,044
-683,524	427,709	-0,026	0,040
-682,510	-4,879	-0,157	-0,078
-681,495	800,000	0,023	0,056
-680,481	247,602	-0,104	-0,127
-679,466	-20,469	-0,099	-0,044
-678,451	-99,881	-0,076	-0,014
-677,437	552,548	0,051	0,090
-676,422	-200,000	0,000	0,005
-675,408	-105,863	0,079	-0,013
-674,393	-200,000	-0,009	-0,053
-673,378	-200,000	0,001	0,033
-672,364	348,698	-0,001	0,002
-671,349	-95,514	-0,115	-0,022
-670,335	-113,579	0,045	-0,006
-669,320	-136,416	-0,067	0,006
-668,305	50,169	-0,107	0,073
-667,291	40,275	-0,073	0,047
-666,276	86,003	-0,056	-0,044
-665,262	349,403	-0,032	-0,045
-664,247	-53,765	-0,124	0,041
-663,232	-143,454	0,210	0,014
-662,218	-43,518	0,042	-0,015
-661,203	-7,362	0,029	0,014
-660,189	-90,795	-0,059	-0,012
-659,174	-6,568	-0,106	0,052
-658,159	575,725	-0,025	-0,045
-657,145	-75,587	0,042	0,011
-656,130	-200,000	-0,004	-0,014
-655,116	-47,697	0,101	-0,035
-654,101	165,320	-0,065	0,067
-653,086	-64,211	-0,088	0,026
-652,072	91,880	0,155	0,126
-651,057	-53,767	-0,052	-0,017
-650,043	800,000	-0,007	-0,021
-649,028	-161,940	-0,130	0,005
-648,014	488,358	0,042	0,070
-646,999	472,200	-0,032	0,052
-645,984	52,792	0,122	-0,084
-644,970	-150,293	-0,104	-0,006
-643,955	800,000	-0,009	0,029
-642,941	-107,168	0,056	0,009
-641,926	-23,557	-0,075	0,032
-640,911	-15,556	0,075	-0,034
-639,897	-59,027	0,084	0,026
-638,882	800,000	-0,050	0,120
-637,868	261,020	-0,071	-0,089
-636,853	800,000	0,017	0,053
-635,838	39,138	-0,140	-0,090
-634,824	-24,259	0,057	-0,024
-633,809	-23,774	-0,035	0,015
-632,795	800,000	0,023	0,061
-631,780	800,000	-0,007	0,021
-630,765	103,751	-0,075	-0,064
-629,751	-44,754	-0,140	-0,050
-628,736	-75,015	0,055	-0,014
-627,722	789,744	0,028	-0,055
-626,707	77,426	-0,051	0,039
-625,692	-200,000	-0,001	-0,006
-624,678	-115,443	-0,087	-0,012
-623,663	17,639	-0,025	-0,014
-622,649	6,385	-0,103	0,055
-621,634	51,439	-0,112	0,077
-620,619	-162,406	-0,200	0,007
-619,605	-200,000	-0,022	0,078
-618,590	-200,000	0,016	0,078
-617,576	321,754	-0,046	0,063
-616,561	-88,823	-0,194	-0,041
-615,546	-51,960	0,093	0,031
-614,532	-200,000	-0,016	-0,078
-613,517	389,281	0,032	-0,048
-612,503	131,663	0,087	-0,081
-611,488	122,697	0,060	-0,054
-610,474	-200,000	-0,018	0,154
-609,459	132,898	-0,014	0,013
-608,444	-200,000	-0,008	0,041
-607,430	-200,000	0,016	0,063
-606,415	88,578	-0,067	-0,053
-605,401	150,171	-0,040	-0,039
-604,386	197,438	0,097	0,107
-603,371	-200,000	0,056	0,180
-602,357	800,000	0,054	-0,129
-601,342	107,333	-0,001	-0,001
-600,328	-200,000	-0,004	-0,140
-599,313	337,649	-0,014	-0,020
-598,298	800,000	0,071	-0,202
-597,284	-200,000	-0,019	-0,059
-596,269	161,300	0,082	-0,083
-595,255	-110,805	0,083	-0,012
-594,240	271,933	0,020	-0,026
-593,225	-8,878	0,027	0,013
-592,211	-45,415	0,066	-0,023
-591,196	103,425	0,017	0,015
-590,182	101,918	0,070	-0,059
-589,167	-200,000	-0,026	0,088
-588,152	681,607	0,015	0,029
-587,138	-200,000	0,004	-0,124
-586,123	134,553	0,138	-0,129
-585,109	-200,000	0,033	-0,107
-584,094	-20,150	-0,042	-0,019
-583,079	-200,000	0,054	0,186
-582,065	-0,953	0,028	-0,014
-581,050	-200,000	-0,003	-0,062
-580,036	-111,763	-0,094	0,014
-579,021	407,968	0,120	-0,183
-578,006	-200,000	0,017	-0,188
-576,992	-200,000	-0,067	-0,223
-575,977	3,143	0,050	-0,026
-574,963	-91,445	0,033	-0,007
-573,948	21,767	-0,205	0,120
-572,934	-200,000	-0,029	-0,182
-571,919	43,799	-0,137	-0,090
-570,904	-84,337	0,041	-0,009
-569,890	-26,757	-0,097	0,041
-568,875	13,728	0,042	-0,023
-567,861	800,000	0,027	-0,074
-566,846	163,522	0,159	0,161
-565,831	34,853	0,012	0,007
-564,817	-200,000	-0,003	-0,041
-563,802	41,115	-0,068	-0,044
-562,788	-200,000	0,009	-0,075
-561,773	-200,000	0,003	0,034
-560,758	-200,000	0,001	-0,035
-559,744	303,435	-0,144	0,193
-558,729	-200,000	0,007	0,135
-557,715	-200,000	-0,039	-0,146
-556,700	-200,000	0,005	-0,171
-555,685	-88,285	-0,030	-0,006
-554,671	173,029	-0,043	0,044
-553,656	-200,000	0,008	-0,055
-552,642	-52,819	0,099	-0,033
-551,627	-73,877	-0,039	-0,010
-550,612	-200,000	-0,023	-0,085
-549,598	492,974	-0,034	0,057
-548,583	7,154	0,019	0,010
-547,569	-200,000	-0,009	0,048
-546,554	-29,373	0,117	0,048
-545,539	564,869	-0,078	0,136
-544,525	47,638	-0,106	-0,071
-543,510	-37,635	0,099	0,038
-542,496	-200,000	-0,029	-0,105
-541,481	626,015	0,108	-0,197
-540,466	-94,260	-0,165	-0,032
-539,452	-200,000	0,005	0,067
-538,437	232,252	-0,037	-0,044
-537,423	168,921	0,043	-0,044
-536,408	-74,825	-0,142	0,036
-535,393	-200,000	-0,008	0,093
-534,379	-138,961	-0,148	-0,011
-533,364	-200,000	0,018	0,061
-532,350	123,904	0,073	0,066
-531,335	69,551	-0,067	0,050
-530,321	-200,000	0,027	0,154
-529,306	90,753	-0,033	0,026
-528,291	36,282	-0,082	-0,052
-527,277	226,889	-0,083	-0,098
-526,262	800,000	-0,020	-0,061
-525,248	-194,227	0,037	-0,000
-524,233	87,828	0,063	-0,050
-523,218	-200,000	0,003	0,021
-522,204	57,074	0,026	0,018
-521,189	172,146	-0,092	0,095
-520,175	-82,446	-0,116	-0,027
-519,160	-100,963	-0,145	-0,025
-518,145	36,604	0,077	-0,049
-517,131	-19,726	0,025	0,011
-516,116	535,876	-0,049	0,084
-515,102	800,000	-0,060	0,149
-514,087	-200,000	0,019	-0,126
-513,072	-200,000	-0,022	-0,097
-512,058	254,954	0,155	0,191
-511,043	-189,340	-0,080	0,001
-510,029	489,712	0,067	-0,111
-509,014	-58,812	0,030	0,009
-507,999	-2,648	-0,052	-0,026
-506,985	-200,000	0,003	0,044
-505,970	226,096	-0,093	0,108
-504,956	37,089	0,029	-0,019
-503,941	-200,000	-0,005	0,061
-502,926	-112,797	-0,053	-0,007
-501,912	197,530	0,057	0,062
-500,897	20,382	-0,100	0,058
-499,883	42,407	0,137	-0,089
-498,868	800,000	-0,038	-0,120
-497,853	-73,193	0,052	-0,013
-496,839	117,709	0,069	0,061
-495,824	417,421	-0,052	0,079
-494,810	111,115	0,066	-0,057
-493,795	800,000	0,026	0,054
-492,781	773,624	-0,037	-0,073
-491,766	180,405	-0,026	-0,028
-490,751	127,949	0,090	0,082
-489,737	507,818	-0,044	-0,074
-488,722	80,916	-0,023	-0,018
-487,708	160,665	-0,041	0,041
-486,693	99,331	0,052	-0,043
-485,678	-89,469	0,058	0,012
-484,664	-73,932	-0,088	-0,023
-483,649	-200,000	-0,024	-0,108
-482,635	275,584	0,052	-0,066
-481,620	-200,000	-0,028	0,106
-480,605	-123,568	0,194	0,022
-479,591	-94,141	-0,089	0,017
-478,576	-72,914	-0,080	0,021
-477,562	495,639	-0,033	0,055
-476,547	349,249	-0,062	-0,089
-475,532	-54,154	0,036	0,012
-474,518	310,980	-0,058	-0,078
-473,503	400,886	0,054	0,082
-472,489	-200,000	-0,014	-0,099
-471,474	321,345	-0,076	-0,103
-470,459	151,640	0,061	-0,059
-469,445	71,997	-0,141	-0,105
-468,430	-175,546	0,074	-0,001
-467,416	-178,852	0,174	-0,003
-466,401	81,937	0,073	0,057
-465,386	66,423	-0,075	-0,054
-464,372	126,717	0,065	0,059
-463,357	-200,000	0,001	-0,038
-462,343	-171,315	-0,206	-0,005
-461,328	8,084	0,076	-0,041
-460,313	-74,484	0,084	-0,022
-459,299	49,772	0,113	-0,076
-458,284	619,889	0,023	0,042
-457,270	-200,000	-0,045	-0,169
-456,255	-200,000	0,017	-0,129
-455,241	800,000	-0,004	-0,009
-454,226	-73,230	-0,131	-0,034
-453,211	-200,000	-0,005	-0,025
-452,197	800,000	0,022	0,048
-451,182	-83,194	0,123	0,028
-450,168	-41,635	-0,116	0,043
-449,153	146,512	0,020	-0,019
-448,138	-157,569	-0,056	-0,002
-447,124	53,014	-0,150	-0,102
-446,109	164,690	-0,075	0,076
-445,095	119,303	0,096	0,085
-444,080	656,551	0,031	-0,057
-443,065	212,628	-0,015	0,017
-442,051	-200,000	0,025	0,096
-441,036	-107,413	-0,073	0,011
-440,022	-200,000	0,003	-0,053
-439,007	-200,000	-0,019	0,076
-437,992	235,691	0,056	0,066
-436,978	210,501	-0,037	0,041
-435,963	-25,480	0,137	-0,058
-434,949	434,867	0,049	0,077
-433,934	23,246	0,021	0,012
-432,919	310,353	-0,116	-0,156
-431,905	80,657	0,102	0,079
-430,890	-200,000	-0,012	0,066
-429,876	-200,000	0,007	-0,055
-428,861	-200,000	-0,002	0,138
-427,846	800,000	0,021	-0,050
-426,832	302,649	-0,048	-0,064
-425,817	-200,000	-0,054	-0,203
-424,803	-5,959	-0,114	0,056
-423,788	-200,000	-0,018	-0,207
-422,773	-200,000	-0,012	0,124
-421,759	49,463	0,043	0,029
-420,744	54,665	0,118	0,081
-419,730	198,626	0,038	0,042
-418,715	25,658	0,054	-0,032
-417,701	-129,908	-0,095	-0,009
-416,686	-200,000	0,000	0,007
-415,671	64,508	0,073	0,053
-414,657	-104,369	0,081	-0,013
-413,642	358,557	0,028	0,040
-412,628	-151,011	-0,105	-0,006
-411,613	-200,000	-0,003	-0,034
-410,598	800,000	-0,023	-0,052
-409,584	-122,660	0,109	-0,013
-408,569	-200,000	0,012	0,114
-407,555	800,000	-0,030	0,087
-406,540	-200,000	0,021	-0,181
-405,525	-200,000	0,010	-0,053
-404,511	-58,313	-0,199	0,061
-403,496	95,461	0,055	-0,045
-402,482	-134,382	-0,059	-0,005
-401,467	-97,956	-0,131	-0,024
-400,452	166,726	-0,015	-0,015
-399,438	800,000	0,024	-0,069
-398,423	-18,479	0,112	-0,050
-397,409	-200,000	0,006	-0,089
-396,394	-83,912	0,061	-0,014
-395,379	219,473	-0,068	0,078
-394,365	-46,901	-0,070	0,024
-393,350	-200,000	0,028	0,146
-392,336	800,000	0,043	0,134
-391,321	-200,000	0,014	0,056
-390,306	23,355	-0,039	-0,023
-389,292	-82,084	-0,099	-0,023
-388,277	-200,000	-0,007	0,026
-387,263	-116,545	-0,042	-0,006
-386,248	800,000	0,048	0,117
-385,233	88,362	0,122	0,097
-384,219	463,406	-0,116	0,185
-383,204	800,000	-0,023	-0,047
-382,190	-200,000	0,004	0,066
-381,175	173,446	0,042	-0,043
-380,160	-29,891	-0,107	0,044
-379,146	-200,000	0,012	0,116
-378,131	-9,735	-0,020	0,010
-377,117	140,425	0,085	-0,080
-376,102	195,102	-0,018	-0,019
-375,088	800,000	0,026	-0,069
-374,073	66,377	-0,107	-0,078
-373,058	111,327	0,103	0,089
-372,044	-91,440	-0,074	0,015
-371,029	-200,000	0,020	0,193
-370,015	-112,573	0,036	0,005
-369,000	83,499	-0,055	-0,042
-367,985	-30,289	-0,035	-0,014
-366,971	255,461	-0,054	0,067
-365,956	-200,000	-0,027	0,118
-364,942	800,000	0,025	-0,060
-363,927	406,253	-0,032	0,049
-362,912	-200,000	0,015	0,073
-361,898	221,711	0,085	-0,097
-360,883	-17,118	-0,104	-0,047
-359,869	-122,570	-0,050	-0,006
-358,854	85,419	0,175	0,137
-357,839	-200,000	-0,003	0,067
-356,825	302,165	0,099	0,131
-355,810	-48,677	0,060	0,021
-354,796	111,673	0,054	0,047
-353,781	183,624	-0,083	-0,087
-352,766	-97,169	-0,081	-0,015
-351,752	258,900	0,096	-0,118
-350,737	800,000	0,012	0,037
-349,723	-81,224	0,088	0,021
-348,708	800,000	0,056	-0,132
-347,693	800,000	-0,009	0,022
-346,679	-99,651	-0,122	-0,022
-345,664	516,960	-0,028	-0,046
-344,650	-84,905	0,120	0,027
-343,635	182,342	0,121	0,127
-342,620	584,187	0,142	0,249
-341,606	377,419	-0,082	0,121
-340,591	372,886	0,027	0,040
-339,577	177,103	-0,035	0,037
-338,562	-200,000	0,024	-0,104
-337,548	491,480	0,061	0,101
-336,533	40,428	0,186	-0,119
-335,518	-200,000	0,028	0,095
-334,504	70,251	0,156	0,115
-333,489	800,000	0,007	-0,022
-332,475	-200,000	-0,029	-0,107
-331,460	-200,000	0,006	0,135
-330,445	800,000	0,040	0,093
-329,431	-200,000	-0,024	0,108
-328,416	-200,000	0,012	0,116
-327,402	111,168	0,045	-0,039
-326,387	-36,937	0,112	0,043
-325,372	37,749	-0,095	0,060
-324,358	589,416	-0,036	-0,063
-323,343	17,847	0,050	-0,029
-322,329	71,853	0,041	-0,030
-321,314	-144,076	0,177	-0,012
-320,299	-40,315	-0,105	0,039
-319,285	130,363	0,030	-0,027
-318,270	31,242	-0,097	0,059
-317,256	784,557	-0,014	0,027
-316,241	464,429	-0,032	-0,051
-315,226	102,642	0,023	0,019
-314,212	-55,213	0,060	-0,019
-313,197	800,000	-0,060	-0,140
-312,183	184,495	-0,038	0,040
-311,168	-200,000	-0,016	0,074
-310,153	-200,000	0,007	0,043
-309,139	172,525	-0,062	-0,064
-308,124	-31,185	0,188	0,075
-307,110	213,993	0,072	-0,082
-306,095	-32,836	-0,060	-0,024
-305,080	-132,690	0,065	0,006
-304,066	375,042	0,075	-0,109
-303,051	-19,108	0,110	-0,049
-302,037	68,269	0,093	-0,068
-301,022	-20,505	-0,042	0,018
-300,008	-200,000	0,004	-0,092
-298,993	30,132	0,133	0,081
-297,978	-200,000	0,009	0,033
-296,964	43,556	-0,044	-0,028
-295,949	74,259	-0,095	-0,071
-294,935	291,654	0,074	-0,096
-293,920	-50,642	-0,137	-0,046
-292,905	345,566	-0,025	-0,035
-291,891	800,000	0,044	0,099
-290,876	-82,139	-0,051	-0,012
-289,862	-87,010	0,138	0,030
-288,847	40,288	-0,018	0,012
-287,832	153,218	-0,052	-0,051
-286,818	-29,541	-0,101	-0,041
-285,803	-200,000	0,011	-0,053
-284,789	-7,585	0,129	0,062
-283,774	-200,000	0,004	0,038
-282,759	29,043	-0,012	0,007
-281,745	-64,950	0,074	0,021
-280,730	-103,196	0,022	0,004
-279,716	59,658	-0,048	0,033
-278,701	149,888	0,022	0,021
-277,686	-200,000	-0,005	-0,027
-276,672	362,007	-0,086	0,123
-275,657	800,000	-0,031	0,070
-274,643	-200,000	-0,008	0,043
-273,628	-200,000	-0,050	-0,242
-272,613	800,000	0,004	0,010
-271,599	800,000	0,012	0,029
-270,584	-43,942	0,038	0,014
-269,570	410,944	0,086	0,130
-268,555	-130,987	-0,053	-0,005
-267,540	76,600	0,035	-0,027
-266,526	126,437	-0,078	-0,070
-265,511	779,039	0,020	0,038
-264,497	-200,000	0,001	0,113
-263,482	-58,738	-0,114	-0,035
-262,467	481,551	0,080	0,130
-261,453	-185,133	0,049	-0,001
-260,438	11,407	-0,090	-0,049
-259,424	-200,000	-0,004	-0,031
-258,409	-28,205	0,077	0,031
-257,395	117,116	0,097	0,085
-256,380	-7,465	0,074	-0,036
-255,365	526,600	0,053	0,089
-254,351	-163,802	0,140	0,005
-253,336	70,567	-0,014	-0,010
-252,322	676,363	-0,038	-0,070
-251,307	208,913	0,013	0,014
-250,292	74,283	-0,066	0,049
-249,278	234,885	0,023	0,027
-248,263	800,000	0,033	0,072
-247,249	800,000	0,019	0,058
-246,234	800,000	0,030	-0,058
-245,219	-200,000	-0,015	0,050
-244,205	369,448	0,015	-0,022
-243,190	-200,000	-0,107	0,000
-242,176	800,000	0,033	0,067
-241,161	-200,000	-0,006	-0,165
-240,146	-0,135	-0,071	0,036
-239,132	-200,000	0,040	-0,166
-238,117	156,092	-0,093	-0,091
-237,103	-176,304	-0,090	0,002
-236,088	-67,370	0,105	-0,029
-235,073	0,539	-0,042	0,021
-234,059	800,000	-0,019	0,059
-233,044	-200,000	0,002	0,138
-232,030	-48,928	-0,018	0,006
-231,015	800,000	-0,117	-0,275
-230,000	6,571	0,057	-0,030
-228,986	800,000	-0,027	-0,076
-227,971	800,000	0,025	-0,062
-226,957	-179,895	0,080	0,001
-225,942	-200,000	-0,024	0,243
-224,927	108,547	0,100	0,085
-223,913	-0,096	-0,052	-0,026
-222,898	-200,000	-0,060	0,228
-221,884	800,000	0,023	0,051
-220,869	-95,365	0,125	-0,024
-219,855	170,439	0,044	0,044
-218,840	800,000	-0,075	0,180
-217,825	-200,000	-0,007	0,118
-216,811	247,718	0,067	0,081
-215,796	-200,000	-0,013	-0,066
-214,782	-200,000	-0,007	0,052
-213,767	-200,000	-0,010	0,111
-212,752	-200,000	0,045	0,159
-211,738	-200,000	-0,007	0,049
-210,723	-98,394	0,028	-0,005
-209,709	-200,000	-0,038	-0,166
-208,694	62,338	-0,050	-0,035
-207,679	-80,736	0,105	-0,024
-206,665	-14,538	-0,062	0,028
-205,650	-151,494	-0,101	-0,005
-204,636	493,748	-0,043	0,070
-203,621	-200,000	-0,019	0,097
-202,606	-64,252	-0,120	0,034
-201,592	272,734	0,080	-0,101
-200,577	800,000	-0,030	-0,064
-199,563	433,741	-0,015	-0,023
-198,548	200,038	0,072	0,079
-197,533	46,368	-0,097	-0,064
-196,519	213,833	-0,106	0,120
-195,504	538,399	0,064	-0,109
-194,490	229,772	0,059	-0,069
-193,475	800,000	-0,019	-0,046
-192,460	142,566	0,078	-0,074
-191,446	-155,917	-0,055	-0,002
-190,431	272,087	0,039	0,048
-189,417	800,000	-0,007	-0,018
-188,402	-51,353	0,049	-0,016
-187,387	374,082	0,069	-0,100
-186,373	321,143	-0,175	-0,237
-185,358	-38,095	0,047	-0,018
-184,344	-200,000	-0,014	0,056
-183,329	217,693	0,089	0,101
-182,315	-152,091	-0,136	-0,007
-181,300	800,000	-0,039	-0,104
-180,285	126,521	0,164	-0,147
-179,271	38,205	-0,035	0,022
-178,256	676,401	0,048	-0,088
-177,242	-200,000	0,025	0,118
-176,227	310,708	-0,031	-0,041
-175,212	6,976	0,064	0,034
-174,198	104,125	-0,110	0,091
-173,183	-5,143	-0,109	0,053
-172,169	12,764	0,026	-0,014
-171,154	-179,706	-0,026	-0,000
-170,139	36,485	0,026	-0,016
-169,125	164,167	0,084	-0,084
-168,110	19,967	-0,146	-0,083
-167,096	-93,024	-0,068	-0,013
-166,081	-105,829	-0,042	-0,007
-165,066	800,000	0,052	-0,127
-164,052	-165,327	0,177	-0,005
-163,037	-200,000	-0,007	-0,111
-162,023	-85,241	0,066	0,014
-161,008	-72,248	-0,043	-0,011
-159,993	-63,761	0,154	-0,044
-158,979	-141,872	0,088	-0,006
-157,964	145,907	-0,093	0,089
-156,950	-111,333	0,101	-0,014
-155,935	-200,000	-0,011	0,129
-154,920	-80,609	-0,133	-0,031
-153,906	12,589	-0,055	-0,030
-152,891	-200,000	0,024	-0,105
-151,877	-200,000	0,041	-0,138
-150,862	-131,632	-0,108	-0,010
-149,847	-200,000	-0,007	0,026
-148,833	-99,761	-0,144	0,025
-147,818	-26,057	-0,153	0,063
-146,804	-148,352	0,108	0,006
-145,789	24,669	-0,057	0,033
-144,775	-200,000	-0,000	0,005
-143,760	800,000	-0,017	-0,052
-142,745	248,765	-0,022	-0,026
-141,731	375,056	0,077	0,111
-140,716	-55,876	0,096	0,030
-139,702	190,397	0,083	-0,088
-138,687	380,154	0,042	-0,062
-137,672	-200,000	0,006	-0,061
-136,658	-39,119	-0,057	0,021
-135,643	55,480	-0,053	-0,036
-134,629	302,342	-0,053	-0,070
-133,614	296,305	0,013	0,017
-132,599	76,121	0,138	0,103
-131,585	269,169	0,048	0,060
-130,570	191,211	0,003	0,003
-129,556	-200,000	0,013	-0,154
-128,541	-66,839	-0,179	-0,050
-127,526	78,475	0,074	0,056
-126,512	114,564	-0,171	0,148
-125,497	25,238	0,070	0,041
-124,483	-200,000	-0,011	0,093
-123,468	-73,771	-0,073	-0,019
-122,453	-96,619	-0,097	0,018
-121,439	800,000	0,067	-0,207
-120,424	800,000	-0,036	0,085
-119,410	385,171	0,079	0,116
-118,395	327,796	-0,062	-0,084
-117,380	-7,991	0,177	-0,084
-116,366	-200,000	-0,026	0,158
-115,351	-163,814	-0,103	0,003
-114,337	800,000	0,030	-0,082
-113,322	340,095	-0,026	0,036
-112,307	782,332	-0,072	0,140
-111,293	776,963	0,046	0,089
-110,278	-63,102	0,201	0,058
-109,264	800,000	-0,015	0,035
-108,249	-200,000	0,004	0,089
-107,234	-151,724	-0,013	-0,001
-106,220	-200,000	-0,030	-0,100
-105,205	-35,274	0,140	0,053
-104,191	-108,220	0,185	-0,028
-103,176	155,254	-0,077	0,075
-102,162	-200,000	-0,026	0,181
-101,147	-200,000	-0,022	0,086
-100,132	-104,885	-0,092	0,015
-99,118	-164,662	0,083	-0,003
-98,103	22,058	-0,082	-0,047
-97,089	388,387	-0,055	-0,081
-96,074	583,319	-0,008	-0,013
-95,059	-96,819	-0,034	0,006
-94,045	-200,000	0,015	-0,073
-93,030	-49,333	0,097	-0,032
-92,016	-200,000	-0,054	-0,178
-91,001	800,000	-0,049	-0,106
-89,986	299,026	-0,035	0,045
-88,972	65,762	0,103	-0,074
-87,957	-59,489	0,073	-0,022
-86,943	-200,000	-0,013	0,080
-85,928	226,866	-0,016	0,018
-84,913	800,000	0,042	-0,109
-83,899	232,331	-0,038	-0,044
-82,884	-138,943	0,096	-0,007
-81,870	164,749	-0,071	-0,071
-80,855	-183,480	-0,036	-0,000
-79,840	-200,000	0,002	-0,104
-78,826	-120,971	0,171	0,020
-77,811	-200,000	-0,019	-0,067
-76,797	231,561	0,090	-0,105
-75,782	324,680	-0,030	0,041
-74,767	291,134	0,091	0,117
-73,753	-152,423	-0,083	0,004
-72,738	-119,491	-0,087	-0,010
-71,724	-138,761	-0,055	-0,004
-70,709	11,163	0,071	-0,038
-69,694	210,269	-0,097	0,108
-68,680	-200,000	0,023	-0,080
-67,665	-200,000	-0,008	0,032
-66,651	800,000	0,056	-0,113
-65,636	-50,527	0,112	-0,037
-64,622	800,000	0,034	-0,078
-63,607	105,964	-0,056	-0,047
-62,592	800,000	-0,027	-0,058
-61,578	396,635	-0,057	0,084
-60,563	800,000	0,042	0,115
-59,549	-49,970	-0,077	0,026
-58,534	54,527	-2,208	-1,499
-57,519	387,610	-1,160	-1,697
-56,505	-200,000	-0,419	-4,643
-55,490	649,261	0,964	1,747
-54,476	800,000	5,123	11,277
-53,461	-200,000	22,443	346,811
-52,446	800,000	757,762	2294,467
-51,432	533,976	1644,189	2758,212
-50,417	67,988	1643,226	1184,268
-49,403	15,648	1520,312	840,413
-48,388	9,913	1446,055	771,821
-47,373	19,299	1438,855	812,669
-46,359	13,364	1427,520	778,225
-45,344	8,219	1423,455	751,649
-44,330	8,163	1421,367	750,252
-43,315	8,045	1420,023	748,954
-42,300	8,155	1417,635	748,181
-41,286	8,160	1416,849	747,763
-40,271	8,128	1415,263	746,743
-39,257	8,118	1414,043	746,022
-38,242	8,168	1413,073	745,718
-37,227	8,149	1411,963	745,013
-36,213	8,163	1410,579	744,317
-35,198	8,173	1409,575	743,808
-34,184	8,163	1408,474	743,148
-33,169	8,051	1407,441	742,052
-32,154	8,128	1406,395	741,829
-31,140	8,128	1405,172	741,157
-30,125	8,131	1404,162	740,608
-29,111	8,108	1402,791	739,749
-28,096	8,092	1401,564	738,997
-27,082	8,102	1400,202	738,293
-26,067	8,034	1399,323	737,486
-25,052	8,025	1398,514	736,988
-24,038	8,080	1397,030	736,432
-23,023	8,081	1396,357	736,053
-22,009	8,071	1395,208	735,374
-20,994	8,065	1394,328	734,851
-19,979	8,051	1393,270	734,200
-18,965	8,021	1392,468	733,608
-17,950	7,976	1391,673	732,951
-16,936	8,017	1390,644	732,569
-15,921	7,941	1389,649	731,668
-14,906	7,976	1388,713	731,307
-13,892	8,006	1387,641	730,853
-12,877	7,951	1387,025	730,246
-11,863	7,958	1386,196	729,809
-10,848	7,903	1385,403	729,109
-9,833	7,915	1384,297	728,558
-8,819	7,878	1383,514	727,944
-7,804	7,884	1382,629	727,478
-6,790	7,919	1381,320	726,923
-5,775	7,877	1380,554	726,298
-4,760	7,896	1379,713	725,910
-3,746	7,915	1378,644	725,407
-2,731	7,943	1377,611	724,964
-1,717	7,857	1376,995	724,218
-0,702	7,872	1375,072	723,245
0,313	11,828	1285,490	694,055
1,327	27,566	677,361	400,793
2,342	42,664	116,438	74,580
3,356	-2,080	16,690	8,235
4,371	4,772	3,861	1,993
5,386	7,493	1,355	0,712
6,400	800,000	0,348	0,684
7,415	-3,062	-0,176	-0,086
8,429	289,587	-0,276	-0,353
9,444	118,956	-0,314	-0,273
10,459	357,962	-0,194	-0,274
11,473	-7,088	-0,351	-0,167
12,488	62,421	-0,156	-0,109
13,502	23,411	-0,328	-0,189
14,517	140,217	-0,352	-0,327
15,531	89,410	-0,317	-0,249
16,546	176,300	-0,266	-0,272
17,561	11,384	-0,267	-0,143
18,575	2,215	-0,144	0,073
19,590	49,505	-0,287	-0,190
20,604	-45,426	-0,191	-0,066
21,619	54,175	-0,365	-0,247
22,634	-55,479	-0,427	-0,134
23,648	144,557	-0,348	-0,327
24,663	40,948	-0,448	-0,284
25,677	59,984	-0,268	-0,186
26,692	34,451	-0,425	-0,261
27,707	-4,089	-0,320	-0,155
28,721	153,824	-0,369	-0,356
29,736	-24,874	-0,391	-0,163
30,750	82,833	-0,345	-0,264
31,765	132,500	-0,358	-0,325
32,780	48,781	-0,318	-0,209
33,794	61,140	-0,405	-0,282
34,809	105,582	-0,307	-0,255
35,823	51,189	-0,432	-0,287
36,838	466,107	-0,268	-0,424
37,853	-66,020	-0,409	-0,114
38,867	711,828	-0,121	-0,226
39,882	170,227	-0,306	-0,308
40,896	270,102	-0,217	-0,269
41,911	117,894	-0,375	-0,324
42,926	29,146	-0,417	-0,248
43,940	-70,729	-0,476	-0,125
44,955	10,190	-0,325	-0,173
45,969	187,046	-0,302	-0,317
46,984	6,691	-0,340	-0,177
47,999	32,852	-0,320	-0,194
49,013	109,845	-0,258	-0,218
50,028	249,501	-0,183	-0,218
51,042	150,170	-0,374	-0,356
52,057	33,908	-0,284	-0,173
53,071	128,328	-0,309	-0,276
54,086	-16,955	-0,403	-0,178
55,101	280,164	-0,346	-0,435
56,115	5,313	-0,313	-0,161
57,130	76,297	-0,393	-0,292
58,144	-29,751	-0,416	-0,166
59,159	166,978	-0,323	-0,321
60,174	36,361	-0,425	-0,262
61,188	-79,815	-0,334	-0,078
62,203	-84,229	-0,301	-0,066
63,217	182,440	-0,238	-0,247
64,232	137,956	-0,349	-0,321
65,247	-15,662	-0,191	-0,085
66,261	-28,261	-0,286	-0,115
67,276	-27,369	-0,399	-0,162
68,290	88,021	-0,383	-0,297
69,305	182,538	-0,245	-0,253
70,320	103,090	-0,218	-0,179
71,334	-63,142	-0,253	-0,073
72,349	-64,748	-0,434	-0,122
73,363	-50,412	-0,226	-0,074
74,378	132,040	-0,268	-0,242
75,393	100,140	-0,314	-0,255
76,407	154,919	-0,204	-0,197
77,422	66,809	-0,330	-0,235
78,436	11,863	-0,212	-0,114
79,451	-57,096	-0,302	-0,093
80,466	181,525	-0,330	-0,341
81,480	5,622	-0,312	-0,161
82,495	52,410	-0,339	-0,226
83,509	-1,008	-0,430	-0,212
84,524	727,066	-0,131	-0,246
85,539	-126,092	-0,340	0,035
86,553	-5,997	-0,296	-0,141
87,568	3,371	-0,230	-0,117
88,582	-52,213	-0,281	-0,091
89,597	99,442	-0,353	-0,286
90,611	123,819	-0,285	-0,250
91,626	145,620	-0,280	-0,262
92,641	37,611	-0,207	-0,128
93,655	1,015	-0,405	-0,202
94,670	67,755	-0,402	-0,287
95,684	19,564	-0,268	-0,150
96,699	187,396	-0,234	-0,245
97,714	139,055	-0,220	-0,202
98,728	49,607	-0,280	-0,184
99,743	-118,524	-0,215	-0,026
100,757	6,765	-0,253	-0,131
101,772	95,351	-0,288	-0,229
102,787	800,000	-0,118	-0,284
103,801	175,383	-0,204	-0,207
104,816	-57,020	-0,260	-0,080
105,830	561,547	-0,183	-0,311
106,845	190,406	-0,313	-0,328
107,860	47,184	-0,218	-0,142
108,874	-70,571	-0,207	-0,054
109,889	-86,879	-0,366	-0,077
110,903	-34,947	-0,267	-0,101
111,918	111,643	-0,261	-0,220
112,933	-19,127	-0,273	-0,118
113,947	-1,779	-0,148	-0,072
114,962	166,373	-0,229	-0,227
115,976	-7,238	-0,279	-0,131
116,991	297,602	-0,201	-0,258
118,006	26,863	-0,289	-0,169
119,020	-36,989	-0,330	-0,123
120,035	800,000	-0,074	-0,177
121,049	217,158	-0,212	-0,236
122,064	15,461	-0,118	-0,065
123,079	102,608	-0,219	-0,179
124,093	426,330	-0,154	-0,232
125,108	179,718	-0,170	-0,174
126,122	110,302	-0,136	-0,114
127,137	22,018	-0,256	-0,145
128,151	23,164	-0,260	-0,149
129,166	-15,625	-0,139	-0,062
130,181	-5,776	-0,246	-0,117
131,195	179,444	-0,259	-0,265
132,210	55,203	-0,259	-0,174
133,224	126,476	-0,274	-0,242
134,239	230,842	-0,209	-0,239
135,254	224,415	-0,151	-0,170
136,268	183,973	-0,091	-0,094
137,283	-131,327	-0,236	-0,021
138,297	288,359	-0,243	-0,308
139,312	-49,230	-0,336	-0,111
140,327	219,054	-0,220	-0,245
141,341	82,143	-0,228	-0,172
142,356	-28,188	-0,130	-0,052
143,370	39,091	-0,159	-0,099
144,385	116,457	-0,214	-0,183
145,400	59,577	-0,206	-0,142
146,414	295,108	-0,128	-0,163
147,429	75,674	-0,228	-0,167
148,443	36,007	-0,259	-0,158
149,458	-11,951	-0,227	-0,103
150,473	-83,986	-0,234	-0,051
151,487	166,721	-0,218	-0,215
152,502	220,807	-0,240	-0,269
153,516	44,738	-0,220	-0,140
154,531	57,261	-0,259	-0,176
155,546	-0,868	-0,292	-0,143
156,560	-115,911	-0,241	-0,031
157,575	-7,195	-0,299	-0,140
158,589	800,000	-0,125	-0,257
159,604	97,262	-0,343	-0,273
160,619	451,297	-0,158	-0,244
161,633	287,183	-0,316	-0,398
162,648	800,000	-0,144	-0,282
163,662	65,619	-0,219	-0,154
164,677	-4,802	-0,290	-0,139
165,692	-200,000	-0,092	-0,293
166,706	154,070	-0,189	-0,180
167,721	150,107	-0,232	-0,219
168,735	360,500	-0,201	-0,281
169,750	80,481	-0,185	-0,139
170,764	142,600	-0,216	-0,200
171,779	-11,054	-0,178	-0,081
172,794	-8,389	-0,180	-0,084
173,808	122,716	-0,200	-0,174
174,823	132,692	-0,132	-0,118
175,837	25,788	-0,299	-0,173
176,852	251,937	-0,189	-0,224
177,867	58,827	-0,302	-0,206
178,881	72,439	-0,201	-0,145
179,896	-51,135	-0,186	-0,060
180,910	-44,298	-0,357	-0,123
181,925	220,620	-0,223	-0,248
182,940	173,041	-0,210	-0,210
183,954	225,185	-0,143	-0,161
184,969	-136,609	-0,176	-0,014
185,983	113,597	-0,228	-0,192
186,998	111,128	-0,144	-0,120
188,013	138,808	-0,225	-0,205
189,027	-121,539	-0,316	0,036
190,042	4,022	-0,370	-0,187
191,056	11,192	-0,204	-0,108
192,071	119,528	-0,241	-0,207
193,086	800,000	-0,069	-0,153
194,100	482,341	-0,080	-0,126
195,115	139,480	-0,170	-0,155
196,129	109,013	-0,277	-0,230
197,144	169,184	-0,232	-0,230
198,159	-14,850	-0,205	-0,091
199,173	-144,395	-0,218	0,014
200,188	172,471	-0,078	-0,077
201,202	-200,000	-0,056	-0,188
202,217	360,551	-0,099	-0,138
203,232	2,243	-0,248	-0,124
204,246	-85,547	-0,271	-0,058
205,261	-47,437	-0,234	-0,078
206,275	-94,726	-0,188	-0,035
207,290	449,526	-0,117	-0,179
208,304	172,073	-0,075	-0,074
209,319	-57,875	-0,167	-0,050
210,334	28,737	-0,173	-0,101
211,348	192,124	-0,274	-0,287
212,363	-142,802	-0,163	0,011
213,377	147,256	-0,073	-0,068
214,392	472,712	0,014	-0,021
215,407	185,231	0,026	-0,027
216,421	-101,098	-0,254	-0,043
217,436	-155,123	-0,189	-0,008
218,450	-200,000	-0,026	-0,123
219,465	136,505	-0,139	-0,125
220,480	-73,256	-0,263	-0,066
221,494	-140,964	-0,202	-0,014
222,509	168,242	-0,170	-0,167
223,523	100,695	-0,138	-0,111
224,538	269,073	-0,179	-0,218
225,553	-1,101	-0,204	-0,099
226,567	222,217	-0,234	-0,260
227,582	776,572	-0,147	-0,278
228,596	164,106	-0,097	-0,095
229,611	-179,323	-0,123	0,002
230,626	23,051	-0,214	-0,121
231,640	124,248	-0,183	-0,159
232,655	151,359	-0,211	-0,198
233,669	315,337	-0,118	-0,155
234,684	131,917	-0,206	-0,183
235,699	800,000	-0,108	-0,211
236,713	29,787	-0,074	-0,044
237,728	-100,454	-0,059	0,010
238,742	326,727	-0,167	-0,222
239,757	15,127	-0,193	-0,104
240,772	28,685	-0,203	-0,119
241,786	-56,677	-0,300	-0,091
242,801	242,006	-0,115	-0,133
243,815	98,461	-0,163	-0,130
244,830	800,000	-0,124	-0,246
245,844	330,361	-0,124	-0,165
246,859	301,058	-0,158	-0,202
247,874	67,585	-0,166	-0,117
248,888	-88,092	-0,153	-0,031
249,903	-199,078	-0,211	0,001
250,917	-40,864	-0,118	-0,042
251,932	-14,908	-0,236	-0,104
252,947	100,843	-0,141	-0,113
253,961	565,569	-0,161	-0,270
254,976	120,140	-0,214	-0,183
255,990	-200,000	-0,045	-0,164
257,005	356,750	-0,167	-0,230
258,020	423,444	-0,085	-0,126
259,034	-49,192	-0,085	-0,028
260,049	205,951	-0,213	-0,229
261,063	-45,389	-0,184	-0,063
262,078	326,434	-0,154	-0,203
263,093	88,995	-0,215	-0,165
264,107	1,260	-0,280	-0,138
265,122	-6,043	-0,165	-0,078
266,136	21,228	-0,195	-0,109
267,151	394,986	-0,098	-0,141
268,166	800,000	-0,060	-0,120
269,180	12,428	-0,239	-0,127
270,195	800,000	-0,108	-0,219
271,209	728,148	-0,041	0,076
272,224	800,000	-0,106	-0,220
273,239	180,315	-0,082	-0,083
274,253	-153,031	-0,145	0,007
275,268	162,662	-0,180	-0,174
276,282	-59,989	-0,306	-0,089
277,297	-26,251	-0,240	-0,096
278,312	149,902	-0,163	-0,152
279,326	-100,572	-0,236	-0,040
280,341	800,000	-0,120	-0,247
281,355	800,000	-0,103	-0,256
282,370	119,699	-0,041	-0,035
283,384	-34,895	-0,173	-0,065
284,399	392,944	-0,077	-0,110
285,414	800,000	-0,076	-0,166
286,428	606,675	-0,142	-0,244
287,443	172,886	-0,151	-0,150
288,457	-1,857	-0,099	0,048
289,472	18,460	-0,062	-0,034
290,487	25,184	-0,172	-0,098
291,501	800,000	-0,072	-0,169
292,516	-200,000	-0,038	-0,155
293,530	800,000	-0,076	-0,188
294,545	187,626	0,057	-0,059
295,560	180,109	-0,175	-0,176
296,574	-174,601	-0,203	0,004
297,589	-10,390	-0,262	-0,119
298,603	370,529	-0,114	-0,159
299,618	301,005	-0,113	-0,144
300,633	-83,256	-0,108	-0,024
301,647	588,924	-0,108	-0,183
302,662	147,067	-0,167	-0,154
303,676	-85,350	-0,233	-0,049
304,691	800,000	-0,078	-0,149
305,706	-18,891	-0,173	-0,074
306,720	800,000	-0,094	-0,188
307,735	-117,299	-0,214	-0,026
308,749	-13,269	-0,165	-0,073
309,764	-28,805	-0,232	-0,091
310,779	51,840	-0,129	-0,084
311,793	526,984	-0,069	-0,113
312,808	58,083	-0,165	-0,111
313,822	2,407	-0,159	-0,079
314,837	-14,751	-0,185	-0,081
315,852	550,282	-0,079	-0,131
316,866	-37,825	-0,179	0,065
317,881	499,904	-0,148	-0,235
318,895	800,000	-0,073	-0,154
319,910	-68,566	-0,116	-0,031
320,925	450,503	-0,084	-0,128
321,939	-123,017	-0,320	0,035
322,954	-70,065	-0,173	-0,045
323,968	429,139	-0,084	-0,125
324,983	-200,000	-0,025	-0,132
325,997	119,516	-0,132	-0,112
327,012	239,661	-0,123	-0,141
328,027	241,006	-0,099	-0,113
329,041	111,202	-0,130	-0,107
330,056	-200,000	0,009	0,065
331,070	800,000	-0,091	-0,185
332,085	-1,401	-0,055	0,027
333,100	-68,991	-0,061	-0,016
334,114	135,021	-0,189	-0,168
335,129	199,519	-0,120	-0,126
336,143	160,678	-0,087	-0,083
337,158	800,000	-0,084	-0,202
338,173	545,460	-0,083	-0,136
339,187	-43,982	-0,113	0,039
340,202	279,371	-0,030	0,037
341,216	-200,000	-0,028	-0,089
342,231	-74,075	-0,193	-0,047
343,246	156,215	-0,137	-0,130
344,260	70,492	-0,158	-0,112
345,275	618,857	-0,058	-0,099
346,289	800,000	-0,048	0,103
347,304	186,456	-0,150	-0,153
348,319	-30,260	-0,314	-0,121
349,333	83,266	-0,188	-0,140
350,348	800,000	-0,046	-0,103
351,362	700,929	-0,104	-0,187
352,377	-47,584	-0,109	-0,036
353,392	337,160	-0,050	0,066
354,406	-112,704	-0,250	0,034
355,421	207,789	1311,095	1400,763
356,435	159,857	1471,328	1401,207
