DTS Sentinel unit serial number:	SN410029Multiplexer serial number:	ORYXHardware model number:	OX2-SRSoftware version number:	ORYX F/W v4,00 Oryx Data Collector v3.7.2.0data status	okinstallation	B3 Nyhavnadifferential loss correction	single-endedforward channel	channel 1reverse channel	N/Adate	2023/12/05time	05:12:30forward acquisition time	300,00reverse acquisition time	0,00gamma	499,1914k internal	0,3201k external	0,3201temperature offset calibration	1,0000default loss term (dB/km)	0,3820temperature slope calibration	1,0000multiplexer offset coefficient	1,0000multiplexer slope coefficient	1,0000fibre end	0,00T internal ref (°C)	14,06T ext. ref 1 (°C)	-0,91T ext. ref 2 (°C)	-0,94length (m)	temperature (°C)	Stokes	anti-Stokes-744,400	-2,255	-0,237	-0,121
-743,385	800,000	-0,119	0,297
-742,371	280,329	-0,239	-0,312
-741,356	-200,000	-0,026	0,209
-740,342	223,790	-0,166	-0,195
-739,327	-200,000	0,011	0,273
-738,312	169,779	-0,277	-0,288
-737,298	-200,000	-0,059	0,241
-736,283	6,036	-0,304	-0,163
-735,269	-200,000	-0,008	0,293
-734,254	217,826	-0,156	-0,181
-733,239	40,912	-0,270	0,177
-732,225	-200,000	-0,016	-0,085
-731,210	276,975	0,099	0,129
-730,196	580,080	0,069	0,124
-729,181	-67,264	-0,101	-0,029
-728,167	-200,000	0,002	-0,026
-727,152	800,000	-0,002	0,005
-726,137	-140,676	0,111	0,008
-725,123	800,000	-0,043	-0,097
-724,108	-39,734	-0,067	-0,025
-723,094	-83,292	-0,095	-0,022
-722,079	-15,619	-0,151	-0,070
-721,064	222,813	-0,041	-0,048
-720,050	342,335	-0,020	-0,028
-719,035	-36,008	-0,189	-0,074
-718,021	213,444	0,016	-0,019
-717,006	363,445	-0,066	-0,096
-715,991	732,213	-0,065	-0,128
-714,977	-128,970	-0,019	-0,002
-713,962	800,000	-0,021	0,051
-712,948	46,228	-0,023	0,015
-711,933	64,122	0,055	0,040
-710,918	160,603	0,081	0,083
-709,904	642,870	-0,032	0,060
-708,889	-119,939	-0,095	-0,012
-707,875	-200,000	0,001	-0,050
-706,860	-200,000	0,011	0,048
-705,845	219,636	0,092	0,107
-704,831	-42,340	0,059	0,022
-703,816	31,151	0,091	-0,057
-702,802	-117,846	0,131	-0,017
-701,787	-82,235	-0,073	-0,017
-700,772	800,000	0,016	0,043
-699,758	54,839	-0,061	-0,043
-698,743	800,000	-0,017	0,050
-697,729	-93,604	-0,058	0,012
-696,714	800,000	-0,015	-0,035
-695,699	-37,088	0,026	-0,010
-694,685	30,843	0,057	0,036
-693,670	-200,000	0,007	-0,025
-692,656	-137,758	-0,103	-0,008
-691,641	361,450	-0,058	-0,084
-690,627	-82,410	0,070	0,016
-689,612	-147,282	0,145	-0,009
-688,597	-200,000	0,008	-0,056
-687,583	-200,000	-0,009	-0,110
-686,568	264,503	-0,013	-0,016
-685,554	800,000	-0,040	-0,083
-684,539	-15,903	0,104	0,048
-683,524	52,354	-0,099	0,069
-682,510	800,000	0,034	0,087
-681,495	800,000	-0,033	-0,094
-680,481	17,451	-0,091	-0,052
-679,466	-200,000	0,000	-0,071
-678,451	586,143	-0,053	0,096
-677,437	-61,817	0,051	0,015
-676,422	-92,641	0,059	0,012
-675,408	185,916	0,062	-0,067
-674,393	148,206	-0,048	-0,047
-673,378	164,778	-0,068	-0,070
-672,364	800,000	-0,117	-0,276
-671,349	5,276	0,082	-0,044
-670,335	-200,000	-0,009	-0,122
-669,320	-21,581	0,022	-0,010
-668,305	-72,383	0,050	0,013
-667,291	271,170	-0,087	0,111
-666,276	-200,000	-0,013	0,047
-665,262	51,397	-0,075	-0,051
-664,247	-200,000	-0,004	0,051
-663,232	295,579	-0,101	-0,134
-662,218	355,707	0,036	-0,052
-661,203	-200,000	-0,014	0,301
-660,189	62,240	0,075	0,055
-659,174	209,395	-0,081	0,092
-658,159	111,623	-0,117	-0,102
-657,145	-81,200	-0,103	0,025
-656,130	800,000	-0,013	-0,034
-655,116	-93,937	0,169	0,033
-654,101	-200,000	-0,024	0,099
-653,086	-200,000	0,008	0,038
-652,072	-167,743	0,034	-0,001
-651,057	-41,303	0,010	-0,004
-650,043	468,100	-0,009	-0,015
-649,028	62,977	-0,045	0,032
-648,014	-200,000	-0,024	0,223
-646,999	115,042	0,037	-0,032
-645,984	-200,000	0,029	0,105
-644,970	164,180	-0,122	-0,125
-643,955	275,776	-0,140	-0,181
-642,941	-200,000	-0,038	-0,135
-641,926	-200,000	-0,019	-0,134
-640,911	-42,252	0,068	0,025
-639,897	-200,000	-0,003	-0,121
-638,882	356,691	0,078	-0,113
-637,868	-94,625	-0,061	0,012
-636,853	-200,000	-0,012	-0,084
-635,838	-24,995	-0,071	-0,030
-634,824	361,955	-0,029	0,042
-633,809	-44,397	0,066	0,024
-632,795	-37,213	0,079	-0,031
-631,780	-8,452	0,032	0,015
-630,765	-200,000	0,051	-0,210
-629,751	-200,000	0,018	-0,155
-628,736	-200,000	-0,008	0,049
-627,722	-200,000	-0,132	-0,000
-626,707	-25,407	0,018	0,007
-625,692	-61,605	0,136	-0,041
-624,678	-72,120	0,112	0,030
-623,663	-51,666	0,042	-0,014
-622,649	800,000	0,039	-0,092
-621,634	7,822	-0,119	0,065
-620,619	701,260	0,027	-0,051
-619,605	281,984	-0,075	0,097
-618,590	409,135	0,047	0,072
-617,576	-200,000	-0,000	0,102
-616,561	800,000	-0,016	-0,041
-615,546	-81,957	-0,041	-0,010
-614,532	-200,000	-0,013	-0,092
-613,517	107,117	-0,080	-0,069
-612,503	-50,829	0,126	0,042
-611,488	-200,000	0,003	0,057
-610,474	558,929	-0,026	0,046
-609,459	66,681	-0,124	0,091
-608,444	-200,000	-0,053	0,192
-607,430	-31,900	-0,073	-0,030
-606,415	-108,970	-0,134	0,020
-605,401	-17,540	-0,053	0,024
-604,386	107,099	-0,074	0,063
-603,371	800,000	0,046	-0,119
-602,357	-200,000	-0,053	-0,187
-601,342	82,637	0,052	0,041
-600,328	800,000	0,020	-0,044
-599,313	-18,773	-0,104	-0,047
-598,298	117,706	-0,074	-0,066
-597,284	-143,214	-0,155	0,011
-596,269	595,595	0,036	0,065
-595,255	-96,676	0,159	0,030
-594,240	-147,534	-0,075	-0,004
-593,225	108,630	-0,134	-0,116
-592,211	800,000	0,034	0,101
-591,196	263,060	-0,057	0,072
-590,182	800,000	0,065	0,142
-589,167	-200,000	0,028	0,197
-588,152	71,382	-0,119	0,089
-587,138	28,213	-0,023	0,014
-586,123	434,633	-0,098	0,155
-585,109	-14,763	-0,102	-0,047
-584,094	-63,668	0,122	-0,036
-583,079	739,203	0,085	0,165
-582,065	-123,353	0,100	-0,011
-581,050	-200,000	0,028	0,113
-580,036	-145,205	-0,076	-0,005
-579,021	453,647	0,040	-0,065
-578,006	202,117	-0,033	0,037
-576,992	-126,687	0,116	0,012
-575,977	-92,644	-0,048	0,010
-574,963	370,369	0,041	0,061
-573,948	-200,000	0,003	0,149
-572,934	-170,458	-0,026	-0,001
-571,919	391,452	0,008	-0,012
-570,904	-198,700	-0,113	0,000
-569,890	384,207	0,012	0,018
-568,875	142,159	-0,073	0,070
-567,861	129,088	-0,103	-0,095
-566,846	293,361	0,031	-0,041
-565,831	59,010	0,068	-0,048
-564,817	-200,000	0,003	0,086
-563,802	-200,000	0,000	-0,065
-562,788	-200,000	-0,017	-0,068
-561,773	509,788	0,016	0,026
-560,758	443,407	-0,094	0,149
-559,744	-113,244	0,080	0,011
-558,729	49,216	-0,107	-0,072
-557,715	374,197	-0,054	-0,079
-556,700	-200,000	-0,029	-0,101
-555,685	-200,000	0,010	-0,144
-554,671	-200,000	0,014	-0,060
-553,656	696,943	0,015	-0,028
-552,642	609,203	0,059	0,107
-551,627	800,000	0,018	0,038
-550,612	-41,407	-0,087	-0,032
-549,598	800,000	-0,062	-0,133
-548,583	-30,632	-0,024	-0,010
-547,569	681,879	0,047	0,089
-546,554	800,000	-0,027	0,075
-545,539	-200,000	0,021	0,070
-544,525	297,385	0,035	0,047
-543,510	175,503	0,047	0,049
-542,496	-200,000	-0,016	0,082
-541,481	-62,748	-0,098	0,029
-540,466	-200,000	0,017	0,109
-539,452	-200,000	0,024	0,091
-538,437	-200,000	0,035	0,169
-537,423	-200,000	-0,015	-0,066
-536,408	158,972	0,059	-0,060
-535,393	-200,000	-0,021	-0,087
-534,379	103,009	-0,124	-0,105
-533,364	7,785	-0,039	-0,021
-532,350	800,000	0,050	-0,107
-531,335	-63,350	-0,144	0,043
-530,321	56,227	-0,053	0,037
-529,306	22,667	-0,066	0,039
-528,291	-200,000	0,002	0,073
-527,277	-200,000	-0,004	0,070
-526,262	-23,080	-0,003	0,001
-525,248	54,576	0,087	-0,060
-524,233	307,785	0,053	0,072
-523,218	387,733	-0,036	0,054
-522,204	293,933	-0,037	0,049
-521,189	-40,624	0,039	-0,015
-520,175	-160,228	-0,129	-0,005
-519,160	59,515	-0,056	0,040
-518,145	-200,000	-0,013	0,057
-517,131	248,451	0,029	-0,035
-516,116	-55,785	0,105	-0,034
-515,102	-41,404	-0,077	-0,028
-514,087	179,008	-0,041	0,044
-513,072	-133,004	-0,077	-0,007
-512,058	800,000	-0,067	0,155
-511,043	263,647	-0,012	-0,015
-510,029	-60,606	0,139	-0,042
-509,014	393,325	-0,031	-0,047
-507,999	469,400	0,019	0,030
-506,985	-5,110	0,009	0,005
-505,970	-200,000	0,007	-0,158
-504,956	-200,000	-0,011	-0,115
-503,941	73,160	0,025	-0,019
-502,926	103,933	-0,092	-0,078
-501,912	800,000	-0,054	0,140
-500,897	133,080	0,086	-0,080
-499,883	4,058	-0,066	0,035
-498,868	87,413	-0,062	-0,050
-497,853	-200,000	0,031	-0,127
-496,839	190,444	-0,164	0,178
-495,824	-200,000	-0,008	0,067
-494,810	604,031	-0,043	0,078
-493,795	186,311	-0,103	-0,111
-492,781	-200,000	-0,029	0,116
-491,766	506,494	-0,056	-0,093
-490,751	800,000	0,007	0,019
-489,737	30,516	0,064	-0,039
-488,722	23,997	0,033	-0,020
-487,708	109,564	-0,090	-0,077
-486,693	19,656	0,051	0,029
-485,678	424,335	-0,071	-0,110
-484,664	-115,153	-0,244	0,033
-483,649	-34,145	-0,060	-0,024
-482,635	800,000	0,020	0,049
-481,620	398,184	0,071	-0,108
-480,605	-200,000	-0,029	0,112
-479,591	-200,000	-0,001	0,055
-478,576	-169,713	-0,048	0,001
-477,562	225,182	-0,133	-0,155
-476,547	800,000	-0,027	-0,056
-475,532	518,593	-0,027	0,045
-474,518	379,393	0,022	0,033
-473,503	-200,000	-0,015	0,123
-472,489	236,337	-0,081	0,097
-471,474	330,406	0,022	-0,031
-470,459	-56,818	0,101	-0,032
-469,445	125,722	-0,087	-0,079
-468,430	-200,000	-0,060	-0,237
-467,416	754,219	0,038	0,074
-466,401	176,591	-0,053	0,056
-465,386	-109,007	0,033	-0,005
-464,372	-200,000	0,012	-0,055
-463,357	-200,000	0,007	0,040
-462,343	800,000	-0,023	-0,067
-461,328	-200,000	0,003	-0,053
-460,313	-194,348	0,069	-0,000
-459,299	190,165	0,063	0,068
-458,284	147,100	0,049	0,047
-457,270	145,960	-0,098	0,095
-456,255	-200,000	0,002	0,031
-455,241	-84,850	-0,084	-0,019
-454,226	800,000	-0,048	-0,113
-453,211	-200,000	0,019	-0,070
-452,197	1,109	0,017	-0,008
-451,182	339,609	-0,070	0,098
-450,168	800,000	0,026	0,063
-449,153	86,877	-0,041	-0,032
-448,138	-200,000	-0,021	-0,071
-447,124	-200,000	0,017	-0,112
-446,109	-33,325	-0,109	0,043
-445,095	280,533	0,030	0,039
-444,080	-156,431	-0,023	0,001
-443,065	68,755	0,087	0,064
-442,051	726,918	-0,032	0,062
-441,036	286,602	-0,041	0,053
-440,022	374,809	0,024	0,035
-439,007	-179,349	0,063	0,001
-437,992	-200,000	0,001	-0,078
-436,978	-68,271	-0,100	0,028
-435,963	-3,794	0,060	0,030
-434,949	-143,832	-0,065	0,004
-433,934	350,695	-0,088	-0,126
-432,919	200,807	-0,050	-0,055
-431,905	36,688	0,055	0,035
-430,890	10,456	0,116	0,063
-429,876	800,000	0,071	0,188
-428,861	800,000	-0,017	0,048
-427,846	-173,631	0,070	-0,001
-426,832	800,000	-0,032	0,066
-425,817	-112,888	-0,066	-0,009
-424,803	-200,000	-0,040	-0,133
-423,788	-200,000	0,004	-0,077
-422,773	-112,592	0,112	0,016
-421,759	470,542	-0,086	0,139
-420,744	-89,991	0,043	-0,009
-419,730	38,729	-0,044	-0,028
-418,715	-91,193	-0,169	-0,034
-417,701	134,122	0,066	-0,061
-416,686	-33,630	0,061	0,024
-415,671	-200,000	-0,019	-0,061
-414,657	-79,937	0,125	-0,030
-413,642	800,000	0,030	-0,060
-412,628	57,921	0,069	-0,049
-411,613	230,291	-0,058	0,068
-410,598	800,000	-0,022	-0,056
-409,584	-200,000	0,000	0,087
-408,569	131,437	-0,042	-0,039
-407,555	-16,125	-0,066	0,030
-406,540	-200,000	-0,005	0,070
-405,525	-55,435	0,149	-0,048
-404,511	-200,000	0,020	-0,149
-403,496	619,706	0,001	-0,002
-402,482	-64,218	-0,059	0,017
-401,467	800,000	0,028	0,071
-400,452	-200,000	0,015	0,050
-399,438	800,000	0,056	0,153
-398,423	-69,069	0,044	-0,012
-397,409	-200,000	0,004	-0,058
-396,394	680,371	0,056	-0,106
-395,379	-200,000	0,001	0,049
-394,365	-200,000	-0,024	0,107
-393,350	204,288	0,101	0,112
-392,336	-111,406	0,054	-0,008
-391,321	-200,000	-0,021	-0,073
-390,306	-108,883	-0,152	0,023
-389,292	109,443	0,019	-0,016
-388,277	497,602	0,078	-0,129
-387,263	297,361	0,070	-0,092
-386,248	345,797	0,045	-0,063
-385,233	105,817	0,059	0,050
-384,219	309,586	0,026	0,035
-383,204	-200,000	0,021	0,078
-382,190	183,839	-0,031	-0,033
-381,175	-83,940	0,067	-0,015
-380,160	102,081	0,031	0,026
-379,146	46,635	0,095	0,063
-378,131	-200,000	0,011	0,192
-377,117	-95,406	0,052	0,010
-376,102	67,077	-0,141	-0,103
-375,088	391,002	0,020	0,030
-374,073	800,000	-0,005	0,015
-373,058	-200,000	-0,023	0,078
-372,044	-200,000	0,029	0,119
-371,029	-200,000	0,075	0,287
-370,015	717,335	0,057	-0,108
-369,000	-144,424	-0,080	-0,005
-367,985	460,076	-0,077	-0,123
-366,971	528,537	-0,038	-0,065
-365,956	44,267	-0,063	0,041
-364,942	-200,000	0,019	0,088
-363,927	-167,706	-0,051	0,001
-362,912	559,255	-0,041	-0,071
-361,898	616,934	0,085	-0,153
-360,883	110,751	-0,052	-0,045
-359,869	303,119	-0,031	0,041
-358,854	-200,000	0,011	-0,102
-357,839	97,175	-0,048	0,040
-356,825	-200,000	0,013	-0,063
-355,810	-200,000	0,003	-0,052
-354,796	-181,690	0,067	0,001
-353,781	640,629	-0,053	-0,096
-352,766	-76,720	-0,048	0,012
-351,752	-29,707	0,101	0,041
-350,737	800,000	0,024	0,049
-349,723	235,819	0,148	0,176
-348,708	624,391	0,026	0,046
-347,693	36,095	-0,095	0,060
-346,679	-200,000	0,000	-0,008
-345,664	800,000	0,018	-0,037
-344,650	62,692	-0,108	0,077
-343,635	232,648	0,094	0,111
-342,620	120,717	0,049	0,043
-341,606	800,000	0,035	-0,083
-340,591	-111,524	-0,156	-0,023
-339,577	231,549	-0,092	-0,108
-338,562	-200,000	0,016	-0,067
-337,548	-200,000	0,017	-0,127
-336,533	-200,000	-0,064	0,206
-335,518	800,000	0,058	0,145
-334,504	138,853	0,099	0,094
-333,489	-77,838	0,147	-0,036
-332,475	-200,000	-0,018	-0,067
-331,460	-122,314	-0,100	-0,012
-330,445	-31,699	-0,115	-0,046
-329,431	-47,517	0,091	-0,032
-328,416	347,339	0,073	0,104
-327,402	47,374	0,062	0,041
-326,387	-200,000	0,029	0,111
-325,372	-9,195	-0,132	-0,063
-324,358	-140,151	0,141	0,010
-323,343	99,473	-0,056	-0,047
-322,329	-200,000	-0,025	0,096
-321,314	-118,274	0,136	-0,017
-320,299	800,000	0,085	0,202
-319,285	-0,253	0,075	-0,038
-318,270	265,528	-0,050	-0,063
-317,256	800,000	0,038	-0,114
-316,241	-200,000	0,016	-0,128
-315,226	-27,897	0,054	0,022
-314,212	86,131	0,039	0,030
-313,197	-9,961	0,122	-0,058
-312,183	326,379	-0,053	0,072
-311,168	-200,000	0,016	0,052
-310,153	-200,000	0,028	-0,143
-309,139	-33,077	-0,018	-0,007
-308,124	-200,000	0,005	0,044
-307,110	800,000	-0,017	0,044
-306,095	47,831	-0,060	0,040
-305,080	626,656	-0,030	0,055
-304,066	-200,000	-0,003	-0,133
-303,051	-58,481	0,105	-0,032
-302,037	267,554	0,009	-0,012
-301,022	3,353	-0,118	0,061
-300,008	1,934	0,044	-0,022
-298,993	236,161	0,030	0,035
-297,978	800,000	0,044	-0,121
-296,964	-104,215	0,161	-0,026
-295,949	343,360	0,037	0,052
-294,935	99,486	0,108	-0,090
-293,920	800,000	0,073	-0,169
-292,905	-131,455	-0,009	0,001
-291,891	16,601	0,252	0,142
-290,876	800,000	0,024	-0,066
-289,862	-148,628	0,099	0,006
-288,847	-85,223	-0,160	-0,036
-287,832	-200,000	-0,011	0,158
-286,818	-200,000	-0,002	-0,020
-285,803	-200,000	0,002	0,020
-284,789	-200,000	-0,018	0,082
-283,774	762,941	0,103	0,200
-282,759	800,000	0,028	0,071
-281,745	4,122	0,084	0,044
-280,730	-118,458	0,078	0,010
-279,716	202,813	-0,005	-0,005
-278,701	380,476	0,040	0,059
-277,686	492,314	0,018	-0,030
-276,672	-109,628	0,116	0,017
-275,657	-200,000	-0,027	0,130
-274,643	800,000	-0,037	0,087
-273,628	-90,986	-0,067	-0,014
-272,613	160,188	-0,025	0,025
-271,599	-55,619	0,069	-0,022
-270,584	-137,665	0,136	-0,011
-269,570	562,960	0,026	-0,045
-268,555	-200,000	0,003	0,054
-267,540	-55,530	-0,176	0,056
-266,526	800,000	-0,030	-0,091
-265,511	30,312	0,120	-0,073
-264,497	-101,778	0,061	-0,010
-263,482	800,000	-0,091	-0,182
-262,467	800,000	0,023	0,065
-261,453	-26,721	0,085	0,035
-260,438	-137,407	0,091	0,007
-259,424	-200,000	-0,017	-0,085
-258,409	-200,000	0,018	-0,096
-257,395	-39,384	-0,087	-0,032
-256,380	36,503	0,072	0,045
-255,365	102,252	0,035	0,029
-254,351	-67,828	0,155	-0,043
-253,336	-104,922	-0,100	-0,016
-252,322	11,000	-0,107	-0,058
-251,307	18,784	0,169	-0,096
-250,292	658,783	0,028	0,052
-249,278	60,112	0,136	-0,096
-248,263	474,949	-0,065	0,105
-247,249	-160,140	-0,087	-0,003
-246,234	-200,000	0,006	0,068
-245,219	-200,000	0,011	-0,197
-244,205	-99,377	-0,132	-0,023
-243,190	157,456	0,136	-0,134
-242,176	77,156	-0,072	0,054
-241,161	54,786	0,115	0,079
-240,146	-71,091	-0,067	0,018
-239,132	21,009	0,027	0,015
-238,117	-16,438	-0,059	0,026
-237,103	-200,000	0,002	-0,045
-236,088	-29,506	0,058	-0,024
-235,073	-153,200	0,078	-0,004
-234,059	-200,000	0,023	0,096
-233,044	-151,287	0,028	-0,001
-232,030	101,782	-0,058	-0,048
-231,015	259,331	-0,124	-0,152
-230,000	-141,903	-0,077	0,005
-228,986	-77,659	-0,125	-0,031
-227,971	-58,375	0,207	0,064
-226,957	79,806	-0,018	-0,014
-225,942	299,680	-0,021	0,027
-224,927	-200,000	0,009	-0,048
-223,913	-200,000	0,019	-0,125
-222,898	800,000	-0,021	-0,053
-221,884	-84,899	-0,081	0,018
-220,869	301,541	-0,012	0,016
-219,855	12,650	-0,067	0,037
-218,840	169,843	0,086	0,088
-217,825	-56,343	0,055	-0,017
-216,811	22,558	-0,168	-0,098
-215,796	800,000	0,013	-0,031
-214,782	143,384	0,058	-0,055
-213,767	-20,406	0,049	-0,022
-212,752	-200,000	-0,011	0,062
-211,738	125,721	0,061	0,055
-210,723	800,000	-0,024	0,049
-209,709	261,255	0,073	-0,090
-208,694	-200,000	-0,008	-0,246
-207,679	800,000	-0,053	-0,157
-206,665	-150,628	0,140	0,007
-205,650	12,839	0,159	-0,087
-204,636	-200,000	0,016	0,203
-203,621	-29,455	-0,062	0,025
-202,606	-200,000	0,027	-0,091
-201,592	147,630	0,051	0,049
-200,577	559,801	0,061	0,106
-199,563	-29,113	0,031	-0,013
-198,548	-94,423	-0,096	0,018
-197,533	-33,021	0,135	-0,053
-196,519	-200,000	-0,083	0,000
-195,504	21,040	0,146	0,084
-194,490	-200,000	-0,045	0,200
-193,475	519,418	0,065	-0,108
-192,460	611,724	-0,040	-0,072
-191,446	473,274	0,020	0,032
-190,431	90,681	0,079	-0,063
-189,417	800,000	0,029	-0,073
-188,402	264,548	-0,041	0,051
-187,387	42,870	-0,057	-0,037
-186,373	-28,305	-0,045	-0,018
-185,358	492,852	-0,073	-0,120
-184,344	136,961	0,033	-0,031
-183,329	-175,191	0,085	0,002
-182,315	-200,000	0,001	0,007
-181,300	800,000	-0,061	0,134
-180,285	165,102	-0,023	0,023
-179,271	672,457	-0,008	-0,015
-178,256	464,145	0,030	-0,048
-177,242	364,152	0,043	0,062
-176,227	800,000	0,044	-0,115
-175,212	246,112	0,097	0,117
-174,198	15,739	0,007	0,004
-173,183	-70,320	-0,116	-0,031
-172,169	800,000	-0,055	-0,153
-171,154	-131,752	-0,101	0,009
-170,139	29,913	0,070	-0,043
-169,125	-37,581	0,085	-0,032
-168,110	69,195	-0,039	0,028
-167,096	-200,000	0,009	0,089
-166,081	800,000	0,013	0,031
-165,066	-101,281	-0,107	-0,018
-164,052	-10,088	-0,136	-0,064
-163,037	123,273	0,084	-0,075
-162,023	800,000	0,032	0,082
-161,008	800,000	-0,051	-0,103
-159,993	-48,327	-0,080	-0,027
-158,979	-200,000	0,019	-0,165
-157,964	-137,842	-0,070	-0,005
-156,950	292,478	0,032	0,041
-155,935	274,755	0,046	-0,058
-154,920	-120,555	0,115	0,014
-153,906	-200,000	-0,021	0,098
-152,891	-200,000	0,023	0,083
-151,877	800,000	-0,036	-0,081
-150,862	800,000	0,036	0,096
-149,847	630,066	-0,029	0,053
-148,833	-104,530	0,063	0,010
-147,818	-200,000	0,001	0,164
-146,804	-149,998	0,123	0,007
-145,789	800,000	0,016	0,039
-144,775	800,000	-0,056	-0,128
-143,760	800,000	0,045	-0,110
-142,745	-39,331	-0,092	-0,034
-141,731	-200,000	0,053	-0,226
-140,716	112,516	-0,105	0,090
-139,702	-100,644	0,025	-0,004
-138,687	78,580	0,141	0,107
-137,672	-67,146	-0,097	0,027
-136,658	800,000	0,097	-0,205
-135,643	800,000	-0,016	-0,043
-134,629	-200,000	0,025	-0,147
-133,614	183,117	0,023	-0,024
-132,599	-169,105	0,192	-0,005
-131,585	-21,316	0,139	0,060
-130,570	-200,000	0,003	0,131
-129,556	800,000	-0,041	-0,093
-128,541	-200,000	0,062	0,224
-127,526	800,000	-0,036	0,072
-126,512	-200,000	0,012	0,062
-125,497	365,427	0,047	-0,068
-124,483	125,691	0,116	0,104
-123,468	19,265	0,013	0,008
-122,453	-200,000	-0,009	-0,110
-121,439	-184,615	0,016	-0,000
-120,424	117,149	-0,032	-0,028
-119,410	-64,116	0,036	-0,010
-118,395	-152,169	0,081	0,004
-117,380	800,000	-0,051	0,111
-116,366	486,824	0,068	0,110
-115,351	-83,075	-0,132	-0,030
-114,337	-200,000	-0,010	-0,125
-113,322	-39,525	0,143	-0,053
-112,307	-200,000	0,009	-0,048
-111,293	-52,818	0,164	0,053
-110,278	12,043	0,080	-0,044
-109,264	340,223	-0,061	-0,085
-108,249	5,358	0,157	0,082
-107,234	468,017	-0,050	-0,080
-106,220	277,152	0,014	0,017
-105,205	169,723	0,057	-0,058
-104,191	29,308	0,129	-0,078
-103,176	231,844	0,066	0,077
-102,162	-81,693	0,127	0,029
-101,147	510,513	0,038	0,063
-100,132	4,143	-0,089	-0,046
-99,118	-200,000	-0,011	-0,295
-98,103	-200,000	-0,019	0,061
-97,089	472,707	-0,086	0,138
-96,074	154,560	0,021	0,020
-95,059	800,000	0,027	-0,081
-94,045	-137,692	-0,121	-0,009
-93,030	-200,000	-0,015	-0,080
-92,016	-20,701	-0,072	-0,031
-91,001	-7,166	0,142	-0,068
-89,986	-9,723	0,090	0,042
-88,972	-32,940	0,096	0,038
-87,957	431,611	-0,055	0,085
-86,943	186,867	-0,037	-0,039
-85,928	7,049	-0,044	0,023
-84,913	-200,000	0,009	0,064
-83,899	379,306	-0,052	-0,075
-82,884	800,000	-0,052	0,109
-81,870	-57,463	0,153	-0,047
-80,855	249,112	-0,034	0,040
-79,840	-200,000	0,010	0,000
-78,826	72,945	-0,081	-0,060
-77,811	-146,624	0,091	-0,005
-76,797	-52,119	-0,013	-0,004
-75,782	-66,180	0,116	0,032
-74,767	523,547	0,063	0,105
-73,753	-122,417	-0,139	0,016
-72,738	-200,000	-0,017	-0,061
-71,724	800,000	0,027	0,066
-70,709	-153,782	-0,092	-0,004
-69,694	34,050	-0,024	0,015
-68,680	-200,000	-0,004	-0,027
-67,665	-200,000	-0,025	0,123
-66,651	15,052	-0,071	0,039
-65,636	2,244	-0,118	-0,060
-64,622	800,000	-0,043	0,097
-63,607	800,000	0,028	-0,065
-62,592	-10,409	-0,060	-0,028
-61,578	-129,254	0,120	0,012
-60,563	-200,000	0,000	0,074
-59,549	-200,000	-0,008	0,109
-58,534	-26,909	-1,667	-0,686
-57,519	416,741	-1,443	-2,189
-56,505	-200,000	-0,618	-4,562
-55,490	226,683	0,929	1,070
-54,476	800,000	4,951	11,599
-53,461	-200,000	18,996	307,044
-52,446	800,000	737,284	2300,038
-51,432	569,189	1653,501	2857,330
-50,417	79,042	1670,432	1265,257
-49,403	22,020	1543,554	889,076
-48,388	15,922	1466,515	815,067
-47,373	17,745	1456,202	818,108
-46,359	16,823	1446,467	808,184
-45,344	14,219	1441,928	793,147
-44,330	14,090	1439,792	791,323
-43,315	14,128	1438,184	790,588
-42,300	14,117	1436,567	789,617
-41,286	14,180	1435,172	789,116
-40,271	14,144	1433,913	788,222
-39,257	14,074	1432,995	787,354
-38,242	14,112	1431,573	786,721
-37,227	14,166	1430,308	786,251
-36,213	14,204	1428,724	785,532
-35,198	14,162	1427,804	784,792
-34,184	14,204	1426,719	784,366
-33,169	14,160	1425,452	783,431
-32,154	14,205	1424,381	783,024
-31,140	14,187	1423,071	782,187
-30,125	14,231	1421,964	781,754
-29,111	14,206	1420,943	781,043
-28,096	14,170	1419,778	780,202
-27,082	14,132	1418,772	779,440
-26,067	14,101	1417,742	778,696
-25,052	14,078	1416,746	778,012
-24,038	14,062	1415,622	777,287
-23,023	14,044	1414,661	776,646
-22,009	14,111	1413,594	776,341
-20,994	14,046	1412,832	775,590
-19,979	14,057	1411,995	775,148
-18,965	13,984	1411,079	774,276
-17,950	14,041	1409,915	773,869
-16,936	13,993	1409,138	773,187
-15,921	13,973	1408,067	772,479
-14,906	13,979	1407,009	771,896
-13,892	14,017	1406,029	771,502
-12,877	13,958	1405,207	770,749
-11,863	13,997	1404,376	770,443
-10,848	13,972	1403,452	769,790
-9,833	13,956	1402,615	769,225
-8,819	13,920	1401,864	768,612
-7,804	13,882	1400,842	767,847
-6,790	13,944	1399,563	767,404
-5,775	13,932	1398,607	766,794
-4,760	13,911	1397,700	766,168
-3,746	13,918	1396,911	765,735
-2,731	13,873	1396,028	765,013
-1,717	13,886	1395,200	764,590
-0,702	13,878	1393,449	763,562
0,313	17,666	1311,148	736,037
1,327	34,072	705,418	433,975
2,342	52,296	123,880	83,463
3,356	3,921	16,671	8,592
4,371	7,138	3,084	1,623
5,386	-30,328	0,501	0,200
6,400	800,000	-0,036	0,074
7,415	229,649	-0,293	-0,339
8,429	55,488	-0,245	-0,168
9,444	23,224	-0,375	-0,217
10,459	-18,638	-0,440	-0,193
11,473	-88,243	-0,268	-0,056
12,488	34,158	-0,306	-0,188
13,502	-77,944	-0,296	-0,072
14,517	43,150	-0,281	-0,181
15,531	-58,331	-0,360	-0,110
16,546	79,968	-0,338	-0,257
17,561	116,387	-0,386	-0,335
18,575	403,634	-0,131	-0,195
19,590	140,102	-0,345	-0,321
20,604	402,155	-0,105	-0,156
21,619	65,525	-0,341	-0,244
22,634	71,098	-0,463	-0,339
23,648	49,105	-0,514	-0,340
24,663	42,623	-0,331	-0,212
25,677	57,814	-0,314	-0,216
26,692	76,266	-0,308	-0,230
27,707	-39,197	-0,379	-0,140
28,721	182,369	-0,335	-0,349
29,736	114,185	-0,456	-0,391
30,750	5,878	-0,489	-0,254
31,765	172,702	-0,358	-0,364
32,780	147,528	-0,270	-0,257
33,794	0,307	-0,344	-0,173
34,809	740,556	-0,139	-0,264
35,823	-33,448	-0,470	-0,182
36,838	158,295	-0,216	-0,212
37,853	7,470	-0,348	-0,183
38,867	84,464	-0,334	-0,258
39,882	69,616	-0,393	-0,285
40,896	32,579	-0,383	-0,233
41,911	6,491	-0,401	-0,209
42,926	131,807	-0,251	-0,228
43,940	8,621	-0,422	-0,223
44,955	106,111	-0,382	-0,319
45,969	61,016	-0,319	-0,223
46,984	39,858	-0,325	-0,205
47,999	783,869	-0,265	-0,515
49,013	26,989	-0,328	-0,193
50,028	135,850	-0,193	-0,177
51,042	92,730	-0,403	-0,320
52,057	261,479	-0,285	-0,348
53,071	293,589	-0,298	-0,383
54,086	192,628	-0,193	-0,205
55,101	193,835	-0,223	-0,238
56,115	31,456	-0,346	-0,209
57,130	184,417	-0,293	-0,306
58,144	28,413	-0,316	-0,188
59,159	11,354	-0,245	-0,132
60,174	79,277	-0,374	-0,282
61,188	291,145	-0,194	-0,249
62,203	-33,117	-0,239	-0,093
63,217	37,926	-0,357	-0,223
64,232	416,433	-0,172	-0,258
65,247	128,929	-0,279	-0,250
66,261	-7,668	-0,464	-0,220
67,276	101,338	-0,339	-0,278
68,290	-18,742	-0,321	-0,140
69,305	-72,279	-0,312	-0,081
70,320	63,219	-0,233	-0,164
71,334	-78,179	-0,236	-0,057
72,349	47,161	-0,357	-0,233
73,363	66,475	-0,285	-0,204
74,378	66,469	-0,316	-0,226
75,393	31,115	-0,284	-0,171
76,407	16,958	-0,195	-0,109
77,422	165,398	-0,231	-0,230
78,436	-9,792	-0,284	-0,132
79,451	55,073	-0,322	-0,218
80,466	6,251	-0,371	-0,193
81,480	51,261	-0,336	-0,224
82,495	-72,966	-0,330	-0,084
83,509	121,034	-0,268	-0,234
84,524	98,806	-0,356	-0,288
85,539	206,374	-0,304	-0,332
86,553	45,299	-0,269	-0,174
87,568	186,966	-0,184	-0,193
88,582	93,305	-0,401	-0,319
89,597	106,234	-0,305	-0,254
90,611	518,643	-0,063	-0,105
91,626	162,339	-0,184	-0,181
92,641	-96,607	-0,330	-0,060
93,655	151,660	-0,223	-0,213
94,670	-24,557	-0,335	-0,139
95,684	6,847	-0,355	-0,185
96,699	490,947	-0,216	-0,348
97,714	98,926	-0,300	-0,243
98,728	-38,129	-0,406	-0,150
99,743	152,311	-0,182	-0,175
100,757	-34,150	-0,328	-0,126
101,772	355,699	-0,226	-0,316
102,787	236,707	-0,206	-0,239
103,801	200,265	-0,141	-0,152
104,816	-68,918	-0,292	-0,078
105,830	273,347	-0,288	-0,357
106,845	-2,962	-0,329	-0,160
107,860	-150,880	-0,212	0,011
108,874	27,632	-0,299	-0,176
109,889	184,723	-0,219	-0,228
110,903	-137,967	-0,325	-0,025
111,918	-120,966	-0,276	-0,032
112,933	-200,000	-0,040	-0,210
113,947	48,395	-0,156	-0,102
114,962	117,001	-0,206	-0,177
115,976	-85,239	-0,223	-0,048
116,991	69,978	-0,252	-0,182
118,006	558,048	-0,188	-0,319
119,020	36,555	-0,343	-0,211
120,035	-140,835	-0,288	-0,020
121,049	83,978	-0,209	-0,159
122,064	-57,816	-0,252	-0,077
123,079	306,313	-0,157	-0,206
124,093	216,125	-0,305	-0,340
125,108	134,811	-0,308	-0,280
126,122	-11,078	-0,242	-0,111
127,137	27,375	-0,253	-0,148
128,151	-15,415	-0,215	-0,096
129,166	-106,292	-0,312	-0,048
130,181	134,009	-0,233	-0,211
131,195	72,359	-0,221	-0,161
132,210	40,996	-0,236	-0,149
133,224	53,633	-0,309	-0,207
134,239	123,823	-0,156	-0,137
135,254	112,700	-0,175	-0,148
136,268	178,717	-0,233	-0,238
137,283	249,214	-0,200	-0,237
138,297	40,718	-0,321	-0,202
139,312	-11,227	-0,362	-0,166
140,327	80,423	-0,230	-0,173
141,341	245,360	-0,308	-0,363
142,356	-19,211	-0,203	-0,088
143,370	-116,344	-0,290	-0,037
144,385	33,552	-0,279	-0,169
145,400	800,000	-0,127	-0,287
146,414	547,053	-0,049	-0,082
147,429	86,179	-0,254	-0,195
148,443	168,343	-0,100	-0,100
149,458	94,166	-0,195	-0,154
150,473	132,854	-0,323	-0,291
151,487	254,542	-0,179	-0,215
152,502	-27,828	-0,315	-0,127
153,516	59,718	-0,189	-0,130
154,531	63,320	-0,232	-0,162
155,546	127,592	-0,137	-0,121
156,560	1,899	-0,276	-0,138
157,575	-145,123	-0,228	-0,014
158,589	92,022	-0,252	-0,198
159,604	56,225	-0,243	-0,164
160,619	39,028	-0,273	-0,170
161,633	-5,678	-0,215	-0,103
162,648	109,994	-0,299	-0,250
163,662	-45,424	-0,272	0,094
164,677	-85,129	-0,186	-0,040
165,692	-48,017	-0,336	-0,113
166,706	-14,038	-0,264	-0,118
167,721	22,228	-0,345	-0,196
168,735	10,913	-0,392	-0,208
169,750	-45,845	-0,275	-0,094
170,764	246,711	-0,193	-0,227
171,779	74,459	-0,249	-0,182
172,794	171,094	-0,282	-0,282
173,808	254,648	-0,202	-0,242
174,823	493,660	-0,170	-0,273
175,837	1,134	-0,253	-0,126
176,852	85,258	-0,185	-0,141
177,867	-69,647	-0,286	-0,076
178,881	291,970	-0,124	-0,157
179,896	-75,137	-0,240	-0,059
180,910	-86,160	-0,174	-0,037
181,925	119,867	-0,255	-0,220
182,940	210,000	-0,198	-0,216
183,954	663,653	-0,141	-0,254
184,969	176,003	-0,261	-0,264
185,983	-59,545	-0,238	-0,071
186,998	58,620	-0,095	0,065
188,013	-12,305	-0,240	-0,109
189,027	-60,946	-0,251	-0,073
190,042	-8,474	-0,218	-0,101
191,056	26,977	-0,213	-0,124
192,071	23,437	-0,219	-0,125
193,086	196,938	-0,189	-0,201
194,100	-90,393	-0,177	-0,035
195,115	84,253	-0,139	-0,106
196,129	376,133	-0,171	-0,243
197,144	89,853	-0,210	-0,163
198,159	231,477	-0,177	-0,202
199,173	165,547	-0,238	-0,234
200,188	-55,821	-0,172	-0,053
201,202	36,416	-0,123	-0,075
202,217	22,135	-0,259	-0,147
203,232	-83,739	-0,292	-0,064
204,246	154,710	-0,242	-0,232
205,261	120,240	-0,213	-0,184
206,275	2,066	-0,245	-0,122
207,290	-154,296	-0,109	-0,005
208,304	154,969	-0,176	-0,168
209,319	-65,770	-0,273	-0,076
210,334	180,604	-0,126	-0,129
211,348	-48,133	-0,299	-0,100
212,363	83,720	-0,233	-0,176
213,377	8,847	-0,291	-0,152
214,392	72,203	-0,125	-0,091
215,407	-97,385	-0,159	-0,028
216,421	-134,144	-0,244	0,021
217,436	-38,052	-0,268	-0,098
218,450	-41,399	-0,111	-0,039
219,465	197,836	-0,223	-0,237
220,480	-113,124	-0,177	0,024
221,494	800,000	-0,066	-0,151
222,509	-110,624	-0,200	-0,028
223,523	673,966	-0,107	-0,194
224,538	99,213	-0,187	-0,150
225,553	158,069	-0,168	-0,162
226,567	-13,643	-0,281	-0,126
227,582	519,860	-0,146	-0,238
228,596	-75,063	-0,158	-0,039
229,611	-56,511	-0,130	0,040
230,626	751,655	-0,111	-0,209
231,640	103,922	-0,190	-0,155
232,655	65,010	-0,154	-0,108
233,669	31,967	-0,285	-0,170
234,684	-26,967	-0,196	-0,079
235,699	220,609	-0,163	-0,182
236,713	-39,837	-0,203	-0,073
237,728	11,629	-0,051	0,027
238,742	-105,315	-0,246	-0,038
239,757	-86,133	-0,279	-0,059
240,772	116,956	-0,213	-0,181
241,786	122,549	-0,173	-0,150
242,801	427,928	-0,124	-0,186
243,815	-58,624	-0,059	0,018
244,830	73,982	-0,194	-0,141
245,844	800,000	-0,073	-0,175
246,859	93,880	-0,157	-0,123
247,874	398,620	-0,127	-0,185
248,888	17,506	-0,224	-0,123
249,903	421,676	-0,091	-0,135
250,917	-124,752	-0,189	-0,020
251,932	-49,475	-0,204	-0,067
252,947	-182,416	-0,209	0,003
253,961	115,379	-0,187	-0,158
254,976	110,136	-0,269	-0,224
255,990	184,324	-0,107	-0,110
257,005	-200,000	-0,025	-0,266
258,020	800,000	-0,090	-0,198
259,034	110,704	-0,155	-0,129
260,049	133,380	-0,126	-0,113
261,063	-39,873	-0,195	-0,070
262,078	800,000	-0,117	-0,226
263,093	-137,462	-0,188	-0,014
264,107	162,433	-0,098	-0,095
265,122	-13,435	-0,232	-0,104
266,136	-37,619	-0,203	-0,074
267,151	308,223	-0,121	-0,156
268,166	-160,344	-0,111	0,004
269,180	87,536	-0,125	-0,095
270,195	-142,113	-0,183	-0,012
271,209	-39,804	-0,192	-0,069
272,224	83,048	-0,261	-0,196
273,239	-148,635	-0,197	-0,011
274,253	297,079	-0,136	-0,173
275,268	-5,889	-0,287	-0,135
276,282	317,996	-0,203	-0,266
277,297	114,886	-0,167	-0,140
278,312	-76,886	-0,203	-0,049
279,326	30,994	-0,216	-0,128
280,341	-200,000	-0,017	-0,151
281,355	-88,364	-0,123	0,025
282,370	10,418	-0,178	-0,093
283,384	-44,316	-0,175	-0,060
284,399	306,002	-0,144	-0,186
285,414	-114,086	-0,208	-0,027
286,428	6,104	-0,207	-0,106
287,443	-24,001	-0,064	-0,026
288,457	-77,946	-0,148	-0,035
289,472	17,517	-0,227	-0,124
290,487	-200,000	-0,026	-0,166
291,501	134,847	-0,164	-0,147
292,516	500,631	-0,111	-0,177
293,530	-200,000	-0,044	-0,171
294,545	23,479	-0,166	-0,094
295,560	-200,000	-0,003	-0,089
296,574	-12,204	-0,116	-0,052
297,589	-8,826	-0,220	-0,101
298,603	193,790	-0,178	-0,186
299,618	-193,291	-0,256	-0,002
300,633	800,000	-0,115	-0,243
301,647	233,282	-0,084	-0,095
302,662	-42,615	-0,059	0,021
303,676	30,716	-0,075	-0,044
304,691	155,190	-0,077	-0,073
305,706	94,675	-0,176	-0,138
306,720	-140,769	-0,207	0,015
307,735	262,483	-0,199	-0,238
308,749	81,363	-0,149	-0,111
309,764	57,492	-0,111	-0,075
310,779	-36,234	-0,053	0,020
311,793	-34,600	-0,333	-0,125
312,808	-9,712	-0,180	-0,082
313,822	0,981	-0,146	-0,072
314,837	136,930	-0,148	-0,133
315,852	-78,755	-0,214	-0,050
316,866	-44,319	-0,224	-0,077
317,881	-120,575	-0,138	0,016
318,895	486,613	-0,032	-0,051
319,910	285,652	-0,147	-0,183
320,925	23,621	-0,224	-0,127
321,939	-179,913	-0,112	-0,002
322,954	253,708	-0,073	-0,086
323,968	-53,659	-0,124	-0,039
324,983	-78,670	-0,167	-0,039
325,997	63,082	-0,152	-0,105
327,012	127,748	-0,132	-0,115
328,027	8,294	-0,253	-0,130
329,041	36,182	-0,110	-0,066
330,056	92,149	-0,106	-0,082
331,070	750,153	-0,116	-0,216
332,085	-38,039	-0,159	-0,058
333,100	-88,237	-0,171	-0,035
334,114	193,206	-0,108	-0,112
335,129	-96,059	-0,178	-0,032
336,143	32,643	-0,209	-0,124
337,158	-200,000	-0,052	-0,178
338,173	-200,000	-0,064	-0,239
339,187	294,906	-0,110	-0,138
340,202	-10,673	-0,183	-0,083
341,216	-94,555	-0,200	-0,037
342,231	17,019	-0,190	-0,103
343,246	-73,901	-0,145	-0,036
344,260	134,413	-0,120	-0,107
345,275	-200,000	-0,020	-0,128
346,289	7,032	-0,117	-0,060
347,304	-158,570	-0,110	-0,004
348,319	-135,398	-0,101	-0,008
349,333	174,402	-0,119	-0,119
350,348	-40,297	-0,113	-0,040
351,362	800,000	-0,054	-0,124
352,377	533,082	-0,080	-0,130
353,392	398,661	-0,020	-0,028
354,406	-73,793	-0,033	0,008
355,421	209,911	1314,750	1416,462
356,435	161,579	1475,465	1416,956
