DTS Sentinel unit serial number:	SN410029Multiplexer serial number:	ORYXHardware model number:	OX2-SRSoftware version number:	ORYX F/W v4,00 Oryx Data Collector v3.7.2.0data status	okinstallation	B3 Nyhavnadifferential loss correction	single-endedforward channel	channel 1reverse channel	N/Adate	2023/12/04time	22:52:30forward acquisition time	300,00reverse acquisition time	0,00gamma	499,1914k internal	0,3200k external	0,3200temperature offset calibration	1,0000default loss term (dB/km)	0,3820temperature slope calibration	1,0000multiplexer offset coefficient	1,0000multiplexer slope coefficient	1,0000fibre end	0,00T internal ref (°C)	14,37T ext. ref 1 (°C)	-0,93T ext. ref 2 (°C)	-0,93length (m)	temperature (°C)	Stokes	anti-Stokes-744,400	35,523	-0,185	-0,118
-743,385	-200,000	0,040	0,318
-742,371	339,051	-0,180	-0,256
-741,356	800,000	0,151	0,308
-740,342	267,743	-0,141	-0,180
-739,327	-200,000	-0,102	0,413
-738,312	252,098	-0,242	-0,301
-737,298	-200,000	-0,042	0,195
-736,283	-1,701	-0,193	-0,099
-735,269	789,608	0,122	0,246
-734,254	176,904	-0,192	-0,203
-733,239	310,049	-0,173	0,236
-732,225	-200,000	-0,073	-0,302
-731,210	734,330	0,085	0,166
-730,196	800,000	-0,025	0,078
-729,181	-38,745	-0,101	-0,039
-728,167	111,885	-0,057	0,050
-727,152	664,582	-0,103	0,193
-726,137	-160,784	0,079	-0,003
-725,123	800,000	-0,041	-0,121
-724,108	800,000	-0,055	-0,151
-723,094	98,284	-0,107	-0,090
-722,079	182,831	-0,053	-0,057
-721,064	-56,704	-0,229	-0,073
-720,050	-100,930	-0,136	-0,024
-719,035	38,765	-0,124	0,080
-718,021	163,829	-0,096	0,098
-717,006	-191,381	-0,223	0,002
-715,991	628,088	-0,086	-0,159
-714,977	800,000	-0,082	-0,189
-713,962	-200,000	-0,007	-0,045
-712,948	-200,000	-0,020	0,147
-711,933	800,000	-0,024	-0,050
-710,918	254,543	-0,100	-0,124
-709,904	526,982	-0,087	-0,149
-708,889	-155,564	-0,096	0,004
-707,875	-200,000	-0,001	0,045
-706,860	800,000	0,042	0,094
-705,845	42,262	-0,061	-0,040
-704,831	259,920	0,039	-0,049
-703,816	267,842	-0,069	0,088
-702,802	-200,000	-0,001	-0,041
-701,787	-64,330	0,070	-0,021
-700,772	-143,872	-0,140	0,009
-699,758	113,681	0,053	0,047
-698,743	485,628	0,050	0,083
-697,729	164,492	-0,114	0,116
-696,714	800,000	0,013	0,041
-695,699	56,170	-0,081	0,057
-694,685	24,664	-0,087	-0,052
-693,670	-29,067	-0,085	-0,035
-692,656	19,253	0,071	-0,041
-691,641	800,000	-0,043	-0,134
-690,627	-200,000	0,014	0,124
-689,612	800,000	-0,061	-0,131
-688,597	57,780	-0,049	-0,035
-687,583	-146,207	-0,094	0,006
-686,568	-114,109	-0,060	0,008
-685,554	28,377	-0,036	0,022
-684,539	742,484	-0,063	0,124
-683,524	62,623	0,048	-0,035
-682,510	-200,000	-0,003	0,083
-681,495	70,713	-0,078	-0,059
-680,481	-200,000	-0,012	-0,075
-679,466	-104,704	0,113	-0,019
-678,451	-200,000	0,014	-0,071
-677,437	92,155	-0,068	-0,055
-676,422	-35,385	0,082	0,032
-675,408	80,384	0,139	-0,109
-674,393	-151,804	0,028	0,001
-673,378	182,571	-0,055	0,059
-672,364	-200,000	-0,031	0,105
-671,349	44,275	-0,109	-0,073
-670,335	309,050	-0,022	0,030
-669,320	-39,104	0,085	0,032
-668,305	-200,000	0,003	-0,078
-667,291	-102,381	-0,028	0,005
-666,276	-5,871	-0,046	-0,023
-665,262	46,192	-0,086	-0,058
-664,247	2,643	-0,167	-0,088
-663,232	-200,000	-0,002	-0,015
-662,218	-63,094	0,071	-0,021
-661,203	-66,191	0,083	0,024
-660,189	-71,244	-0,163	-0,044
-659,174	-54,073	-0,138	-0,045
-658,159	-200,000	-0,005	0,032
-657,145	-10,841	-0,082	-0,039
-656,130	-100,055	-0,068	-0,012
-655,116	661,362	0,034	0,064
-654,101	-200,000	-0,002	-0,047
-653,086	-200,000	0,011	0,044
-652,072	-200,000	-0,001	-0,025
-651,057	-200,000	0,016	-0,076
-650,043	718,171	0,067	-0,130
-649,028	800,000	-0,049	0,134
-648,014	5,172	-0,078	0,041
-646,999	181,059	0,109	0,116
-645,984	800,000	-0,073	-0,218
-644,970	-200,000	-0,025	-0,150
-643,955	-102,588	0,074	0,013
-642,941	-30,504	0,020	-0,008
-641,926	113,293	-0,028	0,024
-640,911	128,096	-0,075	-0,069
-639,897	-56,818	0,160	0,051
-638,882	199,591	-0,117	0,130
-637,868	186,423	-0,036	0,039
-636,853	-114,719	-0,021	0,003
-635,838	81,548	-0,083	-0,065
-634,824	-200,000	0,024	-0,118
-633,809	-200,000	-0,011	-0,038
-632,795	-2,501	0,087	0,044
-631,780	800,000	0,043	0,094
-630,765	93,445	-0,015	-0,012
-629,751	71,047	0,039	0,029
-628,736	-62,876	-0,130	0,039
-627,722	800,000	0,044	-0,134
-626,707	-9,175	0,015	0,007
-625,692	415,429	-0,023	-0,035
-624,678	63,292	-0,079	0,057
-623,663	800,000	-0,019	-0,044
-622,649	39,267	-0,098	-0,064
-621,634	-187,196	-0,132	0,001
-620,619	-200,000	0,002	-0,088
-619,605	249,529	0,036	0,044
-618,590	54,167	-0,074	0,052
-617,576	-29,146	0,041	-0,017
-616,561	57,718	-0,040	-0,028
-615,546	-186,194	-0,139	-0,001
-614,532	-31,548	-0,102	-0,041
-613,517	-80,182	-0,068	-0,016
-612,503	-76,970	0,127	0,032
-611,488	-200,000	0,003	0,106
-610,474	267,307	0,062	0,079
-609,459	671,031	-0,045	-0,085
-608,444	-137,376	0,133	-0,011
-607,430	-109,402	0,116	-0,018
-606,415	35,737	-0,155	0,098
-605,401	-61,888	0,062	0,019
-604,386	-200,000	-0,000	0,028
-603,371	-68,373	0,118	-0,033
-602,357	-27,378	-0,126	0,053
-601,342	-200,000	0,018	-0,083
-600,328	490,655	0,035	-0,058
-599,313	800,000	-0,024	0,066
-598,298	800,000	-0,010	0,027
-597,284	-200,000	0,005	-0,079
-596,269	51,083	-0,082	0,056
-595,255	800,000	-0,045	0,115
-594,240	-98,101	-0,163	-0,030
-593,225	-200,000	-0,016	-0,066
-592,211	-24,325	0,076	-0,033
-591,196	-200,000	-0,023	0,098
-590,182	-200,000	0,019	-0,178
-589,167	-17,449	-0,093	-0,042
-588,152	162,763	-0,056	0,056
-587,138	-144,247	0,042	0,003
-586,123	-85,361	-0,135	0,030
-585,109	173,871	-0,097	-0,101
-584,094	-14,469	-0,027	0,013
-583,079	-89,772	-0,093	-0,019
-582,065	-78,015	0,093	-0,023
-581,050	-68,617	-0,053	0,015
-580,036	23,565	-0,041	0,025
-579,021	800,000	0,036	0,075
-578,006	-74,759	-0,204	-0,053
-576,992	-105,967	0,106	0,017
-575,977	182,193	0,047	0,050
-574,963	-136,366	0,035	-0,003
-573,948	10,334	0,094	0,051
-572,934	-200,000	-0,005	0,084
-571,919	89,764	0,034	-0,027
-570,904	64,764	-0,077	0,056
-569,890	30,280	0,008	-0,005
-568,875	-200,000	0,017	0,070
-567,861	791,890	0,090	0,180
-566,846	350,771	0,094	0,134
-565,831	-200,000	-0,006	0,180
-564,817	88,293	-0,028	0,023
-563,802	-4,041	-0,189	-0,094
-562,788	149,721	-0,046	-0,045
-561,773	79,117	0,100	-0,077
-560,758	-153,451	0,129	0,006
-559,744	-200,000	-0,028	0,113
-558,729	-81,692	-0,124	-0,029
-557,715	-58,595	-0,080	0,025
-556,700	-200,000	-0,001	-0,106
-555,685	-200,000	-0,002	-0,107
-554,671	533,698	-0,053	0,091
-553,656	546,445	0,047	-0,082
-552,642	800,000	-0,019	-0,043
-551,627	-200,000	-0,006	0,040
-550,612	-200,000	-0,020	0,116
-549,598	-63,634	-0,049	-0,014
-548,583	-37,774	0,034	-0,013
-547,569	54,549	-0,049	0,034
-546,554	-90,074	0,113	0,024
-545,539	718,870	-0,022	-0,043
-544,525	800,000	-0,030	0,086
-543,510	800,000	-0,041	-0,112
-542,496	-200,000	0,006	-0,067
-541,481	305,620	-0,052	-0,070
-540,466	54,391	0,041	-0,029
-539,452	-64,338	0,082	-0,024
-538,437	302,801	0,038	-0,051
-537,423	-14,460	-0,044	-0,020
-536,408	-200,000	0,005	0,118
-535,393	7,647	-0,077	-0,041
-534,379	-45,854	-0,099	-0,035
-533,364	57,127	0,077	0,054
-532,350	800,000	-0,022	-0,054
-531,335	-45,004	0,021	0,007
-530,321	46,070	0,090	-0,060
-529,306	42,076	0,072	0,047
-528,291	538,706	-0,050	-0,087
-527,277	4,237	-0,139	-0,073
-526,262	-80,409	-0,054	-0,013
-525,248	163,712	0,087	0,088
-524,233	197,179	0,074	0,081
-523,218	800,000	-0,063	0,133
-522,204	64,718	-0,096	0,070
-521,189	800,000	-0,027	0,068
-520,175	-6,310	-0,098	0,048
-519,160	800,000	-0,050	-0,101
-518,145	27,917	0,051	0,031
-517,131	800,000	0,008	0,024
-516,116	-200,000	0,013	-0,097
-515,102	800,000	-0,046	-0,099
-514,087	-156,931	0,117	-0,005
-513,072	-23,350	-0,106	0,046
-512,058	-95,856	-0,076	0,014
-511,043	80,118	0,004	-0,003
-510,029	34,483	0,173	-0,109
-509,014	182,021	0,080	0,085
-507,999	-66,622	-0,061	-0,017
-506,985	277,206	-0,023	-0,029
-505,970	247,823	0,107	-0,130
-504,956	420,524	-0,034	-0,052
-503,941	-200,000	0,043	-0,181
-502,926	-44,543	-0,065	-0,023
-501,912	-200,000	0,036	0,124
-500,897	16,170	0,050	0,029
-499,883	10,524	0,173	0,095
-498,868	182,472	-0,056	0,060
-497,853	158,331	-0,070	-0,070
-496,839	-200,000	0,004	-0,145
-495,824	633,749	0,022	-0,041
-494,810	-75,395	0,113	-0,029
-493,795	19,249	-0,027	0,016
-492,781	96,864	0,032	-0,027
-491,766	800,000	0,052	-0,120
-490,751	276,188	-0,091	-0,116
-489,737	800,000	0,008	-0,023
-488,722	-200,000	0,007	0,047
-487,708	569,701	-0,056	0,099
-486,693	72,703	0,082	0,061
-485,678	152,841	-0,071	-0,070
-484,664	36,349	-0,173	-0,110
-483,649	623,679	0,023	0,043
-482,635	194,431	-0,037	-0,041
-481,620	800,000	0,027	0,068
-480,605	-200,000	-0,003	0,042
-479,591	24,826	-0,102	0,061
-478,576	77,455	-0,075	-0,057
-477,562	33,630	-0,101	-0,063
-476,547	-34,015	-0,137	-0,054
-475,532	800,000	0,023	-0,048
-474,518	-99,511	0,064	0,011
-473,503	800,000	0,052	0,110
-472,489	-200,000	0,006	0,036
-471,474	-200,000	0,004	0,066
-470,459	65,170	0,077	0,056
-469,445	136,703	0,045	-0,042
-468,430	800,000	-0,025	-0,057
-467,416	-200,000	0,011	-0,071
-466,401	11,735	-0,097	0,053
-465,386	385,132	0,074	0,109
-464,372	-200,000	-0,010	0,069
-463,357	256,430	-0,075	0,093
-462,343	51,356	-0,073	0,050
-461,328	389,684	-0,005	-0,007
-460,313	-173,667	0,121	-0,003
-459,299	315,308	-0,035	-0,047
-458,284	67,649	0,086	0,063
-457,270	-99,026	-0,106	-0,019
-456,255	83,145	0,042	0,033
-455,241	44,961	-0,048	-0,032
-454,226	-70,507	-0,095	-0,026
-453,211	800,000	-0,038	-0,096
-452,197	415,218	-0,058	0,090
-451,182	800,000	0,020	-0,052
-450,168	445,740	-0,044	-0,070
-449,153	-26,406	-0,065	0,027
-448,138	12,180	-0,133	-0,074
-447,124	186,509	0,016	0,017
-446,109	116,486	-0,020	-0,018
-445,095	-200,000	-0,007	-0,080
-444,080	-200,000	-0,001	0,038
-443,065	800,000	0,020	0,053
-442,051	288,898	-0,023	-0,031
-441,036	800,000	0,009	0,026
-440,022	258,655	0,020	-0,025
-439,007	657,173	-0,041	0,077
-437,992	205,376	-0,036	-0,040
-436,978	77,414	-0,046	0,035
-435,963	-123,480	-0,215	0,024
-434,949	18,094	-0,094	-0,054
-433,934	800,000	0,040	-0,087
-432,919	644,213	-0,071	-0,131
-431,905	-200,000	-0,002	0,048
-430,890	109,906	0,066	0,057
-429,876	-4,920	0,063	-0,031
-428,861	650,313	-0,092	0,171
-427,846	-89,855	0,116	0,024
-426,832	-110,834	0,070	-0,010
-425,817	-200,000	-0,038	-0,135
-424,803	800,000	0,038	0,106
-423,788	3,989	0,039	0,021
-422,773	-34,995	0,145	0,057
-421,759	-200,000	0,040	0,188
-420,744	800,000	-0,038	0,106
-419,730	-134,352	-0,166	-0,014
-418,715	-200,000	-0,011	0,089
-417,701	273,402	0,109	-0,139
-416,686	-150,949	-0,073	-0,004
-415,671	-200,000	0,004	0,057
-414,657	82,588	0,075	-0,058
-413,642	-92,978	-0,148	-0,029
-412,628	-25,342	-0,023	-0,010
-411,613	800,000	-0,029	-0,077
-410,598	50,115	-0,030	0,020
-409,584	12,229	0,170	0,094
-408,569	238,053	0,089	0,107
-407,555	800,000	0,016	-0,050
-406,540	121,173	0,044	0,039
-405,525	-67,124	-0,142	-0,040
-404,511	164,462	-0,019	-0,019
-403,496	-200,000	0,003	-0,010
-402,482	268,650	0,054	0,068
-401,467	-200,000	-0,025	0,113
-400,452	-55,015	-0,041	0,013
-399,438	225,997	-0,050	0,059
-398,423	-108,673	-0,217	-0,033
-397,409	-200,000	0,001	-0,133
-396,394	225,308	-0,048	0,056
-395,379	-147,111	0,030	-0,002
-394,365	324,507	0,039	0,054
-393,350	-101,384	-0,060	-0,010
-392,336	800,000	-0,037	-0,110
-391,321	-9,722	0,147	0,070
-390,306	-60,836	-0,124	-0,037
-389,292	171,097	-0,015	0,015
-388,277	-8,112	0,070	-0,034
-387,263	101,711	-0,044	-0,037
-386,248	-168,853	0,158	0,004
-385,233	-105,634	0,064	-0,010
-384,219	-200,000	0,002	-0,087
-383,204	-200,000	-0,036	-0,136
-382,190	-200,000	-0,034	-0,110
-381,175	407,503	0,048	0,074
-380,160	74,267	0,109	0,082
-379,146	800,000	-0,009	-0,023
-378,131	-200,000	-0,005	0,092
-377,117	-52,371	-0,154	0,051
-376,102	69,312	-0,050	-0,037
-375,088	570,667	-0,031	0,054
-374,073	-200,000	0,014	-0,132
-373,058	-188,359	0,068	-0,001
-372,044	13,720	-0,063	0,035
-371,029	800,000	-0,053	0,112
-370,015	-200,000	0,099	0,000
-369,000	461,512	0,048	-0,077
-367,985	800,000	-0,067	-0,173
-366,971	800,000	0,043	-0,133
-365,956	100,067	0,048	0,040
-364,942	-60,479	-0,088	0,027
-363,927	25,505	0,137	0,082
-362,912	250,708	-0,047	0,057
-361,898	-29,727	0,078	0,032
-360,883	204,840	-0,050	-0,055
-359,869	-149,475	-0,091	-0,005
-358,854	8,024	0,126	-0,068
-357,839	8,738	0,152	-0,082
-356,825	-200,000	0,012	0,058
-355,810	-200,000	0,004	0,105
-354,796	505,684	0,055	0,091
-353,781	-16,989	-0,097	0,044
-352,766	-200,000	0,001	-0,078
-351,752	-0,529	-0,075	0,038
-350,737	231,693	0,044	0,052
-349,723	-171,315	0,125	-0,003
-348,708	-200,000	0,003	0,036
-347,693	-94,279	-0,052	0,010
-346,679	56,487	-0,035	-0,024
-345,664	268,933	-0,053	-0,067
-344,650	-200,000	0,020	0,072
-343,635	-19,764	0,161	0,071
-342,620	-200,000	-0,013	0,107
-341,606	42,226	-0,110	0,071
-340,591	-139,757	0,100	-0,008
-339,577	-122,305	-0,160	-0,018
-338,562	318,001	-0,019	-0,025
-337,548	-200,000	-0,025	0,079
-336,533	20,368	0,077	0,045
-335,518	246,830	0,065	0,079
-334,504	-200,000	-0,006	0,051
-333,489	-200,000	0,022	-0,074
-332,475	-200,000	0,003	-0,054
-331,460	-200,000	-0,004	-0,196
-330,445	585,061	0,032	0,057
-329,431	-200,000	-0,024	-0,117
-328,416	-138,061	0,079	-0,006
-327,402	9,457	0,094	0,051
-326,387	373,528	-0,076	-0,111
-325,372	-64,446	-0,100	0,029
-324,358	800,000	-0,054	-0,160
-323,343	11,709	-0,017	0,009
-322,329	800,000	0,022	-0,055
-321,314	800,000	0,023	0,062
-320,299	-200,000	-0,006	-0,028
-319,285	62,495	-0,067	0,047
-318,270	55,530	0,040	-0,028
-317,256	-70,748	0,053	0,014
-316,241	-200,000	0,016	-0,087
-315,226	800,000	0,059	-0,180
-314,212	303,272	-0,022	0,029
-313,197	272,891	0,072	0,091
-312,183	-119,332	-0,121	0,015
-311,168	80,612	-0,085	-0,066
-310,153	455,883	-0,023	0,037
-309,139	118,868	-0,078	0,069
-308,124	477,963	0,038	-0,061
-307,110	-119,073	0,054	-0,007
-306,095	-167,736	0,076	0,002
-305,080	-45,096	0,097	0,034
-304,066	-55,907	-0,020	-0,006
-303,051	-107,782	-0,060	0,009
-302,037	-200,000	-0,001	-0,019
-301,022	251,389	0,021	0,026
-300,008	-74,634	0,182	0,046
-298,993	83,326	0,099	-0,077
-297,978	800,000	-0,028	-0,068
-296,964	800,000	-0,036	-0,088
-295,949	197,155	-0,065	0,071
-294,935	337,360	-0,022	0,031
-293,920	53,911	0,090	-0,062
-292,905	204,902	-0,017	0,019
-291,891	-36,037	-0,017	0,007
-290,876	-200,000	-0,010	-0,044
-289,862	44,046	0,071	-0,046
-288,847	-200,000	0,009	-0,080
-287,832	800,000	0,025	-0,051
-286,818	533,049	0,039	0,067
-285,803	144,374	-0,106	0,102
-284,789	-200,000	-0,002	0,062
-283,774	-84,554	-0,079	-0,018
-282,759	105,954	0,021	0,018
-281,745	-40,788	-0,091	-0,034
-280,730	-200,000	-0,004	-0,031
-279,716	-115,518	0,062	-0,008
-278,701	377,568	0,091	0,134
-277,686	-200,000	0,013	0,118
-276,672	-49,350	0,061	-0,021
-275,657	226,601	-0,051	0,059
-274,643	71,675	-0,056	0,042
-273,628	-139,723	0,073	0,005
-272,613	-200,000	0,010	0,052
-271,599	-200,000	-0,014	0,062
-270,584	-200,000	0,008	-0,181
-269,570	-116,301	-0,028	-0,004
-268,555	800,000	-0,028	-0,083
-267,540	192,294	0,085	-0,091
-266,526	617,835	0,059	0,106
-265,511	800,000	-0,037	0,099
-264,497	417,545	-0,053	0,081
-263,482	-51,240	0,045	-0,015
-262,467	80,217	0,135	-0,103
-261,453	-111,851	-0,133	0,019
-260,438	-60,275	-0,068	-0,021
-259,424	-200,000	-0,061	-0,273
-258,409	-95,441	-0,212	-0,040
-257,395	116,211	0,069	-0,060
-256,380	12,306	0,119	0,065
-255,365	8,487	0,049	0,026
-254,351	480,867	-0,075	-0,122
-253,336	596,246	0,075	-0,133
-252,322	-158,695	-0,072	0,003
-251,307	77,806	-0,077	-0,059
-250,292	-157,081	-0,050	0,002
-249,278	-200,000	0,024	0,119
-248,263	85,197	0,064	0,050
-247,249	-200,000	0,013	-0,052
-246,234	462,583	-0,088	-0,141
-245,219	-8,452	-0,006	0,003
-244,205	130,097	0,082	-0,075
-243,190	374,289	-0,029	0,042
-242,176	421,832	0,080	0,123
-241,161	-13,071	0,176	0,081
-240,146	185,801	0,029	0,031
-239,132	-200,000	0,010	0,111
-238,117	-107,120	0,086	0,013
-237,103	-30,058	-0,076	-0,031
-236,088	788,268	-0,029	-0,057
-235,073	371,361	0,077	-0,111
-234,059	-33,612	0,122	-0,048
-233,044	-49,205	0,031	0,010
-232,030	800,000	0,030	0,089
-231,015	-200,000	-0,027	-0,114
-230,000	455,951	-0,044	-0,070
-228,986	-98,898	-0,049	-0,009
-227,971	47,832	0,107	0,071
-226,957	-200,000	-0,008	0,128
-225,942	-200,000	0,018	0,086
-224,927	685,165	-0,047	-0,088
-223,913	-77,037	-0,077	0,019
-222,898	800,000	0,041	0,112
-221,884	800,000	0,029	0,074
-220,869	474,878	-0,032	0,052
-219,855	-200,000	0,004	0,040
-218,840	529,082	0,059	0,100
-217,825	-79,748	0,164	0,039
-216,811	-169,734	0,058	0,001
-215,796	263,889	-0,061	-0,075
-214,782	-164,059	0,062	-0,002
-213,767	-200,000	0,005	-0,075
-212,752	800,000	-0,042	0,083
-211,738	-200,000	0,028	-0,163
-210,723	-81,895	-0,103	-0,024
-209,709	-200,000	-0,003	0,047
-208,694	267,008	-0,008	-0,010
-207,679	-171,592	-0,057	-0,001
-206,665	-129,367	0,148	-0,014
-205,650	-33,537	-0,051	-0,020
-204,636	-200,000	-0,005	-0,071
-203,621	37,270	-0,071	0,045
-202,606	-106,211	0,075	-0,012
-201,592	188,942	0,080	-0,085
-200,577	123,188	0,152	-0,135
-199,563	-97,503	-0,093	-0,017
-198,548	357,032	-0,058	0,082
-197,533	-200,000	0,011	0,083
-196,519	-20,411	0,045	-0,020
-195,504	-82,044	-0,132	-0,030
-194,490	-200,000	0,019	-0,112
-193,475	-200,000	-0,005	-0,037
-192,460	-161,122	-0,105	-0,004
-191,446	-200,000	-0,008	0,036
-190,431	512,598	0,078	-0,130
-189,417	-40,201	-0,088	0,032
-188,402	-100,681	0,088	-0,015
-187,387	-91,940	-0,061	0,012
-186,373	288,805	0,083	-0,107
-185,358	800,000	-0,039	0,081
-184,344	-200,000	-0,022	0,097
-183,329	-33,300	0,036	0,014
-182,315	800,000	-0,053	0,132
-181,300	567,559	-0,069	0,120
-180,285	9,689	0,228	-0,123
-179,271	-200,000	-0,037	-0,186
-178,256	-30,043	-0,054	0,022
-177,242	93,995	-0,104	0,084
-176,227	800,000	0,079	0,158
-175,212	800,000	0,010	0,025
-174,198	-78,035	0,131	0,032
-173,183	-171,119	0,026	0,001
-172,169	-78,501	0,172	0,042
-171,154	30,567	-0,037	0,022
-170,139	376,192	0,023	-0,034
-169,125	800,000	0,017	0,045
-168,110	55,636	0,091	0,062
-167,096	-200,000	0,013	-0,084
-166,081	-28,846	0,044	-0,018
-165,066	55,782	-0,112	-0,077
-164,052	84,748	0,064	0,050
-163,037	69,269	0,124	0,091
-162,023	122,001	0,213	0,189
-161,008	-141,532	0,251	-0,018
-159,993	195,548	0,040	-0,044
-158,979	-200,000	0,028	-0,109
-157,964	130,290	0,068	-0,062
-156,950	393,568	-0,036	0,054
-155,935	800,000	0,067	0,134
-154,920	-200,000	-0,000	-0,025
-153,906	93,229	0,069	0,055
-152,891	149,726	0,096	-0,092
-151,877	183,934	-0,047	-0,050
-150,862	612,139	0,022	-0,040
-149,847	800,000	0,048	0,106
-148,833	-200,000	0,001	-0,023
-147,818	-95,328	0,125	-0,024
-146,804	113,619	0,081	0,070
-145,789	800,000	-0,063	0,145
-144,775	800,000	0,030	-0,062
-143,760	739,350	-0,044	-0,084
-142,745	68,564	-0,087	-0,064
-141,731	-144,865	0,141	-0,009
-140,716	10,808	0,120	0,065
-139,702	800,000	0,025	-0,058
-138,687	40,964	0,129	-0,082
-137,672	215,658	-0,082	0,092
-136,658	-55,220	-0,024	0,008
-135,643	-41,961	-0,085	0,031
-134,629	-97,663	-0,076	0,014
-133,614	-159,309	-0,068	-0,003
-132,599	800,000	-0,079	0,232
-131,585	-200,000	0,019	0,108
-130,570	20,652	-0,036	0,020
-129,556	-3,399	-0,100	-0,049
-128,541	56,362	-0,155	-0,107
-127,526	265,399	0,089	0,111
-126,512	-200,000	-0,006	-0,057
-125,497	325,395	0,048	0,065
-124,483	-189,213	0,116	0,001
-123,468	-152,394	-0,100	0,005
-122,453	800,000	-0,012	-0,036
-121,439	243,776	-0,092	-0,109
-120,424	131,954	-0,145	0,133
-119,410	-117,961	0,131	-0,016
-118,395	-89,366	-0,057	-0,012
-117,380	-200,000	-0,006	0,077
-116,366	-5,942	0,140	-0,068
-115,351	351,662	-0,080	-0,113
-114,337	-200,000	-0,003	-0,075
-113,322	800,000	-0,007	0,019
-112,307	-58,635	0,156	-0,048
-111,293	-200,000	-0,005	-0,102
-110,278	141,838	0,074	0,070
-109,264	-200,000	-0,012	-0,083
-108,249	-200,000	-0,019	-0,101
-107,234	-135,382	-0,149	-0,012
-106,220	-85,781	0,160	-0,035
-105,205	341,601	-0,040	0,056
-104,191	-149,072	-0,060	-0,003
-103,176	800,000	-0,044	0,122
-102,162	-23,097	0,115	0,049
-101,147	-200,000	0,003	0,108
-100,132	301,014	0,046	0,061
-99,118	800,000	0,015	-0,038
-98,103	-109,812	0,079	0,012
-97,089	-46,921	0,185	0,064
-96,074	366,085	-0,019	-0,028
-95,059	231,518	0,061	-0,071
-94,045	-73,112	-0,095	-0,025
-93,030	117,382	-0,088	-0,077
-92,016	365,913	-0,050	0,072
-91,001	-200,000	0,016	0,124
-89,986	176,214	0,110	0,114
-88,972	179,448	0,093	0,097
-87,957	800,000	-0,040	0,089
-86,943	-200,000	0,011	0,106
-85,928	-162,298	-0,113	-0,004
-84,913	-200,000	0,014	0,138
-83,899	-73,996	0,082	0,021
-82,884	800,000	-0,042	-0,115
-81,870	-46,818	0,088	0,030
-80,855	800,000	0,030	-0,070
-79,840	800,000	0,018	0,035
-78,826	-200,000	-0,001	-0,021
-77,811	-63,925	0,038	-0,011
-76,797	-116,702	0,056	-0,007
-75,782	41,867	-0,142	-0,091
-74,767	-35,971	0,051	-0,019
-73,753	-30,179	0,106	-0,043
-72,738	-79,364	-0,075	-0,018
-71,724	-26,837	-0,176	-0,072
-70,709	182,815	-0,095	0,099
-69,694	179,895	0,092	0,096
-68,680	29,637	-0,019	0,011
-67,665	-141,998	-0,099	0,007
-66,651	-200,000	0,015	0,051
-65,636	-165,304	0,059	0,002
-64,622	136,208	-0,075	0,069
-63,607	800,000	-0,009	0,024
-62,592	-147,036	-0,097	0,006
-61,578	800,000	0,020	-0,042
-60,563	52,632	0,061	-0,041
-59,549	-11,915	-0,109	-0,051
-58,534	-12,824	-1,441	-0,662
-57,519	348,357	-1,495	-2,094
-56,505	-200,000	-0,590	-4,642
-55,490	134,033	0,926	0,850
-54,476	800,000	4,896	11,416
-53,461	-200,000	18,613	300,335
-52,446	800,000	733,560	2269,806
-51,432	560,949	1649,812	2835,111
-50,417	78,851	1669,020	1263,575
-49,403	22,298	1541,985	889,839
-48,388	16,237	1464,916	815,936
-47,373	17,800	1454,883	817,860
-46,359	16,998	1445,081	808,475
-45,344	14,499	1440,533	793,945
-44,330	14,452	1438,451	792,537
-43,315	14,493	1436,737	791,758
-42,300	14,454	1435,455	790,836
-41,286	14,510	1434,056	790,298
-40,271	14,441	1432,846	789,273
-39,257	14,464	1431,542	788,634
-38,242	14,508	1430,221	788,081
-37,227	14,504	1429,077	787,403
-36,213	14,480	1427,822	786,567
-35,198	14,438	1426,665	785,696
-34,184	14,503	1425,693	785,442
-33,169	14,428	1424,492	784,390
-32,154	14,489	1423,152	783,911
-31,140	14,475	1421,910	783,131
-30,125	14,532	1420,734	782,720
-29,111	14,471	1419,950	781,968
-28,096	14,517	1418,377	781,291
-27,082	14,414	1417,470	780,273
-26,067	14,452	1416,357	779,808
-25,052	14,423	1415,404	779,115
-24,038	14,393	1414,406	778,393
-23,023	14,369	1413,514	777,758
-22,009	14,378	1412,669	777,307
-20,994	14,391	1411,330	776,598
-19,979	14,374	1410,544	776,055
-18,965	14,328	1409,622	775,303
-17,950	14,355	1408,688	774,887
-16,936	14,348	1407,765	774,316
-15,921	14,312	1406,690	773,522
-14,906	14,297	1405,781	772,923
-13,892	14,306	1404,937	772,473
-12,877	14,287	1404,070	771,874
-11,863	14,299	1402,949	771,284
-10,848	14,313	1401,874	770,727
-9,833	14,225	1401,333	769,988
-8,819	14,214	1400,516	769,459
-7,804	14,232	1399,592	769,004
-6,790	14,226	1398,354	768,267
-5,775	14,158	1397,620	767,516
-4,760	14,217	1396,517	767,153
-3,746	14,142	1395,929	766,451
-2,731	14,168	1394,992	766,029
-1,717	14,159	1393,941	765,378
-0,702	14,155	1392,301	764,431
0,313	17,940	1310,372	737,001
1,327	34,213	705,915	434,728
2,342	52,624	124,046	83,728
3,356	4,006	16,588	8,557
4,371	7,223	3,084	1,624
5,386	-29,323	0,519	0,209
6,400	800,000	0,064	0,142
7,415	69,391	-0,302	-0,220
8,429	61,906	-0,287	-0,202
9,444	548,450	-0,180	-0,305
10,459	55,202	-0,318	-0,217
11,473	25,143	-0,288	-0,168
12,488	22,356	-0,219	-0,126
13,502	18,805	-0,320	-0,181
14,517	-2,355	-0,331	-0,163
15,531	-12,488	-0,345	-0,159
16,546	1,618	-0,334	-0,169
17,561	169,121	-0,337	-0,340
18,575	-108,273	-0,298	0,045
19,590	169,554	-0,225	-0,227
20,604	-8,394	-0,150	-0,071
21,619	-2,492	-0,417	-0,206
22,634	142,130	-0,476	-0,446
23,648	22,814	-0,429	-0,248
24,663	120,336	-0,399	-0,350
25,677	38,546	-0,306	-0,192
26,692	67,231	-0,326	-0,234
27,707	81,974	-0,300	-0,229
28,721	79,939	-0,351	-0,266
29,736	202,857	-0,358	-0,391
30,750	6,867	-0,495	-0,260
31,765	87,694	-0,505	-0,394
32,780	139,446	-0,312	-0,290
33,794	120,879	-0,354	-0,311
34,809	40,737	-0,293	-0,186
35,823	62,567	-0,354	-0,249
36,838	-1,879	-0,392	-0,194
37,853	15,649	-0,471	-0,260
38,867	201,348	-0,279	-0,303
39,882	69,928	-0,413	-0,300
40,896	206,990	-0,292	-0,321
41,911	-67,925	-0,375	-0,102
42,926	148,134	-0,282	-0,269
43,940	162,458	-0,339	-0,335
44,955	17,557	-0,419	-0,234
45,969	155,155	-0,373	-0,362
46,984	-14,915	-0,303	-0,136
47,999	-22,967	-0,417	-0,176
49,013	30,796	-0,301	-0,181
50,028	-33,833	-0,343	-0,133
51,042	91,980	-0,402	-0,319
52,057	94,961	-0,269	-0,216
53,071	1,345	-0,234	-0,118
54,086	184,111	-0,229	-0,239
55,101	50,229	-0,346	-0,230
56,115	-84,675	-0,375	-0,082
57,130	157,587	-0,399	-0,389
58,144	14,490	-0,404	-0,222
59,159	63,603	-0,436	-0,308
60,174	69,406	-0,363	-0,263
61,188	142,571	-0,285	-0,267
62,203	-1,278	-0,286	-0,142
63,217	-60,268	-0,258	-0,077
64,232	-12,962	-0,396	-0,181
65,247	-30,392	-0,402	-0,160
66,261	94,025	-0,297	-0,237
67,276	-26,733	-0,306	-0,126
68,290	-24,591	-0,422	-0,176
69,305	68,190	-0,303	-0,218
70,320	12,479	-0,361	-0,195
71,334	78,983	-0,339	-0,255
72,349	-42,670	-0,356	-0,127
73,363	24,149	-0,385	-0,223
74,378	30,124	-0,334	-0,200
75,393	185,785	-0,384	-0,402
76,407	121,287	-0,213	-0,186
77,422	230,694	-0,272	-0,314
78,436	146,820	-0,216	-0,204
79,451	-108,433	-0,451	-0,068
80,466	-49,362	-0,310	-0,103
81,480	266,313	-0,262	-0,323
82,495	44,753	-0,269	-0,173
83,509	102,828	-0,230	-0,189
84,524	-0,056	-0,368	-0,184
85,539	85,081	-0,247	-0,190
86,553	-25,581	-0,264	-0,109
87,568	-7,888	-0,365	-0,172
88,582	41,263	-0,329	-0,209
89,597	-58,412	-0,325	-0,098
90,611	-125,803	-0,299	-0,031
91,626	181,822	-0,171	-0,177
92,641	17,307	-0,246	-0,137
93,655	137,475	-0,251	-0,231
94,670	616,635	-0,160	-0,284
95,684	32,735	-0,219	-0,133
96,699	25,727	-0,279	-0,163
97,714	-66,686	-0,326	-0,090
98,728	-5,918	-0,243	-0,116
99,743	158,285	-0,256	-0,249
100,757	517,629	-0,165	-0,272
101,772	171,251	-0,184	-0,186
102,787	73,978	-0,351	-0,258
103,801	-44,231	-0,341	-0,119
104,816	103,366	-0,276	-0,227
105,830	259,681	-0,094	-0,114
106,845	-10,176	-0,327	-0,152
107,860	148,903	-0,268	-0,254
108,874	-16,466	-0,335	-0,148
109,889	594,495	-0,135	-0,235
110,903	48,293	-0,337	-0,221
111,918	117,632	-0,171	-0,148
112,933	48,399	-0,137	-0,090
113,947	144,552	-0,261	-0,245
114,962	131,813	-0,252	-0,227
115,976	110,631	-0,299	-0,252
116,991	64,336	-0,333	-0,234
118,006	91,540	-0,240	-0,189
119,020	30,085	-0,209	-0,125
120,035	133,407	-0,239	-0,216
121,049	53,819	-0,186	-0,125
122,064	76,693	-0,199	-0,148
123,079	75,654	-0,315	-0,233
124,093	35,988	-0,185	-0,114
125,108	-44,406	-0,253	-0,088
126,122	19,070	-0,278	-0,156
127,137	73,844	-0,258	-0,189
128,151	47,106	-0,207	-0,135
129,166	5,669	-0,204	-0,105
130,181	-51,773	-0,211	-0,068
131,195	-121,990	-0,256	0,029
132,210	-135,504	-0,244	-0,020
133,224	106,593	-0,239	-0,198
134,239	24,686	-0,222	-0,128
135,254	-16,749	-0,434	-0,191
136,268	32,244	-0,274	-0,165
137,283	-159,557	-0,172	0,007
138,297	-73,108	-0,227	-0,058
139,312	-118,196	-0,379	-0,047
140,327	180,660	-0,259	-0,266
141,341	642,782	-0,132	-0,237
142,356	107,943	-0,275	-0,229
143,370	385,551	-0,201	-0,291
144,385	26,573	-0,227	-0,133
145,400	86,676	-0,097	-0,075
146,414	41,591	-0,252	-0,159
147,429	-96,896	-0,258	-0,047
148,443	49,497	-0,356	-0,234
149,458	64,723	-0,169	-0,119
150,473	156,082	-0,050	-0,049
151,487	47,425	-0,206	-0,134
152,502	205,671	-0,277	-0,302
153,516	297,425	-0,170	-0,218
154,531	-43,625	-0,341	-0,119
155,546	70,289	-0,297	-0,214
156,560	37,253	-0,239	-0,147
157,575	369,039	-0,168	-0,238
158,589	326,988	-0,150	-0,201
159,604	57,075	-0,228	-0,155
160,619	-29,926	-0,244	-0,096
161,633	-5,565	-0,200	-0,095
162,648	159,328	-0,259	-0,252
163,662	75,839	-0,329	-0,242
164,677	117,133	-0,216	-0,185
165,692	136,233	-0,192	-0,175
166,706	214,956	-0,287	-0,317
167,721	101,130	-0,295	-0,239
168,735	-99,976	-0,325	-0,056
169,750	55,117	-0,230	-0,155
170,764	-153,117	-0,217	-0,010
171,779	-77,770	-0,139	-0,033
172,794	-116,778	-0,186	-0,023
173,808	68,431	-0,185	-0,132
174,823	-79,022	-0,227	-0,053
175,837	1,060	-0,200	-0,100
176,852	-42,261	-0,351	-0,124
177,867	14,565	-0,259	-0,140
178,881	503,366	-0,101	-0,163
179,896	304,168	-0,200	-0,259
180,910	47,236	-0,257	-0,166
181,925	-58,283	-0,280	-0,084
182,940	-85,287	-0,277	-0,060
183,954	222,320	-0,185	-0,208
184,969	-24,427	-0,337	-0,139
185,983	-97,224	-0,186	-0,033
186,998	64,753	-0,121	-0,085
188,013	99,978	-0,099	-0,079
189,027	37,988	-0,281	-0,174
190,042	98,280	-0,250	-0,200
191,056	-63,303	-0,260	-0,074
192,071	298,833	-0,168	-0,216
193,086	76,739	-0,260	-0,192
194,100	328,190	-0,111	-0,149
195,115	378,759	-0,199	-0,285
196,129	31,767	-0,174	-0,104
197,144	285,387	-0,202	-0,253
198,159	459,122	-0,260	-0,403
199,173	-17,279	-0,344	-0,150
200,188	370,699	-0,159	-0,224
201,202	649,653	-0,143	-0,256
202,217	28,904	-0,193	-0,113
203,232	199,107	-0,180	-0,192
204,246	-60,084	-0,337	-0,099
205,261	127,701	-0,216	-0,191
206,275	-111,686	-0,295	-0,041
207,290	35,179	-0,130	-0,079
208,304	-67,236	-0,092	-0,025
209,319	-50,141	-0,231	-0,075
210,334	48,555	-0,258	-0,168
211,348	50,723	-0,212	-0,139
212,363	85,288	-0,287	-0,218
213,377	321,145	-0,184	-0,243
214,392	472,200	-0,110	-0,173
215,407	41,733	-0,124	-0,078
216,421	800,000	-0,026	0,071
217,436	698,978	-0,127	-0,232
218,450	178,963	-0,159	-0,162
219,465	-79,409	-0,271	-0,063
220,480	-101,592	-0,151	-0,025
221,494	-60,648	-0,206	-0,060
222,509	-90,070	-0,116	-0,023
223,523	-59,726	-0,195	-0,057
224,538	33,799	-0,281	-0,169
225,553	324,995	-0,122	-0,163
226,567	164,550	-0,173	-0,169
227,582	-0,474	-0,294	-0,144
228,596	-154,664	-0,190	0,009
229,611	-20,847	-0,275	-0,116
230,626	183,957	-0,112	-0,115
231,640	187,005	-0,196	-0,203
232,655	242,525	-0,102	-0,118
233,669	42,000	-0,248	-0,156
234,684	119,541	-0,219	-0,188
235,699	3,918	-0,238	-0,120
236,713	-86,145	-0,105	0,022
237,728	-155,786	-0,163	-0,007
238,742	4,283	-0,085	-0,043
239,757	593,681	-0,183	-0,314
240,772	170,864	-0,367	-0,365
241,786	228,408	-0,148	-0,168
242,801	-200,000	0,057	-0,179
243,815	55,178	-0,128	-0,086
244,830	-15,374	-0,246	-0,108
245,844	-106,658	-0,169	-0,026
246,859	176,939	-0,162	-0,164
247,874	93,355	-0,209	-0,164
248,888	-49,395	-0,168	-0,055
249,903	-43,193	-0,071	0,025
250,917	156,212	-0,107	-0,102
251,932	115,895	-0,175	-0,148
252,947	450,505	-0,128	-0,197
253,961	480,952	-0,166	-0,262
254,976	-140,113	-0,164	-0,012
255,990	158,832	-0,218	-0,210
257,005	-98,403	-0,111	-0,019
258,020	5,672	-0,149	-0,076
259,034	-34,892	-0,251	-0,094
260,049	193,248	-0,120	-0,125
261,063	38,793	-0,169	-0,104
262,078	113,484	-0,222	-0,186
263,093	122,639	-0,139	-0,120
264,107	206,212	-0,069	-0,075
265,122	520,805	-0,070	-0,114
266,136	-200,000	-0,001	-0,107
267,151	26,806	-0,124	-0,072
268,166	532,820	-0,137	-0,224
269,180	379,237	-0,163	-0,232
270,195	31,632	-0,195	-0,116
271,209	211,741	-0,239	-0,261
272,224	46,826	-0,234	-0,150
273,239	217,224	-0,032	0,036
274,253	-95,932	-0,201	-0,037
275,268	17,822	-0,250	-0,137
276,282	625,966	-0,156	-0,273
277,297	-7,142	-0,284	-0,133
278,312	-80,348	-0,097	-0,022
279,326	-5,053	-0,101	-0,048
280,341	800,000	-0,075	-0,166
281,355	-120,290	-0,169	0,020
282,370	-132,014	-0,114	0,010
283,384	-74,362	-0,145	0,036
284,399	13,445	-0,172	-0,092
285,414	-89,590	-0,185	-0,037
286,428	-16,527	-0,180	-0,079
287,443	-11,058	-0,116	-0,053
288,457	-22,522	-0,147	-0,061
289,472	420,361	-0,106	-0,157
290,487	109,642	-0,243	-0,201
291,501	38,898	-0,268	-0,165
292,516	138,468	-0,105	-0,095
293,530	208,016	-0,152	-0,164
294,545	125,506	-0,137	-0,119
295,560	-5,214	-0,186	-0,088
296,574	-67,524	-0,130	-0,035
297,589	-124,386	-0,170	-0,018
298,603	206,969	-0,084	-0,090
299,618	292,543	-0,179	-0,226
300,633	-7,343	-0,167	-0,078
301,647	-29,666	-0,164	-0,064
302,662	649,387	0,073	-0,129
303,676	-200,000	-0,011	0,035
304,691	6,441	-0,108	-0,055
305,706	-80,807	-0,200	-0,045
306,720	-119,129	-0,156	-0,019
307,735	-77,878	-0,190	-0,045
308,749	-35,116	-0,073	-0,027
309,764	268,144	-0,044	-0,053
310,779	216,409	-0,057	-0,063
311,793	337,425	-0,130	-0,175
312,808	-33,793	-0,152	-0,057
313,822	-39,554	-0,258	-0,092
314,837	-119,039	-0,198	0,024
315,852	4,446	-0,142	-0,071
316,866	489,896	-0,081	-0,128
317,881	362,517	-0,054	-0,075
318,895	-5,905	-0,133	0,062
319,910	225,429	-0,128	-0,143
320,925	-43,181	-0,157	-0,054
321,939	29,580	-0,127	-0,074
322,954	152,573	-0,091	0,086
323,968	10,127	-0,073	0,038
324,983	-42,961	-0,133	-0,046
325,997	190,781	-0,148	-0,154
327,012	-39,581	-0,113	-0,040
328,027	-200,000	0,061	-0,194
329,041	378,670	-0,061	-0,086
330,056	-62,504	-0,146	-0,041
331,070	197,327	-0,128	-0,134
332,085	16,732	-0,221	-0,120
333,100	51,039	-0,185	-0,121
334,114	-56,862	-0,099	0,030
335,129	-182,697	-0,289	-0,004
336,143	-200,000	-0,032	-0,118
337,158	11,870	-0,160	-0,084
338,173	-98,647	-0,099	0,017
339,187	-200,000	-0,023	-0,167
340,202	281,927	-0,102	-0,126
341,216	-81,457	-0,165	-0,037
342,231	-118,939	-0,142	-0,017
343,246	-200,000	-0,184	0,000
344,260	82,685	-0,224	-0,167
345,275	800,000	-0,093	-0,185
346,289	148,436	-0,050	0,047
347,304	-31,986	-0,112	0,043
348,319	-113,724	-0,273	-0,036
349,333	140,248	-0,183	-0,166
350,348	243,065	-0,189	-0,218
351,362	-152,949	-0,085	-0,004
352,377	-159,564	-0,051	0,002
353,392	-18,842	-0,119	-0,051
354,406	134,996	-0,092	-0,082
355,421	208,263	1315,896	1413,089
356,435	160,239	1476,765	1413,577
