DTS Sentinel unit serial number:	SN410029Multiplexer serial number:	ORYXHardware model number:	OX2-SRSoftware version number:	ORYX F/W v4,00 Oryx Data Collector v3.7.2.0data status	okinstallation	B3 Nyhavnadifferential loss correction	single-endedforward channel	channel 1reverse channel	N/Adate	2023/12/04time	03:22:30forward acquisition time	300,00reverse acquisition time	0,00gamma	499,1914k internal	0,3205k external	0,3205temperature offset calibration	1,0000default loss term (dB/km)	0,3820temperature slope calibration	1,0000multiplexer offset coefficient	1,0000multiplexer slope coefficient	1,0000fibre end	0,00T internal ref (°C)	12,12T ext. ref 1 (°C)	-3,06T ext. ref 2 (°C)	-3,09length (m)	temperature (°C)	Stokes	anti-Stokes-744,400	343,216	-0,166	-0,237
-743,385	-200,000	0,047	0,299
-742,371	-200,000	0,014	-0,162
-741,356	800,000	-0,027	0,067
-740,342	293,931	-0,111	-0,148
-739,327	-200,000	-0,125	0,433
-738,312	483,005	-0,196	-0,325
-737,298	-200,000	-0,036	0,310
-736,283	49,322	-0,223	-0,152
-735,269	-200,000	-0,027	0,261
-734,254	188,593	-0,199	-0,216
-733,239	50,215	-0,189	0,129
-732,225	-200,000	-0,005	-0,270
-731,210	-109,674	0,175	0,026
-730,196	-63,383	-0,024	0,007
-729,181	-149,102	0,070	-0,004
-728,167	354,882	-0,099	0,143
-727,152	21,191	-0,056	0,033
-726,137	-9,319	-0,074	0,036
-725,123	56,622	-0,194	-0,137
-724,108	-200,000	-0,023	-0,103
-723,094	800,000	-0,039	0,102
-722,079	800,000	0,048	-0,100
-721,064	800,000	0,013	-0,028
-720,050	-200,000	0,016	0,121
-719,035	-128,432	0,076	0,008
-718,021	-200,000	0,012	-0,065
-717,006	-200,000	0,008	-0,125
-715,991	800,000	0,012	-0,032
-714,977	750,574	-0,064	-0,126
-713,962	-85,807	0,123	-0,027
-712,948	588,561	0,037	-0,067
-711,933	262,180	-0,029	0,036
-710,918	-138,500	-0,179	0,014
-709,904	800,000	-0,029	-0,089
-708,889	-140,844	-0,062	0,005
-707,875	800,000	-0,023	0,069
-706,860	-93,188	0,017	-0,003
-705,845	800,000	0,016	0,032
-704,831	-200,000	0,000	-0,033
-703,816	-69,601	-0,074	-0,020
-702,802	800,000	0,040	-0,093
-701,787	515,385	-0,085	-0,144
-700,772	57,637	0,081	0,057
-699,758	78,901	-0,083	0,065
-698,743	439,069	-0,050	-0,079
-697,729	0,982	-0,036	0,019
-696,714	-91,049	-0,052	-0,011
-695,699	131,286	0,078	-0,073
-694,685	335,982	-0,111	-0,157
-693,670	-200,000	0,003	0,060
-692,656	-126,717	-0,017	-0,002
-691,641	36,675	0,038	-0,025
-690,627	112,420	0,191	0,168
-689,612	351,147	0,056	0,081
-688,597	-41,998	-0,042	-0,015
-687,583	189,416	-0,026	0,029
-686,568	-81,690	-0,139	-0,033
-685,554	-200,000	0,008	0,030
-684,539	-109,960	0,128	-0,019
-683,524	-99,526	0,099	0,018
-682,510	30,837	-0,089	-0,055
-681,495	-200,000	-0,002	0,114
-680,481	2,110	-0,034	-0,018
-679,466	-72,316	-0,022	-0,006
-678,451	-101,246	-0,060	0,011
-677,437	-130,487	0,043	0,004
-676,422	800,000	0,040	0,110
-675,408	-143,579	0,067	-0,005
-674,393	58,703	-0,062	0,044
-673,378	449,464	-0,053	0,085
-672,364	380,523	-0,153	-0,229
-671,349	-13,305	-0,102	0,048
-670,335	-49,239	0,031	0,011
-669,320	634,377	-0,022	0,041
-668,305	613,302	0,055	0,101
-667,291	-61,157	0,133	0,040
-666,276	56,861	-0,082	-0,058
-665,262	-200,000	0,049	-0,263
-664,247	-200,000	-0,008	-0,159
-663,232	-6,148	-0,053	0,026
-662,218	-56,774	-0,044	-0,014
-661,203	51,492	0,104	0,071
-660,189	-19,693	-0,075	-0,034
-659,174	-200,000	0,019	0,076
-658,159	-200,000	-0,032	-0,128
-657,145	-200,000	-0,008	0,055
-656,130	389,449	0,061	-0,092
-655,116	21,973	0,080	0,047
-654,101	800,000	0,047	0,143
-653,086	-200,000	-0,026	0,117
-652,072	-200,000	-0,027	0,105
-651,057	-117,349	-0,093	-0,012
-650,043	-126,215	-0,013	-0,001
-649,028	-200,000	0,014	-0,141
-648,014	39,706	-0,083	0,054
-646,999	-93,539	0,112	0,022
-645,984	487,977	-0,016	0,026
-644,970	-54,949	-0,033	0,011
-643,955	-200,000	-0,008	-0,143
-642,941	212,432	-0,067	0,076
-641,926	-200,000	0,002	-0,039
-640,911	800,000	-0,022	-0,061
-639,897	800,000	0,034	-0,076
-638,882	800,000	-0,032	-0,075
-637,868	94,740	-0,005	-0,004
-636,853	-31,640	-0,121	0,049
-635,838	-185,836	0,134	0,001
-634,824	-137,072	-0,110	0,009
-633,809	-200,000	0,014	-0,074
-632,795	4,152	-0,043	0,023
-631,780	51,940	-0,048	0,033
-630,765	-90,168	-0,035	0,007
-629,751	342,216	-0,081	-0,116
-628,736	800,000	-0,079	0,167
-627,722	616,656	-0,022	-0,040
-626,707	220,620	0,031	0,036
-625,692	308,145	0,037	0,050
-624,678	-200,000	-0,035	-0,130
-623,663	-58,334	0,119	0,037
-622,649	-200,000	0,003	-0,011
-621,634	734,392	-0,057	0,112
-620,619	-200,000	0,002	0,025
-619,605	53,929	0,136	-0,094
-618,590	84,393	0,142	-0,112
-617,576	184,819	-0,040	0,043
-616,561	-200,000	0,014	0,069
-615,546	113,850	0,014	-0,012
-614,532	51,276	-0,017	0,011
-613,517	38,795	-0,087	-0,056
-612,503	748,175	-0,055	0,108
-611,488	123,996	-0,040	0,036
-610,474	-39,770	0,050	0,019
-609,459	-54,572	-0,032	-0,010
-608,444	266,474	0,019	-0,024
-607,430	800,000	0,042	-0,094
-606,415	-200,000	-0,007	-0,088
-605,401	-18,551	0,026	0,012
-604,386	103,338	-0,043	-0,036
-603,371	-200,000	-0,016	0,115
-602,357	101,178	-0,106	0,089
-601,342	27,318	-0,070	-0,043
-600,328	800,000	-0,031	0,098
-599,313	-21,535	-0,111	-0,049
-598,298	111,820	0,043	-0,038
-597,284	-175,040	0,120	-0,002
-596,269	-200,000	0,007	0,032
-595,255	-37,292	0,090	0,035
-594,240	100,965	0,060	-0,051
-593,225	800,000	0,031	-0,099
-592,211	104,724	0,084	-0,071
-591,196	4,020	-0,093	-0,049
-590,182	29,148	-0,020	0,012
-589,167	451,247	-0,048	0,076
-588,152	800,000	0,043	0,118
-587,138	-145,012	-0,077	-0,005
-586,123	-162,755	-0,110	-0,004
-585,109	800,000	-0,043	0,089
-584,094	-33,326	-0,187	-0,074
-583,079	-2,995	-0,018	-0,009
-582,065	-92,376	0,098	0,020
-581,050	-200,000	-0,011	0,075
-580,036	33,380	0,016	0,010
-579,021	671,040	0,058	0,109
-578,006	-97,792	-0,045	-0,008
-576,992	-200,000	0,027	-0,101
-575,977	244,708	-0,049	-0,059
-574,963	-200,000	-0,010	0,113
-573,948	800,000	-0,029	0,092
-572,934	-200,000	-0,012	-0,076
-571,919	129,929	-0,134	-0,123
-570,904	-200,000	0,023	-0,137
-569,890	-95,664	-0,190	-0,036
-568,875	70,475	-0,116	-0,086
-567,861	258,473	0,080	0,100
-566,846	6,151	0,093	0,050
-565,831	-200,000	-0,145	0,000
-564,817	-189,440	-0,079	-0,001
-563,802	-200,000	0,055	-0,190
-562,788	-200,000	0,005	-0,136
-561,773	633,607	0,038	0,070
-560,758	-62,274	0,036	-0,011
-559,744	-200,000	0,003	0,066
-558,729	192,437	0,070	0,076
-557,715	-118,573	0,236	-0,030
-556,700	-88,028	-0,087	-0,019
-555,685	-118,075	0,023	-0,003
-554,671	-200,000	0,000	-0,063
-553,656	-133,757	0,132	0,012
-552,642	-200,000	0,025	0,224
-551,627	-200,000	-0,003	-0,023
-550,612	-97,404	0,139	0,026
-549,598	377,611	-0,027	-0,040
-548,583	-143,851	0,060	0,004
-547,569	-48,182	0,114	-0,039
-546,554	-48,386	-0,108	0,037
-545,539	-90,569	0,098	0,020
-544,525	-200,000	-0,015	0,155
-543,510	-200,000	0,000	0,066
-542,496	-143,323	0,181	0,012
-541,481	-200,000	0,016	-0,070
-540,466	-14,119	0,089	0,041
-539,452	-145,517	0,067	-0,004
-538,437	-200,000	-0,012	0,195
-537,423	-200,000	-0,003	-0,033
-536,408	737,507	-0,034	-0,066
-535,393	-200,000	0,023	-0,073
-534,379	-94,312	0,016	0,003
-533,364	86,619	0,029	0,023
-532,350	-100,786	0,044	-0,008
-531,335	294,085	0,036	0,048
-530,321	80,247	0,144	0,111
-529,306	55,511	-0,076	-0,053
-528,291	800,000	-0,098	-0,219
-527,277	-147,465	-0,114	-0,007
-526,262	422,150	-0,029	0,045
-525,248	-170,705	0,073	-0,002
-524,233	293,343	-0,028	0,037
-523,218	-200,000	0,018	0,157
-522,204	135,631	0,031	-0,029
-521,189	570,798	0,014	0,025
-520,175	689,754	-0,061	-0,116
-519,160	-200,000	-0,022	-0,213
-518,145	435,944	0,021	-0,033
-517,131	800,000	-0,049	0,112
-516,116	287,168	0,113	0,147
-515,102	-200,000	-0,005	0,171
-514,087	-36,010	-0,102	0,040
-513,072	402,338	-0,066	-0,100
-512,058	-200,000	0,031	-0,212
-511,043	-117,853	0,105	-0,013
-510,029	30,756	0,107	0,066
-509,014	800,000	-0,032	-0,079
-507,999	632,098	-0,010	0,019
-506,985	-200,000	0,004	0,018
-505,970	23,030	-0,107	0,063
-504,956	-200,000	-0,008	0,080
-503,941	-200,000	-0,094	0,000
-502,926	-60,304	0,088	-0,027
-501,912	698,430	0,041	0,078
-500,897	-200,000	0,001	0,067
-499,883	-121,743	-0,107	-0,013
-498,868	177,150	-0,068	0,071
-497,853	120,098	0,057	-0,051
-496,839	194,682	-0,080	0,087
-495,824	-43,856	0,058	0,021
-494,810	-0,547	0,097	-0,049
-493,795	-15,441	0,043	-0,020
-492,781	256,308	0,038	0,047
-491,766	800,000	0,032	-0,063
-490,751	-17,653	-0,140	-0,063
-489,737	-200,000	0,010	-0,063
-488,722	800,000	0,011	-0,032
-487,708	8,603	0,117	0,063
-486,693	122,731	0,021	0,019
-485,678	643,575	0,043	-0,079
-484,664	216,830	0,074	0,085
-483,649	67,331	0,063	0,046
-482,635	561,844	0,035	-0,060
-481,620	145,404	0,035	0,033
-480,605	-21,832	-0,059	-0,026
-479,591	800,000	0,020	-0,063
-478,576	-52,378	0,070	0,023
-477,562	122,685	-0,066	0,059
-476,547	800,000	-0,050	-0,113
-475,532	184,673	0,021	0,023
-474,518	-52,143	0,100	0,033
-473,503	-112,353	-0,054	0,008
-472,489	-66,317	-0,046	-0,013
-471,474	800,000	-0,029	-0,065
-470,459	800,000	-0,043	-0,107
-469,445	-200,000	0,020	-0,074
-468,430	-29,332	-0,028	-0,011
-467,416	-200,000	0,017	-0,056
-466,401	297,860	-0,088	-0,117
-465,386	800,000	-0,030	0,066
-464,372	484,490	0,061	0,101
-463,357	-200,000	-0,003	-0,015
-462,343	107,183	0,051	-0,044
-461,328	-38,255	-0,096	0,036
-460,313	349,043	0,054	0,077
-459,299	21,727	0,092	-0,054
-458,284	-200,000	0,003	0,104
-457,270	29,758	0,156	0,095
-456,255	800,000	0,049	0,138
-455,241	-25,809	-0,043	-0,018
-454,226	-10,360	-0,086	-0,041
-453,211	-200,000	0,011	0,163
-452,197	149,988	-0,080	-0,078
-451,182	35,900	0,094	-0,059
-450,168	-46,692	0,066	-0,023
-449,153	-200,000	0,024	-0,140
-448,138	241,178	-0,098	-0,117
-447,124	-200,000	-0,001	-0,084
-446,109	525,145	-0,034	0,057
-445,095	-54,867	0,056	0,018
-444,080	-19,644	0,109	0,048
-443,065	398,406	0,078	0,117
-442,051	466,246	-0,088	-0,143
-441,036	-86,558	0,068	-0,015
-440,022	800,000	-0,044	0,095
-439,007	-200,000	-0,024	-0,105
-437,992	-65,204	0,056	-0,016
-436,978	-200,000	-0,041	0,155
-435,963	-46,365	-0,041	0,014
-434,949	42,813	0,082	-0,054
-433,934	72,661	0,038	0,029
-432,919	251,329	0,016	-0,019
-431,905	800,000	-0,065	-0,135
-430,890	-200,000	-0,004	-0,060
-429,876	-200,000	0,016	0,066
-428,861	-34,319	0,149	0,058
-427,846	51,138	-0,077	-0,052
-426,832	-200,000	0,012	-0,040
-425,817	-25,303	-0,169	-0,071
-424,803	190,077	0,029	-0,031
-423,788	800,000	0,046	-0,115
-422,773	-200,000	-0,003	0,096
-421,759	-59,467	-0,038	0,012
-420,744	-13,849	-0,053	-0,024
-419,730	172,734	-0,037	0,038
-418,715	-200,000	-0,026	-0,091
-417,701	-63,606	-0,034	-0,010
-416,686	-200,000	0,032	-0,165
-415,671	98,469	0,129	0,107
-414,657	-24,751	0,055	-0,023
-413,642	-65,253	-0,130	-0,037
-412,628	110,256	-0,080	-0,069
-411,613	634,927	-0,076	-0,139
-410,598	277,839	0,039	-0,050
-409,584	100,991	-0,083	0,070
-408,569	-200,000	0,006	0,083
-407,555	216,258	-0,080	0,091
-406,540	495,610	0,056	-0,092
-405,525	221,899	-0,068	-0,079
-404,511	-94,975	0,051	0,010
-403,496	536,468	-0,064	-0,109
-402,482	-101,871	-0,053	-0,009
-401,467	-149,045	0,085	0,005
-400,452	286,771	-0,011	-0,014
-399,438	-200,000	-0,016	-0,126
-398,423	-200,000	-0,013	0,165
-397,409	-200,000	-0,006	0,046
-396,394	18,760	-0,092	0,053
-395,379	-66,164	0,068	0,019
-394,365	763,182	0,011	0,021
-393,350	197,032	0,112	-0,122
-392,336	-136,220	0,029	-0,002
-391,321	-175,980	-0,049	-0,001
-390,306	-12,297	-0,059	-0,027
-389,292	656,575	0,024	0,043
-388,277	194,275	0,044	0,047
-387,263	452,633	-0,029	0,046
-386,248	-200,000	-0,006	0,112
-385,233	77,810	0,137	-0,104
-384,219	-118,941	0,163	0,020
-383,204	587,278	-0,077	-0,136
-382,190	800,000	-0,117	-0,252
-381,175	334,075	0,036	0,050
-380,160	434,200	0,010	-0,016
-379,146	-200,000	-0,014	0,105
-378,131	-200,000	0,001	-0,012
-377,117	251,194	-0,029	0,035
-376,102	-121,155	-0,121	0,014
-375,088	86,318	0,128	-0,101
-374,073	30,267	-0,091	-0,056
-373,058	-111,378	0,074	-0,011
-372,044	-52,227	0,116	0,038
-371,029	-115,481	0,129	0,017
-370,015	307,244	-0,013	0,018
-369,000	-200,000	0,001	-0,101
-367,985	-200,000	-0,014	-0,208
-366,971	-200,000	-0,037	-0,135
-365,956	-18,376	0,157	0,070
-364,942	21,344	0,100	-0,058
-363,927	380,060	-0,073	0,107
-362,912	-96,558	0,090	-0,017
-361,898	-39,657	0,049	-0,018
-360,883	-165,326	-0,162	-0,005
-359,869	629,574	-0,022	-0,039
-358,854	237,930	0,060	-0,072
-357,839	-200,000	0,003	0,150
-356,825	800,000	0,068	0,141
-355,810	-200,000	-0,014	-0,079
-354,796	-27,826	0,009	-0,004
-353,781	36,463	-0,117	-0,074
-352,766	-200,000	-0,033	0,121
-351,752	800,000	-0,064	-0,194
-350,737	-54,969	0,066	-0,021
-349,723	-58,155	0,040	-0,012
-348,708	-123,168	0,108	0,012
-347,693	195,011	-0,063	-0,068
-346,679	-200,000	-0,001	-0,016
-345,664	333,044	0,096	0,133
-344,650	240,275	0,028	0,033
-343,635	194,881	0,174	0,190
-342,620	-100,349	0,074	0,013
-341,606	626,411	-0,095	-0,172
-340,591	800,000	0,008	-0,021
-339,577	41,831	-0,047	-0,030
-338,562	111,983	-0,033	-0,029
-337,548	800,000	-0,038	-0,086
-336,533	-126,222	-0,035	-0,004
-335,518	-200,000	-0,014	-0,051
-334,504	-95,598	0,163	0,031
-333,489	721,594	-0,073	-0,140
-332,475	-7,676	0,035	-0,017
-331,460	213,559	-0,086	-0,097
-330,445	38,175	0,114	0,073
-329,431	46,991	-0,088	-0,058
-328,416	-200,000	-0,049	-0,155
-327,402	107,091	-0,075	0,064
-326,387	800,000	0,037	0,114
-325,372	800,000	-0,026	-0,062
-324,358	698,615	0,021	0,040
-323,343	45,412	-0,087	0,057
-322,329	-21,395	-0,125	-0,054
-321,314	-3,818	0,122	0,060
-320,299	-200,000	0,007	0,070
-319,285	194,826	0,070	-0,075
-318,270	219,516	0,069	-0,079
-317,256	-128,252	-0,144	0,014
-316,241	-54,312	-0,121	0,039
-315,226	16,131	0,052	0,029
-314,212	800,000	0,026	0,054
-313,197	-200,000	-0,013	0,093
-312,183	-11,430	-0,067	-0,031
-311,168	-200,000	0,005	-0,078
-310,153	800,000	0,019	-0,049
-309,139	274,993	-0,065	-0,082
-308,124	-200,000	-0,035	0,000
-307,110	-103,037	0,084	0,014
-306,095	19,553	-0,127	0,073
-305,080	170,119	0,054	-0,055
-304,066	268,209	-0,083	0,104
-303,051	-200,000	0,006	0,028
-302,037	184,393	-0,063	-0,066
-301,022	-60,912	0,011	-0,003
-300,008	-200,000	0,006	0,065
-298,993	-120,358	0,049	0,006
-297,978	-200,000	0,015	-0,100
-296,964	800,000	0,028	0,063
-295,949	106,106	-0,047	0,040
-294,935	99,525	0,021	0,017
-293,920	-80,231	0,100	-0,024
-292,905	154,853	-0,077	0,076
-291,891	-200,000	-0,010	-0,054
-290,876	-79,230	0,052	-0,013
-289,862	-179,812	0,039	-0,001
-288,847	-200,000	-0,003	-0,028
-287,832	-3,946	-0,087	0,043
-286,818	691,908	-0,074	-0,139
-285,803	-39,873	0,108	-0,040
-284,789	800,000	-0,056	0,111
-283,774	-7,876	0,162	0,078
-282,759	-136,184	-0,059	-0,005
-281,745	63,594	0,024	-0,017
-280,730	-83,094	-0,174	0,040
-279,716	-118,041	0,044	0,006
-278,701	800,000	0,088	0,183
-277,686	316,659	-0,053	0,072
-276,672	-200,000	0,006	0,032
-275,657	-200,000	-0,034	-0,152
-274,643	-139,111	-0,246	0,019
-273,628	-200,000	0,001	-0,075
-272,613	800,000	-0,059	-0,120
-271,599	-200,000	-0,006	-0,042
-270,584	174,454	-0,070	0,072
-269,570	106,618	0,205	0,173
-268,555	-200,000	-0,061	0,195
-267,540	356,147	-0,065	-0,093
-266,526	27,070	-0,082	-0,049
-265,511	347,129	-0,082	-0,115
-264,497	47,046	0,028	0,019
-263,482	299,284	-0,071	0,093
-262,467	359,024	0,070	0,099
-261,453	429,045	-0,041	0,063
-260,438	54,369	-0,187	0,128
-259,424	-22,043	0,082	0,035
-258,409	-114,026	-0,073	-0,010
-257,395	326,432	0,077	0,106
-256,380	164,141	0,114	-0,115
-255,365	-200,000	-0,011	-0,043
-254,351	-68,619	0,073	-0,020
-253,336	-200,000	0,010	-0,052
-252,322	55,172	-0,063	0,043
-251,307	-66,243	-0,135	-0,038
-250,292	455,413	0,049	-0,078
-249,278	-157,213	0,067	-0,003
-248,263	307,257	0,083	0,111
-247,249	800,000	0,051	0,101
-246,234	-200,000	0,010	-0,045
-245,219	154,279	-0,069	-0,068
-244,205	800,000	-0,065	-0,173
-243,190	800,000	0,045	0,100
-242,176	67,856	-0,044	0,032
-241,161	218,794	-0,013	-0,015
-240,146	-101,785	-0,075	0,013
-239,132	38,270	0,068	0,043
-238,117	23,618	-0,056	-0,033
-237,103	705,065	-0,036	-0,067
-236,088	-200,000	-0,008	-0,067
-235,073	84,852	0,109	0,085
-234,059	117,315	-0,015	-0,013
-233,044	-111,473	0,137	0,020
-232,030	-186,716	-0,056	0,001
-231,015	-200,000	-0,011	0,034
-230,000	800,000	0,048	0,108
-228,986	592,701	-0,073	-0,130
-227,971	735,557	0,065	-0,125
-226,957	-200,000	-0,012	-0,126
-225,942	-104,280	0,094	0,015
-224,927	-54,997	-0,090	0,029
-223,913	235,386	-0,055	0,064
-222,898	258,998	0,039	0,048
-221,884	-200,000	-0,005	-0,018
-220,869	-200,000	0,001	0,159
-219,855	101,992	0,095	0,079
-218,840	800,000	0,066	0,142
-217,825	-200,000	-0,007	0,184
-216,811	-200,000	0,007	0,094
-215,796	57,629	0,053	0,037
-214,782	-200,000	-0,017	-0,090
-213,767	114,135	-0,012	-0,011
-212,752	52,112	-0,026	-0,018
-211,738	276,787	0,040	0,051
-210,723	-24,128	-0,083	-0,035
-209,709	-180,800	-0,062	0,001
-208,694	-70,973	0,022	0,006
-207,679	-93,215	-0,034	-0,007
-206,665	-200,000	-0,002	0,182
-205,650	-134,793	0,079	0,007
-204,636	-96,814	-0,070	0,013
-203,621	575,892	0,075	0,130
-202,606	800,000	-0,072	-0,157
-201,592	-143,220	-0,079	0,005
-200,577	-63,041	-0,069	0,020
-199,563	606,565	0,051	-0,091
-198,548	-52,521	0,042	-0,014
-197,533	800,000	-0,007	0,015
-196,519	42,538	0,118	0,076
-195,504	139,858	-0,126	0,118
-194,490	439,989	0,048	0,074
-193,475	59,724	0,059	-0,042
-192,460	186,579	-0,101	-0,107
-191,446	-46,884	0,083	0,029
-190,431	759,136	-0,081	0,157
-189,417	206,219	-0,048	0,053
-188,402	-200,000	-0,006	-0,083
-187,387	-82,463	-0,088	-0,020
-186,373	107,231	-0,036	0,030
-185,358	418,101	-0,030	0,046
-184,344	-200,000	-0,008	0,029
-183,329	2,418	0,073	0,037
-182,315	-200,000	0,016	0,107
-181,300	367,029	-0,032	0,046
-180,285	-200,000	-0,012	-0,081
-179,271	-200,000	-0,031	-0,110
-178,256	123,882	0,068	-0,060
-177,242	-200,000	0,017	0,086
-176,227	259,254	-0,054	0,066
-175,212	-200,000	0,002	0,008
-174,198	405,567	0,066	0,099
-173,183	-64,253	0,017	-0,005
-172,169	471,207	0,006	0,010
-171,154	-7,320	0,066	-0,032
-170,139	-200,000	-0,036	-0,131
-169,125	800,000	0,014	-0,035
-168,110	-197,465	0,059	-0,000
-167,096	212,439	0,099	-0,111
-166,081	-200,000	-0,057	-0,182
-165,066	-199,755	-0,122	-0,000
-164,052	-126,860	0,176	0,018
-163,037	160,787	0,068	0,067
-162,023	800,000	0,036	0,088
-161,008	133,530	0,060	-0,055
-159,993	-200,000	-0,034	-0,116
-158,979	7,685	-0,128	-0,068
-157,964	-200,000	-0,005	0,069
-156,950	-200,000	-0,006	0,033
-155,935	800,000	-0,068	0,194
-154,920	-200,000	0,032	0,132
-153,906	-200,000	-0,023	0,107
-152,891	-200,000	-0,021	0,079
-151,877	296,231	-0,118	-0,154
-150,862	-200,000	-0,004	0,026
-149,847	800,000	0,042	-0,121
-148,833	800,000	0,041	-0,110
-147,818	266,925	0,070	0,087
-146,804	-109,887	0,096	0,014
-145,789	14,808	-0,083	0,046
-144,775	-200,000	0,003	0,067
-143,760	-38,773	-0,107	-0,040
-142,745	800,000	-0,054	-0,121
-141,731	-94,464	-0,056	-0,011
-140,716	72,729	0,100	-0,074
-139,702	-0,526	0,081	-0,041
-138,687	322,874	-0,070	0,095
-137,672	110,351	-0,074	0,063
-136,658	444,834	-0,063	0,098
-135,643	-200,000	-0,024	-0,078
-134,629	98,247	0,080	0,065
-133,614	-129,574	0,159	-0,015
-132,599	-200,000	-0,015	0,061
-131,585	-91,930	0,132	0,026
-130,570	-65,246	-0,108	-0,031
-129,556	75,360	0,065	-0,049
-128,541	-121,391	-0,117	-0,014
-127,526	-113,637	0,053	-0,007
-126,512	-200,000	0,005	0,119
-125,497	800,000	-0,039	0,120
-124,483	31,602	0,117	0,071
-123,468	208,299	-0,118	0,131
-122,453	-66,700	-0,029	-0,008
-121,439	358,821	0,083	0,118
-120,424	201,223	0,070	-0,076
-119,410	-58,829	0,116	0,035
-118,395	-150,323	0,020	0,001
-117,380	544,238	0,115	0,195
-116,366	-3,084	-0,053	0,026
-115,351	232,845	-0,049	-0,057
-114,337	104,178	0,065	-0,055
-113,322	-42,043	-0,057	-0,021
-112,307	-141,887	0,059	-0,004
-111,293	417,267	0,029	0,045
-110,278	134,497	0,064	0,059
-109,264	-187,624	-0,138	0,001
-108,249	224,519	-0,093	-0,107
-107,234	-200,000	0,034	-0,122
-106,220	-200,000	0,002	0,062
-105,205	786,873	-0,037	-0,073
-104,191	51,017	0,128	-0,086
-103,176	800,000	0,032	0,082
-102,162	560,510	0,062	-0,107
-101,147	64,931	-0,040	0,029
-100,132	-83,525	0,127	-0,029
-99,118	-97,952	-0,158	-0,029
-98,103	-200,000	0,015	-0,152
-97,089	-96,485	-0,108	0,020
-96,074	200,024	-0,115	0,126
-95,059	-37,074	-0,144	0,054
-94,045	7,933	0,041	0,022
-93,030	-2,485	-0,170	-0,084
-92,016	-63,333	-0,164	-0,048
-91,001	5,863	0,085	0,045
-89,986	-200,000	-0,018	0,059
-88,972	-28,446	0,026	0,010
-87,957	202,527	0,130	0,143
-86,943	-200,000	0,000	0,012
-85,928	-200,000	0,019	0,086
-84,913	277,003	0,044	0,056
-83,899	-200,000	0,007	-0,032
-82,884	-200,000	0,000	-0,001
-81,870	800,000	0,025	-0,077
-80,855	-200,000	-0,002	-0,139
-79,840	398,827	0,059	0,087
-78,826	-3,456	-0,035	0,017
-77,811	-113,625	0,006	0,001
-76,797	151,789	-0,018	-0,018
-75,782	58,600	0,087	-0,061
-74,767	-98,389	-0,060	-0,011
-73,753	-200,000	0,024	0,213
-72,738	304,957	-0,081	0,107
-71,724	155,288	-0,127	0,123
-70,709	292,856	-0,038	-0,049
-69,694	734,799	-0,016	0,030
-68,680	24,653	-0,063	0,037
-67,665	58,539	-0,057	0,040
-66,651	-109,685	-0,049	-0,007
-65,636	-161,670	-0,207	0,007
-64,622	-12,749	-0,083	0,038
-63,607	263,830	0,065	-0,080
-62,592	133,224	-0,114	-0,105
-61,578	291,686	-0,053	-0,069
-60,563	25,937	-0,068	0,040
-59,549	143,811	-0,118	0,111
-58,534	25,071	-1,682	-0,985
-57,519	400,427	-1,329	-1,977
-56,505	-200,000	-0,577	-4,633
-55,490	312,647	1,058	1,408
-54,476	800,000	4,903	11,161
-53,461	-200,000	20,378	323,671
-52,446	800,000	752,764	2311,359
-51,432	548,110	1663,631	2827,838
-50,417	74,862	1672,122	1243,576
-49,403	19,987	1544,789	878,292
-48,388	13,979	1467,394	805,053
-47,373	18,340	1457,631	820,741
-46,359	16,310	1447,108	805,052
-45,344	12,220	1442,581	782,914
-44,330	12,125	1440,773	781,442
-43,315	12,205	1438,746	780,695
-42,300	12,224	1436,989	779,801
-41,286	12,233	1435,930	779,238
-40,271	12,112	1434,684	777,958
-39,257	12,150	1433,534	777,481
-38,242	12,210	1432,257	777,046
-37,227	12,226	1430,974	776,395
-36,213	12,190	1429,852	775,581
-35,198	12,234	1428,396	774,971
-34,184	12,250	1427,608	774,591
-33,169	12,200	1426,204	773,558
-32,154	12,221	1424,985	772,965
-31,140	12,214	1423,676	772,195
-30,125	12,301	1422,407	771,888
-29,111	12,272	1421,483	771,217
-28,096	12,268	1420,279	770,513
-27,082	12,168	1419,449	769,561
-26,067	12,140	1418,180	768,711
-25,052	12,154	1417,247	768,238
-24,038	12,163	1416,144	767,653
-23,023	12,134	1415,223	766,990
-22,009	12,130	1414,022	766,289
-20,994	12,110	1413,191	765,713
-19,979	12,127	1412,350	765,306
-18,965	12,131	1411,389	764,773
-17,950	12,069	1410,508	763,978
-16,936	12,085	1409,741	763,605
-15,921	12,056	1408,619	762,830
-14,906	12,051	1407,843	762,359
-13,892	12,069	1406,756	761,825
-12,877	12,089	1405,806	761,373
-11,863	12,047	1404,942	760,677
-10,848	12,034	1404,022	760,090
-9,833	11,979	1403,483	759,509
-8,819	11,961	1402,471	758,847
-7,804	11,962	1401,476	758,284
-6,790	11,965	1400,382	757,678
-5,775	11,933	1399,413	756,975
-4,760	11,988	1398,378	756,638
-3,746	11,971	1397,596	756,109
-2,731	11,956	1396,760	755,557
-1,717	11,918	1396,048	754,964
-0,702	11,920	1394,137	753,908
0,313	16,081	1308,887	726,964
1,327	32,789	699,727	427,008
2,342	51,082	121,987	81,614
3,356	5,142	16,547	8,585
4,371	3,630	3,369	1,731
5,386	-19,813	0,703	0,306
6,400	-200,000	0,028	0,443
7,415	-92,091	-0,206	-0,041
8,429	62,335	-0,146	-0,103
9,444	37,749	-0,402	-0,252
10,459	203,599	-0,284	-0,311
11,473	-41,114	-0,263	-0,095
12,488	-92,412	-0,196	-0,039
13,502	128,712	-0,320	-0,288
14,517	157,704	-0,214	-0,209
15,531	22,542	-0,313	-0,181
16,546	79,105	-0,358	-0,270
17,561	112,070	-0,337	-0,287
18,575	31,258	-0,243	-0,147
19,590	800,000	-0,134	-0,289
20,604	-53,592	-0,297	-0,095
21,619	34,627	-0,409	-0,252
22,634	194,646	-0,386	-0,413
23,648	194,693	-0,430	-0,460
24,663	36,998	-0,430	-0,268
25,677	124,835	-0,272	-0,242
26,692	124,006	-0,233	-0,207
27,707	11,893	-0,387	-0,209
28,721	76,697	-0,287	-0,215
29,736	462,536	-0,304	-0,480
30,750	-19,484	-0,441	-0,192
31,765	18,549	-0,408	-0,230
32,780	448,310	-0,204	-0,318
33,794	313,138	-0,306	-0,406
34,809	13,909	-0,383	-0,209
35,823	32,612	-0,378	-0,230
36,838	23,497	-0,454	-0,262
37,853	203,901	-0,355	-0,387
38,867	43,153	-0,500	-0,321
39,882	343,956	-0,241	-0,334
40,896	13,691	-0,351	-0,191
41,911	14,502	-0,368	-0,202
42,926	-16,863	-0,287	-0,127
43,940	80,849	-0,287	-0,218
44,955	148,817	-0,382	-0,364
45,969	209,017	-0,345	-0,381
46,984	124,907	-0,339	-0,301
47,999	21,421	-0,343	-0,196
49,013	-29,343	-0,375	-0,150
50,028	86,393	-0,263	-0,204
51,042	199,271	-0,273	-0,295
52,057	170,970	-0,373	-0,377
53,071	234,152	-0,300	-0,349
54,086	-79,196	-0,253	-0,060
55,101	15,259	-0,412	-0,226
56,115	12,688	-0,290	-0,157
57,130	121,335	-0,357	-0,313
58,144	101,188	-0,324	-0,265
59,159	94,320	-0,306	-0,244
60,174	68,947	-0,379	-0,273
61,188	-20,927	-0,336	-0,144
62,203	55,684	-0,339	-0,230
63,217	-20,645	-0,353	-0,152
64,232	60,846	-0,264	-0,184
65,247	-9,160	-0,386	-0,181
66,261	156,663	-0,269	-0,261
67,276	26,407	-0,399	-0,234
68,290	97,326	-0,369	-0,297
69,305	-2,523	-0,271	-0,133
70,320	137,509	-0,210	-0,193
71,334	-38,556	-0,346	-0,128
72,349	128,376	-0,351	-0,314
73,363	-11,480	-0,347	-0,160
74,378	-23,971	-0,332	-0,139
75,393	-34,524	-0,366	-0,140
76,407	-101,602	-0,228	-0,038
77,422	204,221	-0,175	-0,190
78,436	-65,731	-0,219	-0,061
79,451	91,793	-0,334	-0,263
80,466	112,215	-0,297	-0,252
81,480	59,001	-0,356	-0,245
82,495	84,475	-0,390	-0,299
83,509	-21,639	-0,301	-0,128
84,524	130,446	-0,303	-0,273
85,539	161,562	-0,295	-0,290
86,553	492,733	-0,168	-0,271
87,568	2,179	-0,383	-0,194
88,582	229,385	-0,258	-0,296
89,597	49,414	-0,233	-0,154
90,611	91,599	-0,256	-0,202
91,626	-42,439	-0,296	-0,105
92,641	228,225	-0,274	-0,313
93,655	-37,509	-0,285	-0,106
94,670	146,341	-0,286	-0,269
95,684	69,962	-0,283	-0,204
96,699	57,615	-0,312	-0,213
97,714	-9,578	-0,182	-0,085
98,728	2,272	-0,222	-0,112
99,743	-184,363	-0,283	-0,003
100,757	113,503	-0,210	-0,179
101,772	800,000	-0,157	-0,319
102,787	52,564	-0,279	-0,186
103,801	166,688	-0,279	-0,278
104,816	121,778	-0,314	-0,274
105,830	-107,255	-0,259	-0,039
106,845	-5,974	-0,158	-0,075
107,860	411,325	-0,117	-0,174
108,874	0,986	-0,119	-0,060
109,889	212,012	-0,221	-0,244
110,903	189,422	-0,318	-0,334
111,918	185,062	-0,214	-0,222
112,933	433,488	-0,175	-0,266
113,947	-70,522	-0,332	-0,087
114,962	100,996	-0,253	-0,206
115,976	-51,018	-0,229	-0,075
116,991	76,919	-0,239	-0,177
118,006	-6,171	-0,253	-0,121
119,020	24,586	-0,301	-0,174
120,035	109,618	-0,269	-0,226
121,049	-0,755	-0,197	-0,097
122,064	424,544	-0,154	-0,232
123,079	22,068	-0,180	-0,103
124,093	72,030	-0,210	-0,153
125,108	5,754	-0,269	-0,139
126,122	-147,467	-0,240	-0,014
127,137	-49,583	-0,270	-0,089
128,151	-12,250	-0,265	-0,120
129,166	22,809	-0,088	-0,050
130,181	-24,508	-0,248	-0,103
131,195	-68,706	-0,305	-0,082
132,210	74,822	-0,276	-0,203
133,224	-14,972	-0,299	-0,134
134,239	-42,024	-0,235	-0,084
135,254	278,826	-0,151	-0,188
136,268	192,712	-0,197	-0,208
137,283	194,613	-0,170	-0,181
138,297	81,840	-0,209	-0,158
139,312	-42,352	-0,406	-0,144
140,327	37,391	-0,228	-0,141
141,341	295,159	-0,200	-0,257
142,356	43,763	-0,312	-0,199
143,370	768,063	-0,138	-0,263
144,385	116,025	-0,247	-0,211
145,400	35,745	-0,218	-0,133
146,414	131,735	-0,288	-0,258
147,429	-43,788	-0,367	-0,128
148,443	-60,473	-0,228	-0,067
149,458	104,673	-0,089	-0,073
150,473	225,110	-0,112	-0,127
151,487	800,000	-0,153	-0,303
152,502	49,927	-0,262	-0,172
153,516	32,214	-0,238	-0,143
154,531	-23,303	-0,248	-0,104
155,546	132,004	-0,208	-0,186
156,560	86,342	-0,245	-0,188
157,575	57,451	-0,264	-0,179
158,589	65,145	-0,255	-0,179
159,604	10,317	-0,333	-0,176
160,619	125,180	-0,224	-0,197
161,633	800,000	-0,148	-0,339
162,648	-6,168	-0,239	-0,113
163,662	-200,000	-0,075	-0,237
164,677	156,018	-0,192	-0,185
165,692	120,075	-0,268	-0,232
166,706	155,188	-0,212	-0,203
167,721	-9,421	-0,304	-0,141
168,735	30,039	-0,292	-0,173
169,750	294,835	-0,250	-0,319
170,764	332,050	-0,103	-0,139
171,779	6,677	-0,245	-0,127
172,794	170,069	-0,149	-0,148
173,808	-29,711	-0,219	-0,087
174,823	550,301	-0,156	-0,262
175,837	266,928	-0,246	-0,300
176,852	129,185	-0,230	-0,205
177,867	800,000	-0,142	-0,277
178,881	74,312	-0,195	-0,142
179,896	-44,625	-0,095	-0,033
180,910	70,480	-0,220	-0,158
181,925	-2,249	-0,256	-0,125
182,940	101,733	-0,257	-0,208
183,954	160,176	-0,254	-0,246
184,969	138,074	-0,255	-0,232
185,983	650,376	-0,133	-0,237
186,998	42,964	-0,169	-0,107
188,013	167,581	-0,219	-0,217
189,027	96,151	-0,222	-0,176
190,042	47,001	-0,191	-0,123
191,056	60,526	-0,258	-0,177
192,071	107,216	-0,235	-0,194
193,086	257,803	-0,216	-0,258
194,100	800,000	-0,068	-0,140
195,115	53,759	-0,114	-0,076
196,129	-200,000	-0,082	-0,286
197,144	518,972	-0,121	-0,198
198,159	162,428	-0,199	-0,194
199,173	-200,000	-0,051	-0,163
200,188	-43,263	-0,214	-0,075
201,202	275,095	-0,219	-0,270
202,217	77,359	-0,315	-0,232
203,232	200,648	-0,262	-0,280
204,246	138,414	-0,245	-0,224
205,261	-83,957	-0,283	-0,062
206,275	-7,832	-0,209	-0,097
207,290	235,218	-0,146	-0,168
208,304	261,684	-0,160	-0,193
209,319	134,481	-0,211	-0,190
210,334	154,007	-0,144	-0,137
211,348	482,275	-0,204	-0,322
212,363	59,831	-0,255	-0,174
213,377	697,575	-0,132	-0,241
214,392	107,108	-0,170	-0,140
215,407	-200,000	-0,029	-0,128
216,421	-118,432	-0,297	-0,036
217,436	-18,131	-0,190	-0,082
218,450	59,679	-0,181	-0,124
219,465	-146,576	-0,226	-0,013
220,480	-56,778	-0,181	-0,055
221,494	142,996	-0,193	-0,178
222,509	120,996	-0,203	-0,175
223,523	-52,693	-0,253	-0,080
224,538	493,192	-0,087	-0,138
225,553	173,005	-0,207	-0,207
226,567	252,903	-0,103	-0,122
227,582	-2,750	-0,187	-0,090
228,596	-9,686	-0,225	0,103
229,611	-35,570	-0,222	-0,083
230,626	574,219	-0,070	-0,119
231,640	29,040	-0,226	-0,133
232,655	-116,984	-0,259	0,032
233,669	-2,926	-0,131	-0,063
234,684	189,454	-0,166	-0,172
235,699	-2,609	-0,244	-0,118
236,713	-2,040	-0,280	-0,136
237,728	77,412	-0,169	-0,124
238,742	-36,214	-0,203	-0,076
239,757	28,654	-0,295	-0,173
240,772	189,744	-0,151	-0,157
241,786	46,466	-0,229	-0,147
242,801	576,159	-0,150	-0,255
243,815	-200,000	0,013	-0,168
244,830	61,752	-0,194	-0,134
245,844	-119,574	-0,051	0,006
246,859	166,488	-0,195	-0,191
247,874	183,432	-0,209	-0,214
248,888	52,199	-0,172	-0,113
249,903	97,158	-0,243	-0,193
250,917	800,000	-0,115	-0,247
251,932	521,507	-0,095	-0,155
252,947	-87,183	-0,192	-0,040
253,961	85,099	-0,202	-0,153
254,976	95,417	-0,190	-0,150
255,990	498,592	-0,187	-0,299
257,005	-152,911	-0,113	0,005
258,020	-17,044	-0,237	-0,103
259,034	800,000	-0,009	0,020
260,049	800,000	-0,107	-0,233
261,063	-20,506	-0,182	-0,077
262,078	107,374	-0,305	-0,250
263,093	-128,074	-0,217	-0,021
264,107	225,424	-0,146	-0,164
265,122	800,000	-0,087	-0,168
266,136	75,361	-0,176	-0,128
267,151	167,472	-0,148	-0,145
268,166	132,581	-0,226	-0,201
269,180	-56,704	-0,143	-0,043
270,195	-86,764	-0,218	-0,046
271,209	31,919	-0,139	0,082
272,224	-59,664	-0,212	-0,062
273,239	18,651	-0,116	-0,064
274,253	204,089	-0,114	-0,122
275,268	125,196	-0,219	-0,191
276,282	11,444	-0,233	-0,123
277,297	141,386	-0,180	-0,165
278,312	61,590	-0,231	-0,158
279,326	109,104	-0,230	-0,190
280,341	-3,259	-0,204	-0,098
281,355	35,655	-0,207	-0,125
282,370	69,371	-0,162	-0,115
283,384	317,441	-0,190	-0,249
284,399	190,098	-0,151	-0,157
285,414	688,679	-0,145	-0,262
286,428	33,690	-0,132	-0,079
287,443	-152,732	-0,126	0,006
288,457	800,000	-0,072	-0,158
289,472	579,603	-0,130	-0,221
290,487	253,894	-0,231	-0,272
291,501	414,770	-0,094	-0,139
292,516	139,722	-0,216	-0,196
293,530	103,348	-0,136	-0,110
294,545	-73,846	-0,164	-0,041
295,560	390,337	-0,060	-0,085
296,574	131,101	-0,107	-0,095
297,589	-35,215	-0,243	-0,090
298,603	51,636	-0,183	-0,120
299,618	25,805	-0,236	-0,135
300,633	106,466	-0,098	-0,080
301,647	243,620	-0,090	-0,105
302,662	-200,000	-0,098	-0,315
303,676	-3,487	-0,195	-0,093
304,691	139,762	-0,188	-0,171
305,706	-137,733	-0,108	0,008
306,720	547,422	-0,047	-0,077
307,735	48,033	-0,157	-0,101
308,749	57,614	-0,150	-0,100
309,764	800,000	-0,044	-0,108
310,779	174,409	-0,089	-0,089
311,793	-50,669	-0,195	-0,063
312,808	21,778	-0,246	-0,137
313,822	-43,502	-0,143	-0,049
314,837	137,453	-0,089	0,081
315,852	12,483	-0,192	-0,101
316,866	40,043	-0,126	-0,077
317,881	37,614	-0,118	0,072
318,895	36,696	-0,170	-0,103
319,910	217,953	-0,119	-0,131
320,925	546,236	-0,084	-0,138
321,939	281,282	-0,154	-0,190
322,954	196,991	-0,091	-0,095
323,968	43,213	-0,052	-0,033
324,983	-96,385	-0,231	0,042
325,997	-35,820	-0,170	-0,063
327,012	-200,000	0,014	-0,113
328,027	751,547	-0,088	-0,164
329,041	-200,000	0,002	-0,049
330,056	-159,831	-0,160	-0,006
331,070	169,277	0,059	-0,057
332,085	92,784	-0,169	-0,131
333,100	197,174	-0,039	-0,041
334,114	76,836	-0,201	-0,146
335,129	390,207	-0,082	-0,117
336,143	99,215	-0,141	-0,112
337,158	-3,524	-0,138	-0,066
338,173	230,443	-0,011	0,013
339,187	800,000	-0,078	-0,201
340,202	-149,160	-0,156	0,008
341,216	-101,654	-0,196	-0,032
342,231	407,136	-0,122	-0,177
343,246	207,891	-0,192	-0,206
344,260	800,000	-0,059	0,132
345,275	357,140	-0,071	0,098
346,289	-42,075	-0,116	0,040
347,304	-63,725	-0,244	0,068
348,319	669,760	-0,116	-0,208
349,333	624,186	-0,141	-0,244
350,348	800,000	-0,080	-0,155
351,362	800,000	-0,142	-0,281
352,377	-129,436	-0,131	-0,012
353,392	800,000	0,051	-0,120
354,406	73,936	-0,094	-0,067
355,421	208,197	1312,344	1406,887
356,435	160,186	1472,757	1407,351
