DTS Sentinel unit serial number:	SN410029Multiplexer serial number:	ORYXHardware model number:	OX2-SRSoftware version number:	ORYX F/W v4,00 Oryx Data Collector v3.7.2.0data status	okinstallation	B3 Nyhavnadifferential loss correction	single-endedforward channel	channel 1reverse channel	N/Adate	2023/12/03time	23:32:30forward acquisition time	300,00reverse acquisition time	0,00gamma	499,1914k internal	0,3202k external	0,3202temperature offset calibration	1,0000default loss term (dB/km)	0,3820temperature slope calibration	1,0000multiplexer offset coefficient	1,0000multiplexer slope coefficient	1,0000fibre end	0,00T internal ref (°C)	12,89T ext. ref 1 (°C)	-2,41T ext. ref 2 (°C)	-2,43length (m)	temperature (°C)	Stokes	anti-Stokes-744,400	-23,660	-0,260	-0,113
-743,385	-200,000	-0,030	0,310
-742,371	800,000	-0,126	-0,379
-741,356	498,881	0,136	0,229
-740,342	303,229	-0,208	-0,281
-739,327	-200,000	-0,059	0,229
-738,312	-13,424	-0,252	-0,118
-737,298	-200,000	-0,021	0,218
-736,283	556,206	-0,197	-0,346
-735,269	-200,000	-0,002	0,316
-734,254	-22,981	-0,173	-0,075
-733,239	37,016	-0,198	0,127
-732,225	274,380	-0,139	-0,180
-731,210	63,306	0,166	0,121
-730,196	76,207	-0,054	0,042
-729,181	-108,581	0,120	-0,019
-728,167	-200,000	-0,003	-0,045
-727,152	-200,000	0,001	-0,017
-726,137	-78,576	-0,073	-0,018
-725,123	81,421	-0,080	-0,063
-724,108	800,000	0,086	-0,229
-723,094	-35,344	-0,168	-0,066
-722,079	403,146	-0,033	-0,051
-721,064	-6,477	-0,119	-0,059
-720,050	133,883	-0,156	-0,146
-719,035	255,764	0,075	0,094
-718,021	-200,000	0,004	0,060
-717,006	-75,304	-0,013	-0,003
-715,991	5,548	-0,047	-0,025
-714,977	48,766	0,069	0,047
-713,962	-149,447	-0,041	0,002
-712,948	-23,362	0,085	-0,037
-711,933	99,545	-0,095	-0,080
-710,918	800,000	-0,059	0,152
-709,904	-23,620	-0,093	-0,041
-708,889	-200,000	-0,083	-0,294
-707,875	-200,000	-0,032	-0,127
-706,860	-77,651	-0,084	-0,021
-705,845	40,580	-0,078	0,051
-704,831	302,270	-0,051	-0,068
-703,816	-130,682	-0,152	-0,015
-702,802	-46,545	-0,079	0,028
-701,787	-53,354	-0,047	0,016
-700,772	160,625	-0,012	-0,012
-699,758	-200,000	0,016	-0,086
-698,743	16,341	0,090	0,051
-697,729	-200,000	-0,007	0,057
-696,714	-44,939	-0,079	0,029
-695,699	305,925	0,031	-0,042
-694,685	800,000	-0,077	-0,183
-693,670	-172,347	-0,164	-0,004
-692,656	-104,295	0,084	-0,014
-691,641	32,518	-0,045	-0,028
-690,627	22,497	-0,045	-0,027
-689,612	-200,000	-0,011	0,088
-688,597	-200,000	-0,003	-0,083
-687,583	-200,000	0,007	-0,085
-686,568	-14,229	-0,053	0,025
-685,554	800,000	-0,059	-0,146
-684,539	612,460	0,031	-0,056
-683,524	-86,519	-0,090	-0,020
-682,510	124,949	0,064	0,058
-681,495	-85,768	0,021	-0,005
-680,481	800,000	-0,022	0,067
-679,466	-66,203	-0,195	-0,056
-678,451	25,565	0,116	-0,070
-677,437	-38,350	-0,134	0,051
-676,422	157,614	-0,059	0,059
-675,408	-200,000	-0,009	0,055
-674,393	-55,620	0,040	-0,013
-673,378	133,040	-0,121	0,113
-672,364	-200,000	-0,014	-0,069
-671,349	800,000	-0,011	-0,026
-670,335	-200,000	0,005	0,097
-669,320	-200,000	-0,037	0,167
-668,305	-200,000	-0,001	0,058
-667,291	376,881	-0,027	-0,040
-666,276	800,000	0,006	0,016
-665,262	53,213	-0,103	0,071
-664,247	64,863	-0,077	-0,056
-663,232	318,129	0,054	0,074
-662,218	179,876	-0,083	-0,088
-661,203	-200,000	0,002	0,050
-660,189	-200,000	0,016	0,069
-659,174	800,000	-0,052	-0,109
-658,159	-200,000	0,007	-0,035
-657,145	-37,407	-0,060	0,023
-656,130	326,232	0,059	-0,082
-655,116	-4,202	0,012	-0,006
-654,101	420,245	-0,041	-0,064
-653,086	134,261	-0,060	0,057
-652,072	-0,175	-0,041	-0,021
-651,057	-200,000	0,001	-0,011
-650,043	-200,000	0,021	-0,106
-649,028	281,267	-0,018	0,023
-648,014	-200,000	-0,010	-0,042
-646,999	144,062	0,065	0,063
-645,984	-71,983	0,142	0,038
-644,970	-28,628	-0,146	-0,061
-643,955	460,407	-0,036	0,059
-642,941	-161,812	-0,131	0,005
-641,926	-38,901	-0,025	0,009
-640,911	472,302	0,109	-0,179
-639,897	309,870	-0,065	0,088
-638,882	42,873	-0,031	0,020
-637,868	57,487	-0,157	0,111
-636,853	-95,679	-0,131	0,025
-635,838	-79,722	0,194	-0,047
-634,824	800,000	-0,040	0,102
-633,809	-200,000	-0,003	-0,076
-632,795	-200,000	-0,043	-0,145
-631,780	-200,000	-0,014	0,058
-630,765	299,137	-0,071	0,095
-629,751	-60,693	0,084	-0,025
-628,736	195,154	-0,058	-0,064
-627,722	800,000	0,048	-0,136
-626,707	550,270	0,050	0,087
-625,692	28,168	-0,128	0,078
-624,678	800,000	0,030	0,088
-623,663	624,565	-0,029	-0,053
-622,649	42,715	-0,118	0,078
-621,634	117,556	-0,093	-0,083
-620,619	-31,959	-0,149	-0,060
-619,605	800,000	0,042	-0,092
-618,590	197,448	0,054	-0,059
-617,576	-200,000	-0,018	0,118
-616,561	242,345	0,046	0,055
-615,546	-200,000	-0,015	-0,069
-614,532	-107,259	-0,189	-0,030
-613,517	-29,274	0,040	0,016
-612,503	-160,656	-0,181	-0,007
-611,488	-22,948	0,164	-0,071
-610,474	-200,000	0,007	0,194
-609,459	109,715	0,041	-0,036
-608,444	-200,000	0,006	-0,049
-607,430	-36,654	0,065	-0,025
-606,415	522,889	0,055	-0,094
-605,401	800,000	-0,062	0,175
-604,386	-34,784	-0,053	0,021
-603,371	250,615	0,111	0,137
-602,357	-200,000	0,027	0,127
-601,342	88,780	0,073	-0,059
-600,328	144,465	-0,028	0,027
-599,313	-172,388	-0,087	0,002
-598,298	-65,754	0,045	0,013
-597,284	800,000	0,022	0,069
-596,269	11,747	0,095	0,052
-595,255	800,000	-0,011	0,024
-594,240	104,577	0,103	-0,087
-593,225	-101,594	-0,204	-0,036
-592,211	75,653	-0,111	-0,085
-591,196	288,876	-0,052	0,068
-590,182	463,504	0,055	-0,089
-589,167	-200,000	0,016	0,114
-588,152	-117,114	-0,047	0,006
-587,138	-111,394	-0,027	-0,004
-586,123	411,509	-0,012	-0,018
-585,109	77,617	-0,030	-0,023
-584,094	60,373	-0,107	0,076
-583,079	-140,834	-0,071	0,005
-582,065	80,372	-0,097	-0,075
-581,050	82,837	-0,077	-0,060
-580,036	-200,000	-0,020	0,066
-579,021	-82,803	0,046	0,011
-578,006	-200,000	-0,012	-0,141
-576,992	-29,499	0,088	-0,036
-575,977	-30,157	0,072	-0,029
-574,963	278,240	0,080	-0,103
-573,948	710,776	0,018	0,035
-572,934	83,707	-0,066	-0,052
-571,919	612,994	-0,049	-0,089
-570,904	394,309	0,007	0,010
-569,890	177,961	0,031	-0,033
-568,875	473,691	0,029	0,047
-567,861	104,889	0,053	-0,045
-566,846	-61,064	0,125	-0,038
-565,831	185,859	-0,055	0,060
-564,817	800,000	-0,035	-0,106
-563,802	-107,535	0,020	0,003
-562,788	56,471	-0,050	0,035
-561,773	-200,000	0,005	0,016
-560,758	342,669	0,027	0,039
-559,744	-200,000	-0,012	-0,069
-558,729	32,450	-0,042	0,026
-557,715	92,115	-0,063	-0,052
-556,700	305,484	0,022	-0,030
-555,685	-155,044	0,087	0,004
-554,671	-94,115	-0,227	0,044
-553,656	-200,000	0,001	0,098
-552,642	800,000	0,020	-0,047
-551,627	-68,628	-0,074	-0,021
-550,612	-139,661	-0,107	0,008
-549,598	-105,850	-0,104	-0,017
-548,583	800,000	-0,037	-0,083
-547,569	10,420	0,038	-0,021
-546,554	-104,644	0,102	0,017
-545,539	-36,276	0,145	-0,056
-544,525	800,000	-0,075	0,186
-543,510	190,973	0,037	-0,040
-542,496	-122,241	0,171	0,020
-541,481	-200,000	0,002	0,040
-540,466	-200,000	0,004	-0,101
-539,452	-200,000	0,001	0,029
-538,437	-78,259	-0,125	0,031
-537,423	-43,202	-0,123	0,045
-536,408	135,935	0,019	-0,018
-535,393	-71,609	-0,229	-0,061
-534,379	436,853	-0,069	-0,109
-533,364	-63,453	-0,097	-0,029
-532,350	16,448	0,087	-0,050
-531,335	-200,000	0,004	-0,051
-530,321	-167,707	0,085	-0,002
-529,306	180,842	-0,144	0,153
-528,291	424,708	-0,049	0,077
-527,277	500,786	0,087	-0,145
-526,262	285,296	-0,091	-0,118
-525,248	449,973	0,055	0,087
-524,233	77,578	0,159	0,122
-523,218	800,000	0,025	0,079
-522,204	389,812	0,063	-0,095
-521,189	108,952	0,023	0,020
-520,175	-101,187	-0,107	-0,019
-519,160	611,364	0,071	-0,129
-518,145	-200,000	-0,013	-0,139
-517,131	-0,915	0,025	-0,013
-516,116	-200,000	0,013	0,100
-515,102	16,210	0,026	0,015
-514,087	800,000	0,043	-0,099
-513,072	539,083	-0,100	-0,171
-512,058	105,475	-0,020	-0,017
-511,043	800,000	0,058	0,123
-510,029	141,874	-0,045	-0,043
-509,014	-200,000	-0,013	-0,045
-507,999	-32,226	-0,102	-0,041
-506,985	-200,000	-0,007	-0,091
-505,970	57,007	-0,114	-0,080
-504,956	-43,915	0,076	-0,027
-503,941	156,160	-0,065	-0,065
-502,926	498,544	0,039	0,064
-501,912	-200,000	-0,034	-0,179
-500,897	32,373	0,081	0,050
-499,883	10,329	0,087	-0,048
-498,868	26,495	-0,107	0,064
-497,853	-200,000	-0,016	-0,081
-496,839	456,826	-0,093	0,149
-495,824	160,464	-0,053	0,053
-494,810	-200,000	0,003	0,063
-493,795	68,680	-0,118	0,087
-492,781	-88,082	0,061	-0,013
-491,766	246,285	-0,146	-0,178
-490,751	-47,229	0,170	0,059
-489,737	-200,000	-0,003	0,016
-488,722	-200,000	0,003	0,017
-487,708	607,388	0,010	0,018
-486,693	74,256	0,054	0,041
-485,678	550,655	0,066	0,115
-484,664	800,000	-0,061	-0,132
-483,649	-20,215	-0,081	-0,036
-482,635	-88,022	0,084	0,018
-481,620	-181,206	0,070	0,001
-480,605	721,161	0,006	-0,011
-479,591	106,773	-0,033	0,028
-478,576	-200,000	-0,004	0,020
-477,562	-157,054	-0,065	-0,003
-476,547	-200,000	-0,012	-0,098
-475,532	72,189	0,044	-0,033
-474,518	800,000	0,035	-0,106
-473,503	800,000	0,027	0,072
-472,489	800,000	0,016	0,042
-471,474	319,228	-0,051	-0,069
-470,459	-107,061	0,183	0,029
-469,445	41,769	-0,084	-0,055
-468,430	-200,000	0,003	0,157
-467,416	7,368	0,053	0,029
-466,401	-104,721	0,183	0,030
-465,386	-164,890	0,116	-0,004
-464,372	-200,000	-0,033	0,106
-463,357	-200,000	-0,011	-0,045
-462,343	-135,532	-0,147	0,012
-461,328	-67,574	0,127	0,036
-460,313	-171,310	0,090	0,002
-459,299	-149,167	0,229	0,013
-458,284	86,819	-0,137	0,109
-457,270	-58,539	-0,108	-0,033
-456,255	73,121	-0,089	-0,067
-455,241	375,528	0,029	0,043
-454,226	148,180	-0,063	-0,061
-453,211	491,247	0,020	0,033
-452,197	800,000	0,012	0,028
-451,182	-200,000	-0,024	0,105
-450,168	-13,830	0,064	-0,030
-449,153	-200,000	0,024	-0,115
-448,138	-200,000	0,004	-0,144
-447,124	30,335	-0,165	-0,101
-446,109	800,000	0,026	0,055
-445,095	-200,000	-0,001	-0,030
-444,080	-89,136	0,143	-0,030
-443,065	800,000	0,021	0,049
-442,051	800,000	0,060	0,137
-441,036	-200,000	-0,049	-0,170
-440,022	-74,156	-0,167	-0,043
-439,007	-29,655	0,044	0,018
-437,992	800,000	-0,019	0,039
-436,978	-200,000	0,005	0,102
-435,963	-59,898	0,107	0,033
-434,949	228,756	0,068	0,079
-433,934	-3,607	-0,097	0,048
-432,919	-17,970	-0,104	-0,047
-431,905	334,625	0,027	0,037
-430,890	-200,000	-0,001	0,014
-429,876	68,560	0,053	-0,039
-428,861	300,589	-0,012	-0,016
-427,846	-200,000	-0,011	0,100
-426,832	83,003	-0,012	-0,009
-425,817	31,542	0,057	-0,035
-424,803	-181,193	-0,085	-0,001
-423,788	-200,000	0,005	-0,084
-422,773	546,848	0,037	-0,065
-421,759	-181,463	0,066	-0,001
-420,744	299,982	-0,063	0,083
-419,730	800,000	0,015	-0,034
-418,715	-200,000	0,011	0,072
-417,701	-200,000	-0,018	-0,058
-416,686	800,000	0,076	0,161
-415,671	-120,351	0,094	-0,011
-414,657	-65,059	-0,063	0,018
-413,642	-200,000	-0,003	0,060
-412,628	800,000	-0,035	-0,076
-411,613	-200,000	-0,016	-0,068
-410,598	-200,000	0,006	-0,069
-409,584	411,679	0,051	0,079
-408,569	-48,641	0,125	0,043
-407,555	-106,204	-0,143	-0,023
-406,540	-195,384	0,043	0,000
-405,525	-94,032	-0,071	-0,014
-404,511	5,530	-0,094	-0,050
-403,496	800,000	-0,024	0,071
-402,482	-148,486	0,084	-0,005
-401,467	-139,049	0,093	0,007
-400,452	800,000	-0,033	0,083
-399,438	-200,000	-0,007	0,049
-398,423	305,350	-0,077	0,103
-397,409	800,000	-0,059	-0,172
-396,394	179,772	0,042	-0,044
-395,379	-49,734	-0,123	-0,042
-394,365	-200,000	0,006	-0,033
-393,350	-200,000	-0,003	0,022
-392,336	-200,000	-0,002	0,144
-391,321	800,000	0,032	-0,072
-390,306	-200,000	-0,010	0,038
-389,292	22,062	-0,079	-0,046
-388,277	800,000	-0,052	-0,123
-387,263	-200,000	-0,037	0,163
-386,248	800,000	0,017	-0,045
-385,233	344,090	0,043	-0,060
-384,219	4,853	0,073	0,038
-383,204	-200,000	-0,060	0,192
-382,190	-200,000	-0,012	0,038
-381,175	-93,925	0,130	-0,025
-380,160	90,223	-0,016	0,013
-379,146	800,000	-0,027	0,055
-378,131	-200,000	-0,001	0,095
-377,117	-8,595	0,140	-0,067
-376,102	164,925	0,096	-0,097
-375,088	-56,273	0,080	-0,025
-374,073	800,000	-0,009	-0,018
-373,058	-194,491	-0,026	-0,000
-372,044	800,000	-0,015	0,035
-371,029	-76,015	-0,089	-0,022
-370,015	-200,000	-0,023	0,192
-369,000	-200,000	0,003	0,038
-367,985	-109,102	-0,087	0,013
-366,971	-74,531	0,050	-0,013
-365,956	30,085	0,093	-0,057
-364,942	-79,959	0,066	-0,016
-363,927	-151,517	-0,049	-0,003
-362,912	-75,429	0,131	0,033
-361,898	340,238	-0,065	-0,091
-360,883	-200,000	0,009	-0,088
-359,869	-200,000	-0,013	-0,099
-358,854	-200,000	-0,020	0,074
-357,839	154,349	0,104	0,102
-356,825	36,449	-0,069	0,043
-355,810	7,248	0,044	-0,024
-354,796	-182,036	0,096	0,001
-353,781	-116,263	0,084	0,011
-352,766	-200,000	-0,021	0,147
-351,752	-83,058	0,030	0,007
-350,737	516,083	-0,056	-0,094
-349,723	453,216	-0,080	0,127
-348,708	124,677	0,099	0,089
-347,693	316,058	0,093	0,125
-346,679	800,000	-0,095	0,214
-345,664	-142,592	0,025	0,002
-344,650	-69,718	0,140	-0,038
-343,635	12,827	-0,103	0,057
-342,620	-72,692	-0,018	-0,005
-341,606	-200,000	0,006	-0,105
-340,591	525,039	-0,067	-0,113
-339,577	-200,000	0,015	-0,184
-338,562	586,302	0,034	-0,061
-337,548	-142,085	-0,065	-0,005
-336,533	800,000	0,013	0,042
-335,518	201,552	0,015	0,017
-334,504	78,328	0,085	0,065
-333,489	149,686	-0,096	-0,093
-332,475	237,048	0,054	-0,065
-331,460	800,000	-0,017	0,039
-330,445	-137,261	0,036	0,003
-329,431	-97,539	0,045	0,008
-328,416	-200,000	-0,013	0,121
-327,402	305,182	0,100	0,133
-326,387	-200,000	-0,003	0,062
-325,372	23,417	-0,120	-0,070
-324,358	142,117	0,090	-0,086
-323,343	-72,488	-0,188	0,049
-322,329	-200,000	0,022	-0,087
-321,314	763,477	0,009	0,018
-320,299	282,180	0,076	0,098
-319,285	22,986	-0,095	-0,056
-318,270	-200,000	0,029	-0,116
-317,256	-200,000	-0,016	-0,225
-316,241	-98,206	-0,042	-0,008
-315,226	164,458	0,089	0,090
-314,212	-200,000	-0,015	0,195
-313,197	-76,682	0,131	-0,033
-312,183	-200,000	0,014	0,119
-311,168	-200,000	-0,004	0,050
-310,153	145,936	-0,060	0,058
-309,139	-49,220	0,092	-0,031
-308,124	261,364	-0,050	-0,062
-307,110	69,538	0,123	-0,090
-306,095	736,490	-0,055	0,105
-305,080	-161,954	0,079	0,003
-304,066	175,208	-0,053	-0,055
-303,051	500,748	0,051	-0,084
-302,037	-200,000	-0,002	-0,101
-301,022	149,744	-0,061	0,059
-300,008	255,245	0,050	-0,061
-298,993	374,918	-0,070	-0,102
-297,978	148,942	0,078	0,076
-296,964	-200,000	0,002	0,029
-295,949	800,000	0,021	-0,043
-294,935	-200,000	-0,004	-0,139
-293,920	-200,000	-0,018	-0,121
-292,905	-200,000	-0,009	0,035
-291,891	-200,000	0,010	0,054
-290,876	486,278	0,043	-0,071
-289,862	800,000	-0,021	-0,050
-288,847	362,472	0,055	-0,079
-287,832	233,815	0,010	0,012
-286,818	366,083	-0,023	-0,034
-285,803	-139,612	-0,113	0,008
-284,789	800,000	0,017	0,054
-283,774	754,998	0,092	0,178
-282,759	-93,627	0,025	0,005
-281,745	-200,000	-0,015	-0,067
-280,730	265,879	-0,061	0,076
-279,716	-132,432	-0,071	-0,006
-278,701	161,792	0,080	0,080
-277,686	142,262	0,089	0,085
-276,672	54,233	0,037	0,025
-275,657	139,073	0,089	0,083
-274,643	-200,000	-0,059	-0,187
-273,628	800,000	0,046	-0,135
-272,613	116,741	0,124	0,109
-271,599	-200,000	-0,014	0,092
-270,584	60,895	0,124	-0,088
-269,570	304,275	0,092	0,122
-268,555	259,954	-0,051	0,063
-267,540	43,535	-0,170	-0,111
-266,526	-200,000	0,020	-0,115
-265,511	-200,000	-0,016	-0,190
-264,497	720,860	0,082	-0,156
-263,482	322,352	0,050	0,068
-262,467	-62,449	0,034	-0,010
-261,453	-74,360	-0,077	0,020
-260,438	549,865	-0,015	-0,025
-259,424	-200,000	-0,018	-0,142
-258,409	-186,369	0,098	0,001
-257,395	239,226	0,056	-0,066
-256,380	-92,989	-0,076	-0,015
-255,365	128,763	-0,047	0,043
-254,351	-37,901	0,113	-0,043
-253,336	-98,383	0,036	0,006
-252,322	-7,804	-0,123	-0,059
-251,307	-200,000	0,014	0,137
-250,292	800,000	0,025	-0,051
-249,278	-15,926	0,079	-0,036
-248,263	183,163	-0,213	0,225
-247,249	-200,000	-0,035	-0,137
-246,234	-200,000	-0,008	-0,046
-245,219	12,702	-0,035	0,019
-244,205	11,397	-0,061	0,033
-243,190	-0,767	0,117	-0,059
-242,176	563,863	0,061	0,106
-241,161	110,705	0,106	0,091
-240,146	-86,196	-0,023	0,005
-239,132	800,000	-0,028	0,072
-238,117	-97,314	-0,260	-0,048
-237,103	54,202	0,109	-0,075
-236,088	-200,000	-0,000	-0,004
-235,073	-200,000	-0,013	0,194
-234,059	800,000	0,082	0,209
-233,044	-86,379	-0,026	0,006
-232,030	-76,395	-0,065	-0,016
-231,015	193,899	-0,071	-0,077
-230,000	-93,129	-0,203	0,040
-228,986	-5,412	-0,126	-0,061
-227,971	76,479	0,060	0,045
-226,957	-200,000	-0,008	-0,044
-225,942	281,694	0,071	0,091
-224,927	-200,000	-0,007	-0,047
-223,913	-32,949	0,044	-0,017
-222,898	460,079	-0,030	-0,047
-221,884	-70,619	0,065	-0,017
-220,869	800,000	0,009	0,028
-219,855	800,000	-0,030	0,087
-218,840	129,821	0,140	0,128
-217,825	-61,011	0,058	0,017
-216,811	-69,188	-0,055	-0,015
-215,796	-200,000	-0,005	0,048
-214,782	800,000	0,088	-0,206
-213,767	-200,000	-0,008	-0,125
-212,752	-87,860	0,084	0,018
-211,738	-28,770	0,189	0,077
-210,723	112,851	-0,078	0,068
-209,709	232,975	0,027	0,031
-208,694	298,786	0,050	-0,066
-207,679	-200,000	-0,007	-0,084
-206,665	241,109	-0,123	-0,147
-205,650	-31,793	0,049	0,020
-204,636	-177,967	0,119	-0,002
-203,621	179,432	0,028	-0,029
-202,606	-82,976	-0,088	0,020
-201,592	-200,000	0,004	0,048
-200,577	179,474	-0,047	-0,049
-199,563	133,641	0,075	0,069
-198,548	800,000	0,010	-0,022
-197,533	-200,000	0,047	0,170
-196,519	58,077	-0,037	0,026
-195,504	273,166	-0,075	0,095
-194,490	86,967	0,105	-0,083
-193,475	-200,000	-0,008	-0,079
-192,460	73,306	0,116	-0,087
-191,446	-181,020	0,046	-0,001
-190,431	33,303	-0,076	0,047
-189,417	11,150	0,033	0,018
-188,402	800,000	0,034	-0,067
-187,387	-148,987	-0,065	0,004
-186,373	-28,382	-0,015	-0,006
-185,358	110,231	0,139	0,119
-184,344	-200,000	-0,028	-0,131
-183,329	-200,000	-0,019	0,093
-182,315	415,695	0,091	0,138
-181,300	-129,916	-0,090	-0,009
-180,285	-67,299	-0,184	-0,051
-179,271	-20,517	0,081	0,035
-178,256	-200,000	-0,003	0,111
-177,242	259,138	-0,014	-0,018
-176,227	487,409	0,073	0,118
-175,212	5,886	0,038	0,020
-174,198	152,551	-0,081	-0,079
-173,183	-160,844	-0,202	-0,007
-172,169	460,588	-0,027	-0,042
-171,154	546,049	-0,025	0,042
-170,139	-142,042	0,032	0,002
-169,125	73,007	0,070	-0,052
-168,110	-200,000	-0,012	0,156
-167,096	-112,044	-0,023	-0,003
-166,081	155,196	-0,112	-0,109
-165,066	82,221	0,039	0,030
-164,052	-200,000	0,016	-0,156
-163,037	-200,000	-0,005	-0,120
-162,023	154,623	0,136	0,133
-161,008	-200,000	-0,000	0,073
-159,993	800,000	-0,019	0,059
-158,979	800,000	0,041	0,089
-157,964	-200,000	0,060	-0,193
-156,950	-200,000	0,015	-0,100
-155,935	790,720	0,005	0,009
-154,920	-200,000	0,002	0,089
-153,906	-60,589	-0,109	0,033
-152,891	-200,000	0,011	0,083
-151,877	-200,000	0,029	0,096
-150,862	-91,528	0,095	0,019
-149,847	-9,154	-0,169	0,080
-148,833	352,388	-0,020	-0,028
-147,818	373,021	0,051	0,074
-146,804	78,796	-0,120	-0,091
-145,789	-200,000	-0,007	0,107
-144,775	270,230	-0,071	-0,088
-143,760	-92,104	-0,196	-0,039
-142,745	168,072	-0,070	-0,071
-141,731	17,574	0,083	-0,047
-140,716	-34,813	-0,039	0,015
-139,702	-200,000	0,009	-0,031
-138,687	376,873	-0,031	-0,045
-137,672	21,246	-0,101	0,058
-136,658	-200,000	-0,017	-0,123
-135,643	-120,923	-0,105	-0,012
-134,629	-200,000	0,007	-0,108
-133,614	-76,707	-0,089	-0,022
-132,599	800,000	0,019	0,055
-131,585	709,511	-0,010	-0,019
-130,570	327,551	-0,082	-0,112
-129,556	-200,000	0,005	0,071
-128,541	-200,000	0,020	-0,089
-127,526	231,307	0,040	-0,047
-126,512	800,000	0,053	-0,105
-125,497	-200,000	0,000	-0,080
-124,483	800,000	-0,005	-0,012
-123,468	-19,468	-0,032	0,014
-122,453	-38,978	0,138	0,051
-121,439	-200,000	-0,038	-0,174
-120,424	800,000	0,027	-0,075
-119,410	-200,000	-0,024	-0,132
-118,395	-152,063	0,240	-0,012
-117,380	-40,913	-0,053	0,019
-116,366	-200,000	0,023	0,079
-115,351	-80,787	-0,095	-0,022
-114,337	20,234	0,080	-0,046
-113,322	800,000	-0,016	-0,046
-112,307	247,874	0,010	-0,012
-111,293	-31,414	-0,088	0,035
-110,278	-200,000	0,031	0,110
-109,264	170,274	-0,043	0,043
-108,249	41,520	-0,017	-0,011
-107,234	-200,000	0,020	-0,138
-106,220	739,028	0,058	-0,112
-105,205	276,002	0,056	-0,070
-104,191	231,123	0,148	0,172
-103,176	-200,000	0,016	0,101
-102,162	730,040	-0,048	0,091
-101,147	110,556	-0,042	-0,036
-100,132	392,054	-0,087	0,128
-99,118	-75,670	0,145	-0,036
-98,103	46,379	0,138	-0,090
-97,089	-47,518	0,044	0,015
-96,074	800,000	0,053	0,124
-95,059	159,454	0,034	0,033
-94,045	-84,271	0,032	0,007
-93,030	264,227	0,088	-0,109
-92,016	341,568	0,031	0,043
-91,001	-200,000	-0,007	-0,151
-89,986	-90,075	-0,072	0,015
-88,972	319,819	0,032	-0,043
-87,957	-200,000	0,008	-0,046
-86,943	284,742	-0,026	0,033
-85,928	175,584	0,076	-0,078
-84,913	-144,548	0,095	0,006
-83,899	27,080	-0,037	-0,022
-82,884	455,934	0,032	0,050
-81,870	160,873	0,065	-0,064
-80,855	361,552	-0,055	-0,078
-79,840	86,515	-0,048	0,038
-78,826	-200,000	-0,030	-0,160
-77,811	193,207	-0,069	-0,074
-76,797	-58,388	0,083	-0,025
-75,782	-200,000	0,020	-0,076
-74,767	-200,000	-0,013	0,054
-73,753	-86,965	0,159	0,034
-72,738	19,770	-0,026	-0,015
-71,724	-200,000	-0,014	0,153
-70,709	-54,727	-0,155	0,049
-69,694	-50,404	-0,117	-0,039
-68,680	312,207	0,033	0,044
-67,665	-200,000	-0,000	-0,048
-66,651	-200,000	-0,022	0,246
-65,636	800,000	-0,026	0,064
-64,622	-200,000	0,010	-0,140
-63,607	-100,616	-0,171	0,030
-62,592	-56,198	0,176	0,055
-61,578	373,163	0,104	0,150
-60,563	-61,255	0,147	0,043
-59,549	-200,000	-0,056	0,211
-58,534	-19,875	-1,728	-0,753
-57,519	391,952	-1,335	-1,971
-56,505	-200,000	-0,564	-4,690
-55,490	294,262	0,954	1,237
-54,476	800,000	4,927	11,175
-53,461	-200,000	19,498	325,608
-52,446	-200,000	745,231	2335,028
-51,432	566,549	1657,974	2859,064
-50,417	77,184	1671,587	1256,359
-49,403	20,884	1544,461	883,601
-48,388	14,734	1467,115	809,420
-47,373	18,138	1457,279	820,417
-46,359	16,573	1447,091	807,145
-45,344	13,022	1442,618	787,599
-44,330	12,920	1440,575	785,960
-43,315	12,920	1438,770	784,944
-42,300	12,963	1437,094	784,208
-41,286	12,944	1435,912	783,439
-40,271	12,937	1434,608	782,666
-39,257	12,909	1433,330	781,803
-38,242	13,003	1431,766	781,363
-37,227	12,973	1430,749	780,634
-36,213	12,963	1429,414	779,831
-35,198	12,975	1428,277	779,233
-34,184	13,019	1427,395	778,933
-33,169	12,978	1425,852	777,864
-32,154	12,990	1424,782	777,306
-31,140	13,024	1423,572	776,778
-30,125	13,041	1422,460	776,219
-29,111	12,985	1421,541	775,422
-28,096	12,965	1420,385	774,667
-27,082	12,935	1419,239	773,871
-26,067	12,914	1418,199	773,172
-25,052	12,900	1417,082	772,469
-24,038	12,915	1415,911	771,869
-23,023	12,889	1415,121	771,285
-22,009	12,922	1413,941	770,768
-20,994	12,845	1413,206	769,975
-19,979	12,862	1412,334	769,549
-18,965	12,834	1411,365	768,859
-17,950	12,820	1410,452	768,263
-16,936	12,874	1409,283	767,851
-15,921	12,849	1408,159	767,091
-14,906	12,792	1407,644	766,511
-13,892	12,830	1406,571	766,076
-12,877	12,825	1405,745	765,572
-11,863	12,840	1404,680	765,029
-10,848	12,825	1403,941	764,528
-9,833	12,808	1402,862	763,829
-8,819	12,778	1402,315	763,362
-7,804	12,771	1401,255	762,721
-6,790	12,724	1400,243	761,924
-5,775	12,745	1399,130	761,384
-4,760	12,739	1398,233	760,839
-3,746	12,723	1397,299	760,226
-2,731	12,676	1396,451	759,517
-1,717	12,695	1395,610	759,118
-0,702	12,673	1393,820	758,012
0,313	16,487	1309,677	729,924
1,327	32,740	701,767	428,586
2,342	50,510	122,792	82,014
3,356	5,044	16,531	8,581
4,371	-4,749	3,300	1,604
5,386	-31,890	0,652	0,257
6,400	245,528	0,216	0,258
7,415	70,382	-0,224	-0,163
8,429	6,924	-0,231	-0,121
9,444	237,826	-0,255	-0,299
10,459	-12,959	-0,298	-0,137
11,473	37,040	-0,180	-0,113
12,488	138,249	-0,280	-0,259
13,502	24,162	-0,417	-0,243
14,517	-94,458	-0,386	-0,074
15,531	46,469	-0,311	-0,204
16,546	76,014	-0,248	-0,185
17,561	223,396	-0,333	-0,380
18,575	-24,618	-0,111	0,046
19,590	170,317	-0,253	-0,256
20,604	-94,155	-0,393	-0,075
21,619	26,643	-0,522	-0,308
22,634	99,509	-0,473	-0,386
23,648	53,561	-0,424	-0,287
24,663	43,246	-0,352	-0,227
25,677	174,868	-0,262	-0,268
26,692	106,197	-0,316	-0,264
27,707	51,336	-0,366	-0,245
28,721	-13,063	-0,327	-0,149
29,736	48,888	-0,500	-0,331
30,750	7,110	-0,442	-0,232
31,765	190,292	-0,331	-0,351
32,780	169,257	-0,339	-0,341
33,794	282,411	-0,268	-0,340
34,809	-31,771	-0,474	-0,187
35,823	219,963	-0,322	-0,364
36,838	115,727	-0,453	-0,390
37,853	183,001	-0,318	-0,331
38,867	-14,216	-0,411	-0,186
39,882	102,327	-0,383	-0,316
40,896	11,860	-0,350	-0,189
41,911	447,121	-0,153	-0,238
42,926	50,663	-0,267	-0,178
43,940	20,725	-0,411	-0,234
44,955	47,726	-0,412	-0,270
45,969	32,181	-0,386	-0,234
46,984	180,994	-0,345	-0,358
47,999	-2,289	-0,369	-0,181
49,013	64,344	-0,285	-0,202
50,028	-11,377	-0,394	-0,182
51,042	277,808	-0,288	-0,362
52,057	0,982	-0,464	-0,233
53,071	70,991	-0,307	-0,224
54,086	182,465	-0,309	-0,321
55,101	-23,380	-0,333	-0,140
56,115	63,172	-0,308	-0,217
57,130	190,326	-0,343	-0,364
58,144	141,358	-0,332	-0,309
59,159	83,187	-0,305	-0,233
60,174	89,085	-0,363	-0,284
61,188	153,706	-0,392	-0,378
62,203	78,632	-0,358	-0,269
63,217	170,755	-0,213	-0,215
64,232	54,514	-0,370	-0,251
65,247	-32,056	-0,332	-0,130
66,261	104,557	-0,304	-0,252
67,276	266,821	-0,311	-0,383
68,290	34,901	-0,308	-0,189
69,305	16,728	-0,306	-0,170
70,320	-46,267	-0,322	-0,111
71,334	-146,909	-0,264	0,016
72,349	11,016	-0,393	-0,211
73,363	-20,751	-0,377	-0,162
74,378	-88,822	-0,228	-0,047
75,393	31,484	-0,485	-0,292
76,407	151,462	-0,300	-0,288
77,422	125,360	-0,132	-0,117
78,436	-5,221	-0,292	-0,141
79,451	-29,451	-0,241	-0,096
80,466	-41,501	-0,402	-0,144
81,480	-50,068	-0,320	-0,106
82,495	124,082	-0,327	-0,288
83,509	-1,818	-0,339	-0,167
84,524	-75,849	-0,268	-0,066
85,539	275,078	-0,151	-0,188
86,553	63,687	-0,284	-0,200
87,568	99,679	-0,344	-0,280
88,582	51,490	-0,180	-0,120
89,597	515,784	-0,174	-0,286
90,611	-27,593	-0,291	-0,118
91,626	37,443	-0,233	-0,145
92,641	-32,391	-0,336	-0,131
93,655	174,516	-0,283	-0,287
94,670	-5,094	-0,215	-0,103
95,684	240,027	-0,171	-0,200
96,699	296,278	-0,199	-0,256
97,714	169,876	-0,210	-0,211
98,728	-88,189	-0,219	-0,046
99,743	-34,916	-0,350	-0,133
100,757	-0,302	-0,304	-0,151
101,772	-6,284	-0,316	-0,150
102,787	89,885	-0,338	-0,264
103,801	176,458	-0,234	-0,238
104,816	-56,189	-0,195	-0,060
105,830	85,077	-0,245	-0,188
106,845	-32,178	-0,357	-0,139
107,860	48,189	-0,340	-0,223
108,874	513,321	-0,203	-0,333
109,889	142,812	-0,314	-0,293
110,903	-12,584	-0,324	-0,147
111,918	105,714	-0,294	-0,243
112,933	-21,429	-0,178	-0,076
113,947	22,368	-0,306	-0,175
114,962	529,301	-0,248	-0,411
115,976	5,051	-0,329	-0,169
116,991	187,650	-0,294	-0,308
118,006	46,329	-0,273	-0,177
119,020	7,399	-0,215	-0,112
120,035	-200,000	-0,032	-0,165
121,049	-9,129	-0,251	-0,117
122,064	-28,819	-0,243	-0,097
123,079	7,557	-0,238	-0,124
124,093	-5,579	-0,247	-0,118
125,108	234,730	-0,246	-0,285
126,122	52,929	-0,248	-0,166
127,137	72,203	-0,229	-0,166
128,151	147,121	-0,332	-0,312
129,166	-53,941	-0,342	-0,108
130,181	-21,733	-0,256	-0,109
131,195	77,188	-0,263	-0,196
132,210	91,607	-0,243	-0,191
133,224	-33,080	-0,269	-0,104
134,239	12,790	-0,278	-0,150
135,254	201,409	-0,254	-0,274
136,268	244,013	-0,123	-0,145
137,283	-117,694	-0,227	-0,028
138,297	218,169	-0,250	-0,279
139,312	183,869	-0,290	-0,300
140,327	60,668	-0,183	-0,126
141,341	195,926	-0,191	-0,204
142,356	24,890	-0,179	-0,103
143,370	-104,537	-0,193	-0,031
144,385	37,968	-0,162	-0,100
145,400	73,986	-0,324	-0,237
146,414	72,172	-0,299	-0,217
147,429	-43,367	-0,375	-0,132
148,443	-0,328	-0,237	-0,117
149,458	9,167	-0,227	-0,120
150,473	-151,532	-0,178	0,009
151,487	162,406	-0,263	-0,258
152,502	182,205	-0,225	-0,232
153,516	-39,853	-0,321	-0,116
154,531	124,246	-0,182	-0,160
155,546	-49,130	-0,260	-0,086
156,560	73,855	-0,210	-0,153
157,575	137,627	-0,160	-0,146
158,589	33,956	-0,246	-0,149
159,604	227,138	-0,100	-0,114
160,619	19,820	-0,295	-0,165
161,633	-60,540	-0,199	-0,059
162,648	313,635	-0,129	-0,170
163,662	42,420	-0,188	-0,119
164,677	-5,156	-0,213	-0,102
165,692	242,191	-0,208	-0,243
166,706	55,204	-0,172	-0,115
167,721	493,102	-0,182	-0,292
168,735	154,764	-0,236	-0,226
169,750	-56,519	-0,241	-0,074
170,764	133,813	-0,155	-0,140
171,779	190,221	-0,235	-0,246
172,794	111,325	-0,112	-0,094
173,808	76,221	-0,230	-0,170
174,823	41,801	-0,253	-0,159
175,837	41,783	-0,263	-0,166
176,852	422,649	-0,103	-0,155
177,867	92,281	-0,232	-0,182
178,881	114,756	-0,241	-0,204
179,896	45,292	-0,286	-0,183
180,910	563,769	-0,181	-0,306
181,925	288,834	-0,227	-0,287
182,940	-1,889	-0,303	-0,148
183,954	260,040	-0,207	-0,250
184,969	194,754	-0,133	-0,140
185,983	-200,000	-0,039	-0,137
186,998	126,830	-0,267	-0,235
188,013	60,137	-0,203	-0,139
189,027	133,942	-0,129	-0,116
190,042	-152,524	-0,284	-0,014
191,056	62,897	-0,263	-0,183
192,071	144,383	-0,256	-0,238
193,086	54,192	-0,200	-0,134
194,100	164,312	-0,168	-0,165
195,115	-81,230	-0,247	-0,056
196,129	645,380	-0,107	-0,191
197,144	-34,668	-0,318	-0,120
198,159	-5,108	-0,296	-0,141
199,173	14,494	-0,124	-0,067
200,188	292,809	-0,148	-0,188
201,202	-120,419	-0,186	-0,022
202,217	15,052	-0,153	-0,083
203,232	-200,000	-0,088	-0,312
204,246	128,979	-0,214	-0,190
205,261	-7,296	-0,248	-0,116
206,275	67,419	-0,204	-0,145
207,290	229,435	-0,126	-0,143
208,304	197,054	-0,119	-0,127
209,319	284,447	-0,108	-0,135
210,334	300,070	-0,221	-0,284
211,348	65,913	-0,263	-0,185
212,363	49,659	-0,159	-0,104
213,377	11,875	-0,214	-0,114
214,392	-200,000	-0,051	-0,266
215,407	140,270	-0,140	-0,128
216,421	196,263	-0,186	-0,197
217,436	19,581	-0,241	-0,134
218,450	21,633	-0,263	-0,148
219,465	92,976	-0,303	-0,237
220,480	132,009	-0,178	-0,159
221,494	-167,370	-0,179	-0,005
222,509	-53,516	-0,152	-0,048
223,523	-157,307	-0,240	0,010
224,538	-47,220	-0,147	-0,050
225,553	33,761	-0,131	-0,079
226,567	439,784	-0,094	-0,142
227,582	-9,504	-0,208	-0,096
228,596	12,270	-0,178	-0,095
229,611	220,853	-0,180	-0,201
230,626	800,000	-0,024	-0,053
231,640	17,770	-0,170	-0,093
232,655	191,373	-0,086	-0,090
233,669	105,676	-0,202	-0,165
234,684	37,201	-0,283	-0,173
235,699	21,862	-0,253	-0,143
236,713	182,468	-0,180	-0,184
237,728	32,326	-0,103	-0,062
238,742	800,000	-0,116	-0,235
239,757	213,609	-0,180	-0,198
240,772	85,718	-0,239	-0,182
241,786	34,963	-0,183	-0,111
242,801	184,502	-0,169	-0,174
243,815	-122,767	-0,122	0,013
244,830	800,000	-0,076	-0,191
245,844	254,265	-0,212	-0,251
246,859	174,473	-0,195	-0,196
247,874	118,628	-0,221	-0,189
248,888	171,514	-0,242	-0,241
249,903	309,013	-0,129	-0,167
250,917	-43,652	-0,197	-0,068
251,932	47,254	-0,123	-0,079
252,947	-89,729	-0,186	-0,037
253,961	305,200	-0,072	-0,092
254,976	44,517	-0,207	-0,131
255,990	800,000	-0,059	-0,122
257,005	-42,629	-0,169	-0,059
258,020	473,820	-0,076	-0,118
259,034	-1,320	-0,038	-0,018
260,049	-125,243	-0,165	-0,017
261,063	-194,540	-0,161	-0,001
262,078	-21,997	-0,288	-0,120
263,093	-29,051	-0,146	-0,058
264,107	-200,000	-0,064	-0,201
265,122	128,238	-0,167	-0,147
266,136	-91,988	-0,158	-0,031
267,151	30,987	-0,196	-0,116
268,166	21,443	-0,159	-0,089
269,180	541,515	-0,128	-0,211
270,195	-98,525	-0,228	-0,040
271,209	236,704	-0,132	-0,151
272,224	-55,107	-0,233	-0,072
273,239	355,220	-0,100	-0,138
274,253	175,578	-0,156	-0,157
275,268	53,221	-0,203	-0,134
276,282	0,160	-0,266	-0,131
277,297	113,612	-0,245	-0,205
278,312	-166,892	-0,114	-0,003
279,326	534,665	-0,060	-0,098
280,341	-200,000	-0,048	-0,208
281,355	-113,486	-0,050	0,007
282,370	494,336	-0,131	-0,208
283,384	404,986	-0,184	-0,269
284,399	-200,000	-0,016	-0,236
285,414	800,000	-0,104	-0,199
286,428	538,945	-0,057	-0,094
287,443	-200,000	-0,017	-0,260
288,457	129,647	-0,137	-0,121
289,472	-200,000	0,010	-0,174
290,487	126,522	-0,224	-0,196
291,501	-43,171	-0,210	-0,073
292,516	-36,998	-0,121	-0,045
293,530	107,505	-0,123	-0,101
294,545	335,525	-0,074	-0,099
295,560	35,781	-0,169	-0,102
296,574	-43,599	-0,133	0,046
297,589	323,952	-0,125	-0,165
298,603	46,450	-0,116	-0,074
299,618	55,386	-0,090	-0,060
300,633	117,086	-0,087	-0,073
301,647	798,521	-0,121	-0,231
302,662	-35,212	-0,080	-0,030
303,676	-123,984	-0,110	-0,012
304,691	178,765	-0,118	-0,119
305,706	138,355	-0,194	-0,175
306,720	164,208	-0,141	-0,137
307,735	-4,428	-0,151	0,072
308,749	-59,201	-0,186	-0,055
309,764	800,000	-0,075	-0,201
310,779	406,409	-0,151	-0,220
311,793	800,000	-0,074	-0,178
312,808	282,979	-0,137	-0,170
313,822	441,519	-0,064	-0,097
314,837	161,712	-0,168	-0,162
315,852	32,988	-0,190	-0,113
316,866	215,562	-0,148	-0,162
317,881	-19,759	-0,127	-0,054
318,895	290,847	-0,091	-0,114
319,910	781,274	-0,100	-0,189
320,925	91,782	-0,188	-0,145
321,939	-149,234	-0,190	-0,010
322,954	-90,731	-0,142	-0,028
323,968	34,300	-0,214	-0,128
324,983	-120,283	-0,165	-0,019
325,997	75,121	-0,149	-0,108
327,012	205,076	-0,183	-0,196
328,027	800,000	-0,122	-0,262
329,041	221,444	-0,215	-0,237
330,056	4,712	0,048	-0,024
331,070	-200,000	-0,014	-0,050
332,085	83,277	-0,113	0,085
333,100	-200,000	-0,030	-0,205
334,114	-71,997	-0,208	-0,053
335,129	64,389	-0,126	-0,087
336,143	-200,000	-0,009	-0,056
337,158	67,451	-0,076	-0,053
338,173	-41,247	-0,146	0,051
339,187	0,893	-0,139	0,068
340,202	75,123	-0,141	-0,102
341,216	-32,104	-0,119	-0,046
342,231	-200,000	-0,073	-0,283
343,246	64,635	-0,154	-0,106
344,260	-110,956	-0,240	-0,033
345,275	-35,523	-0,064	0,024
346,289	-140,322	0,096	0,007
347,304	137,905	-0,134	-0,120
348,319	148,348	-0,237	-0,220
349,333	-8,759	-0,182	-0,083
350,348	218,705	-0,085	-0,093
351,362	-147,676	-0,093	0,005
352,377	110,963	-0,100	0,082
353,392	-96,172	-0,179	-0,032
354,406	358,639	0,013	-0,018
355,421	208,406	1313,177	1409,879
356,435	160,357	1473,698	1410,357
