DTS Sentinel unit serial number:	SN410029Multiplexer serial number:	ORYXHardware model number:	OX2-SRSoftware version number:	ORYX F/W v4,00 Oryx Data Collector v3.7.2.0data status	okinstallation	B3 Nyhavnadifferential loss correction	single-endedforward channel	channel 1reverse channel	N/Adate	2023/12/02time	21:47:30forward acquisition time	300,00reverse acquisition time	0,00gamma	499,1914k internal	0,3202k external	0,3202temperature offset calibration	1,0000default loss term (dB/km)	0,3820temperature slope calibration	1,0000multiplexer offset coefficient	1,0000multiplexer slope coefficient	1,0000fibre end	0,00T internal ref (°C)	13,23T ext. ref 1 (°C)	-1,88T ext. ref 2 (°C)	-1,90length (m)	temperature (°C)	Stokes	anti-Stokes-744,400	417,208	-0,172	-0,268
-743,385	-200,000	-0,028	0,222
-742,371	800,000	-0,090	-0,189
-741,356	-200,000	0,003	0,337
-740,342	23,316	-0,235	-0,140
-739,327	-200,000	-0,019	0,289
-738,312	437,640	-0,206	-0,327
-737,298	242,524	-0,134	0,163
-736,283	36,848	-0,232	-0,149
-735,269	-200,000	0,080	0,282
-734,254	384,168	-0,135	-0,203
-733,239	-200,000	-0,037	0,142
-732,225	23,625	-0,196	-0,117
-731,210	-89,466	0,216	0,046
-730,196	275,550	-0,104	-0,134
-729,181	800,000	-0,053	-0,160
-728,167	-16,449	0,121	0,055
-727,152	-200,000	0,003	-0,042
-726,137	97,933	0,080	0,067
-725,123	-38,547	-0,087	0,033
-724,108	341,187	-0,030	-0,043
-723,094	-42,360	-0,139	-0,051
-722,079	800,000	-0,017	-0,047
-721,064	800,000	-0,029	0,076
-720,050	314,920	0,056	-0,076
-719,035	707,710	-0,034	-0,065
-718,021	659,957	-0,058	0,110
-717,006	-110,486	-0,198	-0,030
-715,991	-126,748	-0,129	0,014
-714,977	78,310	0,121	-0,094
-713,962	-80,811	-0,131	0,031
-712,948	408,003	-0,051	0,078
-711,933	-200,000	0,019	-0,079
-710,918	470,064	-0,030	-0,050
-709,904	66,875	-0,123	-0,091
-708,889	-27,872	0,040	0,017
-707,875	-163,001	-0,092	-0,003
-706,860	286,735	-0,041	-0,054
-705,845	455,687	0,056	0,091
-704,831	175,316	-0,057	-0,060
-703,816	206,548	-0,064	0,073
-702,802	-91,130	-0,076	-0,016
-701,787	7,560	-0,052	0,028
-700,772	-77,113	0,029	-0,007
-699,758	800,000	-0,069	-0,155
-698,743	132,775	-0,096	0,090
-697,729	800,000	0,016	-0,037
-696,714	73,013	0,054	0,041
-695,699	-200,000	0,023	-0,083
-694,685	-200,000	-0,046	-0,253
-693,670	510,730	-0,072	-0,122
-692,656	-200,000	0,006	0,039
-691,641	-59,642	-0,028	-0,009
-690,627	423,295	0,095	-0,148
-689,612	800,000	-0,047	-0,118
-688,597	764,811	0,070	-0,139
-687,583	-200,000	-0,021	-0,073
-686,568	-191,384	-0,144	0,001
-685,554	800,000	0,040	-0,082
-684,539	800,000	-0,080	-0,170
-683,524	453,616	-0,034	0,054
-682,510	800,000	-0,020	0,057
-681,495	-200,000	0,002	0,039
-680,481	-200,000	-0,042	-0,150
-679,466	800,000	-0,088	-0,203
-678,451	-87,979	-0,067	-0,014
-677,437	508,076	-0,055	-0,092
-676,422	-200,000	-0,005	-0,036
-675,408	-68,132	0,041	-0,012
-674,393	16,227	0,065	-0,037
-673,378	-200,000	-0,007	-0,091
-672,364	461,248	-0,139	-0,226
-671,349	118,705	-0,097	-0,087
-670,335	60,865	-0,098	0,070
-669,320	800,000	0,044	0,110
-668,305	800,000	-0,015	0,042
-667,291	-200,000	-0,007	0,054
-666,276	-112,335	-0,137	-0,020
-665,262	-104,423	-0,112	-0,019
-664,247	-200,000	-0,007	0,055
-663,232	-31,118	0,137	0,056
-662,218	800,000	0,057	-0,159
-661,203	800,000	0,027	-0,065
-660,189	-94,846	0,086	-0,017
-659,174	-200,000	0,006	-0,123
-658,159	413,197	-0,036	-0,055
-657,145	92,342	0,093	-0,076
-656,130	-157,212	0,109	-0,005
-655,116	-94,182	-0,123	-0,024
-654,101	-173,702	0,131	0,003
-653,086	800,000	-0,094	-0,203
-652,072	800,000	0,005	-0,015
-651,057	-109,651	-0,138	0,021
-650,043	800,000	-0,044	-0,102
-649,028	-200,000	0,010	0,081
-648,014	25,519	0,101	0,060
-646,999	-173,699	0,079	-0,002
-645,984	172,895	-0,056	-0,058
-644,970	726,346	-0,054	0,105
-643,955	231,667	-0,031	-0,037
-642,941	191,514	-0,076	0,082
-641,926	-105,781	0,078	0,013
-640,911	-153,544	0,067	0,003
-639,897	390,238	0,043	-0,064
-638,882	-200,000	0,006	-0,041
-637,868	-4,844	0,057	-0,028
-636,853	-105,523	0,130	-0,021
-635,838	220,462	0,070	0,082
-634,824	-54,531	0,088	0,029
-633,809	800,000	-0,067	-0,142
-632,795	-200,000	0,003	0,110
-631,780	800,000	-0,027	-0,080
-630,765	27,174	0,028	-0,017
-629,751	-120,439	-0,112	0,014
-628,736	-200,000	-0,026	-0,232
-627,722	800,000	0,043	-0,116
-626,707	436,601	0,040	-0,063
-625,692	-150,555	0,070	0,004
-624,678	800,000	0,022	0,054
-623,663	142,213	-0,044	-0,042
-622,649	-121,588	-0,168	0,020
-621,634	553,489	-0,100	-0,176
-620,619	-97,838	0,060	0,011
-619,605	-200,000	-0,004	-0,072
-618,590	85,724	0,082	0,065
-617,576	-200,000	0,005	0,020
-616,561	-32,983	-0,155	-0,062
-615,546	163,899	-0,028	-0,028
-614,532	-128,634	-0,145	-0,015
-613,517	36,073	-0,054	0,034
-612,503	800,000	0,055	0,156
-611,488	-149,899	0,046	-0,003
-610,474	6,122	-0,128	0,068
-609,459	-37,234	0,149	0,058
-608,444	800,000	-0,019	-0,055
-607,430	-95,429	-0,063	0,012
-606,415	800,000	-0,031	0,064
-605,401	-31,246	-0,052	-0,021
-604,386	-97,453	-0,066	-0,012
-603,371	189,554	0,030	0,033
-602,357	800,000	0,066	-0,148
-601,342	-200,000	0,006	-0,131
-600,328	-200,000	0,007	-0,216
-599,313	34,122	-0,073	-0,046
-598,298	119,282	-0,038	-0,034
-597,284	5,583	0,087	0,047
-596,269	116,179	-0,046	0,041
-595,255	363,207	-0,045	0,066
-594,240	71,460	0,079	0,059
-593,225	-200,000	-0,036	-0,192
-592,211	-30,540	-0,061	-0,025
-591,196	-49,282	-0,051	0,018
-590,182	800,000	-0,016	-0,043
-589,167	-200,000	-0,003	-0,065
-588,152	36,746	-0,096	0,061
-587,138	800,000	0,019	0,060
-586,123	-78,540	-0,067	-0,016
-585,109	-15,750	-0,098	0,045
-584,094	292,826	-0,081	-0,106
-583,079	215,649	-0,035	0,040
-582,065	-34,122	0,105	0,041
-581,050	-109,143	0,051	-0,008
-580,036	-96,673	-0,145	0,027
-579,021	-200,000	0,025	-0,139
-578,006	587,887	0,026	0,047
-576,992	-94,865	0,078	0,015
-575,977	95,078	-0,016	0,013
-574,963	768,754	0,033	0,065
-573,948	75,893	0,125	-0,096
-572,934	800,000	0,083	-0,187
-571,919	-200,000	-0,046	-0,200
-570,904	-39,044	-0,136	-0,051
-569,890	-200,000	0,010	-0,076
-568,875	-200,000	0,011	0,063
-567,861	800,000	-0,020	0,049
-566,846	20,377	-0,124	0,072
-565,831	800,000	-0,045	0,125
-564,817	-200,000	-0,020	0,092
-563,802	-200,000	-0,018	-0,089
-562,788	292,208	0,120	-0,159
-561,773	-73,976	-0,036	0,009
-560,758	-166,903	-0,050	0,001
-559,744	-49,477	-0,043	0,015
-558,729	-200,000	-0,015	-0,103
-557,715	800,000	-0,062	0,170
-556,700	800,000	-0,012	-0,027
-555,685	-113,533	-0,049	0,007
-554,671	0,975	-0,046	0,024
-553,656	-200,000	-0,008	0,074
-552,642	398,514	0,078	0,118
-551,627	-38,677	-0,070	-0,027
-550,612	237,313	-0,036	-0,043
-549,598	800,000	0,024	-0,054
-548,583	267,770	0,088	0,111
-547,569	-200,000	-0,005	0,036
-546,554	186,825	-0,037	-0,040
-545,539	-54,405	-0,017	-0,005
-544,525	-169,901	0,045	0,001
-543,510	800,000	-0,042	0,101
-542,496	-200,000	-0,004	-0,030
-541,481	-54,435	0,110	0,036
-540,466	143,294	-0,140	-0,135
-539,452	800,000	0,060	-0,131
-538,437	446,368	0,029	0,047
-537,423	-36,879	0,052	0,020
-536,408	265,470	0,051	-0,065
-535,393	38,997	-0,079	-0,051
-534,379	-3,183	-0,110	-0,055
-533,364	158,042	0,094	-0,094
-532,350	52,368	0,025	-0,017
-531,335	-200,000	-0,029	0,165
-530,321	800,000	0,040	0,112
-529,306	108,388	-0,081	-0,070
-528,291	35,003	-0,082	0,052
-527,277	312,624	-0,021	-0,028
-526,262	4,632	-0,127	-0,067
-525,248	-98,759	-0,036	0,007
-524,233	800,000	0,035	0,110
-523,218	-200,000	0,005	0,068
-522,204	-126,734	0,134	0,014
-521,189	-78,358	-0,108	-0,026
-520,175	-71,671	0,010	-0,003
-519,160	745,678	-0,040	-0,079
-518,145	-200,000	-0,052	0,196
-517,131	573,283	0,076	0,134
-516,116	-200,000	0,004	-0,028
-515,102	-200,000	0,019	-0,118
-514,087	331,039	-0,039	-0,054
-513,072	800,000	-0,054	-0,136
-512,058	800,000	-0,062	-0,139
-511,043	-49,541	-0,053	0,018
-510,029	-107,264	0,024	-0,004
-509,014	-31,237	0,021	0,009
-507,999	-15,713	0,101	-0,046
-506,985	-33,238	-0,113	-0,045
-505,970	-200,000	-0,019	0,131
-504,956	-2,111	-0,051	0,026
-503,941	17,466	0,026	-0,015
-502,926	83,039	0,028	0,022
-501,912	-200,000	0,026	0,102
-500,897	266,582	0,037	0,047
-499,883	-200,000	-0,013	-0,085
-498,868	-200,000	0,001	0,050
-497,853	-111,416	-0,068	0,010
-496,839	-101,845	0,131	0,023
-495,824	-60,901	0,012	-0,004
-494,810	-82,547	0,032	0,007
-493,795	601,469	0,007	0,012
-492,781	-110,601	-0,044	-0,006
-491,766	183,020	0,023	-0,025
-490,751	-144,111	-0,014	0,001
-489,737	-200,000	-0,006	0,178
-488,722	-200,000	0,035	0,176
-487,708	-200,000	0,036	0,117
-486,693	-43,345	-0,055	-0,020
-485,678	222,786	0,039	-0,046
-484,664	-78,597	-0,021	-0,005
-483,649	529,728	0,041	-0,070
-482,635	307,656	-0,025	0,033
-481,620	800,000	-0,018	-0,049
-480,605	800,000	-0,040	0,115
-479,591	99,988	0,131	-0,110
-478,576	327,490	0,066	0,091
-477,562	300,539	-0,039	-0,053
-476,547	179,790	-0,026	-0,027
-475,532	-67,487	0,032	-0,009
-474,518	200,286	-0,019	0,021
-473,503	394,358	-0,078	0,117
-472,489	3,169	-0,087	-0,045
-471,474	-200,000	0,009	0,114
-470,459	800,000	-0,035	0,083
-469,445	-42,069	-0,099	0,036
-468,430	-200,000	-0,020	0,077
-467,416	-30,746	0,117	0,048
-466,401	220,800	0,065	0,075
-465,386	455,371	0,052	0,083
-464,372	77,831	0,067	0,051
-463,357	-115,902	-0,128	0,017
-462,343	614,107	0,035	-0,063
-461,328	800,000	-0,007	-0,022
-460,313	-200,000	0,010	-0,058
-459,299	593,783	-0,020	0,035
-458,284	196,507	0,069	-0,075
-457,270	-11,664	0,129	0,061
-456,255	-200,000	-0,005	-0,211
-455,241	-103,127	-0,116	0,020
-454,226	-139,741	-0,088	-0,007
-453,211	800,000	0,039	0,122
-452,197	-200,000	-0,006	0,056
-451,182	502,065	-0,020	0,034
-450,168	800,000	-0,091	-0,192
-449,153	-200,000	0,035	0,116
-448,138	183,698	0,078	-0,083
-447,124	-87,220	-0,066	0,014
-446,109	-200,000	-0,022	-0,095
-445,095	557,469	0,026	-0,046
-444,080	64,850	0,133	0,097
-443,065	800,000	-0,004	-0,014
-442,051	-75,552	0,108	-0,027
-441,036	-17,002	-0,126	0,057
-440,022	423,664	-0,077	-0,120
-439,007	-200,000	-0,001	-0,122
-437,992	-35,783	0,055	0,021
-436,978	135,268	0,046	-0,043
-435,963	-200,000	0,015	0,053
-434,949	348,470	-0,061	0,087
-433,934	108,360	0,106	-0,090
-432,919	-167,893	-0,072	-0,002
-431,905	418,011	0,051	-0,078
-430,890	-200,000	0,004	0,018
-429,876	184,349	-0,017	-0,018
-428,861	-56,215	-0,115	-0,036
-427,846	800,000	-0,041	-0,105
-426,832	153,551	-0,090	-0,088
-425,817	-30,510	0,108	-0,044
-424,803	-23,842	0,234	-0,100
-423,788	-89,823	0,118	0,024
-422,773	800,000	-0,046	0,098
-421,759	-200,000	0,025	-0,082
-420,744	-200,000	-0,007	-0,023
-419,730	184,427	-0,027	-0,029
-418,715	139,827	0,085	-0,080
-417,701	-67,668	0,138	-0,039
-416,686	117,293	0,029	0,026
-415,671	800,000	-0,011	0,033
-414,657	800,000	0,036	0,091
-413,642	236,161	-0,028	0,033
-412,628	800,000	-0,009	-0,020
-411,613	65,282	-0,101	-0,073
-410,598	-200,000	-0,014	-0,145
-409,584	-43,965	-0,073	0,026
-408,569	468,095	0,071	0,115
-407,555	-35,197	0,078	0,030
-406,540	-200,000	-0,008	0,067
-405,525	-57,905	0,069	-0,022
-404,511	-200,000	-0,009	-0,040
-403,496	-42,506	-0,144	-0,053
-402,482	-200,000	-0,011	-0,072
-401,467	283,680	0,040	0,051
-400,452	-22,746	0,040	-0,017
-399,438	-95,172	-0,078	-0,015
-398,423	800,000	-0,018	-0,037
-397,409	138,614	-0,057	0,054
-396,394	424,805	-0,029	0,045
-395,379	-200,000	0,016	0,053
-394,365	800,000	0,053	-0,117
-393,350	-200,000	-0,008	-0,064
-392,336	216,313	-0,033	-0,038
-391,321	-101,585	-0,074	0,013
-390,306	0,774	0,085	0,043
-389,292	709,232	-0,045	-0,086
-388,277	-76,989	-0,104	-0,026
-387,263	198,839	0,074	-0,082
-386,248	800,000	-0,033	0,073
-385,233	138,022	-0,052	0,048
-384,219	-200,000	0,008	0,168
-383,204	-106,486	-0,071	-0,011
-382,190	-4,009	-0,159	-0,079
-381,175	557,636	0,084	0,146
-380,160	598,006	-0,047	0,085
-379,146	547,525	0,034	0,059
-378,131	504,226	0,083	0,138
-377,117	-145,227	-0,067	0,004
-376,102	800,000	-0,016	0,040
-375,088	480,311	-0,018	-0,029
-374,073	-111,630	-0,069	-0,010
-373,058	-200,000	0,006	-0,041
-372,044	0,644	0,031	-0,016
-371,029	45,640	-0,054	0,035
-370,015	682,691	-0,023	0,043
-369,000	163,057	0,108	-0,109
-367,985	325,853	0,067	-0,092
-366,971	127,325	-0,057	-0,052
-365,956	-200,000	-0,026	-0,140
-364,942	38,326	0,043	0,027
-363,927	-200,000	-0,027	0,104
-362,912	7,063	0,086	-0,046
-361,898	748,470	0,074	0,143
-360,883	-200,000	-0,004	-0,025
-359,869	800,000	-0,038	-0,081
-358,854	-189,696	-0,141	-0,001
-357,839	262,613	0,034	0,042
-356,825	800,000	0,041	0,113
-355,810	800,000	0,021	-0,054
-354,796	-36,324	-0,057	-0,022
-353,781	-200,000	-0,027	-0,152
-352,766	611,262	0,038	-0,069
-351,752	-200,000	-0,003	-0,048
-350,737	-200,000	-0,040	0,126
-349,723	144,510	0,120	0,115
-348,708	-123,945	0,205	-0,023
-347,693	-148,395	-0,081	-0,005
-346,679	800,000	0,059	-0,162
-345,664	800,000	-0,055	0,122
-344,650	-1,368	0,028	-0,014
-343,635	-161,882	0,156	-0,006
-342,620	319,622	0,040	-0,055
-341,606	260,316	0,060	0,074
-340,591	-200,000	0,018	-0,121
-339,577	-200,000	-0,022	-0,124
-338,562	-126,044	-0,076	-0,008
-337,548	-200,000	0,012	-0,077
-336,533	204,288	0,066	0,073
-335,518	800,000	-0,037	-0,112
-334,504	-200,000	0,013	-0,066
-333,489	77,316	-0,113	-0,086
-332,475	-51,716	-0,056	-0,019
-331,460	-200,000	-0,005	0,038
-330,445	-200,000	-0,008	0,082
-329,431	122,274	-0,117	0,105
-328,416	-57,435	0,083	-0,026
-327,402	-9,831	0,113	0,054
-326,387	118,332	0,135	0,119
-325,372	217,724	-0,024	-0,028
-324,358	800,000	-0,046	-0,122
-323,343	-200,000	0,010	-0,113
-322,329	-89,265	-0,035	0,007
-321,314	111,170	-0,069	0,059
-320,299	-200,000	0,021	0,081
-319,285	19,105	-0,055	0,031
-318,270	-200,000	-0,040	-0,211
-317,256	-97,424	-0,039	-0,007
-316,241	-116,849	0,110	0,014
-315,226	800,000	0,030	0,069
-314,212	176,634	0,047	0,049
-313,197	361,610	-0,063	-0,091
-312,183	-43,060	0,065	-0,023
-311,168	800,000	0,052	0,118
-310,153	494,017	-0,057	0,094
-309,139	-200,000	0,032	-0,107
-308,124	-148,741	0,118	0,007
-307,110	-62,693	-0,033	0,010
-306,095	66,534	0,102	0,074
-305,080	565,204	-0,019	0,034
-304,066	46,768	-0,085	-0,057
-303,051	22,356	-0,117	0,068
-302,037	47,909	-0,158	0,105
-301,022	175,203	0,107	0,111
-300,008	317,897	0,018	-0,025
-298,993	23,549	0,172	0,101
-297,978	157,303	0,106	0,105
-296,964	-200,000	0,010	-0,146
-295,949	800,000	-0,058	-0,139
-294,935	-17,041	-0,108	-0,049
-293,920	321,408	-0,104	-0,141
-292,905	-108,954	0,059	-0,009
-291,891	-52,129	0,084	-0,028
-290,876	-112,532	0,069	-0,010
-289,862	397,200	-0,105	0,157
-288,847	-197,029	-0,134	0,001
-287,832	605,170	-0,089	-0,160
-286,818	-31,308	-0,090	-0,036
-285,803	-114,577	0,058	0,008
-284,789	-200,000	0,005	0,029
-283,774	800,000	0,046	0,115
-282,759	-104,867	0,030	0,005
-281,745	43,222	-0,003	0,002
-280,730	-200,000	0,002	-0,052
-279,716	47,165	-0,087	0,058
-278,701	-54,569	0,131	0,042
-277,686	-200,000	0,024	-0,106
-276,672	-200,000	-0,015	0,071
-275,657	161,207	0,050	-0,050
-274,643	483,031	-0,025	-0,041
-273,628	242,005	-0,063	-0,075
-272,613	74,462	-0,071	-0,053
-271,599	11,859	0,045	0,025
-270,584	-55,070	0,114	0,036
-269,570	494,750	-0,070	0,115
-268,555	-143,878	-0,082	0,005
-267,540	800,000	0,011	0,026
-266,526	-155,729	-0,136	-0,006
-265,511	-200,000	0,005	-0,030
-264,497	-51,905	0,122	-0,040
-263,482	31,719	0,039	0,024
-262,467	-98,235	0,039	-0,007
-261,453	263,134	0,042	0,052
-260,438	-76,086	-0,103	0,026
-259,424	88,829	-0,046	-0,036
-258,409	-200,000	0,016	0,087
-257,395	-200,000	-0,013	0,097
-256,380	-200,000	-0,002	0,073
-255,365	-108,999	0,081	-0,012
-254,351	-143,692	-0,119	-0,008
-253,336	800,000	-0,067	-0,184
-252,322	-119,722	0,040	-0,005
-251,307	651,766	-0,026	0,048
-250,292	-200,000	0,033	-0,113
-249,278	178,743	0,012	0,012
-248,263	713,831	0,006	0,011
-247,249	-200,000	0,034	0,142
-246,234	104,979	-0,091	0,077
-245,219	-200,000	0,012	0,060
-244,205	81,386	0,106	0,082
-243,190	322,155	-0,039	0,054
-242,176	-110,941	0,012	-0,002
-241,161	73,879	0,068	0,051
-240,146	-200,000	-0,013	0,113
-239,132	-200,000	0,029	0,128
-238,117	326,024	-0,096	-0,132
-237,103	-139,656	-0,077	0,006
-236,088	-45,024	0,252	0,089
-235,073	163,482	0,081	-0,081
-234,059	-57,195	0,092	0,029
-233,044	-200,000	0,001	0,009
-232,030	-51,642	-0,014	-0,005
-231,015	-200,000	-0,003	0,067
-230,000	424,374	-0,042	0,064
-228,986	-83,839	-0,024	0,005
-227,971	-200,000	-0,018	-0,109
-226,957	800,000	-0,048	0,105
-225,942	413,546	0,055	-0,084
-224,927	-200,000	-0,009	-0,095
-223,913	800,000	-0,022	0,065
-222,898	61,703	-0,038	-0,027
-221,884	800,000	-0,023	0,060
-220,869	351,963	0,038	0,054
-219,855	-30,370	0,089	-0,036
-218,840	-25,553	0,082	0,035
-217,825	-200,000	0,014	0,136
-216,811	-118,420	-0,078	-0,010
-215,796	386,662	0,089	-0,131
-214,782	-132,070	0,076	-0,007
-213,767	38,419	-0,060	-0,038
-212,752	177,970	0,140	0,145
-211,738	-91,406	0,124	-0,025
-210,723	57,723	0,031	0,022
-209,709	-28,779	0,049	0,020
-208,694	-35,993	-0,163	-0,062
-207,679	41,987	-0,153	0,099
-206,665	116,417	-0,084	0,073
-205,650	644,005	0,045	0,081
-204,636	-143,097	0,047	0,003
-203,621	-200,000	0,038	0,129
-202,606	-200,000	-0,026	-0,134
-201,592	800,000	-0,048	-0,112
-200,577	81,579	-0,111	0,085
-199,563	68,431	0,041	-0,030
-198,548	-38,419	-0,043	-0,016
-197,533	-2,010	-0,015	0,007
-196,519	800,000	-0,029	0,066
-195,504	-200,000	0,008	-0,054
-194,490	-200,000	0,010	-0,042
-193,475	158,017	0,052	-0,051
-192,460	123,013	0,075	0,067
-191,446	800,000	0,026	0,078
-190,431	-114,928	0,179	0,024
-189,417	-195,191	-0,053	0,000
-188,402	720,727	-0,052	-0,099
-187,387	-26,163	-0,089	0,037
-186,373	800,000	-0,016	-0,041
-185,358	800,000	0,046	-0,105
-184,344	327,909	-0,077	0,106
-183,329	163,974	0,081	-0,081
-182,315	138,279	0,092	0,085
-181,300	-200,000	-0,001	0,011
-180,285	-140,386	-0,113	0,008
-179,271	800,000	0,014	-0,040
-178,256	-165,780	-0,261	0,008
-177,242	499,758	0,040	0,067
-176,227	100,055	0,121	0,100
-175,212	-85,228	0,008	0,002
-174,198	800,000	0,040	0,097
-173,183	581,696	-0,022	0,039
-172,169	642,682	-0,094	-0,170
-171,154	-156,950	0,034	-0,001
-170,139	-200,000	0,029	0,182
-169,125	800,000	-0,078	0,175
-168,110	-153,619	0,071	0,003
-167,096	467,528	-0,022	0,035
-166,081	-200,000	-0,006	-0,116
-165,066	-43,418	0,080	0,028
-164,052	451,523	0,022	0,035
-163,037	-14,120	-0,092	0,042
-162,023	-46,968	0,132	0,045
-161,008	231,885	-0,055	0,064
-159,993	712,810	0,037	-0,070
-158,979	800,000	-0,077	-0,162
-157,964	-134,616	0,103	-0,009
-156,950	-200,000	-0,020	-0,121
-155,935	2,882	0,083	-0,043
-154,920	34,165	0,046	-0,028
-153,906	377,372	0,047	0,068
-152,891	-54,165	0,200	-0,064
-151,877	-200,000	-0,020	-0,106
-150,862	283,277	-0,091	-0,117
-149,847	241,910	0,050	0,059
-148,833	147,169	-0,032	0,031
-147,818	15,939	-0,102	0,057
-146,804	-6,726	-0,049	-0,023
-145,789	-125,821	0,002	-0,000
-144,775	-119,472	-0,152	-0,019
-143,760	-55,261	-0,021	0,007
-142,745	-200,000	-0,054	-0,000
-141,731	-2,677	0,137	-0,068
-140,716	800,000	0,008	-0,016
-139,702	368,905	-0,021	-0,031
-138,687	-30,393	0,111	0,044
-137,672	-200,000	-0,005	0,020
-136,658	-200,000	0,006	-0,044
-135,643	-200,000	-0,022	-0,150
-134,629	-200,000	0,003	0,039
-133,614	-200,000	-0,006	0,072
-132,599	73,084	0,096	0,071
-131,585	-107,050	-0,158	-0,025
-130,570	98,197	0,030	-0,025
-129,556	351,114	-0,048	-0,067
-128,541	356,133	-0,056	0,080
-127,526	-40,119	-0,078	-0,029
-126,512	515,124	0,099	0,164
-125,497	31,937	0,024	-0,015
-124,483	103,641	0,076	-0,064
-123,468	273,115	-0,051	-0,064
-122,453	251,802	0,034	-0,042
-121,439	190,373	-0,065	-0,069
-120,424	316,192	-0,038	-0,051
-119,410	85,081	0,054	0,042
-118,395	-22,130	0,032	-0,014
-117,380	729,200	-0,033	0,063
-116,366	-200,000	-0,036	-0,123
-115,351	-200,000	0,005	0,025
-114,337	-200,000	0,004	-0,015
-113,322	-200,000	-0,001	-0,070
-112,307	-200,000	0,017	0,084
-111,293	519,117	0,104	0,173
-110,278	152,440	0,088	-0,085
-109,264	592,215	-0,051	-0,090
-108,249	420,426	0,018	-0,028
-107,234	159,448	0,057	-0,057
-106,220	159,438	-0,097	-0,095
-105,205	95,536	0,071	0,057
-104,191	230,048	-0,031	-0,037
-103,176	67,675	0,104	-0,075
-102,162	251,063	0,102	0,123
-101,147	-200,000	0,007	0,096
-100,132	-124,018	0,043	-0,005
-99,118	-176,734	0,039	-0,001
-98,103	-67,381	-0,058	-0,016
-97,089	75,105	-0,044	-0,033
-96,074	-110,340	0,068	0,010
-95,059	-12,882	-0,068	0,031
-94,045	-200,000	-0,005	0,120
-93,030	163,948	-0,068	-0,068
-92,016	-151,188	0,088	0,005
-91,001	-14,169	-0,107	-0,049
-89,986	-119,765	-0,032	-0,004
-88,972	-87,040	-0,087	0,019
-87,957	-91,992	0,128	-0,026
-86,943	69,013	0,053	-0,038
-85,928	-200,000	-0,014	0,062
-84,913	142,767	-0,151	-0,142
-83,899	-2,734	0,048	0,024
-82,884	650,019	-0,064	-0,116
-81,870	129,101	0,064	0,058
-80,855	-200,000	-0,018	-0,067
-79,840	-155,986	0,055	-0,002
-78,826	32,858	-0,130	-0,080
-77,811	-200,000	0,002	-0,024
-76,797	425,332	0,032	0,049
-75,782	474,848	-0,088	-0,141
-74,767	174,538	-0,103	0,106
-73,753	-200,000	-0,043	0,172
-72,738	-200,000	-0,021	0,133
-71,724	800,000	0,068	0,166
-70,709	800,000	0,047	-0,112
-69,694	500,323	0,076	0,124
-68,680	-98,623	-0,146	-0,026
-67,665	-108,477	0,190	-0,029
-66,651	270,442	0,035	0,044
-65,636	-200,000	-0,004	-0,086
-64,622	-200,000	-0,007	-0,189
-63,607	800,000	0,036	-0,092
-62,592	179,476	-0,056	-0,058
-61,578	216,297	0,026	0,030
-60,563	-89,386	-0,119	0,025
-59,549	-30,504	-0,095	0,038
-58,534	-48,631	-1,625	-0,550
-57,519	376,753	-1,408	-2,042
-56,505	-200,000	-0,610	-4,712
-55,490	265,137	0,864	1,068
-54,476	800,000	4,992	11,305
-53,461	-200,000	19,225	321,502
-52,446	-200,000	742,338	2334,705
-51,432	571,594	1656,243	2866,302
-50,417	77,955	1671,219	1260,047
-49,403	21,185	1543,996	884,889
-48,388	15,140	1466,298	810,967
-47,373	18,015	1456,648	819,488
-46,359	16,702	1446,359	807,371
-45,344	13,382	1441,911	788,957
-44,330	13,274	1439,944	787,330
-43,315	13,257	1438,316	786,329
-42,300	13,334	1436,683	785,771
-41,286	13,357	1435,221	785,053
-40,271	13,266	1433,903	783,866
-39,257	13,278	1432,646	783,204
-38,242	13,316	1431,398	782,672
-37,227	13,300	1430,146	781,881
-36,213	13,378	1428,678	781,419
-35,198	13,298	1427,784	780,520
-34,184	13,357	1426,832	780,246
-33,169	13,287	1425,398	779,101
-32,154	13,372	1424,365	778,906
-31,140	13,364	1423,194	778,195
-30,125	13,354	1422,048	777,493
-29,111	13,340	1420,946	776,793
-28,096	13,321	1419,725	776,007
-27,082	13,297	1418,602	775,246
-26,067	13,285	1417,542	774,580
-25,052	13,245	1416,429	773,755
-24,038	13,281	1415,401	773,328
-23,023	13,219	1414,592	772,568
-22,009	13,220	1413,527	771,957
-20,994	13,219	1412,608	771,420
-19,979	13,208	1411,702	770,846
-18,965	13,202	1410,891	770,344
-17,950	13,214	1409,850	769,801
-16,936	13,202	1408,845	769,165
-15,921	13,175	1407,723	768,396
-14,906	13,151	1406,972	767,843
-13,892	13,158	1405,990	767,306
-12,877	13,153	1405,133	766,787
-11,863	13,165	1404,076	766,237
-10,848	13,167	1403,382	765,835
-9,833	13,126	1402,367	765,062
-8,819	13,109	1401,722	764,598
-7,804	13,116	1400,605	763,991
-6,790	13,073	1399,630	763,229
-5,775	13,059	1398,595	762,571
-4,760	13,065	1397,668	762,062
-3,746	13,096	1396,745	761,673
-2,731	13,020	1396,026	760,898
-1,717	13,069	1395,207	760,647
-0,702	13,025	1393,361	759,407
0,313	17,068	1309,727	732,492
1,327	33,638	702,779	431,269
2,342	51,826	123,088	82,729
3,356	0,734	16,624	8,389
4,371	-1,232	3,371	1,679
5,386	-31,117	0,620	0,246
6,400	119,175	-0,111	0,097
7,415	-1,273	-0,336	-0,167
8,429	148,784	-0,328	-0,314
9,444	88,610	-0,247	-0,194
10,459	80,611	-0,309	-0,235
11,473	250,859	-0,202	-0,244
12,488	5,234	-0,320	-0,166
13,502	-4,937	-0,274	-0,133
14,517	60,614	-0,275	-0,192
15,531	-37,354	-0,411	-0,154
16,546	-1,789	-0,289	-0,143
17,561	68,879	-0,417	-0,302
18,575	-200,000	-0,273	0,000
19,590	103,530	-0,296	-0,246
20,604	-70,408	-0,255	-0,068
21,619	-13,256	-0,405	-0,185
22,634	50,228	-0,409	-0,272
23,648	80,916	-0,601	-0,457
24,663	116,120	-0,449	-0,388
25,677	116,530	-0,327	-0,283
26,692	62,470	-0,272	-0,191
27,707	79,821	-0,385	-0,292
28,721	125,496	-0,289	-0,258
29,736	87,449	-0,497	-0,388
30,750	113,034	-0,328	-0,281
31,765	231,184	-0,379	-0,439
32,780	134,250	-0,401	-0,367
33,794	48,872	-0,372	-0,246
34,809	79,663	-0,412	-0,312
35,823	424,458	-0,302	-0,459
36,838	153,783	-0,296	-0,286
37,853	83,120	-0,401	-0,307
38,867	169,202	-0,301	-0,303
39,882	145,103	-0,309	-0,292
40,896	48,561	-0,376	-0,248
41,911	30,349	-0,407	-0,245
42,926	-148,021	-0,333	-0,019
43,940	-0,987	-0,443	-0,220
44,955	79,835	-0,428	-0,324
45,969	165,543	-0,403	-0,402
46,984	324,630	-0,284	-0,383
47,999	52,767	-0,316	-0,212
49,013	216,965	-0,284	-0,319
50,028	156,424	-0,281	-0,273
51,042	60,844	-0,338	-0,236
52,057	139,164	-0,279	-0,259
53,071	16,593	-0,261	-0,145
54,086	-6,232	-0,264	-0,127
55,101	148,070	-0,342	-0,325
56,115	33,411	-0,364	-0,222
57,130	-10,323	-0,305	-0,142
58,144	86,099	-0,366	-0,283
59,159	186,050	-0,328	-0,343
60,174	31,216	-0,244	-0,147
61,188	78,909	-0,271	-0,204
62,203	100,237	-0,210	-0,171
63,217	331,307	-0,211	-0,286
64,232	-61,144	-0,379	-0,112
65,247	55,706	-0,337	-0,229
66,261	4,692	-0,410	-0,211
67,276	39,079	-0,392	-0,246
68,290	-92,151	-0,418	-0,082
69,305	170,936	-0,305	-0,308
70,320	53,827	-0,378	-0,255
71,334	87,644	-0,282	-0,219
72,349	208,944	-0,263	-0,289
73,363	453,222	-0,239	-0,372
74,378	11,284	-0,251	-0,135
75,393	71,844	-0,348	-0,254
76,407	-53,675	-0,456	-0,146
77,422	69,205	-0,212	-0,153
78,436	-11,171	-0,269	-0,124
79,451	51,127	-0,312	-0,207
80,466	54,619	-0,338	-0,229
81,480	398,839	-0,261	-0,385
82,495	-17,990	-0,368	-0,162
83,509	-93,257	-0,281	-0,054
84,524	499,772	-0,124	-0,201
85,539	197,079	-0,227	-0,243
86,553	41,903	-0,269	-0,171
87,568	374,486	-0,239	-0,343
88,582	-13,026	-0,418	-0,190
89,597	36,758	-0,263	-0,163
90,611	-14,524	-0,259	-0,117
91,626	6,864	-0,235	-0,122
92,641	14,324	-0,296	-0,162
93,655	152,923	-0,248	-0,238
94,670	123,592	-0,345	-0,304
95,684	273,367	-0,261	-0,324
96,699	51,323	-0,236	-0,157
97,714	-8,190	-0,227	-0,107
98,728	158,078	-0,287	-0,279
99,743	408,871	-0,131	-0,194
100,757	21,243	-0,236	-0,134
101,772	-4,496	-0,405	-0,196
102,787	24,025	-0,342	-0,198
103,801	106,144	-0,231	-0,192
104,816	-7,699	-0,271	-0,128
105,830	84,956	-0,237	-0,182
106,845	75,980	-0,237	-0,176
107,860	-45,265	-0,236	-0,082
108,874	9,968	-0,281	-0,149
109,889	39,917	-0,346	-0,217
110,903	59,240	-0,382	-0,263
111,918	50,123	-0,235	-0,155
112,933	129,979	-0,229	-0,205
113,947	195,648	-0,261	-0,278
114,962	-15,278	-0,318	-0,142
115,976	-3,318	-0,260	-0,126
116,991	123,988	-0,260	-0,229
118,006	185,129	-0,305	-0,317
119,020	140,177	-0,184	-0,170
120,035	-44,390	-0,333	-0,116
121,049	344,161	-0,155	-0,213
122,064	101,844	-0,299	-0,244
123,079	-13,702	-0,180	-0,081
124,093	36,677	-0,300	-0,185
125,108	174,303	-0,293	-0,296
126,122	7,737	-0,297	-0,155
127,137	82,229	-0,319	-0,242
128,151	63,133	-0,216	-0,151
129,166	-155,886	-0,310	-0,014
130,181	160,577	-0,274	-0,268
131,195	257,447	-0,254	-0,306
132,210	202,125	-0,325	-0,351
133,224	51,244	-0,284	-0,188
134,239	-16,413	-0,262	-0,116
135,254	80,542	-0,299	-0,225
136,268	38,623	-0,340	-0,212
137,283	-4,468	-0,270	-0,130
138,297	87,099	-0,329	-0,254
139,312	410,787	-0,263	-0,391
140,327	13,364	-0,204	-0,110
141,341	117,233	-0,226	-0,194
142,356	104,358	-0,227	-0,187
143,370	98,710	-0,258	-0,208
144,385	75,928	-0,290	-0,214
145,400	2,628	-0,295	-0,149
146,414	402,394	-0,218	-0,321
147,429	-120,366	-0,277	-0,033
148,443	188,767	-0,144	-0,150
149,458	119,186	-0,141	-0,121
150,473	-118,831	-0,260	-0,032
151,487	-121,664	-0,243	-0,028
152,502	90,802	-0,292	-0,229
153,516	72,116	-0,282	-0,205
154,531	-59,231	-0,259	-0,077
155,546	-78,994	-0,291	-0,069
156,560	14,751	-0,233	-0,127
157,575	27,955	-0,214	-0,126
158,589	800,000	-0,107	-0,208
159,604	300,731	-0,166	-0,214
160,619	7,500	-0,241	-0,125
161,633	24,660	-0,290	-0,167
162,648	195,696	-0,294	-0,313
163,662	-42,881	-0,275	-0,097
164,677	18,109	-0,255	-0,142
165,692	800,000	-0,066	-0,136
166,706	56,140	-0,270	-0,183
167,721	31,560	-0,267	-0,160
168,735	73,589	-0,250	-0,182
169,750	230,792	-0,190	-0,218
170,764	-2,401	-0,198	-0,097
171,779	174,401	-0,173	-0,175
172,794	54,174	-0,146	-0,098
173,808	-94,640	-0,141	-0,027
174,823	788,059	-0,143	-0,274
175,837	153,327	-0,285	-0,271
176,852	213,482	-0,220	-0,243
177,867	113,430	-0,194	-0,164
178,881	-164,544	-0,260	0,008
179,896	-85,910	-0,328	-0,070
180,910	147,468	-0,204	-0,191
181,925	-44,594	-0,234	-0,081
182,940	-140,191	-0,215	0,016
183,954	165,584	-0,265	-0,261
184,969	800,000	-0,117	-0,252
185,983	75,758	-0,280	-0,206
186,998	132,530	-0,216	-0,194
188,013	270,323	-0,152	-0,186
189,027	208,764	-0,182	-0,199
190,042	393,302	-0,165	-0,240
191,056	154,593	-0,294	-0,281
192,071	800,000	-0,108	-0,220
193,086	230,261	-0,183	-0,208
194,100	359,580	-0,172	-0,240
195,115	76,835	-0,234	-0,172
196,129	186,810	-0,173	-0,180
197,144	131,795	-0,233	-0,209
198,159	398,936	-0,116	-0,170
199,173	-62,615	-0,277	-0,079
200,188	55,723	-0,156	-0,105
201,202	-145,759	-0,245	-0,015
202,217	-75,494	-0,131	-0,032
203,232	506,932	-0,150	-0,242
204,246	137,076	-0,254	-0,231
205,261	-75,749	-0,278	-0,068
206,275	-160,274	-0,227	-0,008
207,290	174,928	-0,090	-0,091
208,304	89,876	-0,145	-0,113
209,319	60,363	-0,183	-0,125
210,334	129,129	-0,281	-0,249
211,348	292,308	-0,143	-0,181
212,363	756,760	-0,107	-0,202
213,377	57,173	-0,140	-0,094
214,392	295,586	-0,138	-0,176
215,407	10,601	-0,263	-0,139
216,421	-6,772	-0,282	-0,132
217,436	353,714	-0,074	-0,102
218,450	800,000	-0,104	-0,226
219,465	187,149	-0,157	-0,162
220,480	109,841	-0,153	-0,127
221,494	-31,375	-0,020	-0,008
222,509	-116,000	-0,077	-0,010
223,523	186,383	-0,262	-0,271
224,538	102,411	-0,135	-0,109
225,553	60,625	-0,187	-0,128
226,567	267,118	-0,203	-0,247
227,582	219,508	-0,196	-0,218
228,596	800,000	-0,061	-0,151
229,611	-43,798	-0,113	-0,039
230,626	351,271	-0,162	-0,223
231,640	-48,704	-0,137	-0,045
232,655	105,929	-0,239	-0,196
233,669	2,008	-0,233	-0,116
234,684	265,916	-0,147	-0,178
235,699	58,486	-0,191	-0,130
236,713	17,662	-0,240	-0,132
237,728	371,620	-0,080	-0,113
238,742	-125,033	-0,195	-0,020
239,757	-35,990	-0,182	-0,068
240,772	58,848	-0,187	-0,127
241,786	102,816	-0,197	-0,160
242,801	-0,435	-0,178	-0,087
243,815	-10,839	-0,209	-0,095
244,830	199,032	-0,093	-0,099
245,844	800,000	-0,109	-0,215
246,859	214,171	-0,191	-0,210
247,874	800,000	-0,155	-0,333
248,888	131,417	-0,169	-0,151
249,903	-5,135	-0,201	-0,095
250,917	74,671	-0,088	-0,064
251,932	190,618	-0,143	-0,149
252,947	211,096	-0,170	-0,185
253,961	32,819	-0,208	-0,124
254,976	-72,031	-0,282	-0,072
255,990	132,876	-0,171	-0,153
257,005	525,811	-0,183	-0,299
258,020	263,772	-0,202	-0,244
259,034	800,000	-0,066	-0,168
260,049	29,208	-0,141	-0,082
261,063	-18,217	-0,204	-0,088
262,078	-92,508	-0,313	-0,060
263,093	60,199	-0,268	-0,183
264,107	427,513	-0,110	-0,165
265,122	-34,587	-0,183	-0,069
266,136	159,069	-0,071	-0,068
267,151	-160,715	-0,139	-0,005
268,166	-89,629	-0,163	-0,033
269,180	-84,082	-0,268	-0,058
270,195	-75,265	-0,229	-0,056
271,209	146,694	-0,236	-0,219
272,224	-200,000	-0,001	-0,162
273,239	6,101	-0,104	-0,053
274,253	-98,355	-0,236	-0,041
275,268	-96,248	-0,166	-0,030
276,282	800,000	-0,133	-0,291
277,297	-64,263	-0,318	-0,089
278,312	75,445	-0,188	-0,137
279,326	-80,504	-0,222	-0,051
280,341	91,660	-0,112	-0,087
281,355	800,000	-0,052	0,113
282,370	34,934	-0,165	-0,100
283,384	48,557	-0,209	-0,135
284,399	-200,000	-0,053	-0,181
285,414	25,119	-0,221	-0,126
286,428	-200,000	-0,080	-0,264
287,443	51,574	-0,093	-0,061
288,457	232,450	-0,122	-0,138
289,472	-25,322	-0,214	-0,087
290,487	87,336	-0,088	-0,067
291,501	67,640	-0,174	-0,122
292,516	164,809	-0,177	-0,173
293,530	110,866	-0,176	-0,146
294,545	405,526	-0,093	-0,135
295,560	-94,562	-0,153	0,028
296,574	-67,083	-0,200	-0,054
297,589	33,301	-0,047	0,028
298,603	469,729	-0,123	-0,191
299,618	764,406	-0,096	-0,180
300,633	62,634	-0,219	-0,150
301,647	-79,962	-0,191	-0,044
302,662	800,000	-0,043	-0,082
303,676	21,544	-0,173	-0,096
304,691	800,000	-0,121	-0,251
305,706	-30,849	-0,285	-0,111
306,720	152,374	-0,110	-0,104
307,735	34,642	-0,120	-0,072
308,749	5,033	-0,112	-0,057
309,764	-73,408	-0,297	-0,074
310,779	-38,136	-0,206	-0,075
311,793	7,372	-0,232	-0,119
312,808	270,213	-0,076	-0,092
313,822	0,210	-0,212	-0,104
314,837	-200,000	-0,033	-0,155
315,852	291,575	-0,101	-0,127
316,866	183,800	-0,123	-0,125
317,881	92,192	-0,103	-0,080
318,895	354,916	-0,159	-0,218
319,910	140,837	-0,153	-0,139
320,925	107,524	-0,180	-0,147
321,939	64,067	-0,144	-0,100
322,954	138,029	-0,134	-0,121
323,968	-17,122	-0,121	0,052
324,983	52,044	-0,133	-0,087
325,997	-68,081	-0,169	0,045
327,012	206,909	-0,107	-0,115
328,027	100,273	-0,140	-0,112
329,041	-150,623	-0,141	0,007
330,056	-139,914	-0,094	0,007
331,070	-200,000	0,008	-0,123
332,085	340,432	-0,056	-0,075
333,100	9,695	-0,147	-0,076
334,114	-200,000	-0,042	-0,145
335,129	800,000	-0,082	-0,238
336,143	-26,909	-0,140	-0,056
337,158	252,615	-0,112	-0,132
338,173	317,400	-0,165	-0,215
339,187	4,142	-0,146	0,073
340,202	-79,610	-0,073	-0,017
341,216	155,240	-0,107	-0,101
342,231	-42,601	-0,213	-0,074
343,246	283,710	-0,114	-0,141
344,260	125,298	-0,181	-0,157
345,275	-145,644	-0,194	-0,012
346,289	-52,838	-0,142	-0,045
347,304	-154,556	-0,092	-0,004
348,319	800,000	-0,041	-0,085
349,333	40,877	-0,177	-0,109
350,348	-200,000	-0,056	-0,224
351,362	800,000	-0,103	-0,228
352,377	314,207	0,060	-0,077
353,392	145,451	-0,057	-0,053
354,406	18,730	-0,165	-0,090
355,421	210,014	1313,015	1414,610
356,435	161,658	1473,538	1415,102
