DTS Sentinel unit serial number:	SN410029Multiplexer serial number:	ORYXHardware model number:	OX2-SRSoftware version number:	ORYX F/W v4,00 Oryx Data Collector v3.7.2.0data status	okinstallation	B3 Nyhavnadifferential loss correction	single-endedforward channel	channel 1reverse channel	N/Adate	2023/11/30time	22:12:30forward acquisition time	300,00reverse acquisition time	0,00gamma	499,1914k internal	0,3210k external	0,3210temperature offset calibration	1,0000default loss term (dB/km)	0,3820temperature slope calibration	1,0000multiplexer offset coefficient	1,0000multiplexer slope coefficient	1,0000fibre end	0,00T internal ref (°C)	10,19T ext. ref 1 (°C)	-5,13T ext. ref 2 (°C)	-5,27length (m)	temperature (°C)	Stokes	anti-Stokes-744,400	265,942	-0,202	-0,257
-743,385	-200,000	-0,028	0,215
-742,371	800,000	-0,051	-0,139
-741,356	-200,000	-0,103	0,342
-740,342	190,634	-0,220	-0,240
-739,327	371,548	-0,144	0,212
-738,312	264,293	-0,193	-0,245
-737,298	-200,000	0,052	0,297
-736,283	-200,000	-0,078	-0,353
-735,269	800,000	-0,080	0,177
-734,254	800,000	-0,055	-0,129
-733,239	87,990	-0,103	0,083
-732,225	267,041	-0,137	-0,174
-731,210	20,177	0,128	0,075
-730,196	53,872	-0,083	-0,058
-729,181	-200,000	-0,002	0,031
-728,167	3,808	-0,111	0,059
-727,152	-89,689	-0,058	-0,012
-726,137	103,821	-0,177	-0,151
-725,123	89,292	-0,028	0,023
-724,108	-6,123	-0,144	-0,071
-723,094	37,458	-0,097	-0,062
-722,079	-89,030	0,068	-0,015
-721,064	-105,874	-0,005	-0,001
-720,050	-200,000	0,009	0,129
-719,035	-200,000	-0,008	-0,289
-718,021	-200,000	0,016	-0,103
-717,006	-200,000	-0,007	0,038
-715,991	-129,272	-0,112	-0,011
-714,977	-88,405	-0,082	-0,018
-713,962	-108,487	0,053	-0,008
-712,948	-200,000	0,018	-0,082
-711,933	-125,116	-0,115	-0,013
-710,918	-159,982	-0,107	-0,004
-709,904	90,078	-0,128	-0,104
-708,889	-200,000	0,019	0,093
-707,875	-134,567	-0,084	-0,007
-706,860	441,888	-0,064	0,102
-705,845	-200,000	-0,018	-0,062
-704,831	-127,917	0,091	-0,009
-703,816	12,695	-0,026	0,015
-702,802	-127,785	-0,119	0,012
-701,787	171,573	-0,055	0,057
-700,772	173,680	0,010	0,011
-699,758	-42,052	-0,051	-0,019
-698,743	-129,689	-0,056	-0,006
-697,729	85,677	0,041	0,033
-696,714	800,000	0,051	-0,136
-695,699	72,883	-0,078	-0,059
-694,685	155,577	0,031	0,031
-693,670	149,967	-0,098	-0,096
-692,656	-55,142	0,084	0,027
-691,641	800,000	0,070	0,215
-690,627	-110,132	0,063	0,009
-689,612	-104,727	-0,176	-0,029
-688,597	299,882	0,037	-0,050
-687,583	-200,000	0,023	-0,083
-686,568	-133,493	-0,109	0,010
-685,554	-101,164	0,077	0,013
-684,539	-200,000	-0,004	0,110
-683,524	208,478	-0,015	-0,017
-682,510	23,201	0,077	0,046
-681,495	68,188	0,009	-0,006
-680,481	129,783	-0,112	-0,104
-679,466	-1,711	-0,087	-0,044
-678,451	286,826	0,014	0,019
-677,437	-200,000	0,036	-0,180
-676,422	-64,665	0,129	-0,038
-675,408	51,160	-0,133	-0,091
-674,393	-200,000	-0,005	0,134
-673,378	254,699	0,082	-0,102
-672,364	340,851	-0,081	-0,115
-671,349	33,457	0,126	0,079
-670,335	38,483	-0,097	0,062
-669,320	-200,000	0,014	0,049
-668,305	295,376	-0,044	0,058
-667,291	-200,000	0,006	-0,023
-666,276	-109,928	-0,096	-0,014
-665,262	-200,000	-0,003	-0,085
-664,247	-107,556	0,088	-0,014
-663,232	-99,751	-0,014	-0,003
-662,218	-200,000	0,037	0,119
-661,203	-200,000	-0,025	0,186
-660,189	81,531	-0,058	-0,046
-659,174	800,000	-0,049	-0,123
-658,159	-117,417	-0,081	0,010
-657,145	800,000	-0,015	0,042
-656,130	-18,818	-0,065	0,029
-655,116	67,184	-0,063	-0,047
-654,101	334,792	0,078	0,110
-653,086	100,858	0,059	-0,050
-652,072	-123,473	-0,095	0,011
-651,057	-14,288	-0,015	0,007
-650,043	800,000	-0,066	-0,145
-649,028	20,123	0,097	-0,056
-648,014	663,159	-0,043	-0,080
-646,999	800,000	-0,015	0,042
-645,984	-127,301	-0,038	-0,004
-644,970	-200,000	-0,005	0,092
-643,955	286,455	-0,106	0,138
-642,941	-42,621	-0,089	-0,032
-641,926	-200,000	0,003	-0,060
-640,911	-111,262	0,040	-0,006
-639,897	13,873	0,113	-0,064
-638,882	-80,610	-0,036	-0,009
-637,868	85,930	-0,087	-0,069
-636,853	78,878	-0,054	-0,041
-635,838	319,093	0,075	-0,103
-634,824	-200,000	-0,012	0,052
-633,809	147,239	-0,044	-0,043
-632,795	-15,709	0,080	-0,036
-631,780	-158,912	0,074	0,003
-630,765	-200,000	-0,014	-0,096
-629,751	-31,590	-0,163	0,066
-628,736	-30,694	0,092	-0,037
-627,722	54,930	0,075	0,052
-626,707	245,680	0,080	0,098
-625,692	800,000	-0,022	0,060
-624,678	800,000	-0,056	0,131
-623,663	90,428	-0,091	0,073
-622,649	-200,000	-0,024	-0,133
-621,634	-200,000	0,001	0,039
-620,619	-158,882	0,101	-0,004
-619,605	-9,931	0,078	-0,038
-618,590	180,636	-0,072	0,077
-617,576	-127,462	-0,083	0,009
-616,561	4,987	0,010	0,005
-615,546	-200,000	0,003	-0,070
-614,532	800,000	-0,049	-0,113
-613,517	171,326	-0,130	-0,135
-612,503	-159,465	0,051	-0,002
-611,488	-200,000	-0,001	-0,013
-610,474	113,751	-0,039	-0,034
-609,459	-200,000	0,012	0,123
-608,444	-200,000	0,009	0,171
-607,430	12,341	-0,122	-0,068
-606,415	800,000	0,047	-0,129
-605,401	-38,815	0,040	0,015
-604,386	-92,382	0,147	0,030
-603,371	502,990	-0,037	0,062
-602,357	800,000	-0,040	0,111
-601,342	-200,000	0,005	-0,019
-600,328	-104,188	-0,110	0,018
-599,313	-200,000	0,013	-0,204
-598,298	-128,057	0,080	-0,008
-597,284	-200,000	0,012	0,103
-596,269	-200,000	0,025	-0,134
-595,255	800,000	-0,024	0,049
-594,240	-200,000	-0,007	0,054
-593,225	-122,307	-0,094	-0,011
-592,211	71,884	-0,083	0,062
-591,196	65,402	0,021	-0,015
-590,182	67,078	-0,109	0,080
-589,167	800,000	0,065	0,133
-588,152	788,714	-0,028	-0,056
-587,138	800,000	-0,027	-0,073
-586,123	-200,000	-0,013	-0,062
-585,109	180,125	0,066	0,070
-584,094	800,000	-0,050	-0,111
-583,079	74,883	0,156	0,118
-582,065	-200,000	-0,019	0,102
-581,050	-19,750	-0,071	-0,031
-580,036	245,353	-0,092	0,111
-579,021	-69,782	-0,065	0,018
-578,006	-200,000	0,011	-0,107
-576,992	262,794	0,032	-0,040
-575,977	-41,013	0,061	0,023
-574,963	-127,095	0,100	-0,010
-573,948	144,822	0,064	-0,062
-572,934	800,000	-0,033	-0,088
-571,919	-98,678	-0,118	-0,021
-570,904	-200,000	-0,062	-0,256
-569,890	-78,177	0,100	-0,025
-568,875	18,014	0,102	0,058
-567,861	-200,000	0,002	-0,006
-566,846	408,434	0,010	0,015
-565,831	-127,801	-0,101	-0,010
-564,817	640,744	0,035	-0,064
-563,802	-200,000	0,006	0,028
-562,788	519,286	0,050	-0,085
-561,773	84,077	0,029	-0,023
-560,758	-200,000	-0,007	-0,227
-559,744	-200,000	-0,004	0,112
-558,729	-66,205	0,083	0,024
-557,715	800,000	-0,020	-0,043
-556,700	32,836	0,182	-0,113
-555,685	1,024	-0,072	-0,037
-554,671	800,000	-0,029	0,090
-553,656	205,072	0,060	0,067
-552,642	22,481	0,093	0,055
-551,627	-200,000	-0,001	0,175
-550,612	-82,985	-0,090	0,021
-549,598	-200,000	-0,013	-0,102
-548,583	246,591	0,057	-0,070
-547,569	-59,682	-0,134	0,041
-546,554	-21,486	0,077	-0,034
-545,539	-167,467	0,171	-0,005
-544,525	-200,000	-0,009	0,102
-543,510	-200,000	-0,006	0,055
-542,496	256,196	-0,040	-0,049
-541,481	493,023	-0,090	0,148
-540,466	-200,000	-0,013	0,059
-539,452	-200,000	-0,002	-0,030
-538,437	800,000	0,081	0,164
-537,423	317,664	-0,072	0,098
-536,408	289,029	0,052	-0,068
-535,393	22,769	-0,082	-0,048
-534,379	-75,083	-0,122	0,031
-533,364	193,323	0,016	-0,018
-532,350	416,980	-0,043	0,066
-531,335	-200,000	-0,004	0,080
-530,321	121,902	-0,043	0,039
-529,306	-200,000	0,005	0,037
-528,291	-78,582	-0,078	-0,019
-527,277	-200,000	-0,018	-0,131
-526,262	14,187	0,119	-0,066
-525,248	518,291	0,036	0,061
-524,233	318,935	-0,057	0,078
-523,218	-141,652	0,175	0,012
-522,204	-200,000	-0,031	-0,100
-521,189	-79,977	-0,145	-0,035
-520,175	-128,870	-0,085	-0,008
-519,160	179,539	-0,145	-0,152
-518,145	800,000	0,049	0,108
-517,131	176,500	-0,082	-0,086
-516,116	619,791	-0,015	-0,026
-515,102	92,057	-0,057	0,046
-514,087	800,000	0,023	-0,054
-513,072	-200,000	-0,040	0,130
-512,058	-200,000	-0,002	-0,047
-511,043	737,110	-0,032	-0,062
-510,029	52,495	0,057	0,039
-509,014	79,695	0,096	-0,074
-507,999	-38,397	-0,031	0,012
-506,985	-200,000	-0,024	-0,095
-505,970	-67,556	-0,095	0,027
-504,956	-200,000	-0,002	0,078
-503,941	616,147	-0,033	-0,061
-502,926	462,577	-0,045	0,073
-501,912	-200,000	-0,019	0,068
-500,897	-200,000	-0,015	-0,068
-499,883	-95,030	-0,107	-0,021
-498,868	-200,000	0,043	-0,158
-497,853	-200,000	-0,005	-0,128
-496,839	38,941	-0,057	0,037
-495,824	-200,000	0,023	0,075
-494,810	57,617	0,109	0,077
-493,795	-118,687	0,181	-0,023
-492,781	121,535	-0,121	-0,108
-491,766	251,284	0,028	-0,034
-490,751	189,493	-0,044	-0,048
-489,737	-50,696	0,019	0,006
-488,722	-102,956	0,128	0,022
-487,708	800,000	-0,024	-0,059
-486,693	280,890	0,061	-0,079
-485,678	137,096	-0,055	-0,052
-484,664	106,102	-0,024	-0,020
-483,649	-200,000	-0,009	-0,050
-482,635	800,000	0,053	-0,150
-481,620	141,711	0,073	0,069
-480,605	14,685	0,129	0,072
-479,591	-143,528	-0,139	0,009
-478,576	-200,000	-0,007	-0,060
-477,562	7,010	-0,099	-0,053
-476,547	800,000	0,076	-0,196
-475,532	-20,980	-0,112	0,049
-474,518	800,000	0,006	0,014
-473,503	800,000	0,051	0,141
-472,489	503,581	-0,062	-0,103
-471,474	-23,629	0,052	-0,022
-470,459	270,346	-0,078	0,098
-469,445	268,891	-0,060	0,076
-468,430	90,633	-0,042	-0,034
-467,416	-22,183	-0,044	-0,019
-466,401	249,823	-0,123	0,150
-465,386	-89,521	0,127	0,027
-464,372	205,230	0,099	0,111
-463,357	-30,731	0,143	-0,058
-462,343	-148,909	-0,219	0,012
-461,328	-59,059	0,136	0,042
-460,313	-136,869	-0,057	-0,005
-459,299	-61,505	0,053	0,016
-458,284	-200,000	0,055	0,196
-457,270	-200,000	0,031	0,173
-456,255	-71,240	-0,087	0,023
-455,241	-160,495	-0,148	0,006
-454,226	800,000	0,018	-0,036
-453,211	800,000	-0,041	0,114
-452,197	142,243	-0,066	0,063
-451,182	43,831	0,111	0,073
-450,168	-181,866	-0,086	-0,001
-449,153	190,146	0,063	-0,068
-448,138	-31,416	-0,072	-0,029
-447,124	324,139	-0,085	-0,116
-446,109	800,000	0,014	-0,033
-445,095	-200,000	0,005	0,135
-444,080	-183,218	0,093	-0,001
-443,065	-200,000	0,011	-0,057
-442,051	327,178	0,041	-0,057
-441,036	-200,000	-0,016	0,089
-440,022	-95,297	0,051	-0,010
-439,007	-108,925	-0,127	0,019
-437,992	-35,987	0,116	0,045
-436,978	-200,000	0,051	0,166
-435,963	-188,816	-0,046	-0,000
-434,949	-32,721	-0,107	0,043
-433,934	-26,663	-0,043	-0,018
-432,919	140,920	0,031	-0,029
-431,905	34,146	-0,067	0,042
-430,890	18,789	0,128	0,073
-429,876	86,543	0,196	0,155
-428,861	-200,000	0,000	0,021
-427,846	-75,697	0,082	-0,021
-426,832	-41,009	-0,046	-0,017
-425,817	395,585	-0,064	-0,096
-424,803	64,903	-0,112	0,081
-423,788	-144,340	0,167	-0,011
-422,773	236,927	-0,102	-0,122
-421,759	-200,000	-0,012	0,157
-420,744	328,177	0,024	0,034
-419,730	-38,078	0,117	-0,044
-418,715	-200,000	0,012	-0,055
-417,701	381,489	0,017	0,025
-416,686	65,951	-0,035	0,025
-415,671	87,168	-0,046	0,037
-414,657	410,529	0,103	0,157
-413,642	494,769	-0,062	0,103
-412,628	-1,532	-0,037	-0,019
-411,613	-80,807	-0,031	-0,007
-410,598	-200,000	-0,015	0,064
-409,584	-85,612	-0,064	0,014
-408,569	-200,000	0,002	0,174
-407,555	-194,069	0,120	0,001
-406,540	-60,650	0,172	0,052
-405,525	70,465	-0,122	-0,090
-404,511	-6,754	-0,116	-0,056
-403,496	162,058	-0,120	-0,121
-402,482	-200,000	-0,014	-0,117
-401,467	-200,000	-0,012	-0,075
-400,452	122,337	0,070	0,063
-399,438	-200,000	-0,045	0,214
-398,423	-6,920	0,139	0,067
-397,409	-200,000	-0,010	-0,113
-396,394	-200,000	-0,023	-0,114
-395,379	370,555	-0,091	0,132
-394,365	-200,000	0,001	0,014
-393,350	297,084	0,057	-0,074
-392,336	176,253	0,132	-0,138
-391,321	146,121	-0,199	0,191
-390,306	-200,000	0,007	-0,142
-389,292	800,000	-0,053	-0,122
-388,277	-200,000	-0,062	-0,213
-387,263	17,234	-0,005	-0,003
-386,248	-200,000	-0,014	0,046
-385,233	233,733	0,056	-0,066
-384,219	800,000	-0,035	-0,088
-383,204	87,676	0,081	-0,064
-382,190	452,664	-0,026	-0,041
-381,175	-79,827	-0,132	-0,031
-380,160	191,798	0,053	-0,058
-379,146	52,402	0,108	0,073
-378,131	141,478	0,067	-0,064
-377,117	-36,661	-0,118	0,045
-376,102	234,791	-0,093	-0,110
-375,088	-200,000	-0,019	-0,069
-374,073	800,000	-0,024	0,058
-373,058	139,594	-0,065	-0,061
-372,044	800,000	0,053	-0,139
-371,029	173,114	-0,083	-0,085
-370,015	212,232	0,054	-0,061
-369,000	-76,978	-0,004	0,001
-367,985	-200,000	-0,018	-0,155
-366,971	82,272	-0,173	0,134
-365,956	-200,000	0,034	0,131
-364,942	-200,000	0,032	0,203
-363,927	800,000	-0,030	0,076
-362,912	751,842	0,035	-0,067
-361,898	15,615	-0,084	0,047
-360,883	-108,586	-0,071	0,011
-359,869	800,000	0,053	0,127
-358,854	-127,476	0,148	-0,015
-357,839	-169,235	-0,148	-0,004
-356,825	-200,000	0,035	0,169
-355,810	-99,747	-0,189	0,033
-354,796	219,564	0,033	0,038
-353,781	-200,000	0,002	-0,028
-352,766	800,000	-0,045	-0,095
-351,752	-64,584	-0,075	0,022
-350,737	86,420	-0,065	-0,051
-349,723	-200,000	-0,002	0,139
-348,708	552,348	0,042	0,072
-347,693	-200,000	-0,001	0,062
-346,679	-92,965	-0,141	-0,028
-345,664	43,374	-0,067	0,043
-344,650	-20,240	0,031	0,014
-343,635	595,924	-0,035	0,063
-342,620	800,000	0,088	0,216
-341,606	160,784	0,080	0,080
-340,591	-200,000	-0,043	-0,154
-339,577	72,699	0,030	-0,022
-338,562	-70,589	0,196	-0,053
-337,548	-137,045	-0,022	-0,002
-336,533	198,923	0,153	0,168
-335,518	64,734	0,177	0,127
-334,504	758,314	-0,065	-0,127
-333,489	151,329	-0,098	-0,095
-332,475	383,507	0,114	-0,168
-331,460	14,951	0,031	-0,017
-330,445	-200,000	0,007	0,045
-329,431	800,000	-0,058	0,167
-328,416	800,000	0,038	0,093
-327,402	727,890	0,101	-0,194
-326,387	58,597	0,053	0,037
-325,372	800,000	0,029	0,088
-324,358	453,015	0,068	-0,109
-323,343	456,331	0,017	0,026
-322,329	-112,050	0,234	0,033
-321,314	-113,640	-0,115	-0,016
-320,299	242,377	-0,057	0,068
-319,285	42,959	-0,021	-0,014
-318,270	-52,606	-0,030	-0,010
-317,256	-200,000	0,004	0,056
-316,241	105,336	0,076	0,064
-315,226	-64,236	0,092	0,026
-314,212	800,000	0,067	0,194
-313,197	-9,057	-0,107	0,051
-312,183	-200,000	0,014	-0,082
-311,168	800,000	0,015	-0,039
-310,153	-65,162	-0,117	-0,033
-309,139	-200,000	-0,002	-0,008
-308,124	-12,051	0,202	-0,094
-307,110	-200,000	0,003	-0,033
-306,095	-200,000	0,026	0,095
-305,080	57,378	0,083	-0,058
-304,066	116,442	-0,107	-0,094
-303,051	285,288	-0,055	0,071
-302,037	-147,335	-0,066	0,004
-301,022	800,000	0,049	0,109
-300,008	133,551	0,184	0,170
-298,993	-45,127	0,114	0,040
-297,978	800,000	0,020	0,041
-296,964	-200,000	0,018	0,119
-295,949	800,000	-0,051	-0,103
-294,935	-200,000	-0,004	-0,033
-293,920	800,000	-0,032	-0,086
-292,905	-200,000	0,026	0,109
-291,891	-76,803	-0,058	0,014
-290,876	-43,994	0,009	0,003
-289,862	800,000	0,082	-0,214
-288,847	452,410	-0,006	0,010
-287,832	-13,468	-0,016	0,007
-286,818	-200,000	-0,035	-0,145
-285,803	569,870	0,032	-0,055
-284,789	-200,000	-0,030	0,105
-283,774	-33,702	0,223	0,087
-282,759	800,000	-0,030	0,092
-281,745	-3,194	0,126	-0,062
-280,730	551,872	0,083	-0,142
-279,716	800,000	0,022	-0,050
-278,701	-7,509	-0,048	0,023
-277,686	-170,830	0,096	0,002
-276,672	-200,000	0,015	0,049
-275,657	-96,070	-0,151	-0,028
-274,643	-15,242	0,052	0,023
-273,628	26,742	-0,074	-0,044
-272,613	621,426	0,023	0,041
-271,599	94,629	0,079	0,064
-270,584	800,000	0,027	-0,063
-269,570	-25,872	-0,137	0,057
-268,555	-200,000	-0,024	0,112
-267,540	-174,962	-0,081	-0,002
-266,526	-200,000	-0,024	0,126
-265,511	-107,802	-0,197	0,030
-264,497	-65,204	0,105	0,030
-263,482	680,167	-0,024	0,044
-262,467	-200,000	-0,017	-0,161
-261,453	-129,193	0,113	-0,011
-260,438	232,517	0,057	-0,067
-259,424	44,186	0,030	0,019
-258,409	-33,619	-0,077	-0,030
-257,395	-47,471	0,030	0,010
-256,380	53,953	0,087	0,059
-255,365	-200,000	-0,006	-0,085
-254,351	800,000	-0,039	-0,121
-253,336	-121,594	0,052	-0,006
-252,322	76,741	-0,126	-0,095
-251,307	87,600	0,077	-0,061
-250,292	800,000	-0,022	0,046
-249,278	-120,473	0,160	0,019
-248,263	54,383	-0,018	-0,012
-247,249	10,442	0,144	-0,078
-246,234	235,071	0,130	0,153
-245,219	-200,000	0,015	-0,148
-244,205	-157,453	-0,024	-0,001
-243,190	-200,000	0,009	0,183
-242,176	-200,000	0,005	-0,033
-241,161	-200,000	0,024	-0,094
-240,146	-200,000	0,013	-0,179
-239,132	326,805	0,041	-0,055
-238,117	-124,836	-0,139	0,015
-237,103	-123,119	0,046	0,005
-236,088	-200,000	0,041	-0,144
-235,073	-135,235	0,048	0,004
-234,059	-104,961	0,149	-0,024
-233,044	-18,902	-0,187	0,083
-232,030	195,732	0,087	-0,094
-231,015	-200,000	0,009	-0,061
-230,000	-200,000	-0,035	0,110
-228,986	-133,716	0,026	0,002
-227,971	-200,000	-0,018	-0,116
-226,957	-194,962	-0,074	-0,000
-225,942	219,804	0,037	0,043
-224,927	-112,993	0,059	0,008
-223,913	800,000	-0,042	0,099
-222,898	40,085	-0,094	0,060
-221,884	-200,000	0,009	-0,065
-220,869	-8,486	-0,076	0,036
-219,855	-153,190	-0,083	-0,004
-218,840	47,524	0,077	0,051
-217,825	0,246	-0,016	0,008
-216,811	800,000	-0,054	-0,131
-215,796	-70,475	0,084	0,022
-214,782	710,776	-0,020	0,037
-213,767	676,484	-0,049	0,090
-212,752	800,000	0,051	0,151
-211,738	327,688	0,071	0,098
-210,723	-120,508	0,054	0,006
-209,709	-200,000	-0,046	-0,220
-208,694	-200,000	-0,023	-0,163
-207,679	30,960	-0,064	-0,039
-206,665	-200,000	0,012	-0,067
-205,650	151,556	0,053	0,051
-204,636	-81,702	-0,135	-0,031
-203,621	119,238	0,076	-0,067
-202,606	343,427	0,048	0,068
-201,592	6,886	-0,203	0,107
-200,577	-163,424	0,083	0,003
-199,563	800,000	0,033	0,083
-198,548	98,155	0,086	0,070
-197,533	-90,277	0,187	0,038
-196,519	59,317	0,040	-0,028
-195,504	800,000	0,046	-0,115
-194,490	374,110	0,031	-0,045
-193,475	-200,000	-0,005	-0,033
-192,460	5,488	0,034	-0,018
-191,446	800,000	-0,020	-0,057
-190,431	-200,000	-0,006	0,058
-189,417	509,883	-0,018	-0,030
-188,402	800,000	0,023	-0,056
-187,387	-79,886	-0,157	-0,037
-186,373	542,591	-0,050	-0,085
-185,358	79,795	0,062	0,047
-184,344	108,112	-0,104	0,088
-183,329	154,462	0,107	-0,104
-182,315	800,000	-0,053	0,105
-181,300	-37,875	-0,074	0,028
-180,285	-200,000	0,006	-0,049
-179,271	97,558	-0,088	-0,072
-178,256	800,000	-0,026	-0,059
-177,242	603,403	0,037	0,066
-176,227	-78,900	-0,074	-0,018
-175,212	800,000	-0,029	0,058
-174,198	-200,000	0,032	-0,143
-173,183	-163,846	0,108	0,004
-172,169	76,501	-0,182	-0,137
-171,154	114,251	-0,016	0,014
-170,139	445,800	-0,047	-0,074
-169,125	800,000	0,047	-0,109
-168,110	-200,000	-0,015	0,096
-167,096	-200,000	-0,038	0,000
-166,081	281,781	0,027	0,034
-165,066	-104,441	-0,132	-0,021
-164,052	-120,820	0,108	-0,013
-163,037	-20,931	0,013	0,006
-162,023	-84,716	-0,064	-0,014
-161,008	-61,481	0,086	0,026
-159,993	-73,314	0,095	0,025
-158,979	91,604	-0,035	-0,028
-157,964	800,000	-0,057	0,158
-156,950	29,036	-0,147	-0,088
-155,935	28,355	0,079	0,047
-154,920	121,643	0,101	-0,089
-153,906	0,559	0,032	-0,016
-152,891	-200,000	0,002	0,112
-151,877	151,224	0,042	-0,040
-150,862	175,276	-0,081	-0,083
-149,847	56,237	0,091	-0,063
-148,833	410,808	-0,047	-0,070
-147,818	-200,000	0,031	0,217
-146,804	352,214	0,109	-0,154
-145,789	800,000	0,068	0,161
-144,775	-200,000	-0,015	-0,077
-143,760	70,275	-0,054	0,039
-142,745	-140,443	-0,126	0,009
-141,731	-200,000	0,019	-0,093
-140,716	296,244	0,043	0,057
-139,702	122,064	0,160	0,141
-138,687	-65,736	0,029	0,008
-137,672	-22,991	-0,062	-0,026
-136,658	143,858	-0,073	-0,069
-135,643	-200,000	-0,028	-0,155
-134,629	-200,000	-0,019	-0,066
-133,614	-20,664	0,208	0,090
-132,599	233,337	0,046	0,053
-131,585	-22,878	0,059	0,025
-130,570	186,487	-0,127	0,134
-129,556	65,196	-0,067	-0,048
-128,541	800,000	-0,077	-0,195
-127,526	-200,000	-0,032	-0,135
-126,512	-200,000	-0,013	0,158
-125,497	-161,556	-0,069	-0,002
-124,483	173,749	0,068	0,069
-123,468	-69,659	-0,097	0,026
-122,453	800,000	-0,059	-0,155
-121,439	342,914	-0,010	0,013
-120,424	800,000	-0,031	0,089
-119,410	-78,023	0,043	0,010
-118,395	520,715	0,030	-0,049
-117,380	800,000	0,051	-0,107
-116,366	130,121	-0,028	-0,025
-115,351	800,000	0,019	0,043
-114,337	-200,000	-0,036	0,153
-113,322	81,816	-0,053	-0,040
-112,307	800,000	0,036	0,107
-111,293	616,729	-0,015	0,027
-110,278	-177,464	0,053	-0,001
-109,264	-87,595	0,082	0,017
-108,249	-30,139	-0,083	-0,033
-107,234	539,725	0,049	-0,082
-106,220	-132,440	-0,183	-0,016
-105,205	3,086	0,146	-0,075
-104,191	99,669	0,186	-0,152
-103,176	32,526	0,122	-0,075
-102,162	-200,000	0,053	-0,184
-101,147	417,924	0,046	0,070
-100,132	-62,152	-0,182	0,053
-99,118	68,352	0,031	0,023
-98,103	-200,000	0,017	-0,072
-97,089	17,921	0,041	-0,023
-96,074	-200,000	0,016	0,244
-95,059	-37,018	0,125	0,047
-94,045	18,429	-0,123	0,069
-93,030	46,145	0,015	-0,010
-92,016	800,000	0,030	-0,093
-91,001	38,235	-0,039	-0,024
-89,986	80,571	0,143	0,109
-88,972	129,418	-0,077	0,070
-87,957	800,000	0,091	0,199
-86,943	121,671	0,058	-0,051
-85,928	155,860	-0,078	-0,076
-84,913	-200,000	-0,040	-0,165
-83,899	-133,813	0,109	-0,009
-82,884	-64,931	0,185	0,052
-81,870	-32,813	0,150	0,058
-80,855	510,059	-0,023	0,037
-79,840	72,516	-0,025	0,018
-78,826	-200,000	0,014	-0,087
-77,811	-200,000	-0,007	-0,169
-76,797	59,428	-0,103	-0,072
-75,782	226,972	0,082	0,095
-74,767	98,154	0,077	0,062
-73,753	-61,419	-0,040	0,012
-72,738	1,406	-0,090	-0,046
-71,724	800,000	-0,055	0,120
-70,709	721,501	0,037	-0,069
-69,694	225,421	0,052	-0,059
-68,680	-200,000	-0,004	0,190
-67,665	-41,697	0,217	0,078
-66,651	-200,000	0,001	0,021
-65,636	-22,202	-0,057	-0,024
-64,622	-200,000	-0,004	-0,090
-63,607	-129,005	-0,027	-0,003
-62,592	138,363	0,037	0,034
-61,578	742,467	-0,035	-0,066
-60,563	-123,433	0,051	0,006
-59,549	-200,000	-0,012	0,043
-58,534	47,310	-2,000	-1,313
-57,519	550,300	-1,146	-1,949
-56,505	-200,000	-0,363	-4,410
-55,490	362,284	0,841	1,195
-54,476	800,000	5,365	11,846
-53,461	-200,000	21,256	343,806
-52,446	800,000	760,857	2366,507
-51,432	560,214	1664,917	2850,454
-50,417	73,834	1663,811	1230,137
-49,403	18,085	1537,756	863,215
-48,388	12,053	1461,003	790,896
-47,373	19,640	1451,865	822,388
-46,359	15,560	1441,350	796,962
-45,344	10,325	1437,159	769,641
-44,330	10,231	1435,072	768,045
-43,315	10,265	1433,258	767,206
-42,300	10,263	1431,545	766,248
-41,286	10,300	1430,344	765,751
-40,271	10,211	1429,332	764,757
-39,257	10,263	1427,954	764,236
-38,242	10,287	1427,035	763,827
-37,227	10,247	1425,913	763,008
-36,213	10,234	1424,711	762,273
-35,198	10,250	1423,323	761,574
-34,184	10,328	1422,367	761,400
-33,169	10,235	1421,199	760,307
-32,154	10,270	1420,152	759,880
-31,140	10,279	1418,786	759,164
-30,125	10,320	1417,648	758,716
-29,111	10,287	1416,631	757,989
-28,096	10,270	1415,423	757,229
-27,082	10,200	1414,270	756,254
-26,067	10,179	1413,330	755,622
-25,052	10,252	1412,049	755,252
-24,038	10,257	1411,050	754,710
-23,023	10,247	1410,244	754,201
-22,009	10,214	1409,182	753,452
-20,994	10,210	1408,285	752,924
-19,979	10,247	1407,190	752,481
-18,965	10,190	1406,371	751,743
-17,950	10,185	1405,311	751,125
-16,936	10,177	1404,646	750,702
-15,921	10,098	1404,007	749,965
-14,906	10,185	1402,482	749,526
-13,892	10,170	1401,609	748,958
-12,877	10,131	1401,019	748,431
-11,863	10,112	1399,931	747,732
-10,848	10,098	1399,104	747,196
-9,833	10,073	1398,282	746,613
-8,819	10,026	1397,355	745,867
-7,804	10,015	1396,447	745,302
-6,790	10,047	1395,693	745,018
-5,775	10,031	1394,467	744,259
-4,760	10,032	1393,412	743,674
-3,746	10,068	1392,428	743,284
-2,731	10,010	1391,655	742,576
-1,717	10,006	1390,959	742,154
-0,702	10,052	1388,795	741,184
0,313	14,009	1301,503	712,749
1,327	30,129	691,556	415,345
2,342	46,362	119,961	78,325
3,356	1,161	16,387	8,270
4,371	4,598	3,491	1,802
5,386	-1,328	1,049	0,521
6,400	-200,000	0,183	0,607
7,415	423,462	-0,120	-0,183
8,429	-54,460	-0,372	-0,118
9,444	130,533	-0,283	-0,255
10,459	56,128	-0,286	-0,195
11,473	191,776	-0,189	-0,201
12,488	9,133	-0,235	-0,125
13,502	342,035	-0,189	-0,262
14,517	13,059	-0,275	-0,150
15,531	98,374	-0,423	-0,343
16,546	92,273	-0,310	-0,246
17,561	163,099	-0,286	-0,283
18,575	-77,251	-0,269	-0,066
19,590	-43,115	-0,260	-0,092
20,604	79,354	-0,136	-0,103
21,619	78,690	-0,401	-0,301
22,634	135,654	-0,471	-0,432
23,648	114,278	-0,285	-0,244
24,663	123,592	-0,313	-0,277
25,677	246,061	-0,262	-0,311
26,692	56,674	-0,446	-0,305
27,707	62,438	-0,312	-0,219
28,721	77,785	-0,349	-0,262
29,736	11,832	-0,562	-0,303
30,750	35,131	-0,467	-0,288
31,765	202,980	-0,320	-0,348
32,780	200,434	-0,317	-0,343
33,794	17,267	-0,380	-0,212
34,809	157,722	-0,164	-0,160
35,823	105,780	-0,306	-0,254
36,838	174,093	-0,337	-0,342
37,853	95,871	-0,421	-0,338
38,867	100,241	-0,386	-0,314
39,882	81,425	-0,375	-0,285
40,896	800,000	-0,167	-0,327
41,911	1,861	-0,500	-0,253
42,926	159,526	-0,232	-0,227
43,940	149,584	-0,328	-0,313
44,955	154,666	-0,296	-0,286
45,969	63,702	-0,415	-0,293
46,984	-16,697	-0,384	-0,170
47,999	163,232	-0,255	-0,252
49,013	126,550	-0,288	-0,256
50,028	19,748	-0,309	-0,175
51,042	179,702	-0,316	-0,326
52,057	244,030	-0,241	-0,284
53,071	-66,330	-0,348	-0,097
54,086	-64,371	-0,399	-0,113
55,101	249,427	-0,356	-0,424
56,115	-28,445	-0,298	-0,120
57,130	27,827	-0,392	-0,232
58,144	30,568	-0,410	-0,246
59,159	-40,477	-0,369	-0,134
60,174	-10,425	-0,291	-0,135
61,188	115,470	-0,325	-0,279
62,203	-22,666	-0,437	-0,184
63,217	-75,794	-0,379	-0,094
64,232	295,557	-0,216	-0,278
65,247	171,388	-0,250	-0,252
66,261	6,652	-0,327	-0,170
67,276	152,751	-0,342	-0,328
68,290	-58,209	-0,380	-0,115
69,305	-81,541	-0,274	-0,063
70,320	28,041	-0,294	-0,173
71,334	-66,769	-0,204	-0,056
72,349	-131,146	-0,293	-0,027
73,363	53,117	-0,388	-0,260
74,378	44,992	-0,417	-0,268
75,393	25,161	-0,389	-0,226
76,407	355,055	-0,161	-0,225
77,422	-94,377	-0,283	-0,054
78,436	-6,774	-0,274	-0,130
79,451	-3,996	-0,361	-0,175
80,466	91,268	-0,306	-0,240
81,480	-27,093	-0,348	-0,141
82,495	105,735	-0,341	-0,282
83,509	-65,264	-0,307	-0,086
84,524	68,457	-0,180	-0,129
85,539	63,457	-0,190	-0,133
86,553	50,353	-0,455	-0,301
87,568	154,461	-0,318	-0,306
88,582	-42,784	-0,351	-0,124
89,597	-2,218	-0,245	-0,120
90,611	-47,452	-0,406	-0,137
91,626	-99,136	-0,320	-0,056
92,641	137,544	-0,177	-0,162
93,655	10,343	-0,326	-0,173
94,670	50,494	-0,246	-0,163
95,684	111,108	-0,266	-0,224
96,699	-1,122	-0,339	-0,167
97,714	182,081	-0,237	-0,245
98,728	-89,891	-0,244	-0,050
99,743	431,612	-0,108	-0,165
100,757	151,114	-0,255	-0,243
101,772	71,768	-0,320	-0,232
102,787	-81,099	-0,309	-0,071
103,801	448,350	-0,212	-0,328
104,816	232,277	-0,235	-0,270
105,830	8,058	-0,232	-0,121
106,845	100,171	-0,179	-0,145
107,860	385,268	-0,136	-0,196
108,874	-53,301	-0,329	-0,105
109,889	99,644	-0,313	-0,253
110,903	166,751	-0,345	-0,343
111,918	244,419	-0,189	-0,222
112,933	-98,430	-0,303	-0,054
113,947	53,814	-0,183	-0,123
114,962	18,469	-0,180	-0,100
115,976	155,853	-0,297	-0,286
116,991	79,932	-0,291	-0,218
118,006	-60,899	-0,364	-0,107
119,020	51,704	-0,269	-0,178
120,035	16,659	-0,136	-0,075
121,049	165,060	-0,229	-0,226
122,064	-22,600	-0,297	-0,125
123,079	54,123	-0,276	-0,185
124,093	208,599	-0,202	-0,221
125,108	108,821	-0,221	-0,184
126,122	35,769	-0,242	-0,148
127,137	-137,906	-0,290	-0,022
128,151	58,672	-0,173	-0,119
129,166	-32,662	-0,228	-0,088
130,181	135,050	-0,251	-0,227
131,195	125,920	-0,252	-0,222
132,210	257,080	-0,173	-0,208
133,224	66,994	-0,201	-0,142
134,239	15,564	-0,272	-0,149
135,254	-22,065	-0,159	-0,067
136,268	-146,481	-0,146	-0,009
137,283	24,931	-0,189	-0,109
138,297	-30,062	-0,315	-0,124
139,312	177,468	-0,180	-0,183
140,327	196,579	-0,208	-0,221
141,341	40,362	-0,226	-0,141
142,356	800,000	-0,089	-0,270
143,370	-20,979	-0,266	-0,113
144,385	1,365	-0,343	-0,171
145,400	-23,778	-0,092	-0,038
146,414	362,343	-0,242	-0,339
147,429	112,432	-0,242	-0,204
148,443	308,478	-0,219	-0,285
149,458	320,963	-0,136	-0,181
150,473	-126,622	-0,138	-0,014
151,487	15,456	-0,238	-0,130
152,502	-19,863	-0,234	-0,100
153,516	131,175	-0,309	-0,277
154,531	333,378	-0,203	-0,275
155,546	800,000	-0,148	-0,321
156,560	64,432	-0,180	-0,126
157,575	124,656	-0,176	-0,154
158,589	-104,792	-0,220	-0,035
159,604	14,906	-0,314	-0,171
160,619	117,616	-0,325	-0,278
161,633	191,969	-0,203	-0,213
162,648	174,173	-0,211	-0,212
163,662	35,824	-0,304	-0,186
164,677	57,298	-0,225	-0,152
165,692	-92,924	-0,280	-0,054
166,706	65,649	-0,260	-0,183
167,721	-3,880	-0,260	-0,125
168,735	63,605	-0,362	-0,252
169,750	87,644	-0,287	-0,220
170,764	210,701	-0,206	-0,225
171,779	-7,860	-0,064	-0,030
172,794	-22,557	-0,129	-0,054
173,808	800,000	-0,113	-0,272
174,823	800,000	-0,144	-0,366
175,837	78,678	-0,216	-0,160
176,852	109,265	-0,277	-0,230
177,867	15,403	-0,291	-0,158
178,881	68,676	-0,289	-0,205
179,896	-13,162	-0,219	-0,098
180,910	-13,790	-0,300	-0,134
181,925	25,371	-0,262	-0,151
182,940	5,525	-0,288	-0,147
183,954	595,844	-0,088	-0,151
184,969	800,000	-0,087	-0,259
185,983	200,260	-0,157	-0,167
186,998	-76,224	-0,159	-0,039
188,013	800,000	-0,100	-0,222
189,027	72,601	-0,279	-0,202
190,042	304,344	-0,107	-0,138
191,056	-65,113	-0,255	-0,071
192,071	-116,493	-0,219	-0,028
193,086	89,960	-0,231	-0,179
194,100	177,155	-0,181	-0,183
195,115	8,781	-0,252	-0,132
196,129	101,725	-0,264	-0,214
197,144	95,044	-0,264	-0,208
198,159	-27,961	-0,292	-0,117
199,173	63,941	-0,140	-0,097
200,188	-124,891	-0,209	-0,022
201,202	609,028	-0,112	-0,194
202,217	123,071	-0,227	-0,197
203,232	-55,466	-0,274	-0,085
204,246	-87,791	-0,198	-0,041
205,261	175,301	-0,309	-0,310
206,275	48,970	-0,241	-0,156
207,290	-200,000	-0,042	-0,137
208,304	306,966	-0,134	-0,173
209,319	194,694	-0,149	-0,156
210,334	26,522	-0,294	-0,170
211,348	75,771	-0,219	-0,160
212,363	113,061	-0,168	-0,141
213,377	77,346	-0,112	-0,082
214,392	-133,262	-0,132	-0,011
215,407	389,013	-0,097	-0,139
216,421	-137,742	-0,177	-0,014
217,436	526,849	-0,108	-0,176
218,450	69,795	-0,168	-0,120
219,465	128,201	-0,276	-0,243
220,480	311,115	-0,221	-0,288
221,494	276,375	-0,153	-0,189
222,509	577,587	-0,061	-0,103
223,523	-126,434	-0,204	-0,021
224,538	-126,382	-0,223	0,023
225,553	800,000	-0,096	-0,201
226,567	78,584	-0,145	-0,107
227,582	191,487	-0,071	-0,074
228,596	-61,001	-0,299	-0,087
229,611	323,663	-0,183	-0,243
230,626	675,634	-0,104	-0,187
231,640	266,114	-0,087	-0,105
232,655	404,556	-0,153	-0,223
233,669	130,113	-0,324	-0,287
234,684	-200,000	0,052	-0,291
235,699	79,168	-0,115	-0,085
236,713	-43,700	-0,128	-0,044
237,728	-50,762	-0,214	-0,069
238,742	74,633	-0,217	-0,158
239,757	0,289	-0,242	-0,119
240,772	72,457	-0,202	-0,145
241,786	186,533	-0,203	-0,209
242,801	145,991	-0,131	-0,121
243,815	-85,956	-0,173	-0,037
244,830	10,445	-0,193	-0,101
245,844	75,167	-0,152	-0,110
246,859	203,428	-0,174	-0,187
247,874	-15,072	-0,223	-0,098
248,888	-116,981	-0,282	-0,035
249,903	-148,488	-0,219	-0,012
250,917	800,000	-0,060	-0,160
251,932	37,024	-0,072	-0,044
252,947	99,063	-0,140	-0,112
253,961	-60,852	-0,201	-0,058
254,976	-87,923	-0,169	0,035
255,990	333,975	-0,066	-0,088
257,005	-139,490	-0,222	-0,016
258,020	-87,512	-0,188	0,039
259,034	264,924	-0,127	-0,152
260,049	-6,700	-0,062	-0,029
261,063	-70,218	-0,356	-0,092
262,078	-42,191	-0,267	-0,094
263,093	185,763	-0,219	-0,225
264,107	246,577	-0,153	-0,178
265,122	-14,730	0,087	-0,038
266,136	346,059	-0,104	-0,141
267,151	-21,750	-0,219	-0,092
268,166	180,068	-0,145	-0,147
269,180	42,285	-0,325	-0,203
270,195	51,882	-0,194	-0,127
271,209	261,669	-0,127	-0,152
272,224	80,310	-0,193	-0,143
273,239	498,755	-0,095	-0,152
274,253	-30,865	-0,193	-0,075
275,268	-170,340	-0,221	-0,005
276,282	168,909	-0,218	-0,214
277,297	44,317	-0,142	-0,090
278,312	43,088	-0,176	-0,110
279,326	-89,464	-0,134	0,027
280,341	517,981	-0,101	-0,164
281,355	65,324	-0,071	-0,049
282,370	403,099	-0,136	-0,198
283,384	-7,940	-0,276	-0,128
284,399	800,000	-0,055	-0,166
285,414	107,517	-0,131	-0,107
286,428	253,028	-0,126	-0,148
287,443	-77,745	-0,112	-0,026
288,457	-200,000	-0,038	-0,139
289,472	222,156	-0,156	-0,173
290,487	27,258	-0,159	-0,091
291,501	113,455	-0,183	-0,153
292,516	10,706	-0,195	-0,102
293,530	-66,157	-0,017	0,005
294,545	-36,306	-0,152	-0,056
295,560	-49,022	-0,124	-0,040
296,574	267,486	-0,040	-0,048
297,589	344,662	-0,152	-0,205
298,603	800,000	-0,048	-0,131
299,618	56,476	-0,129	-0,086
300,633	269,396	-0,099	-0,119
301,647	191,131	-0,077	-0,080
302,662	174,619	-0,148	-0,147
303,676	458,996	-0,144	-0,221
304,691	-44,241	-0,179	-0,061
305,706	-48,749	-0,167	-0,055
306,720	800,000	-0,096	-0,244
307,735	383,685	-0,107	-0,151
308,749	-123,403	0,039	0,004
309,764	-200,000	-0,007	-0,057
310,779	-49,367	-0,132	-0,043
311,793	44,653	-0,138	-0,087
312,808	-24,980	-0,223	-0,090
313,822	272,054	-0,112	-0,136
314,837	441,560	-0,232	-0,349
315,852	-78,886	-0,176	-0,041
316,866	75,417	-0,178	-0,129
317,881	-114,558	-0,142	0,018
318,895	-21,746	-0,181	-0,075
319,910	-200,000	-0,072	-0,272
320,925	-132,043	-0,180	-0,016
321,939	198,316	-0,101	-0,106
322,954	759,384	-0,087	-0,163
323,968	-91,785	-0,091	0,018
324,983	-6,608	-0,157	-0,073
325,997	356,882	-0,119	-0,163
327,012	49,242	-0,168	-0,108
328,027	200,904	-0,119	-0,126
329,041	-136,188	-0,174	-0,014
330,056	171,832	-0,129	-0,127
331,070	-166,450	-0,148	-0,004
332,085	518,664	-0,020	0,032
333,100	-56,095	-0,215	-0,065
334,114	-87,070	-0,139	-0,029
335,129	163,298	-0,163	-0,157
336,143	177,285	-0,135	-0,135
337,158	254,163	-0,034	-0,040
338,173	51,916	-0,088	-0,057
339,187	71,874	-0,046	0,033
340,202	-24,263	-0,145	-0,059
341,216	269,138	-0,120	-0,145
342,231	800,000	-0,093	-0,203
343,246	103,853	-0,106	-0,085
344,260	18,784	-0,066	0,036
345,275	70,584	-0,100	-0,070
346,289	31,211	-0,098	-0,057
347,304	-79,595	-0,147	-0,034
348,319	800,000	-0,091	-0,213
349,333	6,851	-0,246	-0,125
350,348	617,651	-0,165	-0,284
351,362	-33,243	-0,028	-0,011
352,377	122,488	-0,118	0,101
353,392	-200,000	-0,011	-0,149
354,406	-200,000	-0,023	-0,148
355,421	207,378	1311,076	1400,753
356,435	159,532	1471,301	1401,222
