DTS Sentinel unit serial number:	SN410029Multiplexer serial number:	ORYXHardware model number:	OX2-SRSoftware version number:	ORYX F/W v4,00 Oryx Data Collector v3.7.2.0data status	okinstallation	B3 Nyhavnadifferential loss correction	single-endedforward channel	channel 1reverse channel	N/Adate	2023/12/05time	01:57:30forward acquisition time	300,00reverse acquisition time	0,00gamma	499,1914k internal	0,3201k external	0,3201temperature offset calibration	1,0000default loss term (dB/km)	0,3820temperature slope calibration	1,0000multiplexer offset coefficient	1,0000multiplexer slope coefficient	1,0000fibre end	0,00T internal ref (°C)	13,87T ext. ref 1 (°C)	-0,79T ext. ref 2 (°C)	-0,83length (m)	temperature (°C)	Stokes	anti-Stokes-744,400	112,461	-0,298	-0,263
-743,385	-200,000	-0,035	0,368
-742,371	134,300	-0,155	-0,146
-741,356	-200,000	0,071	0,347
-740,342	-10,597	-0,165	-0,079
-739,327	-200,000	-0,030	0,258
-738,312	106,027	-0,222	-0,191
-737,298	-200,000	-0,025	0,282
-736,283	130,460	-0,222	-0,207
-735,269	-200,000	-0,039	0,395
-734,254	142,292	-0,236	-0,227
-733,239	-29,724	-0,095	0,039
-732,225	356,641	-0,076	-0,111
-731,210	800,000	0,063	0,177
-730,196	-200,000	-0,003	-0,103
-729,181	407,040	-0,041	-0,064
-728,167	569,288	0,018	0,032
-727,152	-200,000	-0,010	0,119
-726,137	-200,000	-0,032	-0,122
-725,123	95,779	-0,024	-0,020
-724,108	97,916	-0,104	-0,087
-723,094	800,000	-0,044	-0,098
-722,079	-200,000	0,002	0,029
-721,064	-200,000	0,024	0,153
-720,050	22,763	-0,094	-0,056
-719,035	-200,000	0,002	0,061
-718,021	33,760	-0,134	-0,085
-717,006	61,506	-0,154	-0,111
-715,991	627,324	-0,114	-0,210
-714,977	-168,701	0,047	0,001
-713,962	-200,000	-0,006	-0,060
-712,948	309,833	-0,031	-0,043
-711,933	142,167	0,052	-0,050
-710,918	-107,006	-0,082	-0,013
-709,904	-179,840	-0,046	0,001
-708,889	-33,918	-0,056	-0,022
-707,875	800,000	0,121	-0,261
-706,860	800,000	0,040	-0,117
-705,845	369,814	0,009	0,014
-704,831	-64,196	-0,058	0,017
-703,816	-200,000	-0,014	0,178
-702,802	-71,411	-0,116	-0,031
-701,787	800,000	0,038	-0,120
-700,772	800,000	-0,003	-0,009
-699,758	1,770	0,038	-0,020
-698,743	800,000	-0,001	-0,003
-697,729	-131,281	-0,061	0,006
-696,714	-200,000	0,003	0,029
-695,699	-23,955	0,122	-0,053
-694,685	-64,112	-0,178	0,052
-693,670	18,394	-0,028	-0,016
-692,656	800,000	0,089	-0,181
-691,641	-200,000	0,005	0,037
-690,627	800,000	-0,089	0,210
-689,612	-26,686	0,106	0,045
-688,597	-33,113	-0,143	0,057
-687,583	87,037	-0,108	-0,087
-686,568	800,000	0,014	-0,029
-685,554	-200,000	0,019	-0,220
-684,539	30,482	0,063	-0,039
-683,524	-183,737	0,157	-0,002
-682,510	304,419	0,078	0,106
-681,495	32,803	-0,074	-0,046
-680,481	-200,000	0,058	-0,211
-679,466	-18,901	-0,234	-0,105
-678,451	-16,606	0,049	-0,022
-677,437	292,838	-0,054	0,072
-676,422	77,975	0,053	-0,041
-675,408	-200,000	0,001	-0,073
-674,393	-200,000	0,008	-0,025
-673,378	-107,097	-0,062	0,010
-672,364	-200,000	0,006	0,085
-671,349	19,942	0,057	0,033
-670,335	-14,138	-0,122	-0,057
-669,320	110,612	0,133	0,116
-668,305	302,066	0,105	0,141
-667,291	244,285	-0,060	0,073
-666,276	131,821	0,050	0,047
-665,262	-9,720	0,112	-0,054
-664,247	356,130	0,074	-0,108
-663,232	-62,115	0,084	0,025
-662,218	800,000	0,021	0,066
-661,203	249,723	-0,053	0,065
-660,189	70,858	0,041	-0,031
-659,174	97,573	-0,148	-0,123
-658,159	-200,000	-0,007	0,107
-657,145	-150,376	-0,170	-0,009
-656,130	373,557	-0,023	-0,034
-655,116	242,707	0,061	0,074
-654,101	-158,644	0,089	0,004
-653,086	-80,454	0,069	-0,017
-652,072	83,456	-0,026	0,021
-651,057	-9,089	-0,033	-0,016
-650,043	129,232	-0,094	-0,087
-649,028	-200,000	0,005	-0,058
-648,014	-200,000	-0,031	-0,124
-646,999	-200,000	0,017	0,071
-645,984	800,000	-0,030	0,084
-644,970	362,703	0,024	-0,035
-643,955	435,953	0,025	-0,039
-642,941	-200,000	0,028	0,091
-641,926	65,478	-0,040	0,029
-640,911	-200,000	-0,004	-0,013
-639,897	-100,878	0,115	0,020
-638,882	-137,406	-0,129	-0,010
-637,868	-92,032	0,036	0,007
-636,853	-200,000	0,015	-0,052
-635,838	261,789	-0,040	-0,050
-634,824	-129,548	-0,051	-0,005
-633,809	-200,000	-0,003	-0,026
-632,795	-200,000	0,003	-0,021
-631,780	800,000	0,030	0,076
-630,765	508,476	0,009	0,016
-629,751	67,169	0,047	-0,035
-628,736	241,959	0,053	0,064
-627,722	800,000	-0,045	-0,123
-626,707	29,269	0,143	0,088
-625,692	3,568	0,145	0,077
-624,678	-200,000	-0,021	0,086
-623,663	-200,000	0,004	-0,098
-622,649	271,572	-0,028	-0,035
-621,634	278,546	0,063	-0,081
-620,619	-200,000	0,002	0,031
-619,605	-93,665	0,076	-0,015
-618,590	-20,986	-0,141	0,062
-617,576	-173,351	-0,075	0,002
-616,561	-200,000	0,007	0,054
-615,546	255,708	-0,083	-0,103
-614,532	-92,425	-0,100	-0,020
-613,517	128,609	-0,031	0,028
-612,503	-95,079	-0,111	0,021
-611,488	-24,256	0,063	-0,027
-610,474	-105,809	0,058	0,009
-609,459	-13,255	-0,149	0,070
-608,444	-91,679	-0,061	0,012
-607,430	-200,000	-0,025	-0,139
-606,415	202,423	-0,099	-0,111
-605,401	104,675	0,073	0,062
-604,386	800,000	-0,068	0,179
-603,371	-200,000	0,015	0,054
-602,357	238,402	-0,081	-0,097
-601,342	55,972	-0,033	-0,023
-600,328	-2,705	0,029	0,014
-599,313	-13,092	-0,146	-0,068
-598,298	-200,000	0,003	-0,031
-597,284	-200,000	0,021	-0,103
-596,269	290,746	0,103	0,135
-595,255	-31,624	-0,110	0,044
-594,240	-74,881	-0,112	0,029
-593,225	72,266	-0,071	-0,054
-592,211	800,000	0,034	-0,077
-591,196	3,600	0,065	0,034
-590,182	208,256	-0,090	0,101
-589,167	491,055	0,051	-0,084
-588,152	375,501	-0,019	0,028
-587,138	77,266	-0,026	0,020
-586,123	153,466	-0,109	-0,108
-585,109	-200,000	-0,048	-0,191
-584,094	800,000	0,014	0,030
-583,079	120,686	0,106	0,096
-582,065	124,034	0,102	-0,093
-581,050	-90,064	-0,069	0,014
-580,036	394,595	-0,032	-0,048
-579,021	-72,555	-0,069	0,018
-578,006	101,729	0,030	-0,025
-576,992	-200,000	-0,001	0,063
-575,977	112,235	0,096	-0,084
-574,963	343,314	0,053	0,075
-573,948	121,988	-0,055	0,049
-572,934	337,984	-0,045	-0,063
-571,919	547,914	0,064	-0,110
-570,904	-200,000	0,008	0,084
-569,890	439,378	0,079	-0,125
-568,875	800,000	0,013	-0,028
-567,861	217,800	-0,028	0,033
-566,846	34,511	0,165	0,104
-565,831	-189,724	-0,087	-0,001
-564,817	119,201	0,045	-0,041
-563,802	394,568	-0,096	-0,144
-562,788	-34,663	0,066	-0,026
-561,773	148,118	0,079	-0,077
-560,758	-117,757	-0,005	-0,001
-559,744	-157,255	-0,084	0,004
-558,729	-49,442	0,022	-0,008
-557,715	754,732	0,042	-0,083
-556,700	133,564	-0,120	-0,112
-555,685	575,955	-0,095	-0,168
-554,671	300,374	0,042	0,056
-553,656	16,555	0,149	0,085
-552,642	268,444	-0,085	0,108
-551,627	44,286	0,055	-0,036
-550,612	-104,324	-0,074	0,012
-549,598	-200,000	-0,025	-0,196
-548,583	796,355	0,040	-0,080
-547,569	94,733	-0,100	-0,082
-546,554	-200,000	-0,011	-0,061
-545,539	749,345	0,073	-0,143
-544,525	205,722	-0,053	0,060
-543,510	800,000	0,049	-0,101
-542,496	207,147	-0,144	-0,162
-541,481	608,794	0,037	-0,068
-540,466	-73,019	-0,138	-0,036
-539,452	73,798	0,079	-0,060
-538,437	156,585	0,134	-0,133
-537,423	-140,772	0,061	0,004
-536,408	-47,792	-0,119	-0,041
-535,393	352,969	-0,044	-0,063
-534,379	-200,000	0,005	-0,132
-533,364	-200,000	-0,007	0,079
-532,350	-200,000	0,007	-0,089
-531,335	394,919	-0,066	0,100
-530,321	-200,000	0,005	0,029
-529,306	-67,238	0,111	-0,031
-528,291	64,069	0,005	-0,004
-527,277	-200,000	-0,004	-0,052
-526,262	281,367	0,141	0,182
-525,248	-200,000	0,003	-0,067
-524,233	-200,000	-0,005	0,058
-523,218	-200,000	0,036	0,133
-522,204	-152,689	0,096	0,005
-521,189	-62,414	-0,155	-0,046
-520,175	800,000	-0,039	0,092
-519,160	-18,157	-0,053	0,024
-518,145	-200,000	-0,006	-0,036
-517,131	719,166	-0,024	0,047
-516,116	-111,673	0,117	-0,017
-515,102	-11,834	-0,128	0,060
-514,087	315,278	0,016	-0,022
-513,072	-200,000	0,006	0,116
-512,058	17,512	0,052	-0,030
-511,043	111,989	-0,026	0,022
-510,029	800,000	0,078	0,164
-509,014	-113,573	0,041	0,006
-507,999	248,416	0,069	-0,084
-506,985	800,000	0,042	0,091
-505,970	-200,000	-0,023	-0,124
-504,956	247,100	0,096	-0,117
-503,941	173,222	0,057	0,059
-502,926	183,961	-0,047	0,050
-501,912	258,459	-0,044	0,054
-500,897	-139,177	0,060	0,005
-499,883	646,666	-0,045	0,083
-498,868	20,489	-0,033	-0,019
-497,853	-155,041	0,190	0,009
-496,839	146,686	-0,078	-0,075
-495,824	-26,774	-0,067	0,028
-494,810	151,308	0,064	-0,063
-493,795	-171,019	-0,145	-0,003
-492,781	-200,000	0,021	-0,100
-491,766	-65,266	-0,141	0,041
-490,751	-200,000	0,005	0,047
-489,737	-200,000	-0,002	0,010
-488,722	-111,672	0,083	-0,012
-487,708	385,150	-0,069	0,102
-486,693	3,561	-0,032	0,017
-485,678	16,490	0,180	0,102
-484,664	-143,658	-0,070	-0,005
-483,649	-200,000	-0,012	0,071
-482,635	66,307	-0,056	0,041
-481,620	224,240	0,049	-0,057
-480,605	-50,186	0,065	0,022
-479,591	-55,598	0,087	0,028
-478,576	190,653	-0,060	0,065
-477,562	-200,000	0,014	-0,058
-476,547	-200,000	-0,035	-0,129
-475,532	-122,158	-0,050	0,006
-474,518	-200,000	0,012	0,078
-473,503	-1,789	-0,096	0,048
-472,489	112,602	-0,114	-0,100
-471,474	-79,932	-0,046	-0,011
-470,459	55,562	0,053	-0,037
-469,445	-49,266	0,097	-0,033
-468,430	-37,083	0,062	0,024
-467,416	15,376	-0,018	0,010
-466,401	-85,433	-0,013	0,003
-465,386	-200,000	-0,007	0,057
-464,372	384,612	-0,023	0,035
-463,357	-200,000	-0,007	-0,129
-462,343	-20,990	-0,189	-0,083
-461,328	139,745	0,035	-0,033
-460,313	54,909	0,108	0,075
-459,299	13,667	-0,023	0,013
-458,284	-200,000	0,025	0,081
-457,270	-200,000	0,012	-0,066
-456,255	-200,000	-0,012	-0,085
-455,241	81,348	0,009	-0,007
-454,226	-132,760	-0,245	-0,022
-453,211	-200,000	0,035	0,127
-452,197	-96,320	0,119	-0,022
-451,182	-200,000	0,007	0,187
-450,168	-39,104	-0,098	0,037
-449,153	74,565	-0,131	0,099
-448,138	449,516	-0,079	0,125
-447,124	149,917	-0,041	0,040
-446,109	-200,000	0,009	-0,064
-445,095	-200,000	-0,006	0,024
-444,080	-152,185	0,125	-0,006
-443,065	244,737	-0,032	-0,039
-442,051	800,000	-0,005	-0,015
-441,036	-157,164	-0,080	0,003
-440,022	415,087	-0,011	-0,017
-439,007	800,000	-0,017	-0,048
-437,992	189,084	-0,057	-0,062
-436,978	800,000	0,049	0,099
-435,963	800,000	0,059	0,133
-434,949	543,900	0,052	0,090
-433,934	377,448	0,049	-0,072
-432,919	-200,000	-0,025	-0,087
-431,905	335,444	-0,047	0,065
-430,890	-200,000	0,010	0,093
-429,876	-54,832	0,119	-0,038
-428,861	321,255	-0,043	0,059
-427,846	-200,000	-0,001	0,042
-426,832	227,317	-0,026	-0,031
-425,817	51,538	-0,060	-0,041
-424,803	-105,837	-0,123	0,020
-423,788	-200,000	0,005	-0,075
-422,773	363,976	0,060	0,087
-421,759	800,000	-0,047	0,105
-420,744	-51,385	0,038	0,013
-419,730	-141,311	-0,173	-0,012
-418,715	-7,422	-0,054	0,026
-417,701	-90,898	0,034	0,007
-416,686	-200,000	0,007	-0,137
-415,671	800,000	0,032	0,092
-414,657	-200,000	-0,003	-0,015
-413,642	800,000	-0,060	-0,176
-412,628	141,686	0,084	-0,080
-411,613	-103,210	-0,119	-0,020
-410,598	-200,000	0,017	-0,115
-409,584	91,054	-0,109	-0,088
-408,569	800,000	0,049	0,136
-407,555	-200,000	-0,028	0,169
-406,540	-200,000	0,008	0,158
-405,525	-195,729	0,161	-0,001
-404,511	-200,000	-0,056	-0,192
-403,496	-85,301	0,087	0,019
-402,482	346,903	0,039	0,055
-401,467	-89,901	0,046	0,010
-400,452	-200,000	0,000	-0,020
-399,438	592,280	-0,035	-0,063
-398,423	800,000	0,003	0,006
-397,409	186,510	0,098	-0,104
-396,394	48,519	0,071	-0,047
-395,379	762,856	0,052	-0,102
-394,365	197,007	0,070	-0,077
-393,350	111,532	0,055	-0,047
-392,336	800,000	0,021	0,054
-391,321	502,926	0,079	0,132
-390,306	106,136	0,064	-0,054
-389,292	800,000	-0,063	-0,141
-388,277	-200,000	0,014	-0,059
-387,263	112,635	0,079	0,069
-386,248	800,000	-0,012	0,030
-385,233	562,808	0,024	-0,042
-384,219	43,576	-0,113	-0,074
-383,204	-34,575	-0,129	0,051
-382,190	-200,000	-0,003	0,113
-381,175	-183,201	0,031	0,000
-380,160	79,082	-0,033	-0,026
-379,146	95,495	-0,003	0,003
-378,131	-112,149	-0,088	-0,013
-377,117	450,675	0,027	-0,043
-376,102	800,000	0,065	-0,137
-375,088	-2,099	0,035	-0,018
-374,073	81,833	0,027	-0,021
-373,058	-99,180	-0,035	-0,006
-372,044	-43,693	0,094	-0,034
-371,029	568,139	-0,024	-0,043
-370,015	687,961	-0,011	-0,021
-369,000	-200,000	0,042	0,132
-367,985	297,480	0,093	0,123
-366,971	283,168	0,045	-0,058
-365,956	41,813	-0,049	0,032
-364,942	800,000	-0,018	-0,054
-363,927	16,693	0,035	0,020
-362,912	-200,000	0,013	0,061
-361,898	15,641	-0,024	-0,013
-360,883	634,212	-0,024	-0,044
-359,869	-33,331	0,098	0,039
-358,854	-200,000	-0,013	0,054
-357,839	166,985	-0,023	0,024
-356,825	4,338	-0,150	-0,078
-355,810	241,203	-0,069	0,083
-354,796	392,852	0,044	0,065
-353,781	600,322	-0,032	-0,057
-352,766	-85,884	0,001	-0,000
-351,752	-200,000	0,003	-0,137
-350,737	800,000	0,062	0,166
-349,723	-148,101	0,058	-0,003
-348,708	-200,000	0,007	-0,059
-347,693	800,000	0,038	0,119
-346,679	127,480	-0,038	-0,034
-345,664	-27,538	-0,144	-0,060
-344,650	800,000	0,031	-0,063
-343,635	157,148	-0,058	-0,058
-342,620	96,004	0,086	-0,070
-341,606	-136,097	0,049	0,004
-340,591	-150,636	0,035	0,002
-339,577	-125,695	-0,016	-0,002
-338,562	-30,850	-0,079	0,032
-337,548	-200,000	0,010	-0,088
-336,533	63,784	0,129	-0,093
-335,518	209,993	0,057	0,064
-334,504	800,000	0,046	0,138
-333,489	800,000	0,016	-0,036
-332,475	119,356	0,104	-0,092
-331,460	-81,347	0,150	-0,035
-330,445	-98,988	-0,147	-0,027
-329,431	227,508	0,028	0,033
-328,416	323,483	0,086	-0,118
-327,402	330,619	-0,101	0,140
-326,387	690,710	-0,032	-0,060
-325,372	179,143	0,020	0,021
-324,358	-200,000	-0,011	-0,057
-323,343	335,317	-0,054	0,075
-322,329	368,753	0,049	-0,071
-321,314	800,000	0,023	-0,049
-320,299	-52,138	0,025	0,008
-319,285	-200,000	-0,002	0,024
-318,270	-200,000	-0,014	-0,116
-317,256	-32,771	0,113	0,045
-316,241	-200,000	-0,010	-0,139
-315,226	-108,550	-0,041	0,006
-314,212	800,000	0,046	-0,100
-313,197	-111,573	0,189	0,027
-312,183	800,000	-0,035	0,078
-311,168	313,273	0,037	0,050
-310,153	773,810	0,057	0,111
-309,139	-57,949	-0,071	-0,022
-308,124	78,335	0,135	-0,103
-307,110	141,489	0,035	0,033
-306,095	-200,000	-0,003	0,161
-305,080	-200,000	-0,023	0,094
-304,066	800,000	-0,064	-0,141
-303,051	800,000	-0,036	-0,103
-302,037	-19,505	-0,102	0,045
-301,022	32,592	-0,101	-0,062
-300,008	-142,383	0,033	-0,002
-298,993	-200,000	-0,006	0,109
-297,978	50,286	-0,086	0,058
-296,964	82,281	0,027	0,021
-295,949	742,560	-0,011	-0,021
-294,935	-59,035	0,069	-0,021
-293,920	-106,837	0,064	0,010
-292,905	50,444	0,058	-0,039
-291,891	785,835	0,046	0,090
-290,876	-200,000	-0,058	0,211
-289,862	286,005	-0,054	0,070
-288,847	-20,836	-0,020	-0,009
-287,832	36,090	-0,133	-0,083
-286,818	147,028	0,027	-0,026
-285,803	-26,891	0,110	0,046
-284,789	125,524	0,047	-0,042
-283,774	800,000	0,055	0,134
-282,759	79,876	0,068	0,052
-281,745	-159,855	0,010	-0,000
-280,730	-200,000	0,015	-0,073
-279,716	-200,000	-0,006	0,101
-278,701	-62,081	-0,059	-0,017
-277,686	-70,357	0,042	-0,011
-276,672	-200,000	0,008	0,113
-275,657	-58,232	0,060	0,018
-274,643	-200,000	0,003	0,026
-273,628	-200,000	-0,012	0,066
-272,613	-100,838	0,168	-0,029
-271,599	800,000	0,013	0,039
-270,584	-68,736	0,070	0,019
-269,570	-200,000	0,002	-0,015
-268,555	800,000	0,030	0,070
-267,540	174,619	-0,142	0,147
-266,526	-115,668	-0,113	-0,015
-265,511	-119,635	-0,050	0,006
-264,497	184,826	0,053	-0,056
-263,482	800,000	-0,024	0,058
-262,467	445,619	-0,002	-0,004
-261,453	562,790	0,046	0,079
-260,438	-39,305	-0,046	-0,017
-259,424	346,850	-0,064	-0,089
-258,409	800,000	-0,035	-0,072
-257,395	-39,546	-0,054	0,020
-256,380	-96,303	0,015	0,003
-255,365	-200,000	0,010	0,081
-254,351	-200,000	0,013	0,046
-253,336	-132,649	-0,125	-0,011
-252,322	-200,000	0,004	-0,041
-251,307	-123,925	0,040	0,004
-250,292	77,421	0,084	-0,064
-249,278	519,660	0,040	-0,066
-248,263	422,649	0,036	0,056
-247,249	417,413	0,030	0,045
-246,234	-200,000	-0,015	-0,069
-245,219	524,090	-0,086	-0,144
-244,205	-200,000	-0,005	-0,107
-243,190	-110,729	0,086	0,013
-242,176	43,082	0,091	-0,059
-241,161	12,735	0,051	-0,028
-240,146	-200,000	-0,005	0,048
-239,132	800,000	0,020	-0,051
-238,117	140,366	-0,019	0,018
-237,103	800,000	0,057	-0,116
-236,088	800,000	0,007	-0,018
-235,073	-200,000	0,001	0,080
-234,059	42,841	-0,096	-0,063
-233,044	-109,597	0,028	-0,004
-232,030	-96,512	0,059	-0,011
-231,015	-114,256	-0,119	-0,016
-230,000	-49,097	0,110	0,037
-228,986	-200,000	-0,058	0,000
-227,971	800,000	-0,043	0,094
-226,957	221,224	-0,107	0,123
-225,942	-52,919	-0,099	0,032
-224,927	800,000	-0,034	0,099
-223,913	-200,000	0,009	-0,060
-222,898	-19,819	0,048	0,021
-221,884	-200,000	0,013	-0,075
-220,869	-37,835	0,100	0,038
-219,855	-172,654	-0,040	-0,001
-218,840	-103,569	-0,097	-0,016
-217,825	-200,000	-0,012	0,040
-216,811	8,738	-0,079	0,042
-215,796	800,000	-0,012	0,025
-214,782	-52,632	0,075	0,025
-213,767	730,932	-0,027	-0,052
-212,752	800,000	0,043	0,091
-211,738	-168,021	-0,059	0,002
-210,723	800,000	0,056	0,118
-209,709	617,647	-0,032	0,058
-208,694	-200,000	0,000	0,040
-207,679	-200,000	-0,003	-0,029
-206,665	-111,112	0,097	0,014
-205,650	-200,000	0,010	-0,068
-204,636	-7,134	0,104	0,050
-203,621	-200,000	-0,000	0,008
-202,606	-43,394	0,036	-0,013
-201,592	-200,000	-0,017	-0,177
-200,577	-158,546	-0,183	0,007
-199,563	-71,029	-0,049	0,013
-198,548	87,369	0,083	0,066
-197,533	-60,465	-0,075	-0,023
-196,519	-163,122	0,175	0,006
-195,504	372,480	0,059	-0,086
-194,490	-200,000	0,009	0,105
-193,475	180,747	0,072	0,075
-192,460	-200,000	-0,027	0,117
-191,446	-200,000	0,085	-0,000
-190,431	-119,203	-0,049	0,006
-189,417	-200,000	-0,000	-0,019
-188,402	-188,281	0,068	-0,001
-187,387	-109,152	-0,220	0,033
-186,373	344,424	-0,033	0,046
-185,358	-200,000	-0,024	0,121
-184,344	800,000	0,041	-0,099
-183,329	800,000	-0,033	0,070
-182,315	-86,070	0,070	0,015
-181,300	671,962	0,041	-0,075
-180,285	800,000	0,005	0,015
-179,271	-39,757	-0,117	0,043
-178,256	67,582	-0,021	-0,015
-177,242	23,005	-0,062	-0,036
-176,227	-200,000	0,006	0,242
-175,212	-63,968	-0,103	0,030
-174,198	-30,245	-0,069	0,028
-173,183	378,502	-0,013	0,019
-172,169	214,121	-0,031	0,035
-171,154	74,110	-0,164	-0,123
-170,139	-200,000	-0,021	-0,207
-169,125	127,078	0,081	0,073
-168,110	-200,000	-0,060	0,218
-167,096	-200,000	0,004	0,077
-166,081	430,071	-0,050	-0,077
-165,066	150,068	0,077	-0,074
-164,052	17,229	0,057	0,032
-163,037	-200,000	-0,005	0,038
-162,023	238,134	0,059	0,070
-161,008	45,830	0,085	0,055
-159,993	-200,000	-0,002	0,070
-158,979	-151,654	0,054	0,003
-157,964	71,707	0,091	-0,067
-156,950	-139,435	-0,084	-0,006
-155,935	88,392	0,126	-0,099
-154,920	340,556	-0,031	0,043
-153,906	-70,829	0,154	0,041
-152,891	-117,211	-0,116	0,015
-151,877	-200,000	-0,000	-0,033
-150,862	-164,945	-0,247	-0,008
-149,847	-200,000	-0,039	-0,153
-148,833	-89,153	0,134	0,028
-147,818	800,000	0,037	-0,115
-146,804	170,874	-0,034	-0,035
-145,789	22,491	0,092	0,054
-144,775	40,354	-0,056	0,036
-143,760	-200,000	-0,020	-0,127
-142,745	324,576	-0,050	-0,068
-141,731	-151,863	0,090	0,005
-140,716	21,630	0,085	0,049
-139,702	-80,471	0,054	-0,013
-138,687	-146,207	0,056	0,003
-137,672	-151,865	-0,111	-0,006
-136,658	157,402	-0,028	0,028
-135,643	-111,872	-0,111	0,016
-134,629	163,589	0,047	0,047
-133,614	-160,780	-0,025	-0,001
-132,599	608,358	0,082	-0,146
-131,585	-200,000	0,026	0,132
-130,570	248,178	0,035	-0,042
-129,556	134,535	-0,045	-0,041
-128,541	535,038	0,049	-0,082
-127,526	-200,000	0,027	0,086
-126,512	-200,000	-0,006	-0,020
-125,497	-139,475	-0,051	0,004
-124,483	398,306	0,122	0,182
-123,468	-135,352	0,026	-0,002
-122,453	-200,000	-0,004	-0,016
-121,439	148,745	-0,064	-0,061
-120,424	-138,587	-0,079	-0,006
-119,410	-200,000	-0,010	0,051
-118,395	108,663	-0,016	0,013
-117,380	-1,931	-0,106	0,053
-116,366	-74,578	-0,143	0,036
-115,351	681,425	0,027	-0,049
-114,337	800,000	0,044	-0,101
-113,322	800,000	-0,055	0,126
-112,307	-200,000	-0,027	0,106
-111,293	800,000	0,054	0,136
-110,278	-33,158	-0,033	-0,013
-109,264	-200,000	-0,008	-0,102
-108,249	22,158	-0,141	0,081
-107,234	1,133	0,009	-0,004
-106,220	-120,852	-0,050	-0,006
-105,205	520,390	-0,018	0,031
-104,191	123,727	0,069	0,061
-103,176	-200,000	0,000	0,067
-102,162	-200,000	-0,014	0,070
-101,147	-200,000	0,009	0,084
-100,132	-82,465	-0,066	0,015
-99,118	71,601	-0,055	-0,041
-98,103	701,830	-0,033	0,061
-97,089	253,931	-0,044	0,053
-96,074	-124,278	-0,034	-0,004
-95,059	-200,000	0,016	-0,093
-94,045	-200,000	0,011	-0,037
-93,030	282,868	-0,061	-0,078
-92,016	156,620	-0,090	-0,089
-91,001	392,418	0,056	-0,083
-89,986	252,577	-0,075	-0,091
-88,972	-200,000	-0,009	0,071
-87,957	91,923	0,095	0,076
-86,943	26,041	0,184	0,109
-85,928	475,823	0,017	-0,027
-84,913	179,834	0,010	0,011
-83,899	-90,900	-0,087	0,018
-82,884	176,094	0,085	0,088
-81,870	86,878	-0,101	-0,079
-80,855	42,263	0,089	0,057
-79,840	-200,000	0,017	-0,071
-78,826	16,363	-0,044	-0,024
-77,811	544,447	-0,063	0,106
-76,797	-99,373	-0,124	-0,022
-75,782	-119,936	0,220	0,026
-74,767	21,599	0,043	0,025
-73,753	60,304	0,085	-0,059
-72,738	768,779	0,038	0,074
-71,724	756,513	-0,021	0,040
-70,709	-142,576	0,037	0,003
-69,694	113,392	0,092	0,079
-68,680	-164,081	0,045	0,001
-67,665	429,847	0,070	-0,108
-66,651	-152,649	0,095	-0,005
-65,636	-200,000	0,006	-0,036
-64,622	-200,000	0,003	-0,168
-63,607	130,908	-0,062	0,056
-62,592	494,181	-0,028	-0,046
-61,578	-200,000	-0,030	-0,097
-60,563	-200,000	0,035	0,150
-59,549	-8,203	0,055	0,026
-58,534	-36,806	-1,641	-0,621
-57,519	347,824	-1,473	-2,061
-56,505	-200,000	-0,441	-4,640
-55,490	207,097	0,965	1,066
-54,476	800,000	4,933	11,410
-53,461	-200,000	19,029	312,242
-52,446	-200,000	738,882	2320,164
-51,432	574,363	1654,913	2869,897
-50,417	79,186	1671,299	1266,541
-49,403	21,885	1544,244	888,709
-48,388	15,751	1466,715	814,277
-47,373	17,829	1456,770	818,764
-46,359	16,804	1446,918	808,277
-45,344	13,993	1442,319	792,212
-44,330	13,924	1440,208	790,690
-43,315	13,928	1438,381	789,674
-42,300	13,941	1436,681	788,771
-41,286	13,963	1435,803	788,362
-40,271	13,942	1434,285	787,397
-39,257	13,906	1433,272	786,641
-38,242	13,999	1431,854	786,270
-37,227	13,983	1430,510	785,428
-36,213	13,971	1429,069	784,548
-35,198	13,956	1428,195	783,966
-34,184	13,995	1427,300	783,628
-33,169	13,954	1425,689	782,519
-32,154	13,992	1424,761	782,157
-31,140	14,007	1423,431	781,468
-30,125	14,022	1422,410	780,945
-29,111	13,953	1421,385	780,028
-28,096	13,977	1420,247	779,486
-27,082	13,903	1419,145	778,501
-26,067	13,898	1417,853	777,737
-25,052	13,891	1417,217	777,326
-24,038	13,821	1416,084	776,344
-23,023	13,888	1414,741	775,892
-22,009	13,871	1414,092	775,424
-20,994	13,858	1413,232	774,860
-19,979	13,823	1412,207	774,104
-18,965	13,846	1411,210	773,635
-17,950	13,826	1410,270	772,994
-16,936	13,870	1409,331	772,657
-15,921	13,805	1408,295	771,751
-14,906	13,802	1407,477	771,259
-13,892	13,803	1406,368	770,624
-12,877	13,797	1405,711	770,207
-11,863	13,808	1404,772	769,715
-10,848	13,805	1403,792	769,133
-9,833	13,777	1402,897	768,480
-8,819	13,719	1402,088	767,739
-7,804	13,704	1401,058	767,075
-6,790	13,714	1400,023	766,523
-5,775	13,741	1398,922	766,015
-4,760	13,718	1398,114	765,434
-3,746	13,731	1397,191	764,960
-2,731	13,730	1396,359	764,470
-1,717	13,709	1395,708	763,985
-0,702	13,647	1393,943	762,702
0,313	17,456	1311,225	735,108
1,327	33,676	705,519	433,091
2,342	51,708	123,750	83,138
3,356	1,972	16,759	8,527
4,371	15,889	3,217	1,786
5,386	-135,562	0,612	0,051
6,400	763,508	0,082	0,159
7,415	197,972	-0,147	-0,159
8,429	-0,884	-0,287	-0,143
9,444	1,889	-0,347	-0,176
10,459	-123,225	-0,305	-0,034
11,473	175,596	-0,178	-0,182
12,488	0,215	-0,359	-0,181
13,502	-9,717	-0,453	-0,213
14,517	77,393	-0,190	-0,143
15,531	120,723	-0,367	-0,322
16,546	33,502	-0,337	-0,206
17,561	116,387	-0,338	-0,293
18,575	39,489	-0,189	-0,119
19,590	-160,697	-0,323	-0,012
20,604	-16,145	-0,255	-0,114
21,619	-23,847	-0,455	-0,191
22,634	165,137	-0,453	-0,452
23,648	121,333	-0,335	-0,295
24,663	109,827	-0,386	-0,327
25,677	138,455	-0,327	-0,303
26,692	117,759	-0,395	-0,343
27,707	-21,039	-0,389	-0,167
28,721	128,269	-0,419	-0,376
29,736	22,039	-0,433	-0,249
30,750	105,207	-0,328	-0,273
31,765	8,190	-0,346	-0,183
32,780	18,253	-0,363	-0,204
33,794	195,176	-0,276	-0,297
34,809	-44,657	-0,382	-0,134
35,823	11,875	-0,388	-0,209
36,838	35,277	-0,440	-0,272
37,853	137,505	-0,310	-0,286
38,867	143,273	-0,347	-0,326
39,882	-6,775	-0,284	-0,136
40,896	79,254	-0,330	-0,249
41,911	-14,726	-0,349	-0,157
42,926	18,743	-0,400	-0,225
43,940	26,831	-0,349	-0,205
44,955	663,136	-0,180	-0,329
45,969	33,835	-0,433	-0,265
46,984	15,968	-0,367	-0,203
47,999	-17,521	-0,355	-0,157
49,013	-5,895	-0,393	-0,189
50,028	182,198	-0,279	-0,290
51,042	11,413	-0,413	-0,222
52,057	70,634	-0,422	-0,307
53,071	152,232	-0,279	-0,268
54,086	65,021	-0,405	-0,288
55,101	172,492	-0,271	-0,275
56,115	57,183	-0,331	-0,227
57,130	-66,282	-0,439	-0,122
58,144	78,096	-0,444	-0,333
59,159	5,958	-0,387	-0,201
60,174	46,483	-0,335	-0,219
61,188	-74,104	-0,282	-0,071
62,203	132,978	-0,285	-0,259
63,217	-53,595	-0,320	-0,102
64,232	-69,802	-0,310	-0,083
65,247	-8,247	-0,259	-0,122
66,261	-23,948	-0,283	-0,119
67,276	4,260	-0,374	-0,192
68,290	35,810	-0,237	-0,146
69,305	156,663	-0,289	-0,281
70,320	-129,017	-0,267	-0,026
71,334	81,155	-0,380	-0,288
72,349	96,163	-0,196	-0,157
73,363	251,682	-0,260	-0,312
74,378	-34,213	-0,470	-0,181
75,393	104,888	-0,269	-0,223
76,407	159,031	-0,293	-0,286
77,422	26,814	-0,274	-0,161
78,436	-96,404	-0,330	-0,061
79,451	85,437	-0,388	-0,299
80,466	114,967	-0,379	-0,324
81,480	62,594	-0,330	-0,231
82,495	59,544	-0,368	-0,255
83,509	-41,364	-0,378	-0,136
84,524	-82,596	-0,394	-0,089
85,539	31,472	-0,259	-0,156
86,553	-67,438	-0,264	-0,072
87,568	14,630	-0,369	-0,202
88,582	-37,424	-0,367	-0,137
89,597	240,666	-0,128	-0,150
90,611	-34,888	-0,343	-0,131
91,626	-32,047	-0,348	-0,136
92,641	-75,300	-0,265	-0,066
93,655	-88,181	-0,302	-0,063
94,670	23,305	-0,363	-0,209
95,684	493,330	-0,201	-0,324
96,699	27,115	-0,429	-0,252
97,714	-13,428	-0,269	-0,122
98,728	25,066	-0,235	-0,136
99,743	800,000	-0,082	-0,190
100,757	81,403	-0,175	-0,132
101,772	-33,799	-0,509	-0,196
102,787	52,234	-0,372	-0,248
103,801	-21,187	-0,275	-0,117
104,816	-54,030	-0,187	0,059
105,830	196,397	-0,229	-0,245
106,845	40,975	-0,306	-0,193
107,860	34,759	-0,219	-0,134
108,874	55,139	-0,282	-0,190
109,889	82,646	-0,317	-0,241
110,903	29,396	-0,284	-0,169
111,918	643,984	-0,123	-0,222
112,933	104,911	-0,230	-0,190
113,947	-10,331	-0,285	-0,132
114,962	-27,733	-0,336	-0,136
115,976	80,867	-0,336	-0,253
116,991	87,566	-0,265	-0,206
118,006	3,139	-0,409	-0,208
119,020	173,693	-0,224	-0,227
120,035	154,148	-0,218	-0,209
121,049	12,223	-0,148	-0,080
122,064	20,417	-0,240	-0,135
123,079	73,942	-0,284	-0,209
124,093	800,000	-0,137	-0,272
125,108	33,110	-0,213	-0,129
126,122	56,677	-0,192	-0,130
127,137	-21,233	-0,326	-0,139
128,151	40,491	-0,192	-0,121
129,166	244,721	-0,174	-0,205
130,181	31,961	-0,212	-0,128
131,195	200,063	-0,189	-0,203
132,210	15,245	-0,421	-0,230
133,224	-28,183	-0,200	-0,080
134,239	92,911	-0,219	-0,173
135,254	-29,947	-0,198	-0,079
136,268	-47,107	-0,239	-0,081
137,283	16,761	-0,167	-0,092
138,297	47,296	-0,257	-0,167
139,312	89,821	-0,216	-0,168
140,327	72,694	-0,212	-0,154
141,341	73,108	-0,321	-0,234
142,356	186,840	-0,159	-0,166
143,370	42,193	-0,191	-0,121
144,385	-2,658	-0,323	-0,157
145,400	86,327	-0,342	-0,263
146,414	-13,437	-0,311	-0,140
147,429	57,487	-0,236	-0,161
148,443	159,053	-0,184	-0,179
149,458	74,020	-0,210	-0,154
150,473	550,353	-0,131	-0,220
151,487	-14,335	-0,376	-0,169
152,502	774,232	-0,157	-0,300
153,516	19,553	-0,362	-0,203
154,531	-8,472	-0,260	-0,122
155,546	19,172	-0,220	-0,123
156,560	171,271	-0,288	-0,289
157,575	-96,441	-0,298	-0,054
158,589	150,570	-0,167	-0,159
159,604	219,416	-0,164	-0,184
160,619	-10,504	-0,461	-0,212
161,633	64,143	-0,245	-0,172
162,648	-41,533	-0,224	-0,080
163,662	800,000	-0,056	-0,109
164,677	-113,679	-0,263	-0,035
165,692	-123,611	-0,303	-0,033
166,706	219,879	-0,241	-0,270
167,721	140,722	-0,206	-0,190
168,735	-28,929	-0,401	-0,160
169,750	184,621	-0,176	-0,182
170,764	54,960	-0,223	-0,150
171,779	290,956	-0,202	-0,257
172,794	-126,678	-0,160	-0,016
173,808	92,039	-0,269	-0,211
174,823	-15,024	-0,245	-0,109
175,837	594,234	-0,187	-0,324
176,852	42,526	-0,223	-0,141
177,867	670,404	-0,133	-0,240
178,881	608,204	-0,093	-0,163
179,896	40,111	-0,314	-0,196
180,910	-32,215	-0,264	-0,102
181,925	47,074	-0,282	-0,183
182,940	350,319	-0,181	-0,249
183,954	39,071	-0,290	-0,180
184,969	180,061	-0,193	-0,197
185,983	35,362	-0,264	-0,161
186,998	105,145	-0,161	-0,133
188,013	800,000	-0,053	-0,109
189,027	184,716	-0,200	-0,206
190,042	800,000	-0,141	-0,272
191,056	275,247	-0,179	-0,221
192,071	-0,519	-0,265	-0,130
193,086	95,354	-0,178	-0,141
194,100	557,915	-0,090	-0,151
195,115	56,967	-0,172	-0,116
196,129	214,844	-0,266	-0,294
197,144	25,274	-0,285	-0,164
198,159	68,019	-0,220	-0,156
199,173	-8,403	-0,137	-0,064
200,188	-32,619	-0,244	-0,094
201,202	103,080	-0,240	-0,196
202,217	109,928	-0,184	-0,153
203,232	51,470	-0,219	-0,144
204,246	-6,042	-0,165	-0,078
205,261	-40,301	-0,315	-0,113
206,275	270,013	-0,186	-0,228
207,290	133,755	-0,183	-0,165
208,304	38,693	-0,165	-0,102
209,319	23,603	-0,107	-0,061
210,334	-69,592	-0,285	-0,075
211,348	84,279	-0,242	-0,184
212,363	191,083	-0,229	-0,240
213,377	86,785	-0,241	-0,185
214,392	262,035	-0,137	-0,165
215,407	800,000	-0,069	-0,132
216,421	-37,592	-0,153	-0,056
217,436	800,000	-0,105	-0,244
218,450	191,466	-0,220	-0,230
219,465	151,820	-0,179	-0,170
220,480	-151,048	-0,233	0,012
221,494	197,591	-0,121	-0,129
222,509	81,222	-0,210	-0,157
223,523	58,545	-0,134	-0,091
224,538	-99,934	-0,192	-0,033
225,553	51,861	-0,099	-0,065
226,567	-16,077	-0,182	-0,080
227,582	101,133	-0,233	-0,188
228,596	54,253	-0,125	-0,084
229,611	152,994	-0,136	-0,129
230,626	66,966	-0,219	-0,154
231,640	-80,864	-0,249	0,057
232,655	-20,632	-0,252	-0,107
233,669	67,223	-0,234	-0,165
234,684	-0,708	-0,262	-0,128
235,699	-102,244	-0,202	-0,033
236,713	-200,000	0,046	-0,244
237,728	-200,000	-0,036	-0,195
238,742	800,000	-0,077	-0,168
239,757	84,698	-0,227	-0,172
240,772	137,909	-0,263	-0,238
241,786	101,743	-0,183	-0,147
242,801	-200,000	-0,012	-0,057
243,815	-52,151	-0,125	-0,040
244,830	84,963	-0,063	-0,048
245,844	-72,744	-0,169	0,043
246,859	85,348	-0,161	-0,122
247,874	269,928	-0,161	-0,196
248,888	-114,526	-0,205	-0,027
249,903	30,583	-0,234	-0,138
250,917	294,220	-0,163	-0,207
251,932	609,693	-0,095	-0,165
252,947	189,615	-0,075	-0,078
253,961	800,000	-0,144	-0,281
254,976	469,999	-0,156	-0,243
255,990	157,504	-0,138	-0,133
257,005	150,156	-0,147	-0,138
258,020	-51,488	-0,261	-0,084
259,034	-136,444	-0,156	-0,012
260,049	-200,000	0,001	-0,061
261,063	-163,117	-0,228	-0,007
262,078	15,128	-0,225	-0,122
263,093	274,355	-0,141	-0,173
264,107	-115,054	-0,247	-0,032
265,122	-98,774	-0,074	-0,013
266,136	-20,100	-0,196	0,083
267,151	50,708	-0,130	-0,085
268,166	529,088	-0,124	-0,203
269,180	191,546	-0,156	-0,163
270,195	706,544	-0,144	-0,265
271,209	-88,459	-0,144	-0,029
272,224	213,631	-0,108	-0,118
273,239	259,484	-0,068	-0,082
274,253	287,718	-0,179	-0,224
275,268	-200,000	-0,001	-0,165
276,282	800,000	-0,095	-0,207
277,297	138,263	-0,138	-0,125
278,312	800,000	-0,099	-0,201
279,326	261,040	-0,173	-0,207
280,341	-62,692	-0,177	-0,050
281,355	11,711	-0,139	-0,073
282,370	-178,621	-0,164	0,003
283,384	-67,093	-0,156	-0,042
284,399	43,491	-0,239	-0,151
285,414	36,099	-0,157	-0,095
286,428	800,000	-0,063	-0,157
287,443	465,301	-0,061	-0,095
288,457	-179,711	-0,159	0,002
289,472	-50,625	-0,259	-0,084
290,487	284,159	-0,136	-0,169
291,501	88,114	-0,196	-0,150
292,516	800,000	-0,064	-0,182
293,530	-2,415	-0,201	-0,097
294,545	-119,565	-0,158	-0,019
295,560	-37,883	-0,137	0,050
296,574	296,301	-0,050	-0,063
297,589	-55,186	-0,116	-0,036
298,603	11,367	-0,263	-0,139
299,618	68,296	-0,141	-0,099
300,633	-96,039	-0,180	-0,033
301,647	-104,713	-0,112	0,018
302,662	-200,000	-0,042	-0,234
303,676	-60,438	-0,200	-0,058
304,691	747,666	-0,144	-0,269
305,706	37,807	-0,205	-0,125
306,720	-109,255	-0,189	-0,027
307,735	200,921	-0,125	-0,133
308,749	800,000	0,029	-0,073
309,764	-200,000	0,000	0,019
310,779	-112,138	-0,158	-0,022
311,793	45,316	-0,118	-0,075
312,808	193,803	-0,102	-0,106
313,822	-134,230	-0,277	-0,023
314,837	-46,034	-0,254	-0,086
315,852	-120,628	-0,093	-0,011
316,866	-200,000	-0,034	-0,204
317,881	-134,712	-0,117	-0,010
318,895	264,870	-0,148	-0,178
319,910	80,557	-0,045	-0,033
320,925	132,279	-0,169	-0,149
321,939	-15,234	-0,209	-0,092
322,954	138,804	-0,053	-0,048
323,968	-95,355	-0,074	0,013
324,983	-12,404	-0,146	0,065
325,997	112,575	-0,147	-0,123
327,012	-63,290	-0,178	-0,050
328,027	28,537	-0,132	-0,077
329,041	406,131	-0,116	-0,169
330,056	-200,000	-0,030	-0,138
331,070	-200,000	-0,019	-0,068
332,085	621,867	-0,049	-0,085
333,100	-96,659	-0,059	-0,011
334,114	43,473	-0,200	-0,125
335,129	10,673	-0,198	-0,103
336,143	137,352	-0,157	-0,141
337,158	218,685	-0,110	-0,120
338,173	800,000	-0,059	-0,122
339,187	-46,695	-0,228	-0,076
340,202	98,433	-0,095	-0,075
341,216	800,000	-0,026	-0,067
342,231	81,131	-0,203	-0,150
343,246	-179,975	-0,132	-0,002
344,260	-200,000	-0,033	-0,224
345,275	-160,499	-0,136	-0,005
346,289	-121,388	-0,143	0,016
347,304	-193,475	-0,084	0,000
348,319	-180,433	-0,084	0,001
349,333	723,031	-0,076	-0,140
350,348	-61,069	-0,142	0,041
351,362	491,825	-0,087	-0,137
352,377	80,189	-0,112	0,083
353,392	331,569	-0,115	-0,152
354,406	214,187	-0,094	-0,102
355,421	206,991	1315,925	1408,729
356,435	159,209	1476,797	1409,217
