DTS Sentinel unit serial number:	SN410029Multiplexer serial number:	ORYXHardware model number:	OX2-SRSoftware version number:	ORYX F/W v4,00 Oryx Data Collector v3.7.2.0data status	okinstallation	B3 Nyhavnadifferential loss correction	single-endedforward channel	channel 1reverse channel	N/Adate	2023/12/01time	21:12:30forward acquisition time	300,00reverse acquisition time	0,00gamma	499,1914k internal	0,3197k external	0,3197temperature offset calibration	1,0000default loss term (dB/km)	0,3820temperature slope calibration	1,0000multiplexer offset coefficient	1,0000multiplexer slope coefficient	1,0000fibre end	0,00T internal ref (°C)	16,02T ext. ref 1 (°C)	1,29T ext. ref 2 (°C)	1,29length (m)	temperature (°C)	Stokes	anti-Stokes-744,400	47,194	-0,332	-0,225
-743,385	-200,000	0,023	0,352
-742,371	437,268	-0,243	-0,387
-741,356	-200,000	0,116	0,492
-740,342	-200,000	-0,058	-0,213
-739,327	800,000	-0,105	0,307
-738,312	218,171	-0,240	-0,279
-737,298	774,354	0,067	0,134
-736,283	217,986	-0,311	-0,362
-735,269	430,752	0,123	0,195
-734,254	185,729	-0,161	-0,174
-733,239	765,986	-0,077	0,153
-732,225	296,474	-0,207	-0,277
-731,210	426,006	0,114	0,180
-730,196	24,150	0,086	-0,052
-729,181	-117,824	-0,070	-0,009
-728,167	88,853	-0,062	0,050
-727,152	16,719	-0,069	0,040
-726,137	800,000	-0,028	0,080
-725,123	438,454	-0,057	0,092
-724,108	800,000	-0,021	-0,068
-723,094	17,806	-0,200	-0,116
-722,079	-200,000	-0,006	-0,021
-721,064	800,000	0,022	-0,069
-720,050	134,881	0,032	-0,030
-719,035	-200,000	0,006	0,034
-718,021	-200,000	-0,013	-0,170
-717,006	-86,600	-0,168	-0,037
-715,991	160,746	-0,103	-0,105
-714,977	-200,000	0,009	0,057
-713,962	-61,115	-0,094	0,029
-712,948	85,907	-0,029	-0,024
-711,933	-200,000	0,010	0,188
-710,918	-173,718	-0,090	0,002
-709,904	379,273	0,012	-0,018
-708,889	-200,000	-0,014	0,071
-707,875	45,720	-0,110	-0,074
-706,860	-200,000	-0,002	-0,012
-705,845	747,815	0,112	0,220
-704,831	-8,776	0,051	-0,025
-703,816	-84,371	0,079	-0,018
-702,802	-200,000	-0,022	-0,114
-701,787	-72,445	-0,076	-0,020
-700,772	800,000	-0,088	-0,235
-699,758	-60,539	-0,139	-0,043
-698,743	151,763	0,132	0,131
-697,729	800,000	0,004	-0,010
-696,714	-154,643	-0,128	-0,006
-695,699	79,136	-0,114	-0,088
-694,685	585,942	-0,077	-0,138
-693,670	-200,000	-0,050	-0,186
-692,656	766,876	-0,005	-0,010
-691,641	-200,000	-0,045	0,169
-690,627	-88,431	0,124	-0,027
-689,612	-132,484	-0,052	-0,005
-688,597	-157,659	-0,183	-0,008
-687,583	-130,171	-0,060	-0,006
-686,568	-30,214	0,120	-0,050
-685,554	20,799	-0,105	0,062
-684,539	-200,000	0,018	-0,067
-683,524	716,823	0,042	-0,081
-682,510	-69,612	0,102	0,028
-681,495	-61,271	-0,128	0,039
-680,481	519,240	-0,054	0,093
-679,466	42,908	-0,126	0,083
-678,451	800,000	-0,038	-0,118
-677,437	-200,000	-0,013	-0,047
-676,422	193,545	-0,092	0,101
-675,408	-200,000	-0,011	-0,125
-674,393	-200,000	-0,031	-0,107
-673,378	86,299	0,062	-0,050
-672,364	75,794	-0,072	-0,055
-671,349	-114,480	-0,050	0,007
-670,335	77,829	-0,107	-0,083
-669,320	-157,417	0,098	-0,004
-668,305	800,000	-0,028	0,085
-667,291	-44,495	-0,166	-0,060
-666,276	-200,000	0,002	-0,093
-665,262	-200,000	0,003	-0,068
-664,247	-200,000	-0,006	-0,135
-663,232	-200,000	-0,002	-0,054
-662,218	800,000	0,016	0,041
-661,203	-20,194	-0,096	0,043
-660,189	800,000	-0,054	-0,113
-659,174	145,476	-0,179	-0,174
-658,159	-200,000	-0,007	-0,040
-657,145	251,420	0,072	-0,089
-656,130	59,724	-0,123	-0,088
-655,116	194,021	0,046	0,051
-654,101	800,000	-0,032	0,072
-653,086	-82,977	0,194	-0,045
-652,072	-87,023	-0,101	0,022
-651,057	731,357	0,032	0,062
-650,043	-33,400	-0,124	-0,049
-649,028	74,729	-0,045	-0,034
-648,014	7,913	0,094	-0,051
-646,999	-200,000	0,006	-0,074
-645,984	-200,000	0,022	-0,224
-644,970	-50,774	0,110	-0,037
-643,955	76,523	-0,077	-0,059
-642,941	504,242	0,026	-0,044
-641,926	-200,000	-0,009	-0,118
-640,911	-200,000	0,006	0,075
-639,897	-200,000	-0,022	0,072
-638,882	-200,000	-0,005	-0,074
-637,868	20,793	-0,079	-0,047
-636,853	449,612	-0,016	0,025
-635,838	-200,000	0,044	0,145
-634,824	233,367	-0,095	0,113
-633,809	-200,000	-0,018	-0,122
-632,795	-200,000	-0,015	-0,195
-631,780	373,487	0,039	0,057
-630,765	-77,097	-0,098	-0,025
-629,751	-200,000	-0,004	-0,065
-628,736	506,851	-0,104	-0,175
-627,722	-61,917	-0,081	0,024
-626,707	184,787	0,064	-0,068
-625,692	352,967	0,102	0,146
-624,678	-200,000	0,017	0,136
-623,663	251,369	-0,056	-0,069
-622,649	-200,000	0,000	-0,048
-621,634	-200,000	0,038	-0,167
-620,619	-126,104	-0,033	-0,004
-619,605	-200,000	-0,034	-0,116
-618,590	6,697	0,018	-0,010
-617,576	-86,264	0,070	0,016
-616,561	234,745	0,054	0,064
-615,546	-149,100	-0,054	0,003
-614,532	191,745	0,067	0,074
-613,517	-200,000	-0,000	0,107
-612,503	-88,698	0,146	-0,031
-611,488	-200,000	-0,023	0,120
-610,474	14,197	0,153	0,086
-609,459	5,644	-0,078	-0,042
-608,444	517,510	-0,093	-0,158
-607,430	-85,374	-0,102	0,023
-606,415	85,105	-0,024	-0,019
-605,401	532,956	-0,029	-0,051
-604,386	-200,000	-0,008	0,107
-603,371	520,466	-0,102	-0,175
-602,357	-125,210	0,122	-0,013
-601,342	-26,582	-0,080	-0,034
-600,328	85,165	-0,046	-0,036
-599,313	297,527	-0,119	0,159
-598,298	-37,131	0,062	-0,024
-597,284	181,652	-0,038	-0,040
-596,269	-200,000	-0,018	-0,111
-595,255	-64,580	0,029	0,008
-594,240	-185,004	-0,070	0,001
-593,225	800,000	0,031	-0,082
-592,211	-121,837	-0,043	-0,005
-591,196	602,207	0,069	0,125
-590,182	288,741	0,022	0,029
-589,167	-200,000	0,001	0,220
-588,152	-200,000	0,029	-0,127
-587,138	620,501	0,025	0,045
-586,123	341,893	-0,052	-0,075
-585,109	101,939	0,048	-0,041
-584,094	-200,000	0,007	-0,115
-583,079	800,000	0,050	-0,133
-582,065	800,000	-0,018	-0,040
-581,050	103,433	0,048	-0,040
-580,036	-152,367	-0,139	0,007
-579,021	-200,000	-0,022	0,118
-578,006	-63,475	-0,115	-0,034
-576,992	322,507	0,042	-0,058
-575,977	800,000	0,039	0,096
-574,963	800,000	-0,037	0,099
-573,948	415,460	-0,056	-0,086
-572,934	-200,000	0,010	0,057
-571,919	-200,000	-0,029	-0,114
-570,904	800,000	0,020	-0,048
-569,890	48,724	0,046	-0,031
-568,875	800,000	0,023	0,060
-567,861	154,165	0,079	-0,079
-566,846	64,700	0,068	0,049
-565,831	173,422	-0,041	-0,043
-564,817	800,000	-0,072	-0,152
-563,802	-200,000	0,007	-0,082
-562,788	-200,000	0,020	-0,104
-561,773	26,871	-0,142	-0,086
-560,758	282,223	0,045	-0,058
-559,744	-200,000	-0,008	-0,047
-558,729	406,320	0,040	0,062
-557,715	0,234	-0,085	0,044
-556,700	-26,633	-0,079	-0,033
-555,685	800,000	-0,028	-0,071
-554,671	11,279	-0,180	0,100
-553,656	775,086	0,011	0,023
-552,642	-200,000	-0,007	-0,030
-551,627	195,387	0,077	0,085
-550,612	-188,334	-0,081	0,001
-549,598	-200,000	0,053	-0,201
-548,583	800,000	0,043	-0,093
-547,569	-117,489	0,036	0,005
-546,554	30,670	0,027	0,017
-545,539	-200,000	-0,029	0,138
-544,525	-118,116	0,031	-0,004
-543,510	45,550	0,046	0,031
-542,496	-61,850	0,072	-0,022
-541,481	-2,866	0,089	0,045
-540,466	60,787	-0,071	0,051
-539,452	-9,243	0,055	-0,027
-538,437	159,820	0,147	0,148
-537,423	-200,000	0,008	0,078
-536,408	-95,782	-0,131	-0,025
-535,393	103,265	-0,075	-0,063
-534,379	-129,928	-0,049	0,005
-533,364	342,767	-0,068	-0,097
-532,350	306,157	-0,036	-0,049
-531,335	-31,280	0,037	-0,015
-530,321	-200,000	0,002	0,049
-529,306	-109,353	0,125	0,019
-528,291	26,934	0,079	0,048
-527,277	-189,072	-0,037	-0,000
-526,262	-75,345	0,056	0,014
-525,248	-200,000	0,041	0,146
-524,233	119,105	0,081	-0,073
-523,218	800,000	-0,051	0,103
-522,204	197,030	0,010	-0,011
-521,189	283,965	0,074	0,096
-520,175	-114,309	-0,081	-0,011
-519,160	-76,132	0,040	-0,010
-518,145	270,684	-0,082	-0,104
-517,131	465,949	0,028	0,045
-516,116	800,000	0,033	0,082
-515,102	-100,571	-0,075	0,013
-514,087	800,000	-0,040	-0,116
-513,072	-200,000	0,013	-0,078
-512,058	59,671	-0,160	-0,114
-511,043	-200,000	0,002	0,071
-510,029	59,152	0,157	-0,112
-509,014	-200,000	0,035	0,140
-507,999	-200,000	-0,019	0,061
-506,985	55,499	-0,088	0,061
-505,970	-104,087	0,048	-0,008
-504,956	-200,000	0,034	-0,134
-503,941	362,874	0,129	0,188
-502,926	-18,768	-0,062	-0,028
-501,912	114,222	0,043	-0,038
-500,897	800,000	-0,059	0,161
-499,883	800,000	0,057	-0,127
-498,868	-64,313	-0,130	-0,038
-497,853	-154,972	-0,032	0,001
-496,839	800,000	0,008	-0,019
-495,824	-27,260	0,099	0,041
-494,810	63,830	0,173	-0,125
-493,795	289,206	-0,029	0,038
-492,781	800,000	0,027	0,060
-491,766	317,529	-0,018	0,024
-490,751	10,910	-0,073	-0,040
-489,737	294,969	0,030	-0,039
-488,722	-155,884	-0,108	0,005
-487,708	56,032	0,110	0,077
-486,693	-200,000	-0,006	0,089
-485,678	352,257	-0,088	-0,126
-484,664	130,726	-0,078	-0,072
-483,649	65,719	0,072	0,053
-482,635	-200,000	-0,010	-0,033
-481,620	98,901	0,148	-0,123
-480,605	800,000	0,017	-0,047
-479,591	163,563	-0,049	0,049
-478,576	-185,237	-0,130	0,001
-477,562	-200,000	-0,039	-0,232
-476,547	419,342	-0,033	-0,050
-475,532	30,969	-0,118	-0,073
-474,518	-200,000	-0,004	0,074
-473,503	-200,000	0,041	0,157
-472,489	-200,000	0,029	0,175
-471,474	800,000	0,025	-0,052
-470,459	-131,416	0,098	0,009
-469,445	603,602	0,046	-0,083
-468,430	-95,965	-0,061	-0,012
-467,416	452,705	-0,048	0,076
-466,401	-200,000	0,021	0,209
-465,386	-200,000	0,066	0,265
-464,372	13,965	0,015	0,008
-463,357	270,281	0,030	-0,038
-462,343	146,623	0,059	-0,057
-461,328	800,000	-0,033	0,088
-460,313	119,758	0,144	0,128
-459,299	80,189	-0,082	-0,063
-458,284	-200,000	0,009	0,103
-457,270	-107,944	0,064	-0,010
-456,255	-144,878	-0,103	-0,007
-455,241	317,905	-0,027	-0,037
-454,226	288,922	-0,071	0,093
-453,211	-30,953	0,026	-0,010
-452,197	-200,000	0,008	0,059
-451,182	-53,350	-0,048	-0,016
-450,168	-200,000	0,005	0,138
-449,153	-78,108	-0,057	-0,014
-448,138	-200,000	0,023	0,085
-447,124	-91,113	-0,042	0,009
-446,109	-196,722	0,183	-0,001
-445,095	167,090	0,073	-0,075
-444,080	-200,000	-0,021	0,127
-443,065	-200,000	0,054	0,190
-442,051	64,018	-0,085	0,061
-441,036	-21,365	-0,085	0,037
-440,022	284,594	-0,121	0,157
-439,007	-100,501	-0,071	-0,012
-437,992	540,217	-0,093	0,161
-436,978	-200,000	0,009	0,077
-435,963	-10,297	0,072	0,034
-434,949	-200,000	0,012	0,089
-433,934	103,480	-0,105	-0,089
-432,919	-106,285	-0,178	-0,028
-431,905	-200,000	0,013	0,081
-430,890	-17,517	-0,063	0,028
-429,876	-80,148	-0,029	-0,007
-428,861	-200,000	0,004	0,038
-427,846	-30,898	-0,044	-0,018
-426,832	294,438	-0,024	-0,031
-425,817	-50,415	0,145	-0,049
-424,803	692,876	-0,067	0,126
-423,788	-68,750	0,055	-0,015
-422,773	800,000	-0,054	0,165
-421,759	661,411	0,073	0,136
-420,744	570,232	0,065	0,115
-419,730	3,153	0,042	-0,022
-418,715	-79,424	0,046	-0,011
-417,701	109,592	-0,110	-0,095
-416,686	679,567	0,039	-0,074
-415,671	-200,000	0,020	-0,129
-414,657	34,131	0,077	0,048
-413,642	566,366	0,027	0,048
-412,628	516,262	-0,085	-0,143
-411,613	9,003	-0,092	-0,050
-410,598	0,344	-0,053	0,027
-409,584	800,000	0,017	0,050
-408,569	-186,909	-0,070	-0,001
-407,555	80,816	0,102	0,079
-406,540	-200,000	0,010	0,178
-405,525	-22,756	-0,122	-0,053
-404,511	158,171	-0,070	-0,070
-403,496	510,541	0,067	-0,112
-402,482	642,037	0,034	0,063
-401,467	800,000	0,025	0,074
-400,452	-3,391	0,092	-0,046
-399,438	186,744	0,055	0,058
-398,423	-200,000	-0,007	-0,085
-397,409	13,418	0,087	0,048
-396,394	-200,000	0,016	0,127
-395,379	534,574	0,035	0,059
-394,365	-200,000	-0,021	0,111
-393,350	-23,383	-0,012	0,005
-392,336	266,489	-0,076	0,096
-391,321	-20,650	-0,049	-0,022
-390,306	-46,370	0,037	-0,013
-389,292	500,951	-0,023	0,038
-388,277	214,022	0,022	-0,025
-387,263	150,536	0,073	-0,071
-386,248	153,644	0,065	0,064
-385,233	800,000	-0,013	0,029
-384,219	645,978	0,060	-0,110
-383,204	119,258	-0,048	-0,042
-382,190	-200,000	-0,001	-0,017
-381,175	177,959	0,065	0,068
-380,160	349,101	0,110	0,156
-379,146	-165,177	0,094	0,003
-378,131	-200,000	0,011	0,134
-377,117	-123,873	-0,089	-0,010
-376,102	754,632	0,051	-0,100
-375,088	514,256	0,057	-0,096
-374,073	123,313	-0,205	-0,184
-373,058	113,518	0,072	-0,062
-372,044	-143,055	0,165	0,011
-371,029	-177,597	-0,037	-0,001
-370,015	-200,000	-0,002	-0,151
-369,000	88,678	0,085	-0,068
-367,985	521,822	0,025	0,042
-366,971	800,000	-0,017	0,046
-365,956	-67,511	0,054	0,015
-364,942	-200,000	0,006	-0,045
-363,927	800,000	0,050	-0,108
-362,912	6,239	-0,131	0,069
-361,898	328,391	-0,007	0,009
-360,883	535,143	0,039	-0,066
-359,869	278,782	0,028	0,036
-358,854	408,271	0,026	-0,039
-357,839	800,000	0,034	0,084
-356,825	379,520	0,110	0,162
-355,810	-65,895	0,117	0,033
-354,796	208,615	-0,099	-0,112
-353,781	244,872	0,048	0,058
-352,766	292,060	-0,063	0,082
-351,752	800,000	0,015	-0,039
-350,737	160,955	-0,084	0,084
-349,723	173,752	0,112	0,116
-348,708	-200,000	0,002	-0,142
-347,693	800,000	0,064	0,171
-346,679	443,000	-0,050	-0,079
-345,664	-200,000	0,019	-0,088
-344,650	734,184	-0,035	0,067
-343,635	518,573	0,116	0,196
-342,620	800,000	-0,016	0,044
-341,606	344,097	-0,051	-0,072
-340,591	-87,023	0,127	-0,027
-339,577	-71,827	-0,102	-0,027
-338,562	-80,806	-0,046	0,011
-337,548	283,184	0,109	-0,140
-336,533	121,740	-0,048	-0,043
-335,518	293,668	0,053	-0,070
-334,504	-9,088	-0,134	0,064
-333,489	152,252	-0,039	-0,038
-332,475	614,310	-0,033	0,060
-331,460	800,000	0,009	0,021
-330,445	294,797	0,054	-0,071
-329,431	103,953	0,054	0,045
-328,416	260,601	-0,068	-0,084
-327,402	800,000	0,042	0,089
-326,387	-200,000	0,037	0,129
-325,372	-200,000	-0,011	0,053
-324,358	57,986	-0,047	-0,033
-323,343	-187,273	-0,053	0,001
-322,329	-119,440	0,093	-0,011
-321,314	525,433	-0,066	0,112
-320,299	433,277	0,065	0,101
-319,285	800,000	0,033	0,089
-318,270	599,017	-0,063	-0,113
-317,256	-17,199	-0,162	-0,073
-316,241	800,000	-0,018	0,054
-315,226	-177,306	-0,021	-0,000
-314,212	-94,536	0,089	-0,017
-313,197	-40,607	-0,127	-0,047
-312,183	340,191	-0,070	0,099
-311,168	-200,000	0,022	0,164
-310,153	173,933	0,061	-0,063
-309,139	104,380	-0,077	-0,065
-308,124	575,729	0,030	-0,052
-307,110	-156,487	0,154	-0,007
-306,095	-15,573	0,073	0,033
-305,080	800,000	-0,061	-0,132
-304,066	-89,170	-0,204	0,043
-303,051	-200,000	0,023	-0,085
-302,037	-200,000	0,003	-0,017
-301,022	-133,217	0,092	0,008
-300,008	114,017	-0,069	0,060
-298,993	-74,575	0,045	0,011
-297,978	800,000	0,050	-0,124
-296,964	-200,000	0,012	-0,123
-295,949	-63,810	-0,157	0,046
-294,935	-200,000	0,014	-0,097
-293,920	-0,055	-0,107	-0,054
-292,905	-200,000	0,008	-0,027
-291,891	-200,000	-0,006	0,145
-290,876	-200,000	-0,005	0,046
-289,862	-200,000	-0,002	0,021
-288,847	323,229	-0,053	-0,073
-287,832	-150,769	-0,022	-0,001
-286,818	-10,988	-0,058	0,027
-285,803	-28,976	0,166	-0,068
-284,789	800,000	0,051	-0,148
-283,774	21,323	-0,022	-0,013
-282,759	178,192	-0,058	-0,061
-281,745	-200,000	0,037	-0,151
-280,730	93,122	-0,043	0,035
-279,716	286,090	-0,032	0,041
-278,701	-126,755	-0,078	-0,008
-277,686	-200,000	-0,057	0,239
-276,672	-134,313	-0,035	-0,003
-275,657	-40,500	-0,048	-0,018
-274,643	421,658	-0,065	0,100
-273,628	34,849	-0,057	0,035
-272,613	800,000	0,015	0,037
-271,599	-200,000	-0,008	0,162
-270,584	-56,366	0,090	0,028
-269,570	40,371	-0,153	-0,098
-268,555	-99,165	0,067	-0,012
-267,540	-53,764	-0,138	-0,045
-266,526	-200,000	0,004	-0,253
-265,511	36,359	0,050	0,032
-264,497	-199,863	-0,073	-0,000
-263,482	556,808	0,003	0,005
-262,467	397,001	-0,074	-0,111
-261,453	324,986	0,110	-0,151
-260,438	135,324	-0,037	0,035
-259,424	-91,260	0,177	-0,036
-258,409	-200,000	0,011	-0,100
-257,395	153,184	0,091	-0,089
-256,380	-19,312	-0,094	0,041
-255,365	376,815	0,087	0,128
-254,351	-107,346	-0,040	-0,006
-253,336	274,507	0,081	-0,102
-252,322	-26,251	0,053	-0,022
-251,307	338,312	-0,085	0,118
-250,292	-76,871	-0,101	-0,025
-249,278	-136,364	0,181	0,015
-248,263	356,178	0,048	0,068
-247,249	346,438	-0,066	0,093
-246,234	-200,000	-0,009	-0,080
-245,219	-53,638	-0,087	-0,028
-244,205	33,738	0,097	-0,060
-243,190	68,871	-0,057	-0,042
-242,176	229,100	0,126	-0,147
-241,161	36,371	0,101	0,063
-240,146	-200,000	0,017	0,084
-239,132	70,259	0,104	0,076
-238,117	-200,000	-0,011	0,100
-237,103	-37,487	-0,110	0,042
-236,088	-200,000	0,019	-0,083
-235,073	-194,173	0,060	0,000
-234,059	-23,486	0,021	0,009
-233,044	-157,136	0,076	-0,003
-232,030	-82,109	-0,089	-0,021
-231,015	-200,000	-0,018	-0,061
-230,000	-159,160	0,075	-0,003
-228,986	-19,331	0,161	0,071
-227,971	-200,000	-0,001	0,053
-226,957	-87,436	0,120	0,026
-225,942	10,670	-0,040	0,021
-224,927	107,268	-0,098	-0,083
-223,913	542,262	-0,061	-0,105
-222,898	800,000	-0,062	-0,137
-221,884	-72,524	-0,049	-0,013
-220,869	219,946	-0,016	0,018
-219,855	685,312	0,057	0,106
-218,840	-45,985	-0,105	-0,037
-217,825	-200,000	0,002	-0,033
-216,811	800,000	-0,048	-0,102
-215,796	163,062	-0,048	-0,048
-214,782	-200,000	-0,004	-0,144
-213,767	-19,995	0,026	0,011
-212,752	146,358	0,065	-0,062
-211,738	187,435	0,031	0,033
-210,723	-200,000	0,020	0,118
-209,709	151,189	-0,114	0,110
-208,694	-200,000	0,016	-0,095
-207,679	-94,679	0,036	-0,007
-206,665	153,478	0,113	0,110
-205,650	43,593	0,125	-0,082
-204,636	-112,080	-0,102	0,014
-203,621	-28,826	0,102	0,042
-202,606	233,079	0,061	-0,071
-201,592	800,000	0,046	-0,108
-200,577	-200,000	0,007	-0,059
-199,563	-47,260	0,060	-0,021
-198,548	-86,897	0,072	0,016
-197,533	-200,000	-0,000	0,067
-196,519	-200,000	0,006	0,101
-195,504	-24,374	-0,125	-0,053
-194,490	-85,223	0,092	0,020
-193,475	-30,921	-0,116	0,047
-192,460	-126,413	-0,088	-0,009
-191,446	-93,562	-0,031	0,006
-190,431	229,283	0,097	0,113
-189,417	9,444	0,109	0,058
-188,402	800,000	0,006	0,019
-187,387	-86,394	-0,099	0,022
-186,373	-107,943	-0,154	0,024
-185,358	-21,053	0,061	0,026
-184,344	-37,509	0,083	-0,031
-183,329	-200,000	-0,006	0,068
-182,315	-200,000	-0,010	0,091
-181,300	591,853	-0,060	0,106
-180,285	-91,803	-0,107	0,021
-179,271	497,312	-0,024	0,039
-178,256	-200,000	0,021	-0,110
-177,242	-200,000	-0,015	0,051
-176,227	800,000	0,059	-0,147
-175,212	-200,000	-0,018	-0,070
-174,198	-173,536	-0,057	0,001
-173,183	800,000	0,069	-0,187
-172,169	-30,803	0,068	0,027
-171,154	-167,138	0,109	0,003
-170,139	-200,000	-0,015	-0,085
-169,125	-200,000	-0,012	0,116
-168,110	-200,000	0,027	-0,106
-167,096	800,000	-0,002	-0,006
-166,081	-200,000	0,004	0,016
-165,066	172,723	-0,216	-0,222
-164,052	800,000	0,044	-0,119
-163,037	-80,814	0,045	-0,011
-162,023	-200,000	0,013	-0,094
-161,008	-200,000	0,024	0,154
-159,993	800,000	-0,027	0,071
-158,979	153,418	0,028	0,027
-157,964	800,000	0,063	-0,125
-156,950	224,969	-0,028	-0,032
-155,935	-111,187	-0,037	0,005
-154,920	-200,000	0,045	0,193
-153,906	201,414	-0,064	0,071
-152,891	68,388	-0,062	0,045
-151,877	473,642	-0,030	-0,048
-150,862	120,850	0,106	-0,094
-149,847	-48,557	-0,054	0,018
-148,833	-200,000	0,007	0,044
-147,818	-200,000	0,002	0,093
-146,804	-31,801	0,116	0,046
-145,789	-171,786	-0,143	0,003
-144,775	-200,000	0,002	0,059
-143,760	-38,590	0,049	0,018
-142,745	-200,000	0,005	0,061
-141,731	800,000	-0,030	-0,074
-140,716	548,375	0,010	0,017
-139,702	-200,000	0,012	-0,092
-138,687	738,797	0,010	-0,019
-137,672	149,335	0,080	-0,077
-136,658	387,195	0,056	-0,082
-135,643	-19,619	0,044	-0,019
-134,629	189,857	-0,057	-0,061
-133,614	-200,000	0,011	-0,220
-132,599	54,873	-0,057	0,039
-131,585	-108,560	0,112	0,017
-130,570	-11,461	0,147	0,069
-129,556	-57,049	-0,095	-0,030
-128,541	62,979	-0,077	-0,055
-127,526	800,000	-0,026	-0,063
-126,512	800,000	0,033	-0,086
-125,497	330,491	-0,109	-0,149
-124,483	800,000	0,040	-0,089
-123,468	354,205	0,033	0,046
-122,453	-65,317	0,077	-0,022
-121,439	750,045	-0,043	-0,083
-120,424	478,706	-0,083	-0,133
-119,410	-127,525	-0,032	0,003
-118,395	-41,858	-0,155	0,056
-117,380	342,115	-0,032	-0,044
-116,366	72,895	-0,071	0,053
-115,351	-116,359	0,101	0,013
-114,337	800,000	-0,012	-0,037
-113,322	-28,992	-0,040	-0,016
-112,307	38,965	0,163	0,103
-111,293	-77,581	0,175	-0,043
-110,278	-200,000	-0,005	0,020
-109,264	-98,475	-0,037	-0,007
-108,249	-35,250	-0,092	0,035
-107,234	800,000	-0,052	-0,122
-106,220	-200,000	-0,002	-0,083
-105,205	-200,000	-0,003	0,016
-104,191	-74,169	0,076	0,019
-103,176	-167,821	0,158	0,004
-102,162	-200,000	0,017	0,127
-101,147	48,676	-0,169	0,112
-100,132	-200,000	0,017	-0,057
-99,118	-200,000	0,004	-0,046
-98,103	800,000	0,068	0,156
-97,089	800,000	0,026	0,063
-96,074	800,000	-0,002	-0,004
-95,059	-200,000	0,010	0,077
-94,045	461,717	-0,021	-0,033
-93,030	83,590	-0,136	-0,105
-92,016	800,000	-0,034	-0,080
-91,001	670,297	0,078	-0,145
-89,986	-200,000	-0,014	0,049
-88,972	-200,000	0,012	-0,046
-87,957	39,111	-0,152	0,096
-86,943	259,652	0,049	-0,060
-85,928	-22,392	-0,109	0,047
-84,913	-33,610	-0,059	0,023
-83,899	-200,000	0,018	-0,093
-82,884	538,745	0,024	-0,041
-81,870	113,282	0,106	0,091
-80,855	-81,112	-0,072	-0,017
-79,840	150,438	0,059	-0,057
-78,826	405,231	0,015	0,023
-77,811	800,000	-0,020	-0,061
-76,797	800,000	-0,024	0,049
-75,782	-29,056	0,162	-0,066
-74,767	-200,000	-0,001	0,136
-73,753	101,645	-0,188	-0,155
-72,738	-200,000	-0,006	0,049
-71,724	-200,000	0,014	-0,107
-70,709	800,000	0,050	-0,117
-69,694	-55,841	-0,068	-0,022
-68,680	795,270	0,046	0,091
-67,665	-200,000	0,006	0,060
-66,651	-42,390	0,092	0,033
-65,636	2,757	0,119	0,061
-64,622	-10,734	-0,101	-0,047
-63,607	-93,975	-0,201	-0,039
-62,592	-200,000	-0,001	0,023
-61,578	274,293	0,060	0,075
-60,563	-200,000	0,010	0,081
-59,549	23,714	-0,122	0,071
-58,534	-54,128	-1,402	-0,449
-57,519	402,252	-1,527	-2,282
-56,505	-200,000	-0,398	-4,624
-55,490	84,739	0,869	0,674
-54,476	800,000	4,773	11,307
-53,461	-200,000	17,706	279,748
-52,446	800,000	720,091	2213,662
-51,432	558,104	1634,025	2805,231
-50,417	80,905	1657,475	1266,551
-49,403	23,828	1531,665	892,563
-48,388	17,832	1455,112	819,052
-47,373	18,295	1444,469	815,247
-46,359	17,884	1435,301	808,083
-45,344	16,160	1430,622	797,226
-44,330	16,056	1428,723	795,643
-43,315	16,112	1426,806	794,807
-42,300	16,135	1425,316	794,054
-41,286	16,148	1424,061	793,390
-40,271	16,141	1422,909	792,679
-39,257	16,125	1421,484	791,780
-38,242	16,123	1420,215	791,032
-37,227	16,163	1418,923	790,470
-36,213	16,110	1417,752	789,536
-35,198	16,106	1416,634	788,866
-34,184	16,132	1415,644	788,406
-33,169	16,083	1414,503	787,505
-32,154	16,147	1413,378	787,149
-31,140	16,120	1412,076	786,269
-30,125	16,159	1410,796	785,705
-29,111	16,190	1409,575	785,139
-28,096	16,115	1408,603	784,217
-27,082	16,080	1407,251	783,271
-26,067	16,039	1406,513	782,635
-25,052	16,038	1405,448	782,007
-24,038	16,019	1404,511	781,364
-23,023	16,027	1403,503	780,810
-22,009	16,058	1402,197	780,197
-20,994	16,012	1401,462	779,543
-19,979	15,974	1400,448	778,773
-18,965	15,954	1399,617	778,188
-17,950	15,980	1398,622	777,723
-16,936	15,966	1397,795	777,168
-15,921	15,950	1396,360	776,262
-14,906	15,925	1395,465	775,622
-13,892	15,977	1394,456	775,269
-12,877	15,943	1393,611	774,610
-11,863	15,987	1392,666	774,260
-10,848	15,956	1391,788	773,596
-9,833	15,890	1390,947	772,793
-8,819	15,872	1389,939	772,122
-7,804	15,844	1388,846	771,355
-6,790	15,887	1387,930	771,014
-5,775	15,833	1386,847	770,132
-4,760	15,848	1386,196	769,808
-3,746	15,869	1385,165	769,304
-2,731	15,848	1384,428	768,767
-1,717	15,841	1383,594	768,240
-0,702	15,822	1381,638	767,037
0,313	19,641	1302,590	740,747
1,327	36,046	706,254	439,614
2,342	55,204	125,050	85,520
3,356	4,289	16,555	8,564
4,371	16,447	3,024	1,687
5,386	-1,722	0,553	0,275
6,400	492,262	-0,070	0,114
7,415	215,352	-0,270	-0,304
8,429	87,464	-0,205	-0,160
9,444	21,119	-0,392	-0,225
10,459	124,145	-0,319	-0,283
11,473	37,130	-0,417	-0,261
12,488	320,690	-0,163	-0,220
13,502	-24,933	-0,446	-0,187
14,517	5,270	-0,337	-0,175
15,531	426,785	-0,323	-0,495
16,546	143,988	-0,336	-0,317
17,561	46,369	-0,378	-0,248
18,575	73,874	-0,222	-0,164
19,590	-48,558	-0,266	-0,090
20,604	-8,511	-0,285	-0,135
21,619	12,553	-0,410	-0,223
22,634	141,598	-0,305	-0,285
23,648	181,129	-0,326	-0,339
24,663	105,838	-0,325	-0,272
25,677	40,209	-0,487	-0,309
26,692	77,275	-0,382	-0,287
27,707	169,381	-0,298	-0,301
28,721	99,258	-0,426	-0,348
29,736	46,233	-0,369	-0,241
30,750	-24,449	-0,398	-0,167
31,765	68,720	-0,411	-0,297
32,780	90,800	-0,547	-0,433
33,794	-0,785	-0,329	-0,164
34,809	231,010	-0,280	-0,324
35,823	106,021	-0,264	-0,221
36,838	112,225	-0,314	-0,268
37,853	656,433	-0,225	-0,411
38,867	8,352	-0,399	-0,211
39,882	59,963	-0,452	-0,315
40,896	65,447	-0,330	-0,236
41,911	51,855	-0,257	-0,172
42,926	67,293	-0,358	-0,257
43,940	302,112	-0,248	-0,324
44,955	-16,349	-0,374	-0,167
45,969	81,616	-0,429	-0,327
46,984	112,908	-0,264	-0,225
47,999	549,778	-0,154	-0,261
49,013	255,223	-0,267	-0,323
50,028	121,192	-0,314	-0,276
51,042	-0,502	-0,367	-0,183
52,057	-44,297	-0,416	-0,146
53,071	170,894	-0,307	-0,311
54,086	-6,920	-0,242	-0,116
55,101	106,077	-0,211	-0,176
56,115	297,641	-0,285	-0,370
57,130	-12,334	-0,448	-0,206
58,144	5,930	-0,412	-0,214
59,159	124,974	-0,251	-0,223
60,174	183,247	-0,360	-0,375
61,188	15,643	-0,346	-0,191
62,203	160,184	-0,367	-0,361
63,217	115,269	-0,261	-0,225
64,232	48,611	-0,395	-0,260
65,247	216,501	-0,304	-0,342
66,261	96,728	-0,373	-0,300
67,276	24,790	-0,422	-0,246
68,290	-3,831	-0,244	-0,119
69,305	86,291	-0,282	-0,219
70,320	90,691	-0,196	-0,154
71,334	118,686	-0,364	-0,316
72,349	35,394	-0,334	-0,206
73,363	34,050	-0,327	-0,200
74,378	164,915	-0,353	-0,351
75,393	94,361	-0,366	-0,292
76,407	-42,827	-0,298	-0,106
77,422	84,262	-0,328	-0,252
78,436	22,200	-0,326	-0,187
79,451	31,147	-0,488	-0,294
80,466	192,396	-0,317	-0,337
81,480	17,418	-0,276	-0,154
82,495	105,592	-0,255	-0,212
83,509	33,083	-0,353	-0,215
84,524	-181,213	-0,257	-0,003
85,539	-52,063	-0,266	-0,086
86,553	-55,405	-0,193	-0,061
87,568	-8,043	-0,381	-0,180
88,582	133,792	-0,200	-0,182
89,597	148,648	-0,323	-0,307
90,611	173,334	-0,320	-0,325
91,626	-89,116	-0,322	-0,066
92,641	338,613	-0,199	-0,273
93,655	-68,498	-0,395	-0,107
94,670	-115,324	-0,338	-0,044
95,684	37,106	-0,440	-0,273
96,699	99,742	-0,311	-0,253
97,714	164,945	-0,202	-0,201
98,728	-3,682	-0,289	-0,141
99,743	-24,308	-0,338	-0,141
100,757	94,444	-0,195	-0,156
101,772	260,967	-0,163	-0,198
102,787	-26,515	-0,326	-0,134
103,801	3,460	-0,326	-0,166
104,816	-33,464	-0,342	-0,132
105,830	177,937	-0,292	-0,299
106,845	90,774	-0,249	-0,196
107,860	95,494	-0,325	-0,260
108,874	207,065	-0,252	-0,276
109,889	264,386	-0,330	-0,404
110,903	62,971	-0,342	-0,240
111,918	14,914	-0,347	-0,190
112,933	-13,563	-0,178	-0,080
113,947	-30,779	-0,296	-0,117
114,962	398,457	-0,180	-0,265
115,976	28,428	-0,319	-0,189
116,991	205,309	-0,290	-0,316
118,006	84,615	-0,314	-0,241
119,020	79,164	-0,265	-0,199
120,035	295,156	-0,149	-0,192
121,049	-45,186	-0,292	-0,101
122,064	-156,688	-0,258	-0,011
123,079	71,497	-0,281	-0,204
124,093	113,406	-0,197	-0,167
125,108	129,361	-0,169	-0,151
126,122	153,761	-0,284	-0,273
127,137	279,221	-0,204	-0,256
128,151	51,534	-0,230	-0,153
129,166	719,238	-0,103	-0,192
130,181	157,668	-0,177	-0,172
131,195	26,079	-0,345	-0,201
132,210	15,728	-0,301	-0,165
133,224	563,504	-0,177	-0,301
134,239	32,052	-0,218	-0,132
135,254	-200,000	-0,041	-0,138
136,268	96,519	-0,058	-0,047
137,283	3,904	-0,227	-0,116
138,297	80,010	-0,335	-0,252
139,312	253,540	-0,275	-0,329
140,327	63,585	-0,257	-0,181
141,341	-29,807	-0,222	-0,088
142,356	196,958	-0,154	-0,164
143,370	24,084	-0,330	-0,190
144,385	-31,670	-0,291	-0,114
145,400	-11,939	-0,211	-0,097
146,414	800,000	-0,112	-0,288
147,429	100,995	-0,240	-0,195
148,443	11,005	-0,222	-0,118
149,458	141,314	-0,257	-0,238
150,473	-40,679	-0,261	-0,094
151,487	195,530	-0,135	-0,143
152,502	216,029	-0,127	-0,142
153,516	177,896	-0,181	-0,185
154,531	4,874	-0,242	-0,124
155,546	275,253	-0,166	-0,207
156,560	41,415	-0,299	-0,189
157,575	385,450	-0,177	-0,256
158,589	31,876	-0,252	-0,151
159,604	10,205	-0,328	-0,174
160,619	57,098	-0,263	-0,179
161,633	127,393	-0,194	-0,172
162,648	193,041	-0,201	-0,213
163,662	139,034	-0,130	-0,120
164,677	178,818	-0,261	-0,266
165,692	90,357	-0,283	-0,221
166,706	317,794	-0,101	-0,134
167,721	447,528	-0,262	-0,405
168,735	75,360	-0,417	-0,307
169,750	61,847	-0,157	-0,109
170,764	109,139	-0,175	-0,146
171,779	46,820	-0,180	-0,116
172,794	58,767	-0,136	-0,093
173,808	25,356	-0,212	-0,123
174,823	101,023	-0,267	-0,217
175,837	152,315	-0,209	-0,199
176,852	-8,047	-0,259	-0,121
177,867	-50,886	-0,103	-0,034
178,881	98,180	-0,177	-0,142
179,896	93,549	-0,180	-0,142
180,910	126,662	-0,223	-0,197
181,925	-119,905	-0,140	-0,017
182,940	116,593	-0,262	-0,224
183,954	195,921	-0,151	-0,161
184,969	128,466	-0,277	-0,246
185,983	89,029	-0,222	-0,172
186,998	-200,000	-0,047	-0,248
188,013	-99,478	-0,157	-0,027
189,027	103,086	-0,177	-0,144
190,042	229,929	-0,200	-0,229
191,056	106,291	-0,311	-0,257
192,071	291,960	-0,256	-0,326
193,086	-28,943	-0,172	-0,068
194,100	513,079	-0,100	-0,163
195,115	128,518	-0,171	-0,152
196,129	-50,295	-0,281	-0,092
197,144	157,988	-0,243	-0,235
198,159	76,730	-0,200	-0,148
199,173	93,012	-0,135	-0,106
200,188	380,808	-0,204	-0,292
201,202	-59,998	-0,267	-0,079
202,217	-103,535	-0,149	-0,024
203,232	77,030	-0,301	-0,222
204,246	24,252	-0,169	-0,097
205,261	-27,635	-0,202	-0,081
206,275	114,172	-0,172	-0,145
207,290	-36,605	-0,277	-0,103
208,304	29,585	-0,228	-0,134
209,319	800,000	-0,073	-0,171
210,334	138,664	-0,205	-0,188
211,348	170,057	-0,194	-0,193
212,363	179,873	-0,229	-0,234
213,377	275,489	-0,108	-0,133
214,392	177,269	-0,138	-0,140
215,407	-82,172	-0,167	-0,037
216,421	-106,966	-0,261	-0,040
217,436	400,692	-0,064	-0,094
218,450	366,865	-0,126	-0,177
219,465	81,705	-0,143	-0,108
220,480	1,602	-0,285	-0,142
221,494	-86,025	-0,191	-0,041
222,509	297,860	-0,147	-0,188
223,523	-200,000	-0,086	-0,294
224,538	212,425	-0,157	-0,172
225,553	93,715	-0,198	-0,156
226,567	15,023	-0,338	-0,183
227,582	71,485	-0,200	-0,144
228,596	-48,442	-0,218	-0,072
229,611	320,010	-0,098	-0,130
230,626	230,391	-0,073	-0,083
231,640	326,161	-0,101	-0,135
232,655	61,370	-0,243	-0,168
233,669	49,561	-0,168	-0,110
234,684	136,345	-0,221	-0,200
235,699	4,882	-0,289	-0,147
236,713	-61,234	-0,209	-0,061
237,728	477,291	-0,156	-0,245
238,742	-2,325	-0,219	-0,106
239,757	800,000	-0,132	-0,290
240,772	-31,442	-0,120	-0,046
241,786	4,027	-0,266	-0,134
242,801	-8,993	-0,198	-0,091
243,815	146,679	-0,081	-0,075
244,830	8,555	-0,110	-0,057
245,844	456,091	-0,131	-0,202
246,859	505,980	-0,175	-0,281
247,874	288,227	-0,185	-0,232
248,888	1,723	-0,132	-0,066
249,903	-14,954	-0,250	-0,111
250,917	294,626	-0,042	-0,053
251,932	33,348	-0,186	-0,112
252,947	231,739	-0,141	-0,161
253,961	159,384	-0,109	-0,105
254,976	563,857	-0,129	-0,218
255,990	-200,000	-0,024	-0,081
257,005	-200,000	-0,046	-0,155
258,020	96,253	-0,098	-0,077
259,034	-200,000	-0,054	-0,181
260,049	364,778	-0,097	-0,135
261,063	-154,946	-0,132	0,006
262,078	800,000	-0,103	-0,309
263,093	-35,291	-0,302	-0,113
264,107	90,019	-0,130	-0,100
265,122	26,485	-0,213	-0,123
266,136	-32,707	-0,168	-0,064
267,151	152,579	-0,173	-0,163
268,166	348,206	-0,126	-0,172
269,180	169,574	-0,215	-0,213
270,195	800,000	-0,157	-0,316
271,209	800,000	-0,110	-0,250
272,224	-59,293	-0,193	-0,057
273,239	-200,000	-0,023	-0,188
274,253	194,951	-0,085	0,089
275,268	-114,841	-0,211	-0,027
276,282	148,030	-0,247	-0,230
277,297	96,438	-0,173	-0,136
278,312	-20,698	-0,341	-0,144
279,326	-64,064	-0,088	-0,025
280,341	-200,000	-0,060	-0,197
281,355	420,857	-0,046	-0,069
282,370	-46,419	-0,283	-0,096
283,384	-73,089	-0,136	-0,034
284,399	454,521	-0,181	-0,278
285,414	256,545	-0,170	-0,202
286,428	111,042	-0,218	-0,182
287,443	-104,523	-0,172	-0,027
288,457	113,299	-0,170	-0,142
289,472	119,469	-0,127	-0,109
290,487	-19,791	-0,100	-0,042
291,501	378,711	-0,079	-0,111
292,516	-26,931	-0,178	-0,071
293,530	34,154	-0,173	-0,104
294,545	192,752	-0,200	-0,209
295,560	-13,745	-0,154	-0,069
296,574	1,583	-0,181	-0,090
297,589	-60,584	-0,187	-0,054
298,603	85,892	-0,198	-0,151
299,618	800,000	-0,075	-0,170
300,633	-70,683	-0,211	-0,055
301,647	118,538	-0,094	-0,080
302,662	106,873	-0,171	-0,140
303,676	-200,000	-0,058	-0,189
304,691	-154,490	-0,114	-0,005
305,706	131,071	-0,185	-0,164
306,720	257,481	-0,206	-0,245
307,735	613,567	-0,070	-0,122
308,749	-58,581	-0,105	0,031
309,764	-1,402	-0,112	-0,054
310,779	-139,165	-0,062	0,005
311,793	619,113	-0,154	-0,267
312,808	170,321	-0,236	-0,233
313,822	2,501	-0,121	-0,060
314,837	-83,873	-0,188	-0,041
315,852	103,607	-0,236	-0,191
316,866	678,232	-0,050	-0,090
317,881	36,781	-0,120	-0,073
318,895	232,104	-0,068	-0,076
319,910	243,778	-0,107	-0,124
320,925	-65,468	-0,225	-0,062
321,939	134,688	-0,236	-0,211
322,954	-23,475	-0,083	-0,034
323,968	-200,000	-0,036	-0,123
324,983	296,996	-0,053	-0,067
325,997	164,885	-0,066	-0,065
327,012	17,121	-0,195	-0,106
328,027	7,151	-0,187	-0,096
329,041	11,771	-0,178	-0,094
330,056	305,776	-0,188	-0,241
331,070	-200,000	-0,064	-0,198
332,085	-28,420	-0,094	-0,037
333,100	66,762	-0,115	-0,081
334,114	557,770	-0,109	-0,182
335,129	414,443	-0,160	-0,234
336,143	-24,925	-0,146	0,059
337,158	-57,967	-0,142	-0,042
338,173	-96,963	-0,087	-0,015
339,187	-184,199	-0,125	-0,001
340,202	-180,687	-0,191	-0,003
341,216	377,093	-0,040	-0,057
342,231	-9,411	-0,173	-0,079
343,246	-67,655	-0,161	-0,043
344,260	101,129	-0,173	-0,139
345,275	-90,957	-0,146	0,029
346,289	-95,270	-0,041	-0,008
347,304	59,215	-0,110	-0,074
348,319	145,897	-0,110	-0,101
349,333	117,934	-0,159	-0,135
350,348	86,280	-0,230	-0,174
351,362	8,557	-0,210	-0,108
352,377	-200,000	-0,026	-0,128
353,392	-76,213	-0,172	0,041
354,406	-80,699	-0,207	-0,047
355,421	209,357	1313,984	1415,868
356,435	161,123	1474,676	1416,402
